# Version 2.1 - nm, norm@500 to 1, cut digits, bergeron_He_12000_70.dat_12000
# Wavelength(nm)  Flambda(ergs/cm^s/s/nm)
300.00 2.604549
300.10 2.60353
300.20 2.602501
300.30 2.601472
300.40 2.600443
300.50 2.599414
300.60 2.598386
300.70 2.597358
300.80 2.596332
300.90 2.595306
301.00 2.594281
301.10 2.593257
301.20 2.592234
301.30 2.591212
301.40 2.59019
301.50 2.589169
301.60 2.588149
301.70 2.587129
301.80 2.586111
301.90 2.585093
302.00 2.584076
302.10 2.583059
302.20 2.582042
302.30 2.581027
302.40 2.580012
302.50 2.578998
302.60 2.577985
302.70 2.576972
302.80 2.575961
302.90 2.57495
303.00 2.573939
303.10 2.57293
303.20 2.571921
303.30 2.570911
303.40 2.569875
303.50 2.56884
303.60 2.567805
303.70 2.566772
303.80 2.565739
303.90 2.564707
304.00 2.563676
304.10 2.562645
304.20 2.561616
304.30 2.560587
304.40 2.559559
304.50 2.558532
304.60 2.557483
304.70 2.556432
304.80 2.555382
304.90 2.554333
305.00 2.553285
305.10 2.552237
305.20 2.55119
305.30 2.550145
305.40 2.5491
305.50 2.548055
305.60 2.547012
305.70 2.545969
305.80 2.544928
305.90 2.543887
306.00 2.542847
306.10 2.541807
306.20 2.540769
306.30 2.539731
306.40 2.538688
306.50 2.537643
306.60 2.536599
306.70 2.535557
306.80 2.534514
306.90 2.533473
307.00 2.532433
307.10 2.531393
307.20 2.530354
307.30 2.529316
307.40 2.528279
307.50 2.527243
307.60 2.526207
307.70 2.525172
307.80 2.524138
307.90 2.523105
308.00 2.522073
308.10 2.521041
308.20 2.520011
308.30 2.518981
308.40 2.517952
308.50 2.516923
308.60 2.515896
308.70 2.514869
308.80 2.513839
308.90 2.512798
309.00 2.511779
309.10 2.51076
309.20 2.509743
309.30 2.508726
309.40 2.507705
309.50 2.506656
309.60 2.505607
309.70 2.50456
309.80 2.503513
309.90 2.502467
310.00 2.501421
310.10 2.500377
310.20 2.499333
310.30 2.498291
310.40 2.497232
310.50 2.496157
310.60 2.495083
310.70 2.49401
310.80 2.492937
310.90 2.491866
311.00 2.490848
311.10 2.48983
311.20 2.488814
311.30 2.487792
311.40 2.486756
311.50 2.48572
311.60 2.484686
311.70 2.483652
311.80 2.482618
311.90 2.481586
312.00 2.480555
312.10 2.479524
312.20 2.478382
312.30 2.477277
312.40 2.476292
312.50 2.475185
312.60 2.474183
312.70 2.473181
312.80 2.472181
312.90 2.471148
313.00 2.47008
313.10 2.469013
313.20 2.467947
313.30 2.466878
313.40 2.465798
313.50 2.464719
313.60 2.46364
313.70 2.462563
313.80 2.461486
313.90 2.46041
314.00 2.459335
314.10 2.458231
314.20 2.457127
314.30 2.456024
314.40 2.454922
314.50 2.453821
314.60 2.452721
314.70 2.451622
314.80 2.450523
314.90 2.449434
315.00 2.448359
315.10 2.447219
315.20 2.44608
315.30 2.444941
315.40 2.443804
315.50 2.442668
315.60 2.441533
315.70 2.44034
315.80 2.439148
315.90 2.437956
316.00 2.436766
316.10 2.435225
316.20 2.433685
316.30 2.432674
316.40 2.431664
316.50 2.429776
316.60 2.427188
316.70 2.426006
316.80 2.424826
316.90 2.423646
317.00 2.422468
317.10 2.42129
317.20 2.420114
317.30 2.419192
317.40 2.41805
317.50 2.416281
317.60 2.414513
317.70 2.412748
317.80 2.410984
317.90 2.407863
318.00 2.403311
318.10 2.394666
318.20 2.386031
318.30 2.377407
318.40 2.360621
318.50 2.320607
318.60 2.265851
318.70 2.074927
318.80 1.816921
318.90 2.150112
319.00 2.267194
319.10 2.314707
319.20 2.352251
319.30 2.36156
319.40 2.370856
319.50 2.380141
319.60 2.385994
319.70 2.387236
319.80 2.388476
319.90 2.389713
320.00 2.3903
320.10 2.390181
320.20 2.390054
320.30 2.389524
320.40 2.389165
320.50 2.3886
320.60 2.387884
320.70 2.38708
320.80 2.386276
320.90 2.385473
321.00 2.384671
321.10 2.383869
321.20 2.382878
321.30 2.381926
321.40 2.380975
321.50 2.380024
321.60 2.379074
321.70 2.378125
321.80 2.377254
321.90 2.376466
322.00 2.375254
322.10 2.374285
322.20 2.373318
322.30 2.372352
322.40 2.371386
322.50 2.370421
322.60 2.369456
322.70 2.368493
322.80 2.367405
322.90 2.366389
323.00 2.365373
323.10 2.364359
323.20 2.363345
323.30 2.362332
323.40 2.36132
323.50 2.360308
323.60 2.359298
323.70 2.358288
323.80 2.357279
323.90 2.356271
324.00 2.355265
324.10 2.35426
324.20 2.353256
324.30 2.352248
324.40 2.351217
324.50 2.350178
324.60 2.34914
324.70 2.348103
324.80 2.347066
324.90 2.34603
325.00 2.344995
325.10 2.343961
325.20 2.342909
325.30 2.341816
325.40 2.340725
325.50 2.339666
325.60 2.338648
325.70 2.33763
325.80 2.336613
325.90 2.335623
326.00 2.334661
326.10 2.3337
326.20 2.33274
326.30 2.331727
326.40 2.330561
326.50 2.329543
326.60 2.328526
326.70 2.327509
326.80 2.326494
326.90 2.325479
327.00 2.324465
327.10 2.323452
327.20 2.32244
327.30 2.321429
327.40 2.320418
327.50 2.319408
327.60 2.318399
327.70 2.317391
327.80 2.316384
327.90 2.315335
328.00 2.314257
328.10 2.313199
328.20 2.312141
328.30 2.311085
328.40 2.31003
328.50 2.309063
328.60 2.308117
328.70 2.307172
328.80 2.306208
328.90 2.305192
329.00 2.304177
329.10 2.303162
329.20 2.302148
329.30 2.301135
329.40 2.300123
329.50 2.299111
329.60 2.298101
329.70 2.297091
329.80 2.296082
329.90 2.295074
330.00 2.29404
330.10 2.292976
330.20 2.291913
330.30 2.290851
330.40 2.289816
330.50 2.28881
330.60 2.287805
330.70 2.286802
330.80 2.285798
330.90 2.284796
331.00 2.283795
331.10 2.282794
331.20 2.281794
331.30 2.280795
331.40 2.279796
331.50 2.278745
331.60 2.277628
331.70 2.276512
331.80 2.275491
331.90 2.274475
332.00 2.27346
332.10 2.272445
332.20 2.271432
332.30 2.270419
332.40 2.269407
332.50 2.268395
332.60 2.267385
332.70 2.266375
332.80 2.265367
332.90 2.264359
333.00 2.263352
333.10 2.262301
333.20 2.261197
333.30 2.260094
333.40 2.258992
333.50 2.25789
333.60 2.25679
333.70 2.255691
333.80 2.254592
333.90 2.253495
334.00 2.252398
334.10 2.251236
334.20 2.249994
334.30 2.248753
334.40 2.247513
334.50 2.246275
334.60 2.245037
334.70 2.243617
334.80 2.241902
334.90 2.240084
335.00 2.238268
335.10 2.236024
335.20 2.233594
335.30 2.230954
335.40 2.228059
335.50 2.228217
335.60 2.229507
335.70 2.229859
335.80 2.230092
335.90 2.230009
336.00 2.22954
336.10 2.22907
336.20 2.228601
336.30 2.227957
336.40 2.2271
336.50 2.226243
336.60 2.225386
336.70 2.224531
336.80 2.223675
336.90 2.222784
337.00 2.221849
337.10 2.220915
337.20 2.219981
337.30 2.21904
337.40 2.218088
337.50 2.217137
337.60 2.216186
337.70 2.215237
337.80 2.214288
337.90 2.213311
338.00 2.2123
338.10 2.21129
338.20 2.210281
338.30 2.209273
338.40 2.208269
338.50 2.207276
338.60 2.206284
338.70 2.205292
338.80 2.204301
338.90 2.203312
339.00 2.202322
339.10 2.201334
339.20 2.200346
339.30 2.199361
339.40 2.198377
339.50 2.197369
339.60 2.196333
339.70 2.195297
339.80 2.194263
339.90 2.193229
340.00 2.192196
340.10 2.191164
340.20 2.190132
340.30 2.189102
340.40 2.188072
340.50 2.187044
340.60 2.186016
340.70 2.184988
340.80 2.183984
340.90 2.183012
341.00 2.182021
341.10 2.181007
341.20 2.179993
341.30 2.17898
341.40 2.177968
341.50 2.176957
341.60 2.175947
341.70 2.174937
341.80 2.173906
341.90 2.172847
342.00 2.171789
342.10 2.170732
342.20 2.169633
342.30 2.168539
342.40 2.167482
342.50 2.166418
342.60 2.165355
342.70 2.164293
342.80 2.163231
342.90 2.162171
343.00 2.161054
343.10 2.159869
343.20 2.158684
343.30 2.157501
343.40 2.156206
343.50 2.154752
343.60 2.153299
343.70 2.151848
343.80 2.150397
343.90 2.148949
344.00 2.146942
344.10 2.144133
344.20 2.141327
344.30 2.138523
344.40 2.134597
344.50 2.129056
344.60 2.122837
344.70 2.114648
344.80 2.116998
344.90 2.124171
345.00 2.12767
345.10 2.129837
345.20 2.131304
345.30 2.131766
345.40 2.132227
345.50 2.132436
345.60 2.132133
345.70 2.131538
345.80 2.130943
345.90 2.130349
346.00 2.129755
346.10 2.129161
346.20 2.128428
346.30 2.127492
346.40 2.126557
346.50 2.125624
346.60 2.12469
346.70 2.123758
346.80 2.122826
346.90 2.121895
347.00 2.120964
347.10 2.120035
347.20 2.119084
347.30 2.118103
347.40 2.117123
347.50 2.116144
347.60 2.115165
347.70 2.114187
347.80 2.11321
347.90 2.112233
348.00 2.111258
348.10 2.110283
348.20 2.109309
348.30 2.108336
348.40 2.107363
348.50 2.106392
348.60 2.105421
348.70 2.104433
348.80 2.10344
348.90 2.102447
349.00 2.101454
349.10 2.100462
349.20 2.099471
349.30 2.098481
349.40 2.097491
349.50 2.096503
349.60 2.095515
349.70 2.094528
349.80 2.093541
349.90 2.092556
350.00 2.091571
350.10 2.090587
350.20 2.089604
350.30 2.08862
350.40 2.087636
350.50 2.086652
350.60 2.08567
350.70 2.084688
350.80 2.083706
350.90 2.082726
351.00 2.081746
351.10 2.080768
351.20 2.079789
351.30 2.078812
351.40 2.07783
351.50 2.076839
351.60 2.075849
351.70 2.074859
351.80 2.073871
351.90 2.072883
352.00 2.071895
352.10 2.070909
352.20 2.069924
352.30 2.068931
352.40 2.067928
352.50 2.066926
352.60 2.065925
352.70 2.064924
352.80 2.063924
352.90 2.062925
353.00 2.061927
353.10 2.060929
353.20 2.059933
353.30 2.058937
353.40 2.057942
353.50 2.056964
353.60 2.055991
353.70 2.055019
353.80 2.054047
353.90 2.053076
354.00 2.052105
354.10 2.051134
354.20 2.050164
354.30 2.049195
354.40 2.048227
354.50 2.047259
354.60 2.046293
354.70 2.045327
354.80 2.044362
354.90 2.043401
355.00 2.04244
355.10 2.041479
355.20 2.04052
355.30 2.039566
355.40 2.038612
355.50 2.037659
355.60 2.036707
355.70 2.035787
355.80 2.034882
355.90 2.033891
356.00 2.032918
356.10 2.031988
356.20 2.031059
356.30 2.03013
356.40 2.029202
356.50 2.028275
356.60 2.027348
356.70 2.026423
356.80 2.025498
356.90 2.024573
357.00 2.02365
357.10 2.022727
357.20 2.021805
357.30 2.020883
357.40 2.019976
357.50 2.019092
357.60 2.018209
357.70 2.017326
357.80 2.016449
357.90 2.015572
358.00 2.014643
358.10 2.013702
358.20 2.012762
358.30 2.011823
358.40 2.010884
358.50 2.009946
358.60 2.009009
358.70 2.008072
358.80 2.007137
358.90 2.006202
359.00 2.00529
359.10 2.004418
359.20 2.00353
359.30 2.002532
359.40 2.001535
359.50 2.000523
359.60 1.999507
359.70 1.998493
359.80 1.997382
359.90 1.996273
360.00 1.995036
360.10 1.993574
360.20 1.992114
360.30 1.990654
360.40 1.989196
360.50 1.98774
360.60 1.984676
360.70 1.980396
360.80 1.97612
360.90 1.971848
361.00 1.965944
361.10 1.95296
361.20 1.936314
361.30 1.907512
361.40 1.917847
361.50 1.947599
361.60 1.957747
361.70 1.961509
361.80 1.964583
361.90 1.966438
362.00 1.968291
362.10 1.968836
362.20 1.968648
362.30 1.967738
362.40 1.966828
362.50 1.96592
362.60 1.965012
362.70 1.963369
362.80 1.961543
362.90 1.958999
363.00 1.956457
363.10 1.953192
363.20 1.949923
363.30 1.946009
363.40 1.943005
363.50 1.946001
363.60 1.948526
363.70 1.950191
363.80 1.951307
363.90 1.951754
364.00 1.9522
364.10 1.952646
364.20 1.953091
364.30 1.953265
364.40 1.953372
364.50 1.953368
364.60 1.953089
364.70 1.95281
364.80 1.952531
364.90 1.951857
365.00 1.951184
365.10 1.950116
365.20 1.948784
365.30 1.948113
365.40 1.94797
365.50 1.947695
365.60 1.94742
365.70 1.946953
365.80 1.946487
365.90 1.945893
366.00 1.945268
366.10 1.944593
366.20 1.943918
366.30 1.943244
366.40 1.94257
366.50 1.941797
366.60 1.941002
366.70 1.940142
366.80 1.939283
366.90 1.93842
367.00 1.937552
367.10 1.936685
367.20 1.935818
367.30 1.934952
367.40 1.934086
367.50 1.933071
367.60 1.93202
367.70 1.930969
367.80 1.929919
367.90 1.92887
368.00 1.927822
368.10 1.926518
368.20 1.925098
368.30 1.923678
368.40 1.92226
368.50 1.920843
368.60 1.919427
368.70 1.918013
368.80 1.9166
368.90 1.915155
369.00 1.913225
369.10 1.911189
369.20 1.90911
369.30 1.906355
369.40 1.903603
369.50 1.900853
369.60 1.897003
369.70 1.893157
369.80 1.887351
369.90 1.881532
370.00 1.875718
370.10 1.869064
370.20 1.85882
370.30 1.848571
370.40 1.835167
370.50 1.82845
370.60 1.84034
370.70 1.852948
370.80 1.860995
370.90 1.869034
371.00 1.872317
371.10 1.875548
371.20 1.877462
371.30 1.879374
371.40 1.880931
371.50 1.882009
371.60 1.883086
371.70 1.884161
371.80 1.885235
371.90 1.886307
372.00 1.886586
372.10 1.886844
372.20 1.886551
372.30 1.886257
372.40 1.885964
372.50 1.88567
372.60 1.885377
372.70 1.885083
372.80 1.88445
372.90 1.883818
373.00 1.882686
373.10 1.88155
373.20 1.879277
373.30 1.877007
373.40 1.872213
373.50 1.87159
373.60 1.872732
373.70 1.874
373.80 1.874643
373.90 1.875018
374.00 1.874771
374.10 1.874523
374.20 1.874276
374.30 1.874029
374.40 1.873499
374.50 1.872781
374.60 1.872092
374.70 1.871408
374.80 1.870723
374.90 1.870039
375.00 1.869293
375.10 1.868546
375.20 1.8678
375.30 1.866948
375.40 1.866096
375.50 1.865245
375.60 1.864395
375.70 1.863545
375.80 1.862696
375.90 1.861847
376.00 1.860857
376.10 1.859975
376.20 1.859095
376.30 1.858215
376.40 1.857336
376.50 1.856449
376.60 1.855549
376.70 1.854649
376.80 1.853766
376.90 1.852898
377.00 1.85203
377.10 1.851164
377.20 1.85029
377.30 1.849386
377.40 1.848483
377.50 1.847581
377.60 1.846602
377.70 1.845625
377.80 1.844648
377.90 1.843672
378.00 1.842696
378.10 1.841637
378.20 1.840578
378.30 1.839519
378.40 1.838462
378.50 1.837405
378.60 1.836349
378.70 1.835295
378.80 1.83424
378.90 1.833153
379.00 1.832005
379.10 1.830842
379.20 1.829681
379.30 1.82846
379.40 1.827181
379.50 1.825903
379.60 1.824587
379.70 1.823077
379.80 1.821048
379.90 1.819021
380.00 1.816996
380.10 1.814973
380.20 1.812951
380.30 1.810931
380.40 1.808914
380.50 1.806898
380.60 1.803352
380.70 1.798981
380.80 1.794615
380.90 1.790253
381.00 1.785895
381.10 1.778896
381.20 1.771205
381.30 1.761726
381.40 1.749142
381.50 1.73346
381.60 1.715162
381.70 1.691714
381.80 1.661983
381.90 1.62043
382.00 1.612463
382.10 1.658771
382.20 1.692448
382.30 1.717342
382.40 1.736507
382.50 1.747099
382.60 1.75768
382.70 1.76553
382.80 1.768633
382.90 1.770061
383.00 1.771487
383.10 1.772911
383.20 1.774425
383.30 1.77628
383.40 1.777979
383.50 1.779447
383.60 1.780299
383.70 1.780537
383.80 1.780775
383.90 1.781012
384.00 1.781249
384.10 1.781485
384.20 1.78172
384.30 1.781956
384.40 1.78186
384.50 1.781432
384.60 1.781006
384.70 1.780579
384.80 1.780164
384.90 1.77967
385.00 1.778949
385.10 1.778234
385.20 1.777596
385.30 1.776794
385.40 1.77596
385.50 1.775094
385.60 1.774228
385.70 1.773364
385.80 1.772488
385.90 1.77157
386.00 1.770484
386.10 1.769197
386.20 1.767551
386.30 1.765907
386.40 1.763697
386.50 1.760097
386.60 1.75444
386.70 1.74217
386.80 1.732267
386.90 1.738958
387.00 1.745472
387.10 1.749593
387.20 1.751725
387.30 1.752934
387.40 1.753367
387.50 1.753192
387.60 1.752425
387.70 1.750935
387.80 1.749447
387.90 1.74796
388.00 1.746197
388.10 1.743109
388.20 1.737413
388.30 1.729697
388.40 1.721989
388.50 1.709367
388.60 1.68413
388.70 1.632644
388.80 1.488678
388.90 1.407369
389.00 1.589537
389.10 1.661076
389.20 1.692786
389.30 1.708946
389.40 1.718072
389.50 1.725218
389.60 1.729017
389.70 1.730743
389.80 1.731313
389.90 1.731883
390.00 1.732452
390.10 1.73302
390.20 1.733587
390.30 1.733645
390.40 1.733128
390.50 1.732613
390.60 1.732097
390.70 1.731582
390.80 1.731012
390.90 1.730386
391.00 1.729832
391.10 1.72906
391.20 1.728264
391.30 1.727381
391.40 1.726498
391.50 1.725616
391.60 1.724735
391.70 1.723855
391.80 1.722975
391.90 1.721995
392.00 1.720908
392.10 1.719832
392.20 1.718775
392.30 1.717743
392.40 1.716566
392.50 1.715463
392.60 1.714207
392.70 1.712843
392.80 1.712541
392.90 1.712099
393.00 1.711592
393.10 1.711147
393.20 1.710748
393.30 1.710105
393.40 1.709443
393.50 1.708802
393.60 1.708073
393.70 1.707293
393.80 1.706664
393.90 1.705911
394.00 1.705181
394.10 1.70451
394.20 1.703645
394.30 1.702879
394.40 1.702144
394.50 1.701281
394.60 1.700293
394.70 1.69931
394.80 1.698345
394.90 1.697377
395.00 1.6963
395.10 1.695283
395.20 1.693888
395.30 1.692444
395.40 1.691001
395.50 1.689119
395.60 1.687076
395.70 1.684382
395.80 1.679926
395.90 1.675474
396.00 1.670587
396.10 1.657944
396.20 1.636357
396.30 1.608284
396.40 1.53357
396.50 1.52996
396.60 1.618204
396.70 1.6479
396.80 1.656876
396.90 1.660762
397.00 1.664282
397.10 1.668841
397.20 1.670741
397.30 1.67055
397.40 1.670831
397.50 1.671112
397.60 1.671348
397.70 1.671139
397.80 1.670931
397.90 1.670616
398.00 1.670015
398.10 1.669414
398.20 1.668744
398.30 1.667997
398.40 1.667248
398.50 1.666412
398.60 1.665576
398.70 1.664596
398.80 1.66358
398.90 1.662571
399.00 1.661574
399.10 1.660484
399.20 1.659247
399.30 1.658011
399.40 1.656776
399.50 1.655541
399.60 1.65409
399.70 1.652559
399.80 1.651029
399.90 1.649501
400.00 1.647964
400.10 1.646125
400.20 1.644192
400.30 1.641927
400.40 1.639631
400.50 1.637296
400.60 1.634299
400.70 1.6314
400.80 1.628024
400.90 1.623744
401.00 1.620734
401.10 1.619707
401.20 1.618213
401.30 1.61591
401.40 1.612064
401.50 1.607701
401.60 1.603258
401.70 1.596081
401.80 1.587401
401.90 1.575349
402.00 1.5616
402.10 1.54262
402.20 1.517274
402.30 1.4835
402.40 1.436941
402.50 1.369798
402.60 1.267308
402.70 1.331306
402.80 1.416809
402.90 1.466042
403.00 1.510088
403.10 1.539527
403.20 1.55825
403.30 1.571633
403.40 1.582317
403.50 1.589495
403.60 1.595862
403.70 1.600423
403.80 1.603606
403.90 1.605756
404.00 1.607604
404.10 1.608685
404.20 1.608752
404.30 1.608818
404.40 1.607454
404.50 1.604429
404.60 1.602991
404.70 1.603704
404.80 1.605111
404.90 1.605986
405.00 1.606634
405.10 1.606914
405.20 1.607117
405.30 1.60732
405.40 1.607062
405.50 1.606805
405.60 1.606548
405.70 1.606291
405.80 1.606034
405.90 1.605777
406.00 1.605244
406.10 1.604711
406.20 1.604179
406.30 1.603647
406.40 1.603129
406.50 1.602586
406.60 1.601957
406.70 1.601302
406.80 1.600681
406.90 1.600024
407.00 1.599322
407.10 1.598622
407.20 1.597922
407.30 1.597222
407.40 1.596523
407.50 1.595824
407.60 1.595126
407.70 1.594428
407.80 1.593731
407.90 1.593032
408.00 1.592251
408.10 1.591471
408.20 1.590746
408.30 1.590036
408.40 1.589326
408.50 1.588567
408.60 1.587789
408.70 1.587012
408.80 1.586236
408.90 1.58546
409.00 1.584685
409.10 1.583911
409.20 1.583136
409.30 1.582363
409.40 1.581588
409.50 1.580741
409.60 1.579895
409.70 1.579065
409.80 1.578294
409.90 1.577524
410.00 1.576755
410.10 1.575812
410.20 1.574943
410.30 1.574094
410.40 1.573248
410.50 1.572413
410.60 1.571578
410.70 1.570708
410.80 1.56969
410.90 1.568672
411.00 1.567539
411.10 1.566363
411.20 1.565189
411.30 1.563955
411.40 1.562456
411.50 1.56008
411.60 1.557707
411.70 1.554391
411.80 1.547302
411.90 1.538581
412.00 1.513977
412.10 1.481052
412.20 1.500695
412.30 1.523273
412.40 1.536319
412.50 1.542327
412.60 1.545421
412.70 1.54647
412.80 1.547007
412.90 1.547256
413.00 1.546588
413.10 1.545348
413.20 1.544109
413.30 1.542871
413.40 1.541634
413.50 1.540239
413.60 1.538022
413.70 1.535221
413.80 1.532423
413.90 1.529627
414.00 1.526464
414.10 1.522133
414.20 1.517436
414.30 1.509995
414.40 1.503341
414.50 1.507027
414.60 1.512002
414.70 1.516187
414.80 1.519816
414.90 1.521691
415.00 1.523565
415.10 1.525437
415.20 1.526972
415.30 1.527445
415.40 1.527917
415.50 1.528375
415.60 1.52837
415.70 1.528365
415.80 1.528266
415.90 1.527866
416.00 1.527466
416.10 1.527019
416.20 1.526383
416.30 1.525747
416.40 1.525111
416.50 1.524464
416.60 1.523428
416.70 1.522387
416.80 1.520708
416.90 1.518574
417.00 1.517746
417.10 1.518091
417.20 1.518173
417.30 1.51824
417.40 1.51787
417.50 1.5175
417.60 1.517093
417.70 1.516537
417.80 1.515912
417.90 1.515288
418.00 1.514664
418.10 1.51404
418.20 1.513416
418.30 1.512791
418.40 1.512068
418.50 1.511345
418.60 1.510623
418.70 1.509902
418.80 1.509181
418.90 1.50846
419.00 1.50774
419.10 1.507021
419.20 1.506302
419.30 1.505581
419.40 1.504793
419.50 1.504005
419.60 1.503231
419.70 1.502515
419.80 1.501799
419.90 1.501075
420.00 1.500321
420.10 1.499568
420.20 1.498815
420.30 1.498063
420.40 1.497311
420.50 1.49656
420.60 1.495809
420.70 1.495059
420.80 1.49431
420.90 1.493562
421.00 1.492853
421.10 1.492144
421.20 1.491421
421.30 1.490657
421.40 1.489893
421.50 1.489129
421.60 1.488367
421.70 1.487604
421.80 1.486842
421.90 1.486095
422.00 1.485391
422.10 1.484674
422.20 1.483909
422.30 1.483144
422.40 1.48238
422.50 1.481628
422.60 1.480877
422.70 1.480127
422.80 1.479377
422.90 1.478628
423.00 1.477879
423.10 1.477131
423.20 1.476383
423.30 1.475636
423.40 1.47489
423.50 1.474143
423.60 1.473398
423.70 1.472653
423.80 1.471909
423.90 1.471165
424.00 1.470421
424.10 1.469679
424.20 1.468936
424.30 1.468195
424.40 1.467464
424.50 1.466733
424.60 1.466003
424.70 1.465273
424.80 1.464544
424.90 1.463815
425.00 1.463087
425.10 1.46236
425.20 1.461632
425.30 1.460906
425.40 1.460176
425.50 1.459426
425.60 1.458676
425.70 1.457926
425.80 1.457177
425.90 1.456429
426.00 1.455681
426.10 1.454933
426.20 1.454186
426.30 1.45344
426.40 1.452694
426.50 1.451949
426.60 1.451204
426.70 1.45046
426.80 1.449717
426.90 1.448974
427.00 1.448244
427.10 1.447515
427.20 1.446787
427.30 1.446059
427.40 1.445332
427.50 1.444605
427.60 1.443878
427.70 1.443152
427.80 1.442427
427.90 1.441702
428.00 1.440978
428.10 1.440254
428.20 1.439531
428.30 1.438808
428.40 1.438086
428.50 1.437364
428.60 1.436643
428.70 1.435922
428.80 1.435201
428.90 1.434463
429.00 1.433725
429.10 1.432988
429.20 1.432252
429.30 1.431516
429.40 1.43078
429.50 1.430045
429.60 1.429311
429.70 1.428577
429.80 1.427844
429.90 1.427111
430.00 1.426379
430.10 1.425647
430.20 1.424916
430.30 1.424185
430.40 1.423455
430.50 1.422725
430.60 1.421996
430.70 1.421268
430.80 1.42054
430.90 1.419812
431.00 1.419085
431.10 1.418359
431.20 1.417633
431.30 1.416907
431.40 1.416184
431.50 1.415462
431.60 1.41474
431.70 1.414018
431.80 1.413297
431.90 1.412577
432.00 1.411857
432.10 1.411138
432.20 1.410419
432.30 1.4097
432.40 1.408982
432.50 1.408265
432.60 1.407548
432.70 1.406832
432.80 1.406116
432.90 1.405401
433.00 1.404686
433.10 1.403972
433.20 1.403258
433.30 1.402541
433.40 1.401772
433.50 1.401003
433.60 1.400236
433.70 1.399468
433.80 1.398756
433.90 1.398112
434.00 1.3974
434.10 1.396647
434.20 1.395894
434.30 1.395142
434.40 1.394391
434.50 1.39364
434.60 1.39289
434.70 1.39214
434.80 1.391388
434.90 1.390595
435.00 1.389803
435.10 1.389012
435.20 1.388221
435.30 1.387431
435.40 1.386641
435.50 1.385852
435.60 1.385063
435.70 1.384275
435.80 1.383488
435.90 1.382701
436.00 1.381915
436.10 1.381129
436.20 1.380344
436.30 1.379507
436.40 1.378597
436.50 1.377549
436.60 1.376502
436.70 1.375456
436.80 1.374411
436.90 1.373366
437.00 1.372322
437.10 1.37128
437.20 1.370023
437.30 1.36857
437.40 1.367053
437.50 1.364681
437.60 1.36231
437.70 1.359942
437.80 1.357575
437.90 1.35521
438.00 1.35273
438.10 1.348681
438.20 1.344636
438.30 1.340422
438.40 1.335069
438.50 1.32338
438.60 1.311132
438.70 1.2869
438.80 1.265028
438.90 1.277798
439.00 1.297695
439.10 1.310619
439.20 1.322972
439.30 1.327889
439.40 1.332802
439.50 1.33771
439.60 1.342437
439.70 1.344408
439.80 1.345574
439.90 1.346209
440.00 1.346843
440.10 1.347476
440.20 1.34804
440.30 1.347701
440.40 1.347361
440.50 1.347021
440.60 1.346682
440.70 1.346343
440.80 1.346004
440.90 1.345665
441.00 1.345327
441.10 1.344988
441.20 1.344631
441.30 1.344022
441.40 1.343413
441.50 1.342804
441.60 1.342196
441.70 1.341588
441.80 1.340871
441.90 1.340154
442.00 1.339438
442.10 1.338722
442.20 1.338006
442.30 1.337292
442.40 1.336547
442.50 1.335766
442.60 1.334986
442.70 1.334223
442.80 1.333479
442.90 1.332655
443.00 1.331764
443.10 1.330792
443.20 1.329698
443.30 1.328492
443.40 1.326955
443.50 1.325014
443.60 1.322426
443.70 1.316822
443.80 1.312071
443.90 1.315211
444.00 1.317235
444.10 1.318338
444.20 1.318856
444.30 1.318605
444.40 1.317807
444.50 1.31701
444.60 1.316056
444.70 1.314911
444.80 1.313554
444.90 1.312002
445.00 1.310451
445.10 1.308902
445.20 1.306882
445.30 1.304289
445.40 1.301698
445.50 1.299109
445.60 1.296522
445.70 1.293937
445.80 1.289974
445.90 1.284739
446.00 1.279509
446.10 1.274284
446.20 1.267971
446.30 1.259104
446.40 1.243766
446.50 1.224
446.60 1.204252
446.70 1.184522
446.80 1.150522
446.90 1.103372
447.00 1.056095
447.10 0.9467046
447.20 0.9182143
447.30 1.0466
447.40 1.111846
447.50 1.158739
447.60 1.193525
447.70 1.217149
447.80 1.231873
447.90 1.243783
448.00 1.251958
448.10 1.25669
448.20 1.261417
448.30 1.26614
448.40 1.270859
448.50 1.275573
448.60 1.278652
448.70 1.280224
448.80 1.281729
448.90 1.282368
449.00 1.283007
449.10 1.283645
449.20 1.284282
449.30 1.284724
449.40 1.284785
449.50 1.284846
449.60 1.284699
449.70 1.284359
449.80 1.284019
449.90 1.28368
450.00 1.283341
450.10 1.283002
450.20 1.282663
450.30 1.282324
450.40 1.281813
450.50 1.281301
450.60 1.280791
450.70 1.28028
450.80 1.27977
450.90 1.27926
451.00 1.278902
451.10 1.278545
451.20 1.278246
451.30 1.277858
451.40 1.277205
451.50 1.276553
451.60 1.274952
451.70 1.272058
451.80 1.270201
451.90 1.270846
452.00 1.271059
452.10 1.271272
452.20 1.270968
452.30 1.270664
452.40 1.270361
452.50 1.270057
452.60 1.269612
452.70 1.269127
452.80 1.268604
452.90 1.268082
453.00 1.26756
453.10 1.267039
453.20 1.266454
453.30 1.265869
453.40 1.265284
453.50 1.2647
453.60 1.264117
453.70 1.263533
453.80 1.262962
453.90 1.262406
454.00 1.26185
454.10 1.261294
454.20 1.260676
454.30 1.260059
454.40 1.259442
454.50 1.258826
454.60 1.25821
454.70 1.257602
454.80 1.257
454.90 1.256399
455.00 1.255798
455.10 1.255198
455.20 1.254598
455.30 1.253998
455.40 1.253399
455.50 1.252801
455.60 1.252202
455.70 1.251605
455.80 1.250965
455.90 1.250325
456.00 1.249686
456.10 1.24905
456.20 1.248424
456.30 1.247798
456.40 1.247173
456.50 1.246548
456.60 1.245924
456.70 1.245299
456.80 1.244676
456.90 1.244053
457.00 1.24343
457.10 1.242807
457.20 1.242226
457.30 1.241612
457.40 1.240999
457.50 1.240386
457.60 1.239773
457.70 1.239161
457.80 1.238549
457.90 1.237937
458.00 1.237326
458.10 1.236716
458.20 1.236106
458.30 1.235496
458.40 1.234887
458.50 1.234278
458.60 1.233669
458.70 1.233048
458.80 1.232423
458.90 1.231798
459.00 1.231174
459.10 1.23055
459.20 1.229926
459.30 1.229309
459.40 1.228692
459.50 1.228076
459.60 1.22746
459.70 1.226845
459.80 1.22623
459.90 1.225615
460.00 1.225001
460.10 1.224388
460.20 1.223774
460.30 1.223162
460.40 1.222549
460.50 1.221937
460.60 1.221325
460.70 1.220701
460.80 1.220071
460.90 1.219442
461.00 1.218812
461.10 1.218184
461.20 1.217565
461.30 1.21695
461.40 1.216336
461.50 1.215722
461.60 1.215108
461.70 1.214495
461.80 1.213888
461.90 1.213282
462.00 1.212676
462.10 1.21207
462.20 1.211465
462.30 1.21086
462.40 1.210256
462.50 1.209652
462.60 1.209049
462.70 1.208445
462.80 1.207843
462.90 1.20724
463.00 1.206638
463.10 1.206037
463.20 1.205426
463.30 1.20481
463.40 1.204195
463.50 1.203581
463.60 1.202967
463.70 1.202353
463.80 1.20174
463.90 1.201138
464.00 1.20054
464.10 1.199942
464.20 1.199344
464.30 1.198747
464.40 1.19815
464.50 1.197553
464.60 1.196957
464.70 1.196343
464.80 1.195721
464.90 1.1951
465.00 1.19448
465.10 1.19386
465.20 1.19324
465.30 1.192634
465.40 1.192037
465.50 1.191441
465.60 1.190846
465.70 1.19025
465.80 1.189655
465.90 1.189064
466.00 1.188475
466.10 1.187886
466.20 1.187297
466.30 1.186696
466.40 1.18609
466.50 1.185484
466.60 1.184879
466.70 1.184274
466.80 1.18367
466.90 1.183066
467.00 1.182463
467.10 1.18186
467.20 1.181257
467.30 1.180598
467.40 1.179981
467.50 1.179381
467.60 1.178782
467.70 1.178183
467.80 1.177585
467.90 1.176968
468.00 1.176345
468.10 1.175722
468.20 1.175099
468.30 1.174505
468.40 1.173923
468.50 1.173275
468.60 1.172718
468.70 1.172077
468.80 1.171417
468.90 1.170793
469.00 1.170141
469.10 1.169514
469.20 1.168896
469.30 1.168278
469.40 1.16766
469.50 1.166981
469.60 1.166277
469.70 1.165574
469.80 1.164871
469.90 1.164139
470.00 1.163296
470.10 1.162348
470.20 1.161334
470.30 1.160322
470.40 1.15931
470.50 1.158299
470.60 1.15589
470.70 1.153134
470.80 1.150381
470.90 1.147629
471.00 1.140981
471.10 1.128153
471.20 1.100992
471.30 1.047377
471.40 1.059966
471.50 1.105135
471.60 1.122146
471.70 1.135597
471.80 1.140178
471.90 1.142541
472.00 1.144902
472.10 1.147261
472.20 1.147716
472.30 1.147696
472.40 1.147675
472.50 1.147654
472.60 1.147633
472.70 1.147405
472.80 1.146967
472.90 1.146498
473.00 1.146029
473.10 1.14556
473.20 1.145091
473.30 1.144623
473.40 1.144156
473.50 1.143688
473.60 1.143221
473.70 1.142754
473.80 1.142213
473.90 1.141655
474.00 1.141096
474.10 1.140538
474.20 1.139987
474.30 1.139439
474.40 1.138891
474.50 1.138343
474.60 1.137794
474.70 1.137229
474.80 1.136664
474.90 1.1361
475.00 1.135536
475.10 1.134972
475.20 1.134409
475.30 1.133846
475.40 1.133291
475.50 1.132737
475.60 1.132184
475.70 1.131631
475.80 1.131078
475.90 1.130526
476.00 1.129974
476.10 1.129423
476.20 1.128863
476.30 1.128299
476.40 1.127735
476.50 1.127172
476.60 1.12661
476.70 1.126047
476.80 1.125485
476.90 1.12492
477.00 1.124354
477.10 1.123789
477.20 1.123224
477.30 1.122659
477.40 1.122095
477.50 1.121531
477.60 1.120968
477.70 1.120405
477.80 1.119842
477.90 1.11928
478.00 1.118718
478.10 1.118156
478.20 1.117595
478.30 1.117034
478.40 1.116473
478.50 1.115913
478.60 1.115354
478.70 1.114746
478.80 1.11412
478.90 1.113551
479.00 1.112997
479.10 1.112444
479.20 1.11189
479.30 1.111338
479.40 1.110781
479.50 1.110222
479.60 1.109664
479.70 1.109106
479.80 1.108548
479.90 1.10799
480.00 1.107433
480.10 1.106877
480.20 1.106321
480.30 1.105765
480.40 1.105209
480.50 1.104654
480.60 1.104099
480.70 1.103545
480.80 1.102991
480.90 1.102437
481.00 1.101884
481.10 1.101331
481.20 1.100776
481.30 1.100221
481.40 1.099667
481.50 1.099113
481.60 1.098559
481.70 1.098006
481.80 1.097453
481.90 1.0969
482.00 1.096348
482.10 1.095797
482.20 1.095245
482.30 1.094694
482.40 1.094144
482.50 1.093593
482.60 1.093043
482.70 1.092494
482.80 1.091945
482.90 1.091396
483.00 1.090848
483.10 1.090299
483.20 1.089752
483.30 1.089204
483.40 1.088657
483.50 1.088111
483.60 1.087564
483.70 1.087001
483.80 1.086438
483.90 1.085876
484.00 1.085314
484.10 1.084752
484.20 1.084195
484.30 1.083641
484.40 1.083087
484.50 1.082533
484.60 1.08198
484.70 1.081428
484.80 1.080883
484.90 1.080338
485.00 1.079793
485.10 1.079249
485.20 1.078705
485.30 1.078162
485.40 1.077619
485.50 1.077076
485.60 1.076534
485.70 1.075981
485.80 1.075429
485.90 1.074877
486.00 1.074326
486.10 1.073775
486.20 1.073224
486.30 1.072674
486.40 1.072124
486.50 1.071574
486.60 1.071025
486.70 1.070476
486.80 1.069927
486.90 1.069378
487.00 1.068829
487.10 1.068281
487.20 1.067707
487.30 1.067133
487.40 1.06656
487.50 1.065987
487.60 1.065414
487.70 1.064842
487.80 1.06427
487.90 1.063698
488.00 1.063127
488.10 1.062556
488.20 1.061985
488.30 1.061404
488.40 1.060824
488.50 1.060244
488.60 1.059665
488.70 1.059086
488.80 1.05849
488.90 1.057895
489.00 1.057271
489.10 1.056576
489.20 1.055882
489.30 1.055187
489.40 1.054494
489.50 1.0538
489.60 1.053108
489.70 1.052415
489.80 1.051658
489.90 1.050736
490.00 1.049816
490.10 1.048896
490.20 1.047977
490.30 1.047058
490.40 1.045679
490.50 1.044302
490.60 1.042925
490.70 1.041549
490.80 1.039539
490.90 1.03734
491.00 1.035311
491.10 1.035108
491.20 1.035052
491.30 1.033317
491.40 1.030442
491.50 1.026208
491.60 1.018666
491.70 1.00783
491.80 0.9964171
491.90 0.9772425
492.00 0.9524787
492.10 0.9250267
492.20 0.8713732
492.30 0.9015983
492.40 0.9467072
492.50 0.974137
492.60 0.9906757
492.70 0.9979255
492.80 1.005169
492.90 1.012407
493.00 1.019248
493.10 1.020891
493.20 1.022533
493.30 1.024174
493.40 1.025813
493.50 1.02745
493.60 1.027802
493.70 1.028033
493.80 1.028263
493.90 1.028377
494.00 1.028309
494.10 1.028191
494.20 1.027968
494.30 1.027744
494.40 1.02752
494.50 1.027297
494.60 1.027065
494.70 1.02673
494.80 1.026385
494.90 1.026014
495.00 1.025644
495.10 1.025274
495.20 1.024815
495.30 1.024357
495.40 1.023899
495.50 1.023441
495.60 1.022984
495.70 1.022527
495.80 1.02207
495.90 1.021613
496.00 1.021157
496.10 1.020715
496.20 1.020299
496.30 1.019818
496.40 1.019337
496.50 1.018856
496.60 1.018375
496.70 1.017881
496.80 1.017386
496.90 1.016892
497.00 1.016398
497.10 1.015905
497.20 1.015412
497.30 1.014916
497.40 1.014411
497.50 1.013906
497.60 1.013397
497.70 1.012876
497.80 1.012359
497.90 1.011843
498.00 1.011327
498.10 1.010812
498.20 1.010296
498.30 1.009782
498.40 1.009267
498.50 1.008753
498.60 1.008239
498.70 1.007693
498.80 1.007147
498.90 1.006628
499.00 1.00611
499.10 1.005591
499.20 1.005067
499.30 1.004514
499.40 1.003909
499.50 1.003305
499.60 1.002702
499.70 1.002092
499.80 1.001394
499.90 1.000697
500.00 1
500.10 0.9993037
500.20 0.99847
500.30 0.997344
500.40 0.9962189
500.50 0.9950945
500.60 0.993971
500.70 0.9928483
500.80 0.9910654
500.90 0.9878796
501.00 0.9846963
501.10 0.9815155
501.20 0.972029
501.30 0.9563676
501.40 0.9346229
501.50 0.8724485
501.60 0.8527726
501.70 0.9283711
501.80 0.9557213
501.90 0.9680614
502.00 0.9774752
502.10 0.9806864
502.20 0.9837381
502.30 0.9847022
502.40 0.9853583
502.50 0.9853613
502.60 0.9853642
502.70 0.985367
502.80 0.9853698
502.90 0.9853725
503.00 0.9852598
503.10 0.9849024
503.20 0.9845453
503.30 0.9841883
503.40 0.9837965
503.50 0.9833051
503.60 0.982814
503.70 0.9823232
503.80 0.9818171
503.90 0.9811963
504.00 0.9804423
504.10 0.9794048
504.20 0.9783681
504.30 0.9773322
504.40 0.9758896
504.50 0.9732891
504.60 0.9698277
504.70 0.9588816
504.80 0.9479476
504.90 0.9588749
505.00 0.966519
505.10 0.9697249
505.20 0.9721595
505.30 0.9724048
505.40 0.9726499
505.50 0.9728946
505.60 0.9729451
505.70 0.972583
505.80 0.9722212
505.90 0.9718596
506.00 0.9714982
506.10 0.971137
506.20 0.9707541
506.30 0.9703092
506.40 0.9698646
506.50 0.9694203
506.60 0.9689762
506.70 0.9685324
506.80 0.9680889
506.90 0.9676456
507.00 0.9672027
507.10 0.9667796
507.20 0.9663739
507.30 0.9658989
507.40 0.9654242
507.50 0.9649498
507.60 0.9644756
507.70 0.9640018
507.80 0.9635283
507.90 0.9630551
508.00 0.9625821
508.10 0.9621095
508.20 0.9616372
508.30 0.9611651
508.40 0.9606934
508.50 0.960222
508.60 0.9597508
508.70 0.95928
508.80 0.9588337
508.90 0.9583738
509.00 0.9578849
509.10 0.9573998
509.20 0.9569225
509.30 0.9564454
509.40 0.9559687
509.50 0.9554922
509.60 0.9550161
509.70 0.9545402
509.80 0.9540647
509.90 0.9535894
510.00 0.9531145
510.10 0.9526398
510.20 0.9521655
510.30 0.9516932
510.40 0.9512263
510.50 0.9507597
510.60 0.9502934
510.70 0.9498273
510.80 0.9493616
510.90 0.9488962
511.00 0.948431
511.10 0.9479662
511.20 0.9475016
511.30 0.9470373
511.40 0.9465734
511.50 0.9461097
511.60 0.9456457
511.70 0.9451809
511.80 0.9447164
511.90 0.9442521
512.00 0.9437882
512.10 0.9433245
512.20 0.9428612
512.30 0.9423973
512.40 0.9419313
512.50 0.9414657
512.60 0.9410003
512.70 0.9405353
512.80 0.9400705
512.90 0.939606
513.00 0.9391418
513.10 0.9386779
513.20 0.9382143
513.30 0.937751
513.40 0.937288
513.50 0.9368252
513.60 0.9363628
513.70 0.9359006
513.80 0.9354388
513.90 0.9349772
514.00 0.934515
514.10 0.934053
514.20 0.9335913
514.30 0.9331298
514.40 0.9326687
514.50 0.9322078
514.60 0.9317472
514.70 0.9312869
514.80 0.9308269
514.90 0.9303672
515.00 0.9299078
515.10 0.9294486
515.20 0.9289898
515.30 0.9285312
515.40 0.9280729
515.50 0.9276149
515.60 0.9271572
515.70 0.9266998
515.80 0.9262427
515.90 0.9257858
516.00 0.9253292
516.10 0.9248729
516.20 0.9244169
516.30 0.9239612
516.40 0.9235058
516.50 0.9230506
516.60 0.9225957
516.70 0.9221411
516.80 0.9216867
516.90 0.9212327
517.00 0.9207789
517.10 0.9203254
517.20 0.9198722
517.30 0.9194193
517.40 0.9189666
517.50 0.9185142
517.60 0.9180622
517.70 0.9176104
517.80 0.9171588
517.90 0.9167076
518.00 0.9162566
518.10 0.9158059
518.20 0.9153555
518.30 0.9149054
518.40 0.9144555
518.50 0.914006
518.60 0.9135567
518.70 0.9131077
518.80 0.9126589
518.90 0.9122105
519.00 0.9117623
519.10 0.9113125
519.20 0.9108608
519.30 0.9104094
519.40 0.9099583
519.50 0.9095075
519.60 0.9090569
519.70 0.9086067
519.80 0.9081567
519.90 0.907707
520.00 0.9072575
520.10 0.9068084
520.20 0.9063595
520.30 0.9059109
520.40 0.9054626
520.50 0.9050145
520.60 0.9045668
520.70 0.9041193
520.80 0.9036721
520.90 0.9032251
521.00 0.9027785
521.10 0.9023321
521.20 0.901886
521.30 0.9014402
521.40 0.9009946
521.50 0.9005493
521.60 0.9001043
521.70 0.8996596
521.80 0.8992151
521.90 0.898771
522.00 0.8983271
522.10 0.8978834
522.20 0.8974401
522.30 0.896997
522.40 0.8965542
522.50 0.8961116
522.60 0.8956694
522.70 0.8952274
522.80 0.8947857
522.90 0.8943442
523.00 0.8939031
523.10 0.8934622
523.20 0.8930215
523.30 0.8925812
523.40 0.8921411
523.50 0.8917013
523.60 0.8912617
523.70 0.8908224
523.80 0.8903834
523.90 0.8899447
524.00 0.8895062
524.10 0.889068
524.20 0.8886301
524.30 0.8881916
524.40 0.8877528
524.50 0.8873142
524.60 0.8868758
524.70 0.8864378
524.80 0.886
524.90 0.8855625
525.00 0.8851252
525.10 0.8846882
525.20 0.8842515
525.30 0.8838151
525.40 0.8833789
525.50 0.882943
525.60 0.8825074
525.70 0.882072
525.80 0.8816369
525.90 0.881202
526.00 0.8807675
526.10 0.8803332
526.20 0.8798991
526.30 0.8794653
526.40 0.8790318
526.50 0.8785986
526.60 0.8781656
526.70 0.8777329
526.80 0.8773005
526.90 0.8768683
527.00 0.8764364
527.10 0.8760047
527.20 0.8755733
527.30 0.8751422
527.40 0.8747114
527.50 0.8742808
527.60 0.8738504
527.70 0.8734204
527.80 0.8729906
527.90 0.872561
528.00 0.8721317
528.10 0.8717027
528.20 0.871274
528.30 0.8708455
528.40 0.8704173
528.50 0.8699893
528.60 0.8695616
528.70 0.8691341
528.80 0.868707
528.90 0.86828
529.00 0.8678534
529.10 0.867427
529.20 0.8670008
529.30 0.866575
529.40 0.8661493
529.50 0.8657244
529.60 0.8653027
529.70 0.8648812
529.80 0.86446
529.90 0.8640391
530.00 0.8636184
530.10 0.8631979
530.20 0.8627777
530.30 0.8623578
530.40 0.8619381
530.50 0.8615187
530.60 0.8610995
530.70 0.8606806
530.80 0.8602619
530.90 0.8598435
531.00 0.8594254
531.10 0.8590075
531.20 0.8585898
531.30 0.8581724
531.40 0.8577553
531.50 0.8573384
531.60 0.8569218
531.70 0.8565054
531.80 0.8560892
531.90 0.8556734
532.00 0.8552577
532.10 0.8548424
532.20 0.8544241
532.30 0.8540045
532.40 0.8535852
532.50 0.8531661
532.60 0.8527473
532.70 0.8523287
532.80 0.8519104
532.90 0.8514923
533.00 0.8510745
533.10 0.8506569
533.20 0.8502396
533.30 0.8498226
533.40 0.8494057
533.50 0.8489892
533.60 0.8485729
533.70 0.8481568
533.80 0.8477411
533.90 0.8473255
534.00 0.8469102
534.10 0.8464952
534.20 0.8460804
534.30 0.8456659
534.40 0.8452516
534.50 0.8448375
534.60 0.8444238
534.70 0.8440102
534.80 0.8435967
534.90 0.8431823
535.00 0.8427682
535.10 0.8423544
535.20 0.8419408
535.30 0.8415275
535.40 0.8411144
535.50 0.8407015
535.60 0.8402889
535.70 0.8398766
535.80 0.8394645
535.90 0.8390526
536.00 0.838641
536.10 0.8382297
536.20 0.8378186
536.30 0.8374077
536.40 0.8369971
536.50 0.8365867
536.60 0.8361766
536.70 0.8357668
536.80 0.8353571
536.90 0.8349478
537.00 0.8345387
537.10 0.8341298
537.20 0.8337212
537.30 0.8333128
537.40 0.8329046
537.50 0.8324967
537.60 0.8320891
537.70 0.8316817
537.80 0.8312745
537.90 0.8308676
538.00 0.830461
538.10 0.8300546
538.20 0.8296484
538.30 0.8292425
538.40 0.8288368
538.50 0.8284313
538.60 0.8280261
538.70 0.8276212
538.80 0.8272165
538.90 0.826812
539.00 0.8264078
539.10 0.8260038
539.20 0.8256001
539.30 0.8251966
539.40 0.8247933
539.50 0.8243903
539.60 0.8239875
539.70 0.823585
539.80 0.8231827
539.90 0.8227807
540.00 0.8223789
540.10 0.8219773
540.20 0.8215751
540.30 0.8211727
540.40 0.8207706
540.50 0.8203688
540.60 0.8199671
540.70 0.8195657
540.80 0.8191646
540.90 0.8187637
541.00 0.818363
541.10 0.8179626
541.20 0.8175624
541.30 0.8171624
541.40 0.8167627
541.50 0.8163632
541.60 0.815964
541.70 0.815565
541.80 0.8151662
541.90 0.8147677
542.00 0.8143694
542.10 0.8139714
542.20 0.8135736
542.30 0.813176
542.40 0.8127787
542.50 0.8123816
542.60 0.8119848
542.70 0.8115882
542.80 0.8111918
542.90 0.8107956
543.00 0.8103997
543.10 0.8100041
543.20 0.8096086
543.30 0.8092134
543.40 0.8088185
543.50 0.8084238
543.60 0.8080293
543.70 0.807635
543.80 0.807241
543.90 0.8068472
544.00 0.8064537
544.10 0.8060604
544.20 0.8056673
544.30 0.8052745
544.40 0.8048819
544.50 0.8044895
544.60 0.8040973
544.70 0.8037054
544.80 0.8033138
544.90 0.8029223
545.00 0.8025311
545.10 0.8021402
545.20 0.8017494
545.30 0.8013589
545.40 0.8009686
545.50 0.8005786
545.60 0.8001895
545.70 0.7998009
545.80 0.7994125
545.90 0.7990243
546.00 0.7986364
546.10 0.7982487
546.20 0.7978613
546.30 0.7974741
546.40 0.7970871
546.50 0.7967003
546.60 0.7963138
546.70 0.7959275
546.80 0.7955414
546.90 0.7951555
547.00 0.7947699
547.10 0.7943845
547.20 0.7939994
547.30 0.7936144
547.40 0.7932297
547.50 0.7928453
547.60 0.792461
547.70 0.792077
547.80 0.7916932
547.90 0.7913096
548.00 0.7909263
548.10 0.7905432
548.20 0.7901603
548.30 0.7897776
548.40 0.7893952
548.50 0.7890129
548.60 0.7886309
548.70 0.7882491
548.80 0.7878676
548.90 0.7874862
549.00 0.7871051
549.10 0.7867243
549.20 0.7863436
549.30 0.7859632
549.40 0.785583
549.50 0.785203
549.60 0.7848232
549.70 0.7844437
549.80 0.7840644
549.90 0.7836853
550.00 0.7833064
550.10 0.7829278
550.20 0.7825494
550.30 0.7821712
550.40 0.7817932
550.50 0.7814155
550.60 0.7810379
550.70 0.7806606
550.80 0.7802836
550.90 0.7799067
551.00 0.7795296
551.10 0.7791499
551.20 0.7787705
551.30 0.7783912
551.40 0.7780122
551.50 0.7776335
551.60 0.7772549
551.70 0.7768766
551.80 0.7764985
551.90 0.7761206
552.00 0.7757429
552.10 0.7753655
552.20 0.7749883
552.30 0.7746113
552.40 0.7742345
552.50 0.773858
552.60 0.7734817
552.70 0.7731056
552.80 0.7727297
552.90 0.772354
553.00 0.7719786
553.10 0.7716034
553.20 0.7712284
553.30 0.7708536
553.40 0.770479
553.50 0.7701047
553.60 0.7697306
553.70 0.7693567
553.80 0.7689855
553.90 0.7686162
554.00 0.7682472
554.10 0.7678783
554.20 0.7675097
554.30 0.7671412
554.40 0.766773
554.50 0.766405
554.60 0.7660373
554.70 0.7656697
554.80 0.7653023
554.90 0.7649352
555.00 0.7645683
555.10 0.7642016
555.20 0.7638351
555.30 0.7634688
555.40 0.7631028
555.50 0.7627369
555.60 0.7623713
555.70 0.7620059
555.80 0.7616407
555.90 0.7612757
556.00 0.7609109
556.10 0.7605463
556.20 0.760182
556.30 0.7598178
556.40 0.7594539
556.50 0.75909
556.60 0.7587234
556.70 0.7583569
556.80 0.7579906
556.90 0.7576246
557.00 0.7572587
557.10 0.7568931
557.20 0.7565277
557.30 0.7561625
557.40 0.7557975
557.50 0.7554328
557.60 0.7550682
557.70 0.7547039
557.80 0.7543398
557.90 0.7539758
558.00 0.7536121
558.10 0.7532487
558.20 0.7528854
558.30 0.7525223
558.40 0.7521595
558.50 0.7517968
558.60 0.7514344
558.70 0.7510722
558.80 0.7507102
558.90 0.7503484
559.00 0.7499868
559.10 0.7496254
559.20 0.7492642
559.30 0.7489033
559.40 0.7485425
559.50 0.748182
559.60 0.7478217
559.70 0.7474616
559.80 0.7471017
559.90 0.746742
560.00 0.7463825
560.10 0.7460232
560.20 0.7456641
560.30 0.7453053
560.40 0.7449466
560.50 0.7445882
560.60 0.7442299
560.70 0.7438719
560.80 0.7435141
560.90 0.7431565
561.00 0.7427991
561.10 0.7424419
561.20 0.7420849
561.30 0.7417281
561.40 0.7413716
561.50 0.7410152
561.60 0.740659
561.70 0.7403031
561.80 0.7399473
561.90 0.7395918
562.00 0.7392365
562.10 0.7388801
562.20 0.7385222
562.30 0.7381644
562.40 0.7378069
562.50 0.7374496
562.60 0.7370924
562.70 0.7367355
562.80 0.7363788
562.90 0.7360223
563.00 0.735666
563.10 0.7353099
563.20 0.7349541
563.30 0.7345984
563.40 0.7342429
563.50 0.7338877
563.60 0.7335326
563.70 0.7331778
563.80 0.7328231
563.90 0.7324687
564.00 0.7321144
564.10 0.7317604
564.20 0.7314066
564.30 0.731053
564.40 0.7306996
564.50 0.7303463
564.60 0.7299933
564.70 0.7296405
564.80 0.7292879
564.90 0.7289355
565.00 0.7285833
565.10 0.7282313
565.20 0.7278795
565.30 0.7275279
565.40 0.7271765
565.50 0.7268253
565.60 0.7264743
565.70 0.7261235
565.80 0.7257729
565.90 0.7254225
566.00 0.7250723
566.10 0.7247223
566.20 0.7243725
566.30 0.7240229
566.40 0.7236735
566.50 0.7233243
566.60 0.7229754
566.70 0.7226266
566.80 0.722278
566.90 0.7219296
567.00 0.7215814
567.10 0.7212335
567.20 0.7208857
567.30 0.7205381
567.40 0.7201907
567.50 0.7198436
567.60 0.7194966
567.70 0.71915
567.80 0.7188044
567.90 0.7184589
568.00 0.7181137
568.10 0.7177686
568.20 0.7174238
568.30 0.7170791
568.40 0.7167347
568.50 0.7163904
568.60 0.7160464
568.70 0.7157025
568.80 0.7153589
568.90 0.7150154
569.00 0.7146721
569.10 0.7143291
569.20 0.7139862
569.30 0.7136435
569.40 0.7133011
569.50 0.7129588
569.60 0.7126167
569.70 0.7122748
569.80 0.7119331
569.90 0.7115916
570.00 0.7112503
570.10 0.7109092
570.20 0.7105683
570.30 0.7102276
570.40 0.7098871
570.50 0.7095468
570.60 0.7092066
570.70 0.7088667
570.80 0.708527
570.90 0.7081874
571.00 0.7078481
571.10 0.7075089
571.20 0.70717
571.30 0.7068312
571.40 0.7064926
571.50 0.7061542
571.60 0.7058161
571.70 0.7054781
571.80 0.7051403
571.90 0.7048027
572.00 0.7044652
572.10 0.704128
572.20 0.703791
572.30 0.7034542
572.40 0.7031175
572.50 0.7027811
572.60 0.7024448
572.70 0.7021088
572.80 0.7017729
572.90 0.7014372
573.00 0.7011017
573.10 0.7007664
573.20 0.7004313
573.30 0.7000964
573.40 0.6997601
573.50 0.6994219
573.60 0.6990838
573.70 0.698746
573.80 0.6984083
573.90 0.6980708
574.00 0.6977336
574.10 0.6973965
574.20 0.6970596
574.30 0.6967229
574.40 0.6963864
574.50 0.6960501
574.60 0.695714
574.70 0.695378
574.80 0.6950423
574.90 0.6947068
575.00 0.6943714
575.10 0.6940362
575.20 0.6937013
575.30 0.6933665
575.40 0.6930319
575.50 0.6926975
575.60 0.6923633
575.70 0.6920293
575.80 0.6916954
575.90 0.6913618
576.00 0.6910284
576.10 0.6906951
576.20 0.690362
576.30 0.6900292
576.40 0.6896965
576.50 0.689364
576.60 0.6890317
576.70 0.6886995
576.80 0.6883676
576.90 0.6880359
577.00 0.6877043
577.10 0.6873729
577.20 0.6870418
577.30 0.6867108
577.40 0.68638
577.50 0.6860493
577.60 0.6857175
577.70 0.6853835
577.80 0.6850497
577.90 0.6847161
578.00 0.6843827
578.10 0.6840495
578.20 0.6837164
578.30 0.6833836
578.40 0.6830509
578.50 0.6827185
578.60 0.6823862
578.70 0.6820541
578.80 0.6817222
578.90 0.6813905
579.00 0.6810589
579.10 0.6807265
579.20 0.6803834
579.30 0.6800404
579.40 0.6796977
579.50 0.6793551
579.60 0.6790128
579.70 0.6786706
579.80 0.6783287
579.90 0.6779869
580.00 0.6776453
580.10 0.6773012
580.20 0.6769526
580.30 0.6766043
580.40 0.6762562
580.50 0.6759083
580.60 0.6755606
580.70 0.6752131
580.80 0.6748657
580.90 0.6745186
581.00 0.6741717
581.10 0.673825
581.20 0.6734784
581.30 0.6731321
581.40 0.672786
581.50 0.6724401
581.60 0.6720943
581.70 0.6717488
581.80 0.6714035
581.90 0.6710583
582.00 0.6707134
582.10 0.6703568
582.20 0.6699811
582.30 0.6696056
582.40 0.6692303
582.50 0.6688553
582.60 0.6684804
582.70 0.6681058
582.80 0.6677314
582.90 0.6673572
583.00 0.6669833
583.10 0.6666095
583.20 0.666236
583.30 0.6658627
583.40 0.6654896
583.50 0.6651167
583.60 0.6646979
583.70 0.6642039
583.80 0.6637103
583.90 0.6632169
584.00 0.6627239
584.10 0.6622311
584.20 0.6617386
584.30 0.6612465
584.40 0.6607546
584.50 0.6602631
584.60 0.6597718
584.70 0.6592808
584.80 0.6587902
584.90 0.6582747
585.00 0.6576455
585.10 0.6570166
585.20 0.6562329
585.30 0.6551967
585.40 0.6541611
585.50 0.6531261
585.60 0.6520919
585.70 0.6510583
585.80 0.6500254
585.90 0.6489931
586.00 0.6479615
586.10 0.6469306
586.20 0.6453059
586.30 0.6427126
586.40 0.640121
586.50 0.6375312
586.60 0.634943
586.70 0.6323566
586.80 0.6281852
586.90 0.6214283
587.00 0.6146761
587.10 0.6079284
587.20 0.597091
587.30 0.5795832
587.40 0.5557658
587.50 0.4812433
587.60 0.4124854
587.70 0.5335744
587.80 0.5687666
587.90 0.5877781
588.00 0.6020453
588.10 0.6085857
588.20 0.6151217
588.30 0.6216532
588.40 0.62647
588.50 0.6284939
588.60 0.6305165
588.70 0.6325377
588.80 0.6345574
588.90 0.6365758
589.00 0.6379871
589.10 0.6384098
589.20 0.6388321
589.30 0.6392542
589.40 0.6396759
589.50 0.6400973
589.60 0.6405183
589.70 0.640939
589.80 0.6413595
589.90 0.6417795
590.00 0.6420221
590.10 0.6419755
590.20 0.6419289
590.30 0.6418822
590.40 0.6418356
590.50 0.6417889
590.60 0.6417423
590.70 0.6416956
590.80 0.6415648
590.90 0.6413962
591.00 0.6412277
591.10 0.6410593
591.20 0.6408909
591.30 0.6407226
591.40 0.6405544
591.50 0.6403863
591.60 0.6401897
591.70 0.6399465
591.80 0.6397034
591.90 0.6394605
592.00 0.6392177
592.10 0.638975
592.20 0.6387324
592.30 0.63849
592.40 0.6382477
592.50 0.6380055
592.60 0.6377635
592.70 0.6375216
592.80 0.6372798
592.90 0.6370381
593.00 0.6367966
593.10 0.6365425
593.20 0.6362678
593.30 0.6359934
593.40 0.635719
593.50 0.6354448
593.60 0.6351708
593.70 0.6348969
593.80 0.6346231
593.90 0.6343496
594.00 0.6340761
594.10 0.6338028
594.20 0.6335297
594.30 0.6332566
594.40 0.6329838
594.50 0.6327111
594.60 0.6324385
594.70 0.6321661
594.80 0.6318938
594.90 0.6316217
595.00 0.6313497
595.10 0.6310718
595.20 0.6307841
595.30 0.6304965
595.40 0.6302091
595.50 0.6299219
595.60 0.6296348
595.70 0.6293479
595.80 0.6290611
595.90 0.6287745
596.00 0.628488
596.10 0.6282017
596.20 0.6279156
596.30 0.6276296
596.40 0.6273437
596.50 0.627058
596.60 0.6267725
596.70 0.6264874
596.80 0.6262026
596.90 0.6259179
597.00 0.6256334
597.10 0.625349
597.20 0.6250648
597.30 0.6247807
597.40 0.6244968
597.50 0.6242131
597.60 0.6239277
597.70 0.6236396
597.80 0.6233516
597.90 0.6230637
598.00 0.622776
598.10 0.6224885
598.20 0.6222011
598.30 0.6219139
598.40 0.6216269
598.50 0.62134
598.60 0.6210532
598.70 0.6207666
598.80 0.6204802
598.90 0.6201939
599.00 0.6199078
599.10 0.6196219
599.20 0.6193361
599.30 0.6190504
599.40 0.6187655
599.50 0.6184807
599.60 0.618196
599.70 0.6179115
599.80 0.6176272
599.90 0.617343
600.00 0.617059
600.10 0.6167752
600.20 0.6164915
600.30 0.6162079
600.40 0.6159245
600.50 0.6156413
600.60 0.6153582
600.70 0.6150753
600.80 0.6147925
600.90 0.6145098
601.00 0.6142274
601.10 0.6139451
601.20 0.6136629
601.30 0.6133809
601.40 0.6130949
601.50 0.612809
601.60 0.6125233
601.70 0.6122377
601.80 0.6119523
601.90 0.611667
602.00 0.6113819
602.10 0.611097
602.20 0.6108122
602.30 0.6105276
602.40 0.6102431
602.50 0.6099588
602.60 0.6096746
602.70 0.609421
602.80 0.6091691
602.90 0.6088823
603.00 0.6085956
603.10 0.6083091
603.20 0.6080227
603.30 0.6077365
603.40 0.6074505
603.50 0.6071646
603.60 0.6068789
603.70 0.6065933
603.80 0.6063079
603.90 0.6060226
604.00 0.6057375
604.10 0.6054525
604.20 0.6051677
604.30 0.6048831
604.40 0.6045986
604.50 0.6043215
604.60 0.6040445
604.70 0.6037677
604.80 0.6034911
604.90 0.6032146
605.00 0.6029382
605.10 0.602662
605.20 0.6023859
605.30 0.60211
605.40 0.6018343
605.50 0.6015554
605.60 0.6012768
605.70 0.6009983
605.80 0.6007199
605.90 0.6004417
606.00 0.6001637
606.10 0.5998698
606.20 0.5995761
606.30 0.5992825
606.40 0.5989891
606.50 0.598648
606.60 0.5983071
606.70 0.5976315
606.80 0.5973389
606.90 0.5972855
607.00 0.5971365
607.10 0.596892
607.20 0.5966477
607.30 0.5963796
607.40 0.5961117
607.50 0.5958439
607.60 0.5955762
607.70 0.5953167
607.80 0.5950572
607.90 0.594798
608.00 0.5945388
608.10 0.5942798
608.20 0.5940209
608.30 0.5937373
608.40 0.5934539
608.50 0.5931706
608.60 0.5928874
608.70 0.5926192
608.80 0.5923577
608.90 0.5920964
609.00 0.5918352
609.10 0.5915742
609.20 0.5913133
609.30 0.5910362
609.40 0.5907593
609.50 0.5904825
609.60 0.5902059
609.70 0.5899294
609.80 0.5896531
609.90 0.5893769
610.00 0.5891009
610.10 0.588825
610.20 0.5885493
610.30 0.5882737
610.40 0.5879983
610.50 0.587723
610.60 0.5874479
610.70 0.5871729
610.80 0.586898
610.90 0.5866241
611.00 0.5863504
611.10 0.5860768
611.20 0.5858033
611.30 0.58553
611.40 0.5852568
611.50 0.5849838
611.60 0.584711
611.70 0.5844382
611.80 0.5841657
611.90 0.5838932
612.00 0.5836209
612.10 0.5833488
612.20 0.5830768
612.30 0.582805
612.40 0.5825396
612.50 0.5822743
612.60 0.5820091
612.70 0.5817441
612.80 0.5814792
612.90 0.5812145
613.00 0.5809499
613.10 0.5806855
613.20 0.5804212
613.30 0.580157
613.40 0.579893
613.50 0.5796291
613.60 0.5793654
613.70 0.5791018
613.80 0.5788384
613.90 0.578575
614.00 0.5783119
614.10 0.5780488
614.20 0.577786
614.30 0.5775232
614.40 0.5772457
614.50 0.5769684
614.60 0.5766913
614.70 0.5764143
614.80 0.5761448
614.90 0.5758769
615.00 0.5756092
615.10 0.5753416
615.20 0.5750742
615.30 0.5748069
615.40 0.5745398
615.50 0.5742728
615.60 0.5740059
615.70 0.5737392
615.80 0.5734726
615.90 0.5732062
616.00 0.5729399
616.10 0.5726738
616.20 0.5724078
616.30 0.5721419
616.40 0.5718762
616.50 0.5716106
616.60 0.5713452
616.70 0.5710799
616.80 0.5708148
616.90 0.5705523
617.00 0.57029
617.10 0.5700278
617.20 0.5697658
617.30 0.5695039
617.40 0.5692421
617.50 0.5689805
617.60 0.5687191
617.70 0.5684577
617.80 0.5681965
617.90 0.5679355
618.00 0.5676745
618.10 0.5674138
618.20 0.5671531
618.30 0.5668926
618.40 0.5666323
618.50 0.566372
618.60 0.5661119
618.70 0.565852
618.80 0.5655922
618.90 0.5653325
619.00 0.565073
619.10 0.5648136
619.20 0.5645543
619.30 0.5642952
619.40 0.5640362
619.50 0.5637774
619.60 0.5635187
619.70 0.5632601
619.80 0.5630017
619.90 0.5627434
620.00 0.5624852
620.10 0.5622272
620.20 0.5619693
620.30 0.5617116
620.40 0.561454
620.50 0.5611965
620.60 0.5609392
620.70 0.560682
620.80 0.5604249
620.90 0.560168
621.00 0.5599111
621.10 0.5596544
621.20 0.5593978
621.30 0.5591413
621.40 0.558885
621.50 0.5586288
621.60 0.5583728
621.70 0.5581169
621.80 0.5578611
621.90 0.5576054
622.00 0.5573499
622.10 0.5570946
622.20 0.5568393
622.30 0.5565842
622.40 0.5563293
622.50 0.5560744
622.60 0.5558197
622.70 0.5555652
622.80 0.5553107
622.90 0.5550565
623.00 0.5548023
623.10 0.5545483
623.20 0.5542944
623.30 0.5540406
623.40 0.553787
623.50 0.5535335
623.60 0.5532802
623.70 0.553027
623.80 0.5527739
623.90 0.5525209
624.00 0.5522681
624.10 0.5520154
624.20 0.5517629
624.30 0.5515105
624.40 0.5512582
624.50 0.551006
624.60 0.550754
624.70 0.5505021
624.80 0.5502504
624.90 0.5499988
625.00 0.5497473
625.10 0.5494959
625.20 0.5492447
625.30 0.5489936
625.40 0.5487427
625.50 0.5484919
625.60 0.5482412
625.70 0.5479906
625.80 0.5477402
625.90 0.5474899
626.00 0.5472398
626.10 0.5469897
626.20 0.5467398
626.30 0.5464901
626.40 0.5462404
626.50 0.5459909
626.60 0.5457416
626.70 0.5454923
626.80 0.5452432
626.90 0.5449942
627.00 0.5447454
627.10 0.5444961
627.20 0.5442454
627.30 0.5439948
627.40 0.5437444
627.50 0.5434941
627.60 0.5432439
627.70 0.5429938
627.80 0.5427439
627.90 0.5424941
628.00 0.5422445
628.10 0.541995
628.20 0.5417456
628.30 0.5414963
628.40 0.5412472
628.50 0.5409982
628.60 0.5407493
628.70 0.5405006
628.80 0.540252
628.90 0.5400035
629.00 0.5397552
629.10 0.539507
629.20 0.5392589
629.30 0.5390109
629.40 0.5387631
629.50 0.5385154
629.60 0.5382679
629.70 0.5380204
629.80 0.5377731
629.90 0.537526
630.00 0.5372789
630.10 0.537032
630.20 0.5367852
630.30 0.5365412
630.40 0.5362975
630.50 0.536054
630.60 0.5358106
630.70 0.5355673
630.80 0.5353241
630.90 0.5350811
631.00 0.5348382
631.10 0.5345954
631.20 0.5343527
631.30 0.5341102
631.40 0.5338678
631.50 0.5336255
631.60 0.5333834
631.70 0.5331414
631.80 0.5328995
631.90 0.5326577
632.00 0.532416
632.10 0.5321745
632.20 0.5319331
632.30 0.5316919
632.40 0.5314507
632.50 0.5312097
632.60 0.5309688
632.70 0.5307281
632.80 0.5304875
632.90 0.5302469
633.00 0.5300066
633.10 0.5297663
633.20 0.5295262
633.30 0.5292862
633.40 0.5290451
633.50 0.5288033
633.60 0.5285616
633.70 0.52832
633.80 0.5280785
633.90 0.5278372
634.00 0.527596
634.10 0.5273549
634.20 0.5271139
634.30 0.5268731
634.40 0.5266324
634.50 0.5263918
634.60 0.5261514
634.70 0.525911
634.80 0.5256708
634.90 0.5254308
635.00 0.5251908
635.10 0.524951
635.20 0.5247113
635.30 0.5244717
635.40 0.5242322
635.50 0.5239929
635.60 0.5237537
635.70 0.5235146
635.80 0.5232757
635.90 0.5230368
636.00 0.5227981
636.10 0.5225596
636.20 0.5223211
636.30 0.5220828
636.40 0.5218446
636.50 0.5216065
636.60 0.5213685
636.70 0.5211307
636.80 0.520893
636.90 0.5206555
637.00 0.520418
637.10 0.5201807
637.20 0.5199435
637.30 0.5197064
637.40 0.5194695
637.50 0.5192326
637.60 0.5189959
637.70 0.5187594
637.80 0.5185229
637.90 0.5182866
638.00 0.5180504
638.10 0.5178143
638.20 0.5175783
638.30 0.5173424
638.40 0.5171067
638.50 0.5168711
638.60 0.5166356
638.70 0.5164003
638.80 0.5161651
638.90 0.5159299
639.00 0.515695
639.10 0.5154601
639.20 0.5152253
639.30 0.5149907
639.40 0.5147562
639.50 0.5145218
639.60 0.5142876
639.70 0.5140542
639.80 0.5138236
639.90 0.5135931
640.00 0.5133628
640.10 0.5131325
640.20 0.5129024
640.30 0.5126724
640.40 0.5124425
640.50 0.5122128
640.60 0.5119831
640.70 0.5117536
640.80 0.5115242
640.90 0.5112949
641.00 0.5110657
641.10 0.5108367
641.20 0.5106077
641.30 0.5103789
641.40 0.5101502
641.50 0.5099216
641.60 0.5096932
641.70 0.5094648
641.80 0.5092366
641.90 0.5090085
642.00 0.5087805
642.10 0.5085526
642.20 0.5083248
642.30 0.5080972
642.40 0.5078697
642.50 0.5076423
642.60 0.507415
642.70 0.5071878
642.80 0.5069607
642.90 0.5067331
643.00 0.5065036
643.10 0.5062742
643.20 0.506045
643.30 0.5058158
643.40 0.5055868
643.50 0.5053578
643.60 0.505129
643.70 0.5049004
643.80 0.5046718
643.90 0.5044433
644.00 0.504215
644.10 0.5039868
644.20 0.5037587
644.30 0.5035307
644.40 0.5033029
644.50 0.5030751
644.60 0.5028475
644.70 0.50262
644.80 0.5023926
644.90 0.5021653
645.00 0.5019381
645.10 0.5017111
645.20 0.5014842
645.30 0.5012574
645.40 0.5010307
645.50 0.5008041
645.60 0.5005776
645.70 0.5003513
645.80 0.5001251
645.90 0.4998989
646.00 0.499673
646.10 0.4994466
646.20 0.4992189
646.30 0.4989914
646.40 0.4987639
646.50 0.4985366
646.60 0.4983094
646.70 0.4980823
646.80 0.4978553
646.90 0.4976285
647.00 0.4974017
647.10 0.4971751
647.20 0.4969486
647.30 0.4967222
647.40 0.496496
647.50 0.4962698
647.60 0.4960438
647.70 0.4958178
647.80 0.495592
647.90 0.4953664
648.00 0.4951408
648.10 0.4949153
648.20 0.49469
648.30 0.4944647
648.40 0.4942396
648.50 0.4940146
648.60 0.4937897
648.70 0.493565
648.80 0.4933403
648.90 0.4931158
649.00 0.4928914
649.10 0.4926671
649.20 0.4924429
649.30 0.4922188
649.40 0.4919973
649.50 0.4917761
649.60 0.4915549
649.70 0.4913339
649.80 0.491113
649.90 0.4908922
650.00 0.4906715
650.10 0.490451
650.20 0.4902305
650.30 0.4900102
650.40 0.48979
650.50 0.4895698
650.60 0.4893498
650.70 0.4891299
650.80 0.4889102
650.90 0.4886905
651.00 0.4884709
651.10 0.4882515
651.20 0.4880321
651.30 0.4878129
651.40 0.4875938
651.50 0.4873748
651.60 0.4871559
651.70 0.4869371
651.80 0.4867185
651.90 0.4864999
652.00 0.4862815
652.10 0.4860631
652.20 0.4858449
652.30 0.4856268
652.40 0.4854088
652.50 0.4851909
652.60 0.4849722
652.70 0.4847531
652.80 0.4845341
652.90 0.4843152
653.00 0.4840965
653.10 0.4838778
653.20 0.4836592
653.30 0.4834408
653.40 0.4832225
653.50 0.4830043
653.60 0.4827862
653.70 0.4825682
653.80 0.4823503
653.90 0.4821325
654.00 0.4819148
654.10 0.4816973
654.20 0.4814798
654.30 0.4812625
654.40 0.4810453
654.50 0.4808282
654.60 0.4806112
654.70 0.4803943
654.80 0.4801775
654.90 0.4799608
655.00 0.4797443
655.10 0.4795278
655.20 0.4793115
655.30 0.4790952
655.40 0.4788791
655.50 0.4786631
655.60 0.4784472
655.70 0.4782314
655.80 0.478016
655.90 0.4778007
656.00 0.4775854
656.10 0.4773703
656.20 0.4771553
656.30 0.4769405
656.40 0.4767257
656.50 0.476511
656.60 0.4762964
656.70 0.476082
656.80 0.4758677
656.90 0.4756534
657.00 0.4754393
657.10 0.4752253
657.20 0.4750114
657.30 0.4747976
657.40 0.4745839
657.50 0.4743703
657.60 0.4741568
657.70 0.4739434
657.80 0.4737286
657.90 0.4735129
658.00 0.4732971
658.10 0.4730814
658.20 0.4728659
658.30 0.4726504
658.40 0.4724351
658.50 0.4722199
658.60 0.4720047
658.70 0.4717897
658.80 0.4715748
658.90 0.47136
659.00 0.4711454
659.10 0.4709363
659.20 0.4707355
659.30 0.4705201
659.40 0.4703047
659.50 0.4700895
659.60 0.4698744
659.70 0.4696594
659.80 0.4694445
659.90 0.4692297
660.00 0.469015
660.10 0.4688004
660.20 0.468586
660.30 0.4683716
660.40 0.4681482
660.50 0.4679232
660.60 0.4676984
660.70 0.4674736
660.80 0.467249
660.90 0.467027
661.00 0.4668051
661.10 0.4665834
661.20 0.4663617
661.30 0.4661401
661.40 0.4659187
661.50 0.4656974
661.60 0.4654761
661.70 0.465255
661.80 0.465034
661.90 0.4647999
662.00 0.4645659
662.10 0.464332
662.20 0.4640982
662.30 0.4638645
662.40 0.4636302
662.50 0.4633498
662.60 0.4630696
662.70 0.4627896
662.80 0.4625097
662.90 0.4621297
663.00 0.46175
663.10 0.4612103
663.20 0.4611513
663.30 0.4614124
663.40 0.4614334
663.50 0.4612543
663.60 0.4610753
663.70 0.460862
663.80 0.4606488
663.90 0.4604255
664.00 0.4602005
664.10 0.4599555
664.20 0.4597105
664.30 0.4594658
664.40 0.4592211
664.50 0.4589766
664.60 0.4587321
664.70 0.4584377
664.80 0.4581433
664.90 0.4578492
665.00 0.4575552
665.10 0.4572613
665.20 0.4569676
665.30 0.456674
665.40 0.4563807
665.50 0.4560009
665.60 0.4556061
665.70 0.4551961
665.80 0.4546643
665.90 0.4541328
666.00 0.4536015
666.10 0.4530706
666.20 0.45254
666.30 0.4520096
666.40 0.4514796
666.50 0.4502967
666.60 0.4489994
666.70 0.4477027
666.80 0.4464069
666.90 0.4451118
667.00 0.4438174
667.10 0.4412926
667.20 0.438552
667.30 0.4336022
667.40 0.4286554
667.50 0.41887
667.60 0.4082363
667.70 0.3875422
667.80 0.3491593
667.90 0.3739499
668.00 0.4010733
668.10 0.4127494
668.20 0.4231941
668.30 0.4279026
668.40 0.4315973
668.50 0.4352898
668.60 0.4389801
668.70 0.440918
668.80 0.4417645
668.90 0.4426105
669.00 0.4434559
669.10 0.4443008
669.20 0.4451452
669.30 0.4453792
669.40 0.4455055
669.50 0.4456317
669.60 0.4457578
669.70 0.4458837
669.80 0.4460096
669.90 0.4461354
670.00 0.4462611
670.10 0.4463867
670.20 0.4465123
670.30 0.446459
670.40 0.4463743
670.50 0.4462896
670.60 0.446205
670.70 0.4461204
670.80 0.4459803
670.90 0.4458404
671.00 0.4457005
671.10 0.4455607
671.20 0.4454209
671.30 0.4452812
671.40 0.4451415
671.50 0.445002
671.60 0.4448625
671.70 0.444723
671.80 0.4445836
671.90 0.4444233
672.00 0.4442593
672.10 0.4440955
672.20 0.4439317
672.30 0.4437679
672.40 0.4435932
672.50 0.4434177
672.60 0.4432422
672.70 0.4430669
672.80 0.4428916
672.90 0.4427165
673.00 0.4425414
673.10 0.4423664
673.20 0.4421915
673.30 0.4419926
673.40 0.441805
673.50 0.4416195
673.60 0.441434
673.70 0.4412487
673.80 0.4410634
673.90 0.4408783
674.00 0.4406932
674.10 0.4405082
674.20 0.4403233
674.30 0.4401385
674.40 0.4399538
674.50 0.4397692
674.60 0.4395846
674.70 0.4394002
674.80 0.4392158
674.90 0.4390316
675.00 0.4388474
675.10 0.4386633
675.20 0.4384793
675.30 0.4382954
675.40 0.4381076
675.50 0.4379193
675.60 0.437731
675.70 0.4375429
675.80 0.4373548
675.90 0.4371668
676.00 0.4369789
676.10 0.4367911
676.20 0.4366034
676.30 0.4364158
676.40 0.4362282
676.50 0.4360408
676.60 0.4358535
676.70 0.4356662
676.80 0.4354791
676.90 0.435292
677.00 0.435105
677.10 0.4349181
677.20 0.4347313
677.30 0.4345446
677.40 0.434358
677.50 0.4341715
677.60 0.4339851
677.70 0.4337987
677.80 0.4336125
677.90 0.4334222
678.00 0.4332313
678.10 0.4330405
678.20 0.4328498
678.30 0.4326592
678.40 0.4324687
678.50 0.4322783
678.60 0.432088
678.70 0.4318977
678.80 0.4317076
678.90 0.4315175
679.00 0.4313276
679.10 0.4311384
679.20 0.4309496
679.30 0.4307609
679.40 0.4305724
679.50 0.4303839
679.60 0.4301954
679.70 0.4300071
679.80 0.4298189
679.90 0.4296308
680.00 0.4294427
680.10 0.4292548
680.20 0.4290669
680.30 0.4288792
680.40 0.4286915
680.50 0.4285039
680.60 0.4283164
680.70 0.428129
680.80 0.4279417
680.90 0.4277545
681.00 0.4275674
681.10 0.4273804
681.20 0.4271934
681.30 0.4270066
681.40 0.4268198
681.50 0.4266332
681.60 0.4264466
681.70 0.4262601
681.80 0.4260737
681.90 0.4258874
682.00 0.4257012
682.10 0.4255151
682.20 0.4253291
682.30 0.4251431
682.40 0.4249573
682.50 0.4247715
682.60 0.4245859
682.70 0.4244003
682.80 0.4242148
682.90 0.4240294
683.00 0.4238441
683.10 0.4236589
683.20 0.4234738
683.30 0.4232887
683.40 0.4231038
683.50 0.422919
683.60 0.4227342
683.70 0.4225495
683.80 0.4223649
683.90 0.4221804
684.00 0.421996
684.10 0.4218117
684.20 0.4216275
684.30 0.4214434
684.40 0.4212593
684.50 0.4210754
684.60 0.4208915
684.70 0.4207077
684.80 0.4205241
684.90 0.4203405
685.00 0.420157
685.10 0.4199735
685.20 0.4197902
685.30 0.419607
685.40 0.4194238
685.50 0.4192408
685.60 0.4190578
685.70 0.4188749
685.80 0.4186921
685.90 0.4185099
686.00 0.4183279
686.10 0.418146
686.20 0.4179641
686.30 0.4177824
686.40 0.4176007
686.50 0.4174192
686.60 0.4172377
686.70 0.4170563
686.80 0.416875
686.90 0.4166938
687.00 0.4165127
687.10 0.4163316
687.20 0.4161507
687.30 0.4159698
687.40 0.415789
687.50 0.4156083
687.60 0.4154277
687.70 0.4152472
687.80 0.4150668
687.90 0.4148865
688.00 0.4147062
688.10 0.414526
688.20 0.414346
688.30 0.414166
688.40 0.4139861
688.50 0.4138063
688.60 0.4136265
688.70 0.4134469
688.80 0.4132673
688.90 0.4130879
689.00 0.4129085
689.10 0.4127292
689.20 0.41255
689.30 0.4123709
689.40 0.4121918
689.50 0.4120129
689.60 0.411834
689.70 0.4116552
689.80 0.4114766
689.90 0.411298
690.00 0.4111194
690.10 0.410941
690.20 0.4107627
690.30 0.4105844
690.40 0.4104062
690.50 0.4102282
690.60 0.4100502
690.70 0.4098722
690.80 0.4096944
690.90 0.4095167
691.00 0.409339
691.10 0.4091614
691.20 0.408984
691.30 0.4088066
691.40 0.4086292
691.50 0.408452
691.60 0.4082749
691.70 0.4080978
691.80 0.4079208
691.90 0.4077439
692.00 0.4075671
692.10 0.4073904
692.20 0.4072138
692.30 0.4070373
692.40 0.4068608
692.50 0.4066844
692.60 0.4065081
692.70 0.4063318
692.80 0.4061553
692.90 0.4059789
693.00 0.4058025
693.10 0.4056263
693.20 0.4054501
693.30 0.405274
693.40 0.405098
693.50 0.404922
693.60 0.4047462
693.70 0.4045704
693.80 0.4043948
693.90 0.4042192
694.00 0.4040437
694.10 0.4038683
694.20 0.4036929
694.30 0.4035177
694.40 0.4033425
694.50 0.4031674
694.60 0.4029924
694.70 0.4028175
694.80 0.4026427
694.90 0.4024679
695.00 0.4022933
695.10 0.4021187
695.20 0.4019442
695.30 0.4017698
695.40 0.4015954
695.50 0.4014212
695.60 0.401247
695.70 0.401073
695.80 0.400899
695.90 0.4007251
696.00 0.4005512
696.10 0.4003775
696.20 0.4002038
696.30 0.4000303
696.40 0.3998568
696.50 0.3996833
696.60 0.3995104
696.70 0.3993377
696.80 0.3991651
696.90 0.3989926
697.00 0.3988201
697.10 0.3986477
697.20 0.3984754
697.30 0.3983032
697.40 0.398131
697.50 0.397959
697.60 0.397787
697.70 0.3976151
697.80 0.3974433
697.90 0.3972716
698.00 0.3970999
698.10 0.3969284
698.20 0.3967569
698.30 0.3965855
698.40 0.3964142
698.50 0.3962429
698.60 0.3960718
698.70 0.3959007
698.80 0.3957297
698.90 0.3955588
699.00 0.395388
699.10 0.3952141
699.20 0.3950396
699.30 0.3948652
699.40 0.3946909
699.50 0.3945167
699.60 0.3943425
699.70 0.3941687
699.80 0.3939951
699.90 0.3938215
700.00 0.393648
700.10 0.3934746
700.20 0.3933012
700.30 0.393128
700.40 0.3929548
700.50 0.3927817
700.60 0.3926087
700.70 0.3924358
700.80 0.392263
700.90 0.3920902
701.00 0.3919175
701.10 0.3917439
701.20 0.3915701
701.30 0.3913964
701.40 0.3912227
701.50 0.3910492
701.60 0.3908757
701.70 0.3907024
701.80 0.3905291
701.90 0.3903558
702.00 0.3901827
702.10 0.3900097
702.20 0.3898367
702.30 0.3896638
702.40 0.389491
702.50 0.3893183
702.60 0.3891343
702.70 0.3889478
702.80 0.3887614
702.90 0.3885751
703.00 0.3883888
703.10 0.3882027
703.20 0.3880166
703.30 0.3878306
703.40 0.3876447
703.50 0.3874589
703.60 0.3872732
703.70 0.3870876
703.80 0.3869021
703.90 0.3867167
704.00 0.3865313
704.10 0.3863461
704.20 0.3861012
704.30 0.3858425
704.40 0.3855839
704.50 0.3853255
704.60 0.3850672
704.70 0.384809
704.80 0.3845509
704.90 0.384293
705.00 0.3840352
705.10 0.3837775
705.20 0.3832676
705.30 0.3826988
705.40 0.3821303
705.50 0.3815622
705.60 0.3809943
705.70 0.3804267
705.80 0.3789147
705.90 0.377182
706.00 0.3754502
706.10 0.3737194
706.20 0.3692444
706.30 0.3641281
706.40 0.3542185
706.50 0.3331213
706.60 0.3396655
706.70 0.3562534
706.80 0.3632726
706.90 0.3692301
707.00 0.3717462
707.10 0.3734546
707.20 0.375162
707.30 0.3768684
707.40 0.3774292
707.50 0.3777211
707.60 0.3780129
707.70 0.3783045
707.80 0.3785959
707.90 0.3788871
708.00 0.3788956
708.10 0.3788377
708.20 0.3787799
708.30 0.3787221
708.40 0.3786643
708.50 0.3786065
708.60 0.3785488
708.70 0.378491
708.80 0.3784333
708.90 0.3783756
709.00 0.3782533
709.10 0.378116
709.20 0.3779788
709.30 0.3778416
709.40 0.3777045
709.50 0.3775674
709.60 0.3774304
709.70 0.3772934
709.80 0.3771566
709.90 0.3770197
710.00 0.376883
710.10 0.3767463
710.20 0.3766097
710.30 0.3764731
710.40 0.3763366
710.50 0.3762001
710.60 0.376047
710.70 0.3758901
710.80 0.3757332
710.90 0.3755764
711.00 0.3754197
711.10 0.3752631
711.20 0.3751065
711.30 0.37495
711.40 0.3747935
711.50 0.3746372
711.60 0.3744809
711.70 0.3743247
711.80 0.3741686
711.90 0.3740125
712.00 0.3738565
712.10 0.3737009
712.20 0.3735454
712.30 0.37339
712.40 0.3732346
712.50 0.3730794
712.60 0.3729242
712.70 0.372769
712.80 0.372614
712.90 0.372459
713.00 0.3723041
713.10 0.3721493
713.20 0.3719945
713.30 0.3718398
713.40 0.3716852
713.50 0.3715307
713.60 0.3713762
713.70 0.3712189
713.80 0.371056
713.90 0.3708932
714.00 0.3707305
714.10 0.3705729
714.20 0.3704167
714.30 0.3702605
714.40 0.3701045
714.50 0.3699484
714.60 0.3697925
714.70 0.3696366
714.80 0.3694808
714.90 0.3693251
715.00 0.3691695
715.10 0.3690139
715.20 0.3688584
715.30 0.368703
715.40 0.3685476
715.50 0.3683923
715.60 0.3682371
715.70 0.368082
715.80 0.3679269
715.90 0.3677719
716.00 0.367617
716.10 0.3674621
716.20 0.3673073
716.30 0.3671526
716.40 0.366998
716.50 0.3668434
716.60 0.3666899
716.70 0.3665367
716.80 0.3663835
716.90 0.3662304
717.00 0.3660774
717.10 0.3659245
717.20 0.3657716
717.30 0.3656188
717.40 0.3654661
717.50 0.3653134
717.60 0.3651608
717.70 0.3650083
717.80 0.3648559
717.90 0.3647035
718.00 0.3645512
718.10 0.3643989
718.20 0.3642442
718.30 0.3640882
718.40 0.3639323
718.50 0.3637764
718.60 0.3636206
718.70 0.3634649
718.80 0.3633093
718.90 0.3631537
719.00 0.3629982
719.10 0.3628428
719.20 0.3626874
719.30 0.3625321
719.40 0.3623769
719.50 0.3622218
719.60 0.3620667
719.70 0.3619117
719.80 0.3617568
719.90 0.3616019
720.00 0.3614471
720.10 0.3612924
720.20 0.3611378
720.30 0.3609832
720.40 0.3608287
720.50 0.3606743
720.60 0.36052
720.70 0.3603749
720.80 0.3602348
720.90 0.3600835
721.00 0.3599318
721.10 0.3597802
721.20 0.3596287
721.30 0.3594772
721.40 0.3593258
721.50 0.3591745
721.60 0.3590233
721.70 0.3588721
721.80 0.358721
721.90 0.3585699
722.00 0.358419
722.10 0.3582681
722.20 0.3581172
722.30 0.3579665
722.40 0.3578158
722.50 0.3576652
722.60 0.3575146
722.70 0.3573626
722.80 0.3572098
722.90 0.3570571
723.00 0.3569044
723.10 0.3567518
723.20 0.3565993
723.30 0.3564469
723.40 0.3562945
723.50 0.3561422
723.60 0.35599
723.70 0.3558378
723.80 0.3556857
723.90 0.3555337
724.00 0.3553817
724.10 0.3552299
724.20 0.3550775
724.30 0.3549249
724.40 0.3547724
724.50 0.35462
724.60 0.3544676
724.70 0.3543153
724.80 0.3541631
724.90 0.3540109
725.00 0.3538589
725.10 0.3537068
725.20 0.3535549
725.30 0.353403
725.40 0.3532512
725.50 0.3530995
725.60 0.3529478
725.70 0.3527962
725.80 0.3526322
725.90 0.3524616
726.00 0.352291
726.10 0.3521205
726.20 0.3519501
726.30 0.3517797
726.40 0.3516095
726.50 0.3514393
726.60 0.3512692
726.70 0.3510992
726.80 0.350883
726.90 0.3506421
727.00 0.3504013
727.10 0.3501606
727.20 0.34992
727.30 0.3496796
727.40 0.3491761
727.50 0.3485312
727.60 0.3478866
727.70 0.3472424
727.80 0.3454426
727.90 0.3430216
728.00 0.3383908
728.10 0.3289172
728.20 0.3294495
728.30 0.3381969
728.40 0.3418257
728.50 0.3444191
728.60 0.3456206
728.70 0.3460728
728.80 0.3465248
728.90 0.3469765
729.00 0.3471086
729.10 0.3470686
729.20 0.3470286
729.30 0.3469886
729.40 0.3469486
729.50 0.3469086
729.60 0.3468156
729.70 0.3466941
729.80 0.3465727
729.90 0.3464513
730.00 0.3463299
730.10 0.3462086
730.20 0.3460874
730.30 0.3459662
730.40 0.3458451
730.50 0.345724
730.60 0.345588
730.70 0.3454439
730.80 0.3453
730.90 0.345156
731.00 0.3450122
731.10 0.3448684
731.20 0.3447247
731.30 0.344581
731.40 0.3444374
731.50 0.3442939
731.60 0.3441505
731.70 0.3440071
731.80 0.3438637
731.90 0.3437205
732.00 0.3435773
732.10 0.3434342
732.20 0.3432918
732.30 0.3431499
732.40 0.3430081
732.50 0.3428663
732.60 0.3427246
732.70 0.3425829
732.80 0.3424413
732.90 0.3422998
733.00 0.3421584
733.10 0.342017
733.20 0.3418757
733.30 0.3417344
733.40 0.3415932
733.50 0.3414521
733.60 0.341311
733.70 0.3411704
733.80 0.3410301
733.90 0.3408898
734.00 0.3407496
734.10 0.3406094
734.20 0.3404693
734.30 0.3403293
734.40 0.3401893
734.50 0.3400495
734.60 0.3399096
734.70 0.3397699
734.80 0.3396301
734.90 0.3394905
735.00 0.3393509
735.10 0.3392114
735.20 0.339072
735.30 0.3389318
735.40 0.3387827
735.50 0.3386336
735.60 0.3384846
735.70 0.3383406
735.80 0.3381992
735.90 0.3380579
736.00 0.3379166
736.10 0.3377754
736.20 0.3376343
736.30 0.3374932
736.40 0.3373522
736.50 0.3372112
736.60 0.3370704
736.70 0.3369296
736.80 0.3367888
736.90 0.3366481
737.00 0.3365075
737.10 0.3363669
737.20 0.3362265
737.30 0.336086
737.40 0.3359457
737.50 0.3358054
737.60 0.3356651
737.70 0.3355249
737.80 0.3353848
737.90 0.3352448
738.00 0.3351048
738.10 0.3349649
738.20 0.3348253
738.30 0.3346859
738.40 0.3345466
738.50 0.3344073
738.60 0.3342681
738.70 0.3341289
738.80 0.3339898
738.90 0.3338508
739.00 0.3337119
739.10 0.333573
739.20 0.3334342
739.30 0.3332954
739.40 0.3331567
739.50 0.333018
739.60 0.3328795
739.70 0.3327409
739.80 0.3326025
739.90 0.3324641
740.00 0.3323258
740.10 0.3321875
740.20 0.3320493
740.30 0.3319112
740.40 0.3317731
740.50 0.3316351
740.60 0.3314971
740.70 0.3313592
740.80 0.3312214
740.90 0.3310836
741.00 0.3309459
741.10 0.3308083
741.20 0.3306707
741.30 0.3305332
741.40 0.3303957
741.50 0.3302584
741.60 0.330121
741.70 0.3299838
741.80 0.3298466
741.90 0.3297094
742.00 0.3295723
742.10 0.3294353
742.20 0.3292983
742.30 0.3291615
742.40 0.3290246
742.50 0.3288878
742.60 0.3287511
742.70 0.3286138
742.80 0.328476
742.90 0.3283383
743.00 0.3282006
743.10 0.328063
743.20 0.3279254
743.30 0.3277879
743.40 0.3276505
743.50 0.3275131
743.60 0.3273758
743.70 0.3272388
743.80 0.3271031
743.90 0.3269673
744.00 0.3268317
744.10 0.3266961
744.20 0.3265605
744.30 0.3264251
744.40 0.3262897
744.50 0.3261543
744.60 0.326019
744.70 0.3258838
744.80 0.3257486
744.90 0.3256135
745.00 0.3254784
745.10 0.3253435
745.20 0.3252085
745.30 0.3250737
745.40 0.3249388
745.50 0.3248041
745.60 0.3246694
745.70 0.3245348
745.80 0.3244002
745.90 0.3242657
746.00 0.3241313
746.10 0.3239969
746.20 0.3238626
746.30 0.3237283
746.40 0.3235941
746.50 0.32346
746.60 0.3233259
746.70 0.3231919
746.80 0.3230579
746.90 0.322924
747.00 0.3227901
747.10 0.3226564
747.20 0.3225226
747.30 0.322389
747.40 0.3222554
747.50 0.3221218
747.60 0.3219884
747.70 0.3218549
747.80 0.3217216
747.90 0.3215883
748.00 0.321455
748.10 0.3213218
748.20 0.3211887
748.30 0.3210557
748.40 0.3209227
748.50 0.3207897
748.60 0.3206568
748.70 0.320524
748.80 0.3203912
748.90 0.3202585
749.00 0.3201259
749.10 0.3199933
749.20 0.3198608
749.30 0.3197283
749.40 0.3195959
749.50 0.3194635
749.60 0.3193313
749.70 0.319199
749.80 0.3190669
749.90 0.3189347
750.00 0.3188027
750.10 0.3186712
750.20 0.3185412
750.30 0.3184113
750.40 0.3182814
750.50 0.3181516
750.60 0.3180218
750.70 0.3178921
750.80 0.3177624
750.90 0.3176329
751.00 0.3175033
751.10 0.3173738
751.20 0.3172444
751.30 0.3171151
751.40 0.3169857
751.50 0.3168565
751.60 0.3167273
751.70 0.3165982
751.80 0.3164691
751.90 0.3163401
752.00 0.3162111
752.10 0.3160822
752.20 0.3159534
752.30 0.3158246
752.40 0.3156958
752.50 0.3155672
752.60 0.3154386
752.70 0.31531
752.80 0.3151815
752.90 0.315053
753.00 0.3149247
753.10 0.3147963
753.20 0.314668
753.30 0.3145398
753.40 0.3144117
753.50 0.3142836
753.60 0.3141555
753.70 0.3140275
753.80 0.3138996
753.90 0.3137704
754.00 0.313641
754.10 0.3135115
754.20 0.3133822
754.30 0.3132529
754.40 0.3131237
754.50 0.3129945
754.60 0.3128653
754.70 0.3127363
754.80 0.3126073
754.90 0.3124783
755.00 0.3123494
755.10 0.3122206
755.20 0.3120918
755.30 0.3119631
755.40 0.3118344
755.50 0.3117058
755.60 0.3115772
755.70 0.3114487
755.80 0.3113203
755.90 0.3111919
756.00 0.3110636
756.10 0.3109353
756.20 0.3108071
756.30 0.310679
756.40 0.3105509
756.50 0.3104228
756.60 0.3102949
756.70 0.3101669
756.80 0.3100391
756.90 0.3099112
757.00 0.3097835
757.10 0.3096558
757.20 0.3095282
757.30 0.3094006
757.40 0.309273
757.50 0.3091456
757.60 0.3090183
757.70 0.3088914
757.80 0.3087645
757.90 0.3086377
758.00 0.308511
758.10 0.3083843
758.20 0.3082577
758.30 0.3081312
758.40 0.3080046
758.50 0.3078782
758.60 0.3077518
758.70 0.3076255
758.80 0.3074992
758.90 0.3073729
759.00 0.3072468
759.10 0.3071207
759.20 0.3069946
759.30 0.3068686
759.40 0.3067426
759.50 0.3066168
759.60 0.3064909
759.70 0.3063651
759.80 0.3062394
759.90 0.3061137
760.00 0.3059881
760.10 0.3058626
760.20 0.3057371
760.30 0.3056116
760.40 0.3054862
760.50 0.3053609
760.60 0.3052356
760.70 0.3051104
760.80 0.3049852
760.90 0.3048601
761.00 0.304735
761.10 0.30461
761.20 0.3044851
761.30 0.3043602
761.40 0.3042353
761.50 0.3041105
761.60 0.3039858
761.70 0.3038611
761.80 0.3037365
761.90 0.3036119
762.00 0.3034874
762.10 0.303363
762.20 0.3032386
762.30 0.3031142
762.40 0.3029899
762.50 0.3028657
762.60 0.3027415
762.70 0.3026174
762.80 0.3024933
762.90 0.3023693
763.00 0.3022453
763.10 0.3021214
763.20 0.3019976
763.30 0.3018738
763.40 0.30175
763.50 0.3016263
763.60 0.3015027
763.70 0.3013791
763.80 0.3012556
763.90 0.3011321
764.00 0.3010087
764.10 0.3008853
764.20 0.300762
764.30 0.3006388
764.40 0.3005156
764.50 0.3003924
764.60 0.3002693
764.70 0.3001463
764.80 0.3000233
764.90 0.2999004
765.00 0.2997775
765.10 0.2996547
765.20 0.2995325
765.30 0.2994111
765.40 0.2992896
765.50 0.2991682
765.60 0.2990469
765.70 0.2989256
765.80 0.2988044
765.90 0.2986832
766.00 0.2985621
766.10 0.2984411
766.20 0.2983201
766.30 0.2981991
766.40 0.2980782
766.50 0.2979573
766.60 0.2978365
766.70 0.2977158
766.80 0.2975951
766.90 0.2974745
767.00 0.2973539
767.10 0.2972333
767.20 0.2971129
767.30 0.2969924
767.40 0.2968721
767.50 0.2967517
767.60 0.2966315
767.70 0.2965113
767.80 0.2963911
767.90 0.296271
768.00 0.2961509
768.10 0.2960309
768.20 0.2959109
768.30 0.295791
768.40 0.2956712
768.50 0.2955514
768.60 0.2954316
768.70 0.295312
768.80 0.2951923
768.90 0.2950727
769.00 0.2949532
769.10 0.2948337
769.20 0.2947143
769.30 0.2945949
769.40 0.2944756
769.50 0.2943563
769.60 0.2942371
769.70 0.2941179
769.80 0.2939988
769.90 0.2938797
770.00 0.2937607
770.10 0.2936417
770.20 0.2935228
770.30 0.2934039
770.40 0.2932851
770.50 0.2931664
770.60 0.2930477
770.70 0.292929
770.80 0.2928104
770.90 0.2926919
771.00 0.2925734
771.10 0.2924549
771.20 0.2923365
771.30 0.2922182
771.40 0.2920999
771.50 0.2919816
771.60 0.2918635
771.70 0.2917453
771.80 0.2916272
771.90 0.2915092
772.00 0.2913912
772.10 0.2912733
772.20 0.2911554
772.30 0.2910376
772.40 0.2909198
772.50 0.2908021
772.60 0.2906844
772.70 0.2905668
772.80 0.2904492
772.90 0.2903313
773.00 0.2902135
773.10 0.2900957
773.20 0.289978
773.30 0.2898604
773.40 0.2897427
773.50 0.2896252
773.60 0.2895077
773.70 0.2893902
773.80 0.2892728
773.90 0.2891554
774.00 0.2890381
774.10 0.2889209
774.20 0.2888037
774.30 0.2886865
774.40 0.2885694
774.50 0.2884524
774.60 0.2883354
774.70 0.2882184
774.80 0.2881015
774.90 0.2879847
775.00 0.2878679
775.10 0.2877511
775.20 0.2876344
775.30 0.2875178
775.40 0.2874012
775.50 0.2872846
775.60 0.2871682
775.70 0.2870517
775.80 0.2869353
775.90 0.286819
776.00 0.2867027
776.10 0.2865864
776.20 0.2864702
776.30 0.2863541
776.40 0.286238
776.50 0.286122
776.60 0.286006
776.70 0.28589
776.80 0.2857742
776.90 0.2856583
777.00 0.2855425
777.10 0.2854268
777.20 0.2853111
777.30 0.2851955
777.40 0.2850799
777.50 0.2849643
777.60 0.2848488
777.70 0.2847334
777.80 0.284618
777.90 0.2845027
778.00 0.2843874
778.10 0.2842721
778.20 0.284157
778.30 0.2840418
778.40 0.2839267
778.50 0.2838117
778.60 0.2836967
778.70 0.2835818
778.80 0.2834669
778.90 0.283352
779.00 0.2832372
779.10 0.2831225
779.20 0.2830078
779.30 0.2828931
779.40 0.2827786
779.50 0.282664
779.60 0.2825495
779.70 0.2824351
779.80 0.2823207
779.90 0.2822063
780.00 0.282092
780.10 0.2819778
780.20 0.2818636
780.30 0.2817494
780.40 0.2816353
780.50 0.2815213
780.60 0.2814076
780.70 0.281294
780.80 0.2811806
780.90 0.2810671
781.00 0.2809537
781.10 0.2808404
781.20 0.2807271
781.30 0.2806138
781.40 0.2805006
781.50 0.2803875
781.60 0.2802744
781.70 0.2801613
781.80 0.2800483
781.90 0.2799354
782.00 0.2798225
782.10 0.2797096
782.20 0.2795968
782.30 0.2794841
782.40 0.2793714
782.50 0.2792587
782.60 0.2791461
782.70 0.2790335
782.80 0.278921
782.90 0.2788085
783.00 0.2786961
783.10 0.2785837
783.20 0.2784714
783.30 0.2783591
783.40 0.2782469
783.50 0.2781347
783.60 0.2780226
783.70 0.2779105
783.80 0.2777985
783.90 0.2776865
784.00 0.2775746
784.10 0.2774627
784.20 0.2773508
784.30 0.277239
784.40 0.2771273
784.50 0.2770156
784.60 0.2769044
784.70 0.2767943
784.80 0.2766843
784.90 0.2765743
785.00 0.2764644
785.10 0.2763545
785.20 0.2762446
785.30 0.2761348
785.40 0.2760251
785.50 0.2759153
785.60 0.2758057
785.70 0.2756961
785.80 0.2755865
785.90 0.275477
786.00 0.2753675
786.10 0.2752581
786.20 0.2751487
786.30 0.2750394
786.40 0.2749301
786.50 0.2748208
786.60 0.2747116
786.70 0.2746025
786.80 0.2744934
786.90 0.2743843
787.00 0.2742753
787.10 0.2741664
787.20 0.2740575
787.30 0.2739486
787.40 0.2738398
787.50 0.273731
787.60 0.2736223
787.70 0.2735136
787.80 0.2734049
787.90 0.2732964
788.00 0.2731878
788.10 0.2730793
788.20 0.2729709
788.30 0.2728625
788.40 0.2727534
788.50 0.272644
788.60 0.2725346
788.70 0.2724253
788.80 0.272316
788.90 0.2722068
789.00 0.2720976
789.10 0.2719885
789.20 0.2718794
789.30 0.2717704
789.40 0.2716614
789.50 0.2715524
789.60 0.2714435
789.70 0.2713347
789.80 0.2712259
789.90 0.2711171
790.00 0.2710084
790.10 0.2708998
790.20 0.2707911
790.30 0.2706826
790.40 0.2705741
790.50 0.2704656
790.60 0.2703571
790.70 0.2702488
790.80 0.2701404
790.90 0.2700321
791.00 0.2699239
791.10 0.2698157
791.20 0.2697075
791.30 0.2695994
791.40 0.2694913
791.50 0.2693833
791.60 0.2692754
791.70 0.2691674
791.80 0.2690595
791.90 0.2689517
792.00 0.2688439
792.10 0.2687362
792.20 0.2686285
792.30 0.2685208
792.40 0.2684132
792.50 0.2683057
792.60 0.2681981
792.70 0.2680907
792.80 0.2679832
792.90 0.2678758
793.00 0.2677685
793.10 0.2676612
793.20 0.267554
793.30 0.2674467
793.40 0.2673396
793.50 0.2672325
793.60 0.2671254
793.70 0.2670184
793.80 0.2669114
793.90 0.2668045
794.00 0.2666976
794.10 0.2665908
794.20 0.266484
794.30 0.2663772
794.40 0.2662705
794.50 0.2661638
794.60 0.2660572
794.70 0.2659507
794.80 0.2658441
794.90 0.2657377
795.00 0.2656312
795.10 0.2655248
795.20 0.2654185
795.30 0.2653122
795.40 0.265206
795.50 0.2650997
795.60 0.2649936
795.70 0.2648875
795.80 0.2647814
795.90 0.2646754
796.00 0.2645694
796.10 0.2644634
796.20 0.2643576
796.30 0.2642526
796.40 0.2641479
796.50 0.2640432
796.60 0.2639386
796.70 0.2638341
796.80 0.2637295
796.90 0.263625
797.00 0.2635206
797.10 0.2634162
797.20 0.2633118
797.30 0.2632075
797.40 0.2631032
797.50 0.262999
797.60 0.2628948
797.70 0.2627907
797.80 0.2626866
797.90 0.2625826
798.00 0.2624786
798.10 0.2623746
798.20 0.2622707
798.30 0.2621668
798.40 0.262063
798.50 0.2619592
798.60 0.2618555
798.70 0.2617518
798.80 0.2616481
798.90 0.2615445
799.00 0.2614409
799.10 0.2613374
799.20 0.2612339
799.30 0.2611305
799.40 0.2610271
799.50 0.2609237
799.60 0.2608204
799.70 0.2607172
799.80 0.260614
799.90 0.2605108
800.00 0.2604077
800.10 0.2603046
800.20 0.2602015
800.30 0.2600985
800.40 0.2599956
800.50 0.2598927
800.60 0.2597898
800.70 0.259687
800.80 0.2595842
800.90 0.2594814
801.00 0.2593787
801.10 0.2592761
801.20 0.2591735
801.30 0.2590709
801.40 0.2589684
801.50 0.2588659
801.60 0.2587634
801.70 0.2586611
801.80 0.2585587
801.90 0.2584564
802.00 0.2583541
802.10 0.2582519
802.20 0.2581497
802.30 0.2580476
802.40 0.2579455
802.50 0.2578434
802.60 0.2577414
802.70 0.2576395
802.80 0.2575375
802.90 0.2574356
803.00 0.2573338
803.10 0.257232
803.20 0.2571303
803.30 0.2570285
803.40 0.2569269
803.50 0.2568253
803.60 0.2567237
803.70 0.2566221
803.80 0.2565206
803.90 0.2564192
804.00 0.2563178
804.10 0.2562164
804.20 0.2561153
804.30 0.2560151
804.40 0.2559149
804.50 0.2558147
804.60 0.2557146
804.70 0.2556146
804.80 0.2555145
804.90 0.2554145
805.00 0.2553146
805.10 0.2552147
805.20 0.2551148
805.30 0.255015
805.40 0.2549153
805.50 0.2548155
805.60 0.2547158
805.70 0.2546162
805.80 0.2545166
805.90 0.254417
806.00 0.2543175
806.10 0.254218
806.20 0.2541186
806.30 0.2540192
806.40 0.2539198
806.50 0.2538205
806.60 0.2537212
806.70 0.253622
806.80 0.2535228
806.90 0.2534236
807.00 0.2533245
807.10 0.2532255
807.20 0.2531264
807.30 0.2530274
807.40 0.2529285
807.50 0.2528296
807.60 0.2527307
807.70 0.2526319
807.80 0.2525331
807.90 0.2524344
808.00 0.2523357
808.10 0.252237
808.20 0.2521384
808.30 0.2520385
808.40 0.2519386
808.50 0.2518388
808.60 0.251739
808.70 0.2516393
808.80 0.2515396
808.90 0.2514399
809.00 0.2513403
809.10 0.2512407
809.20 0.2511411
809.30 0.2510417
809.40 0.2509422
809.50 0.2508428
809.60 0.2507434
809.70 0.2506441
809.80 0.2505448
809.90 0.2504455
810.00 0.2503463
810.10 0.2502472
810.20 0.250148
810.30 0.2500489
810.40 0.2499499
810.50 0.2498509
810.60 0.2497519
810.70 0.249653
810.80 0.2495541
810.90 0.2494553
811.00 0.2493565
811.10 0.2492578
811.20 0.249159
811.30 0.2490604
811.40 0.2489617
811.50 0.2488632
811.60 0.2487646
811.70 0.2486661
811.80 0.2485676
811.90 0.2484692
812.00 0.2483708
812.10 0.2482725
812.20 0.2481742
812.30 0.2480771
812.40 0.2479803
812.50 0.2478835
812.60 0.2477868
812.70 0.2476901
812.80 0.2475935
812.90 0.2474969
813.00 0.2474004
813.10 0.2473039
813.20 0.2472074
813.30 0.247111
813.40 0.2470146
813.50 0.2469182
813.60 0.2468219
813.70 0.2467256
813.80 0.2466294
813.90 0.2465332
814.00 0.2464371
814.10 0.2463409
814.20 0.2462449
814.30 0.2461488
814.40 0.2460529
814.50 0.2459569
814.60 0.245861
814.70 0.2457651
814.80 0.2456693
814.90 0.2455735
815.00 0.2454777
815.10 0.245382
815.20 0.2452863
815.30 0.2451907
815.40 0.2450951
815.50 0.2449996
815.60 0.244904
815.70 0.2448086
815.80 0.2447131
815.90 0.2446177
816.00 0.2445224
816.10 0.2444271
816.20 0.2443318
816.30 0.2442365
816.40 0.2441413
816.50 0.2440462
816.60 0.243951
816.70 0.243856
816.80 0.2437609
816.90 0.2436659
817.00 0.2435709
817.10 0.243476
817.20 0.2433811
817.30 0.2432863
817.40 0.2431915
817.50 0.2430967
817.60 0.243002
817.70 0.2429073
817.80 0.2428126
817.90 0.242718
818.00 0.2426234
818.10 0.2425289
818.20 0.2424344
818.30 0.24234
818.40 0.2422455
818.50 0.2421512
818.60 0.2420568
818.70 0.2419625
818.80 0.2418682
818.90 0.241774
819.00 0.2416798
819.10 0.2415857
819.20 0.2414916
819.30 0.2413964
819.40 0.2413005
819.50 0.2412046
819.60 0.2411088
819.70 0.2410131
819.80 0.2409173
819.90 0.2408216
820.00 0.240726
820.10 0.2406337
820.20 0.2405548
820.30 0.2404735
820.40 0.2403848
820.50 0.2402907
820.60 0.2401967
820.70 0.2401027
820.80 0.2400088
820.90 0.2399149
821.00 0.239821
821.10 0.2397272
821.20 0.2396334
821.30 0.2395396
821.40 0.2394459
821.50 0.2393522
821.60 0.2392586
821.70 0.239165
821.80 0.2390714
821.90 0.2389779
822.00 0.2388844
822.10 0.238791
822.20 0.2386975
822.30 0.2386042
822.40 0.2385108
822.50 0.2384176
822.60 0.2383243
822.70 0.2382311
822.80 0.2381379
822.90 0.2380448
823.00 0.2379517
823.10 0.2378586
823.20 0.2377656
823.30 0.2376726
823.40 0.2375796
823.50 0.2374867
823.60 0.2373938
823.70 0.237301
823.80 0.2372082
823.90 0.2371154
824.00 0.2370227
824.10 0.23693
824.20 0.2368374
824.30 0.2367448
824.40 0.2366522
824.50 0.2365597
824.60 0.2364672
824.70 0.2363747
824.80 0.2362823
824.90 0.2361899
825.00 0.2360976
825.10 0.2360053
825.20 0.235913
825.30 0.2358208
825.40 0.2357286
825.50 0.2356364
825.60 0.2355443
825.70 0.2354522
825.80 0.2353602
825.90 0.2352682
826.00 0.2351762
826.10 0.2350843
826.20 0.2349924
826.30 0.2349014
826.40 0.234811
826.50 0.2347207
826.60 0.2346304
826.70 0.2345401
826.80 0.2344499
826.90 0.2343597
827.00 0.2342695
827.10 0.2341794
827.20 0.2340893
827.30 0.2339992
827.40 0.2339092
827.50 0.2338192
827.60 0.2337293
827.70 0.2336394
827.80 0.2335495
827.90 0.2334597
828.00 0.2333699
828.10 0.2332801
828.20 0.2331904
828.30 0.2331007
828.40 0.233011
828.50 0.2329214
828.60 0.2328318
828.70 0.2327422
828.80 0.2326526
828.90 0.2325631
829.00 0.2324736
829.10 0.2323841
829.20 0.2322947
829.30 0.2322053
829.40 0.232116
829.50 0.2320266
829.60 0.2319374
829.70 0.2318481
829.80 0.2317589
829.90 0.2316697
830.00 0.2315806
830.10 0.2314915
830.20 0.2314024
830.30 0.2313134
830.40 0.2312244
830.50 0.2311354
830.60 0.2310465
830.70 0.2309576
830.80 0.2308688
830.90 0.23078
831.00 0.2306912
831.10 0.2306025
831.20 0.2305138
831.30 0.2304251
831.40 0.2303365
831.50 0.2302479
831.60 0.2301593
831.70 0.2300708
831.80 0.2299823
831.90 0.2298939
832.00 0.2298054
832.10 0.2297171
832.20 0.2296287
832.30 0.2295404
832.40 0.2294521
832.50 0.2293639
832.60 0.2292757
832.70 0.2291875
832.80 0.2290994
832.90 0.2290113
833.00 0.2289232
833.10 0.2288352
833.20 0.2287472
833.30 0.2286593
833.40 0.2285714
833.50 0.2284835
833.60 0.2283956
833.70 0.2283078
833.80 0.2282201
833.90 0.2281323
834.00 0.2280446
834.10 0.227957
834.20 0.2278693
834.30 0.2277817
834.40 0.2276942
834.50 0.2276066
834.60 0.2275192
834.70 0.2274317
834.80 0.2273443
834.90 0.2272569
835.00 0.2271696
835.10 0.2270822
835.20 0.226995
835.30 0.2269077
835.40 0.2268205
835.50 0.2267333
835.60 0.2266462
835.70 0.2265591
835.80 0.226472
835.90 0.226385
836.00 0.226298
836.10 0.2262111
836.20 0.2261241
836.30 0.2260372
836.40 0.2259504
836.50 0.2258636
836.60 0.2257768
836.70 0.22569
836.80 0.2256033
836.90 0.225516
837.00 0.2254285
837.10 0.225341
837.20 0.2252536
837.30 0.2251662
837.40 0.2250788
837.50 0.2249914
837.60 0.2249041
837.70 0.2248169
837.80 0.2247296
837.90 0.2246424
838.00 0.2245552
838.10 0.2244681
838.20 0.224381
838.30 0.2242939
838.40 0.2242069
838.50 0.2241199
838.60 0.224033
838.70 0.223946
838.80 0.2238592
838.90 0.2237723
839.00 0.2236855
839.10 0.2235987
839.20 0.223512
839.30 0.2234253
839.40 0.2233386
839.50 0.2232519
839.60 0.2231653
839.70 0.2230788
839.80 0.2229922
839.90 0.2229057
840.00 0.2228192
840.10 0.2227328
840.20 0.2226464
840.30 0.2225601
840.40 0.2224737
840.50 0.2223874
840.60 0.2223012
840.70 0.222215
840.80 0.2221288
840.90 0.2220426
841.00 0.2219565
841.10 0.2218714
841.20 0.2217866
841.30 0.2217017
841.40 0.221617
841.50 0.2215322
841.60 0.2214475
841.70 0.2213628
841.80 0.2212782
841.90 0.2211935
842.00 0.221109
842.10 0.2210244
842.20 0.2209399
842.30 0.2208554
842.40 0.220771
842.50 0.2206866
842.60 0.2206022
842.70 0.2205178
842.80 0.2204335
842.90 0.2203493
843.00 0.220265
843.10 0.2201808
843.20 0.2200966
843.30 0.2200125
843.40 0.2199284
843.50 0.2198443
843.60 0.2197603
843.70 0.2196763
843.80 0.2195923
843.90 0.2195083
844.00 0.2194244
844.10 0.2193406
844.20 0.2192567
844.30 0.2191729
844.40 0.2190891
844.50 0.2190054
844.60 0.2189217
844.70 0.218838
844.80 0.2187544
844.90 0.2186708
845.00 0.2185872
845.10 0.2185037
845.20 0.2184202
845.30 0.218337
845.40 0.2182539
845.50 0.2181708
845.60 0.2180877
845.70 0.2180047
845.80 0.2179217
845.90 0.2178387
846.00 0.2177558
846.10 0.2176729
846.20 0.2175901
846.30 0.2175072
846.40 0.2174244
846.50 0.2173417
846.60 0.2172589
846.70 0.2171762
846.80 0.2170936
846.90 0.2170109
847.00 0.2169283
847.10 0.2168458
847.20 0.2167632
847.30 0.2166807
847.40 0.2165983
847.50 0.2165158
847.60 0.2164334
847.70 0.2163511
847.80 0.2162687
847.90 0.2161864
848.00 0.2161042
848.10 0.2160219
848.20 0.2159397
848.30 0.2158575
848.40 0.2157754
848.50 0.2156933
848.60 0.2156112
848.70 0.2155292
848.80 0.2154472
848.90 0.2153652
849.00 0.2152832
849.10 0.2152013
849.20 0.2151195
849.30 0.2150376
849.40 0.2149558
849.50 0.214874
849.60 0.2147923
849.70 0.2147106
849.80 0.2146289
849.90 0.2145472
850.00 0.2144656
850.10 0.214384
850.20 0.2143025
850.30 0.2142209
850.40 0.2141395
850.50 0.214058
850.60 0.2139766
850.70 0.2138952
850.80 0.2138138
850.90 0.2137325
851.00 0.2136512
851.10 0.2135699
851.20 0.2134887
851.30 0.2134075
851.40 0.2133264
851.50 0.2132452
851.60 0.2131641
851.70 0.2130831
851.80 0.213002
851.90 0.212921
852.00 0.21284
852.10 0.2127591
852.20 0.2126782
852.30 0.2125973
852.40 0.2125165
852.50 0.2124357
852.60 0.2123549
852.70 0.2122741
852.80 0.2121934
852.90 0.2121127
853.00 0.2120321
853.10 0.2119515
853.20 0.2118709
853.30 0.2117903
853.40 0.2117098
853.50 0.2116293
853.60 0.2115489
853.70 0.2114686
853.80 0.2113885
853.90 0.2113084
854.00 0.2112284
854.10 0.2111484
854.20 0.2110684
854.30 0.2109885
854.40 0.2109086
854.50 0.2108287
854.60 0.2107489
854.70 0.2106691
854.80 0.2105893
854.90 0.2105096
855.00 0.2104299
855.10 0.2103502
855.20 0.2102705
855.30 0.2101909
855.40 0.2101113
855.50 0.2100318
855.60 0.2099522
855.70 0.2098727
855.80 0.2097933
855.90 0.2097139
856.00 0.2096345
856.10 0.2095551
856.20 0.2094758
856.30 0.2093965
856.40 0.2093172
856.50 0.2092379
856.60 0.2091587
856.70 0.2090796
856.80 0.2090004
856.90 0.2089213
857.00 0.2088422
857.10 0.2087632
857.20 0.2086841
857.30 0.2086051
857.40 0.2085262
857.50 0.2084473
857.60 0.2083684
857.70 0.2082895
857.80 0.2082107
857.90 0.2081318
858.00 0.208054
858.10 0.2079764
858.20 0.2078988
858.30 0.2078212
858.40 0.2077437
858.50 0.2076662
858.60 0.2075887
858.70 0.2075113
858.80 0.2074339
858.90 0.2073565
859.00 0.2072791
859.10 0.2072018
859.20 0.2071245
859.30 0.2070473
859.40 0.20697
859.50 0.2068928
859.60 0.2068157
859.70 0.2067385
859.80 0.2066614
859.90 0.2065844
860.00 0.2065073
860.10 0.2064303
860.20 0.2063533
860.30 0.2062764
860.40 0.2061994
860.50 0.2061226
860.60 0.2060457
860.70 0.2059689
860.80 0.2058921
860.90 0.2058153
861.00 0.2057385
861.10 0.2056618
861.20 0.2055851
861.30 0.2055085
861.40 0.2054319
861.50 0.2053553
861.60 0.2052787
861.70 0.2052022
861.80 0.2051257
861.90 0.2050492
862.00 0.2049728
862.10 0.2048964
862.20 0.2048199
862.30 0.2047427
862.40 0.2046656
862.50 0.2045885
862.60 0.2045114
862.70 0.2044344
862.80 0.2043573
862.90 0.2042804
863.00 0.2042034
863.10 0.2041265
863.20 0.2040496
863.30 0.2039727
863.40 0.2038959
863.50 0.2038191
863.60 0.2037423
863.70 0.2036656
863.80 0.2035889
863.90 0.2035122
864.00 0.2034356
864.10 0.2033589
864.20 0.2032823
864.30 0.2032058
864.40 0.2031293
864.50 0.2030528
864.60 0.2029763
864.70 0.2028998
864.80 0.2028234
864.90 0.202747
865.00 0.2026707
865.10 0.2025944
865.20 0.2025181
865.30 0.2024418
865.40 0.2023656
865.50 0.2022894
865.60 0.2022132
865.70 0.2021371
865.80 0.202061
865.90 0.2019849
866.00 0.2019088
866.10 0.2018328
866.20 0.2017568
866.30 0.2016809
866.40 0.2016049
866.50 0.201529
866.60 0.2014531
866.70 0.2013773
866.80 0.2013015
866.90 0.2012257
867.00 0.2011499
867.10 0.2010742
867.20 0.2009985
867.30 0.2009228
867.40 0.2008472
867.50 0.2007716
867.60 0.200696
867.70 0.2006205
867.80 0.200545
867.90 0.2004695
868.00 0.200394
868.10 0.2003186
868.20 0.2002432
868.30 0.2001678
868.40 0.2000925
868.50 0.2000171
868.60 0.1999419
868.70 0.1998666
868.80 0.1997914
868.90 0.1997162
869.00 0.199641
869.10 0.1995659
869.20 0.1994908
869.30 0.1994157
869.40 0.1993406
869.50 0.1992656
869.60 0.1991906
869.70 0.1991157
869.80 0.1990407
869.90 0.1989658
870.00 0.198891
870.10 0.1988161
870.20 0.1987413
870.30 0.1986665
870.40 0.1985917
870.50 0.198517
870.60 0.1984423
870.70 0.1983676
870.80 0.198293
870.90 0.1982196
871.00 0.1981464
871.10 0.1980732
871.20 0.198
871.30 0.1979269
871.40 0.1978537
871.50 0.1977807
871.60 0.1977076
871.70 0.1976346
871.80 0.1975616
871.90 0.1974886
872.00 0.1974156
872.10 0.1973427
872.20 0.1972698
872.30 0.197197
872.40 0.1971241
872.50 0.1970513
872.60 0.1969785
872.70 0.1969058
872.80 0.1968331
872.90 0.1967604
873.00 0.1966877
873.10 0.1966151
873.20 0.1965425
873.30 0.1964699
873.40 0.1963973
873.50 0.1963248
873.60 0.1962523
873.70 0.1961798
873.80 0.1961074
873.90 0.196035
874.00 0.1959626
874.10 0.1958903
874.20 0.1958179
874.30 0.1957456
874.40 0.1956733
874.50 0.1956011
874.60 0.1955289
874.70 0.1954567
874.80 0.1953845
874.90 0.1953124
875.00 0.1952403
875.10 0.1951682
875.20 0.1950958
875.30 0.1950227
875.40 0.1949497
875.50 0.1948766
875.60 0.1948037
875.70 0.1947307
875.80 0.1946578
875.90 0.1945848
876.00 0.194512
876.10 0.1944391
876.20 0.1943663
876.30 0.1942935
876.40 0.1942207
876.50 0.194148
876.60 0.1940753
876.70 0.1940026
876.80 0.1939299
876.90 0.1938573
877.00 0.1937847
877.10 0.1937122
877.20 0.1936396
877.30 0.1935671
877.40 0.1934946
877.50 0.1934222
877.60 0.1933497
877.70 0.1932773
877.80 0.1932049
877.90 0.1931326
878.00 0.1930603
878.10 0.192988
878.20 0.1929157
878.30 0.1928435
878.40 0.1927713
878.50 0.1926991
878.60 0.192627
878.70 0.1925548
878.80 0.1924827
878.90 0.1924107
879.00 0.1923386
879.10 0.1922666
879.20 0.1921946
879.30 0.1921227
879.40 0.1920508
879.50 0.1919789
879.60 0.1919081
879.70 0.1918375
879.80 0.191767
879.90 0.1916966
880.00 0.1916261
880.10 0.1915557
880.20 0.1914853
880.30 0.1914149
880.40 0.1913446
880.50 0.1912743
880.60 0.191204
880.70 0.1911337
880.80 0.1910635
880.90 0.1909933
881.00 0.1909231
881.10 0.190853
881.20 0.1907829
881.30 0.1907128
881.40 0.1906427
881.50 0.1905726
881.60 0.1905026
881.70 0.1904326
881.80 0.1903627
881.90 0.1902927
882.00 0.1902228
882.10 0.190153
882.20 0.1900831
882.30 0.1900133
882.40 0.1899435
882.50 0.1898737
882.60 0.189804
882.70 0.1897342
882.80 0.1896645
882.90 0.1895949
883.00 0.1895252
883.10 0.1894556
883.20 0.189386
883.30 0.1893165
883.40 0.1892469
883.50 0.1891774
883.60 0.1891079
883.70 0.1890385
883.80 0.1889691
883.90 0.1888997
884.00 0.1888294
884.10 0.188759
884.20 0.1886887
884.30 0.1886184
884.40 0.1885481
884.50 0.1884778
884.60 0.1884076
884.70 0.1883373
884.80 0.1882672
884.90 0.188197
885.00 0.1881269
885.10 0.1880567
885.20 0.1879867
885.30 0.1879166
885.40 0.1878466
885.50 0.1877766
885.60 0.1877066
885.70 0.1876367
885.80 0.1875667
885.90 0.1874968
886.00 0.187427
886.10 0.1873571
886.20 0.1872873
886.30 0.1872175
886.40 0.1871478
886.50 0.187078
886.60 0.1870083
886.70 0.1869387
886.80 0.186869
886.90 0.1867994
887.00 0.1867298
887.10 0.1866602
887.20 0.1865906
887.30 0.1865211
887.40 0.1864516
887.50 0.1863822
887.60 0.1863127
887.70 0.1862433
887.80 0.1861739
887.90 0.1861046
888.00 0.1860352
888.10 0.1859659
888.20 0.1858966
888.30 0.1858274
888.40 0.1857593
888.50 0.1856913
888.60 0.1856234
888.70 0.1855556
888.80 0.1854877
888.90 0.1854199
889.00 0.1853521
889.10 0.1852843
889.20 0.1852166
889.30 0.1851489
889.40 0.1850812
889.50 0.1850135
889.60 0.1849459
889.70 0.1848783
889.80 0.1848107
889.90 0.1847431
890.00 0.1846756
890.10 0.1846081
890.20 0.1845406
890.30 0.1844731
890.40 0.1844057
890.50 0.1843383
890.60 0.1842709
890.70 0.1842035
890.80 0.1841362
890.90 0.1840689
891.00 0.1840016
891.10 0.1839344
891.20 0.1838671
891.30 0.1837999
891.40 0.1837328
891.50 0.1836656
891.60 0.1835985
891.70 0.1835314
891.80 0.1834643
891.90 0.1833973
892.00 0.1833302
892.10 0.1832632
892.20 0.1831963
892.30 0.1831293
892.40 0.1830624
892.50 0.1829955
892.60 0.1829286
892.70 0.1828618
892.80 0.1827949
892.90 0.1827281
893.00 0.1826614
893.10 0.1825946
893.20 0.1825279
893.30 0.1824612
893.40 0.1823945
893.50 0.1823279
893.60 0.1822613
893.70 0.1821947
893.80 0.1821281
893.90 0.1820616
894.00 0.181995
894.10 0.1819285
894.20 0.1818621
894.30 0.1817956
894.40 0.1817292
894.50 0.1816628
894.60 0.1815965
894.70 0.1815301
894.80 0.1814638
894.90 0.1813975
895.00 0.1813312
895.10 0.181265
895.20 0.1811988
895.30 0.1811326
895.40 0.1810664
895.50 0.1810003
895.60 0.1809342
895.70 0.1808681
895.80 0.180802
895.90 0.180736
896.00 0.1806699
896.10 0.1806039
896.20 0.180538
896.30 0.180472
896.40 0.1804061
896.50 0.1803402
896.60 0.1802744
896.70 0.1802085
896.80 0.1801427
896.90 0.1800769
897.00 0.1800111
897.10 0.1799454
897.20 0.1798796
897.30 0.1798132
897.40 0.1797468
897.50 0.1796805
897.60 0.1796141
897.70 0.1795478
897.80 0.1794815
897.90 0.1794153
898.00 0.179349
898.10 0.1792828
898.20 0.1792166
898.30 0.1791505
898.40 0.1790843
898.50 0.1790182
898.60 0.1789521
898.70 0.1788861
898.80 0.17882
898.90 0.178754
899.00 0.178688
899.10 0.1786221
899.20 0.1785561
899.30 0.1784902
899.40 0.1784243
899.50 0.1783585
899.60 0.1782926
899.70 0.1782268
899.80 0.178161
899.90 0.1780952
900.00 0.1780295
900.10 0.1779638
900.20 0.1778981
900.30 0.1778324
900.40 0.1777668
900.50 0.1777012
900.60 0.1776356
900.70 0.17757
900.80 0.1775045
900.90 0.177439
901.00 0.1773735
901.10 0.177308
901.20 0.1772426
901.30 0.1771771
901.40 0.1771117
901.50 0.1770464
901.60 0.176981
901.70 0.1769159
901.80 0.1768516
901.90 0.1767872
902.00 0.176723
902.10 0.1766587
902.20 0.1765945
902.30 0.1765303
902.40 0.1764661
902.50 0.1764019
902.60 0.1763378
902.70 0.1762737
902.80 0.1762096
902.90 0.1761455
903.00 0.1760815
903.10 0.1760175
903.20 0.1759535
903.30 0.1758895
903.40 0.1758256
903.50 0.1757616
903.60 0.1756977
903.70 0.1756339
903.80 0.17557
903.90 0.1755062
904.00 0.1754424
904.10 0.1753786
904.20 0.1753149
904.30 0.1752511
904.40 0.1751874
904.50 0.1751237
904.60 0.1750601
904.70 0.1749965
904.80 0.1749328
904.90 0.1748693
905.00 0.1748057
905.10 0.1747422
905.20 0.1746786
905.30 0.1746152
905.40 0.1745517
905.50 0.1744882
905.60 0.1744248
905.70 0.1743614
905.80 0.1742981
905.90 0.1742347
906.00 0.1741714
906.10 0.1741081
906.20 0.1740449
906.30 0.1739819
906.40 0.1739189
906.50 0.1738559
906.60 0.173793
906.70 0.1737301
906.80 0.1736672
906.90 0.1736043
907.00 0.1735415
907.10 0.1734787
907.20 0.1734159
907.30 0.1733531
907.40 0.1732904
907.50 0.1732276
907.60 0.1731649
907.70 0.1731023
907.80 0.1730396
907.90 0.172977
908.00 0.1729144
908.10 0.1728518
908.20 0.1727892
908.30 0.1727267
908.40 0.1726642
908.50 0.1726017
908.60 0.1725392
908.70 0.1724768
908.80 0.1724144
908.90 0.172352
909.00 0.1722896
909.10 0.1722272
909.20 0.1721649
909.30 0.1721026
909.40 0.1720403
909.50 0.1719781
909.60 0.1719158
909.70 0.1718536
909.80 0.1717914
909.90 0.1717293
910.00 0.1716671
910.10 0.171605
910.20 0.1715429
910.30 0.1714808
910.40 0.1714188
910.50 0.1713568
910.60 0.1712948
910.70 0.1712328
910.80 0.1711708
910.90 0.1711089
911.00 0.171047
911.10 0.1709851
911.20 0.1709232
911.30 0.1708614
911.40 0.1707996
911.50 0.1707378
911.60 0.170676
911.70 0.1706143
911.80 0.1705525
911.90 0.1704908
912.00 0.1704291
912.10 0.1703675
912.20 0.1703059
912.30 0.1702442
912.40 0.1701827
912.50 0.1701211
912.60 0.1700595
912.70 0.169998
912.80 0.1699365
912.90 0.1698751
913.00 0.1698136
913.10 0.1697522
913.20 0.1696908
913.30 0.1696294
913.40 0.169568
913.50 0.1695067
913.60 0.1694454
913.70 0.1693841
913.80 0.1693228
913.90 0.1692616
914.00 0.1692003
914.10 0.1691391
914.20 0.169078
914.30 0.1690168
914.40 0.1689557
914.50 0.1688946
914.60 0.1688335
914.70 0.1687724
914.80 0.1687114
914.90 0.1686504
915.00 0.1685894
915.10 0.1685284
915.20 0.1684674
915.30 0.1684067
915.40 0.168346
915.50 0.1682854
915.60 0.1682247
915.70 0.1681641
915.80 0.1681036
915.90 0.168043
916.00 0.1679825
916.10 0.167922
916.20 0.1678615
916.30 0.167801
916.40 0.1677406
916.50 0.1676801
916.60 0.1676197
916.70 0.1675594
916.80 0.167499
916.90 0.1674387
917.00 0.1673784
917.10 0.1673181
917.20 0.1672578
917.30 0.1671976
917.40 0.1671373
917.50 0.1670771
917.60 0.167017
917.70 0.1669568
917.80 0.1668967
917.90 0.1668366
918.00 0.1667765
918.10 0.1667164
918.20 0.1666564
918.30 0.1665963
918.40 0.1665363
918.50 0.1664764
918.60 0.1664164
918.70 0.1663565
918.80 0.1662966
918.90 0.1662367
919.00 0.1661768
919.10 0.166117
919.20 0.1660572
919.30 0.1659974
919.40 0.1659376
919.50 0.1658778
919.60 0.1658181
919.70 0.1657584
919.80 0.1656987
919.90 0.1656399
920.00 0.1655811
920.10 0.1655224
920.20 0.1654637
920.30 0.1654051
920.40 0.1653464
920.50 0.1652878
920.60 0.1652292
920.70 0.1651706
920.80 0.165112
920.90 0.1650535
921.00 0.164995
921.10 0.1649365
921.20 0.164878
921.30 0.1648195
921.40 0.1647611
921.50 0.1647027
921.60 0.1646443
921.70 0.1645859
921.80 0.1645276
921.90 0.1644693
922.00 0.1644109
922.10 0.1643527
922.20 0.1642944
922.30 0.1642362
922.40 0.1641779
922.50 0.1641197
922.60 0.1640616
922.70 0.1640034
922.80 0.1639453
922.90 0.1638872
923.00 0.1638291
923.10 0.163771
923.20 0.1637129
923.30 0.1636549
923.40 0.1635969
923.50 0.1635389
923.60 0.163481
923.70 0.163423
923.80 0.1633651
923.90 0.1633072
924.00 0.1632493
924.10 0.1631915
924.20 0.1631336
924.30 0.1630758
924.40 0.1630179
924.50 0.1629595
924.60 0.162901
924.70 0.1628426
924.80 0.1627843
924.90 0.1627259
925.00 0.1626676
925.10 0.1626093
925.20 0.162551
925.30 0.1624927
925.40 0.1624345
925.50 0.1623762
925.60 0.162318
925.70 0.1622598
925.80 0.1622017
925.90 0.1621435
926.00 0.1620854
926.10 0.1620273
926.20 0.1619692
926.30 0.1619112
926.40 0.1618532
926.50 0.1617951
926.60 0.1617372
926.70 0.1616792
926.80 0.1616212
926.90 0.1615633
927.00 0.1615054
927.10 0.1614475
927.20 0.1613896
927.30 0.1613318
927.40 0.161274
927.50 0.1612162
927.60 0.1611584
927.70 0.1611006
927.80 0.1610429
927.90 0.1609852
928.00 0.1609275
928.10 0.1608698
928.20 0.1608122
928.30 0.1607545
928.40 0.1606969
928.50 0.1606393
928.60 0.1605818
928.70 0.1605242
928.80 0.1604667
928.90 0.1604092
929.00 0.1603517
929.10 0.1602942
929.20 0.1602368
929.30 0.1601794
929.40 0.160122
929.50 0.1600646
929.60 0.1600072
929.70 0.1599499
929.80 0.1598926
929.90 0.1598353
930.00 0.159778
930.10 0.1597208
930.20 0.1596635
930.30 0.1596063
930.40 0.1595491
930.50 0.159492
930.60 0.1594348
930.70 0.1593777
930.80 0.1593206
930.90 0.1592635
931.00 0.1592064
931.10 0.1591494
931.20 0.1590924
931.30 0.1590354
931.40 0.1589784
931.50 0.1589214
931.60 0.1588645
931.70 0.1588076
931.80 0.1587507
931.90 0.1586938
932.00 0.1586369
932.10 0.1585801
932.20 0.1585233
932.30 0.1584665
932.40 0.1584097
932.50 0.158353
932.60 0.1582962
932.70 0.1582395
932.80 0.1581828
932.90 0.1581261
933.00 0.1580695
933.10 0.1580129
933.20 0.1579563
933.30 0.1578997
933.40 0.1578431
933.50 0.1577866
933.60 0.15773
933.70 0.157674
933.80 0.1576182
933.90 0.1575624
934.00 0.1575066
934.10 0.1574508
934.20 0.1573951
934.30 0.1573393
934.40 0.1572836
934.50 0.1572279
934.60 0.1571723
934.70 0.1571166
934.80 0.157061
934.90 0.1570054
935.00 0.1569498
935.10 0.1568942
935.20 0.1568387
935.30 0.1567832
935.40 0.1567277
935.50 0.1566722
935.60 0.1566167
935.70 0.1565613
935.80 0.1565059
935.90 0.1564504
936.00 0.1563951
936.10 0.1563397
936.20 0.1562844
936.30 0.156229
936.40 0.1561737
936.50 0.1561184
936.60 0.1560632
936.70 0.1560079
936.80 0.1559527
936.90 0.1558975
937.00 0.1558423
937.10 0.1557872
937.20 0.155732
937.30 0.1556769
937.40 0.1556218
937.50 0.1555667
937.60 0.1555116
937.70 0.1554566
937.80 0.1554016
937.90 0.1553466
938.00 0.1552916
938.10 0.1552366
938.20 0.1551817
938.30 0.1551267
938.40 0.1550718
938.50 0.155017
938.60 0.1549621
938.70 0.1549072
938.80 0.1548524
938.90 0.1547976
939.00 0.1547428
939.10 0.1546881
939.20 0.1546333
939.30 0.1545786
939.40 0.1545239
939.50 0.1544692
939.60 0.1544145
939.70 0.1543599
939.80 0.1543053
939.90 0.1542507
940.00 0.1541961
940.10 0.1541415
940.20 0.1540869
940.30 0.1540324
940.40 0.1539779
940.50 0.1539234
940.60 0.153869
940.70 0.1538145
940.80 0.1537601
940.90 0.1537057
941.00 0.1536513
941.10 0.1535969
941.20 0.1535425
941.30 0.1534882
941.40 0.1534339
941.50 0.1533796
941.60 0.1533253
941.70 0.1532711
941.80 0.1532168
941.90 0.1531626
942.00 0.1531084
942.10 0.1530543
942.20 0.1530001
942.30 0.152946
942.40 0.1528919
942.50 0.1528378
942.60 0.1527837
942.70 0.1527296
942.80 0.1526756
942.90 0.1526216
943.00 0.1525678
943.10 0.1525145
943.20 0.1524611
943.30 0.1524078
943.40 0.1523545
943.50 0.1523013
943.60 0.152248
943.70 0.1521948
943.80 0.1521416
943.90 0.1520884
944.00 0.1520352
944.10 0.1519821
944.20 0.1519289
944.30 0.1518758
944.40 0.1518227
944.50 0.1517696
944.60 0.1517166
944.70 0.1516636
944.80 0.1516105
944.90 0.1515575
945.00 0.1515045
945.10 0.1514516
945.20 0.1513986
945.30 0.1513457
945.40 0.1512928
945.50 0.1512399
945.60 0.1511871
945.70 0.1511342
945.80 0.1510814
945.90 0.1510286
946.00 0.1509758
946.10 0.150923
946.20 0.1508703
946.30 0.1508175
946.40 0.1507648
946.50 0.1507121
946.60 0.1506594
946.70 0.1506068
946.80 0.1505541
946.90 0.1505015
947.00 0.1504489
947.10 0.1503963
947.20 0.1503438
947.30 0.1502912
947.40 0.1502387
947.50 0.1501862
947.60 0.1501337
947.70 0.1500812
947.80 0.1500288
947.90 0.1499763
948.00 0.1499239
948.10 0.1498715
948.20 0.1498191
948.30 0.1497668
948.40 0.1497144
948.50 0.1496621
948.60 0.1496098
948.70 0.1495575
948.80 0.1495053
948.90 0.149453
949.00 0.1494008
949.10 0.1493486
949.20 0.1492964
949.30 0.1492442
949.40 0.1491921
949.50 0.1491399
949.60 0.1490878
949.70 0.1490357
949.80 0.1489837
949.90 0.1489316
950.00 0.1488796
950.10 0.1488275
950.20 0.1487755
950.30 0.1487235
950.40 0.1486716
950.50 0.1486196
950.60 0.1485677
950.70 0.1485158
950.80 0.1484639
950.90 0.148412
951.00 0.1483602
951.10 0.1483083
951.20 0.1482565
951.30 0.1482047
951.40 0.1481529
951.50 0.1481012
951.60 0.1480494
951.70 0.1479977
951.80 0.147946
951.90 0.1478943
952.00 0.1478426
952.10 0.147791
952.20 0.1477394
952.30 0.1476877
952.40 0.1476362
952.50 0.1475848
952.60 0.1475334
952.70 0.1474821
952.80 0.1474308
952.90 0.1473795
953.00 0.1473282
953.10 0.1472769
953.20 0.1472257
953.30 0.1471744
953.40 0.1471232
953.50 0.147072
953.60 0.1470209
953.70 0.1469697
953.80 0.1469186
953.90 0.1468675
954.00 0.1468164
954.10 0.1467653
954.20 0.1467142
954.30 0.1466632
954.40 0.1466121
954.50 0.1465611
954.60 0.1465101
954.70 0.1464592
954.80 0.1464082
954.90 0.1463573
955.00 0.1463064
955.10 0.1462555
955.20 0.1462046
955.30 0.1461537
955.40 0.1461029
955.50 0.146052
955.60 0.1460012
955.70 0.1459504
955.80 0.1458997
955.90 0.1458489
956.00 0.1457982
956.10 0.1457474
956.20 0.1456967
956.30 0.1456461
956.40 0.1455954
956.50 0.1455447
956.60 0.1454941
956.70 0.1454435
956.80 0.1453929
956.90 0.1453423
957.00 0.1452918
957.10 0.1452412
957.20 0.1451907
957.30 0.1451402
957.40 0.1450897
957.50 0.1450392
957.60 0.1449888
957.70 0.1449384
957.80 0.1448879
957.90 0.1448375
958.00 0.1447872
958.10 0.1447368
958.20 0.1446865
958.30 0.1446361
958.40 0.1445858
958.50 0.1445355
958.60 0.1444853
958.70 0.144435
958.80 0.1443848
958.90 0.1443346
959.00 0.1442844
959.10 0.1442342
959.20 0.144184
959.30 0.1441339
959.40 0.1440837
959.50 0.1440336
959.60 0.1439835
959.70 0.1439334
959.80 0.1438834
959.90 0.1438334
960.00 0.1437833
960.10 0.1437333
960.20 0.1436833
960.30 0.1436334
960.40 0.1435834
960.50 0.1435335
960.60 0.1434836
960.70 0.1434337
960.80 0.1433838
960.90 0.1433339
961.00 0.1432841
961.10 0.1432342
961.20 0.1431844
961.30 0.1431346
961.40 0.1430849
961.50 0.1430351
961.60 0.1429854
961.70 0.1429356
961.80 0.1428859
961.90 0.1428362
962.00 0.1427864
962.10 0.1427366
962.20 0.1426867
962.30 0.1426369
962.40 0.1425871
962.50 0.1425373
962.60 0.1424876
962.70 0.1424378
962.80 0.1423881
962.90 0.1423384
963.00 0.1422887
963.10 0.142239
963.20 0.1421894
963.30 0.1421397
963.40 0.1420901
963.50 0.1420405
963.60 0.1419909
963.70 0.1419413
963.80 0.1418918
963.90 0.1418423
964.00 0.1417927
964.10 0.1417432
964.20 0.1416938
964.30 0.1416443
964.40 0.1415948
964.50 0.1415454
964.60 0.141496
964.70 0.1414466
964.80 0.1413972
964.90 0.1413479
965.00 0.1412985
965.10 0.1412492
965.20 0.1411999
965.30 0.1411506
965.40 0.1411013
965.50 0.1410521
965.60 0.1410028
965.70 0.1409536
965.80 0.1409044
965.90 0.1408552
966.00 0.1408061
966.10 0.1407569
966.20 0.1407078
966.30 0.1406587
966.40 0.1406096
966.50 0.1405605
966.60 0.1405114
966.70 0.1404624
966.80 0.1404133
966.90 0.1403643
967.00 0.1403153
967.10 0.1402663
967.20 0.1402174
967.30 0.1401684
967.40 0.1401195
967.50 0.1400706
967.60 0.1400217
967.70 0.1399728
967.80 0.139924
967.90 0.1398751
968.00 0.1398263
968.10 0.1397775
968.20 0.1397287
968.30 0.1396799
968.40 0.1396312
968.50 0.1395825
968.60 0.1395337
968.70 0.139485
968.80 0.1394363
968.90 0.1393877
969.00 0.139339
969.10 0.1392904
969.20 0.1392418
969.30 0.1391932
969.40 0.1391446
969.50 0.139096
969.60 0.1390475
969.70 0.1389989
969.80 0.1389504
969.90 0.1389019
970.00 0.1388534
970.10 0.138805
970.20 0.1387565
970.30 0.1387081
970.40 0.1386597
970.50 0.1386113
970.60 0.1385629
970.70 0.1385146
970.80 0.1384662
970.90 0.1384179
971.00 0.1383696
971.10 0.1383213
971.20 0.138273
971.30 0.1382247
971.40 0.1381765
971.50 0.1381283
971.60 0.1380807
971.70 0.1380335
971.80 0.1379862
971.90 0.137939
972.00 0.1378919
972.10 0.1378447
972.20 0.1377976
972.30 0.1377504
972.40 0.1377033
972.50 0.1376562
972.60 0.1376091
972.70 0.1375621
972.80 0.137515
972.90 0.137468
973.00 0.137421
973.10 0.137374
973.20 0.137327
973.30 0.13728
973.40 0.1372331
973.50 0.1371861
973.60 0.1371392
973.70 0.1370923
973.80 0.1370454
973.90 0.1369986
974.00 0.1369517
974.10 0.1369049
974.20 0.1368581
974.30 0.1368113
974.40 0.1367645
974.50 0.1367177
974.60 0.136671
974.70 0.1366242
974.80 0.1365775
974.90 0.1365308
975.00 0.1364841
975.10 0.1364374
975.20 0.1363908
975.30 0.1363441
975.40 0.1362975
975.50 0.1362509
975.60 0.1362043
975.70 0.1361577
975.80 0.1361112
975.90 0.1360646
976.00 0.1360181
976.10 0.1359716
976.20 0.1359251
976.30 0.1358786
976.40 0.1358322
976.50 0.1357857
976.60 0.1357393
976.70 0.1356929
976.80 0.1356465
976.90 0.1356001
977.00 0.1355538
977.10 0.1355074
977.20 0.1354611
977.30 0.1354148
977.40 0.1353685
977.50 0.1353222
977.60 0.1352759
977.70 0.1352297
977.80 0.1351834
977.90 0.1351372
978.00 0.135091
978.10 0.1350448
978.20 0.1349986
978.30 0.1349525
978.40 0.1349063
978.50 0.1348602
978.60 0.1348141
978.70 0.134768
978.80 0.134722
978.90 0.1346759
979.00 0.1346299
979.10 0.1345838
979.20 0.1345378
979.30 0.1344918
979.40 0.1344458
979.50 0.1343999
979.60 0.1343539
979.70 0.134308
979.80 0.1342621
979.90 0.1342162
980.00 0.1341703
980.10 0.1341244
980.20 0.1340786
980.30 0.1340328
980.40 0.1339869
980.50 0.1339411
980.60 0.1338953
980.70 0.1338496
980.80 0.1338038
980.90 0.1337581
981.00 0.1337124
981.10 0.1336666
981.20 0.133621
981.30 0.1335754
981.40 0.1335299
981.50 0.1334844
981.60 0.133439
981.70 0.1333936
981.80 0.1333481
981.90 0.1333027
982.00 0.1332574
982.10 0.133212
982.20 0.1331666
982.30 0.1331213
982.40 0.133076
982.50 0.1330307
982.60 0.1329854
982.70 0.1329401
982.80 0.1328949
982.90 0.1328496
983.00 0.1328044
983.10 0.1327592
983.20 0.132714
983.30 0.1326688
983.40 0.1326237
983.50 0.1325785
983.60 0.1325334
983.70 0.1324883
983.80 0.1324432
983.90 0.1323981
984.00 0.132353
984.10 0.132308
984.20 0.1322629
984.30 0.1322179
984.40 0.1321729
984.50 0.1321279
984.60 0.1320829
984.70 0.132038
984.80 0.131993
984.90 0.1319481
985.00 0.1319032
985.10 0.1318583
985.20 0.1318134
985.30 0.1317685
985.40 0.1317237
985.50 0.1316789
985.60 0.131634
985.70 0.1315892
985.80 0.1315444
985.90 0.1314997
986.00 0.1314549
986.10 0.1314102
986.20 0.1313654
986.30 0.1313207
986.40 0.131276
986.50 0.1312313
986.60 0.1311867
986.70 0.131142
986.80 0.1310974
986.90 0.1310528
987.00 0.1310082
987.10 0.1309636
987.20 0.130919
987.30 0.1308745
987.40 0.1308299
987.50 0.1307854
987.60 0.1307409
987.70 0.1306964
987.80 0.1306519
987.90 0.1306074
988.00 0.130563
988.10 0.1305185
988.20 0.1304741
988.30 0.1304297
988.40 0.1303853
988.50 0.130341
988.60 0.1302966
988.70 0.1302523
988.80 0.1302079
988.90 0.1301636
989.00 0.1301193
989.10 0.130075
989.20 0.1300308
989.30 0.1299865
989.40 0.1299423
989.50 0.1298981
989.60 0.1298538
989.70 0.1298097
989.80 0.1297655
989.90 0.1297213
990.00 0.1296772
990.10 0.129633
990.20 0.1295889
990.30 0.1295448
990.40 0.1295007
990.50 0.1294567
990.60 0.1294126
990.70 0.1293686
990.80 0.1293246
990.90 0.1292805
991.00 0.1292366
991.10 0.1291925
991.20 0.1291484
991.30 0.1291042
991.40 0.1290601
991.50 0.129016
991.60 0.1289719
991.70 0.1289278
991.80 0.1288838
991.90 0.1288397
992.00 0.1287957
992.10 0.1287517
992.20 0.1287077
992.30 0.1286637
992.40 0.1286197
992.50 0.1285758
992.60 0.1285318
992.70 0.1284879
992.80 0.128444
992.90 0.1284001
993.00 0.1283562
993.10 0.1283124
993.20 0.1282685
993.30 0.1282247
993.40 0.1281809
993.50 0.1281371
993.60 0.1280933
993.70 0.1280495
993.80 0.1280058
993.90 0.127962
994.00 0.1279183
994.10 0.1278746
994.20 0.1278309
994.30 0.1277872
994.40 0.1277435
994.50 0.1276999
994.60 0.1276562
994.70 0.1276126
994.80 0.127569
994.90 0.1275254
995.00 0.1274818
995.10 0.1274383
995.20 0.1273947
995.30 0.1273512
995.40 0.1273077
995.50 0.1272642
995.60 0.1272207
995.70 0.1271772
995.80 0.1271338
995.90 0.1270903
996.00 0.1270469
996.10 0.1270041
996.20 0.1269614
996.30 0.1269187
996.40 0.1268761
996.50 0.1268334
996.60 0.1267908
996.70 0.1267482
996.80 0.1267056
996.90 0.126663
997.00 0.1266205
997.10 0.1265779
997.20 0.1265354
997.30 0.1264929
997.40 0.1264504
997.50 0.1264079
997.60 0.1263654
997.70 0.1263229
997.80 0.1262805
997.90 0.1262381
998.00 0.1261956
998.10 0.1261532
998.20 0.1261109
998.30 0.1260685
998.40 0.1260261
998.50 0.1259838
998.60 0.1259414
998.70 0.1258991
998.80 0.1258568
998.90 0.1258145
999.00 0.1257723
999.10 0.12573
999.20 0.1256878
999.30 0.1256455
999.40 0.1256033
999.50 0.1255611
999.60 0.1255189
999.70 0.1254767
999.80 0.1254346
999.90 0.1253924
1000.00 0.1253503
1000.10 0.1253082
1000.20 0.1252661
1000.30 0.125224
1000.40 0.1251819
1000.50 0.1251399
1000.60 0.1250978
1000.70 0.1250558
1000.80 0.1250138
1000.90 0.1249718
1001.00 0.1249297
1001.10 0.1248872
1001.20 0.1248447
1001.30 0.1248022
1001.40 0.1247597
1001.50 0.1247173
1001.60 0.1246748
1001.70 0.1246324
1001.80 0.12459
1001.90 0.1245476
1002.00 0.1245052
1002.10 0.1244629
1002.20 0.1244205
1002.30 0.1243782
1002.40 0.1243359
1002.50 0.1242936
1002.60 0.1242513
1002.70 0.124209
1002.80 0.1241667
1002.90 0.1241245
1003.00 0.1240823
1003.10 0.12404
1003.20 0.1239978
1003.30 0.1239556
1003.40 0.1239135
1003.50 0.1238713
1003.60 0.1238292
1003.70 0.123787
1003.80 0.1237449
1003.90 0.1237028
1004.00 0.1236607
1004.10 0.1236186
1004.20 0.1235766
1004.30 0.1235345
1004.40 0.1234925
1004.50 0.1234505
1004.60 0.1234085
1004.70 0.1233665
1004.80 0.1233245
1004.90 0.1232825
1005.00 0.1232406
1005.10 0.1231987
1005.20 0.1231567
1005.30 0.1231148
1005.40 0.1230729
1005.50 0.1230311
1005.60 0.1229892
1005.70 0.1229474
1005.80 0.1229055
1005.90 0.1228637
1006.00 0.1228221
1006.10 0.122781
1006.20 0.1227399
1006.30 0.1226988
1006.40 0.1226577
1006.50 0.1226167
1006.60 0.1225757
1006.70 0.1225346
1006.80 0.1224936
1006.90 0.1224527
1007.00 0.1224117
1007.10 0.1223707
1007.20 0.1223298
1007.30 0.1222888
1007.40 0.1222479
1007.50 0.122207
1007.60 0.1221661
1007.70 0.1221253
1007.80 0.1220844
1007.90 0.1220435
1008.00 0.1220027
1008.10 0.1219619
1008.20 0.1219211
1008.30 0.1218803
1008.40 0.1218395
1008.50 0.1217987
1008.60 0.121758
1008.70 0.1217172
1008.80 0.1216765
1008.90 0.1216358
1009.00 0.1215951
1009.10 0.1215544
1009.20 0.1215138
1009.30 0.1214731
1009.40 0.1214325
1009.50 0.1213918
1009.60 0.1213512
1009.70 0.1213106
1009.80 0.12127
1009.90 0.1212294
1010.00 0.1211889
1010.10 0.1211483
1010.20 0.1211078
1010.30 0.1210673
1010.40 0.1210268
1010.50 0.1209863
1010.60 0.1209458
1010.70 0.1209053
1010.80 0.1208649
1010.90 0.1208244
1011.00 0.1207841
1011.10 0.1207438
1011.20 0.1207036
1011.30 0.1206634
1011.40 0.1206232
1011.50 0.120583
1011.60 0.1205428
1011.70 0.1205026
1011.80 0.1204625
1011.90 0.1204223
1012.00 0.1203822
1012.10 0.1203421
1012.20 0.120302
1012.30 0.1202619
1012.40 0.1202219
1012.50 0.1201818
1012.60 0.1201418
1012.70 0.1201017
1012.80 0.1200617
1012.90 0.1200217
1013.00 0.1199817
1013.10 0.1199418
1013.20 0.1199018
1013.30 0.1198619
1013.40 0.1198219
1013.50 0.119782
1013.60 0.1197421
1013.70 0.1197022
1013.80 0.1196623
1013.90 0.1196225
1014.00 0.1195826
1014.10 0.1195428
1014.20 0.1195029
1014.30 0.1194631
1014.40 0.1194233
1014.50 0.1193835
1014.60 0.1193438
1014.70 0.119304
1014.80 0.1192643
1014.90 0.1192245
1015.00 0.1191848
1015.10 0.1191451
1015.20 0.1191054
1015.30 0.1190657
1015.40 0.1190261
1015.50 0.1189864
1015.60 0.1189468
1015.70 0.1189071
1015.80 0.1188675
1015.90 0.1188279
1016.00 0.1187883
1016.10 0.1187488
1016.20 0.1187092
1016.30 0.1186697
1016.40 0.1186301
1016.50 0.1185906
1016.60 0.1185511
1016.70 0.1185116
1016.80 0.1184721
1016.90 0.1184327
1017.00 0.1183932
1017.10 0.1183538
1017.20 0.1183143
1017.30 0.1182749
1017.40 0.1182355
1017.50 0.1181961
1017.60 0.1181568
1017.70 0.1181174
1017.80 0.1180781
1017.90 0.1180387
1018.00 0.1179994
1018.10 0.1179601
1018.20 0.1179208
1018.30 0.1178815
1018.40 0.1178422
1018.50 0.117803
1018.60 0.1177637
1018.70 0.1177245
1018.80 0.1176853
1018.90 0.1176461
1019.00 0.1176069
1019.10 0.1175677
1019.20 0.1175286
1019.30 0.1174894
1019.40 0.1174503
1019.50 0.1174112
1019.60 0.117372
1019.70 0.1173329
1019.80 0.1172939
1019.90 0.1172548
1020.00 0.1172157
1020.10 0.1171767
1020.20 0.1171376
1020.30 0.1170986
1020.40 0.1170596
1020.50 0.1170206
1020.60 0.1169816
1020.70 0.1169427
1020.80 0.1169037
1020.90 0.1168648
1021.00 0.1168258
1021.10 0.1167869
1021.20 0.1167482
1021.30 0.1167095
1021.40 0.1166708
1021.50 0.1166321
1021.60 0.1165934
1021.70 0.1165547
1021.80 0.116516
1021.90 0.1164774
1022.00 0.1164387
1022.10 0.1164001
1022.20 0.1163615
1022.30 0.1163229
1022.40 0.1162843
1022.50 0.1162457
1022.60 0.1162072
1022.70 0.1161686
1022.80 0.1161301
1022.90 0.1160915
1023.00 0.116053
1023.10 0.1160145
1023.20 0.1159761
1023.30 0.1159376
1023.40 0.1158991
1023.50 0.1158607
1023.60 0.1158222
1023.70 0.1157838
1023.80 0.1157454
1023.90 0.115707
1024.00 0.1156686
1024.10 0.1156303
1024.20 0.1155919
1024.30 0.1155536
1024.40 0.1155152
1024.50 0.1154769
1024.60 0.1154386
1024.70 0.1154003
1024.80 0.115362
1024.90 0.1153238
1025.00 0.1152855
1025.10 0.1152473
1025.20 0.115209
1025.30 0.1151708
1025.40 0.1151326
1025.50 0.1150944
1025.60 0.1150562
1025.70 0.1150181
1025.80 0.1149799
1025.90 0.1149418
1026.00 0.1149037
1026.10 0.1148655
1026.20 0.1148274
1026.30 0.1147893
1026.40 0.1147513
1026.50 0.1147132
1026.60 0.1146751
1026.70 0.1146371
1026.80 0.1145991
1026.90 0.114561
1027.00 0.114523
1027.10 0.1144851
1027.20 0.1144471
1027.30 0.1144091
1027.40 0.1143712
1027.50 0.1143332
1027.60 0.1142953
1027.70 0.1142574
1027.80 0.1142195
1027.90 0.1141816
1028.00 0.1141437
1028.10 0.1141058
1028.20 0.114068
1028.30 0.1140301
1028.40 0.1139923
1028.50 0.1139545
1028.60 0.1139167
1028.70 0.1138789
1028.80 0.1138411
1028.90 0.1138034
1029.00 0.1137656
1029.10 0.1137279
1029.20 0.1136901
1029.30 0.1136524
1029.40 0.1136147
1029.50 0.113577
1029.60 0.1135393
1029.70 0.1135017
1029.80 0.113464
1029.90 0.1134264
1030.00 0.1133888
1030.10 0.1133511
1030.20 0.1133135
1030.30 0.1132759
1030.40 0.1132384
1030.50 0.1132008
1030.60 0.1131632
1030.70 0.1131257
1030.80 0.1130882
1030.90 0.1130507
1031.00 0.1130132
1031.10 0.1129757
1031.20 0.1129382
1031.30 0.1129007
1031.40 0.1128634
1031.50 0.1128261
1031.60 0.1127889
1031.70 0.1127516
1031.80 0.1127144
1031.90 0.1126771
1032.00 0.1126399
1032.10 0.1126027
1032.20 0.1125655
1032.30 0.1125283
1032.40 0.1124911
1032.50 0.112454
1032.60 0.1124168
1032.70 0.1123797
1032.80 0.1123426
1032.90 0.1123054
1033.00 0.1122683
1033.10 0.1122313
1033.20 0.1121942
1033.30 0.1121571
1033.40 0.1121201
1033.50 0.112083
1033.60 0.112046
1033.70 0.112009
1033.80 0.111972
1033.90 0.111935
1034.00 0.111898
1034.10 0.1118611
1034.20 0.1118241
1034.30 0.1117872
1034.40 0.1117502
1034.50 0.1117133
1034.60 0.1116764
1034.70 0.1116395
1034.80 0.1116026
1034.90 0.1115658
1035.00 0.1115289
1035.10 0.1114921
1035.20 0.1114552
1035.30 0.1114184
1035.40 0.1113816
1035.50 0.1113448
1035.60 0.111308
1035.70 0.1112713
1035.80 0.1112345
1035.90 0.1111978
1036.00 0.111161
1036.10 0.1111243
1036.20 0.1110876
1036.30 0.1110509
1036.40 0.1110142
1036.50 0.1109778
1036.60 0.1109417
1036.70 0.1109057
1036.80 0.1108697
1036.90 0.1108337
1037.00 0.1107977
1037.10 0.1107618
1037.20 0.1107258
1037.30 0.1106899
1037.40 0.1106539
1037.50 0.110618
1037.60 0.1105821
1037.70 0.1105462
1037.80 0.1105103
1037.90 0.1104744
1038.00 0.1104386
1038.10 0.1104027
1038.20 0.1103669
1038.30 0.1103311
1038.40 0.1102952
1038.50 0.1102594
1038.60 0.1102236
1038.70 0.1101879
1038.80 0.1101521
1038.90 0.1101163
1039.00 0.1100806
1039.10 0.1100448
1039.20 0.1100091
1039.30 0.1099734
1039.40 0.1099377
1039.50 0.109902
1039.60 0.1098663
1039.70 0.1098307
1039.80 0.109795
1039.90 0.1097594
1040.00 0.1097238
1040.10 0.1096881
1040.20 0.1096525
1040.30 0.1096169
1040.40 0.1095814
1040.50 0.1095458
1040.60 0.1095102
1040.70 0.1094747
1040.80 0.1094391
1040.90 0.1094036
1041.00 0.1093681
1041.10 0.1093326
1041.20 0.1092971
1041.30 0.1092616
1041.40 0.1092262
1041.50 0.1091907
1041.60 0.1091553
1041.70 0.1091194
1041.80 0.1090835
1041.90 0.1090477
1042.00 0.1090118
1042.10 0.1089759
1042.20 0.1089401
1042.30 0.1089042
1042.40 0.1088684
1042.50 0.1088326
1042.60 0.1087968
1042.70 0.108761
1042.80 0.1087252
1042.90 0.1086894
1043.00 0.1086537
1043.10 0.1086179
1043.20 0.1085822
1043.30 0.1085465
1043.40 0.1085108
1043.50 0.1084751
1043.60 0.1084394
1043.70 0.1084037
1043.80 0.108368
1043.90 0.1083324
1044.00 0.1082967
1044.10 0.1082611
1044.20 0.1082255
1044.30 0.1081899
1044.40 0.1081543
1044.50 0.1081187
1044.60 0.1080831
1044.70 0.1080476
1044.80 0.108012
1044.90 0.1079765
1045.00 0.107941
1045.10 0.1079055
1045.20 0.10787
1045.30 0.1078345
1045.40 0.107799
1045.50 0.1077635
1045.60 0.1077281
1045.70 0.1076926
1045.80 0.1076572
1045.90 0.1076218
1046.00 0.1075864
1046.10 0.107551
1046.20 0.1075156
1046.30 0.1074802
1046.40 0.1074449
1046.50 0.1074095
1046.60 0.1073742
1046.70 0.1073388
1046.80 0.1073035
1046.90 0.1072687
1047.00 0.107234
1047.10 0.1071993
1047.20 0.1071647
1047.30 0.10713
1047.40 0.1070954
1047.50 0.1070608
1047.60 0.1070262
1047.70 0.1069916
1047.80 0.106957
1047.90 0.1069224
1048.00 0.1068879
1048.10 0.1068533
1048.20 0.1068188
1048.30 0.1067842
1048.40 0.1067497
1048.50 0.1067152
1048.60 0.1066807
1048.70 0.1066462
1048.80 0.1066118
1048.90 0.1065773
1049.00 0.1065428
1049.10 0.1065084
1049.20 0.106474
1049.30 0.1064396
1049.40 0.1064052
1049.50 0.1063708
1049.60 0.1063364
1049.70 0.106302
1049.80 0.1062676
1049.90 0.1062333
1050.00 0.1061989
1050.10 0.1061646
1050.20 0.1061303
1050.30 0.106096
1050.40 0.1060617
1050.50 0.1060274
1050.60 0.1059931
1050.70 0.1059589
1050.80 0.1059246
1050.90 0.1058904
1051.00 0.1058562
1051.10 0.1058219
1051.20 0.1057877
1051.30 0.1057535
1051.40 0.1057194
1051.50 0.1056852
1051.60 0.105651
1051.70 0.1056169
1051.80 0.1055827
1051.90 0.1055486
1052.00 0.1055145
1052.10 0.1054803
1052.20 0.105446
1052.30 0.1054118
1052.40 0.1053775
1052.50 0.1053433
1052.60 0.1053091
1052.70 0.1052749
1052.80 0.1052407
1052.90 0.1052065
1053.00 0.1051724
1053.10 0.1051382
1053.20 0.1051041
1053.30 0.1050699
1053.40 0.1050358
1053.50 0.1050017
1053.60 0.1049676
1053.70 0.1049335
1053.80 0.1048994
1053.90 0.1048653
1054.00 0.1048313
1054.10 0.1047972
1054.20 0.1047632
1054.30 0.1047292
1054.40 0.1046952
1054.50 0.1046612
1054.60 0.1046272
1054.70 0.1045932
1054.80 0.1045592
1054.90 0.1045253
1055.00 0.1044913
1055.10 0.1044574
1055.20 0.1044235
1055.30 0.1043895
1055.40 0.1043556
1055.50 0.1043217
1055.60 0.1042879
1055.70 0.104254
1055.80 0.1042201
1055.90 0.1041863
1056.00 0.1041524
1056.10 0.1041186
1056.20 0.1040848
1056.30 0.104051
1056.40 0.1040172
1056.50 0.1039834
1056.60 0.1039496
1056.70 0.1039159
1056.80 0.1038821
1056.90 0.1038484
1057.00 0.1038147
1057.10 0.1037809
1057.20 0.1037472
1057.30 0.1037135
1057.40 0.1036799
1057.50 0.1036462
1057.60 0.1036125
1057.70 0.1035789
1057.80 0.1035452
1057.90 0.1035116
1058.00 0.103478
1058.10 0.1034444
1058.20 0.1034108
1058.30 0.1033772
1058.40 0.1033436
1058.50 0.10331
1058.60 0.1032765
1058.70 0.1032429
1058.80 0.1032094
1058.90 0.1031759
1059.00 0.1031424
1059.10 0.1031089
1059.20 0.1030754
1059.30 0.1030419
1059.40 0.1030084
1059.50 0.102975
1059.60 0.1029415
1059.70 0.1029081
1059.80 0.1028747
1059.90 0.1028413
1060.00 0.1028079
1060.10 0.1027745
1060.20 0.1027411
1060.30 0.1027077
1060.40 0.1026744
1060.50 0.102641
1060.60 0.1026077
1060.70 0.1025743
1060.80 0.102541
1060.90 0.1025077
1061.00 0.1024744
1061.10 0.1024411
1061.20 0.1024079
1061.30 0.1023746
1061.40 0.1023413
1061.50 0.1023081
1061.60 0.1022749
1061.70 0.1022416
1061.80 0.1022084
1061.90 0.1021752
1062.00 0.102142
1062.10 0.1021089
1062.20 0.1020757
1062.30 0.1020425
1062.40 0.1020094
1062.50 0.1019763
1062.60 0.1019433
1062.70 0.1019107
1062.80 0.101878
1062.90 0.1018453
1063.00 0.1018127
1063.10 0.10178
1063.20 0.1017474
1063.30 0.1017148
1063.40 0.1016822
1063.50 0.1016496
1063.60 0.101617
1063.70 0.1015844
1063.80 0.1015518
1063.90 0.1015193
1064.00 0.1014867
1064.10 0.1014542
1064.20 0.1014217
1064.30 0.1013891
1064.40 0.1013566
1064.50 0.1013241
1064.60 0.1012917
1064.70 0.1012592
1064.80 0.1012267
1064.90 0.1011943
1065.00 0.1011618
1065.10 0.1011294
1065.20 0.101097
1065.30 0.1010646
1065.40 0.1010322
1065.50 0.1009998
1065.60 0.1009674
1065.70 0.100935
1065.80 0.1009027
1065.90 0.1008703
1066.00 0.100838
1066.10 0.1008056
1066.20 0.1007733
1066.30 0.100741
1066.40 0.1007087
1066.50 0.1006764
1066.60 0.1006442
1066.70 0.1006119
1066.80 0.1005796
1066.90 0.1005474
1067.00 0.1005152
1067.10 0.1004829
1067.20 0.1004507
1067.30 0.1004185
1067.40 0.1003863
1067.50 0.1003541
1067.60 0.100322
1067.70 0.1002898
1067.80 0.1002576
1067.90 0.1002255
1068.00 0.1001934
1068.10 0.1001612
1068.20 0.1001291
1068.30 0.100097
1068.40 0.1000649
1068.50 0.1000328
1068.60 0.1000008
1068.70 0.0999687
1068.80 0.09993665
1068.90 0.09990461
1069.00 0.09987258
1069.10 0.09984055
1069.20 0.09980854
1069.30 0.09977654
1069.40 0.09974455
1069.50 0.09971257
1069.60 0.0996806
1069.70 0.09964863
1069.80 0.09961668
1069.90 0.09958474
1070.00 0.09955281
1070.10 0.09952089
1070.20 0.09948898
1070.30 0.09945708
1070.40 0.09942519
1070.50 0.09939331
1070.60 0.09936145
1070.70 0.09932959
1070.80 0.09929774
1070.90 0.0992659
1071.00 0.09923407
1071.10 0.09920225
1071.20 0.09917044
1071.30 0.09913865
1071.40 0.09910686
1071.50 0.09907508
1071.60 0.09904331
1071.70 0.09901156
1071.80 0.09897981
1071.90 0.09894807
1072.00 0.09891634
1072.10 0.09888463
1072.20 0.09885292
1072.30 0.09882122
1072.40 0.09878954
1072.50 0.09875786
1072.60 0.09872619
1072.70 0.09869454
1072.80 0.09866289
1072.90 0.09863125
1073.00 0.09859963
1073.10 0.09856801
1073.20 0.09853643
1073.30 0.09850497
1073.40 0.09847352
1073.50 0.09844208
1073.60 0.09841064
1073.70 0.09837922
1073.80 0.09834781
1073.90 0.0983164
1074.00 0.09828501
1074.10 0.09825363
1074.20 0.09822226
1074.30 0.09819089
1074.40 0.09815954
1074.50 0.0981282
1074.60 0.09809686
1074.70 0.09806554
1074.80 0.09803423
1074.90 0.09800293
1075.00 0.09797163
1075.10 0.09794035
1075.20 0.09790908
1075.30 0.09787781
1075.40 0.09784656
1075.50 0.09781532
1075.60 0.09778408
1075.70 0.09775286
1075.80 0.09772165
1075.90 0.09769044
1076.00 0.09765925
1076.10 0.09762806
1076.20 0.09759689
1076.30 0.09756573
1076.40 0.09753457
1076.50 0.09750343
1076.60 0.09747229
1076.70 0.09744117
1076.80 0.09741005
1076.90 0.09737895
1077.00 0.09734786
1077.10 0.09731677
1077.20 0.09728569
1077.30 0.09725463
1077.40 0.09722357
1077.50 0.09719253
1077.60 0.09716149
1077.70 0.09713047
1077.80 0.09709945
1077.90 0.09706844
1078.00 0.09703745
1078.10 0.09700646
1078.20 0.09697549
1078.30 0.09694452
1078.40 0.09691356
1078.50 0.09688261
1078.60 0.09685168
1078.70 0.09682075
1078.80 0.09678983
1078.90 0.09675892
1079.00 0.09672802
1079.10 0.09669714
1079.20 0.09666626
1079.30 0.09663539
1079.40 0.09660453
1079.50 0.09657368
1079.60 0.09654284
1079.70 0.09651201
1079.80 0.09648119
1079.90 0.09645038
1080.00 0.09641958
1080.10 0.09638879
1080.20 0.09635801
1080.30 0.09632724
1080.40 0.09629648
1080.50 0.09626572
1080.60 0.09623498
1080.70 0.09620425
1080.80 0.09617353
1080.90 0.09614281
1081.00 0.09611211
1081.10 0.09608142
1081.20 0.09605073
1081.30 0.09602006
1081.40 0.0959894
1081.50 0.09595874
1081.60 0.0959281
1081.70 0.09589746
1081.80 0.09586683
1081.90 0.09583622
1082.00 0.09580561
1082.10 0.09577502
1082.20 0.09574443
1082.30 0.09571385
1082.40 0.09568328
1082.50 0.09565273
1082.60 0.09562218
1082.70 0.09559164
1082.80 0.09556111
1082.90 0.09553059
1083.00 0.09550008
1083.10 0.09546958
1083.20 0.09543909
1083.30 0.09540861
1083.40 0.09537814
1083.50 0.09534768
1083.60 0.09531723
1083.70 0.09528678
1083.80 0.09525635
1083.90 0.09522593
1084.00 0.09519612
1084.10 0.0951664
1084.20 0.09513668
1084.30 0.09510698
1084.40 0.09507729
1084.50 0.0950476
1084.60 0.09501792
1084.70 0.09498826
1084.80 0.0949586
1084.90 0.09492895
1085.00 0.09489931
1085.10 0.09486968
1085.20 0.09484006
1085.30 0.09481045
1085.40 0.09478085
1085.50 0.09475125
1085.60 0.09472167
1085.70 0.0946921
1085.80 0.09466253
1085.90 0.09463298
1086.00 0.09460343
1086.10 0.09457389
1086.20 0.09454437
1086.30 0.09451485
1086.40 0.09448534
1086.50 0.09445584
1086.60 0.09442635
1086.70 0.09439687
1086.80 0.09436739
1086.90 0.09433793
1087.00 0.09430848
1087.10 0.09427903
1087.20 0.0942496
1087.30 0.09422017
1087.40 0.09419076
1087.50 0.09416135
1087.60 0.09413195
1087.70 0.09410256
1087.80 0.09407318
1087.90 0.09404381
1088.00 0.09401445
1088.10 0.0939851
1088.20 0.09395575
1088.30 0.09392642
1088.40 0.0938971
1088.50 0.09386778
1088.60 0.09383847
1088.70 0.09380918
1088.80 0.09377989
1088.90 0.09375061
1089.00 0.09372134
1089.10 0.09369208
1089.20 0.09366283
1089.30 0.09363359
1089.40 0.09360398
1089.50 0.0935742
1089.60 0.09354444
1089.70 0.09351468
1089.80 0.09348494
1089.90 0.0934552
1090.00 0.09342548
1090.10 0.09339576
1090.20 0.09336605
1090.30 0.09333635
1090.40 0.09330666
1090.50 0.09327698
1090.60 0.09324731
1090.70 0.09321765
1090.80 0.093188
1090.90 0.09315836
1091.00 0.09312872
1091.10 0.0930991
1091.20 0.09306949
1091.30 0.09303988
1091.40 0.09301028
1091.50 0.0929807
1091.60 0.09295112
1091.70 0.09292155
1091.80 0.09289199
1091.90 0.09286244
1092.00 0.0928329
1092.10 0.09280337
1092.20 0.09277385
1092.30 0.09274434
1092.40 0.09271483
1092.50 0.09268534
1092.60 0.09265585
1092.70 0.09262638
1092.80 0.09259691
1092.90 0.09256745
1093.00 0.09253801
1093.10 0.09250857
1093.20 0.09247914
1093.30 0.09244972
1093.40 0.09242031
1093.50 0.0923909
1093.60 0.09236151
1093.70 0.09233213
1093.80 0.09230275
1093.90 0.09227339
1094.00 0.09224403
1094.10 0.09221469
1094.20 0.09218535
1094.30 0.09215602
1094.40 0.0921267
1094.50 0.09209739
1094.60 0.09206809
1094.70 0.0920388
1094.80 0.09200971
1094.90 0.09198083
1095.00 0.09195196
1095.10 0.0919231
1095.20 0.09189425
1095.30 0.0918654
1095.40 0.09183657
1095.50 0.09180774
1095.60 0.09177892
1095.70 0.09175012
1095.80 0.09172132
1095.90 0.09169253
1096.00 0.09166375
1096.10 0.09163498
1096.20 0.09160621
1096.30 0.09157746
1096.40 0.09154871
1096.50 0.09151998
1096.60 0.09149125
1096.70 0.09146253
1096.80 0.09143382
1096.90 0.09140512
1097.00 0.09137643
1097.10 0.09134775
1097.20 0.09131908
1097.30 0.09129041
1097.40 0.09126176
1097.50 0.09123311
1097.60 0.09120447
1097.70 0.09117584
1097.80 0.09114722
1097.90 0.09111861
1098.00 0.09109001
1098.10 0.09106142
1098.20 0.09103283
1098.30 0.09100426
1098.40 0.09097569
1098.50 0.09094713
1098.60 0.09091858
1098.70 0.09089005
1098.80 0.09086151
1098.90 0.09083299
1099.00 0.09080448
1099.10 0.09077598
1099.20 0.09074748
1099.30 0.09071899
1099.40 0.09069052
1099.50 0.09066205
1099.60 0.09063359
1099.70 0.09060514
1099.80 0.09057669
1099.90 0.09054826
1100.00 0.09051984
1100.10 0.09049142
1100.20 0.09046301
1100.30 0.09043462
1100.40 0.09040623
1100.50 0.09037785
1100.60 0.09034947
1100.70 0.09032111
1100.80 0.09029276
1100.90 0.09026441
1101.00 0.09023608
1101.10 0.09020775
1101.20 0.09017943
1101.30 0.09015112
1101.40 0.09012282
1101.50 0.09009453
1101.60 0.09006624
1101.70 0.09003797
1101.80 0.0900097
1101.90 0.08998144
1102.00 0.0899532
1102.10 0.08992496
1102.20 0.08989673
1102.30 0.0898685
1102.40 0.08984029
1102.50 0.08981209
1102.60 0.08978389
1102.70 0.0897557
1102.80 0.08972752
1102.90 0.08969936
1103.00 0.08967119
1103.10 0.08964304
1103.20 0.0896149
1103.30 0.08958676
1103.40 0.08955864
1103.50 0.08953052
1103.60 0.08950241
1103.70 0.08947431
1103.80 0.08944622
1103.90 0.08941814
1104.00 0.08939007
1104.10 0.089362
1104.20 0.08933394
1104.30 0.0893059
1104.40 0.08927786
1104.50 0.08924983
1104.60 0.08922181
1104.70 0.08919379
1104.80 0.08916579
1104.90 0.08913779
1105.00 0.08910981
1105.10 0.08908183
1105.20 0.08905386
1105.30 0.0890259
1105.40 0.08899795
1105.50 0.08897
1105.60 0.08894207
1105.70 0.08891415
1105.80 0.08888661
1105.90 0.08885908
1106.00 0.08883155
1106.10 0.08880404
1106.20 0.08877653
1106.30 0.08874904
1106.40 0.08872155
1106.50 0.08869407
1106.60 0.08866659
1106.70 0.08863913
1106.80 0.08861167
1106.90 0.08858423
1107.00 0.08855679
1107.10 0.08852936
1107.20 0.08850194
1107.30 0.08847452
1107.40 0.08844712
1107.50 0.08841972
1107.60 0.08839233
1107.70 0.08836496
1107.80 0.08833758
1107.90 0.08831022
1108.00 0.08828287
1108.10 0.08825552
1108.20 0.08822819
1108.30 0.08820086
1108.40 0.08817354
1108.50 0.08814622
1108.60 0.08811892
1108.70 0.08809163
1108.80 0.08806434
1108.90 0.08803706
1109.00 0.08800979
1109.10 0.08798253
1109.20 0.08795528
1109.30 0.08792803
1109.40 0.0879008
1109.50 0.08787357
1109.60 0.08784635
1109.70 0.08781914
1109.80 0.08779194
1109.90 0.08776474
1110.00 0.08773756
1110.10 0.08771038
1110.20 0.08768321
1110.30 0.08765605
1110.40 0.0876289
1110.50 0.08760175
1110.60 0.08757462
1110.70 0.08754749
1110.80 0.08752037
1110.90 0.08749326
1111.00 0.08746616
1111.10 0.08743906
1111.20 0.08741198
1111.30 0.0873849
1111.40 0.08735783
1111.50 0.08733077
1111.60 0.08730372
1111.70 0.08727667
1111.80 0.08724964
1111.90 0.08722261
1112.00 0.08719559
1112.10 0.08716858
1112.20 0.08714158
1112.30 0.08711459
1112.40 0.0870876
1112.50 0.08706062
1112.60 0.08703365
1112.70 0.08700669
1112.80 0.08697974
1112.90 0.08695279
1113.00 0.08692586
1113.10 0.08689893
1113.20 0.08687201
1113.30 0.0868451
1113.40 0.0868182
1113.50 0.0867913
1113.60 0.08676442
1113.70 0.08673754
1113.80 0.08671067
1113.90 0.08668381
1114.00 0.08665695
1114.10 0.08663011
1114.20 0.08660327
1114.30 0.08657644
1114.40 0.08654962
1114.50 0.08652281
1114.60 0.086496
1114.70 0.08646921
1114.80 0.08644242
1114.90 0.08641564
1115.00 0.08638887
1115.10 0.08636211
1115.20 0.08633535
1115.30 0.08630861
1115.40 0.08628187
1115.50 0.08625514
1115.60 0.08622841
1115.70 0.0862017
1115.80 0.086175
1115.90 0.0861483
1116.00 0.08612161
1116.10 0.08609493
1116.20 0.08606825
1116.30 0.08604159
1116.40 0.08601493
1116.50 0.08598829
1116.60 0.08596164
1116.70 0.08593501
1116.80 0.08590844
1116.90 0.08588194
1117.00 0.08585544
1117.10 0.08582895
1117.20 0.08580247
1117.30 0.085776
1117.40 0.08574954
1117.50 0.08572308
1117.60 0.08569663
1117.70 0.08567019
1117.80 0.08564376
1117.90 0.08561734
1118.00 0.08559093
1118.10 0.08556452
1118.20 0.08553812
1118.30 0.08551173
1118.40 0.08548535
1118.50 0.08545897
1118.60 0.08543261
1118.70 0.08540625
1118.80 0.0853799
1118.90 0.08535355
1119.00 0.08532722
1119.10 0.08530089
1119.20 0.08527457
1119.30 0.08524826
1119.40 0.08522196
1119.50 0.08519567
1119.60 0.08516938
1119.70 0.0851431
1119.80 0.08511683
1119.90 0.08509057
1120.00 0.08506432
1120.10 0.08503807
1120.20 0.08501183
1120.30 0.0849856
1120.40 0.08495938
1120.50 0.08493317
1120.60 0.08490696
1120.70 0.08488077
1120.80 0.08485458
1120.90 0.08482839
1121.00 0.08480222
1121.10 0.08477605
1121.20 0.0847499
1121.30 0.08472375
1121.40 0.0846976
1121.50 0.08467147
1121.60 0.08464534
1121.70 0.08461923
1121.80 0.08459312
1121.90 0.08456701
1122.00 0.08454092
1122.10 0.08451483
1122.20 0.08448875
1122.30 0.08446268
1122.40 0.08443632
1122.50 0.08440976
1122.60 0.08438321
1122.70 0.08435667
1122.80 0.08433014
1122.90 0.08430361
1123.00 0.0842771
1123.10 0.08425059
1123.20 0.08422409
1123.30 0.0841976
1123.40 0.08417111
1123.50 0.08414464
1123.60 0.08411817
1123.70 0.08409171
1123.80 0.08406526
1123.90 0.08403881
1124.00 0.08401238
1124.10 0.08398595
1124.20 0.08395953
1124.30 0.08393312
1124.40 0.08390672
1124.50 0.08388032
1124.60 0.08385393
1124.70 0.08382756
1124.80 0.08380119
1124.90 0.08377482
1125.00 0.08374847
1125.10 0.08372212
1125.20 0.08369578
1125.30 0.08366945
1125.40 0.08364313
1125.50 0.08361681
1125.60 0.08359051
1125.70 0.08356421
1125.80 0.08353792
1125.90 0.08351164
1126.00 0.08348536
1126.10 0.0834591
1126.20 0.08343284
1126.30 0.08340659
1126.40 0.08338034
1126.50 0.08335411
1126.60 0.08332788
1126.70 0.08330167
1126.80 0.08327545
1126.90 0.08324925
1127.00 0.08322306
1127.10 0.08319687
1127.20 0.08317069
1127.30 0.08314452
1127.40 0.08311836
1127.50 0.08309221
1127.60 0.08306606
1127.70 0.08303992
1127.80 0.08301379
1127.90 0.08298767
1128.00 0.08296222
1128.10 0.08293696
1128.20 0.08291171
1128.30 0.08288647
1128.40 0.08286124
1128.50 0.08283601
1128.60 0.0828108
1128.70 0.08278559
1128.80 0.08276038
1128.90 0.08273519
1129.00 0.08271
1129.10 0.08268482
1129.20 0.08265965
1129.30 0.08263449
1129.40 0.08260933
1129.50 0.08258418
1129.60 0.08255904
1129.70 0.08253391
1129.80 0.08250878
1129.90 0.08248366
1130.00 0.08245855
1130.10 0.08243345
1130.20 0.08240835
1130.30 0.08238326
1130.40 0.08235818
1130.50 0.08233311
1130.60 0.08230805
1130.70 0.08228299
1130.80 0.08225794
1130.90 0.08223289
1131.00 0.08220786
1131.10 0.08218283
1131.20 0.08215781
1131.30 0.0821328
1131.40 0.0821078
1131.50 0.0820828
1131.60 0.08205781
1131.70 0.08203283
1131.80 0.08200785
1131.90 0.08198288
1132.00 0.08195793
1132.10 0.08193297
1132.20 0.08190803
1132.30 0.08188309
1132.40 0.08185816
1132.50 0.08183324
1132.60 0.08180833
1132.70 0.08178342
1132.80 0.08175852
1132.90 0.08173363
1133.00 0.08170874
1133.10 0.08168387
1133.20 0.081659
1133.30 0.08163414
1133.40 0.08160928
1133.50 0.08158444
1133.60 0.0815596
1133.70 0.08153476
1133.80 0.08150994
1133.90 0.08148512
1134.00 0.08146031
1134.10 0.08143551
1134.20 0.08141072
1134.30 0.08138593
1134.40 0.08136115
1134.50 0.08133638
1134.60 0.08131162
1134.70 0.08128686
1134.80 0.08126211
1134.90 0.08123737
1135.00 0.08121263
1135.10 0.08118791
1135.20 0.08116319
1135.30 0.08113847
1135.40 0.08111377
1135.50 0.08108907
1135.60 0.08106438
1135.70 0.0810397
1135.80 0.08101502
1135.90 0.08099036
1136.00 0.0809657
1136.10 0.08094104
1136.20 0.0809164
1136.30 0.08089176
1136.40 0.08086713
1136.50 0.08084251
1136.60 0.08081789
1136.70 0.08079328
1136.80 0.08076868
1136.90 0.08074409
1137.00 0.0807195
1137.10 0.08069492
1137.20 0.08067035
1137.30 0.08064579
1137.40 0.08062123
1137.50 0.08059668
1137.60 0.08057214
1137.70 0.08054761
1137.80 0.08052308
1137.90 0.08049856
1138.00 0.08047405
1138.10 0.08044955
1138.20 0.08042505
1138.30 0.08040056
1138.40 0.08037608
1138.50 0.0803516
1138.60 0.08032713
1138.70 0.08030267
1138.80 0.08027822
1138.90 0.08025377
1139.00 0.08022933
1139.10 0.0802049
1139.20 0.08018048
1139.30 0.08015616
1139.40 0.08013185
1139.50 0.08010755
1139.60 0.08008326
1139.70 0.08005898
1139.80 0.0800347
1139.90 0.08001043
1140.00 0.07998616
1140.10 0.07996191
1140.20 0.07993766
1140.30 0.07991341
1140.40 0.07988918
1140.50 0.07986495
1140.60 0.07984073
1140.70 0.07981652
1140.80 0.07979231
1140.90 0.07976812
1141.00 0.07974392
1141.10 0.07971974
1141.20 0.07969556
1141.30 0.07967139
1141.40 0.07964723
1141.50 0.07962308
1141.60 0.07959893
1141.70 0.07957479
1141.80 0.07955066
1141.90 0.07952653
1142.00 0.07950241
1142.10 0.0794783
1142.20 0.0794542
1142.30 0.0794301
1142.40 0.07940601
1142.50 0.07938193
1142.60 0.07935785
1142.70 0.07933378
1142.80 0.07930972
1142.90 0.07928567
1143.00 0.07926162
1143.10 0.07923758
1143.20 0.07921355
1143.30 0.07918953
1143.40 0.07916551
1143.50 0.0791415
1143.60 0.07911749
1143.70 0.0790935
1143.80 0.07906951
1143.90 0.07904553
1144.00 0.07902155
1144.10 0.07899759
1144.20 0.07897363
1144.30 0.07894967
1144.40 0.07892573
1144.50 0.07890179
1144.60 0.07887786
1144.70 0.07885393
1144.80 0.07883001
1144.90 0.0788061
1145.00 0.0787822
1145.10 0.0787583
1145.20 0.07873442
1145.30 0.07871053
1145.40 0.07868666
1145.50 0.07866279
1145.60 0.07863893
1145.70 0.07861508
1145.80 0.07859123
1145.90 0.07856739
1146.00 0.07854356
1146.10 0.07851974
1146.20 0.07849592
1146.30 0.07847211
1146.40 0.07844831
1146.50 0.07842451
1146.60 0.07840072
1146.70 0.07837694
1146.80 0.07835317
1146.90 0.0783294
1147.00 0.07830564
1147.10 0.07828188
1147.20 0.07825814
1147.30 0.0782344
1147.40 0.07821067
1147.50 0.07818694
1147.60 0.07816322
1147.70 0.07813951
1147.80 0.07811581
1147.90 0.07809211
1148.00 0.07806842
1148.10 0.07804474
1148.20 0.07802106
1148.30 0.0779974
1148.40 0.07797373
1148.50 0.07795008
1148.60 0.07792643
1148.70 0.07790279
1148.80 0.07787916
1148.90 0.07785553
1149.00 0.07783191
1149.10 0.0778083
1149.20 0.0777847
1149.30 0.0777611
1149.40 0.07773751
1149.50 0.07771392
1149.60 0.07769035
1149.70 0.07766678
1149.80 0.07764321
1149.90 0.07761966
1150.00 0.07759611
1150.10 0.07757257
1150.20 0.07754903
1150.30 0.0775255
1150.40 0.07750198
1150.50 0.07747847
1150.60 0.07745495
1150.70 0.07743132
1150.80 0.07740769
1150.90 0.07738408
1151.00 0.07736046
1151.10 0.07733686
1151.20 0.07731326
1151.30 0.07728967
1151.40 0.07726609
1151.50 0.07724251
1151.60 0.07721894
1151.70 0.07719538
1151.80 0.07717182
1151.90 0.07714827
1152.00 0.07712473
1152.10 0.07710119
1152.20 0.07707767
1152.30 0.07705414
1152.40 0.07703063
1152.50 0.07700712
1152.60 0.07698362
1152.70 0.07696013
1152.80 0.07693665
1152.90 0.07691317
1153.00 0.07688969
1153.10 0.07686623
1153.20 0.07684277
1153.30 0.07681932
1153.40 0.07679588
1153.50 0.07677244
1153.60 0.07674901
1153.70 0.07672559
1153.80 0.07670217
1153.90 0.07667876
1154.00 0.07665536
1154.10 0.07663196
1154.20 0.07660858
1154.30 0.0765852
1154.40 0.07656182
1154.50 0.07653845
1154.60 0.07651509
1154.70 0.07649174
1154.80 0.07646839
1154.90 0.07644505
1155.00 0.07642172
1155.10 0.07639839
1155.20 0.07637508
1155.30 0.07635176
1155.40 0.07632846
1155.50 0.07630516
1155.60 0.07628187
1155.70 0.07625859
1155.80 0.07623531
1155.90 0.07621204
1156.00 0.07618877
1156.10 0.07616552
1156.20 0.07614227
1156.30 0.07611903
1156.40 0.07609604
1156.50 0.07607327
1156.60 0.07605051
1156.70 0.07602776
1156.80 0.07600501
1156.90 0.07598227
1157.00 0.07595953
1157.10 0.0759368
1157.20 0.07591408
1157.30 0.07589137
1157.40 0.07586866
1157.50 0.07584596
1157.60 0.07582327
1157.70 0.07580058
1157.80 0.0757779
1157.90 0.07575523
1158.00 0.07573256
1158.10 0.0757099
1158.20 0.07568724
1158.30 0.0756646
1158.40 0.07564196
1158.50 0.07561932
1158.60 0.0755967
1158.70 0.07557408
1158.80 0.07555146
1158.90 0.07552886
1159.00 0.07550626
1159.10 0.07548366
1159.20 0.07546108
1159.30 0.0754385
1159.40 0.07541592
1159.50 0.07539335
1159.60 0.07537079
1159.70 0.07534824
1159.80 0.07532569
1159.90 0.07530315
1160.00 0.07528062
1160.10 0.07525809
1160.20 0.07523557
1160.30 0.07521306
1160.40 0.07519055
1160.50 0.07516805
1160.60 0.07514556
1160.70 0.07512307
1160.80 0.07510059
1160.90 0.07507812
1161.00 0.07505565
1161.10 0.07503319
1161.20 0.07501073
1161.30 0.07498829
1161.40 0.07496585
1161.50 0.07494341
1161.60 0.07492098
1161.70 0.07489856
1161.80 0.07487615
1161.90 0.07485374
1162.00 0.07483134
1162.10 0.07480895
1162.20 0.07478665
1162.30 0.07476436
1162.40 0.07474208
1162.50 0.0747198
1162.60 0.07469753
1162.70 0.07467527
1162.80 0.07465301
1162.90 0.07463076
1163.00 0.07460852
1163.10 0.07458628
1163.20 0.07456405
1163.30 0.07454182
1163.40 0.07451961
1163.50 0.0744974
1163.60 0.07447519
1163.70 0.07445299
1163.80 0.0744308
1163.90 0.07440862
1164.00 0.07438644
1164.10 0.07436427
1164.20 0.0743421
1164.30 0.07431994
1164.40 0.07429779
1164.50 0.07427565
1164.60 0.07425351
1164.70 0.07423137
1164.80 0.07420925
1164.90 0.07418713
1165.00 0.07416501
1165.10 0.07414291
1165.20 0.07412081
1165.30 0.07409871
1165.40 0.07407663
1165.50 0.07405455
1165.60 0.07403247
1165.70 0.0740104
1165.80 0.07398834
1165.90 0.07396629
1166.00 0.07394424
1166.10 0.0739222
1166.20 0.07390016
1166.30 0.07387813
1166.40 0.07385611
1166.50 0.07383409
1166.60 0.07381208
1166.70 0.07379008
1166.80 0.07376808
1166.90 0.07374609
1167.00 0.07372411
1167.10 0.07370213
1167.20 0.07368016
1167.30 0.0736582
1167.40 0.07363624
1167.50 0.07361429
1167.60 0.07359234
1167.70 0.0735704
1167.80 0.07354847
1167.90 0.07352655
1168.00 0.07350463
1168.10 0.07348272
1168.20 0.07346081
1168.30 0.07343891
1168.40 0.07341702
1168.50 0.07339514
1168.60 0.07337326
1168.70 0.07335139
1168.80 0.07332952
1168.90 0.07330766
1169.00 0.07328581
1169.10 0.07326396
1169.20 0.07324212
1169.30 0.07322028
1169.40 0.07319846
1169.50 0.07317663
1169.60 0.07315482
1169.70 0.07313301
1169.80 0.07311121
1169.90 0.07308941
1170.00 0.07306762
1170.10 0.07304584
1170.20 0.07302406
1170.30 0.07300229
1170.40 0.07298053
1170.50 0.07295877
1170.60 0.07293702
1170.70 0.07291527
1170.80 0.07289353
1170.90 0.0728718
1171.00 0.07285008
1171.10 0.07282836
1171.20 0.07280664
1171.30 0.07278494
1171.40 0.07276324
1171.50 0.07274154
1171.60 0.07271985
1171.70 0.07269817
1171.80 0.0726765
1171.90 0.07265483
1172.00 0.07263317
1172.10 0.07261151
1172.20 0.07258986
1172.30 0.07256822
1172.40 0.07254658
1172.50 0.07252495
1172.60 0.07250332
1172.70 0.07248171
1172.80 0.07246009
1172.90 0.07243849
1173.00 0.07241689
1173.10 0.0723953
1173.20 0.07237371
1173.30 0.07235213
1173.40 0.07233056
1173.50 0.07230899
1173.60 0.07228743
1173.70 0.07226587
1173.80 0.07224439
1173.90 0.07222294
1174.00 0.0722015
1174.10 0.07218005
1174.20 0.07215862
1174.30 0.07213719
1174.40 0.07211577
1174.50 0.07209436
1174.60 0.07207295
1174.70 0.07205154
1174.80 0.07203015
1174.90 0.07200876
1175.00 0.07198737
1175.10 0.071966
1175.20 0.07194462
1175.30 0.07192326
1175.40 0.0719019
1175.50 0.07188055
1175.60 0.0718592
1175.70 0.07183786
1175.80 0.07181653
1175.90 0.0717952
1176.00 0.07177388
1176.10 0.07175256
1176.20 0.07173125
1176.30 0.07170995
1176.40 0.07168865
1176.50 0.07166736
1176.60 0.07164608
1176.70 0.0716248
1176.80 0.07160353
1176.90 0.07158226
1177.00 0.071561
1177.10 0.07153975
1177.20 0.0715185
1177.30 0.07149726
1177.40 0.07147602
1177.50 0.07145479
1177.60 0.07143357
1177.70 0.07141235
1177.80 0.07139114
1177.90 0.07136994
1178.00 0.07134874
1178.10 0.07132755
1178.20 0.07130637
1178.30 0.07128519
1178.40 0.07126401
1178.50 0.07124285
1178.60 0.07122168
1178.70 0.07120053
1178.80 0.07117938
1178.90 0.07115824
1179.00 0.0711371
1179.10 0.07111597
1179.20 0.07109485
1179.30 0.07107373
1179.40 0.07105262
1179.50 0.07103151
1179.60 0.07101041
1179.70 0.07098932
1179.80 0.07096824
1179.90 0.07094716
1180.00 0.07092608
1180.10 0.07090502
1180.20 0.07088395
1180.30 0.0708629
1180.40 0.07084185
1180.50 0.07082081
1180.60 0.07079977
1180.70 0.07077874
1180.80 0.07075772
1180.90 0.0707367
1181.00 0.07071568
1181.10 0.07069468
1181.20 0.07067368
1181.30 0.07065268
1181.40 0.0706317
1181.50 0.07061071
1181.60 0.07058974
1181.70 0.07056877
1181.80 0.07054781
1181.90 0.07052685
1182.00 0.0705059
1182.10 0.07048495
1182.20 0.07046401
1182.30 0.07044308
1182.40 0.07042215
1182.50 0.07040123
1182.60 0.07038032
1182.70 0.07035941
1182.80 0.0703385
1182.90 0.07031761
1183.00 0.07029672
1183.10 0.07027583
1183.20 0.07025495
1183.30 0.07023408
1183.40 0.07021321
1183.50 0.07019235
1183.60 0.0701715
1183.70 0.07015065
1183.80 0.07012981
1183.90 0.07010897
1184.00 0.07008814
1184.10 0.07006732
1184.20 0.0700465
1184.30 0.07002569
1184.40 0.07000488
1184.50 0.06998408
1184.60 0.06996329
1184.70 0.0699425
1184.80 0.06992172
1184.90 0.06990094
1185.00 0.06988017
1185.10 0.06985941
1185.20 0.06983865
1185.30 0.0698179
1185.40 0.06979715
1185.50 0.06977645
1185.60 0.0697558
1185.70 0.06973516
1185.80 0.06971453
1185.90 0.0696939
1186.00 0.06967328
1186.10 0.06965266
1186.20 0.06963205
1186.30 0.06961145
1186.40 0.06959085
1186.50 0.06957026
1186.60 0.06954967
1186.70 0.06952909
1186.80 0.06950851
1186.90 0.06948795
1187.00 0.06946738
1187.10 0.06944683
1187.20 0.06942628
1187.30 0.06940573
1187.40 0.06938519
1187.50 0.06936466
1187.60 0.06934413
1187.70 0.06932361
1187.80 0.06930309
1187.90 0.06928259
1188.00 0.06926208
1188.10 0.06924158
1188.20 0.06922109
1188.30 0.06920061
1188.40 0.06918013
1188.50 0.06915965
1188.60 0.06913919
1188.70 0.06911872
1188.80 0.06909827
1188.90 0.06907782
1189.00 0.06905737
1189.10 0.06903693
1189.20 0.0690165
1189.30 0.06899608
1189.40 0.06897565
1189.50 0.06895524
1189.60 0.06893483
1189.70 0.06891443
1189.80 0.06889403
1189.90 0.06887364
1190.00 0.06885325
1190.10 0.06883287
1190.20 0.0688125
1190.30 0.06879213
1190.40 0.06877177
1190.50 0.06875142
1190.60 0.06873106
1190.70 0.06871072
1190.80 0.06869038
1190.90 0.06867005
1191.00 0.06864972
1191.10 0.0686294
1191.20 0.06860909
1191.30 0.06858878
1191.40 0.06856847
1191.50 0.06854818
1191.60 0.06852789
1191.70 0.0685076
1191.80 0.06848732
1191.90 0.06846705
1192.00 0.06844678
1192.10 0.06842652
1192.20 0.06840626
1192.30 0.06838601
1192.40 0.06836576
1192.50 0.06834552
1192.60 0.06832529
1192.70 0.06830506
1192.80 0.06828484
1192.90 0.06826463
1193.00 0.06824442
1193.10 0.06822421
1193.20 0.06820401
1193.30 0.06818382
1193.40 0.06816363
1193.50 0.06814345
1193.60 0.06812328
1193.70 0.06810311
1193.80 0.06808295
1193.90 0.06806279
1194.00 0.06804264
1194.10 0.06802249
1194.20 0.06800235
1194.30 0.06798221
1194.40 0.06796209
1194.50 0.06794196
1194.60 0.06792185
1194.70 0.06790173
1194.80 0.06788163
1194.90 0.06786153
1195.00 0.06784144
1195.10 0.06782135
1195.20 0.06780126
1195.30 0.06778119
1195.40 0.06776112
1195.50 0.06774105
1195.60 0.06772099
1195.70 0.06770094
1195.80 0.06768089
1195.90 0.06766085
1196.00 0.06764081
1196.10 0.06762078
1196.20 0.06760076
1196.30 0.06758074
1196.40 0.06756072
1196.50 0.06754072
1196.60 0.06752071
1196.70 0.06750072
1196.80 0.06748073
1196.90 0.06746074
1197.00 0.06744076
1197.10 0.06742079
1197.20 0.06740082
1197.30 0.06738086
1197.40 0.06736134
1197.50 0.06734189
1197.60 0.06732244
1197.70 0.067303
1197.80 0.06728357
1197.90 0.06726413
1198.00 0.06724471
1198.10 0.06722529
1198.20 0.06720588
1198.30 0.06718647
1198.40 0.06716706
1198.50 0.06714767
1198.60 0.06712827
1198.70 0.06710889
1198.80 0.06708951
1198.90 0.06707013
1199.00 0.06705076
1199.10 0.0670314
1199.20 0.06701204
1199.30 0.06699269
1199.40 0.06697334
1199.50 0.066954
1199.60 0.06693466
1199.70 0.06691533
1199.80 0.066896
1199.90 0.06687668
1200.00 0.06685737
