# Version 2.1 - nm, norm@500 to 1, cut digits, bergeron_He_4000_90.dat_4000
# Wavelength(nm)  Flambda(ergs/cm^s/s/nm)
300.00 0.05322663
300.10 0.05339472
300.20 0.0535632
300.30 0.05373192
300.40 0.05390363
300.50 0.05407509
300.60 0.05424632
300.70 0.05441731
300.80 0.05458806
300.90 0.05475857
301.00 0.05492884
301.10 0.05509887
301.20 0.05526867
301.30 0.05543822
301.40 0.05560754
301.50 0.05577663
301.60 0.05594548
301.70 0.05611409
301.80 0.05628246
301.90 0.0564506
302.00 0.05661851
302.10 0.05679775
302.20 0.05697804
302.30 0.05715807
302.40 0.05733785
302.50 0.05751738
302.60 0.05769667
302.70 0.0578757
302.80 0.05805448
302.90 0.05823302
303.00 0.05841131
303.10 0.05858934
303.20 0.05876714
303.30 0.05894499
303.40 0.05912536
303.50 0.05930547
303.60 0.05948534
303.70 0.05966496
303.80 0.05984433
303.90 0.06002345
304.00 0.06020232
304.10 0.06038094
304.20 0.06055931
304.30 0.06073744
304.40 0.06091532
304.50 0.06109296
304.60 0.06128126
304.70 0.06147052
304.80 0.06165952
304.90 0.06184825
305.00 0.06203673
305.10 0.06222495
305.20 0.0624129
305.30 0.0626006
305.40 0.06278803
305.50 0.06297521
305.60 0.06316213
305.70 0.06334879
305.80 0.06353519
305.90 0.06372134
306.00 0.06390723
306.10 0.06409286
306.20 0.06427824
306.30 0.06446336
306.40 0.06465814
306.50 0.0648556
306.60 0.0650528
306.70 0.06524972
306.80 0.06544638
306.90 0.06564276
307.00 0.06583887
307.10 0.06603472
307.20 0.06623029
307.30 0.0664256
307.40 0.06662064
307.50 0.06681541
307.60 0.06700991
307.70 0.06720415
307.80 0.06739812
307.90 0.06759182
308.00 0.06778526
308.10 0.06797843
308.20 0.06817134
308.30 0.06836398
308.40 0.06855636
308.50 0.06874848
308.60 0.06894033
308.70 0.06913192
308.80 0.06932616
308.90 0.06952841
309.00 0.06973039
309.10 0.06993209
309.20 0.07013352
309.30 0.07033467
309.40 0.07053641
309.50 0.07074312
309.60 0.07094956
309.70 0.07115572
309.80 0.07136159
309.90 0.07156718
310.00 0.0717725
310.10 0.07197753
310.20 0.07218229
310.30 0.07238676
310.40 0.07259404
310.50 0.07280438
310.60 0.07301443
310.70 0.0732242
310.80 0.07343368
310.90 0.07364288
311.00 0.07385368
311.10 0.07406419
311.20 0.07427441
311.30 0.07448524
311.40 0.07469831
311.50 0.07491108
311.60 0.07512357
311.70 0.07533577
311.80 0.07554768
311.90 0.07575931
312.00 0.07597064
312.10 0.07618169
312.20 0.0763841
312.30 0.07659147
312.40 0.07680824
312.50 0.07703016
312.60 0.07724945
312.70 0.07746844
312.80 0.07768713
312.90 0.07790508
313.00 0.07812225
313.10 0.07833912
313.20 0.0785557
313.30 0.07877241
313.40 0.07899001
313.50 0.07920733
313.60 0.07942434
313.70 0.07964107
313.80 0.0798575
313.90 0.08007364
314.00 0.08028949
314.10 0.0805163
314.20 0.08074281
314.30 0.08096901
314.40 0.08119491
314.50 0.08142051
314.60 0.0816458
314.70 0.08187079
314.80 0.08209492
314.90 0.08231042
315.00 0.0825183
315.10 0.08274381
315.20 0.08296902
315.30 0.08319393
315.40 0.08341853
315.50 0.08364283
315.60 0.08386684
315.70 0.08410118
315.80 0.08433522
315.90 0.08456894
316.00 0.08480235
316.10 0.08502483
316.20 0.085247
316.30 0.0854901
316.40 0.08571167
316.50 0.08595413
316.60 0.08617509
316.70 0.08641692
316.80 0.08665842
316.90 0.08688903
317.00 0.08711934
317.10 0.08734934
317.20 0.08757903
317.30 0.0878146
317.40 0.08805144
317.50 0.08829251
317.60 0.08853326
317.70 0.08877369
317.80 0.0890138
317.90 0.08923412
318.00 0.08948195
318.10 0.08971934
318.20 0.0899564
318.30 0.09019316
318.40 0.0904296
318.50 0.09066572
318.60 0.09090697
318.70 0.09116335
318.80 0.09137972
318.90 0.09163337
319.00 0.09188334
319.10 0.09211756
319.20 0.09235302
319.30 0.09259256
319.40 0.09283179
319.50 0.09307069
319.60 0.09332995
319.70 0.0935792
319.80 0.09382812
319.90 0.0940767
320.00 0.09431686
320.10 0.09454791
320.20 0.0947966
320.30 0.09503973
320.40 0.09530706
320.50 0.09554098
320.60 0.09579111
320.70 0.09604091
320.80 0.09629038
320.90 0.09653952
321.00 0.09678834
321.10 0.09703682
321.20 0.09730058
321.30 0.09755302
321.40 0.09780513
321.50 0.0980569
321.60 0.09830835
321.70 0.09855946
321.80 0.0988067
321.90 0.09904978
322.00 0.09931882
322.10 0.09957775
322.20 0.09983633
322.30 0.1000946
322.40 0.1003525
322.50 0.10061
322.60 0.1008673
322.70 0.1011242
322.80 0.1013529
322.90 0.1016155
323.00 0.1018778
323.10 0.1021397
323.20 0.1024013
323.30 0.1026626
323.40 0.1029235
323.50 0.103184
323.60 0.1034443
323.70 0.1037041
323.80 0.1039637
323.90 0.1042229
324.00 0.1044937
324.10 0.1047642
324.20 0.1050343
324.30 0.1052978
324.40 0.1055532
324.50 0.1058191
324.60 0.1060847
324.70 0.1063499
324.80 0.1066148
324.90 0.1068794
325.00 0.1071436
325.10 0.1074074
325.20 0.1076729
325.30 0.1079421
325.40 0.108211
325.50 0.1084832
325.60 0.1087594
325.70 0.1090354
325.80 0.1093109
325.90 0.1095854
326.00 0.1098589
326.10 0.1101321
326.20 0.1104049
326.30 0.1106711
326.40 0.1109195
326.50 0.1111999
326.60 0.1114798
326.70 0.1117594
326.80 0.1120387
326.90 0.1123176
327.00 0.1125961
327.10 0.1128742
327.20 0.113152
327.30 0.1134295
327.40 0.1137065
327.50 0.1139832
327.60 0.1142596
327.70 0.1145356
327.80 0.1148112
327.90 0.1150863
328.00 0.1153627
328.10 0.1156408
328.20 0.1159185
328.30 0.1161959
328.40 0.1164729
328.50 0.1167552
328.60 0.1170385
328.70 0.1173215
328.80 0.1176062
328.90 0.1178969
329.00 0.1181871
329.10 0.118477
329.20 0.1187666
329.30 0.1190557
329.40 0.1193445
329.50 0.1196329
329.60 0.1199209
329.70 0.1202086
329.80 0.1204959
329.90 0.1207828
330.00 0.1210709
330.10 0.1213606
330.20 0.1216499
330.30 0.1219389
330.40 0.1222295
330.50 0.122522
330.60 0.122814
330.70 0.1231057
330.80 0.123397
330.90 0.123688
331.00 0.1239786
331.10 0.1242687
331.20 0.1245586
331.30 0.124848
331.40 0.1251371
331.50 0.1254294
331.60 0.1257259
331.70 0.1260219
331.80 0.1263252
331.90 0.1266284
332.00 0.1269313
332.10 0.1272337
332.20 0.1275358
332.30 0.1278374
332.40 0.1281387
332.50 0.1284396
332.60 0.1287402
332.70 0.1290403
332.80 0.12934
332.90 0.1296394
333.00 0.1299384
333.10 0.1302397
333.20 0.1305438
333.30 0.1308476
333.40 0.131151
333.50 0.131454
333.60 0.1317566
333.70 0.1320588
333.80 0.1323606
333.90 0.1326621
334.00 0.1329631
334.10 0.1332667
334.20 0.1335733
334.30 0.1338795
334.40 0.1341854
334.50 0.1344909
334.60 0.1347959
334.70 0.1351076
334.80 0.1354232
334.90 0.1357324
335.00 0.1360411
335.10 0.136363
335.20 0.1366595
335.30 0.1369933
335.40 0.1372889
335.50 0.1375889
335.60 0.1379167
335.70 0.1382197
335.80 0.1385326
335.90 0.1388494
336.00 0.139171
336.10 0.1394921
336.20 0.1398128
336.30 0.1401317
336.40 0.1404485
336.50 0.1407649
336.60 0.1410809
336.70 0.1413965
336.80 0.1417117
336.90 0.1420302
337.00 0.142353
337.10 0.1426754
337.20 0.1429973
337.30 0.1433191
337.40 0.1436408
337.50 0.1439621
337.60 0.144283
337.70 0.1446035
337.80 0.1449236
337.90 0.1452456
338.00 0.1455701
338.10 0.1458942
338.20 0.1462178
338.30 0.1465411
338.40 0.1468651
338.50 0.1471913
338.60 0.1475171
338.70 0.1478425
338.80 0.1481675
338.90 0.1484921
339.00 0.1488163
339.10 0.1491401
339.20 0.1494634
339.30 0.1497953
339.40 0.1501394
339.50 0.1504793
339.60 0.150814
339.70 0.1511484
339.80 0.1514823
339.90 0.1518158
340.00 0.1521489
340.10 0.1524815
340.20 0.1528138
340.30 0.1531456
340.40 0.153477
340.50 0.153808
340.60 0.1541386
340.70 0.1544688
340.80 0.154802
340.90 0.1551398
341.00 0.1554774
341.10 0.1558149
341.20 0.156152
341.30 0.1564887
341.40 0.1568249
341.50 0.1571608
341.60 0.1574962
341.70 0.1578312
341.80 0.1581698
341.90 0.158513
342.00 0.1588558
342.10 0.1591982
342.20 0.1595256
342.30 0.1598593
342.40 0.1602066
342.50 0.1605501
342.60 0.1608933
342.70 0.161236
342.80 0.1615783
342.90 0.1619202
343.00 0.1622665
343.10 0.1626181
343.20 0.1629694
343.30 0.1633202
343.40 0.1636699
343.50 0.1640183
343.60 0.1643663
343.70 0.1647138
343.80 0.1650609
343.90 0.1654076
344.00 0.1657563
344.10 0.1661081
344.20 0.1664594
344.30 0.1668103
344.40 0.1671608
344.50 0.1675108
344.60 0.1678604
344.70 0.1682096
344.80 0.1685583
344.90 0.1689066
345.00 0.1692618
345.10 0.169627
345.20 0.1699845
345.30 0.1703311
345.40 0.1706772
345.50 0.1710383
345.60 0.1714086
345.70 0.1717652
345.80 0.1721214
345.90 0.1724772
346.00 0.1728325
346.10 0.1731874
346.20 0.1735458
346.30 0.1739092
346.40 0.1742722
346.50 0.1746348
346.60 0.1749969
346.70 0.1753585
346.80 0.1757197
346.90 0.1760805
347.00 0.1764408
347.10 0.1768007
347.20 0.1771642
347.30 0.177533
347.40 0.1779013
347.50 0.1782692
347.60 0.1786367
347.70 0.1790037
347.80 0.1793702
347.90 0.1797363
348.00 0.1801019
348.10 0.1804671
348.20 0.1808319
348.30 0.1811962
348.40 0.18156
348.50 0.1819234
348.60 0.1822863
348.70 0.1826476
348.80 0.1830148
348.90 0.1833911
349.00 0.1837669
349.10 0.1841423
349.20 0.1845172
349.30 0.1848917
349.40 0.1852656
349.50 0.1856392
349.60 0.1860123
349.70 0.1863849
349.80 0.186757
349.90 0.1871288
350.00 0.1875
350.10 0.1878708
350.20 0.1882412
350.30 0.1886156
350.40 0.188996
350.50 0.1893759
350.60 0.1897554
350.70 0.1901344
350.80 0.190513
350.90 0.1908911
351.00 0.1912687
351.10 0.1916459
351.20 0.1920226
351.30 0.1923989
351.40 0.1927775
351.50 0.1931606
351.60 0.1935432
351.70 0.1939253
351.80 0.194307
351.90 0.1946882
352.00 0.195069
352.10 0.1954493
352.20 0.1958421
352.30 0.1962342
352.40 0.1966233
352.50 0.197012
352.60 0.1974001
352.70 0.1977878
352.80 0.1981751
352.90 0.1985618
353.00 0.1989481
353.10 0.199334
353.20 0.1997193
353.30 0.2001042
353.40 0.2004886
353.50 0.2008786
353.60 0.2012696
353.70 0.2016602
353.80 0.2020503
353.90 0.2024412
354.00 0.202834
354.10 0.2032263
354.20 0.2036181
354.30 0.2040094
354.40 0.2044003
354.50 0.2047907
354.60 0.2051806
354.70 0.20557
354.80 0.2059621
354.90 0.206358
355.00 0.2067535
355.10 0.2071485
355.20 0.207543
355.30 0.207941
355.40 0.2083386
355.50 0.2087358
355.60 0.2091324
355.70 0.2095317
355.80 0.209932
355.90 0.2103393
356.00 0.2107482
356.10 0.2111537
356.20 0.2115588
356.30 0.2119633
356.40 0.2123674
356.50 0.212771
356.60 0.2131741
356.70 0.2135767
356.80 0.2139788
356.90 0.2143805
357.00 0.2147816
357.10 0.2151823
357.20 0.2155825
357.30 0.2159822
357.40 0.2163829
357.50 0.2167858
357.60 0.2171881
357.70 0.21759
357.80 0.2179959
357.90 0.2184012
358.00 0.2188135
358.10 0.2192271
358.20 0.2196403
358.30 0.2200529
358.40 0.220465
358.50 0.2208767
358.60 0.2212878
358.70 0.2216985
358.80 0.2221087
358.90 0.2225183
359.00 0.222927
359.10 0.2233342
359.20 0.2237417
359.30 0.2241534
359.40 0.2245646
359.50 0.2249785
359.60 0.2253926
359.70 0.2258063
359.80 0.2262273
359.90 0.2266477
360.00 0.2270666
360.10 0.227483
360.20 0.2278989
360.30 0.2283144
360.40 0.2287293
360.50 0.2291437
360.60 0.2295453
360.70 0.2299645
360.80 0.2303832
360.90 0.2308014
361.00 0.2312321
361.10 0.2316543
361.20 0.2320683
361.30 0.2324862
361.40 0.2329263
361.50 0.2333333
361.60 0.2337665
361.70 0.2341889
361.80 0.2346129
361.90 0.2350402
362.00 0.2354671
362.10 0.23588
362.20 0.2362967
362.30 0.2367265
362.40 0.2371558
362.50 0.2375846
362.60 0.2380128
362.70 0.2384416
362.80 0.2388619
362.90 0.2392915
363.00 0.2397206
363.10 0.2401473
363.20 0.2405734
363.30 0.2410028
363.40 0.2414326
363.50 0.241862
363.60 0.2422908
363.70 0.2427156
363.80 0.243163
363.90 0.2435942
364.00 0.2440248
364.10 0.2444549
364.20 0.2448845
364.30 0.2453176
364.40 0.2457513
364.50 0.2461653
364.60 0.2466031
364.70 0.2470404
364.80 0.2474772
364.90 0.2479154
365.00 0.2483531
365.10 0.2487743
365.20 0.2492269
365.30 0.2496471
365.40 0.2500986
365.50 0.2505337
365.60 0.2509682
365.70 0.2514081
365.80 0.2518474
365.90 0.25229
366.00 0.2527331
366.10 0.2531709
366.20 0.2536081
366.30 0.2540448
366.40 0.254481
366.50 0.2549139
366.60 0.2553806
366.70 0.2558153
366.80 0.2562494
366.90 0.256687
367.00 0.2571309
367.10 0.2575743
367.20 0.2580172
367.30 0.2584596
367.40 0.2589015
367.50 0.259352
367.60 0.2598042
367.70 0.2602495
367.80 0.2606942
367.90 0.2611385
368.00 0.2615905
368.10 0.2620377
368.20 0.2624862
368.30 0.2629343
368.40 0.2633818
368.50 0.2638288
368.60 0.2642753
368.70 0.2647212
368.80 0.2651667
368.90 0.2656202
369.00 0.266081
369.10 0.2665393
369.20 0.2669926
369.30 0.2674394
369.40 0.2678856
369.50 0.2683313
369.60 0.268789
369.70 0.2692462
369.80 0.2696963
369.90 0.2701458
370.00 0.2705948
370.10 0.2710505
370.20 0.2715082
370.30 0.2719652
370.40 0.2724223
370.50 0.2728774
370.60 0.2733336
370.70 0.2737939
370.80 0.2742452
370.90 0.274696
371.00 0.2751523
371.10 0.2756081
371.20 0.2760726
371.30 0.2765366
371.40 0.2769839
371.50 0.2774476
371.60 0.2779108
371.70 0.2783734
371.80 0.2788355
371.90 0.2792971
372.00 0.2797665
372.10 0.2802293
372.20 0.2806915
372.30 0.2811532
372.40 0.2816144
372.50 0.282075
372.60 0.2825351
372.70 0.2829947
372.80 0.2834658
372.90 0.2839365
373.00 0.2843976
373.10 0.2848581
373.20 0.2853302
373.30 0.2858018
373.40 0.2862576
373.50 0.286728
373.60 0.287198
373.70 0.2876522
373.80 0.2881268
373.90 0.2885894
374.00 0.2890647
374.10 0.2895396
374.20 0.2900138
374.30 0.2904875
374.40 0.2909569
374.50 0.2914123
374.60 0.2918856
374.70 0.2923587
374.80 0.2928313
374.90 0.2933033
375.00 0.2937707
375.10 0.2942375
375.20 0.2947039
375.30 0.2951797
375.40 0.295655
375.50 0.2961297
375.60 0.2966039
375.70 0.2970775
375.80 0.2975506
375.90 0.2980231
376.00 0.2985186
376.10 0.2989942
376.20 0.2994691
376.30 0.2999434
376.40 0.3004172
376.50 0.3008851
376.60 0.3013446
376.70 0.3018035
376.80 0.3022662
376.90 0.3027327
377.00 0.3031986
377.10 0.303664
377.20 0.3041341
377.30 0.3046231
377.40 0.3051116
377.50 0.3055995
377.60 0.3060848
377.70 0.3065696
377.80 0.3070538
377.90 0.3075374
378.00 0.308052
378.10 0.3085428
378.20 0.3090322
378.30 0.3095211
378.40 0.3100094
378.50 0.3104972
378.60 0.3109844
378.70 0.311471
378.80 0.3119571
378.90 0.312445
379.00 0.3129368
379.10 0.3134806
379.20 0.3140237
379.30 0.3144977
379.40 0.3149027
379.50 0.3153072
379.60 0.3157802
379.70 0.3163357
379.80 0.3168135
379.90 0.3172907
380.00 0.3177674
380.10 0.3182436
380.20 0.3187192
380.30 0.3191943
380.40 0.3196688
380.50 0.3201428
380.60 0.3208335
380.70 0.3213305
380.80 0.3218271
380.90 0.322323
381.00 0.3228184
381.10 0.323197
381.20 0.3236157
381.30 0.3241718
381.40 0.3246855
381.50 0.3251135
381.60 0.3255958
381.70 0.3261566
381.80 0.3267083
381.90 0.3272648
382.00 0.3275298
382.10 0.3280852
382.20 0.32864
382.30 0.3291941
382.40 0.3296951
382.50 0.3301169
382.60 0.3305381
382.70 0.3311012
382.80 0.3317138
382.90 0.3322154
383.00 0.3327165
383.10 0.3332169
383.20 0.3337095
383.30 0.3341739
383.40 0.33463
383.50 0.3350739
383.60 0.3355377
383.70 0.3360466
383.80 0.3365549
383.90 0.3370626
384.00 0.3375697
384.10 0.3380763
384.20 0.3385823
384.30 0.3390877
384.40 0.3395867
384.50 0.3400793
384.60 0.3405714
384.70 0.3410629
384.80 0.3415536
384.90 0.3420674
385.00 0.3426272
385.10 0.343182
385.20 0.3436207
385.30 0.3441681
385.40 0.3446852
385.50 0.3451722
385.60 0.3456586
385.70 0.3461445
385.80 0.3466303
385.90 0.3471174
386.00 0.3476749
386.10 0.3482892
386.20 0.3487682
386.30 0.3492465
386.40 0.3498182
386.50 0.3503008
386.60 0.3508087
386.70 0.3513369
386.80 0.3518645
386.90 0.3523915
387.00 0.3527125
387.10 0.3532384
387.20 0.3538203
387.30 0.3542886
387.40 0.3548109
387.50 0.3552979
387.60 0.3558594
387.70 0.3563818
387.80 0.3569036
387.90 0.3574249
388.00 0.3579352
388.10 0.3585016
388.20 0.3589133
388.30 0.3594434
388.40 0.3599729
388.50 0.3605109
388.60 0.3610693
388.70 0.3615398
388.80 0.3620478
388.90 0.3625632
389.00 0.3631186
389.10 0.363578
389.20 0.3640863
389.30 0.3646256
389.40 0.3651561
389.50 0.3656812
389.60 0.366187
389.70 0.3666711
389.80 0.3671957
389.90 0.3677196
390.00 0.368243
390.10 0.3687657
390.20 0.3692879
390.30 0.369818
390.40 0.370357
390.50 0.3708954
390.60 0.3714333
390.70 0.3719705
390.80 0.3724577
390.90 0.3728949
391.00 0.3736108
391.10 0.3740934
391.20 0.3745914
391.30 0.3751228
391.40 0.3756238
391.50 0.3761243
391.60 0.3766242
391.70 0.3771235
391.80 0.3776223
391.90 0.37816
392.00 0.3787188
392.10 0.3792427
392.20 0.3797858
392.30 0.3803411
392.40 0.3807225
392.50 0.3813738
392.60 0.381868
392.70 0.3823616
392.80 0.3828547
392.90 0.3835551
393.00 0.3840909
393.10 0.3845633
393.20 0.384985
393.30 0.3856124
393.40 0.3862337
393.50 0.3866873
393.60 0.3872044
393.70 0.3876923
393.80 0.3881921
393.90 0.3888157
394.00 0.3894045
394.10 0.3897665
394.20 0.3902621
394.30 0.3908854
394.40 0.3913718
394.50 0.391924
394.60 0.3924869
394.70 0.3930467
394.80 0.3935972
394.90 0.3941419
395.00 0.3945481
395.10 0.3951947
395.20 0.3957236
395.30 0.3962312
395.40 0.3967383
395.50 0.3972923
395.60 0.3978633
395.70 0.3984094
395.80 0.3988898
395.90 0.3993696
396.00 0.3998767
396.10 0.40058
396.20 0.4010538
396.30 0.4015271
396.40 0.4020471
396.50 0.4027421
396.60 0.4032136
396.70 0.4036918
396.80 0.4042768
396.90 0.4047397
397.00 0.4053168
397.10 0.4057857
397.20 0.4064343
397.30 0.4070389
397.40 0.4075102
397.50 0.407981
397.60 0.408459
397.70 0.409015
397.80 0.4095703
397.90 0.4101265
398.00 0.410686
398.10 0.4112449
398.20 0.4118047
398.30 0.4123656
398.40 0.4129274
398.50 0.4135427
398.60 0.4139765
398.70 0.4144941
398.80 0.4150488
398.90 0.4156127
399.00 0.4161944
399.10 0.4165904
399.20 0.4171759
399.30 0.4177607
399.40 0.4183449
399.50 0.4189285
399.60 0.4194696
399.70 0.4199946
399.80 0.420519
399.90 0.4210429
400.00 0.4215686
400.10 0.4221738
400.20 0.4228199
400.30 0.4233531
400.40 0.4238742
400.50 0.4244617
400.60 0.424829
400.70 0.4254101
400.80 0.4258941
400.90 0.426606
401.00 0.4271152
401.10 0.4275856
401.20 0.4281425
401.30 0.4286337
401.40 0.4291894
401.50 0.4297558
401.60 0.4303225
401.70 0.4309176
401.80 0.4315407
401.90 0.4320451
402.00 0.4326131
402.10 0.4331666
402.20 0.4337384
402.30 0.4341981
402.40 0.4347137
402.50 0.4351881
402.60 0.4357856
402.70 0.4363264
402.80 0.4370254
402.90 0.4375668
403.00 0.4381338
403.10 0.4385956
403.20 0.4391854
403.30 0.4397706
403.40 0.4403836
403.50 0.4409433
403.60 0.4414828
403.70 0.4419809
403.80 0.4425652
403.90 0.4430852
404.00 0.4435546
404.10 0.4442255
404.20 0.4447852
404.30 0.4453442
404.40 0.4457846
404.50 0.4464604
404.60 0.446888
404.70 0.4475742
404.80 0.4481529
404.90 0.4486856
405.00 0.4491291
405.10 0.4496838
405.20 0.4502928
405.30 0.4509012
405.40 0.4514536
405.50 0.4520054
405.60 0.4525565
405.70 0.4531071
405.80 0.4536571
405.90 0.4542065
406.00 0.45476
406.10 0.4553128
406.20 0.4558651
406.30 0.4564168
406.40 0.4569703
406.50 0.4574928
406.60 0.458164
406.70 0.4587086
406.80 0.4592846
406.90 0.4596916
407.00 0.4602601
407.10 0.460828
407.20 0.4613952
407.30 0.4619619
407.40 0.4625279
407.50 0.4630933
407.60 0.4636581
407.70 0.4642223
407.80 0.4647859
407.90 0.4653503
408.00 0.4659582
408.10 0.4665258
408.20 0.4670885
408.30 0.4676891
408.40 0.468289
408.50 0.4687922
408.60 0.4693545
408.70 0.4699162
408.80 0.4704866
408.90 0.471109
409.00 0.4716579
409.10 0.4722062
409.20 0.4727539
409.30 0.473301
409.40 0.4738484
409.50 0.474422
409.60 0.4749949
409.70 0.4755696
409.80 0.4761529
409.90 0.4767331
410.00 0.477236
410.10 0.4778446
410.20 0.4784105
410.30 0.4789652
410.40 0.4795293
410.50 0.4801243
410.60 0.4807187
410.70 0.4813098
410.80 0.4818902
410.90 0.4824699
411.00 0.4830265
411.10 0.4835742
411.20 0.4841213
411.30 0.484683
411.40 0.485303
411.50 0.4858643
411.60 0.4864251
411.70 0.4869762
411.80 0.4874906
411.90 0.4879794
412.00 0.4886178
412.10 0.489193
412.20 0.4896427
412.30 0.490325
412.40 0.4909329
412.50 0.491354
412.60 0.4920063
412.70 0.4925665
412.80 0.4931033
412.90 0.4937386
413.00 0.4944073
413.10 0.4949576
413.20 0.4955073
413.30 0.4960564
413.40 0.4966049
413.50 0.4971504
413.60 0.4976928
413.70 0.4982583
413.80 0.4988231
413.90 0.4993874
414.00 0.4999659
414.10 0.5005908
414.20 0.5011557
414.30 0.5017793
414.40 0.5023528
414.50 0.5030189
414.60 0.5034585
414.70 0.5040796
414.80 0.5046852
414.90 0.5052433
415.00 0.5058009
415.10 0.5063578
415.20 0.5069246
415.30 0.5075238
415.40 0.5081224
415.50 0.5087189
415.60 0.5092669
415.70 0.5098142
415.80 0.5103648
415.90 0.5109266
416.00 0.5114878
416.10 0.5120517
416.20 0.5126284
416.30 0.5132044
416.40 0.5137798
416.50 0.5143557
416.60 0.5149648
416.70 0.5155659
416.80 0.5161762
416.90 0.5166679
417.00 0.5172034
417.10 0.5179969
417.20 0.5184802
417.30 0.5189669
417.40 0.5195792
417.50 0.5201908
417.60 0.5207961
417.70 0.5213779
417.80 0.5219389
417.90 0.5224993
418.00 0.5230591
418.10 0.5236183
418.20 0.524177
418.30 0.5247384
418.40 0.5253895
418.50 0.5259805
418.60 0.5265709
418.70 0.5271607
418.80 0.5277498
418.90 0.5283383
419.00 0.5289262
419.10 0.5295134
419.20 0.5301001
419.30 0.5306865
419.40 0.5312862
419.50 0.5318852
419.60 0.5324761
419.70 0.5330365
419.80 0.5335963
419.90 0.5341583
420.00 0.5347289
420.10 0.5352988
420.20 0.5358681
420.30 0.5364368
420.40 0.537005
420.50 0.5375725
420.60 0.5381394
420.70 0.5387057
420.80 0.5392715
420.90 0.5398378
421.00 0.5404428
421.10 0.5410472
421.20 0.5416491
421.30 0.5422449
421.40 0.54284
421.50 0.5434345
421.60 0.5440284
421.70 0.5446217
421.80 0.5452143
421.90 0.5457986
422.00 0.5463578
422.10 0.5469183
422.20 0.5474855
422.30 0.5480522
422.40 0.5486191
422.50 0.5492125
422.60 0.5498053
422.70 0.5503975
422.80 0.550989
422.90 0.55158
423.00 0.5521703
423.10 0.55276
423.20 0.5533491
423.30 0.5539375
423.40 0.5545254
423.50 0.5551126
423.60 0.5556992
423.70 0.5562852
423.80 0.5568706
423.90 0.5574554
424.00 0.5580395
424.10 0.558623
424.20 0.559206
424.30 0.5597883
424.40 0.5604284
424.50 0.561021
424.60 0.5616129
424.70 0.5622042
424.80 0.5627949
424.90 0.5633849
425.00 0.5639744
425.10 0.5645632
425.20 0.5651514
425.30 0.565739
425.40 0.5663262
425.50 0.5669139
425.60 0.5675011
425.70 0.5680876
425.80 0.5686736
425.90 0.5692589
426.00 0.5698436
426.10 0.5704277
426.20 0.5710112
426.30 0.5715941
426.40 0.5721763
426.50 0.572758
426.60 0.573339
426.70 0.5739195
426.80 0.5744993
426.90 0.5750792
427.00 0.5756817
427.10 0.5762835
427.20 0.5768847
427.30 0.5774853
427.40 0.5780852
427.50 0.5786845
427.60 0.5792832
427.70 0.5798813
427.80 0.5804787
427.90 0.5810756
428.00 0.5816718
428.10 0.5822674
428.20 0.5828623
428.30 0.5834567
428.40 0.5840504
428.50 0.5846435
428.60 0.585236
428.70 0.5858279
428.80 0.5864194
428.90 0.5870135
429.00 0.5876071
429.10 0.5882
429.20 0.5887924
429.30 0.5893841
429.40 0.5899751
429.50 0.5905656
429.60 0.5911555
429.70 0.5917447
429.80 0.5923334
429.90 0.5929214
430.00 0.5935088
430.10 0.5940956
430.20 0.5946818
430.30 0.5952674
430.40 0.5958524
430.50 0.5964367
430.60 0.5970205
430.70 0.5976036
430.80 0.5981862
430.90 0.5987681
431.00 0.5993495
431.10 0.5999302
431.20 0.6005103
431.30 0.6010913
431.40 0.6016907
431.50 0.6022896
431.60 0.6028878
431.70 0.6034854
431.80 0.6040824
431.90 0.6046787
432.00 0.6052745
432.10 0.6058696
432.20 0.6064641
432.30 0.607058
432.40 0.6076513
432.50 0.6082439
432.60 0.608836
432.70 0.6094274
432.80 0.6100183
432.90 0.6106085
433.00 0.6111981
433.10 0.6117871
433.20 0.6123755
433.30 0.612964
433.40 0.6135616
433.50 0.6141586
433.60 0.6147549
433.70 0.6153507
433.80 0.6159386
433.90 0.6165171
434.00 0.6171162
434.10 0.6177277
434.20 0.6183385
434.30 0.6189486
434.40 0.6195582
434.50 0.6201671
434.60 0.6207754
434.70 0.6213831
434.80 0.6219889
434.90 0.6225779
435.00 0.6231662
435.10 0.6237539
435.20 0.6243411
435.30 0.6249276
435.40 0.6255135
435.50 0.6260989
435.60 0.6266836
435.70 0.6272677
435.80 0.6278512
435.90 0.6284341
436.00 0.6290164
436.10 0.6295981
436.20 0.6301792
436.30 0.6308048
436.40 0.631479
436.50 0.6320749
436.60 0.6326701
436.70 0.6332648
436.80 0.6338589
436.90 0.6344524
437.00 0.6350452
437.10 0.6356374
437.20 0.6362416
437.30 0.6368566
437.40 0.6374697
437.50 0.6380654
437.60 0.6386604
437.70 0.6392548
437.80 0.6398487
437.90 0.6404419
438.00 0.6410317
438.10 0.6415831
438.20 0.6421341
438.30 0.6427449
438.40 0.6433989
438.50 0.6439884
438.60 0.6445929
438.70 0.6451812
438.80 0.6458599
438.90 0.6463561
439.00 0.6469273
439.10 0.6475132
439.20 0.6481024
439.30 0.6487422
439.40 0.6493813
439.50 0.6500197
439.60 0.6506481
439.70 0.6511622
439.80 0.6517231
439.90 0.6523283
440.00 0.6529328
440.10 0.6535367
440.20 0.6541399
440.30 0.6547405
440.40 0.6553404
440.50 0.6559398
440.60 0.6565385
440.70 0.6571367
440.80 0.6577342
440.90 0.6583311
441.00 0.6589274
441.10 0.6595232
441.20 0.6601216
441.30 0.6607643
441.40 0.6613842
441.50 0.6619765
441.60 0.6625681
441.70 0.663131
441.80 0.6637272
441.90 0.6643229
442.00 0.6649179
442.10 0.6655124
442.20 0.6661062
442.30 0.6666994
442.40 0.6673057
442.50 0.6679281
442.60 0.6685499
442.70 0.6691274
442.80 0.6696476
442.90 0.6702802
443.00 0.6708951
443.10 0.6714885
443.20 0.672104
443.30 0.6727399
443.40 0.6733414
443.50 0.673901
443.60 0.6745301
443.70 0.6751154
443.80 0.6756733
443.90 0.6762305
444.00 0.6769056
444.10 0.6774617
444.20 0.6780602
444.30 0.6786783
444.40 0.6792753
444.50 0.6798716
444.60 0.6804622
444.70 0.6810459
444.80 0.6816325
444.90 0.6822219
445.00 0.6828106
445.10 0.6833987
445.20 0.68399
445.30 0.6845853
445.40 0.68518
445.50 0.685774
445.60 0.6863675
445.70 0.6869603
445.80 0.6875756
445.90 0.6882114
446.00 0.6888465
446.10 0.689481
446.20 0.6899038
446.30 0.6905284
446.40 0.6912475
446.50 0.6918428
446.60 0.6924375
446.70 0.6930315
446.80 0.6935974
446.90 0.6941371
447.00 0.6947868
447.10 0.6953678
447.20 0.696012
447.30 0.696613
447.40 0.6972517
447.50 0.6977879
447.60 0.6983903
447.70 0.6990536
447.80 0.6995596
447.90 0.7001243
448.00 0.7007091
448.10 0.7013124
448.20 0.7019151
448.30 0.7025173
448.40 0.7031188
448.50 0.7037196
448.60 0.7043371
448.70 0.7049698
448.80 0.7055994
448.90 0.7061969
449.00 0.7067939
449.10 0.7073902
449.20 0.7079859
449.30 0.7085919
449.40 0.7092088
449.50 0.7098251
449.60 0.7104211
449.70 0.7109983
449.80 0.711575
449.90 0.7121511
450.00 0.7127265
450.10 0.7133014
450.20 0.7138758
450.30 0.7144495
450.40 0.7150739
450.50 0.7156976
450.60 0.7163207
450.70 0.7169432
450.80 0.7175651
450.90 0.7181863
451.00 0.7187093
451.10 0.7192318
451.20 0.7198232
451.30 0.7204567
451.40 0.7210749
451.50 0.7216925
451.60 0.7222054
451.70 0.7228219
451.80 0.7234377
451.90 0.7241568
452.00 0.7246675
452.10 0.7251776
452.20 0.725791
452.30 0.7264038
452.40 0.7270159
452.50 0.7276275
452.60 0.728286
452.70 0.7289111
452.80 0.7295052
452.90 0.7300987
453.00 0.7306917
453.10 0.731284
453.20 0.7318763
453.30 0.732468
453.40 0.7330592
453.50 0.7336497
453.60 0.7342396
453.70 0.734829
453.80 0.7354103
453.90 0.7359821
454.00 0.7365533
454.10 0.7371239
454.20 0.737738
454.30 0.7383515
454.40 0.7389643
454.50 0.7395766
454.60 0.7401883
454.70 0.7407893
454.80 0.7413803
454.90 0.7419708
455.00 0.7425607
455.10 0.74315
455.20 0.7437388
455.30 0.7443269
455.40 0.7449144
455.50 0.7455014
455.60 0.7460878
455.70 0.7466735
455.80 0.7472771
455.90 0.7478801
456.00 0.7484825
456.10 0.7490843
456.20 0.7496856
456.30 0.7502862
456.40 0.7508863
456.50 0.7514858
456.60 0.7520847
456.70 0.752683
456.80 0.7532807
456.90 0.7538778
457.00 0.7544743
457.10 0.7550702
457.20 0.7555903
457.30 0.7561973
457.40 0.7568038
457.50 0.7574096
457.60 0.7580148
457.70 0.7586194
457.80 0.7592235
457.90 0.7598269
458.00 0.7604297
458.10 0.7610319
458.20 0.7616335
458.30 0.7622346
458.40 0.762835
458.50 0.7634348
458.60 0.7640341
458.70 0.7646234
458.80 0.7652083
458.90 0.7657926
459.00 0.7663763
459.10 0.7669595
459.20 0.7675421
459.30 0.7681346
459.40 0.7687265
459.50 0.7693179
459.60 0.7699087
459.70 0.7704988
459.80 0.7710884
459.90 0.7716774
460.00 0.7722658
460.10 0.7728537
460.20 0.7734409
460.30 0.7740276
460.40 0.7746137
460.50 0.7751992
460.60 0.7757841
460.70 0.7763726
460.80 0.7769626
460.90 0.7775521
461.00 0.7781409
461.10 0.7787292
461.20 0.7793275
461.30 0.7799296
461.40 0.780535
461.50 0.7811408
461.60 0.781746
461.70 0.7823506
461.80 0.782945
461.90 0.7835388
462.00 0.7841321
462.10 0.7847247
462.20 0.7853168
462.30 0.7859083
462.40 0.7864991
462.50 0.7870895
462.60 0.7876792
462.70 0.7882683
462.80 0.7888569
462.90 0.7894448
463.00 0.7900322
463.10 0.790619
463.20 0.7912175
463.30 0.7918204
463.40 0.7924226
463.50 0.7930243
463.60 0.7936254
463.70 0.7942259
463.80 0.7948258
463.90 0.7954127
464.00 0.795996
464.10 0.7965786
464.20 0.7971607
464.30 0.7977423
464.40 0.7983232
464.50 0.7989036
464.60 0.7994834
464.70 0.8000694
464.80 0.8006577
464.90 0.8012455
465.00 0.8018326
465.10 0.8024192
465.20 0.8030052
465.30 0.8036001
465.40 0.8042009
465.50 0.8048011
465.60 0.8054006
465.70 0.8059996
465.80 0.806598
465.90 0.8071673
466.00 0.807729
466.10 0.8082901
466.20 0.8088506
466.30 0.809432
466.40 0.8100215
466.50 0.8106105
466.60 0.8111989
466.70 0.8117867
466.80 0.812374
466.90 0.8129606
467.00 0.8135467
467.10 0.8141322
467.20 0.8147172
467.30 0.8153974
467.40 0.8159949
467.50 0.8165616
467.60 0.8171277
467.70 0.8176933
467.80 0.8182583
467.90 0.8188276
468.00 0.8193982
468.10 0.8199683
468.20 0.8205378
468.30 0.8211411
468.40 0.8217579
468.50 0.822374
468.60 0.8229811
468.70 0.8236045
468.80 0.8242117
468.90 0.8247498
469.00 0.8252759
469.10 0.8258655
469.20 0.8264775
469.30 0.827089
469.40 0.8276998
469.50 0.8282761
469.60 0.828838
469.70 0.8293993
469.80 0.82996
469.90 0.830557
470.00 0.8311833
470.10 0.8317518
470.20 0.8323364
470.30 0.8329206
470.40 0.8335041
470.50 0.8340871
470.60 0.8346866
470.70 0.8352899
470.80 0.8358926
470.90 0.8364947
471.00 0.8370331
471.10 0.837529
471.20 0.8381064
471.30 0.8387062
471.40 0.8393055
471.50 0.8399041
471.60 0.8405022
471.70 0.8410997
471.80 0.8416967
471.90 0.842293
472.00 0.8428888
472.10 0.843484
472.20 0.8440651
472.30 0.8446423
472.40 0.845219
472.50 0.845795
472.60 0.8463706
472.70 0.8468759
472.80 0.8474442
472.90 0.8480348
473.00 0.8486249
473.10 0.8492144
473.20 0.8498033
473.30 0.8503917
473.40 0.8509794
473.50 0.8515666
473.60 0.8521533
473.70 0.8527393
473.80 0.8533082
473.90 0.8538723
474.00 0.8544359
474.10 0.8549989
474.20 0.8555732
474.30 0.8561518
474.40 0.8567298
474.50 0.8573073
474.60 0.8578859
474.70 0.8584805
474.80 0.8590746
474.90 0.859668
475.00 0.8602609
475.10 0.8608533
475.20 0.861445
475.30 0.8620362
475.40 0.8626071
475.50 0.8631725
475.60 0.8637374
475.70 0.8643018
475.80 0.8648655
475.90 0.8654288
476.00 0.8659914
476.10 0.8665536
476.20 0.8671312
476.30 0.8677148
476.40 0.8682979
476.50 0.8688804
476.60 0.8694623
476.70 0.8700437
476.80 0.8706245
476.90 0.8711995
477.00 0.8717727
477.10 0.8723453
477.20 0.8729174
477.30 0.8734889
477.40 0.8740599
477.50 0.8746303
477.60 0.8752002
477.70 0.8757695
477.80 0.8763382
477.90 0.8769064
478.00 0.8774741
478.10 0.8780412
478.20 0.8786077
478.30 0.8791737
478.40 0.8797391
478.50 0.880304
478.60 0.8808684
478.70 0.8814592
478.80 0.8820604
478.90 0.8826591
479.00 0.8832567
479.10 0.8838538
479.20 0.8844503
479.30 0.8850462
479.40 0.8856279
479.50 0.886201
479.60 0.8867735
479.70 0.8873454
479.80 0.8879169
479.90 0.8884877
480.00 0.889058
480.10 0.8896278
480.20 0.890197
480.30 0.8907656
480.40 0.8913338
480.50 0.8919013
480.60 0.8924683
480.70 0.8930348
480.80 0.8936007
480.90 0.894166
481.00 0.8947308
481.10 0.8952951
481.20 0.8958622
481.30 0.8964288
481.40 0.8969948
481.50 0.8975603
481.60 0.8981252
481.70 0.8986896
481.80 0.8992535
481.90 0.8998168
482.00 0.9003795
482.10 0.9009417
482.20 0.9015042
482.30 0.9020772
482.40 0.9026496
482.50 0.9032214
482.60 0.9037927
482.70 0.9043634
482.80 0.9049336
482.90 0.9055033
483.00 0.9060724
483.10 0.9066409
483.20 0.9072089
483.30 0.9077764
483.40 0.9083433
483.50 0.9089096
483.60 0.9094754
483.70 0.9100236
483.80 0.9105713
483.90 0.9111185
484.00 0.9116651
484.10 0.9122112
484.20 0.9127864
484.30 0.9133738
484.40 0.9139607
484.50 0.914547
484.60 0.9151327
484.70 0.915716
484.80 0.9162741
484.90 0.9168317
485.00 0.9173887
485.10 0.9179452
485.20 0.9185012
485.30 0.9190566
485.40 0.9196115
485.50 0.9201659
485.60 0.9207197
485.70 0.9212954
485.80 0.9218706
485.90 0.9224452
486.00 0.9230192
486.10 0.9235927
486.20 0.9241657
486.30 0.9247381
486.40 0.9253099
486.50 0.9258812
486.60 0.926452
486.70 0.9270203
486.80 0.9275637
486.90 0.9281065
487.00 0.9286489
487.10 0.9291907
487.20 0.9297582
487.30 0.9303252
487.40 0.9308916
487.50 0.9314575
487.60 0.9320228
487.70 0.9325877
487.80 0.9331519
487.90 0.9337157
488.00 0.9342788
488.10 0.9348415
488.20 0.9354014
488.30 0.9359312
488.40 0.9364605
488.50 0.9369893
488.60 0.9375176
488.70 0.9380454
488.80 0.9386413
488.90 0.9392367
489.00 0.9398237
489.10 0.94039
489.20 0.9409557
489.30 0.9415209
489.40 0.9420856
489.50 0.9426497
489.60 0.9432133
489.70 0.9437763
489.80 0.9443416
489.90 0.944898
490.00 0.9454538
490.10 0.9460091
490.20 0.9465639
490.30 0.9471181
490.40 0.9476585
490.50 0.9481983
490.60 0.9487377
490.70 0.9492765
490.80 0.94984
490.90 0.9504407
491.00 0.9509339
491.10 0.9514267
491.20 0.9520949
491.30 0.9525866
491.40 0.9531468
491.50 0.9537443
491.60 0.954183
491.70 0.9547312
491.80 0.9552824
491.90 0.9558777
492.00 0.9564273
492.10 0.9570333
492.20 0.9575775
492.30 0.9580642
492.40 0.9587214
492.50 0.9591499
492.60 0.9597025
492.70 0.9602746
492.80 0.9608463
492.90 0.9614173
493.00 0.9619857
493.10 0.9625253
493.20 0.9630643
493.30 0.9636028
493.40 0.9641407
493.50 0.9646782
493.60 0.9652267
493.70 0.9658104
493.80 0.9663936
493.90 0.966957
494.00 0.9674898
494.10 0.9680233
494.20 0.9685584
494.30 0.9690931
494.40 0.9696273
494.50 0.9701609
494.60 0.9706964
494.70 0.9712622
494.80 0.9718274
494.90 0.9723916
495.00 0.9729552
495.10 0.9735183
495.20 0.974055
495.30 0.9745912
495.40 0.9751269
495.50 0.975662
495.60 0.9761967
495.70 0.9767308
495.80 0.9772644
495.90 0.9777976
496.00 0.9783302
496.10 0.9788748
496.20 0.9794434
496.30 0.9799802
496.40 0.9805166
496.50 0.9810524
496.60 0.9815877
496.70 0.9821369
496.80 0.9826857
496.90 0.9832339
497.00 0.9837816
497.10 0.9843288
497.20 0.9848755
497.30 0.9854195
497.40 0.985957
497.50 0.986494
497.60 0.9870392
497.70 0.9876011
497.80 0.9881486
497.90 0.9886956
498.00 0.9892421
498.10 0.989788
498.20 0.9903335
498.30 0.9908784
498.40 0.9914228
498.50 0.9919667
498.60 0.9925101
498.70 0.9930508
498.80 0.993591
498.90 0.9941195
499.00 0.9946475
499.10 0.9951751
499.20 0.9957144
499.30 0.9962718
499.40 0.9968071
499.50 0.9973418
499.60 0.9978761
499.70 0.9984097
499.80 0.9989403
499.90 0.9994704
500.00 1
500.10 1.000529
500.20 1.001059
500.30 1.001592
500.40 1.002124
500.50 1.002655
500.60 1.003186
500.70 1.003717
500.80 1.004259
500.90 1.004826
501.00 1.005393
501.10 1.005959
501.20 1.006531
501.30 1.007058
501.40 1.007558
501.50 1.008
501.60 1.008594
501.70 1.009102
501.80 1.009688
501.90 1.010213
502.00 1.010728
502.10 1.011223
502.20 1.011722
502.30 1.012281
502.40 1.012836
502.50 1.013386
502.60 1.013935
502.70 1.014483
502.80 1.015031
502.90 1.015579
503.00 1.016112
503.10 1.016617
503.20 1.017121
503.30 1.017625
503.40 1.018135
503.50 1.01866
503.60 1.019186
503.70 1.01971
503.80 1.020235
503.90 1.020759
504.00 1.021288
504.10 1.021829
504.20 1.022369
504.30 1.02291
504.40 1.023442
504.50 1.023953
504.60 1.024443
504.70 1.025037
504.80 1.025601
504.90 1.026056
505.00 1.02667
505.10 1.027179
505.20 1.027691
505.30 1.028212
505.40 1.028733
505.50 1.029254
505.60 1.029775
505.70 1.030299
505.80 1.030823
505.90 1.031346
506.00 1.031868
506.10 1.03239
506.20 1.032911
506.30 1.033429
506.40 1.033947
506.50 1.034464
506.60 1.034981
506.70 1.035497
506.80 1.036012
506.90 1.036528
507.00 1.037042
507.10 1.03756
507.20 1.038086
507.30 1.038615
507.40 1.039143
507.50 1.039671
507.60 1.040199
507.70 1.040725
507.80 1.041252
507.90 1.041778
508.00 1.042303
508.10 1.042828
508.20 1.043352
508.30 1.043876
508.40 1.0444
508.50 1.044922
508.60 1.045445
508.70 1.045967
508.80 1.046492
508.90 1.047028
509.00 1.047564
509.10 1.048093
509.20 1.048604
509.30 1.049115
509.40 1.049625
509.50 1.050135
509.60 1.050645
509.70 1.051154
509.80 1.051662
509.90 1.052171
510.00 1.052678
510.10 1.053185
510.20 1.053692
510.30 1.054201
510.40 1.05472
510.50 1.055238
510.60 1.055756
510.70 1.056273
510.80 1.05679
510.90 1.057306
511.00 1.057822
511.10 1.058338
511.20 1.058852
511.30 1.059367
511.40 1.059881
511.50 1.060394
511.60 1.060904
511.70 1.061408
511.80 1.061912
511.90 1.062414
512.00 1.062917
512.10 1.063419
512.20 1.06392
512.30 1.064424
512.40 1.064935
512.50 1.065446
512.60 1.065956
512.70 1.066466
512.80 1.066975
512.90 1.067484
513.00 1.067992
513.10 1.0685
513.20 1.069008
513.30 1.069515
513.40 1.070021
513.50 1.070527
513.60 1.071032
513.70 1.071537
513.80 1.072042
513.90 1.072546
514.00 1.073059
514.10 1.073572
514.20 1.074086
514.30 1.074598
514.40 1.07511
514.50 1.075622
514.60 1.076134
514.70 1.076644
514.80 1.077155
514.90 1.077665
515.00 1.078174
515.10 1.078683
515.20 1.079191
515.30 1.079699
515.40 1.080207
515.50 1.080714
515.60 1.08122
515.70 1.081726
515.80 1.082232
515.90 1.082737
516.00 1.083242
516.10 1.083746
516.20 1.084249
516.30 1.084753
516.40 1.085255
516.50 1.085758
516.60 1.08626
516.70 1.086762
516.80 1.087263
516.90 1.087764
517.00 1.088264
517.10 1.088764
517.20 1.089263
517.30 1.089762
517.40 1.09026
517.50 1.090758
517.60 1.091256
517.70 1.091753
517.80 1.092249
517.90 1.092745
518.00 1.093241
518.10 1.093736
518.20 1.094231
518.30 1.094725
518.40 1.095219
518.50 1.095712
518.60 1.096205
518.70 1.096697
518.80 1.097189
518.90 1.097681
519.00 1.098172
519.10 1.098667
519.20 1.099165
519.30 1.099664
519.40 1.100162
519.50 1.10066
519.60 1.101157
519.70 1.101653
519.80 1.102149
519.90 1.102645
520.00 1.10314
520.10 1.103635
520.20 1.104129
520.30 1.104623
520.40 1.105117
520.50 1.10561
520.60 1.106102
520.70 1.106594
520.80 1.107086
520.90 1.107577
521.00 1.108067
521.10 1.108558
521.20 1.109047
521.30 1.109537
521.40 1.110025
521.50 1.110514
521.60 1.111002
521.70 1.111489
521.80 1.111976
521.90 1.112463
522.00 1.112949
522.10 1.113434
522.20 1.113919
522.30 1.114404
522.40 1.114888
522.50 1.115372
522.60 1.115856
522.70 1.116339
522.80 1.116821
522.90 1.117303
523.00 1.117785
523.10 1.118266
523.20 1.118746
523.30 1.119226
523.40 1.119706
523.50 1.120186
523.60 1.120664
523.70 1.121143
523.80 1.121621
523.90 1.122098
524.00 1.122575
524.10 1.123052
524.20 1.123528
524.30 1.124011
524.40 1.124498
524.50 1.124984
524.60 1.125471
524.70 1.125956
524.80 1.126442
524.90 1.126926
525.00 1.127411
525.10 1.127895
525.20 1.128378
525.30 1.128861
525.40 1.129344
525.50 1.129826
525.60 1.130308
525.70 1.130789
525.80 1.13127
525.90 1.13175
526.00 1.13223
526.10 1.132709
526.20 1.133188
526.30 1.133667
526.40 1.134145
526.50 1.134623
526.60 1.1351
526.70 1.135577
526.80 1.136053
526.90 1.136529
527.00 1.137005
527.10 1.13748
527.20 1.137954
527.30 1.138428
527.40 1.138902
527.50 1.139375
527.60 1.139848
527.70 1.14032
527.80 1.140792
527.90 1.141264
528.00 1.141735
528.10 1.142205
528.20 1.142676
528.30 1.143145
528.40 1.143615
528.50 1.144084
528.60 1.144552
528.70 1.14502
528.80 1.145488
528.90 1.145955
529.00 1.146421
529.10 1.146888
529.20 1.147353
529.30 1.147819
529.40 1.148284
529.50 1.148749
529.60 1.149218
529.70 1.149687
529.80 1.150155
529.90 1.150623
530.00 1.151091
530.10 1.151558
530.20 1.152024
530.30 1.15249
530.40 1.152956
530.50 1.153421
530.60 1.153886
530.70 1.154351
530.80 1.154815
530.90 1.155278
531.00 1.155741
531.10 1.156204
531.20 1.156666
531.30 1.157128
531.40 1.15759
531.50 1.158051
531.60 1.158511
531.70 1.158971
531.80 1.159431
531.90 1.15989
532.00 1.160349
532.10 1.160808
532.20 1.16127
532.30 1.161733
532.40 1.162196
532.50 1.162659
532.60 1.163121
532.70 1.163583
532.80 1.164045
532.90 1.164506
533.00 1.164966
533.10 1.165426
533.20 1.165886
533.30 1.166345
533.40 1.166804
533.50 1.167263
533.60 1.167721
533.70 1.168178
533.80 1.168635
533.90 1.169092
534.00 1.169548
534.10 1.170004
534.20 1.17046
534.30 1.170915
534.40 1.171369
534.50 1.171824
534.60 1.172277
534.70 1.172731
534.80 1.173185
534.90 1.173645
535.00 1.174105
535.10 1.174564
535.20 1.175023
535.30 1.175482
535.40 1.17594
535.50 1.176397
535.60 1.176854
535.70 1.177311
535.80 1.177767
535.90 1.178223
536.00 1.178679
536.10 1.179134
536.20 1.179589
536.30 1.180043
536.40 1.180497
536.50 1.18095
536.60 1.181403
536.70 1.181856
536.80 1.182308
536.90 1.182759
537.00 1.183211
537.10 1.183661
537.20 1.184112
537.30 1.184562
537.40 1.185012
537.50 1.185461
537.60 1.18591
537.70 1.186358
537.80 1.186806
537.90 1.187253
538.00 1.187701
538.10 1.188147
538.20 1.188594
538.30 1.189039
538.40 1.189485
538.50 1.18993
538.60 1.190375
538.70 1.190819
538.80 1.191263
538.90 1.191706
539.00 1.192149
539.10 1.192592
539.20 1.193034
539.30 1.193476
539.40 1.193917
539.50 1.194358
539.60 1.194798
539.70 1.195239
539.80 1.195678
539.90 1.196118
540.00 1.196556
540.10 1.196995
540.20 1.197437
540.30 1.197879
540.40 1.198321
540.50 1.198763
540.60 1.199204
540.70 1.199645
540.80 1.200085
540.90 1.200525
541.00 1.200965
541.10 1.201404
541.20 1.201843
541.30 1.202282
541.40 1.20272
541.50 1.203157
541.60 1.203594
541.70 1.204031
541.80 1.204468
541.90 1.204904
542.00 1.205339
542.10 1.205774
542.20 1.206209
542.30 1.206644
542.40 1.207077
542.50 1.207511
542.60 1.207944
542.70 1.208377
542.80 1.208809
542.90 1.209241
543.00 1.209673
543.10 1.210104
543.20 1.210535
543.30 1.210965
543.40 1.211395
543.50 1.211825
543.60 1.212254
543.70 1.212683
543.80 1.213111
543.90 1.213539
544.00 1.213967
544.10 1.214394
544.20 1.214821
544.30 1.215247
544.40 1.215673
544.50 1.216099
544.60 1.216524
544.70 1.216949
544.80 1.217373
544.90 1.217797
545.00 1.218221
545.10 1.218644
545.20 1.219067
545.30 1.219489
545.40 1.219911
545.50 1.220333
545.60 1.220757
545.70 1.221183
545.80 1.221607
545.90 1.222032
546.00 1.222456
546.10 1.22288
546.20 1.223303
546.30 1.223726
546.40 1.224148
546.50 1.22457
546.60 1.224992
546.70 1.225413
546.80 1.225834
546.90 1.226255
547.00 1.226675
547.10 1.227094
547.20 1.227514
547.30 1.227933
547.40 1.228351
547.50 1.228769
547.60 1.229187
547.70 1.229605
547.80 1.230022
547.90 1.230438
548.00 1.230855
548.10 1.23127
548.20 1.231686
548.30 1.232103
548.40 1.232523
548.50 1.232943
548.60 1.233363
548.70 1.233782
548.80 1.2342
548.90 1.234619
549.00 1.235036
549.10 1.235454
549.20 1.235871
549.30 1.236288
549.40 1.236704
549.50 1.23712
549.60 1.237536
549.70 1.237951
549.80 1.238366
549.90 1.23878
550.00 1.239194
550.10 1.239608
550.20 1.240021
550.30 1.240434
550.40 1.240846
550.50 1.241258
550.60 1.24167
550.70 1.242081
550.80 1.242492
550.90 1.242903
551.00 1.243313
551.10 1.243725
551.20 1.244135
551.30 1.244546
551.40 1.244956
551.50 1.245366
551.60 1.245775
551.70 1.246184
551.80 1.246593
551.90 1.247001
552.00 1.247409
552.10 1.247816
552.20 1.248223
552.30 1.24863
552.40 1.249036
552.50 1.249442
552.60 1.249848
552.70 1.250253
552.80 1.250658
552.90 1.251062
553.00 1.251466
553.10 1.25187
553.20 1.252273
553.30 1.252676
553.40 1.253078
553.50 1.253481
553.60 1.253882
553.70 1.254284
553.80 1.254688
553.90 1.255094
554.00 1.255499
554.10 1.255904
554.20 1.256309
554.30 1.256713
554.40 1.257117
554.50 1.25752
554.60 1.257923
554.70 1.258326
554.80 1.258728
554.90 1.25913
555.00 1.259532
555.10 1.259933
555.20 1.260334
555.30 1.260735
555.40 1.261135
555.50 1.261535
555.60 1.261934
555.70 1.262333
555.80 1.262732
555.90 1.26313
556.00 1.263528
556.10 1.263925
556.20 1.264323
556.30 1.264719
556.40 1.265116
556.50 1.265512
556.60 1.265909
556.70 1.266306
556.80 1.266702
556.90 1.267098
557.00 1.267494
557.10 1.267889
557.20 1.268284
557.30 1.268679
557.40 1.269073
557.50 1.269467
557.60 1.269861
557.70 1.270254
557.80 1.270647
557.90 1.271039
558.00 1.271431
558.10 1.271823
558.20 1.272214
558.30 1.272605
558.40 1.272996
558.50 1.273386
558.60 1.273776
558.70 1.274165
558.80 1.274554
558.90 1.274943
559.00 1.275332
559.10 1.27572
559.20 1.276108
559.30 1.276495
559.40 1.276882
559.50 1.277269
559.60 1.277655
559.70 1.278041
559.80 1.278426
559.90 1.278812
560.00 1.279196
560.10 1.279581
560.20 1.279965
560.30 1.280349
560.40 1.280732
560.50 1.281115
560.60 1.281498
560.70 1.28188
560.80 1.282262
560.90 1.282644
561.00 1.283025
561.10 1.283406
561.20 1.283787
561.30 1.284167
561.40 1.284547
561.50 1.284927
561.60 1.285306
561.70 1.285685
561.80 1.286063
561.90 1.286441
562.00 1.286819
562.10 1.287199
562.20 1.287582
562.30 1.287965
562.40 1.288347
562.50 1.288729
562.60 1.28911
562.70 1.289491
562.80 1.289872
562.90 1.290253
563.00 1.290633
563.10 1.291013
563.20 1.291392
563.30 1.291771
563.40 1.29215
563.50 1.292528
563.60 1.292906
563.70 1.293284
563.80 1.293661
563.90 1.294038
564.00 1.294415
564.10 1.294791
564.20 1.295167
564.30 1.295543
564.40 1.295918
564.50 1.296293
564.60 1.296667
564.70 1.297042
564.80 1.297416
564.90 1.297789
565.00 1.298163
565.10 1.298536
565.20 1.298908
565.30 1.299281
565.40 1.299653
565.50 1.300025
565.60 1.300396
565.70 1.300767
565.80 1.301138
565.90 1.301508
566.00 1.301878
566.10 1.302248
566.20 1.302617
566.30 1.302986
566.40 1.303355
566.50 1.303723
566.60 1.304091
566.70 1.304459
566.80 1.304826
566.90 1.305193
567.00 1.30556
567.10 1.305926
567.20 1.306292
567.30 1.306657
567.40 1.307023
567.50 1.307388
567.60 1.307752
567.70 1.308118
567.80 1.30849
567.90 1.308861
568.00 1.309232
568.10 1.309603
568.20 1.309974
568.30 1.310344
568.40 1.310714
568.50 1.311083
568.60 1.311452
568.70 1.311821
568.80 1.312189
568.90 1.312558
569.00 1.312925
569.10 1.313293
569.20 1.31366
569.30 1.314026
569.40 1.314393
569.50 1.314759
569.60 1.315125
569.70 1.31549
569.80 1.315855
569.90 1.31622
570.00 1.316584
570.10 1.316948
570.20 1.317312
570.30 1.317675
570.40 1.318038
570.50 1.318401
570.60 1.318763
570.70 1.319125
570.80 1.319487
570.90 1.319848
571.00 1.320209
571.10 1.32057
571.20 1.32093
571.30 1.32129
571.40 1.32165
571.50 1.322009
571.60 1.322369
571.70 1.322727
571.80 1.323086
571.90 1.323444
572.00 1.323801
572.10 1.324159
572.20 1.324516
572.30 1.324872
572.40 1.325229
572.50 1.325585
572.60 1.32594
572.70 1.326296
572.80 1.326651
572.90 1.327006
573.00 1.32736
573.10 1.327714
573.20 1.328068
573.30 1.328421
573.40 1.328767
573.50 1.329102
573.60 1.329436
573.70 1.32977
573.80 1.330104
573.90 1.330438
574.00 1.330771
574.10 1.331104
574.20 1.331436
574.30 1.331769
574.40 1.332101
574.50 1.332432
574.60 1.332764
574.70 1.333095
574.80 1.333425
574.90 1.333756
575.00 1.334086
575.10 1.334416
575.20 1.334745
575.30 1.335074
575.40 1.335403
575.50 1.335732
575.60 1.33606
575.70 1.336388
575.80 1.336716
575.90 1.337043
576.00 1.33737
576.10 1.337697
576.20 1.338023
576.30 1.338349
576.40 1.338675
576.50 1.339001
576.60 1.339326
576.70 1.339651
576.80 1.339975
576.90 1.3403
577.00 1.340623
577.10 1.340947
577.20 1.34127
577.30 1.341594
577.40 1.341916
577.50 1.342239
577.60 1.342578
577.70 1.342945
577.80 1.343312
577.90 1.343678
578.00 1.344044
578.10 1.34441
578.20 1.344775
578.30 1.34514
578.40 1.345505
578.50 1.34587
578.60 1.346234
578.70 1.346597
578.80 1.346961
578.90 1.347324
579.00 1.347686
579.10 1.348045
579.20 1.348361
579.30 1.348677
579.40 1.348993
579.50 1.349309
579.60 1.349624
579.70 1.349939
579.80 1.350253
579.90 1.350567
580.00 1.350881
580.10 1.351211
580.20 1.351564
580.30 1.351918
580.40 1.352271
580.50 1.352624
580.60 1.352977
580.70 1.353329
580.80 1.353681
580.90 1.354032
581.00 1.354384
581.10 1.354735
581.20 1.355085
581.30 1.355436
581.40 1.355786
581.50 1.356135
581.60 1.356485
581.70 1.356834
581.80 1.357182
581.90 1.357531
582.00 1.357879
582.10 1.358203
582.20 1.358487
582.30 1.358772
582.40 1.359056
582.50 1.35934
582.60 1.359624
582.70 1.359907
582.80 1.360191
582.90 1.360473
583.00 1.360756
583.10 1.361038
583.20 1.361321
583.30 1.361602
583.40 1.361884
583.50 1.362165
583.60 1.362449
583.70 1.362737
583.80 1.363025
583.90 1.363313
584.00 1.3636
584.10 1.363887
584.20 1.364174
584.30 1.364461
584.40 1.364747
584.50 1.365033
584.60 1.365319
584.70 1.365605
584.80 1.36589
584.90 1.366199
585.00 1.366618
585.10 1.367036
585.20 1.367401
585.30 1.367677
585.40 1.367953
585.50 1.368229
585.60 1.368504
585.70 1.368779
585.80 1.369054
585.90 1.369329
586.00 1.369603
586.10 1.369877
586.20 1.370182
586.30 1.370538
586.40 1.370893
586.50 1.371249
586.60 1.371603
586.70 1.371958
586.80 1.372351
586.90 1.372808
587.00 1.373264
587.10 1.37372
587.20 1.374058
587.30 1.374206
587.40 1.374119
587.50 1.374881
587.60 1.374413
587.70 1.375175
587.80 1.375174
587.90 1.375934
588.00 1.37646
588.10 1.376606
588.20 1.376751
588.30 1.376897
588.40 1.377119
588.50 1.377468
588.60 1.377817
588.70 1.378166
588.80 1.378514
588.90 1.378862
589.00 1.379178
589.10 1.379444
589.20 1.379709
589.30 1.379974
589.40 1.380239
589.50 1.380504
589.60 1.380768
589.70 1.381032
589.80 1.381296
589.90 1.38156
590.00 1.381846
590.10 1.382171
590.20 1.382494
590.30 1.382818
590.40 1.383142
590.50 1.383465
590.60 1.383787
590.70 1.38411
590.80 1.384391
590.90 1.384654
591.00 1.384917
591.10 1.385179
591.20 1.385441
591.30 1.385703
591.40 1.385965
591.50 1.386226
591.60 1.386517
591.70 1.386857
591.80 1.387196
591.90 1.387535
592.00 1.387874
592.10 1.388212
592.20 1.38855
592.30 1.388888
592.40 1.389226
592.50 1.389563
592.60 1.3899
592.70 1.390236
592.80 1.390573
592.90 1.390909
593.00 1.391244
593.10 1.391572
593.20 1.391887
593.30 1.392201
593.40 1.392516
593.50 1.39283
593.60 1.393144
593.70 1.393457
593.80 1.39377
593.90 1.394083
594.00 1.394396
594.10 1.394708
594.20 1.39502
594.30 1.395332
594.40 1.395643
594.50 1.395954
594.60 1.396265
594.70 1.396576
594.80 1.396886
594.90 1.397196
595.00 1.397506
595.10 1.397808
595.20 1.398099
595.30 1.398389
595.40 1.398679
595.50 1.398969
595.60 1.399258
595.70 1.399548
595.80 1.399837
595.90 1.400125
596.00 1.400414
596.10 1.400702
596.20 1.40099
596.30 1.401277
596.40 1.401565
596.50 1.401852
596.60 1.402139
596.70 1.402356
596.80 1.402531
596.90 1.402706
597.00 1.40288
597.10 1.403055
597.20 1.403229
597.30 1.403403
597.40 1.403577
597.50 1.40375
597.60 1.403965
597.70 1.404247
597.80 1.404529
597.90 1.404811
598.00 1.405092
598.10 1.405374
598.20 1.405655
598.30 1.405935
598.40 1.406216
598.50 1.406496
598.60 1.406776
598.70 1.407055
598.80 1.407334
598.90 1.407613
599.00 1.407892
599.10 1.408171
599.20 1.408449
599.30 1.408727
599.40 1.409025
599.50 1.409323
599.60 1.40962
599.70 1.409917
599.80 1.410214
599.90 1.41051
600.00 1.410807
600.10 1.411103
600.20 1.411398
600.30 1.411694
600.40 1.411989
600.50 1.412284
600.60 1.412578
600.70 1.412873
600.80 1.413167
600.90 1.413461
601.00 1.413754
601.10 1.414047
601.20 1.41434
601.30 1.414633
601.40 1.414882
601.50 1.415131
601.60 1.415379
601.70 1.415628
601.80 1.415876
601.90 1.416124
602.00 1.416371
602.10 1.416618
602.20 1.416866
602.30 1.417112
602.40 1.417359
602.50 1.417605
602.60 1.417851
602.70 1.417986
602.80 1.418115
602.90 1.418374
603.00 1.418633
603.10 1.418892
603.20 1.419151
603.30 1.419409
603.40 1.419668
603.50 1.419926
603.60 1.420183
603.70 1.420441
603.80 1.420698
603.90 1.420955
604.00 1.421212
604.10 1.421468
604.20 1.421724
604.30 1.42198
604.40 1.422236
604.50 1.422579
604.60 1.422921
604.70 1.423263
604.80 1.423605
604.90 1.423946
605.00 1.424287
605.10 1.424628
605.20 1.424968
605.30 1.425308
605.40 1.425648
605.50 1.425949
605.60 1.42625
605.70 1.42655
605.80 1.42685
605.90 1.42715
606.00 1.42745
606.10 1.427557
606.20 1.427663
606.30 1.42777
606.40 1.427876
606.50 1.427982
606.60 1.428088
606.70 1.42877
606.80 1.428876
606.90 1.428981
607.00 1.429663
607.10 1.429767
607.20 1.429872
607.30 1.430265
607.40 1.430656
607.50 1.431048
607.60 1.431439
607.70 1.431543
607.80 1.431647
607.90 1.43175
608.00 1.431853
608.10 1.431956
608.20 1.432059
608.30 1.432387
608.40 1.432714
608.50 1.433041
608.60 1.433368
608.70 1.4337
608.80 1.434034
608.90 1.434368
609.00 1.434701
609.10 1.435034
609.20 1.435367
609.30 1.435611
609.40 1.435854
609.50 1.436097
609.60 1.43634
609.70 1.436582
609.80 1.436825
609.90 1.437067
610.00 1.437309
610.10 1.43755
610.20 1.437792
610.30 1.438033
610.40 1.438274
610.50 1.438514
610.60 1.438755
610.70 1.438995
610.80 1.439235
610.90 1.439446
611.00 1.439657
611.10 1.439868
611.20 1.440078
611.30 1.440289
611.40 1.440499
611.50 1.440709
611.60 1.440919
611.70 1.441128
611.80 1.441338
611.90 1.441547
612.00 1.441756
612.10 1.441964
612.20 1.442173
612.30 1.442381
612.40 1.442646
612.50 1.44291
612.60 1.443174
612.70 1.443438
612.80 1.443702
612.90 1.443965
613.00 1.444229
613.10 1.444491
613.20 1.444754
613.30 1.445016
613.40 1.445279
613.50 1.445541
613.60 1.445802
613.70 1.446064
613.80 1.446325
613.90 1.446586
614.00 1.446846
614.10 1.447107
614.20 1.447367
614.30 1.447627
614.40 1.447695
614.50 1.447763
614.60 1.447831
614.70 1.447899
614.80 1.448101
614.90 1.448331
615.00 1.44856
615.10 1.448789
615.20 1.449018
615.30 1.449247
615.40 1.449476
615.50 1.449704
615.60 1.449932
615.70 1.45016
615.80 1.450387
615.90 1.450615
616.00 1.450842
616.10 1.451069
616.20 1.451296
616.30 1.451522
616.40 1.451748
616.50 1.451975
616.60 1.4522
616.70 1.452426
616.80 1.452651
616.90 1.452894
617.00 1.453136
617.10 1.453379
617.20 1.453621
617.30 1.453862
617.40 1.454104
617.50 1.454345
617.60 1.454586
617.70 1.454827
617.80 1.455067
617.90 1.455308
618.00 1.455548
618.10 1.455788
618.20 1.456027
618.30 1.456267
618.40 1.456506
618.50 1.456745
618.60 1.456983
618.70 1.457222
618.80 1.45746
618.90 1.457698
619.00 1.457936
619.10 1.458173
619.20 1.458411
619.30 1.458648
619.40 1.458885
619.50 1.459121
619.60 1.459358
619.70 1.459594
619.80 1.45983
619.90 1.460066
620.00 1.460301
620.10 1.460536
620.20 1.460771
620.30 1.461006
620.40 1.461241
620.50 1.461475
620.60 1.461709
620.70 1.461943
620.80 1.462177
620.90 1.462406
621.00 1.462626
621.10 1.462846
621.20 1.463066
621.30 1.463286
621.40 1.463505
621.50 1.463725
621.60 1.463944
621.70 1.464163
621.80 1.464381
621.90 1.4646
622.00 1.464818
622.10 1.465036
622.20 1.465254
622.30 1.465472
622.40 1.465689
622.50 1.465906
622.60 1.466123
622.70 1.46634
622.80 1.466556
622.90 1.466773
623.00 1.466989
623.10 1.467205
623.20 1.46742
623.30 1.467636
623.40 1.467851
623.50 1.468066
623.60 1.468281
623.70 1.468495
623.80 1.46871
623.90 1.468924
624.00 1.469138
624.10 1.469351
624.20 1.469565
624.30 1.469778
624.40 1.469991
624.50 1.470204
624.60 1.470417
624.70 1.470629
624.80 1.470842
624.90 1.471054
625.00 1.471266
625.10 1.471477
625.20 1.471689
625.30 1.4719
625.40 1.472111
625.50 1.472322
625.60 1.472532
625.70 1.472742
625.80 1.472953
625.90 1.473163
626.00 1.473372
626.10 1.473582
626.20 1.473791
626.30 1.474
626.40 1.474209
626.50 1.474418
626.60 1.474626
626.70 1.474835
626.80 1.475043
626.90 1.47525
627.00 1.475458
627.10 1.475659
627.20 1.475843
627.30 1.476026
627.40 1.476209
627.50 1.476392
627.60 1.476574
627.70 1.476757
627.80 1.476939
627.90 1.477121
628.00 1.477303
628.10 1.477485
628.20 1.477666
628.30 1.477848
628.40 1.478029
628.50 1.47821
628.60 1.478391
628.70 1.478571
628.80 1.478751
628.90 1.478932
629.00 1.479112
629.10 1.479291
629.20 1.479471
629.30 1.47965
629.40 1.47983
629.50 1.480009
629.60 1.480188
629.70 1.480366
629.80 1.480545
629.90 1.480723
630.00 1.480901
630.10 1.481079
630.20 1.481257
630.30 1.481466
630.40 1.481677
630.50 1.481888
630.60 1.482099
630.70 1.482309
630.80 1.48252
630.90 1.48273
631.00 1.48294
631.10 1.483149
631.20 1.483359
631.30 1.483568
631.40 1.483777
631.50 1.483986
631.60 1.484195
631.70 1.484404
631.80 1.484612
631.90 1.48482
632.00 1.485028
632.10 1.485236
632.20 1.485443
632.30 1.48565
632.40 1.485857
632.50 1.486064
632.60 1.486271
632.70 1.486477
632.80 1.486684
632.90 1.48689
633.00 1.487096
633.10 1.487301
633.20 1.487507
633.30 1.487712
633.40 1.487895
633.50 1.48806
633.60 1.488224
633.70 1.488389
633.80 1.488554
633.90 1.488718
634.00 1.488882
634.10 1.489046
634.20 1.48921
634.30 1.489373
634.40 1.489537
634.50 1.4897
634.60 1.489863
634.70 1.490026
634.80 1.490189
634.90 1.490351
635.00 1.490514
635.10 1.490676
635.20 1.490838
635.30 1.491
635.40 1.491161
635.50 1.491323
635.60 1.491484
635.70 1.491645
635.80 1.491806
635.90 1.491967
636.00 1.492128
636.10 1.492288
636.20 1.492448
636.30 1.492608
636.40 1.492768
636.50 1.492928
636.60 1.493117
636.70 1.49331
636.80 1.493502
636.90 1.493693
637.00 1.493885
637.10 1.494077
637.20 1.494268
637.30 1.494459
637.40 1.49465
637.50 1.494841
637.60 1.495031
637.70 1.495221
637.80 1.495411
637.90 1.495601
638.00 1.495791
638.10 1.495981
638.20 1.49617
638.30 1.496359
638.40 1.496548
638.50 1.496737
638.60 1.496926
638.70 1.497114
638.80 1.497302
638.90 1.49749
639.00 1.497678
639.10 1.497866
639.20 1.498053
639.30 1.49824
639.40 1.498427
639.50 1.498614
639.60 1.498801
639.70 1.498978
639.80 1.499126
639.90 1.499273
640.00 1.49942
640.10 1.499567
640.20 1.499713
640.30 1.49986
640.40 1.500006
640.50 1.500152
640.60 1.500298
640.70 1.500444
640.80 1.50059
640.90 1.500735
641.00 1.500881
641.10 1.501026
641.20 1.501171
641.30 1.501316
641.40 1.501461
641.50 1.501605
641.60 1.501749
641.70 1.501894
641.80 1.502038
641.90 1.502182
642.00 1.502325
642.10 1.502469
642.20 1.502612
642.30 1.502756
642.40 1.502899
642.50 1.503042
642.60 1.503184
642.70 1.503327
642.80 1.503469
642.90 1.503619
643.00 1.503794
643.10 1.503968
643.20 1.504142
643.30 1.504316
643.40 1.50449
643.50 1.504663
643.60 1.504836
643.70 1.505009
643.80 1.505182
643.90 1.505355
644.00 1.505528
644.10 1.5057
644.20 1.505872
644.30 1.506044
644.40 1.506216
644.50 1.506388
644.60 1.50656
644.70 1.506731
644.80 1.506902
644.90 1.507073
645.00 1.507244
645.10 1.507414
645.20 1.507585
645.30 1.507755
645.40 1.507925
645.50 1.508095
645.60 1.508265
645.70 1.508434
645.80 1.508604
645.90 1.508773
646.00 1.508942
646.10 1.509101
646.20 1.509232
646.30 1.509363
646.40 1.509493
646.50 1.509624
646.60 1.509754
646.70 1.509884
646.80 1.510014
646.90 1.510144
647.00 1.510274
647.10 1.510403
647.20 1.510533
647.30 1.510662
647.40 1.510791
647.50 1.51092
647.60 1.511049
647.70 1.511177
647.80 1.511306
647.90 1.511434
648.00 1.511562
648.10 1.51169
648.20 1.511818
648.30 1.511946
648.40 1.512073
648.50 1.512201
648.60 1.512328
648.70 1.512455
648.80 1.512582
648.90 1.512709
649.00 1.512836
649.10 1.512962
649.20 1.513088
649.30 1.513215
649.40 1.51337
649.50 1.513527
649.60 1.513684
649.70 1.51384
649.80 1.513997
649.90 1.514153
650.00 1.514309
650.10 1.514465
650.20 1.514621
650.30 1.514776
650.40 1.514931
650.50 1.515087
650.60 1.515242
650.70 1.515397
650.80 1.515551
650.90 1.515706
651.00 1.51586
651.10 1.516014
651.20 1.516168
651.30 1.516322
651.40 1.516476
651.50 1.516629
651.60 1.516783
651.70 1.516936
651.80 1.517089
651.90 1.517242
652.00 1.517394
652.10 1.517547
652.20 1.517699
652.30 1.517852
652.40 1.518004
652.50 1.518155
652.60 1.518295
652.70 1.518428
652.80 1.518561
652.90 1.518693
653.00 1.518826
653.10 1.518958
653.20 1.51909
653.30 1.519222
653.40 1.519354
653.50 1.519486
653.60 1.519617
653.70 1.519749
653.80 1.51988
653.90 1.520011
654.00 1.520142
654.10 1.520273
654.20 1.520404
654.30 1.520534
654.40 1.520664
654.50 1.520795
654.60 1.520925
654.70 1.521055
654.80 1.521184
654.90 1.521314
655.00 1.521443
655.10 1.521573
655.20 1.521702
655.30 1.521831
655.40 1.52196
655.50 1.522088
655.60 1.522217
655.70 1.522345
655.80 1.522473
655.90 1.522601
656.00 1.522729
656.10 1.522856
656.20 1.522983
656.30 1.523111
656.40 1.523238
656.50 1.523365
656.60 1.523491
656.70 1.523618
656.80 1.523744
656.90 1.523871
657.00 1.523997
657.10 1.524123
657.20 1.524249
657.30 1.524374
657.40 1.5245
657.50 1.524625
657.60 1.524751
657.70 1.524876
657.80 1.525265
657.90 1.525398
658.00 1.525486
658.10 1.525573
658.20 1.525661
658.30 1.525748
658.40 1.525835
658.50 1.525922
658.60 1.526009
658.70 1.526096
658.80 1.526182
658.90 1.526269
659.00 1.526355
659.10 1.526501
659.20 1.526735
659.30 1.526885
659.40 1.527035
659.50 1.527185
659.60 1.527334
659.70 1.527483
659.80 1.527633
659.90 1.527781
660.00 1.52793
660.10 1.528079
660.20 1.528227
660.30 1.528376
660.40 1.528516
660.50 1.528655
660.60 1.528794
660.70 1.528933
660.80 1.529072
660.90 1.529192
661.00 1.529312
661.10 1.529432
661.20 1.529552
661.30 1.529672
661.40 1.529792
661.50 1.529911
661.60 1.530031
661.70 1.53015
661.80 1.530269
661.90 1.530371
662.00 1.530473
662.10 1.530575
662.20 1.530676
662.30 1.530778
662.40 1.5304
662.50 1.530663
662.60 1.530927
662.70 1.531189
662.80 1.531452
662.90 1.531473
663.00 1.531494
663.10 1.531515
663.20 1.531535
663.30 1.532038
663.40 1.531577
663.50 1.532079
663.60 1.532581
663.70 1.532568
663.80 1.532554
663.90 1.532602
664.00 1.532661
664.10 1.53268
664.20 1.5327
664.30 1.53272
664.40 1.532739
664.50 1.532758
664.60 1.532778
664.70 1.532906
664.80 1.533034
664.90 1.533162
665.00 1.53329
665.10 1.533417
665.20 1.533545
665.30 1.533672
665.40 1.533799
665.50 1.533867
665.60 1.533924
665.70 1.534667
665.80 1.534707
665.90 1.534747
666.00 1.534788
666.10 1.534828
666.20 1.534868
666.30 1.534908
666.40 1.534947
666.50 1.535103
666.60 1.53528
666.70 1.535456
666.80 1.535632
666.90 1.535807
667.00 1.535983
667.10 1.536056
667.20 1.536111
667.30 1.536094
667.40 1.536077
667.50 1.536088
667.60 1.536104
667.70 1.536668
667.80 1.536505
667.90 1.536699
668.00 1.53719
668.10 1.537134
668.20 1.537149
668.30 1.537165
668.40 1.53718
668.50 1.537195
668.60 1.53721
668.70 1.53777
668.80 1.537863
668.90 1.537956
669.00 1.538049
669.10 1.538142
669.20 1.538234
669.30 1.53834
669.40 1.538449
669.50 1.538558
669.60 1.538666
669.70 1.538775
669.80 1.538883
669.90 1.538991
670.00 1.539099
670.10 1.539207
670.20 1.539315
670.30 1.539437
670.40 1.539562
670.50 1.539687
670.60 1.539812
670.70 1.539936
670.80 1.539985
670.90 1.540033
671.00 1.540081
671.10 1.54013
671.20 1.540178
671.30 1.540226
671.40 1.540274
671.50 1.540321
671.60 1.540369
671.70 1.540417
671.80 1.540464
671.90 1.540569
672.00 1.540684
672.10 1.540798
672.20 1.540913
672.30 1.541027
672.40 1.541097
672.50 1.541165
672.60 1.541232
672.70 1.541299
672.80 1.541366
672.90 1.541432
673.00 1.541499
673.10 1.541566
673.20 1.541632
673.30 1.541988
673.40 1.54213
673.50 1.542234
673.60 1.542337
673.70 1.54244
673.80 1.542543
673.90 1.542646
674.00 1.542749
674.10 1.542852
674.20 1.542955
674.30 1.543057
674.40 1.54316
674.50 1.543262
674.60 1.543364
674.70 1.543466
674.80 1.543568
674.90 1.54367
675.00 1.543771
675.10 1.543873
675.20 1.543974
675.30 1.544075
675.40 1.544145
675.50 1.544209
675.60 1.544272
675.70 1.544336
675.80 1.544399
675.90 1.544463
676.00 1.544526
676.10 1.544589
676.20 1.544652
676.30 1.544715
676.40 1.544778
676.50 1.544841
676.60 1.544903
676.70 1.544966
676.80 1.545028
676.90 1.54509
677.00 1.545153
677.10 1.545215
677.20 1.545277
677.30 1.545339
677.40 1.5454
677.50 1.545462
677.60 1.545524
677.70 1.545585
677.80 1.545646
677.90 1.54572
678.00 1.545796
678.10 1.545872
678.20 1.545948
678.30 1.546024
678.40 1.5461
678.50 1.546175
678.60 1.54625
678.70 1.546326
678.80 1.546401
678.90 1.546476
679.00 1.546551
679.10 1.546634
679.20 1.546721
679.30 1.546807
679.40 1.546894
679.50 1.54698
679.60 1.547066
679.70 1.547152
679.80 1.547238
679.90 1.547324
680.00 1.54741
680.10 1.547495
680.20 1.547581
680.30 1.547666
680.40 1.547751
680.50 1.547836
680.60 1.547921
680.70 1.548006
680.80 1.548091
680.90 1.548176
681.00 1.54826
681.10 1.548345
681.20 1.548429
681.30 1.548513
681.40 1.548597
681.50 1.548681
681.60 1.548765
681.70 1.548849
681.80 1.548932
681.90 1.549016
682.00 1.549099
682.10 1.549183
682.20 1.549266
682.30 1.549349
682.40 1.549432
682.50 1.549514
682.60 1.549597
682.70 1.54968
682.80 1.549762
682.90 1.549844
683.00 1.549927
683.10 1.550009
683.20 1.550091
683.30 1.550173
683.40 1.550254
683.50 1.550336
683.60 1.550418
683.70 1.550499
683.80 1.55058
683.90 1.550662
684.00 1.550743
684.10 1.550824
684.20 1.550905
684.30 1.550985
684.40 1.551066
684.50 1.551146
684.60 1.551227
684.70 1.551307
684.80 1.551387
684.90 1.551467
685.00 1.551547
685.10 1.551627
685.20 1.551707
685.30 1.551786
685.40 1.551866
685.50 1.551945
685.60 1.552025
685.70 1.552104
685.80 1.552183
685.90 1.552247
686.00 1.552307
686.10 1.552368
686.20 1.552428
686.30 1.552488
686.40 1.552548
686.50 1.552608
686.60 1.552667
686.70 1.552727
686.80 1.552786
686.90 1.552846
687.00 1.552905
687.10 1.552964
687.20 1.553024
687.30 1.553083
687.40 1.553141
687.50 1.5532
687.60 1.553259
687.70 1.553318
687.80 1.553376
687.90 1.553435
688.00 1.553493
688.10 1.553551
688.20 1.553609
688.30 1.553667
688.40 1.553725
688.50 1.553783
688.60 1.553841
688.70 1.553899
688.80 1.553956
688.90 1.554013
689.00 1.554071
689.10 1.554128
689.20 1.554185
689.30 1.554242
689.40 1.554299
689.50 1.554356
689.60 1.554413
689.70 1.554469
689.80 1.554526
689.90 1.554582
690.00 1.554639
690.10 1.554695
690.20 1.554751
690.30 1.554807
690.40 1.554863
690.50 1.554919
690.60 1.554975
690.70 1.555031
690.80 1.555086
690.90 1.555142
691.00 1.555197
691.10 1.555252
691.20 1.555307
691.30 1.555363
691.40 1.555418
691.50 1.555472
691.60 1.555527
691.70 1.555582
691.80 1.555637
691.90 1.555691
692.00 1.555745
692.10 1.5558
692.20 1.555854
692.30 1.555908
692.40 1.555962
692.50 1.556016
692.60 1.55607
692.70 1.55612
692.80 1.556154
692.90 1.556188
693.00 1.556223
693.10 1.556257
693.20 1.556291
693.30 1.556325
693.40 1.556359
693.50 1.556393
693.60 1.556426
693.70 1.55646
693.80 1.556494
693.90 1.556527
694.00 1.556561
694.10 1.556594
694.20 1.556627
694.30 1.55666
694.40 1.556693
694.50 1.556726
694.60 1.556759
694.70 1.556792
694.80 1.556825
694.90 1.556858
695.00 1.55689
695.10 1.556923
695.20 1.556955
695.30 1.556988
695.40 1.55702
695.50 1.557052
695.60 1.557084
695.70 1.557116
695.80 1.557148
695.90 1.55718
696.00 1.557212
696.10 1.557243
696.20 1.557275
696.30 1.557306
696.40 1.557338
696.50 1.557369
696.60 1.55741
696.70 1.557452
696.80 1.557495
696.90 1.557537
697.00 1.55758
697.10 1.557622
697.20 1.557664
697.30 1.557706
697.40 1.557748
697.50 1.55779
697.60 1.557832
697.70 1.557874
697.80 1.557916
697.90 1.557957
698.00 1.557999
698.10 1.55804
698.20 1.558082
698.30 1.558123
698.40 1.558164
698.50 1.558205
698.60 1.558246
698.70 1.558287
698.80 1.558328
698.90 1.558368
699.00 1.558409
699.10 1.558536
699.20 1.558683
699.30 1.55883
699.40 1.558976
699.50 1.559123
699.60 1.559269
699.70 1.559319
699.80 1.559363
699.90 1.559408
700.00 1.559453
700.10 1.559497
700.20 1.559542
700.30 1.559586
700.40 1.55963
700.50 1.559674
700.60 1.559718
700.70 1.559762
700.80 1.559806
700.90 1.55985
701.00 1.559894
701.10 1.559915
701.20 1.55993
701.30 1.559946
701.40 1.559961
701.50 1.559976
701.60 1.559992
701.70 1.560007
701.80 1.560022
701.90 1.560037
702.00 1.560052
702.10 1.560067
702.20 1.560081
702.30 1.560096
702.40 1.560111
702.50 1.560125
702.60 1.56016
702.70 1.5602
702.80 1.560239
702.90 1.560279
703.00 1.560318
703.10 1.560357
703.20 1.560396
703.30 1.560435
703.40 1.560474
703.50 1.560513
703.60 1.560552
703.70 1.56059
703.80 1.560629
703.90 1.560667
704.00 1.560706
704.10 1.560744
704.20 1.560739
704.30 1.560724
704.40 1.560708
704.50 1.560693
704.60 1.560677
704.70 1.560662
704.80 1.560646
704.90 1.560631
705.00 1.560615
705.10 1.560599
705.20 1.560698
705.30 1.560825
705.40 1.560951
705.50 1.561077
705.60 1.561203
705.70 1.561329
705.80 1.561339
705.90 1.561323
706.00 1.561306
706.10 1.56129
706.20 1.561273
706.30 1.561257
706.40 1.560917
706.50 1.561304
706.60 1.561712
706.70 1.56127
706.80 1.561173
706.90 1.561156
707.00 1.561139
707.10 1.561122
707.20 1.561105
707.30 1.561087
707.40 1.561185
707.50 1.561309
707.60 1.561433
707.70 1.561556
707.80 1.56168
707.90 1.561804
708.00 1.561813
708.10 1.561795
708.20 1.561777
708.30 1.561759
708.40 1.561741
708.50 1.561723
708.60 1.561705
708.70 1.561687
708.80 1.561669
708.90 1.56165
709.00 1.561675
709.10 1.561709
709.20 1.561744
709.30 1.561778
709.40 1.561812
709.50 1.561846
709.60 1.56188
709.70 1.561914
709.80 1.561948
709.90 1.561981
710.00 1.562015
710.10 1.562049
710.20 1.562082
710.30 1.562116
710.40 1.562149
710.50 1.562182
710.60 1.562196
710.70 1.562204
710.80 1.562213
710.90 1.562221
711.00 1.56223
711.10 1.562238
711.20 1.562246
711.30 1.562254
711.40 1.562263
711.50 1.562271
711.60 1.562279
711.70 1.562287
711.80 1.562294
711.90 1.562302
712.00 1.56231
712.10 1.562326
712.20 1.562345
712.30 1.562363
712.40 1.562381
712.50 1.562399
712.60 1.562417
712.70 1.562435
712.80 1.562453
712.90 1.562471
713.00 1.562489
713.10 1.562506
713.20 1.562524
713.30 1.562541
713.40 1.562559
713.50 1.562576
713.60 1.562593
713.70 1.562617
713.80 1.562652
713.90 1.562688
714.00 1.562723
714.10 1.562753
714.20 1.562781
714.30 1.56281
714.40 1.562838
714.50 1.562866
714.60 1.562894
714.70 1.562922
714.80 1.56295
714.90 1.562978
715.00 1.563006
715.10 1.563033
715.20 1.563061
715.30 1.563089
715.40 1.563116
715.50 1.563144
715.60 1.563171
715.70 1.563198
715.80 1.563225
715.90 1.563252
716.00 1.563279
716.10 1.563306
716.20 1.563333
716.30 1.56336
716.40 1.563387
716.50 1.563413
716.60 1.563397
716.70 1.563369
716.80 1.563342
716.90 1.563315
717.00 1.563288
717.10 1.56326
717.20 1.563233
717.30 1.563205
717.40 1.563178
717.50 1.56315
717.60 1.563123
717.70 1.563095
717.80 1.563068
717.90 1.56304
718.00 1.563012
718.10 1.562984
718.20 1.562991
718.30 1.563017
718.40 1.563042
718.50 1.563068
718.60 1.563093
718.70 1.563118
718.80 1.563143
718.90 1.563168
719.00 1.563193
719.10 1.563218
719.20 1.563243
719.30 1.563268
719.40 1.563293
719.50 1.563317
719.60 1.563342
719.70 1.563366
719.80 1.563391
719.90 1.563415
720.00 1.56344
720.10 1.563464
720.20 1.563488
720.30 1.563512
720.40 1.563536
720.50 1.56356
720.60 1.563584
720.70 1.563624
720.80 1.563674
720.90 1.563645
721.00 1.563612
721.10 1.56358
721.20 1.563548
721.30 1.563515
721.40 1.563483
721.50 1.56345
721.60 1.563417
721.70 1.563385
721.80 1.563352
721.90 1.563319
722.00 1.563286
722.10 1.563254
722.20 1.563221
722.30 1.563188
722.40 1.563155
722.50 1.563122
722.60 1.563089
722.70 1.563078
722.80 1.563079
722.90 1.563079
723.00 1.56308
723.10 1.563081
723.20 1.563081
723.30 1.563082
723.40 1.563082
723.50 1.563083
723.60 1.563083
723.70 1.563084
723.80 1.563084
723.90 1.563084
724.00 1.563084
724.10 1.563084
724.20 1.563099
724.30 1.563123
724.40 1.563146
724.50 1.56317
724.60 1.563193
724.70 1.563216
724.80 1.56324
724.90 1.563263
725.00 1.563286
725.10 1.563309
725.20 1.563331
725.30 1.563354
725.40 1.563377
725.50 1.5634
725.60 1.563422
725.70 1.563445
725.80 1.563435
725.90 1.563407
726.00 1.563379
726.10 1.563351
726.20 1.563322
726.30 1.563294
726.40 1.563266
726.50 1.563238
726.60 1.56321
726.70 1.563181
726.80 1.563153
726.90 1.563125
727.00 1.563096
727.10 1.563068
727.20 1.563039
727.30 1.563011
727.40 1.562982
727.50 1.562953
727.60 1.562925
727.70 1.562896
727.80 1.562867
727.90 1.562838
728.00 1.56309
728.10 1.562921
728.20 1.562992
728.30 1.562863
728.40 1.562693
728.50 1.562664
728.60 1.562635
728.70 1.562606
728.80 1.562577
728.90 1.562548
729.00 1.562605
729.10 1.562708
729.20 1.562812
729.30 1.562916
729.40 1.563019
729.50 1.563122
729.60 1.563139
729.70 1.563109
729.80 1.563079
729.90 1.563049
730.00 1.563019
730.10 1.562989
730.20 1.562959
730.30 1.562929
730.40 1.562899
730.50 1.562869
730.60 1.562839
730.70 1.562809
730.80 1.562778
730.90 1.562748
731.00 1.562718
731.10 1.562687
731.20 1.562657
731.30 1.562626
731.40 1.562596
731.50 1.562565
731.60 1.562535
731.70 1.562504
731.80 1.562473
731.90 1.562442
732.00 1.562412
732.10 1.562381
732.20 1.562367
732.30 1.562363
732.40 1.562358
732.50 1.562353
732.60 1.562349
732.70 1.562344
732.80 1.562339
732.90 1.562334
733.00 1.562329
733.10 1.562324
733.20 1.562319
733.30 1.562314
733.40 1.562309
733.50 1.562304
733.60 1.562299
733.70 1.562267
733.80 1.562222
733.90 1.562177
734.00 1.562132
734.10 1.562086
734.20 1.562041
734.30 1.561996
734.40 1.56195
734.50 1.561905
734.60 1.56186
734.70 1.561814
734.80 1.561769
734.90 1.561723
735.00 1.561677
735.10 1.561632
735.20 1.561586
735.30 1.561547
735.40 1.56158
735.50 1.561613
735.60 1.561645
735.70 1.561646
735.80 1.561629
735.90 1.561613
736.00 1.561596
736.10 1.561579
736.20 1.561562
736.30 1.561545
736.40 1.561528
736.50 1.561511
736.60 1.561493
736.70 1.561476
736.80 1.561459
736.90 1.561442
737.00 1.561424
737.10 1.561407
737.20 1.56139
737.30 1.561372
737.40 1.561355
737.50 1.561337
737.60 1.561319
737.70 1.561302
737.80 1.561284
737.90 1.561266
738.00 1.561248
738.10 1.56123
738.20 1.561207
738.30 1.561182
738.40 1.561156
738.50 1.56113
738.60 1.561104
738.70 1.561078
738.80 1.561052
738.90 1.561026
739.00 1.561
739.10 1.560974
739.20 1.560948
739.30 1.560922
739.40 1.560895
739.50 1.560869
739.60 1.560843
739.70 1.560816
739.80 1.56079
739.90 1.560764
740.00 1.560737
740.10 1.56071
740.20 1.560684
740.30 1.560657
740.40 1.560631
740.50 1.560604
740.60 1.560577
740.70 1.56055
740.80 1.560524
740.90 1.560497
741.00 1.56047
741.10 1.560443
741.20 1.560416
741.30 1.560389
741.40 1.560362
741.50 1.560334
741.60 1.560307
741.70 1.56028
741.80 1.560253
741.90 1.560225
742.00 1.560198
742.10 1.560171
742.20 1.560143
742.30 1.560116
742.40 1.560088
742.50 1.560061
742.60 1.560033
742.70 1.559994
742.80 1.559946
742.90 1.559897
743.00 1.559849
743.10 1.559801
743.20 1.559752
743.30 1.559704
743.40 1.559655
743.50 1.559606
743.60 1.559558
743.70 1.559512
743.80 1.559477
743.90 1.559441
744.00 1.559406
744.10 1.559371
744.20 1.559335
744.30 1.5593
744.40 1.559265
744.50 1.559229
744.60 1.559194
744.70 1.559158
744.80 1.559123
744.90 1.559087
745.00 1.559051
745.10 1.559016
745.20 1.55898
745.30 1.558944
745.40 1.558908
745.50 1.558872
745.60 1.558836
745.70 1.558801
745.80 1.558765
745.90 1.558729
746.00 1.558693
746.10 1.558657
746.20 1.55862
746.30 1.558584
746.40 1.558548
746.50 1.558512
746.60 1.558476
746.70 1.558439
746.80 1.558403
746.90 1.558367
747.00 1.55833
747.10 1.558294
747.20 1.558257
747.30 1.558221
747.40 1.558184
747.50 1.558148
747.60 1.558111
747.70 1.558075
747.80 1.558038
747.90 1.558001
748.00 1.557964
748.10 1.557928
748.20 1.557891
748.30 1.557854
748.40 1.557817
748.50 1.55778
748.60 1.557743
748.70 1.557706
748.80 1.557669
748.90 1.557632
749.00 1.557595
749.10 1.557558
749.20 1.557521
749.30 1.557483
749.40 1.557446
749.50 1.557409
749.60 1.557371
749.70 1.557334
749.80 1.557297
749.90 1.557259
750.00 1.557222
750.10 1.55718
750.20 1.557127
750.30 1.557074
750.40 1.557021
750.50 1.556967
750.60 1.556914
750.70 1.556861
750.80 1.556808
750.90 1.556754
751.00 1.556701
751.10 1.556648
751.20 1.556594
751.30 1.556541
751.40 1.556488
751.50 1.556434
751.60 1.556381
751.70 1.556327
751.80 1.556274
751.90 1.55622
752.00 1.556167
752.10 1.556113
752.20 1.556059
752.30 1.556006
752.40 1.555952
752.50 1.555898
752.60 1.555844
752.70 1.555791
752.80 1.555737
752.90 1.555683
753.00 1.555629
753.10 1.555575
753.20 1.555522
753.30 1.555468
753.40 1.555414
753.50 1.55536
753.60 1.555306
753.70 1.555252
753.80 1.555198
753.90 1.555159
754.00 1.555125
754.10 1.555091
754.20 1.555056
754.30 1.555022
754.40 1.554988
754.50 1.554953
754.60 1.554919
754.70 1.554884
754.80 1.55485
754.90 1.554815
755.00 1.554781
755.10 1.554746
755.20 1.554712
755.30 1.554677
755.40 1.554642
755.50 1.554608
755.60 1.554573
755.70 1.554538
755.80 1.554503
755.90 1.554468
756.00 1.554433
756.10 1.554398
756.20 1.554363
756.30 1.554328
756.40 1.554293
756.50 1.554258
756.60 1.554223
756.70 1.554188
756.80 1.554153
756.90 1.554117
757.00 1.554082
757.10 1.554047
757.20 1.554011
757.30 1.553976
757.40 1.553941
757.50 1.553905
757.60 1.553863
757.70 1.553804
757.80 1.553746
757.90 1.553687
758.00 1.553628
758.10 1.553569
758.20 1.55351
758.30 1.553451
758.40 1.553392
758.50 1.553333
758.60 1.553274
758.70 1.553215
758.80 1.553156
758.90 1.553097
759.00 1.553038
759.10 1.552979
759.20 1.55292
759.30 1.55286
759.40 1.552801
759.50 1.552742
759.60 1.552683
759.70 1.552624
759.80 1.552564
759.90 1.552505
760.00 1.552446
760.10 1.552386
760.20 1.552327
760.30 1.552267
760.40 1.552208
760.50 1.552149
760.60 1.552089
760.70 1.55203
760.80 1.55197
760.90 1.551911
761.00 1.551851
761.10 1.551792
761.20 1.551732
761.30 1.551672
761.40 1.551613
761.50 1.551553
761.60 1.551493
761.70 1.551434
761.80 1.551374
761.90 1.551314
762.00 1.551254
762.10 1.551195
762.20 1.551135
762.30 1.551075
762.40 1.551015
762.50 1.550955
762.60 1.550895
762.70 1.550835
762.80 1.550775
762.90 1.550715
763.00 1.550655
763.10 1.550595
763.20 1.550535
763.30 1.550475
763.40 1.550415
763.50 1.550355
763.60 1.550295
763.70 1.550235
763.80 1.550175
763.90 1.550115
764.00 1.550054
764.10 1.549994
764.20 1.549934
764.30 1.549874
764.40 1.549813
764.50 1.549753
764.60 1.549693
764.70 1.549632
764.80 1.549572
764.90 1.549511
765.00 1.549451
765.10 1.549391
765.20 1.549328
765.30 1.549264
765.40 1.549201
765.50 1.549137
765.60 1.549073
765.70 1.549009
765.80 1.548945
765.90 1.548881
766.00 1.548817
766.10 1.548752
766.20 1.548688
766.30 1.548624
766.40 1.54856
766.50 1.548496
766.60 1.548432
766.70 1.548368
766.80 1.548303
766.90 1.548239
767.00 1.548175
767.10 1.548111
767.20 1.548046
767.30 1.547982
767.40 1.547918
767.50 1.547854
767.60 1.547789
767.70 1.547725
767.80 1.54766
767.90 1.547596
768.00 1.547532
768.10 1.547467
768.20 1.547403
768.30 1.547338
768.40 1.547274
768.50 1.547209
768.60 1.547145
768.70 1.54708
768.80 1.547016
768.90 1.546951
769.00 1.546886
769.10 1.546822
769.20 1.546757
769.30 1.546692
769.40 1.546628
769.50 1.546563
769.60 1.546498
769.70 1.546433
769.80 1.546369
769.90 1.546304
770.00 1.546239
770.10 1.546174
770.20 1.546109
770.30 1.546045
770.40 1.54598
770.50 1.545915
770.60 1.54585
770.70 1.545785
770.80 1.54572
770.90 1.545655
771.00 1.54559
771.10 1.545525
771.20 1.54546
771.30 1.545395
771.40 1.54533
771.50 1.545265
771.60 1.5452
771.70 1.545135
771.80 1.54507
771.90 1.545004
772.00 1.544939
772.10 1.544874
772.20 1.544809
772.30 1.544744
772.40 1.544678
772.50 1.544613
772.60 1.544548
772.70 1.544483
772.80 1.544417
772.90 1.544339
773.00 1.544262
773.10 1.544184
773.20 1.544106
773.30 1.544028
773.40 1.54395
773.50 1.543872
773.60 1.543794
773.70 1.543717
773.80 1.543639
773.90 1.543561
774.00 1.543483
774.10 1.543405
774.20 1.543327
774.30 1.543249
774.40 1.543171
774.50 1.543093
774.60 1.543015
774.70 1.542937
774.80 1.542859
774.90 1.542781
775.00 1.542703
775.10 1.542625
775.20 1.542547
775.30 1.542469
775.40 1.542391
775.50 1.542312
775.60 1.542234
775.70 1.542156
775.80 1.542078
775.90 1.542
776.00 1.541922
776.10 1.541844
776.20 1.541765
776.30 1.541687
776.40 1.541609
776.50 1.541531
776.60 1.541453
776.70 1.541374
776.80 1.541296
776.90 1.541218
777.00 1.54114
777.10 1.541061
777.20 1.540983
777.30 1.540905
777.40 1.540826
777.50 1.540748
777.60 1.54067
777.70 1.540591
777.80 1.540513
777.90 1.540435
778.00 1.540356
778.10 1.540278
778.20 1.5402
778.30 1.540121
778.40 1.540043
778.50 1.539964
778.60 1.539886
778.70 1.539807
778.80 1.539729
778.90 1.53965
779.00 1.539572
779.10 1.539494
779.20 1.539415
779.30 1.539337
779.40 1.539258
779.50 1.539179
779.60 1.539101
779.70 1.539022
779.80 1.538944
779.90 1.538865
780.00 1.538787
780.10 1.538708
780.20 1.538629
780.30 1.538551
780.40 1.538472
780.50 1.538394
780.60 1.538311
780.70 1.538227
780.80 1.538143
780.90 1.538059
781.00 1.537975
781.10 1.537891
781.20 1.537807
781.30 1.537723
781.40 1.53764
781.50 1.537556
781.60 1.537472
781.70 1.537388
781.80 1.537304
781.90 1.53722
782.00 1.537135
782.10 1.537051
782.20 1.536967
782.30 1.536883
782.40 1.536799
782.50 1.536715
782.60 1.536631
782.70 1.536547
782.80 1.536463
782.90 1.536379
783.00 1.536295
783.10 1.536211
783.20 1.536127
783.30 1.536043
783.40 1.535958
783.50 1.535874
783.60 1.53579
783.70 1.535706
783.80 1.535622
783.90 1.535538
784.00 1.535454
784.10 1.535369
784.20 1.535285
784.30 1.535201
784.40 1.535117
784.50 1.535033
784.60 1.53495
784.70 1.53487
784.80 1.53479
784.90 1.53471
785.00 1.534631
785.10 1.534551
785.20 1.534471
785.30 1.534391
785.40 1.534311
785.50 1.534231
785.60 1.534152
785.70 1.534072
785.80 1.533992
785.90 1.533912
786.00 1.533832
786.10 1.533752
786.20 1.533672
786.30 1.533592
786.40 1.533512
786.50 1.533432
786.60 1.533352
786.70 1.533273
786.80 1.533193
786.90 1.533113
787.00 1.533033
787.10 1.532953
787.20 1.532873
787.30 1.532793
787.40 1.532713
787.50 1.532633
787.60 1.532553
787.70 1.532472
787.80 1.532392
787.90 1.532312
788.00 1.532232
788.10 1.532152
788.20 1.532072
788.30 1.531992
788.40 1.531903
788.50 1.531808
788.60 1.531714
788.70 1.53162
788.80 1.531526
788.90 1.531432
789.00 1.531338
789.10 1.531244
789.20 1.53115
789.30 1.531055
789.40 1.530961
789.50 1.530867
789.60 1.530773
789.70 1.530679
789.80 1.530585
789.90 1.530491
790.00 1.530396
790.10 1.530302
790.20 1.530208
790.30 1.530114
790.40 1.53002
790.50 1.529926
790.60 1.529832
790.70 1.529737
790.80 1.529643
790.90 1.529549
791.00 1.529455
791.10 1.529361
791.20 1.529267
791.30 1.529173
791.40 1.529078
791.50 1.528984
791.60 1.52889
791.70 1.528796
791.80 1.528702
791.90 1.528608
792.00 1.528513
792.10 1.528419
792.20 1.528325
792.30 1.528231
792.40 1.528137
792.50 1.528043
792.60 1.527949
792.70 1.527855
792.80 1.527761
792.90 1.527666
793.00 1.527572
793.10 1.527478
793.20 1.527384
793.30 1.52729
793.40 1.527196
793.50 1.527102
793.60 1.527008
793.70 1.526914
793.80 1.526819
793.90 1.526725
794.00 1.526631
794.10 1.526537
794.20 1.526443
794.30 1.526349
794.40 1.526255
794.50 1.526161
794.60 1.526067
794.70 1.525972
794.80 1.525878
794.90 1.525784
795.00 1.52569
795.10 1.525596
795.20 1.525502
795.30 1.525408
795.40 1.525314
795.50 1.525219
795.60 1.525125
795.70 1.525031
795.80 1.524937
795.90 1.524843
796.00 1.524749
796.10 1.524655
796.20 1.524561
796.30 1.524464
796.40 1.524367
796.50 1.52427
796.60 1.524173
796.70 1.524076
796.80 1.523979
796.90 1.523882
797.00 1.523785
797.10 1.523688
797.20 1.523591
797.30 1.523494
797.40 1.523397
797.50 1.5233
797.60 1.523203
797.70 1.523106
797.80 1.523009
797.90 1.522912
798.00 1.522814
798.10 1.522717
798.20 1.52262
798.30 1.522523
798.40 1.522426
798.50 1.522329
798.60 1.522232
798.70 1.522135
798.80 1.522038
798.90 1.521941
799.00 1.521844
799.10 1.521747
799.20 1.52165
799.30 1.521553
799.40 1.521456
799.50 1.521359
799.60 1.521262
799.70 1.521165
799.80 1.521068
799.90 1.520971
800.00 1.520874
800.10 1.520777
800.20 1.52068
800.30 1.520583
800.40 1.520486
800.50 1.520389
800.60 1.520292
800.70 1.520195
800.80 1.520098
800.90 1.520001
801.00 1.519904
801.10 1.519807
801.20 1.51971
801.30 1.519613
801.40 1.519516
801.50 1.519419
801.60 1.519322
801.70 1.519225
801.80 1.519128
801.90 1.519031
802.00 1.518934
802.10 1.518837
802.20 1.51874
802.30 1.518643
802.40 1.518546
802.50 1.518449
802.60 1.518352
802.70 1.518256
802.80 1.518159
802.90 1.518062
803.00 1.517965
803.10 1.517868
803.20 1.517771
803.30 1.517674
803.40 1.517577
803.50 1.51748
803.60 1.517383
803.70 1.517286
803.80 1.517189
803.90 1.517092
804.00 1.516995
804.10 1.516898
804.20 1.5168
804.30 1.516701
804.40 1.516601
804.50 1.516501
804.60 1.516401
804.70 1.516302
804.80 1.516202
804.90 1.516102
805.00 1.516003
805.10 1.515903
805.20 1.515803
805.30 1.515703
805.40 1.515604
805.50 1.515504
805.60 1.515404
805.70 1.515305
805.80 1.515205
805.90 1.515105
806.00 1.515005
806.10 1.514906
806.20 1.514806
806.30 1.514706
806.40 1.514607
806.50 1.514507
806.60 1.514407
806.70 1.514308
806.80 1.514208
806.90 1.514108
807.00 1.514009
807.10 1.513909
807.20 1.513809
807.30 1.51371
807.40 1.51361
807.50 1.51351
807.60 1.513411
807.70 1.513311
807.80 1.513211
807.90 1.513112
808.00 1.513012
808.10 1.512913
808.20 1.512813
808.30 1.512697
808.40 1.512581
808.50 1.512465
808.60 1.51235
808.70 1.512234
808.80 1.512118
808.90 1.512002
809.00 1.511887
809.10 1.511771
809.20 1.511655
809.30 1.51154
809.40 1.511424
809.50 1.511308
809.60 1.511193
809.70 1.511077
809.80 1.510962
809.90 1.510846
810.00 1.51073
810.10 1.510615
810.20 1.510499
810.30 1.510384
810.40 1.510268
810.50 1.510152
810.60 1.510037
810.70 1.509921
810.80 1.509806
810.90 1.50969
811.00 1.509575
811.10 1.509459
811.20 1.509344
811.30 1.509229
811.40 1.509113
811.50 1.508998
811.60 1.508882
811.70 1.508767
811.80 1.508651
811.90 1.508536
812.00 1.508421
812.10 1.508305
812.20 1.50819
812.30 1.508082
812.40 1.507977
812.50 1.507871
812.60 1.507766
812.70 1.50766
812.80 1.507555
812.90 1.507449
813.00 1.507344
813.10 1.507238
813.20 1.507133
813.30 1.507027
813.40 1.506922
813.50 1.506816
813.60 1.506711
813.70 1.506605
813.80 1.5065
813.90 1.506394
814.00 1.506289
814.10 1.506183
814.20 1.506078
814.30 1.505972
814.40 1.505867
814.50 1.505762
814.60 1.505656
814.70 1.505551
814.80 1.505445
814.90 1.50534
815.00 1.505234
815.10 1.505129
815.20 1.505024
815.30 1.504918
815.40 1.504813
815.50 1.504708
815.60 1.504602
815.70 1.504497
815.80 1.504392
815.90 1.504286
816.00 1.504181
816.10 1.504076
816.20 1.50397
816.30 1.503865
816.40 1.50376
816.50 1.503654
816.60 1.503549
816.70 1.503444
816.80 1.503338
816.90 1.503233
817.00 1.503128
817.10 1.503023
817.20 1.502917
817.30 1.502812
817.40 1.502707
817.50 1.502602
817.60 1.502496
817.70 1.502391
817.80 1.502286
817.90 1.502181
818.00 1.502076
818.10 1.50197
818.20 1.501865
818.30 1.50176
818.40 1.501655
818.50 1.50155
818.60 1.501444
818.70 1.501339
818.80 1.501234
818.90 1.501129
819.00 1.501024
819.10 1.500919
819.20 1.500814
819.30 1.500686
819.40 1.500542
819.50 1.500399
819.60 1.500255
819.70 1.500112
819.80 1.499969
819.90 1.499825
820.00 1.499682
820.10 1.499519
820.20 1.499396
820.30 1.499304
820.40 1.499196
820.50 1.499076
820.60 1.498957
820.70 1.498837
820.80 1.498718
820.90 1.498598
821.00 1.498479
821.10 1.498359
821.20 1.49824
821.30 1.49812
821.40 1.498001
821.50 1.497882
821.60 1.497762
821.70 1.497643
821.80 1.497523
821.90 1.497404
822.00 1.497285
822.10 1.497165
822.20 1.497046
822.30 1.496927
822.40 1.496808
822.50 1.496688
822.60 1.496569
822.70 1.49645
822.80 1.496331
822.90 1.496211
823.00 1.496092
823.10 1.495973
823.20 1.495854
823.30 1.495735
823.40 1.495615
823.50 1.495496
823.60 1.495377
823.70 1.495258
823.80 1.495139
823.90 1.49502
824.00 1.494901
824.10 1.494782
824.20 1.494663
824.30 1.494544
824.40 1.494425
824.50 1.494306
824.60 1.494187
824.70 1.494068
824.80 1.493949
824.90 1.49383
825.00 1.493711
825.10 1.493592
825.20 1.493473
825.30 1.493354
825.40 1.493235
825.50 1.493117
825.60 1.492998
825.70 1.492879
825.80 1.49276
825.90 1.492641
826.00 1.492523
826.10 1.492404
826.20 1.492285
826.30 1.492166
826.40 1.492048
826.50 1.491929
826.60 1.491811
826.70 1.491692
826.80 1.491574
826.90 1.491455
827.00 1.491337
827.10 1.491219
827.20 1.4911
827.30 1.490982
827.40 1.490863
827.50 1.490745
827.60 1.490627
827.70 1.490508
827.80 1.49039
827.90 1.490272
828.00 1.490153
828.10 1.490035
828.20 1.489917
828.30 1.489798
828.40 1.48968
828.50 1.489562
828.60 1.489438
828.70 1.48931
828.80 1.489182
828.90 1.489054
829.00 1.488926
829.10 1.488798
829.20 1.48867
829.30 1.488541
829.40 1.488413
829.50 1.488285
829.60 1.488157
829.70 1.488029
829.80 1.487901
829.90 1.487773
830.00 1.487646
830.10 1.487518
830.20 1.48739
830.30 1.487262
830.40 1.487134
830.50 1.487006
830.60 1.486878
830.70 1.486751
830.80 1.486623
830.90 1.486495
831.00 1.486367
831.10 1.486239
831.20 1.486112
831.30 1.485984
831.40 1.485856
831.50 1.485729
831.60 1.485601
831.70 1.485473
831.80 1.485346
831.90 1.485218
832.00 1.485091
832.10 1.484963
832.20 1.484836
832.30 1.484708
832.40 1.484581
832.50 1.484453
832.60 1.484326
832.70 1.484198
832.80 1.484071
832.90 1.483943
833.00 1.483816
833.10 1.483689
833.20 1.483561
833.30 1.483434
833.40 1.483307
833.50 1.483179
833.60 1.483052
833.70 1.482925
833.80 1.482798
833.90 1.48267
834.00 1.482543
834.10 1.482416
834.20 1.482289
834.30 1.482162
834.40 1.482035
834.50 1.481908
834.60 1.48178
834.70 1.481653
834.80 1.481526
834.90 1.481399
835.00 1.481272
835.10 1.481145
835.20 1.481018
835.30 1.480891
835.40 1.480764
835.50 1.480637
835.60 1.480511
835.70 1.480384
835.80 1.480257
835.90 1.48013
836.00 1.480003
836.10 1.479876
836.20 1.47975
836.30 1.479623
836.40 1.479496
836.50 1.479369
836.60 1.479243
836.70 1.479116
836.80 1.478989
836.90 1.478866
837.00 1.478744
837.10 1.478623
837.20 1.478501
837.30 1.478379
837.40 1.478258
837.50 1.478136
837.60 1.478015
837.70 1.477893
837.80 1.477772
837.90 1.47765
838.00 1.477529
838.10 1.477407
838.20 1.477286
838.30 1.477164
838.40 1.477043
838.50 1.476921
838.60 1.4768
838.70 1.476679
838.80 1.476557
838.90 1.476436
839.00 1.476314
839.10 1.476193
839.20 1.476072
839.30 1.475951
839.40 1.475829
839.50 1.475708
839.60 1.475587
839.70 1.475466
839.80 1.475344
839.90 1.475223
840.00 1.475102
840.10 1.474981
840.20 1.47486
840.30 1.474739
840.40 1.474617
840.50 1.474496
840.60 1.474375
840.70 1.474254
840.80 1.474133
840.90 1.474012
841.00 1.473891
841.10 1.473758
841.20 1.473622
841.30 1.473487
841.40 1.473352
841.50 1.473216
841.60 1.473081
841.70 1.472946
841.80 1.472811
841.90 1.472675
842.00 1.47254
842.10 1.472405
842.20 1.47227
842.30 1.472135
842.40 1.472
842.50 1.471865
842.60 1.47173
842.70 1.471595
842.80 1.47146
842.90 1.471325
843.00 1.47119
843.10 1.471055
843.20 1.47092
843.30 1.470785
843.40 1.47065
843.50 1.470515
843.60 1.47038
843.70 1.470245
843.80 1.470111
843.90 1.469976
844.00 1.469841
844.10 1.469706
844.20 1.469572
844.30 1.469437
844.40 1.469302
844.50 1.469168
844.60 1.469033
844.70 1.468899
844.80 1.468764
844.90 1.46863
845.00 1.468495
845.10 1.46836
845.20 1.468226
845.30 1.46809
845.40 1.467953
845.50 1.467817
845.60 1.46768
845.70 1.467544
845.80 1.467407
845.90 1.467271
846.00 1.467135
846.10 1.466998
846.20 1.466862
846.30 1.466726
846.40 1.466589
846.50 1.466453
846.60 1.466317
846.70 1.466181
846.80 1.466045
846.90 1.465909
847.00 1.465772
847.10 1.465636
847.20 1.4655
847.30 1.465364
847.40 1.465228
847.50 1.465092
847.60 1.464956
847.70 1.46482
847.80 1.464684
847.90 1.464548
848.00 1.464413
848.10 1.464277
848.20 1.464141
848.30 1.464005
848.40 1.463869
848.50 1.463733
848.60 1.463598
848.70 1.463462
848.80 1.463326
848.90 1.463191
849.00 1.463055
849.10 1.462919
849.20 1.462784
849.30 1.462648
849.40 1.462513
849.50 1.462377
849.60 1.462242
849.70 1.462106
849.80 1.461971
849.90 1.461835
850.00 1.4617
850.10 1.461564
850.20 1.461429
850.30 1.461294
850.40 1.461158
850.50 1.461023
850.60 1.460888
850.70 1.460753
850.80 1.460617
850.90 1.460482
851.00 1.460347
851.10 1.460212
851.20 1.460077
851.30 1.459942
851.40 1.459806
851.50 1.459671
851.60 1.459536
851.70 1.459401
851.80 1.459266
851.90 1.459131
852.00 1.458996
852.10 1.458862
852.20 1.458727
852.30 1.458592
852.40 1.458457
852.50 1.458322
852.60 1.458187
852.70 1.458052
852.80 1.457918
852.90 1.457783
853.00 1.457648
853.10 1.457514
853.20 1.457379
853.30 1.457244
853.40 1.45711
853.50 1.456975
853.60 1.45684
853.70 1.456705
853.80 1.456568
853.90 1.456432
854.00 1.456295
854.10 1.456159
854.20 1.456022
854.30 1.455886
854.40 1.455749
854.50 1.455613
854.60 1.455477
854.70 1.45534
854.80 1.455204
854.90 1.455068
855.00 1.454931
855.10 1.454795
855.20 1.454659
855.30 1.454523
855.40 1.454386
855.50 1.45425
855.60 1.454114
855.70 1.453978
855.80 1.453842
855.90 1.453706
856.00 1.45357
856.10 1.453434
856.20 1.453298
856.30 1.453162
856.40 1.453026
856.50 1.45289
856.60 1.452754
856.70 1.452618
856.80 1.452482
856.90 1.452347
857.00 1.452211
857.10 1.452075
857.20 1.451939
857.30 1.451804
857.40 1.451668
857.50 1.451532
857.60 1.451396
857.70 1.451261
857.80 1.451125
857.90 1.45099
858.00 1.450843
858.10 1.450694
858.20 1.450545
858.30 1.450396
858.40 1.450247
858.50 1.450098
858.60 1.449949
858.70 1.449801
858.80 1.449652
858.90 1.449503
859.00 1.449354
859.10 1.449205
859.20 1.449057
859.30 1.448908
859.40 1.448759
859.50 1.448611
859.60 1.448462
859.70 1.448314
859.80 1.448165
859.90 1.448017
860.00 1.447868
860.10 1.44772
860.20 1.447571
860.30 1.447423
860.40 1.447275
860.50 1.447126
860.60 1.446978
860.70 1.44683
860.80 1.446681
860.90 1.446533
861.00 1.446385
861.10 1.446237
861.20 1.446089
861.30 1.445941
861.40 1.445793
861.50 1.445645
861.60 1.445497
861.70 1.445349
861.80 1.445201
861.90 1.445053
862.00 1.444905
862.10 1.444757
862.20 1.44461
862.30 1.444467
862.40 1.444324
862.50 1.444181
862.60 1.444038
862.70 1.443895
862.80 1.443752
862.90 1.443609
863.00 1.443466
863.10 1.443323
863.20 1.443181
863.30 1.443038
863.40 1.442895
863.50 1.442753
863.60 1.44261
863.70 1.442467
863.80 1.442325
863.90 1.442182
864.00 1.442039
864.10 1.441897
864.20 1.441754
864.30 1.441612
864.40 1.441469
864.50 1.441327
864.60 1.441185
864.70 1.441042
864.80 1.4409
864.90 1.440757
865.00 1.440615
865.10 1.440473
865.20 1.440331
865.30 1.440188
865.40 1.440046
865.50 1.439904
865.60 1.439762
865.70 1.43962
865.80 1.439478
865.90 1.439336
866.00 1.439194
866.10 1.439052
866.20 1.43891
866.30 1.438768
866.40 1.438626
866.50 1.438484
866.60 1.438342
866.70 1.4382
866.80 1.438059
866.90 1.437917
867.00 1.437775
867.10 1.437633
867.20 1.437492
867.30 1.43735
867.40 1.437208
867.50 1.437067
867.60 1.436925
867.70 1.436784
867.80 1.436642
867.90 1.4365
868.00 1.436359
868.10 1.436218
868.20 1.436076
868.30 1.435935
868.40 1.435793
868.50 1.435652
868.60 1.435511
868.70 1.435369
868.80 1.435228
868.90 1.435087
869.00 1.434946
869.10 1.434804
869.20 1.434663
869.30 1.434522
869.40 1.434381
869.50 1.43424
869.60 1.434099
869.70 1.433958
869.80 1.433817
869.90 1.433676
870.00 1.433535
870.10 1.433394
870.20 1.433253
870.30 1.433112
870.40 1.432972
870.50 1.432831
870.60 1.43269
870.70 1.432549
870.80 1.432408
870.90 1.43226
871.00 1.432111
871.10 1.431962
871.20 1.431814
871.30 1.431665
871.40 1.431516
871.50 1.431367
871.60 1.431218
871.70 1.43107
871.80 1.430921
871.90 1.430772
872.00 1.430624
872.10 1.430475
872.20 1.430326
872.30 1.430178
872.40 1.430029
872.50 1.429881
872.60 1.429732
872.70 1.429584
872.80 1.429435
872.90 1.429287
873.00 1.429139
873.10 1.42899
873.20 1.428842
873.30 1.428694
873.40 1.428546
873.50 1.428397
873.60 1.428249
873.70 1.428101
873.80 1.427953
873.90 1.427805
874.00 1.427657
874.10 1.427509
874.20 1.427361
874.30 1.427213
874.40 1.427065
874.50 1.426917
874.60 1.426769
874.70 1.426622
874.80 1.426474
874.90 1.426326
875.00 1.426178
875.10 1.426031
875.20 1.425883
875.30 1.425735
875.40 1.425588
875.50 1.42544
875.60 1.425292
875.70 1.425145
875.80 1.424997
875.90 1.42485
876.00 1.424703
876.10 1.424555
876.20 1.424408
876.30 1.42426
876.40 1.424113
876.50 1.423966
876.60 1.423819
876.70 1.423671
876.80 1.423524
876.90 1.423377
877.00 1.42323
877.10 1.423083
877.20 1.422936
877.30 1.422789
877.40 1.422642
877.50 1.422495
877.60 1.422348
877.70 1.422201
877.80 1.422054
877.90 1.421907
878.00 1.42176
878.10 1.421613
878.20 1.421467
878.30 1.42132
878.40 1.421173
878.50 1.421027
878.60 1.42088
878.70 1.420733
878.80 1.420587
878.90 1.42044
879.00 1.420294
879.10 1.420147
879.20 1.420001
879.30 1.419854
879.40 1.419708
879.50 1.419561
879.60 1.419414
879.70 1.419265
879.80 1.419117
879.90 1.418969
880.00 1.418821
880.10 1.418673
880.20 1.418526
880.30 1.418378
880.40 1.41823
880.50 1.418082
880.60 1.417934
880.70 1.417786
880.80 1.417639
880.90 1.417491
881.00 1.417343
881.10 1.417195
881.20 1.417048
881.30 1.4169
881.40 1.416753
881.50 1.416605
881.60 1.416458
881.70 1.41631
881.80 1.416163
881.90 1.416015
882.00 1.415868
882.10 1.415721
882.20 1.415573
882.30 1.415426
882.40 1.415279
882.50 1.415131
882.60 1.414984
882.70 1.414837
882.80 1.41469
882.90 1.414543
883.00 1.414396
883.10 1.414249
883.20 1.414102
883.30 1.413955
883.40 1.413808
883.50 1.413661
883.60 1.413514
883.70 1.413367
883.80 1.41322
883.90 1.413073
884.00 1.412916
884.10 1.412757
884.20 1.412598
884.30 1.412439
884.40 1.41228
884.50 1.412121
884.60 1.411963
884.70 1.411804
884.80 1.411645
884.90 1.411486
885.00 1.411327
885.10 1.411169
885.20 1.41101
885.30 1.410851
885.40 1.410693
885.50 1.410534
885.60 1.410376
885.70 1.410217
885.80 1.410059
885.90 1.4099
886.00 1.409742
886.10 1.409584
886.20 1.409425
886.30 1.409267
886.40 1.409109
886.50 1.408951
886.60 1.408792
886.70 1.408634
886.80 1.408476
886.90 1.408318
887.00 1.40816
887.10 1.408002
887.20 1.407844
887.30 1.407686
887.40 1.407528
887.50 1.407371
887.60 1.407213
887.70 1.407055
887.80 1.406897
887.90 1.40674
888.00 1.406582
888.10 1.406424
888.20 1.406267
888.30 1.406109
888.40 1.405955
888.50 1.405802
888.60 1.405649
888.70 1.405496
888.80 1.405344
888.90 1.405191
889.00 1.405038
889.10 1.404885
889.20 1.404732
889.30 1.404579
889.40 1.404427
889.50 1.404274
889.60 1.404121
889.70 1.403969
889.80 1.403816
889.90 1.403663
890.00 1.403511
890.10 1.403358
890.20 1.403206
890.30 1.403054
890.40 1.402901
890.50 1.402749
890.60 1.402596
890.70 1.402444
890.80 1.402292
890.90 1.40214
891.00 1.401987
891.10 1.401835
891.20 1.401683
891.30 1.401531
891.40 1.401379
891.50 1.401227
891.60 1.401075
891.70 1.400923
891.80 1.400771
891.90 1.400619
892.00 1.400467
892.10 1.400315
892.20 1.400164
892.30 1.400012
892.40 1.39986
892.50 1.399708
892.60 1.399557
892.70 1.399405
892.80 1.399253
892.90 1.399102
893.00 1.39895
893.10 1.398799
893.20 1.398647
893.30 1.398496
893.40 1.398344
893.50 1.398193
893.60 1.398042
893.70 1.39789
893.80 1.397739
893.90 1.397588
894.00 1.397437
894.10 1.397285
894.20 1.397134
894.30 1.396983
894.40 1.396832
894.50 1.396681
894.60 1.39653
894.70 1.396379
894.80 1.396228
894.90 1.396077
895.00 1.395926
895.10 1.395775
895.20 1.395625
895.30 1.395474
895.40 1.395323
895.50 1.395172
895.60 1.395022
895.70 1.394871
895.80 1.39472
895.90 1.39457
896.00 1.394419
896.10 1.394269
896.20 1.394118
896.30 1.393968
896.40 1.393817
896.50 1.393667
896.60 1.393516
896.70 1.393366
896.80 1.393216
896.90 1.393065
897.00 1.392915
897.10 1.392765
897.20 1.392614
897.30 1.392445
897.40 1.392275
897.50 1.392106
897.60 1.391937
897.70 1.391768
897.80 1.391599
897.90 1.391429
898.00 1.39126
898.10 1.391091
898.20 1.390922
898.30 1.390753
898.40 1.390584
898.50 1.390416
898.60 1.390247
898.70 1.390078
898.80 1.389909
898.90 1.38974
899.00 1.389572
899.10 1.389403
899.20 1.389235
899.30 1.389066
899.40 1.388898
899.50 1.388729
899.60 1.388561
899.70 1.388392
899.80 1.388224
899.90 1.388056
900.00 1.387887
900.10 1.387719
900.20 1.387551
900.30 1.387383
900.40 1.387215
900.50 1.387047
900.60 1.386879
900.70 1.386711
900.80 1.386543
900.90 1.386375
901.00 1.386207
901.10 1.386039
901.20 1.385871
901.30 1.385704
901.40 1.385536
901.50 1.385368
901.60 1.385201
901.70 1.385035
901.80 1.384879
901.90 1.384723
902.00 1.384568
902.10 1.384412
902.20 1.384256
902.30 1.3841
902.40 1.383945
902.50 1.383789
902.60 1.383633
902.70 1.383478
902.80 1.383322
902.90 1.383167
903.00 1.383011
903.10 1.382856
903.20 1.3827
903.30 1.382545
903.40 1.38239
903.50 1.382234
903.60 1.382079
903.70 1.381924
903.80 1.381769
903.90 1.381613
904.00 1.381458
904.10 1.381303
904.20 1.381148
904.30 1.380993
904.40 1.380838
904.50 1.380683
904.60 1.380528
904.70 1.380373
904.80 1.380218
904.90 1.380064
905.00 1.379909
905.10 1.379754
905.20 1.379599
905.30 1.379445
905.40 1.37929
905.50 1.379135
905.60 1.378981
905.70 1.378826
905.80 1.378672
905.90 1.378517
906.00 1.378363
906.10 1.378209
906.20 1.378054
906.30 1.377898
906.40 1.377742
906.50 1.377586
906.60 1.377431
906.70 1.377275
906.80 1.377119
906.90 1.376964
907.00 1.376808
907.10 1.376653
907.20 1.376497
907.30 1.376342
907.40 1.376186
907.50 1.376031
907.60 1.375875
907.70 1.37572
907.80 1.375565
907.90 1.375409
908.00 1.375254
908.10 1.375099
908.20 1.374944
908.30 1.374789
908.40 1.374634
908.50 1.374479
908.60 1.374324
908.70 1.374169
908.80 1.374014
908.90 1.373859
909.00 1.373704
909.10 1.373549
909.20 1.373394
909.30 1.37324
909.40 1.373085
909.50 1.37293
909.60 1.372775
909.70 1.372621
909.80 1.372466
909.90 1.372312
910.00 1.372157
910.10 1.372003
910.20 1.371848
910.30 1.371694
910.40 1.371539
910.50 1.371385
910.60 1.371231
910.70 1.371076
910.80 1.370911
910.90 1.370745
911.00 1.37058
911.10 1.370414
911.20 1.370249
911.30 1.370084
911.40 1.369918
911.50 1.369753
911.60 1.369588
911.70 1.369423
911.80 1.369258
911.90 1.369092
912.00 1.368927
912.10 1.368762
912.20 1.368597
912.30 1.368432
912.40 1.368267
912.50 1.368103
912.60 1.367938
912.70 1.367773
912.80 1.367608
912.90 1.367444
913.00 1.367279
913.10 1.367114
913.20 1.36695
913.30 1.366785
913.40 1.366621
913.50 1.366456
913.60 1.366292
913.70 1.366127
913.80 1.365963
913.90 1.365799
914.00 1.365634
914.10 1.36547
914.20 1.365306
914.30 1.365142
914.40 1.364978
914.50 1.364813
914.60 1.364649
914.70 1.364485
914.80 1.364321
914.90 1.364158
915.00 1.363994
915.10 1.36383
915.20 1.363666
915.30 1.363501
915.40 1.363336
915.50 1.363171
915.60 1.363006
915.70 1.362841
915.80 1.362676
915.90 1.362512
916.00 1.362347
916.10 1.362182
916.20 1.362017
916.30 1.361853
916.40 1.361688
916.50 1.361523
916.60 1.361359
916.70 1.361194
916.80 1.36103
916.90 1.360865
917.00 1.360701
917.10 1.360536
917.20 1.360372
917.30 1.360208
917.40 1.360043
917.50 1.359879
917.60 1.359715
917.70 1.359551
917.80 1.359387
917.90 1.359223
918.00 1.359059
918.10 1.358895
918.20 1.358731
918.30 1.358567
918.40 1.358403
918.50 1.358239
918.60 1.358075
918.70 1.357912
918.80 1.357748
918.90 1.357584
919.00 1.357421
919.10 1.357257
919.20 1.357093
919.30 1.35693
919.40 1.356766
919.50 1.356603
919.60 1.35644
919.70 1.356276
919.80 1.356113
919.90 1.35595
920.00 1.355786
920.10 1.355623
920.20 1.35546
920.30 1.355297
920.40 1.355134
920.50 1.354971
920.60 1.354808
920.70 1.354645
920.80 1.354482
920.90 1.354319
921.00 1.354156
921.10 1.353993
921.20 1.35383
921.30 1.353668
921.40 1.353505
921.50 1.353342
921.60 1.35318
921.70 1.353017
921.80 1.352855
921.90 1.352692
922.00 1.35253
922.10 1.352367
922.20 1.352205
922.30 1.352042
922.40 1.35188
922.50 1.351718
922.60 1.351556
922.70 1.351393
922.80 1.351231
922.90 1.351069
923.00 1.350907
923.10 1.350745
923.20 1.350583
923.30 1.350421
923.40 1.350259
923.50 1.350097
923.60 1.349935
923.70 1.349774
923.80 1.349612
923.90 1.34945
924.00 1.349288
924.10 1.349127
924.20 1.348965
924.30 1.348803
924.40 1.348642
924.50 1.348479
924.60 1.348316
924.70 1.348153
924.80 1.347991
924.90 1.347828
925.00 1.347665
925.10 1.347503
925.20 1.34734
925.30 1.347178
925.40 1.347015
925.50 1.346853
925.60 1.346691
925.70 1.346528
925.80 1.346366
925.90 1.346204
926.00 1.346042
926.10 1.345879
926.20 1.345717
926.30 1.345555
926.40 1.345393
926.50 1.345231
926.60 1.345069
926.70 1.344907
926.80 1.344745
926.90 1.344583
927.00 1.344421
927.10 1.34426
927.20 1.344098
927.30 1.343936
927.40 1.343774
927.50 1.343613
927.60 1.343451
927.70 1.34329
927.80 1.343128
927.90 1.342967
928.00 1.342805
928.10 1.342644
928.20 1.342482
928.30 1.342321
928.40 1.34216
928.50 1.341998
928.60 1.341837
928.70 1.341676
928.80 1.341515
928.90 1.341354
929.00 1.341193
929.10 1.341022
929.20 1.34085
929.30 1.340678
929.40 1.340507
929.50 1.340335
929.60 1.340164
929.70 1.339992
929.80 1.339821
929.90 1.33965
930.00 1.339478
930.10 1.339307
930.20 1.339136
930.30 1.338965
930.40 1.338794
930.50 1.338623
930.60 1.338452
930.70 1.338281
930.80 1.33811
930.90 1.337939
931.00 1.337768
931.10 1.337597
931.20 1.337426
931.30 1.337256
931.40 1.337085
931.50 1.336914
931.60 1.336744
931.70 1.336573
931.80 1.336403
931.90 1.336232
932.00 1.336062
932.10 1.335891
932.20 1.335721
932.30 1.335551
932.40 1.33538
932.50 1.33521
932.60 1.33504
932.70 1.33487
932.80 1.3347
932.90 1.33453
933.00 1.33436
933.10 1.33419
933.20 1.33402
933.30 1.33385
933.40 1.33368
933.50 1.33351
933.60 1.333341
933.70 1.333174
933.80 1.333008
933.90 1.332843
934.00 1.332677
934.10 1.332512
934.20 1.332346
934.30 1.332181
934.40 1.332016
934.50 1.33185
934.60 1.331685
934.70 1.33152
934.80 1.331354
934.90 1.331189
935.00 1.331024
935.10 1.330859
935.20 1.330694
935.30 1.330529
935.40 1.330364
935.50 1.330199
935.60 1.330034
935.70 1.32987
935.80 1.329705
935.90 1.32954
936.00 1.329375
936.10 1.329211
936.20 1.329046
936.30 1.328881
936.40 1.328717
936.50 1.328552
936.60 1.328388
936.70 1.328223
936.80 1.328059
936.90 1.327895
937.00 1.32773
937.10 1.327566
937.20 1.327402
937.30 1.327238
937.40 1.327073
937.50 1.326909
937.60 1.326745
937.70 1.326581
937.80 1.326417
937.90 1.326253
938.00 1.326089
938.10 1.325925
938.20 1.325762
938.30 1.325598
938.40 1.325434
938.50 1.32527
938.60 1.325107
938.70 1.324943
938.80 1.324779
938.90 1.324616
939.00 1.324452
939.10 1.324289
939.20 1.324125
939.30 1.323962
939.40 1.323799
939.50 1.323635
939.60 1.323472
939.70 1.323309
939.80 1.323146
939.90 1.322982
940.00 1.322819
940.10 1.322656
940.20 1.322493
940.30 1.32233
940.40 1.322167
940.50 1.322004
940.60 1.321841
940.70 1.321679
940.80 1.321516
940.90 1.321353
941.00 1.32119
941.10 1.321028
941.20 1.320865
941.30 1.320702
941.40 1.32054
941.50 1.320377
941.60 1.320215
941.70 1.320052
941.80 1.31989
941.90 1.319727
942.00 1.319565
942.10 1.319403
942.20 1.31924
942.30 1.319078
942.40 1.318916
942.50 1.318754
942.60 1.318592
942.70 1.31843
942.80 1.318268
942.90 1.318106
943.00 1.31794
943.10 1.317766
943.20 1.317593
943.30 1.31742
943.40 1.317247
943.50 1.317074
943.60 1.316901
943.70 1.316728
943.80 1.316555
943.90 1.316382
944.00 1.316209
944.10 1.316037
944.20 1.315864
944.30 1.315691
944.40 1.315519
944.50 1.315346
944.60 1.315174
944.70 1.315001
944.80 1.314829
944.90 1.314656
945.00 1.314484
945.10 1.314311
945.20 1.314139
945.30 1.313967
945.40 1.313795
945.50 1.313623
945.60 1.31345
945.70 1.313278
945.80 1.313106
945.90 1.312934
946.00 1.312762
946.10 1.312591
946.20 1.312419
946.30 1.312247
946.40 1.312075
946.50 1.311903
946.60 1.311732
946.70 1.31156
946.80 1.311389
946.90 1.311217
947.00 1.311046
947.10 1.310874
947.20 1.310703
947.30 1.310531
947.40 1.31036
947.50 1.310189
947.60 1.310017
947.70 1.309846
947.80 1.309675
947.90 1.309504
948.00 1.309333
948.10 1.309162
948.20 1.308991
948.30 1.30882
948.40 1.308649
948.50 1.308478
948.60 1.308307
948.70 1.308137
948.80 1.307966
948.90 1.307795
949.00 1.307624
949.10 1.307454
949.20 1.307283
949.30 1.307113
949.40 1.306942
949.50 1.306772
949.60 1.306602
949.70 1.306431
949.80 1.306261
949.90 1.306091
950.00 1.30592
950.10 1.30575
950.20 1.30558
950.30 1.30541
950.40 1.30524
950.50 1.30507
950.60 1.3049
950.70 1.30473
950.80 1.30456
950.90 1.30439
951.00 1.304221
951.10 1.304051
951.20 1.303881
951.30 1.303711
951.40 1.303542
951.50 1.303372
951.60 1.303203
951.70 1.303033
951.80 1.302864
951.90 1.302694
952.00 1.302525
952.10 1.302356
952.20 1.302186
952.30 1.302017
952.40 1.301848
952.50 1.301683
952.60 1.301518
952.70 1.301353
952.80 1.301187
952.90 1.301022
953.00 1.300857
953.10 1.300692
953.20 1.300527
953.30 1.300362
953.40 1.300197
953.50 1.300033
953.60 1.299868
953.70 1.299703
953.80 1.299538
953.90 1.299374
954.00 1.299209
954.10 1.299044
954.20 1.29888
954.30 1.298715
954.40 1.298551
954.50 1.298386
954.60 1.298222
954.70 1.298057
954.80 1.297893
954.90 1.297729
955.00 1.297565
955.10 1.2974
955.20 1.297236
955.30 1.297072
955.40 1.296908
955.50 1.296744
955.60 1.29658
955.70 1.296416
955.80 1.296252
955.90 1.296088
956.00 1.295924
956.10 1.29576
956.20 1.295597
956.30 1.295433
956.40 1.295269
956.50 1.295106
956.60 1.294942
956.70 1.294778
956.80 1.294615
956.90 1.294451
957.00 1.294288
957.10 1.294124
957.20 1.293957
957.30 1.293784
957.40 1.293611
957.50 1.293438
957.60 1.293265
957.70 1.293092
957.80 1.292919
957.90 1.292746
958.00 1.292573
958.10 1.292401
958.20 1.292228
958.30 1.292055
958.40 1.291883
958.50 1.29171
958.60 1.291538
958.70 1.291365
958.80 1.291193
958.90 1.291021
959.00 1.290848
959.10 1.290676
959.20 1.290504
959.30 1.290332
959.40 1.29016
959.50 1.289987
959.60 1.289815
959.70 1.289643
959.80 1.289471
959.90 1.2893
960.00 1.289128
960.10 1.288956
960.20 1.288784
960.30 1.288612
960.40 1.288441
960.50 1.288269
960.60 1.288097
960.70 1.287926
960.80 1.287754
960.90 1.287583
961.00 1.287411
961.10 1.28724
961.20 1.287069
961.30 1.286897
961.40 1.286726
961.50 1.286555
961.60 1.286384
961.70 1.286213
961.80 1.286041
961.90 1.28587
962.00 1.285699
962.10 1.285527
962.20 1.285355
962.30 1.285183
962.40 1.285011
962.50 1.284839
962.60 1.284668
962.70 1.284496
962.80 1.284325
962.90 1.284153
963.00 1.283981
963.10 1.28381
963.20 1.283639
963.30 1.283467
963.40 1.283296
963.50 1.283125
963.60 1.282953
963.70 1.282782
963.80 1.282611
963.90 1.28244
964.00 1.282269
964.10 1.282098
964.20 1.281927
964.30 1.281756
964.40 1.281585
964.50 1.281414
964.60 1.281243
964.70 1.281072
964.80 1.280902
964.90 1.280731
965.00 1.28056
965.10 1.28039
965.20 1.280219
965.30 1.280049
965.40 1.279878
965.50 1.279708
965.60 1.279537
965.70 1.279367
965.80 1.279197
965.90 1.279026
966.00 1.278856
966.10 1.278686
966.20 1.278516
966.30 1.278346
966.40 1.278176
966.50 1.278006
966.60 1.277836
966.70 1.277666
966.80 1.277496
966.90 1.277326
967.00 1.277156
967.10 1.276987
967.20 1.276817
967.30 1.276647
967.40 1.276478
967.50 1.276308
967.60 1.276138
967.70 1.275969
967.80 1.2758
967.90 1.27563
968.00 1.275461
968.10 1.275291
968.20 1.275122
968.30 1.274953
968.40 1.274784
968.50 1.274615
968.60 1.274445
968.70 1.274276
968.80 1.274107
968.90 1.273938
969.00 1.27377
969.10 1.273601
969.20 1.273432
969.30 1.273263
969.40 1.273094
969.50 1.272925
969.60 1.272757
969.70 1.272588
969.80 1.27242
969.90 1.272251
970.00 1.272083
970.10 1.271914
970.20 1.271746
970.30 1.271577
970.40 1.271409
970.50 1.271241
970.60 1.271072
970.70 1.270904
970.80 1.270736
970.90 1.270568
971.00 1.2704
971.10 1.270232
971.20 1.270064
971.30 1.269896
971.40 1.269728
971.50 1.26956
971.60 1.269389
971.70 1.269215
971.80 1.269042
971.90 1.268869
972.00 1.268695
972.10 1.268522
972.20 1.268349
972.30 1.268176
972.40 1.268003
972.50 1.26783
972.60 1.267657
972.70 1.267484
972.80 1.267311
972.90 1.267139
973.00 1.266966
973.10 1.266793
973.20 1.26662
973.30 1.266448
973.40 1.266275
973.50 1.266103
973.60 1.26593
973.70 1.265758
973.80 1.265585
973.90 1.265413
974.00 1.265241
974.10 1.265068
974.20 1.264896
974.30 1.264724
974.40 1.264552
974.50 1.26438
974.60 1.264208
974.70 1.264036
974.80 1.263864
974.90 1.263692
975.00 1.26352
975.10 1.263348
975.20 1.263176
975.30 1.263004
975.40 1.262833
975.50 1.262661
975.60 1.26249
975.70 1.262318
975.80 1.262146
975.90 1.261975
976.00 1.261803
976.10 1.261632
976.20 1.261461
976.30 1.261289
976.40 1.261118
976.50 1.260947
976.60 1.260776
976.70 1.260605
976.80 1.260434
976.90 1.260262
977.00 1.260091
977.10 1.259921
977.20 1.25975
977.30 1.259579
977.40 1.259408
977.50 1.259237
977.60 1.259066
977.70 1.258896
977.80 1.258725
977.90 1.258554
978.00 1.258384
978.10 1.258213
978.20 1.258043
978.30 1.257872
978.40 1.257702
978.50 1.257532
978.60 1.257361
978.70 1.257191
978.80 1.257021
978.90 1.256851
979.00 1.256681
979.10 1.25651
979.20 1.25634
979.30 1.25617
979.40 1.256
979.50 1.25583
979.60 1.255661
979.70 1.255491
979.80 1.255321
979.90 1.255151
980.00 1.254982
980.10 1.254812
980.20 1.254642
980.30 1.254473
980.40 1.254303
980.50 1.254134
980.60 1.253964
980.70 1.253795
980.80 1.253625
980.90 1.253456
981.00 1.253287
981.10 1.253118
981.20 1.252948
981.30 1.252777
981.40 1.252602
981.50 1.252428
981.60 1.252253
981.70 1.252079
981.80 1.251905
981.90 1.251731
982.00 1.251556
982.10 1.251382
982.20 1.251208
982.30 1.251034
982.40 1.25086
982.50 1.250686
982.60 1.250512
982.70 1.250338
982.80 1.250165
982.90 1.249991
983.00 1.249817
983.10 1.249643
983.20 1.24947
983.30 1.249296
983.40 1.249123
983.50 1.248949
983.60 1.248776
983.70 1.248602
983.80 1.248429
983.90 1.248255
984.00 1.248082
984.10 1.247909
984.20 1.247736
984.30 1.247563
984.40 1.247389
984.50 1.247216
984.60 1.247043
984.70 1.24687
984.80 1.246698
984.90 1.246525
985.00 1.246352
985.10 1.246179
985.20 1.246006
985.30 1.245834
985.40 1.245661
985.50 1.245488
985.60 1.245316
985.70 1.245143
985.80 1.244971
985.90 1.244798
986.00 1.244626
986.10 1.244453
986.20 1.244281
986.30 1.244109
986.40 1.243937
986.50 1.243765
986.60 1.243592
986.70 1.24342
986.80 1.243248
986.90 1.243076
987.00 1.242904
987.10 1.242732
987.20 1.242561
987.30 1.242389
987.40 1.242217
987.50 1.242045
987.60 1.241874
987.70 1.241702
987.80 1.24153
987.90 1.241359
988.00 1.241187
988.10 1.241016
988.20 1.240844
988.30 1.240673
988.40 1.240502
988.50 1.24033
988.60 1.240159
988.70 1.239988
988.80 1.239817
988.90 1.239646
989.00 1.239474
989.10 1.239303
989.20 1.239132
989.30 1.238962
989.40 1.238791
989.50 1.23862
989.60 1.238449
989.70 1.238278
989.80 1.238107
989.90 1.237937
990.00 1.237766
990.10 1.237596
990.20 1.237425
990.30 1.237255
990.40 1.237084
990.50 1.236914
990.60 1.236743
990.70 1.236573
990.80 1.236403
990.90 1.236232
991.00 1.236062
991.10 1.235892
991.20 1.235721
991.30 1.23555
991.40 1.235379
991.50 1.235208
991.60 1.235038
991.70 1.234867
991.80 1.234696
991.90 1.234526
992.00 1.234355
992.10 1.234185
992.20 1.234014
992.30 1.233844
992.40 1.233674
992.50 1.233503
992.60 1.233333
992.70 1.233163
992.80 1.232993
992.90 1.232822
993.00 1.232652
993.10 1.232482
993.20 1.232312
993.30 1.232142
993.40 1.231972
993.50 1.231802
993.60 1.231633
993.70 1.231463
993.80 1.231293
993.90 1.231123
994.00 1.230954
994.10 1.230784
994.20 1.230615
994.30 1.230445
994.40 1.230275
994.50 1.230106
994.60 1.229937
994.70 1.229767
994.80 1.229598
994.90 1.229429
995.00 1.229259
995.10 1.22909
995.20 1.228921
995.30 1.228752
995.40 1.228583
995.50 1.228414
995.60 1.228245
995.70 1.228076
995.80 1.227907
995.90 1.227738
996.00 1.227569
996.10 1.227394
996.20 1.227216
996.30 1.227039
996.40 1.226862
996.50 1.226684
996.60 1.226507
996.70 1.22633
996.80 1.226153
996.90 1.225976
997.00 1.225799
997.10 1.225622
997.20 1.225445
997.30 1.225268
997.40 1.225092
997.50 1.224915
997.60 1.224738
997.70 1.224561
997.80 1.224385
997.90 1.224208
998.00 1.224032
998.10 1.223855
998.20 1.223679
998.30 1.223502
998.40 1.223326
998.50 1.22315
998.60 1.222973
998.70 1.222797
998.80 1.222621
998.90 1.222445
999.00 1.222269
999.10 1.222093
999.20 1.221917
999.30 1.221741
999.40 1.221565
999.50 1.221389
999.60 1.221213
999.70 1.221038
999.80 1.220862
999.90 1.220686
1000.00 1.220511
1000.10 1.220335
1000.20 1.22016
1000.30 1.219984
1000.40 1.219809
1000.50 1.219633
1000.60 1.219458
1000.70 1.219283
1000.80 1.219108
1000.90 1.218932
1001.00 1.218759
1001.10 1.218592
1001.20 1.218425
1001.30 1.218257
1001.40 1.21809
1001.50 1.217923
1001.60 1.217756
1001.70 1.217589
1001.80 1.217422
1001.90 1.217255
1002.00 1.217088
1002.10 1.216921
1002.20 1.216754
1002.30 1.216587
1002.40 1.216421
1002.50 1.216254
1002.60 1.216087
1002.70 1.215921
1002.80 1.215754
1002.90 1.215588
1003.00 1.215421
1003.10 1.215255
1003.20 1.215088
1003.30 1.214922
1003.40 1.214755
1003.50 1.214589
1003.60 1.214423
1003.70 1.214257
1003.80 1.21409
1003.90 1.213924
1004.00 1.213758
1004.10 1.213592
1004.20 1.213426
1004.30 1.21326
1004.40 1.213094
1004.50 1.212928
1004.60 1.212763
1004.70 1.212597
1004.80 1.212431
1004.90 1.212265
1005.00 1.2121
1005.10 1.211934
1005.20 1.211769
1005.30 1.211603
1005.40 1.211437
1005.50 1.211272
1005.60 1.211107
1005.70 1.210941
1005.80 1.210776
1005.90 1.210611
1006.00 1.210444
1006.10 1.21027
1006.20 1.210097
1006.30 1.209923
1006.40 1.20975
1006.50 1.209576
1006.60 1.209403
1006.70 1.20923
1006.80 1.209056
1006.90 1.208883
1007.00 1.20871
1007.10 1.208537
1007.20 1.208364
1007.30 1.208191
1007.40 1.208018
1007.50 1.207845
1007.60 1.207672
1007.70 1.207499
1007.80 1.207326
1007.90 1.207153
1008.00 1.206981
1008.10 1.206808
1008.20 1.206635
1008.30 1.206463
1008.40 1.20629
1008.50 1.206118
1008.60 1.205945
1008.70 1.205773
1008.80 1.205601
1008.90 1.205428
1009.00 1.205256
1009.10 1.205084
1009.20 1.204912
1009.30 1.20474
1009.40 1.204567
1009.50 1.204395
1009.60 1.204223
1009.70 1.204051
1009.80 1.20388
1009.90 1.203708
1010.00 1.203536
1010.10 1.203364
1010.20 1.203192
1010.30 1.203021
1010.40 1.202849
1010.50 1.202677
1010.60 1.202506
1010.70 1.202334
1010.80 1.202163
1010.90 1.201991
1011.00 1.20182
1011.10 1.201648
1011.20 1.201476
1011.30 1.201304
1011.40 1.201132
1011.50 1.20096
1011.60 1.200789
1011.70 1.200617
1011.80 1.200445
1011.90 1.200273
1012.00 1.200102
1012.10 1.19993
1012.20 1.199759
1012.30 1.199587
1012.40 1.199416
1012.50 1.199245
1012.60 1.199073
1012.70 1.198902
1012.80 1.198731
1012.90 1.198559
1013.00 1.198388
1013.10 1.198217
1013.20 1.198046
1013.30 1.197875
1013.40 1.197704
1013.50 1.197533
1013.60 1.197362
1013.70 1.197191
1013.80 1.197021
1013.90 1.19685
1014.00 1.196679
1014.10 1.196508
1014.20 1.196338
1014.30 1.196167
1014.40 1.195997
1014.50 1.195826
1014.60 1.195656
1014.70 1.195485
1014.80 1.195315
1014.90 1.195145
1015.00 1.194974
1015.10 1.194804
1015.20 1.194634
1015.30 1.194464
1015.40 1.194294
1015.50 1.194124
1015.60 1.193954
1015.70 1.193784
1015.80 1.193614
1015.90 1.193444
1016.00 1.193274
1016.10 1.193099
1016.20 1.192921
1016.30 1.192743
1016.40 1.192566
1016.50 1.192388
1016.60 1.19221
1016.70 1.192032
1016.80 1.191855
1016.90 1.191677
1017.00 1.1915
1017.10 1.191322
1017.20 1.191145
1017.30 1.190968
1017.40 1.19079
1017.50 1.190613
1017.60 1.190436
1017.70 1.190259
1017.80 1.190081
1017.90 1.189904
1018.00 1.189727
1018.10 1.18955
1018.20 1.189373
1018.30 1.189196
1018.40 1.18902
1018.50 1.188843
1018.60 1.188666
1018.70 1.188489
1018.80 1.188313
1018.90 1.188136
1019.00 1.187959
1019.10 1.187783
1019.20 1.187606
1019.30 1.18743
1019.40 1.187254
1019.50 1.187077
1019.60 1.186901
1019.70 1.186725
1019.80 1.186548
1019.90 1.186372
1020.00 1.186196
1020.10 1.18602
1020.20 1.185844
1020.30 1.185668
1020.40 1.185492
1020.50 1.185316
1020.60 1.18514
1020.70 1.184965
1020.80 1.184789
1020.90 1.184613
1021.00 1.184438
1021.10 1.184262
1021.20 1.184094
1021.30 1.183926
1021.40 1.183758
1021.50 1.18359
1021.60 1.183422
1021.70 1.183254
1021.80 1.183086
1021.90 1.182918
1022.00 1.182751
1022.10 1.182583
1022.20 1.182415
1022.30 1.182247
1022.40 1.18208
1022.50 1.181912
1022.60 1.181745
1022.70 1.181577
1022.80 1.18141
1022.90 1.181242
1023.00 1.181075
1023.10 1.180908
1023.20 1.18074
1023.30 1.180573
1023.40 1.180406
1023.50 1.180239
1023.60 1.180072
1023.70 1.179904
1023.80 1.179737
1023.90 1.17957
1024.00 1.179403
1024.10 1.179237
1024.20 1.17907
1024.30 1.178903
1024.40 1.178736
1024.50 1.178569
1024.60 1.178403
1024.70 1.178236
1024.80 1.178069
1024.90 1.177903
1025.00 1.177736
1025.10 1.17757
1025.20 1.177403
1025.30 1.177237
1025.40 1.177071
1025.50 1.176904
1025.60 1.176738
1025.70 1.176572
1025.80 1.176406
1025.90 1.17624
1026.00 1.176073
1026.10 1.175907
1026.20 1.175741
1026.30 1.175567
1026.40 1.175394
1026.50 1.17522
1026.60 1.175046
1026.70 1.174872
1026.80 1.174699
1026.90 1.174525
1027.00 1.174352
1027.10 1.174178
1027.20 1.174005
1027.30 1.173831
1027.40 1.173658
1027.50 1.173485
1027.60 1.173311
1027.70 1.173138
1027.80 1.172965
1027.90 1.172792
1028.00 1.172619
1028.10 1.172446
1028.20 1.172273
1028.30 1.1721
1028.40 1.171927
1028.50 1.171754
1028.60 1.171581
1028.70 1.171409
1028.80 1.171236
1028.90 1.171063
1029.00 1.17089
1029.10 1.170718
1029.20 1.170545
1029.30 1.170373
1029.40 1.1702
1029.50 1.170028
1029.60 1.169856
1029.70 1.169683
1029.80 1.169511
1029.90 1.169339
1030.00 1.169167
1030.10 1.168994
1030.20 1.168822
1030.30 1.16865
1030.40 1.168478
1030.50 1.168306
1030.60 1.168134
1030.70 1.167963
1030.80 1.167791
1030.90 1.167619
1031.00 1.167447
1031.10 1.167276
1031.20 1.167104
1031.30 1.166932
1031.40 1.16676
1031.50 1.166588
1031.60 1.166416
1031.70 1.166244
1031.80 1.166072
1031.90 1.1659
1032.00 1.165729
1032.10 1.165557
1032.20 1.165385
1032.30 1.165213
1032.40 1.165042
1032.50 1.16487
1032.60 1.164698
1032.70 1.164527
1032.80 1.164355
1032.90 1.164184
1033.00 1.164013
1033.10 1.163841
1033.20 1.16367
1033.30 1.163499
1033.40 1.163327
1033.50 1.163156
1033.60 1.162985
1033.70 1.162814
1033.80 1.162643
1033.90 1.162472
1034.00 1.162301
1034.10 1.16213
1034.20 1.161959
1034.30 1.161788
1034.40 1.161618
1034.50 1.161447
1034.60 1.161276
1034.70 1.161106
1034.80 1.160935
1034.90 1.160765
1035.00 1.160594
1035.10 1.160424
1035.20 1.160253
1035.30 1.160083
1035.40 1.159912
1035.50 1.159742
1035.60 1.159572
1035.70 1.159402
1035.80 1.159232
1035.90 1.159061
1036.00 1.158891
1036.10 1.158721
1036.20 1.158551
1036.30 1.158381
1036.40 1.158212
1036.50 1.158042
1036.60 1.157872
1036.70 1.157702
1036.80 1.157532
1036.90 1.157363
1037.00 1.157193
1037.10 1.157024
1037.20 1.156854
1037.30 1.156685
1037.40 1.156515
1037.50 1.156346
1037.60 1.156176
1037.70 1.156007
1037.80 1.155838
1037.90 1.155669
1038.00 1.155499
1038.10 1.15533
1038.20 1.155161
1038.30 1.154992
1038.40 1.154823
1038.50 1.154654
1038.60 1.154485
1038.70 1.154316
1038.80 1.154148
1038.90 1.153979
1039.00 1.15381
1039.10 1.153641
1039.20 1.153473
1039.30 1.153304
1039.40 1.153136
1039.50 1.152967
1039.60 1.152799
1039.70 1.15263
1039.80 1.152462
1039.90 1.152293
1040.00 1.152125
1040.10 1.151957
1040.20 1.151789
1040.30 1.15162
1040.40 1.151452
1040.50 1.151284
1040.60 1.151116
1040.70 1.150948
1040.80 1.15078
1040.90 1.150612
1041.00 1.150444
1041.10 1.150277
1041.20 1.150109
1041.30 1.149941
1041.40 1.149773
1041.50 1.149606
1041.60 1.149438
1041.70 1.14927
1041.80 1.149102
1041.90 1.148934
1042.00 1.148766
1042.10 1.148598
1042.20 1.14843
1042.30 1.148262
1042.40 1.148095
1042.50 1.147927
1042.60 1.147759
1042.70 1.147591
1042.80 1.147424
1042.90 1.147256
1043.00 1.147089
1043.10 1.146921
1043.20 1.146754
1043.30 1.146586
1043.40 1.146419
1043.50 1.146252
1043.60 1.146084
1043.70 1.145917
1043.80 1.14575
1043.90 1.145583
1044.00 1.145416
1044.10 1.145249
1044.20 1.145082
1044.30 1.144915
1044.40 1.144748
1044.50 1.144581
1044.60 1.144414
1044.70 1.144247
1044.80 1.14408
1044.90 1.143914
1045.00 1.143747
1045.10 1.14358
1045.20 1.143414
1045.30 1.143247
1045.40 1.143081
1045.50 1.142914
1045.60 1.142748
1045.70 1.142582
1045.80 1.142415
1045.90 1.142249
1046.00 1.142083
1046.10 1.141916
1046.20 1.14175
1046.30 1.141584
1046.40 1.141418
1046.50 1.141252
1046.60 1.141086
1046.70 1.14092
1046.80 1.140754
1046.90 1.140583
1047.00 1.140409
1047.10 1.140236
1047.20 1.140063
1047.30 1.13989
1047.40 1.139717
1047.50 1.139544
1047.60 1.139371
1047.70 1.139198
1047.80 1.139025
1047.90 1.138852
1048.00 1.138679
1048.10 1.138507
1048.20 1.138334
1048.30 1.138161
1048.40 1.137989
1048.50 1.137816
1048.60 1.137644
1048.70 1.137471
1048.80 1.137299
1048.90 1.137126
1049.00 1.136954
1049.10 1.136782
1049.20 1.136609
1049.30 1.136437
1049.40 1.136265
1049.50 1.136093
1049.60 1.135921
1049.70 1.135749
1049.80 1.135577
1049.90 1.135405
1050.00 1.135233
1050.10 1.135061
1050.20 1.134889
1050.30 1.134717
1050.40 1.134546
1050.50 1.134374
1050.60 1.134202
1050.70 1.134031
1050.80 1.133859
1050.90 1.133688
1051.00 1.133516
1051.10 1.133345
1051.20 1.133173
1051.30 1.133002
1051.40 1.132831
1051.50 1.13266
1051.60 1.132488
1051.70 1.132317
1051.80 1.132146
1051.90 1.131975
1052.00 1.131804
1052.10 1.131633
1052.20 1.131462
1052.30 1.13129
1052.40 1.131119
1052.50 1.130948
1052.60 1.130777
1052.70 1.130605
1052.80 1.130434
1052.90 1.130263
1053.00 1.130092
1053.10 1.129921
1053.20 1.12975
1053.30 1.12958
1053.40 1.129409
1053.50 1.129238
1053.60 1.129067
1053.70 1.128897
1053.80 1.128726
1053.90 1.128555
1054.00 1.128385
1054.10 1.128214
1054.20 1.128044
1054.30 1.127873
1054.40 1.127703
1054.50 1.127533
1054.60 1.127362
1054.70 1.127192
1054.80 1.127022
1054.90 1.126852
1055.00 1.126682
1055.10 1.126511
1055.20 1.126341
1055.30 1.126171
1055.40 1.126002
1055.50 1.125832
1055.60 1.125662
1055.70 1.125492
1055.80 1.125322
1055.90 1.125153
1056.00 1.124983
1056.10 1.124813
1056.20 1.124644
1056.30 1.124474
1056.40 1.124305
1056.50 1.124135
1056.60 1.123966
1056.70 1.123796
1056.80 1.123627
1056.90 1.123458
1057.00 1.123289
1057.10 1.123119
1057.20 1.12295
1057.30 1.122781
1057.40 1.122612
1057.50 1.122443
1057.60 1.122274
1057.70 1.122105
1057.80 1.121936
1057.90 1.121767
1058.00 1.121599
1058.10 1.12143
1058.20 1.121261
1058.30 1.121093
1058.40 1.120924
1058.50 1.120755
1058.60 1.120587
1058.70 1.120418
1058.80 1.12025
1058.90 1.120081
1059.00 1.119913
1059.10 1.119745
1059.20 1.119577
1059.30 1.119408
1059.40 1.11924
1059.50 1.119072
1059.60 1.118904
1059.70 1.118736
1059.80 1.118568
1059.90 1.1184
1060.00 1.118232
1060.10 1.118064
1060.20 1.117896
1060.30 1.117728
1060.40 1.117561
1060.50 1.117393
1060.60 1.117225
1060.70 1.117058
1060.80 1.11689
1060.90 1.116723
1061.00 1.116555
1061.10 1.116388
1061.20 1.11622
1061.30 1.116053
1061.40 1.115886
1061.50 1.115718
1061.60 1.115551
1061.70 1.115384
1061.80 1.115217
1061.90 1.11505
1062.00 1.114883
1062.10 1.114716
1062.20 1.114549
1062.30 1.114382
1062.40 1.114215
1062.50 1.114048
1062.60 1.113881
1062.70 1.113714
1062.80 1.113547
1062.90 1.11338
1063.00 1.113213
1063.10 1.113046
1063.20 1.112879
1063.30 1.112712
1063.40 1.112545
1063.50 1.112378
1063.60 1.112211
1063.70 1.112044
1063.80 1.111878
1063.90 1.111711
1064.00 1.111544
1064.10 1.111378
1064.20 1.111211
1064.30 1.111045
1064.40 1.110878
1064.50 1.110712
1064.60 1.110546
1064.70 1.110379
1064.80 1.110213
1064.90 1.110047
1065.00 1.109881
1065.10 1.109714
1065.20 1.109548
1065.30 1.109382
1065.40 1.109216
1065.50 1.10905
1065.60 1.108884
1065.70 1.108719
1065.80 1.108553
1065.90 1.108387
1066.00 1.108221
1066.10 1.108055
1066.20 1.10789
1066.30 1.107724
1066.40 1.107558
1066.50 1.107393
1066.60 1.107227
1066.70 1.107062
1066.80 1.106897
1066.90 1.106731
1067.00 1.106566
1067.10 1.106401
1067.20 1.106235
1067.30 1.10607
1067.40 1.105905
1067.50 1.10574
1067.60 1.105575
1067.70 1.10541
1067.80 1.105245
1067.90 1.10508
1068.00 1.104915
1068.10 1.10475
1068.20 1.104585
1068.30 1.10442
1068.40 1.104256
1068.50 1.104091
1068.60 1.103926
1068.70 1.103762
1068.80 1.103597
1068.90 1.103433
1069.00 1.103268
1069.10 1.103104
1069.20 1.102939
1069.30 1.102775
1069.40 1.102611
1069.50 1.102446
1069.60 1.102282
1069.70 1.102118
1069.80 1.101954
1069.90 1.10179
1070.00 1.101626
1070.10 1.101462
1070.20 1.101298
1070.30 1.101134
1070.40 1.10097
1070.50 1.100806
1070.60 1.100642
1070.70 1.100479
1070.80 1.100315
1070.90 1.100151
1071.00 1.099987
1071.10 1.099824
1071.20 1.09966
1071.30 1.099497
1071.40 1.099333
1071.50 1.09917
1071.60 1.099007
1071.70 1.098843
1071.80 1.09868
1071.90 1.098517
1072.00 1.098353
1072.10 1.09819
1072.20 1.098027
1072.30 1.097864
1072.40 1.097701
1072.50 1.097538
1072.60 1.097375
1072.70 1.097212
1072.80 1.097049
1072.90 1.096886
1073.00 1.096724
1073.10 1.096561
1073.20 1.096397
1073.30 1.096227
1073.40 1.096057
1073.50 1.095887
1073.60 1.095717
1073.70 1.095547
1073.80 1.095377
1073.90 1.095208
1074.00 1.095038
1074.10 1.094868
1074.20 1.094699
1074.30 1.094529
1074.40 1.09436
1074.50 1.09419
1074.60 1.094021
1074.70 1.093852
1074.80 1.093682
1074.90 1.093513
1075.00 1.093344
1075.10 1.093175
1075.20 1.093006
1075.30 1.092837
1075.40 1.092668
1075.50 1.092499
1075.60 1.09233
1075.70 1.092161
1075.80 1.091992
1075.90 1.091823
1076.00 1.091654
1076.10 1.091486
1076.20 1.091317
1076.30 1.091148
1076.40 1.09098
1076.50 1.090811
1076.60 1.090643
1076.70 1.090474
1076.80 1.090306
1076.90 1.090137
1077.00 1.089969
1077.10 1.089801
1077.20 1.089632
1077.30 1.089464
1077.40 1.089296
1077.50 1.089128
1077.60 1.08896
1077.70 1.088792
1077.80 1.088624
1077.90 1.088456
1078.00 1.088288
1078.10 1.08812
1078.20 1.087952
1078.30 1.087785
1078.40 1.087617
1078.50 1.087449
1078.60 1.087282
1078.70 1.087114
1078.80 1.086946
1078.90 1.086779
1079.00 1.086612
1079.10 1.086444
1079.20 1.086277
1079.30 1.086109
1079.40 1.085942
1079.50 1.085775
1079.60 1.085608
1079.70 1.085441
1079.80 1.085273
1079.90 1.085106
1080.00 1.084939
1080.10 1.084772
1080.20 1.084605
1080.30 1.084438
1080.40 1.084272
1080.50 1.084105
1080.60 1.083938
1080.70 1.083771
1080.80 1.083605
1080.90 1.083438
1081.00 1.083271
1081.10 1.083105
1081.20 1.082938
1081.30 1.082772
1081.40 1.082605
1081.50 1.082439
1081.60 1.082273
1081.70 1.082106
1081.80 1.08194
1081.90 1.081774
1082.00 1.081608
1082.10 1.081442
1082.20 1.081276
1082.30 1.08111
1082.40 1.080944
1082.50 1.080778
1082.60 1.080612
1082.70 1.080446
1082.80 1.08028
1082.90 1.080114
1083.00 1.079949
1083.10 1.079783
1083.20 1.079617
1083.30 1.079452
1083.40 1.079286
1083.50 1.07912
1083.60 1.078955
1083.70 1.07879
1083.80 1.078624
1083.90 1.078459
1084.00 1.078293
1084.10 1.078128
1084.20 1.077962
1084.30 1.077797
1084.40 1.077631
1084.50 1.077466
1084.60 1.0773
1084.70 1.077135
1084.80 1.07697
1084.90 1.076804
1085.00 1.076639
1085.10 1.076474
1085.20 1.076309
1085.30 1.076144
1085.40 1.075979
1085.50 1.075814
1085.60 1.075649
1085.70 1.075484
1085.80 1.075319
1085.90 1.075154
1086.00 1.074989
1086.10 1.074825
1086.20 1.07466
1086.30 1.074495
1086.40 1.074331
1086.50 1.074166
1086.60 1.074001
1086.70 1.073837
1086.80 1.073672
1086.90 1.073508
1087.00 1.073344
1087.10 1.073179
1087.20 1.073015
1087.30 1.072851
1087.40 1.072687
1087.50 1.072522
1087.60 1.072358
1087.70 1.072194
1087.80 1.07203
1087.90 1.071866
1088.00 1.071702
1088.10 1.071538
1088.20 1.071375
1088.30 1.071211
1088.40 1.071047
1088.50 1.070883
1088.60 1.07072
1088.70 1.070556
1088.80 1.070392
1088.90 1.070229
1089.00 1.070065
1089.10 1.069902
1089.20 1.069738
1089.30 1.069575
1089.40 1.069411
1089.50 1.069248
1089.60 1.069085
1089.70 1.068922
1089.80 1.068758
1089.90 1.068595
1090.00 1.068432
1090.10 1.068269
1090.20 1.068106
1090.30 1.067943
1090.40 1.06778
1090.50 1.067617
1090.60 1.067455
1090.70 1.067292
1090.80 1.067129
1090.90 1.066966
1091.00 1.066804
1091.10 1.066641
1091.20 1.066478
1091.30 1.066316
1091.40 1.066153
1091.50 1.065991
1091.60 1.065828
1091.70 1.065666
1091.80 1.065504
1091.90 1.065341
1092.00 1.065179
1092.10 1.065017
1092.20 1.064855
1092.30 1.064692
1092.40 1.06453
1092.50 1.064368
1092.60 1.064206
1092.70 1.064044
1092.80 1.063882
1092.90 1.063721
1093.00 1.063559
1093.10 1.063397
1093.20 1.063235
1093.30 1.063073
1093.40 1.062912
1093.50 1.06275
1093.60 1.062588
1093.70 1.062427
1093.80 1.062265
1093.90 1.062104
1094.00 1.061942
1094.10 1.061781
1094.20 1.06162
1094.30 1.061458
1094.40 1.061297
1094.50 1.061136
1094.60 1.060975
1094.70 1.060814
1094.80 1.060651
1094.90 1.060486
1095.00 1.060321
1095.10 1.060157
1095.20 1.059992
1095.30 1.059828
1095.40 1.059664
1095.50 1.059499
1095.60 1.059335
1095.70 1.059171
1095.80 1.059006
1095.90 1.058842
1096.00 1.058678
1096.10 1.058514
1096.20 1.05835
1096.30 1.058186
1096.40 1.058022
1096.50 1.057858
1096.60 1.057694
1096.70 1.05753
1096.80 1.057366
1096.90 1.057202
1097.00 1.057039
1097.10 1.056875
1097.20 1.056711
1097.30 1.056548
1097.40 1.056384
1097.50 1.056221
1097.60 1.056057
1097.70 1.055894
1097.80 1.05573
1097.90 1.055567
1098.00 1.055404
1098.10 1.05524
1098.20 1.055077
1098.30 1.054914
1098.40 1.054751
1098.50 1.054588
1098.60 1.054424
1098.70 1.054261
1098.80 1.054098
1098.90 1.053936
1099.00 1.053773
1099.10 1.05361
1099.20 1.053447
1099.30 1.053284
1099.40 1.053121
1099.50 1.052959
1099.60 1.052796
1099.70 1.052634
1099.80 1.052471
1099.90 1.052308
1100.00 1.052146
1100.10 1.051983
1100.20 1.051821
1100.30 1.051659
1100.40 1.051496
1100.50 1.051334
1100.60 1.051172
1100.70 1.05101
1100.80 1.050848
1100.90 1.050685
1101.00 1.050523
1101.10 1.050361
1101.20 1.050199
1101.30 1.050037
1101.40 1.049876
1101.50 1.049714
1101.60 1.049552
1101.70 1.04939
1101.80 1.049228
1101.90 1.049067
1102.00 1.048905
1102.10 1.048743
1102.20 1.048582
1102.30 1.04842
1102.40 1.048259
1102.50 1.048097
1102.60 1.047936
1102.70 1.047775
1102.80 1.047613
1102.90 1.047452
1103.00 1.047291
1103.10 1.04713
1103.20 1.046968
1103.30 1.046807
1103.40 1.046646
1103.50 1.046485
1103.60 1.046324
1103.70 1.046163
1103.80 1.046002
1103.90 1.045841
1104.00 1.045681
1104.10 1.04552
1104.20 1.045359
1104.30 1.045198
1104.40 1.045038
1104.50 1.044877
1104.60 1.044717
1104.70 1.044556
1104.80 1.044396
1104.90 1.044235
1105.00 1.044075
1105.10 1.043914
1105.20 1.043754
1105.30 1.043594
1105.40 1.043433
1105.50 1.043273
1105.60 1.043113
1105.70 1.042953
1105.80 1.042786
1105.90 1.04262
1106.00 1.042453
1106.10 1.042286
1106.20 1.04212
1106.30 1.041954
1106.40 1.041787
1106.50 1.041621
1106.60 1.041454
1106.70 1.041288
1106.80 1.041122
1106.90 1.040956
1107.00 1.04079
1107.10 1.040624
1107.20 1.040458
1107.30 1.040292
1107.40 1.040126
1107.50 1.03996
1107.60 1.039794
1107.70 1.039628
1107.80 1.039462
1107.90 1.039296
1108.00 1.039131
1108.10 1.038965
1108.20 1.038799
1108.30 1.038634
1108.40 1.038468
1108.50 1.038303
1108.60 1.038137
1108.70 1.037972
1108.80 1.037807
1108.90 1.037641
1109.00 1.037476
1109.10 1.037311
1109.20 1.037146
1109.30 1.036981
1109.40 1.036815
1109.50 1.03665
1109.60 1.036485
1109.70 1.03632
1109.80 1.036155
1109.90 1.035991
1110.00 1.035826
1110.10 1.035661
1110.20 1.035496
1110.30 1.035331
1110.40 1.035167
1110.50 1.035002
1110.60 1.034838
1110.70 1.034673
1110.80 1.034508
1110.90 1.034344
1111.00 1.03418
1111.10 1.034015
1111.20 1.033851
1111.30 1.033687
1111.40 1.033522
1111.50 1.033358
1111.60 1.033194
1111.70 1.03303
1111.80 1.032866
1111.90 1.032702
1112.00 1.032538
1112.10 1.032374
1112.20 1.03221
1112.30 1.032046
1112.40 1.031882
1112.50 1.031718
1112.60 1.031555
1112.70 1.031391
1112.80 1.031227
1112.90 1.031064
1113.00 1.0309
1113.10 1.030737
1113.20 1.030573
1113.30 1.03041
1113.40 1.030246
1113.50 1.030083
1113.60 1.029919
1113.70 1.029756
1113.80 1.029593
1113.90 1.02943
1114.00 1.029267
1114.10 1.029103
1114.20 1.02894
1114.30 1.028777
1114.40 1.028614
1114.50 1.028451
1114.60 1.028289
1114.70 1.028126
1114.80 1.027963
1114.90 1.0278
1115.00 1.027637
1115.10 1.027475
1115.20 1.027312
1115.30 1.027149
1115.40 1.026987
1115.50 1.026824
1115.60 1.026662
1115.70 1.026499
1115.80 1.026337
1115.90 1.026175
1116.00 1.026012
1116.10 1.02585
1116.20 1.025688
1116.30 1.025526
1116.40 1.025363
1116.50 1.025201
1116.60 1.025039
1116.70 1.024877
1116.80 1.024717
1116.90 1.024557
1117.00 1.024398
1117.10 1.024239
1117.20 1.02408
1117.30 1.023921
1117.40 1.023762
1117.50 1.023604
1117.60 1.023445
1117.70 1.023286
1117.80 1.023127
1117.90 1.022969
1118.00 1.02281
1118.10 1.022651
1118.20 1.022493
1118.30 1.022334
1118.40 1.022176
1118.50 1.022017
1118.60 1.021859
1118.70 1.0217
1118.80 1.021542
1118.90 1.021384
1119.00 1.021225
1119.10 1.021067
1119.20 1.020909
1119.30 1.020751
1119.40 1.020593
1119.50 1.020435
1119.60 1.020277
1119.70 1.020119
1119.80 1.019961
1119.90 1.019803
1120.00 1.019645
1120.10 1.019487
1120.20 1.019329
1120.30 1.019172
1120.40 1.019014
1120.50 1.018856
1120.60 1.018699
1120.70 1.018541
1120.80 1.018384
1120.90 1.018226
1121.00 1.018069
1121.10 1.017911
1121.20 1.017754
1121.30 1.017596
1121.40 1.017439
1121.50 1.017282
1121.60 1.017125
1121.70 1.016968
1121.80 1.01681
1121.90 1.016653
1122.00 1.016496
1122.10 1.016339
1122.20 1.016182
1122.30 1.016025
1122.40 1.015865
1122.50 1.015702
1122.60 1.015539
1122.70 1.015376
1122.80 1.015213
1122.90 1.015051
1123.00 1.014888
1123.10 1.014725
1123.20 1.014563
1123.30 1.0144
1123.40 1.014238
1123.50 1.014075
1123.60 1.013913
1123.70 1.01375
1123.80 1.013588
1123.90 1.013426
1124.00 1.013263
1124.10 1.013101
1124.20 1.012939
1124.30 1.012777
1124.40 1.012615
1124.50 1.012453
1124.60 1.012291
1124.70 1.012129
1124.80 1.011967
1124.90 1.011805
1125.00 1.011643
1125.10 1.011481
1125.20 1.01132
1125.30 1.011158
1125.40 1.010996
1125.50 1.010835
1125.60 1.010673
1125.70 1.010511
1125.80 1.01035
1125.90 1.010188
1126.00 1.010027
1126.10 1.009866
1126.20 1.009704
1126.30 1.009543
1126.40 1.009382
1126.50 1.00922
1126.60 1.009059
1126.70 1.008898
1126.80 1.008737
1126.90 1.008576
1127.00 1.008415
1127.10 1.008254
1127.20 1.008093
1127.30 1.007932
1127.40 1.007771
1127.50 1.00761
1127.60 1.00745
1127.70 1.007289
1127.80 1.007128
1127.90 1.006968
1128.00 1.006809
1128.10 1.006651
1128.20 1.006494
1128.30 1.006336
1128.40 1.006178
1128.50 1.006021
1128.60 1.005863
1128.70 1.005705
1128.80 1.005548
1128.90 1.00539
1129.00 1.005233
1129.10 1.005076
1129.20 1.004918
1129.30 1.004761
1129.40 1.004604
1129.50 1.004446
1129.60 1.004289
1129.70 1.004132
1129.80 1.003975
1129.90 1.003818
1130.00 1.003661
1130.10 1.003504
1130.20 1.003347
1130.30 1.00319
1130.40 1.003033
1130.50 1.002876
1130.60 1.00272
1130.70 1.002563
1130.80 1.002406
1130.90 1.002249
1131.00 1.002093
1131.10 1.001936
1131.20 1.00178
1131.30 1.001623
1131.40 1.001467
1131.50 1.00131
1131.60 1.001154
1131.70 1.000998
1131.80 1.000841
1131.90 1.000685
1132.00 1.000529
1132.10 1.000372
1132.20 1.000216
1132.30 1.00006
1132.40 0.9999041
1132.50 0.9997481
1132.60 0.9995921
1132.70 0.9994361
1132.80 0.9992802
1132.90 0.9991243
1133.00 0.9989685
1133.10 0.9988127
1133.20 0.9986569
1133.30 0.9985012
1133.40 0.9983455
1133.50 0.9981899
1133.60 0.9980343
1133.70 0.9978787
1133.80 0.9977232
1133.90 0.9975677
1134.00 0.9974123
1134.10 0.9972569
1134.20 0.9971015
1134.30 0.9969462
1134.40 0.9967909
1134.50 0.9966356
1134.60 0.9964804
1134.70 0.9963252
1134.80 0.9961701
1134.90 0.996015
1135.00 0.99586
1135.10 0.9957049
1135.20 0.99555
1135.30 0.995395
1135.40 0.9952401
1135.50 0.9950853
1135.60 0.9949305
1135.70 0.9947757
1135.80 0.9946209
1135.90 0.9944662
1136.00 0.9943116
1136.10 0.9941569
1136.20 0.9940024
1136.30 0.9938478
1136.40 0.9936933
1136.50 0.9935388
1136.60 0.9933844
1136.70 0.99323
1136.80 0.9930757
1136.90 0.9929214
1137.00 0.9927671
1137.10 0.9926129
1137.20 0.9924587
1137.30 0.9923045
1137.40 0.9921504
1137.50 0.9919963
1137.60 0.9918423
1137.70 0.9916883
1137.80 0.9915343
1137.90 0.9913804
1138.00 0.9912265
1138.10 0.9910726
1138.20 0.9909188
1138.30 0.9907651
1138.40 0.9906113
1138.50 0.9904577
1138.60 0.990304
1138.70 0.9901504
1138.80 0.9899968
1138.90 0.9898433
1139.00 0.9896898
1139.10 0.9895363
1139.20 0.9893829
1139.30 0.9892237
1139.40 0.9890644
1139.50 0.9889052
1139.60 0.988746
1139.70 0.9885868
1139.80 0.9884277
1139.90 0.9882686
1140.00 0.9881096
1140.10 0.9879506
1140.20 0.9877916
1140.30 0.9876327
1140.40 0.9874738
1140.50 0.987315
1140.60 0.9871562
1140.70 0.9869974
1140.80 0.9868387
1140.90 0.9866801
1141.00 0.9865214
1141.10 0.9863628
1141.20 0.9862043
1141.30 0.9860458
1141.40 0.9858873
1141.50 0.9857289
1141.60 0.9855705
1141.70 0.9854121
1141.80 0.9852538
1141.90 0.9850956
1142.00 0.9849373
1142.10 0.9847791
1142.20 0.984621
1142.30 0.9844629
1142.40 0.9843048
1142.50 0.9841468
1142.60 0.9839888
1142.70 0.9838309
1142.80 0.9836729
1142.90 0.9835151
1143.00 0.9833573
1143.10 0.9831995
1143.20 0.9830417
1143.30 0.982884
1143.40 0.9827264
1143.50 0.9825687
1143.60 0.9824111
1143.70 0.9822536
1143.80 0.9820961
1143.90 0.9819386
1144.00 0.9817812
1144.10 0.9816238
1144.20 0.9814665
1144.30 0.9813092
1144.40 0.9811519
1144.50 0.9809947
1144.60 0.9808375
1144.70 0.9806803
1144.80 0.9805232
1144.90 0.9803662
1145.00 0.9802091
1145.10 0.9800522
1145.20 0.9798952
1145.30 0.9797383
1145.40 0.9795814
1145.50 0.9794246
1145.60 0.9792678
1145.70 0.9791111
1145.80 0.9789544
1145.90 0.9787977
1146.00 0.9786411
1146.10 0.9784845
1146.20 0.978328
1146.30 0.9781714
1146.40 0.978015
1146.50 0.9778585
1146.60 0.9777022
1146.70 0.9775458
1146.80 0.9773895
1146.90 0.9772332
1147.00 0.977077
1147.10 0.9769208
1147.20 0.9767647
1147.30 0.9766085
1147.40 0.9764525
1147.50 0.9762964
1147.60 0.9761405
1147.70 0.9759845
1147.80 0.9758286
1147.90 0.9756727
1148.00 0.9755169
1148.10 0.9753611
1148.20 0.9752053
1148.30 0.9750496
1148.40 0.9748939
1148.50 0.9747383
1148.60 0.9745827
1148.70 0.9744271
1148.80 0.9742716
1148.90 0.9741161
1149.00 0.9739607
1149.10 0.9738053
1149.20 0.9736499
1149.30 0.9734946
1149.40 0.9733393
1149.50 0.9731841
1149.60 0.9730289
1149.70 0.9728737
1149.80 0.9727186
1149.90 0.9725635
1150.00 0.9724085
1150.10 0.9722535
1150.20 0.9720985
1150.30 0.9719436
1150.40 0.9717887
1150.50 0.9716338
1150.60 0.9714792
1150.70 0.971327
1150.80 0.971175
1150.90 0.9710229
1151.00 0.9708709
1151.10 0.9707189
1151.20 0.970567
1151.30 0.9704151
1151.40 0.9702632
1151.50 0.9701114
1151.60 0.9699596
1151.70 0.9698079
1151.80 0.9696562
1151.90 0.9695045
1152.00 0.9693529
1152.10 0.9692013
1152.20 0.9690498
1152.30 0.9688982
1152.40 0.9687468
1152.50 0.9685953
1152.60 0.9684439
1152.70 0.9682926
1152.80 0.9681412
1152.90 0.96799
1153.00 0.9678387
1153.10 0.9676875
1153.20 0.9675363
1153.30 0.9673852
1153.40 0.9672341
1153.50 0.967083
1153.60 0.966932
1153.70 0.966781
1153.80 0.9666301
1153.90 0.9664792
1154.00 0.9663283
1154.10 0.9661775
1154.20 0.9660267
1154.30 0.9658759
1154.40 0.9657252
1154.50 0.9655745
1154.60 0.9654239
1154.70 0.9652733
1154.80 0.9651227
1154.90 0.9649722
1155.00 0.9648217
1155.10 0.9646712
1155.20 0.9645208
1155.30 0.9643704
1155.40 0.9642201
1155.50 0.9640698
1155.60 0.9639195
1155.70 0.9637693
1155.80 0.9636191
1155.90 0.963469
1156.00 0.9633188
1156.10 0.9631688
1156.20 0.9630187
1156.30 0.9628687
1156.40 0.9627158
1156.50 0.9625603
1156.60 0.9624049
1156.70 0.9622495
1156.80 0.9620942
1156.90 0.9619389
1157.00 0.9617837
1157.10 0.9616284
1157.20 0.9614733
1157.30 0.9613181
1157.40 0.961163
1157.50 0.961008
1157.60 0.960853
1157.70 0.960698
1157.80 0.960543
1157.90 0.9603881
1158.00 0.9602333
1158.10 0.9600785
1158.20 0.9599237
1158.30 0.9597689
1158.40 0.9596142
1158.50 0.9594596
1158.60 0.9593049
1158.70 0.9591504
1158.80 0.9589958
1158.90 0.9588413
1159.00 0.9586868
1159.10 0.9585324
1159.20 0.958378
1159.30 0.9582237
1159.40 0.9580693
1159.50 0.9579151
1159.60 0.9577608
1159.70 0.9576066
1159.80 0.9574525
1159.90 0.9572984
1160.00 0.9571443
1160.10 0.9569902
1160.20 0.9568362
1160.30 0.9566823
1160.40 0.9565283
1160.50 0.9563745
1160.60 0.9562206
1160.70 0.9560668
1160.80 0.955913
1160.90 0.9557593
1161.00 0.9556056
1161.10 0.955452
1161.20 0.9552983
1161.30 0.9551448
1161.40 0.9549912
1161.50 0.9548377
1161.60 0.9546843
1161.70 0.9545309
1161.80 0.9543775
1161.90 0.9542241
1162.00 0.9540708
1162.10 0.9539176
1162.20 0.9537642
1162.30 0.9536109
1162.40 0.9534577
1162.50 0.9533045
1162.60 0.9531513
1162.70 0.9529981
1162.80 0.952845
1162.90 0.952692
1163.00 0.952539
1163.10 0.952386
1163.20 0.952233
1163.30 0.9520801
1163.40 0.9519272
1163.50 0.9517744
1163.60 0.9516216
1163.70 0.9514689
1163.80 0.9513162
1163.90 0.9511635
1164.00 0.9510108
1164.10 0.9508582
1164.20 0.9507057
1164.30 0.9505532
1164.40 0.9504007
1164.50 0.9502482
1164.60 0.9500958
1164.70 0.9499434
1164.80 0.9497911
1164.90 0.9496388
1165.00 0.9494866
1165.10 0.9493343
1165.20 0.9491822
1165.30 0.94903
1165.40 0.9488779
1165.50 0.9487259
1165.60 0.9485738
1165.70 0.9484218
1165.80 0.9482699
1165.90 0.948118
1166.00 0.9479661
1166.10 0.9478143
1166.20 0.9476625
1166.30 0.9475107
1166.40 0.947359
1166.50 0.9472073
1166.60 0.9470557
1166.70 0.9469041
1166.80 0.9467525
1166.90 0.946601
1167.00 0.9464495
1167.10 0.946298
1167.20 0.9461466
1167.30 0.9459952
1167.40 0.9458439
1167.50 0.9456926
1167.60 0.9455413
1167.70 0.9453901
1167.80 0.9452389
1167.90 0.9450877
1168.00 0.9449366
1168.10 0.9447856
1168.20 0.9446345
1168.30 0.9444835
1168.40 0.9443326
1168.50 0.9441816
1168.60 0.9440307
1168.70 0.9438799
1168.80 0.9437291
1168.90 0.9435783
1169.00 0.9434276
1169.10 0.9432769
1169.20 0.9431262
1169.30 0.9429756
1169.40 0.942825
1169.50 0.9426745
1169.60 0.9425239
1169.70 0.9423735
1169.80 0.942223
1169.90 0.9420726
1170.00 0.9419223
1170.10 0.941772
1170.20 0.9416217
1170.30 0.9414714
1170.40 0.9413212
1170.50 0.9411711
1170.60 0.9410209
1170.70 0.9408708
1170.80 0.9407208
1170.90 0.9405707
1171.00 0.9404208
1171.10 0.9402708
1171.20 0.9401209
1171.30 0.939971
1171.40 0.9398212
1171.50 0.9396714
1171.60 0.9395216
1171.70 0.9393719
1171.80 0.9392222
1171.90 0.9390726
1172.00 0.938923
1172.10 0.9387734
1172.20 0.9386239
1172.30 0.9384744
1172.40 0.9383249
1172.50 0.9381755
1172.60 0.9380261
1172.70 0.9378768
1172.80 0.9377275
1172.90 0.9375782
1173.00 0.937429
1173.10 0.9372798
1173.20 0.9371306
1173.30 0.9369815
1173.40 0.9368324
1173.50 0.9366833
1173.60 0.9365343
1173.70 0.9363853
1173.80 0.9362322
1173.90 0.9360779
1174.00 0.9359237
1174.10 0.9357695
1174.20 0.9356154
1174.30 0.9354613
1174.40 0.9353073
1174.50 0.9351532
1174.60 0.9349993
1174.70 0.9348453
1174.80 0.9346914
1174.90 0.9345375
1175.00 0.9343837
1175.10 0.9342299
1175.20 0.9340762
1175.30 0.9339225
1175.40 0.9337688
1175.50 0.9336152
1175.60 0.9334616
1175.70 0.933308
1175.80 0.9331545
1175.90 0.9330011
1176.00 0.9328476
1176.10 0.9326942
1176.20 0.9325409
1176.30 0.9323875
1176.40 0.9322343
1176.50 0.932081
1176.60 0.9319278
1176.70 0.9317746
1176.80 0.9316215
1176.90 0.9314684
1177.00 0.9313154
1177.10 0.9311624
1177.20 0.9310094
1177.30 0.9308565
1177.40 0.9307036
1177.50 0.9305507
1177.60 0.9303979
1177.70 0.9302451
1177.80 0.9300924
1177.90 0.9299397
1178.00 0.929787
1178.10 0.9296344
1178.20 0.9294818
1178.30 0.9293292
1178.40 0.9291767
1178.50 0.9290242
1178.60 0.9288718
1178.70 0.9287194
1178.80 0.9285671
1178.90 0.9284147
1179.00 0.9282625
1179.10 0.9281102
1179.20 0.927958
1179.30 0.9278058
1179.40 0.9276537
1179.50 0.9275016
1179.60 0.9273496
1179.70 0.9271976
1179.80 0.9270456
1179.90 0.9268936
1180.00 0.9267417
1180.10 0.9265899
1180.20 0.9264381
1180.30 0.9262863
1180.40 0.9261345
1180.50 0.9259828
1180.60 0.9258311
1180.70 0.9256795
1180.80 0.9255279
1180.90 0.9253764
1181.00 0.9252248
1181.10 0.9250734
1181.20 0.9249219
1181.30 0.9247705
1181.40 0.9246191
1181.50 0.9244678
1181.60 0.9243165
1181.70 0.9241653
1181.80 0.9240141
1181.90 0.9238629
1182.00 0.9237117
1182.10 0.9235606
1182.20 0.9234096
1182.30 0.9232586
1182.40 0.9231076
1182.50 0.9229566
1182.60 0.9228057
1182.70 0.9226548
1182.80 0.922504
1182.90 0.9223532
1183.00 0.9222024
1183.10 0.9220517
1183.20 0.921901
1183.30 0.9217504
1183.40 0.9215998
1183.50 0.9214492
1183.60 0.9212987
1183.70 0.9211482
1183.80 0.9209977
1183.90 0.9208473
1184.00 0.9206969
1184.10 0.9205466
1184.20 0.9203963
1184.30 0.920246
1184.40 0.9200958
1184.50 0.9199456
1184.60 0.9197954
1184.70 0.9196453
1184.80 0.9194952
1184.90 0.9193452
1185.00 0.9191952
1185.10 0.9190452
1185.20 0.9188953
1185.30 0.9187454
1185.40 0.9185955
1185.50 0.9184478
1185.60 0.9183031
1185.70 0.9181584
1185.80 0.9180137
1185.90 0.9178691
1186.00 0.9177245
1186.10 0.9175799
1186.20 0.9174354
1186.30 0.9172909
1186.40 0.9171464
1186.50 0.917002
1186.60 0.9168576
1186.70 0.9167133
1186.80 0.916569
1186.90 0.9164247
1187.00 0.9162805
1187.10 0.9161363
1187.20 0.9159921
1187.30 0.915848
1187.40 0.9157039
1187.50 0.9155598
1187.60 0.9154158
1187.70 0.9152718
1187.80 0.9151279
1187.90 0.9149839
1188.00 0.9148401
1188.10 0.9146962
1188.20 0.9145524
1188.30 0.9144086
1188.40 0.9142649
1188.50 0.9141212
1188.60 0.9139775
1188.70 0.9138339
1188.80 0.9136903
1188.90 0.9135467
1189.00 0.9134032
1189.10 0.9132597
1189.20 0.9131162
1189.30 0.9129728
1189.40 0.9128294
1189.50 0.9126861
1189.60 0.9125428
1189.70 0.9123995
1189.80 0.9122562
1189.90 0.912113
1190.00 0.9119698
1190.10 0.9118267
1190.20 0.9116836
1190.30 0.9115405
1190.40 0.9113975
1190.50 0.9112545
1190.60 0.9111115
1190.70 0.9109686
1190.80 0.9108257
1190.90 0.9106828
1191.00 0.91054
1191.10 0.9103972
1191.20 0.9102545
1191.30 0.9101118
1191.40 0.9099683
1191.50 0.9098206
1191.60 0.909673
1191.70 0.9095254
1191.80 0.9093778
1191.90 0.9092302
1192.00 0.9090827
1192.10 0.9089352
1192.20 0.9087878
1192.30 0.9086404
1192.40 0.908493
1192.50 0.9083457
1192.60 0.9081984
1192.70 0.9080512
1192.80 0.907904
1192.90 0.9077568
1193.00 0.9076096
1193.10 0.9074625
1193.20 0.9073155
1193.30 0.9071684
1193.40 0.9070214
1193.50 0.9068745
1193.60 0.9067276
1193.70 0.9065807
1193.80 0.9064338
1193.90 0.906287
1194.00 0.9061402
1194.10 0.9059935
1194.20 0.9058468
1194.30 0.9057001
1194.40 0.9055535
1194.50 0.9054069
1194.60 0.9052603
1194.70 0.9051138
1194.80 0.9049673
1194.90 0.9048209
1195.00 0.9046745
1195.10 0.9045281
1195.20 0.9043817
1195.30 0.9042354
1195.40 0.9040892
1195.50 0.9039429
1195.60 0.9037967
1195.70 0.9036506
1195.80 0.9035045
1195.90 0.9033584
1196.00 0.9032123
1196.10 0.9030663
1196.20 0.9029203
1196.30 0.9027744
1196.40 0.9026285
1196.50 0.9024826
1196.60 0.9023368
1196.70 0.902191
1196.80 0.9020452
1196.90 0.9018995
1197.00 0.9017538
1197.10 0.9016082
1197.20 0.9014625
1197.30 0.901317
1197.40 0.901167
1197.50 0.9010165
1197.60 0.9008661
1197.70 0.9007156
1197.80 0.9005652
1197.90 0.9004149
1198.00 0.9002646
1198.10 0.9001143
1198.20 0.8999641
1198.30 0.8998139
1198.40 0.8996637
1198.50 0.8995136
1198.60 0.8993635
1198.70 0.8992134
1198.80 0.8990634
1198.90 0.8989134
1199.00 0.8987635
1199.10 0.8986136
1199.20 0.8984637
1199.30 0.8983139
1199.40 0.8981641
1199.50 0.8980144
1199.60 0.8978647
1199.70 0.897715
1199.80 0.8975654
1199.90 0.8974158
1200.00 0.8972662
