# Version 2.1 - nm, norm@500 to 1, cut digits, bergeron_He_4250_90.dat_4250
# Wavelength(nm)  Flambda(ergs/cm^s/s/nm)
300.00 0.08106083
300.10 0.081286
300.20 0.0815114
300.30 0.08173745
300.40 0.0819696
300.50 0.08220142
300.60 0.08243292
300.70 0.08266409
300.80 0.08289493
300.90 0.08312545
301.00 0.08335565
301.10 0.08358552
301.20 0.08381506
301.30 0.08404429
301.40 0.08427319
301.50 0.08450177
301.60 0.08473002
301.70 0.08495796
301.80 0.08518557
301.90 0.08541287
302.00 0.08563984
302.10 0.08587825
302.20 0.08611762
302.30 0.08635665
302.40 0.08659536
302.50 0.08683372
302.60 0.08707176
302.70 0.08730946
302.80 0.08754682
302.90 0.08778386
303.00 0.08802056
303.10 0.08825693
303.20 0.08849297
303.30 0.08872965
303.40 0.0889747
303.50 0.08921941
303.60 0.08946378
303.70 0.0897078
303.80 0.08995149
303.90 0.09019483
304.00 0.09043784
304.10 0.09068051
304.20 0.09092283
304.30 0.09116482
304.40 0.09140648
304.50 0.09164779
304.60 0.09189777
304.70 0.09214841
304.80 0.09239869
304.90 0.09264863
305.00 0.09289822
305.10 0.09314746
305.20 0.09339636
305.30 0.09364491
305.40 0.09389312
305.50 0.09414098
305.60 0.09438849
305.70 0.09463566
305.80 0.09488249
305.90 0.09512898
306.00 0.09537512
306.10 0.09562092
306.20 0.09586638
306.30 0.0961115
306.40 0.09636919
306.50 0.09663038
306.60 0.09689121
306.70 0.09715168
306.80 0.09741179
306.90 0.09767154
307.00 0.09793093
307.10 0.09818996
307.20 0.09844864
307.30 0.09870696
307.40 0.09896492
307.50 0.09922252
307.60 0.09947977
307.70 0.09973666
307.80 0.0999932
307.90 0.1002494
308.00 0.1005052
308.10 0.1007607
308.20 0.1010158
308.30 0.1012706
308.40 0.101525
308.50 0.1017791
308.60 0.1020328
308.70 0.1022862
308.80 0.1025433
308.90 0.1028118
309.00 0.1030749
309.10 0.1033377
309.20 0.1036002
309.30 0.1038623
309.40 0.1041251
309.50 0.1043943
309.60 0.1046631
309.70 0.1049316
309.80 0.1051996
309.90 0.1054674
310.00 0.1057347
310.10 0.1060017
310.20 0.1062683
310.30 0.1065346
310.40 0.1068034
310.50 0.107075
310.60 0.1073462
310.70 0.1076171
310.80 0.1078876
310.90 0.1081577
311.00 0.1084294
311.10 0.1087008
311.20 0.1089719
311.30 0.1092446
311.40 0.1095227
311.50 0.1098005
311.60 0.1100778
311.70 0.1103548
311.80 0.1106314
311.90 0.1109077
312.00 0.1111835
312.10 0.111459
312.20 0.1117337
312.30 0.112
312.40 0.1122645
312.50 0.1125644
312.60 0.1128394
312.70 0.1131141
312.80 0.1133883
312.90 0.1136675
313.00 0.1139519
313.10 0.114236
313.20 0.1145197
313.30 0.1148033
313.40 0.1150877
313.50 0.1153716
313.60 0.1156552
313.70 0.1159384
313.80 0.1162212
313.90 0.1165036
314.00 0.1167856
314.10 0.1170733
314.20 0.1173606
314.30 0.1176475
314.40 0.117934
314.50 0.1182201
314.60 0.1185059
314.70 0.1187912
314.80 0.1190728
314.90 0.1193532
315.00 0.119643
315.10 0.1199365
315.20 0.1202296
315.30 0.1205223
315.40 0.1208147
315.50 0.1211066
315.60 0.1213982
315.70 0.1216916
315.80 0.1219846
315.90 0.1222772
316.00 0.1225694
316.10 0.1228545
316.20 0.1231392
316.30 0.1234369
316.40 0.1237343
316.50 0.1240312
316.60 0.1243278
316.70 0.1246239
316.80 0.1249197
316.90 0.125215
317.00 0.12551
317.10 0.1258045
317.20 0.1260987
317.30 0.1264023
317.40 0.1267051
317.50 0.1270065
317.60 0.1273076
317.70 0.1276082
317.80 0.1279085
317.90 0.1282124
318.00 0.1285113
318.10 0.1288151
318.20 0.1291185
318.30 0.1294216
318.40 0.1297242
318.50 0.1300264
318.60 0.1303316
318.70 0.1306198
318.80 0.1309366
318.90 0.1312478
319.00 0.1315348
319.10 0.1318477
319.20 0.132159
319.30 0.1324663
319.40 0.1327731
319.50 0.1330796
319.60 0.1333806
319.70 0.1336931
319.80 0.1340053
319.90 0.134317
320.00 0.1346273
320.10 0.1349362
320.20 0.1352402
320.30 0.1355526
320.40 0.1358549
320.50 0.1361673
320.60 0.1365002
320.70 0.1368066
320.80 0.1371156
320.90 0.1374277
321.00 0.1377393
321.10 0.1380505
321.20 0.1383803
321.30 0.138699
321.40 0.1390173
321.50 0.1393352
321.60 0.1396526
321.70 0.1399696
321.80 0.1402859
321.90 0.1406013
322.00 0.1409078
322.10 0.141229
322.20 0.1415497
322.30 0.14187
322.40 0.1421899
322.50 0.1425094
322.60 0.1428285
322.70 0.1431471
322.80 0.1434807
322.90 0.1438056
323.00 0.1441302
323.10 0.1444542
323.20 0.1447779
323.30 0.1451011
323.40 0.1454239
323.50 0.1457463
323.60 0.1460683
323.70 0.1463898
323.80 0.1467109
323.90 0.1470316
324.00 0.1473579
324.10 0.1476837
324.20 0.1480091
324.30 0.1483365
324.40 0.1486701
324.50 0.1490033
324.60 0.1493361
324.70 0.1496684
324.80 0.1500003
324.90 0.1503318
325.00 0.1506628
325.10 0.1509934
325.20 0.151324
325.30 0.1516552
325.40 0.151986
325.50 0.152318
325.60 0.1526517
325.70 0.152985
325.80 0.1533179
325.90 0.1536525
326.00 0.1539892
326.10 0.1543254
326.20 0.1546611
326.30 0.1549939
326.40 0.1553188
326.50 0.1556624
326.60 0.1560055
326.70 0.1563482
326.80 0.1566905
326.90 0.1570323
327.00 0.1573736
327.10 0.1577145
327.20 0.1580549
327.30 0.1583949
327.40 0.1587345
327.50 0.1590736
327.60 0.1594123
327.70 0.1597505
327.80 0.1600883
327.90 0.1604263
328.00 0.1607666
328.10 0.1611093
328.20 0.1614515
328.30 0.1617932
328.40 0.1621346
328.50 0.1624826
328.60 0.1628318
328.70 0.1631806
328.80 0.1635301
328.90 0.1638824
329.00 0.1642342
329.10 0.1645856
329.20 0.1649365
329.30 0.1652869
329.40 0.1656369
329.50 0.1659865
329.60 0.1663355
329.70 0.1666842
329.80 0.1670323
329.90 0.1673801
330.00 0.1677294
330.10 0.1680807
330.20 0.1684315
330.30 0.168782
330.40 0.1691353
330.50 0.1694919
330.60 0.169848
330.70 0.1702037
330.80 0.1705589
330.90 0.1709136
331.00 0.1712679
331.10 0.1716217
331.20 0.1719751
331.30 0.172328
331.40 0.1726805
331.50 0.1730346
331.60 0.173391
331.70 0.173747
331.80 0.1741111
331.90 0.1744751
332.00 0.1748387
332.10 0.1752017
332.20 0.1755643
332.30 0.1759265
332.40 0.1762882
332.50 0.1766494
332.60 0.1770101
332.70 0.1773704
332.80 0.1777302
332.90 0.1780895
333.00 0.1784484
333.10 0.1788118
333.20 0.1791807
333.30 0.1795492
333.40 0.1799172
333.50 0.1802847
333.60 0.1806518
333.70 0.1810183
333.80 0.1813845
333.90 0.1817501
334.00 0.1821153
334.10 0.1824814
334.20 0.1828488
334.30 0.1832158
334.40 0.1835823
334.50 0.1839483
334.60 0.1843139
334.70 0.1846828
334.80 0.1850564
334.90 0.18543
335.00 0.1858031
335.10 0.1861762
335.20 0.1865429
335.30 0.1869091
335.40 0.1872898
335.50 0.187664
335.60 0.1880288
335.70 0.1883985
335.80 0.1887743
335.90 0.1891522
336.00 0.189533
336.10 0.1899133
336.20 0.190293
336.30 0.1906714
336.40 0.1910483
336.50 0.1914246
336.60 0.1918005
336.70 0.1921759
336.80 0.1925508
336.90 0.1929292
337.00 0.1933119
337.10 0.1936942
337.20 0.194076
337.30 0.1944566
337.40 0.1948359
337.50 0.1952147
337.60 0.1955929
337.70 0.1959707
337.80 0.1963481
337.90 0.1967285
338.00 0.197113
338.10 0.197497
338.20 0.1978804
338.30 0.1982634
338.40 0.198648
338.50 0.1990371
338.60 0.1994257
338.70 0.1998139
338.80 0.2002015
338.90 0.2005887
339.00 0.2009753
339.10 0.2013615
339.20 0.2017472
339.30 0.2021354
339.40 0.2025275
339.50 0.2029207
339.60 0.2033152
339.70 0.2037092
339.80 0.2041027
339.90 0.2044957
340.00 0.2048883
340.10 0.2052803
340.20 0.2056718
340.30 0.2060629
340.40 0.2064534
340.50 0.2068435
340.60 0.207233
340.70 0.2076221
340.80 0.2080093
340.90 0.2083939
341.00 0.2087853
341.10 0.2091848
341.20 0.2095838
341.30 0.2099823
341.40 0.2103804
341.50 0.2107779
341.60 0.2111749
341.70 0.2115714
341.80 0.2119695
341.90 0.2123696
342.00 0.2127692
342.10 0.2131682
342.20 0.2135653
342.30 0.2139655
342.40 0.2143673
342.50 0.2147681
342.60 0.2151684
342.70 0.2155681
342.80 0.2159674
342.90 0.2163662
343.00 0.2167674
343.10 0.2171715
343.20 0.2175752
343.30 0.2179784
343.40 0.2183816
343.50 0.2187853
343.60 0.2191884
343.70 0.219591
343.80 0.2199932
343.90 0.2203948
344.00 0.2207998
344.10 0.2212099
344.20 0.2216194
344.30 0.2220284
344.40 0.2224346
344.50 0.222837
344.60 0.2232522
344.70 0.2236535
344.80 0.2240549
344.90 0.2244665
345.00 0.2248863
345.10 0.2252856
345.20 0.2256858
345.30 0.2260875
345.40 0.2264886
345.50 0.2269419
345.60 0.227408
345.70 0.2278005
345.80 0.2281925
345.90 0.228584
346.00 0.2289751
346.10 0.2293656
346.20 0.229771
346.30 0.2301978
346.40 0.2306241
346.50 0.2310499
346.60 0.2314752
346.70 0.2318999
346.80 0.2323241
346.90 0.2327478
347.00 0.2331709
347.10 0.2335936
347.20 0.234018
347.30 0.2344453
347.40 0.234872
347.50 0.2352982
347.60 0.2357239
347.70 0.236149
347.80 0.2365737
347.90 0.2369978
348.00 0.2374213
348.10 0.2378444
348.20 0.2382669
348.30 0.2386889
348.40 0.2391103
348.50 0.2395313
348.60 0.2399517
348.70 0.2403207
348.80 0.2407074
348.90 0.2411427
349.00 0.2415775
349.10 0.2420117
349.20 0.2424454
349.30 0.2428786
349.40 0.2433112
349.50 0.2437433
349.60 0.2441748
349.70 0.2446059
349.80 0.2450364
349.90 0.2454663
350.00 0.2458958
350.10 0.2463247
350.20 0.246753
350.30 0.2471831
350.40 0.2476157
350.50 0.2480478
350.60 0.2484794
350.70 0.2489105
350.80 0.249341
350.90 0.249771
351.00 0.2502004
351.10 0.2506294
351.20 0.2510578
351.30 0.2514856
351.40 0.2519069
351.50 0.2523169
351.60 0.2527264
351.70 0.2531353
351.80 0.2535438
351.90 0.2539518
352.00 0.2543592
352.10 0.2547662
352.20 0.2551994
352.30 0.2556415
352.40 0.2560921
352.50 0.2565422
352.60 0.2569917
352.70 0.2574407
352.80 0.2578892
352.90 0.2583371
353.00 0.2587844
353.10 0.2592312
353.20 0.2596775
353.30 0.2601232
353.40 0.2605683
353.50 0.2610037
353.60 0.2614363
353.70 0.2618684
353.80 0.2622999
353.90 0.2627378
354.00 0.2631877
354.10 0.263637
354.20 0.2640858
354.30 0.264534
354.40 0.2649816
354.50 0.2654288
354.60 0.2658753
354.70 0.2663213
354.80 0.2667605
354.90 0.2671901
355.00 0.2676191
355.10 0.2680476
355.20 0.2684756
355.30 0.2689164
355.40 0.2693568
355.50 0.2697966
355.60 0.2702358
355.70 0.2707067
355.80 0.2711916
355.90 0.2715829
356.00 0.2719987
356.10 0.2724616
356.20 0.272924
356.30 0.2733857
356.40 0.273847
356.50 0.2743076
356.60 0.2747677
356.70 0.2752272
356.80 0.2756862
356.90 0.2761446
357.00 0.2766025
357.10 0.2770598
357.20 0.2775166
357.30 0.2779728
357.40 0.278411
357.50 0.2788178
357.60 0.2792241
357.70 0.2796299
357.80 0.2801407
357.90 0.2806509
358.00 0.2811088
358.10 0.2815533
358.20 0.2819972
358.30 0.2824406
358.40 0.2828835
358.50 0.2833258
358.60 0.2837676
358.70 0.2842088
358.80 0.2846496
358.90 0.2850897
359.00 0.2855493
359.10 0.2860436
359.20 0.2865337
359.30 0.2869989
359.40 0.2874635
359.50 0.2879031
359.60 0.288336
359.70 0.2887684
359.80 0.2892362
359.90 0.2897034
360.00 0.2901663
360.10 0.2906219
360.20 0.2910769
360.30 0.2915314
360.40 0.2919853
360.50 0.2924387
360.60 0.2929185
360.70 0.293375
360.80 0.2938309
360.90 0.2942863
361.00 0.2947835
361.10 0.2952248
361.20 0.2956328
361.30 0.2961682
361.40 0.2967134
361.50 0.297073
361.60 0.2976641
361.70 0.298115
361.80 0.2985746
361.90 0.29905
362.00 0.2995249
362.10 0.2999423
362.20 0.3003666
362.30 0.3008286
362.40 0.30129
362.50 0.3017509
362.60 0.3022113
362.70 0.3027367
362.80 0.3032269
362.90 0.3036682
363.00 0.3041089
363.10 0.3045917
363.20 0.3050744
363.30 0.3054432
363.40 0.3059865
363.50 0.3065291
363.60 0.3068681
363.70 0.3073644
363.80 0.307849
363.90 0.3083072
364.00 0.3087648
364.10 0.3092219
364.20 0.3096784
364.30 0.310173
364.40 0.3106765
364.50 0.3111189
364.60 0.311619
364.70 0.3121186
364.80 0.3126175
364.90 0.313051
365.00 0.3134839
365.10 0.3140169
365.20 0.3144487
365.30 0.3149805
365.40 0.3154112
365.50 0.3159419
365.60 0.3164719
365.70 0.3169374
365.80 0.3174024
365.90 0.3178911
366.00 0.3183853
366.10 0.3188511
366.20 0.3193162
366.30 0.3197809
366.40 0.3202449
366.50 0.320708
366.60 0.3211385
366.70 0.3216439
366.80 0.3221486
366.90 0.3226404
367.00 0.3231098
367.10 0.3235786
367.20 0.3240468
367.30 0.3245145
367.40 0.3249816
367.50 0.3254634
367.60 0.3259484
367.70 0.3264503
367.80 0.3269516
367.90 0.3274523
368.00 0.3279159
368.10 0.3284237
368.20 0.3288949
368.30 0.3293646
368.40 0.3298338
368.50 0.3303025
368.60 0.3307706
368.70 0.3312381
368.80 0.3317051
368.90 0.3321925
369.00 0.332676
369.10 0.3331488
369.20 0.3337626
369.30 0.3342378
369.40 0.3347126
369.50 0.3351867
369.60 0.3356896
369.70 0.336192
369.80 0.3366472
369.90 0.3371014
370.00 0.3375551
370.10 0.3380133
370.20 0.3385159
370.30 0.3390182
370.40 0.3395218
370.50 0.3400229
370.60 0.3405235
370.70 0.3410283
370.80 0.3415242
370.90 0.3420195
371.00 0.3425211
371.10 0.3430221
371.20 0.3435157
371.30 0.3440087
371.40 0.3444672
371.50 0.3449699
371.60 0.345472
371.70 0.3459735
371.80 0.3464744
371.90 0.3469748
372.00 0.3474047
372.10 0.3477718
372.20 0.3482954
372.30 0.3488183
372.40 0.3493407
372.50 0.3498624
372.60 0.3503835
372.70 0.350904
372.80 0.3513884
372.90 0.3518722
373.00 0.3523621
373.10 0.3528514
373.20 0.3533369
373.30 0.3538217
373.40 0.354306
373.50 0.3547897
373.60 0.3552729
373.70 0.3557554
373.80 0.3563095
373.90 0.3567189
374.00 0.3572477
374.10 0.357776
374.20 0.3583036
374.30 0.3588306
374.40 0.3592373
374.50 0.3597777
374.60 0.3602594
374.70 0.3607379
374.80 0.3612159
374.90 0.3616932
375.00 0.3622002
375.10 0.3627066
375.20 0.3632124
375.30 0.3637266
375.40 0.3642403
375.50 0.3647534
375.60 0.3652658
375.70 0.3657777
375.80 0.366289
375.90 0.3667997
376.00 0.3671685
376.10 0.3676747
376.20 0.3681816
376.30 0.368688
376.40 0.3691938
376.50 0.3697058
376.60 0.3702273
376.70 0.3707482
376.80 0.3712625
376.90 0.3717702
377.00 0.3722774
377.10 0.3727839
377.20 0.3732902
377.30 0.3737972
377.40 0.3743036
377.50 0.3748094
377.60 0.3753066
377.70 0.3758032
377.80 0.3762993
377.90 0.3767947
378.00 0.3773785
378.10 0.3778764
378.20 0.3783716
378.30 0.3788663
378.40 0.3793603
378.50 0.3798538
378.60 0.3803467
378.70 0.380839
378.80 0.3813307
378.90 0.3818219
379.00 0.3823125
379.10 0.3828579
379.20 0.3834026
379.30 0.3839347
379.40 0.3844541
379.50 0.384973
379.60 0.3854532
379.70 0.3858968
379.80 0.386418
379.90 0.3869386
380.00 0.3874586
380.10 0.3879779
380.20 0.3884967
380.30 0.3890149
380.40 0.3895325
380.50 0.3900495
380.60 0.3905087
380.70 0.3910191
380.80 0.3915289
380.90 0.3920381
381.00 0.3925467
381.10 0.3930338
381.20 0.3935715
381.30 0.3940638
381.40 0.3945719
381.50 0.3951217
381.60 0.3956781
381.70 0.3962256
381.80 0.3966114
381.90 0.3972318
382.00 0.3976677
382.10 0.3981949
382.20 0.398795
382.30 0.3992292
382.40 0.3997066
382.50 0.4002489
382.60 0.4007907
382.70 0.4013343
382.80 0.4018652
382.90 0.4023808
383.00 0.4028957
383.10 0.4034101
383.20 0.4039203
383.30 0.4044161
383.40 0.4049419
383.50 0.4055129
383.60 0.4059157
383.70 0.4064488
383.80 0.4069812
383.90 0.4075131
384.00 0.4080443
384.10 0.4085749
384.20 0.4091049
384.30 0.4096343
384.40 0.4101521
384.50 0.4106582
384.60 0.4111637
384.70 0.4116687
384.80 0.412155
384.90 0.4126238
385.00 0.4131867
385.10 0.4137465
385.20 0.4142256
385.30 0.4147448
385.40 0.4152756
385.50 0.415818
385.60 0.4163598
385.70 0.4169009
385.80 0.4174376
385.90 0.4179591
386.00 0.4184306
386.10 0.4188638
386.20 0.4194112
386.30 0.4199579
386.40 0.4204777
386.50 0.4210253
386.60 0.4215285
386.70 0.4220734
386.80 0.4225727
386.90 0.4230716
387.00 0.4236684
387.10 0.424166
387.20 0.4246852
387.30 0.4251595
387.40 0.4256531
387.50 0.4262808
387.60 0.4267867
387.70 0.4272808
387.80 0.4277744
387.90 0.4282674
388.00 0.4287842
388.10 0.4293617
388.20 0.4299609
388.30 0.4304741
388.40 0.4309868
388.50 0.4315149
388.60 0.4320601
388.70 0.4325406
388.80 0.4330181
388.90 0.4335164
389.00 0.4340431
389.10 0.4346371
389.20 0.4352159
389.30 0.4357472
389.40 0.4362496
389.50 0.4367584
389.60 0.4372939
389.70 0.4378669
389.80 0.4383933
389.90 0.4389191
390.00 0.4394443
390.10 0.4399689
390.20 0.440493
390.30 0.4410142
390.40 0.4415324
390.50 0.4420501
390.60 0.4425671
390.70 0.4430835
390.80 0.4435756
390.90 0.4440434
391.00 0.444562
391.10 0.4451013
391.20 0.4456782
391.30 0.4462959
391.40 0.4467979
391.50 0.4472993
391.60 0.4478002
391.70 0.4483005
391.80 0.4488002
391.90 0.449341
392.00 0.4499039
392.10 0.4504302
392.20 0.4509678
392.30 0.4515373
392.40 0.4520253
392.50 0.4525249
392.60 0.4531651
392.70 0.4536305
392.80 0.4541519
392.90 0.4547579
393.00 0.455266
393.10 0.455781
393.20 0.4563064
393.30 0.4568552
393.40 0.4573766
393.50 0.4578689
393.60 0.4583997
393.70 0.4589656
393.80 0.459417
393.90 0.4599622
394.00 0.4605121
394.10 0.4610927
394.20 0.4616479
394.30 0.4621834
394.40 0.4626805
394.50 0.4632371
394.60 0.4637727
394.70 0.464312
394.80 0.4648667
394.90 0.4654191
395.00 0.4659246
395.10 0.4664915
395.20 0.4669916
395.30 0.4674827
395.40 0.4679732
395.50 0.4684929
395.60 0.469023
395.70 0.4695638
395.80 0.4701347
395.90 0.470705
396.00 0.4712584
396.10 0.4716852
396.20 0.4722166
396.30 0.4727704
396.40 0.473386
396.50 0.4738579
396.60 0.4744444
396.70 0.4750072
396.80 0.4755157
396.90 0.4760703
397.00 0.4764946
397.10 0.4771057
397.20 0.4776981
397.30 0.478188
397.40 0.4786956
397.50 0.4792026
397.60 0.4797122
397.70 0.4802533
397.80 0.4807938
397.90 0.4813352
398.00 0.48188
398.10 0.4824243
398.20 0.4829572
398.30 0.4834775
398.40 0.4839977
398.50 0.4845349
398.60 0.4851653
398.70 0.48571
398.80 0.4862242
398.90 0.4867351
399.00 0.4872405
399.10 0.4879085
399.20 0.4884366
399.30 0.4889642
399.40 0.4894912
399.50 0.4900177
399.60 0.490555
399.70 0.491096
399.80 0.4916363
399.90 0.4921761
400.00 0.492715
400.10 0.4932426
400.20 0.4937252
400.30 0.4942641
400.40 0.4948113
400.50 0.495311
400.60 0.4959477
400.70 0.4964524
400.80 0.4970176
400.90 0.4975775
401.00 0.4981026
401.10 0.4986101
401.20 0.4991102
401.30 0.4996279
401.40 0.5001747
401.50 0.5007273
401.60 0.5012782
401.70 0.5017964
401.80 0.5024063
401.90 0.5029432
402.00 0.5034378
402.10 0.5039935
402.20 0.5045942
402.30 0.5050804
402.40 0.5055708
402.50 0.5061401
402.60 0.5067433
402.70 0.5072926
402.80 0.5078679
402.90 0.5083764
403.00 0.5088678
403.10 0.5094248
403.20 0.5100205
403.30 0.5105292
403.40 0.5109996
403.50 0.5115823
403.60 0.512186
403.70 0.5126877
403.80 0.5132793
403.90 0.5137731
404.00 0.5142534
404.10 0.5147962
404.20 0.515363
404.30 0.5159291
404.40 0.5165095
404.50 0.5170594
404.60 0.5175417
404.70 0.5180234
404.80 0.5186104
404.90 0.519149
405.00 0.5196985
405.10 0.520272
405.20 0.5208327
405.30 0.5213927
405.40 0.5219248
405.50 0.5224564
405.60 0.5229874
405.70 0.5235178
405.80 0.5240476
405.90 0.5245768
406.00 0.5251375
406.10 0.5256976
406.20 0.526257
406.30 0.5268159
406.40 0.5273658
406.50 0.5278234
406.60 0.5284544
406.70 0.5289654
406.80 0.5294656
406.90 0.5299694
407.00 0.5305191
407.10 0.5310683
407.20 0.5316169
407.30 0.5321648
407.40 0.5327122
407.50 0.5332589
407.60 0.5338051
407.70 0.5343506
407.80 0.5348956
407.90 0.5354396
408.00 0.5359701
408.10 0.5365027
408.20 0.5370726
408.30 0.5376486
408.40 0.538224
408.50 0.5386694
408.60 0.5392402
408.70 0.5398104
408.80 0.5403695
408.90 0.5408658
409.00 0.5414329
409.10 0.5419993
409.20 0.5425651
409.30 0.5431304
409.40 0.5436938
409.50 0.5442201
409.60 0.5447459
409.70 0.5452749
409.80 0.545819
409.90 0.5463615
410.00 0.5468701
410.10 0.5474014
410.20 0.5479421
410.30 0.5484846
410.40 0.5490337
410.50 0.5496046
410.60 0.5501748
410.70 0.5507315
410.80 0.5512361
410.90 0.5517402
411.00 0.5523045
411.10 0.5528907
411.20 0.5534762
411.30 0.554053
411.40 0.5545961
411.50 0.5551107
411.60 0.5556248
411.70 0.5561399
411.80 0.5566613
411.90 0.557182
412.00 0.5578603
412.10 0.5583798
412.20 0.5588988
412.30 0.5594212
412.40 0.5599578
412.50 0.5604748
412.60 0.5611041
412.70 0.56165
412.80 0.5621747
412.90 0.5626969
413.00 0.5632248
413.10 0.5637636
413.20 0.5643017
413.30 0.5648393
413.40 0.5653762
413.50 0.5659142
413.60 0.5664593
413.70 0.5670088
413.80 0.5675578
413.90 0.5681061
414.00 0.5686632
414.10 0.5692495
414.20 0.5698164
414.30 0.5703232
414.40 0.5708294
414.50 0.5714842
414.60 0.5719965
414.70 0.572501
414.80 0.5730237
414.90 0.5736051
415.00 0.5741858
415.10 0.5747659
415.20 0.5753378
415.30 0.5758849
415.40 0.5764315
415.50 0.5769761
415.60 0.5774782
415.70 0.5779798
415.80 0.57849
415.90 0.5790285
416.00 0.5795665
416.10 0.5801117
416.20 0.5806876
416.30 0.5812629
416.40 0.5818375
416.50 0.5824092
416.60 0.5829029
416.70 0.5834076
416.80 0.5840463
416.90 0.5845351
417.00 0.5851027
417.10 0.5856741
417.20 0.5862415
417.30 0.5868074
417.40 0.5873428
417.50 0.5878776
417.60 0.5884066
417.70 0.5889148
417.80 0.589453
417.90 0.5899906
418.00 0.5905276
418.10 0.591064
418.20 0.5915999
418.30 0.5921398
418.40 0.592794
418.50 0.5933428
418.60 0.5938909
418.70 0.5944384
418.80 0.5949854
418.90 0.5955317
419.00 0.5960775
419.10 0.5966226
419.20 0.5971672
419.30 0.5977106
419.40 0.5982344
419.50 0.5987577
419.60 0.5992835
419.70 0.5998216
419.80 0.6003592
419.90 0.600899
420.00 0.6014475
420.10 0.6019953
420.20 0.6025426
420.30 0.6030893
420.40 0.6036354
420.50 0.6041809
420.60 0.6047258
420.70 0.6052701
420.80 0.6058138
420.90 0.6063566
421.00 0.6068857
421.10 0.6074142
421.20 0.6079485
421.30 0.6085012
421.40 0.6090533
421.50 0.6096049
421.60 0.6101558
421.70 0.6107062
421.80 0.611256
421.90 0.6118167
422.00 0.6124134
422.10 0.6129937
422.20 0.6135109
422.30 0.6140275
422.40 0.6145446
422.50 0.6150971
422.60 0.615649
422.70 0.6162003
422.80 0.6167511
422.90 0.6173012
423.00 0.6178507
423.10 0.6183997
423.20 0.618948
423.30 0.6194958
423.40 0.620043
423.50 0.6205896
423.60 0.6211356
423.70 0.621681
423.80 0.6222259
423.90 0.6227702
424.00 0.6233138
424.10 0.6238569
424.20 0.6243995
424.30 0.6249414
424.40 0.6254565
424.50 0.6260044
424.60 0.6265517
424.70 0.6270984
424.80 0.6276445
424.90 0.6281901
425.00 0.628735
425.10 0.6292794
425.20 0.6298232
425.30 0.6303665
425.40 0.6309099
425.50 0.6314577
425.60 0.6320049
425.70 0.6325516
425.80 0.6330976
425.90 0.6336431
426.00 0.634188
426.10 0.6347323
426.20 0.6352761
426.30 0.6358192
426.40 0.6363618
426.50 0.6369038
426.60 0.6374452
426.70 0.6379861
426.80 0.6385264
426.90 0.6390663
427.00 0.6396133
427.10 0.6401597
427.20 0.6407056
427.30 0.6412508
427.40 0.6417955
427.50 0.6423396
427.60 0.6428831
427.70 0.6434261
427.80 0.6439684
427.90 0.6445102
428.00 0.6450514
428.10 0.6455921
428.20 0.6461321
428.30 0.6466716
428.40 0.6472105
428.50 0.6477489
428.60 0.6482866
428.70 0.6488238
428.80 0.6493614
428.90 0.6499107
429.00 0.6504595
429.10 0.6510076
429.20 0.6515552
429.30 0.6521022
429.40 0.6526486
429.50 0.6531945
429.60 0.6537398
429.70 0.6542845
429.80 0.6548286
429.90 0.6553721
430.00 0.6559151
430.10 0.6564575
430.20 0.6569993
430.30 0.6575405
430.40 0.6580812
430.50 0.6586212
430.60 0.6591608
430.70 0.6596997
430.80 0.6602381
430.90 0.6607759
431.00 0.6613131
431.10 0.6618498
431.20 0.6623859
431.30 0.6629225
431.40 0.6634733
431.50 0.6640236
431.60 0.6645732
431.70 0.6651223
431.80 0.6656708
431.90 0.6662187
432.00 0.666766
432.10 0.6673128
432.20 0.667859
432.30 0.6684046
432.40 0.6689496
432.50 0.6694941
432.60 0.670038
432.70 0.6705813
432.80 0.671124
432.90 0.6716662
433.00 0.6722077
433.10 0.6727488
433.20 0.6732892
433.30 0.673828
433.40 0.6743522
433.50 0.6748758
433.60 0.6753989
433.70 0.6759214
433.80 0.6764541
433.90 0.6769993
434.00 0.6775398
434.10 0.6780773
434.20 0.6786142
434.30 0.6791505
434.40 0.6796863
434.50 0.6802215
434.60 0.6807562
434.70 0.6812903
434.80 0.6818243
434.90 0.682365
435.00 0.6829051
435.10 0.6834446
435.20 0.6839836
435.30 0.6845219
435.40 0.6850598
435.50 0.685597
435.60 0.6861337
435.70 0.6866698
435.80 0.6872054
435.90 0.6877404
436.00 0.6882748
436.10 0.6888087
436.20 0.689342
436.30 0.6899066
436.40 0.6905054
436.50 0.6910473
436.60 0.6915887
436.70 0.6921295
436.80 0.6926697
436.90 0.6932094
437.00 0.6937485
437.10 0.6942871
437.20 0.6947974
437.30 0.6952817
437.40 0.6957699
437.50 0.6963167
437.60 0.6968628
437.70 0.6974084
437.80 0.6979533
437.90 0.6984978
438.00 0.699041
438.10 0.699576
438.20 0.7001103
438.30 0.7006215
438.40 0.7012563
438.50 0.701774
438.60 0.7022814
438.70 0.7027981
438.80 0.7033961
438.90 0.7038297
439.00 0.7043594
439.10 0.7049434
439.20 0.705522
439.30 0.7060354
439.40 0.7065481
439.50 0.7070604
439.60 0.7075845
439.70 0.7081521
439.80 0.708643
439.90 0.7091759
440.00 0.7097082
440.10 0.7102399
440.20 0.7107715
440.30 0.711307
440.40 0.711842
440.50 0.7123765
440.60 0.7129104
440.70 0.7134437
440.80 0.7139765
440.90 0.7145087
441.00 0.7150404
441.10 0.7155715
441.20 0.7161018
441.30 0.716628
441.40 0.7171731
441.50 0.7177412
441.60 0.7183087
441.70 0.7188244
441.80 0.7193598
441.90 0.7198946
442.00 0.7204289
442.10 0.7209626
442.20 0.7214958
442.30 0.7220284
442.40 0.7225586
442.50 0.7230859
442.60 0.7236128
442.70 0.7241273
442.80 0.7246252
442.90 0.7251426
443.00 0.7256942
443.10 0.7262875
443.20 0.7268478
443.30 0.7273777
443.40 0.7278898
443.50 0.7283804
443.60 0.7289454
443.70 0.7294349
443.80 0.7299409
443.90 0.7304974
444.00 0.7309921
444.10 0.7315476
444.20 0.7321126
444.30 0.732657
444.40 0.7331573
444.50 0.7336571
444.60 0.7341631
444.70 0.7346768
444.80 0.735202
444.90 0.7357378
445.00 0.7362731
445.10 0.7368077
445.20 0.7373431
445.30 0.7378793
445.40 0.738415
445.50 0.7389502
445.60 0.7394848
445.70 0.7400188
445.80 0.7405509
445.90 0.7410812
446.00 0.7416109
446.10 0.74214
446.20 0.7426855
446.30 0.7432127
446.40 0.7436877
446.50 0.7442297
446.60 0.7447712
446.70 0.7453121
446.80 0.7458175
446.90 0.7462901
447.00 0.746867
447.10 0.7474057
447.20 0.7479035
447.30 0.7484814
447.40 0.7489487
447.50 0.7494852
447.60 0.7500267
447.70 0.7505727
447.80 0.7510447
447.90 0.7516106
448.00 0.7521479
448.10 0.7526588
448.20 0.7531692
448.30 0.7536791
448.40 0.7541884
448.50 0.7546972
448.60 0.7552192
448.70 0.7557532
448.80 0.7562863
448.90 0.7568143
449.00 0.7573418
449.10 0.7578687
449.20 0.7583951
449.30 0.7589312
449.40 0.759451
449.50 0.7599701
449.60 0.7604932
449.70 0.7610198
449.80 0.7615459
449.90 0.7620715
450.00 0.7625965
450.10 0.7631209
450.20 0.7636448
450.30 0.7641682
450.40 0.7646889
450.50 0.7652091
450.60 0.7657288
450.70 0.7662479
450.80 0.7667665
450.90 0.7672845
451.00 0.7677957
451.10 0.7683063
451.20 0.7688225
451.30 0.7693514
451.40 0.7698667
451.50 0.7703816
451.60 0.7708959
451.70 0.7714097
451.80 0.7719229
451.90 0.7724357
452.00 0.7729479
452.10 0.7734595
452.20 0.7740035
452.30 0.7745469
452.40 0.7750897
452.50 0.775632
452.60 0.7760861
452.70 0.7765775
452.80 0.7771035
452.90 0.7776288
453.00 0.7781537
453.10 0.7786779
453.20 0.7791922
453.30 0.779706
453.40 0.7802193
453.50 0.780732
453.60 0.7812442
453.70 0.7817558
453.80 0.782273
453.90 0.7827968
454.00 0.7833202
454.10 0.7838429
454.20 0.7843525
454.30 0.7848616
454.40 0.7853702
454.50 0.7858782
454.60 0.7863857
454.70 0.7868984
454.80 0.7874158
454.90 0.7879327
455.00 0.7884491
455.10 0.7889649
455.20 0.7894803
455.30 0.789995
455.40 0.7905093
455.50 0.791023
455.60 0.7915362
455.70 0.7920489
455.80 0.7925673
455.90 0.7930852
456.00 0.7936026
456.10 0.7941192
456.20 0.7946349
456.30 0.79515
456.40 0.7956647
456.50 0.7961787
456.60 0.7966923
456.70 0.7972054
456.80 0.7977179
456.90 0.7982299
457.00 0.7987413
457.10 0.7992523
457.20 0.7997007
457.30 0.8002132
457.40 0.8007252
457.50 0.8012367
457.60 0.8017477
457.70 0.8022581
457.80 0.802768
457.90 0.8032774
458.00 0.8037863
458.10 0.8042946
458.20 0.8048024
458.30 0.8053097
458.40 0.8058165
458.50 0.8063228
458.60 0.8068285
458.70 0.8073439
458.80 0.8078629
458.90 0.8083814
459.00 0.8088994
459.10 0.8094168
459.20 0.8099337
459.30 0.8104423
459.40 0.8109504
459.50 0.8114579
459.60 0.811965
459.70 0.8124715
459.80 0.8129775
459.90 0.813483
460.00 0.813988
460.10 0.8144924
460.20 0.8149964
460.30 0.8154998
460.40 0.8160027
460.50 0.8165051
460.60 0.817007
460.70 0.8175156
460.80 0.8180273
460.90 0.8185385
461.00 0.8190492
461.10 0.8195593
461.20 0.8200646
461.30 0.8205676
461.40 0.8210736
461.50 0.8215801
461.60 0.8220861
461.70 0.8225915
461.80 0.8230984
461.90 0.8236048
462.00 0.8241107
462.10 0.8246161
462.20 0.8251209
462.30 0.8256253
462.40 0.8261291
462.50 0.8266324
462.60 0.8271352
462.70 0.8276375
462.80 0.8281393
462.90 0.8286406
463.00 0.8291413
463.10 0.8296416
463.20 0.8301363
463.30 0.8306285
463.40 0.8311202
463.50 0.8316114
463.60 0.8321021
463.70 0.8325923
463.80 0.833082
463.90 0.8335832
464.00 0.8340869
464.10 0.8345901
464.20 0.8350928
464.30 0.835595
464.40 0.8360966
464.50 0.8365978
464.60 0.8370984
464.70 0.8375943
464.80 0.838088
464.90 0.8385811
465.00 0.8390737
465.10 0.8395659
465.20 0.8400575
465.30 0.8405503
465.40 0.8410438
465.50 0.8415367
465.60 0.8420292
465.70 0.8425211
465.80 0.8430125
465.90 0.8435226
466.00 0.844037
466.10 0.8445509
466.20 0.8450643
466.30 0.8455604
466.40 0.8460492
466.50 0.8465376
466.60 0.8470254
466.70 0.8475128
466.80 0.8479996
466.90 0.8484859
467.00 0.8489718
467.10 0.8494572
467.20 0.849942
467.30 0.8504956
467.40 0.8509965
467.50 0.851477
467.60 0.8519569
467.70 0.8524364
467.80 0.8529153
467.90 0.8534046
468.00 0.8538978
468.10 0.8543904
468.20 0.8548826
468.30 0.8553742
468.40 0.8558654
468.50 0.8563995
468.60 0.8568205
468.70 0.8573793
468.80 0.8578006
468.90 0.8582785
469.00 0.85879
469.10 0.8592897
469.20 0.8597769
469.30 0.8602636
469.40 0.8607498
469.50 0.8612465
469.60 0.8617473
469.70 0.8622475
469.80 0.8627472
469.90 0.8632466
470.00 0.8636771
470.10 0.8641506
470.20 0.8646485
470.30 0.8651458
470.40 0.8656427
470.50 0.8661391
470.60 0.8666225
470.70 0.8671023
470.80 0.8675816
470.90 0.8680605
471.00 0.8685717
471.10 0.8690266
471.20 0.8695425
471.30 0.8700496
471.40 0.8704958
471.50 0.8710321
471.60 0.8715196
471.70 0.8719945
471.80 0.872469
471.90 0.8729429
472.00 0.8734164
472.10 0.8738894
472.20 0.874369
472.30 0.8748498
472.40 0.8753301
472.50 0.8758099
472.60 0.8762893
472.70 0.876821
472.80 0.8773168
472.90 0.877798
473.00 0.8782786
473.10 0.8787588
473.20 0.8792385
473.30 0.8797177
473.40 0.8801964
473.50 0.8806747
473.60 0.8811524
473.70 0.8816297
473.80 0.8821056
473.90 0.8825807
474.00 0.8830554
474.10 0.8835296
474.20 0.8840078
474.30 0.8844873
474.40 0.8849663
474.50 0.8854449
474.60 0.8859228
474.70 0.8863993
474.80 0.8868752
474.90 0.8873506
475.00 0.8878256
475.10 0.8883001
475.20 0.8887741
475.30 0.8892477
475.40 0.8897242
475.50 0.8902011
475.60 0.8906775
475.70 0.8911534
475.80 0.8916289
475.90 0.8921038
476.00 0.8925783
476.10 0.8930524
476.20 0.8935315
476.30 0.8940124
476.40 0.8944929
476.50 0.8949729
476.60 0.8954523
476.70 0.8959314
476.80 0.8964099
476.90 0.8968833
477.00 0.897355
477.10 0.8978262
477.20 0.898297
477.30 0.8987673
477.40 0.8992371
477.50 0.8997065
477.60 0.9001754
477.70 0.9006438
477.80 0.9011117
477.90 0.9015792
478.00 0.9020462
478.10 0.9025127
478.20 0.9029788
478.30 0.9034444
478.40 0.9039095
478.50 0.9043741
478.60 0.9048383
478.70 0.905314
478.80 0.9057941
478.90 0.9062574
479.00 0.9067163
479.10 0.9071747
479.20 0.9076326
479.30 0.90809
479.40 0.9085588
479.50 0.9090341
479.60 0.9095089
479.70 0.9099832
479.80 0.910457
479.90 0.9109304
480.00 0.9114033
480.10 0.9118757
480.20 0.9123477
480.30 0.9128191
480.40 0.9132901
480.50 0.9137607
480.60 0.9142307
480.70 0.9147003
480.80 0.9151694
480.90 0.9156381
481.00 0.9161063
481.10 0.916574
481.20 0.9170309
481.30 0.9174873
481.40 0.9179433
481.50 0.9183988
481.60 0.9188539
481.70 0.9193085
481.80 0.9197627
481.90 0.9202164
482.00 0.9206696
482.10 0.9211224
482.20 0.9215755
482.30 0.922038
482.40 0.9225002
482.50 0.9229618
482.60 0.923423
482.70 0.9238837
482.80 0.924344
482.90 0.9248038
483.00 0.9252631
483.10 0.925722
483.20 0.9261805
483.30 0.9266384
483.40 0.9270959
483.50 0.927553
483.60 0.9280096
483.70 0.9284701
483.80 0.9289301
483.90 0.9293897
484.00 0.9298488
484.10 0.9303075
484.20 0.9307738
484.30 0.9312431
484.40 0.931712
484.50 0.9321805
484.60 0.9326484
484.70 0.9331153
484.80 0.933574
484.90 0.9340322
485.00 0.93449
485.10 0.9349473
485.20 0.9354042
485.30 0.9358606
485.40 0.9363165
485.50 0.936772
485.60 0.9372271
485.70 0.9376739
485.80 0.9381204
485.90 0.9385664
486.00 0.9390119
486.10 0.939457
486.20 0.9399016
486.30 0.9403458
486.40 0.9407896
486.50 0.9412329
486.60 0.9416758
486.70 0.9421186
486.80 0.9425665
486.90 0.9430139
487.00 0.9434608
487.10 0.9439073
487.20 0.9443682
487.30 0.9448286
487.40 0.9452886
487.50 0.9457481
487.60 0.9462072
487.70 0.9466658
487.80 0.947124
487.90 0.9475817
488.00 0.9480389
488.10 0.9484957
488.20 0.9489505
488.30 0.9493833
488.40 0.9498158
488.50 0.9502478
488.60 0.9506794
488.70 0.9511105
488.80 0.9515474
488.90 0.9519838
489.00 0.9524262
489.10 0.9528845
489.20 0.9533423
489.30 0.9537996
489.40 0.9542565
489.50 0.9547129
489.60 0.9551689
489.70 0.9556244
489.80 0.9560746
489.90 0.9565005
490.00 0.9569259
490.10 0.9573509
490.20 0.9577755
490.30 0.9581997
490.40 0.958646
490.50 0.9590919
490.60 0.9595373
490.70 0.9599823
490.80 0.9604294
490.90 0.9608709
491.00 0.9613146
491.10 0.9617578
491.20 0.9622005
491.30 0.9626429
491.40 0.9630874
491.50 0.9635262
491.60 0.9639581
491.70 0.9644048
491.80 0.9648505
491.90 0.9652876
492.00 0.9657297
492.10 0.9661685
492.20 0.9666069
492.30 0.9670448
492.40 0.9674822
492.50 0.9679167
492.60 0.9683561
492.70 0.9687923
492.80 0.9692281
492.90 0.9696634
493.00 0.9700983
493.10 0.9705322
493.20 0.9709657
493.30 0.9713988
493.40 0.9718314
493.50 0.9722636
493.60 0.9726984
493.70 0.9731262
493.80 0.9735536
493.90 0.973992
494.00 0.9744478
494.10 0.9748926
494.20 0.9753145
494.30 0.975736
494.40 0.976157
494.50 0.9765776
494.60 0.9770002
494.70 0.9774535
494.80 0.9779046
494.90 0.9783498
495.00 0.9787946
495.10 0.979239
495.20 0.9796689
495.30 0.9800985
495.40 0.9805276
495.50 0.9809563
495.60 0.9813846
495.70 0.9818124
495.80 0.9822398
495.90 0.9826668
496.00 0.9830934
496.10 0.9835076
496.20 0.9838993
496.30 0.9843328
496.40 0.9847659
496.50 0.9851986
496.60 0.9856309
496.70 0.9860572
496.80 0.9864832
496.90 0.9869087
497.00 0.9873339
497.10 0.9877585
497.20 0.9881828
497.30 0.9886043
497.40 0.9890186
497.50 0.9894326
497.60 0.989864
497.70 0.9903302
497.80 0.9907563
497.90 0.991182
498.00 0.9916074
498.10 0.9920322
498.20 0.9924567
498.30 0.9928807
498.40 0.9933044
498.50 0.9937276
498.60 0.9941504
498.70 0.9945611
498.80 0.9949715
498.90 0.9953931
499.00 0.9958144
499.10 0.9962352
499.20 0.9966535
499.30 0.9970694
499.40 0.9974921
499.50 0.9979143
499.60 0.9983361
499.70 0.9987571
499.80 0.9991718
499.90 0.9995861
500.00 1
500.10 1.000413
500.20 1.00083
500.30 1.001252
500.40 1.001673
500.50 1.002095
500.60 1.002515
500.70 1.002936
500.80 1.003351
500.90 1.003756
501.00 1.004161
501.10 1.004565
501.20 1.005061
501.30 1.005462
501.40 1.005861
501.50 1.006261
501.60 1.006659
501.70 1.007058
501.80 1.007563
501.90 1.00796
502.00 1.00836
502.10 1.008762
502.20 1.009164
502.30 1.009552
502.40 1.009948
502.50 1.010361
502.60 1.010774
502.70 1.011186
502.80 1.011598
502.90 1.012009
503.00 1.012428
503.10 1.012861
503.20 1.013294
503.30 1.013727
503.40 1.014148
503.50 1.014538
503.60 1.014927
503.70 1.015317
503.80 1.015709
503.90 1.016128
504.00 1.016542
504.10 1.016945
504.20 1.017348
504.30 1.01775
504.40 1.018162
504.50 1.018602
504.60 1.019028
504.70 1.019415
504.80 1.019801
504.90 1.020187
505.00 1.020677
505.10 1.021062
505.20 1.02145
505.30 1.021846
505.40 1.022242
505.50 1.022637
505.60 1.023037
505.70 1.023446
505.80 1.023856
505.90 1.024264
506.00 1.024672
506.10 1.02508
506.20 1.025487
506.30 1.02589
506.40 1.026292
506.50 1.026695
506.60 1.027097
506.70 1.027498
506.80 1.027899
506.90 1.0283
507.00 1.0287
507.10 1.029094
507.20 1.029482
507.30 1.029884
507.40 1.030286
507.50 1.030688
507.60 1.031089
507.70 1.03149
507.80 1.03189
507.90 1.032291
508.00 1.03269
508.10 1.033089
508.20 1.033488
508.30 1.033887
508.40 1.034285
508.50 1.034683
508.60 1.03508
508.70 1.035477
508.80 1.035872
508.90 1.036211
509.00 1.036532
509.10 1.036894
509.20 1.037345
509.30 1.037796
509.40 1.038246
509.50 1.038696
509.60 1.039145
509.70 1.039594
509.80 1.040043
509.90 1.040491
510.00 1.040938
510.10 1.041386
510.20 1.041832
510.30 1.042264
510.40 1.042652
510.50 1.043039
510.60 1.043426
510.70 1.043813
510.80 1.044199
510.90 1.044585
511.00 1.044971
511.10 1.045356
511.20 1.045741
511.30 1.046125
511.40 1.046509
511.50 1.046893
511.60 1.047255
511.70 1.047572
511.80 1.047888
511.90 1.048204
512.00 1.04852
512.10 1.048835
512.20 1.04915
512.30 1.049487
512.40 1.049888
512.50 1.050288
512.60 1.050688
512.70 1.051088
512.80 1.051487
512.90 1.051886
513.00 1.052284
513.10 1.052682
513.20 1.05308
513.30 1.053477
513.40 1.053874
513.50 1.054271
513.60 1.054667
513.70 1.055062
513.80 1.055458
513.90 1.055852
514.00 1.056234
514.10 1.056614
514.20 1.056993
514.30 1.057372
514.40 1.05775
514.50 1.058128
514.60 1.058505
514.70 1.058883
514.80 1.059259
514.90 1.059636
515.00 1.060012
515.10 1.060388
515.20 1.060763
515.30 1.061138
515.40 1.061512
515.50 1.061887
515.60 1.06226
515.70 1.062634
515.80 1.063007
515.90 1.06338
516.00 1.063752
516.10 1.064124
516.20 1.064496
516.30 1.064867
516.40 1.065238
516.50 1.065609
516.60 1.065979
516.70 1.066349
516.80 1.066719
516.90 1.067088
517.00 1.067457
517.10 1.067826
517.20 1.068194
517.30 1.068562
517.40 1.06893
517.50 1.069297
517.60 1.069664
517.70 1.07003
517.80 1.070396
517.90 1.070762
518.00 1.071127
518.10 1.071492
518.20 1.071857
518.30 1.072221
518.40 1.072585
518.50 1.072949
518.60 1.073312
518.70 1.073675
518.80 1.074037
518.90 1.074399
519.00 1.074761
519.10 1.075128
519.20 1.0755
519.30 1.075872
519.40 1.076244
519.50 1.076615
519.60 1.076986
519.70 1.077356
519.80 1.077726
519.90 1.078096
520.00 1.078465
520.10 1.078834
520.20 1.079203
520.30 1.079571
520.40 1.079939
520.50 1.080307
520.60 1.080674
520.70 1.081041
520.80 1.081407
520.90 1.081774
521.00 1.082139
521.10 1.082505
521.20 1.08287
521.30 1.083235
521.40 1.083599
521.50 1.083963
521.60 1.084326
521.70 1.08469
521.80 1.085053
521.90 1.085415
522.00 1.085777
522.10 1.086139
522.20 1.086501
522.30 1.086862
522.40 1.087222
522.50 1.087583
522.60 1.087943
522.70 1.088303
522.80 1.088662
522.90 1.089021
523.00 1.089379
523.10 1.089738
523.20 1.090096
523.30 1.090453
523.40 1.09081
523.50 1.091167
523.60 1.091524
523.70 1.09188
523.80 1.092236
523.90 1.092591
524.00 1.092946
524.10 1.093301
524.20 1.093655
524.30 1.094016
524.40 1.094381
524.50 1.094745
524.60 1.095109
524.70 1.095473
524.80 1.095836
524.90 1.096199
525.00 1.096562
525.10 1.096924
525.20 1.097286
525.30 1.097648
525.40 1.098009
525.50 1.09837
525.60 1.098731
525.70 1.099091
525.80 1.099451
525.90 1.09981
526.00 1.100169
526.10 1.100528
526.20 1.100886
526.30 1.101244
526.40 1.101602
526.50 1.10196
526.60 1.102317
526.70 1.102673
526.80 1.10303
526.90 1.103386
527.00 1.103741
527.10 1.104096
527.20 1.104451
527.30 1.104806
527.40 1.10516
527.50 1.105514
527.60 1.105868
527.70 1.106221
527.80 1.106574
527.90 1.106926
528.00 1.107278
528.10 1.10763
528.20 1.107981
528.30 1.108333
528.40 1.108683
528.50 1.109034
528.60 1.109384
528.70 1.109734
528.80 1.110083
528.90 1.110432
529.00 1.110781
529.10 1.111129
529.20 1.111477
529.30 1.111825
529.40 1.112172
529.50 1.112518
529.60 1.112857
529.70 1.113195
529.80 1.113533
529.90 1.113871
530.00 1.114209
530.10 1.114546
530.20 1.114883
530.30 1.115219
530.40 1.115555
530.50 1.115891
530.60 1.116227
530.70 1.116562
530.80 1.116897
530.90 1.117231
531.00 1.117565
531.10 1.117899
531.20 1.118233
531.30 1.118566
531.40 1.118899
531.50 1.119231
531.60 1.119563
531.70 1.119895
531.80 1.120227
531.90 1.120558
532.00 1.120889
532.10 1.121219
532.20 1.12155
532.30 1.12188
532.40 1.12221
532.50 1.122539
532.60 1.122868
532.70 1.123197
532.80 1.123526
532.90 1.123854
533.00 1.124182
533.10 1.124509
533.20 1.124837
533.30 1.125164
533.40 1.12549
533.50 1.125816
533.60 1.126142
533.70 1.126468
533.80 1.126793
533.90 1.127118
534.00 1.127443
534.10 1.127767
534.20 1.128091
534.30 1.128415
534.40 1.128738
534.50 1.129061
534.60 1.129384
534.70 1.129706
534.80 1.130027
534.90 1.130341
535.00 1.130655
535.10 1.130969
535.20 1.131282
535.30 1.131595
535.40 1.131908
535.50 1.13222
535.60 1.132532
535.70 1.132844
535.80 1.133155
535.90 1.133466
536.00 1.133777
536.10 1.134088
536.20 1.134398
536.30 1.134708
536.40 1.135017
536.50 1.135327
536.60 1.135636
536.70 1.135944
536.80 1.136253
536.90 1.136561
537.00 1.136868
537.10 1.137176
537.20 1.137483
537.30 1.13779
537.40 1.138096
537.50 1.138402
537.60 1.138708
537.70 1.139014
537.80 1.139319
537.90 1.139624
538.00 1.139928
538.10 1.140233
538.20 1.140537
538.30 1.140841
538.40 1.141144
538.50 1.141447
538.60 1.14175
538.70 1.142052
538.80 1.142355
538.90 1.142657
539.00 1.142958
539.10 1.14326
539.20 1.143561
539.30 1.143861
539.40 1.144162
539.50 1.144462
539.60 1.144761
539.70 1.145061
539.80 1.14536
539.90 1.145659
540.00 1.145958
540.10 1.146256
540.20 1.146573
540.30 1.146898
540.40 1.147222
540.50 1.147546
540.60 1.14787
540.70 1.148193
540.80 1.148516
540.90 1.148839
541.00 1.149161
541.10 1.149483
541.20 1.149805
541.30 1.150127
541.40 1.150448
541.50 1.150769
541.60 1.151089
541.70 1.15141
541.80 1.151729
541.90 1.152049
542.00 1.152368
542.10 1.152687
542.20 1.153006
542.30 1.153324
542.40 1.153642
542.50 1.15396
542.60 1.154277
542.70 1.154594
542.80 1.154911
542.90 1.155228
543.00 1.155544
543.10 1.15586
543.20 1.156175
543.30 1.15649
543.40 1.156805
543.50 1.15712
543.60 1.157434
543.70 1.157748
543.80 1.158062
543.90 1.158375
544.00 1.158688
544.10 1.159001
544.20 1.159313
544.30 1.159625
544.40 1.159937
544.50 1.160249
544.60 1.16056
544.70 1.160871
544.80 1.161181
544.90 1.161492
545.00 1.161802
545.10 1.162111
545.20 1.162421
545.30 1.16273
545.40 1.163038
545.50 1.163347
545.60 1.163627
545.70 1.163894
545.80 1.164161
545.90 1.164428
546.00 1.164695
546.10 1.164961
546.20 1.165227
546.30 1.165493
546.40 1.165758
546.50 1.166023
546.60 1.166288
546.70 1.166553
546.80 1.166818
546.90 1.167082
547.00 1.167346
547.10 1.167609
547.20 1.167872
547.30 1.168135
547.40 1.168398
547.50 1.168661
547.60 1.168923
547.70 1.169185
547.80 1.169447
547.90 1.169708
548.00 1.169969
548.10 1.17023
548.20 1.170491
548.30 1.170765
548.40 1.171058
548.50 1.171351
548.60 1.171643
548.70 1.171936
548.80 1.172227
548.90 1.172519
549.00 1.17281
549.10 1.173101
549.20 1.173392
549.30 1.173683
549.40 1.173973
549.50 1.174263
549.60 1.174552
549.70 1.174842
549.80 1.175131
549.90 1.175419
550.00 1.175708
550.10 1.175996
550.20 1.176284
550.30 1.176571
550.40 1.176859
550.50 1.177146
550.60 1.177432
550.70 1.177719
550.80 1.178005
550.90 1.178291
551.00 1.178575
551.10 1.178853
551.20 1.179131
551.30 1.179408
551.40 1.179686
551.50 1.179963
551.60 1.180239
551.70 1.180516
551.80 1.180792
551.90 1.181067
552.00 1.181343
552.10 1.181618
552.20 1.181893
552.30 1.182168
552.40 1.182442
552.50 1.182717
552.60 1.18299
552.70 1.183264
552.80 1.183537
552.90 1.18381
553.00 1.184083
553.10 1.184356
553.20 1.184628
553.30 1.1849
553.40 1.185172
553.50 1.185443
553.60 1.185714
553.70 1.185985
553.80 1.186275
553.90 1.186577
554.00 1.186878
554.10 1.18718
554.20 1.187481
554.30 1.187782
554.40 1.188082
554.50 1.188383
554.60 1.188683
554.70 1.188982
554.80 1.189282
554.90 1.189581
555.00 1.18988
555.10 1.190178
555.20 1.190477
555.30 1.190775
555.40 1.191072
555.50 1.19137
555.60 1.191667
555.70 1.191963
555.80 1.19226
555.90 1.192556
556.00 1.192852
556.10 1.193148
556.20 1.193443
556.30 1.193738
556.40 1.194033
556.50 1.194325
556.60 1.194581
556.70 1.194837
556.80 1.195092
556.90 1.195347
557.00 1.195602
557.10 1.195857
557.20 1.196111
557.30 1.196365
557.40 1.196619
557.50 1.196873
557.60 1.197126
557.70 1.197379
557.80 1.197632
557.90 1.197884
558.00 1.198136
558.10 1.198388
558.20 1.19864
558.30 1.198892
558.40 1.199143
558.50 1.199394
558.60 1.199645
558.70 1.199895
558.80 1.200145
558.90 1.200395
559.00 1.200645
559.10 1.200894
559.20 1.201143
559.30 1.201392
559.40 1.201641
559.50 1.20189
559.60 1.202138
559.70 1.202386
559.80 1.202633
559.90 1.202881
560.00 1.203128
560.10 1.203375
560.20 1.203621
560.30 1.203868
560.40 1.204114
560.50 1.20436
560.60 1.204605
560.70 1.204851
560.80 1.205096
560.90 1.205341
561.00 1.205585
561.10 1.20583
561.20 1.206074
561.30 1.206318
561.40 1.206561
561.50 1.206805
561.60 1.207048
561.70 1.207291
561.80 1.207533
561.90 1.207776
562.00 1.208018
562.10 1.208269
562.20 1.208534
562.30 1.208799
562.40 1.209063
562.50 1.209328
562.60 1.209592
562.70 1.209855
562.80 1.210119
562.90 1.210382
563.00 1.210645
563.10 1.210908
563.20 1.21117
563.30 1.211432
563.40 1.211694
563.50 1.211956
563.60 1.212217
563.70 1.212478
563.80 1.212739
563.90 1.212999
564.00 1.21326
564.10 1.21352
564.20 1.213779
564.30 1.214039
564.40 1.214298
564.50 1.214557
564.60 1.214816
564.70 1.215074
564.80 1.215333
564.90 1.215582
565.00 1.21581
565.10 1.216038
565.20 1.216265
565.30 1.216493
565.40 1.21672
565.50 1.216947
565.60 1.217173
565.70 1.217399
565.80 1.217626
565.90 1.217852
566.00 1.218077
566.10 1.218303
566.20 1.218528
566.30 1.218753
566.40 1.218977
566.50 1.219202
566.60 1.219426
566.70 1.21965
566.80 1.219874
566.90 1.220098
567.00 1.220321
567.10 1.220544
567.20 1.220767
567.30 1.220989
567.40 1.221212
567.50 1.221434
567.60 1.221656
567.70 1.221882
567.80 1.222126
567.90 1.22237
568.00 1.222614
568.10 1.222857
568.20 1.223101
568.30 1.223344
568.40 1.223586
568.50 1.223829
568.60 1.224071
568.70 1.224313
568.80 1.224555
568.90 1.224796
569.00 1.225038
569.10 1.225279
569.20 1.225519
569.30 1.22576
569.40 1.226
569.50 1.22624
569.60 1.22648
569.70 1.22672
569.80 1.226959
569.90 1.227198
570.00 1.227437
570.10 1.227676
570.20 1.227914
570.30 1.228152
570.40 1.22839
570.50 1.228627
570.60 1.228865
570.70 1.229102
570.80 1.229339
570.90 1.229576
571.00 1.229812
571.10 1.230048
571.20 1.230284
571.30 1.23052
571.40 1.230755
571.50 1.23099
571.60 1.231225
571.70 1.23146
571.80 1.231695
571.90 1.231929
572.00 1.232163
572.10 1.232397
572.20 1.23263
572.30 1.232863
572.40 1.233097
572.50 1.233329
572.60 1.233562
572.70 1.233794
572.80 1.234026
572.90 1.234258
573.00 1.23449
573.10 1.234721
573.20 1.234952
573.30 1.235183
573.40 1.235405
573.50 1.235615
573.60 1.235825
573.70 1.236034
573.80 1.236243
573.90 1.236452
574.00 1.236661
574.10 1.236869
574.20 1.237078
574.30 1.237286
574.40 1.237493
574.50 1.237701
574.60 1.237908
574.70 1.238115
574.80 1.238322
574.90 1.238529
575.00 1.238736
575.10 1.238942
575.20 1.239148
575.30 1.239354
575.40 1.239559
575.50 1.239765
575.60 1.23997
575.70 1.240175
575.80 1.24038
575.90 1.240584
576.00 1.240788
576.10 1.240993
576.20 1.241196
576.30 1.2414
576.40 1.241604
576.50 1.241807
576.60 1.24201
576.70 1.242213
576.80 1.242415
576.90 1.242618
577.00 1.24282
577.10 1.243022
577.20 1.243223
577.30 1.243425
577.40 1.243626
577.50 1.243827
577.60 1.244028
577.70 1.244229
577.80 1.244429
577.90 1.244629
578.00 1.244829
578.10 1.245029
578.20 1.245228
578.30 1.245427
578.40 1.245627
578.50 1.245825
578.60 1.246024
578.70 1.246222
578.80 1.246421
578.90 1.246619
579.00 1.246816
579.10 1.247017
579.20 1.247245
579.30 1.247474
579.40 1.247702
579.50 1.24793
579.60 1.248158
579.70 1.248385
579.80 1.248612
579.90 1.248839
580.00 1.249066
580.10 1.249285
580.20 1.249493
580.30 1.2497
580.40 1.249906
580.50 1.250113
580.60 1.250319
580.70 1.250526
580.80 1.250732
580.90 1.250937
581.00 1.251143
581.10 1.251348
581.20 1.251553
581.30 1.251758
581.40 1.251963
581.50 1.252167
581.60 1.252371
581.70 1.252576
581.80 1.252779
581.90 1.252983
582.00 1.253186
582.10 1.253389
582.20 1.253592
582.30 1.253795
582.40 1.253998
582.50 1.2542
582.60 1.254402
582.70 1.254604
582.80 1.254806
582.90 1.255007
583.00 1.255208
583.10 1.255409
583.20 1.25561
583.30 1.255811
583.40 1.256011
583.50 1.256211
583.60 1.256399
583.70 1.256565
583.80 1.256731
583.90 1.256897
584.00 1.257063
584.10 1.257229
584.20 1.257394
584.30 1.257559
584.40 1.257724
584.50 1.257889
584.60 1.258054
584.70 1.258218
584.80 1.258383
584.90 1.258591
585.00 1.259001
585.10 1.259411
585.20 1.25971
585.30 1.259828
585.40 1.259945
585.50 1.260063
585.60 1.260181
585.70 1.260298
585.80 1.260415
585.90 1.260533
586.00 1.26065
586.10 1.260766
586.20 1.260923
586.30 1.261143
586.40 1.261364
586.50 1.261584
586.60 1.261804
586.70 1.262023
586.80 1.262218
586.90 1.262372
587.00 1.262527
587.10 1.262681
587.20 1.262908
587.30 1.263256
587.40 1.263309
587.50 1.263656
587.60 1.263984
587.70 1.263923
587.80 1.264216
587.90 1.264562
588.00 1.264835
588.10 1.264986
588.20 1.265138
588.30 1.26529
588.40 1.265466
588.50 1.265682
588.60 1.265897
588.70 1.266112
588.80 1.266328
588.90 1.266543
589.00 1.266747
589.10 1.266936
589.20 1.267125
589.30 1.267313
589.40 1.267501
589.50 1.267689
589.60 1.267877
589.70 1.268064
589.80 1.268251
589.90 1.268439
590.00 1.26862
590.10 1.268791
590.20 1.268962
590.30 1.269134
590.40 1.269304
590.50 1.269475
590.60 1.269646
590.70 1.269816
590.80 1.269955
590.90 1.270081
591.00 1.270206
591.10 1.270331
591.20 1.270455
591.30 1.27058
591.40 1.270704
591.50 1.270829
591.60 1.270975
591.70 1.271159
591.80 1.271343
591.90 1.271526
592.00 1.271709
592.10 1.271892
592.20 1.272075
592.30 1.272258
592.40 1.27244
592.50 1.272622
592.60 1.272804
592.70 1.272986
592.80 1.273167
592.90 1.273349
593.00 1.27353
593.10 1.273711
593.20 1.273892
593.30 1.274072
593.40 1.274253
593.50 1.274433
593.60 1.274613
593.70 1.274793
593.80 1.274973
593.90 1.275152
594.00 1.275331
594.10 1.27551
594.20 1.275689
594.30 1.275868
594.40 1.276046
594.50 1.276225
594.60 1.276403
594.70 1.276581
594.80 1.276758
594.90 1.276936
595.00 1.277113
595.10 1.277279
595.20 1.277427
595.30 1.277575
595.40 1.277722
595.50 1.277869
595.60 1.278016
595.70 1.278163
595.80 1.27831
595.90 1.278456
596.00 1.278603
596.10 1.278749
596.20 1.278895
596.30 1.279041
596.40 1.279186
596.50 1.279332
596.60 1.279477
596.70 1.279621
596.80 1.279763
596.90 1.279905
597.00 1.280047
597.10 1.280188
597.20 1.28033
597.30 1.280471
597.40 1.280612
597.50 1.280753
597.60 1.280907
597.70 1.281084
597.80 1.28126
597.90 1.281437
598.00 1.281613
598.10 1.281789
598.20 1.281964
598.30 1.28214
598.40 1.282315
598.50 1.28249
598.60 1.282665
598.70 1.28284
598.80 1.283014
598.90 1.283189
599.00 1.283363
599.10 1.283537
599.20 1.283711
599.30 1.283884
599.40 1.284054
599.50 1.284223
599.60 1.284392
599.70 1.28456
599.80 1.284729
599.90 1.284897
600.00 1.285066
600.10 1.285234
600.20 1.285401
600.30 1.285569
600.40 1.285737
600.50 1.285904
600.60 1.286071
600.70 1.286238
600.80 1.286405
600.90 1.286571
601.00 1.286737
601.10 1.286904
601.20 1.28707
601.30 1.287235
601.40 1.287376
601.50 1.287517
601.60 1.287657
601.70 1.287797
601.80 1.287937
601.90 1.288077
602.00 1.288216
602.10 1.288356
602.20 1.288495
602.30 1.288634
602.40 1.288773
602.50 1.288912
602.60 1.289051
602.70 1.289011
602.80 1.288962
602.90 1.289135
603.00 1.289307
603.10 1.289479
603.20 1.289651
603.30 1.289823
603.40 1.289994
603.50 1.290165
603.60 1.290337
603.70 1.290507
603.80 1.290678
603.90 1.290849
604.00 1.291019
604.10 1.291189
604.20 1.291359
604.30 1.291529
604.40 1.291699
604.50 1.291786
604.60 1.291872
604.70 1.291959
604.80 1.292045
604.90 1.292132
605.00 1.292218
605.10 1.292304
605.20 1.29239
605.30 1.292476
605.40 1.292561
605.50 1.292745
605.60 1.292928
605.70 1.29311
605.80 1.293293
605.90 1.293475
606.00 1.293658
606.10 1.293779
606.20 1.2939
606.30 1.294021
606.40 1.294141
606.50 1.294444
606.60 1.294747
606.70 1.294685
606.80 1.294987
606.90 1.294925
607.00 1.295226
607.10 1.295164
607.20 1.295101
607.30 1.295403
607.40 1.295704
607.50 1.296004
607.60 1.296305
607.70 1.296363
607.80 1.296421
607.90 1.296478
608.00 1.296536
608.10 1.296593
608.20 1.296651
608.30 1.296729
608.40 1.296808
608.50 1.296886
608.60 1.296964
608.70 1.297134
608.80 1.297344
608.90 1.297554
609.00 1.297764
609.10 1.297974
609.20 1.298183
609.30 1.298299
609.40 1.298415
609.50 1.298531
609.60 1.298647
609.70 1.298762
609.80 1.298878
609.90 1.298993
610.00 1.299108
610.10 1.299223
610.20 1.299338
610.30 1.299453
610.40 1.299567
610.50 1.299682
610.60 1.299796
610.70 1.29991
610.80 1.300024
610.90 1.300174
611.00 1.300324
611.10 1.300473
611.20 1.300622
611.30 1.300771
611.40 1.30092
611.50 1.301069
611.60 1.301218
611.70 1.301366
611.80 1.301514
611.90 1.301663
612.00 1.301811
612.10 1.301958
612.20 1.302106
612.30 1.302253
612.40 1.302365
612.50 1.302476
612.60 1.302587
612.70 1.302699
612.80 1.302809
612.90 1.30292
613.00 1.303031
613.10 1.303141
613.20 1.303252
613.30 1.303362
613.40 1.303472
613.50 1.303582
613.60 1.303692
613.70 1.303801
613.80 1.303911
613.90 1.30402
614.00 1.30413
614.10 1.304239
614.20 1.304348
614.30 1.304457
614.40 1.304543
614.50 1.30463
614.60 1.304717
614.70 1.304804
614.80 1.304919
614.90 1.30504
615.00 1.30516
615.10 1.305281
615.20 1.305401
615.30 1.305522
615.40 1.305642
615.50 1.305762
615.60 1.305882
615.70 1.306001
615.80 1.306121
615.90 1.30624
616.00 1.306359
616.10 1.306479
616.20 1.306598
616.30 1.306716
616.40 1.306835
616.50 1.306954
616.60 1.307072
616.70 1.30719
616.80 1.307308
616.90 1.307422
617.00 1.307536
617.10 1.30765
617.20 1.307764
617.30 1.307878
617.40 1.307991
617.50 1.308105
617.60 1.308218
617.70 1.308331
617.80 1.308444
617.90 1.308556
618.00 1.308669
618.10 1.308782
618.20 1.308894
618.30 1.309006
618.40 1.309118
618.50 1.30923
618.60 1.309342
618.70 1.309454
618.80 1.309565
618.90 1.309676
619.00 1.309788
619.10 1.309899
619.20 1.31001
619.30 1.31012
619.40 1.310231
619.50 1.310342
619.60 1.310452
619.70 1.310562
619.80 1.310672
619.90 1.310782
620.00 1.310892
620.10 1.311002
620.20 1.311111
620.30 1.311221
620.40 1.31133
620.50 1.311439
620.60 1.311548
620.70 1.311657
620.80 1.311766
620.90 1.311873
621.00 1.311977
621.10 1.312081
621.20 1.312185
621.30 1.312289
621.40 1.312393
621.50 1.312497
621.60 1.312601
621.70 1.312704
621.80 1.312807
621.90 1.31291
622.00 1.313013
622.10 1.313116
622.20 1.313219
622.30 1.313322
622.40 1.313424
622.50 1.313527
622.60 1.313629
622.70 1.313731
622.80 1.313833
622.90 1.313935
623.00 1.314036
623.10 1.314138
623.20 1.314239
623.30 1.314341
623.40 1.314442
623.50 1.314543
623.60 1.314644
623.70 1.314745
623.80 1.314845
623.90 1.314946
624.00 1.315046
624.10 1.315146
624.20 1.315246
624.30 1.315346
624.40 1.315446
624.50 1.315546
624.60 1.315646
624.70 1.315745
624.80 1.315844
624.90 1.315943
625.00 1.316043
625.10 1.316141
625.20 1.31624
625.30 1.316339
625.40 1.316437
625.50 1.316536
625.60 1.316634
625.70 1.316732
625.80 1.31683
625.90 1.316928
626.00 1.317026
626.10 1.317124
626.20 1.317221
626.30 1.317318
626.40 1.317416
626.50 1.317513
626.60 1.31761
626.70 1.317707
626.80 1.317803
626.90 1.3179
627.00 1.317996
627.10 1.318094
627.20 1.318196
627.30 1.318298
627.40 1.3184
627.50 1.318502
627.60 1.318603
627.70 1.318705
627.80 1.318806
627.90 1.318907
628.00 1.319008
628.10 1.319109
628.20 1.31921
628.30 1.31931
628.40 1.319411
628.50 1.319511
628.60 1.319611
628.70 1.319711
628.80 1.319811
628.90 1.319911
629.00 1.320011
629.10 1.320111
629.20 1.32021
629.30 1.320309
629.40 1.320408
629.50 1.320508
629.60 1.320606
629.70 1.320705
629.80 1.320804
629.90 1.320902
630.00 1.321001
630.10 1.321099
630.20 1.321197
630.30 1.321275
630.40 1.321352
630.50 1.321428
630.60 1.321504
630.70 1.321579
630.80 1.321655
630.90 1.321731
631.00 1.321806
631.10 1.321882
631.20 1.321957
631.30 1.322032
631.40 1.322107
631.50 1.322182
631.60 1.322257
631.70 1.322332
631.80 1.322406
631.90 1.322481
632.00 1.322555
632.10 1.322629
632.20 1.322703
632.30 1.322778
632.40 1.322851
632.50 1.322925
632.60 1.322999
632.70 1.323073
632.80 1.323146
632.90 1.323219
633.00 1.323293
633.10 1.323366
633.20 1.323439
633.30 1.323512
633.40 1.323594
633.50 1.323683
633.60 1.323772
633.70 1.323861
633.80 1.32395
633.90 1.324038
634.00 1.324127
634.10 1.324215
634.20 1.324303
634.30 1.324392
634.40 1.32448
634.50 1.324568
634.60 1.324655
634.70 1.324743
634.80 1.324831
634.90 1.324918
635.00 1.325006
635.10 1.325093
635.20 1.32518
635.30 1.325267
635.40 1.325354
635.50 1.32544
635.60 1.325527
635.70 1.325613
635.80 1.3257
635.90 1.325786
636.00 1.325872
636.10 1.325958
636.20 1.326044
636.30 1.32613
636.40 1.326216
636.50 1.326301
636.60 1.326368
636.70 1.326432
636.80 1.326496
636.90 1.32656
637.00 1.326624
637.10 1.326688
637.20 1.326751
637.30 1.326815
637.40 1.326878
637.50 1.326942
637.60 1.327005
637.70 1.327068
637.80 1.327131
637.90 1.327194
638.00 1.327257
638.10 1.32732
638.20 1.327383
638.30 1.327445
638.40 1.327508
638.50 1.32757
638.60 1.327632
638.70 1.327694
638.80 1.327756
638.90 1.327818
639.00 1.32788
639.10 1.327942
639.20 1.328004
639.30 1.328065
639.40 1.328126
639.50 1.328188
639.60 1.328249
639.70 1.328314
639.80 1.32839
639.90 1.328467
640.00 1.328544
640.10 1.32862
640.20 1.328696
640.30 1.328772
640.40 1.328848
640.50 1.328924
640.60 1.329
640.70 1.329076
640.80 1.329152
640.90 1.329227
641.00 1.329302
641.10 1.329378
641.20 1.329453
641.30 1.329528
641.40 1.329603
641.50 1.329678
641.60 1.329752
641.70 1.329827
641.80 1.329901
641.90 1.329976
642.00 1.33005
642.10 1.330124
642.20 1.330198
642.30 1.330272
642.40 1.330346
642.50 1.33042
642.60 1.330493
642.70 1.330567
642.80 1.33064
642.90 1.330709
643.00 1.330762
643.10 1.330815
643.20 1.330867
643.30 1.33092
643.40 1.330973
643.50 1.331025
643.60 1.331078
643.70 1.33113
643.80 1.331182
643.90 1.331235
644.00 1.331287
644.10 1.331339
644.20 1.33139
644.30 1.331442
644.40 1.331494
644.50 1.331545
644.60 1.331597
644.70 1.331648
644.80 1.3317
644.90 1.331751
645.00 1.331802
645.10 1.331853
645.20 1.331904
645.30 1.331955
645.40 1.332005
645.50 1.332056
645.60 1.332106
645.70 1.332157
645.80 1.332207
645.90 1.332257
646.00 1.332307
646.10 1.332356
646.20 1.332402
646.30 1.332447
646.40 1.332492
646.50 1.332537
646.60 1.332582
646.70 1.332627
646.80 1.332672
646.90 1.332717
647.00 1.332761
647.10 1.332806
647.20 1.33285
647.30 1.332895
647.40 1.332939
647.50 1.332983
647.60 1.333027
647.70 1.333071
647.80 1.333115
647.90 1.333159
648.00 1.333203
648.10 1.333246
648.20 1.33329
648.30 1.333333
648.40 1.333377
648.50 1.33342
648.60 1.333463
648.70 1.333506
648.80 1.333549
648.90 1.333592
649.00 1.333635
649.10 1.333678
649.20 1.33372
649.30 1.333763
649.40 1.333805
649.50 1.333847
649.60 1.33389
649.70 1.333932
649.80 1.333974
649.90 1.334015
650.00 1.334057
650.10 1.334099
650.20 1.334141
650.30 1.334182
650.40 1.334224
650.50 1.334265
650.60 1.334306
650.70 1.334347
650.80 1.334388
650.90 1.334429
651.00 1.33447
651.10 1.334511
651.20 1.334552
651.30 1.334593
651.40 1.334633
651.50 1.334674
651.60 1.334714
651.70 1.334754
651.80 1.334794
651.90 1.334835
652.00 1.334875
652.10 1.334915
652.20 1.334954
652.30 1.334994
652.40 1.335034
652.50 1.335073
652.60 1.335119
652.70 1.335168
652.80 1.335216
652.90 1.335265
653.00 1.335314
653.10 1.335362
653.20 1.33541
653.30 1.335458
653.40 1.335507
653.50 1.335555
653.60 1.335603
653.70 1.33565
653.80 1.335698
653.90 1.335746
654.00 1.335793
654.10 1.335841
654.20 1.335888
654.30 1.335936
654.40 1.335983
654.50 1.33603
654.60 1.336077
654.70 1.336124
654.80 1.336171
654.90 1.336217
655.00 1.336264
655.10 1.336311
655.20 1.336357
655.30 1.336404
655.40 1.33645
655.50 1.336496
655.60 1.336542
655.70 1.336588
655.80 1.336617
655.90 1.336647
656.00 1.336676
656.10 1.336705
656.20 1.336734
656.30 1.336763
656.40 1.336791
656.50 1.33682
656.60 1.336849
656.70 1.336877
656.80 1.336906
656.90 1.336934
657.00 1.336963
657.10 1.336991
657.20 1.337019
657.30 1.337047
657.40 1.337075
657.50 1.337103
657.60 1.337131
657.70 1.337159
657.80 1.337291
657.90 1.337347
658.00 1.337388
658.10 1.33743
658.20 1.337472
658.30 1.337513
658.40 1.337554
658.50 1.337596
658.60 1.337637
658.70 1.337678
658.80 1.337719
658.90 1.33776
659.00 1.337801
659.10 1.337839
659.20 1.337874
659.30 1.337912
659.40 1.337949
659.50 1.337986
659.60 1.338023
659.70 1.33806
659.80 1.338097
659.90 1.338133
660.00 1.33817
660.10 1.338206
660.20 1.338243
660.30 1.338279
660.40 1.338264
660.50 1.338239
660.60 1.338215
660.70 1.33819
660.80 1.338165
660.90 1.33819
661.00 1.338215
661.10 1.33824
661.20 1.338265
661.30 1.33829
661.40 1.338315
661.50 1.33834
661.60 1.338365
661.70 1.338389
661.80 1.338414
661.90 1.338485
662.00 1.338557
662.10 1.338628
662.20 1.338699
662.30 1.33877
662.40 1.338437
662.50 1.338492
662.60 1.338546
662.70 1.338601
662.80 1.338655
662.90 1.338862
663.00 1.339069
663.10 1.338665
663.20 1.338871
663.30 1.339078
663.40 1.338674
663.50 1.33888
663.60 1.339086
663.70 1.338966
663.80 1.338846
663.90 1.339045
664.00 1.3393
664.10 1.339302
664.20 1.339305
664.30 1.339307
664.40 1.339309
664.50 1.339311
664.60 1.339313
664.70 1.339283
664.80 1.339253
664.90 1.339223
665.00 1.339192
665.10 1.339162
665.20 1.339131
665.30 1.339101
665.40 1.33907
665.50 1.33928
665.60 1.339533
665.70 1.339325
665.80 1.339319
665.90 1.339313
666.00 1.339307
666.10 1.3393
666.20 1.339294
666.30 1.339288
666.40 1.339281
666.50 1.339367
666.60 1.339468
666.70 1.33957
666.80 1.339671
666.90 1.339772
667.00 1.339873
667.10 1.339824
667.20 1.339749
667.30 1.339627
667.40 1.339506
667.50 1.339659
667.60 1.33986
667.70 1.339624
667.80 1.33975
667.90 1.33995
668.00 1.339925
668.10 1.340005
668.20 1.339904
668.30 1.339932
668.40 1.339981
668.50 1.340031
668.60 1.34008
668.70 1.339747
668.80 1.339813
668.90 1.339878
669.00 1.339943
669.10 1.340008
669.20 1.340073
669.30 1.340099
669.40 1.340118
669.50 1.340137
669.60 1.340156
669.70 1.340175
669.80 1.340193
669.90 1.340212
670.00 1.34023
670.10 1.340249
670.20 1.340267
670.30 1.340244
670.40 1.340214
670.50 1.340183
670.60 1.340153
670.70 1.340122
670.80 1.340151
670.90 1.340179
671.00 1.340207
671.10 1.340236
671.20 1.340264
671.30 1.340292
671.40 1.34032
671.50 1.340348
671.60 1.340376
671.70 1.340403
671.80 1.340431
671.90 1.340404
672.00 1.340368
672.10 1.340331
672.20 1.340295
672.30 1.340258
672.40 1.340256
672.50 1.340256
672.60 1.340256
672.70 1.340256
672.80 1.340256
672.90 1.340256
673.00 1.340256
673.10 1.340256
673.20 1.340256
673.30 1.340372
673.40 1.340404
673.50 1.34042
673.60 1.340436
673.70 1.340452
673.80 1.340468
673.90 1.340484
674.00 1.3405
674.10 1.340516
674.20 1.340531
674.30 1.340547
674.40 1.340563
674.50 1.340578
674.60 1.340594
674.70 1.340609
674.80 1.340624
674.90 1.340639
675.00 1.340655
675.10 1.34067
675.20 1.340685
675.30 1.3407
675.40 1.340705
675.50 1.340708
675.60 1.340711
675.70 1.340714
675.80 1.340716
675.90 1.340719
676.00 1.340722
676.10 1.340725
676.20 1.340727
676.30 1.34073
676.40 1.340733
676.50 1.340735
676.60 1.340737
676.70 1.34074
676.80 1.340742
676.90 1.340744
677.00 1.340746
677.10 1.340749
677.20 1.340751
677.30 1.340753
677.40 1.340755
677.50 1.340756
677.60 1.340758
677.70 1.34076
677.80 1.340762
677.90 1.340753
678.00 1.340742
678.10 1.34073
678.20 1.340719
678.30 1.340708
678.40 1.340697
678.50 1.340686
678.60 1.340674
678.70 1.340663
678.80 1.340652
678.90 1.34064
679.00 1.340628
679.10 1.340619
679.20 1.34061
679.30 1.3406
679.40 1.340591
679.50 1.340582
679.60 1.340572
679.70 1.340563
679.80 1.340554
679.90 1.340544
680.00 1.340535
680.10 1.340525
680.20 1.340515
680.30 1.340506
680.40 1.340496
680.50 1.340486
680.60 1.340476
680.70 1.340466
680.80 1.340456
680.90 1.340446
681.00 1.340436
681.10 1.340426
681.20 1.340416
681.30 1.340406
681.40 1.340395
681.50 1.340385
681.60 1.340375
681.70 1.340364
681.80 1.340354
681.90 1.340343
682.00 1.340333
682.10 1.340322
682.20 1.340311
682.30 1.3403
682.40 1.34029
682.50 1.340279
682.60 1.340268
682.70 1.340257
682.80 1.340246
682.90 1.340235
683.00 1.340224
683.10 1.340213
683.20 1.340201
683.30 1.34019
683.40 1.340179
683.50 1.340168
683.60 1.340156
683.70 1.340145
683.80 1.340133
683.90 1.340122
684.00 1.34011
684.10 1.340098
684.20 1.340087
684.30 1.340075
684.40 1.340063
684.50 1.340051
684.60 1.340039
684.70 1.340027
684.80 1.340015
684.90 1.340003
685.00 1.339991
685.10 1.339979
685.20 1.339967
685.30 1.339954
685.40 1.339942
685.50 1.33993
685.60 1.339917
685.70 1.339905
685.80 1.339892
685.90 1.339877
686.00 1.33986
686.10 1.339844
686.20 1.339827
686.30 1.339811
686.40 1.339794
686.50 1.339778
686.60 1.339761
686.70 1.339744
686.80 1.339727
686.90 1.339711
687.00 1.339694
687.10 1.339677
687.20 1.33966
687.30 1.339643
687.40 1.339626
687.50 1.339609
687.60 1.339591
687.70 1.339574
687.80 1.339557
687.90 1.33954
688.00 1.339522
688.10 1.339505
688.20 1.339487
688.30 1.33947
688.40 1.339452
688.50 1.339435
688.60 1.339417
688.70 1.339399
688.80 1.339382
688.90 1.339364
689.00 1.339346
689.10 1.339328
689.20 1.33931
689.30 1.339292
689.40 1.339274
689.50 1.339256
689.60 1.339238
689.70 1.33922
689.80 1.339202
689.90 1.339184
690.00 1.339165
690.10 1.339147
690.20 1.339129
690.30 1.33911
690.40 1.339092
690.50 1.339073
690.60 1.339055
690.70 1.339036
690.80 1.339018
690.90 1.338999
691.00 1.33898
691.10 1.338961
691.20 1.338943
691.30 1.338924
691.40 1.338905
691.50 1.338886
691.60 1.338867
691.70 1.338848
691.80 1.338829
691.90 1.33881
692.00 1.33879
692.10 1.338771
692.20 1.338752
692.30 1.338733
692.40 1.338713
692.50 1.338694
692.60 1.338674
692.70 1.338654
692.80 1.338632
692.90 1.33861
693.00 1.338587
693.10 1.338565
693.20 1.338542
693.30 1.33852
693.40 1.338497
693.50 1.338474
693.60 1.338452
693.70 1.338429
693.80 1.338406
693.90 1.338383
694.00 1.33836
694.10 1.338338
694.20 1.338315
694.30 1.338292
694.40 1.338269
694.50 1.338245
694.60 1.338222
694.70 1.338199
694.80 1.338176
694.90 1.338153
695.00 1.338129
695.10 1.338106
695.20 1.338083
695.30 1.338059
695.40 1.338036
695.50 1.338012
695.60 1.337989
695.70 1.337965
695.80 1.337942
695.90 1.337918
696.00 1.337894
696.10 1.337871
696.20 1.337847
696.30 1.337823
696.40 1.337799
696.50 1.337775
696.60 1.337746
696.70 1.337716
696.80 1.337686
696.90 1.337656
697.00 1.337626
697.10 1.337595
697.20 1.337565
697.30 1.337535
697.40 1.337504
697.50 1.337474
697.60 1.337444
697.70 1.337413
697.80 1.337383
697.90 1.337352
698.00 1.337322
698.10 1.337291
698.20 1.33726
698.30 1.33723
698.40 1.337199
698.50 1.337168
698.60 1.337137
698.70 1.337106
698.80 1.337076
698.90 1.337045
699.00 1.337014
699.10 1.337002
699.20 1.336994
699.30 1.336986
699.40 1.336978
699.50 1.336971
699.60 1.336963
699.70 1.336931
699.80 1.336898
699.90 1.336864
700.00 1.336831
700.10 1.336798
700.20 1.336764
700.30 1.336731
700.40 1.336698
700.50 1.336664
700.60 1.336631
700.70 1.336597
700.80 1.336564
700.90 1.33653
701.00 1.336496
701.10 1.336447
701.20 1.336393
701.30 1.336339
701.40 1.336286
701.50 1.336232
701.60 1.336178
701.70 1.336124
701.80 1.336071
701.90 1.336017
702.00 1.335963
702.10 1.335909
702.20 1.335855
702.30 1.335801
702.40 1.335748
702.50 1.335694
702.60 1.335651
702.70 1.33561
702.80 1.33557
702.90 1.335529
703.00 1.335489
703.10 1.335448
703.20 1.335408
703.30 1.335367
703.40 1.335327
703.50 1.335286
703.60 1.335245
703.70 1.335205
703.80 1.335164
703.90 1.335123
704.00 1.335082
704.10 1.335042
704.20 1.33499
704.30 1.334935
704.40 1.334881
704.50 1.334826
704.60 1.334772
704.70 1.334717
704.80 1.334663
704.90 1.334608
705.00 1.334554
705.10 1.334499
705.20 1.334474
705.30 1.334455
705.40 1.334436
705.50 1.334418
705.60 1.334399
705.70 1.33438
705.80 1.334397
705.90 1.334423
706.00 1.334449
706.10 1.334475
706.20 1.334392
706.30 1.334283
706.40 1.33397
706.50 1.334116
706.60 1.334276
706.70 1.333899
706.80 1.333957
706.90 1.334116
707.00 1.334059
707.10 1.33395
707.20 1.333841
707.30 1.333732
707.40 1.333695
707.50 1.333676
707.60 1.333656
707.70 1.333637
707.80 1.333617
707.90 1.333597
708.00 1.333549
708.10 1.333493
708.20 1.333438
708.30 1.333382
708.40 1.333327
708.50 1.333271
708.60 1.333216
708.70 1.33316
708.80 1.333105
708.90 1.333049
709.00 1.333004
709.10 1.332962
709.20 1.332919
709.30 1.332877
709.40 1.332835
709.50 1.332792
709.60 1.33275
709.70 1.332707
709.80 1.332665
709.90 1.332622
710.00 1.33258
710.10 1.332537
710.20 1.332494
710.30 1.332452
710.40 1.332409
710.50 1.332366
710.60 1.332313
710.70 1.332257
710.80 1.332201
710.90 1.332144
711.00 1.332088
711.10 1.332032
711.20 1.331976
711.30 1.33192
711.40 1.331864
711.50 1.331807
711.60 1.331751
711.70 1.331695
711.80 1.331639
711.90 1.331582
712.00 1.331526
712.10 1.331472
712.20 1.33142
712.30 1.331367
712.40 1.331314
712.50 1.331261
712.60 1.331208
712.70 1.331155
712.80 1.331102
712.90 1.33105
713.00 1.330997
713.10 1.330944
713.20 1.330891
713.30 1.330838
713.40 1.330784
713.50 1.330731
713.60 1.330678
713.70 1.330668
713.80 1.330744
713.90 1.33082
714.00 1.330896
714.10 1.330864
714.20 1.330807
714.30 1.33075
714.40 1.330693
714.50 1.330636
714.60 1.330579
714.70 1.330522
714.80 1.330465
714.90 1.330408
715.00 1.330351
715.10 1.330294
715.20 1.330237
715.30 1.33018
715.40 1.330123
715.50 1.330065
715.60 1.330008
715.70 1.329951
715.80 1.329894
715.90 1.329836
716.00 1.329779
716.10 1.329722
716.20 1.329664
716.30 1.329607
716.40 1.32955
716.50 1.329492
716.60 1.329443
716.70 1.329395
716.80 1.329348
716.90 1.3293
717.00 1.329252
717.10 1.329204
717.20 1.329157
717.30 1.329109
717.40 1.329061
717.50 1.329013
717.60 1.328966
717.70 1.328918
717.80 1.32887
717.90 1.328822
718.00 1.328774
718.10 1.328726
718.20 1.328672
718.30 1.328614
718.40 1.328556
718.50 1.328498
718.60 1.32844
718.70 1.328382
718.80 1.328325
718.90 1.328267
719.00 1.328209
719.10 1.328151
719.20 1.328093
719.30 1.328035
719.40 1.327977
719.50 1.327919
719.60 1.327861
719.70 1.327803
719.80 1.327745
719.90 1.327686
720.00 1.327628
720.10 1.32757
720.20 1.327512
720.30 1.327454
720.40 1.327396
720.50 1.327337
720.60 1.327279
720.70 1.327218
720.80 1.327156
720.90 1.32707
721.00 1.326984
721.10 1.326898
721.20 1.326812
721.30 1.326726
721.40 1.32664
721.50 1.326554
721.60 1.326468
721.70 1.326382
721.80 1.326295
721.90 1.326209
722.00 1.326123
722.10 1.326037
722.20 1.325951
722.30 1.325865
722.40 1.325779
722.50 1.325692
722.60 1.325606
722.70 1.325538
722.80 1.32548
722.90 1.325421
723.00 1.325363
723.10 1.325304
723.20 1.325245
723.30 1.325187
723.40 1.325128
723.50 1.32507
723.60 1.325011
723.70 1.324952
723.80 1.324894
723.90 1.324835
724.00 1.324776
724.10 1.324717
724.20 1.324667
724.30 1.324621
724.40 1.324575
724.50 1.324529
724.60 1.324483
724.70 1.324437
724.80 1.324391
724.90 1.324345
725.00 1.324298
725.10 1.324252
725.20 1.324206
725.30 1.32416
725.40 1.324113
725.50 1.324067
725.60 1.324021
725.70 1.323975
725.80 1.32392
725.90 1.323861
726.00 1.323802
726.10 1.323743
726.20 1.323683
726.30 1.323624
726.40 1.323565
726.50 1.323506
726.60 1.323446
726.70 1.323387
726.80 1.323295
726.90 1.323185
727.00 1.323075
727.10 1.322965
727.20 1.322855
727.30 1.322745
727.40 1.322717
727.50 1.322734
727.60 1.32275
727.70 1.322767
727.80 1.322701
727.90 1.322591
728.00 1.322317
728.10 1.32246
728.20 1.322096
728.30 1.322239
728.40 1.322041
728.50 1.321931
728.60 1.321903
728.70 1.321919
728.80 1.321935
728.90 1.321952
729.00 1.321886
729.10 1.321776
729.20 1.321665
729.30 1.321555
729.40 1.321445
729.50 1.321335
729.60 1.321258
729.70 1.321198
729.80 1.321139
729.90 1.321079
730.00 1.321019
730.10 1.320959
730.20 1.3209
730.30 1.32084
730.40 1.32078
730.50 1.32072
730.60 1.320648
730.70 1.32057
730.80 1.320491
730.90 1.320412
731.00 1.320333
731.10 1.320255
731.20 1.320176
731.30 1.320097
731.40 1.320019
731.50 1.31994
731.60 1.319861
731.70 1.319782
731.80 1.319704
731.90 1.319625
732.00 1.319546
732.10 1.319467
732.20 1.319401
732.30 1.319341
732.40 1.319281
732.50 1.319221
732.60 1.319161
732.70 1.319101
732.80 1.319041
732.90 1.31898
733.00 1.31892
733.10 1.31886
733.20 1.3188
733.30 1.31874
733.40 1.31868
733.50 1.318619
733.60 1.318559
733.70 1.31848
733.80 1.318392
733.90 1.318303
734.00 1.318215
734.10 1.318126
734.20 1.318038
734.30 1.317949
734.40 1.31786
734.50 1.317772
734.60 1.317683
734.70 1.317595
734.80 1.317506
734.90 1.317417
735.00 1.317329
735.10 1.31724
735.20 1.317152
735.30 1.317065
735.40 1.316996
735.50 1.316927
735.60 1.316858
735.70 1.316782
735.80 1.316702
735.90 1.316621
736.00 1.316541
736.10 1.316461
736.20 1.316381
736.30 1.3163
736.40 1.31622
736.50 1.31614
736.60 1.316059
736.70 1.315979
736.80 1.315899
736.90 1.315818
737.00 1.315738
737.10 1.315658
737.20 1.315577
737.30 1.315497
737.40 1.315417
737.50 1.315336
737.60 1.315256
737.70 1.315176
737.80 1.315095
737.90 1.315015
738.00 1.314935
738.10 1.314854
738.20 1.314779
738.30 1.314707
738.40 1.314634
738.50 1.314562
738.60 1.31449
738.70 1.314418
738.80 1.314345
738.90 1.314273
739.00 1.314201
739.10 1.314128
739.20 1.314056
739.30 1.313984
739.40 1.313911
739.50 1.313839
739.60 1.313766
739.70 1.313694
739.80 1.313622
739.90 1.313549
740.00 1.313477
740.10 1.313404
740.20 1.313332
740.30 1.31326
740.40 1.313187
740.50 1.313115
740.60 1.313042
740.70 1.31297
740.80 1.312897
740.90 1.312825
741.00 1.312752
741.10 1.31268
741.20 1.312607
741.30 1.312535
741.40 1.312462
741.50 1.312389
741.60 1.312317
741.70 1.312244
741.80 1.312172
741.90 1.312099
742.00 1.312027
742.10 1.311954
742.20 1.311881
742.30 1.311809
742.40 1.311736
742.50 1.311664
742.60 1.311591
742.70 1.311493
742.80 1.311375
742.90 1.311257
743.00 1.311139
743.10 1.311021
743.20 1.310903
743.30 1.310785
743.40 1.310667
743.50 1.310549
743.60 1.310431
743.70 1.310319
743.80 1.310233
743.90 1.310146
744.00 1.310059
744.10 1.309973
744.20 1.309886
744.30 1.309799
744.40 1.309713
744.50 1.309626
744.60 1.309539
744.70 1.309453
744.80 1.309366
744.90 1.309279
745.00 1.309193
745.10 1.309106
745.20 1.309019
745.30 1.308933
745.40 1.308846
745.50 1.308759
745.60 1.308673
745.70 1.308586
745.80 1.308499
745.90 1.308413
746.00 1.308326
746.10 1.308239
746.20 1.308153
746.30 1.308066
746.40 1.307979
746.50 1.307893
746.60 1.307806
746.70 1.307719
746.80 1.307633
746.90 1.307546
747.00 1.307459
747.10 1.307373
747.20 1.307286
747.30 1.307199
747.40 1.307113
747.50 1.307026
747.60 1.306939
747.70 1.306852
747.80 1.306766
747.90 1.306679
748.00 1.306592
748.10 1.306506
748.20 1.306419
748.30 1.306332
748.40 1.306246
748.50 1.306159
748.60 1.306072
748.70 1.305986
748.80 1.305899
748.90 1.305812
749.00 1.305726
749.10 1.305639
749.20 1.305552
749.30 1.305466
749.40 1.305379
749.50 1.305292
749.60 1.305206
749.70 1.305119
749.80 1.305032
749.90 1.304945
750.00 1.304859
750.10 1.304774
750.20 1.304693
750.30 1.304612
750.40 1.304531
750.50 1.304451
750.60 1.30437
750.70 1.304289
750.80 1.304208
750.90 1.304128
751.00 1.304047
751.10 1.303966
751.20 1.303885
751.30 1.303804
751.40 1.303724
751.50 1.303643
751.60 1.303562
751.70 1.303481
751.80 1.3034
751.90 1.30332
752.00 1.303239
752.10 1.303158
752.20 1.303077
752.30 1.302996
752.40 1.302916
752.50 1.302835
752.60 1.302754
752.70 1.302673
752.80 1.302592
752.90 1.302511
753.00 1.302431
753.10 1.30235
753.20 1.302269
753.30 1.302188
753.40 1.302107
753.50 1.302026
753.60 1.301945
753.70 1.301865
753.80 1.301784
753.90 1.301693
754.00 1.3016
754.10 1.301506
754.20 1.301413
754.30 1.301319
754.40 1.301226
754.50 1.301132
754.60 1.301039
754.70 1.300945
754.80 1.300852
754.90 1.300759
755.00 1.300665
755.10 1.300572
755.20 1.300478
755.30 1.300385
755.40 1.300292
755.50 1.300198
755.60 1.300105
755.70 1.300011
755.80 1.299918
755.90 1.299825
756.00 1.299731
756.10 1.299638
756.20 1.299544
756.30 1.299451
756.40 1.299358
756.50 1.299264
756.60 1.299171
756.70 1.299078
756.80 1.298984
756.90 1.298891
757.00 1.298798
757.10 1.298704
757.20 1.298611
757.30 1.298518
757.40 1.298424
757.50 1.298331
757.60 1.298233
757.70 1.298125
757.80 1.298017
757.90 1.297909
758.00 1.297801
758.10 1.297693
758.20 1.297585
758.30 1.297477
758.40 1.297369
758.50 1.297261
758.60 1.297152
758.70 1.297044
758.80 1.296936
758.90 1.296828
759.00 1.29672
759.10 1.296612
759.20 1.296504
759.30 1.296396
759.40 1.296289
759.50 1.296181
759.60 1.296073
759.70 1.295965
759.80 1.295857
759.90 1.295749
760.00 1.295641
760.10 1.295533
760.20 1.295425
760.30 1.295317
760.40 1.29521
760.50 1.295102
760.60 1.294994
760.70 1.294886
760.80 1.294778
760.90 1.294671
761.00 1.294563
761.10 1.294455
761.20 1.294347
761.30 1.29424
761.40 1.294137
761.50 1.294041
761.60 1.293946
761.70 1.29385
761.80 1.293755
761.90 1.293659
762.00 1.293564
762.10 1.293469
762.20 1.293373
762.30 1.293278
762.40 1.293182
762.50 1.293087
762.60 1.292991
762.70 1.292896
762.80 1.292801
762.90 1.292705
763.00 1.29261
763.10 1.292514
763.20 1.292419
763.30 1.292324
763.40 1.292228
763.50 1.292133
763.60 1.292037
763.70 1.291942
763.80 1.291847
763.90 1.291751
764.00 1.291656
764.10 1.291561
764.20 1.291465
764.30 1.29137
764.40 1.291275
764.50 1.291179
764.60 1.291084
764.70 1.290989
764.80 1.290893
764.90 1.290798
765.00 1.290703
765.10 1.290608
765.20 1.290508
765.30 1.290404
765.40 1.290301
765.50 1.290197
765.60 1.290093
765.70 1.28999
765.80 1.289886
765.90 1.289782
766.00 1.289679
766.10 1.289575
766.20 1.289472
766.30 1.289368
766.40 1.289265
766.50 1.289161
766.60 1.289058
766.70 1.288954
766.80 1.288851
766.90 1.288747
767.00 1.288644
767.10 1.28854
767.20 1.288437
767.30 1.288333
767.40 1.28823
767.50 1.288126
767.60 1.288023
767.70 1.287919
767.80 1.287816
767.90 1.287713
768.00 1.287609
768.10 1.287506
768.20 1.287402
768.30 1.287299
768.40 1.287196
768.50 1.287092
768.60 1.286989
768.70 1.286886
768.80 1.286782
768.90 1.286679
769.00 1.286576
769.10 1.286473
769.20 1.286369
769.30 1.286266
769.40 1.286163
769.50 1.28606
769.60 1.285956
769.70 1.285853
769.80 1.28575
769.90 1.285647
770.00 1.285544
770.10 1.28544
770.20 1.285337
770.30 1.285234
770.40 1.285131
770.50 1.285028
770.60 1.284925
770.70 1.284822
770.80 1.284718
770.90 1.284615
771.00 1.284512
771.10 1.284409
771.20 1.284306
771.30 1.284203
771.40 1.2841
771.50 1.283997
771.60 1.283894
771.70 1.283791
771.80 1.283688
771.90 1.283585
772.00 1.283482
772.10 1.283379
772.20 1.283276
772.30 1.283173
772.40 1.28307
772.50 1.282967
772.60 1.282864
772.70 1.282761
772.80 1.282659
772.90 1.282548
773.00 1.282437
773.10 1.282326
773.20 1.282215
773.30 1.282104
773.40 1.281993
773.50 1.281882
773.60 1.281771
773.70 1.28166
773.80 1.28155
773.90 1.281439
774.00 1.281328
774.10 1.281217
774.20 1.281106
774.30 1.280996
774.40 1.280885
774.50 1.280774
774.60 1.280664
774.70 1.280553
774.80 1.280442
774.90 1.280332
775.00 1.280221
775.10 1.28011
775.20 1.28
775.30 1.279889
775.40 1.279778
775.50 1.279668
775.60 1.279557
775.70 1.279447
775.80 1.279336
775.90 1.279226
776.00 1.279115
776.10 1.279005
776.20 1.278894
776.30 1.278784
776.40 1.278673
776.50 1.278563
776.60 1.278452
776.70 1.278342
776.80 1.278232
776.90 1.278121
777.00 1.278011
777.10 1.277901
777.20 1.27779
777.30 1.27768
777.40 1.27757
777.50 1.277459
777.60 1.277349
777.70 1.277239
777.80 1.277129
777.90 1.277018
778.00 1.276908
778.10 1.276798
778.20 1.276688
778.30 1.276578
778.40 1.276467
778.50 1.276357
778.60 1.276247
778.70 1.276137
778.80 1.276027
778.90 1.275917
779.00 1.275807
779.10 1.275697
779.20 1.275587
779.30 1.275477
779.40 1.275367
779.50 1.275257
779.60 1.275147
779.70 1.275037
779.80 1.274927
779.90 1.274817
780.00 1.274707
780.10 1.274597
780.20 1.274487
780.30 1.274377
780.40 1.274267
780.50 1.274157
780.60 1.274041
780.70 1.273921
780.80 1.273802
780.90 1.273683
781.00 1.273563
781.10 1.273444
781.20 1.273325
781.30 1.273206
781.40 1.273086
781.50 1.272967
781.60 1.272848
781.70 1.272729
781.80 1.27261
781.90 1.272491
782.00 1.272372
782.10 1.272252
782.20 1.272133
782.30 1.272014
782.40 1.271895
782.50 1.271776
782.60 1.271657
782.70 1.271538
782.80 1.271419
782.90 1.2713
783.00 1.271181
783.10 1.271063
783.20 1.270944
783.30 1.270825
783.40 1.270706
783.50 1.270587
783.60 1.270468
783.70 1.27035
783.80 1.270231
783.90 1.270112
784.00 1.269993
784.10 1.269875
784.20 1.269756
784.30 1.269637
784.40 1.269519
784.50 1.2694
784.60 1.269283
784.70 1.269168
784.80 1.269053
784.90 1.268938
785.00 1.268823
785.10 1.268708
785.20 1.268593
785.30 1.268478
785.40 1.268363
785.50 1.268248
785.60 1.268134
785.70 1.268019
785.80 1.267904
785.90 1.267789
786.00 1.267674
786.10 1.26756
786.20 1.267445
786.30 1.26733
786.40 1.267216
786.50 1.267101
786.60 1.266986
786.70 1.266872
786.80 1.266757
786.90 1.266642
787.00 1.266528
787.10 1.266413
787.20 1.266299
787.30 1.266184
787.40 1.26607
787.50 1.265955
787.60 1.265841
787.70 1.265726
787.80 1.265612
787.90 1.265497
788.00 1.265383
788.10 1.265269
788.20 1.265154
788.30 1.26504
788.40 1.264919
788.50 1.264796
788.60 1.264672
788.70 1.264548
788.80 1.264425
788.90 1.264301
789.00 1.264177
789.10 1.264054
789.20 1.26393
789.30 1.263807
789.40 1.263683
789.50 1.26356
789.60 1.263436
789.70 1.263313
789.80 1.26319
789.90 1.263066
790.00 1.262943
790.10 1.262819
790.20 1.262696
790.30 1.262573
790.40 1.26245
790.50 1.262326
790.60 1.262203
790.70 1.26208
790.80 1.261957
790.90 1.261833
791.00 1.26171
791.10 1.261587
791.20 1.261464
791.30 1.261341
791.40 1.261218
791.50 1.261095
791.60 1.260972
791.70 1.260849
791.80 1.260726
791.90 1.260603
792.00 1.26048
792.10 1.260357
792.20 1.260234
792.30 1.260111
792.40 1.259989
792.50 1.259866
792.60 1.259743
792.70 1.25962
792.80 1.259498
792.90 1.259375
793.00 1.259252
793.10 1.25913
793.20 1.259007
793.30 1.258885
793.40 1.258762
793.50 1.258639
793.60 1.258517
793.70 1.258394
793.80 1.258272
793.90 1.258149
794.00 1.258027
794.10 1.257905
794.20 1.257782
794.30 1.25766
794.40 1.257537
794.50 1.257415
794.60 1.257293
794.70 1.257171
794.80 1.257048
794.90 1.256926
795.00 1.256804
795.10 1.256682
795.20 1.256559
795.30 1.256437
795.40 1.256315
795.50 1.256193
795.60 1.256071
795.70 1.255949
795.80 1.255827
795.90 1.255705
796.00 1.255583
796.10 1.255461
796.20 1.255339
796.30 1.255215
796.40 1.255091
796.50 1.254968
796.60 1.254844
796.70 1.25472
796.80 1.254596
796.90 1.254472
797.00 1.254349
797.10 1.254225
797.20 1.254101
797.30 1.253978
797.40 1.253854
797.50 1.25373
797.60 1.253607
797.70 1.253483
797.80 1.25336
797.90 1.253236
798.00 1.253113
798.10 1.252989
798.20 1.252866
798.30 1.252742
798.40 1.252619
798.50 1.252496
798.60 1.252372
798.70 1.252249
798.80 1.252125
798.90 1.252002
799.00 1.251879
799.10 1.251756
799.20 1.251632
799.30 1.251509
799.40 1.251386
799.50 1.251263
799.60 1.25114
799.70 1.251017
799.80 1.250894
799.90 1.25077
800.00 1.250647
800.10 1.250524
800.20 1.250401
800.30 1.250278
800.40 1.250155
800.50 1.250032
800.60 1.24991
800.70 1.249787
800.80 1.249664
800.90 1.249541
801.00 1.249418
801.10 1.249295
801.20 1.249173
801.30 1.24905
801.40 1.248927
801.50 1.248804
801.60 1.248682
801.70 1.248559
801.80 1.248436
801.90 1.248314
802.00 1.248191
802.10 1.248069
802.20 1.247946
802.30 1.247823
802.40 1.247701
802.50 1.247578
802.60 1.247456
802.70 1.247334
802.80 1.247211
802.90 1.247089
803.00 1.246966
803.10 1.246844
803.20 1.246722
803.30 1.246599
803.40 1.246477
803.50 1.246355
803.60 1.246233
803.70 1.24611
803.80 1.245988
803.90 1.245866
804.00 1.245744
804.10 1.245622
804.20 1.245499
804.30 1.245375
804.40 1.245251
804.50 1.245127
804.60 1.245003
804.70 1.24488
804.80 1.244756
804.90 1.244632
805.00 1.244508
805.10 1.244384
805.20 1.244261
805.30 1.244137
805.40 1.244013
805.50 1.243889
805.60 1.243766
805.70 1.243642
805.80 1.243519
805.90 1.243395
806.00 1.243271
806.10 1.243148
806.20 1.243024
806.30 1.242901
806.40 1.242777
806.50 1.242654
806.60 1.242531
806.70 1.242407
806.80 1.242284
806.90 1.24216
807.00 1.242037
807.10 1.241914
807.20 1.24179
807.30 1.241667
807.40 1.241544
807.50 1.241421
807.60 1.241298
807.70 1.241174
807.80 1.241051
807.90 1.240928
808.00 1.240805
808.10 1.240682
808.20 1.240559
808.30 1.240426
808.40 1.240292
808.50 1.240159
808.60 1.240026
808.70 1.239893
808.80 1.23976
808.90 1.239627
809.00 1.239494
809.10 1.23936
809.20 1.239227
809.30 1.239095
809.40 1.238962
809.50 1.238829
809.60 1.238696
809.70 1.238563
809.80 1.23843
809.90 1.238297
810.00 1.238164
810.10 1.238032
810.20 1.237899
810.30 1.237766
810.40 1.237634
810.50 1.237501
810.60 1.237368
810.70 1.237236
810.80 1.237103
810.90 1.236971
811.00 1.236838
811.10 1.236706
811.20 1.236573
811.30 1.236441
811.40 1.236309
811.50 1.236176
811.60 1.236044
811.70 1.235912
811.80 1.235779
811.90 1.235647
812.00 1.235515
812.10 1.235383
812.20 1.23525
812.30 1.235115
812.40 1.234979
812.50 1.234843
812.60 1.234707
812.70 1.234571
812.80 1.234435
812.90 1.234299
813.00 1.234163
813.10 1.234028
813.20 1.233892
813.30 1.233756
813.40 1.23362
813.50 1.233485
813.60 1.233349
813.70 1.233213
813.80 1.233078
813.90 1.232942
814.00 1.232806
814.10 1.232671
814.20 1.232535
814.30 1.2324
814.40 1.232264
814.50 1.232129
814.60 1.231994
814.70 1.231858
814.80 1.231723
814.90 1.231588
815.00 1.231452
815.10 1.231317
815.20 1.231182
815.30 1.231047
815.40 1.230911
815.50 1.230776
815.60 1.230641
815.70 1.230506
815.80 1.230371
815.90 1.230236
816.00 1.230101
816.10 1.229966
816.20 1.229831
816.30 1.229696
816.40 1.229561
816.50 1.229427
816.60 1.229292
816.70 1.229157
816.80 1.229022
816.90 1.228887
817.00 1.228753
817.10 1.228618
817.20 1.228483
817.30 1.228349
817.40 1.228214
817.50 1.22808
817.60 1.227945
817.70 1.227811
817.80 1.227676
817.90 1.227542
818.00 1.227407
818.10 1.227273
818.20 1.227139
818.30 1.227004
818.40 1.22687
818.50 1.226736
818.60 1.226602
818.70 1.226467
818.80 1.226333
818.90 1.226199
819.00 1.226065
819.10 1.225931
819.20 1.225797
819.30 1.225676
819.40 1.225565
819.50 1.225454
819.60 1.225343
819.70 1.225232
819.80 1.22512
819.90 1.225009
820.00 1.224898
820.10 1.22477
820.20 1.224625
820.30 1.224499
820.40 1.224367
820.50 1.224231
820.60 1.224095
820.70 1.223959
820.80 1.223823
820.90 1.223687
821.00 1.223551
821.10 1.223415
821.20 1.223279
821.30 1.223143
821.40 1.223007
821.50 1.222871
821.60 1.222735
821.70 1.222599
821.80 1.222463
821.90 1.222328
822.00 1.222192
822.10 1.222056
822.20 1.221921
822.30 1.221785
822.40 1.221649
822.50 1.221514
822.60 1.221378
822.70 1.221243
822.80 1.221107
822.90 1.220972
823.00 1.220836
823.10 1.220701
823.20 1.220565
823.30 1.22043
823.40 1.220295
823.50 1.220159
823.60 1.220024
823.70 1.219889
823.80 1.219754
823.90 1.219618
824.00 1.219483
824.10 1.219348
824.20 1.219213
824.30 1.219078
824.40 1.218943
824.50 1.218808
824.60 1.218673
824.70 1.218538
824.80 1.218403
824.90 1.218268
825.00 1.218133
825.10 1.217999
825.20 1.217864
825.30 1.217729
825.40 1.217594
825.50 1.21746
825.60 1.217325
825.70 1.21719
825.80 1.217056
825.90 1.216921
826.00 1.216787
826.10 1.216652
826.20 1.216518
826.30 1.216379
826.40 1.216238
826.50 1.216097
826.60 1.215956
826.70 1.215815
826.80 1.215675
826.90 1.215534
827.00 1.215393
827.10 1.215252
827.20 1.215112
827.30 1.214971
827.40 1.21483
827.50 1.21469
827.60 1.214549
827.70 1.214409
827.80 1.214268
827.90 1.214128
828.00 1.213987
828.10 1.213847
828.20 1.213706
828.30 1.213566
828.40 1.213426
828.50 1.213285
828.60 1.213144
828.70 1.213002
828.80 1.212861
828.90 1.212719
829.00 1.212577
829.10 1.212435
829.20 1.212294
829.30 1.212152
829.40 1.212011
829.50 1.211869
829.60 1.211728
829.70 1.211586
829.80 1.211445
829.90 1.211303
830.00 1.211162
830.10 1.211021
830.20 1.210879
830.30 1.210738
830.40 1.210597
830.50 1.210455
830.60 1.210314
830.70 1.210173
830.80 1.210032
830.90 1.209891
831.00 1.20975
831.10 1.209609
831.20 1.209468
831.30 1.209327
831.40 1.209186
831.50 1.209045
831.60 1.208904
831.70 1.208763
831.80 1.208623
831.90 1.208482
832.00 1.208341
832.10 1.208201
832.20 1.20806
832.30 1.207919
832.40 1.207779
832.50 1.207638
832.60 1.207498
832.70 1.207357
832.80 1.207217
832.90 1.207076
833.00 1.206936
833.10 1.206795
833.20 1.206655
833.30 1.206515
833.40 1.206375
833.50 1.206234
833.60 1.206094
833.70 1.205954
833.80 1.205814
833.90 1.205674
834.00 1.205534
834.10 1.205394
834.20 1.205254
834.30 1.205114
834.40 1.204974
834.50 1.204834
834.60 1.204694
834.70 1.204554
834.80 1.204414
834.90 1.204275
835.00 1.204135
835.10 1.203995
835.20 1.203855
835.30 1.203716
835.40 1.203576
835.50 1.203437
835.60 1.203297
835.70 1.203157
835.80 1.203018
835.90 1.202879
836.00 1.202739
836.10 1.2026
836.20 1.20246
836.30 1.202321
836.40 1.202182
836.50 1.202042
836.60 1.201903
836.70 1.201764
836.80 1.201625
836.90 1.201485
837.00 1.201344
837.10 1.201204
837.20 1.201063
837.30 1.200923
837.40 1.200782
837.50 1.200642
837.60 1.200501
837.70 1.200361
837.80 1.200221
837.90 1.200081
838.00 1.19994
838.10 1.1998
838.20 1.19966
838.30 1.19952
838.40 1.19938
838.50 1.19924
838.60 1.1991
838.70 1.19896
838.80 1.19882
838.90 1.19868
839.00 1.19854
839.10 1.1984
839.20 1.19826
839.30 1.19812
839.40 1.19798
839.50 1.197841
839.60 1.197701
839.70 1.197561
839.80 1.197422
839.90 1.197282
840.00 1.197142
840.10 1.197003
840.20 1.196863
840.30 1.196724
840.40 1.196584
840.50 1.196445
840.60 1.196306
840.70 1.196166
840.80 1.196027
840.90 1.195888
841.00 1.195748
841.10 1.195601
841.20 1.195453
841.30 1.195305
841.40 1.195157
841.50 1.195009
841.60 1.19486
841.70 1.194712
841.80 1.194564
841.90 1.194416
842.00 1.194268
842.10 1.19412
842.20 1.193972
842.30 1.193824
842.40 1.193677
842.50 1.193529
842.60 1.193381
842.70 1.193233
842.80 1.193085
842.90 1.192938
843.00 1.19279
843.10 1.192643
843.20 1.192495
843.30 1.192348
843.40 1.1922
843.50 1.192053
843.60 1.191905
843.70 1.191758
843.80 1.19161
843.90 1.191463
844.00 1.191316
844.10 1.191169
844.20 1.191021
844.30 1.190874
844.40 1.190727
844.50 1.19058
844.60 1.190433
844.70 1.190286
844.80 1.190139
844.90 1.189992
845.00 1.189845
845.10 1.189698
845.20 1.189551
845.30 1.189408
845.40 1.189264
845.50 1.189121
845.60 1.188977
845.70 1.188834
845.80 1.18869
845.90 1.188547
846.00 1.188403
846.10 1.18826
846.20 1.188116
846.30 1.187973
846.40 1.18783
846.50 1.187687
846.60 1.187543
846.70 1.1874
846.80 1.187257
846.90 1.187114
847.00 1.186971
847.10 1.186828
847.20 1.186685
847.30 1.186542
847.40 1.186399
847.50 1.186256
847.60 1.186113
847.70 1.18597
847.80 1.185828
847.90 1.185685
848.00 1.185542
848.10 1.185399
848.20 1.185257
848.30 1.185114
848.40 1.184972
848.50 1.184829
848.60 1.184686
848.70 1.184544
848.80 1.184402
848.90 1.184259
849.00 1.184117
849.10 1.183974
849.20 1.183832
849.30 1.18369
849.40 1.183548
849.50 1.183405
849.60 1.183263
849.70 1.183121
849.80 1.182979
849.90 1.182837
850.00 1.182695
850.10 1.182553
850.20 1.182411
850.30 1.182269
850.40 1.182127
850.50 1.181985
850.60 1.181843
850.70 1.181701
850.80 1.18156
850.90 1.181418
851.00 1.181276
851.10 1.181135
851.20 1.180993
851.30 1.180851
851.40 1.18071
851.50 1.180568
851.60 1.180427
851.70 1.180285
851.80 1.180144
851.90 1.180002
852.00 1.179861
852.10 1.17972
852.20 1.179578
852.30 1.179437
852.40 1.179296
852.50 1.179155
852.60 1.179014
852.70 1.178872
852.80 1.178731
852.90 1.17859
853.00 1.178449
853.10 1.178308
853.20 1.178167
853.30 1.178026
853.40 1.177886
853.50 1.177745
853.60 1.177604
853.70 1.177456
853.80 1.177301
853.90 1.177146
854.00 1.176991
854.10 1.176836
854.20 1.176682
854.30 1.176527
854.40 1.176372
854.50 1.176217
854.60 1.176062
854.70 1.175908
854.80 1.175753
854.90 1.175599
855.00 1.175444
855.10 1.17529
855.20 1.175135
855.30 1.174981
855.40 1.174826
855.50 1.174672
855.60 1.174518
855.70 1.174363
855.80 1.174209
855.90 1.174055
856.00 1.173901
856.10 1.173747
856.20 1.173593
856.30 1.173439
856.40 1.173285
856.50 1.173131
856.60 1.172977
856.70 1.172823
856.80 1.172669
856.90 1.172515
857.00 1.172362
857.10 1.172208
857.20 1.172054
857.30 1.171901
857.40 1.171747
857.50 1.171594
857.60 1.17144
857.70 1.171287
857.80 1.171133
857.90 1.17098
858.00 1.170833
858.10 1.170689
858.20 1.170544
858.30 1.170399
858.40 1.170254
858.50 1.17011
858.60 1.169965
858.70 1.169821
858.80 1.169676
858.90 1.169532
859.00 1.169387
859.10 1.169243
859.20 1.169098
859.30 1.168954
859.40 1.16881
859.50 1.168666
859.60 1.168521
859.70 1.168377
859.80 1.168233
859.90 1.168089
860.00 1.167945
860.10 1.167801
860.20 1.167657
860.30 1.167513
860.40 1.167369
860.50 1.167225
860.60 1.167081
860.70 1.166937
860.80 1.166793
860.90 1.16665
861.00 1.166506
861.10 1.166362
861.20 1.166218
861.30 1.166075
861.40 1.165931
861.50 1.165788
861.60 1.165644
861.70 1.165501
861.80 1.165357
861.90 1.165214
862.00 1.16507
862.10 1.164927
862.20 1.164783
862.30 1.16463
862.40 1.164477
862.50 1.164324
862.60 1.164171
862.70 1.164018
862.80 1.163866
862.90 1.163713
863.00 1.16356
863.10 1.163408
863.20 1.163255
863.30 1.163103
863.40 1.16295
863.50 1.162798
863.60 1.162645
863.70 1.162493
863.80 1.162341
863.90 1.162188
864.00 1.162036
864.10 1.161884
864.20 1.161732
864.30 1.16158
864.40 1.161428
864.50 1.161276
864.60 1.161124
864.70 1.160972
864.80 1.16082
864.90 1.160668
865.00 1.160516
865.10 1.160364
865.20 1.160212
865.30 1.160061
865.40 1.159909
865.50 1.159757
865.60 1.159606
865.70 1.159454
865.80 1.159303
865.90 1.159151
866.00 1.159
866.10 1.158848
866.20 1.158697
866.30 1.158545
866.40 1.158394
866.50 1.158243
866.60 1.158092
866.70 1.15794
866.80 1.157789
866.90 1.157638
867.00 1.157487
867.10 1.157336
867.20 1.157185
867.30 1.157034
867.40 1.156883
867.50 1.156732
867.60 1.156581
867.70 1.156431
867.80 1.15628
867.90 1.156129
868.00 1.155979
868.10 1.155828
868.20 1.155677
868.30 1.155527
868.40 1.155376
868.50 1.155226
868.60 1.155075
868.70 1.154925
868.80 1.154774
868.90 1.154624
869.00 1.154474
869.10 1.154324
869.20 1.154173
869.30 1.154023
869.40 1.153873
869.50 1.153723
869.60 1.153573
869.70 1.153423
869.80 1.153273
869.90 1.153123
870.00 1.152973
870.10 1.152823
870.20 1.152673
870.30 1.152523
870.40 1.152374
870.50 1.152224
870.60 1.152074
870.70 1.151925
870.80 1.151775
870.90 1.151625
871.00 1.151474
871.10 1.151323
871.20 1.151173
871.30 1.151022
871.40 1.150872
871.50 1.150721
871.60 1.150571
871.70 1.15042
871.80 1.15027
871.90 1.15012
872.00 1.149969
872.10 1.149819
872.20 1.149669
872.30 1.149519
872.40 1.149369
872.50 1.149219
872.60 1.149069
872.70 1.148919
872.80 1.148769
872.90 1.148619
873.00 1.148469
873.10 1.148319
873.20 1.148169
873.30 1.148019
873.40 1.14787
873.50 1.14772
873.60 1.14757
873.70 1.147421
873.80 1.147271
873.90 1.147122
874.00 1.146972
874.10 1.146823
874.20 1.146673
874.30 1.146524
874.40 1.146374
874.50 1.146225
874.60 1.146076
874.70 1.145927
874.80 1.145777
874.90 1.145628
875.00 1.145479
875.10 1.14533
875.20 1.145181
875.30 1.145032
875.40 1.144883
875.50 1.144734
875.60 1.144585
875.70 1.144436
875.80 1.144288
875.90 1.144139
876.00 1.14399
876.10 1.143841
876.20 1.143693
876.30 1.143544
876.40 1.143395
876.50 1.143247
876.60 1.143098
876.70 1.14295
876.80 1.142801
876.90 1.142653
877.00 1.142505
877.10 1.142356
877.20 1.142208
877.30 1.14206
877.40 1.141912
877.50 1.141763
877.60 1.141615
877.70 1.141467
877.80 1.141319
877.90 1.141171
878.00 1.141023
878.10 1.140875
878.20 1.140727
878.30 1.14058
878.40 1.140432
878.50 1.140284
878.60 1.140136
878.70 1.139988
878.80 1.139841
878.90 1.139693
879.00 1.139546
879.10 1.139398
879.20 1.13925
879.30 1.139103
879.40 1.138955
879.50 1.138808
879.60 1.138653
879.70 1.138497
879.80 1.138341
879.90 1.138184
880.00 1.138028
880.10 1.137872
880.20 1.137716
880.30 1.13756
880.40 1.137404
880.50 1.137248
880.60 1.137092
880.70 1.136936
880.80 1.13678
880.90 1.136624
881.00 1.136468
881.10 1.136313
881.20 1.136157
881.30 1.136001
881.40 1.135846
881.50 1.13569
881.60 1.135534
881.70 1.135379
881.80 1.135223
881.90 1.135068
882.00 1.134913
882.10 1.134757
882.20 1.134602
882.30 1.134447
882.40 1.134292
882.50 1.134136
882.60 1.133981
882.70 1.133826
882.80 1.133671
882.90 1.133516
883.00 1.133361
883.10 1.133206
883.20 1.133051
883.30 1.132896
883.40 1.132742
883.50 1.132587
883.60 1.132432
883.70 1.132277
883.80 1.132123
883.90 1.131968
884.00 1.131814
884.10 1.131659
884.20 1.131505
884.30 1.13135
884.40 1.131196
884.50 1.131042
884.60 1.130887
884.70 1.130733
884.80 1.130579
884.90 1.130425
885.00 1.130271
885.10 1.130116
885.20 1.129962
885.30 1.129808
885.40 1.129654
885.50 1.1295
885.60 1.129347
885.70 1.129193
885.80 1.129039
885.90 1.128885
886.00 1.128731
886.10 1.128578
886.20 1.128424
886.30 1.128271
886.40 1.128117
886.50 1.127963
886.60 1.12781
886.70 1.127657
886.80 1.127503
886.90 1.12735
887.00 1.127196
887.10 1.127043
887.20 1.12689
887.30 1.126737
887.40 1.126584
887.50 1.12643
887.60 1.126277
887.70 1.126124
887.80 1.125971
887.90 1.125818
888.00 1.125666
888.10 1.125513
888.20 1.12536
888.30 1.125207
888.40 1.125053
888.50 1.1249
888.60 1.124746
888.70 1.124592
888.80 1.124439
888.90 1.124285
889.00 1.124132
889.10 1.123978
889.20 1.123825
889.30 1.123671
889.40 1.123518
889.50 1.123365
889.60 1.123211
889.70 1.123058
889.80 1.122905
889.90 1.122752
890.00 1.122599
890.10 1.122446
890.20 1.122293
890.30 1.12214
890.40 1.121987
890.50 1.121834
890.60 1.121681
890.70 1.121528
890.80 1.121375
890.90 1.121223
891.00 1.12107
891.10 1.120917
891.20 1.120765
891.30 1.120612
891.40 1.12046
891.50 1.120307
891.60 1.120155
891.70 1.120002
891.80 1.11985
891.90 1.119697
892.00 1.119545
892.10 1.119393
892.20 1.119241
892.30 1.119088
892.40 1.118936
892.50 1.118784
892.60 1.118632
892.70 1.11848
892.80 1.118328
892.90 1.118176
893.00 1.118024
893.10 1.117872
893.20 1.117721
893.30 1.117569
893.40 1.117417
893.50 1.117265
893.60 1.117114
893.70 1.116962
893.80 1.11681
893.90 1.116659
894.00 1.116507
894.10 1.116356
894.20 1.116205
894.30 1.116053
894.40 1.115902
894.50 1.115751
894.60 1.115599
894.70 1.115448
894.80 1.115297
894.90 1.115146
895.00 1.114995
895.10 1.114844
895.20 1.114692
895.30 1.114542
895.40 1.114391
895.50 1.11424
895.60 1.114089
895.70 1.113938
895.80 1.113787
895.90 1.113636
896.00 1.113486
896.10 1.113335
896.20 1.113184
896.30 1.113034
896.40 1.112883
896.50 1.112733
896.60 1.112582
896.70 1.112432
896.80 1.112281
896.90 1.112131
897.00 1.111981
897.10 1.111831
897.20 1.11168
897.30 1.111521
897.40 1.111363
897.50 1.111204
897.60 1.111046
897.70 1.110887
897.80 1.110729
897.90 1.110571
898.00 1.110412
898.10 1.110254
898.20 1.110096
898.30 1.109938
898.40 1.10978
898.50 1.109622
898.60 1.109464
898.70 1.109306
898.80 1.109148
898.90 1.10899
899.00 1.108832
899.10 1.108674
899.20 1.108516
899.30 1.108358
899.40 1.108201
899.50 1.108043
899.60 1.107885
899.70 1.107728
899.80 1.10757
899.90 1.107413
900.00 1.107255
900.10 1.107098
900.20 1.106941
900.30 1.106783
900.40 1.106626
900.50 1.106469
900.60 1.106312
900.70 1.106155
900.80 1.105998
900.90 1.10584
901.00 1.105683
901.10 1.105526
901.20 1.10537
901.30 1.105213
901.40 1.105056
901.50 1.104899
901.60 1.104742
901.70 1.104586
901.80 1.104429
901.90 1.104272
902.00 1.104116
902.10 1.103959
902.20 1.103803
902.30 1.103646
902.40 1.10349
902.50 1.103333
902.60 1.103177
902.70 1.103021
902.80 1.102864
902.90 1.102708
903.00 1.102552
903.10 1.102396
903.20 1.10224
903.30 1.102084
903.40 1.101928
903.50 1.101772
903.60 1.101616
903.70 1.10146
903.80 1.101304
903.90 1.101148
904.00 1.100993
904.10 1.100837
904.20 1.100681
904.30 1.100526
904.40 1.10037
904.50 1.100215
904.60 1.100059
904.70 1.099904
904.80 1.099748
904.90 1.099593
905.00 1.099438
905.10 1.099282
905.20 1.099127
905.30 1.098972
905.40 1.098817
905.50 1.098662
905.60 1.098506
905.70 1.098351
905.80 1.098196
905.90 1.098041
906.00 1.097887
906.10 1.097732
906.20 1.097577
906.30 1.097421
906.40 1.097265
906.50 1.09711
906.60 1.096954
906.70 1.096799
906.80 1.096643
906.90 1.096488
907.00 1.096333
907.10 1.096177
907.20 1.096022
907.30 1.095867
907.40 1.095712
907.50 1.095556
907.60 1.095401
907.70 1.095246
907.80 1.095091
907.90 1.094936
908.00 1.094781
908.10 1.094626
908.20 1.094471
908.30 1.094317
908.40 1.094162
908.50 1.094007
908.60 1.093852
908.70 1.093698
908.80 1.093543
908.90 1.093389
909.00 1.093234
909.10 1.09308
909.20 1.092925
909.30 1.092771
909.40 1.092616
909.50 1.092462
909.60 1.092308
909.70 1.092154
909.80 1.091999
909.90 1.091845
910.00 1.091691
910.10 1.091537
910.20 1.091383
910.30 1.091229
910.40 1.091075
910.50 1.090921
910.60 1.090767
910.70 1.090614
910.80 1.09046
910.90 1.090306
911.00 1.090152
911.10 1.089999
911.20 1.089845
911.30 1.089691
911.40 1.089538
911.50 1.089384
911.60 1.089231
911.70 1.089078
911.80 1.088924
911.90 1.088771
912.00 1.088618
912.10 1.088464
912.20 1.088311
912.30 1.088158
912.40 1.088005
912.50 1.087852
912.60 1.087699
912.70 1.087546
912.80 1.087393
912.90 1.08724
913.00 1.087087
913.10 1.086934
913.20 1.086781
913.30 1.086629
913.40 1.086476
913.50 1.086323
913.60 1.086171
913.70 1.086018
913.80 1.085865
913.90 1.085713
914.00 1.08556
914.10 1.085408
914.20 1.085256
914.30 1.085103
914.40 1.084951
914.50 1.084799
914.60 1.084646
914.70 1.084494
914.80 1.084342
914.90 1.08419
915.00 1.084038
915.10 1.083886
915.20 1.083734
915.30 1.083577
915.40 1.083417
915.50 1.083257
915.60 1.083097
915.70 1.082938
915.80 1.082778
915.90 1.082619
916.00 1.082459
916.10 1.0823
916.20 1.082141
916.30 1.081981
916.40 1.081822
916.50 1.081663
916.60 1.081503
916.70 1.081344
916.80 1.081185
916.90 1.081026
917.00 1.080867
917.10 1.080708
917.20 1.080549
917.30 1.08039
917.40 1.080231
917.50 1.080073
917.60 1.079914
917.70 1.079755
917.80 1.079596
917.90 1.079438
918.00 1.079279
918.10 1.079121
918.20 1.078962
918.30 1.078804
918.40 1.078645
918.50 1.078487
918.60 1.078328
918.70 1.07817
918.80 1.078012
918.90 1.077854
919.00 1.077696
919.10 1.077537
919.20 1.077379
919.30 1.077221
919.40 1.077063
919.50 1.076905
919.60 1.076747
919.70 1.07659
919.80 1.076432
919.90 1.076274
920.00 1.076116
920.10 1.075959
920.20 1.075801
920.30 1.075643
920.40 1.075486
920.50 1.075328
920.60 1.075171
920.70 1.075013
920.80 1.074856
920.90 1.074699
921.00 1.074541
921.10 1.074384
921.20 1.074227
921.30 1.07407
921.40 1.073913
921.50 1.073755
921.60 1.073598
921.70 1.073441
921.80 1.073284
921.90 1.073128
922.00 1.072971
922.10 1.072814
922.20 1.072657
922.30 1.0725
922.40 1.072344
922.50 1.072187
922.60 1.07203
922.70 1.071874
922.80 1.071717
922.90 1.071561
923.00 1.071404
923.10 1.071248
923.20 1.071092
923.30 1.070935
923.40 1.070779
923.50 1.070623
923.60 1.070467
923.70 1.07031
923.80 1.070154
923.90 1.069998
924.00 1.069842
924.10 1.069686
924.20 1.06953
924.30 1.069374
924.40 1.069218
924.50 1.069062
924.60 1.068905
924.70 1.068749
924.80 1.068592
924.90 1.068436
925.00 1.06828
925.10 1.068123
925.20 1.067967
925.30 1.067811
925.40 1.067655
925.50 1.067499
925.60 1.067343
925.70 1.067187
925.80 1.067031
925.90 1.066875
926.00 1.066719
926.10 1.066563
926.20 1.066407
926.30 1.066251
926.40 1.066095
926.50 1.06594
926.60 1.065784
926.70 1.065628
926.80 1.065473
926.90 1.065317
927.00 1.065162
927.10 1.065006
927.20 1.064851
927.30 1.064696
927.40 1.06454
927.50 1.064385
927.60 1.06423
927.70 1.064075
927.80 1.063919
927.90 1.063764
928.00 1.063609
928.10 1.063454
928.20 1.063299
928.30 1.063144
928.40 1.062989
928.50 1.062834
928.60 1.06268
928.70 1.062525
928.80 1.06237
928.90 1.062215
929.00 1.062061
929.10 1.061906
929.20 1.061752
929.30 1.061597
929.40 1.061443
929.50 1.061288
929.60 1.061134
929.70 1.060979
929.80 1.060825
929.90 1.060671
930.00 1.060517
930.10 1.060362
930.20 1.060208
930.30 1.060054
930.40 1.0599
930.50 1.059746
930.60 1.059592
930.70 1.059438
930.80 1.059284
930.90 1.05913
931.00 1.058977
931.10 1.058823
931.20 1.058669
931.30 1.058515
931.40 1.058362
931.50 1.058208
931.60 1.058055
931.70 1.057901
931.80 1.057748
931.90 1.057594
932.00 1.057441
932.10 1.057287
932.20 1.057134
932.30 1.056981
932.40 1.056828
932.50 1.056674
932.60 1.056521
932.70 1.056368
932.80 1.056215
932.90 1.056062
933.00 1.055909
933.10 1.055756
933.20 1.055603
933.30 1.05545
933.40 1.055297
933.50 1.055145
933.60 1.054992
933.70 1.054834
933.80 1.054674
933.90 1.054514
934.00 1.054354
934.10 1.054194
934.20 1.054034
934.30 1.053875
934.40 1.053715
934.50 1.053555
934.60 1.053396
934.70 1.053236
934.80 1.053077
934.90 1.052917
935.00 1.052758
935.10 1.052598
935.20 1.052439
935.30 1.05228
935.40 1.05212
935.50 1.051961
935.60 1.051802
935.70 1.051643
935.80 1.051484
935.90 1.051325
936.00 1.051166
936.10 1.051007
936.20 1.050848
936.30 1.050689
936.40 1.05053
936.50 1.050371
936.60 1.050213
936.70 1.050054
936.80 1.049895
936.90 1.049737
937.00 1.049578
937.10 1.04942
937.20 1.049261
937.30 1.049103
937.40 1.048944
937.50 1.048786
937.60 1.048628
937.70 1.048469
937.80 1.048311
937.90 1.048153
938.00 1.047995
938.10 1.047837
938.20 1.047679
938.30 1.047521
938.40 1.047363
938.50 1.047205
938.60 1.047047
938.70 1.046889
938.80 1.046731
938.90 1.046574
939.00 1.046416
939.10 1.046258
939.20 1.046101
939.30 1.045943
939.40 1.045786
939.50 1.045628
939.60 1.045471
939.70 1.045313
939.80 1.045156
939.90 1.044999
940.00 1.044842
940.10 1.044684
940.20 1.044527
940.30 1.04437
940.40 1.044213
940.50 1.044056
940.60 1.043899
940.70 1.043742
940.80 1.043585
940.90 1.043428
941.00 1.043271
941.10 1.043115
941.20 1.042958
941.30 1.042801
941.40 1.042645
941.50 1.042488
941.60 1.042331
941.70 1.042175
941.80 1.042018
941.90 1.041862
942.00 1.041706
942.10 1.041549
942.20 1.041393
942.30 1.041237
942.40 1.04108
942.50 1.040924
942.60 1.040768
942.70 1.040612
942.80 1.040456
942.90 1.0403
943.00 1.040144
943.10 1.039987
943.20 1.039831
943.30 1.039674
943.40 1.039518
943.50 1.039361
943.60 1.039205
943.70 1.039049
943.80 1.038892
943.90 1.038736
944.00 1.03858
944.10 1.038424
944.20 1.038268
944.30 1.038112
944.40 1.037956
944.50 1.0378
944.60 1.037644
944.70 1.037488
944.80 1.037332
944.90 1.037176
945.00 1.037021
945.10 1.036865
945.20 1.036709
945.30 1.036554
945.40 1.036398
945.50 1.036242
945.60 1.036087
945.70 1.035931
945.80 1.035776
945.90 1.035621
946.00 1.035465
946.10 1.03531
946.20 1.035155
946.30 1.035
946.40 1.034845
946.50 1.034689
946.60 1.034534
946.70 1.034379
946.80 1.034224
946.90 1.034069
947.00 1.033914
947.10 1.03376
947.20 1.033605
947.30 1.03345
947.40 1.033295
947.50 1.033141
947.60 1.032986
947.70 1.032831
947.80 1.032677
947.90 1.032522
948.00 1.032368
948.10 1.032213
948.20 1.032059
948.30 1.031905
948.40 1.03175
948.50 1.031596
948.60 1.031442
948.70 1.031288
948.80 1.031133
948.90 1.030979
949.00 1.030825
949.10 1.030671
949.20 1.030517
949.30 1.030363
949.40 1.03021
949.50 1.030056
949.60 1.029902
949.70 1.029748
949.80 1.029594
949.90 1.029441
950.00 1.029287
950.10 1.029133
950.20 1.02898
950.30 1.028826
950.40 1.028673
950.50 1.02852
950.60 1.028366
950.70 1.028213
950.80 1.028059
950.90 1.027906
951.00 1.027753
951.10 1.0276
951.20 1.027447
951.30 1.027294
951.40 1.027141
951.50 1.026988
951.60 1.026835
951.70 1.026682
951.80 1.026529
951.90 1.026376
952.00 1.026223
952.10 1.02607
952.20 1.025918
952.30 1.025765
952.40 1.025612
952.50 1.025452
952.60 1.025293
952.70 1.025134
952.80 1.024974
952.90 1.024815
953.00 1.024656
953.10 1.024497
953.20 1.024338
953.30 1.024179
953.40 1.024019
953.50 1.02386
953.60 1.023702
953.70 1.023543
953.80 1.023384
953.90 1.023225
954.00 1.023066
954.10 1.022908
954.20 1.022749
954.30 1.02259
954.40 1.022432
954.50 1.022273
954.60 1.022115
954.70 1.021956
954.80 1.021798
954.90 1.021639
955.00 1.021481
955.10 1.021323
955.20 1.021164
955.30 1.021006
955.40 1.020848
955.50 1.02069
955.60 1.020532
955.70 1.020374
955.80 1.020216
955.90 1.020058
956.00 1.0199
956.10 1.019742
956.20 1.019585
956.30 1.019427
956.40 1.019269
956.50 1.019111
956.60 1.018954
956.70 1.018796
956.80 1.018639
956.90 1.018481
957.00 1.018324
957.10 1.018166
957.20 1.018009
957.30 1.017852
957.40 1.017694
957.50 1.017537
957.60 1.01738
957.70 1.017223
957.80 1.017066
957.90 1.016909
958.00 1.016752
958.10 1.016595
958.20 1.016438
958.30 1.016281
958.40 1.016124
958.50 1.015967
958.60 1.01581
958.70 1.015654
958.80 1.015497
958.90 1.01534
959.00 1.015184
959.10 1.015027
959.20 1.014871
959.30 1.014714
959.40 1.014558
959.50 1.014402
959.60 1.014245
959.70 1.014089
959.80 1.013933
959.90 1.013777
960.00 1.01362
960.10 1.013464
960.20 1.013308
960.30 1.013152
960.40 1.012996
960.50 1.01284
960.60 1.012684
960.70 1.012529
960.80 1.012373
960.90 1.012217
961.00 1.012061
961.10 1.011906
961.20 1.01175
961.30 1.011594
961.40 1.011439
961.50 1.011283
961.60 1.011128
961.70 1.010972
961.80 1.010817
961.90 1.010662
962.00 1.010506
962.10 1.01035
962.20 1.010194
962.30 1.010039
962.40 1.009883
962.50 1.009727
962.60 1.009572
962.70 1.009416
962.80 1.009261
962.90 1.009105
963.00 1.00895
963.10 1.008795
963.20 1.008639
963.30 1.008484
963.40 1.008329
963.50 1.008174
963.60 1.008019
963.70 1.007863
963.80 1.007708
963.90 1.007553
964.00 1.007398
964.10 1.007243
964.20 1.007089
964.30 1.006934
964.40 1.006779
964.50 1.006624
964.60 1.006469
964.70 1.006315
964.80 1.00616
964.90 1.006005
965.00 1.005851
965.10 1.005696
965.20 1.005542
965.30 1.005388
965.40 1.005233
965.50 1.005079
965.60 1.004925
965.70 1.00477
965.80 1.004616
965.90 1.004462
966.00 1.004308
966.10 1.004154
966.20 1.004
966.30 1.003846
966.40 1.003692
966.50 1.003538
966.60 1.003384
966.70 1.00323
966.80 1.003076
966.90 1.002922
967.00 1.002769
967.10 1.002615
967.20 1.002462
967.30 1.002308
967.40 1.002154
967.50 1.002001
967.60 1.001847
967.70 1.001694
967.80 1.001541
967.90 1.001387
968.00 1.001234
968.10 1.001081
968.20 1.000928
968.30 1.000774
968.40 1.000621
968.50 1.000468
968.60 1.000315
968.70 1.000162
968.80 1.000009
968.90 0.9998564
969.00 0.9997035
969.10 0.9995507
969.20 0.9993979
969.30 0.9992451
969.40 0.9990924
969.50 0.9989398
969.60 0.9987872
969.70 0.9986346
969.80 0.9984821
969.90 0.9983296
970.00 0.9981771
970.10 0.9980247
970.20 0.9978724
970.30 0.99772
970.40 0.9975677
970.50 0.9974155
970.60 0.9972633
970.70 0.9971112
970.80 0.996959
970.90 0.996807
971.00 0.9966549
971.10 0.9965029
971.20 0.996351
971.30 0.9961991
971.40 0.9960472
971.50 0.9958954
971.60 0.9957394
971.70 0.9955813
971.80 0.9954233
971.90 0.9952652
972.00 0.9951072
972.10 0.9949493
972.20 0.9947914
972.30 0.9946335
972.40 0.9944757
972.50 0.9943179
972.60 0.9941602
972.70 0.9940025
972.80 0.9938449
972.90 0.9936873
973.00 0.9935298
973.10 0.9933723
973.20 0.9932148
973.30 0.9930574
973.40 0.9929
973.50 0.9927427
973.60 0.9925854
973.70 0.9924281
973.80 0.9922709
973.90 0.9921138
974.00 0.9919567
974.10 0.9917996
974.20 0.9916426
974.30 0.9914856
974.40 0.9913287
974.50 0.9911718
974.60 0.9910149
974.70 0.9908581
974.80 0.9907013
974.90 0.9905446
975.00 0.9903879
975.10 0.9902313
975.20 0.9900747
975.30 0.9899182
975.40 0.9897617
975.50 0.9896052
975.60 0.9894488
975.70 0.9892924
975.80 0.9891361
975.90 0.9889798
976.00 0.9888235
976.10 0.9886673
976.20 0.9885112
976.30 0.9883551
976.40 0.988199
976.50 0.988043
976.60 0.987887
976.70 0.987731
976.80 0.9875752
976.90 0.9874193
977.00 0.9872635
977.10 0.9871077
977.20 0.986952
977.30 0.9867963
977.40 0.9866407
977.50 0.9864851
977.60 0.9863295
977.70 0.986174
977.80 0.9860185
977.90 0.9858631
978.00 0.9857077
978.10 0.9855524
978.20 0.9853971
978.30 0.9852418
978.40 0.9850866
978.50 0.9849315
978.60 0.9847763
978.70 0.9846213
978.80 0.9844662
978.90 0.9843112
979.00 0.9841563
979.10 0.9840014
979.20 0.9838465
979.30 0.9836917
979.40 0.9835369
979.50 0.9833821
979.60 0.9832274
979.70 0.9830728
979.80 0.9829182
979.90 0.9827636
980.00 0.9826091
980.10 0.9824546
980.20 0.9823002
980.30 0.9821458
980.40 0.9819914
980.50 0.9818371
980.60 0.9816828
980.70 0.9815286
980.80 0.9813744
980.90 0.9812203
981.00 0.9810662
981.10 0.9809121
981.20 0.9807581
981.30 0.9806025
981.40 0.9804452
981.50 0.9802881
981.60 0.9801309
981.70 0.9799738
981.80 0.9798168
981.90 0.9796597
982.00 0.9795028
982.10 0.9793459
982.20 0.979189
982.30 0.9790321
982.40 0.9788753
982.50 0.9787186
982.60 0.9785619
982.70 0.9784052
982.80 0.9782486
982.90 0.978092
983.00 0.9779355
983.10 0.977779
983.20 0.9776226
983.30 0.9774662
983.40 0.9773098
983.50 0.9771535
983.60 0.9769972
983.70 0.976841
983.80 0.9766848
983.90 0.9765287
984.00 0.9763726
984.10 0.9762165
984.20 0.9760605
984.30 0.9759045
984.40 0.9757486
984.50 0.9755927
984.60 0.9754369
984.70 0.9752811
984.80 0.9751253
984.90 0.9749696
985.00 0.974814
985.10 0.9746583
985.20 0.9745028
985.30 0.9743472
985.40 0.9741917
985.50 0.9740363
985.60 0.9738809
985.70 0.9737255
985.80 0.9735702
985.90 0.9734149
986.00 0.9732597
986.10 0.9731045
986.20 0.9729493
986.30 0.9727942
986.40 0.9726392
986.50 0.9724841
986.60 0.9723292
986.70 0.9721742
986.80 0.9720193
986.90 0.9718645
987.00 0.9717097
987.10 0.9715549
987.20 0.9714002
987.30 0.9712455
987.40 0.9710909
987.50 0.9709363
987.60 0.9707817
987.70 0.9706272
987.80 0.9704728
987.90 0.9703183
988.00 0.9701639
988.10 0.9700096
988.20 0.9698553
988.30 0.9697011
988.40 0.9695469
988.50 0.9693927
988.60 0.9692386
988.70 0.9690845
988.80 0.9689304
988.90 0.9687764
989.00 0.9686225
989.10 0.9684686
989.20 0.9683147
989.30 0.9681609
989.40 0.9680071
989.50 0.9678534
989.60 0.9676997
989.70 0.967546
989.80 0.9673924
989.90 0.9672388
990.00 0.9670853
990.10 0.9669318
990.20 0.9667783
990.30 0.9666249
990.40 0.9664716
990.50 0.9663183
990.60 0.966165
990.70 0.9660117
990.80 0.9658586
990.90 0.9657054
991.00 0.9655523
991.10 0.9654001
991.20 0.9652494
991.30 0.9650988
991.40 0.9649482
991.50 0.9647976
991.60 0.9646471
991.70 0.9644967
991.80 0.9643462
991.90 0.9641958
992.00 0.9640455
992.10 0.9638952
992.20 0.9637449
992.30 0.9635947
992.40 0.9634445
992.50 0.9632944
992.60 0.9631443
992.70 0.9629942
992.80 0.9628442
992.90 0.9626942
993.00 0.9625443
993.10 0.9623944
993.20 0.9622445
993.30 0.9620947
993.40 0.9619449
993.50 0.9617952
993.60 0.9616455
993.70 0.9614958
993.80 0.9613462
993.90 0.9611967
994.00 0.9610471
994.10 0.9608976
994.20 0.9607482
994.30 0.9605988
994.40 0.9604494
994.50 0.9603001
994.60 0.9601508
994.70 0.9600015
994.80 0.9598523
994.90 0.9597032
995.00 0.9595541
995.10 0.959405
995.20 0.9592559
995.30 0.9591069
995.40 0.958958
995.50 0.958809
995.60 0.9586602
995.70 0.9585113
995.80 0.9583625
995.90 0.9582138
996.00 0.958065
996.10 0.9579119
996.20 0.9577578
996.30 0.9576037
996.40 0.9574497
996.50 0.9572957
996.60 0.9571418
996.70 0.9569879
996.80 0.9568341
996.90 0.9566802
997.00 0.9565265
997.10 0.9563728
997.20 0.9562191
997.30 0.9560654
997.40 0.9559119
997.50 0.9557583
997.60 0.9556048
997.70 0.9554513
997.80 0.9552979
997.90 0.9551445
998.00 0.9549912
998.10 0.9548379
998.20 0.9546846
998.30 0.9545314
998.40 0.9543782
998.50 0.9542251
998.60 0.954072
998.70 0.953919
998.80 0.953766
998.90 0.953613
999.00 0.9534601
999.10 0.9533072
999.20 0.9531544
999.30 0.9530016
999.40 0.9528489
999.50 0.9526961
999.60 0.9525435
999.70 0.9523909
999.80 0.9522383
999.90 0.9520857
1000.00 0.9519332
1000.10 0.9517808
1000.20 0.9516284
1000.30 0.951476
1000.40 0.9513237
1000.50 0.9511714
1000.60 0.9510191
1000.70 0.9508669
1000.80 0.9507148
1000.90 0.9505627
1001.00 0.9504091
1001.10 0.9502513
1001.20 0.9500936
1001.30 0.9499359
1001.40 0.9497783
1001.50 0.9496207
1001.60 0.9494632
1001.70 0.9493057
1001.80 0.9491483
1001.90 0.9489909
1002.00 0.9488335
1002.10 0.9486762
1002.20 0.9485189
1002.30 0.9483617
1002.40 0.9482045
1002.50 0.9480473
1002.60 0.9478902
1002.70 0.9477332
1002.80 0.9475762
1002.90 0.9474192
1003.00 0.9472623
1003.10 0.9471054
1003.20 0.9469486
1003.30 0.9467918
1003.40 0.946635
1003.50 0.9464783
1003.60 0.9463217
1003.70 0.946165
1003.80 0.9460085
1003.90 0.9458519
1004.00 0.9456955
1004.10 0.945539
1004.20 0.9453826
1004.30 0.9452263
1004.40 0.9450699
1004.50 0.9449137
1004.60 0.9447574
1004.70 0.9446013
1004.80 0.9444451
1004.90 0.944289
1005.00 0.944133
1005.10 0.943977
1005.20 0.943821
1005.30 0.9436651
1005.40 0.9435092
1005.50 0.9433534
1005.60 0.9431976
1005.70 0.9430418
1005.80 0.9428861
1005.90 0.9427305
1006.00 0.942576
1006.10 0.9424257
1006.20 0.9422755
1006.30 0.9421253
1006.40 0.9419751
1006.50 0.941825
1006.60 0.941675
1006.70 0.9415249
1006.80 0.941375
1006.90 0.941225
1007.00 0.9410751
1007.10 0.9409252
1007.20 0.9407754
1007.30 0.9406257
1007.40 0.9404759
1007.50 0.9403262
1007.60 0.9401766
1007.70 0.940027
1007.80 0.9398774
1007.90 0.9397278
1008.00 0.9395784
1008.10 0.9394289
1008.20 0.9392795
1008.30 0.9391301
1008.40 0.9389808
1008.50 0.9388315
1008.60 0.9386823
1008.70 0.9385331
1008.80 0.9383839
1008.90 0.9382348
1009.00 0.9380857
1009.10 0.9379366
1009.20 0.9377876
1009.30 0.9376387
1009.40 0.9374898
1009.50 0.9373409
1009.60 0.937192
1009.70 0.9370432
1009.80 0.9368945
1009.90 0.9367458
1010.00 0.9365971
1010.10 0.9364484
1010.20 0.9362998
1010.30 0.9361513
1010.40 0.9360028
1010.50 0.9358543
1010.60 0.9357059
1010.70 0.9355575
1010.80 0.9354091
1010.90 0.9352608
1011.00 0.9351116
1011.10 0.9349578
1011.20 0.934804
1011.30 0.9346503
1011.40 0.9344966
1011.50 0.934343
1011.60 0.9341894
1011.70 0.9340359
1011.80 0.9338824
1011.90 0.9337289
1012.00 0.9335755
1012.10 0.9334221
1012.20 0.9332688
1012.30 0.9331155
1012.40 0.9329623
1012.50 0.9328091
1012.60 0.9326559
1012.70 0.9325028
1012.80 0.9323497
1012.90 0.9321967
1013.00 0.9320437
1013.10 0.9318907
1013.20 0.9317378
1013.30 0.931585
1013.40 0.9314321
1013.50 0.9312794
1013.60 0.9311266
1013.70 0.9309739
1013.80 0.9308213
1013.90 0.9306687
1014.00 0.9305161
1014.10 0.9303636
1014.20 0.9302111
1014.30 0.9300586
1014.40 0.9299062
1014.50 0.9297539
1014.60 0.9296016
1014.70 0.9294493
1014.80 0.929297
1014.90 0.9291449
1015.00 0.9289927
1015.10 0.9288406
1015.20 0.9286885
1015.30 0.9285365
1015.40 0.9283845
1015.50 0.9282326
1015.60 0.9280807
1015.70 0.9279288
1015.80 0.927777
1015.90 0.9276252
1016.00 0.9274735
1016.10 0.9273218
1016.20 0.9271702
1016.30 0.9270186
1016.40 0.926867
1016.50 0.9267155
1016.60 0.926564
1016.70 0.9264125
1016.80 0.9262611
1016.90 0.9261098
1017.00 0.9259585
1017.10 0.9258072
1017.20 0.925656
1017.30 0.9255048
1017.40 0.9253536
1017.50 0.9252025
1017.60 0.9250515
1017.70 0.9249004
1017.80 0.9247495
1017.90 0.9245985
1018.00 0.9244476
1018.10 0.9242968
1018.20 0.9241459
1018.30 0.9239952
1018.40 0.9238444
1018.50 0.9236937
1018.60 0.9235431
1018.70 0.9233925
1018.80 0.9232419
1018.90 0.9230914
1019.00 0.9229409
1019.10 0.9227905
1019.20 0.92264
1019.30 0.9224897
1019.40 0.9223394
1019.50 0.9221891
1019.60 0.9220388
1019.70 0.9218887
1019.80 0.9217385
1019.90 0.9215884
1020.00 0.9214383
1020.10 0.9212883
1020.20 0.9211383
1020.30 0.9209883
1020.40 0.9208384
1020.50 0.9206886
1020.60 0.9205387
1020.70 0.9203889
1020.80 0.9202392
1020.90 0.9200895
1021.00 0.9199398
1021.10 0.9197902
1021.20 0.9196403
1021.30 0.9194905
1021.40 0.9193407
1021.50 0.9191909
1021.60 0.9190412
1021.70 0.9188915
1021.80 0.9187418
1021.90 0.9185922
1022.00 0.9184427
1022.10 0.9182932
1022.20 0.9181437
1022.30 0.9179943
1022.40 0.9178449
1022.50 0.9176955
1022.60 0.9175462
1022.70 0.9173969
1022.80 0.9172477
1022.90 0.9170985
1023.00 0.9169494
1023.10 0.9168002
1023.20 0.9166512
1023.30 0.9165022
1023.40 0.9163532
1023.50 0.9162042
1023.60 0.9160553
1023.70 0.9159065
1023.80 0.9157576
1023.90 0.9156088
1024.00 0.9154601
1024.10 0.9153114
1024.20 0.9151627
1024.30 0.9150141
1024.40 0.9148655
1024.50 0.914717
1024.60 0.9145685
1024.70 0.91442
1024.80 0.9142716
1024.90 0.9141232
1025.00 0.9139749
1025.10 0.9138266
1025.20 0.9136784
1025.30 0.9135301
1025.40 0.913382
1025.50 0.9132338
1025.60 0.9130857
1025.70 0.9129377
1025.80 0.9127897
1025.90 0.9126417
1026.00 0.9124938
1026.10 0.9123459
1026.20 0.912198
1026.30 0.9120452
1026.40 0.9118924
1026.50 0.9117397
1026.60 0.911587
1026.70 0.9114344
1026.80 0.9112818
1026.90 0.9111293
1027.00 0.9109768
1027.10 0.9108243
1027.20 0.9106719
1027.30 0.9105195
1027.40 0.9103672
1027.50 0.9102149
1027.60 0.9100627
1027.70 0.9099104
1027.80 0.9097583
1027.90 0.9096062
1028.00 0.9094541
1028.10 0.909302
1028.20 0.90915
1028.30 0.9089981
1028.40 0.9088462
1028.50 0.9086943
1028.60 0.9085425
1028.70 0.9083907
1028.80 0.9082389
1028.90 0.9080872
1029.00 0.9079356
1029.10 0.9077839
1029.20 0.9076324
1029.30 0.9074808
1029.40 0.9073293
1029.50 0.9071779
1029.60 0.9070265
1029.70 0.9068751
1029.80 0.9067238
1029.90 0.9065725
1030.00 0.9064212
1030.10 0.90627
1030.20 0.9061189
1030.30 0.9059677
1030.40 0.9058167
1030.50 0.9056656
1030.60 0.9055146
1030.70 0.9053637
1030.80 0.9052128
1030.90 0.9050619
1031.00 0.9049111
1031.10 0.9047603
1031.20 0.9046095
1031.30 0.9044588
1031.40 0.9043126
1031.50 0.9041666
1031.60 0.9040207
1031.70 0.9038748
1031.80 0.9037289
1031.90 0.9035831
1032.00 0.9034373
1032.10 0.9032916
1032.20 0.9031459
1032.30 0.9030002
1032.40 0.9028546
1032.50 0.902709
1032.60 0.9025635
1032.70 0.9024179
1032.80 0.9022725
1032.90 0.9021271
1033.00 0.9019817
1033.10 0.9018363
1033.20 0.901691
1033.30 0.9015457
1033.40 0.9014005
1033.50 0.9012553
1033.60 0.9011102
1033.70 0.900965
1033.80 0.90082
1033.90 0.9006749
1034.00 0.9005299
1034.10 0.900385
1034.20 0.9002401
1034.30 0.9000952
1034.40 0.8999504
1034.50 0.8998056
1034.60 0.8996608
1034.70 0.8995161
1034.80 0.8993714
1034.90 0.8992268
1035.00 0.8990821
1035.10 0.8989376
1035.20 0.8987931
1035.30 0.8986486
1035.40 0.8985041
1035.50 0.8983597
1035.60 0.8982153
1035.70 0.898071
1035.80 0.8979267
1035.90 0.8977825
1036.00 0.8976383
1036.10 0.8974941
1036.20 0.89735
1036.30 0.8972059
1036.40 0.8970618
1036.50 0.8969159
1036.60 0.8967671
1036.70 0.8966183
1036.80 0.8964696
1036.90 0.8963209
1037.00 0.8961722
1037.10 0.8960236
1037.20 0.895875
1037.30 0.8957265
1037.40 0.895578
1037.50 0.8954295
1037.60 0.8952811
1037.70 0.8951328
1037.80 0.8949844
1037.90 0.8948361
1038.00 0.8946879
1038.10 0.8945397
1038.20 0.8943915
1038.30 0.8942434
1038.40 0.8940953
1038.50 0.8939472
1038.60 0.8937992
1038.70 0.8936513
1038.80 0.8935033
1038.90 0.8933555
1039.00 0.8932076
1039.10 0.8930598
1039.20 0.892912
1039.30 0.8927643
1039.40 0.8926166
1039.50 0.892469
1039.60 0.8923214
1039.70 0.8921738
1039.80 0.8920263
1039.90 0.8918788
1040.00 0.8917314
1040.10 0.891584
1040.20 0.8914366
1040.30 0.8912893
1040.40 0.891142
1040.50 0.8909948
1040.60 0.8908476
1040.70 0.8907004
1040.80 0.8905533
1040.90 0.8904062
1041.00 0.8902592
1041.10 0.8901122
1041.20 0.8899652
1041.30 0.8898183
1041.40 0.8896714
1041.50 0.8895246
1041.60 0.8893778
1041.70 0.8892269
1041.80 0.8890752
1041.90 0.8889235
1042.00 0.8887719
1042.10 0.8886203
1042.20 0.8884687
1042.30 0.8883172
1042.40 0.8881658
1042.50 0.8880144
1042.60 0.887863
1042.70 0.8877117
1042.80 0.8875604
1042.90 0.8874091
1043.00 0.8872579
1043.10 0.8871068
1043.20 0.8869556
1043.30 0.8868046
1043.40 0.8866535
1043.50 0.8865025
1043.60 0.8863516
1043.70 0.8862006
1043.80 0.8860498
1043.90 0.8858989
1044.00 0.8857482
1044.10 0.8855974
1044.20 0.8854467
1044.30 0.885296
1044.40 0.8851454
1044.50 0.8849948
1044.60 0.8848443
1044.70 0.8846938
1044.80 0.8845433
1044.90 0.8843929
1045.00 0.8842425
1045.10 0.8840922
1045.20 0.8839419
1045.30 0.8837916
1045.40 0.8836414
1045.50 0.8834913
1045.60 0.8833411
1045.70 0.8831911
1045.80 0.883041
1045.90 0.882891
1046.00 0.882741
1046.10 0.8825911
1046.20 0.8824412
1046.30 0.8822914
1046.40 0.8821416
1046.50 0.8819918
1046.60 0.8818421
1046.70 0.8816924
1046.80 0.8815428
1046.90 0.8813967
1047.00 0.8812519
1047.10 0.8811071
1047.20 0.8809623
1047.30 0.8808176
1047.40 0.8806729
1047.50 0.8805282
1047.60 0.8803836
1047.70 0.880239
1047.80 0.8800945
1047.90 0.87995
1048.00 0.8798055
1048.10 0.8796611
1048.20 0.8795167
1048.30 0.8793724
1048.40 0.8792281
1048.50 0.8790838
1048.60 0.8789396
1048.70 0.8787954
1048.80 0.8786513
1048.90 0.8785072
1049.00 0.8783631
1049.10 0.8782191
1049.20 0.8780751
1049.30 0.8779311
1049.40 0.8777872
1049.50 0.8776433
1049.60 0.8774995
1049.70 0.8773557
1049.80 0.877212
1049.90 0.8770682
1050.00 0.8769246
1050.10 0.8767809
1050.20 0.8766373
1050.30 0.8764937
1050.40 0.8763502
1050.50 0.8762067
1050.60 0.8760633
1050.70 0.8759199
1050.80 0.8757765
1050.90 0.8756332
1051.00 0.8754899
1051.10 0.8753466
1051.20 0.8752034
1051.30 0.8750602
1051.40 0.8749171
1051.50 0.874774
1051.60 0.8746309
1051.70 0.8744879
1051.80 0.8743449
1051.90 0.874202
1052.00 0.8740591
1052.10 0.873913
1052.20 0.8737653
1052.30 0.8736177
1052.40 0.8734701
1052.50 0.8733225
1052.60 0.873175
1052.70 0.8730276
1052.80 0.8728801
1052.90 0.8727328
1053.00 0.8725854
1053.10 0.8724381
1053.20 0.8722908
1053.30 0.8721436
1053.40 0.8719964
1053.50 0.8718493
1053.60 0.8717022
1053.70 0.8715551
1053.80 0.8714081
1053.90 0.8712611
1054.00 0.8711141
1054.10 0.8709672
1054.20 0.8708204
1054.30 0.8706735
1054.40 0.8705268
1054.50 0.87038
1054.60 0.8702333
1054.70 0.8700866
1054.80 0.86994
1054.90 0.8697934
1055.00 0.8696469
1055.10 0.8695004
1055.20 0.8693539
1055.30 0.8692075
1055.40 0.8690611
1055.50 0.8689148
1055.60 0.8687685
1055.70 0.8686222
1055.80 0.868476
1055.90 0.8683298
1056.00 0.8681836
1056.10 0.8680375
1056.20 0.8678915
1056.30 0.8677454
1056.40 0.8675994
1056.50 0.8674535
1056.60 0.8673076
1056.70 0.8671617
1056.80 0.8670159
1056.90 0.8668701
1057.00 0.8667244
1057.10 0.8665786
1057.20 0.866433
1057.30 0.8662873
1057.40 0.8661417
1057.50 0.8659962
1057.60 0.8658507
1057.70 0.8657052
1057.80 0.8655598
1057.90 0.8654144
1058.00 0.865269
1058.10 0.8651237
1058.20 0.8649784
1058.30 0.8648332
1058.40 0.864688
1058.50 0.8645429
1058.60 0.8643977
1058.70 0.8642527
1058.80 0.8641076
1058.90 0.8639626
1059.00 0.8638177
1059.10 0.8636727
1059.20 0.8635279
1059.30 0.863383
1059.40 0.8632382
1059.50 0.8630935
1059.60 0.8629487
1059.70 0.862804
1059.80 0.8626594
1059.90 0.8625148
1060.00 0.8623702
1060.10 0.8622257
1060.20 0.8620812
1060.30 0.8619368
1060.40 0.8617924
1060.50 0.861648
1060.60 0.8615036
1060.70 0.8613594
1060.80 0.8612151
1060.90 0.8610709
1061.00 0.8609267
1061.10 0.8607826
1061.20 0.8606385
1061.30 0.8604944
1061.40 0.8603504
1061.50 0.8602064
1061.60 0.8600625
1061.70 0.8599186
1061.80 0.8597747
1061.90 0.8596309
1062.00 0.8594871
1062.10 0.8593434
1062.20 0.8591996
1062.30 0.859056
1062.40 0.8589123
1062.50 0.8587688
1062.60 0.8586251
1062.70 0.8584814
1062.80 0.8583378
1062.90 0.8581942
1063.00 0.8580506
1063.10 0.857907
1063.20 0.8577636
1063.30 0.8576201
1063.40 0.8574767
1063.50 0.8573333
1063.60 0.8571899
1063.70 0.8570466
1063.80 0.8569034
1063.90 0.8567602
1064.00 0.856617
1064.10 0.8564738
1064.20 0.8563307
1064.30 0.8561876
1064.40 0.8560446
1064.50 0.8559016
1064.60 0.8557586
1064.70 0.8556157
1064.80 0.8554729
1064.90 0.85533
1065.00 0.8551872
1065.10 0.8550444
1065.20 0.8549017
1065.30 0.854759
1065.40 0.8546164
1065.50 0.8544738
1065.60 0.8543312
1065.70 0.8541887
1065.80 0.8540462
1065.90 0.8539037
1066.00 0.8537613
1066.10 0.8536189
1066.20 0.8534766
1066.30 0.8533343
1066.40 0.853192
1066.50 0.8530498
1066.60 0.8529076
1066.70 0.8527655
1066.80 0.8526234
1066.90 0.8524813
1067.00 0.8523392
1067.10 0.8521973
1067.20 0.8520553
1067.30 0.8519134
1067.40 0.8517715
1067.50 0.8516297
1067.60 0.8514879
1067.70 0.8513461
1067.80 0.8512044
1067.90 0.8510612
1068.00 0.8509151
1068.10 0.8507691
1068.20 0.8506231
1068.30 0.8504771
1068.40 0.8503312
1068.50 0.8501853
1068.60 0.8500395
1068.70 0.8498937
1068.80 0.8497479
1068.90 0.8496022
1069.00 0.8494565
1069.10 0.8493109
1069.20 0.8491653
1069.30 0.8490197
1069.40 0.8488742
1069.50 0.8487287
1069.60 0.8485833
1069.70 0.8484379
1069.80 0.8482925
1069.90 0.8481472
1070.00 0.8480019
1070.10 0.8478567
1070.20 0.8477115
1070.30 0.8475663
1070.40 0.8474212
1070.50 0.8472761
1070.60 0.847131
1070.70 0.846986
1070.80 0.8468411
1070.90 0.8466961
1071.00 0.8465512
1071.10 0.8464064
1071.20 0.8462616
1071.30 0.8461168
1071.40 0.8459721
1071.50 0.8458274
1071.60 0.8456827
1071.70 0.8455381
1071.80 0.8453935
1071.90 0.845249
1072.00 0.8451045
1072.10 0.84496
1072.20 0.8448156
1072.30 0.8446712
1072.40 0.8445269
1072.50 0.8443826
1072.60 0.8442383
1072.70 0.8440941
1072.80 0.8439499
1072.90 0.8438058
1073.00 0.8436617
1073.10 0.8435176
1073.20 0.8433745
1073.30 0.8432347
1073.40 0.8430949
1073.50 0.8429552
1073.60 0.8428156
1073.70 0.8426759
1073.80 0.8425363
1073.90 0.8423968
1074.00 0.8422573
1074.10 0.8421178
1074.20 0.8419783
1074.30 0.8418389
1074.40 0.8416996
1074.50 0.8415602
1074.60 0.8414209
1074.70 0.8412817
1074.80 0.8411425
1074.90 0.8410033
1075.00 0.8408641
1075.10 0.840725
1075.20 0.840586
1075.30 0.8404469
1075.40 0.8403079
1075.50 0.840169
1075.60 0.84003
1075.70 0.8398912
1075.80 0.8397523
1075.90 0.8396135
1076.00 0.8394747
1076.10 0.839336
1076.20 0.8391973
1076.30 0.8390586
1076.40 0.83892
1076.50 0.8387814
1076.60 0.8386429
1076.70 0.8385044
1076.80 0.8383659
1076.90 0.8382274
1077.00 0.838089
1077.10 0.8379507
1077.20 0.8378123
1077.30 0.837674
1077.40 0.8375358
1077.50 0.8373976
1077.60 0.8372594
1077.70 0.8371212
1077.80 0.8369831
1077.90 0.8368451
1078.00 0.836707
1078.10 0.836569
1078.20 0.8364311
1078.30 0.8362931
1078.40 0.8361553
1078.50 0.8360174
1078.60 0.8358749
1078.70 0.8357285
1078.80 0.8355822
1078.90 0.8354359
1079.00 0.8352896
1079.10 0.8351434
1079.20 0.8349972
1079.30 0.8348511
1079.40 0.834705
1079.50 0.8345589
1079.60 0.8344129
1079.70 0.834267
1079.80 0.834121
1079.90 0.8339751
1080.00 0.8338293
1080.10 0.8336834
1080.20 0.8335377
1080.30 0.8333919
1080.40 0.8332462
1080.50 0.8331006
1080.60 0.832955
1080.70 0.8328094
1080.80 0.8326638
1080.90 0.8325183
1081.00 0.8323729
1081.10 0.8322275
1081.20 0.8320821
1081.30 0.8319367
1081.40 0.8317914
1081.50 0.8316462
1081.60 0.831501
1081.70 0.8313558
1081.80 0.8312106
1081.90 0.8310655
1082.00 0.8309205
1082.10 0.8307754
1082.20 0.8306305
1082.30 0.8304855
1082.40 0.8303406
1082.50 0.8301957
1082.60 0.8300509
1082.70 0.8299061
1082.80 0.8297614
1082.90 0.8296167
1083.00 0.829472
1083.10 0.8293274
1083.20 0.8291828
1083.30 0.8290382
1083.40 0.8288937
1083.50 0.8287492
1083.60 0.8286048
1083.70 0.8284604
1083.80 0.828316
1083.90 0.8281717
1084.00 0.8280311
1084.10 0.827891
1084.20 0.8277509
1084.30 0.8276109
1084.40 0.8274709
1084.50 0.8273309
1084.60 0.827191
1084.70 0.8270511
1084.80 0.8269113
1084.90 0.8267715
1085.00 0.8266317
1085.10 0.826492
1085.20 0.8263523
1085.30 0.8262126
1085.40 0.826073
1085.50 0.8259334
1085.60 0.8257938
1085.70 0.8256543
1085.80 0.8255149
1085.90 0.8253754
1086.00 0.825236
1086.10 0.8250967
1086.20 0.8249573
1086.30 0.824818
1086.40 0.8246788
1086.50 0.8245396
1086.60 0.8244004
1086.70 0.8242613
1086.80 0.8241222
1086.90 0.8239831
1087.00 0.8238441
1087.10 0.8237051
1087.20 0.8235661
1087.30 0.8234272
1087.40 0.8232883
1087.50 0.8231495
1087.60 0.8230107
1087.70 0.8228719
1087.80 0.8227332
1087.90 0.8225945
1088.00 0.8224559
1088.10 0.8223172
1088.20 0.8221787
1088.30 0.8220401
1088.40 0.8219016
1088.50 0.8217631
1088.60 0.8216247
1088.70 0.8214863
1088.80 0.821348
1088.90 0.8212096
1089.00 0.8210713
1089.10 0.8209331
1089.20 0.8207949
1089.30 0.8206567
1089.40 0.8205186
1089.50 0.8203805
1089.60 0.8202424
1089.70 0.8201044
1089.80 0.8199664
1089.90 0.8198285
1090.00 0.8196905
1090.10 0.8195527
1090.20 0.8194148
1090.30 0.819277
1090.40 0.8191393
1090.50 0.8190015
1090.60 0.8188638
1090.70 0.8187262
1090.80 0.8185886
1090.90 0.818451
1091.00 0.8183134
1091.10 0.8181759
1091.20 0.8180384
1091.30 0.817901
1091.40 0.8177636
1091.50 0.8176262
1091.60 0.8174889
1091.70 0.8173516
1091.80 0.8172144
1091.90 0.8170772
1092.00 0.81694
1092.10 0.8168028
1092.20 0.8166657
1092.30 0.8165287
1092.40 0.8163916
1092.50 0.8162546
1092.60 0.8161177
1092.70 0.8159807
1092.80 0.8158439
1092.90 0.815707
1093.00 0.8155702
1093.10 0.8154334
1093.20 0.8152967
1093.30 0.81516
1093.40 0.8150233
1093.50 0.8148867
1093.60 0.8147501
1093.70 0.8146135
1093.80 0.814477
1093.90 0.8143405
1094.00 0.814204
1094.10 0.8140676
1094.20 0.8139312
1094.30 0.8137949
1094.40 0.8136586
1094.50 0.8135223
1094.60 0.8133861
1094.70 0.8132499
1094.80 0.8131116
1094.90 0.8129713
1095.00 0.812831
1095.10 0.8126907
1095.20 0.8125505
1095.30 0.8124103
1095.40 0.8122701
1095.50 0.81213
1095.60 0.8119899
1095.70 0.8118499
1095.80 0.8117099
1095.90 0.8115699
1096.00 0.81143
1096.10 0.8112901
1096.20 0.8111503
1096.30 0.8110105
1096.40 0.8108707
1096.50 0.810731
1096.60 0.8105913
1096.70 0.8104516
1096.80 0.810312
1096.90 0.8101724
1097.00 0.8100328
1097.10 0.8098933
1097.20 0.8097538
1097.30 0.8096144
1097.40 0.809475
1097.50 0.8093356
1097.60 0.8091963
1097.70 0.809057
1097.80 0.8089178
1097.90 0.8087785
1098.00 0.8086394
1098.10 0.8085002
1098.20 0.8083611
1098.30 0.8082221
1098.40 0.808083
1098.50 0.807944
1098.60 0.8078051
1098.70 0.8076662
1098.80 0.8075273
1098.90 0.8073884
1099.00 0.8072496
1099.10 0.8071109
1099.20 0.8069721
1099.30 0.8068334
1099.40 0.8066948
1099.50 0.8065562
1099.60 0.8064176
1099.70 0.806279
1099.80 0.8061405
1099.90 0.8060021
1100.00 0.8058636
1100.10 0.8057252
1100.20 0.8055869
1100.30 0.8054485
1100.40 0.8053103
1100.50 0.805172
1100.60 0.8050338
1100.70 0.8048956
1100.80 0.8047575
1100.90 0.8046194
1101.00 0.8044813
1101.10 0.8043433
1101.20 0.8042053
1101.30 0.8040673
1101.40 0.8039294
1101.50 0.8037915
1101.60 0.8036537
1101.70 0.8035159
1101.80 0.8033781
1101.90 0.8032404
1102.00 0.8031027
1102.10 0.802965
1102.20 0.8028274
1102.30 0.8026898
1102.40 0.8025523
1102.50 0.8024148
1102.60 0.8022773
1102.70 0.8021398
1102.80 0.8020024
1102.90 0.8018651
1103.00 0.8017277
1103.10 0.8015904
1103.20 0.8014532
1103.30 0.801316
1103.40 0.8011788
1103.50 0.8010416
1103.60 0.8009045
1103.70 0.8007675
1103.80 0.8006304
1103.90 0.8004934
1104.00 0.8003564
1104.10 0.8002195
1104.20 0.8000826
1104.30 0.7999458
1104.40 0.799809
1104.50 0.7996722
1104.60 0.7995354
1104.70 0.7993987
1104.80 0.799262
1104.90 0.7991254
1105.00 0.7989888
1105.10 0.7988522
1105.20 0.7987157
1105.30 0.7985792
1105.40 0.7984428
1105.50 0.7983064
1105.60 0.79817
1105.70 0.7980336
1105.80 0.7978952
1105.90 0.7977569
1106.00 0.7976186
1106.10 0.7974803
1106.20 0.7973421
1106.30 0.7972039
1106.40 0.7970657
1106.50 0.7969276
1106.60 0.7967896
1106.70 0.7966515
1106.80 0.7965135
1106.90 0.7963755
1107.00 0.7962376
1107.10 0.7960997
1107.20 0.7959619
1107.30 0.795824
1107.40 0.7956863
1107.50 0.7955485
1107.60 0.7954108
1107.70 0.7952731
1107.80 0.7951355
1107.90 0.7949979
1108.00 0.7948603
1108.10 0.7947228
1108.20 0.7945853
1108.30 0.7944479
1108.40 0.7943104
1108.50 0.7941731
1108.60 0.7940357
1108.70 0.7938984
1108.80 0.7937611
1108.90 0.7936239
1109.00 0.7934867
1109.10 0.7933495
1109.20 0.7932124
1109.30 0.7930753
1109.40 0.7929383
1109.50 0.7928013
1109.60 0.7926643
1109.70 0.7925274
1109.80 0.7923905
1109.90 0.7922536
1110.00 0.7921168
1110.10 0.79198
1110.20 0.7918432
1110.30 0.7917065
1110.40 0.7915698
1110.50 0.7914331
1110.60 0.7912965
1110.70 0.79116
1110.80 0.7910234
1110.90 0.7908869
1111.00 0.7907504
1111.10 0.790614
1111.20 0.7904776
1111.30 0.7903413
1111.40 0.7902049
1111.50 0.7900686
1111.60 0.7899324
1111.70 0.7897962
1111.80 0.78966
1111.90 0.7895239
1112.00 0.7893878
1112.10 0.7892517
1112.20 0.7891157
1112.30 0.7889797
1112.40 0.7888437
1112.50 0.7887078
1112.60 0.7885719
1112.70 0.788436
1112.80 0.7883002
1112.90 0.7881644
1113.00 0.7880287
1113.10 0.787893
1113.20 0.7877573
1113.30 0.7876217
1113.40 0.7874861
1113.50 0.7873505
1113.60 0.787215
1113.70 0.7870795
1113.80 0.786944
1113.90 0.7868086
1114.00 0.7866732
1114.10 0.7865379
1114.20 0.7864026
1114.30 0.7862673
1114.40 0.7861321
1114.50 0.7859969
1114.60 0.7858617
1114.70 0.7857266
1114.80 0.7855915
1114.90 0.7854564
1115.00 0.7853214
1115.10 0.7851864
1115.20 0.7850514
1115.30 0.7849165
1115.40 0.7847816
1115.50 0.7846468
1115.60 0.784512
1115.70 0.7843772
1115.80 0.7842425
1115.90 0.7841078
1116.00 0.7839731
1116.10 0.7838385
1116.20 0.7837039
1116.30 0.7835693
1116.40 0.7834348
1116.50 0.7833003
1116.60 0.7831658
1116.70 0.7830314
1116.80 0.7828979
1116.90 0.7827654
1117.00 0.782633
1117.10 0.7825005
1117.20 0.7823682
1117.30 0.7822358
1117.40 0.7821035
1117.50 0.7819713
1117.60 0.781839
1117.70 0.7817068
1117.80 0.7815747
1117.90 0.7814425
1118.00 0.7813104
1118.10 0.7811784
1118.20 0.7810463
1118.30 0.7809144
1118.40 0.7807824
1118.50 0.7806505
1118.60 0.7805186
1118.70 0.7803867
1118.80 0.7802549
1118.90 0.7801231
1119.00 0.7799914
1119.10 0.7798597
1119.20 0.779728
1119.30 0.7795964
1119.40 0.7794647
1119.50 0.7793332
1119.60 0.7792016
1119.70 0.7790701
1119.80 0.7789386
1119.90 0.7788072
1120.00 0.7786758
1120.10 0.7785444
1120.20 0.7784131
1120.30 0.7782818
1120.40 0.7781505
1120.50 0.7780193
1120.60 0.7778881
1120.70 0.777757
1120.80 0.7776258
1120.90 0.7774947
1121.00 0.7773637
1121.10 0.7772327
1121.20 0.7771017
1121.30 0.7769707
1121.40 0.7768398
1121.50 0.7767089
1121.60 0.776578
1121.70 0.7764472
1121.80 0.7763164
1121.90 0.7761857
1122.00 0.776055
1122.10 0.7759243
1122.20 0.7757937
1122.30 0.775663
1122.40 0.7755301
1122.50 0.7753958
1122.60 0.7752615
1122.70 0.7751272
1122.80 0.7749929
1122.90 0.7748587
1123.00 0.7747245
1123.10 0.7745904
1123.20 0.7744563
1123.30 0.7743222
1123.40 0.7741882
1123.50 0.7740542
1123.60 0.7739202
1123.70 0.7737863
1123.80 0.7736524
1123.90 0.7735185
1124.00 0.7733847
1124.10 0.7732509
1124.20 0.7731171
1124.30 0.7729834
1124.40 0.7728497
1124.50 0.7727161
1124.60 0.7725825
1124.70 0.7724489
1124.80 0.7723153
1124.90 0.7721818
1125.00 0.7720484
1125.10 0.7719149
1125.20 0.7717815
1125.30 0.7716482
1125.40 0.7715148
1125.50 0.7713815
1125.60 0.7712483
1125.70 0.7711151
1125.80 0.7709819
1125.90 0.7708487
1126.00 0.7707156
1126.10 0.7705825
1126.20 0.7704495
1126.30 0.7703164
1126.40 0.7701835
1126.50 0.7700505
1126.60 0.7699176
1126.70 0.7697847
1126.80 0.7696519
1126.90 0.7695191
1127.00 0.7693863
1127.10 0.7692536
1127.20 0.7691209
1127.30 0.7689882
1127.40 0.7688556
1127.50 0.768723
1127.60 0.7685904
1127.70 0.7684579
1127.80 0.7683254
1127.90 0.768193
1128.00 0.7680591
1128.10 0.7679248
1128.20 0.7677905
1128.30 0.7676563
1128.40 0.7675221
1128.50 0.7673879
1128.60 0.7672538
1128.70 0.7671197
1128.80 0.7669857
1128.90 0.7668517
1129.00 0.7667177
1129.10 0.7665838
1129.20 0.7664499
1129.30 0.766316
1129.40 0.7661822
1129.50 0.7660484
1129.60 0.7659146
1129.70 0.7657809
1129.80 0.7656472
1129.90 0.7655136
1130.00 0.7653799
1130.10 0.7652464
1130.20 0.7651128
1130.30 0.7649793
1130.40 0.7648458
1130.50 0.7647124
1130.60 0.764579
1130.70 0.7644456
1130.80 0.7643122
1130.90 0.7641789
1131.00 0.7640457
1131.10 0.7639124
1131.20 0.7637793
1131.30 0.7636461
1131.40 0.763513
1131.50 0.7633799
1131.60 0.7632468
1131.70 0.7631138
1131.80 0.7629808
1131.90 0.7628479
1132.00 0.7627149
1132.10 0.7625821
1132.20 0.7624492
1132.30 0.7623164
1132.40 0.7621836
1132.50 0.7620509
1132.60 0.7619182
1132.70 0.7617855
1132.80 0.7616529
1132.90 0.7615203
1133.00 0.7613877
1133.10 0.7612552
1133.20 0.7611227
1133.30 0.7609902
1133.40 0.7608578
1133.50 0.7607254
1133.60 0.760593
1133.70 0.7604607
1133.80 0.7603284
1133.90 0.7601962
1134.00 0.760064
1134.10 0.7599318
1134.20 0.7597996
1134.30 0.7596675
1134.40 0.7595354
1134.50 0.7594034
1134.60 0.7592714
1134.70 0.7591394
1134.80 0.7590075
1134.90 0.7588756
1135.00 0.7587437
1135.10 0.7586119
1135.20 0.7584801
1135.30 0.7583483
1135.40 0.7582166
1135.50 0.7580849
1135.60 0.7579532
1135.70 0.7578216
1135.80 0.75769
1135.90 0.7575584
1136.00 0.7574269
1136.10 0.7572954
1136.20 0.757164
1136.30 0.7570326
1136.40 0.7569012
1136.50 0.7567698
1136.60 0.7566385
1136.70 0.7565072
1136.80 0.756376
1136.90 0.7562448
1137.00 0.7561136
1137.10 0.7559824
1137.20 0.7558513
1137.30 0.7557203
1137.40 0.7555892
1137.50 0.7554582
1137.60 0.7553272
1137.70 0.7551963
1137.80 0.7550654
1137.90 0.7549345
1138.00 0.7548037
1138.10 0.7546729
1138.20 0.7545421
1138.30 0.7544114
1138.40 0.7542807
1138.50 0.75415
1138.60 0.7540194
1138.70 0.7538888
1138.80 0.7537583
1138.90 0.7536277
1139.00 0.7534972
1139.10 0.7533668
1139.20 0.7532364
1139.30 0.753106
1139.40 0.7529756
1139.50 0.7528452
1139.60 0.7527149
1139.70 0.7525847
1139.80 0.7524544
1139.90 0.7523242
1140.00 0.7521941
1140.10 0.7520639
1140.20 0.7519338
1140.30 0.7518038
1140.40 0.7516737
1140.50 0.7515437
1140.60 0.7514138
1140.70 0.7512838
1140.80 0.7511539
1140.90 0.7510241
1141.00 0.7508943
1141.10 0.7507645
1141.20 0.7506347
1141.30 0.750505
1141.40 0.7503753
1141.50 0.7502456
1141.60 0.750116
1141.70 0.7499864
1141.80 0.7498569
1141.90 0.7497273
1142.00 0.7495978
1142.10 0.7494684
1142.20 0.749339
1142.30 0.7492096
1142.40 0.7490802
1142.50 0.7489509
1142.60 0.7488216
1142.70 0.7486924
1142.80 0.7485632
1142.90 0.748434
1143.00 0.7483048
1143.10 0.7481757
1143.20 0.7480466
1143.30 0.7479176
1143.40 0.7477886
1143.50 0.7476596
1143.60 0.7475306
1143.70 0.7474017
1143.80 0.7472728
1143.90 0.747144
1144.00 0.7470152
1144.10 0.7468864
1144.20 0.7467576
1144.30 0.7466289
1144.40 0.7465003
1144.50 0.7463716
1144.60 0.746243
1144.70 0.7461144
1144.80 0.7459859
1144.90 0.7458574
1145.00 0.7457289
1145.10 0.7456004
1145.20 0.745472
1145.30 0.7453436
1145.40 0.7452153
1145.50 0.745087
1145.60 0.7449587
1145.70 0.7448305
1145.80 0.7447023
1145.90 0.7445741
1146.00 0.7444459
1146.10 0.7443178
1146.20 0.7441898
1146.30 0.7440617
1146.40 0.7439337
1146.50 0.7438057
1146.60 0.7436778
1146.70 0.7435499
1146.80 0.743422
1146.90 0.7432942
1147.00 0.7431663
1147.10 0.7430386
1147.20 0.7429108
1147.30 0.7427831
1147.40 0.7426554
1147.50 0.7425278
1147.60 0.7424002
1147.70 0.7422726
1147.80 0.7421451
1147.90 0.7420175
1148.00 0.7418901
1148.10 0.7417626
1148.20 0.7416352
1148.30 0.7415078
1148.40 0.7413805
1148.50 0.7412532
1148.60 0.7411259
1148.70 0.7409987
1148.80 0.7408714
1148.90 0.7407443
1149.00 0.7406171
1149.10 0.74049
1149.20 0.7403629
1149.30 0.7402359
1149.40 0.7401089
1149.50 0.7399819
1149.60 0.7398549
1149.70 0.739728
1149.80 0.7396011
1149.90 0.7394743
1150.00 0.7393475
1150.10 0.7392207
1150.20 0.7390939
1150.30 0.7389672
1150.40 0.7388405
1150.50 0.7387139
1150.60 0.7385871
1150.70 0.7384588
1150.80 0.7383304
1150.90 0.7382021
1151.00 0.7380739
1151.10 0.7379456
1151.20 0.7378174
1151.30 0.7376893
1151.40 0.7375611
1151.50 0.737433
1151.60 0.737305
1151.70 0.7371769
1151.80 0.7370489
1151.90 0.736921
1152.00 0.7367931
1152.10 0.7366652
1152.20 0.7365373
1152.30 0.7364095
1152.40 0.7362817
1152.50 0.7361539
1152.60 0.7360262
1152.70 0.7358985
1152.80 0.7357708
1152.90 0.7356432
1153.00 0.7355156
1153.10 0.735388
1153.20 0.7352605
1153.30 0.735133
1153.40 0.7350055
1153.50 0.7348781
1153.60 0.7347507
1153.70 0.7346233
1153.80 0.734496
1153.90 0.7343687
1154.00 0.7342414
1154.10 0.7341142
1154.20 0.733987
1154.30 0.7338598
1154.40 0.7337326
1154.50 0.7336055
1154.60 0.7334785
1154.70 0.7333514
1154.80 0.7332244
1154.90 0.7330975
1155.00 0.7329705
1155.10 0.7328436
1155.20 0.7327167
1155.30 0.7325899
1155.40 0.7324631
1155.50 0.7323363
1155.60 0.7322096
1155.70 0.7320829
1155.80 0.7319562
1155.90 0.7318296
1156.00 0.731703
1156.10 0.7315764
1156.20 0.7314498
1156.30 0.7313233
1156.40 0.731195
1156.50 0.731065
1156.60 0.7309351
1156.70 0.7308053
1156.80 0.7306754
1156.90 0.7305457
1157.00 0.7304159
1157.10 0.7302862
1157.20 0.7301565
1157.30 0.7300268
1157.40 0.7298972
1157.50 0.7297676
1157.60 0.729638
1157.70 0.7295085
1157.80 0.729379
1157.90 0.7292496
1158.00 0.7291201
1158.10 0.7289907
1158.20 0.7288614
1158.30 0.7287321
1158.40 0.7286028
1158.50 0.7284735
1158.60 0.7283443
1158.70 0.7282151
1158.80 0.728086
1158.90 0.7279568
1159.00 0.7278278
1159.10 0.7276987
1159.20 0.7275697
1159.30 0.7274407
1159.40 0.7273118
1159.50 0.7271828
1159.60 0.727054
1159.70 0.7269251
1159.80 0.7267963
1159.90 0.7266675
1160.00 0.7265388
1160.10 0.72641
1160.20 0.7262814
1160.30 0.7261527
1160.40 0.7260241
1160.50 0.7258955
1160.60 0.725767
1160.70 0.7256385
1160.80 0.72551
1160.90 0.7253815
1161.00 0.7252531
1161.10 0.7251247
1161.20 0.7249964
1161.30 0.7248681
1161.40 0.7247398
1161.50 0.7246116
1161.60 0.7244833
1161.70 0.7243552
1161.80 0.724227
1161.90 0.7240989
1162.00 0.7239708
1162.10 0.7238428
1162.20 0.7237182
1162.30 0.7235937
1162.40 0.7234692
1162.50 0.7233447
1162.60 0.7232203
1162.70 0.7230959
1162.80 0.7229715
1162.90 0.7228472
1163.00 0.7227229
1163.10 0.7225986
1163.20 0.7224744
1163.30 0.7223502
1163.40 0.722226
1163.50 0.7221019
1163.60 0.7219778
1163.70 0.7218537
1163.80 0.7217296
1163.90 0.7216056
1164.00 0.7214816
1164.10 0.7213577
1164.20 0.7212338
1164.30 0.7211099
1164.40 0.720986
1164.50 0.7208622
1164.60 0.7207384
1164.70 0.7206147
1164.80 0.7204909
1164.90 0.7203672
1165.00 0.7202436
1165.10 0.72012
1165.20 0.7199964
1165.30 0.7198728
1165.40 0.7197493
1165.50 0.7196257
1165.60 0.7195023
1165.70 0.7193788
1165.80 0.7192554
1165.90 0.7191321
1166.00 0.7190087
1166.10 0.7188854
1166.20 0.7187621
1166.30 0.7186389
1166.40 0.7185156
1166.50 0.7183925
1166.60 0.7182693
1166.70 0.7181462
1166.80 0.7180231
1166.90 0.7179
1167.00 0.717777
1167.10 0.717654
1167.20 0.717531
1167.30 0.7174081
1167.40 0.7172852
1167.50 0.7171623
1167.60 0.7170395
1167.70 0.7169167
1167.80 0.7167939
1167.90 0.7166712
1168.00 0.7165454
1168.10 0.7164193
1168.20 0.7162933
1168.30 0.7161673
1168.40 0.7160413
1168.50 0.7159154
1168.60 0.7157895
1168.70 0.7156636
1168.80 0.7155378
1168.90 0.715412
1169.00 0.7152862
1169.10 0.7151605
1169.20 0.7150348
1169.30 0.7149091
1169.40 0.7147835
1169.50 0.7146578
1169.60 0.7145323
1169.70 0.7144067
1169.80 0.7142812
1169.90 0.7141557
1170.00 0.7140303
1170.10 0.7139049
1170.20 0.7137795
1170.30 0.7136541
1170.40 0.7135288
1170.50 0.7134035
1170.60 0.7132783
1170.70 0.7131531
1170.80 0.7130279
1170.90 0.7129027
1171.00 0.7127776
1171.10 0.7126525
1171.20 0.7125275
1171.30 0.7124024
1171.40 0.7122774
1171.50 0.7121525
1171.60 0.7120275
1171.70 0.7119026
1171.80 0.7117778
1171.90 0.711653
1172.00 0.7115282
1172.10 0.7114034
1172.20 0.7112786
1172.30 0.7111539
1172.40 0.7110293
1172.50 0.7109046
1172.60 0.71078
1172.70 0.7106555
1172.80 0.7105309
1172.90 0.7104064
1173.00 0.7102819
1173.10 0.7101575
1173.20 0.7100331
1173.30 0.7099087
1173.40 0.7097843
1173.50 0.70966
1173.60 0.7095357
1173.70 0.7094115
1173.80 0.7092873
1173.90 0.7091631
1174.00 0.709039
1174.10 0.7089149
1174.20 0.7087908
1174.30 0.7086668
1174.40 0.7085428
1174.50 0.7084189
1174.60 0.7082949
1174.70 0.708171
1174.80 0.7080471
1174.90 0.7079233
1175.00 0.7077995
1175.10 0.7076757
1175.20 0.707552
1175.30 0.7074283
1175.40 0.7073046
1175.50 0.707181
1175.60 0.7070573
1175.70 0.7069338
1175.80 0.7068102
1175.90 0.7066867
1176.00 0.7065632
1176.10 0.7064397
1176.20 0.7063163
1176.30 0.7061929
1176.40 0.7060696
1176.50 0.7059462
1176.60 0.7058229
1176.70 0.7056997
1176.80 0.7055764
1176.90 0.7054532
1177.00 0.7053301
1177.10 0.7052069
1177.20 0.7050838
1177.30 0.7049608
1177.40 0.7048377
1177.50 0.7047147
1177.60 0.7045917
1177.70 0.7044688
1177.80 0.7043459
1177.90 0.704223
1178.00 0.7041001
1178.10 0.7039773
1178.20 0.7038545
1178.30 0.7037317
1178.40 0.703609
1178.50 0.7034863
1178.60 0.7033637
1178.70 0.703241
1178.80 0.7031184
1178.90 0.7029959
1179.00 0.7028733
1179.10 0.7027508
1179.20 0.7026283
1179.30 0.7025059
1179.40 0.7023835
1179.50 0.7022611
1179.60 0.7021387
1179.70 0.7020164
1179.80 0.7018941
1179.90 0.7017719
1180.00 0.7016497
1180.10 0.7015275
1180.20 0.7014053
1180.30 0.7012832
1180.40 0.7011611
1180.50 0.701039
1180.60 0.700917
1180.70 0.700795
1180.80 0.700673
1180.90 0.7005511
1181.00 0.7004291
1181.10 0.7003073
1181.20 0.7001854
1181.30 0.7000636
1181.40 0.6999418
1181.50 0.6998201
1181.60 0.6996983
1181.70 0.6995766
1181.80 0.699455
1181.90 0.6993334
1182.00 0.6992118
1182.10 0.6990902
1182.20 0.6989687
1182.30 0.6988471
1182.40 0.6987257
1182.50 0.6986042
1182.60 0.6984828
1182.70 0.6983614
1182.80 0.6982401
1182.90 0.6981188
1183.00 0.6979975
1183.10 0.6978762
1183.20 0.697755
1183.30 0.6976338
1183.40 0.6975126
1183.50 0.6973915
1183.60 0.6972704
1183.70 0.6971493
1183.80 0.6970283
1183.90 0.6969073
1184.00 0.6967863
1184.10 0.6966654
1184.20 0.6965444
1184.30 0.6964236
1184.40 0.6963027
1184.50 0.6961819
1184.60 0.6960611
1184.70 0.6959403
1184.80 0.6958196
1184.90 0.6956989
1185.00 0.6955782
1185.10 0.6954576
1185.20 0.695337
1185.30 0.6952164
1185.40 0.6950959
1185.50 0.6949754
1185.60 0.6948549
1185.70 0.6947345
1185.80 0.6946141
1185.90 0.6944937
1186.00 0.6943734
1186.10 0.6942531
1186.20 0.6941328
1186.30 0.6940126
1186.40 0.6938924
1186.50 0.6937722
1186.60 0.6936521
1186.70 0.6935319
1186.80 0.6934119
1186.90 0.6932918
1187.00 0.6931718
1187.10 0.6930518
1187.20 0.6929318
1187.30 0.6928119
1187.40 0.692692
1187.50 0.6925721
1187.60 0.6924523
1187.70 0.6923325
1187.80 0.6922127
1187.90 0.6920929
1188.00 0.6919732
1188.10 0.6918535
1188.20 0.6917339
1188.30 0.6916143
1188.40 0.6914947
1188.50 0.6913751
1188.60 0.6912556
1188.70 0.6911361
1188.80 0.6910166
1188.90 0.6908971
1189.00 0.6907777
1189.10 0.6906583
1189.20 0.690539
1189.30 0.6904197
1189.40 0.6903004
1189.50 0.6901811
1189.60 0.6900619
1189.70 0.6899427
1189.80 0.6898235
1189.90 0.6897044
1190.00 0.6895853
1190.10 0.6894662
1190.20 0.6893471
1190.30 0.6892281
1190.40 0.6891091
1190.50 0.6889902
1190.60 0.6888712
1190.70 0.6887523
1190.80 0.6886335
1190.90 0.6885146
1191.00 0.6883958
1191.10 0.6882771
1191.20 0.6881583
1191.30 0.6880396
1191.40 0.6879204
1191.50 0.6877986
1191.60 0.6876768
1191.70 0.687555
1191.80 0.6874332
1191.90 0.6873115
1192.00 0.6871898
1192.10 0.6870682
1192.20 0.6869465
1192.30 0.6868249
1192.40 0.6867034
1192.50 0.6865818
1192.60 0.6864603
1192.70 0.6863389
1192.80 0.6862174
1192.90 0.686096
1193.00 0.6859746
1193.10 0.6858533
1193.20 0.685732
1193.30 0.6856107
1193.40 0.6854894
1193.50 0.6853682
1193.60 0.685247
1193.70 0.6851258
1193.80 0.6850047
1193.90 0.6848836
1194.00 0.6847625
1194.10 0.6846415
1194.20 0.6845205
1194.30 0.6843995
1194.40 0.6842786
1194.50 0.6841577
1194.60 0.6840368
1194.70 0.6839159
1194.80 0.6837951
1194.90 0.6836743
1195.00 0.6835536
1195.10 0.6834328
1195.20 0.6833121
1195.30 0.6831915
1195.40 0.6830708
1195.50 0.6829502
1195.60 0.6828296
1195.70 0.6827091
1195.80 0.6825886
1195.90 0.6824681
1196.00 0.6823476
1196.10 0.6822272
1196.20 0.6821068
1196.30 0.6819865
1196.40 0.6818661
1196.50 0.6817459
1196.60 0.6816256
1196.70 0.6815053
1196.80 0.6813851
1196.90 0.681265
1197.00 0.6811448
1197.10 0.6810247
1197.20 0.6809046
1197.30 0.6807846
1197.40 0.6806646
1197.50 0.6805447
1197.60 0.6804248
1197.70 0.6803049
1197.80 0.6801851
1197.90 0.6800653
1198.00 0.6799455
1198.10 0.6798257
1198.20 0.679706
1198.30 0.6795863
1198.40 0.6794667
1198.50 0.6793471
1198.60 0.6792275
1198.70 0.6791079
1198.80 0.6789884
1198.90 0.6788689
1199.00 0.6787494
1199.10 0.67863
1199.20 0.6785105
1199.30 0.6783912
1199.40 0.6782718
1199.50 0.6781525
1199.60 0.6780332
1199.70 0.677914
1199.80 0.6777947
1199.90 0.6776755
1200.00 0.6775564
