# Version 2.1 - nm, norm@500 to 1, cut digits, bergeron_He_6000_80.dat_6000
# Wavelength(nm)  Flambda(ergs/cm^s/s/nm)
300.00 0.5400558
300.10 0.5406855
300.20 0.5413218
300.30 0.5419525
300.40 0.5425517
300.50 0.5431499
300.60 0.5437473
300.70 0.5443437
300.80 0.5449392
300.90 0.5455337
301.00 0.5461274
301.10 0.5467202
301.20 0.547312
301.30 0.547903
301.40 0.548493
301.50 0.5490822
301.60 0.5496704
301.70 0.5502578
301.80 0.5508442
301.90 0.5514297
302.00 0.5520144
302.10 0.5525926
302.20 0.5531694
302.30 0.5537452
302.40 0.5543202
302.50 0.5548943
302.60 0.5554675
302.70 0.5560398
302.80 0.5566113
302.90 0.5571819
303.00 0.5577516
303.10 0.5583204
303.20 0.5588884
303.30 0.5594569
303.40 0.5600375
303.50 0.5606171
303.60 0.5611959
303.70 0.5617738
303.80 0.5623509
303.90 0.562927
304.00 0.5635023
304.10 0.5640766
304.20 0.5646501
304.30 0.5652228
304.40 0.5657945
304.50 0.5663654
304.60 0.5669434
304.70 0.5675213
304.80 0.5680984
304.90 0.5686746
305.00 0.56925
305.10 0.5698244
305.20 0.570398
305.30 0.5709707
305.40 0.5715425
305.50 0.5721135
305.60 0.5726835
305.70 0.5732528
305.80 0.5738211
305.90 0.5743886
306.00 0.5749552
306.10 0.575521
306.20 0.5760859
306.30 0.5766499
306.40 0.5772269
306.50 0.5778072
306.60 0.5783866
306.70 0.5789652
306.80 0.5795428
306.90 0.5801196
307.00 0.5806955
307.10 0.5812705
307.20 0.5818446
307.30 0.5824179
307.40 0.5829903
307.50 0.5835619
307.60 0.5841326
307.70 0.5847024
307.80 0.5852713
307.90 0.5858394
308.00 0.5864066
308.10 0.586973
308.20 0.5875385
308.30 0.5881032
308.40 0.588667
308.50 0.5892299
308.60 0.589792
308.70 0.5903532
308.80 0.5908992
308.90 0.5914034
309.00 0.5920162
309.10 0.5926281
309.20 0.5932391
309.30 0.5938492
309.40 0.5944485
309.50 0.5949861
309.60 0.5955229
309.70 0.5960588
309.80 0.596594
309.90 0.5971283
310.00 0.5976619
310.10 0.5981946
310.20 0.5987265
310.30 0.5992576
310.40 0.5998326
310.50 0.6004552
310.60 0.6010769
310.70 0.6016977
310.80 0.6023175
310.90 0.6029365
311.00 0.6034329
311.10 0.6039286
311.20 0.6044236
311.30 0.6049409
311.40 0.6055232
311.50 0.6061046
311.60 0.6066851
311.70 0.6072648
311.80 0.6078436
311.90 0.6084216
312.00 0.6089987
312.10 0.6095749
312.20 0.6101394
312.30 0.6107406
312.40 0.6113611
312.50 0.6118737
312.60 0.6123621
312.70 0.6128498
312.80 0.6133367
312.90 0.6138555
313.00 0.6144088
313.10 0.6149613
313.20 0.6155129
313.30 0.6160648
313.40 0.6166185
313.50 0.6171715
313.60 0.6177236
313.70 0.6182749
313.80 0.6188253
313.90 0.619375
314.00 0.6199238
314.10 0.6205064
314.20 0.6210881
314.30 0.621669
314.40 0.622249
314.50 0.6228281
314.60 0.6234064
314.70 0.6239838
314.80 0.6245464
314.90 0.6250926
315.00 0.6256637
315.10 0.626221
315.20 0.6267776
315.30 0.6273333
315.40 0.6278882
315.50 0.6284422
315.60 0.6289954
315.70 0.6294884
315.80 0.6299806
315.90 0.630472
316.00 0.6309627
316.10 0.6316305
316.20 0.6322974
316.30 0.6327856
316.40 0.6332731
316.50 0.6337599
316.60 0.6342459
316.70 0.6349083
316.80 0.6355698
316.90 0.6360534
317.00 0.6365362
317.10 0.6370183
317.20 0.6374997
317.30 0.6381122
317.40 0.6386971
317.50 0.6392051
317.60 0.6397123
317.70 0.6402188
317.80 0.6407245
317.90 0.6414781
318.00 0.6419271
318.10 0.6424893
318.20 0.6430507
318.30 0.6436113
318.40 0.6441482
318.50 0.6446196
318.60 0.6450902
318.70 0.6456126
318.80 0.6461517
318.90 0.6468472
319.00 0.6473148
319.10 0.6477816
319.20 0.6482849
319.30 0.6488932
319.40 0.6495006
319.50 0.6501072
319.60 0.6504901
319.70 0.651095
319.80 0.651699
319.90 0.6523021
320.00 0.6528361
320.10 0.6532953
320.20 0.6538399
320.30 0.6542116
320.40 0.6549457
320.50 0.6554711
320.60 0.6559266
320.70 0.6563814
320.80 0.6568769
320.90 0.6574166
321.00 0.6579554
321.10 0.6584935
321.20 0.6591684
321.30 0.6597111
321.40 0.6602529
321.50 0.6607939
321.60 0.6613342
321.70 0.6618736
321.80 0.6624014
321.90 0.6629168
322.00 0.6633356
322.10 0.663861
322.20 0.6643856
322.30 0.6649095
322.40 0.6654326
322.50 0.6659549
322.60 0.6664765
322.70 0.6669972
322.80 0.6676544
322.90 0.6681793
323.00 0.6687034
323.10 0.6692267
323.20 0.6697492
323.30 0.670271
323.40 0.670792
323.50 0.6713122
323.60 0.6718316
323.70 0.6723503
323.80 0.6728682
323.90 0.6733853
324.00 0.6738748
324.10 0.6743636
324.20 0.6748517
324.30 0.6753293
324.40 0.6758202
324.50 0.6763549
324.60 0.6768889
324.70 0.677422
324.80 0.6779544
324.90 0.678486
325.00 0.6790169
325.10 0.6795469
325.20 0.6800728
325.30 0.6805908
325.40 0.6811081
325.50 0.681622
325.60 0.6821322
325.70 0.6826416
325.80 0.6831502
325.90 0.6836697
326.00 0.6842012
326.10 0.6847319
326.20 0.6852618
326.30 0.6857508
326.40 0.6861248
326.50 0.6866459
326.60 0.6871662
326.70 0.6876857
326.80 0.6882045
326.90 0.6887225
327.00 0.6892397
327.10 0.6897562
327.20 0.6902719
327.30 0.6907868
327.40 0.691301
327.50 0.6918145
327.60 0.6923272
327.70 0.6928391
327.80 0.6933503
327.90 0.6938748
328.00 0.6943973
328.10 0.694899
328.20 0.6953999
328.30 0.6959001
328.40 0.6963995
328.50 0.6969023
328.60 0.6974052
328.70 0.6979074
328.80 0.6984142
328.90 0.6989353
329.00 0.6994557
329.10 0.6999752
329.20 0.7004941
329.30 0.7010121
329.40 0.7015294
329.50 0.702046
329.60 0.7025618
329.70 0.7030768
329.80 0.7035911
329.90 0.7041046
330.00 0.7046015
330.10 0.7050783
330.20 0.7055543
330.30 0.7060297
330.40 0.7065106
330.50 0.7069974
330.60 0.7074836
330.70 0.707969
330.80 0.7084537
330.90 0.7089378
331.00 0.709421
331.10 0.7099036
331.20 0.7103855
331.30 0.7108667
331.40 0.7113471
331.50 0.7118269
331.60 0.7123062
331.70 0.7127848
331.80 0.713286
331.90 0.7137875
332.00 0.7142883
332.10 0.7147883
332.20 0.7152876
332.30 0.7157861
332.40 0.716284
332.50 0.7167811
332.60 0.7172775
332.70 0.7177731
332.80 0.718268
332.90 0.7187622
333.00 0.7192557
333.10 0.7197504
333.20 0.7202467
333.30 0.7207422
333.40 0.721237
333.50 0.7217311
333.60 0.7222245
333.70 0.7227172
333.80 0.7232091
333.90 0.7237003
334.00 0.7241908
334.10 0.7246711
334.20 0.7251389
334.30 0.7256061
334.40 0.7260726
334.50 0.7265384
334.60 0.7270035
334.70 0.7274753
334.80 0.7279772
334.90 0.72851
335.00 0.729042
335.10 0.7295535
335.20 0.7300671
335.30 0.7305088
335.40 0.730863
335.50 0.7315324
335.60 0.7318853
335.70 0.7323086
335.80 0.7328179
335.90 0.7333265
336.00 0.7338344
336.10 0.7343415
336.20 0.7348479
336.30 0.73533
336.40 0.7357827
336.50 0.7362346
336.60 0.7366859
336.70 0.7371365
336.80 0.7375864
336.90 0.738055
337.00 0.7385465
337.10 0.7390372
337.20 0.7395273
337.30 0.7400015
337.40 0.7404533
337.50 0.7409044
337.60 0.7413549
337.70 0.7418047
337.80 0.7422539
337.90 0.74271
338.00 0.7431748
338.10 0.743639
338.20 0.7441024
338.30 0.7445652
338.40 0.7450292
338.50 0.7454971
338.60 0.7459644
338.70 0.7464309
338.80 0.7468968
338.90 0.747362
339.00 0.7478265
339.10 0.7482904
339.20 0.7487536
339.30 0.7492329
339.40 0.7497358
339.50 0.7502176
339.60 0.7506738
339.70 0.7511293
339.80 0.7515841
339.90 0.7520383
340.00 0.7524918
340.10 0.7529446
340.20 0.7533968
340.30 0.7538483
340.40 0.7542992
340.50 0.7547494
340.60 0.7551989
340.70 0.7556478
340.80 0.7561145
340.90 0.756607
341.00 0.7570904
341.10 0.7575629
341.20 0.7580346
341.30 0.7585057
341.40 0.7589761
341.50 0.7594458
341.60 0.7599148
341.70 0.7603831
341.80 0.7608266
341.90 0.76124
342.00 0.7616527
342.10 0.7620649
342.20 0.7626085
342.30 0.7631645
342.40 0.7635879
342.50 0.7640061
342.60 0.7644237
342.70 0.7648408
342.80 0.7652572
342.90 0.7656729
343.00 0.7661041
343.10 0.7665543
343.20 0.7670038
343.30 0.7674526
343.40 0.7679045
343.50 0.7683609
343.60 0.7688168
343.70 0.7692719
343.80 0.7697264
343.90 0.7701802
344.00 0.7706334
344.10 0.7710859
344.20 0.7715378
344.30 0.771989
344.40 0.7724396
344.50 0.7728895
344.60 0.7732774
344.70 0.7738756
344.80 0.774174
344.90 0.7747707
345.00 0.7751292
345.10 0.7755752
345.20 0.7760256
345.30 0.7764824
345.40 0.7769385
345.50 0.7773731
345.60 0.7777956
345.70 0.7782377
345.80 0.7786792
345.90 0.7791201
346.00 0.7795603
346.10 0.7799999
346.20 0.7804388
346.30 0.7808771
346.40 0.7813148
346.50 0.7817518
346.60 0.7821882
346.70 0.782624
346.80 0.7830591
346.90 0.7834936
347.00 0.7839275
347.10 0.7843607
347.20 0.7847937
347.30 0.7852267
347.40 0.7856591
347.50 0.7860908
347.60 0.7865219
347.70 0.7869524
347.80 0.7873822
347.90 0.7878114
348.00 0.78824
348.10 0.788668
348.20 0.7890954
348.30 0.7895221
348.40 0.7899482
348.50 0.7903737
348.60 0.7907986
348.70 0.7912139
348.80 0.7916302
348.90 0.7920522
349.00 0.7924737
349.10 0.7928945
349.20 0.7933147
349.30 0.7937343
349.40 0.7941533
349.50 0.7945716
349.60 0.7949894
349.70 0.7954066
349.80 0.7958231
349.90 0.7962391
350.00 0.7966544
350.10 0.7970692
350.20 0.7974833
350.30 0.7978952
350.40 0.7983042
350.50 0.7987126
350.60 0.7991204
350.70 0.7995276
350.80 0.7999343
350.90 0.8003403
351.00 0.8007457
351.10 0.8011506
351.20 0.8015548
351.30 0.8019585
351.40 0.8023716
351.50 0.8028018
351.60 0.8032315
351.70 0.8036606
351.80 0.804089
351.90 0.8045168
352.00 0.804944
352.10 0.8053706
352.20 0.8056938
352.30 0.806054
352.40 0.8064839
352.50 0.8069131
352.60 0.8073418
352.70 0.8077698
352.80 0.8081973
352.90 0.8086241
353.00 0.8090503
353.10 0.8094759
353.20 0.8099008
353.30 0.8103252
353.40 0.810749
353.50 0.8111328
353.60 0.8115062
353.70 0.8118791
353.80 0.8122514
353.90 0.8126323
354.00 0.8130287
354.10 0.8134246
354.20 0.8138198
354.30 0.8142145
354.40 0.8146086
354.50 0.8150022
354.60 0.8153951
354.70 0.8157875
354.80 0.8161976
354.90 0.8166334
355.00 0.8170685
355.10 0.8175031
355.20 0.817937
355.30 0.8183257
355.40 0.8187139
355.50 0.8191014
355.60 0.8194885
355.70 0.8198726
355.80 0.8202551
355.90 0.8206944
356.00 0.8211172
356.10 0.82151
356.20 0.8219022
356.30 0.8222939
356.40 0.822685
356.50 0.8230755
356.60 0.8234654
356.70 0.8238548
356.80 0.8242436
356.90 0.8246319
357.00 0.8250196
357.10 0.8254067
357.20 0.8257933
357.30 0.8261793
357.40 0.8265576
357.50 0.8269228
357.60 0.8272875
357.70 0.8276515
357.80 0.8280722
357.90 0.8284922
358.00 0.8288858
358.10 0.8292723
358.20 0.8296583
358.30 0.8300437
358.40 0.8304285
358.50 0.8308128
358.60 0.8311965
358.70 0.8315797
358.80 0.8319623
358.90 0.8323444
359.00 0.8327332
359.10 0.8331345
359.20 0.8335304
359.30 0.8338935
359.40 0.8342561
359.50 0.8345857
359.60 0.8349068
359.70 0.8352273
359.80 0.8355949
359.90 0.835962
360.00 0.8363419
360.10 0.8367451
360.20 0.8371476
360.30 0.8375496
360.40 0.8379509
360.50 0.8383518
360.60 0.8387372
360.70 0.8390916
360.80 0.8394455
360.90 0.8397989
361.00 0.8402078
361.10 0.8405428
361.20 0.8408341
361.30 0.8412943
361.40 0.8417674
361.50 0.8419952
361.60 0.8423068
361.70 0.8427918
361.80 0.8432013
361.90 0.8434773
362.00 0.8437529
362.10 0.844188
362.20 0.8446232
362.30 0.8449882
362.40 0.8453527
362.50 0.8457166
362.60 0.84608
362.70 0.8463797
362.80 0.8469331
362.90 0.8472719
363.00 0.8476102
363.10 0.8478825
363.20 0.8481537
363.30 0.8486421
363.40 0.8489151
363.50 0.8493221
363.60 0.8497958
363.70 0.8500599
363.80 0.8503385
363.90 0.8507018
364.00 0.8510646
364.10 0.8514269
364.20 0.8517886
364.30 0.8522008
364.40 0.8526252
364.50 0.8529679
364.60 0.8532994
364.70 0.8536303
364.80 0.8539608
364.90 0.8542935
365.00 0.8546257
365.10 0.8550906
365.20 0.8554217
365.30 0.8557524
365.40 0.8562156
365.50 0.8565451
365.60 0.8568742
365.70 0.8572511
365.80 0.8576275
365.90 0.8579175
366.00 0.8581857
366.10 0.8585638
366.20 0.8589414
366.30 0.8593184
366.40 0.8596949
366.50 0.8600702
366.60 0.8604027
366.70 0.8607343
366.80 0.8610655
366.90 0.8613987
367.00 0.861736
367.10 0.8620729
367.20 0.8624092
367.30 0.8627451
367.40 0.8630804
367.50 0.8634733
367.60 0.8638802
367.70 0.8641712
367.80 0.8644618
367.90 0.8647519
368.00 0.8651521
368.10 0.8654624
368.20 0.8658151
368.30 0.866169
368.40 0.8665225
368.50 0.8668754
368.60 0.8672278
368.70 0.8675797
368.80 0.8679311
368.90 0.868322
369.00 0.8686146
369.10 0.8688646
369.20 0.8691833
369.30 0.8694943
369.40 0.8698049
369.50 0.870115
369.60 0.8705501
369.70 0.8709847
369.80 0.8712876
369.90 0.8715887
370.00 0.8718894
370.10 0.8722167
370.20 0.8725243
370.30 0.8728306
370.40 0.8732672
370.50 0.8735692
370.60 0.8738773
370.70 0.8743175
370.80 0.8746174
370.90 0.874917
371.00 0.8752238
371.10 0.8755301
371.20 0.8758283
371.30 0.8761261
371.40 0.8764709
371.50 0.8768142
371.60 0.8771571
371.70 0.8774994
371.80 0.8778412
371.90 0.8781826
372.00 0.8785257
372.10 0.8787869
372.20 0.879127
372.30 0.8794667
372.40 0.8798059
372.50 0.8801446
372.60 0.8804827
372.70 0.8808204
372.80 0.8811112
372.90 0.8814016
373.00 0.8816991
373.10 0.8819962
373.20 0.882289
373.30 0.8825814
373.40 0.8830008
373.50 0.8832922
373.60 0.8835832
373.70 0.884001
373.80 0.8842593
373.90 0.8845807
374.00 0.8848699
374.10 0.8851586
374.20 0.885447
374.30 0.8857348
374.40 0.886054
374.50 0.8865503
374.60 0.8868434
374.70 0.8871313
374.80 0.8874188
374.90 0.8877059
375.00 0.8879906
375.10 0.8882749
375.20 0.8885588
375.30 0.8888782
375.40 0.8891972
375.50 0.8895158
375.60 0.8898339
375.70 0.8901515
375.80 0.8904686
375.90 0.8907853
376.00 0.8910582
376.10 0.8914046
376.20 0.8917514
376.30 0.8920976
376.40 0.8924433
376.50 0.8927721
376.60 0.8930756
376.70 0.8933787
376.80 0.8936722
376.90 0.8939561
377.00 0.8942396
377.10 0.8945226
377.20 0.8948097
377.30 0.8951131
377.40 0.895416
377.50 0.8957185
377.60 0.8960027
377.70 0.8962865
377.80 0.8965698
377.90 0.8968527
378.00 0.897075
378.10 0.8973756
378.20 0.8976775
378.30 0.897979
378.40 0.89828
378.50 0.8985806
378.60 0.8988807
378.70 0.8991803
378.80 0.8994796
378.90 0.8998285
379.00 0.90027
379.10 0.9004875
379.20 0.9007046
379.30 0.9009739
379.40 0.9012954
379.50 0.9016164
379.60 0.9019503
379.70 0.9022872
379.80 0.9025614
379.90 0.9028352
380.00 0.9031085
380.10 0.9033815
380.20 0.903654
380.30 0.9039261
380.40 0.9041978
380.50 0.9044691
380.60 0.9048042
380.70 0.9051091
380.80 0.9054135
380.90 0.9057175
381.00 0.906021
381.10 0.9063102
381.20 0.9066194
381.30 0.9068873
381.40 0.9070719
381.50 0.9073477
381.60 0.9076509
381.70 0.9079495
381.80 0.9083227
381.90 0.9084562
382.00 0.9088329
382.10 0.9090875
382.20 0.9093903
382.30 0.909644
382.40 0.9099044
382.50 0.9101747
382.60 0.9104447
382.70 0.9107167
382.80 0.9110116
382.90 0.9113268
383.00 0.9116416
383.10 0.9119558
383.20 0.9122442
383.30 0.9124365
383.40 0.9127066
383.50 0.9130936
383.60 0.9131693
383.70 0.9134566
383.80 0.9137435
383.90 0.91403
384.00 0.914316
384.10 0.9146017
384.20 0.9148869
384.30 0.9151716
384.40 0.9154401
384.50 0.9156924
384.60 0.9159443
384.70 0.9161958
384.80 0.91647
384.90 0.91679
385.00 0.9170341
385.10 0.9172808
385.20 0.917609
385.30 0.9178618
385.40 0.9181124
385.50 0.9183607
385.60 0.9186087
385.70 0.9188563
385.80 0.9191275
385.90 0.9194885
386.00 0.9197688
386.10 0.9199741
386.20 0.9202337
386.30 0.9204929
386.40 0.9207964
386.50 0.9210553
386.60 0.9213936
386.70 0.9215112
386.80 0.9218661
386.90 0.9221611
387.00 0.9224024
387.10 0.9225247
387.20 0.9228539
387.30 0.9232246
387.40 0.9233998
387.50 0.9236595
387.60 0.9238438
387.70 0.9241356
387.80 0.9244271
387.90 0.924718
388.00 0.9249628
388.10 0.9251507
388.20 0.9254481
388.30 0.9257197
388.40 0.9259909
388.50 0.926217
388.60 0.9264299
388.70 0.9266713
388.80 0.9270106
388.90 0.9273416
389.00 0.9275006
389.10 0.9277995
389.20 0.9280067
389.30 0.9283127
389.40 0.928557
389.50 0.928749
389.60 0.92891
389.70 0.9292146
389.80 0.9294539
389.90 0.9296927
390.00 0.9299313
390.10 0.9301694
390.20 0.9304072
390.30 0.9306619
390.40 0.9309358
390.50 0.9312093
390.60 0.9314824
390.70 0.9317551
390.80 0.9319815
390.90 0.9321617
391.00 0.9325099
391.10 0.9327097
391.20 0.932899
391.30 0.9331001
391.40 0.933358
391.50 0.9336154
391.60 0.9338725
391.70 0.9341291
391.80 0.9343854
391.90 0.9346019
392.00 0.9347944
392.10 0.9350181
392.20 0.9352489
392.30 0.9355562
392.40 0.9358656
392.50 0.9360964
392.60 0.9363516
392.70 0.9365258
392.80 0.9368551
392.90 0.9369404
393.00 0.937198
393.10 0.9374235
393.20 0.9376254
393.30 0.9379527
393.40 0.9382647
393.50 0.9383755
393.60 0.938682
393.70 0.9389446
393.80 0.939114
393.90 0.9393243
394.00 0.9395389
394.10 0.9397809
394.20 0.9400006
394.30 0.9402695
394.40 0.9405943
394.50 0.9407459
394.60 0.9410342
394.70 0.9412933
394.80 0.941444
394.90 0.9415974
395.00 0.9418483
395.10 0.9420802
395.20 0.9423322
395.30 0.9425963
395.40 0.9428599
395.50 0.9430549
395.60 0.9432243
395.70 0.9434118
395.80 0.9436485
395.90 0.9438848
396.00 0.9441312
396.10 0.944443
396.20 0.9446454
396.30 0.944817
396.40 0.9451319
396.50 0.9452203
396.60 0.9455344
396.70 0.9457074
396.80 0.9459457
396.90 0.9461189
397.00 0.9462962
397.10 0.9465709
397.20 0.9468459
397.30 0.947085
397.40 0.947316
397.50 0.9475467
397.60 0.9477707
397.70 0.9479316
397.80 0.9480921
397.90 0.9482752
398.00 0.9485198
398.10 0.9487641
398.20 0.9489716
398.30 0.9491378
398.40 0.9493051
398.50 0.9495172
398.60 0.9497534
398.70 0.9500052
398.80 0.9502584
398.90 0.9504876
399.00 0.9506726
399.10 0.9509255
399.20 0.951114
399.30 0.9513022
399.40 0.9514901
399.50 0.9516777
399.60 0.9518991
399.70 0.9521328
399.80 0.9523661
399.90 0.952599
400.00 0.9528308
400.10 0.9530376
400.20 0.9532789
400.30 0.953426
400.40 0.9535631
400.50 0.953756
400.60 0.9539862
400.70 0.9541741
400.80 0.9544634
400.90 0.9546147
401.00 0.9549282
401.10 0.9550242
401.20 0.9551928
401.30 0.9554716
401.40 0.9556953
401.50 0.9558724
401.60 0.9560501
401.70 0.9562517
401.80 0.956477
401.90 0.9567182
402.00 0.9567907
402.10 0.9569504
402.20 0.9571623
402.30 0.9574428
402.40 0.9575793
402.50 0.9579009
402.60 0.9580945
402.70 0.9582644
402.80 0.9584458
402.90 0.9587144
403.00 0.958895
403.10 0.958988
403.20 0.9591883
403.30 0.9593849
403.40 0.959605
403.50 0.9597808
403.60 0.9599577
403.70 0.9602824
403.80 0.9604792
403.90 0.9606225
404.00 0.9607236
404.10 0.9609936
404.20 0.9611707
404.30 0.9613475
404.40 0.9615438
404.50 0.9617002
404.60 0.9619847
404.70 0.9620517
404.80 0.962246
404.90 0.9624021
405.00 0.9626537
405.10 0.9628751
405.20 0.9630955
405.30 0.9633157
405.40 0.9634892
405.50 0.9636624
405.60 0.9638353
405.70 0.9640079
405.80 0.9641802
405.90 0.9643523
406.00 0.964528
406.10 0.9647033
406.20 0.9648784
406.30 0.9650532
406.40 0.9652298
406.50 0.9653806
406.60 0.9656561
406.70 0.9658258
406.80 0.9660221
406.90 0.966077
407.00 0.9662674
407.10 0.9664574
407.20 0.9666472
407.30 0.9668366
407.40 0.9670258
407.50 0.9672146
407.60 0.9674032
407.70 0.9675914
407.80 0.9677794
407.90 0.9679681
408.00 0.9681936
408.10 0.9683855
408.20 0.9685179
408.30 0.9686685
408.40 0.9688188
408.50 0.968939
408.60 0.9691276
408.70 0.9693159
408.80 0.9695118
408.90 0.9697513
409.00 0.9699295
409.10 0.9701075
409.20 0.9702851
409.30 0.9704625
409.40 0.970638
409.50 0.9707631
409.60 0.9708879
409.70 0.9710294
409.80 0.9712381
409.90 0.9714446
410.00 0.9715865
410.10 0.971817
410.20 0.971946
410.30 0.9720495
410.40 0.9721809
410.50 0.972401
410.60 0.9726207
410.70 0.972821
410.80 0.9729442
410.90 0.9730672
411.00 0.9732332
411.10 0.973415
411.20 0.9735966
411.30 0.9737546
411.40 0.9738235
411.50 0.9740177
411.60 0.9742115
411.70 0.9743975
411.80 0.974553
411.90 0.9746872
412.00 0.9749469
412.10 0.9749969
412.20 0.9752559
412.30 0.9753439
412.40 0.975579
412.50 0.9756578
412.60 0.9759304
412.70 0.9760612
412.80 0.9761564
412.90 0.976345
413.00 0.9764318
413.10 0.9766202
413.20 0.9768083
413.30 0.9769961
413.40 0.9771836
413.50 0.9773255
413.60 0.9773439
413.70 0.9775463
413.80 0.9777484
413.90 0.9779501
414.00 0.9781391
414.10 0.9782885
414.20 0.9784127
414.30 0.978458
414.40 0.9786687
414.50 0.9787502
414.60 0.9790313
414.70 0.9791791
414.80 0.9793266
414.90 0.9794739
415.00 0.9796209
415.10 0.9797677
415.20 0.9799045
415.30 0.9800103
415.40 0.9801159
415.50 0.9802239
415.60 0.980416
415.70 0.9806077
415.80 0.980786
415.90 0.9809227
416.00 0.981059
416.10 0.9812016
416.20 0.9813697
416.30 0.9815375
416.40 0.9817051
416.50 0.9818717
416.60 0.9820146
416.70 0.9821542
416.80 0.9821965
416.90 0.9823443
417.00 0.982529
417.10 0.9827256
417.20 0.982867
417.30 0.9830071
417.40 0.9831128
417.50 0.9832182
417.60 0.9833475
417.70 0.9835705
417.80 0.9837105
417.90 0.9838502
418.00 0.9839896
418.10 0.9841289
418.20 0.9842678
418.30 0.9844037
418.40 0.9844719
418.50 0.9846183
418.60 0.9847645
418.70 0.9849104
418.80 0.9850561
418.90 0.9852015
419.00 0.9853467
419.10 0.9854916
419.20 0.9856363
419.30 0.9857794
419.40 0.9858805
419.50 0.9859813
419.60 0.9860906
419.70 0.9862341
419.80 0.9863774
419.90 0.9865156
420.00 0.9866378
420.10 0.9867598
420.20 0.9868815
420.30 0.987003
420.40 0.9871243
420.50 0.9872454
420.60 0.9873663
420.70 0.9874869
420.80 0.9876073
420.90 0.9877292
421.00 0.9879091
421.10 0.9880888
421.20 0.988256
421.30 0.9883867
421.40 0.9885172
421.50 0.9886474
421.60 0.9887773
421.70 0.9889071
421.80 0.9890366
421.90 0.9891633
422.00 0.9892814
422.10 0.9893953
422.20 0.9894927
422.30 0.9895898
422.40 0.9896876
422.50 0.9898127
422.60 0.9899375
422.70 0.9900621
422.80 0.9901865
422.90 0.9903107
423.00 0.9904346
423.10 0.9905583
423.20 0.9906818
423.30 0.990805
423.40 0.990928
423.50 0.9910508
423.60 0.9911734
423.70 0.9912957
423.80 0.9914178
423.90 0.9915397
424.00 0.9916613
424.10 0.9917828
424.20 0.991904
424.30 0.992025
424.40 0.9922192
424.50 0.9923294
424.60 0.9924395
424.70 0.9925493
424.80 0.9926589
424.90 0.9927683
425.00 0.9928775
425.10 0.9929864
425.20 0.9930952
425.30 0.9932037
425.40 0.9933116
425.50 0.9934167
425.60 0.9935216
425.70 0.9936263
425.80 0.9937308
425.90 0.993835
426.00 0.9939391
426.10 0.994043
426.20 0.9941466
426.30 0.99425
426.40 0.9943533
426.50 0.9944563
426.60 0.9945591
426.70 0.9946617
426.80 0.9947641
426.90 0.9948666
427.00 0.9949763
427.10 0.9950858
427.20 0.9951951
427.30 0.9953042
427.40 0.9954131
427.50 0.9955218
427.60 0.9956302
427.70 0.9957385
427.80 0.9958465
427.90 0.9959544
428.00 0.996062
428.10 0.9961694
428.20 0.9962766
428.30 0.9963836
428.40 0.9964904
428.50 0.996597
428.60 0.9967034
428.70 0.9968095
428.80 0.996915
428.90 0.9970143
429.00 0.9971134
429.10 0.9972122
429.20 0.9973109
429.30 0.9974093
429.40 0.9975076
429.50 0.9976057
429.60 0.9977035
429.70 0.9978012
429.80 0.9978986
429.90 0.9979959
430.00 0.998093
430.10 0.9981898
430.20 0.9982865
430.30 0.998383
430.40 0.9984793
430.50 0.9985753
430.60 0.9986712
430.70 0.9987669
430.80 0.9988624
430.90 0.9989577
431.00 0.9990528
431.10 0.9991477
431.20 0.9992424
431.30 0.9993373
431.40 0.9994373
431.50 0.9995372
431.60 0.9996368
431.70 0.9997363
431.80 0.9998355
431.90 0.9999346
432.00 1.000033
432.10 1.000132
432.20 1.00023
432.30 1.000329
432.40 1.000427
432.50 1.000525
432.60 1.000622
432.70 1.00072
432.80 1.000817
432.90 1.000914
433.00 1.001011
433.10 1.001108
433.20 1.001204
433.30 1.001299
433.40 1.001369
433.50 1.001439
433.60 1.001509
433.70 1.001579
433.80 1.001642
433.90 1.001696
434.00 1.001772
434.10 1.001862
434.20 1.001952
434.30 1.002041
434.40 1.002131
434.50 1.00222
434.60 1.002309
434.70 1.002397
434.80 1.002485
434.90 1.002564
435.00 1.002643
435.10 1.002721
435.20 1.002799
435.30 1.002877
435.40 1.002955
435.50 1.003033
435.60 1.003111
435.70 1.003188
435.80 1.003265
435.90 1.003342
436.00 1.003419
436.10 1.003496
436.20 1.003572
436.30 1.003651
436.40 1.003732
436.50 1.003815
436.60 1.003899
436.70 1.003982
436.80 1.004065
436.90 1.004148
437.00 1.004231
437.10 1.004313
437.20 1.00439
437.30 1.004462
437.40 1.004533
437.50 1.0046
437.60 1.004667
437.70 1.004733
437.80 1.004799
437.90 1.004866
438.00 1.004935
438.10 1.005041
438.20 1.005148
438.30 1.005295
438.40 1.00532
438.50 1.005416
438.60 1.005505
438.70 1.005508
438.80 1.005511
438.90 1.005699
439.00 1.005708
439.10 1.005803
439.20 1.005895
439.30 1.005943
439.40 1.005991
439.50 1.00604
439.60 1.006099
439.70 1.00623
439.80 1.006282
439.90 1.006328
440.00 1.006374
440.10 1.006419
440.20 1.006466
440.30 1.006541
440.40 1.006615
440.50 1.006689
440.60 1.006763
440.70 1.006837
440.80 1.00691
440.90 1.006984
441.00 1.007057
441.10 1.00713
441.20 1.007198
441.30 1.007192
441.40 1.007235
441.50 1.007339
441.60 1.007443
441.70 1.007437
441.80 1.007509
441.90 1.007581
442.00 1.007653
442.10 1.007725
442.20 1.007796
442.30 1.007867
442.40 1.007916
442.50 1.007936
442.60 1.007957
442.70 1.008005
442.80 1.008096
442.90 1.0082
443.00 1.008263
443.10 1.008277
443.20 1.00832
443.30 1.008389
443.40 1.008466
443.50 1.008554
443.60 1.0086
443.70 1.008597
443.80 1.008774
443.90 1.00877
444.00 1.008807
444.10 1.008893
444.20 1.008916
444.30 1.009036
444.40 1.009063
444.50 1.009089
444.60 1.009109
444.70 1.009121
444.80 1.009166
444.90 1.009242
445.00 1.009317
445.10 1.009393
445.20 1.009461
445.30 1.009522
445.40 1.009582
445.50 1.009642
445.60 1.009702
445.70 1.009762
445.80 1.009806
445.90 1.009836
446.00 1.009866
446.10 1.009896
446.20 1.009887
446.30 1.009993
446.40 1.009974
446.50 1.010057
446.60 1.010139
446.70 1.010221
446.80 1.010256
446.90 1.010249
447.00 1.010242
447.10 1.010412
447.20 1.010405
447.30 1.010397
447.40 1.010435
447.50 1.010516
447.60 1.010563
447.70 1.010578
447.80 1.010688
447.90 1.010695
448.00 1.010725
448.10 1.010776
448.20 1.010826
448.30 1.010876
448.40 1.010926
448.50 1.010976
448.60 1.011027
448.70 1.011081
448.80 1.011134
448.90 1.01118
449.00 1.011226
449.10 1.011271
449.20 1.011316
449.30 1.011315
449.40 1.011361
449.50 1.011408
449.60 1.011451
449.70 1.011492
449.80 1.011533
449.90 1.011574
450.00 1.011614
450.10 1.011655
450.20 1.011695
450.30 1.011735
450.40 1.011753
450.50 1.011771
450.60 1.011789
450.70 1.011806
450.80 1.011824
450.90 1.011841
451.00 1.011885
451.10 1.01193
451.20 1.011972
451.30 1.011967
451.40 1.012042
451.50 1.012117
451.60 1.012104
451.70 1.012092
451.80 1.012253
451.90 1.01224
452.00 1.012227
452.10 1.012214
452.20 1.012244
452.30 1.012274
452.40 1.012304
452.50 1.012334
452.60 1.012356
452.70 1.012393
452.80 1.012444
452.90 1.012496
453.00 1.012547
453.10 1.012598
453.20 1.012626
453.30 1.012655
453.40 1.012683
453.50 1.012711
453.60 1.01274
453.70 1.012768
453.80 1.012785
453.90 1.012788
454.00 1.012792
454.10 1.012796
454.20 1.012821
454.30 1.012847
454.40 1.012872
454.50 1.012897
454.60 1.012922
454.70 1.012949
454.80 1.012977
454.90 1.013005
455.00 1.013033
455.10 1.013061
455.20 1.013089
455.30 1.013116
455.40 1.013144
455.50 1.013171
455.60 1.013198
455.70 1.013226
455.80 1.01324
455.90 1.013254
456.00 1.013267
456.10 1.013282
456.20 1.013298
456.30 1.013315
456.40 1.013331
456.50 1.013347
456.60 1.013363
456.70 1.013379
456.80 1.013395
456.90 1.01341
457.00 1.013426
457.10 1.013441
457.20 1.013558
457.30 1.013567
457.40 1.013575
457.50 1.013584
457.60 1.013592
457.70 1.0136
457.80 1.013608
457.90 1.013616
458.00 1.013624
458.10 1.013632
458.20 1.01364
458.30 1.013648
458.40 1.013655
458.50 1.013662
458.60 1.01367
458.70 1.013694
458.80 1.013725
458.90 1.013756
459.00 1.013787
459.10 1.013818
459.20 1.013849
459.30 1.013854
459.40 1.013859
459.50 1.013864
459.60 1.013869
459.70 1.013874
459.80 1.013879
459.90 1.013884
460.00 1.013888
460.10 1.013893
460.20 1.013897
460.30 1.013901
460.40 1.013905
460.50 1.01391
460.60 1.013914
460.70 1.013937
460.80 1.013969
460.90 1.014001
461.00 1.014033
461.10 1.014065
461.20 1.014073
461.30 1.01407
461.40 1.01407
461.50 1.014069
461.60 1.014069
461.70 1.014068
461.80 1.014072
461.90 1.014076
462.00 1.01408
462.10 1.014084
462.20 1.014087
462.30 1.014091
462.40 1.014094
462.50 1.014097
462.60 1.014101
462.70 1.014104
462.80 1.014107
462.90 1.01411
463.00 1.014112
463.10 1.014115
463.20 1.014111
463.30 1.014105
463.40 1.014098
463.50 1.014092
463.60 1.014085
463.70 1.014078
463.80 1.014071
463.90 1.014079
464.00 1.014091
464.10 1.014103
464.20 1.014114
464.30 1.014126
464.40 1.014137
464.50 1.014149
464.60 1.01416
464.70 1.014159
464.80 1.014153
464.90 1.014148
465.00 1.014142
465.10 1.014136
465.20 1.01413
465.30 1.014121
465.40 1.014109
465.50 1.014098
465.60 1.014086
465.70 1.014075
465.80 1.014063
465.90 1.014064
466.00 1.014069
466.10 1.014074
466.20 1.014079
466.30 1.014073
466.40 1.014063
466.50 1.014053
466.60 1.014043
466.70 1.014032
466.80 1.014022
466.90 1.014012
467.00 1.014001
467.10 1.01399
467.20 1.01398
467.30 1.014049
467.40 1.014055
467.50 1.014037
467.60 1.014018
467.70 1.013999
467.80 1.013981
467.90 1.013956
468.00 1.013928
468.10 1.0139
468.20 1.013872
468.30 1.013902
468.40 1.013955
468.50 1.013951
468.60 1.013919
468.70 1.013894
468.80 1.013863
468.90 1.013803
469.00 1.013797
469.10 1.013809
469.20 1.013821
469.30 1.013833
469.40 1.013844
469.50 1.013838
469.60 1.013824
469.70 1.01381
469.80 1.013795
469.90 1.013748
470.00 1.013671
470.10 1.01367
470.20 1.013664
470.30 1.013659
470.40 1.013653
470.50 1.013647
470.60 1.013622
470.70 1.013593
470.80 1.013563
470.90 1.013533
471.00 1.013536
471.10 1.013483
471.20 1.013603
471.30 1.013573
471.40 1.013543
471.50 1.013513
471.60 1.013483
471.70 1.013452
471.80 1.013422
471.90 1.013391
472.00 1.013361
472.10 1.01333
472.20 1.013306
472.30 1.013284
472.40 1.013262
472.50 1.013239
472.60 1.013217
472.70 1.013278
472.80 1.013273
472.90 1.013241
473.00 1.01321
473.10 1.013179
473.20 1.013147
473.30 1.013116
473.40 1.013084
473.50 1.013053
473.60 1.013021
473.70 1.012989
473.80 1.012981
473.90 1.012979
474.00 1.012977
474.10 1.012975
474.20 1.012963
474.30 1.012946
474.40 1.012929
474.50 1.012912
474.60 1.012893
474.70 1.012856
474.80 1.012819
474.90 1.012781
475.00 1.012744
475.10 1.012706
475.20 1.012669
475.30 1.012631
475.40 1.012609
475.50 1.012591
475.60 1.012573
475.70 1.012555
475.80 1.012537
475.90 1.012519
476.00 1.012501
476.10 1.012482
476.20 1.012449
476.30 1.012409
476.40 1.012369
476.50 1.01233
476.60 1.01229
476.70 1.01225
476.80 1.01221
476.90 1.01218
477.00 1.012153
477.10 1.012126
477.20 1.012098
477.30 1.012071
477.40 1.012043
477.50 1.012016
477.60 1.011988
477.70 1.011961
477.80 1.011933
477.90 1.011905
478.00 1.011877
478.10 1.011849
478.20 1.011821
478.30 1.011793
478.40 1.011765
478.50 1.011737
478.60 1.011709
478.70 1.011689
478.80 1.011672
478.90 1.011618
479.00 1.011555
479.10 1.011492
479.20 1.01143
479.30 1.011367
479.40 1.011321
479.50 1.011285
479.60 1.011248
479.70 1.011212
479.80 1.011176
479.90 1.01114
480.00 1.011103
480.10 1.011067
480.20 1.011031
480.30 1.010994
480.40 1.010958
480.50 1.010921
480.60 1.010884
480.70 1.010848
480.80 1.010811
480.90 1.010774
481.00 1.010737
481.10 1.0107
481.20 1.010673
481.30 1.010646
481.40 1.010619
481.50 1.010592
481.60 1.010565
481.70 1.010538
481.80 1.010511
481.90 1.010483
482.00 1.010456
482.10 1.010428
482.20 1.010399
482.30 1.010349
482.40 1.0103
482.50 1.01025
482.60 1.0102
482.70 1.01015
482.80 1.0101
482.90 1.01005
483.00 1.01
483.10 1.00995
483.20 1.009899
483.30 1.009849
483.40 1.009799
483.50 1.009748
483.60 1.009698
483.70 1.009653
483.80 1.009608
483.90 1.009563
484.00 1.009518
484.10 1.009473
484.20 1.009432
484.30 1.009392
484.40 1.009351
484.50 1.009311
484.60 1.009271
484.70 1.00923
484.80 1.009181
484.90 1.009131
485.00 1.009081
485.10 1.009032
485.20 1.008982
485.30 1.008932
485.40 1.008882
485.50 1.008832
485.60 1.008782
485.70 1.008739
485.80 1.008696
485.90 1.008653
486.00 1.008609
486.10 1.008566
486.20 1.008522
486.30 1.008479
486.40 1.008435
486.50 1.008391
486.60 1.008348
486.70 1.008304
486.80 1.008258
486.90 1.008212
487.00 1.008166
487.10 1.008121
487.20 1.008063
487.30 1.008005
487.40 1.007947
487.50 1.00789
487.60 1.007832
487.70 1.007774
487.80 1.007716
487.90 1.007658
488.00 1.0076
488.10 1.007542
488.20 1.007486
488.30 1.007456
488.40 1.007425
488.50 1.007395
488.60 1.007364
488.70 1.007333
488.80 1.007249
488.90 1.007165
489.00 1.007092
489.10 1.007048
489.20 1.007003
489.30 1.006959
489.40 1.006914
489.50 1.006869
489.60 1.006825
489.70 1.00678
489.80 1.00669
489.90 1.006629
490.00 1.006569
490.10 1.006508
490.20 1.006447
490.30 1.006387
490.40 1.006346
490.50 1.006305
490.60 1.006264
490.70 1.006223
490.80 1.006127
490.90 1.005993
491.00 1.005951
491.10 1.00591
491.20 1.005869
491.30 1.005827
491.40 1.005741
491.50 1.005745
491.60 1.005608
491.70 1.005591
491.80 1.005566
491.90 1.005431
492.00 1.005342
492.10 1.0053
492.20 1.005258
492.30 1.005217
492.40 1.005168
492.50 1.005034
492.60 1.005088
492.70 1.00501
492.80 1.004931
492.90 1.004853
493.00 1.004775
493.10 1.004714
493.20 1.004652
493.30 1.00459
493.40 1.004529
493.50 1.004467
493.60 1.004378
493.70 1.004352
493.80 1.004326
493.90 1.004262
494.00 1.004136
494.10 1.004037
494.20 1.003991
494.30 1.003945
494.40 1.003898
494.50 1.003852
494.60 1.003803
494.70 1.003719
494.80 1.003643
494.90 1.003593
495.00 1.003544
495.10 1.003494
495.20 1.003418
495.30 1.003342
495.40 1.003266
495.50 1.003191
495.60 1.003115
495.70 1.003039
495.80 1.002963
495.90 1.002886
496.00 1.00281
496.10 1.00274
496.20 1.002683
496.30 1.002634
496.40 1.002584
496.50 1.002534
496.60 1.002485
496.70 1.002402
496.80 1.002319
496.90 1.002235
497.00 1.002152
497.10 1.002069
497.20 1.001986
497.30 1.001909
497.40 1.001848
497.50 1.001787
497.60 1.001727
497.70 1.001668
497.80 1.001598
497.90 1.001527
498.00 1.001457
498.10 1.001386
498.20 1.001316
498.30 1.001245
498.40 1.001175
498.50 1.001104
498.60 1.001034
498.70 1.00099
498.80 1.000945
498.90 1.000854
499.00 1.000764
499.10 1.000673
499.20 1.000612
499.30 1.000589
499.40 1.000495
499.50 1.0004
499.60 1.000305
499.70 1.000212
499.80 1.000142
499.90 1.000071
500.00 1
500.10 0.9999292
500.20 0.9998591
500.30 0.9997907
500.40 0.9997223
500.50 0.9996539
500.60 0.9995854
500.70 0.9995169
500.80 0.9994382
500.90 0.9993378
501.00 0.9992374
501.10 0.999137
501.20 0.9991344
501.30 0.9990894
501.40 0.9989312
501.50 0.9988578
501.60 0.9988127
501.70 0.9987675
501.80 0.9986997
501.90 0.998584
502.00 0.9984782
502.10 0.9983938
502.20 0.9983099
502.30 0.9982344
502.40 0.998161
502.50 0.9980922
502.60 0.9980233
502.70 0.9979544
502.80 0.9978854
502.90 0.9978165
503.00 0.9977423
503.10 0.9976569
503.20 0.9975715
503.30 0.9974861
503.40 0.9973991
503.50 0.9973077
503.60 0.9972163
503.70 0.9971249
503.80 0.9970436
503.90 0.9970366
504.00 0.9970045
504.10 0.996919
504.20 0.9968334
504.30 0.9967479
504.40 0.9966545
504.50 0.9965386
504.60 0.996441
504.70 0.9963949
504.80 0.9963488
504.90 0.9961633
505.00 0.9961172
505.10 0.996071
505.20 0.9960078
505.30 0.9958962
505.40 0.9957846
505.50 0.9956731
505.60 0.995574
505.70 0.9955013
505.80 0.9954286
505.90 0.9953559
506.00 0.9952831
506.10 0.9952104
506.20 0.9951349
506.30 0.995052
506.40 0.9949691
506.50 0.9948861
506.60 0.9948032
506.70 0.9947202
506.80 0.9946372
506.90 0.9945542
507.00 0.9944712
507.10 0.9943726
507.20 0.9942543
507.30 0.994173
507.40 0.9940917
507.50 0.9940105
507.60 0.9939292
507.70 0.9938479
507.80 0.9937665
507.90 0.9936852
508.00 0.9936039
508.10 0.9935225
508.20 0.9934411
508.30 0.9933597
508.40 0.9932784
508.50 0.9931969
508.60 0.9931155
508.70 0.9930341
508.80 0.992941
508.90 0.9928292
509.00 0.9927225
509.10 0.9926198
509.20 0.9925254
509.30 0.992431
509.40 0.9923367
509.50 0.9922423
509.60 0.9921479
509.70 0.9920536
509.80 0.9919592
509.90 0.9918648
510.00 0.9917704
510.10 0.991676
510.20 0.9915816
510.30 0.9914903
510.40 0.9914075
510.50 0.9913247
510.60 0.991242
510.70 0.9911592
510.80 0.9910763
510.90 0.9909935
511.00 0.9909107
511.10 0.9908278
511.20 0.990745
511.30 0.9906621
511.40 0.9905792
511.50 0.9904964
511.60 0.9904084
511.70 0.9903097
511.80 0.990211
511.90 0.9901123
512.00 0.9900136
512.10 0.9899148
512.20 0.9898161
512.30 0.9897178
512.40 0.9896204
512.50 0.9895229
512.60 0.9894255
512.70 0.9893281
512.80 0.9892307
512.90 0.9891333
513.00 0.9890359
513.10 0.9889385
513.20 0.988841
513.30 0.9887436
513.40 0.9886462
513.50 0.9885488
513.60 0.9884514
513.70 0.988354
513.80 0.9882566
513.90 0.9881592
514.00 0.9880625
514.10 0.9879659
514.20 0.9878693
514.30 0.9877727
514.40 0.987676
514.50 0.9875794
514.60 0.9874828
514.70 0.9873862
514.80 0.9872896
514.90 0.987193
515.00 0.9870964
515.10 0.9869998
515.20 0.9869032
515.30 0.9868066
515.40 0.98671
515.50 0.9866134
515.60 0.9865168
515.70 0.9864202
515.80 0.9863236
515.90 0.986227
516.00 0.9861305
516.10 0.9860339
516.20 0.9859373
516.30 0.9858407
516.40 0.9857441
516.50 0.9856467
516.60 0.985545
516.70 0.9854434
516.80 0.9853417
516.90 0.9852401
517.00 0.9851384
517.10 0.9850368
517.20 0.9849352
517.30 0.9848335
517.40 0.9847319
517.50 0.9846303
517.60 0.9845287
517.70 0.9844271
517.80 0.9843255
517.90 0.9842239
518.00 0.9841223
518.10 0.9840207
518.20 0.9839191
518.30 0.9838175
518.40 0.983716
518.50 0.9836144
518.60 0.9835128
518.70 0.9834113
518.80 0.9833097
518.90 0.9832082
519.00 0.9831066
519.10 0.9830038
519.20 0.9828994
519.30 0.9827951
519.40 0.9826907
519.50 0.9825864
519.60 0.9824821
519.70 0.9823777
519.80 0.9822734
519.90 0.9821691
520.00 0.9820648
520.10 0.9819605
520.20 0.9818563
520.30 0.981752
520.40 0.9816477
520.50 0.9815435
520.60 0.9814392
520.70 0.981335
520.80 0.9812307
520.90 0.9811265
521.00 0.9810223
521.10 0.9809181
521.20 0.9808138
521.30 0.9807097
521.40 0.9806055
521.50 0.9805013
521.60 0.9803971
521.70 0.9802929
521.80 0.9801888
521.90 0.9800846
522.00 0.9799805
522.10 0.9798763
522.20 0.9797722
522.30 0.9796681
522.40 0.979564
522.50 0.9794599
522.60 0.9793558
522.70 0.9792517
522.80 0.9791476
522.90 0.9790435
523.00 0.9789395
523.10 0.9788354
523.20 0.9787314
523.30 0.9786273
523.40 0.9785233
523.50 0.9784193
523.60 0.9783153
523.70 0.9782113
523.80 0.9781073
523.90 0.9780033
524.00 0.9778993
524.10 0.9777953
524.20 0.9776913
524.30 0.9775818
524.40 0.9774678
524.50 0.9773539
524.60 0.9772399
524.70 0.977126
524.80 0.9770121
524.90 0.9768983
525.00 0.9767844
525.10 0.9766705
525.20 0.9765567
525.30 0.9764429
525.40 0.9763291
525.50 0.9762153
525.60 0.9761015
525.70 0.9759878
525.80 0.975874
525.90 0.9757603
526.00 0.9756466
526.10 0.9755329
526.20 0.9754193
526.30 0.9753056
526.40 0.975192
526.50 0.9750783
526.60 0.9749647
526.70 0.9748511
526.80 0.9747375
526.90 0.974624
527.00 0.9745104
527.10 0.9743969
527.20 0.9742834
527.30 0.9741699
527.40 0.9740564
527.50 0.9739429
527.60 0.9738295
527.70 0.9737161
527.80 0.9736026
527.90 0.9734892
528.00 0.9733759
528.10 0.9732625
528.20 0.9731491
528.30 0.9730358
528.40 0.9729225
528.50 0.9728092
528.60 0.9726959
528.70 0.9725826
528.80 0.9724693
528.90 0.9723561
529.00 0.9722429
529.10 0.9721297
529.20 0.9720165
529.30 0.9719033
529.40 0.9717901
529.50 0.971677
529.60 0.9715636
529.70 0.9714503
529.80 0.971337
529.90 0.9712238
530.00 0.9711105
530.10 0.9709973
530.20 0.970884
530.30 0.9707708
530.40 0.9706576
530.50 0.9705445
530.60 0.9704313
530.70 0.9703182
530.80 0.970205
530.90 0.9700919
531.00 0.9699788
531.10 0.9698658
531.20 0.9697527
531.30 0.9696396
531.40 0.9695266
531.50 0.9694136
531.60 0.9693006
531.70 0.9691876
531.80 0.9690747
531.90 0.9689617
532.00 0.9688488
532.10 0.9687359
532.20 0.9686168
532.30 0.9684945
532.40 0.9683723
532.50 0.9682501
532.60 0.9681279
532.70 0.9680057
532.80 0.9678836
532.90 0.9677615
533.00 0.9676394
533.10 0.9675173
533.20 0.9673952
533.30 0.9672732
533.40 0.9671512
533.50 0.9670292
533.60 0.9669073
533.70 0.9667853
533.80 0.9666634
533.90 0.9665416
534.00 0.9664197
534.10 0.9662979
534.20 0.966176
534.30 0.9660543
534.40 0.9659325
534.50 0.9658107
534.60 0.965689
534.70 0.9655673
534.80 0.9654452
534.90 0.9653211
535.00 0.9651971
535.10 0.9650731
535.20 0.9649491
535.30 0.9648251
535.40 0.9647012
535.50 0.9645773
535.60 0.9644534
535.70 0.9643295
535.80 0.9642057
535.90 0.9640819
536.00 0.9639581
536.10 0.9638343
536.20 0.9637106
536.30 0.9635869
536.40 0.9634632
536.50 0.9633395
536.60 0.9632159
536.70 0.9630923
536.80 0.9629687
536.90 0.9628451
537.00 0.9627216
537.10 0.9625981
537.20 0.9624746
537.30 0.9623511
537.40 0.9622277
537.50 0.9621043
537.60 0.9619809
537.70 0.9618576
537.80 0.9617342
537.90 0.9616109
538.00 0.9614876
538.10 0.9613644
538.20 0.9612411
538.30 0.9611179
538.40 0.9609948
538.50 0.9608716
538.60 0.9607485
538.70 0.9606254
538.80 0.9605023
538.90 0.9603792
539.00 0.9602562
539.10 0.9601332
539.20 0.9600102
539.30 0.9598873
539.40 0.9597643
539.50 0.9596414
539.60 0.9595185
539.70 0.9593957
539.80 0.9592729
539.90 0.95915
540.00 0.9590273
540.10 0.9589045
540.20 0.9587754
540.30 0.9586436
540.40 0.9585119
540.50 0.9583802
540.60 0.9582486
540.70 0.958117
540.80 0.9579854
540.90 0.9578538
541.00 0.9577223
541.10 0.9575908
541.20 0.9574594
541.30 0.957328
541.40 0.9571966
541.50 0.9570652
541.60 0.9569339
541.70 0.9568026
541.80 0.9566713
541.90 0.9565401
542.00 0.9564089
542.10 0.9562777
542.20 0.9561466
542.30 0.9560155
542.40 0.9558844
542.50 0.9557534
542.60 0.9556224
542.70 0.9554914
542.80 0.9553604
542.90 0.9552295
543.00 0.9550986
543.10 0.9549678
543.20 0.954837
543.30 0.9547062
543.40 0.9545754
543.50 0.9544447
543.60 0.954314
543.70 0.9541833
543.80 0.9540527
543.90 0.9539221
544.00 0.9537915
544.10 0.953661
544.20 0.9535305
544.30 0.9534
544.40 0.9532696
544.50 0.9531392
544.60 0.9530088
544.70 0.9528784
544.80 0.9527481
544.90 0.9526178
545.00 0.9524876
545.10 0.9523574
545.20 0.9522272
545.30 0.952097
545.40 0.9519669
545.50 0.9518368
545.60 0.9517067
545.70 0.9515767
545.80 0.9514466
545.90 0.9513167
546.00 0.9511867
546.10 0.9510568
546.20 0.9509269
546.30 0.950797
546.40 0.9506672
546.50 0.9505374
546.60 0.9504076
546.70 0.9502779
546.80 0.9501482
546.90 0.9500185
547.00 0.9498889
547.10 0.9497592
547.20 0.9496297
547.30 0.9495001
547.40 0.9493706
547.50 0.9492411
547.60 0.9491116
547.70 0.9489822
547.80 0.9488528
547.90 0.9487235
548.00 0.9485941
548.10 0.9484648
548.20 0.9483356
548.30 0.9482027
548.40 0.9480649
548.50 0.9479272
548.60 0.9477895
548.70 0.9476518
548.80 0.9475141
548.90 0.9473765
549.00 0.947239
549.10 0.9471014
549.20 0.946964
549.30 0.9468265
549.40 0.9466891
549.50 0.9465517
549.60 0.9464144
549.70 0.9462771
549.80 0.9461398
549.90 0.9460026
550.00 0.9458654
550.10 0.9457282
550.20 0.9455911
550.30 0.945454
550.40 0.945317
550.50 0.9451799
550.60 0.945043
550.70 0.944906
550.80 0.9447691
550.90 0.9446323
551.00 0.9444952
551.10 0.9443563
551.20 0.9442174
551.30 0.9440786
551.40 0.9439399
551.50 0.9438011
551.60 0.9436625
551.70 0.9435238
551.80 0.9433852
551.90 0.9432466
552.00 0.9431081
552.10 0.9429696
552.20 0.9428312
552.30 0.9426927
552.40 0.9425544
552.50 0.942416
552.60 0.9422777
552.70 0.9421395
552.80 0.9420012
552.90 0.9418631
553.00 0.9417249
553.10 0.9415868
553.20 0.9414487
553.30 0.9413107
553.40 0.9411727
553.50 0.9410347
553.60 0.9408968
553.70 0.9407589
553.80 0.9406211
553.90 0.9404833
554.00 0.9403455
554.10 0.9402078
554.20 0.9400701
554.30 0.9399325
554.40 0.9397949
554.50 0.9396573
554.60 0.9395198
554.70 0.9393823
554.80 0.9392448
554.90 0.9391074
555.00 0.93897
555.10 0.9388326
555.20 0.9386953
555.30 0.9385581
555.40 0.9384208
555.50 0.9382836
555.60 0.9381465
555.70 0.9380094
555.80 0.9378723
555.90 0.9377353
556.00 0.9375982
556.10 0.9374613
556.20 0.9373244
556.30 0.9371875
556.40 0.9370506
556.50 0.9369134
556.60 0.9367685
556.70 0.9366236
556.80 0.9364787
556.90 0.9363339
557.00 0.9361891
557.10 0.9360444
557.20 0.9358998
557.30 0.9357551
557.40 0.9356105
557.50 0.935466
557.60 0.9353215
557.70 0.935177
557.80 0.9350326
557.90 0.9348883
558.00 0.9347439
558.10 0.9345997
558.20 0.9344554
558.30 0.9343112
558.40 0.9341671
558.50 0.934023
558.60 0.9338789
558.70 0.9337349
558.80 0.9335909
558.90 0.933447
559.00 0.9333031
559.10 0.9331592
559.20 0.9330154
559.30 0.9328716
559.40 0.9327279
559.50 0.9325843
559.60 0.9324406
559.70 0.932297
559.80 0.9321535
559.90 0.93201
560.00 0.9318665
560.10 0.9317231
560.20 0.9315797
560.30 0.9314364
560.40 0.9312931
560.50 0.9311499
560.60 0.9310067
560.70 0.9308635
560.80 0.9307204
560.90 0.9305773
561.00 0.9304343
561.10 0.9302913
561.20 0.9301483
561.30 0.9300054
561.40 0.9298626
561.50 0.9297198
561.60 0.929577
561.70 0.9294342
561.80 0.9292916
561.90 0.9291489
562.00 0.9290063
562.10 0.9288622
562.20 0.9287158
562.30 0.9285694
562.40 0.928423
562.50 0.9282768
562.60 0.9281305
562.70 0.9279843
562.80 0.9278382
562.90 0.9276921
563.00 0.927546
563.10 0.9274
563.20 0.927254
563.30 0.9271081
563.40 0.9269622
563.50 0.9268164
563.60 0.9266706
563.70 0.9265248
563.80 0.9263791
563.90 0.9262335
564.00 0.9260879
564.10 0.9259423
564.20 0.9257968
564.30 0.9256513
564.40 0.9255059
564.50 0.9253605
564.60 0.9252152
564.70 0.9250699
564.80 0.9249246
564.90 0.9247783
565.00 0.9246292
565.10 0.9244802
565.20 0.9243313
565.30 0.9241824
565.40 0.9240335
565.50 0.9238847
565.60 0.9237359
565.70 0.9235872
565.80 0.9234385
565.90 0.9232899
566.00 0.9231413
566.10 0.9229928
566.20 0.9228443
566.30 0.9226958
566.40 0.9225474
566.50 0.9223991
566.60 0.9222508
566.70 0.9221025
566.80 0.9219543
566.90 0.9218062
567.00 0.9216581
567.10 0.92151
567.20 0.921362
567.30 0.921214
567.40 0.9210661
567.50 0.9209182
567.60 0.9207704
567.70 0.9206219
567.80 0.9204705
567.90 0.9203191
568.00 0.9201677
568.10 0.9200164
568.20 0.9198652
568.30 0.919714
568.40 0.9195628
568.50 0.9194117
568.60 0.9192607
568.70 0.9191097
568.80 0.9189587
568.90 0.9188078
569.00 0.918657
569.10 0.9185062
569.20 0.9183554
569.30 0.9182047
569.40 0.9180541
569.50 0.9179035
569.60 0.9177529
569.70 0.9176024
569.80 0.9174519
569.90 0.9173015
570.00 0.9171512
570.10 0.9170009
570.20 0.9168506
570.30 0.9167004
570.40 0.9165502
570.50 0.9164001
570.60 0.91625
570.70 0.9161
570.80 0.91595
570.90 0.9158001
571.00 0.9156503
571.10 0.9155004
571.20 0.9153507
571.30 0.9152009
571.40 0.9150513
571.50 0.9149016
571.60 0.914752
571.70 0.9146025
571.80 0.914453
571.90 0.9143036
572.00 0.9141542
572.10 0.9140049
572.20 0.9138556
572.30 0.9137064
572.40 0.9135572
572.50 0.913408
572.60 0.9132589
572.70 0.9131099
572.80 0.9129609
572.90 0.9128119
573.00 0.912663
573.10 0.9125142
573.20 0.9123654
573.30 0.9122166
573.40 0.9120659
573.50 0.9119123
573.60 0.9117588
573.70 0.9116053
573.80 0.9114519
573.90 0.9112986
574.00 0.9111453
574.10 0.910992
574.20 0.9108388
574.30 0.9106857
574.40 0.9105326
574.50 0.9103795
574.60 0.9102265
574.70 0.9100736
574.80 0.9099207
574.90 0.9097679
575.00 0.9096151
575.10 0.9094623
575.20 0.9093097
575.30 0.909157
575.40 0.9090044
575.50 0.9088519
575.60 0.9086994
575.70 0.908547
575.80 0.9083946
575.90 0.9082423
576.00 0.90809
576.10 0.9079378
576.20 0.9077856
576.30 0.9076335
576.40 0.9074814
576.50 0.9073294
576.60 0.9071774
576.70 0.9070255
576.80 0.9068736
576.90 0.9067218
577.00 0.9065701
577.10 0.9064183
577.20 0.9062667
577.30 0.9061151
577.40 0.9059635
577.50 0.905812
577.60 0.9056598
577.70 0.9055064
577.80 0.9053531
577.90 0.9051999
578.00 0.9050467
578.10 0.9048936
578.20 0.9047405
578.30 0.9045875
578.40 0.9044345
578.50 0.9042816
578.60 0.9041287
578.70 0.9039759
578.80 0.9038231
578.90 0.9036704
579.00 0.9035177
579.10 0.9033645
579.20 0.9032053
579.30 0.9030462
579.40 0.9028871
579.50 0.9027281
579.60 0.9025692
579.70 0.9024103
579.80 0.9022514
579.90 0.9020926
580.00 0.9019339
580.10 0.9017755
580.20 0.9016178
580.30 0.9014601
580.40 0.9013024
580.50 0.9011449
580.60 0.9009873
580.70 0.9008298
580.80 0.9006724
580.90 0.900515
581.00 0.9003577
581.10 0.9002005
581.20 0.9000433
581.30 0.8998861
581.40 0.899729
581.50 0.899572
581.60 0.899415
581.70 0.8992581
581.80 0.8991012
581.90 0.8989444
582.00 0.8987876
582.10 0.8986315
582.20 0.8984766
582.30 0.8983218
582.40 0.898167
582.50 0.8980122
582.60 0.8978575
582.70 0.8977029
582.80 0.8975483
582.90 0.8973937
583.00 0.8972393
583.10 0.8970848
583.20 0.8969305
583.30 0.8967761
583.40 0.8966219
583.50 0.8964676
583.60 0.8963124
583.70 0.8961554
583.80 0.8959985
583.90 0.8958417
584.00 0.8956849
584.10 0.8955282
584.20 0.8953715
584.30 0.8952148
584.40 0.8950583
584.50 0.8949017
584.60 0.8947453
584.70 0.8945889
584.80 0.8944325
584.90 0.894276
585.00 0.8941187
585.10 0.8939613
585.20 0.893803
585.30 0.8936428
585.40 0.8934827
585.50 0.8933226
585.60 0.8931626
585.70 0.8930027
585.80 0.8928428
585.90 0.892683
586.00 0.8925232
586.10 0.8923635
586.20 0.8922078
586.30 0.8920585
586.40 0.8919093
586.50 0.8917602
586.60 0.8916111
586.70 0.891462
586.80 0.8913032
586.90 0.8911284
587.00 0.8909538
587.10 0.8907791
587.20 0.8906144
587.30 0.8904657
587.40 0.8903561
587.50 0.8901612
587.60 0.8899585
587.70 0.8898641
587.80 0.8897032
587.90 0.8895034
588.00 0.8893232
588.10 0.8891749
588.20 0.8890267
588.30 0.8888785
588.40 0.8887238
588.50 0.8885586
588.60 0.8883935
588.70 0.8882284
588.80 0.8880634
588.90 0.8878984
589.00 0.8877361
589.10 0.8875781
589.20 0.8874202
589.30 0.8872623
589.40 0.8871045
589.50 0.8869467
589.60 0.886789
589.70 0.8866313
589.80 0.8864737
589.90 0.8863161
590.00 0.8861598
590.10 0.8860055
590.20 0.8858512
590.30 0.8856969
590.40 0.8855428
590.50 0.8853886
590.60 0.8852346
590.70 0.8850806
590.80 0.8849191
590.90 0.8847543
591.00 0.8845896
591.10 0.884425
591.20 0.8842604
591.30 0.8840958
591.40 0.8839314
591.50 0.883767
591.60 0.883603
591.70 0.8834397
591.80 0.8832764
591.90 0.8831133
592.00 0.8829501
592.10 0.8827871
592.20 0.8826241
592.30 0.8824611
592.40 0.8822982
592.50 0.8821354
592.60 0.8819726
592.70 0.8818099
592.80 0.8816473
592.90 0.8814847
593.00 0.8813221
593.10 0.8811603
593.20 0.8809996
593.30 0.8808389
593.40 0.8806783
593.50 0.8805177
593.60 0.8803572
593.70 0.8801968
593.80 0.8800364
593.90 0.8798761
594.00 0.8797158
594.10 0.8795556
594.20 0.8793955
594.30 0.8792354
594.40 0.8790754
594.50 0.8789154
594.60 0.8787555
594.70 0.8785956
594.80 0.8784358
594.90 0.8782761
595.00 0.8781164
595.10 0.8779561
595.20 0.8777948
595.30 0.8776335
595.40 0.8774723
595.50 0.8773111
595.60 0.8771501
595.70 0.876989
595.80 0.876828
595.90 0.8766671
596.00 0.8765063
596.10 0.8763455
596.20 0.8761847
596.30 0.8760241
596.40 0.8758634
596.50 0.8757029
596.60 0.8755424
596.70 0.8753798
596.80 0.8752161
596.90 0.8750524
597.00 0.8748887
597.10 0.8747252
597.20 0.8745616
597.30 0.8743982
597.40 0.8742348
597.50 0.8740715
597.60 0.8739091
597.70 0.8737484
597.80 0.8735877
597.90 0.873427
598.00 0.8732664
598.10 0.8731059
598.20 0.8729454
598.30 0.872785
598.40 0.8726247
598.50 0.8724644
598.60 0.8723041
598.70 0.872144
598.80 0.8719838
598.90 0.8718238
599.00 0.8716638
599.10 0.8715038
599.20 0.871344
599.30 0.8711841
599.40 0.8710171
599.50 0.8708501
599.60 0.8706832
599.70 0.8705164
599.80 0.8703496
599.90 0.8701829
600.00 0.8700163
600.10 0.8698497
600.20 0.8696832
600.30 0.8695167
600.40 0.8693503
600.50 0.869184
600.60 0.8690177
600.70 0.8688515
600.80 0.8686853
600.90 0.8685193
601.00 0.8683532
601.10 0.8681873
601.20 0.8680214
601.30 0.8678555
601.40 0.867695
601.50 0.8675344
601.60 0.8673739
601.70 0.8672135
601.80 0.8670532
601.90 0.8668929
602.00 0.8667326
602.10 0.8665724
602.20 0.8664123
602.30 0.8662522
602.40 0.8660922
602.50 0.8659323
602.60 0.8657724
602.70 0.8655868
602.80 0.8653999
602.90 0.8652351
603.00 0.8650703
603.10 0.8649056
603.20 0.8647409
603.30 0.8645763
603.40 0.8644118
603.50 0.8642473
603.60 0.8640829
603.70 0.8639185
603.80 0.8637542
603.90 0.86359
604.00 0.8634258
604.10 0.8632617
604.20 0.8630976
604.30 0.8629336
604.40 0.8627697
604.50 0.8626107
604.60 0.8624518
604.70 0.8622929
604.80 0.862134
604.90 0.8619753
605.00 0.8618166
605.10 0.8616579
605.20 0.8614993
605.30 0.8613408
605.40 0.8611823
605.50 0.8610109
605.60 0.8608396
605.70 0.8606684
605.80 0.8604973
605.90 0.8603262
606.00 0.8601552
606.10 0.8599923
606.20 0.8598295
606.30 0.8596667
606.40 0.859504
606.50 0.8593655
606.60 0.859227
606.70 0.8589921
606.80 0.8588055
606.90 0.8586672
607.00 0.8584808
607.10 0.8583426
607.20 0.8582045
607.30 0.8580423
607.40 0.8578802
607.50 0.8577182
607.60 0.8575562
607.70 0.8573862
607.80 0.8572164
607.90 0.8570465
608.00 0.8568768
608.10 0.8567071
608.20 0.8565375
608.30 0.8563673
608.40 0.8561972
608.50 0.8560271
608.60 0.8558572
608.70 0.8556919
608.80 0.8555287
608.90 0.8553657
609.00 0.8552027
609.10 0.8550397
609.20 0.8548768
609.30 0.8547099
609.40 0.854543
609.50 0.8543763
609.60 0.8542095
609.70 0.8540429
609.80 0.8538763
609.90 0.8537097
610.00 0.8535433
610.10 0.8533768
610.20 0.8532105
610.30 0.8530442
610.40 0.852878
610.50 0.8527118
610.60 0.8525457
610.70 0.8523797
610.80 0.8522137
610.90 0.852049
611.00 0.8518844
611.10 0.8517198
611.20 0.8515552
611.30 0.8513908
611.40 0.8512264
611.50 0.851062
611.60 0.8508977
611.70 0.8507335
611.80 0.8505694
611.90 0.8504053
612.00 0.8502412
612.10 0.8500773
612.20 0.8499134
612.30 0.8497495
612.40 0.849581
612.50 0.8494125
612.60 0.8492441
612.70 0.8490758
612.80 0.8489075
612.90 0.8487393
613.00 0.8485712
613.10 0.8484031
613.20 0.8482351
613.30 0.8480672
613.40 0.8478993
613.50 0.8477315
613.60 0.8475637
613.70 0.847396
613.80 0.8472284
613.90 0.8470609
614.00 0.8468934
614.10 0.8467259
614.20 0.8465586
614.30 0.8463913
614.40 0.8462287
614.50 0.8460661
614.60 0.8459036
614.70 0.8457412
614.80 0.8455751
614.90 0.8454084
615.00 0.8452418
615.10 0.8450752
615.20 0.8449086
615.30 0.8447422
615.40 0.8445758
615.50 0.8444095
615.60 0.8442432
615.70 0.844077
615.80 0.8439108
615.90 0.8437447
616.00 0.8435787
616.10 0.8434128
616.20 0.8432469
616.30 0.843081
616.40 0.8429153
616.50 0.8427496
616.60 0.8425839
616.70 0.8424184
616.80 0.8422528
616.90 0.8420832
617.00 0.8419136
617.10 0.8417441
617.20 0.8415747
617.30 0.8414053
617.40 0.841236
617.50 0.8410667
617.60 0.8408975
617.70 0.8407284
617.80 0.8405594
617.90 0.8403904
618.00 0.8402215
618.10 0.8400526
618.20 0.8398838
618.30 0.8397151
618.40 0.8395464
618.50 0.8393778
618.60 0.8392093
618.70 0.8390408
618.80 0.8388724
618.90 0.8387041
619.00 0.8385358
619.10 0.8383676
619.20 0.8381995
619.30 0.8380314
619.40 0.8378634
619.50 0.8376955
619.60 0.8375276
619.70 0.8373598
619.80 0.837192
619.90 0.8370243
620.00 0.8368567
620.10 0.8366891
620.20 0.8365216
620.30 0.8363542
620.40 0.8361868
620.50 0.8360195
620.60 0.8358523
620.70 0.8356851
620.80 0.835518
620.90 0.8353501
621.00 0.8351805
621.10 0.835011
621.20 0.8348415
621.30 0.8346721
621.40 0.8345028
621.50 0.8343336
621.60 0.8341644
621.70 0.8339953
621.80 0.8338262
621.90 0.8336572
622.00 0.8334883
622.10 0.8333195
622.20 0.8331507
622.30 0.832982
622.40 0.8328133
622.50 0.8326447
622.60 0.8324762
622.70 0.8323077
622.80 0.8321393
622.90 0.831971
623.00 0.8318027
623.10 0.8316345
623.20 0.8314664
623.30 0.8312983
623.40 0.8311303
623.50 0.8309624
623.60 0.8307945
623.70 0.8306267
623.80 0.8304589
623.90 0.8302912
624.00 0.8301236
624.10 0.8299561
624.20 0.8297886
624.30 0.8296212
624.40 0.8294538
624.50 0.8292865
624.60 0.8291193
624.70 0.8289521
624.80 0.828785
624.90 0.828618
625.00 0.828451
625.10 0.8282841
625.20 0.8281173
625.30 0.8279505
625.40 0.8277838
625.50 0.8276171
625.60 0.8274506
625.70 0.827284
625.80 0.8271176
625.90 0.8269512
626.00 0.8267849
626.10 0.8266186
626.20 0.8264524
626.30 0.8262863
626.40 0.8261202
626.50 0.8259542
626.60 0.8257882
626.70 0.8256224
626.80 0.8254565
626.90 0.8252908
627.00 0.8251251
627.10 0.8249581
627.20 0.8247872
627.30 0.8246165
627.40 0.8244458
627.50 0.8242751
627.60 0.8241046
627.70 0.8239341
627.80 0.8237636
627.90 0.8235933
628.00 0.823423
628.10 0.8232527
628.20 0.8230826
628.30 0.8229125
628.40 0.8227425
628.50 0.8225725
628.60 0.8224026
628.70 0.8222328
628.80 0.822063
628.90 0.8218933
629.00 0.8217237
629.10 0.8215541
629.20 0.8213846
629.30 0.8212152
629.40 0.8210458
629.50 0.8208765
629.60 0.8207073
629.70 0.8205381
629.80 0.820369
629.90 0.8202
630.00 0.820031
630.10 0.8198621
630.20 0.8196933
630.30 0.8195218
630.40 0.8193502
630.50 0.8191787
630.60 0.8190073
630.70 0.8188359
630.80 0.8186646
630.90 0.8184933
631.00 0.8183222
631.10 0.818151
631.20 0.81798
631.30 0.817809
631.40 0.8176381
631.50 0.8174673
631.60 0.8172965
631.70 0.8171258
631.80 0.8169551
631.90 0.8167846
632.00 0.816614
632.10 0.8164436
632.20 0.8162732
632.30 0.8161029
632.40 0.8159327
632.50 0.8157625
632.60 0.8155924
632.70 0.8154224
632.80 0.8152524
632.90 0.8150825
633.00 0.8149126
633.10 0.8147429
633.20 0.8145732
633.30 0.8144035
633.40 0.814235
633.50 0.8140675
633.60 0.8139
633.70 0.8137326
633.80 0.8135653
633.90 0.813398
634.00 0.8132308
634.10 0.8130636
634.20 0.8128965
634.30 0.8127295
634.40 0.8125626
634.50 0.8123957
634.60 0.8122288
634.70 0.8120621
634.80 0.8118954
634.90 0.8117288
635.00 0.8115622
635.10 0.8113957
635.20 0.8112293
635.30 0.8110629
635.40 0.8108966
635.50 0.8107303
635.60 0.8105642
635.70 0.810398
635.80 0.810232
635.90 0.810066
636.00 0.8099001
636.10 0.8097342
636.20 0.8095684
636.30 0.8094027
636.40 0.809237
636.50 0.8090714
636.60 0.8089009
636.70 0.8087299
636.80 0.8085589
636.90 0.808388
637.00 0.8082172
637.10 0.8080464
637.20 0.8078757
637.30 0.8077051
637.40 0.8075345
637.50 0.807364
637.60 0.8071936
637.70 0.8070232
637.80 0.8068529
637.90 0.8066827
638.00 0.8065125
638.10 0.8063424
638.20 0.8061724
638.30 0.8060025
638.40 0.8058326
638.50 0.8056627
638.60 0.805493
638.70 0.8053233
638.80 0.8051537
638.90 0.8049841
639.00 0.8048146
639.10 0.8046452
639.20 0.8044758
639.30 0.8043065
639.40 0.8041373
639.50 0.8039682
639.60 0.8037991
639.70 0.8036292
639.80 0.8034567
639.90 0.8032843
640.00 0.803112
640.10 0.8029397
640.20 0.8027674
640.30 0.8025953
640.40 0.8024232
640.50 0.8022512
640.60 0.8020792
640.70 0.8019074
640.80 0.8017356
640.90 0.8015638
641.00 0.8013921
641.10 0.8012205
641.20 0.801049
641.30 0.8008775
641.40 0.8007061
641.50 0.8005348
641.60 0.8003635
641.70 0.8001923
641.80 0.8000212
641.90 0.7998501
642.00 0.7996791
642.10 0.7995082
642.20 0.7993373
642.30 0.7991666
642.40 0.7989958
642.50 0.7988252
642.60 0.7986546
642.70 0.7984841
642.80 0.7983136
642.90 0.7981432
643.00 0.7979729
643.10 0.7978027
643.20 0.7976325
643.30 0.7974624
643.40 0.7972924
643.50 0.7971225
643.60 0.7969526
643.70 0.7967827
643.80 0.796613
643.90 0.7964433
644.00 0.7962737
644.10 0.7961041
644.20 0.7959346
644.30 0.7957652
644.40 0.7955958
644.50 0.7954265
644.60 0.7952573
644.70 0.7950882
644.80 0.7949191
644.90 0.7947501
645.00 0.7945811
645.10 0.7944122
645.20 0.7942434
645.30 0.7940746
645.40 0.7939059
645.50 0.7937373
645.60 0.7935688
645.70 0.7934003
645.80 0.7932318
645.90 0.7930635
646.00 0.7928952
646.10 0.7927268
646.20 0.7925578
646.30 0.792389
646.40 0.7922202
646.50 0.7920515
646.60 0.7918828
646.70 0.7917142
646.80 0.7915457
646.90 0.7913772
647.00 0.7912088
647.10 0.7910405
647.20 0.7908722
647.30 0.7907041
647.40 0.7905359
647.50 0.7903679
647.60 0.7901999
647.70 0.7900319
647.80 0.7898641
647.90 0.7896963
648.00 0.7895285
648.10 0.7893609
648.20 0.7891933
648.30 0.7890257
648.40 0.7888583
648.50 0.7886909
648.60 0.7885235
648.70 0.7883563
648.80 0.7881891
648.90 0.7880219
649.00 0.7878548
649.10 0.7876878
649.20 0.7875209
649.30 0.787354
649.40 0.7871822
649.50 0.7870102
649.60 0.7868383
649.70 0.7866664
649.80 0.7864946
649.90 0.7863229
650.00 0.7861513
650.10 0.7859797
650.20 0.7858082
650.30 0.7856368
650.40 0.7854654
650.50 0.7852941
650.60 0.7851229
650.70 0.7849517
650.80 0.7847806
650.90 0.7846096
651.00 0.7844386
651.10 0.7842678
651.20 0.7840969
651.30 0.7839262
651.40 0.7837555
651.50 0.7835849
651.60 0.7834143
651.70 0.7832438
651.80 0.7830734
651.90 0.7829031
652.00 0.7827328
652.10 0.7825626
652.20 0.7823924
652.30 0.7822224
652.40 0.7820523
652.50 0.7818824
652.60 0.7817118
652.70 0.7815408
652.80 0.7813698
652.90 0.781199
653.00 0.7810282
653.10 0.7808575
653.20 0.7806868
653.30 0.7805163
653.40 0.7803457
653.50 0.7801753
653.60 0.7800049
653.70 0.7798346
653.80 0.7796644
653.90 0.7794942
654.00 0.7793241
654.10 0.779154
654.20 0.7789841
654.30 0.7788142
654.40 0.7786443
654.50 0.7784746
654.60 0.7783049
654.70 0.7781352
654.80 0.7779657
654.90 0.7777962
655.00 0.7776267
655.10 0.7774574
655.20 0.7772881
655.30 0.7771188
655.40 0.7769497
655.50 0.7767806
655.60 0.7766115
655.70 0.7764426
655.80 0.776276
655.90 0.7761096
656.00 0.7759431
656.10 0.7757768
656.20 0.7756105
656.30 0.7754443
656.40 0.7752782
656.50 0.7751121
656.60 0.7749461
656.70 0.7747801
656.80 0.7746142
656.90 0.7744484
657.00 0.7742826
657.10 0.7741169
657.20 0.7739513
657.30 0.7737858
657.40 0.7736203
657.50 0.7734548
657.60 0.7732895
657.70 0.7731241
657.80 0.7728891
657.90 0.7727102
658.00 0.7725413
658.10 0.7723724
658.20 0.7722036
658.30 0.7720349
658.40 0.7718663
658.50 0.7716977
658.60 0.7715292
658.70 0.7713607
658.80 0.7711923
658.90 0.771024
659.00 0.7708557
659.10 0.7706846
659.20 0.7705092
659.30 0.7703415
659.40 0.7701738
659.50 0.7700063
659.60 0.7698387
659.70 0.7696713
659.80 0.7695039
659.90 0.7693365
660.00 0.7691693
660.10 0.7690021
660.20 0.7688349
660.30 0.7686679
660.40 0.7685021
660.50 0.7683366
660.60 0.7681711
660.70 0.7680058
660.80 0.7678404
660.90 0.7676732
661.00 0.767506
661.10 0.7673389
661.20 0.7671718
661.30 0.7670048
661.40 0.7668379
661.50 0.766671
661.60 0.7665042
661.70 0.7663375
661.80 0.7661708
661.90 0.7660023
662.00 0.7658339
662.10 0.7656656
662.20 0.7654973
662.30 0.765329
662.40 0.7651074
662.50 0.7649372
662.60 0.764767
662.70 0.7645969
662.80 0.7644269
662.90 0.7642771
663.00 0.7641275
663.10 0.7639778
663.20 0.7637878
663.30 0.7635979
663.40 0.7634485
663.50 0.7632588
663.60 0.7630691
663.70 0.7629142
663.80 0.7627594
663.90 0.7626149
664.00 0.7624724
664.10 0.7622965
664.20 0.7621207
664.30 0.7619449
664.40 0.7617693
664.50 0.7615937
664.60 0.7614181
664.70 0.7612482
664.80 0.7610784
664.90 0.7609087
665.00 0.760739
665.10 0.7605694
665.20 0.7603999
665.30 0.7602304
665.40 0.760061
665.50 0.7598784
665.60 0.7596934
665.70 0.7595762
665.80 0.759411
665.90 0.7592459
666.00 0.7590808
666.10 0.7589158
666.20 0.7587509
666.30 0.758586
666.40 0.7584212
666.50 0.7582484
666.60 0.7580742
666.70 0.7579002
666.80 0.7577261
666.90 0.7575522
667.00 0.7573783
667.10 0.7571959
667.20 0.7570121
667.30 0.7568595
667.40 0.7567069
667.50 0.7565252
667.60 0.7563385
667.70 0.7561976
667.80 0.755996
667.90 0.7558344
668.00 0.7556778
668.10 0.7555193
668.20 0.7553728
668.30 0.7552094
668.40 0.7550431
668.50 0.7548768
668.60 0.7547107
668.70 0.7544939
668.80 0.75433
668.90 0.7541662
669.00 0.7540024
669.10 0.7538387
669.20 0.753675
669.30 0.7535063
669.40 0.7533367
669.50 0.7531671
669.60 0.7529977
669.70 0.7528283
669.80 0.752659
669.90 0.7524897
670.00 0.7523205
670.10 0.7521514
670.20 0.7519823
670.30 0.7518078
670.40 0.7516325
670.50 0.7514572
670.60 0.751282
670.70 0.7511068
670.80 0.7509396
670.90 0.7507724
671.00 0.7506052
671.10 0.7504382
671.20 0.7502712
671.30 0.7501042
671.40 0.7499374
671.50 0.7497706
671.60 0.7496038
671.70 0.7494372
671.80 0.7492706
671.90 0.7491104
672.00 0.7489515
672.10 0.7487926
672.20 0.7486337
672.30 0.748475
672.40 0.7483059
672.50 0.7481362
672.60 0.7479665
672.70 0.7477969
672.80 0.7476274
672.90 0.7474579
673.00 0.7472886
673.10 0.7471192
673.20 0.74695
673.30 0.7467963
673.40 0.746628
673.50 0.7464572
673.60 0.7462865
673.70 0.7461159
673.80 0.7459453
673.90 0.7457748
674.00 0.7456044
674.10 0.745434
674.20 0.7452637
674.30 0.7450935
674.40 0.7449233
674.50 0.7447532
674.60 0.7445832
674.70 0.7444132
674.80 0.7442433
674.90 0.7440735
675.00 0.7439038
675.10 0.7437341
675.20 0.7435645
675.30 0.7433949
675.40 0.7432274
675.50 0.7430603
675.60 0.7428933
675.70 0.7427264
675.80 0.7425595
675.90 0.7423927
676.00 0.7422259
676.10 0.7420593
676.20 0.7418926
676.30 0.7417261
676.40 0.7415596
676.50 0.7413932
676.60 0.7412268
676.70 0.7410606
676.80 0.7408943
676.90 0.7407282
677.00 0.7405621
677.10 0.7403961
677.20 0.7402301
677.30 0.7400642
677.40 0.7398984
677.50 0.7397326
677.60 0.739567
677.70 0.7394013
677.80 0.7392358
677.90 0.7390689
678.00 0.7389018
678.10 0.7387347
678.20 0.7385678
678.30 0.7384009
678.40 0.738234
678.50 0.7380673
678.60 0.7379006
678.70 0.7377339
678.80 0.7375674
678.90 0.7374009
679.00 0.7372344
679.10 0.7370659
679.20 0.7368965
679.30 0.7367272
679.40 0.736558
679.50 0.7363888
679.60 0.7362197
679.70 0.7360507
679.80 0.7358817
679.90 0.7357128
680.00 0.735544
680.10 0.7353752
680.20 0.7352065
680.30 0.7350379
680.40 0.7348693
680.50 0.7347008
680.60 0.7345324
680.70 0.734364
680.80 0.7341957
680.90 0.7340275
681.00 0.7338593
681.10 0.7336912
681.20 0.7335232
681.30 0.7333553
681.40 0.7331874
681.50 0.7330195
681.60 0.7328518
681.70 0.7326841
681.80 0.7325165
681.90 0.7323489
682.00 0.7321814
682.10 0.732014
682.20 0.7318466
682.30 0.7316794
682.40 0.7315121
682.50 0.731345
682.60 0.7311779
682.70 0.7310109
682.80 0.7308439
682.90 0.730677
683.00 0.7305102
683.10 0.7303434
683.20 0.7301767
683.30 0.7300101
683.40 0.7298435
683.50 0.729677
683.60 0.7295106
683.70 0.7293443
683.80 0.729178
683.90 0.7290117
684.00 0.7288456
684.10 0.7286795
684.20 0.7285134
684.30 0.7283475
684.40 0.7281816
684.50 0.7280157
684.60 0.72785
684.70 0.7276843
684.80 0.7275186
684.90 0.7273531
685.00 0.7271876
685.10 0.7270221
685.20 0.7268568
685.30 0.7266914
685.40 0.7265262
685.50 0.726361
685.60 0.7261959
685.70 0.7260309
685.80 0.7258659
685.90 0.7256988
686.00 0.7255313
686.10 0.7253639
686.20 0.7251965
686.30 0.7250291
686.40 0.7248619
686.50 0.7246947
686.60 0.7245276
686.70 0.7243605
686.80 0.7241935
686.90 0.7240266
687.00 0.7238598
687.10 0.723693
687.20 0.7235263
687.30 0.7233596
687.40 0.723193
687.50 0.7230265
687.60 0.72286
687.70 0.7226936
687.80 0.7225273
687.90 0.7223611
688.00 0.7221949
688.10 0.7220287
688.20 0.7218627
688.30 0.7216967
688.40 0.7215308
688.50 0.7213649
688.60 0.7211991
688.70 0.7210334
688.80 0.7208677
688.90 0.7207021
689.00 0.7205366
689.10 0.7203711
689.20 0.7202057
689.30 0.7200404
689.40 0.7198751
689.50 0.7197099
689.60 0.7195448
689.70 0.7193797
689.80 0.7192147
689.90 0.7190497
690.00 0.7188849
690.10 0.71872
690.20 0.7185553
690.30 0.7183906
690.40 0.718226
690.50 0.7180615
690.60 0.717897
690.70 0.7177326
690.80 0.7175682
690.90 0.7174039
691.00 0.7172397
691.10 0.7170755
691.20 0.7169114
691.30 0.7167474
691.40 0.7165834
691.50 0.7164195
691.60 0.7162557
691.70 0.7160919
691.80 0.7159282
691.90 0.7157646
692.00 0.715601
692.10 0.7154375
692.20 0.715274
692.30 0.7151107
692.40 0.7149473
692.50 0.7147841
692.60 0.7146209
692.70 0.7144568
692.80 0.7142891
692.90 0.7141215
693.00 0.713954
693.10 0.7137865
693.20 0.7136191
693.30 0.7134518
693.40 0.7132845
693.50 0.7131173
693.60 0.7129501
693.70 0.7127831
693.80 0.7126161
693.90 0.7124491
694.00 0.7122822
694.10 0.7121154
694.20 0.7119487
694.30 0.711782
694.40 0.7116154
694.50 0.7114489
694.60 0.7112824
694.70 0.711116
694.80 0.7109496
694.90 0.7107834
695.00 0.7106172
695.10 0.710451
695.20 0.7102849
695.30 0.7101189
695.40 0.709953
695.50 0.7097871
695.60 0.7096213
695.70 0.7094555
695.80 0.7092899
695.90 0.7091242
696.00 0.7089587
696.10 0.7087932
696.20 0.7086278
696.30 0.7084624
696.40 0.7082972
696.50 0.7081319
696.60 0.7079691
696.70 0.7078069
696.80 0.7076447
696.90 0.7074826
697.00 0.7073206
697.10 0.7071586
697.20 0.7069967
697.30 0.7068349
697.40 0.7066731
697.50 0.7065114
697.60 0.7063498
697.70 0.7061882
697.80 0.7060267
697.90 0.7058652
698.00 0.7057038
698.10 0.7055425
698.20 0.7053812
698.30 0.70522
698.40 0.7050589
698.50 0.7048978
698.60 0.7047368
698.70 0.7045758
698.80 0.7044149
698.90 0.7042541
699.00 0.7040934
699.10 0.7039298
699.20 0.7037657
699.30 0.7036016
699.40 0.7034376
699.50 0.7032737
699.60 0.7031098
699.70 0.7029449
699.80 0.7027799
699.90 0.702615
700.00 0.7024502
700.10 0.7022854
700.20 0.7021207
700.30 0.7019561
700.40 0.7017915
700.50 0.701627
700.60 0.7014626
700.70 0.7012982
700.80 0.7011339
700.90 0.7009697
701.00 0.7008055
701.10 0.7006397
701.20 0.7004736
701.30 0.7003076
701.40 0.7001416
701.50 0.6999757
701.60 0.6998099
701.70 0.6996441
701.80 0.6994784
701.90 0.6993128
702.00 0.6991472
702.10 0.6989817
702.20 0.6988163
702.30 0.6986509
702.40 0.6984856
702.50 0.6983204
702.60 0.6981571
702.70 0.6979944
702.80 0.6978318
702.90 0.6976692
703.00 0.6975067
703.10 0.6973442
703.20 0.6971818
703.30 0.6970195
703.40 0.6968572
703.50 0.696695
703.60 0.6965329
703.70 0.6963708
703.80 0.6962088
703.90 0.6960469
704.00 0.695885
704.10 0.6957232
704.20 0.6955615
704.30 0.6953998
704.40 0.6952382
704.50 0.6950766
704.60 0.6949151
704.70 0.6947537
704.80 0.6945923
704.90 0.694431
705.00 0.6942698
705.10 0.6941086
705.20 0.6939475
705.30 0.6937864
705.40 0.6936255
705.50 0.6934645
705.60 0.6933037
705.70 0.6931429
705.80 0.6929677
705.90 0.6927892
706.00 0.6926108
706.10 0.6924324
706.20 0.6922686
706.30 0.6921082
706.40 0.6919902
706.50 0.6918131
706.60 0.6916697
706.70 0.691474
706.80 0.6913072
706.90 0.6911472
707.00 0.6909872
707.10 0.6908273
707.20 0.6906675
707.30 0.6905077
707.40 0.690348
707.50 0.6901884
707.60 0.6900288
707.70 0.6898693
707.80 0.6897098
707.90 0.6895504
708.00 0.6893854
708.10 0.689219
708.20 0.6890527
708.30 0.6888865
708.40 0.6887203
708.50 0.6885543
708.60 0.6883882
708.70 0.6882223
708.80 0.6880564
708.90 0.6878906
709.00 0.6877306
709.10 0.6875719
709.20 0.6874134
709.30 0.6872549
709.40 0.6870964
709.50 0.6869381
709.60 0.6867798
709.70 0.6866215
709.80 0.6864633
709.90 0.6863052
710.00 0.6861471
710.10 0.6859891
710.20 0.6858312
710.30 0.6856733
710.40 0.6855155
710.50 0.6853577
710.60 0.6851943
710.70 0.6850297
710.80 0.6848651
710.90 0.6847005
711.00 0.6845361
711.10 0.6843717
711.20 0.6842073
711.30 0.684043
711.40 0.6838788
711.50 0.6837147
711.60 0.6835506
711.70 0.6833866
711.80 0.6832226
711.90 0.6830588
712.00 0.6828949
712.10 0.6827326
712.20 0.6825706
712.30 0.6824088
712.40 0.6822469
712.50 0.6820852
712.60 0.6819235
712.70 0.6817618
712.80 0.6816003
712.90 0.6814388
713.00 0.6812773
713.10 0.6811159
713.20 0.6809546
713.30 0.6807934
713.40 0.6806322
713.50 0.6804711
713.60 0.68031
713.70 0.6801523
713.80 0.6800014
713.90 0.6798505
714.00 0.6796997
714.10 0.6795394
714.20 0.679377
714.30 0.6792147
714.40 0.6790524
714.50 0.6788902
714.60 0.678728
714.70 0.6785659
714.80 0.6784039
714.90 0.6782419
715.00 0.67808
715.10 0.6779182
715.20 0.6777564
715.30 0.6775947
715.40 0.6774331
715.50 0.6772715
715.60 0.67711
715.70 0.6769485
715.80 0.6767871
715.90 0.6766258
716.00 0.6764645
716.10 0.6763033
716.20 0.6761422
716.30 0.6759811
716.40 0.6758201
716.50 0.6756592
716.60 0.6755002
716.70 0.6753417
716.80 0.6751832
716.90 0.6750248
717.00 0.6748665
717.10 0.6747082
717.20 0.67455
717.30 0.6743918
717.40 0.6742337
717.50 0.6740757
717.60 0.6739177
717.70 0.6737598
717.80 0.673602
717.90 0.6734442
718.00 0.6732865
718.10 0.6731289
718.20 0.672968
718.30 0.6728054
718.40 0.6726429
718.50 0.6724805
718.60 0.6723181
718.70 0.6721558
718.80 0.6719935
718.90 0.6718313
719.00 0.6716692
719.10 0.6715072
719.20 0.6713452
719.30 0.6711832
719.40 0.6710214
719.50 0.6708596
719.60 0.6706978
719.70 0.6705362
719.80 0.6703746
719.90 0.670213
720.00 0.6700515
720.10 0.6698901
720.20 0.6697288
720.30 0.6695675
720.40 0.6694063
720.50 0.6692451
720.60 0.669084
720.70 0.6689333
720.80 0.6687882
720.90 0.6686293
721.00 0.66847
721.10 0.6683108
721.20 0.6681516
721.30 0.6679924
721.40 0.6678333
721.50 0.6676743
721.60 0.6675154
721.70 0.6673565
721.80 0.6671977
721.90 0.6670389
722.00 0.6668802
722.10 0.6667216
722.20 0.666563
722.30 0.6664045
722.40 0.666246
722.50 0.6660876
722.60 0.6659293
722.70 0.6657689
722.80 0.6656073
722.90 0.6654459
723.00 0.6652845
723.10 0.6651231
723.20 0.6649618
723.30 0.6648006
723.40 0.6646395
723.50 0.6644784
723.60 0.6643174
723.70 0.6641564
723.80 0.6639955
723.90 0.6638347
724.00 0.6636739
724.10 0.6635132
724.20 0.6633544
724.30 0.6631966
724.40 0.6630389
724.50 0.6628813
724.60 0.6627237
724.70 0.6625662
724.80 0.6624088
724.90 0.6622514
725.00 0.6620941
725.10 0.6619368
725.20 0.6617796
725.30 0.6616225
725.40 0.6614654
725.50 0.6613084
725.60 0.6611514
725.70 0.6609945
725.80 0.6608388
725.90 0.6606837
726.00 0.6605287
726.10 0.6603737
726.20 0.6602188
726.30 0.660064
726.40 0.6599092
726.50 0.6597545
726.60 0.6595998
726.70 0.6594452
726.80 0.6592877
726.90 0.6591288
727.00 0.6589699
727.10 0.658811
727.20 0.6586522
727.30 0.6584935
727.40 0.6583312
727.50 0.658167
727.60 0.6580029
727.70 0.6578389
727.80 0.6576858
727.90 0.6575386
728.00 0.6573697
728.10 0.6571933
728.20 0.6570757
728.30 0.6568953
728.40 0.6567367
728.50 0.6565899
728.60 0.6564322
728.70 0.6562688
728.80 0.6561055
728.90 0.6559422
729.00 0.6557826
729.10 0.655625
729.20 0.6554674
729.30 0.65531
729.40 0.6551526
729.50 0.6549952
729.60 0.6548408
729.70 0.654688
729.80 0.6545353
729.90 0.6543827
730.00 0.6542301
730.10 0.6540775
730.20 0.6539251
730.30 0.6537726
730.40 0.6536203
730.50 0.653468
730.60 0.6533119
730.70 0.6531539
730.80 0.652996
730.90 0.6528381
731.00 0.6526803
731.10 0.6525225
731.20 0.6523648
731.30 0.6522072
731.40 0.6520496
731.50 0.6518921
731.60 0.6517347
731.70 0.6515773
731.80 0.65142
731.90 0.6512627
732.00 0.6511055
732.10 0.6509483
732.20 0.6507893
732.30 0.6506292
732.40 0.6504692
732.50 0.6503093
732.60 0.6501494
732.70 0.6499896
732.80 0.6498299
732.90 0.6496702
733.00 0.6495106
733.10 0.6493511
733.20 0.6491916
733.30 0.6490321
733.40 0.6488728
733.50 0.6487135
733.60 0.6485542
733.70 0.6483992
733.80 0.6482464
733.90 0.6480936
734.00 0.6479409
734.10 0.6477883
734.20 0.6476357
734.30 0.6474832
734.40 0.6473307
734.50 0.6471783
734.60 0.647026
734.70 0.6468737
734.80 0.6467215
734.90 0.6465693
735.00 0.6464172
735.10 0.6462651
735.20 0.6461131
735.30 0.6459608
735.40 0.6458043
735.50 0.6456479
735.60 0.6454915
735.70 0.6453347
735.80 0.6451777
735.90 0.6450207
736.00 0.6448638
736.10 0.644707
736.20 0.6445502
736.30 0.6443935
736.40 0.6442368
736.50 0.6440803
736.60 0.6439237
736.70 0.6437673
736.80 0.6436109
736.90 0.6434545
737.00 0.6432982
737.10 0.643142
737.20 0.6429858
737.30 0.6428297
737.40 0.6426737
737.50 0.6425177
737.60 0.6423618
737.70 0.6422059
737.80 0.6420501
737.90 0.6418944
738.00 0.6417387
738.10 0.6415831
738.20 0.641427
738.30 0.6412706
738.40 0.6411142
738.50 0.640958
738.60 0.6408017
738.70 0.6406456
738.80 0.6404895
738.90 0.6403335
739.00 0.6401775
739.10 0.6400216
739.20 0.6398657
739.30 0.6397099
739.40 0.6395542
739.50 0.6393985
739.60 0.6392429
739.70 0.6390874
739.80 0.6389319
739.90 0.6387765
740.00 0.6386211
740.10 0.6384658
740.20 0.6383106
740.30 0.6381554
740.40 0.6380003
740.50 0.6378452
740.60 0.6376902
740.70 0.6375353
740.80 0.6373804
740.90 0.6372256
741.00 0.6370708
741.10 0.6369161
741.20 0.6367615
741.30 0.6366069
741.40 0.6364524
741.50 0.6362979
741.60 0.6361435
741.70 0.6359892
741.80 0.6358349
741.90 0.6356807
742.00 0.6355265
742.10 0.6353724
742.20 0.6352184
742.30 0.6350644
742.40 0.6349105
742.50 0.6347566
742.60 0.6346029
742.70 0.63445
742.80 0.6342978
742.90 0.6341457
743.00 0.6339937
743.10 0.6338417
743.20 0.6336898
743.30 0.633538
743.40 0.6333862
743.50 0.6332344
743.60 0.6330828
743.70 0.6329306
743.80 0.6327765
743.90 0.6326225
744.00 0.6324685
744.10 0.6323146
744.20 0.6321607
744.30 0.6320069
744.40 0.6318532
744.50 0.6316995
744.60 0.6315459
744.70 0.6313923
744.80 0.6312388
744.90 0.6310854
745.00 0.630932
745.10 0.6307787
745.20 0.6306254
745.30 0.6304722
745.40 0.6303191
745.50 0.630166
745.60 0.630013
745.70 0.62986
745.80 0.6297071
745.90 0.6295543
746.00 0.6294015
746.10 0.6292488
746.20 0.6290961
746.30 0.6289435
746.40 0.6287909
746.50 0.6286384
746.60 0.628486
746.70 0.6283336
746.80 0.6281813
746.90 0.6280291
747.00 0.6278769
747.10 0.6277247
747.20 0.6275727
747.30 0.6274206
747.40 0.6272687
747.50 0.6271168
747.60 0.6269649
747.70 0.6268132
747.80 0.6266614
747.90 0.6265098
748.00 0.6263582
748.10 0.6262066
748.20 0.6260551
748.30 0.6259037
748.40 0.6257523
748.50 0.625601
748.60 0.6254498
748.70 0.6252986
748.80 0.6251474
748.90 0.6249963
749.00 0.6248453
749.10 0.6246944
749.20 0.6245434
749.30 0.6243926
749.40 0.6242418
749.50 0.6240911
749.60 0.6239404
749.70 0.6237898
749.80 0.6236392
749.90 0.6234887
750.00 0.6233383
750.10 0.6231873
750.20 0.6230346
750.30 0.622882
750.40 0.6227295
750.50 0.622577
750.60 0.6224246
750.70 0.6222722
750.80 0.6221199
750.90 0.6219677
751.00 0.6218155
751.10 0.6216634
751.20 0.6215113
751.30 0.6213593
751.40 0.6212073
751.50 0.6210554
751.60 0.6209036
751.70 0.6207518
751.80 0.6206001
751.90 0.6204485
752.00 0.6202969
752.10 0.6201453
752.20 0.6199939
752.30 0.6198424
752.40 0.6196911
752.50 0.6195398
752.60 0.6193885
752.70 0.6192373
752.80 0.6190862
752.90 0.6189351
753.00 0.6187841
753.10 0.6186332
753.20 0.6184823
753.30 0.6183315
753.40 0.6181807
753.50 0.61803
753.60 0.6178793
753.70 0.6177287
753.80 0.6175782
753.90 0.6174264
754.00 0.6172743
754.10 0.6171222
754.20 0.6169703
754.30 0.6168183
754.40 0.6166665
754.50 0.6165147
754.60 0.6163629
754.70 0.6162113
754.80 0.6160596
754.90 0.6159081
755.00 0.6157566
755.10 0.6156051
755.20 0.6154537
755.30 0.6153024
755.40 0.6151511
755.50 0.6149999
755.60 0.6148487
755.70 0.6146977
755.80 0.6145466
755.90 0.6143956
756.00 0.6142447
756.10 0.6140938
756.20 0.613943
756.30 0.6137923
756.40 0.6136416
756.50 0.613491
756.60 0.6133404
756.70 0.6131899
756.80 0.6130394
756.90 0.612889
757.00 0.6127387
757.10 0.6125884
757.20 0.6124382
757.30 0.612288
757.40 0.6121379
757.50 0.6119879
757.60 0.6118379
757.70 0.6116878
757.80 0.6115378
757.90 0.6113879
758.00 0.611238
758.10 0.6110882
758.20 0.6109384
758.30 0.6107887
758.40 0.6106391
758.50 0.6104895
758.60 0.61034
758.70 0.6101905
758.80 0.6100411
758.90 0.6098917
759.00 0.6097424
759.10 0.6095932
759.20 0.609444
759.30 0.6092949
759.40 0.6091458
759.50 0.6089968
759.60 0.6088478
759.70 0.6086989
759.80 0.6085501
759.90 0.6084013
760.00 0.6082526
760.10 0.6081039
760.20 0.6079553
760.30 0.6078067
760.40 0.6076582
760.50 0.6075098
760.60 0.6073614
760.70 0.6072131
760.80 0.6070648
760.90 0.6069166
761.00 0.6067685
761.10 0.6066204
761.20 0.6064723
761.30 0.6063243
761.40 0.6061758
761.50 0.6060263
761.60 0.6058768
761.70 0.6057275
761.80 0.6055781
761.90 0.6054289
762.00 0.6052797
762.10 0.6051305
762.20 0.6049815
762.30 0.6048324
762.40 0.6046835
762.50 0.6045345
762.60 0.6043857
762.70 0.6042369
762.80 0.6040881
762.90 0.6039395
763.00 0.6037908
763.10 0.6036423
763.20 0.6034938
763.30 0.6033453
763.40 0.6031969
763.50 0.6030486
763.60 0.6029003
763.70 0.602752
763.80 0.6026039
763.90 0.6024558
764.00 0.6023077
764.10 0.6021597
764.20 0.6020118
764.30 0.6018639
764.40 0.601716
764.50 0.6015683
764.60 0.6014205
764.70 0.6012729
764.80 0.6011253
764.90 0.6009777
765.00 0.6008302
765.10 0.6006828
765.20 0.6005346
765.30 0.6003856
765.40 0.6002366
765.50 0.6000877
765.60 0.5999389
765.70 0.5997901
765.80 0.5996414
765.90 0.5994928
766.00 0.5993442
766.10 0.5991956
766.20 0.5990471
766.30 0.5988987
766.40 0.5987503
766.50 0.598602
766.60 0.5984538
766.70 0.5983055
766.80 0.5981574
766.90 0.5980093
767.00 0.5978613
767.10 0.5977133
767.20 0.5975654
767.30 0.5974175
767.40 0.5972697
767.50 0.597122
767.60 0.5969743
767.70 0.5968267
767.80 0.5966791
767.90 0.5965316
768.00 0.5963841
768.10 0.5962367
768.20 0.5960894
768.30 0.5959421
768.40 0.5957948
768.50 0.5956476
768.60 0.5955005
768.70 0.5953534
768.80 0.5952064
768.90 0.5950595
769.00 0.5949126
769.10 0.5947657
769.20 0.594619
769.30 0.5944722
769.40 0.5943255
769.50 0.5941789
769.60 0.5940324
769.70 0.5938859
769.80 0.5937394
769.90 0.593593
770.00 0.5934467
770.10 0.5933004
770.20 0.5931542
770.30 0.593008
770.40 0.5928619
770.50 0.5927158
770.60 0.5925698
770.70 0.5924239
770.80 0.592278
770.90 0.5921322
771.00 0.5919864
771.10 0.5918407
771.20 0.591695
771.30 0.5915494
771.40 0.5914038
771.50 0.5912583
771.60 0.5911129
771.70 0.5909675
771.80 0.5908222
771.90 0.5906769
772.00 0.5905317
772.10 0.5903865
772.20 0.5902414
772.30 0.5900963
772.40 0.5899513
772.50 0.5898064
772.60 0.5896615
772.70 0.5895166
772.80 0.5893719
772.90 0.5892255
773.00 0.5890792
773.10 0.588933
773.20 0.5887868
773.30 0.5886407
773.40 0.5884947
773.50 0.5883487
773.60 0.5882027
773.70 0.5880568
773.80 0.587911
773.90 0.5877652
774.00 0.5876195
774.10 0.5874738
774.20 0.5873282
774.30 0.5871826
774.40 0.5870371
774.50 0.5868917
774.60 0.5867463
774.70 0.5866009
774.80 0.5864556
774.90 0.5863104
775.00 0.5861653
775.10 0.5860201
775.20 0.5858751
775.30 0.5857301
775.40 0.5855851
775.50 0.5854402
775.60 0.5852954
775.70 0.5851506
775.80 0.5850059
775.90 0.5848612
776.00 0.5847166
776.10 0.584572
776.20 0.5844275
776.30 0.5842831
776.40 0.5841387
776.50 0.5839943
776.60 0.58385
776.70 0.5837058
776.80 0.5835616
776.90 0.5834175
777.00 0.5832734
777.10 0.5831294
777.20 0.5829854
777.30 0.5828415
777.40 0.5826977
777.50 0.5825539
777.60 0.5824102
777.70 0.5822665
777.80 0.5821228
777.90 0.5819793
778.00 0.5818357
778.10 0.5816923
778.20 0.5815489
778.30 0.5814055
778.40 0.5812622
778.50 0.5811189
778.60 0.5809758
778.70 0.5808326
778.80 0.5806895
778.90 0.5805465
779.00 0.5804035
779.10 0.5802606
779.20 0.5801177
779.30 0.5799749
779.40 0.5798321
779.50 0.5796894
779.60 0.5795468
779.70 0.5794042
779.80 0.5792616
779.90 0.5791192
780.00 0.5789767
780.10 0.5788343
780.20 0.578692
780.30 0.5785497
780.40 0.5784075
780.50 0.5782654
780.60 0.578122
780.70 0.5779782
780.80 0.5778345
780.90 0.5776909
781.00 0.5775473
781.10 0.5774037
781.20 0.5772602
781.30 0.5771168
781.40 0.5769734
781.50 0.5768301
781.60 0.5766868
781.70 0.5765436
781.80 0.5764004
781.90 0.5762573
782.00 0.5761142
782.10 0.5759712
782.20 0.5758283
782.30 0.5756854
782.40 0.5755426
782.50 0.5753998
782.60 0.575257
782.70 0.5751144
782.80 0.5749717
782.90 0.5748292
783.00 0.5746866
783.10 0.5745442
783.20 0.5744018
783.30 0.5742594
783.40 0.5741171
783.50 0.5739749
783.60 0.5738327
783.70 0.5736905
783.80 0.5735485
783.90 0.5734064
784.00 0.5732645
784.10 0.5731225
784.20 0.5729807
784.30 0.5728388
784.40 0.5726971
784.50 0.5725554
784.60 0.5724138
784.70 0.5722725
784.80 0.5721313
784.90 0.5719901
785.00 0.571849
785.10 0.5717079
785.20 0.5715669
785.30 0.571426
785.40 0.571285
785.50 0.5711442
785.60 0.5710034
785.70 0.5708626
785.80 0.5707219
785.90 0.5705813
786.00 0.5704407
786.10 0.5703002
786.20 0.5701597
786.30 0.5700192
786.40 0.5698789
786.50 0.5697385
786.60 0.5695983
786.70 0.569458
786.80 0.5693179
786.90 0.5691778
787.00 0.5690377
787.10 0.5688977
787.20 0.5687577
787.30 0.5686178
787.40 0.568478
787.50 0.5683382
787.60 0.5681984
787.70 0.5680587
787.80 0.5679191
787.90 0.5677795
788.00 0.56764
788.10 0.5675005
788.20 0.5673611
788.30 0.5672217
788.40 0.5670803
788.50 0.5669379
788.60 0.5667956
788.70 0.5666533
788.80 0.5665111
788.90 0.5663689
789.00 0.5662268
789.10 0.5660848
789.20 0.5659428
789.30 0.5658008
789.40 0.5656589
789.50 0.5655171
789.60 0.5653753
789.70 0.5652336
789.80 0.5650919
789.90 0.5649503
790.00 0.5648087
790.10 0.5646672
790.20 0.5645257
790.30 0.5643843
790.40 0.5642429
790.50 0.5641016
790.60 0.5639604
790.70 0.5638192
790.80 0.563678
790.90 0.563537
791.00 0.5633959
791.10 0.5632549
791.20 0.563114
791.30 0.5629731
791.40 0.5628323
791.50 0.5626915
791.60 0.5625508
791.70 0.5624101
791.80 0.5622695
791.90 0.562129
792.00 0.5619885
792.10 0.561848
792.20 0.5617076
792.30 0.5615676
792.40 0.5614288
792.50 0.56129
792.60 0.5611512
792.70 0.5610125
792.80 0.5608739
792.90 0.5607353
793.00 0.5605967
793.10 0.5604582
793.20 0.5603198
793.30 0.5601814
793.40 0.5600431
793.50 0.5599048
793.60 0.5597665
793.70 0.5596284
793.80 0.5594902
793.90 0.5593522
794.00 0.5592141
794.10 0.5590762
794.20 0.5589382
794.30 0.5588004
794.40 0.5586626
794.50 0.5585248
794.60 0.5583871
794.70 0.5582494
794.80 0.5581118
794.90 0.5579742
795.00 0.5578367
795.10 0.5576993
795.20 0.5575619
795.30 0.5574245
795.40 0.5572872
795.50 0.55715
795.60 0.5570128
795.70 0.5568756
795.80 0.5567385
795.90 0.5566015
796.00 0.5564645
796.10 0.5563275
796.20 0.5561906
796.30 0.5560514
796.40 0.5559118
796.50 0.5557722
796.60 0.5556327
796.70 0.5554932
796.80 0.5553538
796.90 0.5552144
797.00 0.5550751
797.10 0.5549358
797.20 0.5547966
797.30 0.5546574
797.40 0.5545183
797.50 0.5543793
797.60 0.5542403
797.70 0.5541013
797.80 0.5539624
797.90 0.5538236
798.00 0.5536848
798.10 0.553546
798.20 0.5534074
798.30 0.5532687
798.40 0.5531301
798.50 0.5529916
798.60 0.5528531
798.70 0.5527147
798.80 0.5525763
798.90 0.552438
799.00 0.5522997
799.10 0.5521615
799.20 0.5520233
799.30 0.5518852
799.40 0.5517471
799.50 0.5516091
799.60 0.5514712
799.70 0.5513332
799.80 0.5511954
799.90 0.5510576
800.00 0.5509198
800.10 0.5507821
800.20 0.5506445
800.30 0.5505069
800.40 0.5503693
800.50 0.5502318
800.60 0.5500944
800.70 0.549957
800.80 0.5498196
800.90 0.5496823
801.00 0.5495451
801.10 0.5494079
801.20 0.5492708
801.30 0.5491337
801.40 0.5489967
801.50 0.5488597
801.60 0.5487227
801.70 0.5485859
801.80 0.548449
801.90 0.5483122
802.00 0.5481755
802.10 0.5480388
802.20 0.5479022
802.30 0.5477656
802.40 0.5476291
802.50 0.5474926
802.60 0.5473562
802.70 0.5472199
802.80 0.5470835
802.90 0.5469473
803.00 0.546811
803.10 0.5466749
803.20 0.5465388
803.30 0.5464027
803.40 0.5462667
803.50 0.5461307
803.60 0.5459948
803.70 0.5458589
803.80 0.5457231
803.90 0.5455874
804.00 0.5454517
804.10 0.545316
804.20 0.5451801
804.30 0.5450432
804.40 0.5449063
804.50 0.5447695
804.60 0.5446327
804.70 0.544496
804.80 0.5443593
804.90 0.5442227
805.00 0.5440861
805.10 0.5439496
805.20 0.5438132
805.30 0.5436767
805.40 0.5435404
805.50 0.5434041
805.60 0.5432678
805.70 0.5431316
805.80 0.5429954
805.90 0.5428593
806.00 0.5427233
806.10 0.5425873
806.20 0.5424513
806.30 0.5423154
806.40 0.5421796
806.50 0.5420438
806.60 0.541908
806.70 0.5417723
806.80 0.5416367
806.90 0.5415011
807.00 0.5413655
807.10 0.54123
807.20 0.5410946
807.30 0.5409592
807.40 0.5408238
807.50 0.5406885
807.60 0.5405533
807.70 0.5404181
807.80 0.5402829
807.90 0.5401478
808.00 0.5400128
808.10 0.5398778
808.20 0.5397428
808.30 0.539608
808.40 0.5394731
808.50 0.5393383
808.60 0.5392036
808.70 0.5390689
808.80 0.5389342
808.90 0.5387996
809.00 0.5386651
809.10 0.5385306
809.20 0.5383962
809.30 0.5382618
809.40 0.5381274
809.50 0.5379931
809.60 0.5378589
809.70 0.5377247
809.80 0.5375905
809.90 0.5374565
810.00 0.5373224
810.10 0.5371884
810.20 0.5370545
810.30 0.5369206
810.40 0.5367867
810.50 0.5366529
810.60 0.5365192
810.70 0.5363855
810.80 0.5362518
810.90 0.5361183
811.00 0.5359847
811.10 0.5358512
811.20 0.5357178
811.30 0.5355844
811.40 0.535451
811.50 0.5353177
811.60 0.5351845
811.70 0.5350513
811.80 0.5349181
811.90 0.534785
812.00 0.534652
812.10 0.5345189
812.20 0.534386
812.30 0.5342517
812.40 0.5341171
812.50 0.5339826
812.60 0.5338481
812.70 0.5337137
812.80 0.5335793
812.90 0.533445
813.00 0.5333107
813.10 0.5331764
813.20 0.5330423
813.30 0.5329081
813.40 0.532774
813.50 0.53264
813.60 0.532506
813.70 0.5323721
813.80 0.5322382
813.90 0.5321044
814.00 0.5319706
814.10 0.5318368
814.20 0.5317031
814.30 0.5315695
814.40 0.5314359
814.50 0.5313024
814.60 0.5311689
814.70 0.5310355
814.80 0.5309021
814.90 0.5307687
815.00 0.5306354
815.10 0.5305022
815.20 0.530369
815.30 0.5302359
815.40 0.5301028
815.50 0.5299697
815.60 0.5298367
815.70 0.5297038
815.80 0.5295709
815.90 0.529438
816.00 0.5293052
816.10 0.5291725
816.20 0.5290398
816.30 0.5289071
816.40 0.5287745
816.50 0.528642
816.60 0.5285095
816.70 0.528377
816.80 0.5282446
816.90 0.5281123
817.00 0.52798
817.10 0.5278477
817.20 0.5277155
817.30 0.5275833
817.40 0.5274512
817.50 0.5273192
817.60 0.5271872
817.70 0.5270552
817.80 0.5269233
817.90 0.5267914
818.00 0.5266596
818.10 0.5265278
818.20 0.5263961
818.30 0.5262644
818.40 0.5261328
818.50 0.5260012
818.60 0.5258697
818.70 0.5257382
818.80 0.5256068
818.90 0.5254754
819.00 0.5253441
819.10 0.5252128
819.20 0.5250816
819.30 0.5249522
819.40 0.5248241
819.50 0.524696
819.60 0.524568
819.70 0.52444
819.80 0.524312
819.90 0.5241842
820.00 0.5240563
820.10 0.5239285
820.20 0.5238008
820.30 0.5236731
820.40 0.5235428
820.50 0.5234107
820.60 0.5232787
820.70 0.5231467
820.80 0.5230148
820.90 0.5228829
821.00 0.5227511
821.10 0.5226193
821.20 0.5224875
821.30 0.5223558
821.40 0.5222242
821.50 0.5220926
821.60 0.521961
821.70 0.5218296
821.80 0.5216981
821.90 0.5215667
822.00 0.5214353
822.10 0.521304
822.20 0.5211728
822.30 0.5210416
822.40 0.5209104
822.50 0.5207793
822.60 0.5206482
822.70 0.5205172
822.80 0.5203863
822.90 0.5202554
823.00 0.5201245
823.10 0.5199937
823.20 0.5198629
823.30 0.5197322
823.40 0.5196015
823.50 0.5194709
823.60 0.5193403
823.70 0.5192097
823.80 0.5190793
823.90 0.5189488
824.00 0.5188184
824.10 0.5186881
824.20 0.5185578
824.30 0.5184276
824.40 0.5182974
824.50 0.5181672
824.60 0.5180371
824.70 0.5179071
824.80 0.5177771
824.90 0.5176471
825.00 0.5175172
825.10 0.5173873
825.20 0.5172575
825.30 0.5171278
825.40 0.516998
825.50 0.5168684
825.60 0.5167387
825.70 0.5166092
825.80 0.5164796
825.90 0.5163502
826.00 0.5162207
826.10 0.5160914
826.20 0.515962
826.30 0.5158327
826.40 0.5157033
826.50 0.515574
826.60 0.5154448
826.70 0.5153156
826.80 0.5151864
826.90 0.5150573
827.00 0.5149283
827.10 0.5147992
827.20 0.5146703
827.30 0.5145414
827.40 0.5144125
827.50 0.5142837
827.60 0.5141549
827.70 0.5140262
827.80 0.5138975
827.90 0.5137688
828.00 0.5136403
828.10 0.5135117
828.20 0.5133832
828.30 0.5132548
828.40 0.5131264
828.50 0.512998
828.60 0.5128691
828.70 0.5127397
828.80 0.5126104
828.90 0.5124811
829.00 0.5123518
829.10 0.5122226
829.20 0.5120935
829.30 0.5119644
829.40 0.5118353
829.50 0.5117063
829.60 0.5115773
829.70 0.5114484
829.80 0.5113196
829.90 0.5111907
830.00 0.511062
830.10 0.5109332
830.20 0.5108046
830.30 0.5106759
830.40 0.5105473
830.50 0.5104188
830.60 0.5102903
830.70 0.5101619
830.80 0.5100335
830.90 0.5099051
831.00 0.5097768
831.10 0.5096486
831.20 0.5095203
831.30 0.5093922
831.40 0.5092641
831.50 0.509136
831.60 0.509008
831.70 0.50888
831.80 0.5087521
831.90 0.5086242
832.00 0.5084964
832.10 0.5083686
832.20 0.5082408
832.30 0.5081131
832.40 0.5079855
832.50 0.5078579
832.60 0.5077303
832.70 0.5076028
832.80 0.5074754
832.90 0.5073479
833.00 0.5072206
833.10 0.5070933
833.20 0.506966
833.30 0.5068388
833.40 0.5067116
833.50 0.5065844
833.60 0.5064573
833.70 0.5063303
833.80 0.5062033
833.90 0.5060764
834.00 0.5059495
834.10 0.5058226
834.20 0.5056958
834.30 0.505569
834.40 0.5054423
834.50 0.5053156
834.60 0.505189
834.70 0.5050624
834.80 0.5049359
834.90 0.5048094
835.00 0.504683
835.10 0.5045566
835.20 0.5044302
835.30 0.5043039
835.40 0.5041776
835.50 0.5040514
835.60 0.5039253
835.70 0.5037992
835.80 0.5036731
835.90 0.5035471
836.00 0.5034211
836.10 0.5032951
836.20 0.5031692
836.30 0.5030434
836.40 0.5029176
836.50 0.5027918
836.60 0.5026661
836.70 0.5025405
836.80 0.5024149
836.90 0.5022881
837.00 0.5021608
837.10 0.5020335
837.20 0.5019063
837.30 0.5017792
837.40 0.5016521
837.50 0.501525
837.60 0.501398
837.70 0.5012711
837.80 0.5011442
837.90 0.5010173
838.00 0.5008905
838.10 0.5007637
838.20 0.500637
838.30 0.5005103
838.40 0.5003836
838.50 0.500257
838.60 0.5001305
838.70 0.500004
838.80 0.4998775
838.90 0.4997511
839.00 0.4996248
839.10 0.4994984
839.20 0.4993722
839.30 0.4992459
839.40 0.4991198
839.50 0.4989936
839.60 0.4988676
839.70 0.4987415
839.80 0.4986155
839.90 0.4984896
840.00 0.4983637
840.10 0.4982378
840.20 0.498112
840.30 0.4979862
840.40 0.4978605
840.50 0.4977348
840.60 0.4976092
840.70 0.4974836
840.80 0.4973581
840.90 0.4972326
841.00 0.4971071
841.10 0.4969817
841.20 0.4968564
841.30 0.4967311
841.40 0.4966058
841.50 0.4964806
841.60 0.4963554
841.70 0.4962303
841.80 0.4961052
841.90 0.4959802
842.00 0.4958552
842.10 0.4957303
842.20 0.4956054
842.30 0.4954805
842.40 0.4953557
842.50 0.4952309
842.60 0.4951062
842.70 0.4949816
842.80 0.4948569
842.90 0.4947323
843.00 0.4946078
843.10 0.4944833
843.20 0.4943589
843.30 0.4942345
843.40 0.4941101
843.50 0.4939858
843.60 0.4938615
843.70 0.4937373
843.80 0.4936131
843.90 0.493489
844.00 0.4933649
844.10 0.4932409
844.20 0.4931169
844.30 0.4929929
844.40 0.492869
844.50 0.4927452
844.60 0.4926214
844.70 0.4924976
844.80 0.4923739
844.90 0.4922502
845.00 0.4921265
845.10 0.4920029
845.20 0.4918794
845.30 0.4917554
845.40 0.4916314
845.50 0.4915075
845.60 0.4913836
845.70 0.4912597
845.80 0.4911359
845.90 0.4910122
846.00 0.4908885
846.10 0.4907648
846.20 0.4906412
846.30 0.4905176
846.40 0.4903941
846.50 0.4902706
846.60 0.4901472
846.70 0.4900238
846.80 0.4899004
846.90 0.4897771
847.00 0.4896538
847.10 0.4895306
847.20 0.4894075
847.30 0.4892843
847.40 0.4891612
847.50 0.4890382
847.60 0.4889152
847.70 0.4887923
847.80 0.4886694
847.90 0.4885465
848.00 0.4884237
848.10 0.4883009
848.20 0.4881782
848.30 0.4880555
848.40 0.4879328
848.50 0.4878103
848.60 0.4876877
848.70 0.4875652
848.80 0.4874427
848.90 0.4873203
849.00 0.4871979
849.10 0.4870756
849.20 0.4869533
849.30 0.4868311
849.40 0.4867089
849.50 0.4865867
849.60 0.4864646
849.70 0.4863425
849.80 0.4862205
849.90 0.4860985
850.00 0.4859766
850.10 0.4858547
850.20 0.4857329
850.30 0.4856111
850.40 0.4854893
850.50 0.4853676
850.60 0.4852459
850.70 0.4851243
850.80 0.4850027
850.90 0.4848812
851.00 0.4847597
851.10 0.4846382
851.20 0.4845168
851.30 0.4843955
851.40 0.4842741
851.50 0.4841529
851.60 0.4840316
851.70 0.4839104
851.80 0.4837893
851.90 0.4836682
852.00 0.4835471
852.10 0.4834261
852.20 0.4833051
852.30 0.4831842
852.40 0.4830633
852.50 0.4829425
852.60 0.4828217
852.70 0.4827009
852.80 0.4825802
852.90 0.4824595
853.00 0.4823389
853.10 0.4822183
853.20 0.4820978
853.30 0.4819773
853.40 0.4818568
853.50 0.4817364
853.60 0.4816161
853.70 0.4814949
853.80 0.481373
853.90 0.4812512
854.00 0.4811293
854.10 0.4810075
854.20 0.4808858
854.30 0.4807641
854.40 0.4806424
854.50 0.4805208
854.60 0.4803992
854.70 0.4802777
854.80 0.4801562
854.90 0.4800348
855.00 0.4799134
855.10 0.4797921
855.20 0.4796708
855.30 0.4795495
855.40 0.4794283
855.50 0.4793071
855.60 0.479186
855.70 0.4790649
855.80 0.4789438
855.90 0.4788228
856.00 0.4787019
856.10 0.478581
856.20 0.4784601
856.30 0.4783393
856.40 0.4782185
856.50 0.4780977
856.60 0.477977
856.70 0.4778564
856.80 0.4777358
856.90 0.4776152
857.00 0.4774947
857.10 0.4773742
857.20 0.4772538
857.30 0.4771334
857.40 0.477013
857.50 0.4768927
857.60 0.4767724
857.70 0.4766522
857.80 0.476532
857.90 0.4764119
858.00 0.4762918
858.10 0.4761717
858.20 0.4760517
858.30 0.4759318
858.40 0.4758119
858.50 0.475692
858.60 0.4755721
858.70 0.4754523
858.80 0.4753326
858.90 0.4752129
859.00 0.4750932
859.10 0.4749736
859.20 0.474854
859.30 0.4747345
859.40 0.474615
859.50 0.4744955
859.60 0.4743761
859.70 0.4742568
859.80 0.4741375
859.90 0.4740182
860.00 0.4738989
860.10 0.4737797
860.20 0.4736606
860.30 0.4735415
860.40 0.4734224
860.50 0.4733034
860.60 0.4731844
860.70 0.4730655
860.80 0.4729466
860.90 0.4728277
861.00 0.4727089
861.10 0.4725901
861.20 0.4724714
861.30 0.4723527
861.40 0.4722341
861.50 0.4721155
861.60 0.4719969
861.70 0.4718784
861.80 0.47176
861.90 0.4716415
862.00 0.4715231
862.10 0.4714048
862.20 0.4712864
862.30 0.4711671
862.40 0.4710478
862.50 0.4709287
862.60 0.4708095
862.70 0.4706904
862.80 0.4705713
862.90 0.4704523
863.00 0.4703333
863.10 0.4702144
863.20 0.4700955
863.30 0.4699766
863.40 0.4698578
863.50 0.469739
863.60 0.4696203
863.70 0.4695016
863.80 0.469383
863.90 0.4692644
864.00 0.4691458
864.10 0.4690273
864.20 0.4689088
864.30 0.4687904
864.40 0.468672
864.50 0.4685537
864.60 0.4684354
864.70 0.4683171
864.80 0.4681989
864.90 0.4680807
865.00 0.4679626
865.10 0.4678445
865.20 0.4677264
865.30 0.4676084
865.40 0.4674905
865.50 0.4673725
865.60 0.4672546
865.70 0.4671368
865.80 0.467019
865.90 0.4669012
866.00 0.4667835
866.10 0.4666659
866.20 0.4665482
866.30 0.4664306
866.40 0.4663131
866.50 0.4661956
866.60 0.4660781
866.70 0.4659607
866.80 0.4658433
866.90 0.465726
867.00 0.4656087
867.10 0.4654914
867.20 0.4653742
867.30 0.465257
867.40 0.4651399
867.50 0.4650228
867.60 0.4649058
867.70 0.4647888
867.80 0.4646718
867.90 0.4645549
868.00 0.464438
868.10 0.4643212
868.20 0.4642044
868.30 0.4640876
868.40 0.4639709
868.50 0.4638542
868.60 0.4637376
868.70 0.463621
868.80 0.4635044
868.90 0.4633879
869.00 0.4632715
869.10 0.463155
869.20 0.4630387
869.30 0.4629223
869.40 0.462806
869.50 0.4626898
869.60 0.4625735
869.70 0.4624574
869.80 0.4623412
869.90 0.4622251
870.00 0.4621091
870.10 0.4619931
870.20 0.4618771
870.30 0.4617612
870.40 0.4616453
870.50 0.4615294
870.60 0.4614136
870.70 0.4612978
870.80 0.4611821
870.90 0.4610656
871.00 0.4609489
871.10 0.4608323
871.20 0.4607158
871.30 0.4605993
871.40 0.4604829
871.50 0.4603664
871.60 0.4602501
871.70 0.4601337
871.80 0.4600174
871.90 0.4599012
872.00 0.459785
872.10 0.4596688
872.20 0.4595527
872.30 0.4594366
872.40 0.4593206
872.50 0.4592045
872.60 0.4590886
872.70 0.4589727
872.80 0.4588568
872.90 0.4587409
873.00 0.4586251
873.10 0.4585094
873.20 0.4583937
873.30 0.458278
873.40 0.4581624
873.50 0.4580468
873.60 0.4579312
873.70 0.4578157
873.80 0.4577002
873.90 0.4575848
874.00 0.4574694
874.10 0.4573541
874.20 0.4572388
874.30 0.4571235
874.40 0.4570083
874.50 0.4568931
874.60 0.4567779
874.70 0.4566628
874.80 0.4565478
874.90 0.4564327
875.00 0.4563178
875.10 0.4562028
875.20 0.4560879
875.30 0.4559731
875.40 0.4558582
875.50 0.4557435
875.60 0.4556287
875.70 0.455514
875.80 0.4553994
875.90 0.4552848
876.00 0.4551702
876.10 0.4550556
876.20 0.4549412
876.30 0.4548267
876.40 0.4547123
876.50 0.4545979
876.60 0.4544836
876.70 0.4543693
876.80 0.454255
876.90 0.4541408
877.00 0.4540266
877.10 0.4539125
877.20 0.4537984
877.30 0.4536844
877.40 0.4535704
877.50 0.4534564
877.60 0.4533424
877.70 0.4532286
877.80 0.4531147
877.90 0.4530009
878.00 0.4528871
878.10 0.4527734
878.20 0.4526597
878.30 0.4525461
878.40 0.4524324
878.50 0.4523189
878.60 0.4522053
878.70 0.4520919
878.80 0.4519784
878.90 0.451865
879.00 0.4517516
879.10 0.4516383
879.20 0.451525
879.30 0.4514117
879.40 0.4512985
879.50 0.4511854
879.60 0.4510715
879.70 0.4509574
879.80 0.4508434
879.90 0.4507295
880.00 0.4506156
880.10 0.4505017
880.20 0.4503879
880.30 0.4502741
880.40 0.4501603
880.50 0.4500466
880.60 0.449933
880.70 0.4498193
880.80 0.4497057
880.90 0.4495922
881.00 0.4494787
881.10 0.4493652
881.20 0.4492518
881.30 0.4491384
881.40 0.449025
881.50 0.4489117
881.60 0.4487985
881.70 0.4486852
881.80 0.448572
881.90 0.4484589
882.00 0.4483458
882.10 0.4482327
882.20 0.4481197
882.30 0.4480067
882.40 0.4478937
882.50 0.4477808
882.60 0.4476679
882.70 0.4475551
882.80 0.4474423
882.90 0.4473296
883.00 0.4472169
883.10 0.4471042
883.20 0.4469915
883.30 0.4468789
883.40 0.4467664
883.50 0.4466539
883.60 0.4465414
883.70 0.446429
883.80 0.4463166
883.90 0.4462042
884.00 0.4460919
884.10 0.4459796
884.20 0.4458674
884.30 0.4457552
884.40 0.445643
884.50 0.4455309
884.60 0.4454188
884.70 0.4453067
884.80 0.4451947
884.90 0.4450828
885.00 0.4449708
885.10 0.4448589
885.20 0.4447471
885.30 0.4446353
885.40 0.4445235
885.50 0.4444118
885.60 0.4443001
885.70 0.4441884
885.80 0.4440768
885.90 0.4439652
886.00 0.4438537
886.10 0.4437422
886.20 0.4436307
886.30 0.4435193
886.40 0.4434079
886.50 0.4432966
886.60 0.4431853
886.70 0.443074
886.80 0.4429628
886.90 0.4428516
887.00 0.4427405
887.10 0.4426294
887.20 0.4425183
887.30 0.4424073
887.40 0.4422963
887.50 0.4421853
887.60 0.4420744
887.70 0.4419635
887.80 0.4418527
887.90 0.4417419
888.00 0.4416311
888.10 0.4415204
888.20 0.4414097
888.30 0.4412991
888.40 0.4411873
888.50 0.4410753
888.60 0.4409633
888.70 0.4408514
888.80 0.4407396
888.90 0.4406278
889.00 0.440516
889.10 0.4404043
889.20 0.4402926
889.30 0.4401809
889.40 0.4400693
889.50 0.4399577
889.60 0.4398462
889.70 0.4397346
889.80 0.4396232
889.90 0.4395118
890.00 0.4394004
890.10 0.439289
890.20 0.4391777
890.30 0.4390664
890.40 0.4389552
890.50 0.438844
890.60 0.4387329
890.70 0.4386217
890.80 0.4385107
890.90 0.4383996
891.00 0.4382886
891.10 0.4381777
891.20 0.4380668
891.30 0.4379559
891.40 0.437845
891.50 0.4377342
891.60 0.4376235
891.70 0.4375127
891.80 0.437402
891.90 0.4372914
892.00 0.4371808
892.10 0.4370702
892.20 0.4369597
892.30 0.4368492
892.40 0.4367387
892.50 0.4366283
892.60 0.4365179
892.70 0.4364076
892.80 0.4362973
892.90 0.436187
893.00 0.4360768
893.10 0.4359666
893.20 0.4358564
893.30 0.4357463
893.40 0.4356363
893.50 0.4355262
893.60 0.4354162
893.70 0.4353063
893.80 0.4351964
893.90 0.4350865
894.00 0.4349766
894.10 0.4348668
894.20 0.4347571
894.30 0.4346473
894.40 0.4345376
894.50 0.434428
894.60 0.4343184
894.70 0.4342088
894.80 0.4340993
894.90 0.4339898
895.00 0.4338803
895.10 0.4337709
895.20 0.4336615
895.30 0.4335522
895.40 0.4334428
895.50 0.4333336
895.60 0.4332243
895.70 0.4331151
895.80 0.433006
895.90 0.4328969
896.00 0.4327878
896.10 0.4326787
896.20 0.4325697
896.30 0.4324608
896.40 0.4323518
896.50 0.432243
896.60 0.4321341
896.70 0.4320253
896.80 0.4319165
896.90 0.4318078
897.00 0.4316991
897.10 0.4315904
897.20 0.4314818
897.30 0.4313728
897.40 0.4312639
897.50 0.431155
897.60 0.4310462
897.70 0.4309373
897.80 0.4308286
897.90 0.4307198
898.00 0.4306112
898.10 0.4305025
898.20 0.4303939
898.30 0.4302853
898.40 0.4301768
898.50 0.4300682
898.60 0.4299598
898.70 0.4298514
898.80 0.429743
898.90 0.4296346
899.00 0.4295263
899.10 0.429418
899.20 0.4293098
899.30 0.4292016
899.40 0.4290934
899.50 0.4289853
899.60 0.4288772
899.70 0.4287691
899.80 0.4286611
899.90 0.4285531
900.00 0.4284452
900.10 0.4283373
900.20 0.4282294
900.30 0.4281216
900.40 0.4280138
900.50 0.427906
900.60 0.4277983
900.70 0.4276906
900.80 0.427583
900.90 0.4274754
901.00 0.4273678
901.10 0.4272603
901.20 0.4271528
901.30 0.4270453
901.40 0.4269379
901.50 0.4268305
901.60 0.4267232
901.70 0.4266159
901.80 0.4265086
901.90 0.4264014
902.00 0.4262942
902.10 0.426187
902.20 0.4260799
902.30 0.4259728
902.40 0.4258657
902.50 0.4257587
902.60 0.4256518
902.70 0.4255448
902.80 0.4254379
902.90 0.425331
903.00 0.4252242
903.10 0.4251174
903.20 0.4250107
903.30 0.424904
903.40 0.4247973
903.50 0.4246906
903.60 0.424584
903.70 0.4244775
903.80 0.4243709
903.90 0.4242644
904.00 0.424158
904.10 0.4240515
904.20 0.4239452
904.30 0.4238388
904.40 0.4237325
904.50 0.4236262
904.60 0.42352
904.70 0.4234138
904.80 0.4233076
904.90 0.4232015
905.00 0.4230954
905.10 0.4229893
905.20 0.4228833
905.30 0.4227773
905.40 0.4226714
905.50 0.4225655
905.60 0.4224596
905.70 0.4223537
905.80 0.4222479
905.90 0.4221422
906.00 0.4220365
906.10 0.4219308
906.20 0.4218248
906.30 0.4217184
906.40 0.421612
906.50 0.4215056
906.60 0.4213993
906.70 0.421293
906.80 0.4211867
906.90 0.4210805
907.00 0.4209743
907.10 0.4208681
907.20 0.420762
907.30 0.4206559
907.40 0.4205499
907.50 0.4204438
907.60 0.4203379
907.70 0.4202319
907.80 0.420126
907.90 0.4200202
908.00 0.4199143
908.10 0.4198086
908.20 0.4197028
908.30 0.4195971
908.40 0.4194914
908.50 0.4193857
908.60 0.4192801
908.70 0.4191746
908.80 0.419069
908.90 0.4189635
909.00 0.4188581
909.10 0.4187526
909.20 0.4186472
909.30 0.4185419
909.40 0.4184366
909.50 0.4183313
909.60 0.418226
909.70 0.4181208
909.80 0.4180156
909.90 0.4179105
910.00 0.4178054
910.10 0.4177003
910.20 0.4175953
910.30 0.4174903
910.40 0.4173854
910.50 0.4172804
910.60 0.4171755
910.70 0.4170707
910.80 0.4169659
910.90 0.4168611
911.00 0.4167564
911.10 0.4166517
911.20 0.416547
911.30 0.4164424
911.40 0.4163378
911.50 0.4162332
911.60 0.4161287
911.70 0.4160242
911.80 0.4159197
911.90 0.4158153
912.00 0.4157109
912.10 0.4156066
912.20 0.4155023
912.30 0.415398
912.40 0.4152937
912.50 0.4151895
912.60 0.4150854
912.70 0.4149812
912.80 0.4148771
912.90 0.4147731
913.00 0.414669
913.10 0.414565
913.20 0.4144611
913.30 0.4143572
913.40 0.4142533
913.50 0.4141494
913.60 0.4140456
913.70 0.4139419
913.80 0.4138381
913.90 0.4137344
914.00 0.4136307
914.10 0.4135271
914.20 0.4134235
914.30 0.4133199
914.40 0.4132164
914.50 0.4131129
914.60 0.4130094
914.70 0.412906
914.80 0.4128026
914.90 0.4126993
915.00 0.412596
915.10 0.4124927
915.20 0.4123894
915.30 0.4122857
915.40 0.4121817
915.50 0.4120778
915.60 0.4119739
915.70 0.41187
915.80 0.4117662
915.90 0.4116624
916.00 0.4115586
916.10 0.4114549
916.20 0.4113512
916.30 0.4112475
916.40 0.4111439
916.50 0.4110403
916.60 0.4109368
916.70 0.4108333
916.80 0.4107298
916.90 0.4106263
917.00 0.4105229
917.10 0.4104196
917.20 0.4103162
917.30 0.4102129
917.40 0.4101097
917.50 0.4100064
917.60 0.4099032
917.70 0.4098001
917.80 0.409697
917.90 0.4095939
918.00 0.4094908
918.10 0.4093878
918.20 0.4092848
918.30 0.4091819
918.40 0.4090789
918.50 0.4089761
918.60 0.4088732
918.70 0.4087704
918.80 0.4086676
918.90 0.4085649
919.00 0.4084622
919.10 0.4083595
919.20 0.4082569
919.30 0.4081543
919.40 0.4080517
919.50 0.4079492
919.60 0.4078467
919.70 0.4077443
919.80 0.4076418
919.90 0.4075395
920.00 0.4074371
920.10 0.4073348
920.20 0.4072325
920.30 0.4071303
920.40 0.407028
920.50 0.4069259
920.60 0.4068237
920.70 0.4067216
920.80 0.4066195
920.90 0.4065175
921.00 0.4064155
921.10 0.4063135
921.20 0.4062116
921.30 0.4061097
921.40 0.4060078
921.50 0.405906
921.60 0.4058042
921.70 0.4057024
921.80 0.4056007
921.90 0.405499
922.00 0.4053973
922.10 0.4052957
922.20 0.4051941
922.30 0.4050926
922.40 0.404991
922.50 0.4048896
922.60 0.4047881
922.70 0.4046867
922.80 0.4045853
922.90 0.404484
923.00 0.4043826
923.10 0.4042814
923.20 0.4041801
923.30 0.4040789
923.40 0.4039777
923.50 0.4038766
923.60 0.4037755
923.70 0.4036744
923.80 0.4035734
923.90 0.4034724
924.00 0.4033714
924.10 0.4032705
924.20 0.4031696
924.30 0.4030687
924.40 0.4029677
924.50 0.4028662
924.60 0.4027646
924.70 0.4026631
924.80 0.4025617
924.90 0.4024602
925.00 0.4023589
925.10 0.4022575
925.20 0.4021562
925.30 0.4020549
925.40 0.4019536
925.50 0.4018524
925.60 0.4017512
925.70 0.4016501
925.80 0.401549
925.90 0.4014479
926.00 0.4013468
926.10 0.4012458
926.20 0.4011448
926.30 0.4010439
926.40 0.400943
926.50 0.4008421
926.60 0.4007413
926.70 0.4006405
926.80 0.4005397
926.90 0.400439
927.00 0.4003382
927.10 0.4002376
927.20 0.4001369
927.30 0.4000363
927.40 0.3999358
927.50 0.3998352
927.60 0.3997347
927.70 0.3996343
927.80 0.3995338
927.90 0.3994334
928.00 0.3993331
928.10 0.3992327
928.20 0.3991324
928.30 0.3990322
928.40 0.398932
928.50 0.3988318
928.60 0.3987316
928.70 0.3986315
928.80 0.3985314
928.90 0.3984313
929.00 0.3983313
929.10 0.3982313
929.20 0.3981313
929.30 0.3980314
929.40 0.3979315
929.50 0.3978317
929.60 0.3977318
929.70 0.3976321
929.80 0.3975323
929.90 0.3974326
930.00 0.3973329
930.10 0.3972332
930.20 0.3971336
930.30 0.397034
930.40 0.3969345
930.50 0.396835
930.60 0.3967355
930.70 0.396636
930.80 0.3965366
930.90 0.3964372
931.00 0.3963379
931.10 0.3962385
931.20 0.3961393
931.30 0.39604
931.40 0.3959408
931.50 0.3958416
931.60 0.3957425
931.70 0.3956433
931.80 0.3955443
931.90 0.3954452
932.00 0.3953462
932.10 0.3952472
932.20 0.3951483
932.30 0.3950493
932.40 0.3949505
932.50 0.3948516
932.60 0.3947528
932.70 0.394654
932.80 0.3945553
932.90 0.3944565
933.00 0.3943579
933.10 0.3942592
933.20 0.3941606
933.30 0.394062
933.40 0.3939635
933.50 0.3938649
933.60 0.3937665
933.70 0.3936675
933.80 0.3935683
933.90 0.3934692
934.00 0.3933701
934.10 0.393271
934.20 0.393172
934.30 0.393073
934.40 0.3929741
934.50 0.3928752
934.60 0.3927763
934.70 0.3926774
934.80 0.3925786
934.90 0.3924798
935.00 0.3923811
935.10 0.3922824
935.20 0.3921837
935.30 0.392085
935.40 0.3919864
935.50 0.3918878
935.60 0.3917893
935.70 0.3916907
935.80 0.3915923
935.90 0.3914938
936.00 0.3913954
936.10 0.391297
936.20 0.3911986
936.30 0.3911003
936.40 0.391002
936.50 0.3909038
936.60 0.3908056
936.70 0.3907074
936.80 0.3906092
936.90 0.3905111
937.00 0.390413
937.10 0.390315
937.20 0.3902169
937.30 0.3901189
937.40 0.390021
937.50 0.3899231
937.60 0.3898252
937.70 0.3897273
937.80 0.3896295
937.90 0.3895317
938.00 0.3894339
938.10 0.3893362
938.20 0.3892385
938.30 0.3891408
938.40 0.3890432
938.50 0.3889456
938.60 0.3888481
938.70 0.3887505
938.80 0.388653
938.90 0.3885556
939.00 0.3884581
939.10 0.3883607
939.20 0.3882634
939.30 0.388166
939.40 0.3880687
939.50 0.3879715
939.60 0.3878742
939.70 0.387777
939.80 0.3876798
939.90 0.3875827
940.00 0.3874856
940.10 0.3873885
940.20 0.3872915
940.30 0.3871945
940.40 0.3870975
940.50 0.3870006
940.60 0.3869036
940.70 0.3868068
940.80 0.3867099
940.90 0.3866131
941.00 0.3865163
941.10 0.3864196
941.20 0.3863229
941.30 0.3862262
941.40 0.3861295
941.50 0.3860329
941.60 0.3859363
941.70 0.3858398
941.80 0.3857432
941.90 0.3856467
942.00 0.3855503
942.10 0.3854539
942.20 0.3853575
942.30 0.3852611
942.40 0.3851648
942.50 0.3850685
942.60 0.3849722
942.70 0.384876
942.80 0.3847798
942.90 0.3846836
943.00 0.3845872
943.10 0.3844904
943.20 0.3843936
943.30 0.3842969
943.40 0.3842002
943.50 0.3841035
943.60 0.3840069
943.70 0.3839102
943.80 0.3838137
943.90 0.3837171
944.00 0.3836206
944.10 0.3835241
944.20 0.3834277
944.30 0.3833312
944.40 0.3832349
944.50 0.3831385
944.60 0.3830422
944.70 0.3829459
944.80 0.3828496
944.90 0.3827534
945.00 0.3826572
945.10 0.3825611
945.20 0.3824649
945.30 0.3823688
945.40 0.3822728
945.50 0.3821767
945.60 0.3820807
945.70 0.3819848
945.80 0.3818888
945.90 0.3817929
946.00 0.3816971
946.10 0.3816012
946.20 0.3815054
946.30 0.3814096
946.40 0.3813139
946.50 0.3812182
946.60 0.3811225
946.70 0.3810268
946.80 0.3809312
946.90 0.3808356
947.00 0.3807401
947.10 0.3806446
947.20 0.3805491
947.30 0.3804536
947.40 0.3803582
947.50 0.3802628
947.60 0.3801674
947.70 0.3800721
947.80 0.3799768
947.90 0.3798815
948.00 0.3797863
948.10 0.3796911
948.20 0.3795959
948.30 0.3795008
948.40 0.3794057
948.50 0.3793106
948.60 0.3792156
948.70 0.3791206
948.80 0.3790256
948.90 0.3789306
949.00 0.3788357
949.10 0.3787408
949.20 0.378646
949.30 0.3785511
949.40 0.3784563
949.50 0.3783616
949.60 0.3782669
949.70 0.3781722
949.80 0.3780775
949.90 0.3779829
950.00 0.3778883
950.10 0.3777937
950.20 0.3776991
950.30 0.3776046
950.40 0.3775102
950.50 0.3774157
950.60 0.3773213
950.70 0.3772269
950.80 0.3771326
950.90 0.3770382
951.00 0.376944
951.10 0.3768497
951.20 0.3767555
951.30 0.3766613
951.40 0.3765671
951.50 0.376473
951.60 0.3763789
951.70 0.3762848
951.80 0.3761908
951.90 0.3760968
952.00 0.3760028
952.10 0.3759088
952.20 0.3758149
952.30 0.375721
952.40 0.3756272
952.50 0.3755335
952.60 0.3754399
952.70 0.3753463
952.80 0.3752527
952.90 0.3751591
953.00 0.3750656
953.10 0.3749721
953.20 0.3748787
953.30 0.3747853
953.40 0.3746919
953.50 0.3745985
953.60 0.3745052
953.70 0.3744119
953.80 0.3743186
953.90 0.3742254
954.00 0.3741321
954.10 0.374039
954.20 0.3739458
954.30 0.3738527
954.40 0.3737596
954.50 0.3736666
954.60 0.3735735
954.70 0.3734805
954.80 0.3733876
954.90 0.3732947
955.00 0.3732018
955.10 0.3731089
955.20 0.373016
955.30 0.3729232
955.40 0.3728305
955.50 0.3727377
955.60 0.372645
955.70 0.3725523
955.80 0.3724597
955.90 0.372367
956.00 0.3722744
956.10 0.3721819
956.20 0.3720893
956.30 0.3719968
956.40 0.3719044
956.50 0.3718119
956.60 0.3717195
956.70 0.3716271
956.80 0.3715348
956.90 0.3714425
957.00 0.3713502
957.10 0.3712579
957.20 0.3711653
957.30 0.3710723
957.40 0.3709793
957.50 0.3708864
957.60 0.3707934
957.70 0.3707006
957.80 0.3706077
957.90 0.3705149
958.00 0.3704221
958.10 0.3703293
958.20 0.3702366
958.30 0.3701439
958.40 0.3700512
958.50 0.3699586
958.60 0.3698659
958.70 0.3697734
958.80 0.3696808
958.90 0.3695883
959.00 0.3694958
959.10 0.3694033
959.20 0.3693109
959.30 0.3692185
959.40 0.3691261
959.50 0.3690338
959.60 0.3689415
959.70 0.3688492
959.80 0.368757
959.90 0.3686647
960.00 0.3685726
960.10 0.3684804
960.20 0.3683883
960.30 0.3682962
960.40 0.3682041
960.50 0.3681121
960.60 0.3680201
960.70 0.3679281
960.80 0.3678362
960.90 0.3677443
961.00 0.3676524
961.10 0.3675605
961.20 0.3674687
961.30 0.3673769
961.40 0.3672851
961.50 0.3671934
961.60 0.3671017
961.70 0.36701
961.80 0.3669184
961.90 0.3668268
962.00 0.366735
962.10 0.3666432
962.20 0.3665514
962.30 0.3664597
962.40 0.366368
962.50 0.3662763
962.60 0.3661847
962.70 0.3660931
962.80 0.3660015
962.90 0.3659099
963.00 0.3658184
963.10 0.3657269
963.20 0.3656354
963.30 0.365544
963.40 0.3654526
963.50 0.3653612
963.60 0.3652699
963.70 0.3651785
963.80 0.3650873
963.90 0.364996
964.00 0.3649048
964.10 0.3648136
964.20 0.3647224
964.30 0.3646313
964.40 0.3645402
964.50 0.3644491
964.60 0.3643581
964.70 0.364267
964.80 0.364176
964.90 0.3640851
965.00 0.3639942
965.10 0.3639033
965.20 0.3638124
965.30 0.3637216
965.40 0.3636308
965.50 0.36354
965.60 0.3634492
965.70 0.3633585
965.80 0.3632678
965.90 0.3631772
966.00 0.3630865
966.10 0.3629959
966.20 0.3629054
966.30 0.3628148
966.40 0.3627243
966.50 0.3626339
966.60 0.3625434
966.70 0.362453
966.80 0.3623626
966.90 0.3622722
967.00 0.3621819
967.10 0.3620916
967.20 0.3620013
967.30 0.3619111
967.40 0.3618209
967.50 0.3617307
967.60 0.3616405
967.70 0.3615504
967.80 0.3614603
967.90 0.3613702
968.00 0.3612802
968.10 0.3611902
968.20 0.3611002
968.30 0.3610103
968.40 0.3609204
968.50 0.3608305
968.60 0.3607406
968.70 0.3606508
968.80 0.360561
968.90 0.3604712
969.00 0.3603815
969.10 0.3602918
969.20 0.3602021
969.30 0.3601124
969.40 0.3600228
969.50 0.3599332
969.60 0.3598436
969.70 0.3597541
969.80 0.3596646
969.90 0.3595751
970.00 0.3594857
970.10 0.3593963
970.20 0.3593069
970.30 0.3592175
970.40 0.3591282
970.50 0.3590389
970.60 0.3589496
970.70 0.3588604
970.80 0.3587711
970.90 0.3586819
971.00 0.3585928
971.10 0.3585037
971.20 0.3584146
971.30 0.3583255
971.40 0.3582365
971.50 0.3581474
971.60 0.3580581
971.70 0.3579685
971.80 0.3578789
971.90 0.3577894
972.00 0.3576999
972.10 0.3576105
972.20 0.357521
972.30 0.3574316
972.40 0.3573423
972.50 0.3572529
972.60 0.3571636
972.70 0.3570743
972.80 0.3569851
972.90 0.3568958
973.00 0.3568066
973.10 0.3567175
973.20 0.3566283
973.30 0.3565392
973.40 0.3564501
973.50 0.3563611
973.60 0.3562721
973.70 0.3561831
973.80 0.3560941
973.90 0.3560052
974.00 0.3559163
974.10 0.3558274
974.20 0.3557385
974.30 0.3556497
974.40 0.3555609
974.50 0.3554722
974.60 0.3553834
974.70 0.3552947
974.80 0.3552061
974.90 0.3551174
975.00 0.3550288
975.10 0.3549402
975.20 0.3548517
975.30 0.3547631
975.40 0.3546746
975.50 0.3545861
975.60 0.3544977
975.70 0.3544093
975.80 0.3543209
975.90 0.3542325
976.00 0.3541442
976.10 0.3540559
976.20 0.3539676
976.30 0.3538794
976.40 0.3537912
976.50 0.353703
976.60 0.3536148
976.70 0.3535267
976.80 0.3534386
976.90 0.3533505
977.00 0.3532625
977.10 0.3531745
977.20 0.3530865
977.30 0.3529986
977.40 0.3529106
977.50 0.3528227
977.60 0.3527349
977.70 0.352647
977.80 0.3525592
977.90 0.3524714
978.00 0.3523837
978.10 0.3522959
978.20 0.3522082
978.30 0.3521206
978.40 0.3520329
978.50 0.3519453
978.60 0.3518577
978.70 0.3517702
978.80 0.3516826
978.90 0.3515951
979.00 0.3515077
979.10 0.3514202
979.20 0.3513328
979.30 0.3512454
979.40 0.3511581
979.50 0.3510707
979.60 0.3509834
979.70 0.3508962
979.80 0.3508089
979.90 0.3507217
980.00 0.3506345
980.10 0.3505474
980.20 0.3504602
980.30 0.3503731
980.40 0.3502861
980.50 0.350199
980.60 0.350112
980.70 0.350025
980.80 0.349938
980.90 0.3498511
981.00 0.3497642
981.10 0.3496773
981.20 0.3495905
981.30 0.3495033
981.40 0.349416
981.50 0.3493286
981.60 0.3492413
981.70 0.349154
981.80 0.3490667
981.90 0.3489794
982.00 0.3488922
982.10 0.348805
982.20 0.3487179
982.30 0.3486307
982.40 0.3485436
982.50 0.3484565
982.60 0.3483695
982.70 0.3482825
982.80 0.3481955
982.90 0.3481085
983.00 0.3480216
983.10 0.3479347
983.20 0.3478478
983.30 0.3477609
983.40 0.3476741
983.50 0.3475873
983.60 0.3475005
983.70 0.3474138
983.80 0.3473271
983.90 0.3472404
984.00 0.3471538
984.10 0.3470671
984.20 0.3469805
984.30 0.346894
984.40 0.3468074
984.50 0.3467209
984.60 0.3466344
984.70 0.3465479
984.80 0.3464615
984.90 0.3463751
985.00 0.3462887
985.10 0.3462024
985.20 0.3461161
985.30 0.3460298
985.40 0.3459435
985.50 0.3458573
985.60 0.3457711
985.70 0.3456849
985.80 0.3455987
985.90 0.3455126
986.00 0.3454265
986.10 0.3453404
986.20 0.3452544
986.30 0.3451684
986.40 0.3450824
986.50 0.3449964
986.60 0.3449105
986.70 0.3448246
986.80 0.3447387
986.90 0.3446529
987.00 0.3445671
987.10 0.3444813
987.20 0.3443955
987.30 0.3443098
987.40 0.3442241
987.50 0.3441384
987.60 0.3440527
987.70 0.3439671
987.80 0.3438815
987.90 0.3437959
988.00 0.3437104
988.10 0.3436249
988.20 0.3435394
988.30 0.3434539
988.40 0.3433685
988.50 0.3432831
988.60 0.3431977
988.70 0.3431124
988.80 0.343027
988.90 0.3429417
989.00 0.3428565
989.10 0.3427712
989.20 0.342686
989.30 0.3426008
989.40 0.3425157
989.50 0.3424306
989.60 0.3423454
989.70 0.3422604
989.80 0.3421753
989.90 0.3420903
990.00 0.3420053
990.10 0.3419203
990.20 0.3418354
990.30 0.3417505
990.40 0.3416656
990.50 0.3415808
990.60 0.3414959
990.70 0.3414111
990.80 0.3413263
990.90 0.3412416
991.00 0.3411569
991.10 0.3410724
991.20 0.3409882
991.30 0.3409041
991.40 0.34082
991.50 0.340736
991.60 0.3406519
991.70 0.3405679
991.80 0.3404839
991.90 0.3404
992.00 0.340316
992.10 0.3402321
992.20 0.3401483
992.30 0.3400644
992.40 0.3399806
992.50 0.3398968
992.60 0.339813
992.70 0.3397293
992.80 0.3396456
992.90 0.3395619
993.00 0.3394782
993.10 0.3393946
993.20 0.339311
993.30 0.3392274
993.40 0.3391438
993.50 0.3390603
993.60 0.3389768
993.70 0.3388933
993.80 0.3388099
993.90 0.3387265
994.00 0.3386431
994.10 0.3385597
994.20 0.3384764
994.30 0.338393
994.40 0.3383098
994.50 0.3382265
994.60 0.3381433
994.70 0.3380601
994.80 0.3379769
994.90 0.3378937
995.00 0.3378106
995.10 0.3377275
995.20 0.3376444
995.30 0.3375614
995.40 0.3374784
995.50 0.3373954
995.60 0.3373124
995.70 0.3372295
995.80 0.3371465
995.90 0.3370636
996.00 0.3369808
996.10 0.3368968
996.20 0.3368125
996.30 0.3367283
996.40 0.3366441
996.50 0.3365599
996.60 0.3364758
996.70 0.3363917
996.80 0.3363076
996.90 0.3362235
997.00 0.3361395
997.10 0.3360555
997.20 0.3359715
997.30 0.3358875
997.40 0.3358036
997.50 0.3357197
997.60 0.3356358
997.70 0.335552
997.80 0.3354682
997.90 0.3353844
998.00 0.3353006
998.10 0.3352169
998.20 0.3351332
998.30 0.3350495
998.40 0.3349658
998.50 0.3348822
998.60 0.3347986
998.70 0.334715
998.80 0.3346315
998.90 0.3345479
999.00 0.3344644
999.10 0.334381
999.20 0.3342975
999.30 0.3342141
999.40 0.3341307
999.50 0.3340473
999.60 0.333964
999.70 0.3338807
999.80 0.3337974
999.90 0.3337142
1000.00 0.3336309
1000.10 0.3335477
1000.20 0.3334645
1000.30 0.3333814
1000.40 0.3332983
1000.50 0.3332152
1000.60 0.3331321
1000.70 0.333049
1000.80 0.332966
1000.90 0.332883
1001.00 0.3328003
1001.10 0.3327182
1001.20 0.3326362
1001.30 0.3325542
1001.40 0.3324722
1001.50 0.3323902
1001.60 0.3323083
1001.70 0.3322264
1001.80 0.3321445
1001.90 0.3320626
1002.00 0.3319808
1002.10 0.331899
1002.20 0.3318172
1002.30 0.3317354
1002.40 0.3316537
1002.50 0.331572
1002.60 0.3314903
1002.70 0.3314087
1002.80 0.331327
1002.90 0.3312454
1003.00 0.3311639
1003.10 0.3310823
1003.20 0.3310008
1003.30 0.3309193
1003.40 0.3308378
1003.50 0.3307564
1003.60 0.330675
1003.70 0.3305936
1003.80 0.3305122
1003.90 0.3304309
1004.00 0.3303495
1004.10 0.3302683
1004.20 0.330187
1004.30 0.3301057
1004.40 0.3300245
1004.50 0.3299433
1004.60 0.3298622
1004.70 0.3297811
1004.80 0.3296999
1004.90 0.3296189
1005.00 0.3295378
1005.10 0.3294568
1005.20 0.3293758
1005.30 0.3292948
1005.40 0.3292138
1005.50 0.3291329
1005.60 0.329052
1005.70 0.3289711
1005.80 0.3288903
1005.90 0.3288094
1006.00 0.3287285
1006.10 0.328647
1006.20 0.3285656
1006.30 0.3284841
1006.40 0.3284027
1006.50 0.3283214
1006.60 0.32824
1006.70 0.3281587
1006.80 0.3280774
1006.90 0.3279961
1007.00 0.3279149
1007.10 0.3278336
1007.20 0.3277524
1007.30 0.3276713
1007.40 0.3275901
1007.50 0.327509
1007.60 0.3274279
1007.70 0.3273468
1007.80 0.3272658
1007.90 0.3271848
1008.00 0.3271038
1008.10 0.3270228
1008.20 0.3269419
1008.30 0.326861
1008.40 0.3267801
1008.50 0.3266992
1008.60 0.3266184
1008.70 0.3265376
1008.80 0.3264568
1008.90 0.326376
1009.00 0.3262953
1009.10 0.3262146
1009.20 0.3261339
1009.30 0.3260533
1009.40 0.3259726
1009.50 0.325892
1009.60 0.3258115
1009.70 0.3257309
1009.80 0.3256504
1009.90 0.3255699
1010.00 0.3254894
1010.10 0.3254089
1010.20 0.3253285
1010.30 0.3252481
1010.40 0.3251677
1010.50 0.3250874
1010.60 0.3250071
1010.70 0.3249268
1010.80 0.3248465
1010.90 0.3247662
1011.00 0.324686
1011.10 0.324606
1011.20 0.324526
1011.30 0.324446
1011.40 0.324366
1011.50 0.3242861
1011.60 0.3242062
1011.70 0.3241263
1011.80 0.3240465
1011.90 0.3239666
1012.00 0.3238868
1012.10 0.323807
1012.20 0.3237273
1012.30 0.3236475
1012.40 0.3235678
1012.50 0.3234881
1012.60 0.3234085
1012.70 0.3233288
1012.80 0.3232492
1012.90 0.3231697
1013.00 0.3230901
1013.10 0.3230106
1013.20 0.3229311
1013.30 0.3228516
1013.40 0.3227721
1013.50 0.3226927
1013.60 0.3226133
1013.70 0.3225339
1013.80 0.3224545
1013.90 0.3223752
1014.00 0.3222959
1014.10 0.3222166
1014.20 0.3221374
1014.30 0.3220581
1014.40 0.3219789
1014.50 0.3218997
1014.60 0.3218206
1014.70 0.3217415
1014.80 0.3216623
1014.90 0.3215833
1015.00 0.3215042
1015.10 0.3214252
1015.20 0.3213462
1015.30 0.3212672
1015.40 0.3211882
1015.50 0.3211093
1015.60 0.3210304
1015.70 0.3209515
1015.80 0.3208726
1015.90 0.3207938
1016.00 0.320715
1016.10 0.3206358
1016.20 0.3205564
1016.30 0.3204769
1016.40 0.3203975
1016.50 0.3203182
1016.60 0.3202388
1016.70 0.3201595
1016.80 0.3200802
1016.90 0.320001
1017.00 0.3199217
1017.10 0.3198425
1017.20 0.3197633
1017.30 0.3196842
1017.40 0.319605
1017.50 0.3195259
1017.60 0.3194468
1017.70 0.3193678
1017.80 0.3192887
1017.90 0.3192097
1018.00 0.3191307
1018.10 0.3190517
1018.20 0.3189728
1018.30 0.3188939
1018.40 0.318815
1018.50 0.3187361
1018.60 0.3186573
1018.70 0.3185785
1018.80 0.3184997
1018.90 0.3184209
1019.00 0.3183422
1019.10 0.3182635
1019.20 0.3181848
1019.30 0.3181061
1019.40 0.3180275
1019.50 0.3179488
1019.60 0.3178702
1019.70 0.3177917
1019.80 0.3177131
1019.90 0.3176346
1020.00 0.3175561
1020.10 0.3174776
1020.20 0.3173992
1020.30 0.3173208
1020.40 0.3172424
1020.50 0.317164
1020.60 0.3170857
1020.70 0.3170073
1020.80 0.316929
1020.90 0.3168508
1021.00 0.3167725
1021.10 0.3166943
1021.20 0.3166163
1021.30 0.3165383
1021.40 0.3164603
1021.50 0.3163823
1021.60 0.3163044
1021.70 0.3162264
1021.80 0.3161486
1021.90 0.3160707
1022.00 0.3159929
1022.10 0.315915
1022.20 0.3158372
1022.30 0.3157595
1022.40 0.3156817
1022.50 0.315604
1022.60 0.3155263
1022.70 0.3154486
1022.80 0.315371
1022.90 0.3152934
1023.00 0.3152158
1023.10 0.3151382
1023.20 0.3150606
1023.30 0.3149831
1023.40 0.3149056
1023.50 0.3148281
1023.60 0.3147507
1023.70 0.3146733
1023.80 0.3145959
1023.90 0.3145185
1024.00 0.3144411
1024.10 0.3143638
1024.20 0.3142865
1024.30 0.3142092
1024.40 0.3141319
1024.50 0.3140547
1024.60 0.3139775
1024.70 0.3139003
1024.80 0.3138231
1024.90 0.313746
1025.00 0.3136689
1025.10 0.3135918
1025.20 0.3135147
1025.30 0.3134377
1025.40 0.3133607
1025.50 0.3132837
1025.60 0.3132067
1025.70 0.3131298
1025.80 0.3130528
1025.90 0.3129759
1026.00 0.3128991
1026.10 0.3128222
1026.20 0.3127454
1026.30 0.3126686
1026.40 0.3125918
1026.50 0.3125151
1026.60 0.3124383
1026.70 0.3123616
1026.80 0.3122849
1026.90 0.3122083
1027.00 0.3121316
1027.10 0.312055
1027.20 0.3119784
1027.30 0.3119019
1027.40 0.3118253
1027.50 0.3117488
1027.60 0.3116723
1027.70 0.3115959
1027.80 0.3115194
1027.90 0.311443
1028.00 0.3113666
1028.10 0.3112902
1028.20 0.3112139
1028.30 0.3111375
1028.40 0.3110612
1028.50 0.310985
1028.60 0.3109087
1028.70 0.3108325
1028.80 0.3107563
1028.90 0.3106801
1029.00 0.3106039
1029.10 0.3105278
1029.20 0.3104517
1029.30 0.3103756
1029.40 0.3102995
1029.50 0.3102235
1029.60 0.3101475
1029.70 0.3100715
1029.80 0.3099955
1029.90 0.3099195
1030.00 0.3098436
1030.10 0.3097677
1030.20 0.3096918
1030.30 0.309616
1030.40 0.3095402
1030.50 0.3094644
1030.60 0.3093886
1030.70 0.3093128
1030.80 0.3092371
1030.90 0.3091614
1031.00 0.3090857
1031.10 0.30901
1031.20 0.3089344
1031.30 0.3088588
1031.40 0.3087827
1031.50 0.3087066
1031.60 0.3086306
1031.70 0.3085546
1031.80 0.3084786
1031.90 0.3084026
1032.00 0.3083267
1032.10 0.3082508
1032.20 0.3081749
1032.30 0.308099
1032.40 0.3080232
1032.50 0.3079474
1032.60 0.3078716
1032.70 0.3077958
1032.80 0.30772
1032.90 0.3076443
1033.00 0.3075686
1033.10 0.3074929
1033.20 0.3074173
1033.30 0.3073416
1033.40 0.307266
1033.50 0.3071904
1033.60 0.3071149
1033.70 0.3070393
1033.80 0.3069638
1033.90 0.3068883
1034.00 0.3068129
1034.10 0.3067374
1034.20 0.306662
1034.30 0.3065866
1034.40 0.3065112
1034.50 0.3064359
1034.60 0.3063605
1034.70 0.3062852
1034.80 0.3062099
1034.90 0.3061347
1035.00 0.3060594
1035.10 0.3059842
1035.20 0.305909
1035.30 0.3058339
1035.40 0.3057587
1035.50 0.3056836
1035.60 0.3056085
1035.70 0.3055335
1035.80 0.3054584
1035.90 0.3053834
1036.00 0.3053084
1036.10 0.3052334
1036.20 0.3051584
1036.30 0.3050835
1036.40 0.3050086
1036.50 0.3049337
1036.60 0.3048588
1036.70 0.304784
1036.80 0.3047092
1036.90 0.3046344
1037.00 0.3045596
1037.10 0.3044849
1037.20 0.3044101
1037.30 0.3043354
1037.40 0.3042608
1037.50 0.3041861
1037.60 0.3041115
1037.70 0.3040369
1037.80 0.3039623
1037.90 0.3038877
1038.00 0.3038132
1038.10 0.3037386
1038.20 0.3036641
1038.30 0.3035897
1038.40 0.3035152
1038.50 0.3034408
1038.60 0.3033664
1038.70 0.303292
1038.80 0.3032177
1038.90 0.3031433
1039.00 0.303069
1039.10 0.3029947
1039.20 0.3029205
1039.30 0.3028462
1039.40 0.302772
1039.50 0.3026978
1039.60 0.3026236
1039.70 0.3025495
1039.80 0.3024753
1039.90 0.3024012
1040.00 0.3023272
1040.10 0.3022531
1040.20 0.3021791
1040.30 0.3021051
1040.40 0.3020311
1040.50 0.3019571
1040.60 0.3018832
1040.70 0.3018092
1040.80 0.3017353
1040.90 0.3016615
1041.00 0.3015876
1041.10 0.3015138
1041.20 0.30144
1041.30 0.3013662
1041.40 0.3012924
1041.50 0.3012187
1041.60 0.301145
1041.70 0.3010714
1041.80 0.3009979
1041.90 0.3009244
1042.00 0.3008509
1042.10 0.3007775
1042.20 0.3007041
1042.30 0.3006307
1042.40 0.3005573
1042.50 0.3004839
1042.60 0.3004106
1042.70 0.3003373
1042.80 0.300264
1042.90 0.3001907
1043.00 0.3001175
1043.10 0.3000443
1043.20 0.2999711
1043.30 0.2998979
1043.40 0.2998248
1043.50 0.2997516
1043.60 0.2996785
1043.70 0.2996054
1043.80 0.2995324
1043.90 0.2994593
1044.00 0.2993863
1044.10 0.2993133
1044.20 0.2992404
1044.30 0.2991674
1044.40 0.2990945
1044.50 0.2990216
1044.60 0.2989487
1044.70 0.2988758
1044.80 0.298803
1044.90 0.2987302
1045.00 0.2986574
1045.10 0.2985846
1045.20 0.2985119
1045.30 0.2984392
1045.40 0.2983665
1045.50 0.2982938
1045.60 0.2982211
1045.70 0.2981485
1045.80 0.2980759
1045.90 0.2980033
1046.00 0.2979307
1046.10 0.2978582
1046.20 0.2977857
1046.30 0.2977132
1046.40 0.2976407
1046.50 0.2975682
1046.60 0.2974958
1046.70 0.2974234
1046.80 0.297351
1046.90 0.2972781
1047.00 0.2972052
1047.10 0.2971322
1047.20 0.2970593
1047.30 0.2969864
1047.40 0.2969135
1047.50 0.2968407
1047.60 0.2967678
1047.70 0.296695
1047.80 0.2966222
1047.90 0.2965495
1048.00 0.2964767
1048.10 0.296404
1048.20 0.2963313
1048.30 0.2962586
1048.40 0.296186
1048.50 0.2961134
1048.60 0.2960407
1048.70 0.2959682
1048.80 0.2958956
1048.90 0.2958231
1049.00 0.2957505
1049.10 0.295678
1049.20 0.2956056
1049.30 0.2955331
1049.40 0.2954607
1049.50 0.2953883
1049.60 0.2953159
1049.70 0.2952435
1049.80 0.2951712
1049.90 0.2950988
1050.00 0.2950266
1050.10 0.2949543
1050.20 0.294882
1050.30 0.2948098
1050.40 0.2947376
1050.50 0.2946654
1050.60 0.2945932
1050.70 0.2945211
1050.80 0.294449
1050.90 0.2943769
1051.00 0.2943048
1051.10 0.2942327
1051.20 0.2941607
1051.30 0.2940887
1051.40 0.2940167
1051.50 0.2939447
1051.60 0.2938728
1051.70 0.2938009
1051.80 0.293729
1051.90 0.2936571
1052.00 0.2935852
1052.10 0.2935135
1052.20 0.2934419
1052.30 0.2933702
1052.40 0.2932986
1052.50 0.293227
1052.60 0.2931555
1052.70 0.2930839
1052.80 0.2930124
1052.90 0.2929409
1053.00 0.2928694
1053.10 0.292798
1053.20 0.2927265
1053.30 0.2926551
1053.40 0.2925837
1053.50 0.2925124
1053.60 0.292441
1053.70 0.2923697
1053.80 0.2922984
1053.90 0.2922271
1054.00 0.2921559
1054.10 0.2920846
1054.20 0.2920134
1054.30 0.2919422
1054.40 0.291871
1054.50 0.2917999
1054.60 0.2917288
1054.70 0.2916577
1054.80 0.2915866
1054.90 0.2915155
1055.00 0.2914445
1055.10 0.2913735
1055.20 0.2913025
1055.30 0.2912315
1055.40 0.2911605
1055.50 0.2910896
1055.60 0.2910187
1055.70 0.2909478
1055.80 0.2908769
1055.90 0.2908061
1056.00 0.2907353
1056.10 0.2906645
1056.20 0.2905937
1056.30 0.2905229
1056.40 0.2904522
1056.50 0.2903815
1056.60 0.2903108
1056.70 0.2902401
1056.80 0.2901694
1056.90 0.2900988
1057.00 0.2900282
1057.10 0.2899576
1057.20 0.289887
1057.30 0.2898165
1057.40 0.289746
1057.50 0.2896755
1057.60 0.289605
1057.70 0.2895345
1057.80 0.2894641
1057.90 0.2893937
1058.00 0.2893233
1058.10 0.2892529
1058.20 0.2891826
1058.30 0.2891122
1058.40 0.2890419
1058.50 0.2889716
1058.60 0.2889014
1058.70 0.2888311
1058.80 0.2887609
1058.90 0.2886907
1059.00 0.2886205
1059.10 0.2885504
1059.20 0.2884802
1059.30 0.2884101
1059.40 0.28834
1059.50 0.28827
1059.60 0.2881999
1059.70 0.2881299
1059.80 0.2880599
1059.90 0.2879899
1060.00 0.2879199
1060.10 0.28785
1060.20 0.28778
1060.30 0.2877101
1060.40 0.2876402
1060.50 0.2875704
1060.60 0.2875006
1060.70 0.2874307
1060.80 0.2873609
1060.90 0.2872912
1061.00 0.2872214
1061.10 0.2871517
1061.20 0.287082
1061.30 0.2870123
1061.40 0.2869426
1061.50 0.286873
1061.60 0.2868033
1061.70 0.2867337
1061.80 0.2866641
1061.90 0.2865946
1062.00 0.286525
1062.10 0.2864555
1062.20 0.286386
1062.30 0.2863165
1062.40 0.2862471
1062.50 0.2861776
1062.60 0.286108
1062.70 0.2860382
1062.80 0.2859684
1062.90 0.2858986
1063.00 0.2858288
1063.10 0.2857591
1063.20 0.2856893
1063.30 0.2856196
1063.40 0.2855499
1063.50 0.2854803
1063.60 0.2854106
1063.70 0.285341
1063.80 0.2852714
1063.90 0.2852018
1064.00 0.2851323
1064.10 0.2850627
1064.20 0.2849932
1064.30 0.2849237
1064.40 0.2848542
1064.50 0.2847848
1064.60 0.2847154
1064.70 0.2846459
1064.80 0.2845766
1064.90 0.2845072
1065.00 0.2844378
1065.10 0.2843685
1065.20 0.2842992
1065.30 0.2842299
1065.40 0.2841607
1065.50 0.2840914
1065.60 0.2840222
1065.70 0.283953
1065.80 0.2838838
1065.90 0.2838147
1066.00 0.2837455
1066.10 0.2836764
1066.20 0.2836073
1066.30 0.2835382
1066.40 0.2834692
1066.50 0.2834001
1066.60 0.2833311
1066.70 0.2832621
1066.80 0.2831932
1066.90 0.2831242
1067.00 0.2830553
1067.10 0.2829864
1067.20 0.2829175
1067.30 0.2828486
1067.40 0.2827798
1067.50 0.282711
1067.60 0.2826421
1067.70 0.2825734
1067.80 0.2825046
1067.90 0.2824359
1068.00 0.2823671
1068.10 0.2822984
1068.20 0.2822298
1068.30 0.2821611
1068.40 0.2820924
1068.50 0.2820238
1068.60 0.2819552
1068.70 0.2818867
1068.80 0.2818181
1068.90 0.2817496
1069.00 0.281681
1069.10 0.2816125
1069.20 0.2815441
1069.30 0.2814756
1069.40 0.2814072
1069.50 0.2813388
1069.60 0.2812704
1069.70 0.281202
1069.80 0.2811337
1069.90 0.2810653
1070.00 0.280997
1070.10 0.2809287
1070.20 0.2808605
1070.30 0.2807922
1070.40 0.280724
1070.50 0.2806558
1070.60 0.2805876
1070.70 0.2805194
1070.80 0.2804513
1070.90 0.2803832
1071.00 0.2803151
1071.10 0.280247
1071.20 0.2801789
1071.30 0.2801109
1071.40 0.2800428
1071.50 0.2799748
1071.60 0.2799069
1071.70 0.2798389
1071.80 0.279771
1071.90 0.279703
1072.00 0.2796351
1072.10 0.2795673
1072.20 0.2794994
1072.30 0.2794316
1072.40 0.2793638
1072.50 0.279296
1072.60 0.2792282
1072.70 0.2791604
1072.80 0.2790927
1072.90 0.279025
1073.00 0.2789573
1073.10 0.2788896
1073.20 0.278822
1073.30 0.2787545
1073.40 0.2786871
1073.50 0.2786196
1073.60 0.2785522
1073.70 0.2784848
1073.80 0.2784174
1073.90 0.2783501
1074.00 0.2782828
1074.10 0.2782154
1074.20 0.2781482
1074.30 0.2780809
1074.40 0.2780136
1074.50 0.2779464
1074.60 0.2778792
1074.70 0.277812
1074.80 0.2777448
1074.90 0.2776777
1075.00 0.2776105
1075.10 0.2775434
1075.20 0.2774763
1075.30 0.2774093
1075.40 0.2773422
1075.50 0.2772752
1075.60 0.2772082
1075.70 0.2771412
1075.80 0.2770742
1075.90 0.2770073
1076.00 0.2769403
1076.10 0.2768734
1076.20 0.2768065
1076.30 0.2767397
1076.40 0.2766728
1076.50 0.276606
1076.60 0.2765392
1076.70 0.2764724
1076.80 0.2764056
1076.90 0.2763389
1077.00 0.2762721
1077.10 0.2762054
1077.20 0.2761387
1077.30 0.2760721
1077.40 0.2760054
1077.50 0.2759388
1077.60 0.2758722
1077.70 0.2758056
1077.80 0.275739
1077.90 0.2756725
1078.00 0.2756059
1078.10 0.2755394
1078.20 0.2754729
1078.30 0.2754065
1078.40 0.27534
1078.50 0.2752736
1078.60 0.2752069
1078.70 0.2751399
1078.80 0.275073
1078.90 0.2750061
1079.00 0.2749392
1079.10 0.2748723
1079.20 0.2748054
1079.30 0.2747386
1079.40 0.2746718
1079.50 0.274605
1079.60 0.2745382
1079.70 0.2744714
1079.80 0.2744047
1079.90 0.274338
1080.00 0.2742713
1080.10 0.2742046
1080.20 0.2741379
1080.30 0.2740713
1080.40 0.2740047
1080.50 0.2739381
1080.60 0.2738715
1080.70 0.2738049
1080.80 0.2737384
1080.90 0.2736719
1081.00 0.2736054
1081.10 0.2735389
1081.20 0.2734724
1081.30 0.273406
1081.40 0.2733396
1081.50 0.2732732
1081.60 0.2732068
1081.70 0.2731404
1081.80 0.2730741
1081.90 0.2730078
1082.00 0.2729415
1082.10 0.2728752
1082.20 0.2728089
1082.30 0.2727427
1082.40 0.2726765
1082.50 0.2726103
1082.60 0.2725441
1082.70 0.2724779
1082.80 0.2724118
1082.90 0.2723457
1083.00 0.2722796
1083.10 0.2722135
1083.20 0.2721474
1083.30 0.2720814
1083.40 0.2720154
1083.50 0.2719494
1083.60 0.2718834
1083.70 0.2718174
1083.80 0.2717515
1083.90 0.2716856
1084.00 0.2716198
1084.10 0.2715541
1084.20 0.2714884
1084.30 0.2714227
1084.40 0.271357
1084.50 0.2712913
1084.60 0.2712257
1084.70 0.2711601
1084.80 0.2710945
1084.90 0.2710289
1085.00 0.2709634
1085.10 0.2708979
1085.20 0.2708323
1085.30 0.2707669
1085.40 0.2707014
1085.50 0.2706359
1085.60 0.2705705
1085.70 0.2705051
1085.80 0.2704397
1085.90 0.2703743
1086.00 0.270309
1086.10 0.2702436
1086.20 0.2701783
1086.30 0.270113
1086.40 0.2700477
1086.50 0.2699825
1086.60 0.2699172
1086.70 0.269852
1086.80 0.2697868
1086.90 0.2697216
1087.00 0.2696565
1087.10 0.2695913
1087.20 0.2695262
1087.30 0.2694611
1087.40 0.269396
1087.50 0.2693309
1087.60 0.2692659
1087.70 0.2692009
1087.80 0.2691359
1087.90 0.2690709
1088.00 0.2690059
1088.10 0.268941
1088.20 0.268876
1088.30 0.2688111
1088.40 0.2687462
1088.50 0.2686814
1088.60 0.2686165
1088.70 0.2685517
1088.80 0.2684869
1088.90 0.2684221
1089.00 0.2683573
1089.10 0.2682925
1089.20 0.2682278
1089.30 0.2681631
1089.40 0.2680984
1089.50 0.2680337
1089.60 0.267969
1089.70 0.2679044
1089.80 0.2678398
1089.90 0.2677752
1090.00 0.2677106
1090.10 0.267646
1090.20 0.2675815
1090.30 0.2675169
1090.40 0.2674524
1090.50 0.267388
1090.60 0.2673235
1090.70 0.267259
1090.80 0.2671946
1090.90 0.2671302
1091.00 0.2670658
1091.10 0.2670014
1091.20 0.2669371
1091.30 0.2668727
1091.40 0.2668084
1091.50 0.2667441
1091.60 0.2666798
1091.70 0.2666156
1091.80 0.2665513
1091.90 0.2664871
1092.00 0.2664229
1092.10 0.2663587
1092.20 0.2662946
1092.30 0.2662304
1092.40 0.2661663
1092.50 0.2661022
1092.60 0.2660381
1092.70 0.265974
1092.80 0.26591
1092.90 0.2658459
1093.00 0.2657819
1093.10 0.2657179
1093.20 0.265654
1093.30 0.26559
1093.40 0.2655261
1093.50 0.2654621
1093.60 0.2653982
1093.70 0.2653344
1093.80 0.2652705
1093.90 0.2652067
1094.00 0.2651428
1094.10 0.265079
1094.20 0.2650152
1094.30 0.2649515
1094.40 0.2648877
1094.50 0.264824
1094.60 0.2647603
1094.70 0.2646966
1094.80 0.2646329
1094.90 0.2645691
1095.00 0.2645053
1095.10 0.2644416
1095.20 0.2643779
1095.30 0.2643142
1095.40 0.2642505
1095.50 0.2641869
1095.60 0.2641232
1095.70 0.2640596
1095.80 0.263996
1095.90 0.2639324
1096.00 0.2638689
1096.10 0.2638053
1096.20 0.2637418
1096.30 0.2636783
1096.40 0.2636148
1096.50 0.2635513
1096.60 0.2634879
1096.70 0.2634245
1096.80 0.263361
1096.90 0.2632976
1097.00 0.2632343
1097.10 0.2631709
1097.20 0.2631076
1097.30 0.2630443
1097.40 0.262981
1097.50 0.2629177
1097.60 0.2628544
1097.70 0.2627912
1097.80 0.2627279
1097.90 0.2626647
1098.00 0.2626015
1098.10 0.2625384
1098.20 0.2624752
1098.30 0.2624121
1098.40 0.262349
1098.50 0.2622859
1098.60 0.2622228
1098.70 0.2621598
1098.80 0.2620967
1098.90 0.2620337
1099.00 0.2619707
1099.10 0.2619077
1099.20 0.2618447
1099.30 0.2617818
1099.40 0.2617189
1099.50 0.261656
1099.60 0.2615931
1099.70 0.2615302
1099.80 0.2614673
1099.90 0.2614045
1100.00 0.2613417
1100.10 0.2612789
1100.20 0.2612161
1100.30 0.2611534
1100.40 0.2610906
1100.50 0.2610279
1100.60 0.2609652
1100.70 0.2609025
1100.80 0.2608398
1100.90 0.2607772
1101.00 0.2607145
1101.10 0.2606519
1101.20 0.2605893
1101.30 0.2605268
1101.40 0.2604642
1101.50 0.2604017
1101.60 0.2603391
1101.70 0.2602766
1101.80 0.2602142
1101.90 0.2601517
1102.00 0.2600892
1102.10 0.2600268
1102.20 0.2599644
1102.30 0.259902
1102.40 0.2598396
1102.50 0.2597773
1102.60 0.2597149
1102.70 0.2596526
1102.80 0.2595903
1102.90 0.259528
1103.00 0.2594658
1103.10 0.2594035
1103.20 0.2593413
1103.30 0.2592791
1103.40 0.2592169
1103.50 0.2591547
1103.60 0.2590926
1103.70 0.2590304
1103.80 0.2589683
1103.90 0.2589062
1104.00 0.2588441
1104.10 0.2587821
1104.20 0.25872
1104.30 0.258658
1104.40 0.258596
1104.50 0.258534
1104.60 0.258472
1104.70 0.2584101
1104.80 0.2583481
1104.90 0.2582862
1105.00 0.2582243
1105.10 0.2581625
1105.20 0.2581006
1105.30 0.2580387
1105.40 0.2579769
1105.50 0.2579151
1105.60 0.2578533
1105.70 0.2577915
1105.80 0.2577297
1105.90 0.2576678
1106.00 0.257606
1106.10 0.2575442
1106.20 0.2574824
1106.30 0.2574206
1106.40 0.2573589
1106.50 0.2572971
1106.60 0.2572354
1106.70 0.2571737
1106.80 0.257112
1106.90 0.2570503
1107.00 0.2569887
1107.10 0.2569271
1107.20 0.2568654
1107.30 0.2568038
1107.40 0.2567423
1107.50 0.2566807
1107.60 0.2566192
1107.70 0.2565576
1107.80 0.2564961
1107.90 0.2564346
1108.00 0.2563732
1108.10 0.2563117
1108.20 0.2562503
1108.30 0.2561889
1108.40 0.2561275
1108.50 0.2560661
1108.60 0.2560047
1108.70 0.2559434
1108.80 0.2558821
1108.90 0.2558208
1109.00 0.2557595
1109.10 0.2556982
1109.20 0.2556369
1109.30 0.2555757
1109.40 0.2555145
1109.50 0.2554533
1109.60 0.2553921
1109.70 0.2553309
1109.80 0.2552698
1109.90 0.2552087
1110.00 0.2551476
1110.10 0.2550865
1110.20 0.2550254
1110.30 0.2549643
1110.40 0.2549033
1110.50 0.2548423
1110.60 0.2547813
1110.70 0.2547203
1110.80 0.2546593
1110.90 0.2545984
1111.00 0.2545374
1111.10 0.2544765
1111.20 0.2544156
1111.30 0.2543547
1111.40 0.2542939
1111.50 0.254233
1111.60 0.2541722
1111.70 0.2541114
1111.80 0.2540506
1111.90 0.2539898
1112.00 0.2539291
1112.10 0.2538684
1112.20 0.2538076
1112.30 0.2537469
1112.40 0.2536863
1112.50 0.2536256
1112.60 0.2535649
1112.70 0.2535043
1112.80 0.2534437
1112.90 0.2533831
1113.00 0.2533225
1113.10 0.253262
1113.20 0.2532014
1113.30 0.2531409
1113.40 0.2530804
1113.50 0.2530199
1113.60 0.2529594
1113.70 0.252899
1113.80 0.2528385
1113.90 0.2527781
1114.00 0.2527177
1114.10 0.2526573
1114.20 0.252597
1114.30 0.2525366
1114.40 0.2524763
1114.50 0.252416
1114.60 0.2523557
1114.70 0.2522954
1114.80 0.2522352
1114.90 0.2521749
1115.00 0.2521147
1115.10 0.2520545
1115.20 0.2519943
1115.30 0.2519341
1115.40 0.251874
1115.50 0.2518138
1115.60 0.2517537
1115.70 0.2516936
1115.80 0.2516335
1115.90 0.2515734
1116.00 0.2515134
1116.10 0.2514534
1116.20 0.2513934
1116.30 0.2513334
1116.40 0.2512734
1116.50 0.2512134
1116.60 0.2511535
1116.70 0.2510935
1116.80 0.2510335
1116.90 0.2509732
1117.00 0.250913
1117.10 0.2508528
1117.20 0.2507926
1117.30 0.2507324
1117.40 0.2506722
1117.50 0.2506121
1117.60 0.2505519
1117.70 0.2504918
1117.80 0.2504317
1117.90 0.2503716
1118.00 0.2503116
1118.10 0.2502515
1118.20 0.2501915
1118.30 0.2501315
1118.40 0.2500715
1118.50 0.2500115
1118.60 0.2499516
1118.70 0.2498916
1118.80 0.2498317
1118.90 0.2497718
1119.00 0.2497119
1119.10 0.249652
1119.20 0.2495922
1119.30 0.2495324
1119.40 0.2494725
1119.50 0.2494127
1119.60 0.249353
1119.70 0.2492932
1119.80 0.2492334
1119.90 0.2491737
1120.00 0.249114
1120.10 0.2490543
1120.20 0.2489946
1120.30 0.248935
1120.40 0.2488753
1120.50 0.2488157
1120.60 0.2487561
1120.70 0.2486965
1120.80 0.2486369
1120.90 0.2485774
1121.00 0.2485178
1121.10 0.2484583
1121.20 0.2483988
1121.30 0.2483393
1121.40 0.2482798
1121.50 0.2482204
1121.60 0.248161
1121.70 0.2481015
1121.80 0.2480421
1121.90 0.2479827
1122.00 0.2479234
1122.10 0.247864
1122.20 0.2478047
1122.30 0.2477454
1122.40 0.2476864
1122.50 0.2476276
1122.60 0.2475688
1122.70 0.2475101
1122.80 0.2474514
1122.90 0.2473927
1123.00 0.247334
1123.10 0.2472753
1123.20 0.2472166
1123.30 0.247158
1123.40 0.2470994
1123.50 0.2470408
1123.60 0.2469822
1123.70 0.2469236
1123.80 0.246865
1123.90 0.2468065
1124.00 0.246748
1124.10 0.2466895
1124.20 0.246631
1124.30 0.2465725
1124.40 0.246514
1124.50 0.2464556
1124.60 0.2463972
1124.70 0.2463388
1124.80 0.2462804
1124.90 0.246222
1125.00 0.2461636
1125.10 0.2461053
1125.20 0.246047
1125.30 0.2459887
1125.40 0.2459304
1125.50 0.2458721
1125.60 0.2458139
1125.70 0.2457556
1125.80 0.2456974
1125.90 0.2456392
1126.00 0.245581
1126.10 0.2455229
1126.20 0.2454647
1126.30 0.2454066
1126.40 0.2453484
1126.50 0.2452903
1126.60 0.2452322
1126.70 0.2451742
1126.80 0.2451161
1126.90 0.2450581
1127.00 0.2450001
1127.10 0.2449421
1127.20 0.2448841
1127.30 0.2448261
1127.40 0.2447682
1127.50 0.2447102
1127.60 0.2446523
1127.70 0.2445944
1127.80 0.2445365
1127.90 0.2444786
1128.00 0.2444205
1128.10 0.2443623
1128.20 0.2443042
1128.30 0.244246
1128.40 0.2441879
1128.50 0.2441298
1128.60 0.2440717
1128.70 0.2440136
1128.80 0.2439555
1128.90 0.2438975
1129.00 0.2438394
1129.10 0.2437814
1129.20 0.2437234
1129.30 0.2436654
1129.40 0.2436075
1129.50 0.2435495
1129.60 0.2434916
1129.70 0.2434337
1129.80 0.2433758
1129.90 0.2433179
1130.00 0.24326
1130.10 0.2432022
1130.20 0.2431443
1130.30 0.2430865
1130.40 0.2430287
1130.50 0.2429709
1130.60 0.2429132
1130.70 0.2428554
1130.80 0.2427977
1130.90 0.24274
1131.00 0.2426823
1131.10 0.2426246
1131.20 0.2425669
1131.30 0.2425093
1131.40 0.2424516
1131.50 0.242394
1131.60 0.2423364
1131.70 0.2422788
1131.80 0.2422213
1131.90 0.2421637
1132.00 0.2421062
1132.10 0.2420487
1132.20 0.2419912
1132.30 0.2419337
1132.40 0.2418762
1132.50 0.2418188
1132.60 0.2417613
1132.70 0.2417039
1132.80 0.2416465
1132.90 0.2415891
1133.00 0.2415318
1133.10 0.2414744
1133.20 0.2414171
1133.30 0.2413597
1133.40 0.2413024
1133.50 0.2412452
1133.60 0.2411879
1133.70 0.2411306
1133.80 0.2410734
1133.90 0.2410162
1134.00 0.240959
1134.10 0.2409018
1134.20 0.2408446
1134.30 0.2407875
1134.40 0.2407303
1134.50 0.2406732
1134.60 0.2406161
1134.70 0.240559
1134.80 0.2405019
1134.90 0.2404449
1135.00 0.2403878
1135.10 0.2403308
1135.20 0.2402738
1135.30 0.2402168
1135.40 0.2401598
1135.50 0.2401029
1135.60 0.2400459
1135.70 0.239989
1135.80 0.2399321
1135.90 0.2398752
1136.00 0.2398183
1136.10 0.2397615
1136.20 0.2397046
1136.30 0.2396478
1136.40 0.239591
1136.50 0.2395342
1136.60 0.2394774
1136.70 0.2394206
1136.80 0.2393639
1136.90 0.2393072
1137.00 0.2392505
1137.10 0.2391938
1137.20 0.2391371
1137.30 0.2390804
1137.40 0.2390238
1137.50 0.2389671
1137.60 0.2389105
1137.70 0.2388539
1137.80 0.2387973
1137.90 0.2387408
1138.00 0.2386842
1138.10 0.2386277
1138.20 0.2385712
1138.30 0.2385146
1138.40 0.2384582
1138.50 0.2384017
1138.60 0.2383452
1138.70 0.2382888
1138.80 0.2382324
1138.90 0.238176
1139.00 0.2381196
1139.10 0.2380632
1139.20 0.2380068
1139.30 0.2379504
1139.40 0.237894
1139.50 0.2378376
1139.60 0.2377812
1139.70 0.2377248
1139.80 0.2376685
1139.90 0.2376121
1140.00 0.2375558
1140.10 0.2374995
1140.20 0.2374432
1140.30 0.2373869
1140.40 0.2373306
1140.50 0.2372744
1140.60 0.2372182
1140.70 0.237162
1140.80 0.2371058
1140.90 0.2370496
1141.00 0.2369934
1141.10 0.2369373
1141.20 0.2368811
1141.30 0.236825
1141.40 0.2367689
1141.50 0.2367128
1141.60 0.2366568
1141.70 0.2366007
1141.80 0.2365447
1141.90 0.2364886
1142.00 0.2364326
1142.10 0.2363766
1142.20 0.2363207
1142.30 0.2362647
1142.40 0.2362088
1142.50 0.2361529
1142.60 0.2360969
1142.70 0.236041
1142.80 0.2359852
1142.90 0.2359293
1143.00 0.2358735
1143.10 0.2358176
1143.20 0.2357618
1143.30 0.235706
1143.40 0.2356502
1143.50 0.2355945
1143.60 0.2355387
1143.70 0.235483
1143.80 0.2354273
1143.90 0.2353716
1144.00 0.2353159
1144.10 0.2352602
1144.20 0.2352046
1144.30 0.2351489
1144.40 0.2350933
1144.50 0.2350377
1144.60 0.2349821
1144.70 0.2349265
1144.80 0.234871
1144.90 0.2348154
1145.00 0.2347599
1145.10 0.2347044
1145.20 0.2346489
1145.30 0.2345934
1145.40 0.2345379
1145.50 0.2344825
1145.60 0.2344271
1145.70 0.2343716
1145.80 0.2343162
1145.90 0.2342608
1146.00 0.2342055
1146.10 0.2341501
1146.20 0.2340948
1146.30 0.2340395
1146.40 0.2339842
1146.50 0.2339289
1146.60 0.2338736
1146.70 0.2338183
1146.80 0.2337631
1146.90 0.2337079
1147.00 0.2336526
1147.10 0.2335974
1147.20 0.2335423
1147.30 0.2334871
1147.40 0.2334319
1147.50 0.2333768
1147.60 0.2333217
1147.70 0.2332666
1147.80 0.2332115
1147.90 0.2331564
1148.00 0.2331014
1148.10 0.2330463
1148.20 0.2329913
1148.30 0.2329363
1148.40 0.2328813
1148.50 0.2328263
1148.60 0.2327714
1148.70 0.2327164
1148.80 0.2326615
1148.90 0.2326066
1149.00 0.2325517
1149.10 0.2324968
1149.20 0.2324419
1149.30 0.2323871
1149.40 0.2323322
1149.50 0.2322774
1149.60 0.2322226
1149.70 0.2321678
1149.80 0.232113
1149.90 0.2320583
1150.00 0.2320035
1150.10 0.2319488
1150.20 0.2318941
1150.30 0.2318394
1150.40 0.2317847
1150.50 0.23173
1150.60 0.2316754
1150.70 0.2316207
1150.80 0.2315659
1150.90 0.2315112
1151.00 0.2314566
1151.10 0.2314019
1151.20 0.2313472
1151.30 0.2312926
1151.40 0.231238
1151.50 0.2311834
1151.60 0.2311288
1151.70 0.2310742
1151.80 0.2310197
1151.90 0.2309651
1152.00 0.2309106
1152.10 0.2308561
1152.20 0.2308016
1152.30 0.2307471
1152.40 0.2306926
1152.50 0.2306382
1152.60 0.2305837
1152.70 0.2305293
1152.80 0.2304749
1152.90 0.2304205
1153.00 0.2303662
1153.10 0.2303118
1153.20 0.2302575
1153.30 0.2302031
1153.40 0.2301488
1153.50 0.2300945
1153.60 0.2300402
1153.70 0.229986
1153.80 0.2299317
1153.90 0.2298775
1154.00 0.2298233
1154.10 0.2297691
1154.20 0.2297149
1154.30 0.2296607
1154.40 0.2296065
1154.50 0.2295524
1154.60 0.2294983
1154.70 0.2294442
1154.80 0.2293901
1154.90 0.229336
1155.00 0.2292819
1155.10 0.2292279
1155.20 0.2291738
1155.30 0.2291198
1155.40 0.2290658
1155.50 0.2290118
1155.60 0.2289578
1155.70 0.2289039
1155.80 0.2288499
1155.90 0.228796
1156.00 0.2287421
1156.10 0.2286882
1156.20 0.2286343
1156.30 0.2285804
1156.40 0.2285266
1156.50 0.2284728
1156.60 0.2284189
1156.70 0.2283651
1156.80 0.2283114
1156.90 0.2282576
1157.00 0.2282038
1157.10 0.2281501
1157.20 0.2280964
1157.30 0.2280426
1157.40 0.2279889
1157.50 0.2279353
1157.60 0.2278816
1157.70 0.2278279
1157.80 0.2277743
1157.90 0.2277207
1158.00 0.2276671
1158.10 0.2276135
1158.20 0.2275599
1158.30 0.2275064
1158.40 0.2274528
1158.50 0.2273993
1158.60 0.2273458
1158.70 0.2272923
1158.80 0.2272388
1158.90 0.2271853
1159.00 0.2271319
1159.10 0.2270784
1159.20 0.227025
1159.30 0.2269716
1159.40 0.2269182
1159.50 0.2268648
1159.60 0.2268114
1159.70 0.2267581
1159.80 0.2267048
1159.90 0.2266514
1160.00 0.2265981
1160.10 0.2265449
1160.20 0.2264916
1160.30 0.2264383
1160.40 0.2263851
1160.50 0.2263318
1160.60 0.2262786
1160.70 0.2262254
1160.80 0.2261722
1160.90 0.2261191
1161.00 0.2260659
1161.10 0.2260128
1161.20 0.2259597
1161.30 0.2259066
1161.40 0.2258535
1161.50 0.2258004
1161.60 0.2257473
1161.70 0.2256943
1161.80 0.2256412
1161.90 0.2255882
1162.00 0.2255352
1162.10 0.2254822
1162.20 0.2254289
1162.30 0.2253756
1162.40 0.2253224
1162.50 0.2252691
1162.60 0.2252159
1162.70 0.2251627
1162.80 0.2251095
1162.90 0.2250563
1163.00 0.2250031
1163.10 0.22495
1163.20 0.2248968
1163.30 0.2248437
1163.40 0.2247906
1163.50 0.2247375
1163.60 0.2246844
1163.70 0.2246313
1163.80 0.2245783
1163.90 0.2245253
1164.00 0.2244722
1164.10 0.2244192
1164.20 0.2243662
1164.30 0.2243133
1164.40 0.2242603
1164.50 0.2242073
1164.60 0.2241544
1164.70 0.2241015
1164.80 0.2240486
1164.90 0.2239957
1165.00 0.2239428
1165.10 0.22389
1165.20 0.2238371
1165.30 0.2237843
1165.40 0.2237315
1165.50 0.2236787
1165.60 0.2236259
1165.70 0.2235731
1165.80 0.2235204
1165.90 0.2234676
1166.00 0.2234149
1166.10 0.2233622
1166.20 0.2233095
1166.30 0.2232568
1166.40 0.2232042
1166.50 0.2231515
1166.60 0.2230989
1166.70 0.2230463
1166.80 0.2229936
1166.90 0.2229411
1167.00 0.2228885
1167.10 0.2228359
1167.20 0.2227834
1167.30 0.2227308
1167.40 0.2226783
1167.50 0.2226258
1167.60 0.2225733
1167.70 0.2225208
1167.80 0.2224684
1167.90 0.2224159
1168.00 0.2223639
1168.10 0.222312
1168.20 0.22226
1168.30 0.2222081
1168.40 0.2221561
1168.50 0.2221042
1168.60 0.2220523
1168.70 0.2220005
1168.80 0.2219486
1168.90 0.2218968
1169.00 0.2218449
1169.10 0.2217931
1169.20 0.2217413
1169.30 0.2216895
1169.40 0.2216377
1169.50 0.221586
1169.60 0.2215342
1169.70 0.2214825
1169.80 0.2214308
1169.90 0.2213791
1170.00 0.2213274
1170.10 0.2212757
1170.20 0.221224
1170.30 0.2211724
1170.40 0.2211208
1170.50 0.2210691
1170.60 0.2210175
1170.70 0.220966
1170.80 0.2209144
1170.90 0.2208628
1171.00 0.2208113
1171.10 0.2207597
1171.20 0.2207082
1171.30 0.2206567
1171.40 0.2206052
1171.50 0.2205538
1171.60 0.2205023
1171.70 0.2204509
1171.80 0.2203994
1171.90 0.220348
1172.00 0.2202966
1172.10 0.2202452
1172.20 0.2201938
1172.30 0.2201425
1172.40 0.2200911
1172.50 0.2200398
1172.60 0.2199885
1172.70 0.2199372
1172.80 0.2198859
1172.90 0.2198346
1173.00 0.2197834
1173.10 0.2197321
1173.20 0.2196809
1173.30 0.2196297
1173.40 0.2195785
1173.50 0.2195273
1173.60 0.2194761
1173.70 0.219425
1173.80 0.2193736
1173.90 0.2193221
1174.00 0.2192707
1174.10 0.2192193
1174.20 0.2191679
1174.30 0.2191165
1174.40 0.2190652
1174.50 0.2190138
1174.60 0.2189625
1174.70 0.2189112
1174.80 0.2188599
1174.90 0.2188086
1175.00 0.2187573
1175.10 0.218706
1175.20 0.2186548
1175.30 0.2186035
1175.40 0.2185523
1175.50 0.2185011
1175.60 0.2184499
1175.70 0.2183987
1175.80 0.2183476
1175.90 0.2182964
1176.00 0.2182453
1176.10 0.2181942
1176.20 0.2181431
1176.30 0.218092
1176.40 0.2180409
1176.50 0.2179898
1176.60 0.2179388
1176.70 0.2178877
1176.80 0.2178367
1176.90 0.2177857
1177.00 0.2177347
1177.10 0.2176837
1177.20 0.2176328
1177.30 0.2175818
1177.40 0.2175309
1177.50 0.21748
1177.60 0.217429
1177.70 0.2173781
1177.80 0.2173273
1177.90 0.2172764
1178.00 0.2172255
1178.10 0.2171747
1178.20 0.2171239
1178.30 0.2170731
1178.40 0.2170223
1178.50 0.2169715
1178.60 0.2169207
1178.70 0.21687
1178.80 0.2168192
1178.90 0.2167685
1179.00 0.2167178
1179.10 0.2166671
1179.20 0.2166164
1179.30 0.2165658
1179.40 0.2165151
1179.50 0.2164645
1179.60 0.2164138
1179.70 0.2163632
1179.80 0.2163126
1179.90 0.216262
1180.00 0.2162115
1180.10 0.2161609
1180.20 0.2161104
1180.30 0.2160598
1180.40 0.2160093
1180.50 0.2159588
1180.60 0.2159084
1180.70 0.2158579
1180.80 0.2158074
1180.90 0.215757
1181.00 0.2157066
1181.10 0.2156561
1181.20 0.2156057
1181.30 0.2155554
1181.40 0.215505
1181.50 0.2154546
1181.60 0.2154043
1181.70 0.215354
1181.80 0.2153036
1181.90 0.2152533
1182.00 0.215203
1182.10 0.2151528
1182.20 0.2151025
1182.30 0.2150523
1182.40 0.215002
1182.50 0.2149518
1182.60 0.2149016
1182.70 0.2148514
1182.80 0.2148012
1182.90 0.2147511
1183.00 0.2147009
1183.10 0.2146508
1183.20 0.2146007
1183.30 0.2145506
1183.40 0.2145005
1183.50 0.2144504
1183.60 0.2144003
1183.70 0.2143503
1183.80 0.2143002
1183.90 0.2142502
1184.00 0.2142002
1184.10 0.2141502
1184.20 0.2141002
1184.30 0.2140502
1184.40 0.2140003
1184.50 0.2139503
1184.60 0.2139004
1184.70 0.2138505
1184.80 0.2138006
1184.90 0.2137507
1185.00 0.2137008
1185.10 0.213651
1185.20 0.2136011
1185.30 0.2135513
1185.40 0.2135015
1185.50 0.2134517
1185.60 0.2134021
1185.70 0.2133525
1185.80 0.2133028
1185.90 0.2132532
1186.00 0.2132036
1186.10 0.213154
1186.20 0.2131044
1186.30 0.2130549
1186.40 0.2130053
1186.50 0.2129558
1186.60 0.2129063
1186.70 0.2128568
1186.80 0.2128073
1186.90 0.2127578
1187.00 0.2127084
1187.10 0.2126589
1187.20 0.2126095
1187.30 0.2125601
1187.40 0.2125106
1187.50 0.2124612
1187.60 0.2124119
1187.70 0.2123625
1187.80 0.2123131
1187.90 0.2122638
1188.00 0.2122145
1188.10 0.2121652
1188.20 0.2121159
1188.30 0.2120666
1188.40 0.2120173
1188.50 0.211968
1188.60 0.2119188
1188.70 0.2118696
1188.80 0.2118203
1188.90 0.2117711
1189.00 0.2117219
1189.10 0.2116728
1189.20 0.2116236
1189.30 0.2115745
1189.40 0.2115253
1189.50 0.2114762
1189.60 0.2114271
1189.70 0.211378
1189.80 0.2113289
1189.90 0.2112798
1190.00 0.2112308
1190.10 0.2111817
1190.20 0.2111327
1190.30 0.2110837
1190.40 0.2110347
1190.50 0.2109857
1190.60 0.2109367
1190.70 0.2108878
1190.80 0.2108388
1190.90 0.2107899
1191.00 0.210741
1191.10 0.210692
1191.20 0.2106432
1191.30 0.2105943
1191.40 0.2105454
1191.50 0.2104966
1191.60 0.2104477
1191.70 0.2103989
1191.80 0.2103501
1191.90 0.2103013
1192.00 0.2102525
1192.10 0.2102037
1192.20 0.2101549
1192.30 0.2101062
1192.40 0.2100575
1192.50 0.2100087
1192.60 0.20996
1192.70 0.2099113
1192.80 0.2098627
1192.90 0.209814
1193.00 0.2097653
1193.10 0.2097167
1193.20 0.2096681
1193.30 0.2096195
1193.40 0.2095709
1193.50 0.2095223
1193.60 0.2094737
1193.70 0.2094252
1193.80 0.2093766
1193.90 0.2093281
1194.00 0.2092796
1194.10 0.209231
1194.20 0.2091826
1194.30 0.2091341
1194.40 0.2090856
1194.50 0.2090372
1194.60 0.2089887
1194.70 0.2089403
1194.80 0.2088919
1194.90 0.2088435
1195.00 0.2087951
1195.10 0.2087467
1195.20 0.2086984
1195.30 0.20865
1195.40 0.2086017
1195.50 0.2085534
1195.60 0.208505
1195.70 0.2084568
1195.80 0.2084085
1195.90 0.2083602
1196.00 0.2083119
1196.10 0.2082637
1196.20 0.2082155
1196.30 0.2081673
1196.40 0.2081191
1196.50 0.2080709
1196.60 0.2080227
1196.70 0.2079745
1196.80 0.2079264
1196.90 0.2078783
1197.00 0.2078301
1197.10 0.207782
1197.20 0.2077339
1197.30 0.2076858
1197.40 0.2076375
1197.50 0.2075892
1197.60 0.2075409
1197.70 0.2074926
1197.80 0.2074443
1197.90 0.207396
1198.00 0.2073477
1198.10 0.2072995
1198.20 0.2072512
1198.30 0.207203
1198.40 0.2071548
1198.50 0.2071066
1198.60 0.2070584
1198.70 0.2070102
1198.80 0.206962
1198.90 0.2069139
1199.00 0.2068657
1199.10 0.2068176
1199.20 0.2067695
1199.30 0.2067214
1199.40 0.2066733
1199.50 0.2066252
1199.60 0.2065772
1199.70 0.2065291
1199.80 0.2064811
1199.90 0.2064331
1200.00 0.2063851
