# Version 2.1 - nm, norm@500 to 1, cut digits, bergeron_He_17000_70.dat_17000
# Wavelength(nm)  Flambda(ergs/cm^s/s/nm)
300.00 3.504159
300.10 3.501909
300.20 3.499576
300.30 3.497205
300.40 3.49456
300.50 3.491918
300.60 3.489279
300.70 3.486643
300.80 3.484009
300.90 3.481378
301.00 3.47875
301.10 3.476125
301.20 3.473502
301.30 3.470882
301.40 3.468265
301.50 3.46565
301.60 3.463038
301.70 3.460429
301.80 3.457822
301.90 3.455219
302.00 3.452618
302.10 3.449922
302.20 3.447218
302.30 3.444517
302.40 3.441818
302.50 3.439123
302.60 3.43643
302.70 3.43374
302.80 3.431053
302.90 3.428369
303.00 3.425687
303.10 3.423009
303.20 3.420333
303.30 3.417658
303.40 3.414967
303.50 3.412279
303.60 3.409593
303.70 3.406911
303.80 3.404231
303.90 3.401554
304.00 3.39888
304.10 3.396209
304.20 3.39354
304.30 3.390875
304.40 3.388212
304.50 3.385551
304.60 3.382934
304.70 3.380324
304.80 3.377717
304.90 3.375112
305.00 3.37251
305.10 3.369911
305.20 3.367314
305.30 3.36472
305.40 3.362129
305.50 3.35954
305.60 3.356954
305.70 3.354371
305.80 3.35179
305.90 3.349212
306.00 3.346637
306.10 3.344064
306.20 3.341494
306.30 3.338927
306.40 3.336275
306.50 3.333599
306.60 3.330927
306.70 3.328257
306.80 3.325589
306.90 3.322925
307.00 3.320263
307.10 3.317604
307.20 3.314948
307.30 3.312295
307.40 3.309644
307.50 3.306996
307.60 3.304351
307.70 3.301709
307.80 3.299069
307.90 3.296432
308.00 3.293798
308.10 3.291167
308.20 3.288538
308.30 3.285912
308.40 3.283289
308.50 3.280668
308.60 3.27805
308.70 3.275435
308.80 3.27295
308.90 3.270831
309.00 3.268007
309.10 3.265186
309.20 3.262368
309.30 3.259553
309.40 3.256766
309.50 3.254129
309.60 3.251496
309.70 3.248865
309.80 3.246237
309.90 3.243612
310.00 3.240989
310.10 3.238369
310.20 3.235752
310.30 3.233138
310.40 3.230631
310.50 3.228239
310.60 3.225851
310.70 3.223464
310.80 3.22108
310.90 3.218699
311.00 3.215722
311.10 3.212748
311.20 3.209778
311.30 3.2069
311.40 3.20428
311.50 3.201664
311.60 3.199049
311.70 3.196438
311.80 3.193829
311.90 3.191223
312.00 3.188619
312.10 3.186018
312.20 3.183532
312.30 3.180746
312.40 3.177775
312.50 3.175652
312.60 3.173169
312.70 3.170688
312.80 3.168211
312.90 3.16557
313.00 3.162754
313.10 3.159941
313.20 3.157131
313.30 3.15429
313.40 3.151357
313.50 3.148427
313.60 3.1455
313.70 3.142576
313.80 3.139655
313.90 3.136738
314.00 3.133823
314.10 3.130754
314.20 3.127687
314.30 3.124624
314.40 3.121565
314.50 3.118508
314.60 3.115455
314.70 3.112405
314.80 3.109084
314.90 3.10547
315.00 3.102381
315.10 3.098209
315.20 3.094041
315.30 3.089878
315.40 3.08572
315.50 3.081566
315.60 3.077417
315.70 3.072175
315.80 3.066939
315.90 3.061709
316.00 3.056485
316.10 3.051267
316.20 3.046055
316.30 3.047409
316.40 3.049581
316.50 3.036188
316.60 3.003985
316.70 2.99309
316.80 2.982208
316.90 2.980735
317.00 2.979263
317.10 2.977792
317.20 2.976322
317.30 2.983813
317.40 2.988662
317.50 2.986015
317.60 2.983372
317.70 2.98073
317.80 2.978092
317.90 2.961264
318.00 2.936953
318.10 2.897403
318.20 2.857903
318.30 2.818452
318.40 2.755798
318.50 2.627088
318.60 2.468488
318.70 2.060306
318.80 1.501192
318.90 2.12783
319.00 2.3854
319.10 2.534581
319.20 2.659045
319.30 2.713583
319.40 2.768053
319.50 2.822455
319.60 2.861148
319.70 2.878046
319.80 2.894922
319.90 2.911777
320.00 2.924657
320.10 2.933239
320.20 2.94057
320.30 2.9457
320.40 2.949136
320.50 2.951609
320.60 2.953376
320.70 2.954725
320.80 2.955499
320.90 2.955649
321.00 2.955798
321.10 2.955947
321.20 2.955355
321.30 2.95434
321.40 2.953327
321.50 2.952314
321.60 2.951302
321.70 2.95029
321.80 2.949398
321.90 2.948636
322.00 2.946907
322.10 2.945274
322.20 2.943643
322.30 2.942013
322.40 2.940385
322.50 2.938758
322.60 2.937132
322.70 2.935508
322.80 2.933792
322.90 2.931975
323.00 2.930159
323.10 2.928346
323.20 2.926534
323.30 2.924724
323.40 2.922916
323.50 2.921109
323.60 2.919304
323.70 2.9175
323.80 2.915698
323.90 2.913898
324.00 2.911682
324.10 2.909468
324.20 2.907256
324.30 2.905154
324.40 2.903272
324.50 2.901292
324.60 2.899314
324.70 2.897337
324.80 2.895363
324.90 2.89339
325.00 2.89142
325.10 2.889451
325.20 2.887545
325.30 2.88577
325.40 2.883996
325.50 2.882049
325.60 2.879889
325.70 2.877731
325.80 2.875576
325.90 2.873433
326.00 2.871305
326.10 2.869178
326.20 2.867054
326.30 2.865027
326.40 2.863272
326.50 2.8612
326.60 2.85913
326.70 2.857062
326.80 2.854997
326.90 2.852933
327.00 2.850871
327.10 2.848812
327.20 2.846754
327.30 2.844698
327.40 2.842644
327.50 2.840593
327.60 2.838543
327.70 2.836495
327.80 2.834449
327.90 2.832557
328.00 2.830386
328.10 2.827675
328.20 2.824967
328.30 2.822262
328.40 2.81956
328.50 2.817657
328.60 2.815942
328.70 2.814229
328.80 2.812484
328.90 2.810646
329.00 2.808809
329.10 2.806974
329.20 2.805141
329.30 2.803309
329.40 2.801479
329.50 2.799651
329.60 2.797825
329.70 2.796
329.80 2.794177
329.90 2.792356
330.00 2.790423
330.10 2.788353
330.20 2.786285
330.30 2.784219
330.40 2.782141
330.50 2.780049
330.60 2.777959
330.70 2.775871
330.80 2.773786
330.90 2.771702
331.00 2.76962
331.10 2.76754
331.20 2.765462
331.30 2.763386
331.40 2.761313
331.50 2.759423
331.60 2.757759
331.70 2.756097
331.80 2.7538
331.90 2.75148
332.00 2.749161
332.10 2.746845
332.20 2.744531
332.30 2.74222
332.40 2.73991
332.50 2.737603
332.60 2.735299
332.70 2.732996
332.80 2.730696
332.90 2.728398
333.00 2.726103
333.10 2.723506
333.20 2.720541
333.30 2.717579
333.40 2.714621
333.50 2.711665
333.60 2.708713
333.70 2.705764
333.80 2.702817
333.90 2.699874
334.00 2.696934
334.10 2.693269
334.20 2.688719
334.30 2.684174
334.40 2.679634
334.50 2.675099
334.60 2.670569
334.70 2.665461
334.80 2.65817
334.90 2.648765
335.00 2.639371
335.10 2.626658
335.20 2.610487
335.30 2.590868
335.40 2.559056
335.50 2.584682
335.60 2.602811
335.70 2.614183
335.80 2.62354
335.90 2.630104
336.00 2.633263
336.10 2.636417
336.20 2.639567
336.30 2.641135
336.40 2.640773
336.50 2.640411
336.60 2.64005
336.70 2.639688
336.80 2.639326
336.90 2.638744
337.00 2.637894
337.10 2.637044
337.20 2.636194
337.30 2.635152
337.40 2.633832
337.50 2.632513
337.60 2.631195
337.70 2.629879
337.80 2.628563
337.90 2.62714
338.00 2.625586
338.10 2.624033
338.20 2.622481
338.30 2.620931
338.40 2.619336
338.50 2.617627
338.60 2.61592
338.70 2.614214
338.80 2.61251
338.90 2.610808
339.00 2.609107
339.10 2.607408
339.20 2.60571
339.30 2.603782
339.40 2.601521
339.50 2.599392
339.60 2.597425
339.70 2.59546
339.80 2.593497
339.90 2.591535
340.00 2.589576
340.10 2.587618
340.20 2.585662
340.30 2.583708
340.40 2.581756
340.50 2.579805
340.60 2.577857
340.70 2.57591
340.80 2.573847
340.90 2.571617
341.00 2.569396
341.10 2.567184
341.20 2.564975
341.30 2.562768
341.40 2.560563
341.50 2.55836
341.60 2.556159
341.70 2.55396
341.80 2.551634
341.90 2.54915
342.00 2.54667
342.10 2.544191
342.20 2.541913
342.30 2.539622
342.40 2.536871
342.50 2.533747
342.60 2.530626
342.70 2.527508
342.80 2.524394
342.90 2.521283
343.00 2.517669
343.10 2.513441
343.20 2.509218
343.30 2.504999
343.40 2.499918
343.50 2.493595
343.60 2.48728
343.70 2.480971
343.80 2.474669
343.90 2.468374
344.00 2.459101
344.10 2.445546
344.20 2.432006
344.30 2.418481
344.40 2.397456
344.50 2.365647
344.60 2.326302
344.70 2.238189
344.80 2.308318
344.90 2.353914
345.00 2.386037
345.10 2.403943
345.20 2.417931
345.30 2.426294
345.40 2.434647
345.50 2.440981
345.60 2.444001
345.70 2.445791
345.80 2.447578
345.90 2.449363
346.00 2.451146
346.10 2.452926
346.20 2.453619
346.30 2.452749
346.40 2.45188
346.50 2.451012
346.60 2.450144
346.70 2.449277
346.80 2.44841
346.90 2.447544
347.00 2.446679
347.10 2.445814
347.20 2.444803
347.30 2.443581
347.40 2.44236
347.50 2.44114
347.60 2.439921
347.70 2.438703
347.80 2.437486
347.90 2.43627
348.00 2.435055
348.10 2.433841
348.20 2.432628
348.30 2.431416
348.40 2.430205
348.50 2.428995
348.60 2.427786
348.70 2.426438
348.80 2.425121
348.90 2.423911
349.00 2.422701
349.10 2.421493
349.20 2.420286
349.30 2.41908
349.40 2.417874
349.50 2.41667
349.60 2.415467
349.70 2.414264
349.80 2.413063
349.90 2.411863
350.00 2.410663
350.10 2.409465
350.20 2.408267
350.30 2.407097
350.40 2.405965
350.50 2.404834
350.60 2.403704
350.70 2.402575
350.80 2.401447
350.90 2.400319
351.00 2.399193
351.10 2.398067
351.20 2.396943
351.30 2.395819
351.40 2.394738
351.50 2.393732
351.60 2.392726
351.70 2.391721
351.80 2.390717
351.90 2.389714
352.00 2.388711
352.10 2.387709
352.20 2.387188
352.30 2.38659
352.40 2.385805
352.50 2.38502
352.60 2.384236
352.70 2.383452
352.80 2.382669
352.90 2.381886
353.00 2.381104
353.10 2.380322
353.20 2.379541
353.30 2.378761
353.40 2.37798
353.50 2.377221
353.60 2.376468
353.70 2.375715
353.80 2.374963
353.90 2.37421
354.00 2.373454
354.10 2.372698
354.20 2.371943
354.30 2.371189
354.40 2.370435
354.50 2.369681
354.60 2.368928
354.70 2.368175
354.80 2.367548
354.90 2.3671
355.00 2.366652
355.10 2.366205
355.20 2.365758
355.30 2.365029
355.40 2.364301
355.50 2.363574
355.60 2.362847
355.70 2.362089
355.80 2.361318
355.90 2.36118
356.00 2.36089
356.10 2.360281
356.20 2.359672
356.30 2.359064
356.40 2.358456
356.50 2.357848
356.60 2.357241
356.70 2.356634
356.80 2.356027
356.90 2.355421
357.00 2.354815
357.10 2.354209
357.20 2.353604
357.30 2.352999
357.40 2.352275
357.50 2.351341
357.60 2.350408
357.70 2.349476
357.80 2.348746
357.90 2.348016
358.00 2.346919
358.10 2.345731
358.20 2.344543
358.30 2.343357
358.40 2.342172
358.50 2.340988
358.60 2.339805
358.70 2.338623
358.80 2.337441
358.90 2.336261
359.00 2.334832
359.10 2.332961
359.20 2.331095
359.30 2.329252
359.40 2.327411
359.50 2.324557
359.60 2.321451
359.70 2.318349
359.80 2.313219
359.90 2.308095
360.00 2.301641
360.10 2.292822
360.20 2.284013
360.30 2.275213
360.40 2.266422
360.50 2.257641
360.60 2.239429
360.70 2.212333
360.80 2.185266
360.90 2.158229
361.00 2.124325
361.10 2.058928
361.20 1.974639
361.30 1.76714
361.40 1.919876
361.50 2.079599
361.60 2.130881
361.70 2.136601
361.80 2.145298
361.90 2.159284
362.00 2.173254
362.10 2.178561
362.20 2.178163
362.30 2.171478
362.40 2.1648
362.50 2.158128
362.60 2.151464
362.70 2.138789
362.80 2.124313
362.90 2.099587
363.00 2.074887
363.10 2.037501
363.20 2.000027
363.30 1.959336
363.40 1.936202
363.50 1.969599
363.60 2.029954
363.70 2.067638
363.80 2.092813
363.90 2.10907
364.00 2.125309
364.10 2.141529
364.20 2.157732
364.30 2.17321
364.40 2.188494
364.50 2.199738
364.60 2.207964
364.70 2.21618
364.80 2.224387
364.90 2.228713
365.00 2.233035
365.10 2.22935
365.20 2.205983
365.30 2.201087
365.40 2.222004
365.50 2.234914
365.60 2.247809
365.70 2.254946
365.80 2.262074
365.90 2.266322
366.00 2.269848
366.10 2.271917
366.20 2.273983
366.30 2.276047
366.40 2.278108
366.50 2.278305
366.60 2.278296
366.70 2.277978
366.80 2.27766
366.90 2.276694
367.00 2.274577
367.10 2.272462
367.20 2.270349
367.30 2.268238
367.40 2.266129
367.50 2.262561
367.60 2.258632
367.70 2.252932
367.80 2.247238
367.90 2.24155
368.00 2.235549
368.10 2.228339
368.20 2.218275
368.30 2.208192
368.40 2.198119
368.50 2.188057
368.60 2.178006
368.70 2.167966
368.80 2.157936
368.90 2.147226
369.00 2.13379
369.10 2.119991
369.20 2.10427
369.30 2.084682
369.40 2.065115
369.50 2.045569
369.60 2.018765
369.70 1.991989
369.80 1.956302
369.90 1.920563
370.00 1.884862
370.10 1.843034
370.20 1.77273
370.30 1.702365
370.40 1.615027
370.50 1.564338
370.60 1.654085
370.70 1.763676
370.80 1.830413
370.90 1.897078
371.00 1.91571
371.10 1.933838
371.20 1.953533
371.30 1.973206
371.40 1.994435
371.50 2.011738
371.60 2.029022
371.70 2.046288
371.80 2.063534
371.90 2.080762
372.00 2.093548
372.10 2.105967
372.20 2.114114
372.30 2.122252
372.40 2.130381
372.50 2.138501
372.60 2.146611
372.70 2.154713
372.80 2.158257
372.90 2.161796
373.00 2.164204
373.10 2.166599
373.20 2.15778
373.30 2.14897
373.40 2.054257
373.50 2.056685
373.60 2.107312
373.70 2.134972
373.80 2.151115
373.90 2.165553
374.00 2.173487
374.10 2.181412
374.20 2.189328
374.30 2.197236
374.40 2.201183
374.50 2.205362
374.60 2.208014
374.70 2.210643
374.80 2.21327
374.90 2.215893
375.00 2.217045
375.10 2.218196
375.20 2.219345
375.30 2.219161
375.40 2.218976
375.50 2.218792
375.60 2.218608
375.70 2.218423
375.80 2.218239
375.90 2.218054
376.00 2.216875
376.10 2.215696
376.20 2.214518
376.30 2.213341
376.40 2.212165
376.50 2.210671
376.60 2.208699
376.70 2.206729
376.80 2.204486
376.90 2.20197
377.00 2.199457
377.10 2.196945
377.20 2.194341
377.30 2.191383
377.40 2.188427
377.50 2.185474
377.60 2.181565
377.70 2.177659
377.80 2.173758
377.90 2.16986
378.00 2.165944
378.10 2.160035
378.20 2.154113
378.30 2.148197
378.40 2.142287
378.50 2.136383
378.60 2.130484
378.70 2.124592
378.80 2.118705
378.90 2.112121
379.00 2.104237
379.10 2.09582
379.20 2.087411
379.30 2.07843
379.40 2.068876
379.50 2.059333
379.60 2.048968
379.70 2.036612
379.80 2.021424
379.90 2.006252
380.00 1.991095
380.10 1.975954
380.20 1.960829
380.30 1.945719
380.40 1.930625
380.50 1.915547
380.60 1.892568
380.70 1.865328
380.80 1.838116
380.90 1.810932
381.00 1.783777
381.10 1.747534
381.20 1.709385
381.30 1.66832
381.40 1.618786
381.50 1.56012
381.60 1.492813
381.70 1.410246
381.80 1.319287
381.90 1.211151
382.00 1.155979
382.10 1.313844
382.20 1.442338
382.30 1.539823
382.40 1.618917
382.50 1.670512
382.60 1.722053
382.70 1.763032
382.80 1.781687
382.90 1.789888
383.00 1.798079
383.10 1.806262
383.20 1.816671
383.30 1.835469
383.40 1.853689
383.50 1.871052
383.60 1.886865
383.70 1.898951
383.80 1.911024
383.90 1.923084
384.00 1.935131
384.10 1.947166
384.20 1.959187
384.30 1.971196
384.40 1.980953
384.50 1.98846
384.60 1.99596
384.70 2.003451
384.80 2.010768
384.90 2.016576
385.00 2.020755
385.10 2.024905
385.20 2.027833
385.30 2.030708
385.40 2.032647
385.50 2.033651
385.60 2.034655
385.70 2.035657
385.80 2.036496
385.90 2.03673
386.00 2.036319
386.10 2.034805
386.20 2.028654
386.30 2.022509
386.40 2.012936
386.50 1.995903
386.60 1.965776
386.70 1.87862
386.80 1.629507
386.90 1.793093
387.00 1.851468
387.10 1.883746
387.20 1.906764
387.30 1.926597
387.40 1.94165
387.50 1.953923
387.60 1.962284
387.70 1.964274
387.80 1.966262
387.90 1.968247
388.00 1.967737
388.10 1.956362
388.20 1.932071
388.30 1.899291
388.40 1.866544
388.50 1.818909
388.60 1.735186
388.70 1.598035
388.80 1.309116
388.90 1.154517
389.00 1.473202
389.10 1.636073
389.20 1.73691
389.30 1.805943
389.40 1.854406
389.50 1.895798
389.60 1.925223
389.70 1.945071
389.80 1.956929
389.90 1.968775
390.00 1.980609
390.10 1.99243
390.20 2.004239
390.30 2.012148
390.40 2.015667
390.50 2.019181
390.60 2.022692
390.70 2.026199
390.80 2.028342
390.90 2.029125
391.00 2.028719
391.10 2.028202
391.20 2.027577
391.30 2.025617
391.40 2.022618
391.50 2.019623
391.60 2.016629
391.70 2.013639
391.80 2.010652
391.90 2.00718
392.00 2.00251
392.10 1.996869
392.20 1.990997
392.30 1.983104
392.40 1.975536
392.50 1.966929
392.60 1.957757
392.70 1.94846
392.80 1.953344
392.90 1.96115
393.00 1.969194
393.10 1.975875
393.20 1.980899
393.30 1.984665
393.40 1.988263
393.50 1.988906
393.60 1.98574
393.70 1.985737
393.80 1.988432
393.90 1.990067
394.00 1.991615
394.10 1.991507
394.20 1.990497
394.30 1.989029
394.40 1.986195
394.50 1.983253
394.60 1.978716
394.70 1.973808
394.80 1.967496
394.90 1.961148
395.00 1.953283
395.10 1.944115
395.20 1.932529
395.30 1.920263
395.40 1.90801
395.50 1.888747
395.60 1.866907
395.70 1.841027
395.80 1.804194
395.90 1.767397
396.00 1.728813
396.10 1.6617
396.20 1.567304
396.30 1.458052
396.40 1.229768
396.50 1.285236
396.60 1.608497
396.70 1.708266
396.80 1.708995
396.90 1.692054
397.00 1.729307
397.10 1.819488
397.20 1.852596
397.30 1.846617
397.40 1.850916
397.50 1.85521
397.60 1.859626
397.70 1.865313
397.80 1.870994
397.90 1.875682
398.00 1.8777
398.10 1.879715
398.20 1.880338
398.30 1.879394
398.40 1.878403
398.50 1.87587
398.60 1.872879
398.70 1.868462
398.80 1.863735
398.90 1.858734
399.00 1.853222
399.10 1.845474
399.20 1.837464
399.30 1.829463
399.40 1.821469
399.50 1.813483
399.60 1.803005
399.70 1.791613
399.80 1.780233
399.90 1.768863
400.00 1.757441
400.10 1.743946
400.20 1.729104
400.30 1.711565
400.40 1.693315
400.50 1.674662
400.60 1.652389
400.70 1.630614
400.80 1.605683
400.90 1.566264
401.00 1.546176
401.10 1.550984
401.20 1.551587
401.30 1.546243
401.40 1.532366
401.50 1.515769
401.60 1.498864
401.70 1.471522
401.80 1.440476
401.90 1.402615
402.00 1.361181
402.10 1.311227
402.20 1.249756
402.30 1.176853
402.40 1.094261
402.50 1.020968
402.60 0.9613644
402.70 0.9757361
402.80 1.076084
402.90 1.168751
403.00 1.258092
403.10 1.329975
403.20 1.38733
403.30 1.436309
403.40 1.48066
403.50 1.516887
403.60 1.551044
403.70 1.580759
403.80 1.605769
403.90 1.62612
404.00 1.645365
404.10 1.65802
404.20 1.665234
404.30 1.672442
404.40 1.665777
404.50 1.62616
404.60 1.610321
404.70 1.627058
404.80 1.643803
404.90 1.660482
405.00 1.674658
405.10 1.687126
405.20 1.699143
405.30 1.711148
405.40 1.719623
405.50 1.728089
405.60 1.736546
405.70 1.744995
405.80 1.753435
405.90 1.761867
406.00 1.76781
406.10 1.773746
406.20 1.779676
406.30 1.7856
406.40 1.791414
406.50 1.795909
406.60 1.80047
406.70 1.804297
406.80 1.808058
406.90 1.81179
407.00 1.814168
407.10 1.816545
407.20 1.818918
407.30 1.821289
407.40 1.823658
407.50 1.826024
407.60 1.828387
407.70 1.830748
407.80 1.833107
407.90 1.83543
408.00 1.836685
408.10 1.838
408.20 1.838875
408.30 1.839578
408.40 1.840279
408.50 1.840794
408.60 1.840913
408.70 1.841032
408.80 1.841163
408.90 1.84121
409.00 1.840687
409.10 1.840163
409.20 1.83964
409.30 1.839117
409.40 1.838584
409.50 1.837686
409.60 1.836788
409.70 1.835802
409.80 1.834456
409.90 1.833096
410.00 1.831254
410.10 1.829548
410.20 1.827274
410.30 1.824861
410.40 1.822276
410.50 1.819146
410.60 1.816019
410.70 1.812634
410.80 1.808209
410.90 1.803787
411.00 1.797535
411.10 1.790609
411.20 1.78369
411.30 1.775997
411.40 1.765046
411.50 1.749465
411.60 1.733898
411.70 1.71393
411.80 1.676328
411.90 1.632572
412.00 1.519643
412.10 1.164301
412.20 1.323086
412.30 1.441571
412.40 1.519161
412.50 1.564868
412.60 1.596468
412.70 1.615359
412.80 1.631062
412.90 1.645069
413.00 1.648441
413.10 1.645735
413.20 1.643032
413.30 1.640331
413.40 1.637633
413.50 1.633718
413.60 1.623054
413.70 1.60645
413.80 1.589862
413.90 1.573289
414.00 1.555699
414.10 1.534852
414.20 1.507942
414.30 1.4402
414.40 1.37902
414.50 1.419966
414.60 1.470897
414.70 1.509308
414.80 1.54339
414.90 1.563856
415.00 1.584301
415.10 1.604727
415.20 1.622967
415.30 1.634338
415.40 1.645697
415.50 1.656977
415.60 1.666054
415.70 1.675123
415.80 1.683613
415.90 1.690293
416.00 1.696966
416.10 1.703045
416.20 1.70677
416.30 1.710492
416.40 1.714209
416.50 1.717815
416.60 1.717936
416.70 1.717957
416.80 1.712159
416.90 1.674014
417.00 1.678013
417.10 1.699012
417.20 1.708567
417.30 1.717973
417.40 1.722807
417.50 1.727637
417.60 1.732136
417.70 1.735295
417.80 1.737441
417.90 1.739585
418.00 1.741727
418.10 1.743866
418.20 1.746003
418.30 1.74812
418.40 1.749479
418.50 1.750271
418.60 1.751061
418.70 1.751851
418.80 1.75264
418.90 1.753428
419.00 1.754215
419.10 1.755001
419.20 1.755786
419.30 1.756541
419.40 1.756363
419.50 1.756184
419.60 1.756
419.70 1.755793
419.80 1.755586
419.90 1.755315
420.00 1.754844
420.10 1.754372
420.20 1.753902
420.30 1.753431
420.40 1.752961
420.50 1.752491
420.60 1.752021
420.70 1.751551
420.80 1.751082
420.90 1.750602
421.00 1.74977
421.10 1.748939
421.20 1.748109
421.30 1.747279
421.40 1.74645
421.50 1.745622
421.60 1.744794
421.70 1.743966
421.80 1.743139
421.90 1.742313
422.00 1.741487
422.10 1.740604
422.20 1.739489
422.30 1.738375
422.40 1.737265
422.50 1.736257
422.60 1.73525
422.70 1.734244
422.80 1.733238
422.90 1.732233
423.00 1.731228
423.10 1.730225
423.20 1.729222
423.30 1.72822
423.40 1.727219
423.50 1.726218
423.60 1.725219
423.70 1.72422
423.80 1.723221
423.90 1.722224
424.00 1.721227
424.10 1.720231
424.20 1.719236
424.30 1.718241
424.40 1.717281
424.50 1.716104
424.60 1.714928
424.70 1.713753
424.80 1.712578
424.90 1.711405
425.00 1.710233
425.10 1.709061
425.20 1.707891
425.30 1.706721
425.40 1.705553
425.50 1.704392
425.60 1.703231
425.70 1.702071
425.80 1.700912
425.90 1.699754
426.00 1.698597
426.10 1.69744
426.20 1.696285
426.30 1.695131
426.40 1.693977
426.50 1.692824
426.60 1.691672
426.70 1.690522
426.80 1.689372
426.90 1.68822
427.00 1.687002
427.10 1.685786
427.20 1.68457
427.30 1.683355
427.40 1.682141
427.50 1.680928
427.60 1.679715
427.70 1.678504
427.80 1.677294
427.90 1.676085
428.00 1.674876
428.10 1.673669
428.20 1.672463
428.30 1.671257
428.40 1.670053
428.50 1.668849
428.60 1.667646
428.70 1.666444
428.80 1.665233
428.90 1.663886
429.00 1.66254
429.10 1.661195
429.20 1.659851
429.30 1.658508
429.40 1.657166
429.50 1.655825
429.60 1.654485
429.70 1.653146
429.80 1.651809
429.90 1.650472
430.00 1.649136
430.10 1.647802
430.20 1.646468
430.30 1.645136
430.40 1.643805
430.50 1.642475
430.60 1.641145
430.70 1.639817
430.80 1.63849
430.90 1.637164
431.00 1.635839
431.10 1.634515
431.20 1.633192
431.30 1.631836
431.40 1.630022
431.50 1.628209
431.60 1.626397
431.70 1.624587
431.80 1.622779
431.90 1.620972
432.00 1.619166
432.10 1.617362
432.20 1.61556
432.30 1.613759
432.40 1.611959
432.50 1.610161
432.60 1.608365
432.70 1.60657
432.80 1.604776
432.90 1.602984
433.00 1.601194
433.10 1.599405
433.20 1.597617
433.30 1.595798
433.40 1.593549
433.50 1.591302
433.60 1.589057
433.70 1.586814
433.80 1.584608
433.90 1.582449
434.00 1.579914
434.10 1.577149
434.20 1.574387
434.30 1.571627
434.40 1.568869
434.50 1.566114
434.60 1.563361
434.70 1.560611
434.80 1.557751
434.90 1.553415
435.00 1.549083
435.10 1.544755
435.20 1.54043
435.30 1.536109
435.40 1.531792
435.50 1.527479
435.60 1.523169
435.70 1.518864
435.80 1.514562
435.90 1.510264
436.00 1.50597
436.10 1.501679
436.20 1.497392
436.30 1.492479
436.40 1.486631
436.50 1.478535
436.60 1.470447
436.70 1.462366
436.80 1.454292
436.90 1.446225
437.00 1.438166
437.10 1.430114
437.20 1.420446
437.30 1.409289
437.40 1.397867
437.50 1.382797
437.60 1.367741
437.70 1.352698
437.80 1.337669
437.90 1.322654
438.00 1.307151
438.10 1.285018
438.20 1.262905
438.30 1.24623
438.40 1.238325
438.50 1.181864
438.60 1.123692
438.70 1.032953
438.80 0.9024446
438.90 0.9714255
439.00 1.058988
439.10 1.116377
439.20 1.171734
439.30 1.200748
439.40 1.229735
439.50 1.258696
439.60 1.28697
439.70 1.3055
439.80 1.320863
439.90 1.333427
440.00 1.34598
440.10 1.358521
440.20 1.370545
440.30 1.375848
440.40 1.381145
440.50 1.386438
440.60 1.391725
440.70 1.397008
440.80 1.402286
440.90 1.407559
441.00 1.412826
441.10 1.418089
441.20 1.423117
441.30 1.425072
441.40 1.426503
441.50 1.427293
441.60 1.428083
441.70 1.428966
441.80 1.428063
441.90 1.42716
442.00 1.426258
442.10 1.425356
442.20 1.424456
442.30 1.423555
442.40 1.422029
442.50 1.419738
442.60 1.417448
442.70 1.414813
442.80 1.411652
442.90 1.408433
443.00 1.404623
443.10 1.400092
443.20 1.394862
443.30 1.388989
443.40 1.38116
443.50 1.370944
443.60 1.357338
443.70 1.317552
443.80 1.200217
443.90 1.281494
444.00 1.302642
444.10 1.314951
444.20 1.323112
444.30 1.324877
444.40 1.322378
444.50 1.319881
444.60 1.315725
444.70 1.309545
444.80 1.301824
444.90 1.292684
445.00 1.283552
445.10 1.274428
445.20 1.263565
445.30 1.250578
445.40 1.237603
445.50 1.224638
445.60 1.211686
445.70 1.198745
445.80 1.182343
445.90 1.162752
446.00 1.143178
446.10 1.123622
446.20 1.101934
446.30 1.077205
446.40 1.04273
446.50 1.003166
446.60 0.9636385
446.70 0.924146
446.80 0.8744518
446.90 0.8153569
447.00 0.7837063
447.10 0.7770843
447.20 0.7634365
447.30 0.7988285
447.40 0.8545272
447.50 0.9115035
447.60 0.9610316
447.70 1.00369
447.80 1.038009
447.90 1.069331
448.00 1.095299
448.10 1.11633
448.20 1.137343
448.30 1.158336
448.40 1.17931
448.50 1.200266
448.60 1.217652
448.70 1.231747
448.80 1.245557
448.90 1.255754
449.00 1.265942
449.10 1.27612
449.20 1.286289
449.30 1.294871
449.40 1.302485
449.50 1.310092
449.60 1.315627
449.70 1.31925
449.80 1.322869
449.90 1.326486
450.00 1.330099
450.10 1.333708
450.20 1.337315
450.30 1.340918
450.40 1.341401
450.50 1.341883
450.60 1.342365
450.70 1.342847
450.80 1.343328
450.90 1.343808
451.00 1.349067
451.10 1.354322
451.20 1.357313
451.30 1.35754
451.40 1.352107
451.50 1.346678
451.60 1.32999
451.70 1.276322
451.80 1.240788
451.90 1.261532
452.00 1.275833
452.10 1.290121
452.20 1.297775
452.30 1.305423
452.40 1.313064
452.50 1.320698
452.60 1.325527
452.70 1.329565
452.80 1.332873
452.90 1.336178
453.00 1.33948
453.10 1.342779
453.20 1.344626
453.30 1.346471
453.40 1.348315
453.50 1.350156
453.60 1.351996
453.70 1.353834
453.80 1.355407
453.90 1.356657
454.00 1.357906
454.10 1.359153
454.20 1.360006
454.30 1.360858
454.40 1.361709
454.50 1.36256
454.60 1.363409
454.70 1.363897
454.80 1.364052
454.90 1.364206
455.00 1.36436
455.10 1.364513
455.20 1.364666
455.30 1.364819
455.40 1.364972
455.50 1.365125
455.60 1.365277
455.70 1.365429
455.80 1.365465
455.90 1.365501
456.00 1.365537
456.10 1.365481
456.20 1.365176
456.30 1.36487
456.40 1.364566
456.50 1.364261
456.60 1.363956
456.70 1.363652
456.80 1.363347
456.90 1.363043
457.00 1.362739
457.10 1.362435
457.20 1.361979
457.30 1.361548
457.40 1.361118
457.50 1.360687
457.60 1.360257
457.70 1.359827
457.80 1.359398
457.90 1.358968
458.00 1.358539
458.10 1.35811
458.20 1.357682
458.30 1.357253
458.40 1.356825
458.50 1.356397
458.60 1.355969
458.70 1.355523
458.80 1.355068
458.90 1.354614
459.00 1.354161
459.10 1.353707
459.20 1.353254
459.30 1.352665
459.40 1.352076
459.50 1.351487
459.60 1.350899
459.70 1.350312
459.80 1.349724
459.90 1.349137
460.00 1.348551
460.10 1.347965
460.20 1.347379
460.30 1.346794
460.40 1.346209
460.50 1.345624
460.60 1.34504
460.70 1.344456
460.80 1.343873
460.90 1.343289
461.00 1.342707
461.10 1.342124
461.20 1.341256
461.30 1.340271
461.40 1.339609
461.50 1.339028
461.60 1.338448
461.70 1.337869
461.80 1.337074
461.90 1.33628
462.00 1.335486
462.10 1.334693
462.20 1.333901
462.30 1.333109
462.40 1.332317
462.50 1.331527
462.60 1.330736
462.70 1.329947
462.80 1.329157
462.90 1.328369
463.00 1.327581
463.10 1.326793
463.20 1.325923
463.30 1.325019
463.40 1.324115
463.50 1.323212
463.60 1.32231
463.70 1.321408
463.80 1.320507
463.90 1.319646
464.00 1.318794
464.10 1.317944
464.20 1.317093
464.30 1.316244
464.40 1.315395
464.50 1.314547
464.60 1.313699
464.70 1.312875
464.80 1.312062
464.90 1.311249
465.00 1.310436
465.10 1.309625
465.20 1.308814
465.30 1.307917
465.40 1.306963
465.50 1.30601
465.60 1.305057
465.70 1.304105
465.80 1.303154
465.90 1.302221
466.00 1.301293
466.10 1.300365
466.20 1.299438
466.30 1.298452
466.40 1.297443
466.50 1.296434
466.60 1.295426
466.70 1.294419
466.80 1.293413
466.90 1.292407
467.00 1.291402
467.10 1.290398
467.20 1.289395
467.30 1.288712
467.40 1.287689
467.50 1.286548
467.60 1.285408
467.70 1.284269
467.80 1.283131
467.90 1.282012
468.00 1.280903
468.10 1.279794
468.20 1.278686
468.30 1.277446
468.40 1.276152
468.50 1.274811
468.60 1.273257
468.70 1.272062
468.80 1.270581
468.90 1.268902
469.00 1.267649
469.10 1.266116
469.20 1.264459
469.30 1.262802
469.40 1.261147
469.50 1.258688
469.60 1.255902
469.70 1.253118
469.80 1.250337
469.90 1.247525
470.00 1.244283
470.10 1.239098
470.20 1.23313
470.30 1.227166
470.40 1.221207
470.50 1.215253
470.60 1.201351
470.70 1.185472
470.80 1.169607
470.90 1.153756
471.00 1.123595
471.10 1.07483
471.20 0.9910639
471.30 0.7987201
471.40 0.8211246
471.50 0.9506834
471.60 1.010042
471.70 1.061237
471.80 1.0888
471.90 1.110444
472.00 1.13207
472.10 1.153678
472.20 1.164429
472.30 1.172462
472.40 1.180489
472.50 1.188509
472.60 1.196522
472.70 1.201922
472.80 1.20432
472.90 1.206232
473.00 1.208142
473.10 1.210051
473.20 1.211958
473.30 1.213863
473.40 1.215766
473.50 1.217668
473.60 1.219568
473.70 1.221466
473.80 1.222291
473.90 1.222847
474.00 1.223403
474.10 1.223958
474.20 1.224088
474.30 1.224046
474.40 1.224003
474.50 1.223961
474.60 1.223885
474.70 1.223469
474.80 1.223053
474.90 1.222638
475.00 1.222223
475.10 1.221808
475.20 1.221394
475.30 1.22098
475.40 1.220486
475.50 1.219973
475.60 1.21946
475.70 1.218947
475.80 1.218435
475.90 1.217923
476.00 1.217411
476.10 1.2169
476.20 1.21624
476.30 1.21552
476.40 1.2148
476.50 1.214081
476.60 1.213363
476.70 1.212645
476.80 1.211927
476.90 1.211186
477.00 1.210439
477.10 1.209693
477.20 1.208947
477.30 1.208201
477.40 1.207456
477.50 1.206712
477.60 1.205968
477.70 1.205225
477.80 1.204482
477.90 1.20374
478.00 1.202998
478.10 1.202256
478.20 1.201516
478.30 1.200775
478.40 1.200036
478.50 1.199296
478.60 1.198558
478.70 1.197722
478.80 1.196847
478.90 1.196051
479.00 1.195275
479.10 1.194499
479.20 1.193724
479.30 1.19295
479.40 1.192172
479.50 1.191391
479.60 1.190611
479.70 1.189832
479.80 1.189053
479.90 1.188274
480.00 1.187496
480.10 1.186719
480.20 1.185942
480.30 1.185166
480.40 1.184391
480.50 1.183615
480.60 1.182841
480.70 1.182067
480.80 1.181293
480.90 1.18052
481.00 1.179748
481.10 1.178976
481.20 1.178097
481.30 1.177219
481.40 1.176341
481.50 1.175464
481.60 1.174587
481.70 1.173712
481.80 1.172836
481.90 1.171962
482.00 1.171088
482.10 1.170215
482.20 1.169341
482.30 1.168455
482.40 1.16757
482.50 1.166685
482.60 1.165801
482.70 1.164917
482.80 1.164035
482.90 1.163153
483.00 1.162271
483.10 1.16139
483.20 1.16051
483.30 1.15963
483.40 1.158751
483.50 1.157873
483.60 1.156995
483.70 1.155987
483.80 1.154981
483.90 1.153974
484.00 1.152969
484.10 1.151964
484.20 1.150895
484.30 1.149798
484.40 1.148702
484.50 1.147608
484.60 1.146513
484.70 1.14541
484.80 1.144167
484.90 1.142926
485.00 1.141686
485.10 1.140446
485.20 1.139208
485.30 1.13797
485.40 1.136733
485.50 1.135498
485.60 1.134263
485.70 1.132905
485.80 1.131548
485.90 1.130192
486.00 1.128837
486.10 1.127483
486.20 1.12613
486.30 1.124778
486.40 1.123428
486.50 1.122078
486.60 1.120729
486.70 1.119348
486.80 1.117527
486.90 1.115708
487.00 1.11389
487.10 1.112073
487.20 1.109972
487.30 1.107873
487.40 1.105775
487.50 1.103679
487.60 1.101585
487.70 1.099492
487.80 1.097401
487.90 1.095311
488.00 1.093223
488.10 1.091137
488.20 1.088996
488.30 1.086106
488.40 1.083219
488.50 1.080335
488.60 1.077452
488.70 1.074572
488.80 1.071102
488.90 1.067636
489.00 1.063858
489.10 1.059277
489.20 1.0547
489.30 1.050127
489.40 1.045557
489.50 1.04099
489.60 1.036428
489.70 1.031869
489.80 1.026207
489.90 1.019315
490.00 1.012428
490.10 1.005548
490.20 0.9986724
490.30 0.9918027
490.40 0.9815047
490.50 0.9712151
490.60 0.9609337
490.70 0.9506607
490.80 0.9370759
490.90 0.9233303
491.00 0.9107026
491.10 0.9263204
491.20 0.9405652
491.30 0.9327044
491.40 0.9174449
491.50 0.8986617
491.60 0.8687679
491.70 0.8292003
491.80 0.7885474
491.90 0.733087
492.00 0.6678802
492.10 0.711045
492.20 0.6262939
492.30 0.6376891
492.40 0.6925038
492.50 0.7428024
492.60 0.7801044
492.70 0.8049671
492.80 0.8298096
492.90 0.8546318
493.00 0.8786056
493.10 0.8915601
493.20 0.904504
493.30 0.9174374
493.40 0.9303602
493.50 0.9432725
493.60 0.9528822
493.70 0.9605346
493.80 0.9681808
493.90 0.975223
494.00 0.9813249
494.10 0.9869004
494.20 0.991364
494.30 0.995824
494.40 1.00028
494.50 1.004733
494.60 1.009101
494.70 1.012398
494.80 1.015531
494.90 1.018203
495.00 1.020873
495.10 1.023541
495.20 1.024994
495.30 1.026446
495.40 1.027896
495.50 1.029345
495.60 1.030793
495.70 1.03224
495.80 1.033686
495.90 1.03513
496.00 1.036573
496.10 1.037761
496.20 1.038404
496.30 1.038967
496.40 1.03953
496.50 1.040093
496.60 1.040655
496.70 1.040729
496.80 1.040804
496.90 1.040878
497.00 1.040952
497.10 1.041026
497.20 1.041099
497.30 1.041104
497.40 1.040911
497.50 1.040718
497.60 1.040453
497.70 1.040014
497.80 1.039304
497.90 1.038595
498.00 1.037886
498.10 1.037178
498.20 1.03647
498.30 1.035763
498.40 1.035056
498.50 1.034349
498.60 1.033643
498.70 1.032239
498.80 1.030836
498.90 1.029348
499.00 1.027861
499.10 1.026375
499.20 1.024637
499.30 1.022318
499.40 1.019867
499.50 1.017418
499.60 1.014971
499.70 1.012407
499.80 1.008268
499.90 1.004133
500.00 1
500.10 0.9958707
500.20 0.9904541
500.30 0.9823006
500.40 0.9741535
500.50 0.9660128
500.60 0.9578786
500.70 0.9497507
500.80 0.9385574
500.90 0.9208476
501.00 0.9031519
501.10 0.8854702
501.20 0.8532396
501.30 0.8104567
501.40 0.7593532
501.50 0.6533549
501.60 0.6331051
501.70 0.7745478
501.80 0.8412951
501.90 0.8816725
502.00 0.9151995
502.10 0.9342169
502.20 0.9526175
502.30 0.9630157
502.40 0.9715184
502.50 0.9760057
502.60 0.9804892
502.70 0.9849691
502.80 0.9894454
502.90 0.9939181
503.00 0.9973417
503.10 0.9985421
503.20 0.9997414
503.30 1.00094
503.40 1.001641
503.50 1.00093
503.60 1.00022
503.70 0.9995108
503.80 0.9985807
503.90 0.9960302
504.00 0.9899448
504.10 0.9763513
504.20 0.9627684
504.30 0.9491962
504.40 0.9379729
504.50 0.9334105
504.60 0.9240763
504.70 0.8692435
504.80 0.7123093
504.90 0.8109775
505.00 0.8670915
505.10 0.8979421
505.20 0.9236309
505.30 0.9346833
505.40 0.9457268
505.50 0.9567616
505.60 0.9652906
505.70 0.9685089
505.80 0.9717245
505.90 0.9749376
506.00 0.978148
506.10 0.9813558
506.20 0.9839435
506.30 0.9847721
506.40 0.9856
506.50 0.9864271
506.60 0.9872535
506.70 0.9880792
506.80 0.9889042
506.90 0.9897284
507.00 0.9905519
507.10 0.991179
507.20 0.9912853
507.30 0.9910938
507.40 0.9909024
507.50 0.990711
507.60 0.9905197
507.70 0.9903285
507.80 0.9901373
507.90 0.9899463
508.00 0.9897553
508.10 0.9895643
508.20 0.9893735
508.30 0.9891827
508.40 0.988992
508.50 0.9888014
508.60 0.9886108
508.70 0.9884203
508.80 0.9881784
508.90 0.9877901
509.00 0.987402
509.10 0.9869805
509.20 0.986488
509.30 0.9859957
509.40 0.9855037
509.50 0.9850121
509.60 0.9845208
509.70 0.9840297
509.80 0.983539
509.90 0.9830486
510.00 0.9825585
510.10 0.9820688
510.20 0.9815793
510.30 0.9810793
510.40 0.9805489
510.50 0.9800188
510.60 0.979489
510.70 0.9789596
510.80 0.9784305
510.90 0.9779018
511.00 0.9773734
511.10 0.9768454
511.20 0.9763176
511.30 0.9757903
511.40 0.9752632
511.50 0.9747365
511.60 0.9741998
511.70 0.9736416
511.80 0.9730837
511.90 0.9725261
512.00 0.971969
512.10 0.9714121
512.20 0.9708557
512.30 0.970306
512.40 0.9697749
512.50 0.9692441
512.60 0.9687136
512.70 0.9681835
512.80 0.9676537
512.90 0.9671243
513.00 0.9665952
513.10 0.9660665
513.20 0.9655381
513.30 0.96501
513.40 0.9644823
513.50 0.9639549
513.60 0.9634278
513.70 0.9629011
513.80 0.9623747
513.90 0.9618487
514.00 0.961287
514.10 0.9607198
514.20 0.9601529
514.30 0.9595865
514.40 0.9590204
514.50 0.9584547
514.60 0.9578893
514.70 0.9573243
514.80 0.9567597
514.90 0.9561955
515.00 0.9556316
515.10 0.9550681
515.20 0.9545049
515.30 0.9539421
515.40 0.9533797
515.50 0.9528176
515.60 0.9522559
515.70 0.9516946
515.80 0.9511336
515.90 0.950573
516.00 0.9500128
516.10 0.9494529
516.20 0.9488934
516.30 0.9483342
516.40 0.9477754
516.50 0.9472131
516.60 0.946631
516.70 0.9460494
516.80 0.945468
516.90 0.9448871
517.00 0.9443065
517.10 0.9437263
517.20 0.9431465
517.30 0.9425671
517.40 0.9419881
517.50 0.9414094
517.60 0.9408311
517.70 0.9402532
517.80 0.9396756
517.90 0.9390985
518.00 0.9385217
518.10 0.9379453
518.20 0.9373692
518.30 0.9367935
518.40 0.9362182
518.50 0.9356433
518.60 0.9350688
518.70 0.9344946
518.80 0.9339208
518.90 0.9333474
519.00 0.9327743
519.10 0.9322027
519.20 0.9316325
519.30 0.9310628
519.40 0.9304934
519.50 0.9299244
519.60 0.9293557
519.70 0.9287874
519.80 0.9282195
519.90 0.927652
520.00 0.9270848
520.10 0.926518
520.20 0.9259515
520.30 0.9253855
520.40 0.9248197
520.50 0.9242544
520.60 0.9236894
520.70 0.9231248
520.80 0.9225606
520.90 0.9219967
521.00 0.9214332
521.10 0.92087
521.20 0.9203072
521.30 0.9197448
521.40 0.9191827
521.50 0.918621
521.60 0.9180597
521.70 0.9174987
521.80 0.9169381
521.90 0.9163779
522.00 0.915818
522.10 0.9152585
522.20 0.9146993
522.30 0.9141405
522.40 0.9135821
522.50 0.913024
522.60 0.9124663
522.70 0.9119089
522.80 0.9113519
522.90 0.9107953
523.00 0.910239
523.10 0.909683
523.20 0.9091275
523.30 0.9085723
523.40 0.9080174
523.50 0.9074629
523.60 0.9069088
523.70 0.906355
523.80 0.9058016
523.90 0.9052485
524.00 0.9046958
524.10 0.9041435
524.20 0.9035915
524.30 0.903041
524.40 0.9024917
524.50 0.9019428
524.60 0.9013942
524.70 0.900846
524.80 0.9002981
524.90 0.8997506
525.00 0.8992035
525.10 0.8986567
525.20 0.8981102
525.30 0.8975641
525.40 0.8970184
525.50 0.896473
525.60 0.8959279
525.70 0.8953832
525.80 0.8948389
525.90 0.8942948
526.00 0.8937512
526.10 0.8932079
526.20 0.8926649
526.30 0.8921223
526.40 0.8915801
526.50 0.8910381
526.60 0.8904966
526.70 0.8899554
526.80 0.8894145
526.90 0.888874
527.00 0.8883338
527.10 0.8877939
527.20 0.8872544
527.30 0.8867153
527.40 0.8861765
527.50 0.8856381
527.60 0.8850999
527.70 0.8845622
527.80 0.8840248
527.90 0.8834877
528.00 0.8829509
528.10 0.8824146
528.20 0.8818785
528.30 0.8813428
528.40 0.8808074
528.50 0.8802724
528.60 0.8797377
528.70 0.8792034
528.80 0.8786694
528.90 0.8781357
529.00 0.8776024
529.10 0.8770695
529.20 0.8765368
529.30 0.8760045
529.40 0.8754726
529.50 0.8749412
529.60 0.874412
529.70 0.8738831
529.80 0.8733546
529.90 0.8728263
530.00 0.8722985
530.10 0.8717709
530.20 0.8712437
530.30 0.8707168
530.40 0.8701903
530.50 0.8696641
530.60 0.8691382
530.70 0.8686127
530.80 0.8680875
530.90 0.8675626
531.00 0.8670381
531.10 0.8665139
531.20 0.86599
531.30 0.8654665
531.40 0.8649433
531.50 0.8644204
531.60 0.8638979
531.70 0.8633757
531.80 0.8628538
531.90 0.8623323
532.00 0.8618111
532.10 0.8612902
532.20 0.8607696
532.30 0.8602493
532.40 0.8597294
532.50 0.8592097
532.60 0.8586904
532.70 0.8581715
532.80 0.8576528
532.90 0.8571345
533.00 0.8566165
533.10 0.8560989
533.20 0.8555815
533.30 0.8550645
533.40 0.8545479
533.50 0.8540315
533.60 0.8535155
533.70 0.8529998
533.80 0.8524844
533.90 0.8519694
534.00 0.8514547
534.10 0.8509403
534.20 0.8504262
534.30 0.8499125
534.40 0.8493991
534.50 0.848886
534.60 0.8483732
534.70 0.8478608
534.80 0.847349
534.90 0.8468392
535.00 0.8463297
535.10 0.8458205
535.20 0.8453117
535.30 0.8448031
535.40 0.8442949
535.50 0.843787
535.60 0.8432795
535.70 0.8427722
535.80 0.8422653
535.90 0.8417586
536.00 0.8412524
536.10 0.8407464
536.20 0.8402407
536.30 0.8397354
536.40 0.8392304
536.50 0.8387257
536.60 0.8382213
536.70 0.8377172
536.80 0.8372135
536.90 0.83671
537.00 0.8362069
537.10 0.8357041
537.20 0.8352016
537.30 0.8346995
537.40 0.8341976
537.50 0.8336961
537.60 0.8331949
537.70 0.8326939
537.80 0.8321934
537.90 0.8316931
538.00 0.8311931
538.10 0.8306935
538.20 0.8301941
538.30 0.8296951
538.40 0.8291964
538.50 0.828698
538.60 0.8282
538.70 0.8277022
538.80 0.8272047
538.90 0.8267076
539.00 0.8262108
539.10 0.8257142
539.20 0.825218
539.30 0.8247221
539.40 0.8242266
539.50 0.8237313
539.60 0.8232363
539.70 0.8227417
539.80 0.8222473
539.90 0.8217533
540.00 0.8212596
540.10 0.8207662
540.20 0.8202744
540.30 0.8197834
540.40 0.8192928
540.50 0.8188025
540.60 0.8183124
540.70 0.8178227
540.80 0.8173333
540.90 0.8168442
541.00 0.8163554
541.10 0.8158669
541.20 0.8153788
541.30 0.8148909
541.40 0.8144033
541.50 0.813916
541.60 0.8134291
541.70 0.8129424
541.80 0.812456
541.90 0.81197
542.00 0.8114842
542.10 0.8109988
542.20 0.8105136
542.30 0.8100288
542.40 0.8095443
542.50 0.80906
542.60 0.8085761
542.70 0.8080925
542.80 0.8076091
542.90 0.8071261
543.00 0.8066434
543.10 0.8061609
543.20 0.8056788
543.30 0.805197
543.40 0.8047154
543.50 0.8042342
543.60 0.8037533
543.70 0.8032727
543.80 0.8027923
543.90 0.8023123
544.00 0.8018326
544.10 0.8013531
544.20 0.800874
544.30 0.8003952
544.40 0.7999166
544.50 0.7994384
544.60 0.7989604
544.70 0.7984828
544.80 0.7980054
544.90 0.7975284
545.00 0.7970516
545.10 0.7965751
545.20 0.796099
545.30 0.7956231
545.40 0.7951475
545.50 0.7946723
545.60 0.7941986
545.70 0.7937257
545.80 0.7932532
545.90 0.7927809
546.00 0.792309
546.10 0.7918373
546.20 0.7913659
546.30 0.7908948
546.40 0.790424
546.50 0.7899535
546.60 0.7894833
546.70 0.7890134
546.80 0.7885438
546.90 0.7880744
547.00 0.7876054
547.10 0.7871366
547.20 0.7866682
547.30 0.7862
547.40 0.7857321
547.50 0.7852645
547.60 0.7847972
547.70 0.7843302
547.80 0.7838635
547.90 0.783397
548.00 0.7829309
548.10 0.782465
548.20 0.7819994
548.30 0.7815341
548.40 0.781069
548.50 0.7806043
548.60 0.7801398
548.70 0.7796755
548.80 0.7792116
548.90 0.778748
549.00 0.7782846
549.10 0.7778216
549.20 0.7773588
549.30 0.7768963
549.40 0.7764341
549.50 0.7759722
549.60 0.7755105
549.70 0.7750492
549.80 0.7745881
549.90 0.7741273
550.00 0.7736668
550.10 0.7732066
550.20 0.7727467
550.30 0.772287
550.40 0.7718277
550.50 0.7713686
550.60 0.7709098
550.70 0.7704513
550.80 0.769993
550.90 0.7695351
551.00 0.7690777
551.10 0.7686221
551.20 0.7681668
551.30 0.7677118
551.40 0.767257
551.50 0.7668026
551.60 0.7663484
551.70 0.7658945
551.80 0.7654408
551.90 0.7649875
552.00 0.7645344
552.10 0.7640816
552.20 0.7636291
552.30 0.7631769
552.40 0.7627249
552.50 0.7622732
552.60 0.7618218
552.70 0.7613707
552.80 0.7609199
552.90 0.7604693
553.00 0.760019
553.10 0.759569
553.20 0.7591192
553.30 0.7586698
553.40 0.7582206
553.50 0.7577716
553.60 0.757323
553.70 0.7568746
553.80 0.7564265
553.90 0.7559787
554.00 0.7555312
554.10 0.7550839
554.20 0.7546369
554.30 0.7541901
554.40 0.7537437
554.50 0.7532975
554.60 0.7528516
554.70 0.752406
554.80 0.7519606
554.90 0.7515155
555.00 0.7510707
555.10 0.7506261
555.20 0.7501819
555.30 0.7497379
555.40 0.7492941
555.50 0.7488507
555.60 0.7484075
555.70 0.7479646
555.80 0.7475219
555.90 0.7470795
556.00 0.7466374
556.10 0.7461956
556.20 0.745754
556.30 0.7453127
556.40 0.7448717
556.50 0.7444305
556.60 0.7439822
556.70 0.7435342
556.80 0.7430864
556.90 0.7426389
557.00 0.7421917
557.10 0.7417448
557.20 0.7412981
557.30 0.7408517
557.40 0.7404056
557.50 0.7399598
557.60 0.7395142
557.70 0.7390689
557.80 0.7386239
557.90 0.7381791
558.00 0.7377346
558.10 0.7372904
558.20 0.7368465
558.30 0.7364028
558.40 0.7359594
558.50 0.7355162
558.60 0.7350734
558.70 0.7346308
558.80 0.7341885
558.90 0.7337464
559.00 0.7333046
559.10 0.7328631
559.20 0.7324219
559.30 0.7319809
559.40 0.7315402
559.50 0.7310997
559.60 0.7306596
559.70 0.7302197
559.80 0.72978
559.90 0.7293407
560.00 0.7289016
560.10 0.7284627
560.20 0.7280241
560.30 0.7275858
560.40 0.7271478
560.50 0.72671
560.60 0.7262725
560.70 0.7258353
560.80 0.7253983
560.90 0.7249616
561.00 0.7245252
561.10 0.724089
561.20 0.7236531
561.30 0.7232174
561.40 0.7227821
561.50 0.7223469
561.60 0.7219121
561.70 0.7214775
561.80 0.7210432
561.90 0.7206091
562.00 0.7201753
562.10 0.7197462
562.20 0.7193239
562.30 0.718902
562.40 0.7184802
562.50 0.7180587
562.60 0.7176375
562.70 0.7172165
562.80 0.7167958
562.90 0.7163754
563.00 0.7159552
563.10 0.7155352
563.20 0.7151155
563.30 0.714696
563.40 0.7142768
563.50 0.7138579
563.60 0.7134392
563.70 0.7130208
563.80 0.7126026
563.90 0.7121846
564.00 0.711767
564.10 0.7113495
564.20 0.7109323
564.30 0.7105154
564.40 0.7100987
564.50 0.7096823
564.60 0.7092661
564.70 0.7088502
564.80 0.7084345
564.90 0.708019
565.00 0.7076038
565.10 0.7071888
565.20 0.7067741
565.30 0.7063596
565.40 0.7059453
565.50 0.7055314
565.60 0.7051176
565.70 0.7047041
565.80 0.7042909
565.90 0.7038779
566.00 0.7034651
566.10 0.7030526
566.20 0.7026404
566.30 0.7022283
566.40 0.7018166
566.50 0.7014051
566.60 0.7009938
566.70 0.7005828
566.80 0.700172
566.90 0.6997615
567.00 0.6993512
567.10 0.6989411
567.20 0.6985314
567.30 0.6981218
567.40 0.6977125
567.50 0.6973035
567.60 0.6968946
567.70 0.6964796
567.80 0.696037
567.90 0.6955947
568.00 0.6951527
568.10 0.694711
568.20 0.6942695
568.30 0.6938283
568.40 0.6933874
568.50 0.6929467
568.60 0.6925063
568.70 0.6920662
568.80 0.6916263
568.90 0.6911867
569.00 0.6907474
569.10 0.6903083
569.20 0.6898695
569.30 0.689431
569.40 0.6889927
569.50 0.6885547
569.60 0.6881169
569.70 0.6876795
569.80 0.6872422
569.90 0.6868053
570.00 0.6863686
570.10 0.6859322
570.20 0.685496
570.30 0.6850601
570.40 0.6846245
570.50 0.6841891
570.60 0.683754
570.70 0.6833192
570.80 0.6828846
570.90 0.6824503
571.00 0.6820163
571.10 0.6815825
571.20 0.6811489
571.30 0.6807157
571.40 0.6802827
571.50 0.6798499
571.60 0.6794174
571.70 0.6789852
571.80 0.6785533
571.90 0.6781216
572.00 0.6776901
572.10 0.6772589
572.20 0.676828
572.30 0.6763974
572.40 0.675967
572.50 0.6755368
572.60 0.6751069
572.70 0.6746773
572.80 0.674248
572.90 0.6738189
573.00 0.67339
573.10 0.6729614
573.20 0.6725331
573.30 0.672105
573.40 0.6716587
573.50 0.6711872
573.60 0.6707159
573.70 0.6702449
573.80 0.6697742
573.90 0.6693038
574.00 0.6688337
574.10 0.6683639
574.20 0.6678943
574.30 0.667425
574.40 0.6669561
574.50 0.6664874
574.60 0.666019
574.70 0.6655509
574.80 0.665083
574.90 0.6646155
575.00 0.6641482
575.10 0.6636812
575.20 0.6632146
575.30 0.6627481
575.40 0.662282
575.50 0.6618162
575.60 0.6613506
575.70 0.6608854
575.80 0.6604204
575.90 0.6599557
576.00 0.6594912
576.10 0.6590271
576.20 0.6585632
576.30 0.6580997
576.40 0.6576364
576.50 0.6571734
576.60 0.6567106
576.70 0.6562482
576.80 0.655786
576.90 0.6553241
577.00 0.6548625
577.10 0.6544012
577.20 0.6539402
577.30 0.6534794
577.40 0.6530189
577.50 0.6525587
577.60 0.6520655
577.70 0.6515182
577.80 0.6509712
577.90 0.6504246
578.00 0.6498783
578.10 0.6493324
578.20 0.6487868
578.30 0.6482415
578.40 0.6476966
578.50 0.647152
578.60 0.6466078
578.70 0.6460639
578.80 0.6455203
578.90 0.6449771
579.00 0.6444342
579.10 0.6438887
579.20 0.6433138
579.30 0.6427392
579.40 0.642165
579.50 0.6415911
579.60 0.6410176
579.70 0.6404444
579.80 0.6398717
579.90 0.6392992
580.00 0.6387271
580.10 0.6380944
580.20 0.6373627
580.30 0.6366314
580.40 0.6359006
580.50 0.6351702
580.60 0.6344403
580.70 0.6337109
580.80 0.6329819
580.90 0.6322534
581.00 0.6315254
581.10 0.6307978
581.20 0.6300707
581.30 0.6293441
581.40 0.6286179
581.50 0.6278922
581.60 0.6271669
581.70 0.6264421
581.80 0.6257178
581.90 0.6249939
582.00 0.6242705
582.10 0.6234218
582.20 0.6223685
582.30 0.6213159
582.40 0.6202641
582.50 0.6192129
582.60 0.6181623
582.70 0.6171125
582.80 0.6160634
582.90 0.6150149
583.00 0.6139671
583.10 0.61292
583.20 0.6118736
583.30 0.6108279
583.40 0.6097828
583.50 0.6087385
583.60 0.6074435
583.70 0.6057394
583.80 0.6040365
583.90 0.6023347
584.00 0.600634
584.10 0.5989345
584.20 0.5972361
584.30 0.5955388
584.40 0.5938427
584.50 0.5921476
584.60 0.5904537
584.70 0.5887609
584.80 0.5870693
584.90 0.5852461
585.00 0.5828198
585.10 0.5803952
585.20 0.5776159
585.30 0.5742572
585.40 0.5709008
585.50 0.5675466
585.60 0.5641947
585.70 0.560845
585.80 0.5574976
585.90 0.5541525
586.00 0.5508096
586.10 0.5474689
586.20 0.5430297
586.30 0.5367979
586.40 0.5305704
586.50 0.5243471
586.60 0.518128
586.70 0.5119131
586.80 0.5036682
586.90 0.4921111
587.00 0.4805617
587.10 0.4690203
587.20 0.4542948
587.30 0.4343734
587.40 0.4130288
587.50 0.3905797
587.60 0.3885493
587.70 0.4033431
587.80 0.4277932
587.90 0.449463
588.00 0.4673307
588.10 0.4790091
588.20 0.4906795
588.30 0.5023419
588.40 0.5117541
588.50 0.5175026
588.60 0.5232472
588.70 0.5289879
588.80 0.5347246
588.90 0.5404574
589.00 0.545018
589.10 0.54767
589.20 0.5503201
589.30 0.5529684
589.40 0.5556149
589.50 0.5582596
589.60 0.5609024
589.70 0.5635434
589.80 0.5661826
589.90 0.5688199
590.00 0.5709397
590.10 0.5722169
590.20 0.5734932
590.30 0.5747686
590.40 0.5760431
590.50 0.5773167
590.60 0.5785894
590.70 0.5798612
590.80 0.5807443
590.90 0.5814526
591.00 0.5821604
591.10 0.5828676
591.20 0.5835744
591.30 0.5842807
591.40 0.5849864
591.50 0.5856916
591.60 0.5862315
591.70 0.586502
591.80 0.5867724
591.90 0.5870425
592.00 0.5873124
592.10 0.5875821
592.20 0.5878515
592.30 0.5881208
592.40 0.5883898
592.50 0.5886586
592.60 0.5889273
592.70 0.5891957
592.80 0.5894638
592.90 0.5897318
593.00 0.5899995
593.10 0.590143
593.20 0.5900839
593.30 0.5900249
593.40 0.5899658
593.50 0.5899068
593.60 0.5898478
593.70 0.5897888
593.80 0.5897297
593.90 0.5896707
594.00 0.5896117
594.10 0.5895527
594.20 0.5894937
594.30 0.5894347
594.40 0.5893757
594.50 0.5893168
594.60 0.5892578
594.70 0.5891988
594.80 0.5891399
594.90 0.5890809
595.00 0.589022
595.10 0.5889102
595.20 0.5887124
595.30 0.5885146
595.40 0.5883169
595.50 0.5881193
595.60 0.5879219
595.70 0.5877245
595.80 0.5875272
595.90 0.5873301
596.00 0.587133
596.10 0.586936
596.20 0.5867391
596.30 0.5865424
596.40 0.5863457
596.50 0.5861491
596.60 0.5859526
596.70 0.5857562
596.80 0.58556
596.90 0.5853638
597.00 0.5851677
597.10 0.5849717
597.20 0.5847758
597.30 0.58458
597.40 0.5843843
597.50 0.5841887
597.60 0.5839731
597.70 0.5837249
597.80 0.5834768
597.90 0.5832288
598.00 0.582981
598.10 0.5827332
598.20 0.5824857
598.30 0.5822382
598.40 0.5819909
598.50 0.5817437
598.60 0.5814967
598.70 0.5812498
598.80 0.581003
598.90 0.5807563
599.00 0.5805098
599.10 0.5802634
599.20 0.5800172
599.30 0.579771
599.40 0.5794863
599.50 0.5792016
599.60 0.5789172
599.70 0.5786329
599.80 0.5783487
599.90 0.5780647
600.00 0.5777809
600.10 0.5774972
600.20 0.5772137
600.30 0.5769303
600.40 0.5766471
600.50 0.5763641
600.60 0.5760812
600.70 0.5757985
600.80 0.5755159
600.90 0.5752334
601.00 0.5749512
601.10 0.5746691
601.20 0.5743871
601.30 0.5741053
601.40 0.5738101
601.50 0.5735151
601.60 0.5732202
601.70 0.5729255
601.80 0.5726309
601.90 0.5723366
602.00 0.5720423
602.10 0.5717483
602.20 0.5714544
602.30 0.5711607
602.40 0.5708671
602.50 0.5705737
602.60 0.5702805
602.70 0.5700861
602.80 0.5698969
602.90 0.569595
603.00 0.5692933
603.10 0.5689918
603.20 0.5686904
603.30 0.5683891
603.40 0.5680881
603.50 0.5677872
603.60 0.5674865
603.70 0.5671859
603.80 0.5668856
603.90 0.5665854
604.00 0.5662853
604.10 0.5659854
604.20 0.5656857
604.30 0.5653862
604.40 0.5650868
604.50 0.5647652
604.60 0.5644437
604.70 0.5641224
604.80 0.5638013
604.90 0.5634803
605.00 0.5631596
605.10 0.562839
605.20 0.5625186
605.30 0.5621984
605.40 0.5618784
605.50 0.561469
605.60 0.5610599
605.70 0.560651
605.80 0.5602424
605.90 0.559834
606.00 0.5594258
606.10 0.5585712
606.20 0.5577172
606.30 0.5568636
606.40 0.5560106
606.50 0.5529277
606.60 0.5498468
606.70 0.5293819
606.80 0.5243053
606.90 0.5350473
607.00 0.5397699
607.10 0.5418182
607.20 0.543865
607.30 0.544687
607.40 0.5455084
607.50 0.5463292
607.60 0.5471495
607.70 0.5473397
607.80 0.5475297
607.90 0.5477196
608.00 0.5479094
608.10 0.548099
608.20 0.5482884
608.30 0.5482111
608.40 0.5481337
608.50 0.5480564
608.60 0.5479791
608.70 0.5478846
608.80 0.5477825
608.90 0.5476803
609.00 0.5475782
609.10 0.5474762
609.20 0.5473742
609.30 0.5471669
609.40 0.5469597
609.50 0.5467526
609.60 0.5465457
609.70 0.5463388
609.80 0.5461321
609.90 0.5459254
610.00 0.5457189
610.10 0.5455125
610.20 0.5453061
610.30 0.5450999
610.40 0.5448938
610.50 0.5446878
610.60 0.5444819
610.70 0.5442761
610.80 0.5440704
610.90 0.5438337
611.00 0.5435971
611.10 0.5433606
611.20 0.5431242
611.30 0.542888
611.40 0.5426519
611.50 0.5424159
611.60 0.5421801
611.70 0.5419443
611.80 0.5417087
611.90 0.5414733
612.00 0.5412379
612.10 0.5410027
612.20 0.5407676
612.30 0.5405326
612.40 0.5402686
612.50 0.5400047
612.60 0.539741
612.70 0.5394774
612.80 0.5392139
612.90 0.5389506
613.00 0.5386875
613.10 0.5384244
613.20 0.5381616
613.30 0.5378988
613.40 0.5376362
613.50 0.5373738
613.60 0.5371115
613.70 0.5368493
613.80 0.5365873
613.90 0.5363254
614.00 0.5360637
614.10 0.5358021
614.20 0.5355406
614.30 0.5352793
614.40 0.5350009
614.50 0.5347225
614.60 0.5344444
614.70 0.5341664
614.80 0.5338884
614.90 0.5336106
615.00 0.5333329
615.10 0.5330554
615.20 0.5327781
615.30 0.5325009
615.40 0.5322238
615.50 0.5319469
615.60 0.5316702
615.70 0.5313936
615.80 0.5311172
615.90 0.5308409
616.00 0.5305647
616.10 0.5302887
616.20 0.5300129
616.30 0.5297372
616.40 0.5294617
616.50 0.5291863
616.60 0.5289111
616.70 0.528636
616.80 0.5283611
616.90 0.5280837
617.00 0.5278065
617.10 0.5275294
617.20 0.5272525
617.30 0.5269757
617.40 0.5266991
617.50 0.5264226
617.60 0.5261463
617.70 0.5258701
617.80 0.5255941
617.90 0.5253183
618.00 0.5250425
618.10 0.524767
618.20 0.5244916
618.30 0.5242163
618.40 0.5239412
618.50 0.5236662
618.60 0.5233914
618.70 0.5231168
618.80 0.5228423
618.90 0.5225679
619.00 0.5222937
619.10 0.5220197
619.20 0.5217457
619.30 0.521472
619.40 0.5211984
619.50 0.5209249
619.60 0.5206516
619.70 0.5203785
619.80 0.5201054
619.90 0.5198326
620.00 0.5195599
620.10 0.5192873
620.20 0.5190149
620.30 0.5187426
620.40 0.5184705
620.50 0.5181985
620.60 0.5179267
620.70 0.517655
620.80 0.5173835
620.90 0.5171104
621.00 0.5168342
621.10 0.5165582
621.20 0.5162823
621.30 0.5160066
621.40 0.515731
621.50 0.5154556
621.60 0.5151803
621.70 0.5149052
621.80 0.5146302
621.90 0.5143554
622.00 0.5140807
622.10 0.5138062
622.20 0.5135318
622.30 0.5132576
622.40 0.5129836
622.50 0.5127096
622.60 0.5124359
622.70 0.5121622
622.80 0.5118888
622.90 0.5116154
623.00 0.5113423
623.10 0.5110692
623.20 0.5107964
623.30 0.5105236
623.40 0.5102511
623.50 0.5099786
623.60 0.5097064
623.70 0.5094342
623.80 0.5091622
623.90 0.5088904
624.00 0.5086187
624.10 0.5083472
624.20 0.5080758
624.30 0.5078045
624.40 0.5075334
624.50 0.5072625
624.60 0.5069917
624.70 0.506721
624.80 0.5064505
624.90 0.5061802
625.00 0.5059099
625.10 0.5056399
625.20 0.50537
625.30 0.5051002
625.40 0.5048306
625.50 0.5045611
625.60 0.5042917
625.70 0.5040226
625.80 0.5037535
625.90 0.5034846
626.00 0.5032159
626.10 0.5029473
626.20 0.5026788
626.30 0.5024105
626.40 0.5021423
626.50 0.5018743
626.60 0.5016065
626.70 0.5013387
626.80 0.5010711
626.90 0.5008037
627.00 0.5005364
627.10 0.5002696
627.20 0.5000036
627.30 0.4997378
627.40 0.4994721
627.50 0.4992066
627.60 0.4989412
627.70 0.498676
627.80 0.4984109
627.90 0.4981459
628.00 0.4978811
628.10 0.4976165
628.20 0.4973519
628.30 0.4970876
628.40 0.4968233
628.50 0.4965592
628.60 0.4962953
628.70 0.4960315
628.80 0.4957678
628.90 0.4955043
629.00 0.4952409
629.10 0.4949777
629.20 0.4947146
629.30 0.4944517
629.40 0.4941888
629.50 0.4939262
629.60 0.4936637
629.70 0.4934013
629.80 0.493139
629.90 0.4928769
630.00 0.492615
630.10 0.4923532
630.20 0.4920915
630.30 0.49183
630.40 0.4915686
630.50 0.4913074
630.60 0.4910463
630.70 0.4907854
630.80 0.4905246
630.90 0.490264
631.00 0.4900034
631.10 0.4897431
631.20 0.4894828
631.30 0.4892227
631.40 0.4889628
631.50 0.488703
631.60 0.4884433
631.70 0.4881838
631.80 0.4879244
631.90 0.4876651
632.00 0.487406
632.10 0.487147
632.20 0.4868882
632.30 0.4866295
632.40 0.486371
632.50 0.4861125
632.60 0.4858543
632.70 0.4855961
632.80 0.4853381
632.90 0.4850803
633.00 0.4848226
633.10 0.484565
633.20 0.4843075
633.30 0.4840502
633.40 0.4837936
633.50 0.4835376
633.60 0.4832817
633.70 0.4830259
633.80 0.4827703
633.90 0.4825148
634.00 0.4822594
634.10 0.4820042
634.20 0.4817491
634.30 0.4814942
634.40 0.4812394
634.50 0.4809847
634.60 0.4807302
634.70 0.4804758
634.80 0.4802215
634.90 0.4799674
635.00 0.4797134
635.10 0.4794595
635.20 0.4792058
635.30 0.4789523
635.40 0.4786988
635.50 0.4784455
635.60 0.4781923
635.70 0.4779393
635.80 0.4776864
635.90 0.4774336
636.00 0.477181
636.10 0.4769285
636.20 0.4766761
636.30 0.4764239
636.40 0.4761718
636.50 0.4759199
636.60 0.4756681
636.70 0.4754164
636.80 0.4751649
636.90 0.4749135
637.00 0.4746623
637.10 0.4744112
637.20 0.4741602
637.30 0.4739093
637.40 0.4736586
637.50 0.473408
637.60 0.4731576
637.70 0.4729073
637.80 0.4726571
637.90 0.4724071
638.00 0.4721572
638.10 0.4719074
638.20 0.4716577
638.30 0.4714082
638.40 0.4711588
638.50 0.4709096
638.60 0.4706605
638.70 0.4704115
638.80 0.4701627
638.90 0.469914
639.00 0.4696654
639.10 0.4694169
639.20 0.4691686
639.30 0.4689204
639.40 0.4686724
639.50 0.4684245
639.60 0.4681767
639.70 0.4679293
639.80 0.4676827
639.90 0.4674364
640.00 0.4671901
640.10 0.466944
640.20 0.466698
640.30 0.4664522
640.40 0.4662064
640.50 0.4659609
640.60 0.4657154
640.70 0.4654701
640.80 0.4652249
640.90 0.4649798
641.00 0.4647348
641.10 0.46449
641.20 0.4642454
641.30 0.4640008
641.40 0.4637564
641.50 0.4635121
641.60 0.4632679
641.70 0.4630239
641.80 0.46278
641.90 0.4625362
642.00 0.4622926
642.10 0.4620491
642.20 0.4618057
642.30 0.4615624
642.40 0.4613193
642.50 0.4610763
642.60 0.4608335
642.70 0.4605907
642.80 0.4603481
642.90 0.4601026
643.00 0.4598478
643.10 0.4595932
643.20 0.4593387
643.30 0.4590843
643.40 0.45883
643.50 0.4585759
643.60 0.4583219
643.70 0.4580681
643.80 0.4578144
643.90 0.4575608
644.00 0.4573074
644.10 0.4570541
644.20 0.4568009
644.30 0.4565479
644.40 0.456295
644.50 0.4560422
644.60 0.4557896
644.70 0.4555371
644.80 0.4552848
644.90 0.4550326
645.00 0.4547805
645.10 0.4545285
645.20 0.4542767
645.30 0.454025
645.40 0.4537735
645.50 0.4535221
645.60 0.4532708
645.70 0.4530196
645.80 0.4527686
645.90 0.4525177
646.00 0.452267
646.10 0.4520167
646.20 0.4517673
646.30 0.451518
646.40 0.4512689
646.50 0.4510199
646.60 0.4507711
646.70 0.4505224
646.80 0.4502738
646.90 0.4500253
647.00 0.449777
647.10 0.4495288
647.20 0.4492807
647.30 0.4490328
647.40 0.448785
647.50 0.4485373
647.60 0.4482898
647.70 0.4480424
647.80 0.4477951
647.90 0.447548
648.00 0.447301
648.10 0.4470541
648.20 0.4468074
648.30 0.4465608
648.40 0.4463143
648.50 0.4460679
648.60 0.4458217
648.70 0.4455756
648.80 0.4453296
648.90 0.4450838
649.00 0.4448381
649.10 0.4445925
649.20 0.4443471
649.30 0.4441018
649.40 0.4438566
649.50 0.4436116
649.60 0.4433667
649.70 0.443122
649.80 0.4428774
649.90 0.4426329
650.00 0.4423885
650.10 0.4421443
650.20 0.4419001
650.30 0.4416562
650.40 0.4414123
650.50 0.4411686
650.60 0.440925
650.70 0.4406815
650.80 0.4404382
650.90 0.440195
651.00 0.4399519
651.10 0.439709
651.20 0.4394661
651.30 0.4392235
651.40 0.4389809
651.50 0.4387385
651.60 0.4384961
651.70 0.438254
651.80 0.4380119
651.90 0.43777
652.00 0.4375282
652.10 0.4372865
652.20 0.437045
652.30 0.4368036
652.40 0.4365623
652.50 0.4363211
652.60 0.4360707
652.70 0.4358154
652.80 0.4355602
652.90 0.4353052
653.00 0.4350503
653.10 0.4347955
653.20 0.4345409
653.30 0.4342864
653.40 0.4340321
653.50 0.4337778
653.60 0.4335238
653.70 0.4332698
653.80 0.433016
653.90 0.4327623
654.00 0.4325088
654.10 0.4322553
654.20 0.4320021
654.30 0.4317489
654.40 0.4314959
654.50 0.431243
654.60 0.4309903
654.70 0.4307377
654.80 0.4304852
654.90 0.4302329
655.00 0.4299807
655.10 0.4297286
655.20 0.4294767
655.30 0.4292249
655.40 0.4289732
655.50 0.4287217
655.60 0.4284703
655.70 0.428219
655.80 0.4279167
655.90 0.4276146
656.00 0.4273127
656.10 0.4270109
656.20 0.4267093
656.30 0.4264078
656.40 0.4261065
656.50 0.4258054
656.60 0.4255044
656.70 0.4252036
656.80 0.424903
656.90 0.4246025
657.00 0.4243022
657.10 0.424002
657.20 0.4237021
657.30 0.4234022
657.40 0.4231026
657.50 0.4228031
657.60 0.4225037
657.70 0.4222046
657.80 0.4220762
657.90 0.4217667
658.00 0.4214255
658.10 0.4210844
658.20 0.4207435
658.30 0.4204028
658.40 0.4200622
658.50 0.4197219
658.60 0.4193817
658.70 0.4190418
658.80 0.418702
658.90 0.4183624
659.00 0.418023
659.10 0.4176608
659.20 0.4172644
659.30 0.416867
659.40 0.4164698
659.50 0.4160728
659.60 0.415676
659.70 0.4152795
659.80 0.4148832
659.90 0.4144871
660.00 0.4140912
660.10 0.4136956
660.20 0.4133002
660.30 0.4129049
660.40 0.4124097
660.50 0.4118971
660.60 0.4113847
660.70 0.4108727
660.80 0.4103609
660.90 0.4096733
661.00 0.408986
661.10 0.4082991
661.20 0.4076126
661.30 0.4069265
661.40 0.4062408
661.50 0.4055555
661.60 0.4048706
661.70 0.4041861
661.80 0.4035019
661.90 0.4023619
662.00 0.4012224
662.10 0.4000837
662.20 0.3989456
662.30 0.3978082
662.40 0.3964137
662.50 0.3941443
662.60 0.3918763
662.70 0.3896096
662.80 0.3873443
662.90 0.3829332
663.00 0.3785248
663.10 0.3704245
663.20 0.3746591
663.30 0.3932874
663.40 0.3985751
663.50 0.4001323
663.60 0.4016886
663.70 0.401914
663.80 0.4021394
663.90 0.4020702
664.00 0.4019491
664.10 0.401456
664.20 0.4009632
664.30 0.4004706
664.40 0.3999783
664.50 0.3994863
664.60 0.3989946
664.70 0.3981455
664.80 0.3972968
664.90 0.3964486
665.00 0.395601
665.10 0.3947538
665.20 0.3939071
665.30 0.3930609
665.40 0.3922152
665.50 0.3909668
665.60 0.3896481
665.70 0.3883296
665.80 0.3865172
665.90 0.3847058
666.00 0.3828955
666.10 0.3810863
666.20 0.3792782
666.30 0.3774711
666.40 0.3756651
666.50 0.3724727
666.60 0.3690375
666.70 0.3656043
666.80 0.3621731
666.90 0.358744
667.00 0.3553169
667.10 0.3498504
667.20 0.3440271
667.30 0.335577
667.40 0.3271319
667.50 0.3139497
667.60 0.2999387
667.70 0.2818479
667.80 0.2690117
667.90 0.2729245
668.00 0.2869683
668.10 0.2996223
668.20 0.3119545
668.30 0.3195481
668.40 0.3263025
668.50 0.3330528
668.60 0.339799
668.70 0.3445037
668.80 0.3475991
668.90 0.3506926
669.00 0.3537842
669.10 0.356874
669.20 0.3599619
669.30 0.3616815
669.40 0.3631591
669.50 0.3646358
669.60 0.3661116
669.70 0.3675864
669.80 0.3690604
669.90 0.3705335
670.00 0.3720057
670.10 0.373477
670.20 0.3749474
670.30 0.3759048
670.40 0.3767713
670.50 0.3776372
670.60 0.3785027
670.70 0.3793675
670.80 0.3797777
670.90 0.3801877
671.00 0.3805973
671.10 0.3810067
671.20 0.3814159
671.30 0.3818248
671.40 0.3822334
671.50 0.3826418
671.60 0.3830499
671.70 0.3834577
671.80 0.3838653
671.90 0.3840804
672.00 0.3842616
672.10 0.3844426
672.20 0.3846234
672.30 0.3848042
672.40 0.3849372
672.50 0.3850665
672.60 0.3851957
672.70 0.3853248
672.80 0.3854538
672.90 0.3855828
673.00 0.3857116
673.10 0.3858404
673.20 0.385969
673.30 0.3861691
673.40 0.3861632
673.50 0.3861208
673.60 0.3860785
673.70 0.3860362
673.80 0.3859939
673.90 0.3859517
674.00 0.3859094
674.10 0.3858671
674.20 0.3858249
674.30 0.3857826
674.40 0.3857404
674.50 0.3856981
674.60 0.3856559
674.70 0.3856137
674.80 0.3855715
674.90 0.3855293
675.00 0.3854871
675.10 0.3854449
675.20 0.3854027
675.30 0.3853606
675.40 0.385245
675.50 0.3851166
675.60 0.3849882
675.70 0.3848599
675.80 0.3847316
675.90 0.3846034
676.00 0.3844753
676.10 0.3843472
676.20 0.3842192
676.30 0.3840912
676.40 0.3839633
676.50 0.3838354
676.60 0.3837076
676.70 0.3835799
676.80 0.3834522
676.90 0.3833246
677.00 0.3831971
677.10 0.3830696
677.20 0.3829421
677.30 0.3828148
677.40 0.3826874
677.50 0.3825602
677.60 0.382433
677.70 0.3823058
677.80 0.3821787
677.90 0.3820139
678.00 0.3818425
678.10 0.3816711
678.20 0.3814998
678.30 0.3813286
678.40 0.3811575
678.50 0.3809865
678.60 0.3808156
678.70 0.3806447
678.80 0.380474
678.90 0.3803033
679.00 0.3801327
679.10 0.3799592
679.20 0.3797844
679.30 0.3796098
679.40 0.3794352
679.50 0.3792607
679.60 0.3790863
679.70 0.378912
679.80 0.3787378
679.90 0.3785637
680.00 0.3783896
680.10 0.3782157
680.20 0.3780418
680.30 0.377868
680.40 0.3776943
680.50 0.3775207
680.60 0.3773471
680.70 0.3771737
680.80 0.3770003
680.90 0.376827
681.00 0.3766538
681.10 0.3764807
681.20 0.3763077
681.30 0.3761348
681.40 0.3759619
681.50 0.3757892
681.60 0.3756165
681.70 0.3754439
681.80 0.3752714
681.90 0.3750989
682.00 0.3749266
682.10 0.3747544
682.20 0.3745822
682.30 0.3744101
682.40 0.3742381
682.50 0.3740662
682.60 0.3738943
682.70 0.3737226
682.80 0.3735509
682.90 0.3733794
683.00 0.3732079
683.10 0.3730365
683.20 0.3728651
683.30 0.3726939
683.40 0.3725227
683.50 0.3723517
683.60 0.3721807
683.70 0.3720098
683.80 0.371839
683.90 0.3716682
684.00 0.3714976
684.10 0.371327
684.20 0.3711565
684.30 0.3709861
684.40 0.3708158
684.50 0.3706456
684.60 0.3704754
684.70 0.3703054
684.80 0.3701354
684.90 0.3699655
685.00 0.3697957
685.10 0.3696259
685.20 0.3694563
685.30 0.3692867
685.40 0.3691172
685.50 0.3689478
685.60 0.3687785
685.70 0.3686093
685.80 0.3684401
685.90 0.3682594
686.00 0.3680758
686.10 0.3678922
686.20 0.3677088
686.30 0.3675255
686.40 0.3673422
686.50 0.3671591
686.60 0.366976
686.70 0.366793
686.80 0.3666102
686.90 0.3664274
687.00 0.3662447
687.10 0.3660621
687.20 0.3658795
687.30 0.3656971
687.40 0.3655148
687.50 0.3653325
687.60 0.3651504
687.70 0.3649683
687.80 0.3647863
687.90 0.3646044
688.00 0.3644227
688.10 0.364241
688.20 0.3640593
688.30 0.3638778
688.40 0.3636964
688.50 0.363515
688.60 0.3633338
688.70 0.3631526
688.80 0.3629715
688.90 0.3627906
689.00 0.3626097
689.10 0.3624289
689.20 0.3622482
689.30 0.3620675
689.40 0.361887
689.50 0.3617065
689.60 0.3615262
689.70 0.3613459
689.80 0.3611657
689.90 0.3609857
690.00 0.3608057
690.10 0.3606258
690.20 0.3604459
690.30 0.3602662
690.40 0.3600866
690.50 0.359907
690.60 0.3597275
690.70 0.3595482
690.80 0.3593689
690.90 0.3591897
691.00 0.3590106
691.10 0.3588315
691.20 0.3586526
691.30 0.3584738
691.40 0.358295
691.50 0.3581163
691.60 0.3579378
691.70 0.3577593
691.80 0.3575809
691.90 0.3574026
692.00 0.3572243
692.10 0.3570462
692.20 0.3568681
692.30 0.3566902
692.40 0.3565123
692.50 0.3563345
692.60 0.3561568
692.70 0.35598
692.80 0.355806
692.90 0.3556321
693.00 0.3554583
693.10 0.3552845
693.20 0.3551109
693.30 0.3549373
693.40 0.3547639
693.50 0.3545905
693.60 0.3544172
693.70 0.354244
693.80 0.3540709
693.90 0.3538978
694.00 0.3537249
694.10 0.353552
694.20 0.3533792
694.30 0.3532065
694.40 0.3530339
694.50 0.3528613
694.60 0.3526889
694.70 0.3525165
694.80 0.3523442
694.90 0.352172
695.00 0.3519999
695.10 0.3518279
695.20 0.351656
695.30 0.3514841
695.40 0.3513123
695.50 0.3511406
695.60 0.350969
695.70 0.3507975
695.80 0.3506261
695.90 0.3504547
696.00 0.3502835
696.10 0.3501123
696.20 0.3499412
696.30 0.3497702
696.40 0.3495992
696.50 0.3494284
696.60 0.3492489
696.70 0.3490676
696.80 0.3488863
696.90 0.348705
697.00 0.3485239
697.10 0.3483429
697.20 0.348162
697.30 0.3479811
697.40 0.3478004
697.50 0.3476197
697.60 0.3474391
697.70 0.3472586
697.80 0.3470782
697.90 0.3468979
698.00 0.3467177
698.10 0.3465376
698.20 0.3463575
698.30 0.3461776
698.40 0.3459977
698.50 0.3458179
698.60 0.3456382
698.70 0.3454586
698.80 0.3452791
698.90 0.3450997
699.00 0.3449204
699.10 0.3447136
699.20 0.3445004
699.30 0.3442874
699.40 0.3440744
699.50 0.3438616
699.60 0.3436489
699.70 0.3434549
699.80 0.3432619
699.90 0.3430691
700.00 0.3428764
700.10 0.3426837
700.20 0.3424911
700.30 0.3422987
700.40 0.3421063
700.50 0.3419141
700.60 0.3417219
700.70 0.3415298
700.80 0.3413378
700.90 0.341146
701.00 0.3409542
701.10 0.3407488
701.20 0.3405404
701.30 0.3403321
701.40 0.3401239
701.50 0.3399158
701.60 0.3397078
701.70 0.3394999
701.80 0.3392921
701.90 0.3390844
702.00 0.3388768
702.10 0.3386693
702.20 0.3384619
702.30 0.3382546
702.40 0.3380475
702.50 0.3378404
702.60 0.3375381
702.70 0.3372135
702.80 0.3368892
702.90 0.336565
703.00 0.336241
703.10 0.3359172
703.20 0.3355935
703.30 0.33527
703.40 0.3349466
703.50 0.3346235
703.60 0.3343005
703.70 0.3339777
703.80 0.333655
703.90 0.3333325
704.00 0.3330102
704.10 0.3326881
704.20 0.3320572
704.30 0.3313543
704.40 0.3306517
704.50 0.3299495
704.60 0.3292477
704.70 0.3285463
704.80 0.3278452
704.90 0.3271446
705.00 0.3264443
705.10 0.3257444
705.20 0.3241558
705.30 0.3223596
705.40 0.3205644
705.50 0.3187702
705.60 0.316977
705.70 0.3151848
705.80 0.3111302
705.90 0.306547
706.00 0.3019664
706.10 0.2973885
706.20 0.287896
706.30 0.2772558
706.40 0.2595149
706.50 0.2343763
706.60 0.2306307
706.70 0.2587467
706.80 0.2724402
706.90 0.2845786
707.00 0.2908867
707.10 0.2958257
707.20 0.3007619
707.30 0.3056953
707.40 0.3081115
707.50 0.3099367
707.60 0.3117608
707.70 0.3135839
707.80 0.3154059
707.90 0.3172269
708.00 0.3180251
708.10 0.3185833
708.20 0.3191411
708.30 0.3196986
708.40 0.3202558
708.50 0.3208126
708.60 0.3213692
708.70 0.3219254
708.80 0.3224812
708.90 0.3230368
709.00 0.3231891
709.10 0.3232468
709.20 0.3233045
709.30 0.3233622
709.40 0.3234198
709.50 0.3234774
709.60 0.3235349
709.70 0.3235923
709.80 0.3236498
709.90 0.3237071
710.00 0.3237645
710.10 0.3238218
710.20 0.323879
710.30 0.3239362
710.40 0.3239934
710.50 0.3240505
710.60 0.3239945
710.70 0.323912
710.80 0.3238295
710.90 0.3237471
711.00 0.3236647
711.10 0.3235823
711.20 0.3234999
711.30 0.3234176
711.40 0.3233354
711.50 0.3232531
711.60 0.3231709
711.70 0.3230888
711.80 0.3230066
711.90 0.3229245
712.00 0.3228424
712.10 0.3227264
712.20 0.3226024
712.30 0.3224784
712.40 0.3223546
712.50 0.3222307
712.60 0.322107
712.70 0.3219833
712.80 0.3218596
712.90 0.321736
713.00 0.3216125
713.10 0.321489
713.20 0.3213656
713.30 0.3212422
713.40 0.3211189
713.50 0.3209956
713.60 0.3208724
713.70 0.3207452
713.80 0.3206096
713.90 0.320474
714.00 0.3203385
714.10 0.3201974
714.20 0.320055
714.30 0.3199126
714.40 0.3197703
714.50 0.3196281
714.60 0.319486
714.70 0.3193439
714.80 0.3192019
714.90 0.3190599
715.00 0.318918
715.10 0.3187762
715.20 0.3186345
715.30 0.3184928
715.40 0.3183512
715.50 0.3182096
715.60 0.3180682
715.70 0.3179267
715.80 0.3177854
715.90 0.3176441
716.00 0.3175029
716.10 0.3173617
716.20 0.3172207
716.30 0.3170797
716.40 0.3169387
716.50 0.3167978
716.60 0.316653
716.70 0.3165073
716.80 0.3163617
716.90 0.3162162
717.00 0.3160707
717.10 0.3159253
717.20 0.3157799
717.30 0.3156347
717.40 0.3154894
717.50 0.3153443
717.60 0.3151992
717.70 0.3150542
717.80 0.3149093
717.90 0.3147645
718.00 0.3146197
718.10 0.3144749
718.20 0.3143269
718.30 0.314177
718.40 0.3140272
718.50 0.3138775
718.60 0.3137279
718.70 0.3135783
718.80 0.3134288
718.90 0.3132794
719.00 0.3131301
719.10 0.3129808
719.20 0.3128316
719.30 0.3126824
719.40 0.3125334
719.50 0.3123844
719.60 0.3122355
719.70 0.3120866
719.80 0.3119378
719.90 0.3117891
720.00 0.3116405
720.10 0.3114919
720.20 0.3113434
720.30 0.311195
720.40 0.3110466
720.50 0.3108983
720.60 0.3107501
720.70 0.3106057
720.80 0.3104635
720.90 0.3103106
721.00 0.3101573
721.10 0.310004
721.20 0.3098509
721.30 0.3096978
721.40 0.3095448
721.50 0.3093918
721.60 0.309239
721.70 0.3090862
721.80 0.3089334
721.90 0.3087808
722.00 0.3086282
722.10 0.3084757
722.20 0.3083233
722.30 0.3081709
722.40 0.3080186
722.50 0.3078664
722.60 0.3077143
722.70 0.3075567
722.80 0.3073962
722.90 0.3072358
723.00 0.3070755
723.10 0.3069153
723.20 0.3067551
723.30 0.306595
723.40 0.306435
723.50 0.306275
723.60 0.3061152
723.70 0.3059554
723.80 0.3057957
723.90 0.3056361
724.00 0.3054765
724.10 0.305317
724.20 0.3051365
724.30 0.3049448
724.40 0.3047531
724.50 0.3045615
724.60 0.30437
724.70 0.3041786
724.80 0.3039873
724.90 0.3037961
725.00 0.303605
725.10 0.303414
725.20 0.303223
725.30 0.3030322
725.40 0.3028415
725.50 0.3026508
725.60 0.3024603
725.70 0.3022698
725.80 0.3019891
725.90 0.3016599
726.00 0.3013309
726.10 0.301002
726.20 0.3006733
726.30 0.3003448
726.40 0.3000164
726.50 0.2996882
726.60 0.2993602
726.70 0.2990323
726.80 0.2983762
726.90 0.2975436
727.00 0.2967115
727.10 0.2958798
727.20 0.2950485
727.30 0.2942177
727.40 0.2922367
727.50 0.2896372
727.60 0.2870393
727.70 0.2844427
727.80 0.2784999
727.90 0.2707584
728.00 0.2573278
728.10 0.2231356
728.20 0.2227649
728.30 0.2513658
728.40 0.2630028
728.50 0.2718198
728.60 0.2769753
728.70 0.2801594
728.80 0.2833418
728.90 0.2865224
729.00 0.2882262
729.10 0.2891349
729.20 0.2900431
729.30 0.2909508
729.40 0.291858
729.50 0.2927647
729.60 0.293186
729.70 0.293346
729.80 0.2935059
729.90 0.2936657
730.00 0.2938255
730.10 0.2939851
730.20 0.2941446
730.30 0.2943041
730.40 0.2944634
730.50 0.2946226
730.60 0.2946359
730.70 0.2945706
730.80 0.2945054
730.90 0.2944401
731.00 0.2943749
731.10 0.2943098
731.20 0.2942446
731.30 0.2941795
731.40 0.2941144
731.50 0.2940493
731.60 0.2939843
731.70 0.2939192
731.80 0.2938542
731.90 0.2937893
732.00 0.2937243
732.10 0.2936594
732.20 0.293562
732.30 0.2934471
732.40 0.2933323
732.50 0.2932176
732.60 0.2931029
732.70 0.2929883
732.80 0.2928737
732.90 0.2927591
733.00 0.2926446
733.10 0.2925302
733.20 0.2924158
733.30 0.2923015
733.40 0.2921872
733.50 0.292073
733.60 0.2919588
733.70 0.2918348
733.80 0.2917057
733.90 0.2915765
734.00 0.2914475
734.10 0.2913184
734.20 0.2911895
734.30 0.2910606
734.40 0.2909318
734.50 0.290803
734.60 0.2906743
734.70 0.2905456
734.80 0.290417
734.90 0.2902885
735.00 0.29016
735.10 0.2900316
735.20 0.2899032
735.30 0.2897746
735.40 0.2896428
735.50 0.2895109
735.60 0.2893792
735.70 0.2892473
735.80 0.2891153
735.90 0.2889834
736.00 0.2888516
736.10 0.2887198
736.20 0.2885881
736.30 0.2884564
736.40 0.2883248
736.50 0.2881933
736.60 0.2880618
736.70 0.2879304
736.80 0.2877991
736.90 0.2876678
737.00 0.2875366
737.10 0.2874054
737.20 0.2872743
737.30 0.2871432
737.40 0.2870123
737.50 0.2868813
737.60 0.2867505
737.70 0.2866197
737.80 0.2864889
737.90 0.2863582
738.00 0.2862276
738.10 0.286097
738.20 0.2859645
738.30 0.285831
738.40 0.2856975
738.50 0.2855641
738.60 0.2854308
738.70 0.2852975
738.80 0.2851643
738.90 0.2850311
739.00 0.284898
739.10 0.284765
739.20 0.284632
739.30 0.2844991
739.40 0.2843663
739.50 0.2842335
739.60 0.2841007
739.70 0.2839681
739.80 0.2838355
739.90 0.2837029
740.00 0.2835704
740.10 0.283438
740.20 0.2833057
740.30 0.2831734
740.40 0.2830411
740.50 0.2829089
740.60 0.2827768
740.70 0.2826448
740.80 0.2825128
740.90 0.2823808
741.00 0.282249
741.10 0.2821172
741.20 0.2819854
741.30 0.2818537
741.40 0.2817221
741.50 0.2815905
741.60 0.281459
741.70 0.2813276
741.80 0.2811962
741.90 0.2810649
742.00 0.2809336
742.10 0.2808024
742.20 0.2806713
742.30 0.2805402
742.40 0.2804091
742.50 0.2802782
742.60 0.2801473
742.70 0.2800169
742.80 0.2798869
742.90 0.279757
743.00 0.2796271
743.10 0.2794973
743.20 0.2793676
743.30 0.2792379
743.40 0.2791082
743.50 0.2789787
743.60 0.2788492
743.70 0.2787197
743.80 0.27859
743.90 0.2784603
744.00 0.2783308
744.10 0.2782012
744.20 0.2780718
744.30 0.2779424
744.40 0.2778131
744.50 0.2776838
744.60 0.2775546
744.70 0.2774254
744.80 0.2772963
744.90 0.2771673
745.00 0.2770383
745.10 0.2769094
745.20 0.2767805
745.30 0.2766517
745.40 0.276523
745.50 0.2763943
745.60 0.2762656
745.70 0.2761371
745.80 0.2760086
745.90 0.2758801
746.00 0.2757517
746.10 0.2756234
746.20 0.2754951
746.30 0.2753669
746.40 0.2752388
746.50 0.2751107
746.60 0.2749826
746.70 0.2748547
746.80 0.2747267
746.90 0.2745989
747.00 0.2744711
747.10 0.2743433
747.20 0.2742157
747.30 0.274088
747.40 0.2739605
747.50 0.2738329
747.60 0.2737055
747.70 0.2735781
747.80 0.2734508
747.90 0.2733235
748.00 0.2731963
748.10 0.2730691
748.20 0.272942
748.30 0.272815
748.40 0.272688
748.50 0.2725611
748.60 0.2724342
748.70 0.2723074
748.80 0.2721806
748.90 0.2720539
749.00 0.2719273
749.10 0.2718007
749.20 0.2716742
749.30 0.2715477
749.40 0.2714213
749.50 0.271295
749.60 0.2711687
749.70 0.2710425
749.80 0.2709163
749.90 0.2707902
750.00 0.2706641
750.10 0.2705382
750.20 0.2704124
750.30 0.2702867
750.40 0.270161
750.50 0.2700355
750.60 0.2699099
750.70 0.2697844
750.80 0.269659
750.90 0.2695336
751.00 0.2694083
751.10 0.2692831
751.20 0.2691579
751.30 0.2690328
751.40 0.2689077
751.50 0.2687827
751.60 0.2686577
751.70 0.2685328
751.80 0.2684079
751.90 0.2682831
752.00 0.2681584
752.10 0.2680337
752.20 0.2679091
752.30 0.2677845
752.40 0.26766
752.50 0.2675356
752.60 0.2674112
752.70 0.2672868
752.80 0.2671625
752.90 0.2670383
753.00 0.2669141
753.10 0.26679
753.20 0.266666
753.30 0.266542
753.40 0.266418
753.50 0.2662941
753.60 0.2661703
753.70 0.2660465
753.80 0.2659228
753.90 0.2657997
754.00 0.2656769
754.10 0.2655541
754.20 0.2654314
754.30 0.2653087
754.40 0.2651861
754.50 0.2650636
754.60 0.2649411
754.70 0.2648186
754.80 0.2646962
754.90 0.2645739
755.00 0.2644516
755.10 0.2643294
755.20 0.2642072
755.30 0.2640851
755.40 0.263963
755.50 0.263841
755.60 0.2637191
755.70 0.2635972
755.80 0.2634753
755.90 0.2633536
756.00 0.2632318
756.10 0.2631102
756.20 0.2629885
756.30 0.262867
756.40 0.2627455
756.50 0.262624
756.60 0.2625026
756.70 0.2623813
756.80 0.26226
756.90 0.2621388
757.00 0.2620176
757.10 0.2618965
757.20 0.2617754
757.30 0.2616544
757.40 0.2615334
757.50 0.2614125
757.60 0.2612916
757.70 0.2611706
757.80 0.2610496
757.90 0.2609287
758.00 0.2608078
758.10 0.260687
758.20 0.2605663
758.30 0.2604456
758.40 0.2603249
758.50 0.2602043
758.60 0.2600838
758.70 0.2599633
758.80 0.2598429
758.90 0.2597225
759.00 0.2596022
759.10 0.2594819
759.20 0.2593617
759.30 0.2592416
759.40 0.2591215
759.50 0.2590014
759.60 0.2588814
759.70 0.2587615
759.80 0.2586416
759.90 0.2585218
760.00 0.258402
760.10 0.2582823
760.20 0.2581626
760.30 0.258043
760.40 0.2579234
760.50 0.2578039
760.60 0.2576845
760.70 0.2575651
760.80 0.2574457
760.90 0.2573264
761.00 0.2572072
761.10 0.257088
761.20 0.2569689
761.30 0.2568498
761.40 0.2567311
761.50 0.2566129
761.60 0.2564947
761.70 0.2563766
761.80 0.2562585
761.90 0.2561405
762.00 0.2560226
762.10 0.2559047
762.20 0.2557868
762.30 0.255669
762.40 0.2555513
762.50 0.2554336
762.60 0.255316
762.70 0.2551984
762.80 0.2550808
762.90 0.2549634
763.00 0.2548459
763.10 0.2547286
763.20 0.2546113
763.30 0.254494
763.40 0.2543768
763.50 0.2542596
763.60 0.2541425
763.70 0.2540254
763.80 0.2539084
763.90 0.2537915
764.00 0.2536746
764.10 0.2535577
764.20 0.2534409
764.30 0.2533242
764.40 0.2532075
764.50 0.2530909
764.60 0.2529743
764.70 0.2528578
764.80 0.2527413
764.90 0.2526249
765.00 0.2525085
765.10 0.2523922
765.20 0.2522763
765.30 0.252161
765.40 0.2520457
765.50 0.2519304
765.60 0.2518152
765.70 0.2517001
765.80 0.251585
765.90 0.25147
766.00 0.251355
766.10 0.25124
766.20 0.2511251
766.30 0.2510103
766.40 0.2508955
766.50 0.2507808
766.60 0.2506661
766.70 0.2505515
766.80 0.2504369
766.90 0.2503223
767.00 0.2502079
767.10 0.2500934
767.20 0.2499791
767.30 0.2498647
767.40 0.2497505
767.50 0.2496362
767.60 0.2495221
767.70 0.2494079
767.80 0.2492939
767.90 0.2491799
768.00 0.2490659
768.10 0.248952
768.20 0.2488381
768.30 0.2487243
768.40 0.2486105
768.50 0.2484968
768.60 0.2483831
768.70 0.2482695
768.80 0.248156
768.90 0.2480425
769.00 0.247929
769.10 0.2478156
769.20 0.2477022
769.30 0.2475889
769.40 0.2474757
769.50 0.2473625
769.60 0.2472493
769.70 0.2471362
769.80 0.2470231
769.90 0.2469101
770.00 0.2467972
770.10 0.2466843
770.20 0.2465714
770.30 0.2464586
770.40 0.2463459
770.50 0.2462332
770.60 0.2461205
770.70 0.2460079
770.80 0.2458953
770.90 0.2457828
771.00 0.2456704
771.10 0.245558
771.20 0.2454456
771.30 0.2453333
771.40 0.2452211
771.50 0.2451089
771.60 0.2449967
771.70 0.2448846
771.80 0.2447726
771.90 0.2446606
772.00 0.2445486
772.10 0.2444367
772.20 0.2443248
772.30 0.244213
772.40 0.2441013
772.50 0.2439896
772.60 0.2438779
772.70 0.2437663
772.80 0.2436548
772.90 0.2435444
773.00 0.2434342
773.10 0.243324
773.20 0.2432138
773.30 0.2431037
773.40 0.2429936
773.50 0.2428836
773.60 0.2427736
773.70 0.2426636
773.80 0.2425538
773.90 0.2424439
774.00 0.2423342
774.10 0.2422244
774.20 0.2421147
774.30 0.2420051
774.40 0.2418955
774.50 0.241786
774.60 0.2416765
774.70 0.241567
774.80 0.2414576
774.90 0.2413483
775.00 0.241239
775.10 0.2411297
775.20 0.2410205
775.30 0.2409114
775.40 0.2408023
775.50 0.2406932
775.60 0.2405842
775.70 0.2404753
775.80 0.2403664
775.90 0.2402575
776.00 0.2401487
776.10 0.2400399
776.20 0.2399312
776.30 0.2398225
776.40 0.2397139
776.50 0.2396053
776.60 0.2394968
776.70 0.2393883
776.80 0.2392799
776.90 0.2391715
777.00 0.2390632
777.10 0.2389549
777.20 0.2388466
777.30 0.2387385
777.40 0.2386303
777.50 0.2385222
777.60 0.2384142
777.70 0.2383062
777.80 0.2381982
777.90 0.2380903
778.00 0.2379824
778.10 0.2378746
778.20 0.2377669
778.30 0.2376592
778.40 0.2375515
778.50 0.2374439
778.60 0.2373363
778.70 0.2372288
778.80 0.2371213
778.90 0.2370139
779.00 0.2369065
779.10 0.2367991
779.20 0.2366919
779.30 0.2365846
779.40 0.2364774
779.50 0.2363703
779.60 0.2362632
779.70 0.2361561
779.80 0.2360491
779.90 0.2359422
780.00 0.2358352
780.10 0.2357284
780.20 0.2356216
780.30 0.2355148
780.40 0.2354081
780.50 0.2353014
780.60 0.235195
780.70 0.2350888
780.80 0.2349827
780.90 0.2348766
781.00 0.2347705
781.10 0.2346645
781.20 0.2345585
781.30 0.2344526
781.40 0.2343467
781.50 0.2342408
781.60 0.2341351
781.70 0.2340293
781.80 0.2339236
781.90 0.233818
782.00 0.2337124
782.10 0.2336068
782.20 0.2335013
782.30 0.2333958
782.40 0.2332904
782.50 0.2331851
782.60 0.2330797
782.70 0.2329745
782.80 0.2328692
782.90 0.232764
783.00 0.2326589
783.10 0.2325538
783.20 0.2324488
783.30 0.2323438
783.40 0.2322388
783.50 0.2321339
783.60 0.232029
783.70 0.2319242
783.80 0.2318194
783.90 0.2317147
784.00 0.23161
784.10 0.2315054
784.20 0.2314008
784.30 0.2312963
784.40 0.2311918
784.50 0.2310873
784.60 0.2309832
784.70 0.2308797
784.80 0.2307763
784.90 0.2306729
785.00 0.2305695
785.10 0.2304662
785.20 0.230363
785.30 0.2302597
785.40 0.2301566
785.50 0.2300535
785.60 0.2299504
785.70 0.2298473
785.80 0.2297444
785.90 0.2296414
786.00 0.2295385
786.10 0.2294357
786.20 0.2293329
786.30 0.2292301
786.40 0.2291274
786.50 0.2290247
786.60 0.2289221
786.70 0.2288195
786.80 0.228717
786.90 0.2286145
787.00 0.228512
787.10 0.2284096
787.20 0.2283073
787.30 0.2282049
787.40 0.2281027
787.50 0.2280004
787.60 0.2278983
787.70 0.2277961
787.80 0.227694
787.90 0.227592
788.00 0.22749
788.10 0.227388
788.20 0.2272861
788.30 0.2271842
788.40 0.2270824
788.50 0.2269806
788.60 0.2268789
788.70 0.2267772
788.80 0.2266755
788.90 0.2265739
789.00 0.2264724
789.10 0.2263709
789.20 0.2262694
789.30 0.226168
789.40 0.2260666
789.50 0.2259652
789.60 0.2258639
789.70 0.2257627
789.80 0.2256615
789.90 0.2255603
790.00 0.2254592
790.10 0.2253581
790.20 0.2252571
790.30 0.2251561
790.40 0.2250551
790.50 0.2249542
790.60 0.2248534
790.70 0.2247526
790.80 0.2246518
790.90 0.2245511
791.00 0.2244504
791.10 0.2243498
791.20 0.2242492
791.30 0.2241486
791.40 0.2240481
791.50 0.2239476
791.60 0.2238472
791.70 0.2237468
791.80 0.2236465
791.90 0.2235462
792.00 0.223446
792.10 0.2233458
792.20 0.2232456
792.30 0.2231457
792.40 0.2230462
792.50 0.2229469
792.60 0.2228475
792.70 0.2227482
792.80 0.222649
792.90 0.2225498
793.00 0.2224506
793.10 0.2223515
793.20 0.2222524
793.30 0.2221534
793.40 0.2220544
793.50 0.2219555
793.60 0.2218565
793.70 0.2217577
793.80 0.2216589
793.90 0.2215601
794.00 0.2214614
794.10 0.2213627
794.20 0.221264
794.30 0.2211654
794.40 0.2210668
794.50 0.2209683
794.60 0.2208698
794.70 0.2207714
794.80 0.220673
794.90 0.2205747
795.00 0.2204764
795.10 0.2203781
795.20 0.2202799
795.30 0.2201817
795.40 0.2200836
795.50 0.2199855
795.60 0.2198874
795.70 0.2197894
795.80 0.2196914
795.90 0.2195935
796.00 0.2194956
796.10 0.2193978
796.20 0.2193
796.30 0.2192028
796.40 0.2191059
796.50 0.219009
796.60 0.2189121
796.70 0.2188153
796.80 0.2187185
796.90 0.2186217
797.00 0.218525
797.10 0.2184283
797.20 0.2183317
797.30 0.2182351
797.40 0.2181386
797.50 0.2180421
797.60 0.2179456
797.70 0.2178492
797.80 0.2177528
797.90 0.2176565
798.00 0.2175602
798.10 0.2174639
798.20 0.2173677
798.30 0.2172715
798.40 0.2171754
798.50 0.2170793
798.60 0.2169833
798.70 0.2168873
798.80 0.2167913
798.90 0.2166954
799.00 0.2165995
799.10 0.2165036
799.20 0.2164078
799.30 0.2163121
799.40 0.2162164
799.50 0.2161207
799.60 0.216025
799.70 0.2159295
799.80 0.2158339
799.90 0.2157384
800.00 0.2156429
800.10 0.2155475
800.20 0.2154521
800.30 0.2153567
800.40 0.2152614
800.50 0.2151662
800.60 0.2150709
800.70 0.2149758
800.80 0.2148806
800.90 0.2147855
801.00 0.2146904
801.10 0.2145954
801.20 0.2145004
801.30 0.2144055
801.40 0.2143106
801.50 0.2142157
801.60 0.2141209
801.70 0.2140261
801.80 0.2139314
801.90 0.2138367
802.00 0.2137421
802.10 0.2136474
802.20 0.2135529
802.30 0.2134583
802.40 0.2133638
802.50 0.2132694
802.60 0.213175
802.70 0.2130806
802.80 0.2129863
802.90 0.212892
803.00 0.2127977
803.10 0.2127035
803.20 0.2126093
803.30 0.2125152
803.40 0.2124211
803.50 0.2123271
803.60 0.2122331
803.70 0.2121391
803.80 0.2120452
803.90 0.2119513
804.00 0.2118574
804.10 0.2117636
804.20 0.21167
804.30 0.211577
804.40 0.211484
804.50 0.2113911
804.60 0.2112982
804.70 0.2112054
804.80 0.2111126
804.90 0.2110198
805.00 0.2109271
805.10 0.2108344
805.20 0.2107417
805.30 0.2106491
805.40 0.2105566
805.50 0.210464
805.60 0.2103715
805.70 0.2102791
805.80 0.2101867
805.90 0.2100943
806.00 0.210002
806.10 0.2099097
806.20 0.2098174
806.30 0.2097252
806.40 0.209633
806.50 0.2095409
806.60 0.2094488
806.70 0.2093568
806.80 0.2092647
806.90 0.2091728
807.00 0.2090808
807.10 0.2089889
807.20 0.2088971
807.30 0.2088052
807.40 0.2087135
807.50 0.2086217
807.60 0.20853
807.70 0.2084383
807.80 0.2083467
807.90 0.2082551
808.00 0.2081636
808.10 0.2080721
808.20 0.2079806
808.30 0.2078898
808.40 0.207799
808.50 0.2077083
808.60 0.2076176
808.70 0.2075269
808.80 0.2074363
808.90 0.2073457
809.00 0.2072552
809.10 0.2071647
809.20 0.2070742
809.30 0.2069838
809.40 0.2068934
809.50 0.2068031
809.60 0.2067128
809.70 0.2066225
809.80 0.2065323
809.90 0.2064421
810.00 0.2063519
810.10 0.2062618
810.20 0.2061717
810.30 0.2060817
810.40 0.2059917
810.50 0.2059017
810.60 0.2058118
810.70 0.2057219
810.80 0.2056321
810.90 0.2055423
811.00 0.2054525
811.10 0.2053627
811.20 0.205273
811.30 0.2051834
811.40 0.2050938
811.50 0.2050042
811.60 0.2049146
811.70 0.2048251
811.80 0.2047357
811.90 0.2046462
812.00 0.2045568
812.10 0.2044675
812.20 0.2043782
812.30 0.2042894
812.40 0.2042009
812.50 0.2041124
812.60 0.2040239
812.70 0.2039355
812.80 0.2038471
812.90 0.2037588
813.00 0.2036704
813.10 0.2035822
813.20 0.2034939
813.30 0.2034057
813.40 0.2033176
813.50 0.2032294
813.60 0.2031413
813.70 0.2030533
813.80 0.2029653
813.90 0.2028773
814.00 0.2027893
814.10 0.2027014
814.20 0.2026136
814.30 0.2025257
814.40 0.2024379
814.50 0.2023502
814.60 0.2022625
814.70 0.2021748
814.80 0.2020871
814.90 0.2019995
815.00 0.2019119
815.10 0.2018244
815.20 0.2017369
815.30 0.2016494
815.40 0.201562
815.50 0.2014746
815.60 0.2013873
815.70 0.2013
815.80 0.2012127
815.90 0.2011254
816.00 0.2010382
816.10 0.2009511
816.20 0.2008639
816.30 0.2007768
816.40 0.2006898
816.50 0.2006027
816.60 0.2005158
816.70 0.2004288
816.80 0.2003419
816.90 0.200255
817.00 0.2001682
817.10 0.2000814
817.20 0.1999946
817.30 0.1999079
817.40 0.1998212
817.50 0.1997345
817.60 0.1996479
817.70 0.1995613
817.80 0.1994748
817.90 0.1993883
818.00 0.1993018
818.10 0.1992154
818.20 0.199129
818.30 0.1990426
818.40 0.1989563
818.50 0.19887
818.60 0.1987837
818.70 0.1986975
818.80 0.1986113
818.90 0.1985252
819.00 0.198439
819.10 0.198353
819.20 0.1982669
819.30 0.1981811
819.40 0.1980954
819.50 0.1980097
819.60 0.1979241
819.70 0.1978385
819.80 0.1977529
819.90 0.1976674
820.00 0.1975819
820.10 0.1974888
820.20 0.1973991
820.30 0.1973193
820.40 0.1972368
820.50 0.1971523
820.60 0.1970679
820.70 0.1969836
820.80 0.1968992
820.90 0.1968149
821.00 0.1967307
821.10 0.1966464
821.20 0.1965622
821.30 0.1964781
821.40 0.196394
821.50 0.1963099
821.60 0.1962258
821.70 0.1961418
821.80 0.1960578
821.90 0.1959739
822.00 0.1958899
822.10 0.1958061
822.20 0.1957222
822.30 0.1956384
822.40 0.1955546
822.50 0.1954709
822.60 0.1953872
822.70 0.1953035
822.80 0.1952199
822.90 0.1951363
823.00 0.1950527
823.10 0.1949692
823.20 0.1948857
823.30 0.1948023
823.40 0.1947188
823.50 0.1946354
823.60 0.1945521
823.70 0.1944688
823.80 0.1943855
823.90 0.1943022
824.00 0.194219
824.10 0.1941358
824.20 0.1940527
824.30 0.1939696
824.40 0.1938865
824.50 0.1938034
824.60 0.1937204
824.70 0.1936375
824.80 0.1935545
824.90 0.1934716
825.00 0.1933887
825.10 0.1933059
825.20 0.1932231
825.30 0.1931403
825.40 0.1930576
825.50 0.1929749
825.60 0.1928922
825.70 0.1928096
825.80 0.192727
825.90 0.1926445
826.00 0.1925619
826.10 0.1924794
826.20 0.192397
826.30 0.1923148
826.40 0.1922329
826.50 0.1921509
826.60 0.192069
826.70 0.1919872
826.80 0.1919053
826.90 0.1918235
827.00 0.1917418
827.10 0.19166
827.20 0.1915783
827.30 0.1914967
827.40 0.1914151
827.50 0.1913335
827.60 0.1912519
827.70 0.1911704
827.80 0.1910889
827.90 0.1910074
828.00 0.190926
828.10 0.1908446
828.20 0.1907633
828.30 0.1906819
828.40 0.1906007
828.50 0.1905194
828.60 0.1904387
828.70 0.1903584
828.80 0.1902781
828.90 0.1901979
829.00 0.1901178
829.10 0.1900376
829.20 0.1899575
829.30 0.1898774
829.40 0.1897974
829.50 0.1897174
829.60 0.1896374
829.70 0.1895574
829.80 0.1894775
829.90 0.1893976
830.00 0.1893178
830.10 0.189238
830.20 0.1891582
830.30 0.1890785
830.40 0.1889987
830.50 0.1889191
830.60 0.1888394
830.70 0.1887598
830.80 0.1886802
830.90 0.1886007
831.00 0.1885211
831.10 0.1884416
831.20 0.1883622
831.30 0.1882828
831.40 0.1882034
831.50 0.188124
831.60 0.1880447
831.70 0.1879654
831.80 0.1878862
831.90 0.1878069
832.00 0.1877278
832.10 0.1876486
832.20 0.1875695
832.30 0.1874904
832.40 0.1874113
832.50 0.1873323
832.60 0.1872533
832.70 0.1871743
832.80 0.1870954
832.90 0.1870165
833.00 0.1869376
833.10 0.1868588
833.20 0.18678
833.30 0.1867012
833.40 0.1866225
833.50 0.1865438
833.60 0.1864651
833.70 0.1863865
833.80 0.1863079
833.90 0.1862293
834.00 0.1861508
834.10 0.1860723
834.20 0.1859938
834.30 0.1859153
834.40 0.1858369
834.50 0.1857585
834.60 0.1856802
834.70 0.1856019
834.80 0.1855236
834.90 0.1854453
835.00 0.1853671
835.10 0.1852889
835.20 0.1852108
835.30 0.1851327
835.40 0.1850546
835.50 0.1849765
835.60 0.1848985
835.70 0.1848205
835.80 0.1847425
835.90 0.1846646
836.00 0.1845867
836.10 0.1845088
836.20 0.184431
836.30 0.1843532
836.40 0.1842754
836.50 0.1841977
836.60 0.18412
836.70 0.1840423
836.80 0.1839647
836.90 0.1838875
837.00 0.1838105
837.10 0.1837336
837.20 0.1836567
837.30 0.1835798
837.40 0.183503
837.50 0.1834261
837.60 0.1833494
837.70 0.1832726
837.80 0.1831959
837.90 0.1831192
838.00 0.1830426
838.10 0.182966
838.20 0.1828894
838.30 0.1828128
838.40 0.1827363
838.50 0.1826598
838.60 0.1825833
838.70 0.1825069
838.80 0.1824305
838.90 0.1823541
839.00 0.1822778
839.10 0.1822015
839.20 0.1821252
839.30 0.182049
839.40 0.1819727
839.50 0.1818966
839.60 0.1818204
839.70 0.1817443
839.80 0.1816682
839.90 0.1815921
840.00 0.1815161
840.10 0.1814401
840.20 0.1813642
840.30 0.1812882
840.40 0.1812123
840.50 0.1811364
840.60 0.1810606
840.70 0.1809848
840.80 0.180909
840.90 0.1808333
841.00 0.1807576
841.10 0.1806823
841.20 0.1806072
841.30 0.1805322
841.40 0.1804572
841.50 0.1803822
841.60 0.1803072
841.70 0.1802322
841.80 0.1801573
841.90 0.1800825
842.00 0.1800076
842.10 0.1799328
842.20 0.179858
842.30 0.1797832
842.40 0.1797085
842.50 0.1796338
842.60 0.1795591
842.70 0.1794845
842.80 0.1794099
842.90 0.1793353
843.00 0.1792608
843.10 0.1791863
843.20 0.1791118
843.30 0.1790373
843.40 0.1789629
843.50 0.1788885
843.60 0.1788141
843.70 0.1787398
843.80 0.1786655
843.90 0.1785912
844.00 0.178517
844.10 0.1784428
844.20 0.1783686
844.30 0.1782944
844.40 0.1782203
844.50 0.1781462
844.60 0.1780722
844.70 0.1779981
844.80 0.1779241
844.90 0.1778502
845.00 0.1777762
845.10 0.1777023
845.20 0.1776284
845.30 0.1775554
845.40 0.1774825
845.50 0.1774095
845.60 0.1773366
845.70 0.1772637
845.80 0.1771909
845.90 0.1771181
846.00 0.1770453
846.10 0.1769725
846.20 0.1768998
846.30 0.1768271
846.40 0.1767544
846.50 0.1766817
846.60 0.1766091
846.70 0.1765365
846.80 0.176464
846.90 0.1763915
847.00 0.176319
847.10 0.1762465
847.20 0.176174
847.30 0.1761016
847.40 0.1760292
847.50 0.1759569
847.60 0.1758846
847.70 0.1758123
847.80 0.17574
847.90 0.1756678
848.00 0.1755956
848.10 0.1755234
848.20 0.1754512
848.30 0.1753791
848.40 0.175307
848.50 0.175235
848.60 0.1751629
848.70 0.1750909
848.80 0.175019
848.90 0.174947
849.00 0.1748751
849.10 0.1748032
849.20 0.1747314
849.30 0.1746595
849.40 0.1745877
849.50 0.174516
849.60 0.1744442
849.70 0.1743725
849.80 0.1743008
849.90 0.1742292
850.00 0.1741576
850.10 0.174086
850.20 0.1740144
850.30 0.1739428
850.40 0.1738713
850.50 0.1737999
850.60 0.1737284
850.70 0.173657
850.80 0.1735856
850.90 0.1735142
851.00 0.1734429
851.10 0.1733716
851.20 0.1733003
851.30 0.173229
851.40 0.1731578
851.50 0.1730866
851.60 0.1730155
851.70 0.1729443
851.80 0.1728732
851.90 0.1728021
852.00 0.1727311
852.10 0.1726601
852.20 0.1725891
852.30 0.1725181
852.40 0.1724472
852.50 0.1723763
852.60 0.1723054
852.70 0.1722345
852.80 0.1721637
852.90 0.1720929
853.00 0.1720221
853.10 0.1719514
853.20 0.1718807
853.30 0.17181
853.40 0.1717394
853.50 0.1716687
853.60 0.1715981
853.70 0.171528
853.80 0.1714583
853.90 0.1713886
854.00 0.1713189
854.10 0.1712493
854.20 0.1711797
854.30 0.1711101
854.40 0.1710406
854.50 0.1709711
854.60 0.1709016
854.70 0.1708321
854.80 0.1707627
854.90 0.1706933
855.00 0.1706239
855.10 0.1705545
855.20 0.1704852
855.30 0.1704159
855.40 0.1703467
855.50 0.1702774
855.60 0.1702082
855.70 0.170139
855.80 0.1700699
855.90 0.1700007
856.00 0.1699316
856.10 0.1698626
856.20 0.1697935
856.30 0.1697245
856.40 0.1696555
856.50 0.1695865
856.60 0.1695176
856.70 0.1694487
856.80 0.1693798
856.90 0.169311
857.00 0.1692421
857.10 0.1691733
857.20 0.1691046
857.30 0.1690358
857.40 0.1689671
857.50 0.1688984
857.60 0.1688298
857.70 0.1687611
857.80 0.1686925
857.90 0.168624
858.00 0.1685558
858.10 0.1684878
858.20 0.1684199
858.30 0.1683519
858.40 0.168284
858.50 0.1682161
858.60 0.1681482
858.70 0.1680804
858.80 0.1680126
858.90 0.1679448
859.00 0.167877
859.10 0.1678093
859.20 0.1677416
859.30 0.1676739
859.40 0.1676063
859.50 0.1675387
859.60 0.1674711
859.70 0.1674035
859.80 0.1673359
859.90 0.1672684
860.00 0.1672009
860.10 0.1671335
860.20 0.167066
860.30 0.1669986
860.40 0.1669313
860.50 0.1668639
860.60 0.1667966
860.70 0.1667293
860.80 0.166662
860.90 0.1665948
861.00 0.1665275
861.10 0.1664603
861.20 0.1663932
861.30 0.166326
861.40 0.1662589
861.50 0.1661918
861.60 0.1661248
861.70 0.1660577
861.80 0.1659907
861.90 0.1659238
862.00 0.1658568
862.10 0.1657899
862.20 0.1657231
862.30 0.165657
862.40 0.1655909
862.50 0.1655249
862.60 0.1654589
862.70 0.1653929
862.80 0.165327
862.90 0.1652611
863.00 0.1651952
863.10 0.1651293
863.20 0.1650635
863.30 0.1649977
863.40 0.1649319
863.50 0.1648661
863.60 0.1648004
863.70 0.1647346
863.80 0.164669
863.90 0.1646033
864.00 0.1645377
864.10 0.1644721
864.20 0.1644065
864.30 0.1643409
864.40 0.1642754
864.50 0.1642099
864.60 0.1641444
864.70 0.1640789
864.80 0.1640135
864.90 0.1639481
865.00 0.1638827
865.10 0.1638174
865.20 0.1637521
865.30 0.1636868
865.40 0.1636215
865.50 0.1635563
865.60 0.163491
865.70 0.1634258
865.80 0.1633607
865.90 0.1632955
866.00 0.1632304
866.10 0.1631653
866.20 0.1631003
866.30 0.1630352
866.40 0.1629702
866.50 0.1629052
866.60 0.1628402
866.70 0.1627753
866.80 0.1627104
866.90 0.1626455
867.00 0.1625806
867.10 0.1625158
867.20 0.162451
867.30 0.1623862
867.40 0.1623215
867.50 0.1622567
867.60 0.162192
867.70 0.1621273
867.80 0.1620627
867.90 0.1619981
868.00 0.1619334
868.10 0.1618689
868.20 0.1618043
868.30 0.1617398
868.40 0.1616753
868.50 0.1616108
868.60 0.1615463
868.70 0.1614819
868.80 0.1614175
868.90 0.1613531
869.00 0.1612888
869.10 0.1612245
869.20 0.1611602
869.30 0.1610959
869.40 0.1610316
869.50 0.1609674
869.60 0.1609032
869.70 0.160839
869.80 0.1607749
869.90 0.1607108
870.00 0.1606467
870.10 0.1605826
870.20 0.1605185
870.30 0.1604545
870.40 0.1603905
870.50 0.1603266
870.60 0.1602626
870.70 0.1601987
870.80 0.1601348
870.90 0.160072
871.00 0.1600095
871.10 0.1599469
871.20 0.1598844
871.30 0.1598218
871.40 0.1597594
871.50 0.1596969
871.60 0.1596345
871.70 0.159572
871.80 0.1595097
871.90 0.1594473
872.00 0.1593849
872.10 0.1593226
872.20 0.1592603
872.30 0.1591981
872.40 0.1591358
872.50 0.1590736
872.60 0.1590114
872.70 0.1589492
872.80 0.1588871
872.90 0.158825
873.00 0.1587629
873.10 0.1587008
873.20 0.1586387
873.30 0.1585767
873.40 0.1585147
873.50 0.1584527
873.60 0.1583908
873.70 0.1583289
873.80 0.158267
873.90 0.1582051
874.00 0.1581432
874.10 0.1580814
874.20 0.1580196
874.30 0.1579578
874.40 0.157896
874.50 0.1578343
874.60 0.1577726
874.70 0.1577109
874.80 0.1576493
874.90 0.1575876
875.00 0.157526
875.10 0.1574644
875.20 0.1574028
875.30 0.1573413
875.40 0.1572798
875.50 0.1572183
875.60 0.1571568
875.70 0.1570954
875.80 0.1570339
875.90 0.1569725
876.00 0.1569112
876.10 0.1568498
876.20 0.1567885
876.30 0.1567272
876.40 0.1566659
876.50 0.1566047
876.60 0.1565434
876.70 0.1564822
876.80 0.156421
876.90 0.1563599
877.00 0.1562987
877.10 0.1562376
877.20 0.1561765
877.30 0.1561155
877.40 0.1560544
877.50 0.1559934
877.60 0.1559324
877.70 0.1558715
877.80 0.1558105
877.90 0.1557496
878.00 0.1556887
878.10 0.1556278
878.20 0.155567
878.30 0.1555061
878.40 0.1554453
878.50 0.1553846
878.60 0.1553238
878.70 0.1552631
878.80 0.1552024
878.90 0.1551417
879.00 0.155081
879.10 0.1550204
879.20 0.1549598
879.30 0.1548992
879.40 0.1548386
879.50 0.1547781
879.60 0.1547181
879.70 0.1546584
879.80 0.1545986
879.90 0.1545389
880.00 0.1544792
880.10 0.1544196
880.20 0.1543599
880.30 0.1543003
880.40 0.1542407
880.50 0.1541811
880.60 0.1541216
880.70 0.154062
880.80 0.1540025
880.90 0.153943
881.00 0.1538836
881.10 0.1538241
881.20 0.1537647
881.30 0.1537053
881.40 0.153646
881.50 0.1535866
881.60 0.1535273
881.70 0.153468
881.80 0.1534087
881.90 0.1533495
882.00 0.1532902
882.10 0.153231
882.20 0.1531718
882.30 0.1531127
882.40 0.1530535
882.50 0.1529944
882.60 0.1529353
882.70 0.1528763
882.80 0.1528172
882.90 0.1527582
883.00 0.1526992
883.10 0.1526402
883.20 0.1525812
883.30 0.1525223
883.40 0.1524634
883.50 0.1524045
883.60 0.1523456
883.70 0.1522868
883.80 0.152228
883.90 0.1521692
884.00 0.1521104
884.10 0.1520516
884.20 0.1519929
884.30 0.1519342
884.40 0.1518755
884.50 0.1518168
884.60 0.1517582
884.70 0.1516996
884.80 0.151641
884.90 0.1515824
885.00 0.1515238
885.10 0.1514653
885.20 0.1514068
885.30 0.1513483
885.40 0.1512898
885.50 0.1512314
885.60 0.151173
885.70 0.1511146
885.80 0.1510562
885.90 0.1509979
886.00 0.1509395
886.10 0.1508812
886.20 0.1508229
886.30 0.1507647
886.40 0.1507064
886.50 0.1506482
886.60 0.15059
886.70 0.1505319
886.80 0.1504737
886.90 0.1504156
887.00 0.1503575
887.10 0.1502994
887.20 0.1502413
887.30 0.1501833
887.40 0.1501253
887.50 0.1500673
887.60 0.1500093
887.70 0.1499514
887.80 0.1498935
887.90 0.1498355
888.00 0.1497777
888.10 0.1497198
888.20 0.149662
888.30 0.1496042
888.40 0.149547
888.50 0.1494899
888.60 0.1494329
888.70 0.1493759
888.80 0.1493189
888.90 0.1492619
889.00 0.1492049
889.10 0.149148
889.20 0.1490911
889.30 0.1490342
889.40 0.1489774
889.50 0.1489205
889.60 0.1488637
889.70 0.1488069
889.80 0.1487501
889.90 0.1486934
890.00 0.1486366
890.10 0.1485799
890.20 0.1485232
890.30 0.1484666
890.40 0.1484099
890.50 0.1483533
890.60 0.1482967
890.70 0.1482401
890.80 0.1481836
890.90 0.148127
891.00 0.1480705
891.10 0.148014
891.20 0.1479575
891.30 0.1479011
891.40 0.1478446
891.50 0.1477882
891.60 0.1477319
891.70 0.1476755
891.80 0.1476191
891.90 0.1475628
892.00 0.1475065
892.10 0.1474502
892.20 0.147394
892.30 0.1473378
892.40 0.1472815
892.50 0.1472253
892.60 0.1471692
892.70 0.147113
892.80 0.1470569
892.90 0.1470008
893.00 0.1469447
893.10 0.1468886
893.20 0.1468326
893.30 0.1467766
893.40 0.1467206
893.50 0.1466646
893.60 0.1466086
893.70 0.1465527
893.80 0.1464968
893.90 0.1464409
894.00 0.146385
894.10 0.1463292
894.20 0.1462733
894.30 0.1462175
894.40 0.1461618
894.50 0.146106
894.60 0.1460502
894.70 0.1459945
894.80 0.1459388
894.90 0.1458831
895.00 0.1458275
895.10 0.1457718
895.20 0.1457162
895.30 0.1456606
895.40 0.1456051
895.50 0.1455495
895.60 0.145494
895.70 0.1454385
895.80 0.145383
895.90 0.1453275
896.00 0.1452721
896.10 0.1452166
896.20 0.1451612
896.30 0.1451058
896.40 0.1450505
896.50 0.1449951
896.60 0.1449398
896.70 0.1448845
896.80 0.1448292
896.90 0.144774
897.00 0.1447188
897.10 0.1446635
897.20 0.1446084
897.30 0.1445534
897.40 0.1444985
897.50 0.1444436
897.60 0.1443887
897.70 0.1443338
897.80 0.144279
897.90 0.1442242
898.00 0.1441694
898.10 0.1441146
898.20 0.1440598
898.30 0.1440051
898.40 0.1439504
898.50 0.1438957
898.60 0.143841
898.70 0.1437864
898.80 0.1437317
898.90 0.1436771
899.00 0.1436225
899.10 0.143568
899.20 0.1435134
899.30 0.1434589
899.40 0.1434044
899.50 0.1433499
899.60 0.1432954
899.70 0.143241
899.80 0.1431865
899.90 0.1431321
900.00 0.1430777
900.10 0.1430234
900.20 0.142969
900.30 0.1429147
900.40 0.1428604
900.50 0.1428061
900.60 0.1427519
900.70 0.1426976
900.80 0.1426434
900.90 0.1425892
901.00 0.142535
901.10 0.1424809
901.20 0.1424267
901.30 0.1423726
901.40 0.1423185
901.50 0.1422644
901.60 0.1422104
901.70 0.1421564
901.80 0.1421029
901.90 0.1420493
902.00 0.1419958
902.10 0.1419423
902.20 0.1418888
902.30 0.1418354
902.40 0.1417819
902.50 0.1417285
902.60 0.1416751
902.70 0.1416217
902.80 0.1415683
902.90 0.141515
903.00 0.1414617
903.10 0.1414084
903.20 0.1413551
903.30 0.1413018
903.40 0.1412486
903.50 0.1411954
903.60 0.1411422
903.70 0.141089
903.80 0.1410358
903.90 0.1409827
904.00 0.1409296
904.10 0.1408765
904.20 0.1408234
904.30 0.1407703
904.40 0.1407173
904.50 0.1406642
904.60 0.1406112
904.70 0.1405583
904.80 0.1405053
904.90 0.1404524
905.00 0.1403994
905.10 0.1403465
905.20 0.1402937
905.30 0.1402408
905.40 0.140188
905.50 0.1401351
905.60 0.1400823
905.70 0.1400296
905.80 0.1399768
905.90 0.139924
906.00 0.1398713
906.10 0.1398186
906.20 0.1397659
906.30 0.139713
906.40 0.1396601
906.50 0.1396073
906.60 0.1395544
906.70 0.1395016
906.80 0.1394488
906.90 0.1393961
907.00 0.1393433
907.10 0.1392906
907.20 0.1392379
907.30 0.1391852
907.40 0.1391325
907.50 0.1390799
907.60 0.1390273
907.70 0.1389747
907.80 0.1389221
907.90 0.1388695
908.00 0.1388169
908.10 0.1387644
908.20 0.1387119
908.30 0.1386594
908.40 0.138607
908.50 0.1385545
908.60 0.1385021
908.70 0.1384497
908.80 0.1383973
908.90 0.1383449
909.00 0.1382925
909.10 0.1382402
909.20 0.1381879
909.30 0.1381356
909.40 0.1380833
909.50 0.1380311
909.60 0.1379788
909.70 0.1379266
909.80 0.1378744
909.90 0.1378223
910.00 0.1377701
910.10 0.137718
910.20 0.1376659
910.30 0.1376138
910.40 0.1375617
910.50 0.1375096
910.60 0.1374576
910.70 0.1374056
910.80 0.137354
910.90 0.1373025
911.00 0.1372509
911.10 0.1371994
911.20 0.137148
911.30 0.1370965
911.40 0.137045
911.50 0.1369936
911.60 0.1369422
911.70 0.1368908
911.80 0.1368394
911.90 0.1367881
912.00 0.1367368
912.10 0.1366855
912.20 0.1366342
912.30 0.1365829
912.40 0.1365316
912.50 0.1364804
912.60 0.1364292
912.70 0.136378
912.80 0.1363268
912.90 0.1362757
913.00 0.1362245
913.10 0.1361734
913.20 0.1361223
913.30 0.1360712
913.40 0.1360202
913.50 0.1359691
913.60 0.1359181
913.70 0.1358671
913.80 0.1358161
913.90 0.1357651
914.00 0.1357142
914.10 0.1356632
914.20 0.1356123
914.30 0.1355614
914.40 0.1355106
914.50 0.1354597
914.60 0.1354089
914.70 0.1353581
914.80 0.1353073
914.90 0.1352565
915.00 0.1352057
915.10 0.135155
915.20 0.1351043
915.30 0.1350537
915.40 0.1350033
915.50 0.1349528
915.60 0.1349024
915.70 0.1348519
915.80 0.1348015
915.90 0.1347512
916.00 0.1347008
916.10 0.1346505
916.20 0.1346001
916.30 0.1345498
916.40 0.1344995
916.50 0.1344493
916.60 0.134399
916.70 0.1343488
916.80 0.1342986
916.90 0.1342484
917.00 0.1341982
917.10 0.1341481
917.20 0.1340979
917.30 0.1340478
917.40 0.1339977
917.50 0.1339476
917.60 0.1338976
917.70 0.1338475
917.80 0.1337975
917.90 0.1337475
918.00 0.1336975
918.10 0.1336475
918.20 0.1335976
918.30 0.1335477
918.40 0.1334977
918.50 0.1334478
918.60 0.133398
918.70 0.1333481
918.80 0.1332983
918.90 0.1332485
919.00 0.1331987
919.10 0.1331489
919.20 0.1330991
919.30 0.1330494
919.40 0.1329996
919.50 0.1329499
919.60 0.1329002
919.70 0.1328506
919.80 0.1328009
919.90 0.1327513
920.00 0.1327017
920.10 0.1326521
920.20 0.1326025
920.30 0.1325529
920.40 0.1325034
920.50 0.1324538
920.60 0.1324043
920.70 0.1323549
920.80 0.1323054
920.90 0.1322559
921.00 0.1322065
921.10 0.1321571
921.20 0.1321077
921.30 0.1320583
921.40 0.1320089
921.50 0.1319596
921.60 0.1319103
921.70 0.131861
921.80 0.1318117
921.90 0.1317624
922.00 0.1317132
922.10 0.1316639
922.20 0.1316147
922.30 0.1315655
922.40 0.1315164
922.50 0.1314672
922.60 0.1314181
922.70 0.1313689
922.80 0.1313198
922.90 0.1312707
923.00 0.1312217
923.10 0.1311726
923.20 0.1311236
923.30 0.1310746
923.40 0.1310256
923.50 0.1309766
923.60 0.1309277
923.70 0.1308787
923.80 0.1308298
923.90 0.1307809
924.00 0.130732
924.10 0.1306831
924.20 0.1306343
924.30 0.1305855
924.40 0.1305367
924.50 0.1304881
924.60 0.1304395
924.70 0.130391
924.80 0.1303424
924.90 0.1302939
925.00 0.1302454
925.10 0.1301969
925.20 0.1301484
925.30 0.1301
925.40 0.1300516
925.50 0.1300032
925.60 0.1299548
925.70 0.1299064
925.80 0.129858
925.90 0.1298097
926.00 0.1297614
926.10 0.1297131
926.20 0.1296648
926.30 0.1296165
926.40 0.1295683
926.50 0.12952
926.60 0.1294718
926.70 0.1294236
926.80 0.1293754
926.90 0.1293273
927.00 0.1292791
927.10 0.129231
927.20 0.1291829
927.30 0.1291348
927.40 0.1290867
927.50 0.1290387
927.60 0.1289906
927.70 0.1289426
927.80 0.1288946
927.90 0.1288466
928.00 0.1287987
928.10 0.1287507
928.20 0.1287028
928.30 0.1286549
928.40 0.128607
928.50 0.1285591
928.60 0.1285112
928.70 0.1284634
928.80 0.1284155
928.90 0.1283677
929.00 0.1283199
929.10 0.1282722
929.20 0.1282244
929.30 0.1281767
929.40 0.128129
929.50 0.1280813
929.60 0.1280336
929.70 0.1279859
929.80 0.1279383
929.90 0.1278906
930.00 0.127843
930.10 0.1277954
930.20 0.1277478
930.30 0.1277003
930.40 0.1276527
930.50 0.1276052
930.60 0.1275577
930.70 0.1275102
930.80 0.1274627
930.90 0.1274153
931.00 0.1273678
931.10 0.1273204
931.20 0.127273
931.30 0.1272256
931.40 0.1271782
931.50 0.1271309
931.60 0.1270835
931.70 0.1270362
931.80 0.1269889
931.90 0.1269416
932.00 0.1268944
932.10 0.1268471
932.20 0.1267999
932.30 0.1267527
932.40 0.1267055
932.50 0.1266583
932.60 0.1266111
932.70 0.126564
932.80 0.1265169
932.90 0.1264698
933.00 0.1264227
933.10 0.1263756
933.20 0.1263285
933.30 0.1262815
933.40 0.1262345
933.50 0.1261875
933.60 0.1261405
933.70 0.1260938
933.80 0.1260472
933.90 0.1260007
934.00 0.1259542
934.10 0.1259077
934.20 0.1258612
934.30 0.1258147
934.40 0.1257682
934.50 0.1257218
934.60 0.1256754
934.70 0.125629
934.80 0.1255826
934.90 0.1255362
935.00 0.1254899
935.10 0.1254435
935.20 0.1253972
935.30 0.1253509
935.40 0.1253046
935.50 0.1252584
935.60 0.1252121
935.70 0.1251659
935.80 0.1251197
935.90 0.1250735
936.00 0.1250273
936.10 0.1249811
936.20 0.124935
936.30 0.1248888
936.40 0.1248427
936.50 0.1247966
936.60 0.1247505
936.70 0.1247045
936.80 0.1246584
936.90 0.1246124
937.00 0.1245664
937.10 0.1245204
937.20 0.1244744
937.30 0.1244284
937.40 0.1243825
937.50 0.1243365
937.60 0.1242906
937.70 0.1242447
937.80 0.1241989
937.90 0.124153
938.00 0.1241071
938.10 0.1240613
938.20 0.1240155
938.30 0.1239697
938.40 0.1239239
938.50 0.1238782
938.60 0.1238324
938.70 0.1237867
938.80 0.123741
938.90 0.1236953
939.00 0.1236496
939.10 0.1236039
939.20 0.1235583
939.30 0.1235126
939.40 0.123467
939.50 0.1234214
939.60 0.1233758
939.70 0.1233303
939.80 0.1232847
939.90 0.1232392
940.00 0.1231937
940.10 0.1231482
940.20 0.1231027
940.30 0.1230572
940.40 0.1230118
940.50 0.1229664
940.60 0.122921
940.70 0.1228756
940.80 0.1228302
940.90 0.1227848
941.00 0.1227395
941.10 0.1226941
941.20 0.1226488
941.30 0.1226035
941.40 0.1225582
941.50 0.122513
941.60 0.1224677
941.70 0.1224225
941.80 0.1223773
941.90 0.1223321
942.00 0.1222869
942.10 0.1222417
942.20 0.1221966
942.30 0.1221514
942.40 0.1221063
942.50 0.1220612
942.60 0.1220161
942.70 0.121971
942.80 0.121926
942.90 0.121881
943.00 0.1218359
943.10 0.1217909
943.20 0.1217459
943.30 0.121701
943.40 0.121656
943.50 0.1216111
943.60 0.1215661
943.70 0.1215212
943.80 0.1214763
943.90 0.1214314
944.00 0.1213866
944.10 0.1213417
944.20 0.1212969
944.30 0.1212521
944.40 0.1212073
944.50 0.1211625
944.60 0.1211178
944.70 0.121073
944.80 0.1210283
944.90 0.1209836
945.00 0.1209389
945.10 0.1208942
945.20 0.1208495
945.30 0.1208049
945.40 0.1207602
945.50 0.1207156
945.60 0.120671
945.70 0.1206264
945.80 0.1205818
945.90 0.1205373
946.00 0.1204928
946.10 0.1204482
946.20 0.1204037
946.30 0.1203592
946.40 0.1203148
946.50 0.1202703
946.60 0.1202259
946.70 0.1201814
946.80 0.120137
946.90 0.1200926
947.00 0.1200483
947.10 0.1200039
947.20 0.1199596
947.30 0.1199152
947.40 0.1198709
947.50 0.1198266
947.60 0.1197823
947.70 0.1197381
947.80 0.1196938
947.90 0.1196496
948.00 0.1196054
948.10 0.1195612
948.20 0.119517
948.30 0.1194728
948.40 0.1194287
948.50 0.1193845
948.60 0.1193404
948.70 0.1192963
948.80 0.1192522
948.90 0.1192082
949.00 0.1191641
949.10 0.1191201
949.20 0.119076
949.30 0.119032
949.40 0.118988
949.50 0.1189441
949.60 0.1189001
949.70 0.1188561
949.80 0.1188122
949.90 0.1187683
950.00 0.1187244
950.10 0.1186805
950.20 0.1186367
950.30 0.1185928
950.40 0.118549
950.50 0.1185052
950.60 0.1184614
950.70 0.1184176
950.80 0.1183738
950.90 0.11833
951.00 0.1182863
951.10 0.1182426
951.20 0.1181989
951.30 0.1181552
951.40 0.1181115
951.50 0.1180678
951.60 0.1180242
951.70 0.1179806
951.80 0.117937
951.90 0.1178934
952.00 0.1178498
952.10 0.1178062
952.20 0.1177627
952.30 0.1177191
952.40 0.1176756
952.50 0.1176323
952.60 0.117589
952.70 0.1175457
952.80 0.1175024
952.90 0.1174592
953.00 0.1174159
953.10 0.1173727
953.20 0.1173295
953.30 0.1172863
953.40 0.1172431
953.50 0.1172
953.60 0.1171568
953.70 0.1171137
953.80 0.1170706
953.90 0.1170275
954.00 0.1169844
954.10 0.1169413
954.20 0.1168983
954.30 0.1168552
954.40 0.1168122
954.50 0.1167692
954.60 0.1167262
954.70 0.1166832
954.80 0.1166403
954.90 0.1165973
955.00 0.1165544
955.10 0.1165115
955.20 0.1164686
955.30 0.1164257
955.40 0.1163828
955.50 0.11634
955.60 0.1162971
955.70 0.1162543
955.80 0.1162115
955.90 0.1161687
956.00 0.1161259
956.10 0.1160832
956.20 0.1160404
956.30 0.1159977
956.40 0.115955
956.50 0.1159123
956.60 0.1158696
956.70 0.1158269
956.80 0.1157843
956.90 0.1157416
957.00 0.115699
957.10 0.1156564
957.20 0.1156138
957.30 0.1155712
957.40 0.1155287
957.50 0.1154861
957.60 0.1154436
957.70 0.1154011
957.80 0.1153586
957.90 0.1153161
958.00 0.1152736
958.10 0.1152312
958.20 0.1151887
958.30 0.1151463
958.40 0.1151039
958.50 0.1150615
958.60 0.1150191
958.70 0.1149768
958.80 0.1149344
958.90 0.1148921
959.00 0.1148498
959.10 0.1148075
959.20 0.1147652
959.30 0.1147229
959.40 0.1146806
959.50 0.1146384
959.60 0.1145962
959.70 0.114554
959.80 0.1145118
959.90 0.1144696
960.00 0.1144274
960.10 0.1143852
960.20 0.1143431
960.30 0.114301
960.40 0.1142589
960.50 0.1142168
960.60 0.1141747
960.70 0.1141327
960.80 0.1140906
960.90 0.1140486
961.00 0.1140066
961.10 0.1139646
961.20 0.1139226
961.30 0.1138806
961.40 0.1138386
961.50 0.1137967
961.60 0.1137548
961.70 0.1137129
961.80 0.113671
961.90 0.1136291
962.00 0.1135874
962.10 0.1135457
962.20 0.113504
962.30 0.1134624
962.40 0.1134208
962.50 0.1133792
962.60 0.1133376
962.70 0.113296
962.80 0.1132544
962.90 0.1132128
963.00 0.1131713
963.10 0.1131298
963.20 0.1130883
963.30 0.1130468
963.40 0.1130053
963.50 0.1129638
963.60 0.1129224
963.70 0.112881
963.80 0.1128395
963.90 0.1127981
964.00 0.1127567
964.10 0.1127154
964.20 0.112674
964.30 0.1126327
964.40 0.1125913
964.50 0.11255
964.60 0.1125087
964.70 0.1124674
964.80 0.1124261
964.90 0.1123849
965.00 0.1123436
965.10 0.1123024
965.20 0.1122612
965.30 0.11222
965.40 0.1121788
965.50 0.1121376
965.60 0.1120965
965.70 0.1120553
965.80 0.1120142
965.90 0.1119731
966.00 0.111932
966.10 0.1118909
966.20 0.1118499
966.30 0.1118088
966.40 0.1117678
966.50 0.1117267
966.60 0.1116857
966.70 0.1116447
966.80 0.1116038
966.90 0.1115628
967.00 0.1115218
967.10 0.1114809
967.20 0.11144
967.30 0.1113991
967.40 0.1113582
967.50 0.1113173
967.60 0.1112764
967.70 0.1112356
967.80 0.1111948
967.90 0.1111539
968.00 0.1111131
968.10 0.1110723
968.20 0.1110316
968.30 0.1109908
968.40 0.1109501
968.50 0.1109093
968.60 0.1108686
968.70 0.1108279
968.80 0.1107872
968.90 0.1107465
969.00 0.1107059
969.10 0.1106652
969.20 0.1106246
969.30 0.110584
969.40 0.1105434
969.50 0.1105028
969.60 0.1104622
969.70 0.1104216
969.80 0.1103811
969.90 0.1103406
970.00 0.1103001
970.10 0.1102595
970.20 0.1102191
970.30 0.1101786
970.40 0.1101381
970.50 0.1100977
970.60 0.1100572
970.70 0.1100168
970.80 0.1099764
970.90 0.109936
971.00 0.1098957
971.10 0.1098553
971.20 0.109815
971.30 0.1097746
971.40 0.1097343
971.50 0.109694
971.60 0.1096538
971.70 0.1096137
971.80 0.1095737
971.90 0.1095336
972.00 0.1094935
972.10 0.1094535
972.20 0.1094135
972.30 0.1093734
972.40 0.1093334
972.50 0.1092935
972.60 0.1092535
972.70 0.1092135
972.80 0.1091736
972.90 0.1091337
973.00 0.1090937
973.10 0.1090538
973.20 0.1090139
973.30 0.1089741
973.40 0.1089342
973.50 0.1088944
973.60 0.1088545
973.70 0.1088147
973.80 0.1087749
973.90 0.1087351
974.00 0.1086954
974.10 0.1086556
974.20 0.1086159
974.30 0.1085761
974.40 0.1085364
974.50 0.1084967
974.60 0.108457
974.70 0.1084173
974.80 0.1083777
974.90 0.108338
975.00 0.1082984
975.10 0.1082588
975.20 0.1082192
975.30 0.1081796
975.40 0.10814
975.50 0.1081004
975.60 0.1080609
975.70 0.1080213
975.80 0.1079818
975.90 0.1079423
976.00 0.1079028
976.10 0.1078633
976.20 0.1078239
976.30 0.1077844
976.40 0.107745
976.50 0.1077055
976.60 0.1076661
976.70 0.1076267
976.80 0.1075873
976.90 0.107548
977.00 0.1075086
977.10 0.1074693
977.20 0.10743
977.30 0.1073906
977.40 0.1073513
977.50 0.1073121
977.60 0.1072728
977.70 0.1072335
977.80 0.1071943
977.90 0.107155
978.00 0.1071158
978.10 0.1070766
978.20 0.1070374
978.30 0.1069983
978.40 0.1069591
978.50 0.1069199
978.60 0.1068808
978.70 0.1068417
978.80 0.1068026
978.90 0.1067635
979.00 0.1067244
979.10 0.1066853
979.20 0.1066463
979.30 0.1066072
979.40 0.1065682
979.50 0.1065292
979.60 0.1064902
979.70 0.1064512
979.80 0.1064123
979.90 0.1063733
980.00 0.1063344
980.10 0.1062954
980.20 0.1062565
980.30 0.1062176
980.40 0.1061787
980.50 0.1061399
980.60 0.106101
980.70 0.1060621
980.80 0.1060233
980.90 0.1059845
981.00 0.1059457
981.10 0.1059069
981.20 0.1058681
981.30 0.1058295
981.40 0.1057911
981.50 0.1057527
981.60 0.1057143
981.70 0.105676
981.80 0.1056376
981.90 0.1055993
982.00 0.105561
982.10 0.1055226
982.20 0.1054843
982.30 0.1054461
982.40 0.1054078
982.50 0.1053695
982.60 0.1053313
982.70 0.105293
982.80 0.1052548
982.90 0.1052166
983.00 0.1051784
983.10 0.1051403
983.20 0.1051021
983.30 0.1050639
983.40 0.1050258
983.50 0.1049877
983.60 0.1049496
983.70 0.1049115
983.80 0.1048734
983.90 0.1048353
984.00 0.1047972
984.10 0.1047592
984.20 0.1047212
984.30 0.1046831
984.40 0.1046451
984.50 0.1046071
984.60 0.1045692
984.70 0.1045312
984.80 0.1044933
984.90 0.1044553
985.00 0.1044174
985.10 0.1043795
985.20 0.1043416
985.30 0.1043037
985.40 0.1042658
985.50 0.104228
985.60 0.1041901
985.70 0.1041523
985.80 0.1041145
985.90 0.1040766
986.00 0.1040389
986.10 0.1040011
986.20 0.1039633
986.30 0.1039256
986.40 0.1038878
986.50 0.1038501
986.60 0.1038124
986.70 0.1037747
986.80 0.103737
986.90 0.1036993
987.00 0.1036616
987.10 0.103624
987.20 0.1035864
987.30 0.1035487
987.40 0.1035111
987.50 0.1034735
987.60 0.1034359
987.70 0.1033984
987.80 0.1033608
987.90 0.1033233
988.00 0.1032857
988.10 0.1032482
988.20 0.1032107
988.30 0.1031732
988.40 0.1031357
988.50 0.1030983
988.60 0.1030608
988.70 0.1030234
988.80 0.102986
988.90 0.1029485
989.00 0.1029111
989.10 0.1028738
989.20 0.1028364
989.30 0.102799
989.40 0.1027617
989.50 0.1027243
989.60 0.102687
989.70 0.1026497
989.80 0.1026124
989.90 0.1025751
990.00 0.1025379
990.10 0.1025006
990.20 0.1024634
990.30 0.1024261
990.40 0.1023889
990.50 0.1023517
990.60 0.1023145
990.70 0.1022773
990.80 0.1022402
990.90 0.102203
991.00 0.1021659
991.10 0.1021287
991.20 0.1020916
991.30 0.1020545
991.40 0.1020174
991.50 0.1019803
991.60 0.1019432
991.70 0.1019062
991.80 0.1018691
991.90 0.1018321
992.00 0.1017951
992.10 0.1017581
992.20 0.1017211
992.30 0.1016841
992.40 0.1016471
992.50 0.1016102
992.60 0.1015732
992.70 0.1015363
992.80 0.1014994
992.90 0.1014625
993.00 0.1014256
993.10 0.1013887
993.20 0.1013519
993.30 0.101315
993.40 0.1012782
993.50 0.1012413
993.60 0.1012045
993.70 0.1011677
993.80 0.1011309
993.90 0.1010942
994.00 0.1010574
994.10 0.1010206
994.20 0.1009839
994.30 0.1009472
994.40 0.1009105
994.50 0.1008738
994.60 0.1008371
994.70 0.1008004
994.80 0.1007638
994.90 0.1007271
995.00 0.1006905
995.10 0.1006538
995.20 0.1006172
995.30 0.1005806
995.40 0.1005441
995.50 0.1005075
995.60 0.1004709
995.70 0.1004344
995.80 0.1003978
995.90 0.1003613
996.00 0.1003248
996.10 0.1002886
996.20 0.1002524
996.30 0.1002163
996.40 0.1001802
996.50 0.1001441
996.60 0.100108
996.70 0.1000719
996.80 0.1000358
996.90 0.09999976
997.00 0.09996371
997.10 0.09992767
997.20 0.09989165
997.30 0.09985564
997.40 0.09981964
997.50 0.09978366
997.60 0.09974768
997.70 0.09971172
997.80 0.09967578
997.90 0.09963984
998.00 0.09960392
998.10 0.09956801
998.20 0.09953211
998.30 0.09949622
998.40 0.09946035
998.50 0.09942449
998.60 0.09938864
998.70 0.0993528
998.80 0.09931698
998.90 0.09928117
999.00 0.09924537
999.10 0.09920958
999.20 0.0991738
999.30 0.09913804
999.40 0.09910229
999.50 0.09906655
999.60 0.09903083
999.70 0.09899512
999.80 0.09895941
999.90 0.09892373
1000.00 0.09888805
1000.10 0.09885239
1000.20 0.09881673
1000.30 0.09878109
1000.40 0.09874547
1000.50 0.09870985
1000.60 0.09867425
1000.70 0.09863866
1000.80 0.09860308
1000.90 0.09856751
1001.00 0.098532
1001.10 0.09849662
1001.20 0.09846124
1001.30 0.09842588
1001.40 0.09839053
1001.50 0.09835519
1001.60 0.09831987
1001.70 0.09828455
1001.80 0.09824925
1001.90 0.09821396
1002.00 0.09817869
1002.10 0.09814342
1002.20 0.09810817
1002.30 0.09807293
1002.40 0.0980377
1002.50 0.09800249
1002.60 0.09796728
1002.70 0.09793209
1002.80 0.09789691
1002.90 0.09786174
1003.00 0.09782659
1003.10 0.09779144
1003.20 0.09775631
1003.30 0.09772119
1003.40 0.09768608
1003.50 0.09765099
1003.60 0.0976159
1003.70 0.09758083
1003.80 0.09754577
1003.90 0.09751073
1004.00 0.09747569
1004.10 0.09744067
1004.20 0.09740566
1004.30 0.09737066
1004.40 0.09733567
1004.50 0.09730069
1004.60 0.09726573
1004.70 0.09723078
1004.80 0.09719584
1004.90 0.09716091
1005.00 0.097126
1005.10 0.09709109
1005.20 0.0970562
1005.30 0.09702132
1005.40 0.09698646
1005.50 0.0969516
1005.60 0.09691676
1005.70 0.09688193
1005.80 0.09684711
1005.90 0.0968123
1006.00 0.0967775
1006.10 0.09674272
1006.20 0.09670794
1006.30 0.09667318
1006.40 0.09663843
1006.50 0.09660369
1006.60 0.09656896
1006.70 0.09653424
1006.80 0.09649954
1006.90 0.09646485
1007.00 0.09643017
1007.10 0.0963955
1007.20 0.09636084
1007.30 0.0963262
1007.40 0.09629157
1007.50 0.09625695
1007.60 0.09622234
1007.70 0.09618774
1007.80 0.09615316
1007.90 0.09611858
1008.00 0.09608402
1008.10 0.09604947
1008.20 0.09601493
1008.30 0.09598041
1008.40 0.09594589
1008.50 0.09591139
1008.60 0.0958769
1008.70 0.09584242
1008.80 0.09580795
1008.90 0.0957735
1009.00 0.09573906
1009.10 0.09570462
1009.20 0.0956702
1009.30 0.0956358
1009.40 0.0956014
1009.50 0.09556701
1009.60 0.09553264
1009.70 0.09549828
1009.80 0.09546393
1009.90 0.09542959
1010.00 0.09539527
1010.10 0.09536095
1010.20 0.09532665
1010.30 0.09529236
1010.40 0.09525808
1010.50 0.09522381
1010.60 0.09518956
1010.70 0.09515531
1010.80 0.09512108
1010.90 0.09508686
1011.00 0.09505268
1011.10 0.09501864
1011.20 0.09498461
1011.30 0.09495059
1011.40 0.09491658
1011.50 0.09488258
1011.60 0.0948486
1011.70 0.09481463
1011.80 0.09478067
1011.90 0.09474672
1012.00 0.09471278
1012.10 0.09467885
1012.20 0.09464494
1012.30 0.09461104
1012.40 0.09457714
1012.50 0.09454326
1012.60 0.0945094
1012.70 0.09447554
1012.80 0.09444169
1012.90 0.09440786
1013.00 0.09437404
1013.10 0.09434023
1013.20 0.09430643
1013.30 0.09427264
1013.40 0.09423886
1013.50 0.0942051
1013.60 0.09417135
1013.70 0.0941376
1013.80 0.09410387
1013.90 0.09407016
1014.00 0.09403645
1014.10 0.09400275
1014.20 0.09396907
1014.30 0.09393539
1014.40 0.09390173
1014.50 0.09386808
1014.60 0.09383444
1014.70 0.09380082
1014.80 0.0937672
1014.90 0.0937336
1015.00 0.0937
1015.10 0.09366642
1015.20 0.09363285
1015.30 0.09359929
1015.40 0.09356575
1015.50 0.09353221
1015.60 0.09349869
1015.70 0.09346517
1015.80 0.09343167
1015.90 0.09339818
1016.00 0.0933647
1016.10 0.09333123
1016.20 0.09329778
1016.30 0.09326433
1016.40 0.0932309
1016.50 0.09319748
1016.60 0.09316407
1016.70 0.09313067
1016.80 0.09309728
1016.90 0.0930639
1017.00 0.09303054
1017.10 0.09299718
1017.20 0.09296384
1017.30 0.09293051
1017.40 0.09289719
1017.50 0.09286388
1017.60 0.09283058
1017.70 0.09279729
1017.80 0.09276402
1017.90 0.09273076
1018.00 0.0926975
1018.10 0.09266426
1018.20 0.09263103
1018.30 0.09259781
1018.40 0.09256461
1018.50 0.09253141
1018.60 0.09249823
1018.70 0.09246505
1018.80 0.09243189
1018.90 0.09239874
1019.00 0.0923656
1019.10 0.09233247
1019.20 0.09229935
1019.30 0.09226625
1019.40 0.09223315
1019.50 0.09220007
1019.60 0.09216699
1019.70 0.09213393
1019.80 0.09210088
1019.90 0.09206784
1020.00 0.09203482
1020.10 0.0920018
1020.20 0.09196879
1020.30 0.0919358
1020.40 0.09190282
1020.50 0.09186984
1020.60 0.09183688
1020.70 0.09180393
1020.80 0.09177099
1020.90 0.09173807
1021.00 0.09170515
1021.10 0.09167228
1021.20 0.09163984
1021.30 0.09160742
1021.40 0.091575
1021.50 0.0915426
1021.60 0.0915102
1021.70 0.09147782
1021.80 0.09144545
1021.90 0.09141309
1022.00 0.09138074
1022.10 0.0913484
1022.20 0.09131608
1022.30 0.09128376
1022.40 0.09125145
1022.50 0.09121916
1022.60 0.09118688
1022.70 0.0911546
1022.80 0.09112234
1022.90 0.09109009
1023.00 0.09105785
1023.10 0.09102562
1023.20 0.0909934
1023.30 0.09096119
1023.40 0.090929
1023.50 0.09089681
1023.60 0.09086463
1023.70 0.09083247
1023.80 0.09080032
1023.90 0.09076817
1024.00 0.09073604
1024.10 0.09070392
1024.20 0.09067181
1024.30 0.09063971
1024.40 0.09060762
1024.50 0.09057555
1024.60 0.09054348
1024.70 0.09051142
1024.80 0.09047938
1024.90 0.09044734
1025.00 0.09041532
1025.10 0.0903833
1025.20 0.0903513
1025.30 0.09031931
1025.40 0.09028733
1025.50 0.09025536
1025.60 0.0902234
1025.70 0.09019145
1025.80 0.09015951
1025.90 0.09012759
1026.00 0.09009567
1026.10 0.09006377
1026.20 0.09003187
1026.30 0.08999998
1026.40 0.08996811
1026.50 0.08993624
1026.60 0.08990439
1026.70 0.08987254
1026.80 0.08984071
1026.90 0.08980889
1027.00 0.08977707
1027.10 0.08974527
1027.20 0.08971348
1027.30 0.0896817
1027.40 0.08964993
1027.50 0.08961817
1027.60 0.08958643
1027.70 0.08955469
1027.80 0.08952296
1027.90 0.08949125
1028.00 0.08945954
1028.10 0.08942785
1028.20 0.08939616
1028.30 0.08936449
1028.40 0.08933283
1028.50 0.08930117
1028.60 0.08926953
1028.70 0.0892379
1028.80 0.08920628
1028.90 0.08917467
1029.00 0.08914307
1029.10 0.08911148
1029.20 0.0890799
1029.30 0.08904834
1029.40 0.08901678
1029.50 0.08898523
1029.60 0.0889537
1029.70 0.08892217
1029.80 0.08889066
1029.90 0.08885915
1030.00 0.08882766
1030.10 0.08879618
1030.20 0.08876471
1030.30 0.08873324
1030.40 0.08870179
1030.50 0.08867035
1030.60 0.08863892
1030.70 0.0886075
1030.80 0.08857609
1030.90 0.0885447
1031.00 0.08851331
1031.10 0.08848193
1031.20 0.08845056
1031.30 0.08841921
1031.40 0.088388
1031.50 0.08835681
1031.60 0.08832562
1031.70 0.08829445
1031.80 0.08826329
1031.90 0.08823214
1032.00 0.088201
1032.10 0.08816987
1032.20 0.08813875
1032.30 0.08810764
1032.40 0.08807654
1032.50 0.08804545
1032.60 0.08801438
1032.70 0.08798331
1032.80 0.08795225
1032.90 0.0879212
1033.00 0.08789017
1033.10 0.08785914
1033.20 0.08782813
1033.30 0.08779712
1033.40 0.08776613
1033.50 0.08773514
1033.60 0.08770417
1033.70 0.0876732
1033.80 0.08764225
1033.90 0.08761131
1034.00 0.08758037
1034.10 0.08754945
1034.20 0.08751854
1034.30 0.08748764
1034.40 0.08745675
1034.50 0.08742586
1034.60 0.08739499
1034.70 0.08736413
1034.80 0.08733328
1034.90 0.08730244
1035.00 0.08727161
1035.10 0.08724079
1035.20 0.08720998
1035.30 0.08717919
1035.40 0.0871484
1035.50 0.08711762
1035.60 0.08708685
1035.70 0.08705609
1035.80 0.08702534
1035.90 0.08699461
1036.00 0.08696388
1036.10 0.08693316
1036.20 0.08690246
1036.30 0.08687176
1036.40 0.08684107
1036.50 0.0868104
1036.60 0.08677973
1036.70 0.08674907
1036.80 0.08671842
1036.90 0.08668778
1037.00 0.08665716
1037.10 0.08662654
1037.20 0.08659593
1037.30 0.08656533
1037.40 0.08653475
1037.50 0.08650417
1037.60 0.0864736
1037.70 0.08644305
1037.80 0.0864125
1037.90 0.08638197
1038.00 0.08635144
1038.10 0.08632092
1038.20 0.08629042
1038.30 0.08625992
1038.40 0.08622944
1038.50 0.08619896
1038.60 0.0861685
1038.70 0.08613804
1038.80 0.0861076
1038.90 0.08607716
1039.00 0.08604674
1039.10 0.08601633
1039.20 0.08598592
1039.30 0.08595553
1039.40 0.08592514
1039.50 0.08589477
1039.60 0.08586441
1039.70 0.08583405
1039.80 0.08580371
1039.90 0.08577338
1040.00 0.08574305
1040.10 0.08571274
1040.20 0.08568244
1040.30 0.08565214
1040.40 0.08562186
1040.50 0.08559159
1040.60 0.08556132
1040.70 0.08553107
1040.80 0.08550083
1040.90 0.08547059
1041.00 0.08544037
1041.10 0.08541016
1041.20 0.08537996
1041.30 0.08534976
1041.40 0.08531958
1041.50 0.08528941
1041.60 0.08525924
1041.70 0.08522921
1041.80 0.0851992
1041.90 0.08516921
1042.00 0.08513922
1042.10 0.08510924
1042.20 0.08507928
1042.30 0.08504932
1042.40 0.08501938
1042.50 0.08498944
1042.60 0.08495952
1042.70 0.0849296
1042.80 0.0848997
1042.90 0.0848698
1043.00 0.08483991
1043.10 0.08481004
1043.20 0.08478017
1043.30 0.08475032
1043.40 0.08472047
1043.50 0.08469063
1043.60 0.08466081
1043.70 0.08463099
1043.80 0.08460118
1043.90 0.08457138
1044.00 0.0845416
1044.10 0.08451182
1044.20 0.08448205
1044.30 0.0844523
1044.40 0.08442255
1044.50 0.08439281
1044.60 0.08436308
1044.70 0.08433336
1044.80 0.08430365
1044.90 0.08427396
1045.00 0.08424427
1045.10 0.08421459
1045.20 0.08418492
1045.30 0.08415526
1045.40 0.08412561
1045.50 0.08409597
1045.60 0.08406634
1045.70 0.08403672
1045.80 0.08400711
1045.90 0.08397751
1046.00 0.08394792
1046.10 0.08391834
1046.20 0.08388877
1046.30 0.08385921
1046.40 0.08382965
1046.50 0.08380011
1046.60 0.08377058
1046.70 0.08374106
1046.80 0.08371154
1046.90 0.08368226
1047.00 0.08365305
1047.10 0.08362386
1047.20 0.08359467
1047.30 0.08356549
1047.40 0.08353632
1047.50 0.08350717
1047.60 0.08347802
1047.70 0.08344888
1047.80 0.08341975
1047.90 0.08339063
1048.00 0.08336152
1048.10 0.08333242
1048.20 0.08330333
1048.30 0.08327425
1048.40 0.08324518
1048.50 0.08321612
1048.60 0.08318707
1048.70 0.08315802
1048.80 0.08312899
1048.90 0.08309997
1049.00 0.08307095
1049.10 0.08304195
1049.20 0.08301295
1049.30 0.08298397
1049.40 0.08295499
1049.50 0.08292603
1049.60 0.08289707
1049.70 0.08286812
1049.80 0.08283919
1049.90 0.08281026
1050.00 0.08278134
1050.10 0.08275243
1050.20 0.08272353
1050.30 0.08269464
1050.40 0.08266576
1050.50 0.08263689
1050.60 0.08260803
1050.70 0.08257917
1050.80 0.08255033
1050.90 0.0825215
1051.00 0.08249268
1051.10 0.08246386
1051.20 0.08243506
1051.30 0.08240626
1051.40 0.08237748
1051.50 0.0823487
1051.60 0.08231993
1051.70 0.08229118
1051.80 0.08226243
1051.90 0.08223369
1052.00 0.08220496
1052.10 0.08217633
1052.20 0.08214775
1052.30 0.08211918
1052.40 0.08209062
1052.50 0.08206207
1052.60 0.08203352
1052.70 0.08200499
1052.80 0.08197647
1052.90 0.08194795
1053.00 0.08191945
1053.10 0.08189095
1053.20 0.08186247
1053.30 0.08183399
1053.40 0.08180552
1053.50 0.08177707
1053.60 0.08174862
1053.70 0.08172018
1053.80 0.08169175
1053.90 0.08166333
1054.00 0.08163492
1054.10 0.08160651
1054.20 0.08157812
1054.30 0.08154974
1054.40 0.08152136
1054.50 0.081493
1054.60 0.08146464
1054.70 0.0814363
1054.80 0.08140796
1054.90 0.08137963
1055.00 0.08135132
1055.10 0.08132301
1055.20 0.08129471
1055.30 0.08126642
1055.40 0.08123813
1055.50 0.08120986
1055.60 0.0811816
1055.70 0.08115335
1055.80 0.0811251
1055.90 0.08109687
1056.00 0.08106864
1056.10 0.08104042
1056.20 0.08101222
1056.30 0.08098402
1056.40 0.08095583
1056.50 0.08092765
1056.60 0.08089948
1056.70 0.08087132
1056.80 0.08084317
1056.90 0.08081502
1057.00 0.08078689
1057.10 0.08075877
1057.20 0.08073065
1057.30 0.08070254
1057.40 0.08067445
1057.50 0.08064636
1057.60 0.08061828
1057.70 0.08059021
1057.80 0.08056215
1057.90 0.0805341
1058.00 0.08050606
1058.10 0.08047803
1058.20 0.08045
1058.30 0.08042199
1058.40 0.08039398
1058.50 0.08036599
1058.60 0.080338
1058.70 0.08031002
1058.80 0.08028205
1058.90 0.0802541
1059.00 0.08022614
1059.10 0.0801982
1059.20 0.08017027
1059.30 0.08014235
1059.40 0.08011443
1059.50 0.08008653
1059.60 0.08005863
1059.70 0.08003075
1059.80 0.08000287
1059.90 0.079975
1060.00 0.07994714
1060.10 0.07991929
1060.20 0.07989145
1060.30 0.07986362
1060.40 0.0798358
1060.50 0.07980798
1060.60 0.07978018
1060.70 0.07975238
1060.80 0.0797246
1060.90 0.07969682
1061.00 0.07966905
1061.10 0.07964129
1061.20 0.07961354
1061.30 0.0795858
1061.40 0.07955807
1061.50 0.07953034
1061.60 0.07950263
1061.70 0.07947492
1061.80 0.07944723
1061.90 0.07941954
1062.00 0.07939186
1062.10 0.07936419
1062.20 0.07933653
1062.30 0.07930888
1062.40 0.07928124
1062.50 0.07925361
1062.60 0.07922617
1062.70 0.07919895
1062.80 0.07917174
1062.90 0.07914454
1063.00 0.07911735
1063.10 0.07909017
1063.20 0.079063
1063.30 0.07903584
1063.40 0.07900868
1063.50 0.07898154
1063.60 0.0789544
1063.70 0.07892727
1063.80 0.07890015
1063.90 0.07887304
1064.00 0.07884594
1064.10 0.07881885
1064.20 0.07879177
1064.30 0.07876469
1064.40 0.07873762
1064.50 0.07871057
1064.60 0.07868352
1064.70 0.07865648
1064.80 0.07862945
1064.90 0.07860242
1065.00 0.07857541
1065.10 0.0785484
1065.20 0.07852141
1065.30 0.07849442
1065.40 0.07846744
1065.50 0.07844047
1065.60 0.07841351
1065.70 0.07838656
1065.80 0.07835962
1065.90 0.07833268
1066.00 0.07830575
1066.10 0.07827884
1066.20 0.07825193
1066.30 0.07822503
1066.40 0.07819814
1066.50 0.07817125
1066.60 0.07814438
1066.70 0.07811751
1066.80 0.07809066
1066.90 0.07806381
1067.00 0.07803697
1067.10 0.07801014
1067.20 0.07798332
1067.30 0.0779565
1067.40 0.0779297
1067.50 0.0779029
1067.60 0.07787612
1067.70 0.07784934
1067.80 0.07782257
1067.90 0.07779581
1068.00 0.07776905
1068.10 0.07774231
1068.20 0.07771557
1068.30 0.07768884
1068.40 0.07766212
1068.50 0.07763541
1068.60 0.0776087
1068.70 0.07758201
1068.80 0.07755533
1068.90 0.07752865
1069.00 0.07750198
1069.10 0.07747532
1069.20 0.07744867
1069.30 0.07742203
1069.40 0.07739539
1069.50 0.07736877
1069.60 0.07734215
1069.70 0.07731554
1069.80 0.07728894
1069.90 0.07726235
1070.00 0.07723577
1070.10 0.0772092
1070.20 0.07718263
1070.30 0.07715607
1070.40 0.07712953
1070.50 0.07710299
1070.60 0.07707646
1070.70 0.07704993
1070.80 0.07702342
1070.90 0.07699691
1071.00 0.07697042
1071.10 0.07694393
1071.20 0.07691745
1071.30 0.07689098
1071.40 0.07686452
1071.50 0.07683806
1071.60 0.07681162
1071.70 0.07678518
1071.80 0.07675875
1071.90 0.07673233
1072.00 0.07670592
1072.10 0.07667952
1072.20 0.07665312
1072.30 0.07662674
1072.40 0.07660036
1072.50 0.07657399
1072.60 0.07654763
1072.70 0.07652128
1072.80 0.07649494
1072.90 0.0764686
1073.00 0.07644228
1073.10 0.07641596
1073.20 0.07638968
1073.30 0.0763635
1073.40 0.07633733
1073.50 0.07631116
1073.60 0.07628501
1073.70 0.07625886
1073.80 0.07623273
1073.90 0.0762066
1074.00 0.07618048
1074.10 0.07615436
1074.20 0.07612826
1074.30 0.07610217
1074.40 0.07607608
1074.50 0.07605
1074.60 0.07602393
1074.70 0.07599787
1074.80 0.07597182
1074.90 0.07594577
1075.00 0.07591973
1075.10 0.07589371
1075.20 0.07586769
1075.30 0.07584167
1075.40 0.07581567
1075.50 0.07578968
1075.60 0.07576369
1075.70 0.07573771
1075.80 0.07571174
1075.90 0.07568578
1076.00 0.07565983
1076.10 0.07563388
1076.20 0.07560795
1076.30 0.07558202
1076.40 0.0755561
1076.50 0.07553019
1076.60 0.07550429
1076.70 0.07547839
1076.80 0.07545251
1076.90 0.07542663
1077.00 0.07540076
1077.10 0.0753749
1077.20 0.07534904
1077.30 0.0753232
1077.40 0.07529736
1077.50 0.07527153
1077.60 0.07524571
1077.70 0.0752199
1077.80 0.0751941
1077.90 0.0751683
1078.00 0.07514252
1078.10 0.07511674
1078.20 0.07509097
1078.30 0.07506521
1078.40 0.07503945
1078.50 0.07501371
1078.60 0.07498797
1078.70 0.07496224
1078.80 0.07493652
1078.90 0.07491081
1079.00 0.0748851
1079.10 0.07485941
1079.20 0.07483372
1079.30 0.07480804
1079.40 0.07478237
1079.50 0.07475671
1079.60 0.07473105
1079.70 0.07470541
1079.80 0.07467977
1079.90 0.07465414
1080.00 0.07462852
1080.10 0.0746029
1080.20 0.0745773
1080.30 0.0745517
1080.40 0.07452611
1080.50 0.07450053
1080.60 0.07447496
1080.70 0.07444939
1080.80 0.07442384
1080.90 0.07439829
1081.00 0.07437275
1081.10 0.07434722
1081.20 0.07432169
1081.30 0.07429618
1081.40 0.07427067
1081.50 0.07424517
1081.60 0.07421968
1081.70 0.0741942
1081.80 0.07416872
1081.90 0.07414325
1082.00 0.0741178
1082.10 0.07409235
1082.20 0.0740669
1082.30 0.07404147
1082.40 0.07401604
1082.50 0.07399063
1082.60 0.07396522
1082.70 0.07393982
1082.80 0.07391442
1082.90 0.07388904
1083.00 0.07386366
1083.10 0.07383829
1083.20 0.07381293
1083.30 0.07378758
1083.40 0.07376223
1083.50 0.0737369
1083.60 0.07371157
1083.70 0.07368625
1083.80 0.07366094
1083.90 0.07363563
1084.00 0.07361067
1084.10 0.07358575
1084.20 0.07356085
1084.30 0.07353595
1084.40 0.07351106
1084.50 0.07348618
1084.60 0.0734613
1084.70 0.07343644
1084.80 0.07341158
1084.90 0.07338673
1085.00 0.07336189
1085.10 0.07333705
1085.20 0.07331223
1085.30 0.07328741
1085.40 0.0732626
1085.50 0.07323779
1085.60 0.073213
1085.70 0.07318821
1085.80 0.07316343
1085.90 0.07313866
1086.00 0.0731139
1086.10 0.07308914
1086.20 0.07306439
1086.30 0.07303965
1086.40 0.07301492
1086.50 0.0729902
1086.60 0.07296548
1086.70 0.07294077
1086.80 0.07291607
1086.90 0.07289138
1087.00 0.07286669
1087.10 0.07284202
1087.20 0.07281735
1087.30 0.07279269
1087.40 0.07276803
1087.50 0.07274339
1087.60 0.07271875
1087.70 0.07269412
1087.80 0.0726695
1087.90 0.07264488
1088.00 0.07262028
1088.10 0.07259568
1088.20 0.07257109
1088.30 0.0725465
1088.40 0.07252193
1088.50 0.07249736
1088.60 0.0724728
1088.70 0.07244825
1088.80 0.07242371
1088.90 0.07239917
1089.00 0.07237464
1089.10 0.07235012
1089.20 0.07232561
1089.30 0.0723011
1089.40 0.0722766
1089.50 0.07225211
1089.60 0.07222763
1089.70 0.07220315
1089.80 0.07217868
1089.90 0.07215422
1090.00 0.07212977
1090.10 0.07210533
1090.20 0.07208089
1090.30 0.07205646
1090.40 0.07203204
1090.50 0.07200762
1090.60 0.07198322
1090.70 0.07195882
1090.80 0.07193443
1090.90 0.07191004
1091.00 0.07188567
1091.10 0.0718613
1091.20 0.07183694
1091.30 0.07181259
1091.40 0.07178825
1091.50 0.07176391
1091.60 0.07173958
1091.70 0.07171526
1091.80 0.07169094
1091.90 0.07166664
1092.00 0.07164234
1092.10 0.07161805
1092.20 0.07159377
1092.30 0.07156949
1092.40 0.07154522
1092.50 0.07152096
1092.60 0.07149671
1092.70 0.07147247
1092.80 0.07144823
1092.90 0.071424
1093.00 0.07139978
1093.10 0.07137557
1093.20 0.07135136
1093.30 0.07132716
1093.40 0.07130297
1093.50 0.07127879
1093.60 0.07125461
1093.70 0.07123045
1093.80 0.07120629
1093.90 0.07118213
1094.00 0.07115799
1094.10 0.07113385
1094.20 0.07110972
1094.30 0.0710856
1094.40 0.07106149
1094.50 0.07103738
1094.60 0.07101328
1094.70 0.07098919
1094.80 0.07096522
1094.90 0.07094138
1095.00 0.07091755
1095.10 0.07089373
1095.20 0.07086991
1095.30 0.0708461
1095.40 0.0708223
1095.50 0.0707985
1095.60 0.07077472
1095.70 0.07075094
1095.80 0.07072717
1095.90 0.0707034
1096.00 0.07067965
1096.10 0.0706559
1096.20 0.07063215
1096.30 0.07060842
1096.40 0.07058469
1096.50 0.07056097
1096.60 0.07053726
1096.70 0.07051356
1096.80 0.07048986
1096.90 0.07046617
1097.00 0.07044249
1097.10 0.07041881
1097.20 0.07039515
1097.30 0.07037149
1097.40 0.07034783
1097.50 0.07032419
1097.60 0.07030055
1097.70 0.07027692
1097.80 0.0702533
1097.90 0.07022968
1098.00 0.07020608
1098.10 0.07018248
1098.20 0.07015888
1098.30 0.0701353
1098.40 0.07011172
1098.50 0.07008815
1098.60 0.07006459
1098.70 0.07004103
1098.80 0.07001748
1098.90 0.06999394
1099.00 0.06997041
1099.10 0.06994688
1099.20 0.06992336
1099.30 0.06989985
1099.40 0.06987635
1099.50 0.06985285
1099.60 0.06982936
1099.70 0.06980588
1099.80 0.06978241
1099.90 0.06975894
1100.00 0.06973548
1100.10 0.06971203
1100.20 0.06968858
1100.30 0.06966515
1100.40 0.06964172
1100.50 0.06961829
1100.60 0.06959488
1100.70 0.06957147
1100.80 0.06954807
1100.90 0.06952468
1101.00 0.06950129
1101.10 0.06947791
1101.20 0.06945454
1101.30 0.06943118
1101.40 0.06940782
1101.50 0.06938447
1101.60 0.06936113
1101.70 0.0693378
1101.80 0.06931447
1101.90 0.06929115
1102.00 0.06926784
1102.10 0.06924453
1102.20 0.06922123
1102.30 0.06919794
1102.40 0.06917466
1102.50 0.06915138
1102.60 0.06912812
1102.70 0.06910485
1102.80 0.0690816
1102.90 0.06905835
1103.00 0.06903511
1103.10 0.06901188
1103.20 0.06898866
1103.30 0.06896544
1103.40 0.06894223
1103.50 0.06891903
1103.60 0.06889583
1103.70 0.06887264
1103.80 0.06884946
1103.90 0.06882629
1104.00 0.06880312
1104.10 0.06877996
1104.20 0.06875681
1104.30 0.06873366
1104.40 0.06871053
1104.50 0.0686874
1104.60 0.06866427
1104.70 0.06864116
1104.80 0.06861805
1104.90 0.06859495
1105.00 0.06857185
1105.10 0.06854877
1105.20 0.06852569
1105.30 0.06850261
1105.40 0.06847955
1105.50 0.06845649
1105.60 0.06843344
1105.70 0.0684104
1105.80 0.06838759
1105.90 0.06836479
1106.00 0.06834199
1106.10 0.0683192
1106.20 0.06829642
1106.30 0.06827365
1106.40 0.06825088
1106.50 0.06822812
1106.60 0.06820537
1106.70 0.06818262
1106.80 0.06815988
1106.90 0.06813715
1107.00 0.06811443
1107.10 0.06809171
1107.20 0.068069
1107.30 0.0680463
1107.40 0.0680236
1107.50 0.06800091
1107.60 0.06797823
1107.70 0.06795556
1107.80 0.06793289
1107.90 0.06791023
1108.00 0.06788757
1108.10 0.06786493
1108.20 0.06784229
1108.30 0.06781966
1108.40 0.06779703
1108.50 0.06777441
1108.60 0.0677518
1108.70 0.0677292
1108.80 0.0677066
1108.90 0.06768401
1109.00 0.06766143
1109.10 0.06763885
1109.20 0.06761628
1109.30 0.06759372
1109.40 0.06757117
1109.50 0.06754862
1109.60 0.06752608
1109.70 0.06750354
1109.80 0.06748102
1109.90 0.0674585
1110.00 0.06743598
1110.10 0.06741348
1110.20 0.06739098
1110.30 0.06736849
1110.40 0.067346
1110.50 0.06732353
1110.60 0.06730105
1110.70 0.06727859
1110.80 0.06725613
1110.90 0.06723369
1111.00 0.06721124
1111.10 0.06718881
1111.20 0.06716638
1111.30 0.06714396
1111.40 0.06712154
1111.50 0.06709913
1111.60 0.06707673
1111.70 0.06705434
1111.80 0.06703195
1111.90 0.06700957
1112.00 0.0669872
1112.10 0.06696483
1112.20 0.06694248
1112.30 0.06692012
1112.40 0.06689778
1112.50 0.06687544
1112.60 0.06685311
1112.70 0.06683079
1112.80 0.06680847
1112.90 0.06678616
1113.00 0.06676385
1113.10 0.06674156
1113.20 0.06671927
1113.30 0.06669699
1113.40 0.06667471
1113.50 0.06665244
1113.60 0.06663018
1113.70 0.06660792
1113.80 0.06658568
1113.90 0.06656344
1114.00 0.0665412
1114.10 0.06651897
1114.20 0.06649675
1114.30 0.06647454
1114.40 0.06645233
1114.50 0.06643013
1114.60 0.06640794
1114.70 0.06638576
1114.80 0.06636358
1114.90 0.06634141
1115.00 0.06631924
1115.10 0.06629708
1115.20 0.06627493
1115.30 0.06625279
1115.40 0.06623065
1115.50 0.06620852
1115.60 0.06618639
1115.70 0.06616428
1115.80 0.06614217
1115.90 0.06612006
1116.00 0.06609797
1116.10 0.06607588
1116.20 0.0660538
1116.30 0.06603172
1116.40 0.06600965
1116.50 0.06598759
1116.60 0.06596553
1116.70 0.06594348
1116.80 0.06592149
1116.90 0.06589956
1117.00 0.06587763
1117.10 0.06585571
1117.20 0.0658338
1117.30 0.06581189
1117.40 0.06578999
1117.50 0.0657681
1117.60 0.06574621
1117.70 0.06572434
1117.80 0.06570246
1117.90 0.0656806
1118.00 0.06565874
1118.10 0.06563689
1118.20 0.06561504
1118.30 0.0655932
1118.40 0.06557137
1118.50 0.06554955
1118.60 0.06552773
1118.70 0.06550592
1118.80 0.06548412
1118.90 0.06546232
1119.00 0.06544053
1119.10 0.06541874
1119.20 0.06539696
1119.30 0.06537519
1119.40 0.06535343
1119.50 0.06533167
1119.60 0.06530992
1119.70 0.06528818
1119.80 0.06526644
1119.90 0.06524471
1120.00 0.06522299
1120.10 0.06520127
1120.20 0.06517956
1120.30 0.06515786
1120.40 0.06513616
1120.50 0.06511447
1120.60 0.06509279
1120.70 0.06507111
1120.80 0.06504944
1120.90 0.06502778
1121.00 0.06500612
1121.10 0.06498447
1121.20 0.06496283
1121.30 0.06494119
1121.40 0.06491956
1121.50 0.06489794
1121.60 0.06487632
1121.70 0.06485471
1121.80 0.06483311
1121.90 0.06481151
1122.00 0.06478992
1122.10 0.06476834
1122.20 0.06474676
1122.30 0.06472519
1122.40 0.06470377
1122.50 0.06468245
1122.60 0.06466113
1122.70 0.06463982
1122.80 0.06461851
1122.90 0.06459721
1123.00 0.06457592
1123.10 0.06455464
1123.20 0.06453336
1123.30 0.06451208
1123.40 0.06449082
1123.50 0.06446956
1123.60 0.06444831
1123.70 0.06442706
1123.80 0.06440582
1123.90 0.06438459
1124.00 0.06436336
1124.10 0.06434214
1124.20 0.06432093
1124.30 0.06429972
1124.40 0.06427852
1124.50 0.06425732
1124.60 0.06423614
1124.70 0.06421496
1124.80 0.06419378
1124.90 0.06417261
1125.00 0.06415145
1125.10 0.0641303
1125.20 0.06410915
1125.30 0.06408801
1125.40 0.06406687
1125.50 0.06404574
1125.60 0.06402462
1125.70 0.0640035
1125.80 0.06398239
1125.90 0.06396129
1126.00 0.06394019
1126.10 0.0639191
1126.20 0.06389802
1126.30 0.06387694
1126.40 0.06385587
1126.50 0.06383481
1126.60 0.06381375
1126.70 0.0637927
1126.80 0.06377166
1126.90 0.06375062
1127.00 0.06372959
1127.10 0.06370856
1127.20 0.06368754
1127.30 0.06366653
1127.40 0.06364552
1127.50 0.06362452
1127.60 0.06360353
1127.70 0.06358255
1127.80 0.06356157
1127.90 0.06354059
1128.00 0.0635197
1128.10 0.06349884
1128.20 0.06347798
1128.30 0.06345713
1128.40 0.06343629
1128.50 0.06341545
1128.60 0.06339462
1128.70 0.0633738
1128.80 0.06335298
1128.90 0.06333217
1129.00 0.06331136
1129.10 0.06329056
1129.20 0.06326977
1129.30 0.06324898
1129.40 0.0632282
1129.50 0.06320743
1129.60 0.06318666
1129.70 0.0631659
1129.80 0.06314515
1129.90 0.0631244
1130.00 0.06310366
1130.10 0.06308292
1130.20 0.06306219
1130.30 0.06304147
1130.40 0.06302075
1130.50 0.06300004
1130.60 0.06297934
1130.70 0.06295864
1130.80 0.06293795
1130.90 0.06291727
1131.00 0.06289659
1131.10 0.06287592
1131.20 0.06285525
1131.30 0.06283459
1131.40 0.06281394
1131.50 0.06279329
1131.60 0.06277265
1131.70 0.06275202
1131.80 0.06273139
1131.90 0.06271077
1132.00 0.06269016
1132.10 0.06266955
1132.20 0.06264894
1132.30 0.06262835
1132.40 0.06260776
1132.50 0.06258718
1132.60 0.0625666
1132.70 0.06254603
1132.80 0.06252546
1132.90 0.0625049
1133.00 0.06248435
1133.10 0.06246381
1133.20 0.06244327
1133.30 0.06242273
1133.40 0.06240221
1133.50 0.06238169
1133.60 0.06236117
1133.70 0.06234066
1133.80 0.06232016
1133.90 0.06229967
1134.00 0.06227918
1134.10 0.06225869
1134.20 0.06223822
1134.30 0.06221775
1134.40 0.06219728
1134.50 0.06217682
1134.60 0.06215637
1134.70 0.06213593
1134.80 0.06211549
1134.90 0.06209505
1135.00 0.06207463
1135.10 0.06205421
1135.20 0.06203379
1135.30 0.06201338
1135.40 0.06199298
1135.50 0.06197259
1135.60 0.0619522
1135.70 0.06193181
1135.80 0.06191144
1135.90 0.06189106
1136.00 0.0618707
1136.10 0.06185034
1136.20 0.06182999
1136.30 0.06180964
1136.40 0.0617893
1136.50 0.06176897
1136.60 0.06174864
1136.70 0.06172832
1136.80 0.06170801
1136.90 0.0616877
1137.00 0.06166739
1137.10 0.0616471
1137.20 0.06162681
1137.30 0.06160652
1137.40 0.06158625
1137.50 0.06156597
1137.60 0.06154571
1137.70 0.06152545
1137.80 0.0615052
1137.90 0.06148495
1138.00 0.06146471
1138.10 0.06144447
1138.20 0.06142424
1138.30 0.06140402
1138.40 0.06138381
1138.50 0.0613636
1138.60 0.06134339
1138.70 0.06132319
1138.80 0.061303
1138.90 0.06128282
1139.00 0.06126264
1139.10 0.06124246
1139.20 0.0612223
1139.30 0.06120244
1139.40 0.0611826
1139.50 0.06116277
1139.60 0.06114294
1139.70 0.06112312
1139.80 0.0611033
1139.90 0.06108349
1140.00 0.06106369
1140.10 0.06104389
1140.20 0.0610241
1140.30 0.06100431
1140.40 0.06098453
1140.50 0.06096476
1140.60 0.06094499
1140.70 0.06092522
1140.80 0.06090547
1140.90 0.06088572
1141.00 0.06086597
1141.10 0.06084624
1141.20 0.0608265
1141.30 0.06080678
1141.40 0.06078706
1141.50 0.06076734
1141.60 0.06074763
1141.70 0.06072793
1141.80 0.06070823
1141.90 0.06068854
1142.00 0.06066886
1142.10 0.06064918
1142.20 0.06062951
1142.30 0.06060984
1142.40 0.06059018
1142.50 0.06057053
1142.60 0.06055088
1142.70 0.06053123
1142.80 0.0605116
1142.90 0.06049197
1143.00 0.06047234
1143.10 0.06045272
1143.20 0.06043311
1143.30 0.0604135
1143.40 0.0603939
1143.50 0.0603743
1143.60 0.06035471
1143.70 0.06033513
1143.80 0.06031555
1143.90 0.06029598
1144.00 0.06027642
1144.10 0.06025686
1144.20 0.0602373
1144.30 0.06021775
1144.40 0.06019821
1144.50 0.06017868
1144.60 0.06015915
1144.70 0.06013962
1144.80 0.0601201
1144.90 0.06010059
1145.00 0.06008108
1145.10 0.06006158
1145.20 0.06004209
1145.30 0.0600226
1145.40 0.06000312
1145.50 0.05998364
1145.60 0.05996417
1145.70 0.0599447
1145.80 0.05992524
1145.90 0.05990579
1146.00 0.05988634
1146.10 0.0598669
1146.20 0.05984746
1146.30 0.05982803
1146.40 0.05980861
1146.50 0.05978919
1146.60 0.05976978
1146.70 0.05975037
1146.80 0.05973097
1146.90 0.05971158
1147.00 0.05969219
1147.10 0.0596728
1147.20 0.05965343
1147.30 0.05963405
1147.40 0.05961469
1147.50 0.05959533
1147.60 0.05957597
1147.70 0.05955663
1147.80 0.05953728
1147.90 0.05951795
1148.00 0.05949862
1148.10 0.05947929
1148.20 0.05945997
1148.30 0.05944066
1148.40 0.05942135
1148.50 0.05940205
1148.60 0.05938275
1148.70 0.05936346
1148.80 0.05934418
1148.90 0.0593249
1149.00 0.05930563
1149.10 0.05928636
1149.20 0.0592671
1149.30 0.05924785
1149.40 0.0592286
1149.50 0.05920935
1149.60 0.05919012
1149.70 0.05917088
1149.80 0.05915166
1149.90 0.05913244
1150.00 0.05911322
1150.10 0.05909402
1150.20 0.05907481
1150.30 0.05905562
1150.40 0.05903642
1150.50 0.05901724
1150.60 0.05899806
1150.70 0.05897898
1150.80 0.0589599
1150.90 0.05894082
1151.00 0.05892175
1151.10 0.05890269
1151.20 0.05888363
1151.30 0.05886457
1151.40 0.05884553
1151.50 0.05882649
1151.60 0.05880745
1151.70 0.05878842
1151.80 0.0587694
1151.90 0.05875038
1152.00 0.05873137
1152.10 0.05871236
1152.20 0.05869336
1152.30 0.05867436
1152.40 0.05865537
1152.50 0.05863639
1152.60 0.05861741
1152.70 0.05859844
1152.80 0.05857947
1152.90 0.05856051
1153.00 0.05854155
1153.10 0.0585226
1153.20 0.05850366
1153.30 0.05848472
1153.40 0.05846579
1153.50 0.05844686
1153.60 0.05842794
1153.70 0.05840902
1153.80 0.05839011
1153.90 0.05837121
1154.00 0.05835231
1154.10 0.05833342
1154.20 0.05831453
1154.30 0.05829565
1154.40 0.05827677
1154.50 0.0582579
1154.60 0.05823904
1154.70 0.05822018
1154.80 0.05820132
1154.90 0.05818248
1155.00 0.05816363
1155.10 0.0581448
1155.20 0.05812597
1155.30 0.05810714
1155.40 0.05808832
1155.50 0.05806951
1155.60 0.0580507
1155.70 0.0580319
1155.80 0.0580131
1155.90 0.05799431
1156.00 0.05797552
1156.10 0.05795674
1156.20 0.05793797
1156.30 0.0579192
1156.40 0.05790055
1156.50 0.05788201
1156.60 0.05786348
1156.70 0.05784495
1156.80 0.05782642
1156.90 0.0578079
1157.00 0.05778939
1157.10 0.05777088
1157.20 0.05775238
1157.30 0.05773388
1157.40 0.05771539
1157.50 0.0576969
1157.60 0.05767842
1157.70 0.05765995
1157.80 0.05764148
1157.90 0.05762301
1158.00 0.05760456
1158.10 0.0575861
1158.20 0.05756766
1158.30 0.05754921
1158.40 0.05753078
1158.50 0.05751235
1158.60 0.05749392
1158.70 0.0574755
1158.80 0.05745709
1158.90 0.05743868
1159.00 0.05742028
1159.10 0.05740188
1159.20 0.05738349
1159.30 0.0573651
1159.40 0.05734672
1159.50 0.05732834
1159.60 0.05730997
1159.70 0.05729161
1159.80 0.05727325
1159.90 0.05725489
1160.00 0.05723654
1160.10 0.0572182
1160.20 0.05719986
1160.30 0.05718153
1160.40 0.05716321
1160.50 0.05714488
1160.60 0.05712657
1160.70 0.05710826
1160.80 0.05708995
1160.90 0.05707166
1161.00 0.05705336
1161.10 0.05703507
1161.20 0.05701679
1161.30 0.05699851
1161.40 0.05698024
1161.50 0.05696197
1161.60 0.05694371
1161.70 0.05692546
1161.80 0.05690721
1161.90 0.05688896
1162.00 0.05687072
1162.10 0.05685249
1162.20 0.05683413
1162.30 0.05681578
1162.40 0.05679744
1162.50 0.0567791
1162.60 0.05676076
1162.70 0.05674244
1162.80 0.05672411
1162.90 0.05670579
1163.00 0.05668748
1163.10 0.05666917
1163.20 0.05665087
1163.30 0.05663258
1163.40 0.05661429
1163.50 0.056596
1163.60 0.05657772
1163.70 0.05655945
1163.80 0.05654118
1163.90 0.05652292
1164.00 0.05650466
1164.10 0.05648641
1164.20 0.05646816
1164.30 0.05644992
1164.40 0.05643168
1164.50 0.05641345
1164.60 0.05639523
1164.70 0.05637701
1164.80 0.05635879
1164.90 0.05634058
1165.00 0.05632238
1165.10 0.05630418
1165.20 0.05628599
1165.30 0.0562678
1165.40 0.05624962
1165.50 0.05623144
1165.60 0.05621327
1165.70 0.05619511
1165.80 0.05617694
1165.90 0.05615879
1166.00 0.05614064
1166.10 0.0561225
1166.20 0.05610436
1166.30 0.05608622
1166.40 0.0560681
1166.50 0.05604997
1166.60 0.05603186
1166.70 0.05601375
1166.80 0.05599564
1166.90 0.05597754
1167.00 0.05595944
1167.10 0.05594135
1167.20 0.05592327
1167.30 0.05590519
1167.40 0.05588711
1167.50 0.05586905
1167.60 0.05585098
1167.70 0.05583292
1167.80 0.05581487
1167.90 0.05579682
1168.00 0.05577916
1168.10 0.05576154
1168.20 0.05574392
1168.30 0.05572631
1168.40 0.0557087
1168.50 0.0556911
1168.60 0.05567351
1168.70 0.05565592
1168.80 0.05563833
1168.90 0.05562075
1169.00 0.05560318
1169.10 0.05558561
1169.20 0.05556805
1169.30 0.05555049
1169.40 0.05553293
1169.50 0.05551539
1169.60 0.05549784
1169.70 0.0554803
1169.80 0.05546277
1169.90 0.05544524
1170.00 0.05542772
1170.10 0.0554102
1170.20 0.05539269
1170.30 0.05537519
1170.40 0.05535768
1170.50 0.05534019
1170.60 0.0553227
1170.70 0.05530521
1170.80 0.05528773
1170.90 0.05527025
1171.00 0.05525278
1171.10 0.05523532
1171.20 0.05521786
1171.30 0.0552004
1171.40 0.05518295
1171.50 0.05516551
1171.60 0.05514807
1171.70 0.05513063
1171.80 0.0551132
1171.90 0.05509578
1172.00 0.05507836
1172.10 0.05506094
1172.20 0.05504354
1172.30 0.05502613
1172.40 0.05500873
1172.50 0.05499134
1172.60 0.05497395
1172.70 0.05495657
1172.80 0.05493919
1172.90 0.05492182
1173.00 0.05490445
1173.10 0.05488709
1173.20 0.05486973
1173.30 0.05485238
1173.40 0.05483503
1173.50 0.05481769
1173.60 0.05480035
1173.70 0.05478302
1173.80 0.05476575
1173.90 0.05474851
1174.00 0.05473127
1174.10 0.05471404
1174.20 0.05469681
1174.30 0.05467958
1174.40 0.05466236
1174.50 0.05464515
1174.60 0.05462794
1174.70 0.05461074
1174.80 0.05459354
1174.90 0.05457635
1175.00 0.05455916
1175.10 0.05454197
1175.20 0.0545248
1175.30 0.05450762
1175.40 0.05449045
1175.50 0.05447329
1175.60 0.05445613
1175.70 0.05443898
1175.80 0.05442183
1175.90 0.05440469
1176.00 0.05438755
1176.10 0.05437042
1176.20 0.05435329
1176.30 0.05433617
1176.40 0.05431905
1176.50 0.05430194
1176.60 0.05428483
1176.70 0.05426773
1176.80 0.05425063
1176.90 0.05423354
1177.00 0.05421645
1177.10 0.05419937
1177.20 0.05418229
1177.30 0.05416522
1177.40 0.05414815
1177.50 0.05413109
1177.60 0.05411403
1177.70 0.05409698
1177.80 0.05407993
1177.90 0.05406289
1178.00 0.05404585
1178.10 0.05402882
1178.20 0.05401179
1178.30 0.05399477
1178.40 0.05397775
1178.50 0.05396074
1178.60 0.05394373
1178.70 0.05392673
1178.80 0.05390973
1178.90 0.05389274
1179.00 0.05387575
1179.10 0.05385877
1179.20 0.05384179
1179.30 0.05382482
1179.40 0.05380785
1179.50 0.05379089
1179.60 0.05377391
1179.70 0.05375676
1179.80 0.05373961
1179.90 0.05372247
1180.00 0.05370533
1180.10 0.0536882
1180.20 0.05367107
1180.30 0.05365395
1180.40 0.05363684
1180.50 0.05361972
1180.60 0.05360262
1180.70 0.05358551
1180.80 0.05356842
1180.90 0.05355133
1181.00 0.05353424
1181.10 0.05351716
1181.20 0.05350008
1181.30 0.05348301
1181.40 0.05346594
1181.50 0.05344888
1181.60 0.05343183
1181.70 0.05341477
1181.80 0.05339773
1181.90 0.05338069
1182.00 0.05336365
1182.10 0.05334662
1182.20 0.05332959
1182.30 0.05331257
1182.40 0.05329555
1182.50 0.05327854
1182.60 0.05326153
1182.70 0.05324453
1182.80 0.05322754
1182.90 0.05321054
1183.00 0.05319356
1183.10 0.05317658
1183.20 0.0531596
1183.30 0.05314263
1183.40 0.05312566
1183.50 0.0531087
1183.60 0.05309174
1183.70 0.05307479
1183.80 0.05305784
1183.90 0.0530409
1184.00 0.05302397
1184.10 0.05300703
1184.20 0.05299011
1184.30 0.05297318
1184.40 0.05295627
1184.50 0.05293935
1184.60 0.05292245
1184.70 0.05290555
1184.80 0.05288865
1184.90 0.05287176
1185.00 0.05285487
1185.10 0.05283799
1185.20 0.05282111
1185.30 0.05280424
1185.40 0.05278737
1185.50 0.05277062
1185.60 0.05275404
1185.70 0.05273746
1185.80 0.05272089
1185.90 0.05270432
1186.00 0.05268776
1186.10 0.0526712
1186.20 0.05265464
1186.30 0.05263809
1186.40 0.05262155
1186.50 0.05260501
1186.60 0.05258848
1186.70 0.05257195
1186.80 0.05255542
1186.90 0.0525389
1187.00 0.05252239
1187.10 0.05250588
1187.20 0.05248937
1187.30 0.05247287
1187.40 0.05245637
1187.50 0.05243988
1187.60 0.0524234
1187.70 0.05240691
1187.80 0.05239044
1187.90 0.05237397
1188.00 0.0523575
1188.10 0.05234104
1188.20 0.05232458
1188.30 0.05230813
1188.40 0.05229168
1188.50 0.05227523
1188.60 0.0522588
1188.70 0.05224236
1188.80 0.05222593
1188.90 0.05220951
1189.00 0.05219309
1189.10 0.05217668
1189.20 0.05216027
1189.30 0.05214386
1189.40 0.05212746
1189.50 0.05211107
1189.60 0.05209468
1189.70 0.05207829
1189.80 0.05206191
1189.90 0.05204553
1190.00 0.05202916
1190.10 0.0520128
1190.20 0.05199643
1190.30 0.05198008
1190.40 0.05196372
1190.50 0.05194738
1190.60 0.05193103
1190.70 0.0519147
1190.80 0.05189836
1190.90 0.05188203
1191.00 0.05186571
1191.10 0.05184939
1191.20 0.05183308
1191.30 0.05181677
1191.40 0.05180049
1191.50 0.05178439
1191.60 0.05176829
1191.70 0.05175219
1191.80 0.0517361
1191.90 0.05172001
1192.00 0.05170393
1192.10 0.05168785
1192.20 0.05167178
1192.30 0.05165571
1192.40 0.05163965
1192.50 0.05162359
1192.60 0.05160754
1192.70 0.05159149
1192.80 0.05157545
1192.90 0.05155941
1193.00 0.05154337
1193.10 0.05152734
1193.20 0.05151131
1193.30 0.05149529
1193.40 0.05147928
1193.50 0.05146326
1193.60 0.05144726
1193.70 0.05143125
1193.80 0.05141526
1193.90 0.05139926
1194.00 0.05138327
1194.10 0.05136729
1194.20 0.05135131
1194.30 0.05133534
1194.40 0.05131937
1194.50 0.0513034
1194.60 0.05128744
1194.70 0.05127148
1194.80 0.05125553
1194.90 0.05123958
1195.00 0.05122364
1195.10 0.0512077
1195.20 0.05119177
1195.30 0.05117584
1195.40 0.05115992
1195.50 0.051144
1195.60 0.05112809
1195.70 0.05111218
1195.80 0.05109627
1195.90 0.05108037
1196.00 0.05106447
1196.10 0.05104858
1196.20 0.05103269
1196.30 0.05101681
1196.40 0.05100093
1196.50 0.05098506
1196.60 0.05096919
1196.70 0.05095333
1196.80 0.05093747
1196.90 0.05092161
1197.00 0.05090576
1197.10 0.05088992
1197.20 0.05087408
1197.30 0.05085824
1197.40 0.0508423
1197.50 0.05082636
1197.60 0.05081042
1197.70 0.05079448
1197.80 0.05077855
1197.90 0.05076262
1198.00 0.0507467
1198.10 0.05073078
1198.20 0.05071487
1198.30 0.05069896
1198.40 0.05068306
1198.50 0.05066716
1198.60 0.05065127
1198.70 0.05063538
1198.80 0.05061949
1198.90 0.05060361
1199.00 0.05058774
1199.10 0.05057186
1199.20 0.050556
1199.30 0.05054014
1199.40 0.05052428
1199.50 0.05050842
1199.60 0.05049258
1199.70 0.05047673
1199.80 0.05046089
1199.90 0.05044506
1200.00 0.05042923
