# Version 2.1 - nm, norm@500 to 1, cut digits, bergeron_He_14000_90.dat_14000
# Wavelength(nm)  Flambda(ergs/cm^s/s/nm)
300.00 3.169245
300.10 3.168089
300.20 3.166999
300.30 3.16582
300.40 3.16404
300.50 3.162262
300.60 3.160486
300.70 3.158711
300.80 3.156938
300.90 3.155166
301.00 3.153396
301.10 3.151628
301.20 3.149862
301.30 3.148097
301.40 3.146334
301.50 3.144572
301.60 3.142812
301.70 3.141054
301.80 3.139297
301.90 3.137542
302.00 3.135789
302.10 3.134138
302.20 3.1325
302.30 3.130863
302.40 3.129228
302.50 3.127594
302.60 3.125962
302.70 3.124331
302.80 3.122702
302.90 3.121074
303.00 3.119448
303.10 3.117823
303.20 3.1162
303.30 3.114557
303.40 3.112731
303.50 3.110907
303.60 3.109084
303.70 3.107264
303.80 3.105444
303.90 3.103627
304.00 3.101811
304.10 3.099998
304.20 3.098185
304.30 3.096375
304.40 3.094566
304.50 3.092759
304.60 3.091024
304.70 3.089298
304.80 3.087573
304.90 3.08585
305.00 3.084129
305.10 3.08241
305.20 3.080692
305.30 3.078975
305.40 3.077261
305.50 3.075547
305.60 3.073836
305.70 3.072126
305.80 3.070417
305.90 3.06871
306.00 3.067005
306.10 3.065301
306.20 3.063599
306.30 3.061898
306.40 3.060225
306.50 3.05856
306.60 3.056897
306.70 3.055235
306.80 3.053575
306.90 3.051916
307.00 3.050259
307.10 3.048603
307.20 3.046949
307.30 3.045296
307.40 3.043645
307.50 3.041996
307.60 3.040348
307.70 3.038701
307.80 3.037056
307.90 3.035412
308.00 3.03377
308.10 3.032129
308.20 3.03049
308.30 3.028853
308.40 3.027217
308.50 3.025582
308.60 3.023949
308.70 3.022317
308.80 3.020602
308.90 3.018646
309.00 3.016693
309.10 3.014741
309.20 3.012791
309.30 3.010844
309.40 3.008936
309.50 3.007267
309.60 3.0056
309.70 3.003934
309.80 3.00227
309.90 3.000607
310.00 2.998946
310.10 2.997286
310.20 2.995628
310.30 2.993971
310.40 2.992185
310.50 2.990258
310.60 2.988333
310.70 2.986409
310.80 2.984488
310.90 2.982568
311.00 2.980651
311.10 2.978735
311.20 2.976821
311.30 2.974984
311.40 2.973363
311.50 2.971744
311.60 2.970127
311.70 2.968511
311.80 2.966896
311.90 2.965283
312.00 2.963671
312.10 2.962061
312.20 2.960394
312.30 2.958499
312.40 2.956605
312.50 2.954713
312.60 2.952823
312.70 2.950935
312.80 2.949048
312.90 2.947163
313.00 2.945281
313.10 2.943399
313.20 2.94152
313.30 2.939643
313.40 2.937767
313.50 2.935893
313.60 2.934021
313.70 2.932151
313.80 2.930282
313.90 2.928416
314.00 2.926551
314.10 2.924688
314.20 2.922826
314.30 2.920967
314.40 2.919109
314.50 2.917253
314.60 2.915398
314.70 2.913546
314.80 2.911695
314.90 2.909846
315.00 2.907999
315.10 2.905726
315.20 2.903455
315.30 2.901187
315.40 2.898921
315.50 2.896657
315.60 2.894395
315.70 2.891923
315.80 2.889454
315.90 2.886987
316.00 2.884522
316.10 2.882697
316.20 2.880874
316.30 2.87778
316.40 2.874689
316.50 2.870331
316.60 2.865977
316.70 2.862898
316.80 2.859822
316.90 2.856749
317.00 2.85368
317.10 2.850614
317.20 2.847552
317.30 2.845757
317.40 2.843193
317.50 2.838437
317.60 2.833686
317.70 2.828941
317.80 2.824201
317.90 2.815793
318.00 2.804129
318.10 2.787265
318.20 2.770422
318.30 2.753599
318.40 2.730919
318.50 2.691546
318.60 2.648961
318.70 2.586745
318.80 2.543401
318.90 2.571982
319.00 2.612865
319.10 2.649995
319.20 2.682506
319.30 2.701973
319.40 2.721415
319.50 2.740832
319.60 2.755159
319.70 2.763323
319.80 2.771477
319.90 2.77962
320.00 2.785403
320.10 2.788634
320.20 2.793073
320.30 2.795181
320.40 2.798398
320.50 2.799132
320.60 2.798575
320.70 2.799306
320.80 2.799739
320.90 2.799849
321.00 2.799959
321.10 2.800067
321.20 2.799509
321.30 2.79862
321.40 2.797732
321.50 2.796845
321.60 2.795958
321.70 2.795071
321.80 2.794574
321.90 2.794499
322.00 2.793081
322.10 2.791958
322.20 2.790835
322.30 2.789714
322.40 2.788593
322.50 2.787473
322.60 2.786354
322.70 2.785235
322.80 2.783883
322.90 2.782375
323.00 2.78087
323.10 2.779365
323.20 2.777862
323.30 2.77636
323.40 2.77486
323.50 2.773361
323.60 2.771863
323.70 2.770366
323.80 2.768871
323.90 2.767377
324.00 2.765669
324.10 2.763963
324.20 2.762258
324.30 2.760555
324.40 2.758996
324.50 2.757592
324.60 2.756189
324.70 2.754788
324.80 2.753388
324.90 2.751989
325.00 2.750591
325.10 2.749194
325.20 2.747704
325.30 2.746015
325.40 2.744328
325.50 2.742642
325.60 2.740957
325.70 2.739275
325.80 2.737593
325.90 2.736186
326.00 2.735076
326.10 2.733966
326.20 2.732857
326.30 2.731602
326.40 2.729928
326.50 2.728256
326.60 2.726586
326.70 2.724917
326.80 2.72325
326.90 2.721584
327.00 2.719919
327.10 2.718257
327.20 2.716595
327.30 2.714936
327.40 2.713277
327.50 2.711621
327.60 2.709965
327.70 2.708312
327.80 2.70666
327.90 2.705009
328.00 2.70336
328.10 2.701712
328.20 2.700066
328.30 2.698421
328.40 2.696778
328.50 2.695137
328.60 2.693497
328.70 2.691858
328.80 2.690273
328.90 2.688836
329.00 2.687401
329.10 2.685967
329.20 2.684535
329.30 2.683103
329.40 2.681673
329.50 2.680245
329.60 2.678817
329.70 2.677391
329.80 2.675965
329.90 2.674541
330.00 2.67303
330.10 2.67141
330.20 2.669793
330.30 2.668176
330.40 2.666561
330.50 2.664948
330.60 2.663336
330.70 2.661726
330.80 2.660117
330.90 2.658509
331.00 2.656903
331.10 2.655298
331.20 2.653695
331.30 2.652093
331.40 2.650493
331.50 2.648894
331.60 2.647297
331.70 2.645701
331.80 2.644271
331.90 2.642849
332.00 2.641428
332.10 2.640008
332.20 2.63859
332.30 2.637173
332.40 2.635757
332.50 2.634342
332.60 2.632929
332.70 2.631516
332.80 2.630105
332.90 2.628696
333.00 2.627287
333.10 2.625803
333.20 2.624227
333.30 2.622653
333.40 2.62108
333.50 2.619508
333.60 2.617938
333.70 2.616369
333.80 2.614802
333.90 2.613236
334.00 2.611671
334.10 2.610108
334.20 2.608546
334.30 2.606986
334.40 2.605427
334.50 2.603869
334.60 2.602313
334.70 2.600759
334.80 2.599205
334.90 2.597653
335.00 2.596103
335.10 2.594553
335.20 2.593005
335.30 2.591459
335.40 2.589914
335.50 2.58837
335.60 2.586828
335.70 2.585287
335.80 2.583748
335.90 2.582209
336.00 2.580673
336.10 2.579137
336.20 2.577603
336.30 2.57607
336.40 2.574539
336.50 2.573009
336.60 2.57148
336.70 2.569953
336.80 2.568427
336.90 2.566903
337.00 2.56538
337.10 2.563858
337.20 2.562337
337.30 2.560818
337.40 2.559301
337.50 2.557784
337.60 2.556269
337.70 2.554755
337.80 2.553243
337.90 2.551732
338.00 2.550222
338.10 2.548714
338.20 2.547207
338.30 2.545701
338.40 2.544197
338.50 2.542694
338.60 2.541192
338.70 2.539692
338.80 2.538193
338.90 2.536695
339.00 2.535199
339.10 2.533704
339.20 2.53221
339.30 2.530718
339.40 2.529227
339.50 2.527737
339.60 2.526249
339.70 2.524762
339.80 2.523276
339.90 2.521791
340.00 2.520308
340.10 2.518826
340.20 2.517346
340.30 2.515866
340.40 2.514388
340.50 2.512912
340.60 2.511436
340.70 2.509962
340.80 2.508489
340.90 2.507018
341.00 2.505548
341.10 2.504079
341.20 2.502611
341.30 2.501145
341.40 2.49968
341.50 2.498216
341.60 2.496754
341.70 2.495293
341.80 2.493833
341.90 2.492374
342.00 2.490917
342.10 2.489461
342.20 2.488006
342.30 2.486553
342.40 2.4851
342.50 2.483649
342.60 2.4822
342.70 2.480751
342.80 2.479304
342.90 2.477858
343.00 2.476414
343.10 2.47497
343.20 2.473528
343.30 2.472088
343.40 2.470648
343.50 2.46921
343.60 2.467773
343.70 2.466337
343.80 2.464902
343.90 2.463469
344.00 2.461816
344.10 2.459848
344.20 2.457881
344.30 2.455917
344.40 2.454174
344.50 2.45275
344.60 2.451326
344.70 2.449904
344.80 2.448483
344.90 2.447064
345.00 2.445645
345.10 2.444228
345.20 2.443108
345.30 2.442415
345.40 2.441722
345.50 2.440705
345.60 2.439293
345.70 2.437882
345.80 2.436472
345.90 2.435064
346.00 2.433656
346.10 2.43225
346.20 2.430845
346.30 2.429442
346.40 2.428039
346.50 2.426638
346.60 2.425238
346.70 2.423839
346.80 2.422441
346.90 2.421045
347.00 2.41965
347.10 2.418256
347.20 2.416863
347.30 2.415471
347.40 2.414081
347.50 2.412692
347.60 2.411304
347.70 2.409917
347.80 2.408531
347.90 2.407147
348.00 2.405764
348.10 2.404382
348.20 2.403001
348.30 2.401621
348.40 2.400243
348.50 2.398865
348.60 2.397489
348.70 2.396114
348.80 2.394741
348.90 2.393368
349.00 2.391997
349.10 2.390627
349.20 2.389258
349.30 2.38789
349.40 2.386523
349.50 2.385158
349.60 2.383793
349.70 2.38243
349.80 2.381068
349.90 2.379707
350.00 2.378348
350.10 2.376989
350.20 2.375632
350.30 2.374199
350.40 2.372656
350.50 2.371115
350.60 2.369575
350.70 2.368036
350.80 2.366499
350.90 2.364964
351.00 2.363429
351.10 2.361896
351.20 2.360364
351.30 2.358834
351.40 2.357372
351.50 2.356031
351.60 2.354691
351.70 2.353352
351.80 2.352014
351.90 2.350678
352.00 2.349343
352.10 2.348008
352.20 2.346675
352.30 2.345343
352.40 2.344012
352.50 2.342682
352.60 2.341354
352.70 2.340026
352.80 2.3387
352.90 2.337375
353.00 2.336051
353.10 2.334728
353.20 2.333406
353.30 2.332085
353.40 2.330765
353.50 2.329447
353.60 2.32813
353.70 2.326813
353.80 2.325498
353.90 2.324102
354.00 2.322562
354.10 2.321024
354.20 2.319487
354.30 2.317951
354.40 2.316416
354.50 2.314883
354.60 2.313352
354.70 2.311821
354.80 2.310385
354.90 2.309083
355.00 2.307782
355.10 2.306483
355.20 2.305184
355.30 2.303887
355.40 2.30259
355.50 2.301295
355.60 2.300001
355.70 2.298708
355.80 2.297416
355.90 2.296125
356.00 2.294724
356.10 2.293296
356.20 2.29187
356.30 2.290445
356.40 2.289021
356.50 2.287598
356.60 2.286176
356.70 2.284756
356.80 2.283337
356.90 2.281919
357.00 2.280503
357.10 2.279087
357.20 2.277673
357.30 2.27626
357.40 2.274898
357.50 2.273626
357.60 2.272354
357.70 2.271084
357.80 2.269815
357.90 2.268546
358.00 2.267127
358.10 2.265671
358.20 2.264216
358.30 2.262762
358.40 2.26131
358.50 2.259859
358.60 2.258409
358.70 2.25696
358.80 2.255513
358.90 2.254066
359.00 2.252371
359.10 2.250231
359.20 2.248208
359.30 2.246957
359.40 2.245707
359.50 2.243894
359.60 2.241943
359.70 2.239994
359.80 2.238749
359.90 2.237505
360.00 2.23613
360.10 2.234523
360.20 2.232917
360.30 2.231312
360.40 2.229709
360.50 2.228107
360.60 2.224733
360.70 2.22301
360.80 2.221289
360.90 2.21957
361.00 2.218027
361.10 2.215714
361.20 2.21362
361.30 2.210444
361.40 2.20922
361.50 2.209947
361.60 2.210673
361.70 2.209451
361.80 2.208503
361.90 2.208042
362.00 2.207582
362.10 2.206514
362.20 2.205449
362.30 2.204657
362.40 2.203866
362.50 2.203075
362.60 2.202285
362.70 2.201156
362.80 2.199943
362.90 2.19873
363.00 2.197519
363.10 2.196309
363.20 2.1951
363.30 2.193891
363.40 2.192684
363.50 2.191478
363.60 2.190272
363.70 2.190138
363.80 2.189789
363.90 2.188586
364.00 2.187383
364.10 2.186182
364.20 2.184982
364.30 2.183782
364.40 2.182584
364.50 2.181387
364.60 2.18019
364.70 2.178995
364.80 2.1778
364.90 2.17565
365.00 2.173503
365.10 2.172312
365.20 2.171123
365.30 2.169934
365.40 2.168747
365.50 2.16756
365.60 2.166374
365.70 2.16519
365.80 2.164006
365.90 2.162823
366.00 2.161642
366.10 2.160461
366.20 2.159281
366.30 2.158102
366.40 2.156925
366.50 2.155748
366.60 2.154572
366.70 2.153397
366.80 2.152223
366.90 2.150927
367.00 2.149415
367.10 2.147905
367.20 2.146395
367.30 2.144887
367.40 2.14338
367.50 2.142146
367.60 2.140981
367.70 2.139816
367.80 2.138653
367.90 2.13749
368.00 2.136329
368.10 2.135168
368.20 2.134009
368.30 2.13285
368.40 2.131692
368.50 2.130536
368.60 2.12938
368.70 2.128225
368.80 2.127071
368.90 2.125918
369.00 2.123939
369.10 2.121755
369.20 2.120596
369.30 2.119448
369.40 2.1183
369.50 2.117154
369.60 2.116008
369.70 2.114864
369.80 2.113222
369.90 2.111576
370.00 2.109932
370.10 2.108435
370.20 2.107297
370.30 2.106159
370.40 2.103165
370.50 2.10203
370.60 2.100896
370.70 2.101616
370.80 2.100482
370.90 2.09935
371.00 2.098218
371.10 2.097088
371.20 2.095958
371.30 2.094829
371.40 2.093701
371.50 2.092574
371.60 2.091448
371.70 2.090323
371.80 2.089199
371.90 2.088075
372.00 2.086953
372.10 2.085831
372.20 2.08471
372.30 2.083591
372.40 2.082472
372.50 2.081354
372.60 2.080237
372.70 2.079121
372.80 2.078005
372.90 2.076891
373.00 2.075778
373.10 2.074665
373.20 2.073553
373.30 2.072443
373.40 2.069506
373.50 2.068398
373.60 2.067291
373.70 2.066185
373.80 2.065079
373.90 2.063975
374.00 2.062871
374.10 2.061769
374.20 2.060667
374.30 2.059566
374.40 2.058466
374.50 2.057367
374.60 2.056268
374.70 2.055171
374.80 2.054074
374.90 2.052979
375.00 2.051884
375.10 2.05079
375.20 2.049697
375.30 2.048347
375.40 2.046997
375.50 2.045649
375.60 2.044302
375.70 2.042956
375.80 2.041612
375.90 2.040268
376.00 2.039183
376.10 2.038099
376.20 2.037015
376.30 2.035933
376.40 2.034851
376.50 2.03377
376.60 2.03269
376.70 2.031611
376.80 2.030324
376.90 2.028829
377.00 2.027335
377.10 2.025843
377.20 2.024439
377.30 2.023366
377.40 2.022294
377.50 2.021223
377.60 2.020152
377.70 2.019083
377.80 2.018014
377.90 2.016946
378.00 2.015879
378.10 2.014404
378.20 2.012927
378.30 2.011451
378.40 2.009976
378.50 2.008503
378.60 2.007031
378.70 2.00556
378.80 2.00409
378.90 2.002766
379.00 2.001709
379.10 1.999944
379.20 1.998181
379.30 1.996774
379.40 1.995721
379.50 1.99467
379.60 1.993025
379.70 1.990667
379.80 1.988975
379.90 1.987284
380.00 1.985594
380.10 1.983906
380.20 1.98222
380.30 1.980535
380.40 1.978851
380.50 1.977169
380.60 1.975804
380.70 1.973968
380.80 1.972133
380.90 1.9703
381.00 1.968468
381.10 1.967435
381.20 1.965624
381.30 1.96362
381.40 1.962276
381.50 1.96035
381.60 1.958197
381.70 1.955557
381.80 1.953239
381.90 1.947851
382.00 1.945959
382.10 1.949301
382.20 1.94985
382.30 1.950573
382.40 1.951073
382.50 1.951241
382.60 1.951409
382.70 1.951018
382.80 1.950202
382.90 1.949588
383.00 1.948975
383.10 1.948362
383.20 1.947665
383.30 1.946649
383.40 1.945633
383.50 1.944619
383.60 1.943625
383.70 1.94284
383.80 1.942056
383.90 1.941272
384.00 1.940489
384.10 1.939706
384.20 1.938923
384.30 1.938142
384.40 1.937247
384.50 1.936239
384.60 1.935233
384.70 1.934227
384.80 1.933222
384.90 1.932217
385.00 1.931213
385.10 1.930211
385.20 1.929209
385.30 1.928207
385.40 1.927007
385.50 1.925608
385.60 1.92421
385.70 1.922813
385.80 1.921291
385.90 1.919296
386.00 1.917802
386.10 1.916749
386.20 1.915097
386.30 1.913447
386.40 1.911711
386.50 1.909433
386.60 1.906742
386.70 1.904478
386.80 1.903068
386.90 1.900383
387.00 1.897701
387.10 1.895021
387.20 1.892811
387.30 1.889626
387.40 1.884859
387.50 1.881122
387.60 1.875238
387.70 1.867917
387.80 1.860604
387.90 1.853297
388.00 1.845265
388.10 1.833253
388.20 1.813077
388.30 1.788014
388.40 1.762976
388.50 1.730341
388.60 1.680394
388.70 1.611068
388.80 1.529744
388.90 1.502015
389.00 1.562239
389.10 1.628453
389.20 1.682054
389.30 1.723201
389.40 1.753323
389.50 1.778918
389.60 1.796876
389.70 1.808889
389.80 1.815942
389.90 1.822988
390.00 1.830027
390.10 1.837058
390.20 1.844082
390.30 1.848621
390.40 1.850364
390.50 1.852104
390.60 1.853843
390.70 1.85558
390.80 1.856914
390.90 1.857848
391.00 1.857842
391.10 1.858509
391.20 1.858835
391.30 1.858146
391.40 1.857751
391.50 1.857356
391.60 1.856961
391.70 1.856566
391.80 1.856171
391.90 1.856246
392.00 1.856228
392.10 1.855281
392.20 1.854335
392.30 1.85339
392.40 1.852446
392.50 1.851502
392.60 1.850559
392.70 1.849616
392.80 1.848675
392.90 1.847734
393.00 1.846794
393.10 1.845854
393.20 1.844915
393.30 1.843977
393.40 1.84304
393.50 1.842103
393.60 1.841167
393.70 1.839041
393.80 1.837655
393.90 1.836723
394.00 1.83579
394.10 1.834468
394.20 1.832705
394.30 1.83136
394.40 1.830296
394.50 1.827867
394.60 1.826941
394.70 1.825858
394.80 1.824183
394.90 1.822481
395.00 1.819741
395.10 1.817425
395.20 1.815231
395.30 1.81272
395.40 1.810211
395.50 1.807417
395.60 1.804519
395.70 1.801468
395.80 1.798002
395.90 1.794539
396.00 1.790953
396.10 1.786282
396.20 1.782136
396.30 1.777774
396.40 1.772825
396.50 1.773308
396.60 1.778081
396.70 1.781273
396.80 1.783791
396.90 1.784811
397.00 1.785528
397.10 1.787321
397.20 1.78732
397.30 1.787947
397.40 1.788061
397.50 1.788176
397.60 1.78825
397.70 1.787921
397.80 1.787593
397.90 1.787111
398.00 1.786213
398.10 1.785316
398.20 1.78442
398.30 1.783524
398.40 1.782628
398.50 1.781734
398.60 1.78084
398.70 1.779424
398.80 1.777878
398.90 1.776562
399.00 1.775671
399.10 1.773117
399.20 1.771496
399.30 1.769876
399.40 1.768257
399.50 1.76664
399.60 1.765063
399.70 1.763502
399.80 1.761941
399.90 1.760383
400.00 1.758809
400.10 1.756706
400.20 1.753908
400.30 1.752027
400.40 1.749896
400.50 1.746518
400.60 1.744488
400.70 1.742031
400.80 1.739148
400.90 1.736439
401.00 1.732663
401.10 1.729701
401.20 1.726529
401.30 1.722964
401.40 1.719171
401.50 1.715389
401.60 1.711589
401.70 1.707095
401.80 1.701548
401.90 1.696386
402.00 1.690845
402.10 1.685393
402.20 1.679626
402.30 1.672466
402.40 1.665505
402.50 1.656892
402.60 1.645155
402.70 1.652106
402.80 1.662273
402.90 1.668665
403.00 1.674894
403.10 1.681743
403.20 1.685753
403.30 1.689735
403.40 1.692654
403.50 1.695415
403.60 1.698161
403.70 1.700188
403.80 1.702523
403.90 1.703454
404.00 1.704801
404.10 1.706181
404.20 1.706896
404.30 1.707609
404.40 1.707614
404.50 1.708256
404.60 1.708189
404.70 1.707345
404.80 1.708101
404.90 1.708766
405.00 1.707922
405.10 1.707966
405.20 1.708231
405.30 1.708495
405.40 1.708169
405.50 1.707843
405.60 1.707517
405.70 1.707191
405.80 1.706865
405.90 1.70654
406.00 1.706321
406.10 1.706102
406.20 1.705883
406.30 1.705665
406.40 1.705427
406.50 1.704588
406.60 1.70375
406.70 1.703393
406.80 1.703157
406.90 1.702781
407.00 1.702098
407.10 1.701416
407.20 1.700734
407.30 1.700052
407.40 1.699371
407.50 1.698691
407.60 1.698011
407.70 1.697331
407.80 1.696652
407.90 1.695969
408.00 1.695137
408.10 1.694307
408.20 1.693875
408.30 1.693543
408.40 1.693211
408.50 1.692516
408.60 1.691688
408.70 1.69086
408.80 1.690033
408.90 1.689207
409.00 1.688381
409.10 1.687555
409.20 1.686731
409.30 1.685907
409.40 1.685067
409.50 1.683707
409.60 1.682349
409.70 1.681099
409.80 1.680279
409.90 1.679459
410.00 1.67864
410.10 1.677821
410.20 1.677003
410.30 1.676186
410.40 1.67525
410.50 1.673936
410.60 1.672624
410.70 1.671413
410.80 1.670599
410.90 1.669786
411.00 1.668662
411.10 1.667423
411.20 1.666185
411.30 1.665034
411.40 1.664193
411.50 1.662321
411.60 1.660451
411.70 1.658495
411.80 1.656188
411.90 1.654183
412.00 1.651879
412.10 1.649953
412.20 1.648778
412.30 1.649476
412.40 1.648676
412.50 1.647877
412.60 1.647079
412.70 1.646746
412.80 1.64653
412.90 1.64618
413.00 1.645454
413.10 1.644953
413.20 1.644453
413.30 1.643953
413.40 1.643454
413.50 1.642895
413.60 1.642101
413.70 1.641307
413.80 1.640514
413.90 1.639722
414.00 1.638929
414.10 1.638138
414.20 1.637347
414.30 1.636408
414.40 1.634284
414.50 1.634978
414.60 1.634189
414.70 1.633401
414.80 1.632614
414.90 1.631827
415.00 1.631041
415.10 1.630255
415.20 1.62947
415.30 1.628685
415.40 1.627901
415.50 1.627117
415.60 1.626334
415.70 1.625552
415.80 1.62477
415.90 1.623989
416.00 1.623208
416.10 1.622428
416.20 1.621649
416.30 1.62087
416.40 1.620091
416.50 1.619313
416.60 1.618536
416.70 1.617759
416.80 1.616983
416.90 1.616208
417.00 1.615433
417.10 1.614658
417.20 1.613884
417.30 1.613111
417.40 1.612338
417.50 1.611566
417.60 1.610794
417.70 1.610015
417.80 1.609002
417.90 1.607989
418.00 1.606976
418.10 1.605965
418.20 1.604954
418.30 1.603952
418.40 1.603185
418.50 1.602419
418.60 1.601654
418.70 1.600889
418.80 1.600124
418.90 1.59936
419.00 1.598597
419.10 1.597834
419.20 1.597072
419.30 1.59631
419.40 1.595549
419.50 1.594789
419.60 1.593931
419.70 1.592683
419.80 1.591436
419.90 1.590273
420.00 1.589375
420.10 1.588477
420.20 1.587579
420.30 1.586683
420.40 1.585787
420.50 1.584892
420.60 1.583997
420.70 1.583103
420.80 1.58221
420.90 1.581322
421.00 1.580571
421.10 1.57982
421.20 1.579019
421.30 1.578065
421.40 1.577111
421.50 1.576158
421.60 1.575206
421.70 1.574255
421.80 1.573305
421.90 1.572404
422.00 1.571659
422.10 1.570914
422.20 1.57017
422.30 1.569426
422.40 1.568679
422.50 1.567792
422.60 1.566906
422.70 1.566021
422.80 1.565136
422.90 1.564252
423.00 1.563369
423.10 1.562486
423.20 1.561604
423.30 1.560723
423.40 1.559842
423.50 1.558962
423.60 1.558083
423.70 1.557204
423.80 1.556326
423.90 1.555448
424.00 1.554572
424.10 1.553696
424.20 1.55282
424.30 1.551945
424.40 1.551097
424.50 1.550081
424.60 1.549065
424.70 1.548051
424.80 1.547037
424.90 1.546024
425.00 1.545011
425.10 1.544
425.20 1.542989
425.30 1.541979
425.40 1.540995
425.50 1.540177
425.60 1.539361
425.70 1.538544
425.80 1.537729
425.90 1.536914
426.00 1.536099
426.10 1.535286
426.20 1.534472
426.30 1.53366
426.40 1.532848
426.50 1.532036
426.60 1.531225
426.70 1.530415
426.80 1.529605
426.90 1.528793
427.00 1.527856
427.10 1.526919
427.20 1.525984
427.30 1.525049
427.40 1.524115
427.50 1.523181
427.60 1.522249
427.70 1.521316
427.80 1.520385
427.90 1.519455
428.00 1.518525
428.10 1.517595
428.20 1.516667
428.30 1.515739
428.40 1.514812
428.50 1.513886
428.60 1.51296
428.70 1.512035
428.80 1.511114
428.90 1.510244
429.00 1.509373
429.10 1.508504
429.20 1.507635
429.30 1.506767
429.40 1.5059
429.50 1.505033
429.60 1.504167
429.70 1.503301
429.80 1.502436
429.90 1.501572
430.00 1.500708
430.10 1.499845
430.20 1.498983
430.30 1.498121
430.40 1.49726
430.50 1.4964
430.60 1.49554
430.70 1.494681
430.80 1.493823
430.90 1.492965
431.00 1.492107
431.10 1.491251
431.20 1.490395
431.30 1.489537
431.40 1.488641
431.50 1.487746
431.60 1.486852
431.70 1.485958
431.80 1.485065
431.90 1.484172
432.00 1.483281
432.10 1.48239
432.20 1.481499
432.30 1.480609
432.40 1.47972
432.50 1.478832
432.60 1.477944
432.70 1.477057
432.80 1.476171
432.90 1.475285
433.00 1.4744
433.10 1.473515
433.20 1.472632
433.30 1.471742
433.40 1.47077
433.50 1.469798
433.60 1.468827
433.70 1.467856
433.80 1.466686
433.90 1.465271
434.00 1.464217
434.10 1.463384
434.20 1.462552
434.30 1.461721
434.40 1.46089
434.50 1.46006
434.60 1.45923
434.70 1.458401
434.80 1.457558
434.90 1.45652
435.00 1.455482
435.10 1.454445
435.20 1.453409
435.30 1.452373
435.40 1.451339
435.50 1.450305
435.60 1.449272
435.70 1.44824
435.80 1.447208
435.90 1.446177
436.00 1.445148
436.10 1.444119
436.20 1.44309
436.30 1.441791
436.40 1.440192
436.50 1.439001
436.60 1.437811
436.70 1.436622
436.80 1.435434
436.90 1.434247
437.00 1.433061
437.10 1.431875
437.20 1.430684
437.30 1.429486
437.40 1.42828
437.50 1.426962
437.60 1.425645
437.70 1.424329
437.80 1.423014
437.90 1.4217
438.00 1.420363
438.10 1.418702
438.20 1.417042
438.30 1.415576
438.40 1.413775
438.50 1.411806
438.60 1.409931
438.70 1.407965
438.80 1.405223
438.90 1.40536
439.00 1.406087
439.10 1.406107
439.20 1.406104
439.30 1.405794
439.40 1.405484
439.50 1.405174
439.60 1.404841
439.70 1.404202
439.80 1.403699
439.90 1.403362
440.00 1.403024
440.10 1.402687
440.20 1.402319
440.30 1.401551
440.40 1.400783
440.50 1.400016
440.60 1.39925
440.70 1.398483
440.80 1.397718
440.90 1.396953
441.00 1.396189
441.10 1.395425
441.20 1.394671
441.30 1.394039
441.40 1.393206
441.50 1.392129
441.60 1.391053
441.70 1.390209
441.80 1.388983
441.90 1.387757
442.00 1.386532
442.10 1.385308
442.20 1.384085
442.30 1.382863
442.40 1.381526
442.50 1.380049
442.60 1.378573
442.70 1.377439
442.80 1.376704
442.90 1.37448
443.00 1.372676
443.10 1.371384
443.20 1.369791
443.30 1.367921
443.40 1.366033
443.50 1.364122
443.60 1.362634
443.70 1.360079
443.80 1.357688
443.90 1.355784
444.00 1.353301
444.10 1.3514
444.20 1.348791
444.30 1.346721
444.40 1.343654
444.50 1.34059
444.60 1.337433
444.70 1.334163
444.80 1.330638
444.90 1.326878
445.00 1.323122
445.10 1.319369
445.20 1.314895
445.30 1.30954
445.40 1.304189
445.50 1.298843
445.60 1.293502
445.70 1.288165
445.80 1.281523
445.90 1.273678
446.00 1.265841
446.10 1.25801
446.20 1.249488
446.30 1.239534
446.40 1.228135
446.50 1.21596
446.60 1.203796
446.70 1.191643
446.80 1.177576
446.90 1.161747
447.00 1.144263
447.10 1.120118
447.20 1.110703
447.30 1.135537
447.40 1.154315
447.50 1.171794
447.60 1.187732
447.70 1.202248
447.80 1.214438
447.90 1.225801
448.00 1.235134
448.10 1.242594
448.20 1.250048
448.30 1.257495
448.40 1.264935
448.50 1.272368
448.60 1.278324
448.70 1.282917
448.80 1.287394
448.90 1.290377
449.00 1.293357
449.10 1.296334
449.20 1.299308
449.30 1.303206
449.40 1.30466
449.50 1.306112
449.60 1.307291
449.70 1.308216
449.80 1.309141
449.90 1.310065
450.00 1.310988
450.10 1.31191
450.20 1.312831
450.30 1.313751
450.40 1.313796
450.50 1.31384
450.60 1.313884
450.70 1.313928
450.80 1.313972
450.90 1.314015
451.00 1.313938
451.10 1.31386
451.20 1.31352
451.30 1.312938
451.40 1.311731
451.50 1.310525
451.60 1.309945
451.70 1.309365
451.80 1.308785
451.90 1.308206
452.00 1.307628
452.10 1.307049
452.20 1.306782
452.30 1.306516
452.40 1.306249
452.50 1.305983
452.60 1.305406
452.70 1.305115
452.80 1.305089
452.90 1.305062
453.00 1.305035
453.10 1.305008
453.20 1.304621
453.30 1.304235
453.40 1.303849
453.50 1.303463
453.60 1.303077
453.70 1.302692
453.80 1.302221
453.90 1.301648
454.00 1.301074
454.10 1.300501
454.20 1.300154
454.30 1.299807
454.40 1.29946
454.50 1.299113
454.60 1.298767
454.70 1.298303
454.80 1.297732
454.90 1.297162
455.00 1.296592
455.10 1.296022
455.20 1.295453
455.30 1.294884
455.40 1.294315
455.50 1.293747
455.60 1.293179
455.70 1.292611
455.80 1.292044
455.90 1.291478
456.00 1.290911
456.10 1.290314
456.20 1.289635
456.30 1.288956
456.40 1.288277
456.50 1.287599
456.60 1.286922
456.70 1.286245
456.80 1.285568
456.90 1.284892
457.00 1.284216
457.10 1.283541
457.20 1.282925
457.30 1.282279
457.40 1.281633
457.50 1.280988
457.60 1.280343
457.70 1.279698
457.80 1.279054
457.90 1.278411
458.00 1.277768
458.10 1.277125
458.20 1.276483
458.30 1.275841
458.40 1.275199
458.50 1.274558
458.60 1.273918
458.70 1.273187
458.80 1.272421
458.90 1.271654
459.00 1.270889
459.10 1.270123
459.20 1.269359
459.30 1.268722
459.40 1.268085
459.50 1.267449
459.60 1.266814
459.70 1.266179
459.80 1.265544
459.90 1.264909
460.00 1.264276
460.10 1.263642
460.20 1.263009
460.30 1.262376
460.40 1.261744
460.50 1.261113
460.60 1.260481
460.70 1.259744
460.80 1.258956
460.90 1.258168
461.00 1.257381
461.10 1.256594
461.20 1.255979
461.30 1.255434
461.40 1.25489
461.50 1.254346
461.60 1.253803
461.70 1.25326
461.80 1.25255
461.90 1.251841
462.00 1.251132
462.10 1.250424
462.20 1.249716
462.30 1.249008
462.40 1.248301
462.50 1.247595
462.60 1.246889
462.70 1.246184
462.80 1.245479
462.90 1.244774
463.00 1.244071
463.10 1.243367
463.20 1.24266
463.30 1.241952
463.40 1.241245
463.50 1.240537
463.60 1.239831
463.70 1.239125
463.80 1.238419
463.90 1.237734
464.00 1.237054
464.10 1.236375
464.20 1.235696
464.30 1.235018
464.40 1.23434
464.50 1.233663
464.60 1.232986
464.70 1.232276
464.80 1.231553
464.90 1.230831
465.00 1.230108
465.10 1.229387
465.20 1.228666
465.30 1.227939
465.40 1.227209
465.50 1.226479
465.60 1.225749
465.70 1.225021
465.80 1.224292
465.90 1.223497
466.00 1.222685
466.10 1.221874
466.20 1.221063
466.30 1.220373
466.40 1.219733
466.50 1.219093
466.60 1.218454
466.70 1.217815
466.80 1.217176
466.90 1.216538
467.00 1.2159
467.10 1.215263
467.20 1.214626
467.30 1.213163
467.40 1.212204
467.50 1.211457
467.60 1.21071
467.70 1.209963
467.80 1.209217
467.90 1.208634
468.00 1.208118
468.10 1.207602
468.20 1.207086
468.30 1.206158
468.40 1.205063
468.50 1.20438
468.60 1.203866
468.70 1.203353
468.80 1.20168
468.90 1.201168
469.00 1.200656
469.10 1.199733
469.20 1.198643
469.30 1.197554
469.40 1.196466
469.50 1.195435
469.60 1.194427
469.70 1.19342
469.80 1.192413
469.90 1.191447
470.00 1.190094
470.10 1.188448
470.20 1.18677
470.30 1.185093
470.40 1.183417
470.50 1.181742
470.60 1.179166
470.70 1.176366
470.80 1.173568
470.90 1.170773
471.00 1.166446
471.10 1.162044
471.20 1.157354
471.30 1.15285
471.40 1.150641
471.50 1.151872
471.60 1.153788
471.70 1.155588
471.80 1.157386
471.90 1.159183
472.00 1.160978
472.10 1.162772
472.20 1.163993
472.30 1.16507
472.40 1.166146
472.50 1.167222
472.60 1.168296
472.70 1.168256
472.80 1.168127
472.90 1.168088
473.00 1.16805
473.10 1.168011
473.20 1.167972
473.30 1.167934
473.40 1.167895
473.50 1.167856
473.60 1.167817
473.70 1.167778
473.80 1.167376
473.90 1.166883
474.00 1.166391
474.10 1.165899
474.20 1.165407
474.30 1.164916
474.40 1.164425
474.50 1.163934
474.60 1.163444
474.70 1.162953
474.80 1.162464
474.90 1.161974
475.00 1.161485
475.10 1.160996
475.20 1.160507
475.30 1.160019
475.40 1.15942
475.50 1.158793
475.60 1.158167
475.70 1.157541
475.80 1.156915
475.90 1.15629
476.00 1.155665
476.10 1.155041
476.20 1.1544
476.30 1.153753
476.40 1.153106
476.50 1.15246
476.60 1.151814
476.70 1.151169
476.80 1.150524
476.90 1.14991
477.00 1.149304
477.10 1.148699
477.20 1.148094
477.30 1.147489
477.40 1.146885
477.50 1.146281
477.60 1.145678
477.70 1.145075
477.80 1.144472
477.90 1.14387
478.00 1.143268
478.10 1.142667
478.20 1.142066
478.30 1.141465
478.40 1.140865
478.50 1.140265
478.60 1.139666
478.70 1.138741
478.80 1.137684
478.90 1.137092
479.00 1.136618
479.10 1.136143
479.20 1.135669
479.30 1.135195
479.40 1.134603
479.50 1.133941
479.60 1.13328
479.70 1.132619
479.80 1.131959
479.90 1.131299
480.00 1.13064
480.10 1.129981
480.20 1.129322
480.30 1.128664
480.40 1.128006
480.50 1.127349
480.60 1.126692
480.70 1.126036
480.80 1.12538
480.90 1.124725
481.00 1.12407
481.10 1.123416
481.20 1.122748
481.30 1.12208
481.40 1.121413
481.50 1.120746
481.60 1.12008
481.70 1.119414
481.80 1.118748
481.90 1.118083
482.00 1.117419
482.10 1.116755
482.20 1.116094
482.30 1.115476
482.40 1.114858
482.50 1.114241
482.60 1.113623
482.70 1.113007
482.80 1.11239
482.90 1.111774
483.00 1.111159
483.10 1.110544
483.20 1.109929
483.30 1.109315
483.40 1.108701
483.50 1.108088
483.60 1.107475
483.70 1.106811
483.80 1.106149
483.90 1.105486
484.00 1.104824
484.10 1.104163
484.20 1.10351
484.30 1.102862
484.40 1.102214
484.50 1.101566
484.60 1.100919
484.70 1.100269
484.80 1.099576
484.90 1.098884
485.00 1.098192
485.10 1.097501
485.20 1.09681
485.30 1.096119
485.40 1.095429
485.50 1.09474
485.60 1.094051
485.70 1.093403
485.80 1.092755
485.90 1.092108
486.00 1.091462
486.10 1.090815
486.20 1.090169
486.30 1.089524
486.40 1.088879
486.50 1.088235
486.60 1.087591
486.70 1.086942
486.80 1.086232
486.90 1.085522
487.00 1.084812
487.10 1.084103
487.20 1.083265
487.30 1.082428
487.40 1.081592
487.50 1.080756
487.60 1.079921
487.70 1.079086
487.80 1.078252
487.90 1.077419
488.00 1.076586
488.10 1.075753
488.20 1.07492
488.30 1.074058
488.40 1.073197
488.50 1.072337
488.60 1.071477
488.70 1.070618
488.80 1.069788
488.90 1.068959
489.00 1.068043
489.10 1.066904
489.20 1.065766
489.30 1.06463
489.40 1.063493
489.50 1.062358
489.60 1.061224
489.70 1.06009
489.80 1.058957
489.90 1.057625
490.00 1.056294
490.10 1.054964
490.20 1.053634
490.30 1.052306
490.40 1.050765
490.50 1.049225
490.60 1.047686
490.70 1.046149
490.80 1.044364
490.90 1.042655
491.00 1.040804
491.10 1.038849
491.20 1.036684
491.30 1.034416
491.40 1.031713
491.50 1.02883
491.60 1.025511
491.70 1.021957
491.80 1.01837
491.90 1.014317
492.00 1.009662
492.10 1.004396
492.20 0.9982977
492.30 1.000461
492.40 1.003858
492.50 1.006492
492.60 1.008992
492.70 1.011153
492.80 1.013312
492.90 1.015469
493.00 1.017578
493.10 1.019066
493.20 1.020552
493.30 1.022038
493.40 1.023522
493.50 1.025005
493.60 1.026036
493.70 1.026868
493.80 1.027699
493.90 1.028417
494.00 1.028958
494.10 1.029416
494.20 1.029694
494.30 1.029972
494.40 1.03025
494.50 1.030528
494.60 1.030793
494.70 1.030894
494.80 1.03096
494.90 1.030926
495.00 1.030892
495.10 1.030858
495.20 1.030603
495.30 1.030347
495.40 1.030092
495.50 1.029837
495.60 1.029582
495.70 1.029328
495.80 1.029073
495.90 1.028818
496.00 1.028564
496.10 1.028285
496.20 1.027947
496.30 1.027533
496.40 1.027119
496.50 1.026706
496.60 1.026292
496.70 1.025818
496.80 1.025343
496.90 1.02487
497.00 1.024396
497.10 1.023923
497.20 1.02345
497.30 1.022957
497.40 1.022405
497.50 1.021854
497.60 1.021296
497.70 1.020717
497.80 1.02008
497.90 1.019444
498.00 1.018808
498.10 1.018172
498.20 1.017538
498.30 1.016903
498.40 1.016269
498.50 1.015635
498.60 1.015002
498.70 1.014237
498.80 1.013472
498.90 1.012648
499.00 1.011826
499.10 1.011003
499.20 1.01013
499.30 1.00912
499.40 1.008034
499.50 1.006948
499.60 1.005863
499.70 1.004744
499.80 1.003161
499.90 1.00158
500.00 1
500.10 0.998421
500.20 0.9963844
500.30 0.9933746
500.40 0.9903671
500.50 0.987362
500.60 0.9843592
500.70 0.9813587
500.80 0.9773055
500.90 0.9710146
501.00 0.9647287
501.10 0.9584477
501.20 0.9491112
501.30 0.938497
501.40 0.9277616
501.50 0.9180958
501.60 0.9189343
501.70 0.9318834
501.80 0.9445085
501.90 0.9547477
502.00 0.963509
502.10 0.9691415
502.20 0.9745949
502.30 0.9777253
502.40 0.980212
502.50 0.9813348
502.60 0.9824566
502.70 0.9835775
502.80 0.9846974
502.90 0.9858163
503.00 0.9865939
503.10 0.9866478
503.20 0.9867016
503.30 0.9867553
503.40 0.9866993
503.50 0.9863317
503.60 0.9859642
503.70 0.985597
503.80 0.985187
503.90 0.9844617
504.00 0.9836779
504.10 0.9827693
504.20 0.9818613
504.30 0.980954
504.40 0.9800518
504.50 0.979163
504.60 0.9782748
504.70 0.9773723
504.80 0.9766478
504.90 0.9763584
505.00 0.9763472
505.10 0.97631
505.20 0.9762808
505.30 0.9762741
505.40 0.9762674
505.50 0.9762606
505.60 0.9761903
505.70 0.975985
505.80 0.9757798
505.90 0.9755747
506.00 0.9753697
506.10 0.9751648
506.20 0.9749188
506.30 0.974556
506.40 0.9741933
506.50 0.9738309
506.60 0.9734687
506.70 0.9731067
506.80 0.9727449
506.90 0.9723833
507.00 0.9720219
507.10 0.9716537
507.20 0.971248
507.30 0.9707786
507.40 0.9703094
507.50 0.9698405
507.60 0.969372
507.70 0.9689037
507.80 0.9684357
507.90 0.967968
508.00 0.9675006
508.10 0.9670335
508.20 0.9665667
508.30 0.9661001
508.40 0.9656339
508.50 0.965168
508.60 0.9647023
508.70 0.9642369
508.80 0.9637451
508.90 0.963257
509.00 0.9627974
509.10 0.9623248
509.20 0.9618247
509.30 0.9613249
509.40 0.9608255
509.50 0.9603263
509.60 0.9598275
509.70 0.959329
509.80 0.9588308
509.90 0.9583329
510.00 0.9578353
510.10 0.9573381
510.20 0.9568412
510.30 0.9563408
510.40 0.9558301
510.50 0.9553197
510.60 0.9548097
510.70 0.9543
510.80 0.9537906
510.90 0.9532815
511.00 0.9527728
511.10 0.9522644
511.20 0.9517563
511.30 0.9512485
511.40 0.9507411
511.50 0.950234
511.60 0.9497264
511.70 0.9492175
511.80 0.9487088
511.90 0.9482006
512.00 0.9476926
512.10 0.947185
512.20 0.9466776
512.30 0.9461787
512.40 0.945703
512.50 0.9452275
512.60 0.9447524
512.70 0.9442775
512.80 0.943803
512.90 0.9433288
513.00 0.9428548
513.10 0.9423812
513.20 0.9419078
513.30 0.9414348
513.40 0.940962
513.50 0.9404895
513.60 0.9400174
513.70 0.9395455
513.80 0.9390739
513.90 0.9386027
514.00 0.9381001
514.10 0.9375927
514.20 0.9370856
514.30 0.9365789
514.40 0.9360725
514.50 0.9355664
514.60 0.9350606
514.70 0.9345552
514.80 0.93405
514.90 0.9335452
515.00 0.9330407
515.10 0.9325366
515.20 0.9320327
515.30 0.9315292
515.40 0.931026
515.50 0.9305231
515.60 0.9300206
515.70 0.9295183
515.80 0.9290164
515.90 0.9285148
516.00 0.9280135
516.10 0.9275126
516.20 0.9270119
516.30 0.9265116
516.40 0.9260116
516.50 0.9255119
516.60 0.9250124
516.70 0.9245133
516.80 0.9240145
516.90 0.9235161
517.00 0.9230179
517.10 0.92252
517.20 0.9220225
517.30 0.9215253
517.40 0.9210284
517.50 0.9205318
517.60 0.9200356
517.70 0.9195396
517.80 0.919044
517.90 0.9185486
518.00 0.9180536
518.10 0.9175589
518.20 0.9170645
518.30 0.9165705
518.40 0.9160767
518.50 0.9155833
518.60 0.9150901
518.70 0.9145973
518.80 0.9141048
518.90 0.9136126
519.00 0.9131207
519.10 0.9126281
519.20 0.9121346
519.30 0.9116415
519.40 0.9111486
519.50 0.9106561
519.60 0.9101639
519.70 0.9096719
519.80 0.9091803
519.90 0.908689
520.00 0.9081981
520.10 0.9077074
520.20 0.907217
520.30 0.906727
520.40 0.9062372
520.50 0.9057478
520.60 0.9052587
520.70 0.9047699
520.80 0.9042813
520.90 0.9037931
521.00 0.9033053
521.10 0.9028177
521.20 0.9023304
521.30 0.9018434
521.40 0.9013568
521.50 0.9008704
521.60 0.9003844
521.70 0.8998986
521.80 0.8994132
521.90 0.8989281
522.00 0.8984432
522.10 0.8979587
522.20 0.8974745
522.30 0.8969906
522.40 0.896507
522.50 0.8960237
522.60 0.8955407
522.70 0.895058
522.80 0.8945756
522.90 0.8940935
523.00 0.8936118
523.10 0.8931303
523.20 0.8926491
523.30 0.8921682
523.40 0.8916877
523.50 0.8912074
523.60 0.8907274
523.70 0.8902478
523.80 0.8897684
523.90 0.8892894
524.00 0.8888106
524.10 0.8883321
524.20 0.887854
524.30 0.8873759
524.40 0.8868979
524.50 0.8864202
524.60 0.8859429
524.70 0.8854658
524.80 0.884989
524.90 0.8845126
525.00 0.8840364
525.10 0.8835605
525.20 0.8830849
525.30 0.8826096
525.40 0.8821347
525.50 0.88166
525.60 0.8811856
525.70 0.8807115
525.80 0.8802377
525.90 0.8797642
526.00 0.879291
526.10 0.8788181
526.20 0.8783455
526.30 0.8778732
526.40 0.8774012
526.50 0.8769294
526.60 0.876458
526.70 0.8759869
526.80 0.875516
526.90 0.8750455
527.00 0.8745752
527.10 0.8741053
527.20 0.8736356
527.30 0.8731663
527.40 0.8726972
527.50 0.8722284
527.60 0.8717599
527.70 0.8712917
527.80 0.8708238
527.90 0.8703562
528.00 0.8698889
528.10 0.8694218
528.20 0.8689551
528.30 0.8684887
528.40 0.8680225
528.50 0.8675566
528.60 0.8670911
528.70 0.8666258
528.80 0.8661608
528.90 0.8656961
529.00 0.8652317
529.10 0.8647675
529.20 0.8643037
529.30 0.8638401
529.40 0.8633769
529.50 0.8629139
529.60 0.8624509
529.70 0.8619881
529.80 0.8615257
529.90 0.8610636
530.00 0.8606017
530.10 0.8601401
530.20 0.8596789
530.30 0.8592179
530.40 0.8587572
530.50 0.8582967
530.60 0.8578366
530.70 0.8573768
530.80 0.8569172
530.90 0.8564579
531.00 0.8559989
531.10 0.8555402
531.20 0.8550818
531.30 0.8546237
531.40 0.8541658
531.50 0.8537082
531.60 0.853251
531.70 0.852794
531.80 0.8523372
531.90 0.8518808
532.00 0.8514247
532.10 0.8509688
532.20 0.8505132
532.30 0.8500578
532.40 0.8496027
532.50 0.8491479
532.60 0.8486934
532.70 0.8482392
532.80 0.8477853
532.90 0.8473316
533.00 0.8468782
533.10 0.8464251
533.20 0.8459723
533.30 0.8455197
533.40 0.8450675
533.50 0.8446155
533.60 0.8441638
533.70 0.8437123
533.80 0.8432612
533.90 0.8428103
534.00 0.8423597
534.10 0.8419094
534.20 0.8414594
534.30 0.8410096
534.40 0.8405601
534.50 0.8401109
534.60 0.839662
534.70 0.8392134
534.80 0.8387643
534.90 0.8383126
535.00 0.8378611
535.10 0.83741
535.20 0.8369591
535.30 0.8365085
535.40 0.8360581
535.50 0.8356081
535.60 0.8351583
535.70 0.8347088
535.80 0.8342596
535.90 0.8338106
536.00 0.8333619
536.10 0.8329136
536.20 0.8324654
536.30 0.8320176
536.40 0.83157
536.50 0.8311227
536.60 0.8306757
536.70 0.830229
536.80 0.8297825
536.90 0.8293363
537.00 0.8288904
537.10 0.8284448
537.20 0.8279994
537.30 0.8275543
537.40 0.8271095
537.50 0.826665
537.60 0.8262207
537.70 0.8257767
537.80 0.825333
537.90 0.8248895
538.00 0.8244464
538.10 0.8240035
538.20 0.8235608
538.30 0.8231185
538.40 0.8226764
538.50 0.8222346
538.60 0.821793
538.70 0.8213517
538.80 0.8209107
538.90 0.82047
539.00 0.8200295
539.10 0.8195893
539.20 0.8191494
539.30 0.8187098
539.40 0.8182704
539.50 0.8178313
539.60 0.8173924
539.70 0.8169539
539.80 0.8165156
539.90 0.8160775
540.00 0.8156398
540.10 0.8152023
540.20 0.8147671
540.30 0.8143331
540.40 0.8138993
540.50 0.8134658
540.60 0.8130326
540.70 0.8125997
540.80 0.812167
540.90 0.8117345
541.00 0.8113024
541.10 0.8108705
541.20 0.8104388
541.30 0.8100074
541.40 0.8095763
541.50 0.8091455
541.60 0.8087149
541.70 0.8082846
541.80 0.8078545
541.90 0.8074247
542.00 0.8069952
542.10 0.8065659
542.20 0.8061369
542.30 0.8057081
542.40 0.8052796
542.50 0.8048514
542.60 0.8044235
542.70 0.8039957
542.80 0.8035683
542.90 0.8031411
543.00 0.8027142
543.10 0.8022875
543.20 0.8018611
543.30 0.801435
543.40 0.8010091
543.50 0.8005834
543.60 0.8001581
543.70 0.799733
543.80 0.7993081
543.90 0.7988835
544.00 0.7984592
544.10 0.7980351
544.20 0.7976113
544.30 0.7971877
544.40 0.7967644
544.50 0.7963414
544.60 0.7959186
544.70 0.7954961
544.80 0.7950738
544.90 0.7946518
545.00 0.79423
545.10 0.7938085
545.20 0.7933872
545.30 0.7929662
545.40 0.7925455
545.50 0.792125
545.60 0.7917057
545.70 0.791287
545.80 0.7908686
545.90 0.7904504
546.00 0.7900325
546.10 0.7896149
546.20 0.7891975
546.30 0.7887803
546.40 0.7883634
546.50 0.7879468
546.60 0.7875304
546.70 0.7871142
546.80 0.7866984
546.90 0.7862827
547.00 0.7858673
547.10 0.7854522
547.20 0.7850373
547.30 0.7846227
547.40 0.7842083
547.50 0.7837942
547.60 0.7833803
547.70 0.7829667
547.80 0.7825533
547.90 0.7821401
548.00 0.7817273
548.10 0.7813146
548.20 0.7809022
548.30 0.7804901
548.40 0.7800781
548.50 0.7796665
548.60 0.779255
548.70 0.7788438
548.80 0.7784329
548.90 0.7780222
549.00 0.7776117
549.10 0.7772015
549.20 0.7767916
549.30 0.7763819
549.40 0.7759724
549.50 0.7755632
549.60 0.7751543
549.70 0.7747455
549.80 0.7743371
549.90 0.7739288
550.00 0.7735209
550.10 0.7731131
550.20 0.7727056
550.30 0.7722984
550.40 0.7718914
550.50 0.7714846
550.60 0.7710781
550.70 0.7706718
550.80 0.7702658
550.90 0.76986
551.00 0.7694547
551.10 0.7690507
551.20 0.7686469
551.30 0.7682434
551.40 0.7678401
551.50 0.7674371
551.60 0.7670343
551.70 0.7666317
551.80 0.7662294
551.90 0.7658273
552.00 0.7654255
552.10 0.7650239
552.20 0.7646226
552.30 0.7642214
552.40 0.7638206
552.50 0.7634199
552.60 0.7630195
552.70 0.7626194
552.80 0.7622195
552.90 0.7618198
553.00 0.7614204
553.10 0.7610212
553.20 0.7606222
553.30 0.7602235
553.40 0.759825
553.50 0.7594268
553.60 0.7590288
553.70 0.758631
553.80 0.7582317
553.90 0.7578314
554.00 0.7574313
554.10 0.7570315
554.20 0.7566319
554.30 0.7562326
554.40 0.7558335
554.50 0.7554346
554.60 0.755036
554.70 0.7546376
554.80 0.7542394
554.90 0.7538415
555.00 0.7534438
555.10 0.7530464
555.20 0.7526492
555.30 0.7522522
555.40 0.7518555
555.50 0.751459
555.60 0.7510628
555.70 0.7506668
555.80 0.750271
555.90 0.7498754
556.00 0.7494801
556.10 0.7490851
556.20 0.7486902
556.30 0.7482956
556.40 0.7479013
556.50 0.747507
556.60 0.7471114
556.70 0.7467161
556.80 0.7463209
556.90 0.745926
557.00 0.7455313
557.10 0.7451369
557.20 0.7447427
557.30 0.7443488
557.40 0.743955
557.50 0.7435615
557.60 0.7431683
557.70 0.7427752
557.80 0.7423825
557.90 0.7419899
558.00 0.7415976
558.10 0.7412055
558.20 0.7408136
558.30 0.740422
558.40 0.7400306
558.50 0.7396395
558.60 0.7392485
558.70 0.7388578
558.80 0.7384674
558.90 0.7380772
559.00 0.7376872
559.10 0.7372974
559.20 0.7369079
559.30 0.7365186
559.40 0.7361295
559.50 0.7357406
559.60 0.735352
559.70 0.7349637
559.80 0.7345755
559.90 0.7341876
560.00 0.7337999
560.10 0.7334125
560.20 0.7330252
560.30 0.7326382
560.40 0.7322515
560.50 0.7318649
560.60 0.7314786
560.70 0.7310925
560.80 0.7307067
560.90 0.7303211
561.00 0.7299357
561.10 0.7295505
561.20 0.7291656
561.30 0.7287809
561.40 0.7283964
561.50 0.7280121
561.60 0.7276281
561.70 0.7272443
561.80 0.7268607
561.90 0.7264774
562.00 0.7260943
562.10 0.7257119
562.20 0.7253305
562.30 0.7249493
562.40 0.7245684
562.50 0.7241876
562.60 0.7238071
562.70 0.7234268
562.80 0.7230468
562.90 0.722667
563.00 0.7222874
563.10 0.721908
563.20 0.7215288
563.30 0.7211499
563.40 0.7207712
563.50 0.7203927
563.60 0.7200144
563.70 0.7196364
563.80 0.7192586
563.90 0.718881
564.00 0.7185036
564.10 0.7181265
564.20 0.7177495
564.30 0.7173728
564.40 0.7169964
564.50 0.7166201
564.60 0.7162441
564.70 0.7158682
564.80 0.7154926
564.90 0.7151156
565.00 0.7147347
565.10 0.7143541
565.20 0.7139736
565.30 0.7135934
565.40 0.7132135
565.50 0.7128337
565.60 0.7124542
565.70 0.7120749
565.80 0.7116958
565.90 0.7113169
566.00 0.7109383
566.10 0.7105599
566.20 0.7101817
566.30 0.7098037
566.40 0.709426
566.50 0.7090485
566.60 0.7086712
566.70 0.7082941
566.80 0.7079172
566.90 0.7075406
567.00 0.7071642
567.10 0.706788
567.20 0.706412
567.30 0.7060363
567.40 0.7056608
567.50 0.7052855
567.60 0.7049104
567.70 0.7045344
567.80 0.7041541
567.90 0.703774
568.00 0.7033941
568.10 0.7030144
568.20 0.702635
568.30 0.7022558
568.40 0.7018768
568.50 0.701498
568.60 0.7011195
568.70 0.7007412
568.80 0.7003631
568.90 0.6999852
569.00 0.6996076
569.10 0.6992301
569.20 0.6988529
569.30 0.6984759
569.40 0.6980992
569.50 0.6977226
569.60 0.6973463
569.70 0.6969702
569.80 0.6965943
569.90 0.6962187
570.00 0.6958432
570.10 0.695468
570.20 0.695093
570.30 0.6947182
570.40 0.6943437
570.50 0.6939693
570.60 0.6935952
570.70 0.6932213
570.80 0.6928477
570.90 0.6924742
571.00 0.692101
571.10 0.6917279
571.20 0.6913551
571.30 0.6909825
571.40 0.6906102
571.50 0.690238
571.60 0.6898661
571.70 0.6894944
571.80 0.6891229
571.90 0.6887516
572.00 0.6883806
572.10 0.6880097
572.20 0.6876391
572.30 0.6872687
572.40 0.6868985
572.50 0.6865285
572.60 0.6861588
572.70 0.6857893
572.80 0.6854199
572.90 0.6850508
573.00 0.6846819
573.10 0.6843133
573.20 0.6839448
573.30 0.6835765
573.40 0.6831987
573.50 0.6828076
573.60 0.6824167
573.70 0.6820261
573.80 0.6816357
573.90 0.6812455
574.00 0.6808555
574.10 0.6804658
574.20 0.6800763
574.30 0.6796871
574.40 0.679298
574.50 0.6789092
574.60 0.6785206
574.70 0.6781323
574.80 0.6777442
574.90 0.6773563
575.00 0.6769686
575.10 0.6765812
575.20 0.676194
575.30 0.675807
575.40 0.6754203
575.50 0.6750338
575.60 0.6746475
575.70 0.6742614
575.80 0.6738756
575.90 0.67349
576.00 0.6731046
576.10 0.6727194
576.20 0.6723345
576.30 0.6719498
576.40 0.6715653
576.50 0.6711811
576.60 0.6707971
576.70 0.6704133
576.80 0.6700297
576.90 0.6696464
577.00 0.6692632
577.10 0.6688803
577.20 0.6684977
577.30 0.6681152
577.40 0.667733
577.50 0.667351
577.60 0.6669544
577.70 0.6665339
577.80 0.6661136
577.90 0.6656936
578.00 0.6652738
578.10 0.6648543
578.20 0.664435
578.30 0.664016
578.40 0.6635972
578.50 0.6631787
578.60 0.6627604
578.70 0.6623424
578.80 0.6619246
578.90 0.6615071
579.00 0.6610898
579.10 0.6606686
579.20 0.660206
579.30 0.6597436
579.40 0.6592815
579.50 0.6588197
579.60 0.6583581
579.70 0.6578969
579.80 0.6574359
579.90 0.6569752
580.00 0.6565147
580.10 0.6560241
580.20 0.655484
580.30 0.6549443
580.40 0.6544049
580.50 0.6538658
580.60 0.653327
580.70 0.6527886
580.80 0.6522505
580.90 0.6517128
581.00 0.6511754
581.10 0.6506383
581.20 0.6501015
581.30 0.6495651
581.40 0.649029
581.50 0.6484932
581.60 0.6479578
581.70 0.6474227
581.80 0.6468879
581.90 0.6463534
582.00 0.6458193
582.10 0.6451965
582.20 0.6444289
582.30 0.6436618
582.40 0.6428952
582.50 0.6421291
582.60 0.6413634
582.70 0.6405982
582.80 0.6398336
582.90 0.6390694
583.00 0.6383057
583.10 0.6375425
583.20 0.6367798
583.30 0.6360175
583.40 0.6352558
583.50 0.6344945
583.60 0.6335376
583.70 0.6322616
583.80 0.6309865
583.90 0.6297121
584.00 0.6284386
584.10 0.627166
584.20 0.6258942
584.30 0.6246232
584.40 0.623353
584.50 0.6220837
584.60 0.6208152
584.70 0.6195475
584.80 0.6182807
584.90 0.6169078
585.00 0.6150491
585.10 0.6131917
585.20 0.6109269
585.30 0.6079973
585.40 0.6050696
585.50 0.6021439
585.60 0.5992202
585.70 0.5962984
585.80 0.5933786
585.90 0.5904608
586.00 0.5875449
586.10 0.5846309
586.20 0.5806375
586.30 0.5748829
586.40 0.5691322
586.50 0.5633853
586.60 0.5576424
586.70 0.5519033
586.80 0.5445169
586.90 0.5344424
587.00 0.5243747
587.10 0.5143139
587.20 0.5024565
587.30 0.487666
587.40 0.4720581
587.50 0.4552662
587.60 0.4480303
587.70 0.4640442
587.80 0.4801991
587.90 0.4951043
588.00 0.508096
588.10 0.5179744
588.20 0.527846
588.30 0.5377109
588.40 0.545822
588.50 0.5510781
588.60 0.5563306
588.70 0.5615795
588.80 0.5668247
588.90 0.5720664
589.00 0.5761831
589.10 0.5784679
589.20 0.5807512
589.30 0.5830328
589.40 0.5853129
589.50 0.5875914
589.60 0.5898683
589.70 0.5921436
589.80 0.5944174
589.90 0.5966895
590.00 0.5984651
590.10 0.5994321
590.20 0.6003984
590.30 0.601364
590.40 0.6023289
590.50 0.6032932
590.60 0.6042567
590.70 0.6052196
590.80 0.6058248
590.90 0.6062693
591.00 0.6067134
591.10 0.6071572
591.20 0.6076007
591.30 0.6080438
591.40 0.6084867
591.50 0.6089291
591.60 0.6092393
591.70 0.6093341
591.80 0.6094287
591.90 0.6095233
592.00 0.6096177
592.10 0.6097121
592.20 0.6098064
592.30 0.6099005
592.40 0.6099946
592.50 0.6100886
592.60 0.6101824
592.70 0.6102762
592.80 0.6103699
592.90 0.6104634
593.00 0.6105569
593.10 0.6105668
593.20 0.6104406
593.30 0.6103144
593.40 0.6101883
593.50 0.6100622
593.60 0.6099362
593.70 0.6098102
593.80 0.6096843
593.90 0.6095584
594.00 0.6094326
594.10 0.6093068
594.20 0.6091811
594.30 0.6090554
594.40 0.6089298
594.50 0.6088042
594.60 0.6086787
594.70 0.6085532
594.80 0.6084278
594.90 0.6083024
595.00 0.6081771
595.10 0.6080183
595.20 0.6078049
595.30 0.6075916
595.40 0.6073784
595.50 0.6071653
595.60 0.6069523
595.70 0.6067395
595.80 0.6065267
595.90 0.6063141
596.00 0.6061015
596.10 0.6058891
596.20 0.6056768
596.30 0.6054646
596.40 0.6052524
596.50 0.6050404
596.60 0.6048285
596.70 0.6045984
596.80 0.6043571
596.90 0.6041159
597.00 0.6038749
597.10 0.603634
597.20 0.6033932
597.30 0.6031526
597.40 0.6029121
597.50 0.6026717
597.60 0.6024242
597.70 0.6021652
597.80 0.6019064
597.90 0.6016477
598.00 0.6013891
598.10 0.6011307
598.20 0.6008724
598.30 0.6006142
598.40 0.6003562
598.50 0.6000983
598.60 0.5998406
598.70 0.599583
598.80 0.5993255
598.90 0.5990682
599.00 0.598811
599.10 0.598554
599.20 0.5982971
599.30 0.5980403
599.40 0.5977664
599.50 0.5974926
599.60 0.5972189
599.70 0.5969454
599.80 0.596672
599.90 0.5963988
600.00 0.5961258
600.10 0.5958528
600.20 0.5955801
600.30 0.5953075
600.40 0.595035
600.50 0.5947627
600.60 0.5944905
600.70 0.5942185
600.80 0.5939466
600.90 0.5936749
601.00 0.5934033
601.10 0.5931319
601.20 0.5928606
601.30 0.5925894
601.40 0.5923115
601.50 0.5920336
601.60 0.5917559
601.70 0.5914784
601.80 0.591201
601.90 0.5909238
602.00 0.5906467
602.10 0.5903698
602.20 0.590093
602.30 0.5898164
602.40 0.5895399
602.50 0.5892636
602.60 0.5889874
602.70 0.5887196
602.80 0.5884525
602.90 0.5881697
603.00 0.5878871
603.10 0.5876046
603.20 0.5873223
603.30 0.5870401
603.40 0.5867581
603.50 0.5864763
603.60 0.5861946
603.70 0.5859131
603.80 0.5856317
603.90 0.5853505
604.00 0.5850694
604.10 0.5847885
604.20 0.5845077
604.30 0.5842271
604.40 0.5839467
604.50 0.583649
604.60 0.5833514
604.70 0.583054
604.80 0.5827568
604.90 0.5824597
605.00 0.5821628
605.10 0.5818661
605.20 0.5815695
605.30 0.5812731
605.40 0.5809768
605.50 0.5806576
605.60 0.5803386
605.70 0.5800197
605.80 0.579701
605.90 0.5793825
606.00 0.5790641
606.10 0.5786997
606.20 0.5783356
606.30 0.5779716
606.40 0.5776079
606.50 0.5771751
606.60 0.5767426
606.70 0.5763103
606.80 0.575982
606.90 0.5756539
607.00 0.5753606
607.10 0.5751365
607.20 0.5749126
607.30 0.574706
607.40 0.5744995
607.50 0.5742931
607.60 0.5740869
607.70 0.573852
607.80 0.5736172
607.90 0.5733826
608.00 0.573148
608.10 0.5729136
608.20 0.5726793
608.30 0.5724272
608.40 0.5721752
608.50 0.5719233
608.60 0.5716716
608.70 0.571414
608.80 0.5711538
608.90 0.5708938
609.00 0.5706339
609.10 0.5703742
609.20 0.5701146
609.30 0.569846
609.40 0.5695775
609.50 0.5693092
609.60 0.5690411
609.70 0.5687731
609.80 0.5685052
609.90 0.5682375
610.00 0.56797
610.10 0.5677025
610.20 0.5674353
610.30 0.5671681
610.40 0.5669011
610.50 0.5666343
610.60 0.5663676
610.70 0.566101
610.80 0.5658346
610.90 0.565563
611.00 0.5652914
611.10 0.5650201
611.20 0.5647488
611.30 0.5644777
611.40 0.5642068
611.50 0.563936
611.60 0.5636654
611.70 0.5633949
611.80 0.5631246
611.90 0.5628544
612.00 0.5625843
612.10 0.5623144
612.20 0.5620446
612.30 0.561775
612.40 0.5615033
612.50 0.5612317
612.60 0.5609603
612.70 0.560689
612.80 0.5604178
612.90 0.5601468
613.00 0.559876
613.10 0.5596053
613.20 0.5593347
613.30 0.5590643
613.40 0.5587941
613.50 0.558524
613.60 0.558254
613.70 0.5579842
613.80 0.5577145
613.90 0.557445
614.00 0.5571756
614.10 0.5569063
614.20 0.5566373
614.30 0.5563683
614.40 0.5560901
614.50 0.5558121
614.60 0.5555343
614.70 0.5552565
614.80 0.5549843
614.90 0.5547132
615.00 0.5544423
615.10 0.5541716
615.20 0.553901
615.30 0.5536306
615.40 0.5533603
615.50 0.5530901
615.60 0.5528201
615.70 0.5525502
615.80 0.5522805
615.90 0.5520109
616.00 0.5517415
616.10 0.5514722
616.20 0.5512031
616.30 0.5509341
616.40 0.5506652
616.50 0.5503965
616.60 0.550128
616.70 0.5498596
616.80 0.5495913
616.90 0.5493226
617.00 0.549054
617.10 0.5487856
617.20 0.5485173
617.30 0.5482491
617.40 0.5479811
617.50 0.5477133
617.60 0.5474455
617.70 0.547178
617.80 0.5469105
617.90 0.5466433
618.00 0.5463761
618.10 0.5461091
618.20 0.5458423
618.30 0.5455756
618.40 0.545309
618.50 0.5450426
618.60 0.5447763
618.70 0.5445102
618.80 0.5442442
618.90 0.5439784
619.00 0.5437127
619.10 0.5434471
619.20 0.5431817
619.30 0.5429164
619.40 0.5426513
619.50 0.5423863
619.60 0.5421215
619.70 0.5418568
619.80 0.5415922
619.90 0.5413278
620.00 0.5410636
620.10 0.5407994
620.20 0.5405354
620.30 0.5402716
620.40 0.5400079
620.50 0.5397443
620.60 0.5394809
620.70 0.5392176
620.80 0.5389545
620.90 0.5386911
621.00 0.5384273
621.10 0.5381635
621.20 0.5378999
621.30 0.5376365
621.40 0.5373731
621.50 0.53711
621.60 0.5368469
621.70 0.536584
621.80 0.5363213
621.90 0.5360587
622.00 0.5357962
622.10 0.5355339
622.20 0.5352717
622.30 0.5350097
622.40 0.5347477
622.50 0.534486
622.60 0.5342244
622.70 0.5339629
622.80 0.5337015
622.90 0.5334403
623.00 0.5331793
623.10 0.5329183
623.20 0.5326576
623.30 0.5323969
623.40 0.5321364
623.50 0.5318761
623.60 0.5316158
623.70 0.5313558
623.80 0.5310958
623.90 0.530836
624.00 0.5305763
624.10 0.5303168
624.20 0.5300574
624.30 0.5297982
624.40 0.5295391
624.50 0.5292801
624.60 0.5290213
624.70 0.5287626
624.80 0.528504
624.90 0.5282456
625.00 0.5279873
625.10 0.5277292
625.20 0.5274712
625.30 0.5272133
625.40 0.5269556
625.50 0.526698
625.60 0.5264406
625.70 0.5261832
625.80 0.5259261
625.90 0.525669
626.00 0.5254121
626.10 0.5251554
626.20 0.5248987
626.30 0.5246423
626.40 0.5243859
626.50 0.5241297
626.60 0.5238736
626.70 0.5236177
626.80 0.5233619
626.90 0.5231062
627.00 0.5228507
627.10 0.5225952
627.20 0.5223398
627.30 0.5220845
627.40 0.5218293
627.50 0.5215743
627.60 0.5213194
627.70 0.5210647
627.80 0.5208101
627.90 0.5205556
628.00 0.5203013
628.10 0.5200471
628.20 0.519793
628.30 0.5195391
628.40 0.5192853
628.50 0.5190316
628.60 0.5187781
628.70 0.5185247
628.80 0.5182714
628.90 0.5180183
629.00 0.5177653
629.10 0.5175124
629.20 0.5172597
629.30 0.5170071
629.40 0.5167547
629.50 0.5165024
629.60 0.5162502
629.70 0.5159981
629.80 0.5157462
629.90 0.5154944
630.00 0.5152428
630.10 0.5149913
630.20 0.5147399
630.30 0.5144906
630.40 0.5142415
630.50 0.5139926
630.60 0.5137438
630.70 0.5134952
630.80 0.5132467
630.90 0.5129983
631.00 0.51275
631.10 0.5125019
631.20 0.5122539
631.30 0.5120061
631.40 0.5117584
631.50 0.5115108
631.60 0.5112633
631.70 0.511016
631.80 0.5107688
631.90 0.5105217
632.00 0.5102748
632.10 0.510028
632.20 0.5097813
632.30 0.5095347
632.40 0.5092883
632.50 0.509042
632.60 0.5087959
632.70 0.5085499
632.80 0.508304
632.90 0.5080582
633.00 0.5078126
633.10 0.5075671
633.20 0.5073217
633.30 0.5070764
633.40 0.5068306
633.50 0.5065845
633.60 0.5063384
633.70 0.5060925
633.80 0.5058467
633.90 0.505601
634.00 0.5053555
634.10 0.5051101
634.20 0.5048648
634.30 0.5046197
634.40 0.5043746
634.50 0.5041297
634.60 0.503885
634.70 0.5036404
634.80 0.5033959
634.90 0.5031515
635.00 0.5029072
635.10 0.5026631
635.20 0.5024191
635.30 0.5021753
635.40 0.5019316
635.50 0.501688
635.60 0.5014445
635.70 0.5012012
635.80 0.5009579
635.90 0.5007149
636.00 0.5004719
636.10 0.5002291
636.20 0.4999864
636.30 0.4997438
636.40 0.4995013
636.50 0.499259
636.60 0.4990186
636.70 0.4987786
636.80 0.4985387
636.90 0.4982989
637.00 0.4980592
637.10 0.4978196
637.20 0.4975802
637.30 0.4973409
637.40 0.4971018
637.50 0.4968627
637.60 0.4966238
637.70 0.496385
637.80 0.4961463
637.90 0.4959078
638.00 0.4956694
638.10 0.4954311
638.20 0.4951929
638.30 0.4949548
638.40 0.4947169
638.50 0.4944791
638.60 0.4942415
638.70 0.4940039
638.80 0.4937665
638.90 0.4935292
639.00 0.493292
639.10 0.493055
639.20 0.4928181
639.30 0.4925813
639.40 0.4923446
639.50 0.492108
639.60 0.4918716
639.70 0.4916346
639.80 0.4913953
639.90 0.4911562
640.00 0.4909172
640.10 0.4906784
640.20 0.4904396
640.30 0.490201
640.40 0.4899625
640.50 0.4897241
640.60 0.4894859
640.70 0.4892478
640.80 0.4890098
640.90 0.4887719
641.00 0.4885342
641.10 0.4882966
641.20 0.4880591
641.30 0.4878217
641.40 0.4875844
641.50 0.4873473
641.60 0.4871103
641.70 0.4868735
641.80 0.4866367
641.90 0.4864001
642.00 0.4861636
642.10 0.4859272
642.20 0.4856909
642.30 0.4854548
642.40 0.4852188
642.50 0.4849829
642.60 0.4847472
642.70 0.4845115
642.80 0.484276
642.90 0.4840406
643.00 0.4838053
643.10 0.4835701
643.20 0.4833351
643.30 0.4831002
643.40 0.4828654
643.50 0.4826307
643.60 0.4823961
643.70 0.4821617
643.80 0.4819274
643.90 0.4816932
644.00 0.4814591
644.10 0.4812252
644.20 0.4809913
644.30 0.4807576
644.40 0.4805241
644.50 0.4802906
644.60 0.4800573
644.70 0.479824
644.80 0.479591
644.90 0.479358
645.00 0.4791251
645.10 0.4788924
645.20 0.4786598
645.30 0.4784273
645.40 0.4781949
645.50 0.4779627
645.60 0.4777306
645.70 0.4774986
645.80 0.4772667
645.90 0.4770349
646.00 0.4768033
646.10 0.476572
646.20 0.4763414
646.30 0.476111
646.40 0.4758806
646.50 0.4756504
646.60 0.4754203
646.70 0.4751904
646.80 0.4749605
646.90 0.4747308
647.00 0.4745012
647.10 0.4742717
647.20 0.4740423
647.30 0.473813
647.40 0.4735839
647.50 0.4733549
647.60 0.473126
647.70 0.4728972
647.80 0.4726685
647.90 0.47244
648.00 0.4722116
648.10 0.4719833
648.20 0.4717551
648.30 0.471527
648.40 0.4712991
648.50 0.4710712
648.60 0.4708435
648.70 0.4706159
648.80 0.4703884
648.90 0.4701611
649.00 0.4699338
649.10 0.4697067
649.20 0.4694797
649.30 0.4692528
649.40 0.4690225
649.50 0.4687921
649.60 0.4685619
649.70 0.4683317
649.80 0.4681017
649.90 0.4678719
650.00 0.4676421
650.10 0.4674124
650.20 0.4671829
650.30 0.4669535
650.40 0.4667242
650.50 0.466495
650.60 0.466266
650.70 0.466037
650.80 0.4658082
650.90 0.4655795
651.00 0.465351
651.10 0.4651225
651.20 0.4648942
651.30 0.4646659
651.40 0.4644378
651.50 0.4642098
651.60 0.463982
651.70 0.4637542
651.80 0.4635266
651.90 0.4632991
652.00 0.4630717
652.10 0.4628444
652.20 0.4626172
652.30 0.4623902
652.40 0.4621632
652.50 0.4619364
652.60 0.4617086
652.70 0.4614802
652.80 0.461252
652.90 0.4610239
653.00 0.4607959
653.10 0.460568
653.20 0.4603403
653.30 0.4601126
653.40 0.4598851
653.50 0.4596577
653.60 0.4594304
653.70 0.4592032
653.80 0.4589762
653.90 0.4587492
654.00 0.4585224
654.10 0.4582957
654.20 0.4580691
654.30 0.4578427
654.40 0.4576163
654.50 0.4573901
654.60 0.457164
654.70 0.456938
654.80 0.4567121
654.90 0.4564863
655.00 0.4562607
655.10 0.4560351
655.20 0.4558097
655.30 0.4555844
655.40 0.4553592
655.50 0.4551342
655.60 0.4549092
655.70 0.4546844
655.80 0.454451
655.90 0.4542177
656.00 0.4539845
656.10 0.4537515
656.20 0.4535186
656.30 0.4532858
656.40 0.4530531
656.50 0.4528206
656.60 0.4525881
656.70 0.4523558
656.80 0.4521236
656.90 0.4518915
657.00 0.4516596
657.10 0.4514278
657.20 0.451196
657.30 0.4509645
657.40 0.450733
657.50 0.4505016
657.60 0.4502704
657.70 0.4500393
657.80 0.4498001
657.90 0.4495597
658.00 0.4493191
658.10 0.4490786
658.20 0.4488383
658.30 0.4485981
658.40 0.448358
658.50 0.4481181
658.60 0.4478783
658.70 0.4476386
658.80 0.447399
658.90 0.4471595
659.00 0.4469202
659.10 0.4466722
659.20 0.4464111
659.30 0.4461496
659.40 0.4458882
659.50 0.445627
659.60 0.4453659
659.70 0.4451049
659.80 0.444844
659.90 0.4445834
660.00 0.4443228
660.10 0.4440624
660.20 0.4438021
660.30 0.443542
660.40 0.443266
660.50 0.4429873
660.60 0.4427088
660.70 0.4424305
660.80 0.4421523
660.90 0.4418494
661.00 0.4415467
661.10 0.4412441
661.20 0.4409417
661.30 0.4406395
661.40 0.4403374
661.50 0.4400355
661.60 0.4397338
661.70 0.4394322
661.80 0.4391308
661.90 0.4387837
662.00 0.4384367
662.10 0.4380899
662.20 0.4377434
662.30 0.437397
662.40 0.4370587
662.50 0.4367092
662.60 0.4363598
662.70 0.4360107
662.80 0.4356617
662.90 0.4353564
663.00 0.4350513
663.10 0.4348043
663.20 0.4345863
663.30 0.4344263
663.40 0.4342375
663.50 0.4340488
663.60 0.4338601
663.70 0.4335949
663.80 0.4333299
663.90 0.4330199
664.00 0.4327022
664.10 0.4322928
664.20 0.4318836
664.30 0.4314746
664.40 0.4310659
664.50 0.4306574
664.60 0.4302491
664.70 0.4296388
664.80 0.4290287
664.90 0.428419
665.00 0.4278097
665.10 0.4272007
665.20 0.4265921
665.30 0.4259838
665.40 0.4253758
665.50 0.4245684
665.60 0.4237261
665.70 0.4226179
665.80 0.4213103
665.90 0.4200035
666.00 0.4186975
666.10 0.4173923
666.20 0.4160878
666.30 0.4147841
666.40 0.4134811
666.50 0.4110281
666.60 0.4083734
666.70 0.4057203
666.80 0.4030688
666.90 0.4004189
667.00 0.3977706
667.10 0.3937488
667.20 0.3894869
667.30 0.3838637
667.40 0.3782439
667.50 0.3713534
667.60 0.3642423
667.70 0.356757
667.80 0.350736
667.90 0.3525042
668.00 0.3587267
668.10 0.3649597
668.20 0.3711248
668.30 0.3759048
668.40 0.3804382
668.50 0.3849689
668.60 0.3894969
668.70 0.3929243
668.80 0.3951728
668.90 0.3974198
669.00 0.3996655
669.10 0.4019099
669.20 0.4041528
669.30 0.4052756
669.40 0.4062003
669.50 0.4071244
669.60 0.4080479
669.70 0.4089709
669.80 0.4098933
669.90 0.4108152
670.00 0.4117364
670.10 0.4126571
670.20 0.4135772
670.30 0.4140275
670.40 0.4143947
670.50 0.4147617
670.60 0.4151284
670.70 0.4154949
670.80 0.4156198
670.90 0.4157445
671.00 0.4158692
671.10 0.4159938
671.20 0.4161183
671.30 0.4162426
671.40 0.4163669
671.50 0.4164911
671.60 0.4166153
671.70 0.4167393
671.80 0.4168632
671.90 0.4168738
672.00 0.4168643
672.10 0.4168549
672.20 0.4168454
672.30 0.416836
672.40 0.4167787
672.50 0.4167178
672.60 0.4166569
672.70 0.4165961
672.80 0.4165353
672.90 0.4164744
673.00 0.4164137
673.10 0.4163529
673.20 0.4162921
673.30 0.4161685
673.40 0.4160401
673.50 0.415911
673.60 0.4157819
673.70 0.4156528
673.80 0.4155239
673.90 0.4153949
674.00 0.4152661
674.10 0.4151373
674.20 0.4150085
674.30 0.4148798
674.40 0.4147512
674.50 0.4146226
674.60 0.4144941
674.70 0.4143657
674.80 0.4142373
674.90 0.414109
675.00 0.4139807
675.10 0.4138525
675.20 0.4137243
675.30 0.4135962
675.40 0.4134349
675.50 0.4132679
675.60 0.4131009
675.70 0.412934
675.80 0.4127672
675.90 0.4126005
676.00 0.4124338
676.10 0.4122673
676.20 0.4121008
676.30 0.4119344
676.40 0.411768
676.50 0.4116018
676.60 0.4114356
676.70 0.4112696
676.80 0.4111036
676.90 0.4109376
677.00 0.4107718
677.10 0.410606
677.20 0.4104403
677.30 0.4102747
677.40 0.4101092
677.50 0.4099438
677.60 0.4097784
677.70 0.4096131
677.80 0.4094479
677.90 0.409274
678.00 0.4090985
678.10 0.4089232
678.20 0.4087479
678.30 0.4085727
678.40 0.4083976
678.50 0.4082226
678.60 0.4080477
678.70 0.4078728
678.80 0.4076981
678.90 0.4075234
679.00 0.4073488
679.10 0.4071681
679.20 0.4069848
679.30 0.4068016
679.40 0.4066185
679.50 0.4064354
679.60 0.4062525
679.70 0.4060696
679.80 0.4058869
679.90 0.4057042
680.00 0.4055216
680.10 0.4053391
680.20 0.4051567
680.30 0.4049744
680.40 0.4047921
680.50 0.40461
680.60 0.404428
680.70 0.404246
680.80 0.4040641
680.90 0.4038824
681.00 0.4037007
681.10 0.4035191
681.20 0.4033376
681.30 0.4031561
681.40 0.4029748
681.50 0.4027936
681.60 0.4026124
681.70 0.4024313
681.80 0.4022504
681.90 0.4020695
682.00 0.4018887
682.10 0.401708
682.20 0.4015273
682.30 0.4013468
682.40 0.4011664
682.50 0.400986
682.60 0.4008057
682.70 0.4006256
682.80 0.4004455
682.90 0.4002655
683.00 0.4000856
683.10 0.3999057
683.20 0.399726
683.30 0.3995463
683.40 0.3993668
683.50 0.3991873
683.60 0.3990079
683.70 0.3988286
683.80 0.3986494
683.90 0.3984703
684.00 0.3982913
684.10 0.3981123
684.20 0.3979335
684.30 0.3977547
684.40 0.397576
684.50 0.3973974
684.60 0.3972189
684.70 0.3970405
684.80 0.3968621
684.90 0.3966839
685.00 0.3965057
685.10 0.3963277
685.20 0.3961497
685.30 0.3959718
685.40 0.395794
685.50 0.3956162
685.60 0.3954386
685.70 0.395261
685.80 0.3950836
685.90 0.3949029
686.00 0.3947215
686.10 0.3945402
686.20 0.394359
686.30 0.3941778
686.40 0.3939968
686.50 0.3938158
686.60 0.393635
686.70 0.3934542
686.80 0.3932735
686.90 0.3930929
687.00 0.3929124
687.10 0.392732
687.20 0.3925516
687.30 0.3923714
687.40 0.3921912
687.50 0.3920112
687.60 0.3918312
687.70 0.3916513
687.80 0.3914715
687.90 0.3912918
688.00 0.3911121
688.10 0.3909326
688.20 0.3907531
688.30 0.3905738
688.40 0.3903945
688.50 0.3902153
688.60 0.3900362
688.70 0.3898572
688.80 0.3896782
688.90 0.3894994
689.00 0.3893206
689.10 0.389142
689.20 0.3889634
689.30 0.3887849
689.40 0.3886065
689.50 0.3884282
689.60 0.38825
689.70 0.3880718
689.80 0.3878938
689.90 0.3877158
690.00 0.3875379
690.10 0.3873601
690.20 0.3871824
690.30 0.3870048
690.40 0.3868272
690.50 0.3866498
690.60 0.3864724
690.70 0.3862951
690.80 0.386118
690.90 0.3859409
691.00 0.3857638
691.10 0.3855869
691.20 0.3854101
691.30 0.3852333
691.40 0.3850566
691.50 0.38488
691.60 0.3847035
691.70 0.3845271
691.80 0.3843508
691.90 0.3841746
692.00 0.3839984
692.10 0.3838223
692.20 0.3836463
692.30 0.3834704
692.40 0.3832946
692.50 0.3831189
692.60 0.3829433
692.70 0.3827671
692.80 0.3825889
692.90 0.3824108
693.00 0.3822328
693.10 0.3820549
693.20 0.381877
693.30 0.3816992
693.40 0.3815216
693.50 0.381344
693.60 0.3811665
693.70 0.3809891
693.80 0.3808117
693.90 0.3806345
694.00 0.3804573
694.10 0.3802803
694.20 0.3801033
694.30 0.3799264
694.40 0.3797496
694.50 0.3795728
694.60 0.3793962
694.70 0.3792196
694.80 0.3790432
694.90 0.3788668
695.00 0.3786905
695.10 0.3785143
695.20 0.3783381
695.30 0.3781621
695.40 0.3779861
695.50 0.3778103
695.60 0.3776345
695.70 0.3774588
695.80 0.3772832
695.90 0.3771077
696.00 0.3769322
696.10 0.3767569
696.20 0.3765816
696.30 0.3764064
696.40 0.3762313
696.50 0.3760563
696.60 0.3758778
696.70 0.3756985
696.80 0.3755194
696.90 0.3753403
697.00 0.3751613
697.10 0.3749824
697.20 0.3748036
697.30 0.3746249
697.40 0.3744462
697.50 0.3742677
697.60 0.3740892
697.70 0.3739108
697.80 0.3737325
697.90 0.3735543
698.00 0.3733762
698.10 0.3731982
698.20 0.3730202
698.30 0.3728424
698.40 0.3726646
698.50 0.3724869
698.60 0.3723093
698.70 0.3721318
698.80 0.3719544
698.90 0.371777
699.00 0.3715998
699.10 0.3714224
699.20 0.371245
699.30 0.3710678
699.40 0.3708906
699.50 0.3707135
699.60 0.3705365
699.70 0.3703466
699.80 0.3701562
699.90 0.3699659
700.00 0.3697757
700.10 0.3695855
700.20 0.3693955
700.30 0.3692055
700.40 0.3690156
700.50 0.3688259
700.60 0.3686362
700.70 0.3684466
700.80 0.3682571
700.90 0.3680677
701.00 0.3678784
701.10 0.3676735
701.20 0.3674651
701.30 0.3672567
701.40 0.3670485
701.50 0.3668403
701.60 0.3666323
701.70 0.3664244
701.80 0.3662165
701.90 0.3660088
702.00 0.3658012
702.10 0.3655936
702.20 0.3653862
702.30 0.3651789
702.40 0.3649717
702.50 0.3647646
702.60 0.3644897
702.70 0.364199
702.80 0.3639084
702.90 0.363618
703.00 0.3633278
703.10 0.3630377
703.20 0.3627478
703.30 0.362458
703.40 0.3621683
703.50 0.3618788
703.60 0.3615895
703.70 0.3613003
703.80 0.3610113
703.90 0.3607224
704.00 0.3604336
704.10 0.360145
704.20 0.3596164
704.30 0.3590316
704.40 0.3584472
704.50 0.3578631
704.60 0.3572794
704.70 0.3566959
704.80 0.3561128
704.90 0.3555299
705.00 0.3549474
705.10 0.3543652
705.20 0.3532054
705.30 0.3519107
705.40 0.3506167
705.50 0.3493234
705.60 0.3480308
705.70 0.346739
705.80 0.3444781
705.90 0.3419912
706.00 0.3395056
706.10 0.3370215
706.20 0.3338666
706.30 0.3305558
706.40 0.3274232
706.50 0.3249491
706.60 0.3245804
706.70 0.3264327
706.80 0.3289647
706.90 0.3315728
707.00 0.3339111
707.10 0.3361852
707.20 0.338458
707.30 0.3407294
707.40 0.3421064
707.50 0.3432732
707.60 0.3444393
707.70 0.3456048
707.80 0.3467695
707.90 0.3479336
708.00 0.3484372
708.10 0.3487858
708.20 0.3491341
708.30 0.3494822
708.40 0.3498302
708.50 0.3501779
708.60 0.3505254
708.70 0.3508727
708.80 0.3512198
708.90 0.3515667
709.00 0.351624
709.10 0.3516135
709.20 0.351603
709.30 0.3515924
709.40 0.3515819
709.50 0.3515713
709.60 0.3515607
709.70 0.3515501
709.80 0.3515396
709.90 0.351529
710.00 0.3515184
710.10 0.3515077
710.20 0.3514971
710.30 0.3514865
710.40 0.3514759
710.50 0.3514652
710.60 0.3513749
710.70 0.3512659
710.80 0.351157
710.90 0.3510482
711.00 0.3509394
711.10 0.3508306
711.20 0.3507219
711.30 0.3506132
711.40 0.3505046
711.50 0.350396
711.60 0.3502874
711.70 0.350179
711.80 0.3500705
711.90 0.3499621
712.00 0.3498538
712.10 0.349724
712.20 0.3495892
712.30 0.3494545
712.40 0.3493199
712.50 0.3491853
712.60 0.3490508
712.70 0.3489164
712.80 0.348782
712.90 0.3486476
713.00 0.3485134
713.10 0.3483792
713.20 0.348245
713.30 0.3481109
713.40 0.3479769
713.50 0.3478429
713.60 0.347709
713.70 0.3475685
713.80 0.3474143
713.90 0.3472602
714.00 0.3471062
714.10 0.3469577
714.20 0.3468106
714.30 0.3466636
714.40 0.3465167
714.50 0.3463698
714.60 0.346223
714.70 0.3460763
714.80 0.3459296
714.90 0.345783
715.00 0.3456365
715.10 0.34549
715.20 0.3453436
715.30 0.3451973
715.40 0.345051
715.50 0.3449048
715.60 0.3447587
715.70 0.3446126
715.80 0.3444667
715.90 0.3443207
716.00 0.3441749
716.10 0.3440291
716.20 0.3438834
716.30 0.3437377
716.40 0.3435922
716.50 0.3434467
716.60 0.3432966
716.70 0.3431456
716.80 0.3429947
716.90 0.3428438
717.00 0.342693
717.10 0.3425423
717.20 0.3423916
717.30 0.342241
717.40 0.3420905
717.50 0.34194
717.60 0.3417896
717.70 0.3416393
717.80 0.3414891
717.90 0.3413389
718.00 0.3411888
718.10 0.3410388
718.20 0.3408886
718.30 0.3407384
718.40 0.3405883
718.50 0.3404383
718.60 0.3402883
718.70 0.3401384
718.80 0.3399885
718.90 0.3398388
719.00 0.3396891
719.10 0.3395394
719.20 0.3393899
719.30 0.3392404
719.40 0.339091
719.50 0.3389416
719.60 0.3387923
719.70 0.3386431
719.80 0.338494
719.90 0.3383449
720.00 0.3381959
720.10 0.338047
720.20 0.3378981
720.30 0.3377493
720.40 0.3376006
720.50 0.337452
720.60 0.3373034
720.70 0.3371528
720.80 0.3370013
720.90 0.336849
721.00 0.3366967
721.10 0.3365444
721.20 0.3363923
721.30 0.3362402
721.40 0.3360882
721.50 0.3359363
721.60 0.3357844
721.70 0.3356326
721.80 0.3354809
721.90 0.3353292
722.00 0.3351776
722.10 0.3350261
722.20 0.3348747
722.30 0.3347233
722.40 0.334572
722.50 0.3344208
722.60 0.3342696
722.70 0.3341144
722.80 0.3339569
722.90 0.3337995
723.00 0.3336423
723.10 0.333485
723.20 0.3333279
723.30 0.3331708
723.40 0.3330138
723.50 0.3328569
723.60 0.3327001
723.70 0.3325433
723.80 0.3323866
723.90 0.33223
724.00 0.3320734
724.10 0.3319169
724.20 0.3317533
724.30 0.3315859
724.40 0.3314185
724.50 0.3312512
724.60 0.331084
724.70 0.3309168
724.80 0.3307498
724.90 0.3305828
725.00 0.3304159
725.10 0.3302491
725.20 0.3300824
725.30 0.3299157
725.40 0.3297491
725.50 0.3295826
725.60 0.3294162
725.70 0.3292499
725.80 0.3290416
725.90 0.3288108
726.00 0.3285801
726.10 0.3283495
726.20 0.328119
726.30 0.3278887
726.40 0.3276584
726.50 0.3274283
726.60 0.3271983
726.70 0.3269684
726.80 0.3266362
726.90 0.3262491
727.00 0.3258623
727.10 0.3254756
727.20 0.3250891
727.30 0.3247028
727.40 0.3241342
727.50 0.3234677
727.60 0.3228015
727.70 0.3221357
727.80 0.3213139
727.90 0.3204085
728.00 0.3194709
728.10 0.3186346
728.20 0.318352
728.30 0.3185946
728.40 0.3190184
728.50 0.3194587
728.60 0.3198831
728.70 0.3202989
728.80 0.3207145
728.90 0.3211298
729.00 0.3213891
729.10 0.3215645
729.20 0.3217397
729.30 0.3219148
729.40 0.3220898
729.50 0.3222647
729.60 0.3223089
729.70 0.3222828
729.80 0.3222566
729.90 0.3222305
730.00 0.3222043
730.10 0.3221782
730.20 0.322152
730.30 0.3221259
730.40 0.3220997
730.50 0.3220736
730.60 0.3219917
730.70 0.3218797
730.80 0.3217677
730.90 0.3216559
731.00 0.321544
731.10 0.3214323
731.20 0.3213205
731.30 0.3212089
731.40 0.3210972
731.50 0.3209856
731.60 0.3208741
731.70 0.3207626
731.80 0.3206512
731.90 0.3205398
732.00 0.3204285
732.10 0.3203172
732.20 0.3201926
732.30 0.3200608
732.40 0.3199291
732.50 0.3197974
732.60 0.3196658
732.70 0.3195343
732.80 0.3194028
732.90 0.3192714
733.00 0.3191401
733.10 0.3190088
733.20 0.3188776
733.30 0.3187464
733.40 0.3186153
733.50 0.3184843
733.60 0.3183533
733.70 0.3182195
733.80 0.3180842
733.90 0.317949
734.00 0.3178139
734.10 0.3176789
734.20 0.3175439
734.30 0.3174089
734.40 0.317274
734.50 0.3171392
734.60 0.3170045
734.70 0.3168698
734.80 0.3167351
734.90 0.3166006
735.00 0.3164661
735.10 0.3163316
735.20 0.3161972
735.30 0.3160624
735.40 0.3159215
735.50 0.3157807
735.60 0.31564
735.70 0.3155019
735.80 0.3153654
735.90 0.3152289
736.00 0.3150924
736.10 0.3149561
736.20 0.3148198
736.30 0.3146835
736.40 0.3145473
736.50 0.3144112
736.60 0.3142752
736.70 0.3141392
736.80 0.3140033
736.90 0.3138674
737.00 0.3137316
737.10 0.3135958
737.20 0.3134602
737.30 0.3133245
737.40 0.313189
737.50 0.3130535
737.60 0.312918
737.70 0.3127827
737.80 0.3126474
737.90 0.3125121
738.00 0.3123769
738.10 0.3122418
738.20 0.3121059
738.30 0.3119695
738.40 0.3118333
738.50 0.311697
738.60 0.3115609
738.70 0.3114248
738.80 0.3112888
738.90 0.3111528
739.00 0.3110169
739.10 0.3108811
739.20 0.3107453
739.30 0.3106096
739.40 0.3104739
739.50 0.3103383
739.60 0.3102028
739.70 0.3100673
739.80 0.3099319
739.90 0.3097966
740.00 0.3096613
740.10 0.3095261
740.20 0.3093909
740.30 0.3092558
740.40 0.3091208
740.50 0.3089858
740.60 0.3088509
740.70 0.308716
740.80 0.3085812
740.90 0.3084465
741.00 0.3083118
741.10 0.3081772
741.20 0.3080427
741.30 0.3079082
741.40 0.3077738
741.50 0.3076394
741.60 0.3075051
741.70 0.3073709
741.80 0.3072367
741.90 0.3071026
742.00 0.3069685
742.10 0.3068345
742.20 0.3067006
742.30 0.3065667
742.40 0.3064329
742.50 0.3062992
742.60 0.3061655
742.70 0.306033
742.80 0.3059016
742.90 0.3057702
743.00 0.3056389
743.10 0.3055076
743.20 0.3053764
743.30 0.3052452
743.40 0.3051141
743.50 0.3049831
743.60 0.3048521
743.70 0.3047208
743.80 0.3045877
743.90 0.3044547
744.00 0.3043218
744.10 0.3041889
744.20 0.3040561
744.30 0.3039233
744.40 0.3037906
744.50 0.303658
744.60 0.3035254
744.70 0.3033929
744.80 0.3032604
744.90 0.303128
745.00 0.3029957
745.10 0.3028634
745.20 0.3027312
745.30 0.302599
745.40 0.3024669
745.50 0.3023349
745.60 0.3022029
745.70 0.302071
745.80 0.3019391
745.90 0.3018073
746.00 0.3016756
746.10 0.3015439
746.20 0.3014123
746.30 0.3012807
746.40 0.3011492
746.50 0.3010178
746.60 0.3008864
746.70 0.3007551
746.80 0.3006238
746.90 0.3004926
747.00 0.3003615
747.10 0.3002304
747.20 0.3000994
747.30 0.2999684
747.40 0.2998375
747.50 0.2997066
747.60 0.2995759
747.70 0.2994451
747.80 0.2993145
747.90 0.2991839
748.00 0.2990533
748.10 0.2989228
748.20 0.2987924
748.30 0.298662
748.40 0.2985317
748.50 0.2984014
748.60 0.2982712
748.70 0.2981411
748.80 0.298011
748.90 0.297881
749.00 0.297751
749.10 0.2976211
749.20 0.2974913
749.30 0.2973615
749.40 0.2972318
749.50 0.2971021
749.60 0.2969725
749.70 0.296843
749.80 0.2967135
749.90 0.296584
750.00 0.2964547
750.10 0.2963256
750.20 0.2961971
750.30 0.2960687
750.40 0.2959403
750.50 0.295812
750.60 0.2956838
750.70 0.2955556
750.80 0.2954275
750.90 0.2952994
751.00 0.2951714
751.10 0.2950435
751.20 0.2949156
751.30 0.2947878
751.40 0.29466
751.50 0.2945323
751.60 0.2944046
751.70 0.294277
751.80 0.2941495
751.90 0.294022
752.00 0.2938946
752.10 0.2937672
752.20 0.2936399
752.30 0.2935126
752.40 0.2933854
752.50 0.2932583
752.60 0.2931312
752.70 0.2930041
752.80 0.2928772
752.90 0.2927503
753.00 0.2926234
753.10 0.2924966
753.20 0.2923699
753.30 0.2922432
753.40 0.2921165
753.50 0.29199
753.60 0.2918634
753.70 0.291737
753.80 0.2916106
753.90 0.2914842
754.00 0.2913579
754.10 0.2912317
754.20 0.2911055
754.30 0.2909794
754.40 0.2908534
754.50 0.2907274
754.60 0.2906014
754.70 0.2904755
754.80 0.2903497
754.90 0.2902239
755.00 0.2900982
755.10 0.2899725
755.20 0.2898469
755.30 0.2897213
755.40 0.2895958
755.50 0.2894704
755.60 0.289345
755.70 0.2892197
755.80 0.2890944
755.90 0.2889692
756.00 0.288844
756.10 0.2887189
756.20 0.2885939
756.30 0.2884689
756.40 0.288344
756.50 0.2882191
756.60 0.2880943
756.70 0.2879695
756.80 0.2878448
756.90 0.2877201
757.00 0.2875955
757.10 0.287471
757.20 0.2873465
757.30 0.287222
757.40 0.2870977
757.50 0.2869733
757.60 0.2868492
757.70 0.2867255
757.80 0.2866018
757.90 0.2864782
758.00 0.2863547
758.10 0.2862311
758.20 0.2861077
758.30 0.2859843
758.40 0.285861
758.50 0.2857377
758.60 0.2856145
758.70 0.2854913
758.80 0.2853682
758.90 0.2852451
759.00 0.2851221
759.10 0.2849991
759.20 0.2848762
759.30 0.2847534
759.40 0.2846306
759.50 0.2845079
759.60 0.2843852
759.70 0.2842626
759.80 0.28414
759.90 0.2840175
760.00 0.283895
760.10 0.2837726
760.20 0.2836503
760.30 0.283528
760.40 0.2834057
760.50 0.2832836
760.60 0.2831614
760.70 0.2830393
760.80 0.2829173
760.90 0.2827954
761.00 0.2826734
761.10 0.2825516
761.20 0.2824298
761.30 0.282308
761.40 0.2821868
761.50 0.2820663
761.60 0.2819459
761.70 0.2818255
761.80 0.2817052
761.90 0.2815849
762.00 0.2814647
762.10 0.2813445
762.20 0.2812244
762.30 0.2811043
762.40 0.2809843
762.50 0.2808644
762.60 0.2807445
762.70 0.2806246
762.80 0.2805049
762.90 0.2803851
763.00 0.2802654
763.10 0.2801458
763.20 0.2800262
763.30 0.2799067
763.40 0.2797872
763.50 0.2796678
763.60 0.2795484
763.70 0.2794291
763.80 0.2793099
763.90 0.2791907
764.00 0.2790715
764.10 0.2789524
764.20 0.2788333
764.30 0.2787144
764.40 0.2785954
764.50 0.2784765
764.60 0.2783577
764.70 0.2782389
764.80 0.2781202
764.90 0.2780015
765.00 0.2778829
765.10 0.2777643
765.20 0.2776457
765.30 0.2775271
765.40 0.2774086
765.50 0.2772901
765.60 0.2771717
765.70 0.2770533
765.80 0.276935
765.90 0.2768167
766.00 0.2766985
766.10 0.2765803
766.20 0.2764622
766.30 0.2763442
766.40 0.2762262
766.50 0.2761082
766.60 0.2759903
766.70 0.2758724
766.80 0.2757546
766.90 0.2756369
767.00 0.2755192
767.10 0.2754016
767.20 0.275284
767.30 0.2751664
767.40 0.2750489
767.50 0.2749315
767.60 0.2748141
767.70 0.2746968
767.80 0.2745795
767.90 0.2744623
768.00 0.2743451
768.10 0.274228
768.20 0.2741109
768.30 0.2739939
768.40 0.2738769
768.50 0.27376
768.60 0.2736431
768.70 0.2735263
768.80 0.2734096
768.90 0.2732929
769.00 0.2731762
769.10 0.2730596
769.20 0.272943
769.30 0.2728265
769.40 0.2727101
769.50 0.2725937
769.60 0.2724773
769.70 0.272361
769.80 0.2722448
769.90 0.2721286
770.00 0.2720124
770.10 0.2718963
770.20 0.2717803
770.30 0.2716643
770.40 0.2715483
770.50 0.2714325
770.60 0.2713166
770.70 0.2712008
770.80 0.2710851
770.90 0.2709694
771.00 0.2708538
771.10 0.2707382
771.20 0.2706226
771.30 0.2705072
771.40 0.2703917
771.50 0.2702763
771.60 0.270161
771.70 0.2700457
771.80 0.2699305
771.90 0.2698153
772.00 0.2697002
772.10 0.2695851
772.20 0.2694701
772.30 0.2693551
772.40 0.2692402
772.50 0.2691253
772.60 0.2690105
772.70 0.2688957
772.80 0.268781
772.90 0.2686667
773.00 0.2685526
773.10 0.2684384
773.20 0.2683243
773.30 0.2682103
773.40 0.2680963
773.50 0.2679824
773.60 0.2678685
773.70 0.2677547
773.80 0.2676409
773.90 0.2675272
774.00 0.2674135
774.10 0.2672999
774.20 0.2671863
774.30 0.2670727
774.40 0.2669593
774.50 0.2668458
774.60 0.2667324
774.70 0.2666191
774.80 0.2665058
774.90 0.2663926
775.00 0.2662794
775.10 0.2661663
775.20 0.2660532
775.30 0.2659402
775.40 0.2658272
775.50 0.2657142
775.60 0.2656013
775.70 0.2654885
775.80 0.2653757
775.90 0.265263
776.00 0.2651503
776.10 0.2650376
776.20 0.2649251
776.30 0.2648125
776.40 0.2647
776.50 0.2645876
776.60 0.2644752
776.70 0.2643628
776.80 0.2642505
776.90 0.2641383
777.00 0.2640261
777.10 0.2639139
777.20 0.2638018
777.30 0.2636898
777.40 0.2635778
777.50 0.2634658
777.60 0.2633539
777.70 0.2632421
777.80 0.2631303
777.90 0.2630185
778.00 0.2629068
778.10 0.2627951
778.20 0.2626835
778.30 0.2625719
778.40 0.2624604
778.50 0.262349
778.60 0.2622375
778.70 0.2621262
778.80 0.2620149
778.90 0.2619036
779.00 0.2617924
779.10 0.2616812
779.20 0.2615701
779.30 0.261459
779.40 0.2613479
779.50 0.261237
779.60 0.261126
779.70 0.2610151
779.80 0.2609043
779.90 0.2607935
780.00 0.2606828
780.10 0.2605721
780.20 0.2604614
780.30 0.2603508
780.40 0.2602403
780.50 0.2601298
780.60 0.2600204
780.70 0.2599114
780.80 0.2598024
780.90 0.2596935
781.00 0.2595847
781.10 0.2594759
781.20 0.2593671
781.30 0.2592584
781.40 0.2591498
781.50 0.2590411
781.60 0.2589326
781.70 0.2588241
781.80 0.2587156
781.90 0.2586072
782.00 0.2584988
782.10 0.2583904
782.20 0.2582822
782.30 0.2581739
782.40 0.2580657
782.50 0.2579576
782.60 0.2578495
782.70 0.2577414
782.80 0.2576334
782.90 0.2575255
783.00 0.2574176
783.10 0.2573097
783.20 0.2572019
783.30 0.2570941
783.40 0.2569864
783.50 0.2568787
783.60 0.2567711
783.70 0.2566635
783.80 0.256556
783.90 0.2564485
784.00 0.256341
784.10 0.2562336
784.20 0.2561263
784.30 0.256019
784.40 0.2559117
784.50 0.2558045
784.60 0.2556971
784.70 0.255589
784.80 0.255481
784.90 0.2553731
785.00 0.2552652
785.10 0.2551574
785.20 0.2550496
785.30 0.2549418
785.40 0.2548341
785.50 0.2547264
785.60 0.2546188
785.70 0.2545113
785.80 0.2544037
785.90 0.2542963
786.00 0.2541888
786.10 0.2540815
786.20 0.2539741
786.30 0.2538668
786.40 0.2537596
786.50 0.2536524
786.60 0.2535453
786.70 0.2534382
786.80 0.2533311
786.90 0.2532241
787.00 0.2531171
787.10 0.2530102
787.20 0.2529033
787.30 0.2527965
787.40 0.2526897
787.50 0.252583
787.60 0.2524763
787.70 0.2523697
787.80 0.2522631
787.90 0.2521565
788.00 0.25205
788.10 0.2519436
788.20 0.2518372
788.30 0.2517308
788.40 0.2516251
788.50 0.2515197
788.60 0.2514144
788.70 0.2513091
788.80 0.2512038
788.90 0.2510986
789.00 0.2509935
789.10 0.2508883
789.20 0.2507833
789.30 0.2506783
789.40 0.2505733
789.50 0.2504683
789.60 0.2503635
789.70 0.2502586
789.80 0.2501538
789.90 0.2500491
790.00 0.2499444
790.10 0.2498397
790.20 0.2497351
790.30 0.2496305
790.40 0.249526
790.50 0.2494215
790.60 0.2493171
790.70 0.2492127
790.80 0.2491083
790.90 0.249004
791.00 0.2488998
791.10 0.2487956
791.20 0.2486914
791.30 0.2485873
791.40 0.2484832
791.50 0.2483792
791.60 0.2482752
791.70 0.2481712
791.80 0.2480673
791.90 0.2479635
792.00 0.2478597
792.10 0.2477559
792.20 0.2476522
792.30 0.2475487
792.40 0.2474461
792.50 0.2473436
792.60 0.247241
792.70 0.2471385
792.80 0.2470361
792.90 0.2469337
793.00 0.2468314
793.10 0.246729
793.20 0.2466268
793.30 0.2465246
793.40 0.2464224
793.50 0.2463203
793.60 0.2462182
793.70 0.2461161
793.80 0.2460141
793.90 0.2459122
794.00 0.2458102
794.10 0.2457084
794.20 0.2456065
794.30 0.2455048
794.40 0.245403
794.50 0.2453013
794.60 0.2451997
794.70 0.2450981
794.80 0.2449965
794.90 0.244895
795.00 0.2447935
795.10 0.244692
795.20 0.2445907
795.30 0.2444893
795.40 0.244388
795.50 0.2442867
795.60 0.2441855
795.70 0.2440843
795.80 0.2439832
795.90 0.2438821
796.00 0.2437811
796.10 0.24368
796.20 0.2435791
796.30 0.2434777
796.40 0.2433762
796.50 0.2432747
796.60 0.2431733
796.70 0.243072
796.80 0.2429707
796.90 0.2428694
797.00 0.2427682
797.10 0.242667
797.20 0.2425658
797.30 0.2424647
797.40 0.2423637
797.50 0.2422627
797.60 0.2421617
797.70 0.2420608
797.80 0.2419599
797.90 0.2418591
798.00 0.2417583
798.10 0.2416575
798.20 0.2415568
798.30 0.2414561
798.40 0.2413555
798.50 0.2412549
798.60 0.2411544
798.70 0.2410539
798.80 0.2409534
798.90 0.240853
799.00 0.2407527
799.10 0.2406523
799.20 0.2405521
799.30 0.2404518
799.40 0.2403516
799.50 0.2402515
799.60 0.2401514
799.70 0.2400513
799.80 0.2399513
799.90 0.2398513
800.00 0.2397513
800.10 0.2396514
800.20 0.2395516
800.30 0.2394518
800.40 0.239352
800.50 0.2392523
800.60 0.2391526
800.70 0.2390529
800.80 0.2389533
800.90 0.2388538
801.00 0.2387542
801.10 0.2386548
801.20 0.2385553
801.30 0.2384559
801.40 0.2383566
801.50 0.2382573
801.60 0.238158
801.70 0.2380588
801.80 0.2379596
801.90 0.2378605
802.00 0.2377614
802.10 0.2376623
802.20 0.2375633
802.30 0.2374643
802.40 0.2373654
802.50 0.2372665
802.60 0.2371677
802.70 0.2370689
802.80 0.2369701
802.90 0.2368714
803.00 0.2367727
803.10 0.2366741
803.20 0.2365755
803.30 0.2364769
803.40 0.2363784
803.50 0.23628
803.60 0.2361815
803.70 0.2360831
803.80 0.2359848
803.90 0.2358865
804.00 0.2357882
804.10 0.23569
804.20 0.2355921
804.30 0.2354954
804.40 0.2353987
804.50 0.235302
804.60 0.2352053
804.70 0.2351087
804.80 0.2350122
804.90 0.2349157
805.00 0.2348192
805.10 0.2347227
805.20 0.2346263
805.30 0.23453
805.40 0.2344337
805.50 0.2343374
805.60 0.2342412
805.70 0.234145
805.80 0.2340488
805.90 0.2339527
806.00 0.2338566
806.10 0.2337606
806.20 0.2336646
806.30 0.2335687
806.40 0.2334728
806.50 0.2333769
806.60 0.2332811
806.70 0.2331853
806.80 0.2330895
806.90 0.2329938
807.00 0.2328981
807.10 0.2328025
807.20 0.2327069
807.30 0.2326114
807.40 0.2325159
807.50 0.2324204
807.60 0.232325
807.70 0.2322296
807.80 0.2321342
807.90 0.2320389
808.00 0.2319437
808.10 0.2318484
808.20 0.2317533
808.30 0.2316581
808.40 0.231563
808.50 0.2314679
808.60 0.2313729
808.70 0.2312779
808.80 0.231183
808.90 0.2310881
809.00 0.2309932
809.10 0.2308984
809.20 0.2308036
809.30 0.2307088
809.40 0.2306141
809.50 0.2305195
809.60 0.2304248
809.70 0.2303302
809.80 0.2302357
809.90 0.2301412
810.00 0.2300467
810.10 0.2299523
810.20 0.2298579
810.30 0.2297635
810.40 0.2296692
810.50 0.229575
810.60 0.2294807
810.70 0.2293865
810.80 0.2292924
810.90 0.2291983
811.00 0.2291042
811.10 0.2290102
811.20 0.2289162
811.30 0.2288222
811.40 0.2287283
811.50 0.2286344
811.60 0.2285406
811.70 0.2284468
811.80 0.228353
811.90 0.2282593
812.00 0.2281656
812.10 0.228072
812.20 0.2279784
812.30 0.2278848
812.40 0.2277914
812.50 0.2276979
812.60 0.2276045
812.70 0.2275112
812.80 0.2274178
812.90 0.2273246
813.00 0.2272313
813.10 0.2271381
813.20 0.227045
813.30 0.2269518
813.40 0.2268587
813.50 0.2267657
813.60 0.2266727
813.70 0.2265797
813.80 0.2264868
813.90 0.2263939
814.00 0.226301
814.10 0.2262082
814.20 0.2261155
814.30 0.2260227
814.40 0.22593
814.50 0.2258374
814.60 0.2257447
814.70 0.2256522
814.80 0.2255596
814.90 0.2254671
815.00 0.2253746
815.10 0.2252822
815.20 0.2251898
815.30 0.2250975
815.40 0.2250052
815.50 0.2249129
815.60 0.2248207
815.70 0.2247285
815.80 0.2246363
815.90 0.2245442
816.00 0.2244521
816.10 0.2243601
816.20 0.2242681
816.30 0.2241761
816.40 0.2240842
816.50 0.2239923
816.60 0.2239004
816.70 0.2238086
816.80 0.2237168
816.90 0.2236251
817.00 0.2235334
817.10 0.2234417
817.20 0.2233501
817.30 0.2232585
817.40 0.223167
817.50 0.2230755
817.60 0.222984
817.70 0.2228926
817.80 0.2228012
817.90 0.2227098
818.00 0.2226185
818.10 0.2225272
818.20 0.222436
818.30 0.2223448
818.40 0.2222536
818.50 0.2221625
818.60 0.2220714
818.70 0.2219804
818.80 0.2218894
818.90 0.2217984
819.00 0.2217074
819.10 0.2216165
819.20 0.2215257
819.30 0.2214355
819.40 0.2213458
819.50 0.2212561
819.60 0.2211665
819.70 0.2210769
819.80 0.2209874
819.90 0.2208978
820.00 0.2208084
820.10 0.2207221
820.20 0.2206391
820.30 0.2205526
820.40 0.2204642
820.50 0.2203746
820.60 0.2202849
820.70 0.2201954
820.80 0.2201058
820.90 0.2200163
821.00 0.2199268
821.10 0.2198374
821.20 0.219748
821.30 0.2196587
821.40 0.2195693
821.50 0.2194801
821.60 0.2193908
821.70 0.2193016
821.80 0.2192124
821.90 0.2191233
822.00 0.2190342
822.10 0.2189451
822.20 0.2188561
822.30 0.2187671
822.40 0.2186782
822.50 0.2185893
822.60 0.2185004
822.70 0.2184115
822.80 0.2183227
822.90 0.218234
823.00 0.2181452
823.10 0.2180565
823.20 0.2179679
823.30 0.2178793
823.40 0.2177907
823.50 0.2177021
823.60 0.2176136
823.70 0.2175252
823.80 0.2174367
823.90 0.2173483
824.00 0.2172599
824.10 0.2171716
824.20 0.2170833
824.30 0.2169951
824.40 0.2169069
824.50 0.2168187
824.60 0.2167305
824.70 0.2166424
824.80 0.2165543
824.90 0.2164663
825.00 0.2163783
825.10 0.2162903
825.20 0.2162024
825.30 0.2161145
825.40 0.2160267
825.50 0.2159388
825.60 0.2158511
825.70 0.2157633
825.80 0.2156756
825.90 0.2155879
826.00 0.2155003
826.10 0.2154127
826.20 0.2153251
826.30 0.2152375
826.40 0.2151498
826.50 0.2150622
826.60 0.2149746
826.70 0.2148871
826.80 0.2147995
826.90 0.214712
827.00 0.2146246
827.10 0.2145372
827.20 0.2144498
827.30 0.2143625
827.40 0.2142752
827.50 0.2141879
827.60 0.2141007
827.70 0.2140135
827.80 0.2139263
827.90 0.2138392
828.00 0.2137521
828.10 0.213665
828.20 0.213578
828.30 0.2134911
828.40 0.2134041
828.50 0.2133172
828.60 0.2132308
828.70 0.2131449
828.80 0.213059
828.90 0.2129731
829.00 0.2128873
829.10 0.2128015
829.20 0.2127158
829.30 0.2126301
829.40 0.2125444
829.50 0.2124588
829.60 0.2123732
829.70 0.2122876
829.80 0.212202
829.90 0.2121165
830.00 0.2120311
830.10 0.2119456
830.20 0.2118602
830.30 0.2117749
830.40 0.2116896
830.50 0.2116043
830.60 0.211519
830.70 0.2114338
830.80 0.2113486
830.90 0.2112634
831.00 0.2111783
831.10 0.2110932
831.20 0.2110082
831.30 0.2109232
831.40 0.2108382
831.50 0.2107533
831.60 0.2106684
831.70 0.2105835
831.80 0.2104986
831.90 0.2104138
832.00 0.2103291
832.10 0.2102443
832.20 0.2101596
832.30 0.210075
832.40 0.2099903
832.50 0.2099057
832.60 0.2098212
832.70 0.2097366
832.80 0.2096521
832.90 0.2095677
833.00 0.2094833
833.10 0.2093989
833.20 0.2093145
833.30 0.2092302
833.40 0.2091459
833.50 0.2090617
833.60 0.2089774
833.70 0.2088933
833.80 0.2088091
833.90 0.208725
834.00 0.2086409
834.10 0.2085569
834.20 0.2084729
834.30 0.2083889
834.40 0.2083049
834.50 0.208221
834.60 0.2081372
834.70 0.2080533
834.80 0.2079695
834.90 0.2078857
835.00 0.207802
835.10 0.2077183
835.20 0.2076346
835.30 0.207551
835.40 0.2074674
835.50 0.2073838
835.60 0.2073003
835.70 0.2072168
835.80 0.2071333
835.90 0.2070499
836.00 0.2069665
836.10 0.2068831
836.20 0.2067998
836.30 0.2067165
836.40 0.2066332
836.50 0.20655
836.60 0.2064668
836.70 0.2063837
836.80 0.2063005
836.90 0.206218
837.00 0.2061357
837.10 0.2060534
837.20 0.2059712
837.30 0.205889
837.40 0.2058069
837.50 0.2057248
837.60 0.2056427
837.70 0.2055606
837.80 0.2054786
837.90 0.2053966
838.00 0.2053146
838.10 0.2052327
838.20 0.2051508
838.30 0.205069
838.40 0.2049872
838.50 0.2049054
838.60 0.2048236
838.70 0.2047419
838.80 0.2046602
838.90 0.2045785
839.00 0.2044969
839.10 0.2044153
839.20 0.2043338
839.30 0.2042522
839.40 0.2041708
839.50 0.2040893
839.60 0.2040079
839.70 0.2039265
839.80 0.2038451
839.90 0.2037638
840.00 0.2036825
840.10 0.2036012
840.20 0.20352
840.30 0.2034388
840.40 0.2033577
840.50 0.2032765
840.60 0.2031954
840.70 0.2031144
840.80 0.2030333
840.90 0.2029523
841.00 0.2028714
841.10 0.2027905
841.20 0.2027096
841.30 0.2026287
841.40 0.2025479
841.50 0.2024671
841.60 0.2023863
841.70 0.2023056
841.80 0.2022249
841.90 0.2021442
842.00 0.2020636
842.10 0.201983
842.20 0.2019025
842.30 0.2018219
842.40 0.2017414
842.50 0.201661
842.60 0.2015805
842.70 0.2015001
842.80 0.2014197
842.90 0.2013394
843.00 0.2012591
843.10 0.2011788
843.20 0.2010986
843.30 0.2010184
843.40 0.2009382
843.50 0.2008581
843.60 0.200778
843.70 0.2006979
843.80 0.2006178
843.90 0.2005378
844.00 0.2004578
844.10 0.2003779
844.20 0.200298
844.30 0.2002181
844.40 0.2001382
844.50 0.2000584
844.60 0.1999786
844.70 0.1998989
844.80 0.1998192
844.90 0.1997395
845.00 0.1996598
845.10 0.1995802
845.20 0.1995006
845.30 0.1994213
845.40 0.1993421
845.50 0.1992629
845.60 0.1991838
845.70 0.1991047
845.80 0.1990256
845.90 0.1989465
846.00 0.1988675
846.10 0.1987885
846.20 0.1987095
846.30 0.1986306
846.40 0.1985517
846.50 0.1984728
846.60 0.198394
846.70 0.1983152
846.80 0.1982364
846.90 0.1981577
847.00 0.198079
847.10 0.1980003
847.20 0.1979216
847.30 0.197843
847.40 0.1977645
847.50 0.1976859
847.60 0.1976074
847.70 0.1975289
847.80 0.1974504
847.90 0.197372
848.00 0.1972936
848.10 0.1972153
848.20 0.1971369
848.30 0.1970586
848.40 0.1969804
848.50 0.1969021
848.60 0.1968239
848.70 0.1967458
848.80 0.1966676
848.90 0.1965895
849.00 0.1965114
849.10 0.1964334
849.20 0.1963554
849.30 0.1962774
849.40 0.1961994
849.50 0.1961215
849.60 0.1960436
849.70 0.1959658
849.80 0.1958879
849.90 0.1958101
850.00 0.1957324
850.10 0.1956546
850.20 0.1955769
850.30 0.1954992
850.40 0.1954216
850.50 0.195344
850.60 0.1952664
850.70 0.1951889
850.80 0.1951114
850.90 0.1950339
851.00 0.1949564
851.10 0.194879
851.20 0.1948016
851.30 0.1947242
851.40 0.1946469
851.50 0.1945696
851.60 0.1944923
851.70 0.1944151
851.80 0.1943379
851.90 0.1942607
852.00 0.1941836
852.10 0.1941064
852.20 0.1940294
852.30 0.1939523
852.40 0.1938753
852.50 0.1937983
852.60 0.1937213
852.70 0.1936444
852.80 0.1935675
852.90 0.1934906
853.00 0.1934138
853.10 0.193337
853.20 0.1932602
853.30 0.1931835
853.40 0.1931068
853.50 0.1930301
853.60 0.1929534
853.70 0.1928769
853.80 0.1928007
853.90 0.1927244
854.00 0.1926482
854.10 0.192572
854.20 0.1924958
854.30 0.1924197
854.40 0.1923436
854.50 0.1922675
854.60 0.1921915
854.70 0.1921155
854.80 0.1920395
854.90 0.1919636
855.00 0.1918876
855.10 0.1918117
855.20 0.1917359
855.30 0.1916601
855.40 0.1915843
855.50 0.1915085
855.60 0.1914328
855.70 0.191357
855.80 0.1912814
855.90 0.1912057
856.00 0.1911301
856.10 0.1910545
856.20 0.190979
856.30 0.1909034
856.40 0.1908279
856.50 0.1907525
856.60 0.190677
856.70 0.1906016
856.80 0.1905263
856.90 0.1904509
857.00 0.1903756
857.10 0.1903003
857.20 0.190225
857.30 0.1901498
857.40 0.1900746
857.50 0.1899995
857.60 0.1899243
857.70 0.1898492
857.80 0.1897741
857.90 0.1896991
858.00 0.1896247
858.10 0.1895505
858.20 0.1894764
858.30 0.1894023
858.40 0.1893282
858.50 0.1892541
858.60 0.1891801
858.70 0.1891061
858.80 0.1890321
858.90 0.1889582
859.00 0.1888843
859.10 0.1888104
859.20 0.1887365
859.30 0.1886627
859.40 0.1885889
859.50 0.1885151
859.60 0.1884414
859.70 0.1883677
859.80 0.188294
859.90 0.1882204
860.00 0.1881467
860.10 0.1880731
860.20 0.1879996
860.30 0.187926
860.40 0.1878525
860.50 0.1877791
860.60 0.1877056
860.70 0.1876322
860.80 0.1875588
860.90 0.1874855
861.00 0.1874121
861.10 0.1873388
861.20 0.1872656
861.30 0.1871923
861.40 0.1871191
861.50 0.1870459
861.60 0.1869728
861.70 0.1868996
861.80 0.1868265
861.90 0.1867535
862.00 0.1866804
862.10 0.1866074
862.20 0.1865344
862.30 0.1864614
862.40 0.1863883
862.50 0.1863153
862.60 0.1862424
862.70 0.1861694
862.80 0.1860965
862.90 0.1860236
863.00 0.1859508
863.10 0.1858779
863.20 0.1858052
863.30 0.1857324
863.40 0.1856596
863.50 0.1855869
863.60 0.1855143
863.70 0.1854416
863.80 0.185369
863.90 0.1852964
864.00 0.1852238
864.10 0.1851513
864.20 0.1850788
864.30 0.1850063
864.40 0.1849338
864.50 0.1848614
864.60 0.184789
864.70 0.1847167
864.80 0.1846443
864.90 0.184572
865.00 0.1844997
865.10 0.1844275
865.20 0.1843552
865.30 0.1842831
865.40 0.1842109
865.50 0.1841387
865.60 0.1840666
865.70 0.1839946
865.80 0.1839225
865.90 0.1838505
866.00 0.1837785
866.10 0.1837065
866.20 0.1836346
866.30 0.1835627
866.40 0.1834908
866.50 0.1834189
866.60 0.1833471
866.70 0.1832753
866.80 0.1832035
866.90 0.1831318
867.00 0.1830601
867.10 0.1829884
867.20 0.1829167
867.30 0.1828451
867.40 0.1827735
867.50 0.1827019
867.60 0.1826304
867.70 0.1825589
867.80 0.1824874
867.90 0.1824159
868.00 0.1823445
868.10 0.1822731
868.20 0.1822017
868.30 0.1821303
868.40 0.182059
868.50 0.1819877
868.60 0.1819165
868.70 0.1818452
868.80 0.181774
868.90 0.1817028
869.00 0.1816317
869.10 0.1815606
869.20 0.1814895
869.30 0.1814184
869.40 0.1813474
869.50 0.1812764
869.60 0.1812054
869.70 0.1811344
869.80 0.1810635
869.90 0.1809926
870.00 0.1809217
870.10 0.1808509
870.20 0.18078
870.30 0.1807093
870.40 0.1806385
870.50 0.1805678
870.60 0.180497
870.70 0.1804264
870.80 0.1803557
870.90 0.1802857
871.00 0.1802158
871.10 0.1801459
871.20 0.180076
871.30 0.1800062
871.40 0.1799364
871.50 0.1798666
871.60 0.1797968
871.70 0.1797271
871.80 0.1796574
871.90 0.1795877
872.00 0.1795181
872.10 0.1794484
872.20 0.1793788
872.30 0.1793093
872.40 0.1792397
872.50 0.1791702
872.60 0.1791007
872.70 0.1790313
872.80 0.1789618
872.90 0.1788924
873.00 0.1788231
873.10 0.1787537
873.20 0.1786844
873.30 0.1786151
873.40 0.1785458
873.50 0.1784766
873.60 0.1784074
873.70 0.1783382
873.80 0.178269
873.90 0.1781999
874.00 0.1781308
874.10 0.1780617
874.20 0.1779926
874.30 0.1779236
874.40 0.1778546
874.50 0.1777856
874.60 0.1777167
874.70 0.1776478
874.80 0.1775789
874.90 0.17751
875.00 0.1774412
875.10 0.1773724
875.20 0.1773036
875.30 0.1772348
875.40 0.1771661
875.50 0.1770974
875.60 0.1770287
875.70 0.17696
875.80 0.1768914
875.90 0.1768228
876.00 0.1767543
876.10 0.1766857
876.20 0.1766172
876.30 0.1765487
876.40 0.1764802
876.50 0.1764118
876.60 0.1763434
876.70 0.176275
876.80 0.1762066
876.90 0.1761383
877.00 0.17607
877.10 0.1760017
877.20 0.1759335
877.30 0.1758653
877.40 0.1757971
877.50 0.1757289
877.60 0.1756607
877.70 0.1755926
877.80 0.1755245
877.90 0.1754565
878.00 0.1753884
878.10 0.1753204
878.20 0.1752524
878.30 0.1751845
878.40 0.1751165
878.50 0.1750486
878.60 0.1749807
878.70 0.1749129
878.80 0.1748451
878.90 0.1747773
879.00 0.1747095
879.10 0.1746417
879.20 0.174574
879.30 0.1745063
879.40 0.1744386
879.50 0.174371
879.60 0.1743036
879.70 0.1742363
879.80 0.174169
879.90 0.1741018
880.00 0.1740345
880.10 0.1739673
880.20 0.1739001
880.30 0.173833
880.40 0.1737658
880.50 0.1736987
880.60 0.1736317
880.70 0.1735646
880.80 0.1734976
880.90 0.1734306
881.00 0.1733636
881.10 0.1732967
881.20 0.1732297
881.30 0.1731629
881.40 0.173096
881.50 0.1730291
881.60 0.1729623
881.70 0.1728955
881.80 0.1728288
881.90 0.172762
882.00 0.1726953
882.10 0.1726286
882.20 0.172562
882.30 0.1724953
882.40 0.1724287
882.50 0.1723621
882.60 0.1722956
882.70 0.172229
882.80 0.1721625
882.90 0.172096
883.00 0.1720296
883.10 0.1719631
883.20 0.1718967
883.30 0.1718304
883.40 0.171764
883.50 0.1716977
883.60 0.1716314
883.70 0.1715651
883.80 0.1714988
883.90 0.1714326
884.00 0.171367
884.10 0.1713016
884.20 0.1712362
884.30 0.1711708
884.40 0.1711054
884.50 0.1710401
884.60 0.1709748
884.70 0.1709095
884.80 0.1708442
884.90 0.170779
885.00 0.1707138
885.10 0.1706486
885.20 0.1705834
885.30 0.1705183
885.40 0.1704532
885.50 0.1703881
885.60 0.170323
885.70 0.170258
885.80 0.1701929
885.90 0.170128
886.00 0.170063
886.10 0.1699981
886.20 0.1699331
886.30 0.1698683
886.40 0.1698034
886.50 0.1697386
886.60 0.1696737
886.70 0.1696089
886.80 0.1695442
886.90 0.1694794
887.00 0.1694147
887.10 0.16935
887.20 0.1692854
887.30 0.1692207
887.40 0.1691561
887.50 0.1690915
887.60 0.169027
887.70 0.1689624
887.80 0.1688979
887.90 0.1688334
888.00 0.168769
888.10 0.1687045
888.20 0.1686401
888.30 0.1685757
888.40 0.1685113
888.50 0.1684468
888.60 0.1683824
888.70 0.168318
888.80 0.1682536
888.90 0.1681893
889.00 0.168125
889.10 0.1680607
889.20 0.1679964
889.30 0.1679322
889.40 0.167868
889.50 0.1678038
889.60 0.1677396
889.70 0.1676754
889.80 0.1676113
889.90 0.1675472
890.00 0.1674832
890.10 0.1674191
890.20 0.1673551
890.30 0.1672911
890.40 0.1672271
890.50 0.1671632
890.60 0.1670992
890.70 0.1670353
890.80 0.1669715
890.90 0.1669076
891.00 0.1668438
891.10 0.16678
891.20 0.1667162
891.30 0.1666525
891.40 0.1665887
891.50 0.166525
891.60 0.1664614
891.70 0.1663977
891.80 0.1663341
891.90 0.1662705
892.00 0.1662069
892.10 0.1661433
892.20 0.1660798
892.30 0.1660163
892.40 0.1659528
892.50 0.1658893
892.60 0.1658259
892.70 0.1657625
892.80 0.1656991
892.90 0.1656357
893.00 0.1655724
893.10 0.1655091
893.20 0.1654458
893.30 0.1653825
893.40 0.1653193
893.50 0.1652561
893.60 0.1651929
893.70 0.1651297
893.80 0.1650665
893.90 0.1650034
894.00 0.1649403
894.10 0.1648773
894.20 0.1648142
894.30 0.1647512
894.40 0.1646882
894.50 0.1646252
894.60 0.1645622
894.70 0.1644993
894.80 0.1644364
894.90 0.1643735
895.00 0.1643107
895.10 0.1642478
895.20 0.164185
895.30 0.1641222
895.40 0.1640595
895.50 0.1639968
895.60 0.163934
895.70 0.1638713
895.80 0.1638087
895.90 0.163746
896.00 0.1636834
896.10 0.1636208
896.20 0.1635583
896.30 0.1634957
896.40 0.1634332
896.50 0.1633707
896.60 0.1633082
896.70 0.1632458
896.80 0.1631833
896.90 0.1631209
897.00 0.1630586
897.10 0.1629962
897.20 0.1629339
897.30 0.1628722
897.40 0.1628105
897.50 0.1627489
897.60 0.1626872
897.70 0.1626256
897.80 0.1625641
897.90 0.1625025
898.00 0.162441
898.10 0.1623795
898.20 0.162318
898.30 0.1622565
898.40 0.1621951
898.50 0.1621336
898.60 0.1620722
898.70 0.1620109
898.80 0.1619495
898.90 0.1618882
899.00 0.1618269
899.10 0.1617656
899.20 0.1617044
899.30 0.1616431
899.40 0.1615819
899.50 0.1615207
899.60 0.1614596
899.70 0.1613984
899.80 0.1613373
899.90 0.1612762
900.00 0.1612152
900.10 0.1611541
900.20 0.1610931
900.30 0.1610321
900.40 0.1609711
900.50 0.1609102
900.60 0.1608492
900.70 0.1607883
900.80 0.1607275
900.90 0.1606666
901.00 0.1606058
901.10 0.1605449
901.20 0.1604842
901.30 0.1604234
901.40 0.1603626
901.50 0.1603019
901.60 0.1602412
901.70 0.1601805
901.80 0.1601199
901.90 0.1600593
902.00 0.1599986
902.10 0.1599381
902.20 0.1598775
902.30 0.159817
902.40 0.1597564
902.50 0.159696
902.60 0.1596355
902.70 0.159575
902.80 0.1595146
902.90 0.1594542
903.00 0.1593938
903.10 0.1593335
903.20 0.1592731
903.30 0.1592128
903.40 0.1591525
903.50 0.1590923
903.60 0.159032
903.70 0.1589718
903.80 0.1589116
903.90 0.1588514
904.00 0.1587913
904.10 0.1587312
904.20 0.1586711
904.30 0.158611
904.40 0.1585509
904.50 0.1584909
904.60 0.1584309
904.70 0.1583709
904.80 0.1583109
904.90 0.158251
905.00 0.158191
905.10 0.1581311
905.20 0.1580713
905.30 0.1580114
905.40 0.1579516
905.50 0.1578918
905.60 0.157832
905.70 0.1577722
905.80 0.1577125
905.90 0.1576527
906.00 0.157593
906.10 0.1575334
906.20 0.1574738
906.30 0.1574144
906.40 0.157355
906.50 0.1572957
906.60 0.1572364
906.70 0.1571771
906.80 0.1571178
906.90 0.1570586
907.00 0.1569993
907.10 0.1569401
907.20 0.156881
907.30 0.1568218
907.40 0.1567627
907.50 0.1567035
907.60 0.1566444
907.70 0.1565854
907.80 0.1565263
907.90 0.1564673
908.00 0.1564083
908.10 0.1563493
908.20 0.1562903
908.30 0.1562314
908.40 0.1561725
908.50 0.1561136
908.60 0.1560547
908.70 0.1559959
908.80 0.155937
908.90 0.1558782
909.00 0.1558195
909.10 0.1557607
909.20 0.155702
909.30 0.1556432
909.40 0.1555845
909.50 0.1555259
909.60 0.1554672
909.70 0.1554086
909.80 0.15535
909.90 0.1552914
910.00 0.1552328
910.10 0.1551743
910.20 0.1551158
910.30 0.1550573
910.40 0.1549988
910.50 0.1549404
910.60 0.1548819
910.70 0.1548235
910.80 0.1547651
910.90 0.1547068
911.00 0.1546484
911.10 0.1545901
911.20 0.1545318
911.30 0.1544735
911.40 0.1544153
911.50 0.154357
911.60 0.1542988
911.70 0.1542406
911.80 0.1541825
911.90 0.1541243
912.00 0.1540662
912.10 0.1540081
912.20 0.15395
912.30 0.1538919
912.40 0.1538339
912.50 0.1537759
912.60 0.1537179
912.70 0.1536599
912.80 0.153602
912.90 0.153544
913.00 0.1534861
913.10 0.1534282
913.20 0.1533704
913.30 0.1533125
913.40 0.1532547
913.50 0.1531969
913.60 0.1531391
913.70 0.1530814
913.80 0.1530236
913.90 0.1529659
914.00 0.1529082
914.10 0.1528506
914.20 0.1527929
914.30 0.1527353
914.40 0.1526777
914.50 0.1526201
914.60 0.1525625
914.70 0.152505
914.80 0.1524475
914.90 0.15239
915.00 0.1523325
915.10 0.1522751
915.20 0.1522176
915.30 0.1521608
915.40 0.1521044
915.50 0.1520479
915.60 0.1519914
915.70 0.151935
915.80 0.1518786
915.90 0.1518222
916.00 0.1517659
916.10 0.1517095
916.20 0.1516532
916.30 0.1515969
916.40 0.1515406
916.50 0.1514844
916.60 0.1514281
916.70 0.1513719
916.80 0.1513157
916.90 0.1512595
917.00 0.1512034
917.10 0.1511473
917.20 0.1510911
917.30 0.1510351
917.40 0.150979
917.50 0.1509229
917.60 0.1508669
917.70 0.1508109
917.80 0.1507549
917.90 0.150699
918.00 0.150643
918.10 0.1505871
918.20 0.1505312
918.30 0.1504753
918.40 0.1504194
918.50 0.1503636
918.60 0.1503078
918.70 0.150252
918.80 0.1501962
918.90 0.1501404
919.00 0.1500847
919.10 0.150029
919.20 0.1499733
919.30 0.1499176
919.40 0.149862
919.50 0.1498063
919.60 0.1497507
919.70 0.1496951
919.80 0.1496396
919.90 0.1495834
920.00 0.1495272
920.10 0.149471
920.20 0.1494149
920.30 0.1493588
920.40 0.1493027
920.50 0.1492466
920.60 0.1491905
920.70 0.1491345
920.80 0.1490784
920.90 0.1490224
921.00 0.1489665
921.10 0.1489105
921.20 0.1488546
921.30 0.1487986
921.40 0.1487428
921.50 0.1486869
921.60 0.148631
921.70 0.1485752
921.80 0.1485194
921.90 0.1484636
922.00 0.1484078
922.10 0.1483521
922.20 0.1482963
922.30 0.1482406
922.40 0.1481849
922.50 0.1481293
922.60 0.1480736
922.70 0.148018
922.80 0.1479624
922.90 0.1479068
923.00 0.1478512
923.10 0.1477957
923.20 0.1477402
923.30 0.1476847
923.40 0.1476292
923.50 0.1475737
923.60 0.1475183
923.70 0.1474628
923.80 0.1474074
923.90 0.1473521
924.00 0.1472967
924.10 0.1472414
924.20 0.147186
924.30 0.1471308
924.40 0.1470756
924.50 0.1470213
924.60 0.1469669
924.70 0.1469126
924.80 0.1468582
924.90 0.1468039
925.00 0.1467497
925.10 0.1466954
925.20 0.1466412
925.30 0.1465869
925.40 0.1465327
925.50 0.1464786
925.60 0.1464244
925.70 0.1463703
925.80 0.1463161
925.90 0.146262
926.00 0.146208
926.10 0.1461539
926.20 0.1460999
926.30 0.1460459
926.40 0.1459919
926.50 0.1459379
926.60 0.1458839
926.70 0.14583
926.80 0.1457761
926.90 0.1457222
927.00 0.1456683
927.10 0.1456144
927.20 0.1455606
927.30 0.1455068
927.40 0.145453
927.50 0.1453992
927.60 0.1453454
927.70 0.1452917
927.80 0.1452379
927.90 0.1451842
928.00 0.1451306
928.10 0.1450769
928.20 0.1450233
928.30 0.1449696
928.40 0.144916
928.50 0.1448625
928.60 0.1448089
928.70 0.1447553
928.80 0.1447018
928.90 0.1446483
929.00 0.1445948
929.10 0.1445414
929.20 0.1444879
929.30 0.1444345
929.40 0.1443811
929.50 0.1443277
929.60 0.1442743
929.70 0.144221
929.80 0.1441677
929.90 0.1441144
930.00 0.1440611
930.10 0.1440078
930.20 0.1439545
930.30 0.1439013
930.40 0.1438481
930.50 0.1437949
930.60 0.1437417
930.70 0.1436886
930.80 0.1436355
930.90 0.1435824
931.00 0.1435293
931.10 0.1434762
931.20 0.1434231
931.30 0.1433701
931.40 0.1433171
931.50 0.1432641
931.60 0.1432111
931.70 0.1431582
931.80 0.1431052
931.90 0.1430523
932.00 0.1429994
932.10 0.1429465
932.20 0.1428937
932.30 0.1428408
932.40 0.142788
932.50 0.1427352
932.60 0.1426824
932.70 0.1426297
932.80 0.1425769
932.90 0.1425242
933.00 0.1424715
933.10 0.1424188
933.20 0.1423661
933.30 0.1423135
933.40 0.1422609
933.50 0.1422083
933.60 0.1421557
933.70 0.1421033
933.80 0.1420509
933.90 0.1419986
934.00 0.1419463
934.10 0.141894
934.20 0.1418418
934.30 0.1417895
934.40 0.1417373
934.50 0.1416851
934.60 0.141633
934.70 0.1415808
934.80 0.1415287
934.90 0.1414765
935.00 0.1414244
935.10 0.1413723
935.20 0.1413203
935.30 0.1412682
935.40 0.1412162
935.50 0.1411642
935.60 0.1411122
935.70 0.1410602
935.80 0.1410083
935.90 0.1409564
936.00 0.1409044
936.10 0.1408525
936.20 0.1408007
936.30 0.1407488
936.40 0.140697
936.50 0.1406452
936.60 0.1405934
936.70 0.1405416
936.80 0.1404898
936.90 0.1404381
937.00 0.1403864
937.10 0.1403346
937.20 0.140283
937.30 0.1402313
937.40 0.1401796
937.50 0.140128
937.60 0.1400764
937.70 0.1400248
937.80 0.1399732
937.90 0.1399217
938.00 0.1398702
938.10 0.1398186
938.20 0.1397671
938.30 0.1397157
938.40 0.1396642
938.50 0.1396128
938.60 0.1395613
938.70 0.1395099
938.80 0.1394585
938.90 0.1394072
939.00 0.1393558
939.10 0.1393045
939.20 0.1392532
939.30 0.1392019
939.40 0.1391506
939.50 0.1390994
939.60 0.1390481
939.70 0.1389969
939.80 0.1389457
939.90 0.1388945
940.00 0.1388434
940.10 0.1387922
940.20 0.1387411
940.30 0.13869
940.40 0.1386389
940.50 0.1385879
940.60 0.1385368
940.70 0.1384858
940.80 0.1384348
940.90 0.1383838
941.00 0.1383328
941.10 0.1382818
941.20 0.1382309
941.30 0.13818
941.40 0.1381291
941.50 0.1380782
941.60 0.1380273
941.70 0.1379765
941.80 0.1379257
941.90 0.1378749
942.00 0.1378241
942.10 0.1377733
942.20 0.1377225
942.30 0.1376718
942.40 0.1376211
942.50 0.1375704
942.60 0.1375197
942.70 0.137469
942.80 0.1374184
942.90 0.1373678
943.00 0.1373175
943.10 0.1372677
943.20 0.137218
943.30 0.1371682
943.40 0.1371185
943.50 0.1370688
943.60 0.1370192
943.70 0.1369695
943.80 0.1369199
943.90 0.1368702
944.00 0.1368206
944.10 0.136771
944.20 0.1367215
944.30 0.1366719
944.40 0.1366224
944.50 0.1365729
944.60 0.1365234
944.70 0.1364739
944.80 0.1364244
944.90 0.136375
945.00 0.1363256
945.10 0.1362762
945.20 0.1362268
945.30 0.1361774
945.40 0.136128
945.50 0.1360787
945.60 0.1360294
945.70 0.1359801
945.80 0.1359308
945.90 0.1358815
946.00 0.1358323
946.10 0.1357831
946.20 0.1357339
946.30 0.1356847
946.40 0.1356355
946.50 0.1355863
946.60 0.1355372
946.70 0.1354881
946.80 0.135439
946.90 0.1353899
947.00 0.1353408
947.10 0.1352918
947.20 0.1352427
947.30 0.1351937
947.40 0.1351447
947.50 0.1350957
947.60 0.1350468
947.70 0.1349978
947.80 0.1349489
947.90 0.1349
948.00 0.1348511
948.10 0.1348022
948.20 0.1347533
948.30 0.1347045
948.40 0.1346557
948.50 0.1346069
948.60 0.1345581
948.70 0.1345093
948.80 0.1344606
948.90 0.1344118
949.00 0.1343631
949.10 0.1343144
949.20 0.1342657
949.30 0.1342171
949.40 0.1341684
949.50 0.1341198
949.60 0.1340712
949.70 0.1340226
949.80 0.133974
949.90 0.1339255
950.00 0.1338769
950.10 0.1338284
950.20 0.1337799
950.30 0.1337314
950.40 0.1336829
950.50 0.1336345
950.60 0.133586
950.70 0.1335376
950.80 0.1334892
950.90 0.1334408
951.00 0.1333924
951.10 0.1333441
951.20 0.1332958
951.30 0.1332475
951.40 0.1331992
951.50 0.1331509
951.60 0.1331026
951.70 0.1330544
951.80 0.1330061
951.90 0.1329579
952.00 0.1329097
952.10 0.1328616
952.20 0.1328134
952.30 0.1327652
952.40 0.1327171
952.50 0.1326686
952.60 0.1326201
952.70 0.1325717
952.80 0.1325232
952.90 0.1324748
953.00 0.1324264
953.10 0.132378
953.20 0.1323296
953.30 0.1322812
953.40 0.1322329
953.50 0.1321846
953.60 0.1321363
953.70 0.132088
953.80 0.1320397
953.90 0.1319915
954.00 0.1319432
954.10 0.131895
954.20 0.1318468
954.30 0.1317986
954.40 0.1317505
954.50 0.1317023
954.60 0.1316542
954.70 0.1316061
954.80 0.131558
954.90 0.1315099
955.00 0.1314618
955.10 0.1314138
955.20 0.1313657
955.30 0.1313177
955.40 0.1312697
955.50 0.1312218
955.60 0.1311738
955.70 0.1311258
955.80 0.1310779
955.90 0.13103
956.00 0.1309821
956.10 0.1309342
956.20 0.1308864
956.30 0.1308385
956.40 0.1307907
956.50 0.1307429
956.60 0.1306951
956.70 0.1306474
956.80 0.1305996
956.90 0.1305519
957.00 0.1305041
957.10 0.1304564
957.20 0.130409
957.30 0.1303619
957.40 0.1303149
957.50 0.1302678
957.60 0.1302208
957.70 0.1301738
957.80 0.1301268
957.90 0.1300798
958.00 0.1300328
958.10 0.1299859
958.20 0.1299389
958.30 0.129892
958.40 0.1298451
958.50 0.1297982
958.60 0.1297514
958.70 0.1297045
958.80 0.1296577
958.90 0.1296109
959.00 0.1295641
959.10 0.1295173
959.20 0.1294705
959.30 0.1294238
959.40 0.129377
959.50 0.1293303
959.60 0.1292836
959.70 0.1292369
959.80 0.1291903
959.90 0.1291436
960.00 0.129097
960.10 0.1290504
960.20 0.1290038
960.30 0.1289572
960.40 0.1289106
960.50 0.1288641
960.60 0.1288175
960.70 0.128771
960.80 0.1287245
960.90 0.128678
961.00 0.1286315
961.10 0.1285851
961.20 0.1285387
961.30 0.1284922
961.40 0.1284458
961.50 0.1283995
961.60 0.1283531
961.70 0.1283067
961.80 0.1282604
961.90 0.1282141
962.00 0.1281682
962.10 0.1281224
962.20 0.1280766
962.30 0.1280308
962.40 0.1279851
962.50 0.1279393
962.60 0.1278936
962.70 0.1278479
962.80 0.1278022
962.90 0.1277565
963.00 0.1277108
963.10 0.1276652
963.20 0.1276196
963.30 0.127574
963.40 0.1275284
963.50 0.1274828
963.60 0.1274372
963.70 0.1273917
963.80 0.1273462
963.90 0.1273006
964.00 0.1272551
964.10 0.1272097
964.20 0.1271642
964.30 0.1271187
964.40 0.1270733
964.50 0.1270279
964.60 0.1269825
964.70 0.1269371
964.80 0.1268917
964.90 0.1268464
965.00 0.126801
965.10 0.1267557
965.20 0.1267104
965.30 0.1266651
965.40 0.1266199
965.50 0.1265746
965.60 0.1265294
965.70 0.1264841
965.80 0.1264389
965.90 0.1263937
966.00 0.1263486
966.10 0.1263034
966.20 0.1262582
966.30 0.1262131
966.40 0.126168
966.50 0.1261229
966.60 0.1260778
966.70 0.1260328
966.80 0.1259877
966.90 0.1259427
967.00 0.1258977
967.10 0.1258527
967.20 0.1258077
967.30 0.1257627
967.40 0.1257178
967.50 0.1256728
967.60 0.1256279
967.70 0.125583
967.80 0.1255381
967.90 0.1254932
968.00 0.1254484
968.10 0.1254035
968.20 0.1253587
968.30 0.1253139
968.40 0.1252691
968.50 0.1252243
968.60 0.1251795
968.70 0.1251348
968.80 0.1250901
968.90 0.1250454
969.00 0.1250007
969.10 0.124956
969.20 0.1249113
969.30 0.1248666
969.40 0.124822
969.50 0.1247774
969.60 0.1247328
969.70 0.1246882
969.80 0.1246436
969.90 0.1245991
970.00 0.1245545
970.10 0.12451
970.20 0.1244655
970.30 0.124421
970.40 0.1243765
970.50 0.124332
970.60 0.1242876
970.70 0.1242432
970.80 0.1241987
970.90 0.1241543
971.00 0.12411
971.10 0.1240656
971.20 0.1240212
971.30 0.1239769
971.40 0.1239326
971.50 0.1238883
971.60 0.1238441
971.70 0.1238
971.80 0.1237559
971.90 0.1237119
972.00 0.1236678
972.10 0.1236238
972.20 0.1235798
972.30 0.1235358
972.40 0.1234918
972.50 0.1234478
972.60 0.1234039
972.70 0.12336
972.80 0.123316
972.90 0.1232721
973.00 0.1232282
973.10 0.1231844
973.20 0.1231405
973.30 0.1230967
973.40 0.1230528
973.50 0.123009
973.60 0.1229652
973.70 0.1229214
973.80 0.1228777
973.90 0.1228339
974.00 0.1227902
974.10 0.1227465
974.20 0.1227028
974.30 0.1226591
974.40 0.1226154
974.50 0.1225717
974.60 0.1225281
974.70 0.1224845
974.80 0.1224409
974.90 0.1223973
975.00 0.1223537
975.10 0.1223101
975.20 0.1222666
975.30 0.122223
975.40 0.1221795
975.50 0.122136
975.60 0.1220925
975.70 0.122049
975.80 0.1220056
975.90 0.1219621
976.00 0.1219187
976.10 0.1218753
976.20 0.1218319
976.30 0.1217885
976.40 0.1217451
976.50 0.1217018
976.60 0.1216585
976.70 0.1216151
976.80 0.1215718
976.90 0.1215285
977.00 0.1214853
977.10 0.121442
977.20 0.1213987
977.30 0.1213555
977.40 0.1213123
977.50 0.1212691
977.60 0.1212259
977.70 0.1211827
977.80 0.1211396
977.90 0.1210964
978.00 0.1210533
978.10 0.1210102
978.20 0.1209671
978.30 0.120924
978.40 0.120881
978.50 0.1208379
978.60 0.1207949
978.70 0.1207519
978.80 0.1207089
978.90 0.1206659
979.00 0.1206229
979.10 0.1205799
979.20 0.120537
979.30 0.1204941
979.40 0.1204511
979.50 0.1204082
979.60 0.1203654
979.70 0.1203225
979.80 0.1202796
979.90 0.1202368
980.00 0.120194
980.10 0.1201512
980.20 0.1201084
980.30 0.1200656
980.40 0.1200228
980.50 0.1199801
980.60 0.1199373
980.70 0.1198946
980.80 0.1198519
980.90 0.1198092
981.00 0.1197665
981.10 0.1197239
981.20 0.1196812
981.30 0.1196387
981.40 0.1195963
981.50 0.1195538
981.60 0.1195114
981.70 0.119469
981.80 0.1194267
981.90 0.1193843
982.00 0.119342
982.10 0.1192996
982.20 0.1192573
982.30 0.119215
982.40 0.1191727
982.50 0.1191305
982.60 0.1190882
982.70 0.119046
982.80 0.1190037
982.90 0.1189615
983.00 0.1189193
983.10 0.1188771
983.20 0.118835
983.30 0.1187928
983.40 0.1187507
983.50 0.1187086
983.60 0.1186665
983.70 0.1186244
983.80 0.1185823
983.90 0.1185402
984.00 0.1184982
984.10 0.1184561
984.20 0.1184141
984.30 0.1183721
984.40 0.1183301
984.50 0.1182881
984.60 0.1182462
984.70 0.1182042
984.80 0.1181623
984.90 0.1181204
985.00 0.1180785
985.10 0.1180366
985.20 0.1179947
985.30 0.1179528
985.40 0.117911
985.50 0.1178692
985.60 0.1178273
985.70 0.1177855
985.80 0.1177437
985.90 0.117702
986.00 0.1176602
986.10 0.1176185
986.20 0.1175767
986.30 0.117535
986.40 0.1174933
986.50 0.1174516
986.60 0.11741
986.70 0.1173683
986.80 0.1173267
986.90 0.117285
987.00 0.1172434
987.10 0.1172018
987.20 0.1171602
987.30 0.1171187
987.40 0.1170771
987.50 0.1170356
987.60 0.116994
987.70 0.1169525
987.80 0.116911
987.90 0.1168695
988.00 0.1168281
988.10 0.1167866
988.20 0.1167452
988.30 0.1167037
988.40 0.1166623
988.50 0.1166209
988.60 0.1165796
988.70 0.1165382
988.80 0.1164968
988.90 0.1164555
989.00 0.1164142
989.10 0.1163729
989.20 0.1163316
989.30 0.1162903
989.40 0.116249
989.50 0.1162077
989.60 0.1161665
989.70 0.1161253
989.80 0.1160841
989.90 0.1160429
990.00 0.1160017
990.10 0.1159605
990.20 0.1159194
990.30 0.1158782
990.40 0.1158371
990.50 0.115796
990.60 0.1157549
990.70 0.1157138
990.80 0.1156727
990.90 0.1156317
991.00 0.1155906
991.10 0.1155498
991.20 0.1155092
991.30 0.1154686
991.40 0.1154281
991.50 0.1153875
991.60 0.115347
991.70 0.1153065
991.80 0.115266
991.90 0.1152255
992.00 0.1151851
992.10 0.1151446
992.20 0.1151042
992.30 0.1150638
992.40 0.1150234
992.50 0.114983
992.60 0.1149426
992.70 0.1149022
992.80 0.1148619
992.90 0.1148215
993.00 0.1147812
993.10 0.1147409
993.20 0.1147006
993.30 0.1146603
993.40 0.11462
993.50 0.1145798
993.60 0.1145395
993.70 0.1144993
993.80 0.1144591
993.90 0.1144189
994.00 0.1143787
994.10 0.1143385
994.20 0.1142984
994.30 0.1142582
994.40 0.1142181
994.50 0.114178
994.60 0.1141379
994.70 0.1140978
994.80 0.1140577
994.90 0.1140176
995.00 0.1139776
995.10 0.1139375
995.20 0.1138975
995.30 0.1138575
995.40 0.1138175
995.50 0.1137775
995.60 0.1137376
995.70 0.1136976
995.80 0.1136577
995.90 0.1136178
996.00 0.1135778
996.10 0.1135384
996.20 0.113499
996.30 0.1134597
996.40 0.1134203
996.50 0.113381
996.60 0.1133417
996.70 0.1133024
996.80 0.1132631
996.90 0.1132239
997.00 0.1131846
997.10 0.1131454
997.20 0.1131061
997.30 0.1130669
997.40 0.1130277
997.50 0.1129885
997.60 0.1129494
997.70 0.1129102
997.80 0.112871
997.90 0.1128319
998.00 0.1127928
998.10 0.1127537
998.20 0.1127146
998.30 0.1126755
998.40 0.1126364
998.50 0.1125974
998.60 0.1125584
998.70 0.1125193
998.80 0.1124803
998.90 0.1124413
999.00 0.1124023
999.10 0.1123634
999.20 0.1123244
999.30 0.1122854
999.40 0.1122465
999.50 0.1122076
999.60 0.1121687
999.70 0.1121298
999.80 0.1120909
999.90 0.112052
1000.00 0.1120132
1000.10 0.1119744
1000.20 0.1119355
1000.30 0.1118967
1000.40 0.1118579
1000.50 0.1118191
1000.60 0.1117804
1000.70 0.1117416
1000.80 0.1117028
1000.90 0.1116641
1001.00 0.1116253
1001.10 0.1115863
1001.20 0.1115472
1001.30 0.1115082
1001.40 0.1114692
1001.50 0.1114302
1001.60 0.1113912
1001.70 0.1113522
1001.80 0.1113132
1001.90 0.1112743
1002.00 0.1112354
1002.10 0.1111964
1002.20 0.1111575
1002.30 0.1111186
1002.40 0.1110798
1002.50 0.1110409
1002.60 0.111002
1002.70 0.1109632
1002.80 0.1109244
1002.90 0.1108856
1003.00 0.1108468
1003.10 0.110808
1003.20 0.1107692
1003.30 0.1107304
1003.40 0.1106917
1003.50 0.1106529
1003.60 0.1106142
1003.70 0.1105755
1003.80 0.1105368
1003.90 0.1104981
1004.00 0.1104595
1004.10 0.1104208
1004.20 0.1103822
1004.30 0.1103435
1004.40 0.1103049
1004.50 0.1102663
1004.60 0.1102277
1004.70 0.1101892
1004.80 0.1101506
1004.90 0.110112
1005.00 0.1100735
1005.10 0.110035
1005.20 0.1099965
1005.30 0.109958
1005.40 0.1099195
1005.50 0.109881
1005.60 0.1098426
1005.70 0.1098041
1005.80 0.1097657
1005.90 0.1097273
1006.00 0.109689
1006.10 0.1096511
1006.20 0.1096132
1006.30 0.1095753
1006.40 0.1095375
1006.50 0.1094996
1006.60 0.1094618
1006.70 0.109424
1006.80 0.1093862
1006.90 0.1093484
1007.00 0.1093106
1007.10 0.1092729
1007.20 0.1092351
1007.30 0.1091974
1007.40 0.1091596
1007.50 0.1091219
1007.60 0.1090842
1007.70 0.1090465
1007.80 0.1090089
1007.90 0.1089712
1008.00 0.1089336
1008.10 0.1088959
1008.20 0.1088583
1008.30 0.1088207
1008.40 0.1087831
1008.50 0.1087455
1008.60 0.1087079
1008.70 0.1086704
1008.80 0.1086328
1008.90 0.1085953
1009.00 0.1085578
1009.10 0.1085203
1009.20 0.1084828
1009.30 0.1084453
1009.40 0.1084078
1009.50 0.1083704
1009.60 0.1083329
1009.70 0.1082955
1009.80 0.1082581
1009.90 0.1082207
1010.00 0.1081833
1010.10 0.1081459
1010.20 0.1081085
1010.30 0.1080712
1010.40 0.1080338
1010.50 0.1079965
1010.60 0.1079592
1010.70 0.1079219
1010.80 0.1078846
1010.90 0.1078473
1011.00 0.10781
1011.10 0.1077729
1011.20 0.1077359
1011.30 0.1076988
1011.40 0.1076617
1011.50 0.1076247
1011.60 0.1075877
1011.70 0.1075506
1011.80 0.1075136
1011.90 0.1074766
1012.00 0.1074397
1012.10 0.1074027
1012.20 0.1073657
1012.30 0.1073288
1012.40 0.1072919
1012.50 0.1072549
1012.60 0.107218
1012.70 0.1071811
1012.80 0.1071443
1012.90 0.1071074
1013.00 0.1070705
1013.10 0.1070337
1013.20 0.1069969
1013.30 0.10696
1013.40 0.1069232
1013.50 0.1068864
1013.60 0.1068497
1013.70 0.1068129
1013.80 0.1067761
1013.90 0.1067394
1014.00 0.1067027
1014.10 0.1066659
1014.20 0.1066292
1014.30 0.1065925
1014.40 0.1065559
1014.50 0.1065192
1014.60 0.1064825
1014.70 0.1064459
1014.80 0.1064093
1014.90 0.1063726
1015.00 0.106336
1015.10 0.1062994
1015.20 0.1062628
1015.30 0.1062263
1015.40 0.1061897
1015.50 0.1061532
1015.60 0.1061166
1015.70 0.1060801
1015.80 0.1060436
1015.90 0.1060071
1016.00 0.1059706
1016.10 0.1059342
1016.20 0.1058977
1016.30 0.1058612
1016.40 0.1058248
1016.50 0.1057884
1016.60 0.105752
1016.70 0.1057156
1016.80 0.1056792
1016.90 0.1056428
1017.00 0.1056065
1017.10 0.1055701
1017.20 0.1055338
1017.30 0.1054974
1017.40 0.1054611
1017.50 0.1054248
1017.60 0.1053885
1017.70 0.1053523
1017.80 0.105316
1017.90 0.1052798
1018.00 0.1052435
1018.10 0.1052073
1018.20 0.1051711
1018.30 0.1051349
1018.40 0.1050987
1018.50 0.1050625
1018.60 0.1050263
1018.70 0.1049902
1018.80 0.104954
1018.90 0.1049179
1019.00 0.1048818
1019.10 0.1048457
1019.20 0.1048096
1019.30 0.1047735
1019.40 0.1047374
1019.50 0.1047014
1019.60 0.1046653
1019.70 0.1046293
1019.80 0.1045933
1019.90 0.1045573
1020.00 0.1045213
1020.10 0.1044853
1020.20 0.1044493
1020.30 0.1044134
1020.40 0.1043774
1020.50 0.1043415
1020.60 0.1043056
1020.70 0.1042696
1020.80 0.1042337
1020.90 0.1041979
1021.00 0.104162
1021.10 0.1041261
1021.20 0.1040904
1021.30 0.1040548
1021.40 0.1040191
1021.50 0.1039834
1021.60 0.1039478
1021.70 0.1039121
1021.80 0.1038765
1021.90 0.1038409
1022.00 0.1038053
1022.10 0.1037697
1022.20 0.1037341
1022.30 0.1036986
1022.40 0.103663
1022.50 0.1036275
1022.60 0.1035919
1022.70 0.1035564
1022.80 0.1035209
1022.90 0.1034854
1023.00 0.1034499
1023.10 0.1034145
1023.20 0.103379
1023.30 0.1033436
1023.40 0.1033081
1023.50 0.1032727
1023.60 0.1032373
1023.70 0.1032019
1023.80 0.1031665
1023.90 0.1031311
1024.00 0.1030958
1024.10 0.1030604
1024.20 0.1030251
1024.30 0.1029898
1024.40 0.1029544
1024.50 0.1029191
1024.60 0.1028838
1024.70 0.1028486
1024.80 0.1028133
1024.90 0.102778
1025.00 0.1027428
1025.10 0.1027076
1025.20 0.1026723
1025.30 0.1026371
1025.40 0.1026019
1025.50 0.1025667
1025.60 0.1025316
1025.70 0.1024964
1025.80 0.1024613
1025.90 0.1024261
1026.00 0.102391
1026.10 0.1023559
1026.20 0.1023208
1026.30 0.1022857
1026.40 0.1022506
1026.50 0.1022155
1026.60 0.1021805
1026.70 0.1021454
1026.80 0.1021104
1026.90 0.1020754
1027.00 0.1020403
1027.10 0.1020053
1027.20 0.1019703
1027.30 0.1019354
1027.40 0.1019004
1027.50 0.1018654
1027.60 0.1018305
1027.70 0.1017956
1027.80 0.1017607
1027.90 0.1017257
1028.00 0.1016909
1028.10 0.101656
1028.20 0.1016211
1028.30 0.1015862
1028.40 0.1015514
1028.50 0.1015165
1028.60 0.1014817
1028.70 0.1014469
1028.80 0.1014121
1028.90 0.1013773
1029.00 0.1013425
1029.10 0.1013078
1029.20 0.101273
1029.30 0.1012383
1029.40 0.1012035
1029.50 0.1011688
1029.60 0.1011341
1029.70 0.1010994
1029.80 0.1010647
1029.90 0.10103
1030.00 0.1009954
1030.10 0.1009607
1030.20 0.1009261
1030.30 0.1008914
1030.40 0.1008568
1030.50 0.1008222
1030.60 0.1007876
1030.70 0.100753
1030.80 0.1007185
1030.90 0.1006839
1031.00 0.1006494
1031.10 0.1006148
1031.20 0.1005803
1031.30 0.1005458
1031.40 0.1005119
1031.50 0.100478
1031.60 0.1004441
1031.70 0.1004103
1031.80 0.1003764
1031.90 0.1003426
1032.00 0.1003088
1032.10 0.100275
1032.20 0.1002412
1032.30 0.1002074
1032.40 0.1001736
1032.50 0.1001399
1032.60 0.1001061
1032.70 0.1000724
1032.80 0.1000386
1032.90 0.1000049
1033.00 0.0999712
1033.10 0.09993751
1033.20 0.09990382
1033.30 0.09987015
1033.40 0.09983649
1033.50 0.09980283
1033.60 0.09976919
1033.70 0.09973556
1033.80 0.09970195
1033.90 0.09966834
1034.00 0.09963474
1034.10 0.09960116
1034.20 0.09956758
1034.30 0.09953402
1034.40 0.09950047
1034.50 0.09946693
1034.60 0.0994334
1034.70 0.09939988
1034.80 0.09936637
1034.90 0.09933288
1035.00 0.09929939
1035.10 0.09926592
1035.20 0.09923245
1035.30 0.099199
1035.40 0.09916556
1035.50 0.09913213
1035.60 0.09909871
1035.70 0.09906531
1035.80 0.09903191
1035.90 0.09899852
1036.00 0.09896515
1036.10 0.09893179
1036.20 0.09889843
1036.30 0.09886509
1036.40 0.09883176
1036.50 0.09879826
1036.60 0.09876449
1036.70 0.09873073
1036.80 0.09869698
1036.90 0.09866325
1037.00 0.09862952
1037.10 0.09859581
1037.20 0.0985621
1037.30 0.09852841
1037.40 0.09849473
1037.50 0.09846106
1037.60 0.0984274
1037.70 0.09839375
1037.80 0.09836012
1037.90 0.09832649
1038.00 0.09829288
1038.10 0.09825927
1038.20 0.09822568
1038.30 0.0981921
1038.40 0.09815853
1038.50 0.09812497
1038.60 0.09809142
1038.70 0.09805789
1038.80 0.09802436
1038.90 0.09799085
1039.00 0.09795734
1039.10 0.09792385
1039.20 0.09789037
1039.30 0.0978569
1039.40 0.09782344
1039.50 0.09778999
1039.60 0.09775656
1039.70 0.09772313
1039.80 0.09768972
1039.90 0.09765631
1040.00 0.09762292
1040.10 0.09758954
1040.20 0.09755617
1040.30 0.09752281
1040.40 0.09748946
1040.50 0.09745612
1040.60 0.09742279
1040.70 0.09738948
1040.80 0.09735617
1040.90 0.09732288
1041.00 0.0972896
1041.10 0.09725633
1041.20 0.09722307
1041.30 0.09718982
1041.40 0.09715658
1041.50 0.09712335
1041.60 0.09709013
1041.70 0.09705742
1041.80 0.09702482
1041.90 0.09699224
1042.00 0.09695966
1042.10 0.09692709
1042.20 0.09689454
1042.30 0.09686199
1042.40 0.09682946
1042.50 0.09679693
1042.60 0.09676442
1042.70 0.09673192
1042.80 0.09669942
1042.90 0.09666694
1043.00 0.09663447
1043.10 0.09660201
1043.20 0.09656956
1043.30 0.09653713
1043.40 0.0965047
1043.50 0.09647228
1043.60 0.09643987
1043.70 0.09640748
1043.80 0.09637509
1043.90 0.09634272
1044.00 0.09631035
1044.10 0.096278
1044.20 0.09624566
1044.30 0.09621333
1044.40 0.09618101
1044.50 0.09614869
1044.60 0.09611639
1044.70 0.0960841
1044.80 0.09605183
1044.90 0.09601956
1045.00 0.0959873
1045.10 0.09595505
1045.20 0.09592282
1045.30 0.09589059
1045.40 0.09585837
1045.50 0.09582617
1045.60 0.09579397
1045.70 0.09576179
1045.80 0.09572962
1045.90 0.09569746
1046.00 0.0956653
1046.10 0.09563316
1046.20 0.09560103
1046.30 0.09556891
1046.40 0.0955368
1046.50 0.0955047
1046.60 0.09547261
1046.70 0.09544053
1046.80 0.09540847
1046.90 0.09537641
1047.00 0.09534436
1047.10 0.09531232
1047.20 0.0952803
1047.30 0.09524828
1047.40 0.09521628
1047.50 0.09518428
1047.60 0.0951523
1047.70 0.09512033
1047.80 0.09508836
1047.90 0.09505641
1048.00 0.09502447
1048.10 0.09499254
1048.20 0.09496062
1048.30 0.09492871
1048.40 0.09489681
1048.50 0.09486492
1048.60 0.09483304
1048.70 0.09480117
1048.80 0.09476931
1048.90 0.09473746
1049.00 0.09470562
1049.10 0.0946738
1049.20 0.09464198
1049.30 0.09461017
1049.40 0.09457838
1049.50 0.09454659
1049.60 0.09451482
1049.70 0.09448305
1049.80 0.0944513
1049.90 0.09441955
1050.00 0.09438782
1050.10 0.0943561
1050.20 0.09432438
1050.30 0.09429268
1050.40 0.09426099
1050.50 0.09422931
1050.60 0.09419764
1050.70 0.09416597
1050.80 0.09413432
1050.90 0.09410268
1051.00 0.09407105
1051.10 0.09403943
1051.20 0.09400782
1051.30 0.09397622
1051.40 0.09394464
1051.50 0.09391306
1051.60 0.09388149
1051.70 0.09384993
1051.80 0.09381838
1051.90 0.09378685
1052.00 0.09375532
1052.10 0.09372404
1052.20 0.09369289
1052.30 0.09366175
1052.40 0.09363062
1052.50 0.0935995
1052.60 0.09356839
1052.70 0.09353729
1052.80 0.0935062
1052.90 0.09347512
1053.00 0.09344405
1053.10 0.09341299
1053.20 0.09338194
1053.30 0.0933509
1053.40 0.09331987
1053.50 0.09328885
1053.60 0.09325784
1053.70 0.09322684
1053.80 0.09319585
1053.90 0.09316487
1054.00 0.0931339
1054.10 0.09310294
1054.20 0.09307199
1054.30 0.09304105
1054.40 0.09301012
1054.50 0.09297921
1054.60 0.0929483
1054.70 0.0929174
1054.80 0.09288651
1054.90 0.09285563
1055.00 0.09282476
1055.10 0.0927939
1055.20 0.09276306
1055.30 0.09273222
1055.40 0.09270139
1055.50 0.09267057
1055.60 0.09263976
1055.70 0.09260896
1055.80 0.09257818
1055.90 0.0925474
1056.00 0.09251663
1056.10 0.09248587
1056.20 0.09245512
1056.30 0.09242438
1056.40 0.09239366
1056.50 0.09236294
1056.60 0.09233223
1056.70 0.09230153
1056.80 0.09227084
1056.90 0.09224016
1057.00 0.09220949
1057.10 0.09217884
1057.20 0.09214819
1057.30 0.09211755
1057.40 0.09208692
1057.50 0.0920563
1057.60 0.09202569
1057.70 0.09199509
1057.80 0.0919645
1057.90 0.09193392
1058.00 0.09190335
1058.10 0.0918728
1058.20 0.09184225
1058.30 0.09181171
1058.40 0.09178118
1058.50 0.09175066
1058.60 0.09172015
1058.70 0.09168965
1058.80 0.09165916
1058.90 0.09162868
1059.00 0.09159821
1059.10 0.09156775
1059.20 0.0915373
1059.30 0.09150685
1059.40 0.09147642
1059.50 0.091446
1059.60 0.09141559
1059.70 0.09138519
1059.80 0.0913548
1059.90 0.09132442
1060.00 0.09129405
1060.10 0.09126368
1060.20 0.09123333
1060.30 0.09120299
1060.40 0.09117266
1060.50 0.09114233
1060.60 0.09111202
1060.70 0.09108172
1060.80 0.09105143
1060.90 0.09102114
1061.00 0.09099087
1061.10 0.0909606
1061.20 0.09093035
1061.30 0.09090011
1061.40 0.09086987
1061.50 0.09083965
1061.60 0.09080943
1061.70 0.09077923
1061.80 0.09074903
1061.90 0.09071885
1062.00 0.09068867
1062.10 0.0906585
1062.20 0.09062835
1062.30 0.0905982
1062.40 0.09056806
1062.50 0.09053794
1062.60 0.09050778
1062.70 0.09047759
1062.80 0.09044741
1062.90 0.09041724
1063.00 0.09038708
1063.10 0.09035693
1063.20 0.09032678
1063.30 0.09029665
1063.40 0.09026653
1063.50 0.09023642
1063.60 0.09020631
1063.70 0.09017622
1063.80 0.09014614
1063.90 0.09011606
1064.00 0.090086
1064.10 0.09005595
1064.20 0.0900259
1064.30 0.08999587
1064.40 0.08996584
1064.50 0.08993583
1064.60 0.08990582
1064.70 0.08987582
1064.80 0.08984584
1064.90 0.08981586
1065.00 0.08978589
1065.10 0.08975594
1065.20 0.08972599
1065.30 0.08969605
1065.40 0.08966612
1065.50 0.0896362
1065.60 0.08960629
1065.70 0.08957639
1065.80 0.0895465
1065.90 0.08951662
1066.00 0.08948675
1066.10 0.08945689
1066.20 0.08942704
1066.30 0.0893972
1066.40 0.08936737
1066.50 0.08933754
1066.60 0.08930773
1066.70 0.08927793
1066.80 0.08924813
1066.90 0.08921835
1067.00 0.08918858
1067.10 0.08915881
1067.20 0.08912906
1067.30 0.08909931
1067.40 0.08906957
1067.50 0.08903985
1067.60 0.08901013
1067.70 0.08898042
1067.80 0.08895072
1067.90 0.08892117
1068.00 0.08889191
1068.10 0.08886266
1068.20 0.08883342
1068.30 0.08880419
1068.40 0.08877496
1068.50 0.08874575
1068.60 0.08871655
1068.70 0.08868735
1068.80 0.08865816
1068.90 0.08862899
1069.00 0.08859982
1069.10 0.08857066
1069.20 0.08854152
1069.30 0.08851238
1069.40 0.08848325
1069.50 0.08845413
1069.60 0.08842502
1069.70 0.08839591
1069.80 0.08836682
1069.90 0.08833774
1070.00 0.08830866
1070.10 0.0882796
1070.20 0.08825055
1070.30 0.0882215
1070.40 0.08819246
1070.50 0.08816344
1070.60 0.08813442
1070.70 0.08810541
1070.80 0.08807641
1070.90 0.08804742
1071.00 0.08801844
1071.10 0.08798947
1071.20 0.08796051
1071.30 0.08793156
1071.40 0.08790261
1071.50 0.08787368
1071.60 0.08784475
1071.70 0.08781584
1071.80 0.08778693
1071.90 0.08775803
1072.00 0.08772915
1072.10 0.08770027
1072.20 0.0876714
1072.30 0.08764254
1072.40 0.08761369
1072.50 0.08758485
1072.60 0.08755601
1072.70 0.08752719
1072.80 0.08749838
1072.90 0.08746957
1073.00 0.08744078
1073.10 0.08741199
1073.20 0.08738324
1073.30 0.0873546
1073.40 0.08732596
1073.50 0.08729734
1073.60 0.08726873
1073.70 0.08724012
1073.80 0.08721152
1073.90 0.08718294
1074.00 0.08715436
1074.10 0.08712579
1074.20 0.08709723
1074.30 0.08706868
1074.40 0.08704014
1074.50 0.0870116
1074.60 0.08698308
1074.70 0.08695457
1074.80 0.08692606
1074.90 0.08689756
1075.00 0.08686908
1075.10 0.0868406
1075.20 0.08681213
1075.30 0.08678367
1075.40 0.08675522
1075.50 0.08672678
1075.60 0.08669835
1075.70 0.08666992
1075.80 0.08664151
1075.90 0.0866131
1076.00 0.08658471
1076.10 0.08655632
1076.20 0.08652794
1076.30 0.08649957
1076.40 0.08647121
1076.50 0.08644286
1076.60 0.08641452
1076.70 0.08638619
1076.80 0.08635786
1076.90 0.08632955
1077.00 0.08630124
1077.10 0.08627294
1077.20 0.08624466
1077.30 0.08621638
1077.40 0.08618811
1077.50 0.08615985
1077.60 0.0861316
1077.70 0.08610335
1077.80 0.08607512
1077.90 0.08604689
1078.00 0.08601868
1078.10 0.08599047
1078.20 0.08596227
1078.30 0.08593409
1078.40 0.08590591
1078.50 0.08587774
1078.60 0.08584957
1078.70 0.08582142
1078.80 0.08579328
1078.90 0.08576514
1079.00 0.08573702
1079.10 0.0857089
1079.20 0.08568079
1079.30 0.08565269
1079.40 0.0856246
1079.50 0.08559652
1079.60 0.08556845
1079.70 0.08554038
1079.80 0.08551233
1079.90 0.08548428
1080.00 0.08545625
1080.10 0.08542822
1080.20 0.0854002
1080.30 0.08537219
1080.40 0.08534419
1080.50 0.0853162
1080.60 0.08528821
1080.70 0.08526024
1080.80 0.08523227
1080.90 0.08520432
1081.00 0.08517637
1081.10 0.08514843
1081.20 0.0851205
1081.30 0.08509258
1081.40 0.08506467
1081.50 0.08503676
1081.60 0.08500887
1081.70 0.08498098
1081.80 0.08495311
1081.90 0.08492524
1082.00 0.08489738
1082.10 0.08486953
1082.20 0.08484169
1082.30 0.08481386
1082.40 0.08478603
1082.50 0.08475822
1082.60 0.08473041
1082.70 0.08470262
1082.80 0.08467483
1082.90 0.08464705
1083.00 0.08461928
1083.10 0.08459152
1083.20 0.08456376
1083.30 0.08453602
1083.40 0.08450828
1083.50 0.08448056
1083.60 0.08445284
1083.70 0.08442513
1083.80 0.08439743
1083.90 0.08436974
1084.00 0.08434216
1084.10 0.08431461
1084.20 0.08428706
1084.30 0.08425953
1084.40 0.084232
1084.50 0.08420448
1084.60 0.08417697
1084.70 0.08414947
1084.80 0.08412198
1084.90 0.0840945
1085.00 0.08406702
1085.10 0.08403956
1085.20 0.0840121
1085.30 0.08398465
1085.40 0.08395721
1085.50 0.08392978
1085.60 0.08390236
1085.70 0.08387494
1085.80 0.08384754
1085.90 0.08382014
1086.00 0.08379275
1086.10 0.08376537
1086.20 0.083738
1086.30 0.08371064
1086.40 0.08368329
1086.50 0.08365594
1086.60 0.08362861
1086.70 0.08360128
1086.80 0.08357396
1086.90 0.08354665
1087.00 0.08351935
1087.10 0.08349205
1087.20 0.08346477
1087.30 0.08343749
1087.40 0.08341023
1087.50 0.08338297
1087.60 0.08335572
1087.70 0.08332848
1087.80 0.08330125
1087.90 0.08327402
1088.00 0.08324681
1088.10 0.0832196
1088.20 0.0831924
1088.30 0.08316521
1088.40 0.08313803
1088.50 0.08311086
1088.60 0.0830837
1088.70 0.08305654
1088.80 0.08302939
1088.90 0.08300226
1089.00 0.08297513
1089.10 0.08294801
1089.20 0.08292089
1089.30 0.08289379
1089.40 0.08286669
1089.50 0.0828396
1089.60 0.08281252
1089.70 0.08278545
1089.80 0.08275839
1089.90 0.08273133
1090.00 0.08270429
1090.10 0.08267725
1090.20 0.08265022
1090.30 0.0826232
1090.40 0.08259619
1090.50 0.08256918
1090.60 0.08254219
1090.70 0.0825152
1090.80 0.08248822
1090.90 0.08246125
1091.00 0.08243429
1091.10 0.08240734
1091.20 0.0823804
1091.30 0.08235346
1091.40 0.08232653
1091.50 0.08229962
1091.60 0.08227271
1091.70 0.0822458
1091.80 0.08221891
1091.90 0.08219203
1092.00 0.08216515
1092.10 0.08213828
1092.20 0.08211142
1092.30 0.08208457
1092.40 0.08205773
1092.50 0.0820309
1092.60 0.08200407
1092.70 0.08197725
1092.80 0.08195045
1092.90 0.08192365
1093.00 0.08189685
1093.10 0.08187007
1093.20 0.0818433
1093.30 0.08181653
1093.40 0.08178977
1093.50 0.08176302
1093.60 0.08173628
1093.70 0.08170955
1093.80 0.08168282
1093.90 0.08165611
1094.00 0.0816294
1094.10 0.0816027
1094.20 0.08157601
1094.30 0.08154933
1094.40 0.08152265
1094.50 0.08149599
1094.60 0.08146933
1094.70 0.08144268
1094.80 0.08141629
1094.90 0.08139017
1095.00 0.08136405
1095.10 0.08133794
1095.20 0.08131184
1095.30 0.08128575
1095.40 0.08125966
1095.50 0.08123359
1095.60 0.08120752
1095.70 0.08118146
1095.80 0.0811554
1095.90 0.08112936
1096.00 0.08110332
1096.10 0.0810773
1096.20 0.08105128
1096.30 0.08102527
1096.40 0.08099926
1096.50 0.08097327
1096.60 0.08094728
1096.70 0.0809213
1096.80 0.08089533
1096.90 0.08086937
1097.00 0.08084341
1097.10 0.08081747
1097.20 0.08079153
1097.30 0.0807656
1097.40 0.08073968
1097.50 0.08071376
1097.60 0.08068786
1097.70 0.08066196
1097.80 0.08063607
1097.90 0.08061019
1098.00 0.08058431
1098.10 0.08055845
1098.20 0.08053259
1098.30 0.08050674
1098.40 0.0804809
1098.50 0.08045507
1098.60 0.08042924
1098.70 0.08040342
1098.80 0.08037762
1098.90 0.08035181
1099.00 0.08032602
1099.10 0.08030024
1099.20 0.08027446
1099.30 0.08024869
1099.40 0.08022293
1099.50 0.08019718
1099.60 0.08017143
1099.70 0.0801457
1099.80 0.08011997
1099.90 0.08009425
1100.00 0.08006854
1100.10 0.08004283
1100.20 0.08001713
1100.30 0.07999145
1100.40 0.07996577
1100.50 0.07994009
1100.60 0.07991443
1100.70 0.07988877
1100.80 0.07986313
1100.90 0.07983748
1101.00 0.07981185
1101.10 0.07978623
1101.20 0.07976061
1101.30 0.079735
1101.40 0.0797094
1101.50 0.07968381
1101.60 0.07965823
1101.70 0.07963265
1101.80 0.07960708
1101.90 0.07958152
1102.00 0.07955597
1102.10 0.07953042
1102.20 0.07950489
1102.30 0.07947936
1102.40 0.07945384
1102.50 0.07942833
1102.60 0.07940282
1102.70 0.07937732
1102.80 0.07935184
1102.90 0.07932635
1103.00 0.07930088
1103.10 0.07927542
1103.20 0.07924996
1103.30 0.07922451
1103.40 0.07919907
1103.50 0.07917364
1103.60 0.07914821
1103.70 0.07912279
1103.80 0.07909738
1103.90 0.07907198
1104.00 0.07904659
1104.10 0.0790212
1104.20 0.07899582
1104.30 0.07897045
1104.40 0.07894509
1104.50 0.07891974
1104.60 0.07889439
1104.70 0.07886905
1104.80 0.07884372
1104.90 0.0788184
1105.00 0.07879308
1105.10 0.07876778
1105.20 0.07874248
1105.30 0.07871719
1105.40 0.0786919
1105.50 0.07866663
1105.60 0.07864136
1105.70 0.0786161
1105.80 0.07859096
1105.90 0.07856582
1106.00 0.07854069
1106.10 0.07851558
1106.20 0.07849046
1106.30 0.07846536
1106.40 0.07844026
1106.50 0.07841517
1106.60 0.07839009
1106.70 0.07836502
1106.80 0.07833995
1106.90 0.0783149
1107.00 0.07828985
1107.10 0.07826481
1107.20 0.07823977
1107.30 0.07821474
1107.40 0.07818973
1107.50 0.07816471
1107.60 0.07813971
1107.70 0.07811472
1107.80 0.07808973
1107.90 0.07806475
1108.00 0.07803978
1108.10 0.07801481
1108.20 0.07798986
1108.30 0.07796491
1108.40 0.07793997
1108.50 0.07791503
1108.60 0.07789011
1108.70 0.07786519
1108.80 0.07784028
1108.90 0.07781538
1109.00 0.07779048
1109.10 0.07776559
1109.20 0.07774071
1109.30 0.07771584
1109.40 0.07769098
1109.50 0.07766612
1109.60 0.07764127
1109.70 0.07761643
1109.80 0.0775916
1109.90 0.07756677
1110.00 0.07754196
1110.10 0.07751714
1110.20 0.07749234
1110.30 0.07746755
1110.40 0.07744276
1110.50 0.07741798
1110.60 0.07739321
1110.70 0.07736844
1110.80 0.07734369
1110.90 0.07731894
1111.00 0.0772942
1111.10 0.07726946
1111.20 0.07724474
1111.30 0.07722002
1111.40 0.07719531
1111.50 0.07717061
1111.60 0.07714591
1111.70 0.07712122
1111.80 0.07709654
1111.90 0.07707187
1112.00 0.07704721
1112.10 0.07702255
1112.20 0.0769979
1112.30 0.07697326
1112.40 0.07694862
1112.50 0.076924
1112.60 0.07689938
1112.70 0.07687477
1112.80 0.07685016
1112.90 0.07682557
1113.00 0.07680098
1113.10 0.0767764
1113.20 0.07675182
1113.30 0.07672726
1113.40 0.0767027
1113.50 0.07667815
1113.60 0.07665361
1113.70 0.07662907
1113.80 0.07660454
1113.90 0.07658002
1114.00 0.07655551
1114.10 0.076531
1114.20 0.07650651
1114.30 0.07648202
1114.40 0.07645753
1114.50 0.07643306
1114.60 0.07640859
1114.70 0.07638413
1114.80 0.07635968
1114.90 0.07633523
1115.00 0.0763108
1115.10 0.07628637
1115.20 0.07626194
1115.30 0.07623753
1115.40 0.07621312
1115.50 0.07618872
1115.60 0.07616433
1115.70 0.07613995
1115.80 0.07611557
1115.90 0.0760912
1116.00 0.07606684
1116.10 0.07604248
1116.20 0.07601814
1116.30 0.0759938
1116.40 0.07596946
1116.50 0.07594514
1116.60 0.07592082
1116.70 0.07589651
1116.80 0.07587226
1116.90 0.07584807
1117.00 0.07582389
1117.10 0.07579972
1117.20 0.07577555
1117.30 0.07575139
1117.40 0.07572724
1117.50 0.0757031
1117.60 0.07567896
1117.70 0.07565483
1117.80 0.07563071
1117.90 0.0756066
1118.00 0.07558249
1118.10 0.07555839
1118.20 0.0755343
1118.30 0.07551022
1118.40 0.07548614
1118.50 0.07546207
1118.60 0.07543801
1118.70 0.07541395
1118.80 0.07538991
1118.90 0.07536587
1119.00 0.07534184
1119.10 0.07531781
1119.20 0.07529379
1119.30 0.07526978
1119.40 0.07524578
1119.50 0.07522178
1119.60 0.0751978
1119.70 0.07517382
1119.80 0.07514984
1119.90 0.07512588
1120.00 0.07510192
1120.10 0.07507797
1120.20 0.07505402
1120.30 0.07503009
1120.40 0.07500616
1120.50 0.07498223
1120.60 0.07495832
1120.70 0.07493441
1120.80 0.07491051
1120.90 0.07488662
1121.00 0.07486273
1121.10 0.07483886
1121.20 0.07481499
1121.30 0.07479112
1121.40 0.07476727
1121.50 0.07474342
1121.60 0.07471958
1121.70 0.07469574
1121.80 0.07467192
1121.90 0.0746481
1122.00 0.07462429
1122.10 0.07460048
1122.20 0.07457668
1122.30 0.07455289
1122.40 0.07452911
1122.50 0.07450533
1122.60 0.07448156
1122.70 0.0744578
1122.80 0.07443404
1122.90 0.0744103
1123.00 0.07438655
1123.10 0.07436282
1123.20 0.07433909
1123.30 0.07431537
1123.40 0.07429166
1123.50 0.07426796
1123.60 0.07424426
1123.70 0.07422057
1123.80 0.07419689
1123.90 0.07417321
1124.00 0.07414954
1124.10 0.07412588
1124.20 0.07410223
1124.30 0.07407858
1124.40 0.07405494
1124.50 0.07403131
1124.60 0.07400769
1124.70 0.07398407
1124.80 0.07396046
1124.90 0.07393685
1125.00 0.07391326
1125.10 0.07388967
1125.20 0.07386609
1125.30 0.07384251
1125.40 0.07381895
1125.50 0.07379539
1125.60 0.07377183
1125.70 0.07374829
1125.80 0.07372475
1125.90 0.07370122
1126.00 0.07367769
1126.10 0.07365418
1126.20 0.07363067
1126.30 0.07360717
1126.40 0.07358367
1126.50 0.07356018
1126.60 0.0735367
1126.70 0.07351323
1126.80 0.07348976
1126.90 0.0734663
1127.00 0.07344285
1127.10 0.07341941
1127.20 0.07339597
1127.30 0.07337254
1127.40 0.07334911
1127.50 0.0733257
1127.60 0.07330229
1127.70 0.07327889
1127.80 0.07325549
1127.90 0.0732321
1128.00 0.07320894
1128.10 0.07318585
1128.20 0.07316277
1128.30 0.07313969
1128.40 0.07311662
1128.50 0.07309356
1128.60 0.0730705
1128.70 0.07304745
1128.80 0.07302441
1128.90 0.07300138
1129.00 0.07297835
1129.10 0.07295533
1129.20 0.07293231
1129.30 0.07290931
1129.40 0.07288631
1129.50 0.07286332
1129.60 0.07284033
1129.70 0.07281735
1129.80 0.07279438
1129.90 0.07277141
1130.00 0.07274846
1130.10 0.07272551
1130.20 0.07270256
1130.30 0.07267963
1130.40 0.0726567
1130.50 0.07263377
1130.60 0.07261086
1130.70 0.07258795
1130.80 0.07256505
1130.90 0.07254215
1131.00 0.07251926
1131.10 0.07249638
1131.20 0.07247351
1131.30 0.07245064
1131.40 0.07242778
1131.50 0.07240493
1131.60 0.07238208
1131.70 0.07235924
1131.80 0.07233641
1131.90 0.07231358
1132.00 0.07229076
1132.10 0.07226795
1132.20 0.07224515
1132.30 0.07222235
1132.40 0.07219956
1132.50 0.07217678
1132.60 0.072154
1132.70 0.07213123
1132.80 0.07210847
1132.90 0.07208571
1133.00 0.07206296
1133.10 0.07204022
1133.20 0.07201748
1133.30 0.07199475
1133.40 0.07197203
1133.50 0.07194932
1133.60 0.07192661
1133.70 0.07190391
1133.80 0.07188121
1133.90 0.07185853
1134.00 0.07183585
1134.10 0.07181317
1134.20 0.07179051
1134.30 0.07176785
1134.40 0.07174519
1134.50 0.07172255
1134.60 0.07169991
1134.70 0.07167728
1134.80 0.07165465
1134.90 0.07163203
1135.00 0.07160942
1135.10 0.07158681
1135.20 0.07156422
1135.30 0.07154163
1135.40 0.07151904
1135.50 0.07149646
1135.60 0.07147389
1135.70 0.07145133
1135.80 0.07142877
1135.90 0.07140622
1136.00 0.07138368
1136.10 0.07136114
1136.20 0.07133861
1136.30 0.07131609
1136.40 0.07129357
1136.50 0.07127107
1136.60 0.07124856
1136.70 0.07122607
1136.80 0.07120358
1136.90 0.0711811
1137.00 0.07115862
1137.10 0.07113615
1137.20 0.07111369
1137.30 0.07109124
1137.40 0.07106879
1137.50 0.07104635
1137.60 0.07102391
1137.70 0.07100149
1137.80 0.07097907
1137.90 0.07095665
1138.00 0.07093425
1138.10 0.07091185
1138.20 0.07088945
1138.30 0.07086706
1138.40 0.07084468
1138.50 0.07082231
1138.60 0.07079995
1138.70 0.07077759
1138.80 0.07075523
1138.90 0.07073289
1139.00 0.07071055
1139.10 0.07068821
1139.20 0.07066589
1139.30 0.07064383
1139.40 0.07062179
1139.50 0.07059975
1139.60 0.07057772
1139.70 0.0705557
1139.80 0.07053369
1139.90 0.07051168
1140.00 0.07048967
1140.10 0.07046768
1140.20 0.07044569
1140.30 0.0704237
1140.40 0.07040173
1140.50 0.07037976
1140.60 0.07035779
1140.70 0.07033584
1140.80 0.07031389
1140.90 0.07029194
1141.00 0.07027001
1141.10 0.07024808
1141.20 0.07022615
1141.30 0.07020424
1141.40 0.07018233
1141.50 0.07016042
1141.60 0.07013853
1141.70 0.07011664
1141.80 0.07009475
1141.90 0.07007287
1142.00 0.070051
1142.10 0.07002914
1142.20 0.07000728
1142.30 0.06998543
1142.40 0.06996359
1142.50 0.06994175
1142.60 0.06991992
1142.70 0.06989809
1142.80 0.06987627
1142.90 0.06985446
1143.00 0.06983266
1143.10 0.06981086
1143.20 0.06978907
1143.30 0.06976728
1143.40 0.0697455
1143.50 0.06972373
1143.60 0.06970197
1143.70 0.06968021
1143.80 0.06965845
1143.90 0.06963671
1144.00 0.06961497
1144.10 0.06959323
1144.20 0.06957151
1144.30 0.06954979
1144.40 0.06952808
1144.50 0.06950637
1144.60 0.06948467
1144.70 0.06946297
1144.80 0.06944129
1144.90 0.06941961
1145.00 0.06939793
1145.10 0.06937626
1145.20 0.0693546
1145.30 0.06933295
1145.40 0.0693113
1145.50 0.06928966
1145.60 0.06926802
1145.70 0.06924639
1145.80 0.06922477
1145.90 0.06920316
1146.00 0.06918155
1146.10 0.06915994
1146.20 0.06913835
1146.30 0.06911676
1146.40 0.06909517
1146.50 0.0690736
1146.60 0.06905203
1146.70 0.06903046
1146.80 0.06900891
1146.90 0.06898736
1147.00 0.06896581
1147.10 0.06894427
1147.20 0.06892274
1147.30 0.06890122
1147.40 0.0688797
1147.50 0.06885819
1147.60 0.06883668
1147.70 0.06881518
1147.80 0.06879369
1147.90 0.0687722
1148.00 0.06875072
1148.10 0.06872925
1148.20 0.06870778
1148.30 0.06868632
1148.40 0.06866487
1148.50 0.06864342
1148.60 0.06862198
1148.70 0.06860054
1148.80 0.06857911
1148.90 0.06855769
1149.00 0.06853628
1149.10 0.06851487
1149.20 0.06849346
1149.30 0.06847207
1149.40 0.06845068
1149.50 0.06842929
1149.60 0.06840792
1149.70 0.06838654
1149.80 0.06836518
1149.90 0.06834382
1150.00 0.06832247
1150.10 0.06830113
1150.20 0.06827979
1150.30 0.06825845
1150.40 0.06823713
1150.50 0.06821581
1150.60 0.0681945
1150.70 0.06817329
1150.80 0.06815208
1150.90 0.06813088
1151.00 0.06810968
1151.10 0.06808849
1151.20 0.06806731
1151.30 0.06804613
1151.40 0.06802496
1151.50 0.0680038
1151.60 0.06798264
1151.70 0.06796149
1151.80 0.06794034
1151.90 0.0679192
1152.00 0.06789807
1152.10 0.06787694
1152.20 0.06785582
1152.30 0.06783471
1152.40 0.0678136
1152.50 0.0677925
1152.60 0.06777141
1152.70 0.06775032
1152.80 0.06772924
1152.90 0.06770816
1153.00 0.06768709
1153.10 0.06766603
1153.20 0.06764497
1153.30 0.06762392
1153.40 0.06760287
1153.50 0.06758184
1153.60 0.0675608
1153.70 0.06753978
1153.80 0.06751876
1153.90 0.06749775
1154.00 0.06747674
1154.10 0.06745574
1154.20 0.06743475
1154.30 0.06741376
1154.40 0.06739278
1154.50 0.0673718
1154.60 0.06735083
1154.70 0.06732987
1154.80 0.06730891
1154.90 0.06728796
1155.00 0.06726702
1155.10 0.06724608
1155.20 0.06722515
1155.30 0.06720422
1155.40 0.0671833
1155.50 0.06716239
1155.60 0.06714148
1155.70 0.06712058
1155.80 0.06709969
1155.90 0.0670788
1156.00 0.06705792
1156.10 0.06703704
1156.20 0.06701617
1156.30 0.06699531
1156.40 0.06697463
1156.50 0.06695412
1156.60 0.06693361
1156.70 0.0669131
1156.80 0.0668926
1156.90 0.06687211
1157.00 0.06685162
1157.10 0.06683114
1157.20 0.06681067
1157.30 0.0667902
1157.40 0.06676974
1157.50 0.06674928
1157.60 0.06672884
1157.70 0.06670839
1157.80 0.06668795
1157.90 0.06666752
1158.00 0.0666471
1158.10 0.06662668
1158.20 0.06660626
1158.30 0.06658586
1158.40 0.06656546
1158.50 0.06654506
1158.60 0.06652467
1158.70 0.06650429
1158.80 0.06648391
1158.90 0.06646354
1159.00 0.06644317
1159.10 0.06642282
1159.20 0.06640246
1159.30 0.06638212
1159.40 0.06636178
1159.50 0.06634144
1159.60 0.06632111
1159.70 0.06630079
1159.80 0.06628047
1159.90 0.06626016
1160.00 0.06623986
1160.10 0.06621956
1160.20 0.06619927
1160.30 0.06617898
1160.40 0.0661587
1160.50 0.06613842
1160.60 0.06611815
1160.70 0.06609789
1160.80 0.06607764
1160.90 0.06605738
1161.00 0.06603714
1161.10 0.0660169
1161.20 0.06599667
1161.30 0.06597644
1161.40 0.06595622
1161.50 0.06593601
1161.60 0.0659158
1161.70 0.0658956
1161.80 0.0658754
1161.90 0.06585521
1162.00 0.06583502
1162.10 0.06581484
1162.20 0.06579443
1162.30 0.06577403
1162.40 0.06575363
1162.50 0.06573323
1162.60 0.06571284
1162.70 0.06569246
1162.80 0.06567209
1162.90 0.06565172
1163.00 0.06563135
1163.10 0.065611
1163.20 0.06559064
1163.30 0.0655703
1163.40 0.06554996
1163.50 0.06552962
1163.60 0.0655093
1163.70 0.06548898
1163.80 0.06546866
1163.90 0.06544835
1164.00 0.06542805
1164.10 0.06540775
1164.20 0.06538746
1164.30 0.06536717
1164.40 0.06534689
1164.50 0.06532662
1164.60 0.06530635
1164.70 0.06528609
1164.80 0.06526583
1164.90 0.06524558
1165.00 0.06522534
1165.10 0.0652051
1165.20 0.06518487
1165.30 0.06516465
1165.40 0.06514443
1165.50 0.06512421
1165.60 0.06510401
1165.70 0.0650838
1165.80 0.06506361
1165.90 0.06504342
1166.00 0.06502324
1166.10 0.06500306
1166.20 0.06498289
1166.30 0.06496272
1166.40 0.06494256
1166.50 0.06492241
1166.60 0.06490226
1166.70 0.06488212
1166.80 0.06486198
1166.90 0.06484185
1167.00 0.06482173
1167.10 0.06480161
1167.20 0.06478149
1167.30 0.06476139
1167.40 0.06474129
1167.50 0.06472119
1167.60 0.0647011
1167.70 0.06468102
1167.80 0.06466095
1167.90 0.06464087
1168.00 0.0646211
1168.10 0.06460136
1168.20 0.06458163
1168.30 0.06456191
1168.40 0.06454219
1168.50 0.06452248
1168.60 0.06450277
1168.70 0.06448307
1168.80 0.06446337
1168.90 0.06444368
1169.00 0.064424
1169.10 0.06440432
1169.20 0.06438465
1169.30 0.06436498
1169.40 0.06434532
1169.50 0.06432567
1169.60 0.06430602
1169.70 0.06428637
1169.80 0.06426674
1169.90 0.0642471
1170.00 0.06422748
1170.10 0.06420786
1170.20 0.06418824
1170.30 0.06416863
1170.40 0.06414903
1170.50 0.06412943
1170.60 0.06410984
1170.70 0.06409026
1170.80 0.06407068
1170.90 0.0640511
1171.00 0.06403153
1171.10 0.06401197
1171.20 0.06399241
1171.30 0.06397286
1171.40 0.06395332
1171.50 0.06393378
1171.60 0.06391424
1171.70 0.06389471
1171.80 0.06387519
1171.90 0.06385567
1172.00 0.06383616
1172.10 0.06381666
1172.20 0.06379716
1172.30 0.06377766
1172.40 0.06375818
1172.50 0.06373869
1172.60 0.06371922
1172.70 0.06369975
1172.80 0.06368028
1172.90 0.06366082
1173.00 0.06364137
1173.10 0.06362192
1173.20 0.06360248
1173.30 0.06358304
1173.40 0.06356361
1173.50 0.06354418
1173.60 0.06352476
1173.70 0.06350535
1173.80 0.06348601
1173.90 0.06346669
1174.00 0.06344737
1174.10 0.06342806
1174.20 0.06340876
1174.30 0.06338947
1174.40 0.06337017
1174.50 0.06335089
1174.60 0.06333161
1174.70 0.06331234
1174.80 0.06329307
1174.90 0.0632738
1175.00 0.06325455
1175.10 0.0632353
1175.20 0.06321605
1175.30 0.06319681
1175.40 0.06317758
1175.50 0.06315835
1175.60 0.06313912
1175.70 0.06311991
1175.80 0.06310069
1175.90 0.06308149
1176.00 0.06306229
1176.10 0.06304309
1176.20 0.0630239
1176.30 0.06300472
1176.40 0.06298554
1176.50 0.06296637
1176.60 0.0629472
1176.70 0.06292804
1176.80 0.06290888
1176.90 0.06288973
1177.00 0.06287059
1177.10 0.06285145
1177.20 0.06283231
1177.30 0.06281319
1177.40 0.06279406
1177.50 0.06277495
1177.60 0.06275584
1177.70 0.06273673
1177.80 0.06271763
1177.90 0.06269854
1178.00 0.06267945
1178.10 0.06266036
1178.20 0.06264129
1178.30 0.06262221
1178.40 0.06260315
1178.50 0.06258409
1178.60 0.06256503
1178.70 0.06254598
1178.80 0.06252694
1178.90 0.0625079
1179.00 0.06248886
1179.10 0.06246984
1179.20 0.06245081
1179.30 0.0624318
1179.40 0.06241279
1179.50 0.06239378
1179.60 0.06237478
1179.70 0.06235579
1179.80 0.0623368
1179.90 0.06231782
1180.00 0.06229884
1180.10 0.06227987
1180.20 0.06226091
1180.30 0.06224195
1180.40 0.06222299
1180.50 0.06220405
1180.60 0.0621851
1180.70 0.06216617
1180.80 0.06214723
1180.90 0.06212831
1181.00 0.06210939
1181.10 0.06209047
1181.20 0.06207156
1181.30 0.06205266
1181.40 0.06203376
1181.50 0.06201486
1181.60 0.06199598
1181.70 0.06197709
1181.80 0.06195822
1181.90 0.06193934
1182.00 0.06192048
1182.10 0.06190162
1182.20 0.06188276
1182.30 0.06186391
1182.40 0.06184507
1182.50 0.06182623
1182.60 0.0618074
1182.70 0.06178857
1182.80 0.06176975
1182.90 0.06175093
1183.00 0.06173212
1183.10 0.06171332
1183.20 0.06169452
1183.30 0.06167572
1183.40 0.06165693
1183.50 0.06163815
1183.60 0.06161937
1183.70 0.0616006
1183.80 0.06158183
1183.90 0.06156307
1184.00 0.06154431
1184.10 0.06152556
1184.20 0.06150682
1184.30 0.06148808
1184.40 0.06146934
1184.50 0.06145061
1184.60 0.06143189
1184.70 0.06141317
1184.80 0.06139446
1184.90 0.06137575
1185.00 0.06135705
1185.10 0.06133835
1185.20 0.06131966
1185.30 0.06130098
1185.40 0.0612823
1185.50 0.06126366
1185.60 0.06124507
1185.70 0.06122649
1185.80 0.06120791
1185.90 0.06118934
1186.00 0.06117077
1186.10 0.06115221
1186.20 0.06113366
1186.30 0.06111511
1186.40 0.06109656
1186.50 0.06107802
1186.60 0.06105949
1186.70 0.06104096
1186.80 0.06102244
1186.90 0.06100392
1187.00 0.06098541
1187.10 0.0609669
1187.20 0.0609484
1187.30 0.0609299
1187.40 0.06091141
1187.50 0.06089293
1187.60 0.06087445
1187.70 0.06085597
1187.80 0.0608375
1187.90 0.06081904
1188.00 0.06080058
1188.10 0.06078213
1188.20 0.06076368
1188.30 0.06074524
1188.40 0.0607268
1188.50 0.06070837
1188.60 0.06068994
1188.70 0.06067152
1188.80 0.0606531
1188.90 0.06063469
1189.00 0.06061629
1189.10 0.06059789
1189.20 0.06057949
1189.30 0.0605611
1189.40 0.06054272
1189.50 0.06052434
1189.60 0.06050597
1189.70 0.0604876
1189.80 0.06046924
1189.90 0.06045088
1190.00 0.06043253
1190.10 0.06041418
1190.20 0.06039584
1190.30 0.0603775
1190.40 0.06035917
1190.50 0.06034085
1190.60 0.06032253
1190.70 0.06030421
1190.80 0.0602859
1190.90 0.0602676
1191.00 0.0602493
1191.10 0.06023101
1191.20 0.06021272
1191.30 0.06019444
1191.40 0.0601762
1191.50 0.06015823
1191.60 0.06014027
1191.70 0.06012231
1191.80 0.06010435
1191.90 0.06008641
1192.00 0.06006846
1192.10 0.06005052
1192.20 0.06003259
1192.30 0.06001466
1192.40 0.05999674
1192.50 0.05997882
1192.60 0.05996091
1192.70 0.059943
1192.80 0.0599251
1192.90 0.0599072
1193.00 0.05988931
1193.10 0.05987142
1193.20 0.05985354
1193.30 0.05983566
1193.40 0.05981779
1193.50 0.05979992
1193.60 0.05978206
1193.70 0.05976421
1193.80 0.05974636
1193.90 0.05972851
1194.00 0.05971067
1194.10 0.05969283
1194.20 0.059675
1194.30 0.05965718
1194.40 0.05963936
1194.50 0.05962154
1194.60 0.05960373
1194.70 0.05958593
1194.80 0.05956813
1194.90 0.05955033
1195.00 0.05953254
1195.10 0.05951476
1195.20 0.05949698
1195.30 0.05947921
1195.40 0.05946144
1195.50 0.05944367
1195.60 0.05942591
1195.70 0.05940816
1195.80 0.05939041
1195.90 0.05937267
1196.00 0.05935493
1196.10 0.0593372
1196.20 0.05931947
1196.30 0.05930175
1196.40 0.05928403
1196.50 0.05926632
1196.60 0.05924861
1196.70 0.05923091
1196.80 0.05921321
1196.90 0.05919552
1197.00 0.05917783
1197.10 0.05916015
1197.20 0.05914247
1197.30 0.0591248
1197.40 0.05910694
1197.50 0.05908906
1197.60 0.05907118
1197.70 0.05905331
1197.80 0.05903545
1197.90 0.05901759
1198.00 0.05899973
1198.10 0.05898188
1198.20 0.05896404
1198.30 0.0589462
1198.40 0.05892836
1198.50 0.05891053
1198.60 0.05889271
1198.70 0.05887489
1198.80 0.05885708
1198.90 0.05883927
1199.00 0.05882147
1199.10 0.05880367
1199.20 0.05878587
1199.30 0.05876809
1199.40 0.0587503
1199.50 0.05873252
1199.60 0.05871475
1199.70 0.05869698
1199.80 0.05867922
1199.90 0.05866146
1200.00 0.05864371
