# Version 2.1 - nm, norm@500 to 1, cut digits, bergeron_He_15000_70.dat_15000
# Wavelength(nm)  Flambda(ergs/cm^s/s/nm)
300.00 3.237231
300.10 3.235152
300.20 3.232997
300.30 3.230862
300.40 3.228847
300.50 3.226835
300.60 3.224824
300.70 3.222815
300.80 3.220809
300.90 3.218804
301.00 3.216801
301.10 3.2148
301.20 3.212801
301.30 3.210804
301.40 3.208809
301.50 3.206816
301.60 3.204825
301.70 3.202835
301.80 3.200848
301.90 3.198863
302.00 3.196879
302.10 3.194777
302.20 3.192663
302.30 3.190551
302.40 3.188441
302.50 3.186333
302.60 3.184228
302.70 3.182124
302.80 3.180023
302.90 3.177923
303.00 3.175826
303.10 3.173731
303.20 3.171638
303.30 3.169547
303.40 3.167458
303.50 3.165371
303.60 3.163286
303.70 3.161203
303.80 3.159122
303.90 3.157043
304.00 3.154967
304.10 3.152892
304.20 3.15082
304.30 3.148749
304.40 3.146681
304.50 3.144614
304.60 3.14255
304.70 3.140487
304.80 3.138427
304.90 3.136369
305.00 3.134312
305.10 3.132258
305.20 3.130206
305.30 3.128156
305.40 3.126107
305.50 3.124061
305.60 3.122017
305.70 3.119975
305.80 3.117935
305.90 3.115896
306.00 3.11386
306.10 3.111826
306.20 3.109794
306.30 3.107764
306.40 3.105735
306.50 3.103709
306.60 3.101685
306.70 3.099662
306.80 3.097642
306.90 3.095624
307.00 3.093607
307.10 3.091593
307.20 3.089581
307.30 3.08757
307.40 3.085562
307.50 3.083555
307.60 3.081551
307.70 3.079548
307.80 3.077547
307.90 3.075549
308.00 3.073552
308.10 3.071557
308.20 3.069564
308.30 3.067573
308.40 3.065584
308.50 3.063597
308.60 3.061612
308.70 3.059629
308.80 3.057189
308.90 3.05345
309.00 3.051474
309.10 3.0495
309.20 3.047528
309.30 3.045558
309.40 3.043589
309.50 3.041623
309.60 3.039658
309.70 3.037696
309.80 3.035735
309.90 3.033776
310.00 3.031819
310.10 3.029864
310.20 3.027911
310.30 3.02596
310.40 3.02401
310.50 3.022063
310.60 3.020117
310.70 3.018173
310.80 3.016231
310.90 3.014291
311.00 3.012353
311.10 3.010417
311.20 3.008483
311.30 3.006487
311.40 3.004316
311.50 3.002147
311.60 2.999979
311.70 2.997814
311.80 2.995652
311.90 2.993491
312.00 2.991332
312.10 2.989176
312.20 2.98707
312.30 2.985157
312.40 2.983246
312.50 2.981221
312.60 2.978732
312.70 2.976245
312.80 2.973761
312.90 2.971559
313.00 2.96966
313.10 2.967764
313.20 2.965869
313.30 2.963899
313.40 2.961711
313.50 2.959525
313.60 2.957342
313.70 2.95516
313.80 2.952981
313.90 2.950804
314.00 2.948629
314.10 2.946475
314.20 2.944323
314.30 2.942173
314.40 2.940025
314.50 2.937879
314.60 2.935736
314.70 2.933594
314.80 2.931527
314.90 2.928973
315.00 2.925673
315.10 2.922751
315.20 2.919831
315.30 2.916915
315.40 2.914003
315.50 2.911093
315.60 2.908186
315.70 2.904752
315.80 2.901321
315.90 2.897895
316.00 2.894471
316.10 2.890523
316.20 2.886579
316.30 2.885811
316.40 2.887158
316.50 2.880053
316.60 2.860291
316.70 2.854266
316.80 2.848248
316.90 2.84645
317.00 2.844655
317.10 2.842861
317.20 2.841069
317.30 2.845317
317.40 2.847863
317.50 2.845576
317.60 2.843292
317.70 2.84101
317.80 2.838731
317.90 2.827303
318.00 2.81203
318.10 2.785693
318.20 2.759388
318.30 2.733115
318.40 2.689103
318.50 2.594596
318.60 2.475548
318.70 2.140372
318.80 1.554749
318.90 2.208324
319.00 2.421167
319.10 2.534977
319.20 2.628534
319.30 2.664771
319.40 2.700963
319.50 2.737109
319.60 2.762194
319.70 2.771967
319.80 2.781727
319.90 2.791475
320.00 2.79818
320.10 2.801594
320.20 2.805516
320.30 2.808409
320.40 2.809335
320.50 2.809642
320.60 2.810443
320.70 2.809719
320.80 2.809242
320.90 2.809033
321.00 2.808823
321.10 2.808613
321.20 2.807756
321.30 2.806363
321.40 2.804972
321.50 2.803581
321.60 2.802192
321.70 2.800804
321.80 2.79991
321.90 2.79955
322.00 2.797943
322.10 2.79646
322.20 2.794978
322.30 2.793497
322.40 2.792018
322.50 2.79054
322.60 2.789063
322.70 2.787587
322.80 2.785992
322.90 2.784266
323.00 2.782543
323.10 2.78082
323.20 2.7791
323.30 2.777381
323.40 2.775664
323.50 2.773948
323.60 2.772234
323.70 2.770521
323.80 2.76881
323.90 2.767101
324.00 2.765393
324.10 2.763687
324.20 2.761982
324.30 2.760279
324.40 2.758577
324.50 2.756877
324.60 2.755179
324.70 2.753482
324.80 2.751787
324.90 2.750093
325.00 2.748401
325.10 2.746711
325.20 2.745022
325.30 2.743334
325.40 2.741648
325.50 2.739964
325.60 2.738281
325.70 2.7366
325.80 2.73492
325.90 2.733242
326.00 2.731566
326.10 2.729891
326.20 2.728217
326.30 2.726545
326.40 2.724875
326.50 2.723206
326.60 2.721539
326.70 2.719873
326.80 2.718208
326.90 2.716546
327.00 2.714884
327.10 2.713225
327.20 2.711567
327.30 2.70991
327.40 2.708255
327.50 2.706601
327.60 2.704949
327.70 2.703298
327.80 2.701649
327.90 2.700002
328.00 2.698165
328.10 2.696097
328.20 2.694031
328.30 2.691967
328.40 2.689905
328.50 2.688634
328.60 2.68755
328.70 2.686467
328.80 2.685241
328.90 2.683608
329.00 2.681977
329.10 2.680347
329.20 2.678719
329.30 2.677093
329.40 2.675467
329.50 2.673844
329.60 2.672221
329.70 2.670601
329.80 2.668981
329.90 2.667364
330.00 2.665747
330.10 2.664132
330.20 2.662519
330.30 2.660907
330.40 2.659212
330.50 2.657428
330.60 2.655645
330.70 2.653863
330.80 2.652084
330.90 2.650306
331.00 2.64853
331.10 2.646755
331.20 2.644982
331.30 2.643211
331.40 2.641441
331.50 2.639752
331.60 2.63816
331.70 2.63657
331.80 2.634708
331.90 2.632836
332.00 2.630966
332.10 2.629098
332.20 2.627231
332.30 2.625366
332.40 2.623504
332.50 2.621642
332.60 2.619783
332.70 2.617925
332.80 2.61607
332.90 2.614215
333.00 2.612363
333.10 2.610296
333.20 2.607967
333.30 2.605641
333.40 2.603317
333.50 2.600995
333.60 2.598675
333.70 2.596358
333.80 2.594043
333.90 2.59173
334.00 2.58942
334.10 2.586742
334.20 2.583616
334.30 2.580492
334.40 2.577372
334.50 2.574256
334.60 2.571142
334.70 2.567106
334.80 2.561659
334.90 2.555809
335.00 2.549965
335.10 2.542685
335.20 2.534578
335.30 2.524973
335.40 2.500897
335.50 2.516324
335.60 2.52915
335.70 2.535341
335.80 2.539461
335.90 2.542309
336.00 2.543607
336.10 2.544903
336.20 2.546198
336.30 2.546508
336.40 2.545617
336.50 2.544727
336.60 2.543838
336.70 2.542949
336.80 2.542061
336.90 2.541309
337.00 2.540724
337.10 2.540138
337.20 2.539553
337.30 2.538591
337.40 2.537086
337.50 2.535583
337.60 2.534081
337.70 2.532581
337.80 2.531081
337.90 2.529745
338.00 2.528607
338.10 2.52747
338.20 2.526335
338.30 2.5252
338.40 2.523901
338.50 2.522202
338.60 2.520505
338.70 2.518809
338.80 2.517115
338.90 2.515422
339.00 2.513731
339.10 2.512041
339.20 2.510353
339.30 2.508752
339.40 2.507274
339.50 2.505733
339.60 2.504117
339.70 2.502502
339.80 2.500889
339.90 2.499277
340.00 2.497667
340.10 2.496058
340.20 2.494451
340.30 2.492845
340.40 2.491241
340.50 2.489637
340.60 2.488036
340.70 2.486436
340.80 2.484894
340.90 2.483437
341.00 2.481776
341.10 2.479866
341.20 2.477958
341.30 2.476052
341.40 2.474148
341.50 2.472246
341.60 2.470345
341.70 2.468447
341.80 2.466562
341.90 2.464693
342.00 2.462826
342.10 2.460961
342.20 2.459183
342.30 2.457746
342.40 2.455939
342.50 2.453597
342.60 2.451257
342.70 2.44892
342.80 2.446585
342.90 2.444252
343.00 2.441528
343.10 2.438326
343.20 2.435126
343.30 2.43193
343.40 2.42824
343.50 2.423838
343.60 2.41944
343.70 2.415047
343.80 2.410659
343.90 2.406275
344.00 2.399819
344.10 2.390383
344.20 2.380958
344.30 2.371543
344.40 2.358847
344.50 2.341432
344.60 2.321346
344.70 2.267823
344.80 2.305173
344.90 2.333941
345.00 2.349867
345.10 2.360942
345.20 2.369367
345.30 2.37399
345.40 2.378608
345.50 2.382058
345.60 2.383537
345.70 2.384224
345.80 2.38491
345.90 2.385594
346.00 2.386278
346.10 2.38696
346.20 2.387013
346.30 2.386164
346.40 2.385316
346.50 2.384468
346.60 2.38362
346.70 2.382774
346.80 2.381927
346.90 2.381082
347.00 2.380237
347.10 2.379392
347.20 2.378382
347.30 2.377132
347.40 2.375883
347.50 2.374636
347.60 2.373389
347.70 2.372144
347.80 2.370899
347.90 2.369656
348.00 2.368413
348.10 2.367172
348.20 2.365932
348.30 2.364692
348.40 2.363454
348.50 2.362217
348.60 2.360981
348.70 2.359655
348.80 2.358302
348.90 2.356951
349.00 2.3556
349.10 2.354251
349.20 2.352903
349.30 2.351556
349.40 2.35021
349.50 2.348865
349.60 2.347522
349.70 2.346179
349.80 2.344838
349.90 2.343498
350.00 2.342159
350.10 2.340821
350.20 2.339484
350.30 2.338149
350.40 2.336814
350.50 2.335481
350.60 2.334149
350.70 2.332818
350.80 2.331488
350.90 2.33016
351.00 2.328832
351.10 2.327506
351.20 2.326181
351.30 2.324856
351.40 2.323533
351.50 2.322211
351.60 2.320891
351.70 2.319571
351.80 2.318253
351.90 2.316935
352.00 2.315619
352.10 2.314304
352.20 2.31299
352.30 2.311797
352.40 2.310779
352.50 2.309761
352.60 2.308745
352.70 2.307729
352.80 2.306714
352.90 2.305699
353.00 2.304685
353.10 2.303673
353.20 2.30266
353.30 2.301649
353.40 2.300639
353.50 2.299701
353.60 2.298781
353.70 2.297862
353.80 2.296944
353.90 2.296026
354.00 2.295106
354.10 2.294187
354.20 2.293269
354.30 2.292351
354.40 2.291434
354.50 2.290518
354.60 2.289602
354.70 2.288687
354.80 2.287775
354.90 2.286867
355.00 2.285959
355.10 2.285053
355.20 2.284146
355.30 2.28325
355.40 2.282354
355.50 2.281458
355.60 2.280564
355.70 2.279402
355.80 2.278121
355.90 2.276841
356.00 2.276024
356.10 2.275324
356.20 2.274624
356.30 2.273924
356.40 2.273225
356.50 2.272527
356.60 2.271828
356.70 2.271131
356.80 2.270433
356.90 2.269736
357.00 2.26904
357.10 2.268344
357.20 2.267648
357.30 2.266953
357.40 2.266051
357.50 2.264784
357.60 2.263517
357.70 2.262252
357.80 2.261739
357.90 2.261226
358.00 2.260366
358.10 2.25942
358.20 2.258474
358.30 2.25753
358.40 2.256586
358.50 2.255642
358.60 2.2547
358.70 2.253758
358.80 2.252816
358.90 2.251876
359.00 2.250558
359.10 2.248569
359.20 2.246677
359.30 2.245427
359.40 2.244177
359.50 2.241993
359.60 2.239578
359.70 2.237165
359.80 2.234064
359.90 2.230966
360.00 2.227007
360.10 2.221517
360.20 2.216032
360.30 2.210553
360.40 2.205079
360.50 2.199611
360.60 2.187317
360.70 2.169028
360.80 2.150759
360.90 2.13251
361.00 2.109981
361.10 2.067858
361.20 2.015897
361.30 1.89678
361.40 1.980619
361.50 2.082498
361.60 2.113808
361.70 2.1183
361.80 2.12416
361.90 2.132452
362.00 2.140735
362.10 2.144133
362.20 2.144208
362.30 2.14055
362.40 2.136896
362.50 2.133246
362.60 2.129599
362.70 2.123463
362.80 2.117113
362.90 2.105555
363.00 2.094009
363.10 2.072439
363.20 2.05079
363.30 2.016706
363.40 1.982751
363.50 2.019291
363.60 2.065394
363.70 2.086564
363.80 2.099095
363.90 2.107072
364.00 2.11504
364.10 2.122998
364.20 2.130948
364.30 2.137978
364.40 2.144772
364.50 2.150018
364.60 2.154127
364.70 2.158231
364.80 2.16233
364.90 2.164323
365.00 2.166314
365.10 2.165127
365.20 2.15125
365.30 2.154036
365.40 2.164743
365.50 2.169102
365.60 2.173456
365.70 2.176583
365.80 2.179705
365.90 2.182186
366.00 2.184504
366.10 2.18525
366.20 2.185995
366.30 2.186739
366.40 2.187481
366.50 2.186423
366.60 2.186805
366.70 2.186209
366.80 2.185612
366.90 2.184599
367.00 2.182843
367.10 2.181089
367.20 2.179337
367.30 2.177586
367.40 2.175837
367.50 2.173844
367.60 2.171792
367.70 2.16814
367.80 2.164491
367.90 2.160846
368.00 2.156917
368.10 2.15188
368.20 2.145408
368.30 2.138928
368.40 2.132454
368.50 2.125987
368.60 2.119527
368.70 2.113074
368.80 2.106627
368.90 2.099095
369.00 2.090111
369.10 2.081256
369.20 2.070738
369.30 2.05824
369.40 2.045754
369.50 2.033282
369.60 2.015999
369.70 1.998735
369.80 1.978035
369.90 1.957322
370.00 1.936631
370.10 1.912693
370.20 1.870847
370.30 1.828946
370.40 1.748433
370.50 1.683617
370.60 1.779745
370.70 1.864626
370.80 1.902667
370.90 1.940667
371.00 1.951483
371.10 1.962012
371.20 1.973943
371.30 1.98586
371.40 1.997929
371.50 2.007417
371.60 2.016895
371.70 2.026362
371.80 2.035818
371.90 2.045264
372.00 2.053444
372.10 2.059981
372.20 2.064475
372.30 2.068963
372.40 2.073447
372.50 2.077925
372.60 2.082398
372.70 2.086866
372.80 2.088776
372.90 2.090684
373.00 2.091863
373.10 2.093034
373.20 2.088114
373.30 2.0832
373.40 2.025934
373.50 2.040775
373.60 2.060148
373.70 2.071167
373.80 2.078435
373.90 2.0856
374.00 2.089779
374.10 2.093954
374.20 2.098124
374.30 2.102289
374.40 2.104939
374.50 2.10755
374.60 2.108332
374.70 2.109096
374.80 2.109858
374.90 2.110619
375.00 2.110998
375.10 2.111377
375.20 2.111754
375.30 2.111058
375.40 2.110363
375.50 2.109668
375.60 2.108973
375.70 2.108279
375.80 2.107585
375.90 2.106892
376.00 2.105771
376.10 2.104651
376.20 2.103533
376.30 2.102415
376.40 2.101298
376.50 2.099976
376.60 2.098346
376.70 2.096718
376.80 2.095175
376.90 2.093716
377.00 2.092258
377.10 2.090802
377.20 2.089225
377.30 2.087192
377.40 2.08516
377.50 2.083131
377.60 2.080414
377.70 2.077701
377.80 2.07499
377.90 2.072281
378.00 2.070219
378.10 2.06658
378.20 2.062919
378.30 2.059262
378.40 2.055608
378.50 2.051958
378.60 2.048312
378.70 2.044669
378.80 2.041029
378.90 2.037142
379.00 2.032794
379.10 2.0276
379.20 2.02241
379.30 2.016913
379.40 2.011108
379.50 2.005309
379.60 1.999436
379.70 1.992649
379.80 1.982856
379.90 1.973073
380.00 1.9633
380.10 1.953537
380.20 1.943784
380.30 1.93404
380.40 1.924307
380.50 1.914584
380.60 1.89915
380.70 1.880567
380.80 1.862003
380.90 1.843459
381.00 1.824934
381.10 1.799392
381.20 1.772056
381.30 1.743203
381.40 1.708361
381.50 1.667952
381.60 1.621404
381.70 1.562485
381.80 1.484898
381.90 1.336579
382.00 1.253084
382.10 1.481118
382.20 1.584633
382.30 1.652571
382.40 1.70697
382.50 1.741122
382.60 1.775238
382.70 1.802665
382.80 1.815509
382.90 1.821289
383.00 1.827063
383.10 1.83283
383.20 1.839856
383.30 1.851627
383.40 1.862819
383.50 1.873152
383.60 1.882974
383.70 1.890135
383.80 1.897288
383.90 1.904433
384.00 1.911571
384.10 1.918701
384.20 1.925823
384.30 1.932937
384.40 1.938325
384.50 1.941987
384.60 1.945645
384.70 1.9493
384.80 1.953018
384.90 1.956099
385.00 1.957534
385.10 1.95897
385.20 1.960348
385.30 1.961501
385.40 1.962066
385.50 1.962043
385.60 1.962021
385.70 1.961998
385.80 1.961941
385.90 1.961756
386.00 1.960651
386.10 1.958473
386.20 1.95472
386.30 1.950971
386.40 1.944029
386.50 1.933004
386.60 1.915432
386.70 1.863503
386.80 1.743391
386.90 1.811751
387.00 1.841048
387.10 1.861243
387.20 1.875732
387.30 1.890283
387.40 1.900898
387.50 1.907641
387.60 1.912825
387.70 1.912895
387.80 1.912963
387.90 1.913032
388.00 1.911506
388.10 1.904012
388.20 1.887574
388.30 1.865218
388.40 1.842885
388.50 1.809544
388.60 1.749365
388.70 1.644841
388.80 1.401764
388.90 1.256203
389.00 1.550448
389.10 1.679949
389.20 1.754251
389.30 1.802754
389.40 1.834745
389.50 1.861513
389.60 1.879353
389.70 1.890354
389.80 1.896489
389.90 1.902618
390.00 1.90874
390.10 1.914855
390.20 1.920964
390.30 1.924787
390.40 1.926035
390.50 1.927282
390.60 1.928528
390.70 1.929772
390.80 1.930291
390.90 1.930086
391.00 1.92931
391.10 1.928323
391.20 1.927338
391.30 1.92592
391.40 1.924015
391.50 1.922112
391.60 1.920211
391.70 1.918311
391.80 1.916413
391.90 1.914343
392.00 1.911879
392.10 1.909117
392.20 1.906098
392.30 1.901393
392.40 1.897557
392.50 1.892136
392.60 1.884754
392.70 1.877449
392.80 1.88335
392.90 1.887555
393.00 1.890966
393.10 1.89372
393.20 1.895649
393.30 1.896737
393.40 1.897639
393.50 1.896674
393.60 1.894874
393.70 1.895737
393.80 1.896576
393.90 1.896295
394.00 1.89615
394.10 1.896353
394.20 1.895391
394.30 1.894429
394.40 1.893357
394.50 1.891149
394.60 1.888673
394.70 1.885994
394.80 1.882548
394.90 1.879093
395.00 1.875122
395.10 1.869954
395.20 1.86361
395.30 1.856933
395.40 1.850263
395.50 1.83895
395.60 1.825929
395.70 1.810333
395.80 1.787757
395.90 1.765203
396.00 1.741066
396.10 1.693349
396.20 1.625772
396.30 1.54535
396.40 1.363395
396.50 1.403936
396.60 1.647569
396.70 1.717236
396.80 1.722472
396.90 1.715629
397.00 1.741212
397.10 1.790653
397.20 1.8083
397.30 1.805063
397.40 1.807104
397.50 1.809143
397.60 1.811298
397.70 1.814657
397.80 1.818012
397.90 1.820727
398.00 1.821721
398.10 1.822713
398.20 1.822808
398.30 1.821893
398.40 1.820948
398.50 1.819009
398.60 1.81782
398.70 1.815169
398.80 1.812087
398.90 1.808733
399.00 1.804873
399.10 1.800956
399.20 1.796095
399.30 1.791238
399.40 1.786387
399.50 1.781539
399.60 1.775465
399.70 1.768941
399.80 1.762423
399.90 1.755912
400.00 1.749331
400.10 1.740323
400.20 1.73223
400.30 1.722272
400.40 1.712022
400.50 1.701678
400.60 1.687248
400.70 1.673228
400.80 1.656818
400.90 1.62772
401.00 1.613539
401.10 1.622053
401.20 1.6211
401.30 1.614115
401.40 1.601736
401.50 1.587813
401.60 1.573691
401.70 1.552735
401.80 1.528
401.90 1.498196
402.00 1.465285
402.10 1.426432
402.20 1.378237
402.30 1.316857
402.40 1.233579
402.50 1.116806
402.60 0.9293713
402.70 1.032454
402.80 1.211647
402.90 1.300959
403.00 1.380567
403.10 1.438896
403.20 1.483545
403.30 1.519835
403.40 1.551527
403.50 1.577578
403.60 1.602122
403.70 1.621577
403.80 1.63934
403.90 1.651793
404.00 1.663633
404.10 1.672789
404.20 1.676495
404.30 1.680196
404.40 1.67466
404.50 1.652025
404.60 1.641514
404.70 1.649747
404.80 1.660891
404.90 1.671348
405.00 1.680191
405.10 1.687565
405.20 1.694556
405.30 1.701541
405.40 1.705851
405.50 1.710157
405.60 1.714459
405.70 1.718756
405.80 1.723048
405.90 1.727336
406.00 1.730101
406.10 1.732864
406.20 1.735623
406.30 1.738379
406.40 1.741024
406.50 1.742094
406.60 1.743791
406.70 1.745572
406.80 1.747211
406.90 1.748292
407.00 1.748838
407.10 1.749383
407.20 1.749928
407.30 1.750472
407.40 1.751015
407.50 1.751557
407.60 1.752099
407.70 1.752639
407.80 1.75318
407.90 1.753698
408.00 1.753533
408.10 1.753229
408.20 1.753032
408.30 1.753
408.40 1.752968
408.50 1.752333
408.60 1.751914
408.70 1.751495
408.80 1.751028
408.90 1.750172
409.00 1.749316
409.10 1.748461
409.20 1.747607
409.30 1.746753
409.40 1.7459
409.50 1.745047
409.60 1.744195
409.70 1.743227
409.80 1.741796
409.90 1.740383
410.00 1.739535
410.10 1.737638
410.20 1.736188
410.30 1.734851
410.40 1.733335
410.50 1.731252
410.60 1.72917
410.70 1.726932
410.80 1.72406
410.90 1.721192
411.00 1.717475
411.10 1.713448
411.20 1.709424
411.30 1.705187
411.40 1.699947
411.50 1.69029
411.60 1.680642
411.70 1.668399
411.80 1.645754
411.90 1.618142
412.00 1.543188
412.10 1.307274
412.20 1.410934
412.30 1.496421
412.40 1.552472
412.50 1.584748
412.60 1.605287
412.70 1.616116
412.80 1.624513
412.90 1.632126
413.00 1.63325
413.10 1.630492
413.20 1.627735
413.30 1.624982
413.40 1.62223
413.50 1.618843
413.60 1.61214
413.70 1.603016
413.80 1.5939
413.90 1.584793
414.00 1.57488
414.10 1.562397
414.20 1.546818
414.30 1.503666
414.40 1.447988
414.50 1.495073
414.60 1.526011
414.70 1.544346
414.80 1.560891
414.90 1.571816
415.00 1.58273
415.10 1.593633
415.20 1.603379
415.30 1.609486
415.40 1.615587
415.50 1.621647
415.60 1.626575
415.70 1.631498
415.80 1.636013
415.90 1.63925
416.00 1.642484
416.10 1.64538
416.20 1.646933
416.30 1.648484
416.40 1.650033
416.50 1.651511
416.60 1.650718
416.70 1.649926
416.80 1.64649
416.90 1.630006
417.00 1.632299
417.10 1.638395
417.20 1.642472
417.30 1.64649
417.40 1.648705
417.50 1.650918
417.60 1.652736
417.70 1.652992
417.80 1.653615
417.90 1.654237
418.00 1.654859
418.10 1.655479
418.20 1.656099
418.30 1.656722
418.40 1.657219
418.50 1.656952
418.60 1.656685
418.70 1.656417
418.80 1.65615
418.90 1.655884
419.00 1.655617
419.10 1.65535
419.20 1.655083
419.30 1.654814
419.40 1.65445
419.50 1.654086
419.60 1.653637
419.70 1.652849
419.80 1.652062
419.90 1.651275
420.00 1.650489
420.10 1.649703
420.20 1.648918
420.30 1.648134
420.40 1.64735
420.50 1.646566
420.60 1.645783
420.70 1.645001
420.80 1.644219
420.90 1.643438
421.00 1.642657
421.10 1.641877
421.20 1.641055
421.30 1.640106
421.40 1.639158
421.50 1.63821
421.60 1.637263
421.70 1.636317
421.80 1.635372
421.90 1.634468
422.00 1.633693
422.10 1.632844
422.20 1.631697
422.30 1.63055
422.40 1.629409
422.50 1.628458
422.60 1.627508
422.70 1.626559
422.80 1.62561
422.90 1.624662
423.00 1.623715
423.10 1.622768
423.20 1.621822
423.30 1.620877
423.40 1.619932
423.50 1.618989
423.60 1.618046
423.70 1.617103
423.80 1.616162
423.90 1.615221
424.00 1.61428
424.10 1.613341
424.20 1.612402
424.30 1.611464
424.40 1.610562
424.50 1.609566
424.60 1.608571
424.70 1.607577
424.80 1.606583
424.90 1.60559
425.00 1.604598
425.10 1.603607
425.20 1.602616
425.30 1.601626
425.40 1.600638
425.50 1.599653
425.60 1.598669
425.70 1.597687
425.80 1.596704
425.90 1.595723
426.00 1.594742
426.10 1.593762
426.20 1.592783
426.30 1.591804
426.40 1.590827
426.50 1.58985
426.60 1.588873
426.70 1.587898
426.80 1.586923
426.90 1.585949
427.00 1.584961
427.10 1.583974
427.20 1.582988
427.30 1.582003
427.40 1.581018
427.50 1.580034
427.60 1.579051
427.70 1.578069
427.80 1.577087
427.90 1.576107
428.00 1.575127
428.10 1.574147
428.20 1.573169
428.30 1.572191
428.40 1.571214
428.50 1.570237
428.60 1.569262
428.70 1.568287
428.80 1.567304
428.90 1.566205
429.00 1.565107
429.10 1.56401
429.20 1.562913
429.30 1.561818
429.40 1.560723
429.50 1.55963
429.60 1.558537
429.70 1.557445
429.80 1.556354
429.90 1.555263
430.00 1.554174
430.10 1.553085
430.20 1.551997
430.30 1.55091
430.40 1.549824
430.50 1.548739
430.60 1.547655
430.70 1.546571
430.80 1.545488
430.90 1.544406
431.00 1.543325
431.10 1.542245
431.20 1.541166
431.30 1.540081
431.40 1.538912
431.50 1.537744
431.60 1.536578
431.70 1.535412
431.80 1.534247
431.90 1.533082
432.00 1.531919
432.10 1.530757
432.20 1.529596
432.30 1.528435
432.40 1.527276
432.50 1.526117
432.60 1.524959
432.70 1.523802
432.80 1.522647
432.90 1.521492
433.00 1.520337
433.10 1.519184
433.20 1.518032
433.30 1.516861
433.40 1.51543
433.50 1.513999
433.60 1.51257
433.70 1.511142
433.80 1.509768
433.90 1.508458
434.00 1.506959
434.10 1.505346
434.20 1.503734
434.30 1.502123
434.40 1.500513
434.50 1.498905
434.60 1.497298
434.70 1.495693
434.80 1.494035
434.90 1.491664
435.00 1.489296
435.10 1.48693
435.20 1.484565
435.30 1.482203
435.40 1.479843
435.50 1.477484
435.60 1.475128
435.70 1.472774
435.80 1.470421
435.90 1.468071
436.00 1.465723
436.10 1.463377
436.20 1.461032
436.30 1.458355
436.40 1.455152
436.50 1.450367
436.60 1.445586
436.70 1.44081
436.80 1.436037
436.90 1.431269
437.00 1.426505
437.10 1.421745
437.20 1.415835
437.30 1.408865
437.40 1.401711
437.50 1.392043
437.60 1.382383
437.70 1.372732
437.80 1.363089
437.90 1.353456
438.00 1.343606
438.10 1.330791
438.20 1.317987
438.30 1.307167
438.40 1.298886
438.50 1.264181
438.60 1.22766
438.70 1.148905
438.80 1.014513
438.90 1.108003
439.00 1.180662
439.10 1.217436
439.20 1.252929
439.30 1.27182
439.40 1.290693
439.50 1.309549
439.60 1.327864
439.70 1.339373
439.80 1.34922
439.90 1.356845
440.00 1.364463
440.10 1.372073
440.20 1.37933
440.30 1.381978
440.40 1.384623
440.50 1.387266
440.60 1.389906
440.70 1.392544
440.80 1.395179
440.90 1.397811
441.00 1.400441
441.10 1.403069
441.20 1.40556
441.30 1.406264
441.40 1.406698
441.50 1.406802
441.60 1.406905
441.70 1.406624
441.80 1.405821
441.90 1.40502
442.00 1.404219
442.10 1.403418
442.20 1.402618
442.30 1.401819
442.40 1.400616
442.50 1.39892
442.60 1.397226
442.70 1.395633
442.80 1.394108
442.90 1.391481
443.00 1.389001
443.10 1.386699
443.20 1.383646
443.30 1.379901
443.40 1.374899
443.50 1.368362
443.60 1.360595
443.70 1.336606
443.80 1.281752
443.90 1.313657
444.00 1.326187
444.10 1.334172
444.20 1.339362
444.30 1.340846
444.40 1.339425
444.50 1.338005
444.60 1.335456
444.70 1.331529
444.80 1.326602
444.90 1.320753
445.00 1.314908
445.10 1.309069
445.20 1.301789
445.30 1.292747
445.40 1.283713
445.50 1.274687
445.60 1.265669
445.70 1.256659
445.80 1.2447
445.90 1.230022
446.00 1.215357
446.10 1.200706
446.20 1.18391
446.30 1.163834
446.40 1.135603
446.50 1.101423
446.60 1.067275
446.70 1.033156
446.80 0.973564
446.90 0.8904928
447.00 0.8198857
447.10 0.7810114
447.20 0.706136
447.30 0.8673694
447.40 0.9513332
447.50 1.014462
447.60 1.064011
447.70 1.101039
447.80 1.129803
447.90 1.154436
448.00 1.174114
448.10 1.18922
448.20 1.204314
448.30 1.219393
448.40 1.234459
448.50 1.249512
448.60 1.26135
448.70 1.270225
448.80 1.278894
448.90 1.284915
449.00 1.290931
449.10 1.296941
449.20 1.302946
449.30 1.308081
449.40 1.311723
449.50 1.315362
449.60 1.317889
449.70 1.31939
449.80 1.320889
449.90 1.322387
450.00 1.323884
450.10 1.325379
450.20 1.326872
450.30 1.328364
450.40 1.32847
450.50 1.328575
450.60 1.32868
450.70 1.328785
450.80 1.32889
450.90 1.328994
451.00 1.330922
451.10 1.332848
451.20 1.334474
451.30 1.334951
451.40 1.331763
451.50 1.328578
451.60 1.319171
451.70 1.28955
451.80 1.268767
451.90 1.280638
452.00 1.288875
452.10 1.297104
452.20 1.300928
452.30 1.304749
452.40 1.308566
452.50 1.312379
452.60 1.314591
452.70 1.316181
452.80 1.317198
452.90 1.318214
453.00 1.319229
453.10 1.320243
453.20 1.320604
453.30 1.320964
453.40 1.321325
453.50 1.321684
453.60 1.322044
453.70 1.322403
453.80 1.32274
453.90 1.32305
454.00 1.32336
454.10 1.323669
454.20 1.323461
454.30 1.323252
454.40 1.323044
454.50 1.322836
454.60 1.322627
454.70 1.322326
454.80 1.321939
454.90 1.321552
455.00 1.321166
455.10 1.32078
455.20 1.320393
455.30 1.320008
455.40 1.319622
455.50 1.319236
455.60 1.318851
455.70 1.318466
455.80 1.317888
455.90 1.31731
456.00 1.316732
456.10 1.316154
456.20 1.315578
456.30 1.315001
456.40 1.314425
456.50 1.313849
456.60 1.313274
456.70 1.312699
456.80 1.312124
456.90 1.31155
457.00 1.310976
457.10 1.310402
457.20 1.309829
457.30 1.309185
457.40 1.308542
457.50 1.307899
457.60 1.307257
457.70 1.306615
457.80 1.305974
457.90 1.305333
458.00 1.304692
458.10 1.304052
458.20 1.303413
458.30 1.302773
458.40 1.302135
458.50 1.301496
458.60 1.300858
458.70 1.300146
458.80 1.299403
458.90 1.298661
459.00 1.297919
459.10 1.297178
459.20 1.296437
459.30 1.295803
459.40 1.295169
459.50 1.294535
459.60 1.293902
459.70 1.293269
459.80 1.292637
459.90 1.292005
460.00 1.291374
460.10 1.290743
460.20 1.290112
460.30 1.289482
460.40 1.288852
460.50 1.288223
460.60 1.287594
460.70 1.286877
460.80 1.286118
460.90 1.285359
461.00 1.284601
461.10 1.283843
461.20 1.283228
461.30 1.282672
461.40 1.281907
461.50 1.28109
461.60 1.280273
461.70 1.279458
461.80 1.278695
461.90 1.277933
462.00 1.277172
462.10 1.276411
462.20 1.275651
462.30 1.274892
462.40 1.274133
462.50 1.273374
462.60 1.272616
462.70 1.271858
462.80 1.271101
462.90 1.270345
463.00 1.269589
463.10 1.268834
463.20 1.268125
463.30 1.267435
463.40 1.266745
463.50 1.266056
463.60 1.265367
463.70 1.264679
463.80 1.263992
463.90 1.263224
464.00 1.262436
464.10 1.261649
464.20 1.260863
464.30 1.260078
464.40 1.259292
464.50 1.258508
464.60 1.257724
464.70 1.256885
464.80 1.256023
464.90 1.255162
465.00 1.254302
465.10 1.253443
465.20 1.252584
465.30 1.251817
465.40 1.25111
465.50 1.250404
465.60 1.249699
465.70 1.248994
465.80 1.24829
465.90 1.24753
466.00 1.246756
466.10 1.245983
466.20 1.245211
466.30 1.2444
466.40 1.243575
466.50 1.24275
466.60 1.241926
466.70 1.241102
466.80 1.240279
466.90 1.239457
467.00 1.238635
467.10 1.237814
467.20 1.236993
467.30 1.23638
467.40 1.235546
467.50 1.234637
467.60 1.233729
467.70 1.232821
467.80 1.231915
467.90 1.231106
468.00 1.230339
468.10 1.229572
468.20 1.228805
468.30 1.227868
468.40 1.226862
468.50 1.226198
468.60 1.225553
468.70 1.224189
468.80 1.22342
468.90 1.222182
469.00 1.220955
469.10 1.219838
469.20 1.218837
469.30 1.217837
469.40 1.216838
469.50 1.215445
469.60 1.213891
469.70 1.212339
469.80 1.210787
469.90 1.20932
470.00 1.207399
470.10 1.204576
470.20 1.20153
470.30 1.198486
470.40 1.195445
470.50 1.192406
470.60 1.184706
470.70 1.175846
470.80 1.166994
470.90 1.158149
471.00 1.139188
471.10 1.106582
471.20 1.045415
471.30 0.880391
471.40 0.9085587
471.50 1.020767
471.60 1.065904
471.70 1.103966
471.80 1.121844
471.90 1.134671
472.00 1.147486
472.10 1.160291
472.20 1.165589
472.30 1.169009
472.40 1.172426
472.50 1.17584
472.60 1.179251
472.70 1.181362
472.80 1.18196
472.90 1.182312
473.00 1.182663
473.10 1.183014
473.20 1.183365
473.30 1.183715
473.40 1.184064
473.50 1.184414
473.60 1.184763
473.70 1.185111
473.80 1.184965
473.90 1.184695
474.00 1.184426
474.10 1.184156
474.20 1.183724
474.30 1.183224
474.40 1.182726
474.50 1.182227
474.60 1.181717
474.70 1.181091
474.80 1.180465
474.90 1.179839
475.00 1.179213
475.10 1.178589
475.20 1.177964
475.30 1.17734
475.40 1.176726
475.50 1.176116
475.60 1.175506
475.70 1.174896
475.80 1.174287
475.90 1.173678
476.00 1.173069
476.10 1.172461
476.20 1.171839
476.30 1.171212
476.40 1.170586
476.50 1.16996
476.60 1.169334
476.70 1.168709
476.80 1.168084
476.90 1.167402
477.00 1.166707
477.10 1.166013
477.20 1.165319
477.30 1.164625
477.40 1.163932
477.50 1.163239
477.60 1.162547
477.70 1.161855
477.80 1.161164
477.90 1.160473
478.00 1.159783
478.10 1.159093
478.20 1.158404
478.30 1.157715
478.40 1.157027
478.50 1.156339
478.60 1.155652
478.70 1.15511
478.80 1.154627
478.90 1.154002
479.00 1.153342
479.10 1.152682
479.20 1.152023
479.30 1.151364
479.40 1.150654
479.50 1.149913
479.60 1.149172
479.70 1.148433
479.80 1.147693
479.90 1.146954
480.00 1.146216
480.10 1.145478
480.20 1.144741
480.30 1.144004
480.40 1.143268
480.50 1.142532
480.60 1.141797
480.70 1.141062
480.80 1.140328
480.90 1.139595
481.00 1.138861
481.10 1.138129
481.20 1.137489
481.30 1.136849
481.40 1.136209
481.50 1.135571
481.60 1.134932
481.70 1.134294
481.80 1.133656
481.90 1.133019
482.00 1.132383
482.10 1.131746
482.20 1.131104
482.30 1.130376
482.40 1.129649
482.50 1.128923
482.60 1.128197
482.70 1.127471
482.80 1.126746
482.90 1.126021
483.00 1.125297
483.10 1.124574
483.20 1.123851
483.30 1.123128
483.40 1.122406
483.50 1.121685
483.60 1.120963
483.70 1.120159
483.80 1.119355
483.90 1.118551
484.00 1.117748
484.10 1.116946
484.20 1.116158
484.30 1.115376
484.40 1.114596
484.50 1.113815
484.60 1.113036
484.70 1.112258
484.80 1.111501
484.90 1.110745
485.00 1.10999
485.10 1.109235
485.20 1.10848
485.30 1.107726
485.40 1.106973
485.50 1.10622
485.60 1.105468
485.70 1.10452
485.80 1.103573
485.90 1.102627
486.00 1.101682
486.10 1.100737
486.20 1.099793
486.30 1.09885
486.40 1.097907
486.50 1.096965
486.60 1.096023
486.70 1.095086
486.80 1.094198
486.90 1.09331
487.00 1.092422
487.10 1.091536
487.20 1.090272
487.30 1.089009
487.40 1.087748
487.50 1.086487
487.60 1.085227
487.70 1.083968
487.80 1.08271
487.90 1.081453
488.00 1.080197
488.10 1.078942
488.20 1.077671
488.30 1.07618
488.40 1.074689
488.50 1.0732
488.60 1.071712
488.70 1.070225
488.80 1.068485
488.90 1.066746
489.00 1.06476
489.10 1.062138
489.20 1.059517
489.30 1.056899
489.40 1.054283
489.50 1.051669
489.60 1.049057
489.70 1.046447
489.80 1.043118
489.90 1.039041
490.00 1.034966
490.10 1.030895
490.20 1.026828
490.30 1.022763
490.40 1.016187
490.50 1.009617
490.60 1.003052
490.70 0.9964917
490.80 0.9875481
490.90 0.9781194
491.00 0.9720162
491.10 0.9812708
491.20 0.9878869
491.30 0.9826635
491.40 0.972584
491.50 0.959091
491.60 0.9368555
491.70 0.9065242
491.80 0.8752284
491.90 0.8308228
492.00 0.7677005
492.10 0.7949553
492.20 0.6500225
492.30 0.7074771
492.40 0.7881668
492.50 0.8358656
492.60 0.8677583
492.70 0.8868869
492.80 0.9059998
492.90 0.9250971
493.00 0.9434539
493.10 0.9521682
493.20 0.9608752
493.30 0.9695752
493.40 0.978268
493.50 0.9869537
493.60 0.9921047
493.70 0.9965616
493.80 1.001015
493.90 1.005042
494.00 1.008405
494.10 1.011351
494.20 1.013417
494.30 1.015481
494.40 1.017544
494.50 1.019605
494.60 1.021591
494.70 1.022611
494.80 1.023602
494.90 1.024514
495.00 1.025424
495.10 1.026334
495.20 1.026722
495.30 1.027109
495.40 1.027496
495.50 1.027883
495.60 1.028269
495.70 1.028655
495.80 1.02904
495.90 1.029425
496.00 1.02981
496.10 1.029938
496.20 1.029538
496.30 1.029334
496.40 1.02913
496.50 1.028927
496.60 1.028723
496.70 1.028436
496.80 1.028149
496.90 1.027863
497.00 1.027576
497.10 1.02729
497.20 1.027004
497.30 1.026685
497.40 1.026272
497.50 1.025859
497.60 1.025447
497.70 1.025022
497.80 1.024422
497.90 1.023822
498.00 1.023223
498.10 1.022624
498.20 1.022026
498.30 1.021427
498.40 1.02083
498.50 1.020233
498.60 1.019636
498.70 1.018376
498.80 1.017117
498.90 1.016248
499.00 1.015378
499.10 1.01451
499.20 1.013533
499.30 1.012272
499.40 1.010854
499.50 1.009437
499.60 1.008022
499.70 1.006553
499.80 1.004367
499.90 1.002183
500.00 1
500.10 0.997819
500.20 0.9949015
500.30 0.990418
500.40 0.985938
500.50 0.9814615
500.60 0.9769885
500.70 0.972519
500.80 0.9657799
500.90 0.9542179
501.00 0.942665
501.10 0.9311212
501.20 0.9076031
501.30 0.8744041
501.40 0.8331519
501.50 0.7274552
501.60 0.7016924
501.70 0.8415961
501.80 0.8932665
501.90 0.9218892
502.00 0.9450407
502.10 0.9566009
502.20 0.9677193
502.30 0.9730846
502.40 0.9773661
502.50 0.9793513
502.60 0.9813349
502.70 0.9833168
502.80 0.9852971
502.90 0.9872757
503.00 0.9886922
503.10 0.9889169
503.20 0.9891414
503.30 0.9893656
503.40 0.9893766
503.50 0.9887821
503.60 0.9881879
503.70 0.9875941
503.80 0.9869138
503.90 0.9855962
504.00 0.9826062
504.10 0.9760638
504.20 0.9695266
504.30 0.9629945
504.40 0.9570922
504.50 0.9529718
504.60 0.9455058
504.70 0.9087064
504.80 0.8065348
504.90 0.8729604
505.00 0.912124
505.10 0.9320819
505.20 0.9482749
505.30 0.9537888
505.40 0.9592983
505.50 0.9648033
505.60 0.9688587
505.70 0.9698409
505.80 0.9708222
505.90 0.9718027
506.00 0.9727823
506.10 0.9737611
506.20 0.9744808
506.30 0.9744652
506.40 0.9744495
506.50 0.9744338
506.60 0.9744181
506.70 0.9744022
506.80 0.9743863
506.90 0.9743703
507.00 0.9743543
507.10 0.9742204
507.20 0.9738229
507.30 0.9733876
507.40 0.9729526
507.50 0.9725179
507.60 0.9720834
507.70 0.9716492
507.80 0.9712153
507.90 0.9707816
508.00 0.9703482
508.10 0.9699151
508.20 0.9694822
508.30 0.9690496
508.40 0.9686173
508.50 0.9681852
508.60 0.9677534
508.70 0.9673218
508.80 0.9669038
508.90 0.9665239
509.00 0.9661441
509.10 0.9657213
509.20 0.9652067
509.30 0.9646924
509.40 0.9641785
509.50 0.9636649
509.60 0.9631516
509.70 0.9626386
509.80 0.962126
509.90 0.9616137
510.00 0.9611017
510.10 0.9605901
510.20 0.9600787
510.30 0.9595538
510.40 0.9589895
510.50 0.9584256
510.60 0.9578621
510.70 0.957299
510.80 0.9567362
510.90 0.9561737
511.00 0.9556117
511.10 0.95505
511.20 0.9544886
511.30 0.9539277
511.40 0.9533671
511.50 0.9528069
511.60 0.9522703
511.70 0.9517837
511.80 0.9512974
511.90 0.9508114
512.00 0.9503257
512.10 0.9498403
512.20 0.9493552
512.30 0.9488618
512.40 0.948344
512.50 0.9478266
512.60 0.9473095
512.70 0.9467928
512.80 0.9462764
512.90 0.9457603
513.00 0.9452445
513.10 0.9447291
513.20 0.944214
513.30 0.9436992
513.40 0.9431848
513.50 0.9426707
513.60 0.9421569
513.70 0.9416435
513.80 0.9411303
513.90 0.9406175
514.00 0.9400703
514.10 0.9395177
514.20 0.9389655
514.30 0.9384136
514.40 0.9378621
514.50 0.9373109
514.60 0.9367602
514.70 0.9362097
514.80 0.9356596
514.90 0.9351099
515.00 0.9345606
515.10 0.9340116
515.20 0.9334629
515.30 0.9329146
515.40 0.9323667
515.50 0.9318191
515.60 0.9312718
515.70 0.930725
515.80 0.9301784
515.90 0.9296323
516.00 0.9290865
516.10 0.928541
516.20 0.9279959
516.30 0.9274511
516.40 0.9269067
516.50 0.9263676
516.60 0.9258547
516.70 0.9253421
516.80 0.9248298
516.90 0.9243179
517.00 0.9238063
517.10 0.923295
517.20 0.9227841
517.30 0.9222734
517.40 0.9217631
517.50 0.9212532
517.60 0.9207435
517.70 0.9202342
517.80 0.9197252
517.90 0.9192165
518.00 0.9187082
518.10 0.9182001
518.20 0.9176924
518.30 0.9171851
518.40 0.916678
518.50 0.9161713
518.60 0.9156648
518.70 0.9151588
518.80 0.914653
518.90 0.9141475
519.00 0.9136424
519.10 0.9131312
519.20 0.9126132
519.30 0.9120955
519.40 0.9115781
519.50 0.9110611
519.60 0.9105444
519.70 0.910028
519.80 0.9095119
519.90 0.9089962
520.00 0.9084808
520.10 0.9079657
520.20 0.907451
520.30 0.9069366
520.40 0.9064225
520.50 0.9059087
520.60 0.9053953
520.70 0.9048822
520.80 0.9043694
520.90 0.903857
521.00 0.9033449
521.10 0.9028331
521.20 0.9023216
521.30 0.9018105
521.40 0.9012997
521.50 0.9007892
521.60 0.900279
521.70 0.8997692
521.80 0.8992597
521.90 0.8987505
522.00 0.8982416
522.10 0.8977331
522.20 0.8972249
522.30 0.896717
522.40 0.8962094
522.50 0.8957022
522.60 0.8951952
522.70 0.8946886
522.80 0.8941824
522.90 0.8936764
523.00 0.8931708
523.10 0.8926654
523.20 0.8921604
523.30 0.8916558
523.40 0.8911514
523.50 0.8906474
523.60 0.8901437
523.70 0.8896403
523.80 0.8891372
523.90 0.8886344
524.00 0.888132
524.10 0.8876299
524.20 0.8871281
524.30 0.8866193
524.40 0.886105
524.50 0.8855911
524.60 0.8850775
524.70 0.8845642
524.80 0.8840513
524.90 0.8835387
525.00 0.8830264
525.10 0.8825144
525.20 0.8820028
525.30 0.8814915
525.40 0.8809805
525.50 0.8804698
525.60 0.8799595
525.70 0.8794495
525.80 0.8789398
525.90 0.8784304
526.00 0.8779214
526.10 0.8774127
526.20 0.8769043
526.30 0.8763962
526.40 0.8758885
526.50 0.875381
526.60 0.8748739
526.70 0.8743672
526.80 0.8738607
526.90 0.8733546
527.00 0.8728488
527.10 0.8723433
527.20 0.8718381
527.30 0.8713332
527.40 0.8708287
527.50 0.8703245
527.60 0.8698206
527.70 0.869317
527.80 0.8688138
527.90 0.8683108
528.00 0.8678082
528.10 0.8673059
528.20 0.8668039
528.30 0.8663023
528.40 0.8658009
528.50 0.8652999
528.60 0.8647992
528.70 0.8642988
528.80 0.8637987
528.90 0.8632989
529.00 0.8627995
529.10 0.8623004
529.20 0.8618015
529.30 0.861303
529.40 0.8608049
529.50 0.8603072
529.60 0.8598114
529.70 0.859316
529.80 0.8588208
529.90 0.8583259
530.00 0.8578314
530.10 0.8573372
530.20 0.8568433
530.30 0.8563496
530.40 0.8558563
530.50 0.8553634
530.60 0.8548707
530.70 0.8543783
530.80 0.8538863
530.90 0.8533945
531.00 0.8529031
531.10 0.852412
531.20 0.8519212
531.30 0.8514307
531.40 0.8509405
531.50 0.8504506
531.60 0.849961
531.70 0.8494717
531.80 0.8489828
531.90 0.8484941
532.00 0.8480057
532.10 0.8475177
532.20 0.8470486
532.30 0.8465893
532.40 0.8461303
532.50 0.8456716
532.60 0.8452131
532.70 0.844755
532.80 0.8442971
532.90 0.8438395
533.00 0.8433822
533.10 0.8429252
533.20 0.8424685
533.30 0.842012
533.40 0.8415559
533.50 0.8411
533.60 0.8406444
533.70 0.8401891
533.80 0.8397341
533.90 0.8392793
534.00 0.8388248
534.10 0.8383707
534.20 0.8379168
534.30 0.8374631
534.40 0.8370098
534.50 0.8365567
534.60 0.8361039
534.70 0.8356514
534.80 0.8351942
534.90 0.834716
535.00 0.8342382
535.10 0.8337606
535.20 0.8332833
535.30 0.8328063
535.40 0.8323296
535.50 0.8318532
535.60 0.8313771
535.70 0.8309013
535.80 0.8304258
535.90 0.8299506
536.00 0.8294757
536.10 0.8290011
536.20 0.8285268
536.30 0.8280527
536.40 0.827579
536.50 0.8271056
536.60 0.8266325
536.70 0.8261596
536.80 0.8256871
536.90 0.8252148
537.00 0.8247429
537.10 0.8242712
537.20 0.8237999
537.30 0.8233288
537.40 0.822858
537.50 0.8223875
537.60 0.8219173
537.70 0.8214474
537.80 0.8209778
537.90 0.8205085
538.00 0.8200395
538.10 0.8195708
538.20 0.8191023
538.30 0.8186342
538.40 0.8181663
538.50 0.8176988
538.60 0.8172315
538.70 0.8167645
538.80 0.8162978
538.90 0.8158314
539.00 0.8153653
539.10 0.8148995
539.20 0.8144339
539.30 0.8139687
539.40 0.8135037
539.50 0.8130391
539.60 0.8125747
539.70 0.8121106
539.80 0.8116468
539.90 0.8111833
540.00 0.8107201
540.10 0.8102571
540.20 0.8098051
540.30 0.8093578
540.40 0.8089107
540.50 0.8084639
540.60 0.8080174
540.70 0.8075711
540.80 0.8071252
540.90 0.8066795
541.00 0.806234
541.10 0.8057889
541.20 0.805344
541.30 0.8048994
541.40 0.8044551
541.50 0.804011
541.60 0.8035672
541.70 0.8031237
541.80 0.8026805
541.90 0.8022375
542.00 0.8017948
542.10 0.8013524
542.20 0.8009102
542.30 0.8004683
542.40 0.8000267
542.50 0.7995854
542.60 0.7991443
542.70 0.7987035
542.80 0.798263
542.90 0.7978228
543.00 0.7973828
543.10 0.7969431
543.20 0.7965036
543.30 0.7960644
543.40 0.7956255
543.50 0.7951869
543.60 0.7947485
543.70 0.7943104
543.80 0.7938726
543.90 0.793435
544.00 0.7929977
544.10 0.7925607
544.20 0.7921239
544.30 0.7916875
544.40 0.7912512
544.50 0.7908153
544.60 0.7903796
544.70 0.7899442
544.80 0.789509
544.90 0.7890741
545.00 0.7886395
545.10 0.7882051
545.20 0.787771
545.30 0.7873372
545.40 0.7869036
545.50 0.7864703
545.60 0.7860292
545.70 0.7855849
545.80 0.7851408
545.90 0.784697
546.00 0.7842535
546.10 0.7838103
546.20 0.7833673
546.30 0.7829246
546.40 0.7824822
546.50 0.78204
546.60 0.7815982
546.70 0.7811565
546.80 0.7807152
546.90 0.7802741
547.00 0.7798333
547.10 0.7793928
547.20 0.7789525
547.30 0.7785126
547.40 0.7780728
547.50 0.7776334
547.60 0.7771942
547.70 0.7767553
547.80 0.7763166
547.90 0.7758783
548.00 0.7754402
548.10 0.7750023
548.20 0.7745647
548.30 0.7741274
548.40 0.7736903
548.50 0.7732535
548.60 0.7728169
548.70 0.7723806
548.80 0.7719446
548.90 0.7715089
549.00 0.7710734
549.10 0.7706381
549.20 0.7702032
549.30 0.7697685
549.40 0.769334
549.50 0.7688999
549.60 0.768466
549.70 0.7680323
549.80 0.767599
549.90 0.7671659
550.00 0.766733
550.10 0.7663004
550.20 0.7658681
550.30 0.7654361
550.40 0.7650043
550.50 0.7645728
550.60 0.7641415
550.70 0.7637105
550.80 0.7632798
550.90 0.7628493
551.00 0.7624231
551.10 0.76202
551.20 0.7616172
551.30 0.7612145
551.40 0.7608122
551.50 0.76041
551.60 0.7600081
551.70 0.7596065
551.80 0.7592051
551.90 0.7588039
552.00 0.758403
552.10 0.7580023
552.20 0.7576018
552.30 0.7572016
552.40 0.7568016
552.50 0.7564019
552.60 0.7560024
552.70 0.7556032
552.80 0.7552042
552.90 0.7548054
553.00 0.7544068
553.10 0.7540086
553.20 0.7536105
553.30 0.7532127
553.40 0.7528151
553.50 0.7524178
553.60 0.7520207
553.70 0.7516238
553.80 0.7512121
553.90 0.7507907
554.00 0.7503696
554.10 0.7499487
554.20 0.749528
554.30 0.7491076
554.40 0.7486875
554.50 0.7482676
554.60 0.747848
554.70 0.7474286
554.80 0.7470094
554.90 0.7465906
555.00 0.746172
555.10 0.7457536
555.20 0.7453355
555.30 0.7449176
555.40 0.7445
555.50 0.7440827
555.60 0.7436656
555.70 0.7432487
555.80 0.7428321
555.90 0.7424158
556.00 0.7419997
556.10 0.7415838
556.20 0.7411682
556.30 0.7407529
556.40 0.7403378
556.50 0.739923
556.60 0.7395099
556.70 0.739097
556.80 0.7386844
556.90 0.738272
557.00 0.7378599
557.10 0.737448
557.20 0.7370364
557.30 0.736625
557.40 0.7362139
557.50 0.735803
557.60 0.7353923
557.70 0.734982
557.80 0.7345718
557.90 0.7341619
558.00 0.7337523
558.10 0.7333429
558.20 0.7329337
558.30 0.7325248
558.40 0.7321161
558.50 0.7317077
558.60 0.7312995
558.70 0.7308916
558.80 0.7304839
558.90 0.7300765
559.00 0.7296693
559.10 0.7292623
559.20 0.7288556
559.30 0.7284491
559.40 0.7280429
559.50 0.727637
559.60 0.7272312
559.70 0.7268257
559.80 0.7264205
559.90 0.7260155
560.00 0.7256107
560.10 0.7252062
560.20 0.7248019
560.30 0.7243979
560.40 0.7239941
560.50 0.7235906
560.60 0.7231873
560.70 0.7227842
560.80 0.7223814
560.90 0.7219788
561.00 0.7215765
561.10 0.7211744
561.20 0.7207725
561.30 0.7203709
561.40 0.7199695
561.50 0.7195684
561.60 0.7191675
561.70 0.7187668
561.80 0.7183664
561.90 0.7179662
562.00 0.7175663
562.10 0.7171672
562.20 0.7167692
562.30 0.7163714
562.40 0.7159739
562.50 0.7155766
562.60 0.7151796
562.70 0.7147828
562.80 0.7143862
562.90 0.7139899
563.00 0.7135938
563.10 0.7131979
563.20 0.7128023
563.30 0.7124069
563.40 0.7120117
563.50 0.7116168
563.60 0.7112221
563.70 0.7108277
563.80 0.7104335
563.90 0.7100395
564.00 0.7096458
564.10 0.7092522
564.20 0.708859
564.30 0.7084659
564.40 0.7080731
564.50 0.7076805
564.60 0.7072882
564.70 0.7068961
564.80 0.7065042
564.90 0.7061126
565.00 0.7057211
565.10 0.7053299
565.20 0.7049389
565.30 0.7045481
565.40 0.7041576
565.50 0.7037673
565.60 0.7033773
565.70 0.7029874
565.80 0.7025978
565.90 0.7022085
566.00 0.7018193
566.10 0.7014304
566.20 0.7010418
566.30 0.7006533
566.40 0.7002651
566.50 0.6998771
566.60 0.6994894
566.70 0.6991018
566.80 0.6987145
566.90 0.6983275
567.00 0.6979407
567.10 0.697554
567.20 0.6971677
567.30 0.6967815
567.40 0.6963956
567.50 0.6960099
567.60 0.6956245
567.70 0.6952395
567.80 0.6948559
567.90 0.6944725
568.00 0.6940894
568.10 0.6937065
568.20 0.6933238
568.30 0.6929413
568.40 0.6925591
568.50 0.6921771
568.60 0.6917953
568.70 0.6914137
568.80 0.6910324
568.90 0.6906513
569.00 0.6902704
569.10 0.6898898
569.20 0.6895093
569.30 0.6891291
569.40 0.6887491
569.50 0.6883694
569.60 0.6879899
569.70 0.6876105
569.80 0.6872315
569.90 0.6868526
570.00 0.686474
570.10 0.6860955
570.20 0.6857173
570.30 0.6853394
570.40 0.6849616
570.50 0.6845841
570.60 0.6842068
570.70 0.6838297
570.80 0.6834529
570.90 0.6830762
571.00 0.6826998
571.10 0.6823236
571.20 0.6819477
571.30 0.6815719
571.40 0.6811964
571.50 0.6808211
571.60 0.680446
571.70 0.6800711
571.80 0.6796965
571.90 0.6793221
572.00 0.6789479
572.10 0.6785739
572.20 0.6782001
572.30 0.6778266
572.40 0.6774533
572.50 0.6770802
572.60 0.6767073
572.70 0.6763346
572.80 0.6759622
572.90 0.6755899
573.00 0.6752179
573.10 0.6748461
573.20 0.6744746
573.30 0.6741032
573.40 0.6737185
573.50 0.6733152
573.60 0.6729122
573.70 0.6725094
573.80 0.6721069
573.90 0.6717046
574.00 0.6713025
574.10 0.6709007
574.20 0.6704991
574.30 0.6700978
574.40 0.6696967
574.50 0.6692958
574.60 0.6688952
574.70 0.6684948
574.80 0.6680947
574.90 0.6676948
575.00 0.6672951
575.10 0.6668957
575.20 0.6664965
575.30 0.6660975
575.40 0.6656988
575.50 0.6653003
575.60 0.664902
575.70 0.664504
575.80 0.6641063
575.90 0.6637087
576.00 0.6633114
576.10 0.6629143
576.20 0.6625175
576.30 0.6621209
576.40 0.6617245
576.50 0.6613284
576.60 0.6609325
576.70 0.6605369
576.80 0.6601415
576.90 0.6597463
577.00 0.6593513
577.10 0.6589566
577.20 0.6585621
577.30 0.6581679
577.40 0.6577738
577.50 0.65738
577.60 0.6569865
577.70 0.6565932
577.80 0.6562002
577.90 0.6558073
578.00 0.6554147
578.10 0.6550224
578.20 0.6546303
578.30 0.6542384
578.40 0.6538467
578.50 0.6534553
578.60 0.6530641
578.70 0.6526731
578.80 0.6522824
578.90 0.6518919
579.00 0.6515016
579.10 0.651103
579.20 0.6506184
579.30 0.650134
579.40 0.64965
579.50 0.6491663
579.60 0.6486828
579.70 0.6481997
579.80 0.6477168
579.90 0.6472342
580.00 0.646752
580.10 0.6462609
580.20 0.6457553
580.30 0.64525
580.40 0.644745
580.50 0.6442404
580.60 0.643736
580.70 0.6432319
580.80 0.6427282
580.90 0.6422248
581.00 0.6417217
581.10 0.6412188
581.20 0.6407163
581.30 0.6402141
581.40 0.6397122
581.50 0.6392107
581.60 0.6387094
581.70 0.6382084
581.80 0.6377077
581.90 0.6372074
582.00 0.6367073
582.10 0.6361403
582.20 0.6354641
582.30 0.6347882
582.40 0.6341128
582.50 0.6334378
582.60 0.6327632
582.70 0.632089
582.80 0.6314153
582.90 0.630742
583.00 0.6300691
583.10 0.6293967
583.20 0.6287247
583.30 0.6280531
583.40 0.6273819
583.50 0.6267111
583.60 0.6258866
583.70 0.6248112
583.80 0.6237365
583.90 0.6226625
584.00 0.6215892
584.10 0.6205166
584.20 0.6194446
584.30 0.6183734
584.40 0.6173029
584.50 0.6162331
584.60 0.6151639
584.70 0.6140955
584.80 0.6130278
584.90 0.6118765
585.00 0.6103425
585.10 0.6088094
585.20 0.6069541
585.30 0.6045726
585.40 0.6021927
585.50 0.5998144
585.60 0.5974377
585.70 0.5950626
585.80 0.5926891
585.90 0.5903171
586.00 0.5879468
586.10 0.585578
586.20 0.5822562
586.30 0.5773795
586.40 0.5725061
586.50 0.567636
586.60 0.5627692
586.70 0.5579057
586.80 0.5511424
586.90 0.5412797
587.00 0.5314237
587.10 0.5215744
587.20 0.507791
587.30 0.4875892
587.40 0.4623678
587.50 0.4073816
587.60 0.3687781
587.70 0.4430919
587.80 0.4785006
587.90 0.5004991
588.00 0.5178781
588.10 0.5277351
588.20 0.5375853
588.30 0.5474288
588.40 0.5551639
588.50 0.5594656
588.60 0.5637644
588.70 0.5680603
588.80 0.5723532
588.90 0.5766432
589.00 0.5799266
589.10 0.5815711
589.20 0.5832143
589.30 0.5848565
589.40 0.5864974
589.50 0.5881373
589.60 0.5897759
589.70 0.5914135
589.80 0.5930499
589.90 0.5946851
590.00 0.595925
590.10 0.5965211
590.20 0.5971168
590.30 0.597712
590.40 0.5983068
590.50 0.5989012
590.60 0.5994951
590.70 0.6000886
590.80 0.6004393
590.90 0.6006809
591.00 0.6009223
591.10 0.6011635
591.20 0.6014046
591.30 0.6016454
591.40 0.601886
591.50 0.6021265
591.60 0.6022578
591.70 0.6022114
591.80 0.6021649
591.90 0.6021185
592.00 0.6020721
592.10 0.6020257
592.20 0.6019792
592.30 0.6019328
592.40 0.6018863
592.50 0.6018399
592.60 0.6017935
592.70 0.601747
592.80 0.6017005
592.90 0.6016541
593.00 0.6016076
593.10 0.6015017
593.20 0.601299
593.30 0.6010963
593.40 0.6008937
593.50 0.6006912
593.60 0.6004889
593.70 0.6002866
593.80 0.6000844
593.90 0.5998824
594.00 0.5996804
594.10 0.5994785
594.20 0.5992768
594.30 0.5990751
594.40 0.5988736
594.50 0.5986721
594.60 0.5984708
594.70 0.5982695
594.80 0.5980684
594.90 0.5978673
595.00 0.5976664
595.10 0.5974511
595.20 0.5972125
595.30 0.596974
595.40 0.5967356
595.50 0.5964973
595.60 0.5962592
595.70 0.5960212
595.80 0.5957833
595.90 0.5955455
596.00 0.5953079
596.10 0.5950704
596.20 0.594833
596.30 0.5945958
596.40 0.5943587
596.50 0.5941217
596.60 0.5938848
596.70 0.5936276
596.80 0.5933579
596.90 0.5930884
597.00 0.5928191
597.10 0.5925499
597.20 0.5922808
597.30 0.5920119
597.40 0.5917432
597.50 0.5914746
597.60 0.5912005
597.70 0.5909175
597.80 0.5906347
597.90 0.590352
598.00 0.5900694
598.10 0.589787
598.20 0.5895048
598.30 0.5892228
598.40 0.5889408
598.50 0.5886591
598.60 0.5883775
598.70 0.588096
598.80 0.5878147
598.90 0.5875336
599.00 0.5872526
599.10 0.5869718
599.20 0.5866911
599.30 0.5864106
599.40 0.5861207
599.50 0.585831
599.60 0.5855415
599.70 0.5852521
599.80 0.5849628
599.90 0.5846738
600.00 0.5843848
600.10 0.5840961
600.20 0.5838075
600.30 0.5835191
600.40 0.5832308
600.50 0.5829427
600.60 0.5826547
600.70 0.5823669
600.80 0.5820793
600.90 0.5817918
601.00 0.5815045
601.10 0.5812173
601.20 0.5809303
601.30 0.5806435
601.40 0.5803518
601.50 0.5800602
601.60 0.5797689
601.70 0.5794776
601.80 0.5791866
601.90 0.5788957
602.00 0.5786049
602.10 0.5783144
602.20 0.578024
602.30 0.5777337
602.40 0.5774436
602.50 0.5771537
602.60 0.5768639
602.70 0.5765825
602.80 0.5763016
602.90 0.5760086
603.00 0.5757157
603.10 0.575423
603.20 0.5751305
603.30 0.5748381
603.40 0.5745459
603.50 0.5742538
603.60 0.5739619
603.70 0.5736702
603.80 0.5733786
603.90 0.5730872
604.00 0.572796
604.10 0.5725049
604.20 0.5722139
604.30 0.5719232
604.40 0.5716326
604.50 0.5713335
604.60 0.5710345
604.70 0.5707357
604.80 0.5704371
604.90 0.5701386
605.00 0.5698403
605.10 0.5695422
605.20 0.5692442
605.30 0.5689464
605.40 0.5686488
605.50 0.5683263
605.60 0.568004
605.70 0.5676819
605.80 0.56736
605.90 0.5670383
606.00 0.5667167
606.10 0.5662849
606.20 0.5658534
606.30 0.5654221
606.40 0.5649911
606.50 0.5636256
606.60 0.562261
606.70 0.553022
606.80 0.5506561
606.90 0.5557596
607.00 0.55773
607.10 0.5583787
607.20 0.559027
607.30 0.5591584
607.40 0.5592897
607.50 0.559421
607.60 0.5595521
607.70 0.5594252
607.80 0.5592984
607.90 0.5591717
608.00 0.559045
608.10 0.5589184
608.20 0.5587918
608.30 0.5585948
608.40 0.5583979
608.50 0.5582012
608.60 0.5580045
608.70 0.5577824
608.80 0.557549
608.90 0.5573158
609.00 0.5570826
609.10 0.5568496
609.20 0.5566167
609.30 0.5563592
609.40 0.5561019
609.50 0.5558446
609.60 0.5555876
609.70 0.5553306
609.80 0.5550738
609.90 0.5548171
610.00 0.5545606
610.10 0.5543042
610.20 0.554048
610.30 0.5537919
610.40 0.5535359
610.50 0.5532801
610.60 0.5530244
610.70 0.5527688
610.80 0.5525134
610.90 0.5522418
611.00 0.5519704
611.10 0.5516991
611.20 0.5514279
611.30 0.551157
611.40 0.5508861
611.50 0.5506154
611.60 0.5503449
611.70 0.5500745
611.80 0.5498042
611.90 0.5495341
612.00 0.5492641
612.10 0.5489943
612.20 0.5487247
612.30 0.5484551
612.40 0.5481801
612.50 0.5479053
612.60 0.5476306
612.70 0.547356
612.80 0.5470816
612.90 0.5468073
613.00 0.5465332
613.10 0.5462592
613.20 0.5459854
613.30 0.5457118
613.40 0.5454382
613.50 0.5451649
613.60 0.5448917
613.70 0.5446186
613.80 0.5443457
613.90 0.5440729
614.00 0.5438003
614.10 0.5435278
614.20 0.5432555
614.30 0.5429833
614.40 0.5427125
614.50 0.5424418
614.60 0.5421713
614.70 0.5419009
614.80 0.5416261
614.90 0.5413506
615.00 0.5410752
615.10 0.5407999
615.20 0.5405248
615.30 0.5402498
615.40 0.539975
615.50 0.5397004
615.60 0.5394259
615.70 0.5391515
615.80 0.5388773
615.90 0.5386033
616.00 0.5383294
616.10 0.5380556
616.20 0.537782
616.30 0.5375085
616.40 0.5372352
616.50 0.5369621
616.60 0.5366891
616.70 0.5364162
616.80 0.5361435
616.90 0.5358698
617.00 0.5355963
617.10 0.5353229
617.20 0.5350497
617.30 0.5347766
617.40 0.5345037
617.50 0.5342309
617.60 0.5339583
617.70 0.5336858
617.80 0.5334135
617.90 0.5331413
618.00 0.5328692
618.10 0.5325973
618.20 0.5323256
618.30 0.532054
618.40 0.5317826
618.50 0.5315113
618.60 0.5312401
618.70 0.5309691
618.80 0.5306983
618.90 0.5304276
619.00 0.530157
619.10 0.5298866
619.20 0.5296163
619.30 0.5293462
619.40 0.5290762
619.50 0.5288064
619.60 0.5285367
619.70 0.5282672
619.80 0.5279978
619.90 0.5277285
620.00 0.5274595
620.10 0.5271905
620.20 0.5269217
620.30 0.526653
620.40 0.5263845
620.50 0.5261162
620.60 0.525848
620.70 0.5255799
620.80 0.525312
620.90 0.5250443
621.00 0.5247772
621.10 0.5245101
621.20 0.5242433
621.30 0.5239765
621.40 0.5237099
621.50 0.5234435
621.60 0.5231772
621.70 0.522911
621.80 0.522645
621.90 0.5223791
622.00 0.5221134
622.10 0.5218478
622.20 0.5215824
622.30 0.5213171
622.40 0.521052
622.50 0.5207869
622.60 0.5205221
622.70 0.5202574
622.80 0.5199928
622.90 0.5197283
623.00 0.5194641
623.10 0.5191999
623.20 0.5189359
623.30 0.518672
623.40 0.5184083
623.50 0.5181447
623.60 0.5178813
623.70 0.517618
623.80 0.5173549
623.90 0.5170918
624.00 0.516829
624.10 0.5165663
624.20 0.5163037
624.30 0.5160412
624.40 0.5157789
624.50 0.5155168
624.60 0.5152548
624.70 0.5149929
624.80 0.5147311
624.90 0.5144696
625.00 0.5142081
625.10 0.5139468
625.20 0.5136856
625.30 0.5134246
625.40 0.5131637
625.50 0.5129029
625.60 0.5126423
625.70 0.5123819
625.80 0.5121215
625.90 0.5118614
626.00 0.5116013
626.10 0.5113414
626.20 0.5110816
626.30 0.510822
626.40 0.5105625
626.50 0.5103032
626.60 0.510044
626.70 0.5097849
626.80 0.509526
626.90 0.5092672
627.00 0.5090085
627.10 0.50875
627.20 0.5084917
627.30 0.5082336
627.40 0.5079756
627.50 0.5077177
627.60 0.5074599
627.70 0.5072023
627.80 0.5069449
627.90 0.5066876
628.00 0.5064304
628.10 0.5061733
628.20 0.5059164
628.30 0.5056596
628.40 0.505403
628.50 0.5051465
628.60 0.5048901
628.70 0.5046339
628.80 0.5043778
628.90 0.5041219
629.00 0.5038661
629.10 0.5036104
629.20 0.5033549
629.30 0.5030995
629.40 0.5028442
629.50 0.5025891
629.60 0.5023341
629.70 0.5020792
629.80 0.5018245
629.90 0.5015699
630.00 0.5013155
630.10 0.5010612
630.20 0.500807
630.30 0.500553
630.40 0.5002991
630.50 0.5000454
630.60 0.4997918
630.70 0.4995383
630.80 0.499285
630.90 0.4990318
631.00 0.4987788
631.10 0.4985259
631.20 0.4982731
631.30 0.4980204
631.40 0.4977679
631.50 0.4975155
631.60 0.4972633
631.70 0.4970112
631.80 0.4967592
631.90 0.4965074
632.00 0.4962557
632.10 0.4960041
632.20 0.4957526
632.30 0.4955013
632.40 0.4952502
632.50 0.4949991
632.60 0.4947482
632.70 0.4944975
632.80 0.4942468
632.90 0.4939963
633.00 0.493746
633.10 0.4934957
633.20 0.4932456
633.30 0.4929957
633.40 0.4927463
633.50 0.4924975
633.60 0.4922489
633.70 0.4920003
633.80 0.4917519
633.90 0.4915036
634.00 0.4912555
634.10 0.4910075
634.20 0.4907596
634.30 0.4905118
634.40 0.4902642
634.50 0.4900167
634.60 0.4897694
634.70 0.4895222
634.80 0.4892751
634.90 0.4890281
635.00 0.4887813
635.10 0.4885346
635.20 0.488288
635.30 0.4880416
635.40 0.4877953
635.50 0.4875491
635.60 0.4873031
635.70 0.4870572
635.80 0.4868114
635.90 0.4865657
636.00 0.4863202
636.10 0.4860748
636.20 0.4858296
636.30 0.4855844
636.40 0.4853394
636.50 0.4850946
636.60 0.4848513
636.70 0.4846084
636.80 0.4843656
636.90 0.4841229
637.00 0.4838804
637.10 0.4836379
637.20 0.4833957
637.30 0.4831535
637.40 0.4829115
637.50 0.4826696
637.60 0.4824278
637.70 0.4821861
637.80 0.4819446
637.90 0.4817032
638.00 0.4814619
638.10 0.4812208
638.20 0.4809798
638.30 0.4807389
638.40 0.4804981
638.50 0.4802575
638.60 0.480017
638.70 0.4797766
638.80 0.4795364
638.90 0.4792963
639.00 0.4790563
639.10 0.4788164
639.20 0.4785767
639.30 0.478337
639.40 0.4780976
639.50 0.4778582
639.60 0.477619
639.70 0.4773793
639.80 0.477138
639.90 0.4768968
640.00 0.4766557
640.10 0.4764148
640.20 0.476174
640.30 0.4759333
640.40 0.4756928
640.50 0.4754523
640.60 0.475212
640.70 0.4749719
640.80 0.4747318
640.90 0.4744919
641.00 0.4742521
641.10 0.4740124
641.20 0.4737729
641.30 0.4735335
641.40 0.4732942
641.50 0.473055
641.60 0.472816
641.70 0.4725771
641.80 0.4723383
641.90 0.4720997
642.00 0.4718611
642.10 0.4716227
642.20 0.4713845
642.30 0.4711463
642.40 0.4709083
642.50 0.4706704
642.60 0.4704326
642.70 0.4701949
642.80 0.4699574
642.90 0.4697204
643.00 0.4694847
643.10 0.4692491
643.20 0.4690136
643.30 0.4687783
643.40 0.4685431
643.50 0.468308
643.60 0.468073
643.70 0.4678382
643.80 0.4676035
643.90 0.4673689
644.00 0.4671344
644.10 0.4669001
644.20 0.4666658
644.30 0.4664317
644.40 0.4661978
644.50 0.4659639
644.60 0.4657302
644.70 0.4654966
644.80 0.4652631
644.90 0.4650297
645.00 0.4647965
645.10 0.4645633
645.20 0.4643303
645.30 0.4640975
645.40 0.4638647
645.50 0.4636321
645.60 0.4633996
645.70 0.4631672
645.80 0.4629349
645.90 0.4627027
646.00 0.4624707
646.10 0.4622382
646.20 0.4620042
646.30 0.4617703
646.40 0.4615365
646.50 0.4613028
646.60 0.4610693
646.70 0.4608358
646.80 0.4606025
646.90 0.4603693
647.00 0.4601363
647.10 0.4599033
647.20 0.4596705
647.30 0.4594378
647.40 0.4592053
647.50 0.4589728
647.60 0.4587405
647.70 0.4585083
647.80 0.4582762
647.90 0.4580442
648.00 0.4578124
648.10 0.4575806
648.20 0.457349
648.30 0.4571176
648.40 0.4568862
648.50 0.456655
648.60 0.4564238
648.70 0.4561929
648.80 0.455962
648.90 0.4557312
649.00 0.4555006
649.10 0.4552701
649.20 0.4550397
649.30 0.4548094
649.40 0.4545778
649.50 0.4543462
649.60 0.4541148
649.70 0.4538835
649.80 0.4536523
649.90 0.4534212
650.00 0.4531903
650.10 0.4529594
650.20 0.4527287
650.30 0.4524981
650.40 0.4522676
650.50 0.4520373
650.60 0.4518071
650.70 0.451577
650.80 0.451347
650.90 0.4511171
651.00 0.4508873
651.10 0.4506577
651.20 0.4504282
651.30 0.4501988
651.40 0.4499695
651.50 0.4497404
651.60 0.4495114
651.70 0.4492824
651.80 0.4490537
651.90 0.448825
652.00 0.4485964
652.10 0.448368
652.20 0.4481397
652.30 0.4479115
652.40 0.4476834
652.50 0.4474554
652.60 0.4472243
652.70 0.4469916
652.80 0.4467589
652.90 0.4465264
653.00 0.446294
653.10 0.4460618
653.20 0.4458296
653.30 0.4455976
653.40 0.4453657
653.50 0.4451339
653.60 0.4449023
653.70 0.4446707
653.80 0.4444393
653.90 0.444208
654.00 0.4439768
654.10 0.4437458
654.20 0.4435148
654.30 0.443284
654.40 0.4430533
654.50 0.4428228
654.60 0.4425923
654.70 0.442362
654.80 0.4421318
654.90 0.4419017
655.00 0.4416717
655.10 0.4414418
655.20 0.4412121
655.30 0.4409825
655.40 0.440753
655.50 0.4405236
655.60 0.4402944
655.70 0.4400652
655.80 0.4398252
655.90 0.4395854
656.00 0.4393457
656.10 0.4391061
656.20 0.4388666
656.30 0.4386273
656.40 0.438388
656.50 0.4381489
656.60 0.43791
656.70 0.4376711
656.80 0.4374324
656.90 0.4371938
657.00 0.4369554
657.10 0.436717
657.20 0.4364788
657.30 0.4362407
657.40 0.4360027
657.50 0.4357649
657.60 0.4355272
657.70 0.4352896
657.80 0.4350297
657.90 0.4347748
658.00 0.434521
658.10 0.4342673
658.20 0.4340138
658.30 0.4337603
658.40 0.4335071
658.50 0.4332539
658.60 0.4330009
658.70 0.432748
658.80 0.4324952
658.90 0.4322426
659.00 0.4319901
659.10 0.4317306
659.20 0.4314605
659.30 0.4311769
659.40 0.4308933
659.50 0.43061
659.60 0.4303268
659.70 0.4300437
659.80 0.4297608
659.90 0.429478
660.00 0.4291954
660.10 0.4289129
660.20 0.4286306
660.30 0.4283485
660.40 0.4280344
660.50 0.4277148
660.60 0.4273953
660.70 0.4270761
660.80 0.426757
660.90 0.4263469
661.00 0.425937
661.10 0.4255274
661.20 0.425118
661.30 0.4247088
661.40 0.4242999
661.50 0.4238911
661.60 0.4234826
661.70 0.4230744
661.80 0.4226663
661.90 0.422051
662.00 0.421436
662.10 0.4208213
662.20 0.420207
662.30 0.4195931
662.40 0.4188147
662.50 0.4176156
662.60 0.4164173
662.70 0.4152196
662.80 0.4140227
662.90 0.4114662
663.00 0.4089113
663.10 0.404024
663.20 0.4063315
663.30 0.4157793
663.40 0.4183703
663.50 0.4189171
663.60 0.4194636
663.70 0.4194042
663.80 0.4193448
663.90 0.4191624
664.00 0.4189583
664.10 0.4186003
664.20 0.4182424
664.30 0.4178848
664.40 0.4175273
664.50 0.41717
664.60 0.416813
664.70 0.4162704
664.80 0.4157281
664.90 0.4151861
665.00 0.4146444
665.10 0.414103
665.20 0.413562
665.30 0.4130212
665.40 0.4124808
665.50 0.4117895
665.60 0.411072
665.70 0.410109
665.80 0.408955
665.90 0.4078016
666.00 0.406649
666.10 0.4054969
666.20 0.4043456
666.30 0.4031949
666.40 0.402045
666.50 0.3997457
666.60 0.3972449
666.70 0.3947456
666.80 0.3922478
666.90 0.3897515
667.00 0.3872566
667.10 0.3829392
667.20 0.3783025
667.30 0.3711389
667.40 0.3639795
667.50 0.351148
667.60 0.3373227
667.70 0.3119206
667.80 0.2725656
667.90 0.2923757
668.00 0.3241173
668.10 0.3388184
668.20 0.3521282
668.30 0.3590071
668.40 0.3647487
668.50 0.3704869
668.60 0.3762217
668.70 0.3799195
668.80 0.3821022
668.90 0.3842836
669.00 0.3864637
669.10 0.3886424
669.20 0.3908199
669.30 0.3918741
669.40 0.3927297
669.50 0.3935848
669.60 0.3944394
669.70 0.3952935
669.80 0.396147
669.90 0.397
670.00 0.3978525
670.10 0.3987045
670.20 0.3995559
670.30 0.3999866
670.40 0.400343
670.50 0.400699
670.60 0.4010549
670.70 0.4014105
670.80 0.4015144
670.90 0.4016181
671.00 0.4017218
671.10 0.4018254
671.20 0.401929
671.30 0.4020324
671.40 0.4021358
671.50 0.4022391
671.60 0.4023423
671.70 0.4024454
671.80 0.4025484
671.90 0.4025511
672.00 0.4025361
672.10 0.402521
672.20 0.402506
672.30 0.4024909
672.40 0.4024272
672.50 0.40236
672.60 0.4022927
672.70 0.4022255
672.80 0.4021583
672.90 0.4020911
673.00 0.4020239
673.10 0.4019567
673.20 0.4018896
673.30 0.4018108
673.40 0.4016837
673.50 0.4015481
673.60 0.4014126
673.70 0.4012771
673.80 0.4011417
673.90 0.4010063
674.00 0.400871
674.10 0.4007358
674.20 0.4006007
674.30 0.4004656
674.40 0.4003305
674.50 0.4001956
674.60 0.4000606
674.70 0.3999258
674.80 0.399791
674.90 0.3996563
675.00 0.3995216
675.10 0.399387
675.20 0.3992525
675.30 0.399118
675.40 0.3989548
675.50 0.3987866
675.60 0.3986185
675.70 0.3984505
675.80 0.3982825
675.90 0.3981147
676.00 0.3979469
676.10 0.3977792
676.20 0.3976116
676.30 0.397444
676.40 0.3972766
676.50 0.3971092
676.60 0.3969419
676.70 0.3967747
676.80 0.3966076
676.90 0.3964405
677.00 0.3962736
677.10 0.3961067
677.20 0.3959399
677.30 0.3957731
677.40 0.3956065
677.50 0.3954399
677.60 0.3952735
677.70 0.3951071
677.80 0.3949407
677.90 0.3947652
678.00 0.3945882
678.10 0.3944112
678.20 0.3942343
678.30 0.3940575
678.40 0.3938808
678.50 0.3937042
678.60 0.3935277
678.70 0.3933512
678.80 0.3931749
678.90 0.3929986
679.00 0.3928224
679.10 0.3926408
679.20 0.392457
679.30 0.3922733
679.40 0.3920896
679.50 0.391906
679.60 0.3917226
679.70 0.3915392
679.80 0.3913559
679.90 0.3911727
680.00 0.3909896
680.10 0.3908066
680.20 0.3906237
680.30 0.3904408
680.40 0.3902581
680.50 0.3900754
680.60 0.3898929
680.70 0.3897104
680.80 0.389528
680.90 0.3893457
681.00 0.3891635
681.10 0.3889814
681.20 0.3887994
681.30 0.3886174
681.40 0.3884356
681.50 0.3882538
681.60 0.3880722
681.70 0.3878906
681.80 0.3877091
681.90 0.3875277
682.00 0.3873464
682.10 0.3871652
682.20 0.3869841
682.30 0.3868031
682.40 0.3866221
682.50 0.3864413
682.60 0.3862605
682.70 0.3860798
682.80 0.3858992
682.90 0.3857187
683.00 0.3855383
683.10 0.385358
683.20 0.3851778
683.30 0.3849976
683.40 0.3848176
683.50 0.3846376
683.60 0.3844577
683.70 0.3842779
683.80 0.3840983
683.90 0.3839186
684.00 0.3837391
684.10 0.3835597
684.20 0.3833803
684.30 0.3832011
684.40 0.3830219
684.50 0.3828428
684.60 0.3826639
684.70 0.382485
684.80 0.3823061
684.90 0.3821274
685.00 0.3819488
685.10 0.3817702
685.20 0.3815918
685.30 0.3814134
685.40 0.3812351
685.50 0.3810569
685.60 0.3808788
685.70 0.3807008
685.80 0.3805228
685.90 0.3803429
686.00 0.3801625
686.10 0.3799823
686.20 0.3798021
686.30 0.379622
686.40 0.379442
686.50 0.3792621
686.60 0.3790822
686.70 0.3789025
686.80 0.3787228
686.90 0.3785433
687.00 0.3783638
687.10 0.3781844
687.20 0.3780051
687.30 0.3778259
687.40 0.3776468
687.50 0.3774677
687.60 0.3772888
687.70 0.3771099
687.80 0.3769312
687.90 0.3767525
688.00 0.3765739
688.10 0.3763954
688.20 0.376217
688.30 0.3760386
688.40 0.3758604
688.50 0.3756822
688.60 0.3755042
688.70 0.3753262
688.80 0.3751483
688.90 0.3749705
689.00 0.3747928
689.10 0.3746151
689.20 0.3744376
689.30 0.3742601
689.40 0.3740828
689.50 0.3739055
689.60 0.3737283
689.70 0.3735512
689.80 0.3733742
689.90 0.3731972
690.00 0.3730204
690.10 0.3728436
690.20 0.372667
690.30 0.3724904
690.40 0.3723139
690.50 0.3721375
690.60 0.3719611
690.70 0.3717849
690.80 0.3716087
690.90 0.3714327
691.00 0.3712567
691.10 0.3710808
691.20 0.370905
691.30 0.3707293
691.40 0.3705536
691.50 0.3703781
691.60 0.3702026
691.70 0.3700272
691.80 0.3698519
691.90 0.3696767
692.00 0.3695016
692.10 0.3693266
692.20 0.3691516
692.30 0.3689768
692.40 0.368802
692.50 0.3686273
692.60 0.3684527
692.70 0.3682778
692.80 0.3681014
692.90 0.3679252
693.00 0.367749
693.10 0.3675729
693.20 0.3673969
693.30 0.367221
693.40 0.3670452
693.50 0.3668695
693.60 0.3666938
693.70 0.3665183
693.80 0.3663428
693.90 0.3661674
694.00 0.3659921
694.10 0.3658169
694.20 0.3656418
694.30 0.3654667
694.40 0.3652918
694.50 0.3651169
694.60 0.3649421
694.70 0.3647674
694.80 0.3645928
694.90 0.3644183
695.00 0.3642438
695.10 0.3640694
695.20 0.3638952
695.30 0.363721
695.40 0.3635469
695.50 0.3633728
695.60 0.3631989
695.70 0.3630251
695.80 0.3628513
695.90 0.3626776
696.00 0.362504
696.10 0.3623305
696.20 0.3621571
696.30 0.3619837
696.40 0.3618105
696.50 0.3616373
696.60 0.3614638
696.70 0.3612903
696.80 0.3611169
696.90 0.3609436
697.00 0.3607703
697.10 0.3605971
697.20 0.3604241
697.30 0.3602511
697.40 0.3600782
697.50 0.3599053
697.60 0.3597326
697.70 0.3595599
697.80 0.3593873
697.90 0.3592149
698.00 0.3590425
698.10 0.3588701
698.20 0.3586979
698.30 0.3585257
698.40 0.3583537
698.50 0.3581817
698.60 0.3580098
698.70 0.357838
698.80 0.3576662
698.90 0.3574946
699.00 0.357323
699.10 0.3571478
699.20 0.3569718
699.30 0.3567959
699.40 0.35662
699.50 0.3564443
699.60 0.3562686
699.70 0.3560905
699.80 0.3559123
699.90 0.3557343
700.00 0.3555563
700.10 0.3553784
700.20 0.3552006
700.30 0.3550229
700.40 0.3548453
700.50 0.3546677
700.60 0.3544903
700.70 0.3543129
700.80 0.3541356
700.90 0.3539584
701.00 0.3537813
701.10 0.3535939
701.20 0.3534041
701.30 0.3532144
701.40 0.3530248
701.50 0.3528353
701.60 0.3526459
701.70 0.3524566
701.80 0.3522674
701.90 0.3520782
702.00 0.3518892
702.10 0.3517003
702.20 0.3515114
702.30 0.3513227
702.40 0.351134
702.50 0.3509454
702.60 0.3507181
702.70 0.3504817
702.80 0.3502454
702.90 0.3500092
703.00 0.3497732
703.10 0.3495373
703.20 0.3493015
703.30 0.3490658
703.40 0.3488302
703.50 0.3485948
703.60 0.3483595
703.70 0.3481243
703.80 0.3478892
703.90 0.3476542
704.00 0.3474194
704.10 0.3471847
704.20 0.3467768
704.30 0.3463286
704.40 0.3458806
704.50 0.3454328
704.60 0.3449853
704.70 0.344538
704.80 0.344091
704.90 0.3436442
705.00 0.3431976
705.10 0.3427513
705.20 0.3417205
705.30 0.3405531
705.40 0.3393864
705.50 0.3382204
705.60 0.337055
705.70 0.3358902
705.80 0.3329084
705.90 0.329502
706.00 0.3260975
706.10 0.3226949
706.20 0.314844
706.30 0.3059538
706.40 0.2897659
706.50 0.2549306
706.60 0.253257
706.70 0.2905124
706.80 0.3027117
706.90 0.3131905
707.00 0.3182117
707.10 0.3219515
707.20 0.3256892
707.30 0.3294248
707.40 0.3310177
707.50 0.3321077
707.60 0.3331971
707.70 0.3342858
707.80 0.3353739
707.90 0.3364614
708.00 0.3368406
708.10 0.3370535
708.20 0.3372663
708.30 0.3374789
708.40 0.3376914
708.50 0.3379038
708.60 0.3381161
708.70 0.3383282
708.80 0.3385402
708.90 0.338752
709.00 0.3387404
709.10 0.3386765
709.20 0.3386125
709.30 0.3385486
709.40 0.3384847
709.50 0.3384208
709.60 0.3383569
709.70 0.3382931
709.80 0.3382293
709.90 0.3381655
710.00 0.3381017
710.10 0.338038
710.20 0.3379742
710.30 0.3379105
710.40 0.3378469
710.50 0.3377832
710.60 0.3376692
710.70 0.3375435
710.80 0.3374178
710.90 0.3372922
711.00 0.3371666
711.10 0.3370411
711.20 0.3369157
711.30 0.3367903
711.40 0.3366649
711.50 0.3365396
711.60 0.3364144
711.70 0.3362893
711.80 0.3361642
711.90 0.3360391
712.00 0.3359141
712.10 0.3357729
712.20 0.335628
712.30 0.3354832
712.40 0.3353384
712.50 0.3351937
712.60 0.3350491
712.70 0.3349045
712.80 0.33476
712.90 0.3346156
713.00 0.3344712
713.10 0.3343269
713.20 0.3341827
713.30 0.3340385
713.40 0.3338944
713.50 0.3337504
713.60 0.3336064
713.70 0.3334636
713.80 0.333323
713.90 0.3331824
714.00 0.3330419
714.10 0.332894
714.20 0.3327444
714.30 0.3325948
714.40 0.3324453
714.50 0.3322959
714.60 0.3321466
714.70 0.3319973
714.80 0.3318481
714.90 0.3316989
715.00 0.3315499
715.10 0.3314009
715.20 0.331252
715.30 0.3311031
715.40 0.3309543
715.50 0.3308056
715.60 0.330657
715.70 0.3305084
715.80 0.3303599
715.90 0.3302115
716.00 0.3300631
716.10 0.3299148
716.20 0.3297666
716.30 0.3296184
716.40 0.3294703
716.50 0.3293223
716.60 0.3291723
716.70 0.3290218
716.80 0.3288714
716.90 0.328721
717.00 0.3285708
717.10 0.3284206
717.20 0.3282705
717.30 0.3281204
717.40 0.3279704
717.50 0.3278205
717.60 0.3276707
717.70 0.3275209
717.80 0.3273712
717.90 0.3272216
718.00 0.327072
718.10 0.3269225
718.20 0.3267727
718.30 0.3266226
718.40 0.3264727
718.50 0.3263228
718.60 0.326173
718.70 0.3260232
718.80 0.3258735
718.90 0.3257239
719.00 0.3255744
719.10 0.3254249
719.20 0.3252755
719.30 0.3251262
719.40 0.324977
719.50 0.3248278
719.60 0.3246787
719.70 0.3245296
719.80 0.3243806
719.90 0.3242317
720.00 0.3240829
720.10 0.3239341
720.20 0.3237855
720.30 0.3236368
720.40 0.3234883
720.50 0.3233398
720.60 0.3231914
720.70 0.3230342
720.80 0.3228722
720.90 0.3227222
721.00 0.3225726
721.10 0.3224232
721.20 0.3222738
721.30 0.3221244
721.40 0.3219752
721.50 0.321826
721.60 0.3216769
721.70 0.3215278
721.80 0.3213789
721.90 0.32123
722.00 0.3210811
722.10 0.3209324
722.20 0.3207837
722.30 0.3206351
722.40 0.3204865
722.50 0.320338
722.60 0.3201896
722.70 0.3200397
722.80 0.3198891
722.90 0.3197385
723.00 0.319588
723.10 0.3194376
723.20 0.3192872
723.30 0.3191369
723.40 0.3189867
723.50 0.3188365
723.60 0.3186864
723.70 0.3185364
723.80 0.3183865
723.90 0.3182366
724.00 0.3180868
724.10 0.3179371
724.20 0.3177785
724.30 0.3176151
724.40 0.3174518
724.50 0.3172886
724.60 0.3171255
724.70 0.3169624
724.80 0.3167995
724.90 0.3166366
725.00 0.3164737
725.10 0.316311
725.20 0.3161483
725.30 0.3159858
725.40 0.3158232
725.50 0.3156608
725.60 0.3154985
725.70 0.3153362
725.80 0.3151342
725.90 0.3149108
726.00 0.3146876
726.10 0.3144645
726.20 0.3142414
726.30 0.3140185
726.40 0.3137958
726.50 0.3135731
726.60 0.3133505
726.70 0.313128
726.80 0.3127425
726.90 0.3122694
727.00 0.3117965
727.10 0.3113239
727.20 0.3108515
727.30 0.3103793
727.40 0.3092034
727.50 0.3076492
727.60 0.3060959
727.70 0.3045433
727.80 0.3004536
727.90 0.2949999
728.00 0.2845357
728.10 0.2517765
728.20 0.2510964
728.30 0.2806214
728.40 0.2899061
728.50 0.2966043
728.60 0.3001444
728.70 0.3019847
728.80 0.3038239
728.90 0.3056621
729.00 0.3065353
729.10 0.306889
729.20 0.3072426
729.30 0.3075959
729.40 0.3079491
729.50 0.308302
729.60 0.3084119
729.70 0.3083909
729.80 0.30837
729.90 0.308349
730.00 0.3083281
730.10 0.3083071
730.20 0.3082862
730.30 0.3082653
730.40 0.3082443
730.50 0.3082234
730.60 0.3081419
730.70 0.3080278
730.80 0.3079138
730.90 0.3077998
731.00 0.3076859
731.10 0.3075721
731.20 0.3074583
731.30 0.3073445
731.40 0.3072308
731.50 0.3071172
731.60 0.3070036
731.70 0.30689
731.80 0.3067765
731.90 0.3066631
732.00 0.3065497
732.10 0.3064363
732.20 0.3063115
732.30 0.3061805
732.40 0.3060496
732.50 0.3059187
732.60 0.3057879
732.70 0.3056571
732.80 0.3055264
732.90 0.3053958
733.00 0.3052652
733.10 0.3051347
733.20 0.3050042
733.30 0.3048738
733.40 0.3047435
733.50 0.3046132
733.60 0.304483
733.70 0.3043495
733.80 0.3042144
733.90 0.3040794
734.00 0.3039444
734.10 0.3038094
734.20 0.3036746
734.30 0.3035398
734.40 0.303405
734.50 0.3032703
734.60 0.3031357
734.70 0.3030012
734.80 0.3028667
734.90 0.3027322
735.00 0.3025979
735.10 0.3024635
735.20 0.3023293
735.30 0.3021947
735.40 0.3020555
735.50 0.3019163
735.60 0.3017773
735.70 0.3016407
735.80 0.3015056
735.90 0.3013705
736.00 0.3012355
736.10 0.3011006
736.20 0.3009657
736.30 0.3008308
736.40 0.3006961
736.50 0.3005614
736.60 0.3004267
736.70 0.3002922
736.80 0.3001577
736.90 0.3000232
737.00 0.2998888
737.10 0.2997545
737.20 0.2996202
737.30 0.299486
737.40 0.2993519
737.50 0.2992178
737.60 0.2990838
737.70 0.2989498
737.80 0.2988159
737.90 0.2986821
738.00 0.2985483
738.10 0.2984146
738.20 0.2982806
738.30 0.2981464
738.40 0.2980123
738.50 0.2978783
738.60 0.2977443
738.70 0.2976104
738.80 0.2974765
738.90 0.2973428
739.00 0.297209
739.10 0.2970754
739.20 0.2969418
739.30 0.2968082
739.40 0.2966747
739.50 0.2965413
739.60 0.2964079
739.70 0.2962746
739.80 0.2961414
739.90 0.2960082
740.00 0.2958751
740.10 0.2957421
740.20 0.2956091
740.30 0.2954761
740.40 0.2953433
740.50 0.2952105
740.60 0.2950777
740.70 0.294945
740.80 0.2948124
740.90 0.2946798
741.00 0.2945473
741.10 0.2944149
741.20 0.2942825
741.30 0.2941502
741.40 0.2940179
741.50 0.2938857
741.60 0.2937536
741.70 0.2936215
741.80 0.2934895
741.90 0.2933575
742.00 0.2932256
742.10 0.2930938
742.20 0.292962
742.30 0.2928303
742.40 0.2926986
742.50 0.292567
742.60 0.2924355
742.70 0.2923045
742.80 0.2921739
742.90 0.2920434
743.00 0.2919129
743.10 0.2917825
743.20 0.2916522
743.30 0.2915219
743.40 0.2913917
743.50 0.2912616
743.60 0.2911315
743.70 0.2910013
743.80 0.2908704
743.90 0.2907395
744.00 0.2906088
744.10 0.290478
744.20 0.2903474
744.30 0.2902168
744.40 0.2900863
744.50 0.2899558
744.60 0.2898254
744.70 0.289695
744.80 0.2895647
744.90 0.2894345
745.00 0.2893043
745.10 0.2891742
745.20 0.2890441
745.30 0.2889141
745.40 0.2887842
745.50 0.2886543
745.60 0.2885245
745.70 0.2883947
745.80 0.288265
745.90 0.2881353
746.00 0.2880058
746.10 0.2878762
746.20 0.2877468
746.30 0.2876174
746.40 0.287488
746.50 0.2873587
746.60 0.2872295
746.70 0.2871003
746.80 0.2869712
746.90 0.2868421
747.00 0.2867131
747.10 0.2865842
747.20 0.2864553
747.30 0.2863265
747.40 0.2861977
747.50 0.286069
747.60 0.2859404
747.70 0.2858118
747.80 0.2856833
747.90 0.2855548
748.00 0.2854264
748.10 0.2852981
748.20 0.2851698
748.30 0.2850415
748.40 0.2849133
748.50 0.2847852
748.60 0.2846572
748.70 0.2845292
748.80 0.2844012
748.90 0.2842733
749.00 0.2841455
749.10 0.2840177
749.20 0.28389
749.30 0.2837624
749.40 0.2836348
749.50 0.2835072
749.60 0.2833798
749.70 0.2832523
749.80 0.283125
749.90 0.2829977
750.00 0.2828704
750.10 0.2827434
750.20 0.2826169
750.30 0.2824905
750.40 0.2823641
750.50 0.2822377
750.60 0.2821115
750.70 0.2819853
750.80 0.2818591
750.90 0.281733
751.00 0.2816069
751.10 0.281481
751.20 0.281355
751.30 0.2812292
751.40 0.2811033
751.50 0.2809776
751.60 0.2808519
751.70 0.2807262
751.80 0.2806006
751.90 0.2804751
752.00 0.2803496
752.10 0.2802242
752.20 0.2800989
752.30 0.2799735
752.40 0.2798483
752.50 0.2797231
752.60 0.279598
752.70 0.2794729
752.80 0.2793479
752.90 0.2792229
753.00 0.279098
753.10 0.2789731
753.20 0.2788484
753.30 0.2787236
753.40 0.2785989
753.50 0.2784743
753.60 0.2783497
753.70 0.2782252
753.80 0.2781008
753.90 0.2779771
754.00 0.2778538
754.10 0.2777305
754.20 0.2776072
754.30 0.2774841
754.40 0.2773609
754.50 0.2772379
754.60 0.2771148
754.70 0.2769919
754.80 0.276869
754.90 0.2767461
755.00 0.2766233
755.10 0.2765006
755.20 0.2763779
755.30 0.2762553
755.40 0.2761327
755.50 0.2760102
755.60 0.2758877
755.70 0.2757653
755.80 0.2756429
755.90 0.2755206
756.00 0.2753984
756.10 0.2752762
756.20 0.275154
756.30 0.275032
756.40 0.2749099
756.50 0.274788
756.60 0.2746661
756.70 0.2745442
756.80 0.2744224
756.90 0.2743006
757.00 0.2741789
757.10 0.2740573
757.20 0.2739357
757.30 0.2738142
757.40 0.2736927
757.50 0.2735713
757.60 0.27345
757.70 0.2733292
757.80 0.2732085
757.90 0.2730877
758.00 0.2729671
758.10 0.2728465
758.20 0.2727259
758.30 0.2726054
758.40 0.272485
758.50 0.2723646
758.60 0.2722443
758.70 0.272124
758.80 0.2720038
758.90 0.2718836
759.00 0.2717635
759.10 0.2716434
759.20 0.2715234
759.30 0.2714034
759.40 0.2712835
759.50 0.2711637
759.60 0.2710439
759.70 0.2709241
759.80 0.2708045
759.90 0.2706848
760.00 0.2705652
760.10 0.2704457
760.20 0.2703262
760.30 0.2702068
760.40 0.2700875
760.50 0.2699681
760.60 0.2698489
760.70 0.2697297
760.80 0.2696105
760.90 0.2694914
761.00 0.2693724
761.10 0.2692534
761.20 0.2691344
761.30 0.2690155
761.40 0.2688967
761.50 0.2687779
761.60 0.2686592
761.70 0.2685405
761.80 0.2684219
761.90 0.2683033
762.00 0.2681848
762.10 0.2680664
762.20 0.2679479
762.30 0.2678296
762.40 0.2677113
762.50 0.267593
762.60 0.2674748
762.70 0.2673567
762.80 0.2672386
762.90 0.2671206
763.00 0.2670026
763.10 0.2668846
763.20 0.2667668
763.30 0.2666489
763.40 0.2665311
763.50 0.2664134
763.60 0.2662957
763.70 0.2661781
763.80 0.2660606
763.90 0.265943
764.00 0.2658256
764.10 0.2657082
764.20 0.2655908
764.30 0.2654735
764.40 0.2653563
764.50 0.2652391
764.60 0.2651219
764.70 0.2650048
764.80 0.2648878
764.90 0.2647708
765.00 0.2646538
765.10 0.2645369
765.20 0.2644201
765.30 0.2643033
765.40 0.2641866
765.50 0.2640699
765.60 0.2639533
765.70 0.2638367
765.80 0.2637202
765.90 0.2636037
766.00 0.2634873
766.10 0.2633709
766.20 0.2632546
766.30 0.2631384
766.40 0.2630222
766.50 0.262906
766.60 0.2627899
766.70 0.2626738
766.80 0.2625578
766.90 0.2624419
767.00 0.262326
767.10 0.2622101
767.20 0.2620943
767.30 0.2619786
767.40 0.2618629
767.50 0.2617472
767.60 0.2616316
767.70 0.2615161
767.80 0.2614006
767.90 0.2612852
768.00 0.2611698
768.10 0.2610544
768.20 0.2609392
768.30 0.2608239
768.40 0.2607087
768.50 0.2605936
768.60 0.2604785
768.70 0.2603635
768.80 0.2602485
768.90 0.2601336
769.00 0.2600187
769.10 0.2599039
769.20 0.2597891
769.30 0.2596744
769.40 0.2595597
769.50 0.2594451
769.60 0.2593305
769.70 0.259216
769.80 0.2591015
769.90 0.2589871
770.00 0.2588727
770.10 0.2587584
770.20 0.2586441
770.30 0.2585299
770.40 0.2584158
770.50 0.2583016
770.60 0.2581876
770.70 0.2580736
770.80 0.2579596
770.90 0.2578457
771.00 0.2577318
771.10 0.257618
771.20 0.2575042
771.30 0.2573905
771.40 0.2572769
771.50 0.2571633
771.60 0.2570497
771.70 0.2569362
771.80 0.2568227
771.90 0.2567093
772.00 0.256596
772.10 0.2564826
772.20 0.2563694
772.30 0.2562562
772.40 0.256143
772.50 0.2560299
772.60 0.2559168
772.70 0.2558038
772.80 0.2556909
772.90 0.2555793
773.00 0.2554678
773.10 0.2553564
773.20 0.255245
773.30 0.2551337
773.40 0.2550224
773.50 0.2549112
773.60 0.2548
773.70 0.2546888
773.80 0.2545777
773.90 0.2544667
774.00 0.2543557
774.10 0.2542447
774.20 0.2541338
774.30 0.254023
774.40 0.2539122
774.50 0.2538014
774.60 0.2536907
774.70 0.2535801
774.80 0.2534695
774.90 0.2533589
775.00 0.2532484
775.10 0.253138
775.20 0.2530276
775.30 0.2529172
775.40 0.2528069
775.50 0.2526966
775.60 0.2525864
775.70 0.2524762
775.80 0.2523661
775.90 0.252256
776.00 0.252146
776.10 0.252036
776.20 0.2519261
776.30 0.2518162
776.40 0.2517064
776.50 0.2515966
776.60 0.2514869
776.70 0.2513772
776.80 0.2512676
776.90 0.251158
777.00 0.2510484
777.10 0.2509389
777.20 0.2508295
777.30 0.2507201
777.40 0.2506107
777.50 0.2505014
777.60 0.2503922
777.70 0.250283
777.80 0.2501738
777.90 0.2500647
778.00 0.2499557
778.10 0.2498466
778.20 0.2497377
778.30 0.2496288
778.40 0.2495199
778.50 0.2494111
778.60 0.2493023
778.70 0.2491936
778.80 0.2490849
778.90 0.2489763
779.00 0.2488677
779.10 0.2487591
779.20 0.2486506
779.30 0.2485422
779.40 0.2484338
779.50 0.2483255
779.60 0.2482172
779.70 0.2481089
779.80 0.2480007
779.90 0.2478925
780.00 0.2477844
780.10 0.2476764
780.20 0.2475684
780.30 0.2474604
780.40 0.2473525
780.50 0.2472446
780.60 0.2471372
780.70 0.2470301
780.80 0.2469231
780.90 0.2468161
781.00 0.2467091
781.10 0.2466022
781.20 0.2464953
781.30 0.2463885
781.40 0.2462817
781.50 0.2461749
781.60 0.2460682
781.70 0.2459616
781.80 0.245855
781.90 0.2457485
782.00 0.2456419
782.10 0.2455355
782.20 0.2454291
782.30 0.2453227
782.40 0.2452164
782.50 0.2451101
782.60 0.2450039
782.70 0.2448977
782.80 0.2447916
782.90 0.2446855
783.00 0.2445795
783.10 0.2444735
783.20 0.2443675
783.30 0.2442616
783.40 0.2441558
783.50 0.2440499
783.60 0.2439442
783.70 0.2438385
783.80 0.2437328
783.90 0.2436272
784.00 0.2435216
784.10 0.243416
784.20 0.2433106
784.30 0.2432051
784.40 0.2430997
784.50 0.2429944
784.60 0.2428892
784.70 0.2427844
784.80 0.2426796
784.90 0.2425749
785.00 0.2424702
785.10 0.2423655
785.20 0.242261
785.30 0.2421564
785.40 0.2420519
785.50 0.2419474
785.60 0.241843
785.70 0.2417387
785.80 0.2416343
785.90 0.2415301
786.00 0.2414258
786.10 0.2413216
786.20 0.2412175
786.30 0.2411134
786.40 0.2410094
786.50 0.2409054
786.60 0.2408014
786.70 0.2406975
786.80 0.2405936
786.90 0.2404898
787.00 0.240386
787.10 0.2402823
787.20 0.2401786
787.30 0.2400749
787.40 0.2399713
787.50 0.2398678
787.60 0.2397643
787.70 0.2396608
787.80 0.2395574
787.90 0.239454
788.00 0.2393507
788.10 0.2392474
788.20 0.2391441
788.30 0.2390409
788.40 0.2389379
788.50 0.238835
788.60 0.2387322
788.70 0.2386293
788.80 0.2385266
788.90 0.2384239
789.00 0.2383212
789.10 0.2382185
789.20 0.2381159
789.30 0.2380134
789.40 0.2379109
789.50 0.2378084
789.60 0.237706
789.70 0.2376036
789.80 0.2375013
789.90 0.237399
790.00 0.2372968
790.10 0.2371946
790.20 0.2370924
790.30 0.2369903
790.40 0.2368883
790.50 0.2367862
790.60 0.2366843
790.70 0.2365823
790.80 0.2364805
790.90 0.2363786
791.00 0.2362768
791.10 0.2361751
791.20 0.2360733
791.30 0.2359717
791.40 0.2358701
791.50 0.2357685
791.60 0.2356669
791.70 0.2355654
791.80 0.235464
791.90 0.2353626
792.00 0.2352612
792.10 0.2351599
792.20 0.2350586
792.30 0.2349576
792.40 0.2348573
792.50 0.234757
792.60 0.2346567
792.70 0.2345565
792.80 0.2344563
792.90 0.2343562
793.00 0.2342561
793.10 0.2341561
793.20 0.2340561
793.30 0.2339561
793.40 0.2338562
793.50 0.2337564
793.60 0.2336565
793.70 0.2335568
793.80 0.233457
793.90 0.2333573
794.00 0.2332577
794.10 0.2331581
794.20 0.2330585
794.30 0.232959
794.40 0.2328595
794.50 0.23276
794.60 0.2326606
794.70 0.2325613
794.80 0.232462
794.90 0.2323627
795.00 0.2322635
795.10 0.2321643
795.20 0.2320651
795.30 0.231966
795.40 0.231867
795.50 0.231768
795.60 0.231669
795.70 0.2315701
795.80 0.2314712
795.90 0.2313723
796.00 0.2312735
796.10 0.2311748
796.20 0.2310761
796.30 0.2309774
796.40 0.2308787
796.50 0.2307801
796.60 0.2306816
796.70 0.2305831
796.80 0.2304846
796.90 0.2303861
797.00 0.2302878
797.10 0.2301894
797.20 0.2300911
797.30 0.2299928
797.40 0.2298946
797.50 0.2297964
797.60 0.2296983
797.70 0.2296002
797.80 0.2295021
797.90 0.2294041
798.00 0.2293062
798.10 0.2292082
798.20 0.2291103
798.30 0.2290125
798.40 0.2289147
798.50 0.2288169
798.60 0.2287192
798.70 0.2286215
798.80 0.2285239
798.90 0.2284263
799.00 0.2283287
799.10 0.2282312
799.20 0.2281338
799.30 0.2280363
799.40 0.227939
799.50 0.2278416
799.60 0.2277443
799.70 0.227647
799.80 0.2275498
799.90 0.2274526
800.00 0.2273555
800.10 0.2272584
800.20 0.2271614
800.30 0.2270643
800.40 0.2269674
800.50 0.2268704
800.60 0.2267736
800.70 0.2266767
800.80 0.2265799
800.90 0.2264831
801.00 0.2263864
801.10 0.2262897
801.20 0.2261931
801.30 0.2260965
801.40 0.2259999
801.50 0.2259034
801.60 0.2258069
801.70 0.2257105
801.80 0.2256141
801.90 0.2255178
802.00 0.2254214
802.10 0.2253252
802.20 0.2252289
802.30 0.2251328
802.40 0.2250366
802.50 0.2249405
802.60 0.2248444
802.70 0.2247484
802.80 0.2246524
802.90 0.2245565
803.00 0.2244606
803.10 0.2243647
803.20 0.2242689
803.30 0.2241731
803.40 0.2240774
803.50 0.2239817
803.60 0.223886
803.70 0.2237904
803.80 0.2236948
803.90 0.2235993
804.00 0.2235038
804.10 0.2234083
804.20 0.2233131
804.30 0.2232185
804.40 0.223124
804.50 0.2230295
804.60 0.222935
804.70 0.2228406
804.80 0.2227463
804.90 0.2226519
805.00 0.2225576
805.10 0.2224634
805.20 0.2223692
805.30 0.222275
805.40 0.2221809
805.50 0.2220868
805.60 0.2219927
805.70 0.2218987
805.80 0.2218048
805.90 0.2217108
806.00 0.2216169
806.10 0.2215231
806.20 0.2214293
806.30 0.2213355
806.40 0.2212418
806.50 0.2211481
806.60 0.2210544
806.70 0.2209608
806.80 0.2208672
806.90 0.2207737
807.00 0.2206802
807.10 0.2205867
807.20 0.2204933
807.30 0.2203999
807.40 0.2203066
807.50 0.2202133
807.60 0.22012
807.70 0.2200268
807.80 0.2199337
807.90 0.2198405
808.00 0.2197474
808.10 0.2196543
808.20 0.2195613
808.30 0.2194683
808.40 0.2193754
808.50 0.2192825
808.60 0.2191896
808.70 0.2190968
808.80 0.219004
808.90 0.2189113
809.00 0.2188186
809.10 0.2187259
809.20 0.2186333
809.30 0.2185407
809.40 0.2184481
809.50 0.2183556
809.60 0.2182631
809.70 0.2181707
809.80 0.2180783
809.90 0.217986
810.00 0.2178936
810.10 0.2178014
810.20 0.2177091
810.30 0.2176169
810.40 0.2175248
810.50 0.2174326
810.60 0.2173405
810.70 0.2172485
810.80 0.2171565
810.90 0.2170645
811.00 0.2169726
811.10 0.2168807
811.20 0.2167889
811.30 0.216697
811.40 0.2166053
811.50 0.2165135
811.60 0.2164218
811.70 0.2163302
811.80 0.2162386
811.90 0.216147
812.00 0.2160554
812.10 0.2159639
812.20 0.2158725
812.30 0.2157817
812.40 0.2156911
812.50 0.2156006
812.60 0.2155101
812.70 0.2154197
812.80 0.2153292
812.90 0.2152389
813.00 0.2151485
813.10 0.2150582
813.20 0.214968
813.30 0.2148777
813.40 0.2147875
813.50 0.2146974
813.60 0.2146073
813.70 0.2145172
813.80 0.2144272
813.90 0.2143372
814.00 0.2142472
814.10 0.2141573
814.20 0.2140674
814.30 0.2139776
814.40 0.2138878
814.50 0.213798
814.60 0.2137082
814.70 0.2136185
814.80 0.2135289
814.90 0.2134393
815.00 0.2133497
815.10 0.2132601
815.20 0.2131706
815.30 0.2130812
815.40 0.2129917
815.50 0.2129023
815.60 0.212813
815.70 0.2127236
815.80 0.2126344
815.90 0.2125451
816.00 0.2124559
816.10 0.2123667
816.20 0.2122776
816.30 0.2121885
816.40 0.2120994
816.50 0.2120104
816.60 0.2119214
816.70 0.2118325
816.80 0.2117436
816.90 0.2116547
817.00 0.2115659
817.10 0.2114771
817.20 0.2113883
817.30 0.2112996
817.40 0.2112109
817.50 0.2111222
817.60 0.2110336
817.70 0.210945
817.80 0.2108565
817.90 0.210768
818.00 0.2106795
818.10 0.2105911
818.20 0.2105027
818.30 0.2104143
818.40 0.210326
818.50 0.2102377
818.60 0.2101495
818.70 0.2100613
818.80 0.2099731
818.90 0.209885
819.00 0.2097969
819.10 0.2097088
819.20 0.2096208
819.30 0.2095349
819.40 0.2094504
819.50 0.209366
819.60 0.2092816
819.70 0.2091972
819.80 0.2091129
819.90 0.2090286
820.00 0.2089444
820.10 0.208849
820.20 0.2087565
820.30 0.2086784
820.40 0.2085951
820.50 0.208508
820.60 0.208421
820.70 0.2083339
820.80 0.208247
820.90 0.20816
821.00 0.2080731
821.10 0.2079863
821.20 0.2078995
821.30 0.2078127
821.40 0.2077259
821.50 0.2076392
821.60 0.2075525
821.70 0.2074659
821.80 0.2073793
821.90 0.2072927
822.00 0.2072062
822.10 0.2071197
822.20 0.2070332
822.30 0.2069468
822.40 0.2068604
822.50 0.206774
822.60 0.2066877
822.70 0.2066014
822.80 0.2065152
822.90 0.2064289
823.00 0.2063428
823.10 0.2062566
823.20 0.2061705
823.30 0.2060844
823.40 0.2059984
823.50 0.2059124
823.60 0.2058264
823.70 0.2057405
823.80 0.2056546
823.90 0.2055688
824.00 0.2054829
824.10 0.2053972
824.20 0.2053114
824.30 0.2052257
824.40 0.20514
824.50 0.2050544
824.60 0.2049688
824.70 0.2048832
824.80 0.2047977
824.90 0.2047122
825.00 0.2046267
825.10 0.2045413
825.20 0.2044559
825.30 0.2043705
825.40 0.2042852
825.50 0.2041999
825.60 0.2041146
825.70 0.2040294
825.80 0.2039442
825.90 0.2038591
826.00 0.203774
826.10 0.2036889
826.20 0.2036039
826.30 0.2035193
826.40 0.2034351
826.50 0.203351
826.60 0.2032669
826.70 0.2031828
826.80 0.2030988
826.90 0.2030147
827.00 0.2029308
827.10 0.2028468
827.20 0.2027629
827.30 0.202679
827.40 0.2025952
827.50 0.2025114
827.60 0.2024276
827.70 0.2023439
827.80 0.2022602
827.90 0.2021765
828.00 0.2020929
828.10 0.2020093
828.20 0.2019258
828.30 0.2018422
828.40 0.2017587
828.50 0.2016753
828.60 0.2015921
828.70 0.2015093
828.80 0.2014265
828.90 0.2013437
829.00 0.2012609
829.10 0.2011782
829.20 0.2010955
829.30 0.2010128
829.40 0.2009302
829.50 0.2008476
829.60 0.2007651
829.70 0.2006825
829.80 0.2006
829.90 0.2005176
830.00 0.2004352
830.10 0.2003528
830.20 0.2002704
830.30 0.2001881
830.40 0.2001058
830.50 0.2000236
830.60 0.1999414
830.70 0.1998592
830.80 0.199777
830.90 0.1996949
831.00 0.1996128
831.10 0.1995308
831.20 0.1994488
831.30 0.1993668
831.40 0.1992848
831.50 0.1992029
831.60 0.199121
831.70 0.1990392
831.80 0.1989574
831.90 0.1988756
832.00 0.1987938
832.10 0.1987121
832.20 0.1986305
832.30 0.1985488
832.40 0.1984672
832.50 0.1983856
832.60 0.1983041
832.70 0.1982226
832.80 0.1981411
832.90 0.1980596
833.00 0.1979782
833.10 0.1978969
833.20 0.1978155
833.30 0.1977342
833.40 0.1976529
833.50 0.1975717
833.60 0.1974905
833.70 0.1974093
833.80 0.1973281
833.90 0.197247
834.00 0.1971659
834.10 0.1970849
834.20 0.1970039
834.30 0.1969229
834.40 0.196842
834.50 0.1967611
834.60 0.1966802
834.70 0.1965993
834.80 0.1965185
834.90 0.1964377
835.00 0.196357
835.10 0.1962763
835.20 0.1961956
835.30 0.1961149
835.40 0.1960343
835.50 0.1959538
835.60 0.1958732
835.70 0.1957927
835.80 0.1957122
835.90 0.1956318
836.00 0.1955513
836.10 0.195471
836.20 0.1953906
836.30 0.1953103
836.40 0.19523
836.50 0.1951497
836.60 0.1950695
836.70 0.1949893
836.80 0.1949092
836.90 0.1948293
837.00 0.1947495
837.10 0.1946698
837.20 0.1945901
837.30 0.1945105
837.40 0.1944308
837.50 0.1943512
837.60 0.1942717
837.70 0.1941921
837.80 0.1941126
837.90 0.1940332
838.00 0.1939537
838.10 0.1938743
838.20 0.193795
838.30 0.1937156
838.40 0.1936363
838.50 0.1935571
838.60 0.1934778
838.70 0.1933986
838.80 0.1933195
838.90 0.1932403
839.00 0.1931612
839.10 0.1930821
839.20 0.1930031
839.30 0.1929241
839.40 0.1928451
839.50 0.1927661
839.60 0.1926872
839.70 0.1926083
839.80 0.1925295
839.90 0.1924507
840.00 0.1923719
840.10 0.1922931
840.20 0.1922144
840.30 0.1921357
840.40 0.1920571
840.50 0.1919784
840.60 0.1918998
840.70 0.1918213
840.80 0.1917427
840.90 0.1916642
841.00 0.1915858
841.10 0.191508
841.20 0.1914303
841.30 0.1913526
841.40 0.191275
841.50 0.1911974
841.60 0.1911199
841.70 0.1910423
841.80 0.1909648
841.90 0.1908874
842.00 0.19081
842.10 0.1907326
842.20 0.1906552
842.30 0.1905778
842.40 0.1905005
842.50 0.1904233
842.60 0.190346
842.70 0.1902688
842.80 0.1901916
842.90 0.1901145
843.00 0.1900374
843.10 0.1899603
843.20 0.1898832
843.30 0.1898062
843.40 0.1897292
843.50 0.1896523
843.60 0.1895753
843.70 0.1894984
843.80 0.1894216
843.90 0.1893447
844.00 0.1892679
844.10 0.1891912
844.20 0.1891144
844.30 0.1890377
844.40 0.188961
844.50 0.1888844
844.60 0.1888077
844.70 0.1887312
844.80 0.1886546
844.90 0.1885781
845.00 0.1885016
845.10 0.1884251
845.20 0.1883487
845.30 0.1882726
845.40 0.1881965
845.50 0.1881205
845.60 0.1880445
845.70 0.1879685
845.80 0.1878926
845.90 0.1878167
846.00 0.1877408
846.10 0.1876649
846.20 0.1875891
846.30 0.1875133
846.40 0.1874376
846.50 0.1873619
846.60 0.1872862
846.70 0.1872105
846.80 0.1871349
846.90 0.1870593
847.00 0.1869837
847.10 0.1869082
847.20 0.1868326
847.30 0.1867572
847.40 0.1866817
847.50 0.1866063
847.60 0.1865309
847.70 0.1864555
847.80 0.1863802
847.90 0.1863049
848.00 0.1862296
848.10 0.1861544
848.20 0.1860792
848.30 0.186004
848.40 0.1859289
848.50 0.1858537
848.60 0.1857787
848.70 0.1857036
848.80 0.1856286
848.90 0.1855536
849.00 0.1854786
849.10 0.1854037
849.20 0.1853288
849.30 0.1852539
849.40 0.185179
849.50 0.1851042
849.60 0.1850294
849.70 0.1849547
849.80 0.18488
849.90 0.1848053
850.00 0.1847306
850.10 0.184656
850.20 0.1845814
850.30 0.1845068
850.40 0.1844322
850.50 0.1843577
850.60 0.1842832
850.70 0.1842088
850.80 0.1841344
850.90 0.18406
851.00 0.1839856
851.10 0.1839113
851.20 0.183837
851.30 0.1837627
851.40 0.1836884
851.50 0.1836142
851.60 0.18354
851.70 0.1834659
851.80 0.1833917
851.90 0.1833176
852.00 0.1832436
852.10 0.1831695
852.20 0.1830955
852.30 0.1830216
852.40 0.1829476
852.50 0.1828737
852.60 0.1827998
852.70 0.1827259
852.80 0.1826521
852.90 0.1825783
853.00 0.1825045
853.10 0.1824308
853.20 0.1823571
853.30 0.1822834
853.40 0.1822097
853.50 0.1821361
853.60 0.1820625
853.70 0.1819894
853.80 0.1819169
853.90 0.1818444
854.00 0.1817719
854.10 0.1816994
854.20 0.181627
854.30 0.1815546
854.40 0.1814822
854.50 0.1814098
854.60 0.1813375
854.70 0.1812652
854.80 0.181193
854.90 0.1811207
855.00 0.1810485
855.10 0.1809763
855.20 0.1809042
855.30 0.1808321
855.40 0.18076
855.50 0.1806879
855.60 0.1806159
855.70 0.1805439
855.80 0.1804719
855.90 0.1804
856.00 0.1803281
856.10 0.1802562
856.20 0.1801843
856.30 0.1801125
856.40 0.1800407
856.50 0.1799689
856.60 0.1798972
856.70 0.1798254
856.80 0.1797538
856.90 0.1796821
857.00 0.1796105
857.10 0.1795389
857.20 0.1794673
857.30 0.1793957
857.40 0.1793242
857.50 0.1792527
857.60 0.1791813
857.70 0.1791099
857.80 0.1790385
857.90 0.1789671
858.00 0.1788957
858.10 0.1788244
858.20 0.1787531
858.30 0.1786819
858.40 0.1786106
858.50 0.1785394
858.60 0.1784683
858.70 0.1783971
858.80 0.178326
858.90 0.1782549
859.00 0.1781838
859.10 0.1781128
859.20 0.1780418
859.30 0.1779708
859.40 0.1778999
859.50 0.1778289
859.60 0.177758
859.70 0.1776872
859.80 0.1776163
859.90 0.1775455
860.00 0.1774748
860.10 0.177404
860.20 0.1773333
860.30 0.1772626
860.40 0.1771919
860.50 0.1771213
860.60 0.1770507
860.70 0.1769801
860.80 0.1769095
860.90 0.176839
861.00 0.1767685
861.10 0.176698
861.20 0.1766276
861.30 0.1765572
861.40 0.1764868
861.50 0.1764164
861.60 0.1763461
861.70 0.1762758
861.80 0.1762055
861.90 0.1761353
862.00 0.176065
862.10 0.1759948
862.20 0.1759247
862.30 0.1758552
862.40 0.1757857
862.50 0.1757163
862.60 0.1756469
862.70 0.1755774
862.80 0.1755081
862.90 0.1754387
863.00 0.1753694
863.10 0.1753001
863.20 0.1752308
863.30 0.1751616
863.40 0.1750924
863.50 0.1750232
863.60 0.174954
863.70 0.1748849
863.80 0.1748158
863.90 0.1747467
864.00 0.1746777
864.10 0.1746087
864.20 0.1745397
864.30 0.1744707
864.40 0.1744018
864.50 0.1743328
864.60 0.174264
864.70 0.1741951
864.80 0.1741263
864.90 0.1740575
865.00 0.1739887
865.10 0.1739199
865.20 0.1738512
865.30 0.1737825
865.40 0.1737139
865.50 0.1736452
865.60 0.1735766
865.70 0.173508
865.80 0.1734395
865.90 0.1733709
866.00 0.1733024
866.10 0.1732339
866.20 0.1731655
866.30 0.1730971
866.40 0.1730287
866.50 0.1729603
866.60 0.1728919
866.70 0.1728236
866.80 0.1727553
866.90 0.1726871
867.00 0.1726188
867.10 0.1725506
867.20 0.1724824
867.30 0.1724143
867.40 0.1723462
867.50 0.1722781
867.60 0.17221
867.70 0.1721419
867.80 0.1720739
867.90 0.1720059
868.00 0.1719379
868.10 0.17187
868.20 0.1718021
868.30 0.1717342
868.40 0.1716663
868.50 0.1715985
868.60 0.1715307
868.70 0.1714629
868.80 0.1713952
868.90 0.1713274
869.00 0.1712597
869.10 0.1711921
869.20 0.1711244
869.30 0.1710568
869.40 0.1709892
869.50 0.1709216
869.60 0.1708541
869.70 0.1707866
869.80 0.1707191
869.90 0.1706516
870.00 0.1705842
870.10 0.1705168
870.20 0.1704494
870.30 0.170382
870.40 0.1703147
870.50 0.1702474
870.60 0.1701801
870.70 0.1701129
870.80 0.1700457
870.90 0.169979
871.00 0.1699124
871.10 0.1698459
871.20 0.1697794
871.30 0.1697129
871.40 0.1696464
871.50 0.1695799
871.60 0.1695135
871.70 0.1694471
871.80 0.1693808
871.90 0.1693144
872.00 0.1692481
872.10 0.1691818
872.20 0.1691156
872.30 0.1690493
872.40 0.1689831
872.50 0.1689169
872.60 0.1688508
872.70 0.1687847
872.80 0.1687186
872.90 0.1686525
873.00 0.1685864
873.10 0.1685204
873.20 0.1684544
873.30 0.1683884
873.40 0.1683225
873.50 0.1682565
873.60 0.1681906
873.70 0.1681248
873.80 0.1680589
873.90 0.1679931
874.00 0.1679273
874.10 0.1678615
874.20 0.1677958
874.30 0.1677301
874.40 0.1676644
874.50 0.1675987
874.60 0.1675331
874.70 0.1674675
874.80 0.1674019
874.90 0.1673363
875.00 0.1672708
875.10 0.1672052
875.20 0.1671398
875.30 0.1670743
875.40 0.1670089
875.50 0.1669434
875.60 0.1668781
875.70 0.1668127
875.80 0.1667474
875.90 0.1666821
876.00 0.1666168
876.10 0.1665515
876.20 0.1664863
876.30 0.1664211
876.40 0.1663559
876.50 0.1662907
876.60 0.1662256
876.70 0.1661605
876.80 0.1660954
876.90 0.1660304
877.00 0.1659653
877.10 0.1659003
877.20 0.1658353
877.30 0.1657704
877.40 0.1657055
877.50 0.1656406
877.60 0.1655757
877.70 0.1655108
877.80 0.165446
877.90 0.1653812
878.00 0.1653164
878.10 0.1652517
878.20 0.1651869
878.30 0.1651222
878.40 0.1650576
878.50 0.1649929
878.60 0.1649283
878.70 0.1648637
878.80 0.1647991
878.90 0.1647346
879.00 0.16467
879.10 0.1646055
879.20 0.1645411
879.30 0.1644766
879.40 0.1644122
879.50 0.1643478
879.60 0.1642836
879.70 0.1642195
879.80 0.1641555
879.90 0.1640915
880.00 0.1640274
880.10 0.1639635
880.20 0.1638995
880.30 0.1638356
880.40 0.1637717
880.50 0.1637078
880.60 0.1636439
880.70 0.1635801
880.80 0.1635163
880.90 0.1634525
881.00 0.1633888
881.10 0.163325
881.20 0.1632613
881.30 0.1631976
881.40 0.163134
881.50 0.1630703
881.60 0.1630067
881.70 0.1629431
881.80 0.1628796
881.90 0.1628161
882.00 0.1627525
882.10 0.1626891
882.20 0.1626256
882.30 0.1625622
882.40 0.1624987
882.50 0.1624354
882.60 0.162372
882.70 0.1623087
882.80 0.1622453
882.90 0.1621821
883.00 0.1621188
883.10 0.1620555
883.20 0.1619923
883.30 0.1619291
883.40 0.161866
883.50 0.1618028
883.60 0.1617397
883.70 0.1616766
883.80 0.1616135
883.90 0.1615505
884.00 0.161488
884.10 0.1614256
884.20 0.1613632
884.30 0.1613009
884.40 0.1612386
884.50 0.1611763
884.60 0.161114
884.70 0.1610518
884.80 0.1609896
884.90 0.1609274
885.00 0.1608652
885.10 0.1608031
885.20 0.1607409
885.30 0.1606788
885.40 0.1606168
885.50 0.1605547
885.60 0.1604927
885.70 0.1604307
885.80 0.1603687
885.90 0.1603068
886.00 0.1602448
886.10 0.1601829
886.20 0.160121
886.30 0.1600592
886.40 0.1599973
886.50 0.1599355
886.60 0.1598737
886.70 0.159812
886.80 0.1597502
886.90 0.1596885
887.00 0.1596268
887.10 0.1595652
887.20 0.1595035
887.30 0.1594419
887.40 0.1593803
887.50 0.1593187
887.60 0.1592572
887.70 0.1591956
887.80 0.1591341
887.90 0.1590727
888.00 0.1590112
888.10 0.1589498
888.20 0.1588884
888.30 0.158827
888.40 0.1587661
888.50 0.1587053
888.60 0.1586446
888.70 0.1585838
888.80 0.1585231
888.90 0.1584624
889.00 0.1584018
889.10 0.1583411
889.20 0.1582805
889.30 0.1582199
889.40 0.1581593
889.50 0.1580988
889.60 0.1580383
889.70 0.1579778
889.80 0.1579173
889.90 0.1578568
890.00 0.1577964
890.10 0.157736
890.20 0.1576756
890.30 0.1576153
890.40 0.1575549
890.50 0.1574946
890.60 0.1574343
890.70 0.1573741
890.80 0.1573138
890.90 0.1572536
891.00 0.1571934
891.10 0.1571332
891.20 0.1570731
891.30 0.1570129
891.40 0.1569528
891.50 0.1568927
891.60 0.1568327
891.70 0.1567726
891.80 0.1567126
891.90 0.1566526
892.00 0.1565927
892.10 0.1565327
892.20 0.1564728
892.30 0.1564129
892.40 0.156353
892.50 0.1562932
892.60 0.1562333
892.70 0.1561735
892.80 0.1561137
892.90 0.156054
893.00 0.1559942
893.10 0.1559345
893.20 0.1558748
893.30 0.1558151
893.40 0.1557555
893.50 0.1556959
893.60 0.1556363
893.70 0.1555767
893.80 0.1555171
893.90 0.1554576
894.00 0.1553981
894.10 0.1553386
894.20 0.1552791
894.30 0.1552197
894.40 0.1551602
894.50 0.1551009
894.60 0.1550415
894.70 0.1549821
894.80 0.1549228
894.90 0.1548635
895.00 0.1548042
895.10 0.1547449
895.20 0.1546857
895.30 0.1546265
895.40 0.1545673
895.50 0.1545081
895.60 0.154449
895.70 0.1543898
895.80 0.1543307
895.90 0.1542716
896.00 0.1542126
896.10 0.1541535
896.20 0.1540945
896.30 0.1540355
896.40 0.1539766
896.50 0.1539176
896.60 0.1538587
896.70 0.1537998
896.80 0.1537409
896.90 0.1536821
897.00 0.1536232
897.10 0.1535644
897.20 0.1535056
897.30 0.1534468
897.40 0.153388
897.50 0.1533292
897.60 0.1532705
897.70 0.1532118
897.80 0.1531531
897.90 0.1530944
898.00 0.1530357
898.10 0.1529771
898.20 0.1529185
898.30 0.1528599
898.40 0.1528013
898.50 0.1527427
898.60 0.1526842
898.70 0.1526257
898.80 0.1525672
898.90 0.1525088
899.00 0.1524503
899.10 0.1523919
899.20 0.1523335
899.30 0.1522751
899.40 0.1522168
899.50 0.1521585
899.60 0.1521002
899.70 0.1520419
899.80 0.1519836
899.90 0.1519254
900.00 0.1518672
900.10 0.151809
900.20 0.1517508
900.30 0.1516927
900.40 0.1516345
900.50 0.1515764
900.60 0.1515183
900.70 0.1514603
900.80 0.1514022
900.90 0.1513442
901.00 0.1512862
901.10 0.1512283
901.20 0.1511703
901.30 0.1511124
901.40 0.1510545
901.50 0.1509966
901.60 0.1509387
901.70 0.150881
901.80 0.1508237
901.90 0.1507665
902.00 0.1507093
902.10 0.1506521
902.20 0.150595
902.30 0.1505379
902.40 0.1504808
902.50 0.1504237
902.60 0.1503666
902.70 0.1503096
902.80 0.1502525
902.90 0.1501955
903.00 0.1501386
903.10 0.1500816
903.20 0.1500247
903.30 0.1499677
903.40 0.1499108
903.50 0.149854
903.60 0.1497971
903.70 0.1497403
903.80 0.1496835
903.90 0.1496267
904.00 0.1495699
904.10 0.1495132
904.20 0.1494565
904.30 0.1493998
904.40 0.1493431
904.50 0.1492864
904.60 0.1492298
904.70 0.1491732
904.80 0.1491166
904.90 0.14906
905.00 0.1490035
905.10 0.1489469
905.20 0.1488904
905.30 0.1488339
905.40 0.1487775
905.50 0.148721
905.60 0.1486646
905.70 0.1486082
905.80 0.1485518
905.90 0.1484955
906.00 0.1484391
906.10 0.1483828
906.20 0.1483266
906.30 0.1482705
906.40 0.1482145
906.50 0.1481585
906.60 0.1481026
906.70 0.1480466
906.80 0.1479907
906.90 0.1479347
907.00 0.1478789
907.10 0.147823
907.20 0.1477671
907.30 0.1477113
907.40 0.1476555
907.50 0.1475997
907.60 0.1475439
907.70 0.1474882
907.80 0.1474325
907.90 0.1473768
908.00 0.1473211
908.10 0.1472654
908.20 0.1472098
908.30 0.1471542
908.40 0.1470986
908.50 0.147043
908.60 0.1469874
908.70 0.1469319
908.80 0.1468764
908.90 0.1468209
909.00 0.1467654
909.10 0.14671
909.20 0.1466545
909.30 0.1465991
909.40 0.1465437
909.50 0.1464884
909.60 0.146433
909.70 0.1463777
909.80 0.1463224
909.90 0.1462671
910.00 0.1462118
910.10 0.1461566
910.20 0.1461014
910.30 0.1460461
910.40 0.145991
910.50 0.1459358
910.60 0.1458807
910.70 0.1458255
910.80 0.1457704
910.90 0.1457154
911.00 0.1456603
911.10 0.1456053
911.20 0.1455503
911.30 0.1454953
911.40 0.1454403
911.50 0.1453853
911.60 0.1453304
911.70 0.1452755
911.80 0.1452206
911.90 0.1451657
912.00 0.1451109
912.10 0.145056
912.20 0.1450012
912.30 0.1449464
912.40 0.1448917
912.50 0.1448369
912.60 0.1447822
912.70 0.1447275
912.80 0.1446728
912.90 0.1446181
913.00 0.1445635
913.10 0.1445088
913.20 0.1444542
913.30 0.1443996
913.40 0.1443451
913.50 0.1442905
913.60 0.144236
913.70 0.1441815
913.80 0.144127
913.90 0.1440726
914.00 0.1440181
914.10 0.1439637
914.20 0.1439093
914.30 0.1438549
914.40 0.1438006
914.50 0.1437462
914.60 0.1436919
914.70 0.1436376
914.80 0.1435833
914.90 0.143529
915.00 0.1434748
915.10 0.1434206
915.20 0.1433664
915.30 0.1433128
915.40 0.1432594
915.50 0.143206
915.60 0.1431527
915.70 0.1430993
915.80 0.143046
915.90 0.1429928
916.00 0.1429395
916.10 0.1428863
916.20 0.142833
916.30 0.1427798
916.40 0.1427266
916.50 0.1426735
916.60 0.1426203
916.70 0.1425672
916.80 0.1425141
916.90 0.142461
917.00 0.142408
917.10 0.1423549
917.20 0.1423019
917.30 0.1422489
917.40 0.1421959
917.50 0.1421429
917.60 0.14209
917.70 0.1420371
917.80 0.1419842
917.90 0.1419313
918.00 0.1418784
918.10 0.1418256
918.20 0.1417727
918.30 0.1417199
918.40 0.1416671
918.50 0.1416144
918.60 0.1415616
918.70 0.1415089
918.80 0.1414562
918.90 0.1414035
919.00 0.1413508
919.10 0.1412982
919.20 0.1412455
919.30 0.1411929
919.40 0.1411403
919.50 0.1410877
919.60 0.1410352
919.70 0.1409827
919.80 0.1409301
919.90 0.1408771
920.00 0.1408241
920.10 0.1407711
920.20 0.1407181
920.30 0.1406652
920.40 0.1406122
920.50 0.1405593
920.60 0.1405064
920.70 0.1404535
920.80 0.1404006
920.90 0.1403478
921.00 0.140295
921.10 0.1402422
921.20 0.1401894
921.30 0.1401366
921.40 0.1400839
921.50 0.1400311
921.60 0.1399784
921.70 0.1399257
921.80 0.1398731
921.90 0.1398204
922.00 0.1397678
922.10 0.1397152
922.20 0.1396626
922.30 0.13961
922.40 0.1395575
922.50 0.1395049
922.60 0.1394524
922.70 0.1393999
922.80 0.1393475
922.90 0.139295
923.00 0.1392426
923.10 0.1391902
923.20 0.1391378
923.30 0.1390854
923.40 0.139033
923.50 0.1389807
923.60 0.1389284
923.70 0.1388761
923.80 0.1388238
923.90 0.1387715
924.00 0.1387193
924.10 0.1386671
924.20 0.1386149
924.30 0.1385627
924.40 0.1385106
924.50 0.1384587
924.60 0.1384067
924.70 0.1383549
924.80 0.138303
924.90 0.1382512
925.00 0.1381993
925.10 0.1381475
925.20 0.1380957
925.30 0.138044
925.40 0.1379922
925.50 0.1379405
925.60 0.1378888
925.70 0.1378371
925.80 0.1377854
925.90 0.1377337
926.00 0.1376821
926.10 0.1376305
926.20 0.1375789
926.30 0.1375273
926.40 0.1374758
926.50 0.1374242
926.60 0.1373727
926.70 0.1373212
926.80 0.1372697
926.90 0.1372183
927.00 0.1371668
927.10 0.1371154
927.20 0.137064
927.30 0.1370126
927.40 0.1369612
927.50 0.1369099
927.60 0.1368585
927.70 0.1368072
927.80 0.1367559
927.90 0.1367047
928.00 0.1366534
928.10 0.1366022
928.20 0.1365509
928.30 0.1364997
928.40 0.1364486
928.50 0.1363974
928.60 0.1363463
928.70 0.1362951
928.80 0.136244
928.90 0.136193
929.00 0.1361419
929.10 0.1360913
929.20 0.1360408
929.30 0.1359904
929.40 0.1359399
929.50 0.1358895
929.60 0.135839
929.70 0.1357886
929.80 0.1357382
929.90 0.1356879
930.00 0.1356375
930.10 0.1355872
930.20 0.1355369
930.30 0.1354866
930.40 0.1354363
930.50 0.1353861
930.60 0.1353358
930.70 0.1352856
930.80 0.1352354
930.90 0.1351852
931.00 0.135135
931.10 0.1350849
931.20 0.1350348
931.30 0.1349847
931.40 0.1349346
931.50 0.1348845
931.60 0.1348344
931.70 0.1347844
931.80 0.1347344
931.90 0.1346844
932.00 0.1346344
932.10 0.1345844
932.20 0.1345345
932.30 0.1344846
932.40 0.1344347
932.50 0.1343848
932.60 0.1343349
932.70 0.134285
932.80 0.1342352
932.90 0.1341854
933.00 0.1341356
933.10 0.1340858
933.20 0.134036
933.30 0.1339863
933.40 0.1339366
933.50 0.1338869
933.60 0.1338372
933.70 0.1337877
933.80 0.1337382
933.90 0.1336888
934.00 0.1336394
934.10 0.13359
934.20 0.1335406
934.30 0.1334913
934.40 0.1334419
934.50 0.1333926
934.60 0.1333433
934.70 0.133294
934.80 0.1332448
934.90 0.1331955
935.00 0.1331463
935.10 0.1330971
935.20 0.1330479
935.30 0.1329987
935.40 0.1329495
935.50 0.1329004
935.60 0.1328513
935.70 0.1328022
935.80 0.1327531
935.90 0.132704
936.00 0.132655
936.10 0.1326059
936.20 0.1325569
936.30 0.1325079
936.40 0.132459
936.50 0.13241
936.60 0.1323611
936.70 0.1323121
936.80 0.1322632
936.90 0.1322143
937.00 0.1321655
937.10 0.1321166
937.20 0.1320678
937.30 0.132019
937.40 0.1319702
937.50 0.1319214
937.60 0.1318726
937.70 0.1318239
937.80 0.1317751
937.90 0.1317264
938.00 0.1316777
938.10 0.1316291
938.20 0.1315804
938.30 0.1315318
938.40 0.1314832
938.50 0.1314345
938.60 0.131386
938.70 0.1313374
938.80 0.1312888
938.90 0.1312403
939.00 0.1311918
939.10 0.1311433
939.20 0.1310948
939.30 0.1310464
939.40 0.1309979
939.50 0.1309495
939.60 0.1309011
939.70 0.1308527
939.80 0.1308043
939.90 0.130756
940.00 0.1307076
940.10 0.1306593
940.20 0.130611
940.30 0.1305627
940.40 0.1305144
940.50 0.1304662
940.60 0.130418
940.70 0.1303697
940.80 0.1303215
940.90 0.1302734
941.00 0.1302252
941.10 0.1301771
941.20 0.1301289
941.30 0.1300808
941.40 0.1300327
941.50 0.1299847
941.60 0.1299366
941.70 0.1298886
941.80 0.1298405
941.90 0.1297925
942.00 0.1297445
942.10 0.1296966
942.20 0.1296486
942.30 0.1296007
942.40 0.1295528
942.50 0.1295049
942.60 0.129457
942.70 0.1294091
942.80 0.1293613
942.90 0.1293134
943.00 0.1292657
943.10 0.1292181
943.20 0.1291705
943.30 0.129123
943.40 0.1290754
943.50 0.1290279
943.60 0.1289804
943.70 0.1289329
943.80 0.1288854
943.90 0.128838
944.00 0.1287905
944.10 0.1287431
944.20 0.1286957
944.30 0.1286483
944.40 0.128601
944.50 0.1285536
944.60 0.1285063
944.70 0.128459
944.80 0.1284117
944.90 0.1283644
945.00 0.1283171
945.10 0.1282699
945.20 0.1282226
945.30 0.1281754
945.40 0.1281282
945.50 0.128081
945.60 0.1280339
945.70 0.1279867
945.80 0.1279396
945.90 0.1278925
946.00 0.1278454
946.10 0.1277983
946.20 0.1277512
946.30 0.1277042
946.40 0.1276572
946.50 0.1276102
946.60 0.1275632
946.70 0.1275162
946.80 0.1274692
946.90 0.1274223
947.00 0.1273754
947.10 0.1273285
947.20 0.1272816
947.30 0.1272347
947.40 0.1271878
947.50 0.127141
947.60 0.1270942
947.70 0.1270474
947.80 0.1270006
947.90 0.1269538
948.00 0.1269071
948.10 0.1268603
948.20 0.1268136
948.30 0.1267669
948.40 0.1267202
948.50 0.1266735
948.60 0.1266269
948.70 0.1265802
948.80 0.1265336
948.90 0.126487
949.00 0.1264404
949.10 0.1263939
949.20 0.1263473
949.30 0.1263008
949.40 0.1262542
949.50 0.1262077
949.60 0.1261613
949.70 0.1261148
949.80 0.1260683
949.90 0.1260219
950.00 0.1259755
950.10 0.1259291
950.20 0.1258827
950.30 0.1258363
950.40 0.12579
950.50 0.1257436
950.60 0.1256973
950.70 0.125651
950.80 0.1256047
950.90 0.1255585
951.00 0.1255122
951.10 0.125466
951.20 0.1254198
951.30 0.1253736
951.40 0.1253274
951.50 0.1252812
951.60 0.125235
951.70 0.1251889
951.80 0.1251428
951.90 0.1250967
952.00 0.1250506
952.10 0.1250045
952.20 0.1249585
952.30 0.1249125
952.40 0.1248664
952.50 0.1248206
952.60 0.1247749
952.70 0.1247291
952.80 0.1246833
952.90 0.1246376
953.00 0.1245919
953.10 0.1245461
953.20 0.1245005
953.30 0.1244548
953.40 0.1244091
953.50 0.1243635
953.60 0.1243178
953.70 0.1242722
953.80 0.1242266
953.90 0.1241811
954.00 0.1241355
954.10 0.12409
954.20 0.1240444
954.30 0.1239989
954.40 0.1239534
954.50 0.1239079
954.60 0.1238625
954.70 0.123817
954.80 0.1237716
954.90 0.1237262
955.00 0.1236808
955.10 0.1236354
955.20 0.1235901
955.30 0.1235447
955.40 0.1234994
955.50 0.1234541
955.60 0.1234088
955.70 0.1233635
955.80 0.1233182
955.90 0.123273
956.00 0.1232277
956.10 0.1231825
956.20 0.1231373
956.30 0.1230921
956.40 0.1230469
956.50 0.1230018
956.60 0.1229567
956.70 0.1229115
956.80 0.1228664
956.90 0.1228213
957.00 0.1227763
957.10 0.1227312
957.20 0.1226862
957.30 0.1226411
957.40 0.1225961
957.50 0.1225511
957.60 0.1225062
957.70 0.1224612
957.80 0.1224163
957.90 0.1223713
958.00 0.1223264
958.10 0.1222815
958.20 0.1222366
958.30 0.1221918
958.40 0.1221469
958.50 0.1221021
958.60 0.1220573
958.70 0.1220125
958.80 0.1219677
958.90 0.1219229
959.00 0.1218782
959.10 0.1218335
959.20 0.1217887
959.30 0.121744
959.40 0.1216993
959.50 0.1216547
959.60 0.12161
959.70 0.1215654
959.80 0.1215208
959.90 0.1214761
960.00 0.1214316
960.10 0.121387
960.20 0.1213424
960.30 0.1212979
960.40 0.1212534
960.50 0.1212088
960.60 0.1211643
960.70 0.1211199
960.80 0.1210754
960.90 0.121031
961.00 0.1209865
961.10 0.1209421
961.20 0.1208977
961.30 0.1208533
961.40 0.120809
961.50 0.1207646
961.60 0.1207203
961.70 0.1206759
961.80 0.1206316
961.90 0.1205873
962.00 0.1205434
962.10 0.1204996
962.20 0.1204558
962.30 0.120412
962.40 0.1203682
962.50 0.1203244
962.60 0.1202807
962.70 0.1202369
962.80 0.1201932
962.90 0.1201495
963.00 0.1201058
963.10 0.1200621
963.20 0.1200185
963.30 0.1199748
963.40 0.1199312
963.50 0.1198876
963.60 0.119844
963.70 0.1198004
963.80 0.1197569
963.90 0.1197133
964.00 0.1196698
964.10 0.1196263
964.20 0.1195827
964.30 0.1195393
964.40 0.1194958
964.50 0.1194523
964.60 0.1194089
964.70 0.1193655
964.80 0.119322
964.90 0.1192787
965.00 0.1192353
965.10 0.1191919
965.20 0.1191486
965.30 0.1191052
965.40 0.1190619
965.50 0.1190186
965.60 0.1189753
965.70 0.118932
965.80 0.1188888
965.90 0.1188455
966.00 0.1188023
966.10 0.1187591
966.20 0.1187159
966.30 0.1186727
966.40 0.1186296
966.50 0.1185864
966.60 0.1185433
966.70 0.1185002
966.80 0.118457
966.90 0.118414
967.00 0.1183709
967.10 0.1183278
967.20 0.1182848
967.30 0.1182418
967.40 0.1181987
967.50 0.1181557
967.60 0.1181128
967.70 0.1180698
967.80 0.1180268
967.90 0.1179839
968.00 0.117941
968.10 0.1178981
968.20 0.1178552
968.30 0.1178123
968.40 0.1177695
968.50 0.1177266
968.60 0.1176838
968.70 0.117641
968.80 0.1175982
968.90 0.1175554
969.00 0.1175126
969.10 0.1174699
969.20 0.1174271
969.30 0.1173844
969.40 0.1173417
969.50 0.117299
969.60 0.1172563
969.70 0.1172137
969.80 0.117171
969.90 0.1171284
970.00 0.1170858
970.10 0.1170432
970.20 0.1170006
970.30 0.116958
970.40 0.1169154
970.50 0.1168729
970.60 0.1168304
970.70 0.1167878
970.80 0.1167454
970.90 0.1167029
971.00 0.1166604
971.10 0.1166179
971.20 0.1165755
971.30 0.1165331
971.40 0.1164907
971.50 0.1164483
971.60 0.1164062
971.70 0.1163642
971.80 0.1163223
971.90 0.1162804
972.00 0.1162385
972.10 0.1161966
972.20 0.1161547
972.30 0.1161128
972.40 0.116071
972.50 0.1160292
972.60 0.1159873
972.70 0.1159455
972.80 0.1159038
972.90 0.115862
973.00 0.1158202
973.10 0.1157785
973.20 0.1157368
973.30 0.115695
973.40 0.1156533
973.50 0.1156117
973.60 0.11557
973.70 0.1155283
973.80 0.1154867
973.90 0.1154451
974.00 0.1154034
974.10 0.1153619
974.20 0.1153203
974.30 0.1152787
974.40 0.1152372
974.50 0.1151956
974.60 0.1151541
974.70 0.1151126
974.80 0.1150711
974.90 0.1150296
975.00 0.1149881
975.10 0.1149467
975.20 0.1149053
975.30 0.1148638
975.40 0.1148224
975.50 0.114781
975.60 0.1147397
975.70 0.1146983
975.80 0.1146569
975.90 0.1146156
976.00 0.1145743
976.10 0.114533
976.20 0.1144917
976.30 0.1144504
976.40 0.1144092
976.50 0.1143679
976.60 0.1143267
976.70 0.1142855
976.80 0.1142443
976.90 0.1142031
977.00 0.1141619
977.10 0.1141207
977.20 0.1140796
977.30 0.1140385
977.40 0.1139973
977.50 0.1139562
977.60 0.1139152
977.70 0.1138741
977.80 0.113833
977.90 0.113792
978.00 0.1137509
978.10 0.1137099
978.20 0.1136689
978.30 0.1136279
978.40 0.113587
978.50 0.113546
978.60 0.1135051
978.70 0.1134641
978.80 0.1134232
978.90 0.1133823
979.00 0.1133414
979.10 0.1133006
979.20 0.1132597
979.30 0.1132189
979.40 0.113178
979.50 0.1131372
979.60 0.1130964
979.70 0.1130556
979.80 0.1130149
979.90 0.1129741
980.00 0.1129334
980.10 0.1128926
980.20 0.1128519
980.30 0.1128112
980.40 0.1127705
980.50 0.1127299
980.60 0.1126892
980.70 0.1126486
980.80 0.1126079
980.90 0.1125673
981.00 0.1125267
981.10 0.1124861
981.20 0.1124456
981.30 0.1124051
981.40 0.1123647
981.50 0.1123244
981.60 0.112284
981.70 0.1122437
981.80 0.1122034
981.90 0.1121631
982.00 0.1121228
982.10 0.1120825
982.20 0.1120423
982.30 0.112002
982.40 0.1119618
982.50 0.1119216
982.60 0.1118814
982.70 0.1118412
982.80 0.111801
982.90 0.1117609
983.00 0.1117207
983.10 0.1116806
983.20 0.1116405
983.30 0.1116004
983.40 0.1115603
983.50 0.1115202
983.60 0.1114802
983.70 0.1114401
983.80 0.1114001
983.90 0.1113601
984.00 0.1113201
984.10 0.1112801
984.20 0.1112401
984.30 0.1112002
984.40 0.1111602
984.50 0.1111203
984.60 0.1110804
984.70 0.1110405
984.80 0.1110006
984.90 0.1109607
985.00 0.1109208
985.10 0.110881
985.20 0.1108411
985.30 0.1108013
985.40 0.1107615
985.50 0.1107217
985.60 0.1106819
985.70 0.1106422
985.80 0.1106024
985.90 0.1105627
986.00 0.110523
986.10 0.1104832
986.20 0.1104435
986.30 0.1104039
986.40 0.1103642
986.50 0.1103245
986.60 0.1102849
986.70 0.1102453
986.80 0.1102057
986.90 0.110166
987.00 0.1101265
987.10 0.1100869
987.20 0.1100473
987.30 0.1100078
987.40 0.1099683
987.50 0.1099287
987.60 0.1098892
987.70 0.1098497
987.80 0.1098103
987.90 0.1097708
988.00 0.1097314
988.10 0.1096919
988.20 0.1096525
988.30 0.1096131
988.40 0.1095737
988.50 0.1095343
988.60 0.1094949
988.70 0.1094556
988.80 0.1094163
988.90 0.1093769
989.00 0.1093376
989.10 0.1092983
989.20 0.109259
989.30 0.1092198
989.40 0.1091805
989.50 0.1091413
989.60 0.109102
989.70 0.1090628
989.80 0.1090236
989.90 0.1089844
990.00 0.1089452
990.10 0.1089061
990.20 0.1088669
990.30 0.1088278
990.40 0.1087887
990.50 0.1087496
990.60 0.1087105
990.70 0.1086714
990.80 0.1086323
990.90 0.1085933
991.00 0.1085542
991.10 0.1085153
991.20 0.1084764
991.30 0.1084376
991.40 0.1083988
991.50 0.10836
991.60 0.1083212
991.70 0.1082824
991.80 0.1082436
991.90 0.1082049
992.00 0.1081661
992.10 0.1081274
992.20 0.1080887
992.30 0.10805
992.40 0.1080113
992.50 0.1079727
992.60 0.107934
992.70 0.1078954
992.80 0.1078567
992.90 0.1078181
993.00 0.1077795
993.10 0.1077409
993.20 0.1077023
993.30 0.1076638
993.40 0.1076252
993.50 0.1075867
993.60 0.1075482
993.70 0.1075096
993.80 0.1074711
993.90 0.1074327
994.00 0.1073942
994.10 0.1073557
994.20 0.1073173
994.30 0.1072789
994.40 0.1072404
994.50 0.107202
994.60 0.1071637
994.70 0.1071253
994.80 0.1070869
994.90 0.1070486
995.00 0.1070102
995.10 0.1069719
995.20 0.1069336
995.30 0.1068953
995.40 0.106857
995.50 0.1068187
995.60 0.1067805
995.70 0.1067422
995.80 0.106704
995.90 0.1066658
996.00 0.1066276
996.10 0.1065897
996.20 0.106552
996.30 0.1065143
996.40 0.1064765
996.50 0.1064388
996.60 0.1064011
996.70 0.1063635
996.80 0.1063258
996.90 0.1062881
997.00 0.1062505
997.10 0.1062129
997.20 0.1061752
997.30 0.1061376
997.40 0.1061001
997.50 0.1060625
997.60 0.1060249
997.70 0.1059874
997.80 0.1059498
997.90 0.1059123
998.00 0.1058748
998.10 0.1058373
998.20 0.1057998
998.30 0.1057623
998.40 0.1057249
998.50 0.1056874
998.60 0.10565
998.70 0.1056126
998.80 0.1055751
998.90 0.1055378
999.00 0.1055004
999.10 0.105463
999.20 0.1054256
999.30 0.1053883
999.40 0.105351
999.50 0.1053136
999.60 0.1052763
999.70 0.105239
999.80 0.1052018
999.90 0.1051645
1000.00 0.1051272
1000.10 0.10509
1000.20 0.1050528
1000.30 0.1050155
1000.40 0.1049783
1000.50 0.1049412
1000.60 0.104904
1000.70 0.1048668
1000.80 0.1048297
1000.90 0.1047925
1001.00 0.1047554
1001.10 0.1047185
1001.20 0.1046815
1001.30 0.1046446
1001.40 0.1046077
1001.50 0.1045708
1001.60 0.1045339
1001.70 0.104497
1001.80 0.1044601
1001.90 0.1044233
1002.00 0.1043864
1002.10 0.1043496
1002.20 0.1043128
1002.30 0.104276
1002.40 0.1042392
1002.50 0.1042024
1002.60 0.1041656
1002.70 0.1041289
1002.80 0.1040921
1002.90 0.1040554
1003.00 0.1040187
1003.10 0.103982
1003.20 0.1039453
1003.30 0.1039086
1003.40 0.103872
1003.50 0.1038353
1003.60 0.1037987
1003.70 0.103762
1003.80 0.1037254
1003.90 0.1036888
1004.00 0.1036522
1004.10 0.1036156
1004.20 0.1035791
1004.30 0.1035425
1004.40 0.103506
1004.50 0.1034695
1004.60 0.1034329
1004.70 0.1033964
1004.80 0.1033599
1004.90 0.1033235
1005.00 0.103287
1005.10 0.1032505
1005.20 0.1032141
1005.30 0.1031777
1005.40 0.1031413
1005.50 0.1031049
1005.60 0.1030685
1005.70 0.1030321
1005.80 0.1029957
1005.90 0.1029594
1006.00 0.1029229
1006.10 0.1028862
1006.20 0.1028495
1006.30 0.1028127
1006.40 0.102776
1006.50 0.1027393
1006.60 0.1027026
1006.70 0.102666
1006.80 0.1026293
1006.90 0.1025926
1007.00 0.102556
1007.10 0.1025194
1007.20 0.1024828
1007.30 0.1024462
1007.40 0.1024096
1007.50 0.102373
1007.60 0.1023364
1007.70 0.1022999
1007.80 0.1022634
1007.90 0.1022268
1008.00 0.1021903
1008.10 0.1021538
1008.20 0.1021173
1008.30 0.1020809
1008.40 0.1020444
1008.50 0.1020079
1008.60 0.1019715
1008.70 0.1019351
1008.80 0.1018987
1008.90 0.1018623
1009.00 0.1018259
1009.10 0.1017895
1009.20 0.1017531
1009.30 0.1017168
1009.40 0.1016805
1009.50 0.1016441
1009.60 0.1016078
1009.70 0.1015715
1009.80 0.1015352
1009.90 0.101499
1010.00 0.1014627
1010.10 0.1014264
1010.20 0.1013902
1010.30 0.101354
1010.40 0.1013178
1010.50 0.1012816
1010.60 0.1012454
1010.70 0.1012092
1010.80 0.101173
1010.90 0.1011369
1011.00 0.1011009
1011.10 0.1010658
1011.20 0.1010306
1011.30 0.1009955
1011.40 0.1009604
1011.50 0.1009253
1011.60 0.1008902
1011.70 0.1008551
1011.80 0.1008201
1011.90 0.100785
1012.00 0.10075
1012.10 0.1007149
1012.20 0.1006799
1012.30 0.1006449
1012.40 0.1006099
1012.50 0.100575
1012.60 0.10054
1012.70 0.100505
1012.80 0.1004701
1012.90 0.1004352
1013.00 0.1004002
1013.10 0.1003653
1013.20 0.1003304
1013.30 0.1002955
1013.40 0.1002607
1013.50 0.1002258
1013.60 0.100191
1013.70 0.1001561
1013.80 0.1001213
1013.90 0.1000865
1014.00 0.1000517
1014.10 0.1000169
1014.20 0.09998211
1014.30 0.09994734
1014.40 0.09991259
1014.50 0.09987784
1014.60 0.09984311
1014.70 0.09980839
1014.80 0.09977368
1014.90 0.09973899
1015.00 0.0997043
1015.10 0.09966963
1015.20 0.09963497
1015.30 0.09960032
1015.40 0.09956568
1015.50 0.09953105
1015.60 0.09949644
1015.70 0.09946184
1015.80 0.09942724
1015.90 0.09939266
1016.00 0.0993581
1016.10 0.09932329
1016.20 0.09928834
1016.30 0.0992534
1016.40 0.09921848
1016.50 0.09918356
1016.60 0.09914866
1016.70 0.09911377
1016.80 0.09907889
1016.90 0.09904402
1017.00 0.09900917
1017.10 0.09897432
1017.20 0.09893949
1017.30 0.09890467
1017.40 0.09886986
1017.50 0.09883507
1017.60 0.09880028
1017.70 0.09876551
1017.80 0.09873075
1017.90 0.098696
1018.00 0.09866126
1018.10 0.09862654
1018.20 0.09859182
1018.30 0.09855712
1018.40 0.09852243
1018.50 0.09848775
1018.60 0.09845308
1018.70 0.09841843
1018.80 0.09838379
1018.90 0.09834915
1019.00 0.09831453
1019.10 0.09827992
1019.20 0.09824533
1019.30 0.09821074
1019.40 0.09817617
1019.50 0.09814161
1019.60 0.09810706
1019.70 0.09807252
1019.80 0.09803799
1019.90 0.09800348
1020.00 0.09796897
1020.10 0.09793448
1020.20 0.0979
1020.30 0.09786553
1020.40 0.09783108
1020.50 0.09779663
1020.60 0.0977622
1020.70 0.09772777
1020.80 0.09769336
1020.90 0.09765896
1021.00 0.09762458
1021.10 0.09759021
1021.20 0.097556
1021.30 0.0975218
1021.40 0.09748761
1021.50 0.09745343
1021.60 0.09741927
1021.70 0.09738511
1021.80 0.09735097
1021.90 0.09731684
1022.00 0.09728272
1022.10 0.09724861
1022.20 0.09721452
1022.30 0.09718043
1022.40 0.09714636
1022.50 0.09711229
1022.60 0.09707824
1022.70 0.0970442
1022.80 0.09701018
1022.90 0.09697616
1023.00 0.09694215
1023.10 0.09690816
1023.20 0.09687418
1023.30 0.09684021
1023.40 0.09680625
1023.50 0.0967723
1023.60 0.09673836
1023.70 0.09670444
1023.80 0.09667053
1023.90 0.09663662
1024.00 0.09660273
1024.10 0.09656885
1024.20 0.09653498
1024.30 0.09650113
1024.40 0.09646728
1024.50 0.09643345
1024.60 0.09639963
1024.70 0.09636581
1024.80 0.09633201
1024.90 0.09629823
1025.00 0.09626445
1025.10 0.09623068
1025.20 0.09619693
1025.30 0.09616319
1025.40 0.09612945
1025.50 0.09609573
1025.60 0.09606202
1025.70 0.09602833
1025.80 0.09599464
1025.90 0.09596097
1026.00 0.0959273
1026.10 0.09589365
1026.20 0.09586001
1026.30 0.09582677
1026.40 0.09579354
1026.50 0.09576033
1026.60 0.09572712
1026.70 0.09569393
1026.80 0.09566074
1026.90 0.09562757
1027.00 0.09559441
1027.10 0.09556126
1027.20 0.09552812
1027.30 0.09549499
1027.40 0.09546187
1027.50 0.09542877
1027.60 0.09539567
1027.70 0.09536259
1027.80 0.09532951
1027.90 0.09529645
1028.00 0.0952634
1028.10 0.09523036
1028.20 0.09519733
1028.30 0.09516432
1028.40 0.09513131
1028.50 0.09509831
1028.60 0.09506533
1028.70 0.09503236
1028.80 0.09499939
1028.90 0.09496644
1029.00 0.0949335
1029.10 0.09490057
1029.20 0.09486765
1029.30 0.09483475
1029.40 0.09480185
1029.50 0.09476896
1029.60 0.09473609
1029.70 0.09470323
1029.80 0.09467037
1029.90 0.09463753
1030.00 0.0946047
1030.10 0.09457188
1030.20 0.09453907
1030.30 0.09450628
1030.40 0.09447349
1030.50 0.09444071
1030.60 0.09440795
1030.70 0.09437519
1030.80 0.09434245
1030.90 0.09430972
1031.00 0.094277
1031.10 0.09424429
1031.20 0.09421159
1031.30 0.0941789
1031.40 0.09414636
1031.50 0.09411384
1031.60 0.09408133
1031.70 0.09404883
1031.80 0.09401634
1031.90 0.09398387
1032.00 0.0939514
1032.10 0.09391894
1032.20 0.0938865
1032.30 0.09385406
1032.40 0.09382164
1032.50 0.09378922
1032.60 0.09375682
1032.70 0.09372443
1032.80 0.09369205
1032.90 0.09365968
1033.00 0.09362732
1033.10 0.09359497
1033.20 0.09356264
1033.30 0.09353031
1033.40 0.09349799
1033.50 0.09346569
1033.60 0.09343339
1033.70 0.09340111
1033.80 0.09336884
1033.90 0.09333657
1034.00 0.09330432
1034.10 0.09327208
1034.20 0.09323985
1034.30 0.09320763
1034.40 0.09317542
1034.50 0.09314323
1034.60 0.09311104
1034.70 0.09307886
1034.80 0.0930467
1034.90 0.09301454
1035.00 0.0929824
1035.10 0.09295026
1035.20 0.09291814
1035.30 0.09288603
1035.40 0.09285392
1035.50 0.09282183
1035.60 0.09278975
1035.70 0.09275768
1035.80 0.09272562
1035.90 0.09269358
1036.00 0.09266154
1036.10 0.09262951
1036.20 0.09259749
1036.30 0.09256549
1036.40 0.09253349
1036.50 0.09250151
1036.60 0.09246953
1036.70 0.09243756
1036.80 0.09240561
1036.90 0.09237366
1037.00 0.09234173
1037.10 0.09230981
1037.20 0.09227789
1037.30 0.09224599
1037.40 0.0922141
1037.50 0.09218222
1037.60 0.09215035
1037.70 0.09211849
1037.80 0.09208664
1037.90 0.0920548
1038.00 0.09202297
1038.10 0.09199115
1038.20 0.09195934
1038.30 0.09192755
1038.40 0.09189576
1038.50 0.09186398
1038.60 0.09183222
1038.70 0.09180046
1038.80 0.09176872
1038.90 0.09173699
1039.00 0.09170526
1039.10 0.09167355
1039.20 0.09164185
1039.30 0.09161016
1039.40 0.09157847
1039.50 0.0915468
1039.60 0.09151514
1039.70 0.09148349
1039.80 0.09145185
1039.90 0.09142023
1040.00 0.09138861
1040.10 0.091357
1040.20 0.0913254
1040.30 0.09129382
1040.40 0.09126224
1040.50 0.09123067
1040.60 0.09119912
1040.70 0.09116757
1040.80 0.09113604
1040.90 0.09110451
1041.00 0.091073
1041.10 0.0910415
1041.20 0.09101
1041.30 0.09097852
1041.40 0.09094705
1041.50 0.09091559
1041.60 0.09088414
1041.70 0.09085312
1041.80 0.09082221
1041.90 0.0907913
1042.00 0.0907604
1042.10 0.09072952
1042.20 0.09069864
1042.30 0.09066778
1042.40 0.09063692
1042.50 0.09060607
1042.60 0.09057524
1042.70 0.09054441
1042.80 0.0905136
1042.90 0.0904828
1043.00 0.090452
1043.10 0.09042122
1043.20 0.09039044
1043.30 0.09035968
1043.40 0.09032892
1043.50 0.09029818
1043.60 0.09026745
1043.70 0.09023672
1043.80 0.09020601
1043.90 0.09017531
1044.00 0.09014461
1044.10 0.09011393
1044.20 0.09008326
1044.30 0.09005259
1044.40 0.09002194
1044.50 0.0899913
1044.60 0.08996067
1044.70 0.08993004
1044.80 0.08989943
1044.90 0.08986883
1045.00 0.08983824
1045.10 0.08980765
1045.20 0.08977708
1045.30 0.08974652
1045.40 0.08971597
1045.50 0.08968542
1045.60 0.08965489
1045.70 0.08962437
1045.80 0.08959386
1045.90 0.08956336
1046.00 0.08953286
1046.10 0.08950238
1046.20 0.08947191
1046.30 0.08944145
1046.40 0.089411
1046.50 0.08938056
1046.60 0.08935012
1046.70 0.0893197
1046.80 0.08928929
1046.90 0.08925861
1047.00 0.08922785
1047.10 0.0891971
1047.20 0.08916635
1047.30 0.08913562
1047.40 0.0891049
1047.50 0.08907419
1047.60 0.08904349
1047.70 0.08901279
1047.80 0.08898211
1047.90 0.08895144
1048.00 0.08892078
1048.10 0.08889013
1048.20 0.08885949
1048.30 0.08882885
1048.40 0.08879823
1048.50 0.08876762
1048.60 0.08873702
1048.70 0.08870643
1048.80 0.08867585
1048.90 0.08864528
1049.00 0.08861472
1049.10 0.08858417
1049.20 0.08855363
1049.30 0.0885231
1049.40 0.08849258
1049.50 0.08846206
1049.60 0.08843156
1049.70 0.08840107
1049.80 0.08837059
1049.90 0.08834012
1050.00 0.08830966
1050.10 0.08827921
1050.20 0.08824877
1050.30 0.08821834
1050.40 0.08818792
1050.50 0.08815751
1050.60 0.08812711
1050.70 0.08809672
1050.80 0.08806634
1050.90 0.08803597
1051.00 0.08800561
1051.10 0.08797525
1051.20 0.08794491
1051.30 0.08791458
1051.40 0.08788426
1051.50 0.08785395
1051.60 0.08782365
1051.70 0.08779336
1051.80 0.08776308
1051.90 0.08773281
1052.00 0.08770255
1052.10 0.08767263
1052.20 0.08764289
1052.30 0.08761315
1052.40 0.08758343
1052.50 0.08755372
1052.60 0.08752401
1052.70 0.08749432
1052.80 0.08746463
1052.90 0.08743496
1053.00 0.08740529
1053.10 0.08737564
1053.20 0.08734599
1053.30 0.08731636
1053.40 0.08728673
1053.50 0.08725711
1053.60 0.08722751
1053.70 0.08719791
1053.80 0.08716832
1053.90 0.08713874
1054.00 0.08710917
1054.10 0.08707962
1054.20 0.08705007
1054.30 0.08702053
1054.40 0.086991
1054.50 0.08696148
1054.60 0.08693197
1054.70 0.08690247
1054.80 0.08687297
1054.90 0.08684349
1055.00 0.08681402
1055.10 0.08678456
1055.20 0.08675511
1055.30 0.08672566
1055.40 0.08669623
1055.50 0.08666681
1055.60 0.08663739
1055.70 0.08660799
1055.80 0.08657859
1055.90 0.0865492
1056.00 0.08651983
1056.10 0.08649046
1056.20 0.08646111
1056.30 0.08643176
1056.40 0.08640242
1056.50 0.08637309
1056.60 0.08634377
1056.70 0.08631446
1056.80 0.08628516
1056.90 0.08625587
1057.00 0.08622659
1057.10 0.08619732
1057.20 0.08616806
1057.30 0.08613881
1057.40 0.08610957
1057.50 0.08608033
1057.60 0.08605111
1057.70 0.0860219
1057.80 0.08599269
1057.90 0.0859635
1058.00 0.08593431
1058.10 0.08590514
1058.20 0.08587597
1058.30 0.08584681
1058.40 0.08581767
1058.50 0.08578853
1058.60 0.0857594
1058.70 0.08573028
1058.80 0.08570117
1058.90 0.08567207
1059.00 0.08564298
1059.10 0.0856139
1059.20 0.08558483
1059.30 0.08555577
1059.40 0.08552671
1059.50 0.08549767
1059.60 0.08546864
1059.70 0.08543961
1059.80 0.0854106
1059.90 0.08538159
1060.00 0.0853526
1060.10 0.08532361
1060.20 0.08529463
1060.30 0.08526566
1060.40 0.08523671
1060.50 0.08520776
1060.60 0.08517882
1060.70 0.08514989
1060.80 0.08512097
1060.90 0.08509205
1061.00 0.08506315
1061.10 0.08503426
1061.20 0.08500538
1061.30 0.0849765
1061.40 0.08494764
1061.50 0.08491878
1061.60 0.08488994
1061.70 0.0848611
1061.80 0.08483227
1061.90 0.08480346
1062.00 0.08477465
1062.10 0.08474585
1062.20 0.08471706
1062.30 0.08468828
1062.40 0.08465951
1062.50 0.08463074
1062.60 0.08460205
1062.70 0.08457343
1062.80 0.08454483
1062.90 0.08451623
1063.00 0.08448764
1063.10 0.08445906
1063.20 0.08443049
1063.30 0.08440193
1063.40 0.08437338
1063.50 0.08434484
1063.60 0.0843163
1063.70 0.08428778
1063.80 0.08425927
1063.90 0.08423076
1064.00 0.08420226
1064.10 0.08417378
1064.20 0.0841453
1064.30 0.08411683
1064.40 0.08408837
1064.50 0.08405992
1064.60 0.08403148
1064.70 0.08400305
1064.80 0.08397463
1064.90 0.08394621
1065.00 0.08391781
1065.10 0.08388941
1065.20 0.08386103
1065.30 0.08383265
1065.40 0.08380428
1065.50 0.08377593
1065.60 0.08374758
1065.70 0.08371924
1065.80 0.08369091
1065.90 0.08366259
1066.00 0.08363427
1066.10 0.08360597
1066.20 0.08357768
1066.30 0.08354939
1066.40 0.08352111
1066.50 0.08349285
1066.60 0.08346459
1066.70 0.08343634
1066.80 0.0834081
1066.90 0.08337987
1067.00 0.08335165
1067.10 0.08332344
1067.20 0.08329524
1067.30 0.08326704
1067.40 0.08323886
1067.50 0.08321068
1067.60 0.08318252
1067.70 0.08315436
1067.80 0.08312621
1067.90 0.08309819
1068.00 0.0830704
1068.10 0.08304263
1068.20 0.08301486
1068.30 0.08298711
1068.40 0.08295936
1068.50 0.08293162
1068.60 0.08290389
1068.70 0.08287617
1068.80 0.08284846
1068.90 0.08282076
1069.00 0.08279306
1069.10 0.08276538
1069.20 0.0827377
1069.30 0.08271003
1069.40 0.08268238
1069.50 0.08265473
1069.60 0.08262709
1069.70 0.08259945
1069.80 0.08257183
1069.90 0.08254422
1070.00 0.08251661
1070.10 0.08248902
1070.20 0.08246143
1070.30 0.08243385
1070.40 0.08240628
1070.50 0.08237872
1070.60 0.08235117
1070.70 0.08232363
1070.80 0.08229609
1070.90 0.08226857
1071.00 0.08224105
1071.10 0.08221354
1071.20 0.08218604
1071.30 0.08215855
1071.40 0.08213107
1071.50 0.0821036
1071.60 0.08207614
1071.70 0.08204868
1071.80 0.08202124
1071.90 0.0819938
1072.00 0.08196637
1072.10 0.08193895
1072.20 0.08191154
1072.30 0.08188414
1072.40 0.08185675
1072.50 0.08182936
1072.60 0.08180199
1072.70 0.08177462
1072.80 0.08174727
1072.90 0.08171992
1073.00 0.08169258
1073.10 0.08166524
1073.20 0.08163788
1073.30 0.08161034
1073.40 0.08158282
1073.50 0.0815553
1073.60 0.08152779
1073.70 0.08150029
1073.80 0.0814728
1073.90 0.08144532
1074.00 0.08141785
1074.10 0.08139038
1074.20 0.08136293
1074.30 0.08133548
1074.40 0.08130805
1074.50 0.08128062
1074.60 0.0812532
1074.70 0.08122579
1074.80 0.08119838
1074.90 0.08117099
1075.00 0.08114361
1075.10 0.08111623
1075.20 0.08108886
1075.30 0.08106151
1075.40 0.08103416
1075.50 0.08100682
1075.60 0.08097948
1075.70 0.08095216
1075.80 0.08092485
1075.90 0.08089754
1076.00 0.08087024
1076.10 0.08084296
1076.20 0.08081568
1076.30 0.08078841
1076.40 0.08076114
1076.50 0.08073389
1076.60 0.08070665
1076.70 0.08067941
1076.80 0.08065218
1076.90 0.08062497
1077.00 0.08059776
1077.10 0.08057056
1077.20 0.08054336
1077.30 0.08051618
1077.40 0.080489
1077.50 0.08046184
1077.60 0.08043468
1077.70 0.08040753
1077.80 0.08038039
1077.90 0.08035326
1078.00 0.08032614
1078.10 0.08029903
1078.20 0.08027192
1078.30 0.08024482
1078.40 0.08021774
1078.50 0.08019066
1078.60 0.08016377
1078.70 0.08013705
1078.80 0.08011034
1078.90 0.08008363
1079.00 0.08005693
1079.10 0.08003024
1079.20 0.08000356
1079.30 0.07997689
1079.40 0.07995023
1079.50 0.07992357
1079.60 0.07989693
1079.70 0.07987029
1079.80 0.07984366
1079.90 0.07981704
1080.00 0.07979043
1080.10 0.07976382
1080.20 0.07973723
1080.30 0.07971064
1080.40 0.07968406
1080.50 0.07965749
1080.60 0.07963093
1080.70 0.07960438
1080.80 0.07957783
1080.90 0.0795513
1081.00 0.07952477
1081.10 0.07949825
1081.20 0.07947174
1081.30 0.07944524
1081.40 0.07941874
1081.50 0.07939226
1081.60 0.07936578
1081.70 0.07933931
1081.80 0.07931285
1081.90 0.0792864
1082.00 0.07925996
1082.10 0.07923352
1082.20 0.07920709
1082.30 0.07918068
1082.40 0.07915427
1082.50 0.07912787
1082.60 0.07910147
1082.70 0.07907509
1082.80 0.07904871
1082.90 0.07902235
1083.00 0.07899599
1083.10 0.07896964
1083.20 0.07894329
1083.30 0.07891696
1083.40 0.07889063
1083.50 0.07886432
1083.60 0.07883801
1083.70 0.07881171
1083.80 0.07878541
1083.90 0.07875913
1084.00 0.07873296
1084.10 0.07870681
1084.20 0.07868067
1084.30 0.07865453
1084.40 0.07862841
1084.50 0.07860229
1084.60 0.07857618
1084.70 0.07855008
1084.80 0.07852399
1084.90 0.07849791
1085.00 0.07847183
1085.10 0.07844576
1085.20 0.0784197
1085.30 0.07839365
1085.40 0.07836761
1085.50 0.07834158
1085.60 0.07831555
1085.70 0.07828953
1085.80 0.07826352
1085.90 0.07823752
1086.00 0.07821153
1086.10 0.07818555
1086.20 0.07815957
1086.30 0.0781336
1086.40 0.07810764
1086.50 0.07808169
1086.60 0.07805575
1086.70 0.07802981
1086.80 0.07800388
1086.90 0.07797797
1087.00 0.07795205
1087.10 0.07792615
1087.20 0.07790026
1087.30 0.07787437
1087.40 0.07784849
1087.50 0.07782262
1087.60 0.07779676
1087.70 0.07777091
1087.80 0.07774507
1087.90 0.07771923
1088.00 0.0776934
1088.10 0.07766758
1088.20 0.07764177
1088.30 0.07761596
1088.40 0.07759017
1088.50 0.07756438
1088.60 0.0775386
1088.70 0.07751283
1088.80 0.07748707
1088.90 0.07746131
1089.00 0.07743556
1089.10 0.07740983
1089.20 0.07738409
1089.30 0.07735837
1089.40 0.07733288
1089.50 0.0773075
1089.60 0.07728213
1089.70 0.07725677
1089.80 0.07723141
1089.90 0.07720607
1090.00 0.07718073
1090.10 0.0771554
1090.20 0.07713007
1090.30 0.07710476
1090.40 0.07707945
1090.50 0.07705415
1090.60 0.07702886
1090.70 0.07700358
1090.80 0.0769783
1090.90 0.07695303
1091.00 0.07692777
1091.10 0.07690252
1091.20 0.07687728
1091.30 0.07685204
1091.40 0.07682681
1091.50 0.07680159
1091.60 0.07677638
1091.70 0.07675118
1091.80 0.07672598
1091.90 0.0767008
1092.00 0.07667562
1092.10 0.07665044
1092.20 0.07662528
1092.30 0.07660012
1092.40 0.07657497
1092.50 0.07654983
1092.60 0.0765247
1092.70 0.07649958
1092.80 0.07647446
1092.90 0.07644935
1093.00 0.07642425
1093.10 0.07639916
1093.20 0.07637407
1093.30 0.076349
1093.40 0.07632393
1093.50 0.07629887
1093.60 0.07627381
1093.70 0.07624877
1093.80 0.07622373
1093.90 0.0761987
1094.00 0.07617368
1094.10 0.07614866
1094.20 0.07612366
1094.30 0.07609866
1094.40 0.07607367
1094.50 0.07604869
1094.60 0.07602371
1094.70 0.07599875
1094.80 0.07597376
1094.90 0.07594876
1095.00 0.07592377
1095.10 0.07589878
1095.20 0.0758738
1095.30 0.07584883
1095.40 0.07582387
1095.50 0.07579892
1095.60 0.07577397
1095.70 0.07574903
1095.80 0.0757241
1095.90 0.07569918
1096.00 0.07567427
1096.10 0.07564936
1096.20 0.07562446
1096.30 0.07559957
1096.40 0.07557469
1096.50 0.07554981
1096.60 0.07552494
1096.70 0.07550008
1096.80 0.07547523
1096.90 0.07545039
1097.00 0.07542555
1097.10 0.07540072
1097.20 0.0753759
1097.30 0.07535109
1097.40 0.07532628
1097.50 0.07530148
1097.60 0.07527669
1097.70 0.07525191
1097.80 0.07522714
1097.90 0.07520237
1098.00 0.07517761
1098.10 0.07515286
1098.20 0.07512812
1098.30 0.07510338
1098.40 0.07507866
1098.50 0.07505394
1098.60 0.07502922
1098.70 0.07500452
1098.80 0.07497982
1098.90 0.07495514
1099.00 0.07493045
1099.10 0.07490578
1099.20 0.07488112
1099.30 0.07485646
1099.40 0.07483181
1099.50 0.07480716
1099.60 0.07478253
1099.70 0.0747579
1099.80 0.07473328
1099.90 0.07470867
1100.00 0.07468407
1100.10 0.07465947
1100.20 0.07463488
1100.30 0.0746103
1100.40 0.07458573
1100.50 0.07456117
1100.60 0.07453661
1100.70 0.07451206
1100.80 0.07448752
1100.90 0.07446298
1101.00 0.07443845
1101.10 0.07441394
1101.20 0.07438942
1101.30 0.07436492
1101.40 0.07434042
1101.50 0.07431594
1101.60 0.07429145
1101.70 0.07426698
1101.80 0.07424252
1101.90 0.07421806
1102.00 0.07419361
1102.10 0.07416917
1102.20 0.07414473
1102.30 0.0741203
1102.40 0.07409588
1102.50 0.07407147
1102.60 0.07404707
1102.70 0.07402267
1102.80 0.07399828
1102.90 0.0739739
1103.00 0.07394953
1103.10 0.07392516
1103.20 0.0739008
1103.30 0.07387645
1103.40 0.07385211
1103.50 0.07382777
1103.60 0.07380344
1103.70 0.07377912
1103.80 0.07375481
1103.90 0.07373051
1104.00 0.07370621
1104.10 0.07368192
1104.20 0.07365764
1104.30 0.07363336
1104.40 0.07360909
1104.50 0.07358483
1104.60 0.07356058
1104.70 0.07353634
1104.80 0.0735121
1104.90 0.07348787
1105.00 0.07346365
1105.10 0.07343943
1105.20 0.07341523
1105.30 0.07339103
1105.40 0.07336684
1105.50 0.07334265
1105.60 0.07331848
1105.70 0.07329431
1105.80 0.07327041
1105.90 0.07324652
1106.00 0.07322264
1106.10 0.07319877
1106.20 0.0731749
1106.30 0.07315104
1106.40 0.07312719
1106.50 0.07310334
1106.60 0.0730795
1106.70 0.07305567
1106.80 0.07303185
1106.90 0.07300803
1107.00 0.07298423
1107.10 0.07296042
1107.20 0.07293663
1107.30 0.07291284
1107.40 0.07288907
1107.50 0.0728653
1107.60 0.07284153
1107.70 0.07281777
1107.80 0.07279403
1107.90 0.07277028
1108.00 0.07274655
1108.10 0.07272282
1108.20 0.0726991
1108.30 0.07267539
1108.40 0.07265169
1108.50 0.07262799
1108.60 0.0726043
1108.70 0.07258062
1108.80 0.07255694
1108.90 0.07253327
1109.00 0.07250961
1109.10 0.07248596
1109.20 0.07246231
1109.30 0.07243867
1109.40 0.07241504
1109.50 0.07239142
1109.60 0.0723678
1109.70 0.07234419
1109.80 0.07232059
1109.90 0.072297
1110.00 0.07227341
1110.10 0.07224983
1110.20 0.07222626
1110.30 0.07220269
1110.40 0.07217913
1110.50 0.07215558
1110.60 0.07213204
1110.70 0.0721085
1110.80 0.07208498
1110.90 0.07206145
1111.00 0.07203794
1111.10 0.07201443
1111.20 0.07199093
1111.30 0.07196744
1111.40 0.07194396
1111.50 0.07192048
1111.60 0.07189701
1111.70 0.07187355
1111.80 0.07185009
1111.90 0.07182664
1112.00 0.0718032
1112.10 0.07177977
1112.20 0.07175634
1112.30 0.07173292
1112.40 0.07170951
1112.50 0.0716861
1112.60 0.0716627
1112.70 0.07163931
1112.80 0.07161593
1112.90 0.07159256
1113.00 0.07156919
1113.10 0.07154583
1113.20 0.07152247
1113.30 0.07149912
1113.40 0.07147578
1113.50 0.07145245
1113.60 0.07142913
1113.70 0.07140581
1113.80 0.0713825
1113.90 0.07135919
1114.00 0.0713359
1114.10 0.07131261
1114.20 0.07128933
1114.30 0.07126605
1114.40 0.07124278
1114.50 0.07121952
1114.60 0.07119627
1114.70 0.07117302
1114.80 0.07114979
1114.90 0.07112655
1115.00 0.07110333
1115.10 0.07108011
1115.20 0.0710569
1115.30 0.0710337
1115.40 0.0710105
1115.50 0.07098732
1115.60 0.07096413
1115.70 0.07094096
1115.80 0.07091779
1115.90 0.07089463
1116.00 0.07087148
1116.10 0.07084834
1116.20 0.0708252
1116.30 0.07080207
1116.40 0.07077894
1116.50 0.07075583
1116.60 0.07073272
1116.70 0.07070961
1116.80 0.07068656
1116.90 0.07066358
1117.00 0.0706406
1117.10 0.07061763
1117.20 0.07059467
1117.30 0.07057171
1117.40 0.07054876
1117.50 0.07052582
1117.60 0.07050289
1117.70 0.07047996
1117.80 0.07045704
1117.90 0.07043412
1118.00 0.07041122
1118.10 0.07038832
1118.20 0.07036542
1118.30 0.07034254
1118.40 0.07031966
1118.50 0.07029679
1118.60 0.07027392
1118.70 0.07025107
1118.80 0.07022822
1118.90 0.07020537
1119.00 0.07018254
1119.10 0.07015971
1119.20 0.07013689
1119.30 0.07011407
1119.40 0.07009126
1119.50 0.07006846
1119.60 0.07004567
1119.70 0.07002288
1119.80 0.0700001
1119.90 0.06997733
1120.00 0.06995456
1120.10 0.0699318
1120.20 0.06990905
1120.30 0.06988631
1120.40 0.06986357
1120.50 0.06984084
1120.60 0.06981812
1120.70 0.0697954
1120.80 0.06977269
1120.90 0.06974999
1121.00 0.06972729
1121.10 0.0697046
1121.20 0.06968192
1121.30 0.06965924
1121.40 0.06963658
1121.50 0.06961392
1121.60 0.06959126
1121.70 0.06956861
1121.80 0.06954597
1121.90 0.06952334
1122.00 0.06950072
1122.10 0.0694781
1122.20 0.06945548
1122.30 0.06943288
1122.40 0.06941046
1122.50 0.06938817
1122.60 0.06936588
1122.70 0.06934361
1122.80 0.06932133
1122.90 0.06929907
1123.00 0.06927681
1123.10 0.06925456
1123.20 0.06923232
1123.30 0.06921008
1123.40 0.06918785
1123.50 0.06916562
1123.60 0.06914341
1123.70 0.06912119
1123.80 0.06909899
1123.90 0.06907679
1124.00 0.0690546
1124.10 0.06903242
1124.20 0.06901024
1124.30 0.06898807
1124.40 0.06896591
1124.50 0.06894376
1124.60 0.06892161
1124.70 0.06889946
1124.80 0.06887733
1124.90 0.0688552
1125.00 0.06883308
1125.10 0.06881096
1125.20 0.06878885
1125.30 0.06876675
1125.40 0.06874466
1125.50 0.06872257
1125.60 0.06870049
1125.70 0.06867841
1125.80 0.06865634
1125.90 0.06863428
1126.00 0.06861223
1126.10 0.06859018
1126.20 0.06856814
1126.30 0.06854611
1126.40 0.06852408
1126.50 0.06850206
1126.60 0.06848004
1126.70 0.06845804
1126.80 0.06843604
1126.90 0.06841404
1127.00 0.06839205
1127.10 0.06837007
1127.20 0.0683481
1127.30 0.06832613
1127.40 0.06830417
1127.50 0.06828222
1127.60 0.06826027
1127.70 0.06823833
1127.80 0.0682164
1127.90 0.06819447
1128.00 0.06817263
1128.10 0.06815082
1128.20 0.06812901
1128.30 0.06810721
1128.40 0.06808541
1128.50 0.06806363
1128.60 0.06804185
1128.70 0.06802007
1128.80 0.06799831
1128.90 0.06797654
1129.00 0.06795479
1129.10 0.06793304
1129.20 0.0679113
1129.30 0.06788957
1129.40 0.06786784
1129.50 0.06784612
1129.60 0.06782441
1129.70 0.0678027
1129.80 0.067781
1129.90 0.0677593
1130.00 0.06773761
1130.10 0.06771593
1130.20 0.06769426
1130.30 0.06767259
1130.40 0.06765093
1130.50 0.06762928
1130.60 0.06760763
1130.70 0.06758599
1130.80 0.06756435
1130.90 0.06754272
1131.00 0.0675211
1131.10 0.06749949
1131.20 0.06747788
1131.30 0.06745627
1131.40 0.06743468
1131.50 0.06741309
1131.60 0.06739151
1131.70 0.06736993
1131.80 0.06734836
1131.90 0.0673268
1132.00 0.06730525
1132.10 0.0672837
1132.20 0.06726215
1132.30 0.06724062
1132.40 0.06721909
1132.50 0.06719756
1132.60 0.06717605
1132.70 0.06715454
1132.80 0.06713303
1132.90 0.06711154
1133.00 0.06709005
1133.10 0.06706856
1133.20 0.06704709
1133.30 0.06702561
1133.40 0.06700415
1133.50 0.06698269
1133.60 0.06696124
1133.70 0.0669398
1133.80 0.06691836
1133.90 0.06689693
1134.00 0.0668755
1134.10 0.06685408
1134.20 0.06683267
1134.30 0.06681127
1134.40 0.06678987
1134.50 0.06676847
1134.60 0.06674709
1134.70 0.06672571
1134.80 0.06670434
1134.90 0.06668297
1135.00 0.06666161
1135.10 0.06664025
1135.20 0.06661891
1135.30 0.06659757
1135.40 0.06657623
1135.50 0.06655491
1135.60 0.06653358
1135.70 0.06651227
1135.80 0.06649096
1135.90 0.06646966
1136.00 0.06644836
1136.10 0.06642708
1136.20 0.06640579
1136.30 0.06638452
1136.40 0.06636325
1136.50 0.06634199
1136.60 0.06632073
1136.70 0.06629948
1136.80 0.06627824
1136.90 0.066257
1137.00 0.06623577
1137.10 0.06621454
1137.20 0.06619333
1137.30 0.06617211
1137.40 0.06615091
1137.50 0.06612971
1137.60 0.06610852
1137.70 0.06608733
1137.80 0.06606615
1137.90 0.06604498
1138.00 0.06602381
1138.10 0.06600265
1138.20 0.0659815
1138.30 0.06596035
1138.40 0.06593921
1138.50 0.06591808
1138.60 0.06589695
1138.70 0.06587583
1138.80 0.06585471
1138.90 0.06583361
1139.00 0.0658125
1139.10 0.06579141
1139.20 0.06577032
1139.30 0.06574933
1139.40 0.06572834
1139.50 0.06570737
1139.60 0.0656864
1139.70 0.06566543
1139.80 0.06564448
1139.90 0.06562352
1140.00 0.06560258
1140.10 0.06558164
1140.20 0.06556071
1140.30 0.06553978
1140.40 0.06551886
1140.50 0.06549795
1140.60 0.06547704
1140.70 0.06545614
1140.80 0.06543525
1140.90 0.06541436
1141.00 0.06539348
1141.10 0.0653726
1141.20 0.06535173
1141.30 0.06533087
1141.40 0.06531002
1141.50 0.06528917
1141.60 0.06526832
1141.70 0.06524748
1141.80 0.06522665
1141.90 0.06520583
1142.00 0.06518501
1142.10 0.0651642
1142.20 0.06514339
1142.30 0.06512259
1142.40 0.0651018
1142.50 0.06508101
1142.60 0.06506023
1142.70 0.06503946
1142.80 0.06501869
1142.90 0.06499792
1143.00 0.06497717
1143.10 0.06495642
1143.20 0.06493568
1143.30 0.06491494
1143.40 0.06489421
1143.50 0.06487348
1143.60 0.06485277
1143.70 0.06483205
1143.80 0.06481135
1143.90 0.06479065
1144.00 0.06476996
1144.10 0.06474927
1144.20 0.06472859
1144.30 0.06470791
1144.40 0.06468725
1144.50 0.06466658
1144.60 0.06464593
1144.70 0.06462528
1144.80 0.06460463
1144.90 0.064584
1145.00 0.06456337
1145.10 0.06454274
1145.20 0.06452212
1145.30 0.06450151
1145.40 0.06448091
1145.50 0.06446031
1145.60 0.06443971
1145.70 0.06441912
1145.80 0.06439854
1145.90 0.06437797
1146.00 0.0643574
1146.10 0.06433684
1146.20 0.06431628
1146.30 0.06429573
1146.40 0.06427519
1146.50 0.06425465
1146.60 0.06423412
1146.70 0.06421359
1146.80 0.06419307
1146.90 0.06417256
1147.00 0.06415205
1147.10 0.06413155
1147.20 0.06411106
1147.30 0.06409057
1147.40 0.06407009
1147.50 0.06404961
1147.60 0.06402914
1147.70 0.06400868
1147.80 0.06398822
1147.90 0.06396777
1148.00 0.06394732
1148.10 0.06392688
1148.20 0.06390645
1148.30 0.06388602
1148.40 0.0638656
1148.50 0.06384519
1148.60 0.06382478
1148.70 0.06380438
1148.80 0.06378398
1148.90 0.06376359
1149.00 0.06374321
1149.10 0.06372283
1149.20 0.06370246
1149.30 0.06368209
1149.40 0.06366174
1149.50 0.06364138
1149.60 0.06362104
1149.70 0.06360069
1149.80 0.06358036
1149.90 0.06356003
1150.00 0.06353971
1150.10 0.06351939
1150.20 0.06349908
1150.30 0.06347878
1150.40 0.06345848
1150.50 0.06343819
1150.60 0.06341792
1150.70 0.06339801
1150.80 0.0633781
1150.90 0.0633582
1151.00 0.06333831
1151.10 0.06331842
1151.20 0.06329854
1151.30 0.06327866
1151.40 0.06325879
1151.50 0.06323893
1151.60 0.06321907
1151.70 0.06319922
1151.80 0.06317937
1151.90 0.06315953
1152.00 0.0631397
1152.10 0.06311987
1152.20 0.06310005
1152.30 0.06308023
1152.40 0.06306042
1152.50 0.06304061
1152.60 0.06302081
1152.70 0.06300102
1152.80 0.06298123
1152.90 0.06296145
1153.00 0.06294168
1153.10 0.06292191
1153.20 0.06290214
1153.30 0.06288239
1153.40 0.06286263
1153.50 0.06284289
1153.60 0.06282315
1153.70 0.06280341
1153.80 0.06278369
1153.90 0.06276396
1154.00 0.06274425
1154.10 0.06272454
1154.20 0.06270483
1154.30 0.06268513
1154.40 0.06266544
1154.50 0.06264575
1154.60 0.06262607
1154.70 0.0626064
1154.80 0.06258673
1154.90 0.06256707
1155.00 0.06254741
1155.10 0.06252776
1155.20 0.06250811
1155.30 0.06248847
1155.40 0.06246884
1155.50 0.06244921
1155.60 0.06242959
1155.70 0.06240997
1155.80 0.06239036
1155.90 0.06237075
1156.00 0.06235115
1156.10 0.06233156
1156.20 0.06231197
1156.30 0.06229239
1156.40 0.06227282
1156.50 0.06225325
1156.60 0.06223369
1156.70 0.06221414
1156.80 0.06219459
1156.90 0.06217504
1157.00 0.06215551
1157.10 0.06213597
1157.20 0.06211645
1157.30 0.06209693
1157.40 0.06207741
1157.50 0.06205791
1157.60 0.0620384
1157.70 0.06201891
1157.80 0.06199942
1157.90 0.06197993
1158.00 0.06196045
1158.10 0.06194098
1158.20 0.06192151
1158.30 0.06190205
1158.40 0.06188259
1158.50 0.06186314
1158.60 0.0618437
1158.70 0.06182426
1158.80 0.06180483
1158.90 0.0617854
1159.00 0.06176598
1159.10 0.06174656
1159.20 0.06172715
1159.30 0.06170775
1159.40 0.06168835
1159.50 0.06166896
1159.60 0.06164957
1159.70 0.06163019
1159.80 0.06161081
1159.90 0.06159144
1160.00 0.06157208
1160.10 0.06155272
1160.20 0.06153337
1160.30 0.06151402
1160.40 0.06149468
1160.50 0.06147535
1160.60 0.06145602
1160.70 0.0614367
1160.80 0.06141738
1160.90 0.06139807
1161.00 0.06137876
1161.10 0.06135946
1161.20 0.06134016
1161.30 0.06132088
1161.40 0.06130159
1161.50 0.06128231
1161.60 0.06126304
1161.70 0.06124378
1161.80 0.06122452
1161.90 0.06120526
1162.00 0.06118601
1162.10 0.06116677
1162.20 0.06114762
1162.30 0.06112847
1162.40 0.06110933
1162.50 0.06109019
1162.60 0.06107106
1162.70 0.06105193
1162.80 0.06103281
1162.90 0.0610137
1163.00 0.06099459
1163.10 0.06097549
1163.20 0.06095639
1163.30 0.0609373
1163.40 0.06091822
1163.50 0.06089914
1163.60 0.06088006
1163.70 0.060861
1163.80 0.06084193
1163.90 0.06082288
1164.00 0.06080382
1164.10 0.06078478
1164.20 0.06076574
1164.30 0.0607467
1164.40 0.06072767
1164.50 0.06070865
1164.60 0.06068963
1164.70 0.06067062
1164.80 0.06065162
1164.90 0.06063262
1165.00 0.06061362
1165.10 0.06059463
1165.20 0.06057565
1165.30 0.06055667
1165.40 0.0605377
1165.50 0.06051873
1165.60 0.06049977
1165.70 0.06048081
1165.80 0.06046186
1165.90 0.06044292
1166.00 0.06042398
1166.10 0.06040505
1166.20 0.06038612
1166.30 0.0603672
1166.40 0.06034828
1166.50 0.06032937
1166.60 0.06031046
1166.70 0.06029156
1166.80 0.06027267
1166.90 0.06025378
1167.00 0.0602349
1167.10 0.06021602
1167.20 0.06019715
1167.30 0.06017828
1167.40 0.06015942
1167.50 0.06014057
1167.60 0.06012172
1167.70 0.06010287
1167.80 0.06008404
1167.90 0.0600652
1168.00 0.06004638
1168.10 0.06002756
1168.20 0.06000874
1168.30 0.05998993
1168.40 0.05997113
1168.50 0.05995233
1168.60 0.05993354
1168.70 0.05991475
1168.80 0.05989597
1168.90 0.0598772
1169.00 0.05985843
1169.10 0.05983966
1169.20 0.0598209
1169.30 0.05980215
1169.40 0.0597834
1169.50 0.05976466
1169.60 0.05974592
1169.70 0.05972719
1169.80 0.05970847
1169.90 0.05968975
1170.00 0.05967103
1170.10 0.05965232
1170.20 0.05963362
1170.30 0.05961492
1170.40 0.05959623
1170.50 0.05957754
1170.60 0.05955886
1170.70 0.05954018
1170.80 0.05952151
1170.90 0.05950285
1171.00 0.05948419
1171.10 0.05946553
1171.20 0.05944688
1171.30 0.05942824
1171.40 0.0594096
1171.50 0.05939097
1171.60 0.05937235
1171.70 0.05935372
1171.80 0.05933511
1171.90 0.0593165
1172.00 0.05929789
1172.10 0.05927929
1172.20 0.0592607
1172.30 0.05924211
1172.40 0.05922353
1172.50 0.05920495
1172.60 0.05918638
1172.70 0.05916782
1172.80 0.05914925
1172.90 0.0591307
1173.00 0.05911215
1173.10 0.05909361
1173.20 0.05907507
1173.30 0.05905653
1173.40 0.059038
1173.50 0.05901948
1173.60 0.05900097
1173.70 0.05898245
1173.80 0.05896422
1173.90 0.05894606
1174.00 0.05892791
1174.10 0.05890976
1174.20 0.05889162
1174.30 0.05887349
1174.40 0.05885536
1174.50 0.05883723
1174.60 0.05881911
1174.70 0.058801
1174.80 0.05878289
1174.90 0.05876479
1175.00 0.05874669
1175.10 0.05872859
1175.20 0.05871051
1175.30 0.05869242
1175.40 0.05867435
1175.50 0.05865627
1175.60 0.05863821
1175.70 0.05862015
1175.80 0.05860209
1175.90 0.05858404
1176.00 0.05856599
1176.10 0.05854795
1176.20 0.05852992
1176.30 0.05851189
1176.40 0.05849387
1176.50 0.05847585
1176.60 0.05845783
1176.70 0.05843982
1176.80 0.05842182
1176.90 0.05840382
1177.00 0.05838583
1177.10 0.05836784
1177.20 0.05834986
1177.30 0.05833188
1177.40 0.05831391
1177.50 0.05829595
1177.60 0.05827799
1177.70 0.05826003
1177.80 0.05824208
1177.90 0.05822413
1178.00 0.05820619
1178.10 0.05818826
1178.20 0.05817033
1178.30 0.05815241
1178.40 0.05813449
1178.50 0.05811657
1178.60 0.05809866
1178.70 0.05808076
1178.80 0.05806286
1178.90 0.05804497
1179.00 0.05802708
1179.10 0.0580092
1179.20 0.05799132
1179.30 0.05797345
1179.40 0.05795559
1179.50 0.05793772
1179.60 0.05791987
1179.70 0.05790202
1179.80 0.05788417
1179.90 0.05786633
1180.00 0.0578485
1180.10 0.05783067
1180.20 0.05781285
1180.30 0.05779503
1180.40 0.05777722
1180.50 0.05775941
1180.60 0.05774161
1180.70 0.05772381
1180.80 0.05770602
1180.90 0.05768823
1181.00 0.05767045
1181.10 0.05765267
1181.20 0.0576349
1181.30 0.05761713
1181.40 0.05759937
1181.50 0.05758162
1181.60 0.05756387
1181.70 0.05754612
1181.80 0.05752838
1181.90 0.05751064
1182.00 0.05749291
1182.10 0.05747519
1182.20 0.05745747
1182.30 0.05743976
1182.40 0.05742205
1182.50 0.05740434
1182.60 0.05738664
1182.70 0.05736895
1182.80 0.05735126
1182.90 0.05733358
1183.00 0.0573159
1183.10 0.05729823
1183.20 0.05728056
1183.30 0.05726289
1183.40 0.05724524
1183.50 0.05722758
1183.60 0.05720994
1183.70 0.05719229
1183.80 0.05717466
1183.90 0.05715703
1184.00 0.0571394
1184.10 0.05712178
1184.20 0.05710416
1184.30 0.05708655
1184.40 0.05706894
1184.50 0.05705134
1184.60 0.05703374
1184.70 0.05701615
1184.80 0.05699857
1184.90 0.05698099
1185.00 0.05696341
1185.10 0.05694584
1185.20 0.05692828
1185.30 0.05691072
1185.40 0.05689316
1185.50 0.05687564
1185.60 0.05685818
1185.70 0.05684071
1185.80 0.05682326
1185.90 0.05680581
1186.00 0.05678836
1186.10 0.05677092
1186.20 0.05675348
1186.30 0.05673605
1186.40 0.05671862
1186.50 0.0567012
1186.60 0.05668379
1186.70 0.05666637
1186.80 0.05664897
1186.90 0.05663157
1187.00 0.05661417
1187.10 0.05659678
1187.20 0.05657939
1187.30 0.05656201
1187.40 0.05654464
1187.50 0.05652727
1187.60 0.0565099
1187.70 0.05649254
1187.80 0.05647518
1187.90 0.05645783
1188.00 0.05644049
1188.10 0.05642315
1188.20 0.05640581
1188.30 0.05638848
1188.40 0.05637116
1188.50 0.05635384
1188.60 0.05633652
1188.70 0.05631921
1188.80 0.0563019
1188.90 0.0562846
1189.00 0.05626731
1189.10 0.05625002
1189.20 0.05623273
1189.30 0.05621545
1189.40 0.05619818
1189.50 0.05618091
1189.60 0.05616364
1189.70 0.05614638
1189.80 0.05612913
1189.90 0.05611188
1190.00 0.05609463
1190.10 0.05607739
1190.20 0.05606016
1190.30 0.05604293
1190.40 0.0560257
1190.50 0.05600848
1190.60 0.05599127
1190.70 0.05597406
1190.80 0.05595685
1190.90 0.05593965
1191.00 0.05592246
1191.10 0.05590527
1191.20 0.05588808
1191.30 0.0558709
1191.40 0.05585373
1191.50 0.05583656
1191.60 0.05581939
1191.70 0.05580223
1191.80 0.05578507
1191.90 0.05576792
1192.00 0.05575078
1192.10 0.05573364
1192.20 0.0557165
1192.30 0.05569937
1192.40 0.05568225
1192.50 0.05566513
1192.60 0.05564801
1192.70 0.0556309
1192.80 0.05561379
1192.90 0.05559669
1193.00 0.0555796
1193.10 0.05556251
1193.20 0.05554542
1193.30 0.05552834
1193.40 0.05551126
1193.50 0.05549419
1193.60 0.05547713
1193.70 0.05546007
1193.80 0.05544301
1193.90 0.05542596
1194.00 0.05540891
1194.10 0.05539187
1194.20 0.05537483
1194.30 0.0553578
1194.40 0.05534078
1194.50 0.05532375
1194.60 0.05530674
1194.70 0.05528973
1194.80 0.05527272
1194.90 0.05525572
1195.00 0.05523872
1195.10 0.05522173
1195.20 0.05520474
1195.30 0.05518776
1195.40 0.05517078
1195.50 0.05515381
1195.60 0.05513684
1195.70 0.05511988
1195.80 0.05510292
1195.90 0.05508597
1196.00 0.05506902
1196.10 0.05505208
1196.20 0.05503514
1196.30 0.0550182
1196.40 0.05500128
1196.50 0.05498435
1196.60 0.05496743
1196.70 0.05495052
1196.80 0.05493361
1196.90 0.05491671
1197.00 0.05489981
1197.10 0.05488291
1197.20 0.05486602
1197.30 0.05484914
1197.40 0.05483233
1197.50 0.05481553
1197.60 0.05479874
1197.70 0.05478195
1197.80 0.05476517
1197.90 0.05474839
1198.00 0.05473162
1198.10 0.05471485
1198.20 0.05469808
1198.30 0.05468133
1198.40 0.05466457
1198.50 0.05464782
1198.60 0.05463108
1198.70 0.05461434
1198.80 0.0545976
1198.90 0.05458087
1199.00 0.05456415
1199.10 0.05454743
1199.20 0.05453071
1199.30 0.054514
1199.40 0.0544973
1199.50 0.0544806
1199.60 0.0544639
1199.70 0.05444721
1199.80 0.05443052
1199.90 0.05441384
1200.00 0.05439716
