# Version 2.1 - nm, norm@500 to 1, cut digits, bergeron_He_11000_85.dat_11000
# Wavelength(nm)  Flambda(ergs/cm^s/s/nm)
300.00 2.316607
300.10 2.315947
300.20 2.315284
300.30 2.314625
300.40 2.313988
300.50 2.313352
300.60 2.312716
300.70 2.31208
300.80 2.311444
300.90 2.310809
301.00 2.310174
301.10 2.30954
301.20 2.308906
301.30 2.308272
301.40 2.307639
301.50 2.307005
301.60 2.306373
301.70 2.30574
301.80 2.305108
301.90 2.304476
302.00 2.303845
302.10 2.303187
302.20 2.302528
302.30 2.301868
302.40 2.301209
302.50 2.30055
302.60 2.299892
302.70 2.299234
302.80 2.298577
302.90 2.297919
303.00 2.297262
303.10 2.296606
303.20 2.29595
303.30 2.295294
303.40 2.294642
303.50 2.29399
303.60 2.293338
303.70 2.292687
303.80 2.292036
303.90 2.291386
304.00 2.290735
304.10 2.290086
304.20 2.289436
304.30 2.288787
304.40 2.288138
304.50 2.28749
304.60 2.286826
304.70 2.28616
304.80 2.285494
304.90 2.284829
305.00 2.284165
305.10 2.283501
305.20 2.282837
305.30 2.282173
305.40 2.28151
305.50 2.280847
305.60 2.280185
305.70 2.279523
305.80 2.278861
305.90 2.2782
306.00 2.277539
306.10 2.276879
306.20 2.276219
306.30 2.275559
306.40 2.274881
306.50 2.274198
306.60 2.273516
306.70 2.272834
306.80 2.272152
306.90 2.27147
307.00 2.27079
307.10 2.270109
307.20 2.269429
307.30 2.268749
307.40 2.26807
307.50 2.267391
307.60 2.266712
307.70 2.266034
307.80 2.265356
307.90 2.264679
308.00 2.264002
308.10 2.263326
308.20 2.26265
308.30 2.261974
308.40 2.261299
308.50 2.260624
308.60 2.259949
308.70 2.259275
308.80 2.258586
308.90 2.257855
309.00 2.257151
309.10 2.256447
309.20 2.255744
309.30 2.255042
309.40 2.25434
309.50 2.253643
309.60 2.252946
309.70 2.25225
309.80 2.251554
309.90 2.250859
310.00 2.250164
310.10 2.24947
310.20 2.248776
310.30 2.248082
310.40 2.247386
310.50 2.246687
310.60 2.245988
310.70 2.24529
310.80 2.244592
310.90 2.243894
311.00 2.243302
311.10 2.242709
311.20 2.242117
311.30 2.241486
311.40 2.240747
311.50 2.240008
311.60 2.23927
311.70 2.238532
311.80 2.237794
311.90 2.237057
312.00 2.236321
312.10 2.235584
312.20 2.234935
312.30 2.23433
312.40 2.233649
312.50 2.232815
312.60 2.232112
312.70 2.231409
312.80 2.230706
312.90 2.230014
313.00 2.229333
313.10 2.228653
313.20 2.227972
313.30 2.227276
313.40 2.226532
313.50 2.225789
313.60 2.225047
313.70 2.224305
313.80 2.223563
313.90 2.222822
314.00 2.222081
314.10 2.221357
314.20 2.220633
314.30 2.219909
314.40 2.219186
314.50 2.218464
314.60 2.217742
314.70 2.21702
314.80 2.216268
314.90 2.215443
315.00 2.214635
315.10 2.213893
315.20 2.213152
315.30 2.212411
315.40 2.211671
315.50 2.210931
315.60 2.210191
315.70 2.209342
315.80 2.208494
315.90 2.207646
316.00 2.206799
316.10 2.206062
316.20 2.205326
316.30 2.20459
316.40 2.203636
316.50 2.202682
316.60 2.201948
316.70 2.200995
316.80 2.200044
316.90 2.199093
317.00 2.198143
317.10 2.197193
317.20 2.196245
317.30 2.195111
317.40 2.19394
317.50 2.192661
317.60 2.191383
317.70 2.190105
317.80 2.188829
317.90 2.187453
318.00 2.185936
318.10 2.184019
318.20 2.182104
318.30 2.180192
318.40 2.178309
318.50 2.176508
318.60 2.174541
318.70 2.173025
318.80 2.172094
318.90 2.171661
319.00 2.171603
319.10 2.172183
319.20 2.172703
319.30 2.173052
319.40 2.1734
319.50 2.173747
319.60 2.174089
319.70 2.174207
319.80 2.174324
319.90 2.174441
320.00 2.174364
320.10 2.174077
320.20 2.173897
320.30 2.173504
320.40 2.173131
320.50 2.172631
320.60 2.172113
320.70 2.171613
320.80 2.171113
320.90 2.170613
321.00 2.170113
321.10 2.169614
321.20 2.168897
321.30 2.168284
321.40 2.16767
321.50 2.167057
321.60 2.166444
321.70 2.165832
321.80 2.165143
321.90 2.164371
322.00 2.163806
322.10 2.163148
322.20 2.162489
322.30 2.161831
322.40 2.161174
322.50 2.160516
322.60 2.159859
322.70 2.159203
322.80 2.158385
322.90 2.157685
323.00 2.156985
323.10 2.156285
323.20 2.155585
323.30 2.154887
323.40 2.154188
323.50 2.15349
323.60 2.152793
323.70 2.152096
323.80 2.151399
323.90 2.150703
324.00 2.149935
324.10 2.149168
324.20 2.148401
324.30 2.147628
324.40 2.146877
324.50 2.146168
324.60 2.145459
324.70 2.14475
324.80 2.144042
324.90 2.143334
325.00 2.142627
325.10 2.14192
325.20 2.141204
325.30 2.140466
325.40 2.139729
325.50 2.138967
325.60 2.138175
325.70 2.137384
325.80 2.136593
325.90 2.135835
326.00 2.135112
326.10 2.13439
326.20 2.133669
326.30 2.132966
326.40 2.132313
326.50 2.131575
326.60 2.130837
326.70 2.130099
326.80 2.129363
326.90 2.128626
327.00 2.12789
327.10 2.127155
327.20 2.12642
327.30 2.125685
327.40 2.124952
327.50 2.124218
327.60 2.123485
327.70 2.122753
327.80 2.122021
327.90 2.12121
328.00 2.120372
328.10 2.119607
328.20 2.118843
328.30 2.11808
328.40 2.117317
328.50 2.116592
328.60 2.115877
328.70 2.115162
328.80 2.114442
328.90 2.113707
329.00 2.112972
329.10 2.112237
329.20 2.111503
329.30 2.11077
329.40 2.110037
329.50 2.109305
329.60 2.108573
329.70 2.107841
329.80 2.10711
329.90 2.10638
330.00 2.105632
330.10 2.104865
330.20 2.104097
330.30 2.10333
330.40 2.102566
330.50 2.101804
330.60 2.101043
330.70 2.100282
330.80 2.099522
330.90 2.098763
331.00 2.098003
331.10 2.097245
331.20 2.096487
331.30 2.095729
331.40 2.094972
331.50 2.094204
331.60 2.093423
331.70 2.092642
331.80 2.091882
331.90 2.091123
332.00 2.090365
332.10 2.089607
332.20 2.08885
332.30 2.088094
332.40 2.087338
332.50 2.086582
332.60 2.085828
332.70 2.085073
332.80 2.084319
332.90 2.083566
333.00 2.082813
333.10 2.082068
333.20 2.081333
333.30 2.080598
333.40 2.079864
333.50 2.079131
333.60 2.078397
333.70 2.077665
333.80 2.076932
333.90 2.076201
334.00 2.075469
334.10 2.074715
334.20 2.073933
334.30 2.073151
334.40 2.072369
334.50 2.071588
334.60 2.070808
334.70 2.069992
334.80 2.069162
334.90 2.068375
335.00 2.067588
335.10 2.067015
335.20 2.066173
335.30 2.065547
335.40 2.064706
335.50 2.063914
335.60 2.063269
335.70 2.062449
335.80 2.061805
335.90 2.061074
336.00 2.060237
336.10 2.0594
336.20 2.058563
336.30 2.057757
336.40 2.056986
336.50 2.056217
336.60 2.055447
336.70 2.054679
336.80 2.05391
336.90 2.053155
337.00 2.052415
337.10 2.051676
337.20 2.050938
337.30 2.05019
337.40 2.049428
337.50 2.048666
337.60 2.047905
337.70 2.047145
337.80 2.046385
337.90 2.045624
338.00 2.044861
338.10 2.044098
338.20 2.043336
338.30 2.042574
338.40 2.041809
338.50 2.041035
338.60 2.040261
338.70 2.039487
338.80 2.038715
338.90 2.037942
339.00 2.037171
339.10 2.036399
339.20 2.035629
339.30 2.034922
339.40 2.034307
339.50 2.033613
339.60 2.032825
339.70 2.032037
339.80 2.031249
339.90 2.030462
340.00 2.029676
340.10 2.02889
340.20 2.028105
340.30 2.027321
340.40 2.026537
340.50 2.025753
340.60 2.02497
340.70 2.024188
340.80 2.023477
340.90 2.022869
341.00 2.022192
341.10 2.021431
341.20 2.020671
341.30 2.019911
341.40 2.019152
341.50 2.018393
341.60 2.017635
341.70 2.016877
341.80 2.016089
341.90 2.015264
342.00 2.014439
342.10 2.013615
342.20 2.012908
342.30 2.012135
342.40 2.011299
342.50 2.010565
342.60 2.009831
342.70 2.009097
342.80 2.008364
342.90 2.007632
343.00 2.006869
343.10 2.006069
343.20 2.005269
343.30 2.00447
343.40 2.003698
343.50 2.002966
343.60 2.002235
343.70 2.001504
343.80 2.000773
343.90 2.000043
344.00 1.999288
344.10 1.998497
344.20 1.997707
344.30 1.996917
344.40 1.996128
344.50 1.995339
344.60 1.994409
344.70 1.993612
344.80 1.992834
344.90 1.992233
345.00 1.991405
345.10 1.99062
345.20 1.989837
345.30 1.989058
345.40 1.98828
345.50 1.987493
345.60 1.986728
345.70 1.986007
345.80 1.985287
345.90 1.984568
346.00 1.983849
346.10 1.983131
346.20 1.982388
346.30 1.981609
346.40 1.980831
346.50 1.980054
346.60 1.979277
346.70 1.978501
346.80 1.977725
346.90 1.97695
347.00 1.976176
347.10 1.975402
347.20 1.974632
347.30 1.973868
347.40 1.973104
347.50 1.972341
347.60 1.971579
347.70 1.970817
347.80 1.970055
347.90 1.969295
348.00 1.968534
348.10 1.967775
348.20 1.967016
348.30 1.966257
348.40 1.965499
348.50 1.964741
348.60 1.963984
348.70 1.96315
348.80 1.96233
348.90 1.961567
349.00 1.960803
349.10 1.96004
349.20 1.959278
349.30 1.958517
349.40 1.957755
349.50 1.956995
349.60 1.956235
349.70 1.955475
349.80 1.954716
349.90 1.953958
350.00 1.9532
350.10 1.952443
350.20 1.951686
350.30 1.950916
350.40 1.950126
350.50 1.949337
350.60 1.948549
350.70 1.947761
350.80 1.946974
350.90 1.946187
351.00 1.945401
351.10 1.944615
351.20 1.94383
351.30 1.943046
351.40 1.942266
351.50 1.941495
351.60 1.940724
351.70 1.939954
351.80 1.939184
351.90 1.938415
352.00 1.937646
352.10 1.936878
352.20 1.93624
352.30 1.935558
352.40 1.934795
352.50 1.934032
352.60 1.93327
352.70 1.932509
352.80 1.931748
352.90 1.930987
353.00 1.930227
353.10 1.929468
353.20 1.928709
353.30 1.927951
353.40 1.927193
353.50 1.926423
353.60 1.92565
353.70 1.924877
353.80 1.924106
353.90 1.923333
354.00 1.92256
354.10 1.921788
354.20 1.921016
354.30 1.920244
354.40 1.919473
354.50 1.918703
354.60 1.917933
354.70 1.917164
354.80 1.916397
354.90 1.915634
355.00 1.914871
355.10 1.914108
355.20 1.913346
355.30 1.912592
355.40 1.911839
355.50 1.911086
355.60 1.910334
355.70 1.909565
355.80 1.90879
355.90 1.907908
356.00 1.907086
356.10 1.906327
356.20 1.905568
356.30 1.90481
356.40 1.904053
356.50 1.903296
356.60 1.902539
356.70 1.901784
356.80 1.901028
356.90 1.900274
357.00 1.899519
357.10 1.898766
357.20 1.898013
357.30 1.89726
357.40 1.89647
357.50 1.895614
357.60 1.894759
357.70 1.893904
357.80 1.893157
357.90 1.892411
358.00 1.891653
358.10 1.890892
358.20 1.890131
358.30 1.889371
358.40 1.888612
358.50 1.887853
358.60 1.887095
358.70 1.886337
358.80 1.88558
358.90 1.884823
359.00 1.884071
359.10 1.883327
359.20 1.882583
359.30 1.881827
359.40 1.881072
359.50 1.880278
359.60 1.879475
359.70 1.878672
359.80 1.877885
359.90 1.877099
360.00 1.876311
360.10 1.875522
360.20 1.874733
360.30 1.873944
360.40 1.873156
360.50 1.872369
360.60 1.871762
360.70 1.870978
360.80 1.870194
360.90 1.86941
361.00 1.868537
361.10 1.867689
361.20 1.867141
361.30 1.866242
361.40 1.865412
361.50 1.864716
361.60 1.864081
361.70 1.863218
361.80 1.86239
361.90 1.861623
362.00 1.860856
362.10 1.860253
362.20 1.859603
362.30 1.858797
362.40 1.857991
362.50 1.857186
362.60 1.856382
362.70 1.855773
362.80 1.855047
362.90 1.854357
363.00 1.853667
363.10 1.8528
363.20 1.851932
363.30 1.851275
363.40 1.85034
363.50 1.849904
363.60 1.848886
363.70 1.848239
363.80 1.847518
363.90 1.846739
364.00 1.845962
364.10 1.845184
364.20 1.844408
364.30 1.84359
364.40 1.842762
364.50 1.842085
364.60 1.841404
364.70 1.840723
364.80 1.840043
364.90 1.8392
365.00 1.838357
365.10 1.837679
365.20 1.836838
365.30 1.835997
365.40 1.835321
365.50 1.834646
365.60 1.833971
365.70 1.833117
365.80 1.832264
365.90 1.831584
366.00 1.830948
366.10 1.83019
366.20 1.829432
366.30 1.828674
366.40 1.827917
366.50 1.826937
366.60 1.826267
366.70 1.825519
366.80 1.824771
366.90 1.824019
367.00 1.823259
367.10 1.822501
367.20 1.821743
367.30 1.820985
367.40 1.820228
367.50 1.819429
367.60 1.81862
367.70 1.817887
367.80 1.817155
367.90 1.816423
368.00 1.815641
368.10 1.814975
368.20 1.814204
368.30 1.813431
368.40 1.812658
368.50 1.811887
368.60 1.811116
368.70 1.810345
368.80 1.809575
368.90 1.808937
369.00 1.808214
369.10 1.807413
369.20 1.806758
369.30 1.805994
369.40 1.805231
369.50 1.804469
369.60 1.803652
369.70 1.802837
369.80 1.802121
369.90 1.801407
370.00 1.800694
370.10 1.799905
370.20 1.799092
370.30 1.79828
370.40 1.797631
370.50 1.796817
370.60 1.796011
370.70 1.795362
370.80 1.794553
370.90 1.793744
371.00 1.793096
371.10 1.792451
371.20 1.791644
371.30 1.790837
371.40 1.78996
371.50 1.789233
371.60 1.788507
371.70 1.787782
371.80 1.787057
371.90 1.786333
372.00 1.785466
372.10 1.784733
372.20 1.783985
372.30 1.783238
372.40 1.782492
372.50 1.781746
372.60 1.781001
372.70 1.780256
372.80 1.779458
372.90 1.778661
373.00 1.777866
373.10 1.777072
373.20 1.776435
373.30 1.775798
373.40 1.775005
373.50 1.774212
373.60 1.773577
373.70 1.772628
373.80 1.772063
373.90 1.77136
374.00 1.77057
374.10 1.769781
374.20 1.768992
374.30 1.768203
374.40 1.767455
374.50 1.766629
374.60 1.765918
374.70 1.765211
374.80 1.764504
374.90 1.763798
375.00 1.763066
375.10 1.762334
375.20 1.761603
375.30 1.760842
375.40 1.760082
375.50 1.759323
375.60 1.758564
375.70 1.757806
375.80 1.757049
375.90 1.756291
376.00 1.755357
376.10 1.754625
376.20 1.753895
376.30 1.753166
376.40 1.752437
376.50 1.751713
376.60 1.750997
376.70 1.750281
376.80 1.74953
376.90 1.748746
377.00 1.747963
377.10 1.74718
377.20 1.746408
377.30 1.745674
377.40 1.744941
377.50 1.744209
377.60 1.743486
377.70 1.742764
377.80 1.742042
377.90 1.741321
378.00 1.74052
378.10 1.739776
378.20 1.739033
378.30 1.738292
378.40 1.737551
378.50 1.73681
378.60 1.73607
378.70 1.735331
378.80 1.734592
378.90 1.73387
379.00 1.733182
379.10 1.73239
379.20 1.731599
379.30 1.730845
379.40 1.73013
379.50 1.729415
379.60 1.728622
379.70 1.72775
379.80 1.727026
379.90 1.726302
380.00 1.725579
380.10 1.724856
380.20 1.724133
380.30 1.723411
380.40 1.72269
380.50 1.721969
380.60 1.721121
380.70 1.720355
380.80 1.719589
380.90 1.718824
381.00 1.71806
381.10 1.717347
381.20 1.716694
381.30 1.715961
381.40 1.715116
381.50 1.714372
381.60 1.713667
381.70 1.71297
381.80 1.712073
381.90 1.711477
382.00 1.710581
382.10 1.709987
382.20 1.709152
382.30 1.708409
382.40 1.707687
382.50 1.706999
382.60 1.706312
382.70 1.705529
382.80 1.704708
382.90 1.703957
383.00 1.703207
383.10 1.702458
383.20 1.701714
383.30 1.700991
383.40 1.700289
383.50 1.699615
383.60 1.69874
383.70 1.697972
383.80 1.697206
383.90 1.696439
384.00 1.695674
384.10 1.694909
384.20 1.694144
384.30 1.69338
384.40 1.692627
384.50 1.691885
384.60 1.691144
384.70 1.690403
384.80 1.689634
384.90 1.688801
385.00 1.688051
385.10 1.687299
385.20 1.686493
385.30 1.685768
385.40 1.684969
385.50 1.684095
385.60 1.683221
385.70 1.682348
385.80 1.681513
385.90 1.680814
386.00 1.680029
386.10 1.679159
386.20 1.67829
386.30 1.677421
386.40 1.676259
386.50 1.675391
386.60 1.674525
386.70 1.673438
386.80 1.6725
386.90 1.671415
387.00 1.670478
387.10 1.669315
387.20 1.667955
387.30 1.66672
387.40 1.665415
387.50 1.663863
387.60 1.662449
387.70 1.660496
387.80 1.658544
387.90 1.656595
388.00 1.65452
388.10 1.651804
388.20 1.648716
388.30 1.64537
388.40 1.642028
388.50 1.638668
388.60 1.635313
388.70 1.632172
388.80 1.629441
388.90 1.628058
389.00 1.628985
389.10 1.630532
389.20 1.632446
389.30 1.634397
389.40 1.63638
389.50 1.638303
389.60 1.64
389.70 1.640952
389.80 1.641486
389.90 1.64202
390.00 1.642554
390.10 1.643086
390.20 1.643618
390.30 1.64383
390.40 1.643684
390.50 1.643538
390.60 1.643392
390.70 1.643245
390.80 1.642995
390.90 1.642642
391.00 1.642334
391.10 1.641912
391.20 1.641403
391.30 1.640699
391.40 1.640147
391.50 1.639596
391.60 1.639045
391.70 1.638495
391.80 1.637945
391.90 1.637386
392.00 1.63681
392.10 1.636223
392.20 1.635613
392.30 1.634877
392.40 1.634247
392.50 1.633684
392.60 1.632852
392.70 1.632305
392.80 1.631666
392.90 1.630981
393.00 1.630303
393.10 1.62965
393.20 1.629022
393.30 1.628335
393.40 1.627637
393.50 1.62681
393.60 1.626157
393.70 1.625441
393.80 1.624628
393.90 1.623945
394.00 1.623249
394.10 1.622493
394.20 1.621813
394.30 1.621063
394.40 1.620264
394.50 1.619702
394.60 1.618881
394.70 1.618088
394.80 1.617397
394.90 1.616704
395.00 1.615885
395.10 1.615067
395.20 1.61425
395.30 1.613433
395.40 1.612617
395.50 1.611885
395.60 1.611185
395.70 1.610454
395.80 1.60964
395.90 1.608827
396.00 1.608015
396.10 1.607203
396.20 1.606391
396.30 1.605581
396.40 1.604771
396.50 1.603962
396.60 1.603432
396.70 1.602722
396.80 1.602208
396.90 1.601567
397.00 1.601039
397.10 1.600464
397.20 1.599767
397.30 1.599225
397.40 1.598596
397.50 1.597966
397.60 1.59733
397.70 1.596626
397.80 1.595921
397.90 1.595245
398.00 1.594641
398.10 1.594038
398.20 1.593396
398.30 1.592709
398.40 1.592026
398.50 1.59144
398.60 1.590699
398.70 1.589992
398.80 1.589307
398.90 1.588655
399.00 1.588063
399.10 1.587273
399.20 1.586541
399.30 1.58581
399.40 1.585079
399.50 1.584349
399.60 1.583616
399.70 1.582882
399.80 1.582149
399.90 1.581416
400.00 1.580688
400.10 1.580109
400.20 1.579377
400.30 1.578588
400.40 1.577799
400.50 1.577011
400.60 1.576224
400.70 1.575438
400.80 1.574651
400.90 1.574139
401.00 1.573354
401.10 1.57257
401.20 1.571786
401.30 1.571003
401.40 1.570146
401.50 1.569263
401.60 1.568384
401.70 1.567603
401.80 1.566823
401.90 1.566044
402.00 1.565265
402.10 1.564486
402.20 1.563708
402.30 1.562931
402.40 1.562154
402.50 1.561378
402.60 1.560603
402.70 1.560098
402.80 1.559459
402.90 1.558929
403.00 1.55829
403.10 1.557544
403.20 1.557048
403.30 1.556484
403.40 1.55598
403.50 1.555393
403.60 1.554789
403.70 1.554266
403.80 1.553505
403.90 1.553042
404.00 1.552496
404.10 1.551728
404.20 1.551229
404.30 1.550731
404.40 1.549964
404.50 1.549466
404.60 1.548834
404.70 1.548203
404.80 1.547446
404.90 1.546942
405.00 1.546388
405.10 1.545759
405.20 1.545092
405.30 1.544425
405.40 1.543797
405.50 1.543169
405.60 1.542541
405.70 1.541915
405.80 1.541288
405.90 1.540662
406.00 1.539957
406.10 1.539252
406.20 1.538548
406.30 1.537844
406.40 1.537166
406.50 1.536649
406.60 1.535893
406.70 1.535221
406.80 1.53457
406.90 1.533897
407.00 1.533223
407.10 1.532549
407.20 1.531876
407.30 1.531203
407.40 1.530531
407.50 1.529859
407.60 1.529188
407.70 1.528517
407.80 1.527847
407.90 1.527179
408.00 1.526575
408.10 1.525942
408.20 1.525263
408.30 1.524602
408.40 1.523941
408.50 1.523218
408.60 1.522564
408.70 1.52191
408.80 1.521246
408.90 1.520527
409.00 1.519884
409.10 1.519242
409.20 1.5186
409.30 1.517959
409.40 1.517315
409.50 1.516574
409.60 1.515833
409.70 1.515118
409.80 1.514499
409.90 1.513877
410.00 1.513138
410.10 1.512401
410.20 1.511745
410.30 1.51111
410.40 1.510472
410.50 1.509821
410.60 1.509172
410.70 1.508506
410.80 1.507771
410.90 1.507037
411.00 1.506358
411.10 1.505699
411.20 1.50504
411.30 1.504367
411.40 1.503639
411.50 1.503
411.60 1.502361
411.70 1.501705
411.80 1.500975
411.90 1.500247
412.00 1.499777
412.10 1.499049
412.20 1.498322
412.30 1.497595
412.40 1.496879
412.50 1.496402
412.60 1.495676
412.70 1.495032
412.80 1.494408
412.90 1.493761
413.00 1.49305
413.10 1.492379
413.20 1.491707
413.30 1.491037
413.40 1.490366
413.50 1.489686
413.60 1.488982
413.70 1.488326
413.80 1.487671
413.90 1.487016
414.00 1.486377
414.10 1.485788
414.20 1.485168
414.30 1.484451
414.40 1.483734
414.50 1.483019
414.60 1.482559
414.70 1.481844
414.80 1.481145
414.90 1.480495
415.00 1.479845
415.10 1.479196
415.20 1.478551
415.30 1.477918
415.40 1.477286
415.50 1.476652
415.60 1.475941
415.70 1.475231
415.80 1.474542
415.90 1.473916
416.00 1.473291
416.10 1.47265
416.20 1.471943
416.30 1.471235
416.40 1.470529
416.50 1.469827
416.60 1.469248
416.70 1.468665
416.80 1.467961
416.90 1.467256
417.00 1.466553
417.10 1.465853
417.20 1.465277
417.30 1.464697
417.40 1.463995
417.50 1.463294
417.60 1.462637
417.70 1.462146
417.80 1.461488
417.90 1.460831
418.00 1.460174
418.10 1.459517
418.20 1.458861
418.30 1.458205
418.40 1.457514
418.50 1.456845
418.60 1.456176
418.70 1.455508
418.80 1.45484
418.90 1.454173
419.00 1.453506
419.10 1.452839
419.20 1.452173
419.30 1.45151
419.40 1.450906
419.50 1.450303
419.60 1.449682
419.70 1.448991
419.80 1.448301
419.90 1.447623
420.00 1.446982
420.10 1.446342
420.20 1.445703
420.30 1.445064
420.40 1.444425
420.50 1.443787
420.60 1.443149
420.70 1.442511
420.80 1.441874
420.90 1.441237
421.00 1.440552
421.10 1.439868
421.20 1.439193
421.30 1.438545
421.40 1.437898
421.50 1.437251
421.60 1.436604
421.70 1.435958
421.80 1.435313
421.90 1.434659
422.00 1.433979
422.10 1.433316
422.20 1.432714
422.30 1.432114
422.40 1.431512
422.50 1.430859
422.60 1.430207
422.70 1.429555
422.80 1.428904
422.90 1.428253
423.00 1.427602
423.10 1.426952
423.20 1.426303
423.30 1.425654
423.40 1.425005
423.50 1.424357
423.60 1.42371
423.70 1.423062
423.80 1.422416
423.90 1.421769
424.00 1.421123
424.10 1.420478
424.20 1.419833
424.30 1.419188
424.40 1.418539
424.50 1.417896
424.60 1.417252
424.70 1.41661
424.80 1.415967
424.90 1.415325
425.00 1.414684
425.10 1.414043
425.20 1.413403
425.30 1.412763
425.40 1.412122
425.50 1.411474
425.60 1.410827
425.70 1.41018
425.80 1.409534
425.90 1.408888
426.00 1.408243
426.10 1.407598
426.20 1.406954
426.30 1.40631
426.40 1.405666
426.50 1.405023
426.60 1.40438
426.70 1.403738
426.80 1.403096
426.90 1.402455
427.00 1.401811
427.10 1.401167
427.20 1.400524
427.30 1.399881
427.40 1.399239
427.50 1.398597
427.60 1.397956
427.70 1.397315
427.80 1.396674
427.90 1.396034
428.00 1.395395
428.10 1.394755
428.20 1.394117
428.30 1.393478
428.40 1.39284
428.50 1.392203
428.60 1.391566
428.70 1.39093
428.80 1.390294
428.90 1.389665
429.00 1.389036
429.10 1.388408
429.20 1.38778
429.30 1.387153
429.40 1.386526
429.50 1.385899
429.60 1.385273
429.70 1.384647
429.80 1.384022
429.90 1.383397
430.00 1.382773
430.10 1.382149
430.20 1.381526
430.30 1.380903
430.40 1.38028
430.50 1.379658
430.60 1.379036
430.70 1.378415
430.80 1.377794
430.90 1.377173
431.00 1.376553
431.10 1.375933
431.20 1.375314
431.30 1.374694
431.40 1.374057
431.50 1.37342
431.60 1.372784
431.70 1.372148
431.80 1.371512
431.90 1.370877
432.00 1.370243
432.10 1.369609
432.20 1.368975
432.30 1.368342
432.40 1.367709
432.50 1.367076
432.60 1.366444
432.70 1.365813
432.80 1.365182
432.90 1.364551
433.00 1.363921
433.10 1.363291
433.20 1.362662
433.30 1.362033
433.40 1.361404
433.50 1.360776
433.60 1.360149
433.70 1.359522
433.80 1.358895
433.90 1.358269
434.00 1.357643
434.10 1.357017
434.20 1.356392
434.30 1.355768
434.40 1.355144
434.50 1.35452
434.60 1.353897
434.70 1.353274
434.80 1.35265
434.90 1.352013
435.00 1.351375
435.10 1.350738
435.20 1.350102
435.30 1.349465
435.40 1.34883
435.50 1.348195
435.60 1.34756
435.70 1.346926
435.80 1.346292
435.90 1.345658
436.00 1.345025
436.10 1.344393
436.20 1.34376
436.30 1.343136
436.40 1.34252
436.50 1.341905
436.60 1.341291
436.70 1.340677
436.80 1.340063
436.90 1.339449
437.00 1.338836
437.10 1.338224
437.20 1.337612
437.30 1.337
437.40 1.336386
437.50 1.335737
437.60 1.335088
437.70 1.33444
437.80 1.333792
437.90 1.333145
438.00 1.332501
438.10 1.331893
438.20 1.331285
438.30 1.330632
438.40 1.329842
438.50 1.329236
438.60 1.328629
438.70 1.328024
438.80 1.327419
438.90 1.326814
439.00 1.326209
439.10 1.325605
439.20 1.325002
439.30 1.324399
439.40 1.323796
439.50 1.323194
439.60 1.322592
439.70 1.32199
439.80 1.321366
439.90 1.320713
440.00 1.320061
440.10 1.31941
440.20 1.31876
440.30 1.318139
440.40 1.317518
440.50 1.316897
440.60 1.316277
440.70 1.315657
440.80 1.315037
440.90 1.314418
441.00 1.313799
441.10 1.313181
441.20 1.312565
441.30 1.31197
441.40 1.311376
441.50 1.310782
441.60 1.310188
441.70 1.30937
441.80 1.308743
441.90 1.308116
442.00 1.30749
442.10 1.306864
442.20 1.306239
442.30 1.305614
442.40 1.304972
442.50 1.304309
442.60 1.303646
442.70 1.302946
442.80 1.302191
442.90 1.301465
443.00 1.300749
443.10 1.300046
443.20 1.299348
443.30 1.298654
443.40 1.297958
443.50 1.297261
443.60 1.296615
443.70 1.295808
443.80 1.295001
443.90 1.294278
444.00 1.293511
444.10 1.292706
444.20 1.292002
444.30 1.29118
444.40 1.290344
444.50 1.289509
444.60 1.288634
444.70 1.287709
444.80 1.286766
444.90 1.285806
445.00 1.284846
445.10 1.283888
445.20 1.282849
445.30 1.281713
445.40 1.280577
445.50 1.279443
445.60 1.278309
445.70 1.277176
445.80 1.27594
445.90 1.274607
446.00 1.273276
446.10 1.271946
446.20 1.270738
446.30 1.269231
446.40 1.267876
446.50 1.266537
446.60 1.265199
446.70 1.263863
446.80 1.262641
446.90 1.261526
447.00 1.260413
447.10 1.259299
447.20 1.258758
447.30 1.258744
447.40 1.258511
447.50 1.258497
447.60 1.258573
447.70 1.258731
447.80 1.258965
447.90 1.259197
448.00 1.259414
448.10 1.259618
448.20 1.259821
448.30 1.260024
448.40 1.260226
448.50 1.260429
448.60 1.260511
448.70 1.260484
448.80 1.260452
448.90 1.260362
449.00 1.260273
449.10 1.260183
449.20 1.260093
449.30 1.259791
449.40 1.259581
449.50 1.259371
449.60 1.259085
449.70 1.258727
449.80 1.258369
449.90 1.258012
450.00 1.257655
450.10 1.257298
450.20 1.256941
450.30 1.256585
450.40 1.256171
450.50 1.255758
450.60 1.255345
450.70 1.254932
450.80 1.254519
450.90 1.254107
451.00 1.253638
451.10 1.253169
451.20 1.252655
451.30 1.2521
451.40 1.251653
451.50 1.251207
451.60 1.250653
451.70 1.250099
451.80 1.249761
451.90 1.249208
452.00 1.248655
452.10 1.248103
452.20 1.247605
452.30 1.247107
452.40 1.246609
452.50 1.246112
452.60 1.245561
452.70 1.245011
452.80 1.244461
452.90 1.243912
453.00 1.243362
453.10 1.242814
453.20 1.242298
453.30 1.241783
453.40 1.241267
453.50 1.240753
453.60 1.240238
453.70 1.239724
453.80 1.239196
453.90 1.23865
454.00 1.238104
454.10 1.237559
454.20 1.237014
454.30 1.23647
454.40 1.235925
454.50 1.235382
454.60 1.234838
454.70 1.234285
454.80 1.233722
454.90 1.233159
455.00 1.232597
455.10 1.232035
455.20 1.231474
455.30 1.230913
455.40 1.230352
455.50 1.229792
455.60 1.229232
455.70 1.228672
455.80 1.228133
455.90 1.227595
456.00 1.227056
456.10 1.226513
456.20 1.225956
456.30 1.225399
456.40 1.224842
456.50 1.224286
456.60 1.22373
456.70 1.223175
456.80 1.22262
456.90 1.222065
457.00 1.221511
457.10 1.220957
457.20 1.220413
457.30 1.21985
457.40 1.219288
457.50 1.218725
457.60 1.218163
457.70 1.217602
457.80 1.21704
457.90 1.21648
458.00 1.215919
458.10 1.215359
458.20 1.214799
458.30 1.21424
458.40 1.213681
458.50 1.213122
458.60 1.212564
458.70 1.212027
458.80 1.211499
458.90 1.210971
459.00 1.210443
459.10 1.209916
459.20 1.209389
459.30 1.208834
459.40 1.208278
459.50 1.207723
459.60 1.207169
459.70 1.206615
459.80 1.206061
459.90 1.205507
460.00 1.204954
460.10 1.204402
460.20 1.203849
460.30 1.203298
460.40 1.202746
460.50 1.202195
460.60 1.201644
460.70 1.201085
460.80 1.200522
460.90 1.199959
461.00 1.199397
461.10 1.198835
461.20 1.198303
461.30 1.197784
461.40 1.197221
461.50 1.196648
461.60 1.196076
461.70 1.195503
461.80 1.194957
461.90 1.194411
462.00 1.193865
462.10 1.193319
462.20 1.192774
462.30 1.192229
462.40 1.191685
462.50 1.191141
462.60 1.190597
462.70 1.190054
462.80 1.189511
462.90 1.188969
463.00 1.188426
463.10 1.187885
463.20 1.187342
463.30 1.1868
463.40 1.186259
463.50 1.185717
463.60 1.185176
463.70 1.184635
463.80 1.184095
463.90 1.183559
464.00 1.183023
464.10 1.182488
464.20 1.181954
464.30 1.181419
464.40 1.180885
464.50 1.180352
464.60 1.179819
464.70 1.179256
464.80 1.178682
464.90 1.178109
465.00 1.177536
465.10 1.176963
465.20 1.176391
465.30 1.175838
465.40 1.175297
465.50 1.174757
465.60 1.174218
465.70 1.173679
465.80 1.17314
465.90 1.17259
466.00 1.172037
466.10 1.171485
466.20 1.170933
466.30 1.170388
466.40 1.169846
466.50 1.169304
466.60 1.168762
466.70 1.168221
466.80 1.16768
466.90 1.16714
467.00 1.1666
467.10 1.16606
467.20 1.165521
467.30 1.16501
467.40 1.16448
467.50 1.163943
467.60 1.163405
467.70 1.162869
467.80 1.162332
467.90 1.161788
468.00 1.161242
468.10 1.160695
468.20 1.16015
468.30 1.159568
468.40 1.158973
468.50 1.15845
468.60 1.157955
468.70 1.157461
468.80 1.156768
468.90 1.156274
469.00 1.155781
469.10 1.155218
469.20 1.154625
469.30 1.154034
469.40 1.153442
469.50 1.152861
469.60 1.152284
469.70 1.151708
469.80 1.151131
469.90 1.150562
470.00 1.150073
470.10 1.149526
470.20 1.148956
470.30 1.148387
470.40 1.147818
470.50 1.147249
470.60 1.146666
470.70 1.14608
470.80 1.145494
470.90 1.144908
471.00 1.144257
471.10 1.143719
471.20 1.143233
471.30 1.142699
471.40 1.142066
471.50 1.141582
471.60 1.141097
471.70 1.140614
471.80 1.14013
471.90 1.139647
472.00 1.139164
472.10 1.138682
472.20 1.138199
472.30 1.137717
472.40 1.137236
472.50 1.136755
472.60 1.136274
472.70 1.135793
472.80 1.135297
472.90 1.134797
473.00 1.134298
473.10 1.133798
473.20 1.1333
473.30 1.132801
473.40 1.132303
473.50 1.131805
473.60 1.131308
473.70 1.130811
473.80 1.130329
473.90 1.129852
474.00 1.129376
474.10 1.128899
474.20 1.128393
474.30 1.127875
474.40 1.127358
474.50 1.12684
474.60 1.126325
474.70 1.125823
474.80 1.125322
474.90 1.124822
475.00 1.124322
475.10 1.123822
475.20 1.123322
475.30 1.122823
475.40 1.122307
475.50 1.121787
475.60 1.121267
475.70 1.120748
475.80 1.120229
475.90 1.11971
476.00 1.119192
476.10 1.118674
476.20 1.11817
476.30 1.117672
476.40 1.117175
476.50 1.116678
476.60 1.116182
476.70 1.115686
476.80 1.11519
476.90 1.114674
477.00 1.114153
477.10 1.113633
477.20 1.113113
477.30 1.112593
477.40 1.112074
477.50 1.111555
477.60 1.111036
477.70 1.110518
477.80 1.11
477.90 1.109482
478.00 1.108965
478.10 1.108448
478.20 1.107931
478.30 1.107415
478.40 1.106899
478.50 1.106384
478.60 1.105868
478.70 1.105391
478.80 1.104929
478.90 1.104438
479.00 1.10394
479.10 1.103442
479.20 1.102945
479.30 1.102448
479.40 1.10194
479.50 1.101426
479.60 1.100913
479.70 1.1004
479.80 1.099887
479.90 1.099374
480.00 1.098862
480.10 1.098351
480.20 1.097839
480.30 1.097328
480.40 1.096817
480.50 1.096307
480.60 1.095797
480.70 1.095287
480.80 1.094778
480.90 1.094268
481.00 1.09376
481.10 1.093251
481.20 1.092745
481.30 1.092239
481.40 1.091733
481.50 1.091228
481.60 1.090722
481.70 1.090218
481.80 1.089713
481.90 1.089209
482.00 1.088705
482.10 1.088202
482.20 1.087699
482.30 1.087194
482.40 1.086689
482.50 1.086185
482.60 1.085682
482.70 1.085178
482.80 1.084675
482.90 1.084173
483.00 1.08367
483.10 1.083168
483.20 1.082666
483.30 1.082165
483.40 1.081664
483.50 1.081163
483.60 1.080662
483.70 1.080145
483.80 1.079628
483.90 1.079111
484.00 1.078594
484.10 1.078078
484.20 1.077565
484.30 1.077053
484.40 1.076542
484.50 1.076031
484.60 1.075521
484.70 1.075012
484.80 1.074528
484.90 1.074043
485.00 1.073559
485.10 1.073076
485.20 1.072592
485.30 1.072109
485.40 1.071626
485.50 1.071144
485.60 1.070662
485.70 1.070153
485.80 1.069644
485.90 1.069136
486.00 1.068628
486.10 1.06812
486.20 1.067613
486.30 1.067106
486.40 1.066599
486.50 1.066093
486.60 1.065587
486.70 1.065079
486.80 1.064551
486.90 1.064022
487.00 1.063494
487.10 1.062967
487.20 1.062463
487.30 1.061959
487.40 1.061456
487.50 1.060953
487.60 1.06045
487.70 1.059947
487.80 1.059445
487.90 1.058944
488.00 1.058442
488.10 1.057941
488.20 1.05744
488.30 1.056934
488.40 1.056429
488.50 1.055924
488.60 1.055419
488.70 1.054914
488.80 1.054415
488.90 1.053916
489.00 1.053409
489.10 1.052877
489.20 1.052346
489.30 1.051815
489.40 1.051284
489.50 1.050754
489.60 1.050224
489.70 1.049695
489.80 1.049075
489.90 1.048539
490.00 1.048003
490.10 1.047467
490.20 1.046931
490.30 1.046396
490.40 1.045787
490.50 1.045178
490.60 1.044569
490.70 1.043961
490.80 1.043524
490.90 1.042929
491.00 1.042322
491.10 1.041624
491.20 1.041109
491.30 1.040503
491.40 1.039886
491.50 1.039293
491.60 1.038637
491.70 1.038053
491.80 1.037469
491.90 1.036877
492.00 1.036456
492.10 1.035853
492.20 1.035326
492.30 1.034831
492.40 1.03441
492.50 1.03399
492.60 1.033751
492.70 1.033332
492.80 1.032913
492.90 1.032493
493.00 1.03208
493.10 1.031732
493.20 1.031385
493.30 1.031038
493.40 1.030692
493.50 1.030345
493.60 1.029932
493.70 1.029582
493.80 1.029233
493.90 1.028857
494.00 1.02844
494.10 1.028024
494.20 1.027608
494.30 1.027192
494.40 1.026777
494.50 1.026362
494.60 1.025947
494.70 1.025532
494.80 1.025117
494.90 1.024703
495.00 1.024289
495.10 1.023876
495.20 1.023425
495.30 1.022975
495.40 1.022525
495.50 1.022075
495.60 1.021626
495.70 1.021177
495.80 1.020728
495.90 1.020279
496.00 1.019831
496.10 1.019395
496.20 1.018981
496.30 1.018527
496.40 1.018073
496.50 1.017619
496.60 1.017165
496.70 1.016676
496.80 1.016188
496.90 1.0157
497.00 1.015212
497.10 1.014725
497.20 1.014237
497.30 1.013755
497.40 1.013287
497.50 1.01282
497.60 1.012372
497.70 1.011959
497.80 1.011475
497.90 1.01099
498.00 1.010506
498.10 1.010022
498.20 1.009539
498.30 1.009056
498.40 1.008573
498.50 1.00809
498.60 1.007608
498.70 1.007116
498.80 1.006624
498.90 1.006076
499.00 1.005529
499.10 1.004983
499.20 1.004482
499.30 1.004036
499.40 1.003466
499.50 1.002896
499.60 1.002327
499.70 1.001757
499.80 1.001171
499.90 1.000585
500.00 1
500.10 0.9994153
500.20 0.9987964
500.30 0.9981047
500.40 0.9974135
500.50 0.9967227
500.60 0.9960324
500.70 0.9953426
500.80 0.9946454
500.90 0.9939319
501.00 0.9932189
501.10 0.9925064
501.20 0.9918236
501.30 0.9910784
501.40 0.9904455
501.50 0.9898235
501.60 0.9893067
501.70 0.9890868
501.80 0.9887485
501.90 0.9885289
502.00 0.988328
502.10 0.9881666
502.20 0.988003
502.30 0.9878086
502.40 0.9876064
502.50 0.9873873
502.60 0.9871683
502.70 0.9869494
502.80 0.9867306
502.90 0.9865119
503.00 0.9862514
503.10 0.9859021
503.20 0.985553
503.30 0.9852041
503.40 0.9848443
503.50 0.9844532
503.60 0.9840623
503.70 0.9836716
503.80 0.9832811
503.90 0.9828909
504.00 0.9825009
504.10 0.9821111
504.20 0.9817216
504.30 0.9813323
504.40 0.9809208
504.50 0.9804456
504.60 0.9799932
504.70 0.9796049
504.80 0.9792169
504.90 0.978829
505.00 0.978419
505.10 0.9779456
505.20 0.9774834
505.30 0.9770529
505.40 0.9766226
505.50 0.9761927
505.60 0.9757678
505.70 0.9753536
505.80 0.9749396
505.90 0.9745259
506.00 0.9741125
506.10 0.9736993
506.20 0.9732787
506.30 0.9728368
506.40 0.9723951
506.50 0.9719537
506.60 0.9715126
506.70 0.9710718
506.80 0.9706312
506.90 0.9701909
507.00 0.9697509
507.10 0.9693295
507.20 0.9689307
507.30 0.9684847
507.40 0.968039
507.50 0.9675936
507.60 0.9671485
507.70 0.9667036
507.80 0.966259
507.90 0.9658147
508.00 0.9653707
508.10 0.964927
508.20 0.9644835
508.30 0.9640403
508.40 0.9635973
508.50 0.9631547
508.60 0.9627123
508.70 0.9622702
508.80 0.9618449
508.90 0.961415
509.00 0.9609673
509.10 0.9605242
509.20 0.9600908
509.30 0.9596576
509.40 0.9592247
509.50 0.9587921
509.60 0.9583598
509.70 0.9579277
509.80 0.9574958
509.90 0.9570643
510.00 0.956633
510.10 0.956202
510.20 0.9557712
510.30 0.9553383
510.40 0.9548988
510.50 0.9544597
510.60 0.9540207
510.70 0.9535821
510.80 0.9531437
510.90 0.9527056
511.00 0.9522678
511.10 0.9518302
511.20 0.9513929
511.30 0.9509559
511.40 0.9505191
511.50 0.9500826
511.60 0.9496443
511.70 0.9492019
511.80 0.9487598
511.90 0.9483179
512.00 0.9478763
512.10 0.947435
512.20 0.9469939
512.30 0.9465583
512.40 0.9461379
512.50 0.9457177
512.60 0.9452978
512.70 0.9448782
512.80 0.9444588
512.90 0.9440396
513.00 0.9436207
513.10 0.9432021
513.20 0.9427837
513.30 0.9423656
513.40 0.9419477
513.50 0.9415301
513.60 0.9411127
513.70 0.9406956
513.80 0.9402787
513.90 0.9398621
514.00 0.9394281
514.10 0.9389916
514.20 0.9385553
514.30 0.9381193
514.40 0.9376835
514.50 0.937248
514.60 0.9368128
514.70 0.9363779
514.80 0.9359432
514.90 0.9355087
515.00 0.9350746
515.10 0.9346407
515.20 0.9342071
515.30 0.9337737
515.40 0.9333407
515.50 0.9329078
515.60 0.9324753
515.70 0.932043
515.80 0.931611
515.90 0.9311792
516.00 0.9307477
516.10 0.9303165
516.20 0.9298855
516.30 0.9294548
516.40 0.9290244
516.50 0.9285952
516.60 0.9281717
516.70 0.9277484
516.80 0.9273254
516.90 0.9269026
517.00 0.9264801
517.10 0.9260579
517.20 0.9256359
517.30 0.9252142
517.40 0.9247927
517.50 0.9243715
517.60 0.9239505
517.70 0.9235298
517.80 0.9231094
517.90 0.9226892
518.00 0.9222693
518.10 0.9218496
518.20 0.9214302
518.30 0.921011
518.40 0.9205921
518.50 0.9201734
518.60 0.919755
518.70 0.9193368
518.80 0.918919
518.90 0.9185013
519.00 0.9180839
519.10 0.9176641
519.20 0.9172416
519.30 0.9168194
519.40 0.9163974
519.50 0.9159756
519.60 0.9155541
519.70 0.9151329
519.80 0.9147119
519.90 0.9142912
520.00 0.9138708
520.10 0.9134506
520.20 0.9130306
520.30 0.9126109
520.40 0.9121915
520.50 0.9117723
520.60 0.9113534
520.70 0.9109347
520.80 0.9105163
520.90 0.9100981
521.00 0.9096802
521.10 0.9092626
521.20 0.9088451
521.30 0.908428
521.40 0.9080111
521.50 0.9075945
521.60 0.9071781
521.70 0.9067619
521.80 0.906346
521.90 0.9059304
522.00 0.905515
522.10 0.9050999
522.20 0.904685
522.30 0.9042704
522.40 0.903856
522.50 0.9034419
522.60 0.903028
522.70 0.9026144
522.80 0.902201
522.90 0.9017879
523.00 0.901375
523.10 0.9009624
523.20 0.90055
523.30 0.9001379
523.40 0.899726
523.50 0.8993144
523.60 0.898903
523.70 0.8984919
523.80 0.898081
523.90 0.8976704
524.00 0.89726
524.10 0.8968498
524.20 0.8964399
524.30 0.896029
524.40 0.8956172
524.50 0.8952056
524.60 0.8947944
524.70 0.8943833
524.80 0.8939725
524.90 0.893562
525.00 0.8931517
525.10 0.8927417
525.20 0.8923319
525.30 0.8919223
525.40 0.891513
525.50 0.8911039
525.60 0.8906951
525.70 0.8902866
525.80 0.8898783
525.90 0.8894702
526.00 0.8890624
526.10 0.8886548
526.20 0.8882475
526.30 0.8878404
526.40 0.8874335
526.50 0.8870269
526.60 0.8866206
526.70 0.8862145
526.80 0.8858086
526.90 0.885403
527.00 0.8849976
527.10 0.8845925
527.20 0.8841876
527.30 0.8837829
527.40 0.8833785
527.50 0.8829744
527.60 0.8825705
527.70 0.8821668
527.80 0.8817634
527.90 0.8813602
528.00 0.8809572
528.10 0.8805545
528.20 0.8801521
528.30 0.8797499
528.40 0.8793479
528.50 0.8789461
528.60 0.8785446
528.70 0.8781434
528.80 0.8777424
528.90 0.8773416
529.00 0.8769411
529.10 0.8765408
529.20 0.8761407
529.30 0.8757409
529.40 0.8753413
529.50 0.8749408
529.60 0.8745336
529.70 0.8741266
529.80 0.8737198
529.90 0.8733132
530.00 0.872907
530.10 0.8725009
530.20 0.8720951
530.30 0.8716896
530.40 0.8712843
530.50 0.8708792
530.60 0.8704744
530.70 0.8700698
530.80 0.8696655
530.90 0.8692614
531.00 0.8688575
531.10 0.8684539
531.20 0.8680505
531.30 0.8676474
531.40 0.8672445
531.50 0.8668419
531.60 0.8664395
531.70 0.8660373
531.80 0.8656354
531.90 0.8652337
532.00 0.8648323
532.10 0.8644311
532.20 0.864034
532.30 0.8636391
532.40 0.8632445
532.50 0.86285
532.60 0.8624559
532.70 0.8620619
532.80 0.8616682
532.90 0.8612747
533.00 0.8608815
533.10 0.8604885
533.20 0.8600957
533.30 0.8597032
533.40 0.8593109
533.50 0.8589188
533.60 0.858527
533.70 0.8581354
533.80 0.857744
533.90 0.8573528
534.00 0.8569619
534.10 0.8565713
534.20 0.8561808
534.30 0.8557906
534.40 0.8554006
534.50 0.8550109
534.60 0.8546214
534.70 0.8542321
534.80 0.8538426
534.90 0.8534517
535.00 0.8530609
535.10 0.8526704
535.20 0.8522801
535.30 0.85189
535.40 0.8515002
535.50 0.8511106
535.60 0.8507213
535.70 0.8503321
535.80 0.8499432
535.90 0.8495546
536.00 0.8491661
536.10 0.8487779
536.20 0.84839
536.30 0.8480022
536.40 0.8476147
536.50 0.8472274
536.60 0.8468404
536.70 0.8464535
536.80 0.8460669
536.90 0.8456806
537.00 0.8452944
537.10 0.8449085
537.20 0.8445228
537.30 0.8441374
537.40 0.8437522
537.50 0.8433672
537.60 0.8429824
537.70 0.8425979
537.80 0.8422136
537.90 0.8418295
538.00 0.8414456
538.10 0.841062
538.20 0.8406786
538.30 0.8402954
538.40 0.8399125
538.50 0.8395297
538.60 0.8391472
538.70 0.838765
538.80 0.8383829
538.90 0.8380011
539.00 0.8376195
539.10 0.8372382
539.20 0.836857
539.30 0.8364761
539.40 0.8360954
539.50 0.8357149
539.60 0.8353347
539.70 0.8349547
539.80 0.8345749
539.90 0.8341953
540.00 0.833816
540.10 0.8334368
540.20 0.8330565
540.30 0.8326757
540.40 0.8322951
540.50 0.8319148
540.60 0.8315347
540.70 0.8311548
540.80 0.8307752
540.90 0.8303958
541.00 0.8300166
541.10 0.8296376
541.20 0.8292588
541.30 0.8288803
541.40 0.828502
541.50 0.8281239
541.60 0.8277461
541.70 0.8273684
541.80 0.826991
541.90 0.8266138
542.00 0.8262368
542.10 0.8258601
542.20 0.8254836
542.30 0.8251073
542.40 0.8247312
542.50 0.8243553
542.60 0.8239797
542.70 0.8236042
542.80 0.823229
542.90 0.8228541
543.00 0.8224793
543.10 0.8221048
543.20 0.8217304
543.30 0.8213563
543.40 0.8209824
543.50 0.8206088
543.60 0.8202353
543.70 0.8198621
543.80 0.8194891
543.90 0.8191163
544.00 0.8187438
544.10 0.8183714
544.20 0.8179993
544.30 0.8176274
544.40 0.8172557
544.50 0.8168842
544.60 0.8165129
544.70 0.8161419
544.80 0.8157711
544.90 0.8154005
545.00 0.8150301
545.10 0.8146599
545.20 0.81429
545.30 0.8139202
545.40 0.8135507
545.50 0.8131814
545.60 0.812809
545.70 0.8124355
545.80 0.8120621
545.90 0.811689
546.00 0.8113161
546.10 0.8109434
546.20 0.8105709
546.30 0.8101987
546.40 0.8098266
546.50 0.8094548
546.60 0.8090832
546.70 0.8087118
546.80 0.8083407
546.90 0.8079697
547.00 0.807599
547.10 0.8072285
547.20 0.8068582
547.30 0.8064881
547.40 0.8061183
547.50 0.8057486
547.60 0.8053792
547.70 0.80501
547.80 0.804641
547.90 0.8042722
548.00 0.8039036
548.10 0.8035353
548.20 0.8031672
548.30 0.8027992
548.40 0.8024315
548.50 0.802064
548.60 0.8016967
548.70 0.8013296
548.80 0.8009627
548.90 0.8005961
549.00 0.8002296
549.10 0.7998634
549.20 0.7994974
549.30 0.7991316
549.40 0.798766
549.50 0.7984006
549.60 0.7980354
549.70 0.7976705
549.80 0.7973057
549.90 0.7969412
550.00 0.7965769
550.10 0.7962128
550.20 0.7958489
550.30 0.7954852
550.40 0.7951218
550.50 0.7947585
550.60 0.7943955
550.70 0.7940326
550.80 0.79367
550.90 0.7933076
551.00 0.7929463
551.10 0.7925903
551.20 0.7922345
551.30 0.791879
551.40 0.7915236
551.50 0.7911684
551.60 0.7908135
551.70 0.7904587
551.80 0.7901042
551.90 0.7897499
552.00 0.7893957
552.10 0.7890418
552.20 0.7886881
552.30 0.7883345
552.40 0.7879812
552.50 0.7876281
552.60 0.7872752
552.70 0.7869225
552.80 0.78657
552.90 0.7862177
553.00 0.7858656
553.10 0.7855137
553.20 0.785162
553.30 0.7848105
553.40 0.7844593
553.50 0.7841082
553.60 0.7837573
553.70 0.7834066
553.80 0.7830499
553.90 0.7826892
554.00 0.7823288
554.10 0.7819685
554.20 0.7816085
554.30 0.7812487
554.40 0.7808891
554.50 0.7805297
554.60 0.7801705
554.70 0.7798115
554.80 0.7794527
554.90 0.7790941
555.00 0.7787357
555.10 0.7783776
555.20 0.7780196
555.30 0.7776619
555.40 0.7773044
555.50 0.776947
555.60 0.7765899
555.70 0.776233
555.80 0.7758763
555.90 0.7755198
556.00 0.7751635
556.10 0.7748074
556.20 0.7744515
556.30 0.7740958
556.40 0.7737403
556.50 0.7733852
556.60 0.7730335
556.70 0.7726819
556.80 0.7723306
556.90 0.7719794
557.00 0.7716285
557.10 0.7712777
557.20 0.7709272
557.30 0.7705769
557.40 0.7702267
557.50 0.7698768
557.60 0.7695271
557.70 0.7691775
557.80 0.7688282
557.90 0.7684791
558.00 0.7681302
558.10 0.7677814
558.20 0.7674329
558.30 0.7670846
558.40 0.7667364
558.50 0.7663885
558.60 0.7660408
558.70 0.7656933
558.80 0.7653459
558.90 0.7649988
559.00 0.7646519
559.10 0.7643052
559.20 0.7639586
559.30 0.7636123
559.40 0.7632662
559.50 0.7629202
559.60 0.7625745
559.70 0.762229
559.80 0.7618836
559.90 0.7615385
560.00 0.7611936
560.10 0.7608488
560.20 0.7605043
560.30 0.7601599
560.40 0.7598158
560.50 0.7594718
560.60 0.7591281
560.70 0.7587845
560.80 0.7584411
560.90 0.758098
561.00 0.757755
561.10 0.7574122
561.20 0.7570696
561.30 0.7567273
561.40 0.7563851
561.50 0.7560431
561.60 0.7557013
561.70 0.7553597
561.80 0.7550183
561.90 0.7546771
562.00 0.7543361
562.10 0.7539945
562.20 0.7536522
562.30 0.75331
562.40 0.7529681
562.50 0.7526263
562.60 0.7522847
562.70 0.7519433
562.80 0.7516021
562.90 0.7512611
563.00 0.7509203
563.10 0.7505797
563.20 0.7502393
563.30 0.7498991
563.40 0.7495591
563.50 0.7492193
563.60 0.7488796
563.70 0.7485402
563.80 0.7482009
563.90 0.7478619
564.00 0.747523
564.10 0.7471844
564.20 0.7468459
564.30 0.7465076
564.40 0.7461695
564.50 0.7458316
564.60 0.7454939
564.70 0.7451564
564.80 0.7448191
564.90 0.744482
565.00 0.744145
565.10 0.7438083
565.20 0.7434717
565.30 0.7431353
565.40 0.7427991
565.50 0.7424631
565.60 0.7421273
565.70 0.7417917
565.80 0.7414562
565.90 0.741121
566.00 0.740786
566.10 0.7404511
566.20 0.7401164
566.30 0.739782
566.40 0.7394477
566.50 0.7391136
566.60 0.7387797
566.70 0.738446
566.80 0.7381124
566.90 0.7377791
567.00 0.737446
567.10 0.737113
567.20 0.7367802
567.30 0.7364477
567.40 0.7361153
567.50 0.7357831
567.60 0.735451
567.70 0.7351184
567.80 0.7347827
567.90 0.7344472
568.00 0.7341119
568.10 0.7337768
568.20 0.7334418
568.30 0.7331071
568.40 0.7327725
568.50 0.7324381
568.60 0.7321039
568.70 0.7317699
568.80 0.7314361
568.90 0.7311025
569.00 0.7307691
569.10 0.7304358
569.20 0.7301028
569.30 0.7297699
569.40 0.7294373
569.50 0.7291048
569.60 0.7287725
569.70 0.7284404
569.80 0.7281085
569.90 0.7277767
570.00 0.7274452
570.10 0.7271138
570.20 0.7267827
570.30 0.7264517
570.40 0.7261209
570.50 0.7257903
570.60 0.7254599
570.70 0.7251297
570.80 0.7247996
570.90 0.7244698
571.00 0.7241401
571.10 0.7238106
571.20 0.7234813
571.30 0.7231522
571.40 0.7228233
571.50 0.7224945
571.60 0.722166
571.70 0.7218376
571.80 0.7215094
571.90 0.7211814
572.00 0.7208536
572.10 0.720526
572.20 0.7201986
572.30 0.7198713
572.40 0.7195442
572.50 0.7192174
572.60 0.7188907
572.70 0.7185641
572.80 0.7182378
572.90 0.7179117
573.00 0.7175857
573.10 0.7172599
573.20 0.7169343
573.30 0.7166089
573.40 0.7162806
573.50 0.7159482
573.60 0.715616
573.70 0.7152841
573.80 0.7149523
573.90 0.7146207
574.00 0.7142892
574.10 0.713958
574.20 0.7136269
574.30 0.7132961
574.40 0.7129654
574.50 0.7126349
574.60 0.7123046
574.70 0.7119745
574.80 0.7116446
574.90 0.7113148
575.00 0.7109853
575.10 0.7106559
575.20 0.7103267
575.30 0.7099977
575.40 0.7096689
575.50 0.7093403
575.60 0.7090119
575.70 0.7086836
575.80 0.7083556
575.90 0.7080277
576.00 0.7077
576.10 0.7073725
576.20 0.7070451
576.30 0.706718
576.40 0.706391
576.50 0.7060643
576.60 0.7057377
576.70 0.7054113
576.80 0.705085
576.90 0.704759
577.00 0.7044331
577.10 0.7041075
577.20 0.703782
577.30 0.7034567
577.40 0.7031315
577.50 0.7028066
577.60 0.7024801
577.70 0.7021508
577.80 0.7018218
577.90 0.7014929
578.00 0.7011642
578.10 0.7008357
578.20 0.7005073
578.30 0.7001792
578.40 0.6998512
578.50 0.6995235
578.60 0.6991959
578.70 0.6988685
578.80 0.6985413
578.90 0.6982142
579.00 0.6978874
579.10 0.6975587
579.20 0.69721
579.30 0.6968615
579.40 0.6965132
579.50 0.696165
579.60 0.6958171
579.70 0.6954694
579.80 0.6951219
579.90 0.6947745
580.00 0.6944274
580.10 0.6940742
580.20 0.693711
580.30 0.693348
580.40 0.6929853
580.50 0.6926227
580.60 0.6922604
580.70 0.6918982
580.80 0.6915363
580.90 0.6911746
581.00 0.690813
581.10 0.6904517
581.20 0.6900906
581.30 0.6897297
581.40 0.689369
581.50 0.6890086
581.60 0.6886483
581.70 0.6882882
581.80 0.6879284
581.90 0.6875687
582.00 0.6872093
582.10 0.6868246
582.20 0.6863986
582.30 0.6859729
582.40 0.6855474
582.50 0.6851222
582.60 0.6846972
582.70 0.6842725
582.80 0.683848
582.90 0.6834238
583.00 0.6829999
583.10 0.6825761
583.20 0.6821527
583.30 0.6817295
583.40 0.6813065
583.50 0.6808838
583.60 0.6804033
583.70 0.6798283
583.80 0.6792537
583.90 0.6786795
584.00 0.6781056
584.10 0.6775321
584.20 0.6769589
584.30 0.6763861
584.40 0.6758136
584.50 0.6752415
584.60 0.6746697
584.70 0.6740983
584.80 0.6735273
584.90 0.672927
585.00 0.6721928
585.10 0.671459
585.20 0.6706149
585.30 0.6695909
585.40 0.6685675
585.50 0.6675447
585.60 0.6665227
585.70 0.6655012
585.80 0.6644805
585.90 0.6634604
586.00 0.6624409
586.10 0.6614221
586.20 0.6602275
586.30 0.6587459
586.40 0.6572651
586.50 0.6557854
586.60 0.6543067
586.70 0.6528289
586.80 0.6513197
586.90 0.6497589
587.00 0.6481991
587.10 0.6466403
587.20 0.6451067
587.30 0.6436136
587.40 0.6422424
587.50 0.6407003
587.60 0.6397604
587.70 0.6409765
587.80 0.6417602
587.90 0.6426221
588.00 0.6435316
588.10 0.6445192
588.20 0.6455062
588.30 0.6464924
588.40 0.6474377
588.50 0.6483168
588.60 0.6491953
588.70 0.6500732
588.80 0.6509504
588.90 0.651827
589.00 0.6525314
589.10 0.6529553
589.20 0.653379
589.30 0.6538023
589.40 0.6542253
589.50 0.6546479
589.60 0.6550703
589.70 0.6554923
589.80 0.655914
589.90 0.6563354
590.00 0.6566303
590.10 0.6567195
590.20 0.6568085
590.30 0.6568974
590.40 0.6569862
590.50 0.657075
590.60 0.6571636
590.70 0.6572521
590.80 0.6572305
590.90 0.6571595
591.00 0.6570884
591.10 0.6570174
591.20 0.6569464
591.30 0.6568754
591.40 0.6568044
591.50 0.6567334
591.60 0.6566209
591.70 0.6564408
591.80 0.6562608
591.90 0.6560808
592.00 0.655901
592.10 0.6557212
592.20 0.6555415
592.30 0.6553619
592.40 0.6551824
592.50 0.655003
592.60 0.6548236
592.70 0.6546444
592.80 0.6544652
592.90 0.6542861
593.00 0.6541071
593.10 0.6539052
593.20 0.653666
593.30 0.653427
593.40 0.653188
593.50 0.6529492
593.60 0.6527106
593.70 0.652472
593.80 0.6522336
593.90 0.6519953
594.00 0.6517571
594.10 0.651519
594.20 0.6512811
594.30 0.6510433
594.40 0.6508056
594.50 0.650568
594.60 0.6503306
594.70 0.6500933
594.80 0.6498561
594.90 0.649619
595.00 0.6493821
595.10 0.6491344
595.20 0.6488691
595.30 0.6486039
595.40 0.6483389
595.50 0.648074
595.60 0.6478092
595.70 0.6475446
595.80 0.6472802
595.90 0.6470159
596.00 0.6467517
596.10 0.6464877
596.20 0.6462238
596.30 0.64596
596.40 0.6456964
596.50 0.6454329
596.60 0.6451696
596.70 0.6449024
596.80 0.6446329
596.90 0.6443636
597.00 0.6440944
597.10 0.6438253
597.20 0.6435564
597.30 0.6432876
597.40 0.643019
597.50 0.6427505
597.60 0.6424809
597.70 0.6422094
597.80 0.6419379
597.90 0.6416667
598.00 0.6413956
598.10 0.6411246
598.20 0.6408537
598.30 0.6405831
598.40 0.6403125
598.50 0.6400421
598.60 0.6397719
598.70 0.6395018
598.80 0.6392318
598.90 0.638962
599.00 0.6386923
599.10 0.6384228
599.20 0.6381534
599.30 0.6378842
599.40 0.6376102
599.50 0.6373364
599.60 0.6370627
599.70 0.6367892
599.80 0.6365159
599.90 0.6362427
600.00 0.6359696
600.10 0.6356967
600.20 0.6354239
600.30 0.6351513
600.40 0.6348788
600.50 0.6346065
600.60 0.6343343
600.70 0.6340622
600.80 0.6337903
600.90 0.6335186
601.00 0.633247
601.10 0.6329755
601.20 0.6327042
601.30 0.632433
601.40 0.6321576
601.50 0.6318823
601.60 0.6316071
601.70 0.6313321
601.80 0.6310573
601.90 0.6307826
602.00 0.630508
602.10 0.6302336
602.20 0.6299594
602.30 0.6296852
602.40 0.6294113
602.50 0.6291375
602.60 0.6288638
602.70 0.628593
602.80 0.6283224
602.90 0.6280461
603.00 0.6277698
603.10 0.6274937
603.20 0.6272178
603.30 0.626942
603.40 0.6266664
603.50 0.6263909
603.60 0.6261155
603.70 0.6258403
603.80 0.6255653
603.90 0.6252904
604.00 0.6250156
604.10 0.624741
604.20 0.6244665
604.30 0.6241922
604.40 0.623918
604.50 0.6236515
604.60 0.6233852
604.70 0.623119
604.80 0.6228529
604.90 0.6225869
605.00 0.6223211
605.10 0.6220555
605.20 0.62179
605.30 0.6215246
605.40 0.6212594
605.50 0.6209743
605.60 0.6206894
605.70 0.6204047
605.80 0.6201201
605.90 0.6198356
606.00 0.6195513
606.10 0.6192871
606.20 0.6190231
606.30 0.6187591
606.40 0.6184954
606.50 0.6182317
606.60 0.6179682
606.70 0.6176452
606.80 0.617382
606.90 0.6171189
607.00 0.6167964
607.10 0.6165336
607.20 0.616271
607.30 0.6160085
607.40 0.6157462
607.50 0.615484
607.60 0.6152219
607.70 0.61496
607.80 0.6146982
607.90 0.6144365
608.00 0.614175
608.10 0.6139137
608.20 0.6136524
608.30 0.6133681
608.40 0.6130839
608.50 0.6127998
608.60 0.6125159
608.70 0.6122459
608.80 0.6119823
608.90 0.6117189
609.00 0.6114556
609.10 0.6111924
609.20 0.6109294
609.30 0.6106623
609.40 0.6103954
609.50 0.6101286
609.60 0.6098619
609.70 0.6095954
609.80 0.6093291
609.90 0.6090629
610.00 0.6087968
610.10 0.6085309
610.20 0.6082651
610.30 0.6079994
610.40 0.6077339
610.50 0.6074685
610.60 0.6072033
610.70 0.6069382
610.80 0.6066733
610.90 0.6064119
611.00 0.6061507
611.10 0.6058896
611.20 0.6056286
611.30 0.6053678
611.40 0.6051071
611.50 0.6048466
611.60 0.6045862
611.70 0.6043259
611.80 0.6040658
611.90 0.6038058
612.00 0.603546
612.10 0.6032863
612.20 0.6030267
612.30 0.6027672
612.40 0.6025001
612.50 0.6022332
612.60 0.6019663
612.70 0.6016997
612.80 0.6014331
612.90 0.6011667
613.00 0.6009005
613.10 0.6006344
613.20 0.6003684
613.30 0.6001026
613.40 0.5998369
613.50 0.5995713
613.60 0.5993059
613.70 0.5990406
613.80 0.5987755
613.90 0.5985105
614.00 0.5982457
614.10 0.597981
614.20 0.5977164
614.30 0.597452
614.40 0.5972017
614.50 0.5969516
614.60 0.5967016
614.70 0.5964517
614.80 0.5961926
614.90 0.5959318
615.00 0.5956711
615.10 0.5954106
615.20 0.5951502
615.30 0.5948899
615.40 0.5946298
615.50 0.5943698
615.60 0.5941099
615.70 0.5938502
615.80 0.5935906
615.90 0.5933312
616.00 0.5930719
616.10 0.5928127
616.20 0.5925537
616.30 0.5922948
616.40 0.592036
616.50 0.5917774
616.60 0.5915189
616.70 0.5912605
616.80 0.5910023
616.90 0.5907426
617.00 0.590483
617.10 0.5902235
617.20 0.5899642
617.30 0.589705
617.40 0.5894459
617.50 0.589187
617.60 0.5889282
617.70 0.5886695
617.80 0.588411
617.90 0.5881526
618.00 0.5878944
618.10 0.5876363
618.20 0.5873783
618.30 0.5871205
618.40 0.5868628
618.50 0.5866052
618.60 0.5863478
618.70 0.5860905
618.80 0.5858334
618.90 0.5855764
619.00 0.5853195
619.10 0.5850627
619.20 0.5848061
619.30 0.5845496
619.40 0.5842933
619.50 0.5840371
619.60 0.583781
619.70 0.5835251
619.80 0.5832693
619.90 0.5830136
620.00 0.5827581
620.10 0.5825027
620.20 0.5822474
620.30 0.5819923
620.40 0.5817373
620.50 0.5814824
620.60 0.5812277
620.70 0.5809731
620.80 0.5807187
620.90 0.5804641
621.00 0.5802093
621.10 0.5799546
621.20 0.5797001
621.30 0.5794457
621.40 0.5791914
621.50 0.5789373
621.60 0.5786833
621.70 0.5784294
621.80 0.5781757
621.90 0.5779221
622.00 0.5776686
622.10 0.5774153
622.20 0.5771621
622.30 0.576909
622.40 0.5766561
622.50 0.5764033
622.60 0.5761506
622.70 0.5758981
622.80 0.5756457
622.90 0.5753934
623.00 0.5751413
623.10 0.5748893
623.20 0.5746374
623.30 0.5743857
623.40 0.5741341
623.50 0.5738826
623.60 0.5736312
623.70 0.57338
623.80 0.5731289
623.90 0.572878
624.00 0.5726272
624.10 0.5723765
624.20 0.5721259
624.30 0.5718755
624.40 0.5716252
624.50 0.571375
624.60 0.571125
624.70 0.5708751
624.80 0.5706253
624.90 0.5703757
625.00 0.5701262
625.10 0.5698768
625.20 0.5696275
625.30 0.5693784
625.40 0.5691294
625.50 0.5688806
625.60 0.5686318
625.70 0.5683832
625.80 0.5681348
625.90 0.5678864
626.00 0.5676382
626.10 0.5673901
626.20 0.5671422
626.30 0.5668943
626.40 0.5666467
626.50 0.5663991
626.60 0.5661517
626.70 0.5659043
626.80 0.5656572
626.90 0.5654101
627.00 0.5651632
627.10 0.5649171
627.20 0.5646728
627.30 0.5644287
627.40 0.5641848
627.50 0.5639409
627.60 0.5636972
627.70 0.5634536
627.80 0.5632101
627.90 0.5629668
628.00 0.5627235
628.10 0.5624804
628.20 0.5622375
628.30 0.5619946
628.40 0.5617519
628.50 0.5615093
628.60 0.5612669
628.70 0.5610245
628.80 0.5607823
628.90 0.5605402
629.00 0.5602983
629.10 0.5600564
629.20 0.5598147
629.30 0.5595731
629.40 0.5593317
629.50 0.5590904
629.60 0.5588491
629.70 0.5586081
629.80 0.5583671
629.90 0.5581263
630.00 0.5578856
630.10 0.557645
630.20 0.5574045
630.30 0.5571642
630.40 0.556924
630.50 0.5566839
630.60 0.556444
630.70 0.5562042
630.80 0.5559645
630.90 0.5557249
631.00 0.5554855
631.10 0.5552462
631.20 0.555007
631.30 0.5547679
631.40 0.5545289
631.50 0.5542901
631.60 0.5540514
631.70 0.5538128
631.80 0.5535744
631.90 0.553336
632.00 0.5530978
632.10 0.5528597
632.20 0.5526218
632.30 0.5523839
632.40 0.5521462
632.50 0.5519086
632.60 0.5516711
632.70 0.5514338
632.80 0.5511966
632.90 0.5509594
633.00 0.5507225
633.10 0.5504856
633.20 0.5502489
633.30 0.5500122
633.40 0.5497741
633.50 0.5495349
633.60 0.5492958
633.70 0.5490568
633.80 0.5488179
633.90 0.5485792
634.00 0.5483406
634.10 0.5481021
634.20 0.5478637
634.30 0.5476255
634.40 0.5473874
634.50 0.5471493
634.60 0.5469115
634.70 0.5466737
634.80 0.5464361
634.90 0.5461986
635.00 0.5459612
635.10 0.5457239
635.20 0.5454868
635.30 0.5452497
635.40 0.5450128
635.50 0.5447761
635.60 0.5445394
635.70 0.5443029
635.80 0.5440665
635.90 0.5438302
636.00 0.543594
636.10 0.543358
636.20 0.543122
636.30 0.5428862
636.40 0.5426506
636.50 0.542415
636.60 0.5421796
636.70 0.5419443
636.80 0.5417091
636.90 0.541474
637.00 0.5412391
637.10 0.5410043
637.20 0.5407696
637.30 0.540535
637.40 0.5403006
637.50 0.5400662
637.60 0.539832
637.70 0.5395979
637.80 0.539364
637.90 0.5391301
638.00 0.5388964
638.10 0.5386628
638.20 0.5384293
638.30 0.5381959
638.40 0.5379627
638.50 0.5377295
638.60 0.5374965
638.70 0.5372636
638.80 0.5370308
638.90 0.5367982
639.00 0.5365657
639.10 0.5363332
639.20 0.536101
639.30 0.5358688
639.40 0.5356367
639.50 0.5354048
639.60 0.535173
639.70 0.5349414
639.80 0.5347105
639.90 0.5344796
640.00 0.5342489
640.10 0.5340184
640.20 0.5337879
640.30 0.5335575
640.40 0.5333273
640.50 0.5330972
640.60 0.5328672
640.70 0.5326373
640.80 0.5324076
640.90 0.5321779
641.00 0.5319484
641.10 0.531719
641.20 0.5314897
641.30 0.5312605
641.40 0.5310315
641.50 0.5308025
641.60 0.5305737
641.70 0.530345
641.80 0.5301164
641.90 0.529888
642.00 0.5296596
642.10 0.5294314
642.20 0.5292032
642.30 0.5289752
642.40 0.5287473
642.50 0.5285196
642.60 0.5282919
642.70 0.5280644
642.80 0.5278369
642.90 0.5276096
643.00 0.5273824
643.10 0.5271553
643.20 0.5269283
643.30 0.5267015
643.40 0.5264747
643.50 0.5262481
643.60 0.5260216
643.70 0.5257952
643.80 0.5255689
643.90 0.5253427
644.00 0.5251166
644.10 0.5248907
644.20 0.5246649
644.30 0.5244392
644.40 0.5242136
644.50 0.5239881
644.60 0.5237627
644.70 0.5235375
644.80 0.5233123
644.90 0.5230873
645.00 0.5228624
645.10 0.5226376
645.20 0.5224129
645.30 0.5221883
645.40 0.5219639
645.50 0.5217395
645.60 0.5215153
645.70 0.5212912
645.80 0.5210672
645.90 0.5208433
646.00 0.5206195
646.10 0.5203952
646.20 0.520169
646.30 0.519943
646.40 0.519717
646.50 0.5194912
646.60 0.5192654
646.70 0.5190398
646.80 0.5188143
646.90 0.518589
647.00 0.5183637
647.10 0.5181386
647.20 0.5179135
647.30 0.5176886
647.40 0.5174638
647.50 0.5172391
647.60 0.5170145
647.70 0.5167901
647.80 0.5165657
647.90 0.5163415
648.00 0.5161174
648.10 0.5158933
648.20 0.5156694
648.30 0.5154457
648.40 0.515222
648.50 0.5149984
648.60 0.514775
648.70 0.5145517
648.80 0.5143285
648.90 0.5141054
649.00 0.5138824
649.10 0.5136595
649.20 0.5134367
649.30 0.5132141
649.40 0.5129947
649.50 0.5127755
649.60 0.5125564
649.70 0.5123375
649.80 0.5121186
649.90 0.5118999
650.00 0.5116812
650.10 0.5114627
650.20 0.5112443
650.30 0.511026
650.40 0.5108078
650.50 0.5105897
650.60 0.5103718
650.70 0.5101539
650.80 0.5099362
650.90 0.5097185
651.00 0.509501
651.10 0.5092836
651.20 0.5090663
651.30 0.5088491
651.40 0.508632
651.50 0.508415
651.60 0.5081981
651.70 0.5079813
651.80 0.5077647
651.90 0.5075481
652.00 0.5073317
652.10 0.5071154
652.20 0.5068992
652.30 0.5066831
652.40 0.5064671
652.50 0.5062512
652.60 0.5060324
652.70 0.5058122
652.80 0.5055921
652.90 0.5053722
653.00 0.5051523
653.10 0.5049326
653.20 0.5047129
653.30 0.5044934
653.40 0.504274
653.50 0.5040547
653.60 0.5038355
653.70 0.5036164
653.80 0.5033974
653.90 0.5031785
654.00 0.5029598
654.10 0.5027411
654.20 0.5025226
654.30 0.5023041
654.40 0.5020858
654.50 0.5018676
654.60 0.5016495
654.70 0.5014315
654.80 0.5012137
654.90 0.5009959
655.00 0.5007782
655.10 0.5005607
655.20 0.5003432
655.30 0.5001259
655.40 0.4999087
655.50 0.4996916
655.60 0.4994746
655.70 0.4992577
655.80 0.4990442
655.90 0.4988307
656.00 0.4986174
656.10 0.4984042
656.20 0.4981911
656.30 0.4979781
656.40 0.4977653
656.50 0.4975525
656.60 0.4973398
656.70 0.4971272
656.80 0.4969148
656.90 0.4967024
657.00 0.4964902
657.10 0.496278
657.20 0.496066
657.30 0.4958541
657.40 0.4956423
657.50 0.4954305
657.60 0.4952189
657.70 0.4950074
657.80 0.4947687
657.90 0.4945496
658.00 0.4943341
658.10 0.4941187
658.20 0.4939035
658.30 0.4936883
658.40 0.4934732
658.50 0.4932583
658.60 0.4930434
658.70 0.4928287
658.80 0.4926141
658.90 0.4923995
659.00 0.4921851
659.10 0.4919679
659.20 0.4917465
659.30 0.4915248
659.40 0.4913032
659.50 0.4910818
659.60 0.4908605
659.70 0.4906393
659.80 0.4904182
659.90 0.4901972
660.00 0.4899763
660.10 0.4897555
660.20 0.4895349
660.30 0.4893143
660.40 0.4891023
660.50 0.488892
660.60 0.4886817
660.70 0.4884716
660.80 0.4882615
660.90 0.4880333
661.00 0.4878052
661.10 0.4875773
661.20 0.4873494
661.30 0.4871217
661.40 0.4868941
661.50 0.4866666
661.60 0.4864392
661.70 0.4862119
661.80 0.4859848
661.90 0.4857601
662.00 0.4855355
662.10 0.485311
662.20 0.4850867
662.30 0.4848624
662.40 0.4846043
662.50 0.4843829
662.60 0.4841617
662.70 0.4839406
662.80 0.4837196
662.90 0.4834737
663.00 0.4832279
663.10 0.4829823
663.20 0.4827867
663.30 0.4825413
663.40 0.4822462
663.50 0.482001
663.60 0.481756
663.70 0.4815181
663.80 0.4812803
663.90 0.4810299
664.00 0.4807773
664.10 0.4805163
664.20 0.4802555
664.30 0.4799948
664.40 0.4797342
664.50 0.4794738
664.60 0.4792135
664.70 0.4789107
664.80 0.4786082
664.90 0.4783057
665.00 0.4780035
665.10 0.4777013
665.20 0.4773994
665.30 0.4770976
665.40 0.476796
665.50 0.4764467
665.60 0.4760892
665.70 0.4757263
665.80 0.475337
665.90 0.4749479
666.00 0.474559
666.10 0.4741703
666.20 0.4737819
666.30 0.4733936
666.40 0.4730056
666.50 0.4725886
666.60 0.4721668
666.70 0.4717452
666.80 0.4713238
666.90 0.4709026
667.00 0.4704817
667.10 0.4700266
667.20 0.4695658
667.30 0.4691956
667.40 0.4688257
667.50 0.4684414
667.60 0.4680547
667.70 0.4676682
667.80 0.4673127
667.90 0.4672035
668.00 0.4671621
668.10 0.4671059
668.20 0.4670645
668.30 0.4670648
668.40 0.4670726
668.50 0.4670803
668.60 0.467088
668.70 0.4671668
668.80 0.4671987
668.90 0.4672306
669.00 0.4672624
669.10 0.4672942
669.20 0.467326
669.30 0.4673037
669.40 0.4672719
669.50 0.4672402
669.60 0.4672084
669.70 0.4671766
669.80 0.4671448
669.90 0.467113
670.00 0.4670812
670.10 0.4670494
670.20 0.4670176
670.30 0.4669458
670.40 0.466867
670.50 0.4667881
670.60 0.4667094
670.70 0.4666306
670.80 0.4665002
670.90 0.4663699
671.00 0.4662397
671.10 0.4661095
671.20 0.4659794
671.30 0.4658493
671.40 0.4657193
671.50 0.4655893
671.60 0.4654594
671.70 0.4653295
671.80 0.4651997
671.90 0.4650458
672.00 0.4648876
672.10 0.4647295
672.20 0.4645715
672.30 0.4644136
672.40 0.4642538
672.50 0.464094
672.60 0.4639343
672.70 0.4637746
672.80 0.463615
672.90 0.4634555
673.00 0.4632961
673.10 0.4631367
673.20 0.4629774
673.30 0.4627557
673.40 0.4625685
673.50 0.4623876
673.60 0.4622068
673.70 0.462026
673.80 0.4618454
673.90 0.4616648
674.00 0.4614843
674.10 0.4613039
674.20 0.4611236
674.30 0.4609433
674.40 0.4607632
674.50 0.4605831
674.60 0.4604032
674.70 0.4602233
674.80 0.4600435
674.90 0.4598638
675.00 0.4596841
675.10 0.4595046
675.20 0.4593251
675.30 0.4591458
675.40 0.4589608
675.50 0.4587748
675.60 0.458589
675.70 0.4584032
675.80 0.4582176
675.90 0.458032
676.00 0.4578465
676.10 0.4576611
676.20 0.4574758
676.30 0.4572906
676.40 0.4571055
676.50 0.4569204
676.60 0.4567355
676.70 0.4565506
676.80 0.4563659
676.90 0.4561812
677.00 0.4559966
677.10 0.4558121
677.20 0.4556277
677.30 0.4554434
677.40 0.4552591
677.50 0.455075
677.60 0.4548909
677.70 0.454707
677.80 0.4545231
677.90 0.4543348
678.00 0.4541457
678.10 0.4539567
678.20 0.4537678
678.30 0.4535791
678.40 0.4533904
678.50 0.4532018
678.60 0.4530132
678.70 0.4528248
678.80 0.4526365
678.90 0.4524483
679.00 0.4522601
679.10 0.4520722
679.20 0.4518844
679.30 0.4516967
679.40 0.4515091
679.50 0.4513215
679.60 0.4511341
679.70 0.4509468
679.80 0.4507595
679.90 0.4505723
680.00 0.4503853
680.10 0.4501983
680.20 0.4500114
680.30 0.4498246
680.40 0.4496379
680.50 0.4494513
680.60 0.4492647
680.70 0.4490783
680.80 0.448892
680.90 0.4487057
681.00 0.4485195
681.10 0.4483334
681.20 0.4481475
681.30 0.4479616
681.40 0.4477758
681.50 0.44759
681.60 0.4474044
681.70 0.4472189
681.80 0.4470334
681.90 0.4468481
682.00 0.4466628
682.10 0.4464776
682.20 0.4462925
682.30 0.4461075
682.40 0.4459226
682.50 0.4457378
682.60 0.445553
682.70 0.4453684
682.80 0.4451838
682.90 0.4449994
683.00 0.444815
683.10 0.4446307
683.20 0.4444465
683.30 0.4442624
683.40 0.4440784
683.50 0.4438944
683.60 0.4437106
683.70 0.4435268
683.80 0.4433432
683.90 0.4431596
684.00 0.4429761
684.10 0.4427927
684.20 0.4426094
684.30 0.4424261
684.40 0.442243
684.50 0.4420599
684.60 0.441877
684.70 0.4416941
684.80 0.4415113
684.90 0.4413286
685.00 0.441146
685.10 0.4409635
685.20 0.440781
685.30 0.4405987
685.40 0.4404164
685.50 0.4402343
685.60 0.4400522
685.70 0.4398702
685.80 0.4396883
685.90 0.4395047
686.00 0.4393208
686.10 0.439137
686.20 0.4389532
686.30 0.4387696
686.40 0.438586
686.50 0.4384025
686.60 0.4382191
686.70 0.4380358
686.80 0.4378526
686.90 0.4376695
687.00 0.4374865
687.10 0.4373035
687.20 0.4371207
687.30 0.4369379
687.40 0.4367552
687.50 0.4365726
687.60 0.4363901
687.70 0.4362077
687.80 0.4360254
687.90 0.4358431
688.00 0.435661
688.10 0.4354789
688.20 0.4352969
688.30 0.435115
688.40 0.4349332
688.50 0.4347515
688.60 0.4345698
688.70 0.4343883
688.80 0.4342068
688.90 0.4340255
689.00 0.4338442
689.10 0.433663
689.20 0.4334819
689.30 0.4333009
689.40 0.4331199
689.50 0.4329391
689.60 0.4327583
689.70 0.4325776
689.80 0.432397
689.90 0.4322165
690.00 0.4320361
690.10 0.4318558
690.20 0.4316755
690.30 0.4314954
690.40 0.4313153
690.50 0.4311353
690.60 0.4309554
690.70 0.4307756
690.80 0.4305959
690.90 0.4304162
691.00 0.4302367
691.10 0.4300572
691.20 0.4298778
691.30 0.4296985
691.40 0.4295193
691.50 0.4293402
691.60 0.4291611
691.70 0.4289822
691.80 0.4288033
691.90 0.4286245
692.00 0.4284458
692.10 0.4282672
692.20 0.4280887
692.30 0.4279103
692.40 0.4277319
692.50 0.4275536
692.60 0.4273754
692.70 0.4271973
692.80 0.4270192
692.90 0.4268411
693.00 0.4266632
693.10 0.4264853
693.20 0.4263075
693.30 0.4261298
693.40 0.4259522
693.50 0.4257747
693.60 0.4255972
693.70 0.4254199
693.80 0.4252426
693.90 0.4250654
694.00 0.4248883
694.10 0.4247112
694.20 0.4245343
694.30 0.4243574
694.40 0.4241807
694.50 0.424004
694.60 0.4238274
694.70 0.4236509
694.80 0.4234744
694.90 0.4232981
695.00 0.4231218
695.10 0.4229456
695.20 0.4227695
695.30 0.4225935
695.40 0.4224176
695.50 0.4222417
695.60 0.4220659
695.70 0.4218903
695.80 0.4217147
695.90 0.4215391
696.00 0.4213637
696.10 0.4211884
696.20 0.4210131
696.30 0.4208379
696.40 0.4206628
696.50 0.4204878
696.60 0.4203128
696.70 0.4201378
696.80 0.419963
696.90 0.4197882
697.00 0.4196135
697.10 0.4194389
697.20 0.4192644
697.30 0.4190899
697.40 0.4189156
697.50 0.4187413
697.60 0.4185671
697.70 0.418393
697.80 0.4182189
697.90 0.418045
698.00 0.4178711
698.10 0.4176973
698.20 0.4175236
698.30 0.41735
698.40 0.4171765
698.50 0.417003
698.60 0.4168297
698.70 0.4166564
698.80 0.4164832
698.90 0.41631
699.00 0.416137
699.10 0.415958
699.20 0.4157777
699.30 0.4155975
699.40 0.4154174
699.50 0.4152373
699.60 0.4150574
699.70 0.4148814
699.80 0.4147058
699.90 0.4145302
700.00 0.4143547
700.10 0.4141793
700.20 0.414004
700.30 0.4138288
700.40 0.4136536
700.50 0.4134786
700.60 0.4133036
700.70 0.4131287
700.80 0.4129539
700.90 0.4127791
701.00 0.4126045
701.10 0.4124277
701.20 0.4122505
701.30 0.4120734
701.40 0.4118964
701.50 0.4117195
701.60 0.4115427
701.70 0.4113659
701.80 0.4111892
701.90 0.4110126
702.00 0.4108361
702.10 0.4106597
702.20 0.4104833
702.30 0.4103071
702.40 0.4101309
702.50 0.4099548
702.60 0.4097638
702.70 0.4095694
702.80 0.409375
702.90 0.4091807
703.00 0.4089866
703.10 0.4087925
703.20 0.4085985
703.30 0.4084046
703.40 0.4082108
703.50 0.4080171
703.60 0.4078235
703.70 0.40763
703.80 0.4074366
703.90 0.4072433
704.00 0.4070501
704.10 0.4068569
704.20 0.4066406
704.30 0.4064188
704.40 0.4061972
704.50 0.4059757
704.60 0.4057543
704.70 0.405533
704.80 0.4053119
704.90 0.4050908
705.00 0.4048698
705.10 0.404649
705.20 0.4044187
705.30 0.4041863
705.40 0.403954
705.50 0.4037219
705.60 0.4034898
705.70 0.4032579
705.80 0.403032
705.90 0.4028076
706.00 0.4025834
706.10 0.4023592
706.20 0.402153
706.30 0.4019511
706.40 0.4017326
706.50 0.4015078
706.60 0.4014172
706.70 0.4013036
706.80 0.4011545
706.90 0.400997
707.00 0.400893
707.10 0.4008016
707.20 0.4007102
707.30 0.4006189
707.40 0.4005098
707.50 0.4003966
707.60 0.4002834
707.70 0.4001703
707.80 0.4000572
707.90 0.3999442
708.00 0.3998313
708.10 0.3997183
708.20 0.3996055
708.30 0.3994926
708.40 0.3993799
708.50 0.3992671
708.60 0.3991544
708.70 0.3990418
708.80 0.3989292
708.90 0.3988167
709.00 0.3986821
709.10 0.3985423
709.20 0.3984026
709.30 0.398263
709.40 0.3981235
709.50 0.397984
709.60 0.3978446
709.70 0.3977052
709.80 0.3975659
709.90 0.3974267
710.00 0.3972875
710.10 0.3971484
710.20 0.3970094
710.30 0.3968704
710.40 0.3967315
710.50 0.3965926
710.60 0.3964429
710.70 0.3962908
710.80 0.3961387
710.90 0.3959867
711.00 0.3958348
711.10 0.3956829
711.20 0.3955312
711.30 0.3953794
711.40 0.3952278
711.50 0.3950762
711.60 0.3949247
711.70 0.3947733
711.80 0.3946219
711.90 0.3944706
712.00 0.3943194
712.10 0.3941669
712.20 0.3940142
712.30 0.3938615
712.40 0.3937089
712.50 0.3935564
712.60 0.393404
712.70 0.3932516
712.80 0.3930993
712.90 0.3929471
713.00 0.3927949
713.10 0.3926428
713.20 0.3924908
713.30 0.3923389
713.40 0.392187
713.50 0.3920352
713.60 0.3918835
713.70 0.3917294
713.80 0.3915707
713.90 0.391412
714.00 0.3912535
714.10 0.3910955
714.20 0.3909378
714.30 0.3907801
714.40 0.3906225
714.50 0.390465
714.60 0.3903076
714.70 0.3901502
714.80 0.3899929
714.90 0.3898357
715.00 0.3896785
715.10 0.3895215
715.20 0.3893645
715.30 0.3892075
715.40 0.3890507
715.50 0.3888939
715.60 0.3887372
715.70 0.3885805
715.80 0.3884239
715.90 0.3882674
716.00 0.388111
716.10 0.3879547
716.20 0.3877984
716.30 0.3876422
716.40 0.387486
716.50 0.38733
716.60 0.3871742
716.70 0.3870185
716.80 0.3868629
716.90 0.3867074
717.00 0.386552
717.10 0.3863966
717.20 0.3862413
717.30 0.3860861
717.40 0.3859309
717.50 0.3857758
717.60 0.3856208
717.70 0.3854659
717.80 0.385311
717.90 0.3851562
718.00 0.3850015
718.10 0.3848468
718.20 0.3846898
718.30 0.3845317
718.40 0.3843736
718.50 0.3842155
718.60 0.3840576
718.70 0.3838997
718.80 0.3837419
718.90 0.3835841
719.00 0.3834264
719.10 0.3832688
719.20 0.3831113
719.30 0.3829539
719.40 0.3827965
719.50 0.3826392
719.60 0.3824819
719.70 0.3823248
719.80 0.3821677
719.90 0.3820107
720.00 0.3818537
720.10 0.3816969
720.20 0.3815401
720.30 0.3813833
720.40 0.3812267
720.50 0.3810701
720.60 0.3809136
720.70 0.3807576
720.80 0.3806019
720.90 0.3804456
721.00 0.3802893
721.10 0.3801331
721.20 0.379977
721.30 0.3798209
721.40 0.3796649
721.50 0.379509
721.60 0.3793531
721.70 0.3791973
721.80 0.3790416
721.90 0.378886
722.00 0.3787304
722.10 0.3785749
722.20 0.3784195
722.30 0.3782642
722.40 0.3781089
722.50 0.3779537
722.60 0.3777985
722.70 0.3776435
722.80 0.3774886
722.90 0.3773337
723.00 0.3771789
723.10 0.3770242
723.20 0.3768696
723.30 0.376715
723.40 0.3765605
723.50 0.376406
723.60 0.3762517
723.70 0.3760974
723.80 0.3759432
723.90 0.375789
724.00 0.3756349
724.10 0.3754809
724.20 0.3753256
724.30 0.3751697
724.40 0.3750138
724.50 0.374858
724.60 0.3747022
724.70 0.3745466
724.80 0.374391
724.90 0.3742354
725.00 0.37408
725.10 0.3739246
725.20 0.3737693
725.30 0.373614
725.40 0.3734589
725.50 0.3733038
725.60 0.3731487
725.70 0.3729938
725.80 0.3728402
725.90 0.3726875
726.00 0.3725348
726.10 0.3723823
726.20 0.3722297
726.30 0.3720773
726.40 0.3719249
726.50 0.3717726
726.60 0.3716203
726.70 0.3714682
726.80 0.3713125
726.90 0.3711549
727.00 0.3709974
727.10 0.37084
727.20 0.3706826
727.30 0.3705253
727.40 0.3703636
727.50 0.3701996
727.60 0.3700356
727.70 0.3698717
727.80 0.3697213
727.90 0.3695783
728.00 0.3693794
728.10 0.3692728
728.20 0.3690937
728.30 0.368982
728.40 0.3687813
728.50 0.3686387
728.60 0.3684962
728.70 0.3683537
728.80 0.3682113
728.90 0.3680689
729.00 0.3679266
729.10 0.3677844
729.20 0.3676422
729.30 0.3675001
729.40 0.367358
729.50 0.3672161
729.60 0.3670795
729.70 0.3669459
729.80 0.3668124
729.90 0.3666789
730.00 0.3665455
730.10 0.3664121
730.20 0.3662788
730.30 0.3661456
730.40 0.3660124
730.50 0.3658793
730.60 0.3657375
730.70 0.3655911
730.80 0.3654448
730.90 0.3652986
731.00 0.3651524
731.10 0.3650063
731.20 0.3648603
731.30 0.3647143
731.40 0.3645684
731.50 0.3644225
731.60 0.3642768
731.70 0.364131
731.80 0.3639854
731.90 0.3638398
732.00 0.3636943
732.10 0.3635489
732.20 0.363405
732.30 0.3632621
732.40 0.3631192
732.50 0.3629764
732.60 0.3628337
732.70 0.362691
732.80 0.3625484
732.90 0.3624059
733.00 0.3622634
733.10 0.362121
733.20 0.3619787
733.30 0.3618364
733.40 0.3616942
733.50 0.361552
733.60 0.3614099
733.70 0.3612642
733.80 0.3611165
733.90 0.3609689
734.00 0.3608213
734.10 0.3606738
734.20 0.3605264
734.30 0.3603791
734.40 0.3602318
734.50 0.3600846
734.60 0.3599374
734.70 0.3597903
734.80 0.3596433
734.90 0.3594964
735.00 0.3593495
735.10 0.3592027
735.20 0.3590559
735.30 0.3589094
735.40 0.3587644
735.50 0.3586195
735.60 0.3584747
735.70 0.3583311
735.80 0.3581883
735.90 0.3580455
736.00 0.3579029
736.10 0.3577602
736.20 0.3576177
736.30 0.3574751
736.40 0.3573327
736.50 0.3571903
736.60 0.357048
736.70 0.3569058
736.80 0.3567636
736.90 0.3566215
737.00 0.3564794
737.10 0.3563374
737.20 0.3561955
737.30 0.3560536
737.40 0.3559118
737.50 0.3557701
737.60 0.3556284
737.70 0.3554868
737.80 0.3553453
737.90 0.3552038
738.00 0.3550624
738.10 0.354921
738.20 0.3547789
738.30 0.3546363
738.40 0.3544938
738.50 0.3543514
738.60 0.3542091
738.70 0.3540668
738.80 0.3539245
738.90 0.3537824
739.00 0.3536403
739.10 0.3534982
739.20 0.3533562
739.30 0.3532143
739.40 0.3530725
739.50 0.3529307
739.60 0.352789
739.70 0.3526473
739.80 0.3525057
739.90 0.3523642
740.00 0.3522227
740.10 0.3520813
740.20 0.35194
740.30 0.3517987
740.40 0.3516575
740.50 0.3515163
740.60 0.3513752
740.70 0.3512342
740.80 0.3510932
740.90 0.3509523
741.00 0.3508115
741.10 0.3506707
741.20 0.35053
741.30 0.3503894
741.40 0.3502488
741.50 0.3501083
741.60 0.3499678
741.70 0.3498274
741.80 0.3496871
741.90 0.3495469
742.00 0.3494066
742.10 0.3492665
742.20 0.3491264
742.30 0.3489864
742.40 0.3488465
742.50 0.3487066
742.60 0.3485667
742.70 0.3484311
742.80 0.3482988
742.90 0.3481666
743.00 0.3480345
743.10 0.3479024
743.20 0.3477703
743.30 0.3476384
743.40 0.3475064
743.50 0.3473746
743.60 0.3472428
743.70 0.3471095
743.80 0.3469702
743.90 0.346831
744.00 0.3466919
744.10 0.3465528
744.20 0.3464137
744.30 0.3462748
744.40 0.3461358
744.50 0.345997
744.60 0.3458582
744.70 0.3457195
744.80 0.3455808
744.90 0.3454422
745.00 0.3453037
745.10 0.3451652
745.20 0.3450268
745.30 0.3448884
745.40 0.3447501
745.50 0.3446119
745.60 0.3444737
745.70 0.3443356
745.80 0.3441976
745.90 0.3440596
746.00 0.3439217
746.10 0.3437838
746.20 0.343646
746.30 0.3435083
746.40 0.3433706
746.50 0.343233
746.60 0.3430955
746.70 0.342958
746.80 0.3428205
746.90 0.3426832
747.00 0.3425459
747.10 0.3424086
747.20 0.3422714
747.30 0.3421343
747.40 0.3419973
747.50 0.3418603
747.60 0.3417233
747.70 0.3415864
747.80 0.3414496
747.90 0.3413129
748.00 0.3411762
748.10 0.3410395
748.20 0.340903
748.30 0.3407664
748.40 0.34063
748.50 0.3404936
748.60 0.3403573
748.70 0.340221
748.80 0.3400848
748.90 0.3399486
749.00 0.3398126
749.10 0.3396765
749.20 0.3395406
749.30 0.3394047
749.40 0.3392688
749.50 0.339133
749.60 0.3389973
749.70 0.3388616
749.80 0.338726
749.90 0.3385905
750.00 0.338455
750.10 0.33832
750.20 0.3381861
750.30 0.3380523
750.40 0.3379185
750.50 0.3377848
750.60 0.3376511
750.70 0.3375175
750.80 0.337384
750.90 0.3372505
751.00 0.3371171
751.10 0.3369837
751.20 0.3368504
751.30 0.3367172
751.40 0.336584
751.50 0.3364509
751.60 0.3363178
751.70 0.3361848
751.80 0.3360518
751.90 0.335919
752.00 0.3357861
752.10 0.3356534
752.20 0.3355206
752.30 0.335388
752.40 0.3352554
752.50 0.3351229
752.60 0.3349904
752.70 0.334858
752.80 0.3347256
752.90 0.3345933
753.00 0.3344611
753.10 0.3343289
753.20 0.3341967
753.30 0.3340647
753.40 0.3339327
753.50 0.3338007
753.60 0.3336688
753.70 0.333537
753.80 0.3334052
753.90 0.3332719
754.00 0.3331382
754.10 0.3330045
754.20 0.3328709
754.30 0.3327374
754.40 0.3326039
754.50 0.3324704
754.60 0.3323371
754.70 0.3322038
754.80 0.3320705
754.90 0.3319373
755.00 0.3318042
755.10 0.3316711
755.20 0.3315381
755.30 0.3314052
755.40 0.3312723
755.50 0.3311394
755.60 0.3310067
755.70 0.3308739
755.80 0.3307413
755.90 0.3306087
756.00 0.3304761
756.10 0.3303437
756.20 0.3302112
756.30 0.3300789
756.40 0.3299466
756.50 0.3298143
756.60 0.3296821
756.70 0.32955
756.80 0.3294179
756.90 0.3292859
757.00 0.3291539
757.10 0.329022
757.20 0.3288902
757.30 0.3287584
757.40 0.3286267
757.50 0.328495
757.60 0.3283641
757.70 0.328235
757.80 0.328106
757.90 0.327977
758.00 0.3278481
758.10 0.3277192
758.20 0.3275904
758.30 0.3274617
758.40 0.327333
758.50 0.3272044
758.60 0.3270758
758.70 0.3269473
758.80 0.3268188
758.90 0.3266904
759.00 0.3265621
759.10 0.3264338
759.20 0.3263056
759.30 0.3261774
759.40 0.3260493
759.50 0.3259212
759.60 0.3257932
759.70 0.3256652
759.80 0.3255373
759.90 0.3254095
760.00 0.3252817
760.10 0.325154
760.20 0.3250263
760.30 0.3248987
760.40 0.3247711
760.50 0.3246436
760.60 0.3245162
760.70 0.3243888
760.80 0.3242614
760.90 0.3241341
761.00 0.3240069
761.10 0.3238797
761.20 0.3237526
761.30 0.3236256
761.40 0.3234986
761.50 0.3233716
761.60 0.3232447
761.70 0.3231179
761.80 0.3229911
761.90 0.3228644
762.00 0.3227377
762.10 0.3226111
762.20 0.3224845
762.30 0.322358
762.40 0.3222316
762.50 0.3221052
762.60 0.3219788
762.70 0.3218525
762.80 0.3217263
762.90 0.3216001
763.00 0.321474
763.10 0.321348
763.20 0.3212219
763.30 0.321096
763.40 0.3209701
763.50 0.3208442
763.60 0.3207185
763.70 0.3205927
763.80 0.320467
763.90 0.3203414
764.00 0.3202158
764.10 0.3200903
764.20 0.3199649
764.30 0.3198395
764.40 0.3197141
764.50 0.3195888
764.60 0.3194636
764.70 0.3193384
764.80 0.3192132
764.90 0.3190882
765.00 0.3189631
765.10 0.3188382
765.20 0.318713
765.30 0.3185875
765.40 0.3184622
765.50 0.3183368
765.60 0.3182116
765.70 0.3180864
765.80 0.3179612
765.90 0.3178361
766.00 0.3177111
766.10 0.3175861
766.20 0.3174611
766.30 0.3173363
766.40 0.3172114
766.50 0.3170866
766.60 0.3169619
766.70 0.3168373
766.80 0.3167127
766.90 0.3165881
767.00 0.3164636
767.10 0.3163391
767.20 0.3162147
767.30 0.3160904
767.40 0.3159661
767.50 0.3158419
767.60 0.3157177
767.70 0.3155936
767.80 0.3154695
767.90 0.3153455
768.00 0.3152215
768.10 0.3150976
768.20 0.3149738
768.30 0.31485
768.40 0.3147262
768.50 0.3146025
768.60 0.3144789
768.70 0.3143553
768.80 0.3142318
768.90 0.3141083
769.00 0.3139849
769.10 0.3138615
769.20 0.3137382
769.30 0.3136149
769.40 0.3134917
769.50 0.3133685
769.60 0.3132454
769.70 0.3131224
769.80 0.3129994
769.90 0.3128764
770.00 0.3127536
770.10 0.3126307
770.20 0.3125079
770.30 0.3123852
770.40 0.3122625
770.50 0.3121399
770.60 0.3120173
770.70 0.3118948
770.80 0.3117723
770.90 0.3116499
771.00 0.3115276
771.10 0.3114053
771.20 0.311283
771.30 0.3111608
771.40 0.3110387
771.50 0.3109166
771.60 0.3107945
771.70 0.3106725
771.80 0.3105506
771.90 0.3104287
772.00 0.3103069
772.10 0.3101851
772.20 0.3100634
772.30 0.3099417
772.40 0.3098201
772.50 0.3096985
772.60 0.309577
772.70 0.3094555
772.80 0.3093341
772.90 0.3092132
773.00 0.3090923
773.10 0.3089714
773.20 0.3088506
773.30 0.3087299
773.40 0.3086092
773.50 0.3084886
773.60 0.308368
773.70 0.3082474
773.80 0.308127
773.90 0.3080065
774.00 0.3078861
774.10 0.3077658
774.20 0.3076455
774.30 0.3075253
774.40 0.3074051
774.50 0.307285
774.60 0.307165
774.70 0.3070449
774.80 0.306925
774.90 0.3068051
775.00 0.3066852
775.10 0.3065654
775.20 0.3064456
775.30 0.3063259
775.40 0.3062063
775.50 0.3060867
775.60 0.3059671
775.70 0.3058476
775.80 0.3057282
775.90 0.3056088
776.00 0.3054894
776.10 0.3053701
776.20 0.3052509
776.30 0.3051317
776.40 0.3050126
776.50 0.3048935
776.60 0.3047744
776.70 0.3046555
776.80 0.3045365
776.90 0.3044176
777.00 0.3042988
777.10 0.30418
777.20 0.3040613
777.30 0.3039426
777.40 0.303824
777.50 0.3037054
777.60 0.3035869
777.70 0.3034684
777.80 0.30335
777.90 0.3032316
778.00 0.3031133
778.10 0.302995
778.20 0.3028768
778.30 0.3027586
778.40 0.3026405
778.50 0.3025224
778.60 0.3024044
778.70 0.3022864
778.80 0.3021685
778.90 0.3020506
779.00 0.3019328
779.10 0.3018151
779.20 0.3016973
779.30 0.3015797
779.40 0.3014621
779.50 0.3013445
779.60 0.301227
779.70 0.3011095
779.80 0.3009921
779.90 0.3008747
780.00 0.3007574
780.10 0.3006402
780.20 0.300523
780.30 0.3004058
780.40 0.3002887
780.50 0.3001716
780.60 0.3000552
780.70 0.2999392
780.80 0.2998231
780.90 0.2997071
781.00 0.2995912
781.10 0.2994753
781.20 0.2993595
781.30 0.2992437
781.40 0.2991279
781.50 0.2990122
781.60 0.2988966
781.70 0.298781
781.80 0.2986655
781.90 0.29855
782.00 0.2984345
782.10 0.2983191
782.20 0.2982038
782.30 0.2980885
782.40 0.2979732
782.50 0.297858
782.60 0.2977429
782.70 0.2976278
782.80 0.2975127
782.90 0.2973977
783.00 0.2972828
783.10 0.2971679
783.20 0.297053
783.30 0.2969382
783.40 0.2968235
783.50 0.2967088
783.60 0.2965941
783.70 0.2964795
783.80 0.2963649
783.90 0.2962504
784.00 0.296136
784.10 0.2960215
784.20 0.2959072
784.30 0.2957929
784.40 0.2956786
784.50 0.2955644
784.60 0.2954499
784.70 0.2953348
784.80 0.2952197
784.90 0.2951047
785.00 0.2949898
785.10 0.2948749
785.20 0.29476
785.30 0.2946452
785.40 0.2945304
785.50 0.2944157
785.60 0.294301
785.70 0.2941864
785.80 0.2940719
785.90 0.2939573
786.00 0.2938429
786.10 0.2937285
786.20 0.2936141
786.30 0.2934998
786.40 0.2933855
786.50 0.2932713
786.60 0.2931571
786.70 0.2930429
786.80 0.2929289
786.90 0.2928148
787.00 0.2927009
787.10 0.2925869
787.20 0.292473
787.30 0.2923592
787.40 0.2922454
787.50 0.2921317
787.60 0.292018
787.70 0.2919043
787.80 0.2917907
787.90 0.2916772
788.00 0.2915637
788.10 0.2914502
788.20 0.2913368
788.30 0.2912235
788.40 0.2911114
788.50 0.2909999
788.60 0.2908885
788.70 0.2907771
788.80 0.2906658
788.90 0.2905545
789.00 0.2904432
789.10 0.2903321
789.20 0.2902209
789.30 0.2901098
789.40 0.2899988
789.50 0.2898878
789.60 0.2897768
789.70 0.2896659
789.80 0.2895551
789.90 0.2894443
790.00 0.2893335
790.10 0.2892228
790.20 0.2891121
790.30 0.2890015
790.40 0.2888909
790.50 0.2887804
790.60 0.2886699
790.70 0.2885594
790.80 0.2884491
790.90 0.2883387
791.00 0.2882284
791.10 0.2881182
791.20 0.288008
791.30 0.2878978
791.40 0.2877877
791.50 0.2876776
791.60 0.2875676
791.70 0.2874576
791.80 0.2873477
791.90 0.2872378
792.00 0.287128
792.10 0.2870182
792.20 0.2869085
792.30 0.2867983
792.40 0.2866869
792.50 0.2865755
792.60 0.2864642
792.70 0.2863529
792.80 0.2862416
792.90 0.2861304
793.00 0.2860193
793.10 0.2859082
793.20 0.2857971
793.30 0.2856861
793.40 0.2855752
793.50 0.2854642
793.60 0.2853534
793.70 0.2852425
793.80 0.2851318
793.90 0.285021
794.00 0.2849104
794.10 0.2847997
794.20 0.2846891
794.30 0.2845786
794.40 0.2844681
794.50 0.2843576
794.60 0.2842472
794.70 0.2841369
794.80 0.2840266
794.90 0.2839163
795.00 0.2838061
795.10 0.2836959
795.20 0.2835858
795.30 0.2834757
795.40 0.2833657
795.50 0.2832557
795.60 0.2831458
795.70 0.2830359
795.80 0.282926
795.90 0.2828162
796.00 0.2827065
796.10 0.2825968
796.20 0.2824871
796.30 0.2823786
796.40 0.2822703
796.50 0.282162
796.60 0.2820538
796.70 0.2819456
796.80 0.2818375
796.90 0.2817294
797.00 0.2816214
797.10 0.2815134
797.20 0.2814054
797.30 0.2812975
797.40 0.2811897
797.50 0.2810819
797.60 0.2809741
797.70 0.2808664
797.80 0.2807587
797.90 0.2806511
798.00 0.2805435
798.10 0.2804359
798.20 0.2803284
798.30 0.280221
798.40 0.2801136
798.50 0.2800062
798.60 0.2798989
798.70 0.2797916
798.80 0.2796844
798.90 0.2795772
799.00 0.2794701
799.10 0.279363
799.20 0.279256
799.30 0.279149
799.40 0.279042
799.50 0.2789351
799.60 0.2788282
799.70 0.2787214
799.80 0.2786146
799.90 0.2785079
800.00 0.2784012
800.10 0.2782946
800.20 0.278188
800.30 0.2780814
800.40 0.2779749
800.50 0.2778685
800.60 0.277762
800.70 0.2776557
800.80 0.2775493
800.90 0.277443
801.00 0.2773368
801.10 0.2772306
801.20 0.2771245
801.30 0.2770183
801.40 0.2769123
801.50 0.2768063
801.60 0.2767003
801.70 0.2765943
801.80 0.2764885
801.90 0.2763826
802.00 0.2762768
802.10 0.2761711
802.20 0.2760654
802.30 0.2759597
802.40 0.2758541
802.50 0.2757485
802.60 0.275643
802.70 0.2755375
802.80 0.275432
802.90 0.2753266
803.00 0.2752213
803.10 0.2751159
803.20 0.2750107
803.30 0.2749054
803.40 0.2748003
803.50 0.2746951
803.60 0.27459
803.70 0.274485
803.80 0.27438
803.90 0.274275
804.00 0.2741701
804.10 0.2740652
804.20 0.2739606
804.30 0.2738571
804.40 0.2737535
804.50 0.27365
804.60 0.2735466
804.70 0.2734432
804.80 0.2733398
804.90 0.2732365
805.00 0.2731332
805.10 0.27303
805.20 0.2729268
805.30 0.2728236
805.40 0.2727205
805.50 0.2726175
805.60 0.2725144
805.70 0.2724114
805.80 0.2723085
805.90 0.2722056
806.00 0.2721028
806.10 0.272
806.20 0.2718972
806.30 0.2717945
806.40 0.2716918
806.50 0.2715891
806.60 0.2714866
806.70 0.271384
806.80 0.2712815
806.90 0.271179
807.00 0.2710766
807.10 0.2709742
807.20 0.2708719
807.30 0.2707696
807.40 0.2706673
807.50 0.2705651
807.60 0.2704629
807.70 0.2703608
807.80 0.2702587
807.90 0.2701567
808.00 0.2700547
808.10 0.2699527
808.20 0.2698508
808.30 0.2697472
808.40 0.2696437
808.50 0.2695403
808.60 0.2694368
808.70 0.2693335
808.80 0.2692301
808.90 0.2691268
809.00 0.2690236
809.10 0.2689204
809.20 0.2688172
809.30 0.2687141
809.40 0.268611
809.50 0.268508
809.60 0.268405
809.70 0.2683021
809.80 0.2681991
809.90 0.2680963
810.00 0.2679935
810.10 0.2678907
810.20 0.267788
810.30 0.2676853
810.40 0.2675826
810.50 0.26748
810.60 0.2673774
810.70 0.2672749
810.80 0.2671724
810.90 0.26707
811.00 0.2669676
811.10 0.2668652
811.20 0.2667629
811.30 0.2666607
811.40 0.2665584
811.50 0.2664563
811.60 0.2663541
811.70 0.266252
811.80 0.26615
811.90 0.2660479
812.00 0.265946
812.10 0.265844
812.20 0.2657422
812.30 0.2656414
812.40 0.2655409
812.50 0.2654405
812.60 0.2653401
812.70 0.2652397
812.80 0.2651394
812.90 0.2650392
813.00 0.264939
813.10 0.2648388
813.20 0.2647386
813.30 0.2646385
813.40 0.2645385
813.50 0.2644385
813.60 0.2643385
813.70 0.2642386
813.80 0.2641387
813.90 0.2640388
814.00 0.263939
814.10 0.2638392
814.20 0.2637395
814.30 0.2636398
814.40 0.2635402
814.50 0.2634406
814.60 0.263341
814.70 0.2632415
814.80 0.263142
814.90 0.2630426
815.00 0.2629432
815.10 0.2628438
815.20 0.2627445
815.30 0.2626452
815.40 0.262546
815.50 0.2624468
815.60 0.2623476
815.70 0.2622485
815.80 0.2621495
815.90 0.2620504
816.00 0.2619514
816.10 0.2618525
816.20 0.2617536
816.30 0.2616547
816.40 0.2615559
816.50 0.2614571
816.60 0.2613583
816.70 0.2612596
816.80 0.261161
816.90 0.2610623
817.00 0.2609637
817.10 0.2608652
817.20 0.2607667
817.30 0.2606682
817.40 0.2605698
817.50 0.2604714
817.60 0.2603731
817.70 0.2602748
817.80 0.2601765
817.90 0.2600783
818.00 0.2599801
818.10 0.259882
818.20 0.2597839
818.30 0.2596858
818.40 0.2595878
818.50 0.2594898
818.60 0.2593918
818.70 0.2592939
818.80 0.2591961
818.90 0.2590983
819.00 0.2590005
819.10 0.2589027
819.20 0.258805
819.30 0.2587096
819.40 0.2586157
819.50 0.2585219
819.60 0.2584281
819.70 0.2583343
819.80 0.2582405
819.90 0.2581468
820.00 0.2580532
820.10 0.2579623
820.20 0.2578491
820.30 0.2577297
820.40 0.2576239
820.50 0.2575279
820.60 0.257432
820.70 0.2573361
820.80 0.2572402
820.90 0.2571444
821.00 0.2570486
821.10 0.2569529
821.20 0.2568572
821.30 0.2567615
821.40 0.2566659
821.50 0.2565703
821.60 0.2564747
821.70 0.2563792
821.80 0.2562838
821.90 0.2561883
822.00 0.2560929
822.10 0.2559976
822.20 0.2559023
822.30 0.255807
822.40 0.2557118
822.50 0.2556166
822.60 0.2555214
822.70 0.2554263
822.80 0.2553312
822.90 0.2552361
823.00 0.2551411
823.10 0.2550462
823.20 0.2549512
823.30 0.2548563
823.40 0.2547615
823.50 0.2546667
823.60 0.2545719
823.70 0.2544772
823.80 0.2543825
823.90 0.2542878
824.00 0.2541932
824.10 0.2540986
824.20 0.2540041
824.30 0.2539096
824.40 0.2538151
824.50 0.2537207
824.60 0.2536263
824.70 0.2535319
824.80 0.2534376
824.90 0.2533433
825.00 0.2532491
825.10 0.2531549
825.20 0.2530607
825.30 0.2529666
825.40 0.2528725
825.50 0.2527785
825.60 0.2526845
825.70 0.2525905
825.80 0.2524966
825.90 0.2524027
826.00 0.2523088
826.10 0.252215
826.20 0.2521212
826.30 0.2520253
826.40 0.2519281
826.50 0.2518309
826.60 0.2517337
826.70 0.2516366
826.80 0.2515395
826.90 0.2514425
827.00 0.2513454
827.10 0.2512485
827.20 0.2511515
827.30 0.2510547
827.40 0.2509578
827.50 0.250861
827.60 0.2507642
827.70 0.2506675
827.80 0.2505708
827.90 0.2504741
828.00 0.2503775
828.10 0.250281
828.20 0.2501844
828.30 0.2500879
828.40 0.2499915
828.50 0.249895
828.60 0.2498002
828.70 0.2497067
828.80 0.2496133
828.90 0.2495199
829.00 0.2494265
829.10 0.2493332
829.20 0.2492399
829.30 0.2491467
829.40 0.2490534
829.50 0.2489603
829.60 0.2488671
829.70 0.248774
829.80 0.248681
829.90 0.2485879
830.00 0.2484949
830.10 0.248402
830.20 0.2483091
830.30 0.2482162
830.40 0.2481234
830.50 0.2480306
830.60 0.2479378
830.70 0.2478451
830.80 0.2477524
830.90 0.2476597
831.00 0.2475671
831.10 0.2474745
831.20 0.247382
831.30 0.2472895
831.40 0.247197
831.50 0.2471046
831.60 0.2470122
831.70 0.2469199
831.80 0.2468276
831.90 0.2467353
832.00 0.246643
832.10 0.2465508
832.20 0.2464587
832.30 0.2463665
832.40 0.2462745
832.50 0.2461824
832.60 0.2460904
832.70 0.2459984
832.80 0.2459065
832.90 0.2458146
833.00 0.2457227
833.10 0.2456309
833.20 0.2455391
833.30 0.2454473
833.40 0.2453556
833.50 0.2452639
833.60 0.2451723
833.70 0.2450806
833.80 0.2449891
833.90 0.2448975
834.00 0.244806
834.10 0.2447146
834.20 0.2446231
834.30 0.2445318
834.40 0.2444404
834.50 0.2443491
834.60 0.2442578
834.70 0.2441666
834.80 0.2440754
834.90 0.2439842
835.00 0.2438931
835.10 0.243802
835.20 0.2437109
835.30 0.2436199
835.40 0.2435289
835.50 0.243438
835.60 0.243347
835.70 0.2432562
835.80 0.2431653
835.90 0.2430745
836.00 0.2429838
836.10 0.242893
836.20 0.2428023
836.30 0.2427117
836.40 0.2426211
836.50 0.2425305
836.60 0.2424399
836.70 0.2423494
836.80 0.2422589
836.90 0.2421692
837.00 0.2420799
837.10 0.2419906
837.20 0.2419014
837.30 0.2418121
837.40 0.2417229
837.50 0.2416338
837.60 0.2415447
837.70 0.2414556
837.80 0.2413665
837.90 0.2412775
838.00 0.2411886
838.10 0.2410996
838.20 0.2410107
838.30 0.2409219
838.40 0.240833
838.50 0.2407442
838.60 0.2406555
838.70 0.2405667
838.80 0.2404781
838.90 0.2403894
839.00 0.2403008
839.10 0.2402122
839.20 0.2401237
839.30 0.2400351
839.40 0.2399467
839.50 0.2398582
839.60 0.2397698
839.70 0.2396814
839.80 0.2395931
839.90 0.2395048
840.00 0.2394165
840.10 0.2393283
840.20 0.2392401
840.30 0.239152
840.40 0.2390638
840.50 0.2389757
840.60 0.2388877
840.70 0.2387997
840.80 0.2387117
840.90 0.2386237
841.00 0.2385358
841.10 0.238448
841.20 0.2383601
841.30 0.2382723
841.40 0.2381846
841.50 0.2380968
841.60 0.2380091
841.70 0.2379215
841.80 0.2378338
841.90 0.2377462
842.00 0.2376587
842.10 0.2375712
842.20 0.2374837
842.30 0.2373962
842.40 0.2373088
842.50 0.2372214
842.60 0.2371341
842.70 0.2370468
842.80 0.2369595
842.90 0.2368722
843.00 0.236785
843.10 0.2366979
843.20 0.2366107
843.30 0.2365236
843.40 0.2364366
843.50 0.2363495
843.60 0.2362625
843.70 0.2361756
843.80 0.2360886
843.90 0.2360017
844.00 0.2359149
844.10 0.235828
844.20 0.2357412
844.30 0.2356545
844.40 0.2355678
844.50 0.2354811
844.60 0.2353944
844.70 0.2353078
844.80 0.2352212
844.90 0.2351347
845.00 0.2350481
845.10 0.2349617
845.20 0.2348752
845.30 0.2347884
845.40 0.2347016
845.50 0.2346148
845.60 0.234528
845.70 0.2344413
845.80 0.2343547
845.90 0.234268
846.00 0.2341814
846.10 0.2340949
846.20 0.2340083
846.30 0.2339218
846.40 0.2338354
846.50 0.2337489
846.60 0.2336625
846.70 0.2335762
846.80 0.2334899
846.90 0.2334036
847.00 0.2333173
847.10 0.2332311
847.20 0.2331449
847.30 0.2330587
847.40 0.2329726
847.50 0.2328865
847.60 0.2328005
847.70 0.2327145
847.80 0.2326285
847.90 0.2325425
848.00 0.2324566
848.10 0.2323707
848.20 0.2322849
848.30 0.2321991
848.40 0.2321133
848.50 0.2320275
848.60 0.2319418
848.70 0.2318561
848.80 0.2317705
848.90 0.2316849
849.00 0.2315993
849.10 0.2315138
849.20 0.2314283
849.30 0.2313428
849.40 0.2312573
849.50 0.2311719
849.60 0.2310866
849.70 0.2310012
849.80 0.2309159
849.90 0.2308306
850.00 0.2307454
850.10 0.2306602
850.20 0.230575
850.30 0.2304899
850.40 0.2304048
850.50 0.2303197
850.60 0.2302347
850.70 0.2301497
850.80 0.2300647
850.90 0.2299798
851.00 0.2298949
851.10 0.22981
851.20 0.2297252
851.30 0.2296404
851.40 0.2295556
851.50 0.2294709
851.60 0.2293862
851.70 0.2293015
851.80 0.2292169
851.90 0.2291323
852.00 0.2290477
852.10 0.2289632
852.20 0.2288787
852.30 0.2287942
852.40 0.2287097
852.50 0.2286253
852.60 0.228541
852.70 0.2284566
852.80 0.2283723
852.90 0.2282881
853.00 0.2282038
853.10 0.2281196
853.20 0.2280355
853.30 0.2279513
853.40 0.2278672
853.50 0.2277832
853.60 0.2276991
853.70 0.2276149
853.80 0.2275306
853.90 0.2274462
854.00 0.2273619
854.10 0.2272776
854.20 0.2271934
854.30 0.2271092
854.40 0.227025
854.50 0.2269409
854.60 0.2268568
854.70 0.2267727
854.80 0.2266887
854.90 0.2266046
855.00 0.2265207
855.10 0.2264367
855.20 0.2263528
855.30 0.2262689
855.40 0.2261851
855.50 0.2261013
855.60 0.2260175
855.70 0.2259338
855.80 0.2258501
855.90 0.2257664
856.00 0.2256827
856.10 0.2255991
856.20 0.2255155
856.30 0.225432
856.40 0.2253485
856.50 0.225265
856.60 0.2251816
856.70 0.2250981
856.80 0.2250148
856.90 0.2249314
857.00 0.2248481
857.10 0.2247648
857.20 0.2246816
857.30 0.2245983
857.40 0.2245152
857.50 0.224432
857.60 0.2243489
857.70 0.2242658
857.80 0.2241827
857.90 0.2240997
858.00 0.2240178
858.10 0.2239363
858.20 0.2238548
858.30 0.2237733
858.40 0.2236918
858.50 0.2236104
858.60 0.223529
858.70 0.2234476
858.80 0.2233663
858.90 0.223285
859.00 0.2232037
859.10 0.2231224
859.20 0.2230412
859.30 0.2229601
859.40 0.2228789
859.50 0.2227978
859.60 0.2227167
859.70 0.2226357
859.80 0.2225546
859.90 0.2224737
860.00 0.2223927
860.10 0.2223118
860.20 0.2222309
860.30 0.22215
860.40 0.2220692
860.50 0.2219884
860.60 0.2219076
860.70 0.2218269
860.80 0.2217462
860.90 0.2216655
861.00 0.2215849
861.10 0.2215043
861.20 0.2214237
861.30 0.2213432
861.40 0.2212626
861.50 0.2211822
861.60 0.2211017
861.70 0.2210213
861.80 0.2209409
861.90 0.2208605
862.00 0.2207802
862.10 0.2206999
862.20 0.2206197
862.30 0.2205397
862.40 0.2204598
862.50 0.22038
862.60 0.2203001
862.70 0.2202203
862.80 0.2201405
862.90 0.2200607
863.00 0.219981
863.10 0.2199013
863.20 0.2198217
863.30 0.219742
863.40 0.2196624
863.50 0.2195829
863.60 0.2195033
863.70 0.2194238
863.80 0.2193443
863.90 0.2192649
864.00 0.2191855
864.10 0.2191061
864.20 0.2190267
864.30 0.2189474
864.40 0.2188681
864.50 0.2187889
864.60 0.2187096
864.70 0.2186304
864.80 0.2185513
864.90 0.2184721
865.00 0.218393
865.10 0.218314
865.20 0.2182349
865.30 0.2181559
865.40 0.2180769
865.50 0.217998
865.60 0.217919
865.70 0.2178401
865.80 0.2177613
865.90 0.2176824
866.00 0.2176036
866.10 0.2175249
866.20 0.2174461
866.30 0.2173674
866.40 0.2172888
866.50 0.2172101
866.60 0.2171315
866.70 0.2170529
866.80 0.2169743
866.90 0.2168958
867.00 0.2168173
867.10 0.2167389
867.20 0.2166604
867.30 0.216582
867.40 0.2165037
867.50 0.2164253
867.60 0.216347
867.70 0.2162687
867.80 0.2161905
867.90 0.2161122
868.00 0.2160341
868.10 0.2159559
868.20 0.2158778
868.30 0.2157997
868.40 0.2157216
868.50 0.2156436
868.60 0.2155655
868.70 0.2154876
868.80 0.2154096
868.90 0.2153317
869.00 0.2152538
869.10 0.2151759
869.20 0.2150981
869.30 0.2150203
869.40 0.2149426
869.50 0.2148648
869.60 0.2147871
869.70 0.2147094
869.80 0.2146318
869.90 0.2145542
870.00 0.2144766
870.10 0.214399
870.20 0.2143215
870.30 0.214244
870.40 0.2141665
870.50 0.2140891
870.60 0.2140117
870.70 0.2139343
870.80 0.2138569
870.90 0.2137787
871.00 0.2137003
871.10 0.213622
871.20 0.2135438
871.30 0.2134655
871.40 0.2133873
871.50 0.2133091
871.60 0.2132309
871.70 0.2131528
871.80 0.2130747
871.90 0.2129967
872.00 0.2129186
872.10 0.2128406
872.20 0.2127626
872.30 0.2126847
872.40 0.2126068
872.50 0.2125289
872.60 0.212451
872.70 0.2123732
872.80 0.2122954
872.90 0.2122176
873.00 0.2121399
873.10 0.2120622
873.20 0.2119845
873.30 0.2119069
873.40 0.2118293
873.50 0.2117517
873.60 0.2116741
873.70 0.2115966
873.80 0.2115191
873.90 0.2114416
874.00 0.2113642
874.10 0.2112868
874.20 0.2112094
874.30 0.2111321
874.40 0.2110548
874.50 0.2109775
874.60 0.2109002
874.70 0.210823
874.80 0.2107458
874.90 0.2106686
875.00 0.2105915
875.10 0.2105144
875.20 0.2104378
875.30 0.210362
875.40 0.2102863
875.50 0.2102107
875.60 0.210135
875.70 0.2100594
875.80 0.2099838
875.90 0.2099083
876.00 0.2098327
876.10 0.2097572
876.20 0.2096818
876.30 0.2096063
876.40 0.2095309
876.50 0.2094555
876.60 0.2093802
876.70 0.2093048
876.80 0.2092295
876.90 0.2091543
877.00 0.209079
877.10 0.2090038
877.20 0.2089286
877.30 0.2088535
877.40 0.2087784
877.50 0.2087033
877.60 0.2086282
877.70 0.2085532
877.80 0.2084782
877.90 0.2084032
878.00 0.2083282
878.10 0.2082533
878.20 0.2081784
878.30 0.2081036
878.40 0.2080287
878.50 0.2079539
878.60 0.2078791
878.70 0.2078044
878.80 0.2077297
878.90 0.207655
879.00 0.2075803
879.10 0.2075057
879.20 0.2074311
879.30 0.2073565
879.40 0.2072819
879.50 0.2072074
879.60 0.2071331
879.70 0.207059
879.80 0.2069848
879.90 0.2069107
880.00 0.2068366
880.10 0.2067625
880.20 0.2066884
880.30 0.2066144
880.40 0.2065404
880.50 0.2064665
880.60 0.2063925
880.70 0.2063186
880.80 0.2062447
880.90 0.2061709
881.00 0.2060971
881.10 0.2060233
881.20 0.2059495
881.30 0.2058758
881.40 0.2058021
881.50 0.2057284
881.60 0.2056547
881.70 0.2055811
881.80 0.2055075
881.90 0.2054339
882.00 0.2053604
882.10 0.2052869
882.20 0.2052134
882.30 0.2051399
882.40 0.2050665
882.50 0.2049931
882.60 0.2049197
882.70 0.2048464
882.80 0.2047731
882.90 0.2046998
883.00 0.2046265
883.10 0.2045533
883.20 0.2044801
883.30 0.2044069
883.40 0.2043338
883.50 0.2042606
883.60 0.2041875
883.70 0.2041145
883.80 0.2040414
883.90 0.2039684
884.00 0.2038954
884.10 0.2038225
884.20 0.2037495
884.30 0.2036766
884.40 0.2036038
884.50 0.2035309
884.60 0.2034581
884.70 0.2033853
884.80 0.2033125
884.90 0.2032398
885.00 0.2031671
885.10 0.2030944
885.20 0.2030217
885.30 0.2029491
885.40 0.2028765
885.50 0.2028039
885.60 0.2027314
885.70 0.2026589
885.80 0.2025864
885.90 0.2025139
886.00 0.2024415
886.10 0.2023691
886.20 0.2022967
886.30 0.2022244
886.40 0.202152
886.50 0.2020797
886.60 0.2020075
886.70 0.2019352
886.80 0.201863
886.90 0.2017908
887.00 0.2017187
887.10 0.2016465
887.20 0.2015744
887.30 0.2015023
887.40 0.2014303
887.50 0.2013583
887.60 0.2012863
887.70 0.2012143
887.80 0.2011424
887.90 0.2010704
888.00 0.2009986
888.10 0.2009267
888.20 0.2008549
888.30 0.2007831
888.40 0.200711
888.50 0.2006389
888.60 0.2005668
888.70 0.2004947
888.80 0.2004227
888.90 0.2003507
889.00 0.2002787
889.10 0.2002068
889.20 0.2001349
889.30 0.200063
889.40 0.1999911
889.50 0.1999193
889.60 0.1998475
889.70 0.1997757
889.80 0.1997039
889.90 0.1996322
890.00 0.1995605
890.10 0.1994888
890.20 0.1994172
890.30 0.1993455
890.40 0.199274
890.50 0.1992024
890.60 0.1991309
890.70 0.1990593
890.80 0.1989879
890.90 0.1989164
891.00 0.198845
891.10 0.1987736
891.20 0.1987022
891.30 0.1986308
891.40 0.1985595
891.50 0.1984882
891.60 0.198417
891.70 0.1983457
891.80 0.1982745
891.90 0.1982033
892.00 0.1981322
892.10 0.198061
892.20 0.1979899
892.30 0.1979188
892.40 0.1978478
892.50 0.1977768
892.60 0.1977058
892.70 0.1976348
892.80 0.1975638
892.90 0.1974929
893.00 0.197422
893.10 0.1973512
893.20 0.1972803
893.30 0.1972095
893.40 0.1971387
893.50 0.197068
893.60 0.1969973
893.70 0.1969265
893.80 0.1968559
893.90 0.1967852
894.00 0.1967146
894.10 0.196644
894.20 0.1965734
894.30 0.1965029
894.40 0.1964324
894.50 0.1963619
894.60 0.1962914
894.70 0.196221
894.80 0.1961506
894.90 0.1960802
895.00 0.1960098
895.10 0.1959395
895.20 0.1958692
895.30 0.1957989
895.40 0.1957287
895.50 0.1956584
895.60 0.1955882
895.70 0.1955181
895.80 0.1954479
895.90 0.1953778
896.00 0.1953077
896.10 0.1952376
896.20 0.1951676
896.30 0.1950976
896.40 0.1950276
896.50 0.1949576
896.60 0.1948877
896.70 0.1948178
896.80 0.1947479
896.90 0.1946781
897.00 0.1946082
897.10 0.1945384
897.20 0.1944687
897.30 0.1943998
897.40 0.1943309
897.50 0.1942621
897.60 0.1941933
897.70 0.1941245
897.80 0.1940558
897.90 0.1939871
898.00 0.1939184
898.10 0.1938497
898.20 0.193781
898.30 0.1937124
898.40 0.1936438
898.50 0.1935753
898.60 0.1935067
898.70 0.1934382
898.80 0.1933697
898.90 0.1933012
899.00 0.1932328
899.10 0.1931644
899.20 0.193096
899.30 0.1930276
899.40 0.1929593
899.50 0.192891
899.60 0.1928227
899.70 0.1927544
899.80 0.1926862
899.90 0.192618
900.00 0.1925498
900.10 0.1924816
900.20 0.1924135
900.30 0.1923454
900.40 0.1922773
900.50 0.1922092
900.60 0.1921412
900.70 0.1920732
900.80 0.1920052
900.90 0.1919372
901.00 0.1918693
901.10 0.1918014
901.20 0.1917335
901.30 0.1916657
901.40 0.1915978
901.50 0.19153
901.60 0.1914623
901.70 0.1913945
901.80 0.1913268
901.90 0.1912591
902.00 0.1911914
902.10 0.1911237
902.20 0.1910561
902.30 0.1909885
902.40 0.1909209
902.50 0.1908534
902.60 0.1907859
902.70 0.1907184
902.80 0.1906509
902.90 0.1905834
903.00 0.190516
903.10 0.1904486
903.20 0.1903812
903.30 0.1903139
903.40 0.1902466
903.50 0.1901793
903.60 0.190112
903.70 0.1900447
903.80 0.1899775
903.90 0.1899103
904.00 0.1898431
904.10 0.189776
904.20 0.1897089
904.30 0.1896418
904.40 0.1895747
904.50 0.1895077
904.60 0.1894406
904.70 0.1893736
904.80 0.1893067
904.90 0.1892397
905.00 0.1891728
905.10 0.1891059
905.20 0.189039
905.30 0.1889722
905.40 0.1889053
905.50 0.1888385
905.60 0.1887718
905.70 0.188705
905.80 0.1886383
905.90 0.1885716
906.00 0.1885049
906.10 0.1884383
906.20 0.1883717
906.30 0.1883054
906.40 0.1882391
906.50 0.1881728
906.60 0.1881065
906.70 0.1880402
906.80 0.187974
906.90 0.1879078
907.00 0.1878416
907.10 0.1877755
907.20 0.1877093
907.30 0.1876432
907.40 0.1875771
907.50 0.1875111
907.60 0.1874451
907.70 0.1873791
907.80 0.1873131
907.90 0.1872471
908.00 0.1871812
908.10 0.1871153
908.20 0.1870494
908.30 0.1869835
908.40 0.1869177
908.50 0.1868519
908.60 0.1867861
908.70 0.1867203
908.80 0.1866546
908.90 0.1865889
909.00 0.1865232
909.10 0.1864575
909.20 0.1863919
909.30 0.1863263
909.40 0.1862607
909.50 0.1861951
909.60 0.1861296
909.70 0.1860641
909.80 0.1859986
909.90 0.1859331
910.00 0.1858676
910.10 0.1858022
910.20 0.1857368
910.30 0.1856715
910.40 0.1856061
910.50 0.1855408
910.60 0.1854755
910.70 0.1854102
910.80 0.185345
910.90 0.1852797
911.00 0.1852145
911.10 0.1851494
911.20 0.1850842
911.30 0.1850191
911.40 0.184954
911.50 0.1848889
911.60 0.1848238
911.70 0.1847588
911.80 0.1846938
911.90 0.1846288
912.00 0.1845638
912.10 0.1844989
912.20 0.184434
912.30 0.1843691
912.40 0.1843042
912.50 0.1842394
912.60 0.1841746
912.70 0.1841098
912.80 0.184045
912.90 0.1839803
913.00 0.1839155
913.10 0.1838508
913.20 0.1837862
913.30 0.1837215
913.40 0.1836569
913.50 0.1835923
913.60 0.1835277
913.70 0.1834631
913.80 0.1833986
913.90 0.1833341
914.00 0.1832696
914.10 0.1832052
914.20 0.1831407
914.30 0.1830763
914.40 0.1830119
914.50 0.1829476
914.60 0.1828832
914.70 0.1828189
914.80 0.1827546
914.90 0.1826903
915.00 0.1826261
915.10 0.1825619
915.20 0.1824977
915.30 0.1824337
915.40 0.1823698
915.50 0.1823059
915.60 0.182242
915.70 0.1821782
915.80 0.1821144
915.90 0.1820506
916.00 0.1819868
916.10 0.181923
916.20 0.1818593
916.30 0.1817956
916.40 0.1817319
916.50 0.1816683
916.60 0.1816047
916.70 0.1815411
916.80 0.1814775
916.90 0.1814139
917.00 0.1813504
917.10 0.1812869
917.20 0.1812234
917.30 0.1811599
917.40 0.1810965
917.50 0.1810331
917.60 0.1809697
917.70 0.1809063
917.80 0.1808429
917.90 0.1807796
918.00 0.1807163
918.10 0.180653
918.20 0.1805898
918.30 0.1805265
918.40 0.1804633
918.50 0.1804001
918.60 0.180337
918.70 0.1802738
918.80 0.1802107
918.90 0.1801476
919.00 0.1800846
919.10 0.1800215
919.20 0.1799585
919.30 0.1798955
919.40 0.1798325
919.50 0.1797696
919.60 0.1797066
919.70 0.1796437
919.80 0.1795808
919.90 0.179518
920.00 0.1794551
920.10 0.1793923
920.20 0.1793295
920.30 0.1792668
920.40 0.179204
920.50 0.1791413
920.60 0.1790786
920.70 0.1790159
920.80 0.1789533
920.90 0.1788906
921.00 0.178828
921.10 0.1787654
921.20 0.1787029
921.30 0.1786403
921.40 0.1785778
921.50 0.1785153
921.60 0.1784529
921.70 0.1783904
921.80 0.178328
921.90 0.1782656
922.00 0.1782032
922.10 0.1781408
922.20 0.1780785
922.30 0.1780162
922.40 0.1779539
922.50 0.1778916
922.60 0.1778294
922.70 0.1777672
922.80 0.177705
922.90 0.1776428
923.00 0.1775807
923.10 0.1775185
923.20 0.1774564
923.30 0.1773943
923.40 0.1773323
923.50 0.1772703
923.60 0.1772082
923.70 0.1771462
923.80 0.1770843
923.90 0.1770223
924.00 0.1769604
924.10 0.1768985
924.20 0.1768366
924.30 0.1767748
924.40 0.176713
924.50 0.1766514
924.60 0.1765899
924.70 0.1765283
924.80 0.1764668
924.90 0.1764053
925.00 0.1763439
925.10 0.1762824
925.20 0.176221
925.30 0.1761596
925.40 0.1760982
925.50 0.1760369
925.60 0.1759756
925.70 0.1759142
925.80 0.175853
925.90 0.1757917
926.00 0.1757305
926.10 0.1756692
926.20 0.1756081
926.30 0.1755469
926.40 0.1754857
926.50 0.1754246
926.60 0.1753635
926.70 0.1753024
926.80 0.1752414
926.90 0.1751803
927.00 0.1751193
927.10 0.1750583
927.20 0.1749973
927.30 0.1749364
927.40 0.1748755
927.50 0.1748145
927.60 0.1747537
927.70 0.1746928
927.80 0.174632
927.90 0.1745712
928.00 0.1745104
928.10 0.1744496
928.20 0.1743888
928.30 0.1743281
928.40 0.1742674
928.50 0.1742067
928.60 0.1741461
928.70 0.1740854
928.80 0.1740248
928.90 0.1739642
929.00 0.1739036
929.10 0.1738431
929.20 0.1737825
929.30 0.173722
929.40 0.1736616
929.50 0.1736011
929.60 0.1735407
929.70 0.1734802
929.80 0.1734198
929.90 0.1733595
930.00 0.1732991
930.10 0.1732388
930.20 0.1731785
930.30 0.1731182
930.40 0.1730579
930.50 0.1729977
930.60 0.1729374
930.70 0.1728772
930.80 0.1728171
930.90 0.1727569
931.00 0.1726968
931.10 0.1726367
931.20 0.1725766
931.30 0.1725165
931.40 0.1724565
931.50 0.1723964
931.60 0.1723364
931.70 0.1722765
931.80 0.1722165
931.90 0.1721566
932.00 0.1720966
932.10 0.1720367
932.20 0.1719769
932.30 0.171917
932.40 0.1718572
932.50 0.1717974
932.60 0.1717376
932.70 0.1716778
932.80 0.1716181
932.90 0.1715584
933.00 0.1714987
933.10 0.171439
933.20 0.1713793
933.30 0.1713197
933.40 0.1712601
933.50 0.1712005
933.60 0.1711409
933.70 0.1710819
933.80 0.1710232
933.90 0.1709644
934.00 0.1709057
934.10 0.170847
934.20 0.1707884
934.30 0.1707297
934.40 0.1706711
934.50 0.1706125
934.60 0.1705539
934.70 0.1704953
934.80 0.1704367
934.90 0.1703782
935.00 0.1703197
935.10 0.1702612
935.20 0.1702028
935.30 0.1701443
935.40 0.1700859
935.50 0.1700275
935.60 0.1699691
935.70 0.1699107
935.80 0.1698524
935.90 0.1697941
936.00 0.1697358
936.10 0.1696775
936.20 0.1696193
936.30 0.169561
936.40 0.1695028
936.50 0.1694446
936.60 0.1693865
936.70 0.1693283
936.80 0.1692702
936.90 0.1692121
937.00 0.169154
937.10 0.1690959
937.20 0.1690379
937.30 0.1689799
937.40 0.1689219
937.50 0.1688639
937.60 0.1688059
937.70 0.168748
937.80 0.1686901
937.90 0.1686322
938.00 0.1685743
938.10 0.1685164
938.20 0.1684586
938.30 0.1684008
938.40 0.168343
938.50 0.1682852
938.60 0.1682275
938.70 0.1681697
938.80 0.168112
938.90 0.1680543
939.00 0.1679967
939.10 0.167939
939.20 0.1678814
939.30 0.1678238
939.40 0.1677662
939.50 0.1677086
939.60 0.1676511
939.70 0.1675935
939.80 0.167536
939.90 0.1674786
940.00 0.1674211
940.10 0.1673637
940.20 0.1673062
940.30 0.1672488
940.40 0.1671915
940.50 0.1671341
940.60 0.1670768
940.70 0.1670194
940.80 0.1669621
940.90 0.1669049
941.00 0.1668476
941.10 0.1667904
941.20 0.1667332
941.30 0.166676
941.40 0.1666188
941.50 0.1665616
941.60 0.1665045
941.70 0.1664474
941.80 0.1663903
941.90 0.1663332
942.00 0.1662762
942.10 0.1662191
942.20 0.1661621
942.30 0.1661052
942.40 0.1660482
942.50 0.1659912
942.60 0.1659343
942.70 0.1658774
942.80 0.1658205
942.90 0.1657636
943.00 0.1657067
943.10 0.1656495
943.20 0.1655924
943.30 0.1655353
943.40 0.1654783
943.50 0.1654212
943.60 0.1653642
943.70 0.1653072
943.80 0.1652502
943.90 0.1651932
944.00 0.1651363
944.10 0.1650793
944.20 0.1650224
944.30 0.1649655
944.40 0.1649087
944.50 0.1648518
944.60 0.164795
944.70 0.1647382
944.80 0.1646814
944.90 0.1646246
945.00 0.1645679
945.10 0.1645112
945.20 0.1644545
945.30 0.1643978
945.40 0.1643411
945.50 0.1642845
945.60 0.1642278
945.70 0.1641712
945.80 0.1641147
945.90 0.1640581
946.00 0.1640016
946.10 0.163945
946.20 0.1638885
946.30 0.163832
946.40 0.1637756
946.50 0.1637191
946.60 0.1636627
946.70 0.1636063
946.80 0.1635499
946.90 0.1634936
947.00 0.1634372
947.10 0.1633809
947.20 0.1633246
947.30 0.1632683
947.40 0.1632121
947.50 0.1631558
947.60 0.1630996
947.70 0.1630434
947.80 0.1629872
947.90 0.1629311
948.00 0.1628749
948.10 0.1628188
948.20 0.1627627
948.30 0.1627066
948.40 0.1626506
948.50 0.1625945
948.60 0.1625385
948.70 0.1624825
948.80 0.1624265
948.90 0.1623706
949.00 0.1623146
949.10 0.1622587
949.20 0.1622028
949.30 0.1621469
949.40 0.1620911
949.50 0.1620352
949.60 0.1619794
949.70 0.1619236
949.80 0.1618678
949.90 0.1618121
950.00 0.1617563
950.10 0.1617006
950.20 0.1616449
950.30 0.1615892
950.40 0.1615336
950.50 0.1614779
950.60 0.1614223
950.70 0.1613667
950.80 0.1613111
950.90 0.1612556
951.00 0.1612
951.10 0.1611445
951.20 0.161089
951.30 0.1610335
951.40 0.1609781
951.50 0.1609226
951.60 0.1608672
951.70 0.1608118
951.80 0.1607564
951.90 0.1607011
952.00 0.1606457
952.10 0.1605904
952.20 0.1605351
952.30 0.1604798
952.40 0.1604246
952.50 0.1603706
952.60 0.1603166
952.70 0.1602626
952.80 0.1602087
952.90 0.1601547
953.00 0.1601008
953.10 0.1600469
953.20 0.159993
953.30 0.1599392
953.40 0.1598853
953.50 0.1598315
953.60 0.1597777
953.70 0.1597239
953.80 0.1596701
953.90 0.1596164
954.00 0.1595627
954.10 0.159509
954.20 0.1594553
954.30 0.1594016
954.40 0.1593479
954.50 0.1592943
954.60 0.1592407
954.70 0.1591871
954.80 0.1591335
954.90 0.1590799
955.00 0.1590264
955.10 0.1589729
955.20 0.1589194
955.30 0.1588659
955.40 0.1588124
955.50 0.158759
955.60 0.1587056
955.70 0.1586522
955.80 0.1585988
955.90 0.1585454
956.00 0.158492
956.10 0.1584387
956.20 0.1583854
956.30 0.1583321
956.40 0.1582788
956.50 0.1582256
956.60 0.1581723
956.70 0.1581191
956.80 0.1580659
956.90 0.1580127
957.00 0.1579596
957.10 0.1579064
957.20 0.1578528
957.30 0.1577987
957.40 0.1577446
957.50 0.1576906
957.60 0.1576365
957.70 0.1575825
957.80 0.1575284
957.90 0.1574744
958.00 0.1574205
958.10 0.1573665
958.20 0.1573126
958.30 0.1572586
958.40 0.1572047
958.50 0.1571509
958.60 0.157097
958.70 0.1570431
958.80 0.1569893
958.90 0.1569355
959.00 0.1568817
959.10 0.156828
959.20 0.1567742
959.30 0.1567205
959.40 0.1566668
959.50 0.1566131
959.60 0.1565594
959.70 0.1565057
959.80 0.1564521
959.90 0.1563985
960.00 0.1563449
960.10 0.1562913
960.20 0.1562377
960.30 0.1561842
960.40 0.1561307
960.50 0.1560772
960.60 0.1560237
960.70 0.1559702
960.80 0.1559168
960.90 0.1558633
961.00 0.1558099
961.10 0.1557565
961.20 0.1557032
961.30 0.1556498
961.40 0.1555965
961.50 0.1555432
961.60 0.1554899
961.70 0.1554366
961.80 0.1553833
961.90 0.1553301
962.00 0.1552775
962.10 0.155225
962.20 0.1551725
962.30 0.15512
962.40 0.1550676
962.50 0.1550151
962.60 0.1549627
962.70 0.1549103
962.80 0.154858
962.90 0.1548056
963.00 0.1547533
963.10 0.1547009
963.20 0.1546486
963.30 0.1545964
963.40 0.1545441
963.50 0.1544918
963.60 0.1544396
963.70 0.1543874
963.80 0.1543352
963.90 0.1542831
964.00 0.1542309
964.10 0.1541788
964.20 0.1541266
964.30 0.1540745
964.40 0.1540225
964.50 0.1539704
964.60 0.1539184
964.70 0.1538663
964.80 0.1538143
964.90 0.1537623
965.00 0.1537104
965.10 0.1536584
965.20 0.1536065
965.30 0.1535546
965.40 0.1535027
965.50 0.1534508
965.60 0.1533989
965.70 0.1533471
965.80 0.1532953
965.90 0.1532435
966.00 0.1531917
966.10 0.1531399
966.20 0.1530881
966.30 0.1530364
966.40 0.1529847
966.50 0.152933
966.60 0.1528813
966.70 0.1528297
966.80 0.152778
966.90 0.1527264
967.00 0.1526748
967.10 0.1526232
967.20 0.1525716
967.30 0.1525201
967.40 0.1524685
967.50 0.152417
967.60 0.1523655
967.70 0.152314
967.80 0.1522626
967.90 0.1522111
968.00 0.1521597
968.10 0.1521083
968.20 0.1520569
968.30 0.1520055
968.40 0.1519542
968.50 0.1519028
968.60 0.1518515
968.70 0.1518002
968.80 0.1517489
968.90 0.1516977
969.00 0.1516464
969.10 0.1515952
969.20 0.151544
969.30 0.1514928
969.40 0.1514416
969.50 0.1513904
969.60 0.1513393
969.70 0.1512882
969.80 0.1512371
969.90 0.151186
970.00 0.1511349
970.10 0.1510839
970.20 0.1510328
970.30 0.1509818
970.40 0.1509308
970.50 0.1508798
970.60 0.1508289
970.70 0.1507779
970.80 0.150727
970.90 0.1506761
971.00 0.1506252
971.10 0.1505743
971.20 0.1505235
971.30 0.1504727
971.40 0.1504218
971.50 0.150371
971.60 0.1503207
971.70 0.1502706
971.80 0.1502205
971.90 0.1501705
972.00 0.1501204
972.10 0.1500704
972.20 0.1500204
972.30 0.1499704
972.40 0.1499204
972.50 0.1498705
972.60 0.1498206
972.70 0.1497706
972.80 0.1497207
972.90 0.1496709
973.00 0.149621
973.10 0.1495711
973.20 0.1495213
973.30 0.1494715
973.40 0.1494217
973.50 0.1493719
973.60 0.1493222
973.70 0.1492724
973.80 0.1492227
973.90 0.149173
974.00 0.1491233
974.10 0.1490736
974.20 0.149024
974.30 0.1489743
974.40 0.1489247
974.50 0.1488751
974.60 0.1488255
974.70 0.1487759
974.80 0.1487264
974.90 0.1486768
975.00 0.1486273
975.10 0.1485778
975.20 0.1485283
975.30 0.1484789
975.40 0.1484294
975.50 0.14838
975.60 0.1483306
975.70 0.1482812
975.80 0.1482318
975.90 0.1481824
976.00 0.1481331
976.10 0.1480837
976.20 0.1480344
976.30 0.1479851
976.40 0.1479358
976.50 0.1478866
976.60 0.1478373
976.70 0.1477881
976.80 0.1477389
976.90 0.1476897
977.00 0.1476405
977.10 0.1475913
977.20 0.1475422
977.30 0.1474931
977.40 0.147444
977.50 0.1473949
977.60 0.1473458
977.70 0.1472967
977.80 0.1472477
977.90 0.1471987
978.00 0.1471497
978.10 0.1471007
978.20 0.1470517
978.30 0.1470027
978.40 0.1469538
978.50 0.1469049
978.60 0.146856
978.70 0.1468071
978.80 0.1467582
978.90 0.1467094
979.00 0.1466605
979.10 0.1466117
979.20 0.1465629
979.30 0.1465141
979.40 0.1464653
979.50 0.1464166
979.60 0.1463678
979.70 0.1463191
979.80 0.1462704
979.90 0.1462217
980.00 0.1461731
980.10 0.1461244
980.20 0.1460758
980.30 0.1460272
980.40 0.1459785
980.50 0.14593
980.60 0.1458814
980.70 0.1458328
980.80 0.1457843
980.90 0.1457358
981.00 0.1456873
981.10 0.1456388
981.20 0.1455903
981.30 0.1455417
981.40 0.145493
981.50 0.1454443
981.60 0.1453957
981.70 0.145347
981.80 0.1452983
981.90 0.1452497
982.00 0.1452011
982.10 0.1451525
982.20 0.1451039
982.30 0.1450554
982.40 0.1450068
982.50 0.1449583
982.60 0.1449098
982.70 0.1448613
982.80 0.1448128
982.90 0.1447644
983.00 0.1447159
983.10 0.1446675
983.20 0.1446191
983.30 0.1445707
983.40 0.1445223
983.50 0.1444739
983.60 0.1444256
983.70 0.1443773
983.80 0.144329
983.90 0.1442807
984.00 0.1442324
984.10 0.1441841
984.20 0.1441359
984.30 0.1440877
984.40 0.1440394
984.50 0.1439913
984.60 0.1439431
984.70 0.1438949
984.80 0.1438468
984.90 0.1437986
985.00 0.1437505
985.10 0.1437024
985.20 0.1436544
985.30 0.1436063
985.40 0.1435583
985.50 0.1435102
985.60 0.1434622
985.70 0.1434142
985.80 0.1433662
985.90 0.1433183
986.00 0.1432703
986.10 0.1432224
986.20 0.1431745
986.30 0.1431266
986.40 0.1430787
986.50 0.1430309
986.60 0.142983
986.70 0.1429352
986.80 0.1428874
986.90 0.1428396
987.00 0.1427918
987.10 0.142744
987.20 0.1426963
987.30 0.1426485
987.40 0.1426008
987.50 0.1425531
987.60 0.1425054
987.70 0.1424578
987.80 0.1424101
987.90 0.1423625
988.00 0.1423149
988.10 0.1422673
988.20 0.1422197
988.30 0.1421721
988.40 0.1421246
988.50 0.142077
988.60 0.1420295
988.70 0.141982
988.80 0.1419345
988.90 0.1418871
989.00 0.1418396
989.10 0.1417922
989.20 0.1417447
989.30 0.1416973
989.40 0.14165
989.50 0.1416026
989.60 0.1415552
989.70 0.1415079
989.80 0.1414606
989.90 0.1414133
990.00 0.141366
990.10 0.1413187
990.20 0.1412714
990.30 0.1412242
990.40 0.141177
990.50 0.1411298
990.60 0.1410826
990.70 0.1410354
990.80 0.1409882
990.90 0.1409411
991.00 0.1408939
991.10 0.1408471
991.20 0.1408006
991.30 0.1407542
991.40 0.1407077
991.50 0.1406613
991.60 0.1406149
991.70 0.1405685
991.80 0.1405222
991.90 0.1404758
992.00 0.1404295
992.10 0.1403831
992.20 0.1403368
992.30 0.1402906
992.40 0.1402443
992.50 0.140198
992.60 0.1401518
992.70 0.1401056
992.80 0.1400593
992.90 0.1400132
993.00 0.139967
993.10 0.1399208
993.20 0.1398747
993.30 0.1398285
993.40 0.1397824
993.50 0.1397363
993.60 0.1396902
993.70 0.1396442
993.80 0.1395981
993.90 0.1395521
994.00 0.1395061
994.10 0.1394601
994.20 0.1394141
994.30 0.1393681
994.40 0.1393221
994.50 0.1392762
994.60 0.1392303
994.70 0.1391844
994.80 0.1391385
994.90 0.1390926
995.00 0.1390467
995.10 0.1390009
995.20 0.138955
995.30 0.1389092
995.40 0.1388634
995.50 0.1388176
995.60 0.1387719
995.70 0.1387261
995.80 0.1386804
995.90 0.1386346
996.00 0.1385889
996.10 0.1385432
996.20 0.1384976
996.30 0.1384519
996.40 0.1384063
996.50 0.1383606
996.60 0.138315
996.70 0.1382694
996.80 0.1382238
996.90 0.1381783
997.00 0.1381327
997.10 0.1380872
997.20 0.1380417
997.30 0.1379962
997.40 0.1379507
997.50 0.1379052
997.60 0.1378598
997.70 0.1378143
997.80 0.1377689
997.90 0.1377235
998.00 0.1376781
998.10 0.1376327
998.20 0.1375873
998.30 0.137542
998.40 0.1374967
998.50 0.1374513
998.60 0.137406
998.70 0.1373608
998.80 0.1373155
998.90 0.1372702
999.00 0.137225
999.10 0.1371798
999.20 0.1371346
999.30 0.1370894
999.40 0.1370442
999.50 0.136999
999.60 0.1369539
999.70 0.1369087
999.80 0.1368636
999.90 0.1368185
1000.00 0.1367734
1000.10 0.1367284
1000.20 0.1366833
1000.30 0.1366383
1000.40 0.1365932
1000.50 0.1365482
1000.60 0.1365032
1000.70 0.1364582
1000.80 0.1364133
1000.90 0.1363683
1001.00 0.1363234
1001.10 0.1362787
1001.20 0.136234
1001.30 0.1361892
1001.40 0.1361445
1001.50 0.1360999
1001.60 0.1360552
1001.70 0.1360105
1001.80 0.1359659
1001.90 0.1359213
1002.00 0.1358766
1002.10 0.1358321
1002.20 0.1357875
1002.30 0.1357429
1002.40 0.1356984
1002.50 0.1356538
1002.60 0.1356093
1002.70 0.1355648
1002.80 0.1355203
1002.90 0.1354758
1003.00 0.1354314
1003.10 0.1353869
1003.20 0.1353425
1003.30 0.1352981
1003.40 0.1352537
1003.50 0.1352093
1003.60 0.1351649
1003.70 0.1351206
1003.80 0.1350762
1003.90 0.1350319
1004.00 0.1349876
1004.10 0.1349433
1004.20 0.134899
1004.30 0.1348548
1004.40 0.1348105
1004.50 0.1347663
1004.60 0.1347221
1004.70 0.1346779
1004.80 0.1346337
1004.90 0.1345895
1005.00 0.1345453
1005.10 0.1345012
1005.20 0.1344571
1005.30 0.1344129
1005.40 0.1343688
1005.50 0.1343248
1005.60 0.1342807
1005.70 0.1342366
1005.80 0.1341926
1005.90 0.1341486
1006.00 0.1341045
1006.10 0.1340605
1006.20 0.1340166
1006.30 0.1339726
1006.40 0.1339286
1006.50 0.1338847
1006.60 0.1338408
1006.70 0.1337969
1006.80 0.133753
1006.90 0.1337091
1007.00 0.1336652
1007.10 0.1336214
1007.20 0.1335775
1007.30 0.1335337
1007.40 0.1334899
1007.50 0.1334461
1007.60 0.1334023
1007.70 0.1333586
1007.80 0.1333148
1007.90 0.1332711
1008.00 0.1332274
1008.10 0.1331837
1008.20 0.13314
1008.30 0.1330963
1008.40 0.1330526
1008.50 0.133009
1008.60 0.1329654
1008.70 0.1329217
1008.80 0.1328781
1008.90 0.1328346
1009.00 0.132791
1009.10 0.1327474
1009.20 0.1327039
1009.30 0.1326604
1009.40 0.1326168
1009.50 0.1325733
1009.60 0.1325299
1009.70 0.1324864
1009.80 0.1324429
1009.90 0.1323995
1010.00 0.1323561
1010.10 0.1323127
1010.20 0.1322693
1010.30 0.1322259
1010.40 0.1321825
1010.50 0.1321392
1010.60 0.1320958
1010.70 0.1320525
1010.80 0.1320092
1010.90 0.1319659
1011.00 0.1319226
1011.10 0.1318795
1011.20 0.1318365
1011.30 0.1317934
1011.40 0.1317504
1011.50 0.1317073
1011.60 0.1316643
1011.70 0.1316213
1011.80 0.1315783
1011.90 0.1315353
1012.00 0.1314924
1012.10 0.1314494
1012.20 0.1314065
1012.30 0.1313636
1012.40 0.1313207
1012.50 0.1312778
1012.60 0.1312349
1012.70 0.131192
1012.80 0.1311492
1012.90 0.1311064
1013.00 0.1310635
1013.10 0.1310207
1013.20 0.1309779
1013.30 0.1309352
1013.40 0.1308924
1013.50 0.1308497
1013.60 0.1308069
1013.70 0.1307642
1013.80 0.1307215
1013.90 0.1306788
1014.00 0.1306361
1014.10 0.1305935
1014.20 0.1305508
1014.30 0.1305082
1014.40 0.1304656
1014.50 0.130423
1014.60 0.1303804
1014.70 0.1303378
1014.80 0.1302953
1014.90 0.1302527
1015.00 0.1302102
1015.10 0.1301677
1015.20 0.1301252
1015.30 0.1300827
1015.40 0.1300402
1015.50 0.1299977
1015.60 0.1299553
1015.70 0.1299128
1015.80 0.1298704
1015.90 0.129828
1016.00 0.1297856
1016.10 0.1297433
1016.20 0.1297009
1016.30 0.1296585
1016.40 0.1296162
1016.50 0.1295739
1016.60 0.1295316
1016.70 0.1294893
1016.80 0.129447
1016.90 0.1294048
1017.00 0.1293625
1017.10 0.1293203
1017.20 0.1292781
1017.30 0.1292358
1017.40 0.1291937
1017.50 0.1291515
1017.60 0.1291093
1017.70 0.1290672
1017.80 0.129025
1017.90 0.1289829
1018.00 0.1289408
1018.10 0.1288987
1018.20 0.1288566
1018.30 0.1288146
1018.40 0.1287725
1018.50 0.1287305
1018.60 0.1286884
1018.70 0.1286464
1018.80 0.1286044
1018.90 0.1285624
1019.00 0.1285205
1019.10 0.1284785
1019.20 0.1284366
1019.30 0.1283947
1019.40 0.1283527
1019.50 0.1283109
1019.60 0.128269
1019.70 0.1282271
1019.80 0.1281852
1019.90 0.1281434
1020.00 0.1281016
1020.10 0.1280598
1020.20 0.128018
1020.30 0.1279762
1020.40 0.1279344
1020.50 0.1278926
1020.60 0.1278509
1020.70 0.1278092
1020.80 0.1277674
1020.90 0.1277257
1021.00 0.1276841
1021.10 0.1276424
1021.20 0.1276009
1021.30 0.1275594
1021.40 0.1275179
1021.50 0.1274765
1021.60 0.1274351
1021.70 0.1273936
1021.80 0.1273522
1021.90 0.1273108
1022.00 0.1272694
1022.10 0.1272281
1022.20 0.1271867
1022.30 0.1271454
1022.40 0.127104
1022.50 0.1270627
1022.60 0.1270214
1022.70 0.1269801
1022.80 0.1269389
1022.90 0.1268976
1023.00 0.1268563
1023.10 0.1268151
1023.20 0.1267739
1023.30 0.1267327
1023.40 0.1266915
1023.50 0.1266503
1023.60 0.1266091
1023.70 0.126568
1023.80 0.1265269
1023.90 0.1264857
1024.00 0.1264446
1024.10 0.1264035
1024.20 0.1263624
1024.30 0.1263214
1024.40 0.1262803
1024.50 0.1262393
1024.60 0.1261982
1024.70 0.1261572
1024.80 0.1261162
1024.90 0.1260752
1025.00 0.1260343
1025.10 0.1259933
1025.20 0.1259524
1025.30 0.1259114
1025.40 0.1258705
1025.50 0.1258296
1025.60 0.1257887
1025.70 0.1257478
1025.80 0.125707
1025.90 0.1256661
1026.00 0.1256253
1026.10 0.1255844
1026.20 0.1255436
1026.30 0.1255028
1026.40 0.125462
1026.50 0.1254213
1026.60 0.1253805
1026.70 0.1253398
1026.80 0.125299
1026.90 0.1252583
1027.00 0.1252176
1027.10 0.1251769
1027.20 0.1251362
1027.30 0.1250956
1027.40 0.1250549
1027.50 0.1250143
1027.60 0.1249736
1027.70 0.124933
1027.80 0.1248924
1027.90 0.1248518
1028.00 0.1248113
1028.10 0.1247707
1028.20 0.1247302
1028.30 0.1246896
1028.40 0.1246491
1028.50 0.1246086
1028.60 0.1245681
1028.70 0.1245276
1028.80 0.1244872
1028.90 0.1244467
1029.00 0.1244063
1029.10 0.1243659
1029.20 0.1243255
1029.30 0.1242851
1029.40 0.1242447
1029.50 0.1242043
1029.60 0.1241639
1029.70 0.1241236
1029.80 0.1240833
1029.90 0.1240429
1030.00 0.1240026
1030.10 0.1239623
1030.20 0.1239221
1030.30 0.1238818
1030.40 0.1238416
1030.50 0.1238013
1030.60 0.1237611
1030.70 0.1237209
1030.80 0.1236807
1030.90 0.1236405
1031.00 0.1236003
1031.10 0.1235602
1031.20 0.12352
1031.30 0.1234799
1031.40 0.1234407
1031.50 0.1234015
1031.60 0.1233624
1031.70 0.1233233
1031.80 0.1232842
1031.90 0.1232451
1032.00 0.123206
1032.10 0.123167
1032.20 0.1231279
1032.30 0.1230889
1032.40 0.1230498
1032.50 0.1230108
1032.60 0.1229718
1032.70 0.1229328
1032.80 0.1228939
1032.90 0.1228549
1033.00 0.122816
1033.10 0.122777
1033.20 0.1227381
1033.30 0.1226992
1033.40 0.1226603
1033.50 0.1226214
1033.60 0.1225825
1033.70 0.1225437
1033.80 0.1225048
1033.90 0.122466
1034.00 0.1224272
1034.10 0.1223883
1034.20 0.1223495
1034.30 0.1223108
1034.40 0.122272
1034.50 0.1222332
1034.60 0.1221945
1034.70 0.1221558
1034.80 0.122117
1034.90 0.1220783
1035.00 0.1220396
1035.10 0.1220009
1035.20 0.1219623
1035.30 0.1219236
1035.40 0.121885
1035.50 0.1218463
1035.60 0.1218077
1035.70 0.1217691
1035.80 0.1217305
1035.90 0.1216919
1036.00 0.1216534
1036.10 0.1216148
1036.20 0.1215763
1036.30 0.1215377
1036.40 0.1214992
1036.50 0.1214604
1036.60 0.1214211
1036.70 0.1213818
1036.80 0.1213426
1036.90 0.1213033
1037.00 0.1212641
1037.10 0.1212249
1037.20 0.1211856
1037.30 0.1211464
1037.40 0.1211073
1037.50 0.1210681
1037.60 0.1210289
1037.70 0.1209898
1037.80 0.1209506
1037.90 0.1209115
1038.00 0.1208724
1038.10 0.1208333
1038.20 0.1207942
1038.30 0.1207552
1038.40 0.1207161
1038.50 0.1206771
1038.60 0.120638
1038.70 0.120599
1038.80 0.12056
1038.90 0.120521
1039.00 0.120482
1039.10 0.1204431
1039.20 0.1204041
1039.30 0.1203652
1039.40 0.1203262
1039.50 0.1202873
1039.60 0.1202484
1039.70 0.1202095
1039.80 0.1201706
1039.90 0.1201318
1040.00 0.1200929
1040.10 0.1200541
1040.20 0.1200153
1040.30 0.1199764
1040.40 0.1199376
1040.50 0.1198988
1040.60 0.1198601
1040.70 0.1198213
1040.80 0.1197826
1040.90 0.1197438
1041.00 0.1197051
1041.10 0.1196664
1041.20 0.1196277
1041.30 0.119589
1041.40 0.1195503
1041.50 0.1195116
1041.60 0.119473
1041.70 0.1194351
1041.80 0.1193974
1041.90 0.1193598
1042.00 0.1193221
1042.10 0.1192844
1042.20 0.1192468
1042.30 0.1192092
1042.40 0.1191716
1042.50 0.1191339
1042.60 0.1190964
1042.70 0.1190588
1042.80 0.1190212
1042.90 0.1189836
1043.00 0.1189461
1043.10 0.1189086
1043.20 0.118871
1043.30 0.1188335
1043.40 0.118796
1043.50 0.1187586
1043.60 0.1187211
1043.70 0.1186836
1043.80 0.1186462
1043.90 0.1186087
1044.00 0.1185713
1044.10 0.1185339
1044.20 0.1184965
1044.30 0.1184591
1044.40 0.1184218
1044.50 0.1183844
1044.60 0.118347
1044.70 0.1183097
1044.80 0.1182724
1044.90 0.1182351
1045.00 0.1181978
1045.10 0.1181605
1045.20 0.1181232
1045.30 0.1180859
1045.40 0.1180487
1045.50 0.1180114
1045.60 0.1179742
1045.70 0.117937
1045.80 0.1178998
1045.90 0.1178626
1046.00 0.1178254
1046.10 0.1177882
1046.20 0.1177511
1046.30 0.1177139
1046.40 0.1176768
1046.50 0.1176397
1046.60 0.1176026
1046.70 0.1175655
1046.80 0.1175284
1046.90 0.1174908
1047.00 0.1174529
1047.10 0.1174151
1047.20 0.1173773
1047.30 0.1173395
1047.40 0.1173017
1047.50 0.117264
1047.60 0.1172262
1047.70 0.1171885
1047.80 0.1171507
1047.90 0.117113
1048.00 0.1170753
1048.10 0.1170376
1048.20 0.1169999
1048.30 0.1169623
1048.40 0.1169246
1048.50 0.116887
1048.60 0.1168493
1048.70 0.1168117
1048.80 0.1167741
1048.90 0.1167365
1049.00 0.1166989
1049.10 0.1166613
1049.20 0.1166238
1049.30 0.1165862
1049.40 0.1165487
1049.50 0.1165112
1049.60 0.1164737
1049.70 0.1164362
1049.80 0.1163987
1049.90 0.1163612
1050.00 0.1163237
1050.10 0.1162863
1050.20 0.1162489
1050.30 0.1162114
1050.40 0.116174
1050.50 0.1161366
1050.60 0.1160992
1050.70 0.1160618
1050.80 0.1160245
1050.90 0.1159871
1051.00 0.1159498
1051.10 0.1159125
1051.20 0.1158751
1051.30 0.1158378
1051.40 0.1158005
1051.50 0.1157633
1051.60 0.115726
1051.70 0.1156887
1051.80 0.1156515
1051.90 0.1156143
1052.00 0.115577
1052.10 0.1155404
1052.20 0.1155042
1052.30 0.1154679
1052.40 0.1154316
1052.50 0.1153954
1052.60 0.1153591
1052.70 0.1153229
1052.80 0.1152867
1052.90 0.1152505
1053.00 0.1152143
1053.10 0.1151781
1053.20 0.1151419
1053.30 0.1151057
1053.40 0.1150696
1053.50 0.1150334
1053.60 0.1149973
1053.70 0.1149612
1053.80 0.1149251
1053.90 0.114889
1054.00 0.1148529
1054.10 0.1148169
1054.20 0.1147808
1054.30 0.1147448
1054.40 0.1147087
1054.50 0.1146727
1054.60 0.1146367
1054.70 0.1146007
1054.80 0.1145647
1054.90 0.1145287
1055.00 0.1144928
1055.10 0.1144568
1055.20 0.1144209
1055.30 0.1143849
1055.40 0.114349
1055.50 0.1143131
1055.60 0.1142772
1055.70 0.1142413
1055.80 0.1142055
1055.90 0.1141696
1056.00 0.1141338
1056.10 0.1140979
1056.20 0.1140621
1056.30 0.1140263
1056.40 0.1139905
1056.50 0.1139547
1056.60 0.1139189
1056.70 0.1138832
1056.80 0.1138474
1056.90 0.1138117
1057.00 0.1137759
1057.10 0.1137402
1057.20 0.1137045
1057.30 0.1136688
1057.40 0.1136331
1057.50 0.1135974
1057.60 0.1135618
1057.70 0.1135261
1057.80 0.1134905
1057.90 0.1134548
1058.00 0.1134192
1058.10 0.1133836
1058.20 0.113348
1058.30 0.1133124
1058.40 0.1132769
1058.50 0.1132413
1058.60 0.1132057
1058.70 0.1131702
1058.80 0.1131347
1058.90 0.1130992
1059.00 0.1130637
1059.10 0.1130282
1059.20 0.1129927
1059.30 0.1129572
1059.40 0.1129218
1059.50 0.1128863
1059.60 0.1128509
1059.70 0.1128154
1059.80 0.11278
1059.90 0.1127446
1060.00 0.1127092
1060.10 0.1126739
1060.20 0.1126385
1060.30 0.1126031
1060.40 0.1125678
1060.50 0.1125325
1060.60 0.1124971
1060.70 0.1124618
1060.80 0.1124265
1060.90 0.1123912
1061.00 0.112356
1061.10 0.1123207
1061.20 0.1122854
1061.30 0.1122502
1061.40 0.112215
1061.50 0.1121797
1061.60 0.1121445
1061.70 0.1121093
1061.80 0.1120741
1061.90 0.112039
1062.00 0.1120038
1062.10 0.1119687
1062.20 0.1119335
1062.30 0.1118984
1062.40 0.1118633
1062.50 0.1118282
1062.60 0.1117928
1062.70 0.1117571
1062.80 0.1117214
1062.90 0.1116858
1063.00 0.1116501
1063.10 0.1116145
1063.20 0.1115789
1063.30 0.1115433
1063.40 0.1115077
1063.50 0.1114721
1063.60 0.1114365
1063.70 0.1114009
1063.80 0.1113654
1063.90 0.1113298
1064.00 0.1112943
1064.10 0.1112588
1064.20 0.1112233
1064.30 0.1111878
1064.40 0.1111523
1064.50 0.1111168
1064.60 0.1110814
1064.70 0.1110459
1064.80 0.1110105
1064.90 0.1109751
1065.00 0.1109396
1065.10 0.1109042
1065.20 0.1108688
1065.30 0.1108335
1065.40 0.1107981
1065.50 0.1107627
1065.60 0.1107274
1065.70 0.110692
1065.80 0.1106567
1065.90 0.1106214
1066.00 0.1105861
1066.10 0.1105508
1066.20 0.1105155
1066.30 0.1104802
1066.40 0.110445
1066.50 0.1104097
1066.60 0.1103745
1066.70 0.1103393
1066.80 0.1103041
1066.90 0.1102689
1067.00 0.1102337
1067.10 0.1101985
1067.20 0.1101633
1067.30 0.1101282
1067.40 0.110093
1067.50 0.1100579
1067.60 0.1100228
1067.70 0.1099876
1067.80 0.1099525
1067.90 0.1099177
1068.00 0.1098833
1068.10 0.109849
1068.20 0.1098147
1068.30 0.1097803
1068.40 0.109746
1068.50 0.1097117
1068.60 0.1096774
1068.70 0.1096432
1068.80 0.1096089
1068.90 0.1095746
1069.00 0.1095404
1069.10 0.1095061
1069.20 0.1094719
1069.30 0.1094377
1069.40 0.1094035
1069.50 0.1093693
1069.60 0.1093351
1069.70 0.109301
1069.80 0.1092668
1069.90 0.1092326
1070.00 0.1091985
1070.10 0.1091644
1070.20 0.1091303
1070.30 0.1090962
1070.40 0.1090621
1070.50 0.109028
1070.60 0.1089939
1070.70 0.1089598
1070.80 0.1089258
1070.90 0.1088917
1071.00 0.1088577
1071.10 0.1088237
1071.20 0.1087897
1071.30 0.1087557
1071.40 0.1087217
1071.50 0.1086877
1071.60 0.1086538
1071.70 0.1086198
1071.80 0.1085859
1071.90 0.1085519
1072.00 0.108518
1072.10 0.1084841
1072.20 0.1084502
1072.30 0.1084163
1072.40 0.1083824
1072.50 0.1083486
1072.60 0.1083147
1072.70 0.1082809
1072.80 0.108247
1072.90 0.1082132
1073.00 0.1081794
1073.10 0.1081456
1073.20 0.1081118
1073.30 0.1080782
1073.40 0.1080445
1073.50 0.1080109
1073.60 0.1079773
1073.70 0.1079437
1073.80 0.1079101
1073.90 0.1078765
1074.00 0.1078429
1074.10 0.1078094
1074.20 0.1077758
1074.30 0.1077423
1074.40 0.1077088
1074.50 0.1076752
1074.60 0.1076417
1074.70 0.1076082
1074.80 0.1075748
1074.90 0.1075413
1075.00 0.1075078
1075.10 0.1074744
1075.20 0.1074409
1075.30 0.1074075
1075.40 0.1073741
1075.50 0.1073407
1075.60 0.1073073
1075.70 0.1072739
1075.80 0.1072405
1075.90 0.1072071
1076.00 0.1071738
1076.10 0.1071404
1076.20 0.1071071
1076.30 0.1070737
1076.40 0.1070404
1076.50 0.1070071
1076.60 0.1069738
1076.70 0.1069405
1076.80 0.1069073
1076.90 0.106874
1077.00 0.1068407
1077.10 0.1068075
1077.20 0.1067743
1077.30 0.106741
1077.40 0.1067078
1077.50 0.1066746
1077.60 0.1066414
1077.70 0.1066083
1077.80 0.1065751
1077.90 0.1065419
1078.00 0.1065088
1078.10 0.1064756
1078.20 0.1064425
1078.30 0.1064094
1078.40 0.1063763
1078.50 0.1063432
1078.60 0.1063101
1078.70 0.106277
1078.80 0.106244
1078.90 0.1062109
1079.00 0.1061779
1079.10 0.1061448
1079.20 0.1061118
1079.30 0.1060788
1079.40 0.1060458
1079.50 0.1060128
1079.60 0.1059798
1079.70 0.1059469
1079.80 0.1059139
1079.90 0.1058809
1080.00 0.105848
1080.10 0.1058151
1080.20 0.1057822
1080.30 0.1057492
1080.40 0.1057163
1080.50 0.1056835
1080.60 0.1056506
1080.70 0.1056177
1080.80 0.1055849
1080.90 0.105552
1081.00 0.1055192
1081.10 0.1054863
1081.20 0.1054535
1081.30 0.1054207
1081.40 0.1053879
1081.50 0.1053551
1081.60 0.1053224
1081.70 0.1052896
1081.80 0.1052568
1081.90 0.1052241
1082.00 0.1051914
1082.10 0.1051586
1082.20 0.1051259
1082.30 0.1050932
1082.40 0.1050605
1082.50 0.1050279
1082.60 0.1049952
1082.70 0.1049625
1082.80 0.1049299
1082.90 0.1048972
1083.00 0.1048646
1083.10 0.104832
1083.20 0.1047994
1083.30 0.1047668
1083.40 0.1047342
1083.50 0.1047016
1083.60 0.104669
1083.70 0.1046365
1083.80 0.1046039
1083.90 0.1045714
1084.00 0.104539
1084.10 0.1045066
1084.20 0.1044742
1084.30 0.1044418
1084.40 0.1044095
1084.50 0.1043771
1084.60 0.1043448
1084.70 0.1043125
1084.80 0.1042802
1084.90 0.1042479
1085.00 0.1042156
1085.10 0.1041833
1085.20 0.104151
1085.30 0.1041187
1085.40 0.1040865
1085.50 0.1040543
1085.60 0.104022
1085.70 0.1039898
1085.80 0.1039576
1085.90 0.1039254
1086.00 0.1038932
1086.10 0.103861
1086.20 0.1038288
1086.30 0.1037967
1086.40 0.1037645
1086.50 0.1037324
1086.60 0.1037002
1086.70 0.1036681
1086.80 0.103636
1086.90 0.1036039
1087.00 0.1035718
1087.10 0.1035397
1087.20 0.1035076
1087.30 0.1034756
1087.40 0.1034435
1087.50 0.1034115
1087.60 0.1033795
1087.70 0.1033474
1087.80 0.1033154
1087.90 0.1032834
1088.00 0.1032514
1088.10 0.1032194
1088.20 0.1031875
1088.30 0.1031555
1088.40 0.1031236
1088.50 0.1030916
1088.60 0.1030597
1088.70 0.1030278
1088.80 0.1029958
1088.90 0.1029639
1089.00 0.1029321
1089.10 0.1029002
1089.20 0.1028683
1089.30 0.1028364
1089.40 0.1028046
1089.50 0.1027727
1089.60 0.1027409
1089.70 0.1027091
1089.80 0.1026773
1089.90 0.1026455
1090.00 0.1026137
1090.10 0.1025819
1090.20 0.1025501
1090.30 0.1025183
1090.40 0.1024866
1090.50 0.1024548
1090.60 0.1024231
1090.70 0.1023914
1090.80 0.1023597
1090.90 0.1023279
1091.00 0.1022963
1091.10 0.1022646
1091.20 0.1022329
1091.30 0.1022012
1091.40 0.1021696
1091.50 0.1021379
1091.60 0.1021063
1091.70 0.1020747
1091.80 0.102043
1091.90 0.1020114
1092.00 0.1019798
1092.10 0.1019482
1092.20 0.1019167
1092.30 0.1018851
1092.40 0.1018535
1092.50 0.101822
1092.60 0.1017905
1092.70 0.1017589
1092.80 0.1017274
1092.90 0.1016959
1093.00 0.1016644
1093.10 0.1016329
1093.20 0.1016014
1093.30 0.10157
1093.40 0.1015385
1093.50 0.1015071
1093.60 0.1014756
1093.70 0.1014442
1093.80 0.1014128
1093.90 0.1013814
1094.00 0.10135
1094.10 0.1013186
1094.20 0.1012872
1094.30 0.1012558
1094.40 0.1012245
1094.50 0.1011931
1094.60 0.1011618
1094.70 0.1011304
1094.80 0.1010993
1094.90 0.1010685
1095.00 0.1010376
1095.10 0.1010068
1095.20 0.100976
1095.30 0.1009452
1095.40 0.1009144
1095.50 0.1008836
1095.60 0.1008528
1095.70 0.100822
1095.80 0.1007913
1095.90 0.1007605
1096.00 0.1007298
1096.10 0.100699
1096.20 0.1006683
1096.30 0.1006376
1096.40 0.1006069
1096.50 0.1005762
1096.60 0.1005455
1096.70 0.1005148
1096.80 0.1004842
1096.90 0.1004535
1097.00 0.1004229
1097.10 0.1003922
1097.20 0.1003616
1097.30 0.100331
1097.40 0.1003004
1097.50 0.1002698
1097.60 0.1002392
1097.70 0.1002086
1097.80 0.100178
1097.90 0.1001475
1098.00 0.1001169
1098.10 0.1000864
1098.20 0.1000558
1098.30 0.1000253
1098.40 0.09999478
1098.50 0.09996428
1098.60 0.09993378
1098.70 0.09990329
1098.80 0.09987281
1098.90 0.09984234
1099.00 0.09981189
1099.10 0.09978144
1099.20 0.099751
1099.30 0.09972056
1099.40 0.09969014
1099.50 0.09965973
1099.60 0.09962933
1099.70 0.09959893
1099.80 0.09956855
1099.90 0.09953818
1100.00 0.09950781
1100.10 0.09947746
1100.20 0.09944711
1100.30 0.09941677
1100.40 0.09938645
1100.50 0.09935613
1100.60 0.09932582
1100.70 0.09929552
1100.80 0.09926523
1100.90 0.09923495
1101.00 0.09920468
1101.10 0.09917442
1101.20 0.09914416
1101.30 0.09911392
1101.40 0.09908369
1101.50 0.09905346
1101.60 0.09902325
1101.70 0.09899304
1101.80 0.09896284
1101.90 0.09893266
1102.00 0.09890248
1102.10 0.09887231
1102.20 0.09884215
1102.30 0.098812
1102.40 0.09878186
1102.50 0.09875173
1102.60 0.09872161
1102.70 0.0986915
1102.80 0.09866139
1102.90 0.0986313
1103.00 0.09860121
1103.10 0.09857114
1103.20 0.09854107
1103.30 0.09851101
1103.40 0.09848097
1103.50 0.09845093
1103.60 0.0984209
1103.70 0.09839088
1103.80 0.09836087
1103.90 0.09833087
1104.00 0.09830088
1104.10 0.09827089
1104.20 0.09824092
1104.30 0.09821096
1104.40 0.098181
1104.50 0.09815105
1104.60 0.09812112
1104.70 0.09809119
1104.80 0.09806127
1104.90 0.09803136
1105.00 0.09800146
1105.10 0.09797157
1105.20 0.09794169
1105.30 0.09791182
1105.40 0.09788196
1105.50 0.0978521
1105.60 0.09782226
1105.70 0.09779242
1105.80 0.09776239
1105.90 0.09773237
1106.00 0.09770235
1106.10 0.09767235
1106.20 0.09764236
1106.30 0.09761237
1106.40 0.0975824
1106.50 0.09755243
1106.60 0.09752247
1106.70 0.09749252
1106.80 0.09746258
1106.90 0.09743266
1107.00 0.09740274
1107.10 0.09737282
1107.20 0.09734292
1107.30 0.09731303
1107.40 0.09728315
1107.50 0.09725327
1107.60 0.09722341
1107.70 0.09719355
1107.80 0.0971637
1107.90 0.09713387
1108.00 0.09710404
1108.10 0.09707422
1108.20 0.09704441
1108.30 0.09701461
1108.40 0.09698482
1108.50 0.09695503
1108.60 0.09692526
1108.70 0.0968955
1108.80 0.09686574
1108.90 0.096836
1109.00 0.09680626
1109.10 0.09677653
1109.20 0.09674681
1109.30 0.09671711
1109.40 0.09668741
1109.50 0.09665771
1109.60 0.09662803
1109.70 0.09659836
1109.80 0.0965687
1109.90 0.09653904
1110.00 0.0965094
1110.10 0.09647976
1110.20 0.09645013
1110.30 0.09642052
1110.40 0.09639091
1110.50 0.09636131
1110.60 0.09633172
1110.70 0.09630214
1110.80 0.09627256
1110.90 0.096243
1111.00 0.09621345
1111.10 0.0961839
1111.20 0.09615436
1111.30 0.09612484
1111.40 0.09609532
1111.50 0.09606581
1111.60 0.09603631
1111.70 0.09600682
1111.80 0.09597734
1111.90 0.09594787
1112.00 0.0959184
1112.10 0.09588895
1112.20 0.0958595
1112.30 0.09583006
1112.40 0.09580064
1112.50 0.09577122
1112.60 0.09574181
1112.70 0.09571241
1112.80 0.09568302
1112.90 0.09565364
1113.00 0.09562426
1113.10 0.0955949
1113.20 0.09556554
1113.30 0.0955362
1113.40 0.09550686
1113.50 0.09547753
1113.60 0.09544821
1113.70 0.0954189
1113.80 0.0953896
1113.90 0.09536031
1114.00 0.09533102
1114.10 0.09530175
1114.20 0.09527248
1114.30 0.09524323
1114.40 0.09521398
1114.50 0.09518474
1114.60 0.09515551
1114.70 0.09512629
1114.80 0.09509708
1114.90 0.09506788
1115.00 0.09503868
1115.10 0.0950095
1115.20 0.09498032
1115.30 0.09495116
1115.40 0.094922
1115.50 0.09489285
1115.60 0.09486371
1115.70 0.09483458
1115.80 0.09480546
1115.90 0.09477634
1116.00 0.09474724
1116.10 0.09471814
1116.20 0.09468906
1116.30 0.09465998
1116.40 0.09463091
1116.50 0.09460185
1116.60 0.0945728
1116.70 0.09454376
1116.80 0.09451506
1116.90 0.09448679
1117.00 0.09445852
1117.10 0.09443027
1117.20 0.09440202
1117.30 0.09437378
1117.40 0.09434555
1117.50 0.09431733
1117.60 0.09428911
1117.70 0.09426091
1117.80 0.09423271
1117.90 0.09420452
1118.00 0.09417634
1118.10 0.09414817
1118.20 0.09412001
1118.30 0.09409186
1118.40 0.09406371
1118.50 0.09403558
1118.60 0.09400745
1118.70 0.09397933
1118.80 0.09395122
1118.90 0.09392312
1119.00 0.09389502
1119.10 0.09386694
1119.20 0.09383886
1119.30 0.09381079
1119.40 0.09378273
1119.50 0.09375468
1119.60 0.09372664
1119.70 0.09369861
1119.80 0.09367058
1119.90 0.09364257
1120.00 0.09361456
1120.10 0.09358656
1120.20 0.09355857
1120.30 0.09353058
1120.40 0.09350261
1120.50 0.09347464
1120.60 0.09344669
1120.70 0.09341874
1120.80 0.0933908
1120.90 0.09336287
1121.00 0.09333494
1121.10 0.09330703
1121.20 0.09327912
1121.30 0.09325122
1121.40 0.09322333
1121.50 0.09319545
1121.60 0.09316758
1121.70 0.09313972
1121.80 0.09311186
1121.90 0.09308401
1122.00 0.09305617
1122.10 0.09302834
1122.20 0.09300052
1122.30 0.09297271
1122.40 0.09294452
1122.50 0.0929161
1122.60 0.09288768
1122.70 0.09285928
1122.80 0.09283088
1122.90 0.09280249
1123.00 0.09277411
1123.10 0.09274574
1123.20 0.09271738
1123.30 0.09268903
1123.40 0.09266068
1123.50 0.09263235
1123.60 0.09260402
1123.70 0.0925757
1123.80 0.09254739
1123.90 0.09251909
1124.00 0.09249079
1124.10 0.09246251
1124.20 0.09243423
1124.30 0.09240596
1124.40 0.0923777
1124.50 0.09234945
1124.60 0.09232121
1124.70 0.09229298
1124.80 0.09226475
1124.90 0.09223654
1125.00 0.09220833
1125.10 0.09218013
1125.20 0.09215194
1125.30 0.09212376
1125.40 0.09209559
1125.50 0.09206742
1125.60 0.09203927
1125.70 0.09201112
1125.80 0.09198298
1125.90 0.09195485
1126.00 0.09192673
1126.10 0.09189861
1126.20 0.09187051
1126.30 0.09184241
1126.40 0.09181432
1126.50 0.09178624
1126.60 0.09175817
1126.70 0.09173011
1126.80 0.09170206
1126.90 0.09167401
1127.00 0.09164598
1127.10 0.09161795
1127.20 0.09158993
1127.30 0.09156192
1127.40 0.09153391
1127.50 0.09150592
1127.60 0.09147793
1127.70 0.09144996
1127.80 0.09142199
1127.90 0.09139403
1128.00 0.09136665
1128.10 0.09133943
1128.20 0.09131223
1128.30 0.09128503
1128.40 0.09125784
1128.50 0.09123066
1128.60 0.09120349
1128.70 0.09117633
1128.80 0.09114917
1128.90 0.09112203
1129.00 0.09109489
1129.10 0.09106776
1129.20 0.09104063
1129.30 0.09101352
1129.40 0.09098641
1129.50 0.09095932
1129.60 0.09093223
1129.70 0.09090514
1129.80 0.09087807
1129.90 0.090851
1130.00 0.09082395
1130.10 0.0907969
1130.20 0.09076986
1130.30 0.09074282
1130.40 0.0907158
1130.50 0.09068878
1130.60 0.09066178
1130.70 0.09063477
1130.80 0.09060778
1130.90 0.0905808
1131.00 0.09055382
1131.10 0.09052686
1131.20 0.0904999
1131.30 0.09047294
1131.40 0.090446
1131.50 0.09041907
1131.60 0.09039214
1131.70 0.09036522
1131.80 0.09033831
1131.90 0.09031141
1132.00 0.09028451
1132.10 0.09025762
1132.20 0.09023075
1132.30 0.09020387
1132.40 0.09017701
1132.50 0.09015016
1132.60 0.09012331
1132.70 0.09009647
1132.80 0.09006964
1132.90 0.09004282
1133.00 0.09001601
1133.10 0.0899892
1133.20 0.0899624
1133.30 0.08993561
1133.40 0.08990883
1133.50 0.08988206
1133.60 0.08985529
1133.70 0.08982854
1133.80 0.08980179
1133.90 0.08977504
1134.00 0.08974831
1134.10 0.08972159
1134.20 0.08969487
1134.30 0.08966816
1134.40 0.08964146
1134.50 0.08961476
1134.60 0.08958808
1134.70 0.0895614
1134.80 0.08953473
1134.90 0.08950807
1135.00 0.08948142
1135.10 0.08945477
1135.20 0.08942813
1135.30 0.08940151
1135.40 0.08937488
1135.50 0.08934827
1135.60 0.08932167
1135.70 0.08929507
1135.80 0.08926848
1135.90 0.0892419
1136.00 0.08921532
1136.10 0.08918876
1136.20 0.0891622
1136.30 0.08913565
1136.40 0.08910911
1136.50 0.08908258
1136.60 0.08905605
1136.70 0.08902953
1136.80 0.08900302
1136.90 0.08897652
1137.00 0.08895003
1137.10 0.08892354
1137.20 0.08889706
1137.30 0.08887059
1137.40 0.08884413
1137.50 0.08881768
1137.60 0.08879123
1137.70 0.08876479
1137.80 0.08873836
1137.90 0.08871194
1138.00 0.08868553
1138.10 0.08865912
1138.20 0.08863272
1138.30 0.08860633
1138.40 0.08857995
1138.50 0.08855357
1138.60 0.08852721
1138.70 0.08850085
1138.80 0.08847449
1138.90 0.08844815
1139.00 0.08842182
1139.10 0.08839549
1139.20 0.08836917
1139.30 0.08834267
1139.40 0.08831617
1139.50 0.08828969
1139.60 0.08826321
1139.70 0.08823674
1139.80 0.08821027
1139.90 0.08818382
1140.00 0.08815737
1140.10 0.08813093
1140.20 0.0881045
1140.30 0.08807808
1140.40 0.08805166
1140.50 0.08802526
1140.60 0.08799886
1140.70 0.08797246
1140.80 0.08794608
1140.90 0.0879197
1141.00 0.08789334
1141.10 0.08786698
1141.20 0.08784062
1141.30 0.08781428
1141.40 0.08778794
1141.50 0.08776161
1141.60 0.08773529
1141.70 0.08770898
1141.80 0.08768267
1141.90 0.08765638
1142.00 0.08763009
1142.10 0.08760381
1142.20 0.08757753
1142.30 0.08755127
1142.40 0.08752501
1142.50 0.08749876
1142.60 0.08747252
1142.70 0.08744628
1142.80 0.08742006
1142.90 0.08739384
1143.00 0.08736763
1143.10 0.08734142
1143.20 0.08731523
1143.30 0.08728904
1143.40 0.08726286
1143.50 0.08723669
1143.60 0.08721053
1143.70 0.08718437
1143.80 0.08715822
1143.90 0.08713208
1144.00 0.08710595
1144.10 0.08707982
1144.20 0.08705371
1144.30 0.0870276
1144.40 0.0870015
1144.50 0.0869754
1144.60 0.08694932
1144.70 0.08692324
1144.80 0.08689717
1144.90 0.08687111
1145.00 0.08684505
1145.10 0.086819
1145.20 0.08679297
1145.30 0.08676693
1145.40 0.08674091
1145.50 0.08671489
1145.60 0.08668889
1145.70 0.08666289
1145.80 0.08663689
1145.90 0.08661091
1146.00 0.08658493
1146.10 0.08655896
1146.20 0.086533
1146.30 0.08650705
1146.40 0.0864811
1146.50 0.08645516
1146.60 0.08642923
1146.70 0.08640331
1146.80 0.08637739
1146.90 0.08635149
1147.00 0.08632559
1147.10 0.08629969
1147.20 0.08627381
1147.30 0.08624793
1147.40 0.08622207
1147.50 0.0861962
1147.60 0.08617035
1147.70 0.0861445
1147.80 0.08611867
1147.90 0.08609284
1148.00 0.08606701
1148.10 0.0860412
1148.20 0.08601539
1148.30 0.08598959
1148.40 0.0859638
1148.50 0.08593802
1148.60 0.08591224
1148.70 0.08588647
1148.80 0.08586071
1148.90 0.08583496
1149.00 0.08580921
1149.10 0.08578347
1149.20 0.08575774
1149.30 0.08573202
1149.40 0.0857063
1149.50 0.08568059
1149.60 0.08565489
1149.70 0.0856292
1149.80 0.08560352
1149.90 0.08557784
1150.00 0.08555217
1150.10 0.08552651
1150.20 0.08550086
1150.30 0.08547521
1150.40 0.08544957
1150.50 0.08542394
1150.60 0.08539834
1150.70 0.08537312
1150.80 0.0853479
1150.90 0.08532269
1151.00 0.08529749
1151.10 0.0852723
1151.20 0.08524711
1151.30 0.08522194
1151.40 0.08519677
1151.50 0.0851716
1151.60 0.08514645
1151.70 0.0851213
1151.80 0.08509616
1151.90 0.08507102
1152.00 0.0850459
1152.10 0.08502078
1152.20 0.08499567
1152.30 0.08497057
1152.40 0.08494547
1152.50 0.08492038
1152.60 0.0848953
1152.70 0.08487023
1152.80 0.08484516
1152.90 0.0848201
1153.00 0.08479505
1153.10 0.08477001
1153.20 0.08474497
1153.30 0.08471994
1153.40 0.08469492
1153.50 0.0846699
1153.60 0.0846449
1153.70 0.0846199
1153.80 0.0845949
1153.90 0.08456992
1154.00 0.08454494
1154.10 0.08451997
1154.20 0.08449501
1154.30 0.08447005
1154.40 0.08444511
1154.50 0.08442016
1154.60 0.08439523
1154.70 0.08437031
1154.80 0.08434539
1154.90 0.08432048
1155.00 0.08429557
1155.10 0.08427068
1155.20 0.08424579
1155.30 0.08422091
1155.40 0.08419603
1155.50 0.08417116
1155.60 0.0841463
1155.70 0.08412145
1155.80 0.08409661
1155.90 0.08407177
1156.00 0.08404694
1156.10 0.08402212
1156.20 0.0839973
1156.30 0.08397249
1156.40 0.08394769
1156.50 0.0839229
1156.60 0.08389812
1156.70 0.08387334
1156.80 0.08384858
1156.90 0.08382382
1157.00 0.08379906
1157.10 0.08377432
1157.20 0.08374958
1157.30 0.08372485
1157.40 0.08370012
1157.50 0.0836754
1157.60 0.08365069
1157.70 0.08362599
1157.80 0.0836013
1157.90 0.08357661
1158.00 0.08355193
1158.10 0.08352726
1158.20 0.08350259
1158.30 0.08347793
1158.40 0.08345328
1158.50 0.08342863
1158.60 0.083404
1158.70 0.08337937
1158.80 0.08335475
1158.90 0.08333013
1159.00 0.08330552
1159.10 0.08328092
1159.20 0.08325633
1159.30 0.08323174
1159.40 0.08320716
1159.50 0.08318259
1159.60 0.08315803
1159.70 0.08313347
1159.80 0.08310892
1159.90 0.08308438
1160.00 0.08305984
1160.10 0.08303531
1160.20 0.08301079
1160.30 0.08298628
1160.40 0.08296177
1160.50 0.08293727
1160.60 0.08291278
1160.70 0.0828883
1160.80 0.08286382
1160.90 0.08283935
1161.00 0.08281488
1161.10 0.08279043
1161.20 0.08276598
1161.30 0.08274154
1161.40 0.0827171
1161.50 0.08269267
1161.60 0.08266825
1161.70 0.08264384
1161.80 0.08261943
1161.90 0.08259504
1162.00 0.08257064
1162.10 0.08254626
1162.20 0.08252198
1162.30 0.08249771
1162.40 0.08247344
1162.50 0.08244919
1162.60 0.08242494
1162.70 0.08240069
1162.80 0.08237646
1162.90 0.08235223
1163.00 0.082328
1163.10 0.08230379
1163.20 0.08227958
1163.30 0.08225538
1163.40 0.08223119
1163.50 0.082207
1163.60 0.08218282
1163.70 0.08215865
1163.80 0.08213448
1163.90 0.08211032
1164.00 0.08208617
1164.10 0.08206203
1164.20 0.08203789
1164.30 0.08201376
1164.40 0.08198964
1164.50 0.08196552
1164.60 0.08194142
1164.70 0.08191731
1164.80 0.08189322
1164.90 0.08186913
1165.00 0.08184505
1165.10 0.08182098
1165.20 0.08179691
1165.30 0.08177285
1165.40 0.0817488
1165.50 0.08172476
1165.60 0.08170072
1165.70 0.08167669
1165.80 0.08165266
1165.90 0.08162865
1166.00 0.08160464
1166.10 0.08158063
1166.20 0.08155664
1166.30 0.08153265
1166.40 0.08150867
1166.50 0.08148469
1166.60 0.08146072
1166.70 0.08143676
1166.80 0.08141281
1166.90 0.08138886
1167.00 0.08136492
1167.10 0.08134099
1167.20 0.08131706
1167.30 0.08129315
1167.40 0.08126923
1167.50 0.08124533
1167.60 0.08122143
1167.70 0.08119754
1167.80 0.08117366
1167.90 0.08114978
1168.00 0.08112641
1168.10 0.0811031
1168.20 0.0810798
1168.30 0.08105651
1168.40 0.08103322
1168.50 0.08100994
1168.60 0.08098667
1168.70 0.0809634
1168.80 0.08094014
1168.90 0.08091689
1169.00 0.08089365
1169.10 0.08087041
1169.20 0.08084717
1169.30 0.08082395
1169.40 0.08080073
1169.50 0.08077752
1169.60 0.08075431
1169.70 0.08073111
1169.80 0.08070792
1169.90 0.08068473
1170.00 0.08066156
1170.10 0.08063838
1170.20 0.08061522
1170.30 0.08059206
1170.40 0.08056891
1170.50 0.08054576
1170.60 0.08052263
1170.70 0.0804995
1170.80 0.08047637
1170.90 0.08045325
1171.00 0.08043014
1171.10 0.08040704
1171.20 0.08038394
1171.30 0.08036085
1171.40 0.08033776
1171.50 0.08031469
1171.60 0.08029162
1171.70 0.08026855
1171.80 0.08024549
1171.90 0.08022244
1172.00 0.0801994
1172.10 0.08017636
1172.20 0.08015333
1172.30 0.08013031
1172.40 0.08010729
1172.50 0.08008428
1172.60 0.08006128
1172.70 0.08003828
1172.80 0.08001529
1172.90 0.0799923
1173.00 0.07996933
1173.10 0.07994636
1173.20 0.07992339
1173.30 0.07990043
1173.40 0.07987748
1173.50 0.07985454
1173.60 0.0798316
1173.70 0.07980867
1173.80 0.07978539
1173.90 0.07976202
1174.00 0.07973866
1174.10 0.0797153
1174.20 0.07969195
1174.30 0.07966861
1174.40 0.07964527
1174.50 0.07962195
1174.60 0.07959862
1174.70 0.07957531
1174.80 0.079552
1174.90 0.0795287
1175.00 0.0795054
1175.10 0.07948211
1175.20 0.07945883
1175.30 0.07943556
1175.40 0.07941229
1175.50 0.07938903
1175.60 0.07936577
1175.70 0.07934253
1175.80 0.07931928
1175.90 0.07929605
1176.00 0.07927282
1176.10 0.0792496
1176.20 0.07922639
1176.30 0.07920318
1176.40 0.07917998
1176.50 0.07915679
1176.60 0.0791336
1176.70 0.07911042
1176.80 0.07908725
1176.90 0.07906408
1177.00 0.07904092
1177.10 0.07901777
1177.20 0.07899462
1177.30 0.07897148
1177.40 0.07894835
1177.50 0.07892522
1177.60 0.0789021
1177.70 0.07887899
1177.80 0.07885588
1177.90 0.07883278
1178.00 0.07880969
1178.10 0.0787866
1178.20 0.07876352
1178.30 0.07874045
1178.40 0.07871739
1178.50 0.07869433
1178.60 0.07867127
1178.70 0.07864823
1178.80 0.07862519
1178.90 0.07860216
1179.00 0.07857913
1179.10 0.07855611
1179.20 0.0785331
1179.30 0.07851009
1179.40 0.07848709
1179.50 0.0784641
1179.60 0.07844111
1179.70 0.07841814
1179.80 0.07839517
1179.90 0.0783722
1180.00 0.07834924
1180.10 0.07832629
1180.20 0.07830335
1180.30 0.07828041
1180.40 0.07825748
1180.50 0.07823456
1180.60 0.07821164
1180.70 0.07818873
1180.80 0.07816582
1180.90 0.07814293
1181.00 0.07812003
1181.10 0.07809715
1181.20 0.07807427
1181.30 0.0780514
1181.40 0.07802854
1181.50 0.07800568
1181.60 0.07798283
1181.70 0.07795998
1181.80 0.07793714
1181.90 0.07791431
1182.00 0.07789149
1182.10 0.07786867
1182.20 0.07784586
1182.30 0.07782305
1182.40 0.07780025
1182.50 0.07777746
1182.60 0.07775468
1182.70 0.0777319
1182.80 0.07770913
1182.90 0.07768636
1183.00 0.0776636
1183.10 0.07764085
1183.20 0.0776181
1183.30 0.07759536
1183.40 0.07757263
1183.50 0.07754991
1183.60 0.07752719
1183.70 0.07750447
1183.80 0.07748177
1183.90 0.07745907
1184.00 0.07743637
1184.10 0.07741369
1184.20 0.07739101
1184.30 0.07736833
1184.40 0.07734567
1184.50 0.07732301
1184.60 0.07730035
1184.70 0.07727771
1184.80 0.07725507
1184.90 0.07723243
1185.00 0.0772098
1185.10 0.07718718
1185.20 0.07716457
1185.30 0.07714196
1185.40 0.07711936
1185.50 0.07709702
1185.60 0.07707506
1185.70 0.07705309
1185.80 0.07703114
1185.90 0.07700919
1186.00 0.07698725
1186.10 0.07696531
1186.20 0.07694338
1186.30 0.07692146
1186.40 0.07689954
1186.50 0.07687763
1186.60 0.07685573
1186.70 0.07683383
1186.80 0.07681194
1186.90 0.07679005
1187.00 0.07676817
1187.10 0.0767463
1187.20 0.07672443
1187.30 0.07670257
1187.40 0.07668072
1187.50 0.07665887
1187.60 0.07663703
1187.70 0.07661519
1187.80 0.07659336
1187.90 0.07657154
1188.00 0.07654972
1188.10 0.07652791
1188.20 0.07650611
1188.30 0.07648431
1188.40 0.07646252
1188.50 0.07644073
1188.60 0.07641896
1188.70 0.07639718
1188.80 0.07637542
1188.90 0.07635366
1189.00 0.0763319
1189.10 0.07631015
1189.20 0.07628841
1189.30 0.07626668
1189.40 0.07624495
1189.50 0.07622322
1189.60 0.07620151
1189.70 0.0761798
1189.80 0.07615809
1189.90 0.07613639
1190.00 0.0761147
1190.10 0.07609302
1190.20 0.07607134
1190.30 0.07604966
1190.40 0.076028
1190.50 0.07600634
1190.60 0.07598468
1190.70 0.07596303
1190.80 0.07594139
1190.90 0.07591976
1191.00 0.07589813
1191.10 0.0758765
1191.20 0.07585488
1191.30 0.07583327
1191.40 0.07581159
1191.50 0.07578947
1191.60 0.07576735
1191.70 0.07574525
1191.80 0.07572314
1191.90 0.07570105
1192.00 0.07567896
1192.10 0.07565688
1192.20 0.0756348
1192.30 0.07561273
1192.40 0.07559067
1192.50 0.07556861
1192.60 0.07554656
1192.70 0.07552451
1192.80 0.07550248
1192.90 0.07548044
1193.00 0.07545842
1193.10 0.0754364
1193.20 0.07541439
1193.30 0.07539238
1193.40 0.07537038
1193.50 0.07534838
1193.60 0.0753264
1193.70 0.07530441
1193.80 0.07528244
1193.90 0.07526047
1194.00 0.07523851
1194.10 0.07521655
1194.20 0.0751946
1194.30 0.07517266
1194.40 0.07515072
1194.50 0.07512879
1194.60 0.07510686
1194.70 0.07508495
1194.80 0.07506303
1194.90 0.07504113
1195.00 0.07501923
1195.10 0.07499733
1195.20 0.07497545
1195.30 0.07495357
1195.40 0.07493169
1195.50 0.07490982
1195.60 0.07488796
1195.70 0.07486611
1195.80 0.07484426
1195.90 0.07482241
1196.00 0.07480058
1196.10 0.07477875
1196.20 0.07475692
1196.30 0.0747351
1196.40 0.07471329
1196.50 0.07469149
1196.60 0.07466969
1196.70 0.07464789
1196.80 0.07462611
1196.90 0.07460432
1197.00 0.07458255
1197.10 0.07456078
1197.20 0.07453902
1197.30 0.07451726
1197.40 0.07449605
1197.50 0.07447491
1197.60 0.07445378
1197.70 0.07443265
1197.80 0.07441153
1197.90 0.07439041
1198.00 0.07436931
1198.10 0.0743482
1198.20 0.07432711
1198.30 0.07430602
1198.40 0.07428493
1198.50 0.07426385
1198.60 0.07424278
1198.70 0.07422171
1198.80 0.07420065
1198.90 0.0741796
1199.00 0.07415855
1199.10 0.07413751
1199.20 0.07411647
1199.30 0.07409544
1199.40 0.07407442
1199.50 0.0740534
1199.60 0.07403238
1199.70 0.07401138
1199.80 0.07399038
1199.90 0.07396938
1200.00 0.07394839
