# Version 2.1 - nm, norm@500 to 1, cut digits, bergeron_He_5000_85.dat_5000
# Wavelength(nm)  Flambda(ergs/cm^s/s/nm)
300.00 0.1836721
300.10 0.1840409
300.20 0.1844072
300.30 0.1847771
300.40 0.1851735
300.50 0.1855693
300.60 0.1859645
300.70 0.1863591
300.80 0.1867532
300.90 0.1871467
301.00 0.1875397
301.10 0.1879321
301.20 0.1883239
301.30 0.1887151
301.40 0.1891059
301.50 0.189496
301.60 0.1898856
301.70 0.1902746
301.80 0.1906631
301.90 0.191051
302.00 0.1914384
302.10 0.1918404
302.20 0.1922436
302.30 0.1926463
302.40 0.1930483
302.50 0.1934498
302.60 0.1938507
302.70 0.194251
302.80 0.1946508
302.90 0.19505
303.00 0.1954486
303.10 0.1958466
303.20 0.1962441
303.30 0.196642
303.40 0.1970474
303.50 0.1974524
303.60 0.1978567
303.70 0.1982605
303.80 0.1986637
303.90 0.1990663
304.00 0.1994683
304.10 0.1998698
304.20 0.2002707
304.30 0.2006711
304.40 0.2010708
304.50 0.20147
304.60 0.2018782
304.70 0.2022868
304.80 0.2026948
304.90 0.2031022
305.00 0.2035091
305.10 0.2039154
305.20 0.2043211
305.30 0.2047263
305.40 0.2051308
305.50 0.2055348
305.60 0.2059383
305.70 0.2063411
305.80 0.2067434
305.90 0.2071451
306.00 0.2075463
306.10 0.2079468
306.20 0.2083468
306.30 0.2087463
306.40 0.2091636
306.50 0.2095858
306.60 0.2100074
306.70 0.2104285
306.80 0.2108489
306.90 0.2112687
307.00 0.211688
307.10 0.2121066
307.20 0.2125247
307.30 0.2129422
307.40 0.2133591
307.50 0.2137754
307.60 0.2141911
307.70 0.2146062
307.80 0.2150208
307.90 0.2154347
308.00 0.2158481
308.10 0.2162609
308.20 0.2166731
308.30 0.2170848
308.40 0.2174958
308.50 0.2179063
308.60 0.2183162
308.70 0.2187255
308.80 0.2191334
308.90 0.2195382
309.00 0.2199627
309.10 0.2203866
309.20 0.2208099
309.30 0.2212327
309.40 0.2216553
309.50 0.2220803
309.60 0.2225047
309.70 0.2229286
309.80 0.2233518
309.90 0.2237745
310.00 0.2241966
310.10 0.224618
310.20 0.2250389
310.30 0.2254592
310.40 0.2258894
310.50 0.2263305
310.60 0.2267708
310.70 0.2272106
310.80 0.2276498
310.90 0.2280883
311.00 0.2285127
311.10 0.2289365
311.20 0.2293598
311.30 0.2297843
311.40 0.2302139
311.50 0.2306429
311.60 0.2310713
311.70 0.231499
311.80 0.2319262
311.90 0.2323528
312.00 0.2327788
312.10 0.2332042
312.20 0.2336587
312.30 0.2340814
312.40 0.234466
312.50 0.2349156
312.60 0.2353595
312.70 0.2358027
312.80 0.2362452
312.90 0.2366862
313.00 0.2371255
313.10 0.2375642
313.20 0.2380022
313.30 0.2384406
313.40 0.238881
313.50 0.2393208
313.60 0.23976
313.70 0.2401986
313.80 0.2406366
313.90 0.2410739
314.00 0.2415107
314.10 0.2419472
314.20 0.242383
314.30 0.2428183
314.40 0.2432529
314.50 0.243687
314.60 0.2441204
314.70 0.2445533
314.80 0.2449907
314.90 0.2454271
315.00 0.2458468
315.10 0.2462897
315.20 0.246732
315.30 0.2471737
315.40 0.2476148
315.50 0.2480552
315.60 0.2484951
315.70 0.2489501
315.80 0.2494044
315.90 0.2498581
316.00 0.2503112
316.10 0.2507637
316.20 0.2512155
316.30 0.2516198
316.40 0.2520705
316.50 0.2525205
316.60 0.252923
316.70 0.2533718
316.80 0.25382
316.90 0.2542676
317.00 0.2547146
317.10 0.2551609
317.20 0.2556066
317.30 0.2560887
317.40 0.2565623
317.50 0.257013
317.60 0.257463
317.70 0.2579124
317.80 0.2583611
317.90 0.2588099
318.00 0.2592206
318.10 0.259684
318.20 0.2601468
318.30 0.2606089
318.40 0.2610644
318.50 0.2615021
318.60 0.2619633
318.70 0.2623998
318.80 0.2628404
318.90 0.2632711
319.00 0.2637741
319.10 0.2642082
319.20 0.2646444
319.30 0.2650878
319.40 0.2655305
319.50 0.2659727
319.60 0.2664707
319.70 0.2669359
319.80 0.2674005
319.90 0.2678644
320.00 0.2683111
320.10 0.2687391
320.20 0.2692282
320.30 0.2696373
320.40 0.2701002
320.50 0.2705807
320.60 0.2710532
320.70 0.2714776
320.80 0.2719233
320.90 0.2723921
321.00 0.2728603
321.10 0.2733279
321.20 0.2737438
321.30 0.2742028
321.40 0.2746613
321.50 0.2751191
321.60 0.2755763
321.70 0.2760329
321.80 0.2765111
321.90 0.2770129
322.00 0.2774464
322.10 0.2779157
322.20 0.2783845
322.30 0.2788526
322.40 0.2793201
322.50 0.2797869
322.60 0.2802531
322.70 0.2807187
322.80 0.2811357
322.90 0.2816094
323.00 0.2820825
323.10 0.2825549
323.20 0.2830267
323.30 0.2834979
323.40 0.2839684
323.50 0.2844383
323.60 0.2849075
323.70 0.2853762
323.80 0.2858441
323.90 0.2863115
324.00 0.2867805
324.10 0.2872489
324.20 0.2877167
324.30 0.288165
324.40 0.2885997
324.50 0.2890775
324.60 0.2895547
324.70 0.2900312
324.80 0.2905071
324.90 0.2909823
325.00 0.2914569
325.10 0.2919309
325.20 0.2924032
325.30 0.2928727
325.40 0.2933416
325.50 0.2938093
325.60 0.2942759
325.70 0.2947418
325.80 0.295207
325.90 0.2956734
326.00 0.2961411
326.10 0.2966081
326.20 0.2970745
326.30 0.2975356
326.40 0.2979829
326.50 0.2984616
326.60 0.2989397
326.70 0.2994171
326.80 0.2998939
326.90 0.30037
327.00 0.3008455
327.10 0.3013204
327.20 0.3017946
327.30 0.3022682
327.40 0.3027412
327.50 0.3032135
327.60 0.3036852
327.70 0.3041563
327.80 0.3046267
327.90 0.3051074
328.00 0.3055989
328.10 0.3060894
328.20 0.3065792
328.30 0.3070684
328.40 0.3075569
328.50 0.308034
328.60 0.3085079
328.70 0.3089812
328.80 0.3094561
328.90 0.3099368
329.00 0.3104168
329.10 0.3108962
329.20 0.311375
329.30 0.3118531
329.40 0.3123305
329.50 0.3128074
329.60 0.3132836
329.70 0.3137592
329.80 0.3142341
329.90 0.3147084
330.00 0.3151861
330.10 0.315668
330.20 0.3161493
330.30 0.3166299
330.40 0.3171132
330.50 0.3175993
330.60 0.3180849
330.70 0.3185697
330.80 0.3190539
330.90 0.3195375
331.00 0.3200205
331.10 0.3205027
331.20 0.3209844
331.30 0.3214654
331.40 0.3219458
331.50 0.3224311
331.60 0.3229225
331.70 0.3234133
331.80 0.3239003
331.90 0.3243866
332.00 0.3248722
332.10 0.3253571
332.20 0.3258415
332.30 0.3263251
332.40 0.3268082
332.50 0.3272906
332.60 0.3277723
332.70 0.3282534
332.80 0.3287339
332.90 0.3292138
333.00 0.329693
333.10 0.3301794
333.20 0.3306747
333.30 0.3311694
333.40 0.3316635
333.50 0.3321568
333.60 0.3326496
333.70 0.3331417
333.80 0.3336331
333.90 0.3341239
334.00 0.3346141
334.10 0.3351023
334.20 0.3355883
334.30 0.3360737
334.40 0.3365585
334.50 0.3370426
334.60 0.3375261
334.70 0.3380274
334.80 0.3385284
334.90 0.3389973
335.00 0.3394656
335.10 0.3399744
335.20 0.3404819
335.30 0.3409512
335.40 0.3414574
335.50 0.3419629
335.60 0.3424365
335.70 0.3429262
335.80 0.3434298
335.90 0.3439233
336.00 0.3444048
336.10 0.3448856
336.20 0.3453658
336.30 0.3458547
336.40 0.3463544
336.50 0.3468534
336.60 0.3473518
336.70 0.3478495
336.80 0.3483466
336.90 0.3488399
337.00 0.3493287
337.10 0.3498168
337.20 0.3503043
337.30 0.350796
337.40 0.3512939
337.50 0.3517911
337.60 0.3522877
337.70 0.3527836
337.80 0.3532789
337.90 0.3537796
338.00 0.3542871
338.10 0.3547939
338.20 0.3553
338.30 0.3558055
338.40 0.3563091
338.50 0.3568092
338.60 0.3573086
338.70 0.3578074
338.80 0.3583055
338.90 0.358803
339.00 0.3592998
339.10 0.359796
339.20 0.3602915
339.30 0.3607865
339.40 0.3612809
339.50 0.3617772
339.60 0.362276
339.70 0.362774
339.80 0.3632715
339.90 0.3637683
340.00 0.3642644
340.10 0.3647599
340.20 0.3652548
340.30 0.365749
340.40 0.3662425
340.50 0.3667355
340.60 0.3672277
340.70 0.3677194
340.80 0.368225
340.90 0.368751
341.00 0.3692651
341.10 0.3697649
341.20 0.370264
341.30 0.3707624
341.40 0.3712602
341.50 0.3717574
341.60 0.3722539
341.70 0.3727497
341.80 0.3732474
341.90 0.3737472
342.00 0.3742465
342.10 0.3747451
342.20 0.37526
342.30 0.3757545
342.40 0.3762405
342.50 0.3767461
342.60 0.377251
342.70 0.3777552
342.80 0.3782588
342.90 0.3787618
343.00 0.3792676
343.10 0.379777
343.20 0.3802858
343.30 0.380794
343.40 0.3813017
343.50 0.3818092
343.60 0.3823161
343.70 0.3828222
343.80 0.3833278
343.90 0.3838326
344.00 0.3843396
344.10 0.3848497
344.20 0.3853593
344.30 0.3858681
344.40 0.3863682
344.50 0.386856
344.60 0.3873736
344.70 0.387862
344.80 0.3883479
344.90 0.3888706
345.00 0.3893805
345.10 0.3899038
345.20 0.3904143
345.30 0.3909065
345.40 0.3913981
345.50 0.3919066
345.60 0.3924266
345.70 0.3929329
345.80 0.3934386
345.90 0.3939436
346.00 0.3944479
346.10 0.3949517
346.20 0.3954568
346.30 0.3959645
346.40 0.3964715
346.50 0.3969778
346.60 0.3974835
346.70 0.3979885
346.80 0.3984929
346.90 0.3989966
347.00 0.3994997
347.10 0.4000021
347.20 0.4005089
347.30 0.4010222
347.40 0.4015349
347.50 0.4020469
347.60 0.4025582
347.70 0.4030689
347.80 0.4035789
347.90 0.4040883
348.00 0.404597
348.10 0.4051051
348.20 0.4056126
348.30 0.4061193
348.40 0.4066255
348.50 0.4071309
348.60 0.4076358
348.70 0.4081443
348.80 0.4086568
348.90 0.4091733
349.00 0.4096892
349.10 0.4102044
349.20 0.410719
349.30 0.4112329
349.40 0.4117462
349.50 0.4122588
349.60 0.4127707
349.70 0.413282
349.80 0.4137927
349.90 0.4143027
350.00 0.414812
350.10 0.4153207
350.20 0.4158288
350.30 0.4163374
350.40 0.4168473
350.50 0.4173565
350.60 0.417865
350.70 0.4183729
350.80 0.4188802
350.90 0.4193868
351.00 0.4198927
351.10 0.4203981
351.20 0.4209027
351.30 0.4214068
351.40 0.4219141
351.50 0.422428
351.60 0.4229411
351.70 0.4234537
351.80 0.4239655
351.90 0.4244767
352.00 0.4249873
352.10 0.4254972
352.20 0.4260166
352.30 0.426534
352.40 0.4270474
352.50 0.4275602
352.60 0.4280723
352.70 0.4285837
352.80 0.4290945
352.90 0.4296047
353.00 0.4301142
353.10 0.430623
353.20 0.4311312
353.30 0.4316388
353.40 0.4321457
353.50 0.4326607
353.60 0.4331771
353.70 0.4336929
353.80 0.434208
353.90 0.4347234
354.00 0.4352396
354.10 0.4357552
354.20 0.4362702
354.30 0.4367845
354.40 0.4372981
354.50 0.4378112
354.60 0.4383235
354.70 0.4388352
354.80 0.4393474
354.90 0.4398605
355.00 0.440373
355.10 0.4408849
355.20 0.4413961
355.30 0.441907
355.40 0.4424172
355.50 0.4429268
355.60 0.4434358
355.70 0.4439488
355.80 0.4444633
355.90 0.4449882
356.00 0.4455127
356.10 0.4460317
356.20 0.44655
356.30 0.4470677
356.40 0.4475847
356.50 0.4481011
356.60 0.4486169
356.70 0.449132
356.80 0.4496464
356.90 0.4501602
357.00 0.4506733
357.10 0.4511858
357.20 0.4516977
357.30 0.4522089
357.40 0.4527203
357.50 0.4532323
357.60 0.4537437
357.70 0.4542545
357.80 0.4547674
357.90 0.4552796
358.00 0.455796
358.10 0.456313
358.20 0.4568293
358.30 0.457345
358.40 0.45786
358.50 0.4583744
358.60 0.4588881
358.70 0.4594012
358.80 0.4599136
358.90 0.4604254
359.00 0.4609307
359.10 0.4614251
359.20 0.4619227
359.30 0.462446
359.40 0.4629687
359.50 0.4634898
359.60 0.46401
359.70 0.4645296
359.80 0.4650407
359.90 0.4655511
360.00 0.4660612
360.10 0.466571
360.20 0.4670801
360.30 0.4675886
360.40 0.4680965
360.50 0.4686037
360.60 0.4691364
360.70 0.4696522
360.80 0.4701673
360.90 0.4706817
361.00 0.4711946
361.10 0.471728
361.20 0.4721946
361.30 0.4727245
361.40 0.4732249
361.50 0.4737535
361.60 0.4742944
361.70 0.4747857
361.80 0.4752878
361.90 0.4758093
362.00 0.4763301
362.10 0.4768603
362.20 0.4773829
362.30 0.477888
362.40 0.4783926
362.50 0.4788965
362.60 0.4793998
362.70 0.4799233
362.80 0.4804514
362.90 0.480967
363.00 0.481482
363.10 0.4819973
363.20 0.482512
363.30 0.4830426
363.40 0.4835589
363.50 0.4840746
363.60 0.4845541
363.70 0.4850961
363.80 0.4856177
363.90 0.4861274
364.00 0.4866365
364.10 0.487145
364.20 0.4876528
364.30 0.488169
364.40 0.4886868
364.50 0.4892038
364.60 0.4897099
364.70 0.4902154
364.80 0.4907202
364.90 0.491227
365.00 0.4917331
365.10 0.4922738
365.20 0.4927787
365.30 0.4933181
365.40 0.4938217
365.50 0.4943247
365.60 0.494827
365.70 0.4953543
365.80 0.4958809
365.90 0.4963927
366.00 0.4969003
366.10 0.4974207
366.20 0.4979404
366.30 0.4984595
366.40 0.4989779
366.50 0.4994526
366.60 0.4999561
366.70 0.5004769
366.80 0.5009971
366.90 0.5015159
367.00 0.5020325
367.10 0.5025485
367.20 0.5030639
367.30 0.5035786
367.40 0.5040927
367.50 0.504594
367.60 0.5050916
367.70 0.5056027
367.80 0.5061133
367.90 0.5066232
368.00 0.5071489
368.10 0.5076626
368.20 0.5081764
368.30 0.5086897
368.40 0.5092025
368.50 0.5097146
368.60 0.5102261
368.70 0.5107369
368.80 0.5112471
368.90 0.511784
369.00 0.5122886
369.10 0.5127726
369.20 0.5133291
369.30 0.5138314
369.40 0.5143331
369.50 0.5148342
369.60 0.5153422
369.70 0.5158495
369.80 0.5163684
369.90 0.5168868
370.00 0.5174045
370.10 0.5178894
370.20 0.5183965
370.30 0.518904
370.40 0.5194462
370.50 0.5199516
370.60 0.5204905
370.70 0.5210041
370.80 0.5215045
370.90 0.5220044
371.00 0.5225114
371.10 0.5230179
371.20 0.5235498
371.30 0.524081
371.40 0.524571
371.50 0.5250868
371.60 0.5256019
371.70 0.5261165
371.80 0.5266304
371.90 0.5271437
372.00 0.5276049
372.10 0.5281448
372.20 0.5286518
372.30 0.5291582
372.40 0.529664
372.50 0.5301691
372.60 0.5306736
372.70 0.5311775
372.80 0.5316993
372.90 0.5322204
373.00 0.5327154
373.10 0.5332094
373.20 0.5337327
373.30 0.5342554
373.40 0.5347437
373.50 0.5352651
373.60 0.5357858
373.70 0.5362723
373.80 0.5368107
373.90 0.5373107
374.00 0.537829
374.10 0.5383466
374.20 0.5388635
374.30 0.5393799
374.40 0.5398872
374.50 0.5403372
374.60 0.5408522
374.70 0.5413681
374.80 0.5418834
374.90 0.542398
375.00 0.54291
375.10 0.5434214
375.20 0.5439322
375.30 0.5444423
375.40 0.5449518
375.50 0.5454607
375.60 0.545969
375.70 0.5464767
375.80 0.5469837
375.90 0.5474901
376.00 0.547988
376.10 0.548492
376.20 0.5489954
376.30 0.5494983
376.40 0.5500005
376.50 0.5505043
376.60 0.5510111
376.70 0.5515171
376.80 0.5520243
376.90 0.5525326
377.00 0.5530403
377.10 0.5535474
377.20 0.5540543
377.30 0.554562
377.40 0.5550691
377.50 0.5555756
377.60 0.556083
377.70 0.5565899
377.80 0.5570961
377.90 0.5576018
378.00 0.5581073
378.10 0.5586179
378.20 0.5591279
378.30 0.5596373
378.40 0.5601461
378.50 0.5606542
378.60 0.5611617
378.70 0.5616687
378.80 0.562175
378.90 0.5626711
379.00 0.563149
379.10 0.5636621
379.20 0.5641745
379.30 0.5646817
379.40 0.5651837
379.50 0.5656851
379.60 0.5661949
379.70 0.5667133
379.80 0.5672147
379.90 0.5677155
380.00 0.5682157
380.10 0.5687153
380.20 0.5692143
380.30 0.5697127
380.40 0.5702105
380.50 0.5707077
380.60 0.5711936
380.70 0.5717034
380.80 0.5722126
380.90 0.5727212
381.00 0.5732291
381.10 0.5737364
381.20 0.574236
381.30 0.5747089
381.40 0.5752217
381.50 0.5757473
381.60 0.576245
381.70 0.5767092
381.80 0.5772063
381.90 0.5777088
382.00 0.5782107
382.10 0.578712
382.20 0.5792127
382.30 0.5797128
382.40 0.5802155
382.50 0.5807226
382.60 0.5812291
382.70 0.5817273
382.80 0.582223
382.90 0.5827251
383.00 0.5832265
383.10 0.5837274
383.20 0.5842293
383.30 0.5847366
383.40 0.5852471
383.50 0.5857628
383.60 0.586232
383.70 0.5867331
383.80 0.5872336
383.90 0.5877336
384.00 0.5882329
384.10 0.5887316
384.20 0.5892298
384.30 0.5897273
384.40 0.5902223
384.50 0.5907148
384.60 0.5912067
384.70 0.591698
384.80 0.5921914
384.90 0.5926963
385.00 0.593204
385.10 0.593711
385.20 0.5942071
385.30 0.5947013
385.40 0.5951991
385.50 0.5957004
385.60 0.5962011
385.70 0.5967011
385.80 0.5971935
385.90 0.5976583
386.00 0.5981379
386.10 0.5986342
386.20 0.5991507
386.30 0.5996665
386.40 0.6001266
386.50 0.6006233
386.60 0.6011275
386.70 0.6016486
386.80 0.6021221
386.90 0.6025949
387.00 0.6030907
387.10 0.6036251
387.20 0.6040898
387.30 0.6045683
387.40 0.6050973
387.50 0.6055817
387.60 0.6061033
387.70 0.6065871
387.80 0.6070704
387.90 0.6075531
388.00 0.6080357
388.10 0.6085566
388.20 0.6090182
388.30 0.6095151
388.40 0.6100115
388.50 0.6105103
388.60 0.6110012
388.70 0.6114807
388.80 0.6120077
388.90 0.6124691
389.00 0.612977
389.10 0.6134617
389.20 0.6139518
389.30 0.6144397
389.40 0.6149181
389.50 0.6154113
389.60 0.6159187
389.70 0.6163927
389.80 0.6168647
389.90 0.6173361
390.00 0.617807
390.10 0.6182773
390.20 0.618747
390.30 0.6192547
390.40 0.6198052
390.50 0.620355
390.60 0.6209042
390.70 0.6214528
390.80 0.6219151
390.90 0.6222913
391.00 0.6229356
391.10 0.6232131
391.20 0.6235392
391.30 0.624044
391.40 0.6245424
391.50 0.6250402
391.60 0.6255374
391.70 0.626034
391.80 0.6265301
391.90 0.6271795
392.00 0.6278623
392.10 0.6283352
392.20 0.6287362
392.30 0.6288308
392.40 0.6293478
392.50 0.6302134
392.60 0.6305016
392.70 0.630896
392.80 0.6314876
392.90 0.6321986
393.00 0.6325237
393.10 0.6329584
393.20 0.6335194
393.30 0.6341078
393.40 0.6346137
393.50 0.6347825
393.60 0.6355523
393.70 0.6359034
393.80 0.6364342
393.90 0.6370189
394.00 0.6375212
394.10 0.6376304
394.20 0.6382271
394.30 0.6388884
394.40 0.6392967
394.50 0.6395261
394.60 0.6402127
394.70 0.6408605
394.80 0.6413649
394.90 0.6418631
395.00 0.6422081
395.10 0.6428191
395.20 0.6433
395.30 0.6437575
395.40 0.6442144
395.50 0.6446342
395.60 0.64504
395.70 0.6454516
395.80 0.6458794
395.90 0.6463067
396.00 0.6467314
396.10 0.6471801
396.20 0.6477507
396.30 0.648482
396.40 0.6489466
396.50 0.6491195
396.60 0.6495907
396.70 0.6501739
396.80 0.6508631
396.90 0.651485
397.00 0.6517526
397.10 0.6524168
397.20 0.6525526
397.30 0.6533501
397.40 0.6537692
397.50 0.6541878
397.60 0.6546145
397.70 0.6551274
397.80 0.6556397
397.90 0.656153
398.00 0.6566701
398.10 0.6571866
398.20 0.6576472
398.30 0.6580447
398.40 0.6584472
398.50 0.6590264
398.60 0.6594052
398.70 0.6597801
398.80 0.6601722
398.90 0.6606169
399.00 0.6611595
399.10 0.6614908
399.20 0.6619702
399.30 0.6624491
399.40 0.6629275
399.50 0.6634052
399.60 0.6639311
399.70 0.6644742
399.80 0.6650168
399.90 0.6655587
400.00 0.6660873
400.10 0.6662056
400.20 0.666992
400.30 0.6673895
400.40 0.6677507
400.50 0.6685094
400.60 0.6688163
400.70 0.6693598
400.80 0.6697447
400.90 0.6701921
401.00 0.6703819
401.10 0.6711799
401.20 0.6713033
401.30 0.671966
401.40 0.6725556
401.50 0.6730835
401.60 0.6735984
401.70 0.6737107
401.80 0.6744092
401.90 0.6749316
402.00 0.6751713
402.10 0.675976
402.20 0.6762203
402.30 0.676798
402.40 0.6771039
402.50 0.677531
402.60 0.6783531
402.70 0.6785952
402.80 0.6791264
402.90 0.6795413
403.00 0.6797822
403.10 0.6801384
403.20 0.6809829
403.30 0.6815334
403.40 0.6818881
403.50 0.6822138
403.60 0.6825845
403.70 0.6833035
403.80 0.6835704
403.90 0.684213
404.00 0.6845902
404.10 0.6848264
404.20 0.6853497
404.30 0.6858723
404.40 0.6864205
404.50 0.6869159
404.60 0.6874367
404.70 0.687957
404.80 0.6882235
404.90 0.6889957
405.00 0.6891048
405.10 0.6895416
405.20 0.6900183
405.30 0.6904944
405.40 0.6910108
405.50 0.6915266
405.60 0.6920418
405.70 0.6925563
405.80 0.6930704
405.90 0.6935838
406.00 0.6940444
406.10 0.6945046
406.20 0.6949642
406.30 0.6954232
406.40 0.6958577
406.50 0.696227
406.60 0.6965932
406.70 0.6970667
406.80 0.697389
406.90 0.6981423
407.00 0.6985928
407.10 0.6990428
407.20 0.6994923
407.30 0.6999413
407.40 0.7003897
407.50 0.7008377
407.60 0.701285
407.70 0.7017319
407.80 0.7021783
407.90 0.7026189
408.00 0.702891
408.10 0.7033214
408.20 0.7038459
408.30 0.7042351
408.40 0.7046237
408.50 0.7050394
408.60 0.7054728
408.70 0.7059056
408.80 0.7063945
408.90 0.7072113
409.00 0.7076196
409.10 0.7080275
409.20 0.7084349
409.30 0.7088419
409.40 0.7092495
409.50 0.7096945
409.60 0.7101391
409.70 0.7105797
409.80 0.7110059
409.90 0.711441
410.00 0.7121786
410.10 0.7122966
410.20 0.7127399
410.30 0.713264
410.40 0.7137545
410.50 0.7141399
410.60 0.7145249
410.70 0.7149433
410.80 0.7154963
410.90 0.7160487
411.00 0.7165181
411.10 0.7169565
411.20 0.7173944
411.30 0.7178643
411.40 0.7184588
411.50 0.7188934
411.60 0.7193275
411.70 0.7197153
411.80 0.7199195
411.90 0.7202894
412.00 0.7207695
412.10 0.7213873
412.20 0.7217282
412.30 0.7221193
412.40 0.7227045
412.50 0.7230437
412.60 0.7234812
412.70 0.7239746
412.80 0.7244815
412.90 0.7248115
413.00 0.7251737
413.10 0.7255868
413.20 0.7259995
413.30 0.7264116
413.40 0.7268233
413.50 0.7273108
413.60 0.7280258
413.70 0.7284969
413.80 0.7289674
413.90 0.7294373
414.00 0.7299067
414.10 0.7303756
414.20 0.7306469
414.30 0.7308959
414.40 0.7314727
414.50 0.7318177
414.60 0.7321656
414.70 0.7326315
414.80 0.7330969
414.90 0.7335617
415.00 0.734026
415.10 0.7344898
415.20 0.7349606
415.30 0.7354546
415.40 0.7359482
415.50 0.7364391
415.60 0.7368641
415.70 0.7372887
415.80 0.7376973
415.90 0.7380569
416.00 0.738416
416.10 0.7387881
416.20 0.739213
416.30 0.7396375
416.40 0.7400615
416.50 0.7404859
416.60 0.740942
416.70 0.7414138
416.80 0.7418744
416.90 0.7423233
417.00 0.7429103
417.10 0.7432145
417.20 0.7436675
417.30 0.7441185
417.40 0.7445238
417.50 0.7449285
417.60 0.7453647
417.70 0.7459244
417.80 0.7463743
417.90 0.7468236
418.00 0.7472724
418.10 0.7477207
418.20 0.7481684
418.30 0.7486119
418.40 0.7489518
418.50 0.7493507
418.60 0.7497491
418.70 0.750147
418.80 0.7505444
418.90 0.7509414
419.00 0.7513379
419.10 0.751734
419.20 0.7521296
419.30 0.7525247
419.40 0.7529204
419.50 0.7533157
419.60 0.7537398
419.70 0.7542811
419.80 0.7548218
419.90 0.7553338
420.00 0.7557561
420.10 0.756178
420.20 0.7565994
420.30 0.7570203
420.40 0.7574408
420.50 0.7578607
420.60 0.7582802
420.70 0.7586991
420.80 0.7591176
420.90 0.7595351
421.00 0.7599366
421.10 0.7603376
421.20 0.7607365
421.30 0.7611301
421.40 0.7615232
421.50 0.7619158
421.60 0.762308
421.70 0.7626997
421.80 0.763091
421.90 0.7634873
422.00 0.7639009
422.10 0.7643253
422.20 0.7647941
422.30 0.7652624
422.40 0.7657284
422.50 0.7661367
422.60 0.7665446
422.70 0.7669521
422.80 0.767359
422.90 0.7677655
423.00 0.7681715
423.10 0.7685771
423.20 0.7689822
423.30 0.7693868
423.40 0.7697909
423.50 0.7701946
423.60 0.7705978
423.70 0.7710006
423.80 0.7714028
423.90 0.7718046
424.00 0.772206
424.10 0.7726069
424.20 0.7730073
424.30 0.7734072
424.40 0.7741668
424.50 0.774539
424.60 0.7749107
424.70 0.775282
424.80 0.7756528
424.90 0.7760233
425.00 0.7763932
425.10 0.7767628
425.20 0.7771319
425.30 0.7775006
425.40 0.7778762
425.50 0.7783005
425.60 0.7787244
425.70 0.7791478
425.80 0.7795707
425.90 0.7799931
426.00 0.7804151
426.10 0.7808365
426.20 0.7812575
426.30 0.781678
426.40 0.782098
426.50 0.7825176
426.60 0.7829366
426.70 0.7833552
426.80 0.7837733
426.90 0.7841902
427.00 0.7845835
427.10 0.7849763
427.20 0.7853686
427.30 0.7857605
427.40 0.786152
427.50 0.786543
427.60 0.7869335
427.70 0.7873236
427.80 0.7877133
427.90 0.7881025
428.00 0.7884912
428.10 0.7888795
428.20 0.7892673
428.30 0.7896547
428.40 0.7900417
428.50 0.7904282
428.60 0.7908142
428.70 0.7911998
428.80 0.7915865
428.90 0.7919933
429.00 0.7923996
429.10 0.7928054
429.20 0.7932108
429.30 0.7936157
429.40 0.7940202
429.50 0.7944242
429.60 0.7948277
429.70 0.7952308
429.80 0.7956334
429.90 0.7960355
430.00 0.7964372
430.10 0.7968384
430.20 0.7972392
430.30 0.7976395
430.40 0.7980393
430.50 0.7984387
430.60 0.7988376
430.70 0.7992361
430.80 0.7996341
430.90 0.8000317
431.00 0.8004288
431.10 0.8008254
431.20 0.8012216
431.30 0.8016184
431.40 0.8020289
431.50 0.8024388
431.60 0.8028483
431.70 0.8032573
431.80 0.8036659
431.90 0.804074
432.00 0.8044816
432.10 0.8048888
432.20 0.8052955
432.30 0.8057018
432.40 0.8061076
432.50 0.8065129
432.60 0.8069177
432.70 0.8073222
432.80 0.8077261
432.90 0.8081296
433.00 0.8085326
433.10 0.8089352
433.20 0.8093373
433.30 0.8097377
433.40 0.8101215
433.50 0.8105048
433.60 0.8108877
433.70 0.8112702
433.80 0.8115574
433.90 0.8117284
434.00 0.8120313
434.10 0.8124149
434.20 0.812798
434.30 0.8131806
434.40 0.8135628
434.50 0.8139446
434.60 0.8143259
434.70 0.8147068
434.80 0.8150891
434.90 0.8154953
435.00 0.8159011
435.10 0.8163063
435.20 0.8167112
435.30 0.8171155
435.40 0.8175194
435.50 0.8179229
435.60 0.8183259
435.70 0.8187284
435.80 0.8191305
435.90 0.8195321
436.00 0.8199333
436.10 0.820334
436.20 0.8207343
436.30 0.8211066
436.40 0.8214451
436.50 0.8217868
436.60 0.822128
436.70 0.8224689
436.80 0.8228094
436.90 0.8231494
437.00 0.8234891
437.10 0.8238284
437.20 0.8242121
437.30 0.8246369
437.40 0.8250566
437.50 0.8254153
437.60 0.8257736
437.70 0.8261315
437.80 0.8264889
437.90 0.826846
438.00 0.8272035
438.10 0.8275729
438.20 0.8279417
438.30 0.8285601
438.40 0.8286422
438.50 0.8292409
438.60 0.8297707
438.70 0.8298804
438.80 0.8302763
438.90 0.8305865
439.00 0.8312337
439.10 0.8315857
439.20 0.8319372
439.30 0.8322883
439.40 0.832639
439.50 0.8329893
439.60 0.83335
439.70 0.8336308
439.80 0.8338504
439.90 0.8342468
440.00 0.8346428
440.10 0.8350383
440.20 0.8354334
440.30 0.8358289
440.40 0.836224
440.50 0.8366186
440.60 0.8370127
440.70 0.8374065
440.80 0.8377998
440.90 0.8381926
441.00 0.838585
441.10 0.8389769
441.20 0.8393561
441.30 0.839571
441.40 0.8398879
441.50 0.8403295
441.60 0.8407707
441.70 0.8407842
441.80 0.8411381
441.90 0.8414915
442.00 0.8418446
442.10 0.8421972
442.20 0.8425495
442.30 0.8429013
442.40 0.843277
442.50 0.8436821
442.60 0.8440866
442.70 0.8444648
442.80 0.8448152
442.90 0.8453202
443.00 0.8457606
443.10 0.8461222
443.20 0.8464573
443.30 0.846768
443.40 0.8470891
443.50 0.8474232
443.60 0.847912
443.70 0.8480068
443.80 0.8485782
443.90 0.8489702
444.00 0.8490879
444.10 0.8494197
444.20 0.8499058
444.30 0.8500497
444.40 0.8503931
444.50 0.850736
444.60 0.8510845
444.70 0.8514398
444.80 0.8518356
444.90 0.8522686
445.00 0.8527011
445.10 0.8531331
445.20 0.8535216
445.30 0.8538569
445.40 0.8541919
445.50 0.8545265
445.60 0.8548607
445.70 0.8551945
445.80 0.8555173
445.90 0.8558298
446.00 0.8561419
446.10 0.8564537
446.20 0.8569239
446.30 0.8570713
446.40 0.8575274
446.50 0.8579675
446.60 0.8584072
446.70 0.8588464
446.80 0.8592239
446.90 0.8595447
447.00 0.8596394
447.10 0.8599595
447.20 0.8602792
447.30 0.8606924
447.40 0.8611427
447.50 0.8614612
447.60 0.8617344
447.70 0.8619659
447.80 0.8623767
447.90 0.8627192
448.00 0.8630886
448.10 0.8634828
448.20 0.8638766
448.30 0.8642699
448.40 0.8646628
448.50 0.8650552
448.60 0.86534
448.70 0.8655254
448.80 0.8657271
448.90 0.8661483
449.00 0.866569
449.10 0.8669892
449.20 0.8674091
449.30 0.867466
449.40 0.8678298
449.50 0.8681933
449.60 0.8685522
449.70 0.8689068
449.80 0.8692611
449.90 0.869615
450.00 0.8699684
450.10 0.8703215
450.20 0.8706742
450.30 0.8710265
450.40 0.871334
450.50 0.8716412
450.60 0.871948
450.70 0.8722545
450.80 0.8725606
450.90 0.8728664
451.00 0.8732239
451.10 0.8735811
451.20 0.8739992
451.30 0.8740859
451.40 0.8746203
451.50 0.8751541
451.60 0.875227
451.70 0.8755298
451.80 0.8760623
451.90 0.8763643
452.00 0.8766659
452.10 0.8769672
452.20 0.8772682
452.30 0.8775688
452.40 0.877869
452.50 0.8781689
452.60 0.87871
452.70 0.8791366
452.80 0.8794576
452.90 0.8797782
453.00 0.8800984
453.10 0.8804183
453.20 0.8807277
453.30 0.8810368
453.40 0.8813456
453.50 0.881654
453.60 0.881962
453.70 0.8822697
453.80 0.8825611
453.90 0.8828328
454.00 0.8831041
454.10 0.8833751
454.20 0.8837337
454.30 0.8840919
454.40 0.8844496
454.50 0.884807
454.60 0.885164
454.70 0.8854918
454.80 0.8857929
454.90 0.8860936
455.00 0.886394
455.10 0.886694
455.20 0.8869936
455.30 0.887293
455.40 0.8875919
455.50 0.8878905
455.60 0.8881888
455.70 0.8884867
455.80 0.8888239
455.90 0.8891607
456.00 0.8894972
456.10 0.8898299
456.20 0.8901533
456.30 0.8904763
456.40 0.890799
456.50 0.8911213
456.60 0.8914433
456.70 0.8917648
456.80 0.892086
456.90 0.8924069
457.00 0.8927273
457.10 0.8930474
457.20 0.893447
457.30 0.8937475
457.40 0.8940477
457.50 0.8943476
457.60 0.8946471
457.70 0.8949462
457.80 0.895245
457.90 0.8955435
458.00 0.8958416
458.10 0.8961394
458.20 0.8964368
458.30 0.8967339
458.40 0.8970306
458.50 0.897327
458.60 0.897623
458.70 0.8979303
458.80 0.898242
458.90 0.8985534
459.00 0.8988644
459.10 0.899175
459.20 0.8994853
459.30 0.899808
459.40 0.9001304
459.50 0.9004524
459.60 0.9007741
459.70 0.9010954
459.80 0.9014163
459.90 0.9017369
460.00 0.9020571
460.10 0.9023769
460.20 0.9026964
460.30 0.9030155
460.40 0.9033342
460.50 0.9036526
460.60 0.9039707
460.70 0.9042907
460.80 0.9046114
460.90 0.9049319
461.00 0.9052519
461.10 0.9055716
461.20 0.9058777
461.30 0.9061781
461.40 0.906481
461.50 0.9067843
461.60 0.9070872
461.70 0.9073898
461.80 0.9076748
461.90 0.9079593
462.00 0.9082436
462.10 0.9085275
462.20 0.9088111
462.30 0.9090943
462.40 0.9093772
462.50 0.9096598
462.60 0.9099421
462.70 0.910224
462.80 0.9105056
462.90 0.9107869
463.00 0.9110678
463.10 0.9113485
463.20 0.911645
463.30 0.9119479
463.40 0.9122504
463.50 0.9125526
463.60 0.9128544
463.70 0.9131559
463.80 0.913457
463.90 0.913763
464.00 0.91407
464.10 0.9143767
464.20 0.914683
464.30 0.9149889
464.40 0.9152945
464.50 0.9155998
464.60 0.9159047
464.70 0.9161679
464.80 0.9164139
464.90 0.9166597
465.00 0.9169051
465.10 0.9171502
465.20 0.9173951
465.30 0.917705
465.40 0.9180581
465.50 0.9184108
465.60 0.9187631
465.70 0.919115
465.80 0.9194665
465.90 0.9197287
466.00 0.9199683
466.10 0.9202077
466.20 0.9204467
466.30 0.9207262
466.40 0.9210221
466.50 0.9213176
466.60 0.9216128
466.70 0.9219076
466.80 0.9222021
466.90 0.9224963
467.00 0.9227901
467.10 0.9230836
467.20 0.9233768
467.30 0.9235166
467.40 0.9237564
467.50 0.9240365
467.60 0.9243162
467.70 0.9245957
467.80 0.9248748
467.90 0.9252079
468.00 0.9255628
468.10 0.9259172
468.20 0.9262714
468.30 0.9265491
468.40 0.9267955
468.50 0.9269175
468.60 0.927154
468.70 0.927505
468.80 0.9276462
468.90 0.9279013
469.00 0.9282261
469.10 0.9285876
469.20 0.9289382
469.30 0.9292884
469.40 0.9296383
469.50 0.9299157
469.60 0.9301635
469.70 0.9304109
469.80 0.930658
469.90 0.9308535
470.00 0.9310813
470.10 0.9314028
470.20 0.9316987
470.30 0.9319942
470.40 0.9322894
470.50 0.9325842
470.60 0.9328348
470.70 0.9330742
470.80 0.9333133
470.90 0.9335521
471.00 0.933904
471.10 0.9340628
471.20 0.9341822
471.30 0.9347369
471.40 0.9350799
471.50 0.9353168
471.60 0.9356379
471.70 0.9358742
471.80 0.9361103
471.90 0.936346
472.00 0.9365815
472.10 0.9368167
472.20 0.9370758
472.30 0.9373406
472.40 0.9376051
472.50 0.9378693
472.60 0.9381332
472.70 0.9382557
472.80 0.9384888
472.90 0.9387637
473.00 0.9390383
473.10 0.9393126
473.20 0.9395866
473.30 0.9398602
473.40 0.9401336
473.50 0.9404066
473.60 0.9406793
473.70 0.9409517
473.80 0.9412611
473.90 0.9415795
474.00 0.9418975
474.10 0.9422151
474.20 0.9424742
474.30 0.9427093
474.40 0.942944
474.50 0.9431785
474.60 0.9434176
474.70 0.943706
474.80 0.9439942
474.90 0.944282
475.00 0.9445695
475.10 0.9448566
475.20 0.9451435
475.30 0.94543
475.40 0.945662
475.50 0.9458803
475.60 0.9460983
475.70 0.9463161
475.80 0.9465336
475.90 0.9467508
476.00 0.9469677
476.10 0.9471844
476.20 0.9474328
476.30 0.9476939
476.40 0.9479546
476.50 0.9482151
476.60 0.9484753
476.70 0.9487352
476.80 0.9489947
476.90 0.9492577
477.00 0.9495213
477.10 0.9497846
477.20 0.9500476
477.30 0.9503102
477.40 0.9505726
477.50 0.9508347
477.60 0.9510964
477.70 0.9513579
477.80 0.9516191
477.90 0.9518799
478.00 0.9521405
478.10 0.9524008
478.20 0.9526607
478.30 0.9529204
478.40 0.9531797
478.50 0.9534388
478.60 0.9536975
478.70 0.9539466
478.80 0.9541915
478.90 0.9544284
479.00 0.9546632
479.10 0.9548977
479.20 0.9551319
479.30 0.9553659
479.40 0.9556101
479.50 0.9558601
479.60 0.9561099
479.70 0.9563593
479.80 0.9566085
479.90 0.9568574
480.00 0.957106
480.10 0.9573543
480.20 0.9576023
480.30 0.9578501
480.40 0.9580975
480.50 0.9583446
480.60 0.9585915
480.70 0.9588381
480.80 0.9590844
480.90 0.9593304
481.00 0.9595761
481.10 0.9598215
481.20 0.9600533
481.30 0.9602848
481.40 0.9605161
481.50 0.9607471
481.60 0.9609778
481.70 0.9612083
481.80 0.9614384
481.90 0.9616683
482.00 0.9618979
482.10 0.9621273
482.20 0.9623566
482.30 0.9625887
482.40 0.9628206
482.50 0.9630522
482.60 0.9632835
482.70 0.9635145
482.80 0.9637453
482.90 0.9639757
483.00 0.964206
483.10 0.9644359
483.20 0.9646656
483.30 0.964895
483.40 0.9651241
483.50 0.9653529
483.60 0.9655815
483.70 0.9658638
483.80 0.9661458
483.90 0.9664274
484.00 0.9667088
484.10 0.9669898
484.20 0.9671928
484.30 0.9673623
484.40 0.9675315
484.50 0.9677005
484.60 0.9678694
484.70 0.9680445
484.80 0.9683058
484.90 0.9685669
485.00 0.9688277
485.10 0.9690882
485.20 0.9693484
485.30 0.9696083
485.40 0.9698679
485.50 0.9701272
485.60 0.9703862
485.70 0.9706057
485.80 0.970825
485.90 0.971044
486.00 0.9712627
486.10 0.9714812
486.20 0.9716994
486.30 0.9719174
486.40 0.9721351
486.50 0.9723525
486.60 0.9725697
486.70 0.9727843
486.80 0.9729688
486.90 0.9731531
487.00 0.9733371
487.10 0.9735209
487.20 0.9737728
487.30 0.9740244
487.40 0.9742756
487.50 0.9745266
487.60 0.9747773
487.70 0.9750277
487.80 0.9752779
487.90 0.9755277
488.00 0.9757773
488.10 0.9760265
488.20 0.9762736
488.30 0.9764952
488.40 0.9767165
488.50 0.9769375
488.60 0.9771582
488.70 0.9773787
488.80 0.9775568
488.90 0.9777346
489.00 0.9779167
489.10 0.9781099
489.20 0.9783029
489.30 0.9784957
489.40 0.9786882
489.50 0.9788805
489.60 0.9790725
489.70 0.9792643
489.80 0.9796905
489.90 0.9799079
490.00 0.9801251
490.10 0.980342
490.20 0.9805586
490.30 0.980775
490.40 0.9809607
490.50 0.9811461
490.60 0.9813314
490.70 0.9815164
490.80 0.9815572
490.90 0.9818857
491.00 0.98207
491.10 0.9824487
491.20 0.9824379
491.30 0.9826215
491.40 0.9830247
491.50 0.982988
491.60 0.983531
491.70 0.9836488
491.80 0.983781
491.90 0.9841064
492.00 0.9841622
492.10 0.9843438
492.20 0.9846851
492.30 0.9848324
492.40 0.9852323
492.50 0.985194
492.60 0.9856086
492.70 0.9857887
492.80 0.9859687
492.90 0.9861483
493.00 0.9863299
493.10 0.9865392
493.20 0.9867483
493.30 0.9869571
493.40 0.9871657
493.50 0.987374
493.60 0.9874097
493.70 0.9877285
493.80 0.9880469
493.90 0.9883025
494.00 0.98846
494.10 0.9886265
494.20 0.9888123
494.30 0.9889978
494.40 0.9891832
494.50 0.9893682
494.60 0.9895567
494.70 0.9897926
494.80 0.9900159
494.90 0.9902038
495.00 0.9903915
495.10 0.990579
495.20 0.9907723
495.30 0.9909654
495.40 0.9911582
495.50 0.9913508
495.60 0.9915431
495.70 0.9917353
495.80 0.9919272
495.90 0.9921188
496.00 0.9923102
496.10 0.9925076
496.20 0.9927144
496.30 0.9928763
496.40 0.9930381
496.50 0.9931996
496.60 0.993361
496.70 0.9935822
496.80 0.9938031
496.90 0.9940238
497.00 0.9942442
497.10 0.9944644
497.20 0.9946843
497.30 0.9949107
497.40 0.9951561
497.50 0.9954013
497.60 0.9955369
497.70 0.9954628
497.80 0.9956895
497.90 0.995916
498.00 0.9961422
498.10 0.9963682
498.20 0.9965939
498.30 0.9968193
498.40 0.9970445
498.50 0.9972694
498.60 0.997494
498.70 0.9976603
498.80 0.9978264
498.90 0.997939
499.00 0.9980514
499.10 0.9981637
499.20 0.9983394
499.30 0.998629
499.40 0.9988581
499.50 0.9990869
499.60 0.9993155
499.70 0.9995386
499.80 0.9996926
499.90 0.9998464
500.00 1
500.10 1.000153
500.20 1.00031
500.30 1.000473
500.40 1.000635
500.50 1.000798
500.60 1.00096
500.70 1.001122
500.80 1.001321
500.90 1.001597
501.00 1.001873
501.10 1.002149
501.20 1.002303
501.30 1.002463
501.40 1.002444
501.50 1.002791
501.60 1.002727
501.70 1.003111
501.80 1.003263
501.90 1.003423
502.00 1.003615
502.10 1.003877
502.20 1.004123
502.30 1.004148
502.40 1.004236
502.50 1.004456
502.60 1.004676
502.70 1.004896
502.80 1.005115
502.90 1.005334
503.00 1.005531
503.10 1.005679
503.20 1.005827
503.30 1.005976
503.40 1.006121
503.50 1.006258
503.60 1.006395
503.70 1.006532
503.80 1.006678
503.90 1.006895
504.00 1.007089
504.10 1.007236
504.20 1.007382
504.30 1.007528
504.40 1.007724
504.50 1.008062
504.60 1.008209
504.70 1.008233
504.80 1.008451
504.90 1.00854
505.00 1.008965
505.10 1.009117
505.20 1.009272
505.30 1.009433
505.40 1.009593
505.50 1.009753
505.60 1.009909
505.70 1.010055
505.80 1.0102
505.90 1.010346
506.00 1.010491
506.10 1.010636
506.20 1.010789
506.30 1.010963
506.40 1.011138
506.50 1.011312
506.60 1.011485
506.70 1.011659
506.80 1.011832
506.90 1.012005
507.00 1.012178
507.10 1.012388
507.20 1.012641
507.30 1.012789
507.40 1.012937
507.50 1.013085
507.60 1.013232
507.70 1.013379
507.80 1.013527
507.90 1.013673
508.00 1.01382
508.10 1.013967
508.20 1.014113
508.30 1.014259
508.40 1.014405
508.50 1.014551
508.60 1.014696
508.70 1.014842
508.80 1.015027
508.90 1.015253
509.00 1.015453
509.10 1.015644
509.20 1.015816
509.30 1.015987
509.40 1.016158
509.50 1.016329
509.60 1.0165
509.70 1.016671
509.80 1.016841
509.90 1.017011
510.00 1.017181
510.10 1.017351
510.20 1.01752
510.30 1.01768
510.40 1.01781
510.50 1.01794
510.60 1.018071
510.70 1.0182
510.80 1.01833
510.90 1.01846
511.00 1.018589
511.10 1.018718
511.20 1.018848
511.30 1.018976
511.40 1.019105
511.50 1.019234
511.60 1.019372
511.70 1.019533
511.80 1.019693
511.90 1.019853
512.00 1.020012
512.10 1.020172
512.20 1.020331
512.30 1.020487
512.40 1.020634
512.50 1.020781
512.60 1.020927
512.70 1.021074
512.80 1.02122
512.90 1.021366
513.00 1.021511
513.10 1.021657
513.20 1.021802
513.30 1.021947
513.40 1.022092
513.50 1.022237
513.60 1.022382
513.70 1.022526
513.80 1.02267
513.90 1.022814
514.00 1.022968
514.10 1.023123
514.20 1.023278
514.30 1.023433
514.40 1.023587
514.50 1.023741
514.60 1.023895
514.70 1.024049
514.80 1.024203
514.90 1.024356
515.00 1.024509
515.10 1.024662
515.20 1.024815
515.30 1.024968
515.40 1.02512
515.50 1.025273
515.60 1.025425
515.70 1.025577
515.80 1.025728
515.90 1.02588
516.00 1.026031
516.10 1.026182
516.20 1.026333
516.30 1.026484
516.40 1.026634
516.50 1.026782
516.60 1.026919
516.70 1.027055
516.80 1.027192
516.90 1.027328
517.00 1.027464
517.10 1.027599
517.20 1.027735
517.30 1.02787
517.40 1.028006
517.50 1.028141
517.60 1.028275
517.70 1.02841
517.80 1.028544
517.90 1.028679
518.00 1.028813
518.10 1.028947
518.20 1.029081
518.30 1.029214
518.40 1.029347
518.50 1.029481
518.60 1.029614
518.70 1.029747
518.80 1.029879
518.90 1.030012
519.00 1.030144
519.10 1.030274
519.20 1.0304
519.30 1.030527
519.40 1.030653
519.50 1.030779
519.60 1.030905
519.70 1.03103
519.80 1.031156
519.90 1.031281
520.00 1.031406
520.10 1.031531
520.20 1.031656
520.30 1.031781
520.40 1.031905
520.50 1.03203
520.60 1.032154
520.70 1.032278
520.80 1.032401
520.90 1.032525
521.00 1.032649
521.10 1.032772
521.20 1.032895
521.30 1.033018
521.40 1.033141
521.50 1.033263
521.60 1.033386
521.70 1.033508
521.80 1.03363
521.90 1.033752
522.00 1.033874
522.10 1.033995
522.20 1.034117
522.30 1.034238
522.40 1.034359
522.50 1.03448
522.60 1.034601
522.70 1.034721
522.80 1.034842
522.90 1.034962
523.00 1.035082
523.10 1.035202
523.20 1.035321
523.30 1.035441
523.40 1.03556
523.50 1.03568
523.60 1.035799
523.70 1.035918
523.80 1.036036
523.90 1.036155
524.00 1.036273
524.10 1.036392
524.20 1.03651
524.30 1.036628
524.40 1.036748
524.50 1.036867
524.60 1.036986
524.70 1.037104
524.80 1.037223
524.90 1.037341
525.00 1.03746
525.10 1.037578
525.20 1.037696
525.30 1.037813
525.40 1.037931
525.50 1.038049
525.60 1.038166
525.70 1.038283
525.80 1.0384
525.90 1.038517
526.00 1.038633
526.10 1.03875
526.20 1.038866
526.30 1.038982
526.40 1.039098
526.50 1.039214
526.60 1.03933
526.70 1.039445
526.80 1.03956
526.90 1.039675
527.00 1.03979
527.10 1.039905
527.20 1.04002
527.30 1.040134
527.40 1.040249
527.50 1.040363
527.60 1.040477
527.70 1.040591
527.80 1.040705
527.90 1.040818
528.00 1.040931
528.10 1.041045
528.20 1.041158
528.30 1.041271
528.40 1.041383
528.50 1.041496
528.60 1.041608
528.70 1.041721
528.80 1.041833
528.90 1.041945
529.00 1.042056
529.10 1.042168
529.20 1.042279
529.30 1.042391
529.40 1.042502
529.50 1.042611
529.60 1.042711
529.70 1.04281
529.80 1.042909
529.90 1.043008
530.00 1.043107
530.10 1.043205
530.20 1.043304
530.30 1.043402
530.40 1.0435
530.50 1.043598
530.60 1.043696
530.70 1.043794
530.80 1.043891
530.90 1.043989
531.00 1.044086
531.10 1.044183
531.20 1.04428
531.30 1.044377
531.40 1.044474
531.50 1.04457
531.60 1.044667
531.70 1.044763
531.80 1.044859
531.90 1.044955
532.00 1.045051
532.10 1.045146
532.20 1.04525
532.30 1.045358
532.40 1.045466
532.50 1.045574
532.60 1.045682
532.70 1.045789
532.80 1.045896
532.90 1.046004
533.00 1.046111
533.10 1.046217
533.20 1.046324
533.30 1.046431
533.40 1.046537
533.50 1.046643
533.60 1.046749
533.70 1.046855
533.80 1.046961
533.90 1.047067
534.00 1.047172
534.10 1.047277
534.20 1.047383
534.30 1.047488
534.40 1.047592
534.50 1.047697
534.60 1.047802
534.70 1.047906
534.80 1.048007
534.90 1.048094
535.00 1.048181
535.10 1.048267
535.20 1.048354
535.30 1.04844
535.40 1.048526
535.50 1.048612
535.60 1.048698
535.70 1.048784
535.80 1.048869
535.90 1.048955
536.00 1.04904
536.10 1.049125
536.20 1.04921
536.30 1.049295
536.40 1.04938
536.50 1.049464
536.60 1.049549
536.70 1.049633
536.80 1.049717
536.90 1.049802
537.00 1.049885
537.10 1.049969
537.20 1.050053
537.30 1.050136
537.40 1.05022
537.50 1.050303
537.60 1.050386
537.70 1.050469
537.80 1.050552
537.90 1.050635
538.00 1.050718
538.10 1.0508
538.20 1.050882
538.30 1.050965
538.40 1.051047
538.50 1.051129
538.60 1.05121
538.70 1.051292
538.80 1.051374
538.90 1.051455
539.00 1.051536
539.10 1.051617
539.20 1.051698
539.30 1.051779
539.40 1.05186
539.50 1.051941
539.60 1.052021
539.70 1.052101
539.80 1.052182
539.90 1.052262
540.00 1.052342
540.10 1.052421
540.20 1.052498
540.30 1.052573
540.40 1.052648
540.50 1.052722
540.60 1.052797
540.70 1.052871
540.80 1.052946
540.90 1.05302
541.00 1.053094
541.10 1.053168
541.20 1.053242
541.30 1.053315
541.40 1.053389
541.50 1.053462
541.60 1.053536
541.70 1.053609
541.80 1.053682
541.90 1.053755
542.00 1.053827
542.10 1.0539
542.20 1.053973
542.30 1.054045
542.40 1.054117
542.50 1.05419
542.60 1.054262
542.70 1.054334
542.80 1.054405
542.90 1.054477
543.00 1.054549
543.10 1.05462
543.20 1.054691
543.30 1.054763
543.40 1.054834
543.50 1.054904
543.60 1.054975
543.70 1.055046
543.80 1.055117
543.90 1.055187
544.00 1.055257
544.10 1.055327
544.20 1.055398
544.30 1.055468
544.40 1.055537
544.50 1.055607
544.60 1.055677
544.70 1.055746
544.80 1.055815
544.90 1.055885
545.00 1.055954
545.10 1.056023
545.20 1.056092
545.30 1.05616
545.40 1.056229
545.50 1.056297
545.60 1.056371
545.70 1.056446
545.80 1.056521
545.90 1.056596
546.00 1.056671
546.10 1.056745
546.20 1.05682
546.30 1.056894
546.40 1.056969
546.50 1.057043
546.60 1.057117
546.70 1.057191
546.80 1.057265
546.90 1.057338
547.00 1.057412
547.10 1.057485
547.20 1.057559
547.30 1.057632
547.40 1.057705
547.50 1.057778
547.60 1.057851
547.70 1.057924
547.80 1.057996
547.90 1.058069
548.00 1.058141
548.10 1.058213
548.20 1.058285
548.30 1.058353
548.40 1.058413
548.50 1.058474
548.60 1.058534
548.70 1.058594
548.80 1.058654
548.90 1.058714
549.00 1.058774
549.10 1.058834
549.20 1.058893
549.30 1.058953
549.40 1.059012
549.50 1.059072
549.60 1.059131
549.70 1.05919
549.80 1.059249
549.90 1.059308
550.00 1.059367
550.10 1.059425
550.20 1.059484
550.30 1.059542
550.40 1.059601
550.50 1.059659
550.60 1.059717
550.70 1.059775
550.80 1.059833
550.90 1.05989
551.00 1.059947
551.10 1.06
551.20 1.060053
551.30 1.060106
551.40 1.060159
551.50 1.060211
551.60 1.060264
551.70 1.060316
551.80 1.060368
551.90 1.060421
552.00 1.060473
552.10 1.060525
552.20 1.060576
552.30 1.060628
552.40 1.06068
552.50 1.060731
552.60 1.060783
552.70 1.060834
552.80 1.060885
552.90 1.060936
553.00 1.060987
553.10 1.061038
553.20 1.061089
553.30 1.06114
553.40 1.06119
553.50 1.061241
553.60 1.061291
553.70 1.061341
553.80 1.061385
553.90 1.061424
554.00 1.061462
554.10 1.061501
554.20 1.06154
554.30 1.061578
554.40 1.061617
554.50 1.061655
554.60 1.061693
554.70 1.061731
554.80 1.061769
554.90 1.061807
555.00 1.061845
555.10 1.061883
555.20 1.061921
555.30 1.061958
555.40 1.061996
555.50 1.062033
555.60 1.06207
555.70 1.062108
555.80 1.062145
555.90 1.062182
556.00 1.062219
556.10 1.062255
556.20 1.062292
556.30 1.062329
556.40 1.062365
556.50 1.062402
556.60 1.062445
556.70 1.062488
556.80 1.062531
556.90 1.062574
557.00 1.062616
557.10 1.062659
557.20 1.062702
557.30 1.062744
557.40 1.062786
557.50 1.062828
557.60 1.062871
557.70 1.062913
557.80 1.062954
557.90 1.062996
558.00 1.063038
558.10 1.06308
558.20 1.063121
558.30 1.063163
558.40 1.063204
558.50 1.063245
558.60 1.063286
558.70 1.063327
558.80 1.063368
558.90 1.063409
559.00 1.06345
559.10 1.06349
559.20 1.063531
559.30 1.063571
559.40 1.063612
559.50 1.063652
559.60 1.063692
559.70 1.063732
559.80 1.063772
559.90 1.063812
560.00 1.063852
560.10 1.063891
560.20 1.063931
560.30 1.06397
560.40 1.06401
560.50 1.064049
560.60 1.064088
560.70 1.064127
560.80 1.064166
560.90 1.064205
561.00 1.064244
561.10 1.064283
561.20 1.064321
561.30 1.06436
561.40 1.064398
561.50 1.064437
561.60 1.064475
561.70 1.064513
561.80 1.064551
561.90 1.064589
562.00 1.064627
562.10 1.064663
562.20 1.064696
562.30 1.06473
562.40 1.064763
562.50 1.064796
562.60 1.064829
562.70 1.064862
562.80 1.064895
562.90 1.064928
563.00 1.064961
563.10 1.064993
563.20 1.065026
563.30 1.065058
563.40 1.065091
563.50 1.065123
563.60 1.065155
563.70 1.065187
563.80 1.065219
563.90 1.065251
564.00 1.065283
564.10 1.065315
564.20 1.065346
564.30 1.065378
564.40 1.065409
564.50 1.065441
564.60 1.065472
564.70 1.065503
564.80 1.065534
564.90 1.065562
565.00 1.065583
565.10 1.065603
565.20 1.065624
565.30 1.065644
565.40 1.065665
565.50 1.065685
565.60 1.065705
565.70 1.065725
565.80 1.065745
565.90 1.065765
566.00 1.065785
566.10 1.065804
566.20 1.065824
566.30 1.065843
566.40 1.065863
566.50 1.065882
566.60 1.065902
566.70 1.065921
566.80 1.06594
566.90 1.065959
567.00 1.065978
567.10 1.065997
567.20 1.066016
567.30 1.066035
567.40 1.066053
567.50 1.066072
567.60 1.06609
567.70 1.066109
567.80 1.066129
567.90 1.066148
568.00 1.066167
568.10 1.066187
568.20 1.066206
568.30 1.066225
568.40 1.066244
568.50 1.066263
568.60 1.066282
568.70 1.066301
568.80 1.06632
568.90 1.066338
569.00 1.066357
569.10 1.066375
569.20 1.066394
569.30 1.066412
569.40 1.06643
569.50 1.066449
569.60 1.066467
569.70 1.066485
569.80 1.066503
569.90 1.066521
570.00 1.066538
570.10 1.066556
570.20 1.066574
570.30 1.066591
570.40 1.066609
570.50 1.066626
570.60 1.066644
570.70 1.066661
570.80 1.066678
570.90 1.066695
571.00 1.066712
571.10 1.066729
571.20 1.066746
571.30 1.066763
571.40 1.066779
571.50 1.066796
571.60 1.066813
571.70 1.066829
571.80 1.066846
571.90 1.066862
572.00 1.066878
572.10 1.066894
572.20 1.06691
572.30 1.066926
572.40 1.066942
572.50 1.066958
572.60 1.066974
572.70 1.06699
572.80 1.067005
572.90 1.067021
573.00 1.067036
573.10 1.067052
573.20 1.067067
573.30 1.067082
573.40 1.067095
573.50 1.067103
573.60 1.067111
573.70 1.067119
573.80 1.067127
573.90 1.067135
574.00 1.067143
574.10 1.06715
574.20 1.067158
574.30 1.067166
574.40 1.067173
574.50 1.067181
574.60 1.067188
574.70 1.067196
574.80 1.067203
574.90 1.06721
575.00 1.067217
575.10 1.067224
575.20 1.067231
575.30 1.067238
575.40 1.067245
575.50 1.067252
575.60 1.067258
575.70 1.067265
575.80 1.067272
575.90 1.067278
576.00 1.067285
576.10 1.067291
576.20 1.067297
576.30 1.067304
576.40 1.06731
576.50 1.067316
576.60 1.067322
576.70 1.067328
576.80 1.067334
576.90 1.067339
577.00 1.067345
577.10 1.067351
577.20 1.067357
577.30 1.067362
577.40 1.067368
577.50 1.067373
577.60 1.067376
577.70 1.067374
577.80 1.067373
577.90 1.067371
578.00 1.067369
578.10 1.067368
578.20 1.067366
578.30 1.067364
578.40 1.067362
578.50 1.06736
578.60 1.067358
578.70 1.067356
578.80 1.067354
578.90 1.067352
579.00 1.067349
579.10 1.067345
579.20 1.067323
579.30 1.0673
579.40 1.067277
579.50 1.067254
579.60 1.067232
579.70 1.067209
579.80 1.067186
579.90 1.067163
580.00 1.06714
580.10 1.067129
580.20 1.067138
580.30 1.067146
580.40 1.067155
580.50 1.067163
580.60 1.067172
580.70 1.06718
580.80 1.067189
580.90 1.067197
581.00 1.067205
581.10 1.067213
581.20 1.067221
581.30 1.067229
581.40 1.067237
581.50 1.067245
581.60 1.067253
581.70 1.06726
581.80 1.067268
581.90 1.067275
582.00 1.067283
582.10 1.067282
582.20 1.067266
582.30 1.06725
582.40 1.067234
582.50 1.067218
582.60 1.067203
582.70 1.067187
582.80 1.067171
582.90 1.067154
583.00 1.067138
583.10 1.067122
583.20 1.067106
583.30 1.06709
583.40 1.067073
583.50 1.067057
583.60 1.067043
583.70 1.067032
583.80 1.067021
583.90 1.06701
584.00 1.067
584.10 1.066989
584.20 1.066978
584.30 1.066967
584.40 1.066956
584.50 1.066945
584.60 1.066934
584.70 1.066922
584.80 1.066911
584.90 1.066907
585.00 1.066934
585.10 1.066961
585.20 1.066975
585.30 1.066967
585.40 1.066958
585.50 1.06695
585.60 1.066942
585.70 1.066933
585.80 1.066925
585.90 1.066916
586.00 1.066907
586.10 1.066899
586.20 1.066876
586.30 1.066831
586.40 1.066786
586.50 1.06674
586.60 1.066695
586.70 1.06665
586.80 1.066639
586.90 1.066684
587.00 1.066729
587.10 1.066775
587.20 1.066768
587.30 1.066677
587.40 1.066741
587.50 1.066664
587.60 1.066566
587.70 1.066604
587.80 1.066545
587.90 1.06659
588.00 1.066609
588.10 1.066586
588.20 1.066562
588.30 1.066539
588.40 1.066524
588.50 1.066523
588.60 1.066522
588.70 1.066521
588.80 1.06652
588.90 1.066519
589.00 1.066504
589.10 1.066466
589.20 1.066429
589.30 1.066391
589.40 1.066354
589.50 1.066316
589.60 1.066279
589.70 1.066241
589.80 1.066204
589.90 1.066166
590.00 1.066139
590.10 1.066128
590.20 1.066117
590.30 1.066106
590.40 1.066096
590.50 1.066085
590.60 1.066074
590.70 1.066063
590.80 1.066034
590.90 1.065997
591.00 1.065959
591.10 1.065922
591.20 1.065885
591.30 1.065847
591.40 1.06581
591.50 1.065773
591.60 1.065742
591.70 1.065721
591.80 1.065701
591.90 1.06568
592.00 1.065659
592.10 1.065639
592.20 1.065618
592.30 1.065597
592.40 1.065576
592.50 1.065556
592.60 1.065535
592.70 1.065514
592.80 1.065493
592.90 1.065472
593.00 1.065451
593.10 1.065428
593.20 1.065402
593.30 1.065376
593.40 1.065351
593.50 1.065325
593.60 1.065299
593.70 1.065273
593.80 1.065247
593.90 1.065221
594.00 1.065195
594.10 1.065169
594.20 1.065143
594.30 1.065117
594.40 1.065091
594.50 1.065065
594.60 1.065039
594.70 1.065012
594.80 1.064986
594.90 1.06496
595.00 1.064933
595.10 1.064909
595.20 1.064887
595.30 1.064866
595.40 1.064844
595.50 1.064823
595.60 1.064801
595.70 1.064779
595.80 1.064758
595.90 1.064736
596.00 1.064714
596.10 1.064692
596.20 1.06467
596.30 1.064648
596.40 1.064626
596.50 1.064604
596.60 1.064582
596.70 1.064547
596.80 1.064504
596.90 1.064461
597.00 1.064419
597.10 1.064376
597.20 1.064333
597.30 1.064289
597.40 1.064246
597.50 1.064203
597.60 1.064168
597.70 1.064144
597.80 1.064121
597.90 1.064098
598.00 1.064074
598.10 1.064051
598.20 1.064027
598.30 1.064003
598.40 1.06398
598.50 1.063956
598.60 1.063932
598.70 1.063908
598.80 1.063885
598.90 1.063861
599.00 1.063837
599.10 1.063813
599.20 1.063789
599.30 1.063765
599.40 1.063723
599.50 1.063682
599.60 1.063641
599.70 1.063599
599.80 1.063558
599.90 1.063516
600.00 1.063475
600.10 1.063433
600.20 1.063392
600.30 1.06335
600.40 1.063309
600.50 1.063267
600.60 1.063225
600.70 1.063184
600.80 1.063142
600.90 1.0631
601.00 1.063058
601.10 1.063016
601.20 1.062975
601.30 1.062933
601.40 1.062898
601.50 1.062862
601.60 1.062827
601.70 1.062792
601.80 1.062757
601.90 1.062721
602.00 1.062686
602.10 1.06265
602.20 1.062615
602.30 1.06258
602.40 1.062544
602.50 1.062508
602.60 1.062473
602.70 1.062514
602.80 1.062559
602.90 1.062513
603.00 1.062468
603.10 1.062422
603.20 1.062376
603.30 1.06233
603.40 1.062284
603.50 1.062239
603.60 1.062193
603.70 1.062147
603.80 1.062101
603.90 1.062055
604.00 1.062009
604.10 1.061963
604.20 1.061917
604.30 1.061871
604.40 1.061824
604.50 1.061782
604.60 1.061739
604.70 1.061696
604.80 1.061653
604.90 1.061609
605.00 1.061566
605.10 1.061523
605.20 1.06148
605.30 1.061437
605.40 1.061394
605.50 1.061342
605.60 1.06129
605.70 1.061238
605.80 1.061187
605.90 1.061135
606.00 1.061083
606.10 1.061052
606.20 1.061022
606.30 1.060991
606.40 1.06096
606.50 1.060866
606.60 1.060771
606.70 1.060804
606.80 1.060709
606.90 1.060742
607.00 1.060648
607.10 1.06068
607.20 1.060713
607.30 1.060618
607.40 1.060524
607.50 1.060429
607.60 1.060334
607.70 1.060324
607.80 1.060314
607.90 1.060304
608.00 1.060294
608.10 1.060284
608.20 1.060274
608.30 1.06022
608.40 1.060166
608.50 1.060111
608.60 1.060057
608.70 1.059984
608.80 1.059903
608.90 1.059822
609.00 1.059741
609.10 1.05966
609.20 1.059579
609.30 1.059532
609.40 1.059484
609.50 1.059437
609.60 1.059389
609.70 1.059342
609.80 1.059294
609.90 1.059246
610.00 1.059199
610.10 1.059151
610.20 1.059103
610.30 1.059056
610.40 1.059008
610.50 1.05896
610.60 1.058913
610.70 1.058865
610.80 1.058817
610.90 1.058772
611.00 1.058728
611.10 1.058683
611.20 1.058638
611.30 1.058593
611.40 1.058548
611.50 1.058504
611.60 1.058459
611.70 1.058414
611.80 1.058369
611.90 1.058324
612.00 1.058279
612.10 1.058234
612.20 1.058189
612.30 1.058144
612.40 1.058086
612.50 1.058028
612.60 1.057971
612.70 1.057913
612.80 1.057855
612.90 1.057798
613.00 1.05774
613.10 1.057682
613.20 1.057624
613.30 1.057567
613.40 1.057509
613.50 1.057451
613.60 1.057393
613.70 1.057335
613.80 1.057277
613.90 1.057219
614.00 1.057162
614.10 1.057104
614.20 1.057046
614.30 1.056988
614.40 1.056942
614.50 1.056896
614.60 1.05685
614.70 1.056804
614.80 1.056749
614.90 1.056691
615.00 1.056634
615.10 1.056576
615.20 1.056518
615.30 1.056461
615.40 1.056403
615.50 1.056345
615.60 1.056288
615.70 1.05623
615.80 1.056172
615.90 1.056115
616.00 1.056057
616.10 1.055999
616.20 1.055941
616.30 1.055883
616.40 1.055826
616.50 1.055768
616.60 1.05571
616.70 1.055652
616.80 1.055594
616.90 1.055537
617.00 1.05548
617.10 1.055423
617.20 1.055367
617.30 1.05531
617.40 1.055253
617.50 1.055196
617.60 1.055139
617.70 1.055082
617.80 1.055025
617.90 1.054968
618.00 1.054911
618.10 1.054854
618.20 1.054796
618.30 1.054739
618.40 1.054682
618.50 1.054625
618.60 1.054568
618.70 1.054511
618.80 1.054453
618.90 1.054396
619.00 1.054339
619.10 1.054282
619.20 1.054224
619.30 1.054167
619.40 1.05411
619.50 1.054052
619.60 1.053995
619.70 1.053938
619.80 1.05388
619.90 1.053823
620.00 1.053766
620.10 1.053708
620.20 1.053651
620.30 1.053593
620.40 1.053536
620.50 1.053478
620.60 1.053421
620.70 1.053363
620.80 1.053306
620.90 1.053244
621.00 1.053175
621.10 1.053107
621.20 1.053038
621.30 1.05297
621.40 1.052901
621.50 1.052832
621.60 1.052764
621.70 1.052695
621.80 1.052626
621.90 1.052557
622.00 1.052489
622.10 1.05242
622.20 1.052351
622.30 1.052283
622.40 1.052214
622.50 1.052145
622.60 1.052076
622.70 1.052008
622.80 1.051939
622.90 1.05187
623.00 1.051801
623.10 1.051732
623.20 1.051663
623.30 1.051595
623.40 1.051526
623.50 1.051457
623.60 1.051388
623.70 1.051319
623.80 1.05125
623.90 1.051181
624.00 1.051112
624.10 1.051044
624.20 1.050975
624.30 1.050906
624.40 1.050837
624.50 1.050768
624.60 1.050699
624.70 1.05063
624.80 1.050561
624.90 1.050492
625.00 1.050423
625.10 1.050354
625.20 1.050285
625.30 1.050216
625.40 1.050147
625.50 1.050078
625.60 1.050009
625.70 1.04994
625.80 1.04987
625.90 1.049801
626.00 1.049732
626.10 1.049663
626.20 1.049594
626.30 1.049525
626.40 1.049456
626.50 1.049387
626.60 1.049317
626.70 1.049248
626.80 1.049179
626.90 1.04911
627.00 1.049041
627.10 1.048972
627.20 1.048904
627.30 1.048836
627.40 1.048768
627.50 1.0487
627.60 1.048632
627.70 1.048564
627.80 1.048496
627.90 1.048428
628.00 1.04836
628.10 1.048292
628.20 1.048223
628.30 1.048155
628.40 1.048087
628.50 1.048019
628.60 1.047951
628.70 1.047883
628.80 1.047815
628.90 1.047747
629.00 1.047678
629.10 1.04761
629.20 1.047542
629.30 1.047474
629.40 1.047406
629.50 1.047337
629.60 1.047269
629.70 1.047201
629.80 1.047133
629.90 1.047065
630.00 1.046996
630.10 1.046928
630.20 1.04686
630.30 1.046784
630.40 1.046709
630.50 1.046633
630.60 1.046557
630.70 1.046481
630.80 1.046405
630.90 1.046329
631.00 1.046253
631.10 1.046177
631.20 1.046101
631.30 1.046025
631.40 1.045949
631.50 1.045873
631.60 1.045797
631.70 1.045721
631.80 1.045645
631.90 1.045569
632.00 1.045493
632.10 1.045417
632.20 1.045341
632.30 1.045265
632.40 1.045189
632.50 1.045113
632.60 1.045037
632.70 1.044961
632.80 1.044885
632.90 1.044809
633.00 1.044733
633.10 1.044657
633.20 1.044581
633.30 1.044505
633.40 1.044428
633.50 1.044349
633.60 1.044271
633.70 1.044192
633.80 1.044114
633.90 1.044036
634.00 1.043957
634.10 1.043879
634.20 1.0438
634.30 1.043722
634.40 1.043643
634.50 1.043565
634.60 1.043486
634.70 1.043408
634.80 1.043329
634.90 1.043251
635.00 1.043172
635.10 1.043094
635.20 1.043015
635.30 1.042937
635.40 1.042858
635.50 1.04278
635.60 1.042701
635.70 1.042623
635.80 1.042544
635.90 1.042466
636.00 1.042387
636.10 1.042309
636.20 1.04223
636.30 1.042152
636.40 1.042073
636.50 1.041995
636.60 1.04191
636.70 1.041824
636.80 1.041738
636.90 1.041652
637.00 1.041566
637.10 1.04148
637.20 1.041394
637.30 1.041308
637.40 1.041222
637.50 1.041137
637.60 1.041051
637.70 1.040965
637.80 1.040879
637.90 1.040793
638.00 1.040707
638.10 1.040621
638.20 1.040535
638.30 1.04045
638.40 1.040364
638.50 1.040278
638.60 1.040192
638.70 1.040106
638.80 1.04002
638.90 1.039934
639.00 1.039848
639.10 1.039763
639.20 1.039677
639.30 1.039591
639.40 1.039505
639.50 1.039419
639.60 1.039333
639.70 1.039247
639.80 1.039159
639.90 1.039071
640.00 1.038982
640.10 1.038894
640.20 1.038806
640.30 1.038718
640.40 1.03863
640.50 1.038541
640.60 1.038453
640.70 1.038365
640.80 1.038277
640.90 1.038189
641.00 1.038101
641.10 1.038012
641.20 1.037924
641.30 1.037836
641.40 1.037748
641.50 1.03766
641.60 1.037572
641.70 1.037484
641.80 1.037395
641.90 1.037307
642.00 1.037219
642.10 1.037131
642.20 1.037043
642.30 1.036955
642.40 1.036867
642.50 1.036779
642.60 1.036691
642.70 1.036602
642.80 1.036514
642.90 1.036426
643.00 1.036338
643.10 1.03625
643.20 1.036162
643.30 1.036074
643.40 1.035986
643.50 1.035898
643.60 1.03581
643.70 1.035722
643.80 1.035635
643.90 1.035547
644.00 1.035459
644.10 1.035371
644.20 1.035283
644.30 1.035195
644.40 1.035107
644.50 1.035019
644.60 1.034931
644.70 1.034843
644.80 1.034755
644.90 1.034667
645.00 1.034579
645.10 1.034491
645.20 1.034404
645.30 1.034316
645.40 1.034228
645.50 1.03414
645.60 1.034052
645.70 1.033964
645.80 1.033876
645.90 1.033788
646.00 1.033701
646.10 1.033612
646.20 1.033522
646.30 1.033432
646.40 1.033342
646.50 1.033252
646.60 1.033161
646.70 1.033071
646.80 1.032981
646.90 1.032891
647.00 1.032801
647.10 1.032711
647.20 1.032621
647.30 1.032531
647.40 1.032441
647.50 1.032351
647.60 1.032261
647.70 1.032171
647.80 1.03208
647.90 1.03199
648.00 1.0319
648.10 1.03181
648.20 1.03172
648.30 1.03163
648.40 1.03154
648.50 1.03145
648.60 1.03136
648.70 1.03127
648.80 1.03118
648.90 1.03109
649.00 1.031
649.10 1.03091
649.20 1.030821
649.30 1.030731
649.40 1.030634
649.50 1.030537
649.60 1.03044
649.70 1.030343
649.80 1.030246
649.90 1.03015
650.00 1.030053
650.10 1.029956
650.20 1.029859
650.30 1.029762
650.40 1.029665
650.50 1.029569
650.60 1.029472
650.70 1.029375
650.80 1.029278
650.90 1.029182
651.00 1.029085
651.10 1.028988
651.20 1.028892
651.30 1.028795
651.40 1.028698
651.50 1.028601
651.60 1.028505
651.70 1.028408
651.80 1.028312
651.90 1.028215
652.00 1.028118
652.10 1.028022
652.20 1.027925
652.30 1.027828
652.40 1.027732
652.50 1.027635
652.60 1.027537
652.70 1.027438
652.80 1.027339
652.90 1.02724
653.00 1.027141
653.10 1.027043
653.20 1.026944
653.30 1.026845
653.40 1.026746
653.50 1.026647
653.60 1.026548
653.70 1.026449
653.80 1.026351
653.90 1.026252
654.00 1.026153
654.10 1.026054
654.20 1.025955
654.30 1.025857
654.40 1.025758
654.50 1.025659
654.60 1.02556
654.70 1.025462
654.80 1.025363
654.90 1.025264
655.00 1.025166
655.10 1.025067
655.20 1.024968
655.30 1.02487
655.40 1.024771
655.50 1.024673
655.60 1.024574
655.70 1.024475
655.80 1.024381
655.90 1.024287
656.00 1.024193
656.10 1.024099
656.20 1.024005
656.30 1.023911
656.40 1.023817
656.50 1.023723
656.60 1.023629
656.70 1.023535
656.80 1.023441
656.90 1.023347
657.00 1.023253
657.10 1.023159
657.20 1.023065
657.30 1.022971
657.40 1.022877
657.50 1.022783
657.60 1.022689
657.70 1.022595
657.80 1.022473
657.90 1.022368
658.00 1.022267
658.10 1.022165
658.20 1.022063
658.30 1.021962
658.40 1.02186
658.50 1.021759
658.60 1.021657
658.70 1.021555
658.80 1.021454
658.90 1.021352
659.00 1.021251
659.10 1.021128
659.20 1.020972
659.30 1.020875
659.40 1.020779
659.50 1.020682
659.60 1.020586
659.70 1.020489
659.80 1.020393
659.90 1.020296
660.00 1.0202
660.10 1.020103
660.20 1.020007
660.30 1.01991
660.40 1.019822
660.50 1.019735
660.60 1.019648
660.70 1.019561
660.80 1.019474
660.90 1.019359
661.00 1.019244
661.10 1.019129
661.20 1.019014
661.30 1.0189
661.40 1.018785
661.50 1.01867
661.60 1.018555
661.70 1.01844
661.80 1.018325
661.90 1.018226
662.00 1.018126
662.10 1.018027
662.20 1.017927
662.30 1.017827
662.40 1.017765
662.50 1.017672
662.60 1.017579
662.70 1.017485
662.80 1.017392
662.90 1.017299
663.00 1.017206
663.10 1.017006
663.20 1.016912
663.30 1.016819
663.40 1.016619
663.50 1.016526
663.60 1.016433
663.70 1.016325
663.80 1.016217
663.90 1.016137
664.00 1.016061
664.10 1.015968
664.20 1.015875
664.30 1.015782
664.40 1.015689
664.50 1.015596
664.60 1.015503
664.70 1.01538
664.80 1.015257
664.90 1.015134
665.00 1.015011
665.10 1.014888
665.20 1.014765
665.30 1.014642
665.40 1.014519
665.50 1.014437
665.60 1.014361
665.70 1.014151
665.80 1.014041
665.90 1.01393
666.00 1.01382
666.10 1.013709
666.20 1.013599
666.30 1.013488
666.40 1.013378
666.50 1.013283
666.60 1.01319
666.70 1.013097
666.80 1.013005
666.90 1.012912
667.00 1.012819
667.10 1.012741
667.20 1.012666
667.30 1.012558
667.40 1.012451
667.50 1.012356
667.60 1.012264
667.70 1.012018
667.80 1.011965
667.90 1.011833
668.00 1.011715
668.10 1.01159
668.20 1.011498
668.30 1.011406
668.40 1.011313
668.50 1.011221
668.60 1.011128
668.70 1.011067
668.80 1.010928
668.90 1.010789
669.00 1.01065
669.10 1.01051
669.20 1.010371
669.30 1.010254
669.40 1.010141
669.50 1.010028
669.60 1.009915
669.70 1.009801
669.80 1.009688
669.90 1.009575
670.00 1.009462
670.10 1.009349
670.20 1.009236
670.30 1.009146
670.40 1.009061
670.50 1.008975
670.60 1.008889
670.70 1.008804
670.80 1.00869
670.90 1.008576
671.00 1.008463
671.10 1.008349
671.20 1.008236
671.30 1.008122
671.40 1.008009
671.50 1.007895
671.60 1.007782
671.70 1.007669
671.80 1.007555
671.90 1.007427
672.00 1.007296
672.10 1.007166
672.20 1.007035
672.30 1.006904
672.40 1.00679
672.50 1.006676
672.60 1.006563
672.70 1.006449
672.80 1.006336
672.90 1.006223
673.00 1.006109
673.10 1.005996
673.20 1.005883
673.30 1.005944
673.40 1.005849
673.50 1.005727
673.60 1.005604
673.70 1.005481
673.80 1.005359
673.90 1.005236
674.00 1.005113
674.10 1.004991
674.20 1.004868
674.30 1.004746
674.40 1.004623
674.50 1.004501
674.60 1.004379
674.70 1.004256
674.80 1.004134
674.90 1.004011
675.00 1.003889
675.10 1.003767
675.20 1.003645
675.30 1.003522
675.40 1.003413
675.50 1.003305
675.60 1.003197
675.70 1.003089
675.80 1.002982
675.90 1.002874
676.00 1.002766
676.10 1.002659
676.20 1.002551
676.30 1.002444
676.40 1.002336
676.50 1.002228
676.60 1.002121
676.70 1.002013
676.80 1.001906
676.90 1.001798
677.00 1.001691
677.10 1.001583
677.20 1.001476
677.30 1.001369
677.40 1.001261
677.50 1.001154
677.60 1.001047
677.70 1.000939
677.80 1.000832
677.90 1.000708
678.00 1.000581
678.10 1.000454
678.20 1.000327
678.30 1.0002
678.40 1.000073
678.50 0.999946
678.60 0.9998191
678.70 0.9996923
678.80 0.9995655
678.90 0.9994387
679.00 0.999312
679.10 0.9991897
679.20 0.9990694
679.30 0.9989491
679.40 0.9988288
679.50 0.9987085
679.60 0.9985883
679.70 0.9984681
679.80 0.9983479
679.90 0.9982278
680.00 0.9981077
680.10 0.9979876
680.20 0.9978675
680.30 0.9977475
680.40 0.9976274
680.50 0.9975075
680.60 0.9973875
680.70 0.9972676
680.80 0.9971477
680.90 0.9970278
681.00 0.996908
681.10 0.9967881
681.20 0.9966684
681.30 0.9965486
681.40 0.9964289
681.50 0.9963091
681.60 0.9961895
681.70 0.9960698
681.80 0.9959502
681.90 0.9958306
682.00 0.995711
682.10 0.9955915
682.20 0.995472
682.30 0.9953525
682.40 0.995233
682.50 0.9951136
682.60 0.9949942
682.70 0.9948748
682.80 0.9947554
682.90 0.9946361
683.00 0.9945168
683.10 0.9943975
683.20 0.9942783
683.30 0.9941591
683.40 0.9940399
683.50 0.9939207
683.60 0.9938016
683.70 0.9936825
683.80 0.9935634
683.90 0.9934443
684.00 0.9933253
684.10 0.9932063
684.20 0.9930873
684.30 0.9929684
684.40 0.9928495
684.50 0.9927306
684.60 0.9926117
684.70 0.9924929
684.80 0.9923741
684.90 0.9922553
685.00 0.9921365
685.10 0.9920178
685.20 0.9918991
685.30 0.9917804
685.40 0.9916618
685.50 0.9915431
685.60 0.9914245
685.70 0.991306
685.80 0.9911874
685.90 0.9910652
686.00 0.9909421
686.10 0.990819
686.20 0.990696
686.30 0.990573
686.40 0.99045
686.50 0.990327
686.60 0.9902041
686.70 0.9900812
686.80 0.9899583
686.90 0.9898355
687.00 0.9897127
687.10 0.9895899
687.20 0.9894671
687.30 0.9893444
687.40 0.9892217
687.50 0.989099
687.60 0.9889764
687.70 0.9888538
687.80 0.9887312
687.90 0.9886087
688.00 0.9884862
688.10 0.9883637
688.20 0.9882412
688.30 0.9881188
688.40 0.9879964
688.50 0.987874
688.60 0.9877517
688.70 0.9876294
688.80 0.9875071
688.90 0.9873848
689.00 0.9872626
689.10 0.9871404
689.20 0.9870182
689.30 0.9868961
689.40 0.986774
689.50 0.9866519
689.60 0.9865299
689.70 0.9864079
689.80 0.9862859
689.90 0.9861639
690.00 0.986042
690.10 0.9859201
690.20 0.9857982
690.30 0.9856764
690.40 0.9855546
690.50 0.9854328
690.60 0.985311
690.70 0.9851893
690.80 0.9850676
690.90 0.9849459
691.00 0.9848243
691.10 0.9847027
691.20 0.9845811
691.30 0.9844596
691.40 0.984338
691.50 0.9842165
691.60 0.9840951
691.70 0.9839736
691.80 0.9838522
691.90 0.9837309
692.00 0.9836095
692.10 0.9834882
692.20 0.9833669
692.30 0.9832456
692.40 0.9831244
692.50 0.9830032
692.60 0.982882
692.70 0.9827599
692.80 0.9826342
692.90 0.9825084
693.00 0.9823827
693.10 0.9822571
693.20 0.9821315
693.30 0.9820059
693.40 0.9818803
693.50 0.9817547
693.60 0.9816292
693.70 0.9815038
693.80 0.9813783
693.90 0.9812529
694.00 0.9811275
694.10 0.9810022
694.20 0.9808769
694.30 0.9807516
694.40 0.9806263
694.50 0.9805011
694.60 0.9803759
694.70 0.9802508
694.80 0.9801256
694.90 0.9800006
695.00 0.9798755
695.10 0.9797505
695.20 0.9796255
695.30 0.9795005
695.40 0.9793755
695.50 0.9792506
695.60 0.9791258
695.70 0.9790009
695.80 0.9788761
695.90 0.9787513
696.00 0.9786266
696.10 0.9785019
696.20 0.9783772
696.30 0.9782525
696.40 0.9781279
696.50 0.9780033
696.60 0.9778776
696.70 0.9777516
696.80 0.9776257
696.90 0.9774999
697.00 0.977374
697.10 0.9772482
697.20 0.9771224
697.30 0.9769967
697.40 0.9768709
697.50 0.9767453
697.60 0.9766196
697.70 0.976494
697.80 0.9763684
697.90 0.9762428
698.00 0.9761173
698.10 0.9759918
698.20 0.9758664
698.30 0.9757409
698.40 0.9756155
698.50 0.9754902
698.60 0.9753648
698.70 0.9752395
698.80 0.9751142
698.90 0.974989
699.00 0.9748638
699.10 0.9747469
699.20 0.974632
699.30 0.9745171
699.40 0.9744022
699.50 0.9742874
699.60 0.9741726
699.70 0.974044
699.80 0.9739148
699.90 0.9737857
700.00 0.9736565
700.10 0.9735274
700.20 0.9733984
700.30 0.9732693
700.40 0.9731403
700.50 0.9730114
700.60 0.9728825
700.70 0.9727536
700.80 0.9726247
700.90 0.9724959
701.00 0.9723671
701.10 0.9722314
701.20 0.9720942
701.30 0.971957
701.40 0.9718198
701.50 0.9716827
701.60 0.9715456
701.70 0.9714085
701.80 0.9712715
701.90 0.9711346
702.00 0.9709976
702.10 0.9708607
702.20 0.9707239
702.30 0.9705871
702.40 0.9704503
702.50 0.9703136
702.60 0.970189
702.70 0.9700674
702.80 0.9699459
702.90 0.9698243
703.00 0.9697028
703.10 0.9695813
703.20 0.9694598
703.30 0.9693384
703.40 0.969217
703.50 0.9690956
703.60 0.9689743
703.70 0.968853
703.80 0.9687317
703.90 0.9686104
704.00 0.9684892
704.10 0.968368
704.20 0.9682296
704.30 0.9680872
704.40 0.9679448
704.50 0.9678024
704.60 0.9676601
704.70 0.9675179
704.80 0.9673757
704.90 0.9672335
705.00 0.9670914
705.10 0.9669493
705.20 0.9668276
705.30 0.9667108
705.40 0.966594
705.50 0.9664772
705.60 0.9663604
705.70 0.9662437
705.80 0.9661142
705.90 0.9659819
706.00 0.9658495
706.10 0.9657172
706.20 0.9655468
706.30 0.9653675
706.40 0.9653003
706.50 0.9652151
706.60 0.96513
706.70 0.9648569
706.80 0.9647361
706.90 0.9646511
707.00 0.9645281
707.10 0.9643961
707.20 0.9642642
707.30 0.9641323
707.40 0.9639878
707.50 0.9638404
707.60 0.963693
707.70 0.9635457
707.80 0.9633984
707.90 0.9632511
708.00 0.9631241
708.10 0.9630019
708.20 0.9628798
708.30 0.9627576
708.40 0.9626355
708.50 0.9625135
708.60 0.9623914
708.70 0.9622694
708.80 0.9621474
708.90 0.9620255
709.00 0.961896
709.10 0.9617647
709.20 0.9616335
709.30 0.9615024
709.40 0.9613713
709.50 0.9612402
709.60 0.9611091
709.70 0.9609781
709.80 0.9608471
709.90 0.9607162
710.00 0.9605853
710.10 0.9604544
710.20 0.9603236
710.30 0.9601928
710.40 0.960062
710.50 0.9599313
710.60 0.9597981
710.70 0.9596643
710.80 0.9595306
710.90 0.9593969
711.00 0.9592633
711.10 0.9591297
711.20 0.9589961
711.30 0.9588626
711.40 0.9587291
711.50 0.9585956
711.60 0.9584622
711.70 0.9583288
711.80 0.9581955
711.90 0.9580622
712.00 0.9579289
712.10 0.9577949
712.20 0.9576607
712.30 0.9575266
712.40 0.9573925
712.50 0.9572585
712.60 0.9571245
712.70 0.9569905
712.80 0.9568566
712.90 0.9567227
713.00 0.9565888
713.10 0.956455
713.20 0.9563212
713.30 0.9561875
713.40 0.9560538
713.50 0.9559201
713.60 0.9557865
713.70 0.9556431
713.80 0.9554801
713.90 0.9553171
714.00 0.9551542
714.10 0.955014
714.20 0.9548791
714.30 0.9547443
714.40 0.9546094
714.50 0.9544747
714.60 0.95434
714.70 0.9542053
714.80 0.9540706
714.90 0.953936
715.00 0.9538014
715.10 0.9536669
715.20 0.9535324
715.30 0.9533979
715.40 0.9532635
715.50 0.9531291
715.60 0.9529948
715.70 0.9528605
715.80 0.9527262
715.90 0.952592
716.00 0.9524578
716.10 0.9523236
716.20 0.9521895
716.30 0.9520554
716.40 0.9519213
716.50 0.9517873
716.60 0.9516567
716.70 0.9515269
716.80 0.9513971
716.90 0.9512674
717.00 0.9511377
717.10 0.951008
717.20 0.9508784
717.30 0.9507488
717.40 0.9506193
717.50 0.9504897
717.60 0.9503602
717.70 0.9502308
717.80 0.9501014
717.90 0.949972
718.00 0.9498426
718.10 0.9497133
718.20 0.9495766
718.30 0.949436
718.40 0.9492954
718.50 0.9491549
718.60 0.9490144
718.70 0.9488739
718.80 0.9487335
718.90 0.9485931
719.00 0.9484528
719.10 0.9483125
719.20 0.9481722
719.30 0.948032
719.40 0.9478918
719.50 0.9477517
719.60 0.9476116
719.70 0.9474716
719.80 0.9473316
719.90 0.9471916
720.00 0.9470517
720.10 0.9469118
720.20 0.946772
720.30 0.9466322
720.40 0.9464924
720.50 0.9463527
720.60 0.946213
720.70 0.9461325
720.80 0.9460839
720.90 0.9459437
721.00 0.9457997
721.10 0.9456557
721.20 0.9455118
721.30 0.9453679
721.40 0.9452241
721.50 0.9450803
721.60 0.9449366
721.70 0.9447929
721.80 0.9446492
721.90 0.9445056
722.00 0.944362
722.10 0.9442185
722.20 0.944075
722.30 0.9439316
722.40 0.9437882
722.50 0.9436448
722.60 0.9435015
722.70 0.9433674
722.80 0.9432382
722.90 0.943109
723.00 0.9429798
723.10 0.9428507
723.20 0.9427217
723.30 0.9425926
723.40 0.9424636
723.50 0.9423346
723.60 0.9422057
723.70 0.9420768
723.80 0.941948
723.90 0.9418191
724.00 0.9416903
724.10 0.9415616
724.20 0.9414203
724.30 0.9412722
724.40 0.9411242
724.50 0.9409762
724.60 0.9408282
724.70 0.9406804
724.80 0.9405325
724.90 0.9403847
725.00 0.940237
725.10 0.9400893
725.20 0.9399416
725.30 0.939794
725.40 0.9396464
725.50 0.9394989
725.60 0.9393514
725.70 0.939204
725.80 0.9390653
725.90 0.9389313
726.00 0.9387974
726.10 0.9386635
726.20 0.9385296
726.30 0.9383958
726.40 0.938262
726.50 0.9381283
726.60 0.9379945
726.70 0.9378609
726.80 0.9377234
726.90 0.9375839
727.00 0.9374444
727.10 0.9373049
727.20 0.9371656
727.30 0.9370262
727.40 0.9368965
727.50 0.936772
727.60 0.9366476
727.70 0.9365231
727.80 0.9363699
727.90 0.9362013
728.00 0.9361523
728.10 0.9359062
728.20 0.9358152
728.30 0.9357352
728.40 0.9355358
728.50 0.9353675
728.60 0.9352279
728.70 0.9351039
728.80 0.9349799
728.90 0.9348559
729.00 0.9347224
729.10 0.9345837
729.20 0.9344451
729.30 0.9343066
729.40 0.9341681
729.50 0.9340296
729.60 0.933895
729.70 0.9337625
729.80 0.93363
729.90 0.9334976
730.00 0.9333652
730.10 0.9332328
730.20 0.9331005
730.30 0.9329682
730.40 0.932836
730.50 0.9327038
730.60 0.932563
730.70 0.9324177
730.80 0.9322724
730.90 0.9321272
731.00 0.931982
731.10 0.9318369
731.20 0.9316918
731.30 0.9315467
731.40 0.9314017
731.50 0.9312567
731.60 0.9311118
731.70 0.9309669
731.80 0.9308221
731.90 0.9306773
732.00 0.9305326
732.10 0.9303879
732.20 0.930248
732.30 0.9301106
732.40 0.9299734
732.50 0.9298361
732.60 0.9296989
732.70 0.9295618
732.80 0.9294247
732.90 0.9292876
733.00 0.9291506
733.10 0.9290136
733.20 0.9288766
733.30 0.9287397
733.40 0.9286028
733.50 0.928466
733.60 0.9283292
733.70 0.9281853
733.80 0.9280376
733.90 0.9278899
734.00 0.9277422
734.10 0.9275947
734.20 0.9274471
734.30 0.9272996
734.40 0.9271522
734.50 0.9270048
734.60 0.9268574
734.70 0.9267101
734.80 0.9265628
734.90 0.9264156
735.00 0.9262684
735.10 0.9261213
735.20 0.9259742
735.30 0.9258309
735.40 0.925731
735.50 0.9256311
735.60 0.9255313
735.70 0.9254004
735.80 0.925253
735.90 0.9251056
736.00 0.9249582
736.10 0.9248109
736.20 0.9246636
736.30 0.9245164
736.40 0.9243692
736.50 0.924222
736.60 0.9240749
736.70 0.9239279
736.80 0.9237809
736.90 0.9236339
737.00 0.923487
737.10 0.9233402
737.20 0.9231933
737.30 0.9230466
737.40 0.9228998
737.50 0.9227532
737.60 0.9226065
737.70 0.9224599
737.80 0.9223134
737.90 0.9221669
738.00 0.9220204
738.10 0.921874
738.20 0.92173
738.30 0.9215873
738.40 0.9214446
738.50 0.9213019
738.60 0.9211594
738.70 0.9210168
738.80 0.9208743
738.90 0.9207318
739.00 0.9205894
739.10 0.920447
739.20 0.9203047
739.30 0.9201624
739.40 0.9200201
739.50 0.9198779
739.60 0.9197358
739.70 0.9195936
739.80 0.9194516
739.90 0.9193095
740.00 0.9191675
740.10 0.9190256
740.20 0.9188837
740.30 0.9187418
740.40 0.9186
740.50 0.9184582
740.60 0.9183165
740.70 0.9181748
740.80 0.9180332
740.90 0.9178916
741.00 0.91775
741.10 0.9176085
741.20 0.917467
741.30 0.9173256
741.40 0.9171842
741.50 0.9170429
741.60 0.9169016
741.70 0.9167603
741.80 0.9166191
741.90 0.9164779
742.00 0.9163368
742.10 0.9161957
742.20 0.9160546
742.30 0.9159136
742.40 0.9157727
742.50 0.9156318
742.60 0.9154909
742.70 0.9153552
742.80 0.9152239
742.90 0.9150926
743.00 0.9149613
743.10 0.9148301
743.20 0.9146989
743.30 0.9145677
743.40 0.9144366
743.50 0.9143055
743.60 0.9141745
743.70 0.9140407
743.80 0.9138958
743.90 0.913751
744.00 0.9136062
744.10 0.9134615
744.20 0.9133168
744.30 0.9131722
744.40 0.9130276
744.50 0.912883
744.60 0.9127385
744.70 0.9125941
744.80 0.9124497
744.90 0.9123053
745.00 0.912161
745.10 0.9120167
745.20 0.9118724
745.30 0.9117283
745.40 0.9115841
745.50 0.91144
745.60 0.911296
745.70 0.9111519
745.80 0.911008
745.90 0.910864
746.00 0.9107202
746.10 0.9105763
746.20 0.9104325
746.30 0.9102888
746.40 0.9101451
746.50 0.9100014
746.60 0.9098578
746.70 0.9097142
746.80 0.9095707
746.90 0.9094272
747.00 0.9092838
747.10 0.9091404
747.20 0.9089971
747.30 0.9088538
747.40 0.9087105
747.50 0.9085673
747.60 0.9084241
747.70 0.908281
747.80 0.9081379
747.90 0.9079949
748.00 0.9078519
748.10 0.9077089
748.20 0.907566
748.30 0.9074231
748.40 0.9072803
748.50 0.9071376
748.60 0.9069948
748.70 0.9068521
748.80 0.9067095
748.90 0.9065669
749.00 0.9064243
749.10 0.9062818
749.20 0.9061394
749.30 0.9059969
749.40 0.9058545
749.50 0.9057122
749.60 0.9055699
749.70 0.9054277
749.80 0.9052855
749.90 0.9051433
750.00 0.9050012
750.10 0.9048575
750.20 0.9047097
750.30 0.904562
750.40 0.9044143
750.50 0.9042666
750.60 0.904119
750.70 0.9039715
750.80 0.903824
750.90 0.9036765
751.00 0.9035291
751.10 0.9033817
751.20 0.9032344
751.30 0.9030871
751.40 0.9029399
751.50 0.9027927
751.60 0.9026456
751.70 0.9024985
751.80 0.9023515
751.90 0.9022045
752.00 0.9020575
752.10 0.9019106
752.20 0.9017637
752.30 0.9016169
752.40 0.9014702
752.50 0.9013234
752.60 0.9011768
752.70 0.9010301
752.80 0.9008836
752.90 0.900737
753.00 0.9005905
753.10 0.9004441
753.20 0.9002977
753.30 0.9001514
753.40 0.900005
753.50 0.8998588
753.60 0.8997126
753.70 0.8995664
753.80 0.8994203
753.90 0.8992742
754.00 0.8991282
754.10 0.8989822
754.20 0.8988363
754.30 0.8986904
754.40 0.8985445
754.50 0.8983987
754.60 0.898253
754.70 0.8981073
754.80 0.8979616
754.90 0.897816
755.00 0.8976704
755.10 0.8975249
755.20 0.8973794
755.30 0.897234
755.40 0.8970886
755.50 0.8969432
755.60 0.8967979
755.70 0.8966527
755.80 0.8965075
755.90 0.8963623
756.00 0.8962172
756.10 0.8960721
756.20 0.8959271
756.30 0.8957821
756.40 0.8956372
756.50 0.8954923
756.60 0.8953475
756.70 0.8952027
756.80 0.8950579
756.90 0.8949132
757.00 0.8947685
757.10 0.8946239
757.20 0.8944793
757.30 0.8943348
757.40 0.8941903
757.50 0.8940459
757.60 0.8939012
757.70 0.893756
757.80 0.8936108
757.90 0.8934656
758.00 0.8933204
758.10 0.8931754
758.20 0.8930303
758.30 0.8928853
758.40 0.8927404
758.50 0.8925955
758.60 0.8924506
758.70 0.8923058
758.80 0.892161
758.90 0.8920163
759.00 0.8918716
759.10 0.891727
759.20 0.8915824
759.30 0.8914379
759.40 0.8912934
759.50 0.8911489
759.60 0.8910045
759.70 0.8908602
759.80 0.8907159
759.90 0.8905716
760.00 0.8904274
760.10 0.8902832
760.20 0.8901391
760.30 0.889995
760.40 0.8898509
760.50 0.8897069
760.60 0.889563
760.70 0.8894191
760.80 0.8892752
760.90 0.8891314
761.00 0.8889876
761.10 0.8888439
761.20 0.8887002
761.30 0.8885566
761.40 0.8884113
761.50 0.8882634
761.60 0.8881157
761.70 0.8879679
761.80 0.8878202
761.90 0.8876726
762.00 0.887525
762.10 0.8873775
762.20 0.88723
762.30 0.8870825
762.40 0.8869351
762.50 0.8867878
762.60 0.8866405
762.70 0.8864932
762.80 0.886346
762.90 0.8861988
763.00 0.8860517
763.10 0.8859046
763.20 0.8857576
763.30 0.8856106
763.40 0.8854637
763.50 0.8853168
763.60 0.8851699
763.70 0.8850231
763.80 0.8848764
763.90 0.8847297
764.00 0.884583
764.10 0.8844364
764.20 0.8842899
764.30 0.8841434
764.40 0.8839969
764.50 0.8838505
764.60 0.8837041
764.70 0.8835577
764.80 0.8834115
764.90 0.8832652
765.00 0.883119
765.10 0.8829729
765.20 0.8828253
765.30 0.8826763
765.40 0.8825273
765.50 0.8823784
765.60 0.8822296
765.70 0.8820808
765.80 0.881932
765.90 0.8817833
766.00 0.8816347
766.10 0.8814861
766.20 0.8813375
766.30 0.881189
766.40 0.8810405
766.50 0.8808921
766.60 0.8807438
766.70 0.8805954
766.80 0.8804472
766.90 0.8802989
767.00 0.8801507
767.10 0.8800026
767.20 0.8798545
767.30 0.8797065
767.40 0.8795585
767.50 0.8794105
767.60 0.8792627
767.70 0.8791148
767.80 0.878967
767.90 0.8788192
768.00 0.8786715
768.10 0.8785239
768.20 0.8783763
768.30 0.8782287
768.40 0.8780812
768.50 0.8779337
768.60 0.8777863
768.70 0.8776389
768.80 0.8774916
768.90 0.8773443
769.00 0.877197
769.10 0.8770499
769.20 0.8769027
769.30 0.8767556
769.40 0.8766086
769.50 0.8764616
769.60 0.8763146
769.70 0.8761677
769.80 0.8760208
769.90 0.875874
770.00 0.8757272
770.10 0.8755805
770.20 0.8754338
770.30 0.8752872
770.40 0.8751406
770.50 0.8749941
770.60 0.8748476
770.70 0.8747012
770.80 0.8745548
770.90 0.8744084
771.00 0.8742621
771.10 0.8741158
771.20 0.8739696
771.30 0.8738235
771.40 0.8736774
771.50 0.8735313
771.60 0.8733853
771.70 0.8732393
771.80 0.8730933
771.90 0.8729475
772.00 0.8728016
772.10 0.8726558
772.20 0.8725101
772.30 0.8723644
772.40 0.8722187
772.50 0.8720731
772.60 0.8719275
772.70 0.871782
772.80 0.8716366
772.90 0.8714883
773.00 0.8713401
773.10 0.871192
773.20 0.8710439
773.30 0.8708958
773.40 0.8707478
773.50 0.8705998
773.60 0.8704519
773.70 0.8703041
773.80 0.8701562
773.90 0.8700085
774.00 0.8698607
774.10 0.8697131
774.20 0.8695654
774.30 0.8694178
774.40 0.8692703
774.50 0.8691228
774.60 0.8689754
774.70 0.868828
774.80 0.8686806
774.90 0.8685333
775.00 0.8683861
775.10 0.8682389
775.20 0.8680917
775.30 0.8679446
775.40 0.8677975
775.50 0.8676505
775.60 0.8675036
775.70 0.8673566
775.80 0.8672098
775.90 0.8670629
776.00 0.8669161
776.10 0.8667694
776.20 0.8666227
776.30 0.8664761
776.40 0.8663295
776.50 0.8661829
776.60 0.8660364
776.70 0.86589
776.80 0.8657436
776.90 0.8655972
777.00 0.8654509
777.10 0.8653046
777.20 0.8651584
777.30 0.8650122
777.40 0.8648661
777.50 0.86472
777.60 0.864574
777.70 0.864428
777.80 0.864282
777.90 0.8641361
778.00 0.8639903
778.10 0.8638445
778.20 0.8636987
778.30 0.863553
778.40 0.8634074
778.50 0.8632617
778.60 0.8631162
778.70 0.8629706
778.80 0.8628252
778.90 0.8626797
779.00 0.8625343
779.10 0.862389
779.20 0.8622437
779.30 0.8620985
779.40 0.8619533
779.50 0.8618081
779.60 0.861663
779.70 0.8615179
779.80 0.8613729
779.90 0.8612279
780.00 0.861083
780.10 0.8609381
780.20 0.8607933
780.30 0.8606485
780.40 0.8605038
780.50 0.8603591
780.60 0.860212
780.70 0.8600641
780.80 0.8599162
780.90 0.8597684
781.00 0.8596206
781.10 0.8594728
781.20 0.8593251
781.30 0.8591775
781.40 0.8590298
781.50 0.8588823
781.60 0.8587348
781.70 0.8585873
781.80 0.8584399
781.90 0.8582925
782.00 0.8581452
782.10 0.8579979
782.20 0.8578507
782.30 0.8577035
782.40 0.8575564
782.50 0.8574093
782.60 0.8572623
782.70 0.8571153
782.80 0.8569683
782.90 0.8568214
783.00 0.8566746
783.10 0.8565278
783.20 0.856381
783.30 0.8562343
783.40 0.8560876
783.50 0.855941
783.60 0.8557945
783.70 0.8556479
783.80 0.8555015
783.90 0.855355
784.00 0.8552087
784.10 0.8550623
784.20 0.854916
784.30 0.8547698
784.40 0.8546236
784.50 0.8544774
784.60 0.8543305
784.70 0.8541817
784.80 0.8540329
784.90 0.8538841
785.00 0.8537354
785.10 0.8535868
785.20 0.8534382
785.30 0.8532896
785.40 0.8531411
785.50 0.8529926
785.60 0.8528442
785.70 0.8526959
785.80 0.8525476
785.90 0.8523993
786.00 0.8522511
786.10 0.8521029
786.20 0.8519548
786.30 0.8518067
786.40 0.8516587
786.50 0.8515107
786.60 0.8513628
786.70 0.8512149
786.80 0.851067
786.90 0.8509192
787.00 0.8507715
787.10 0.8506238
787.20 0.8504762
787.30 0.8503286
787.40 0.850181
787.50 0.8500335
787.60 0.849886
787.70 0.8497386
787.80 0.8495913
787.90 0.849444
788.00 0.8492967
788.10 0.8491495
788.20 0.8490023
788.30 0.8488552
788.40 0.848706
788.50 0.8485559
788.60 0.8484058
788.70 0.8482558
788.80 0.8481058
788.90 0.8479559
789.00 0.847806
789.10 0.8476561
789.20 0.8475064
789.30 0.8473566
789.40 0.8472069
789.50 0.8470573
789.60 0.8469077
789.70 0.8467582
789.80 0.8466087
789.90 0.8464592
790.00 0.8463098
790.10 0.8461605
790.20 0.8460112
790.30 0.8458619
790.40 0.8457127
790.50 0.8455636
790.60 0.8454144
790.70 0.8452654
790.80 0.8451164
790.90 0.8449674
791.00 0.8448185
791.10 0.8446696
791.20 0.8445208
791.30 0.8443721
791.40 0.8442233
791.50 0.8440747
791.60 0.843926
791.70 0.8437775
791.80 0.8436289
791.90 0.8434804
792.00 0.843332
792.10 0.8431836
792.20 0.8430353
792.30 0.842887
792.40 0.8427388
792.50 0.8425906
792.60 0.8424425
792.70 0.8422944
792.80 0.8421464
792.90 0.8419984
793.00 0.8418505
793.10 0.8417026
793.20 0.8415547
793.30 0.8414069
793.40 0.8412592
793.50 0.8411115
793.60 0.8409638
793.70 0.8408162
793.80 0.8406687
793.90 0.8405212
794.00 0.8403737
794.10 0.8402263
794.20 0.840079
794.30 0.8399316
794.40 0.8397844
794.50 0.8396371
794.60 0.83949
794.70 0.8393428
794.80 0.8391958
794.90 0.8390487
795.00 0.8389018
795.10 0.8387548
795.20 0.8386079
795.30 0.8384611
795.40 0.8383143
795.50 0.8381675
795.60 0.8380208
795.70 0.8378742
795.80 0.8377276
795.90 0.837581
796.00 0.8374345
796.10 0.8372881
796.20 0.8371416
796.30 0.8369916
796.40 0.8368409
796.50 0.8366903
796.60 0.8365397
796.70 0.8363892
796.80 0.8362387
796.90 0.8360883
797.00 0.8359379
797.10 0.8357875
797.20 0.8356373
797.30 0.835487
797.40 0.8353368
797.50 0.8351867
797.60 0.8350366
797.70 0.8348865
797.80 0.8347366
797.90 0.8345866
798.00 0.8344367
798.10 0.8342869
798.20 0.8341371
798.30 0.8339873
798.40 0.8338376
798.50 0.833688
798.60 0.8335384
798.70 0.8333888
798.80 0.8332393
798.90 0.8330899
799.00 0.8329404
799.10 0.8327911
799.20 0.8326418
799.30 0.8324925
799.40 0.8323433
799.50 0.8321941
799.60 0.832045
799.70 0.831896
799.80 0.8317469
799.90 0.831598
800.00 0.831449
800.10 0.8313002
800.20 0.8311513
800.30 0.8310026
800.40 0.8308538
800.50 0.8307052
800.60 0.8305565
800.70 0.830408
800.80 0.8302594
800.90 0.8301109
801.00 0.8299625
801.10 0.8298141
801.20 0.8296658
801.30 0.8295175
801.40 0.8293692
801.50 0.829221
801.60 0.8290729
801.70 0.8289248
801.80 0.8287767
801.90 0.8286287
802.00 0.8284808
802.10 0.8283329
802.20 0.828185
802.30 0.8280372
802.40 0.8278894
802.50 0.8277417
802.60 0.827594
802.70 0.8274464
802.80 0.8272988
802.90 0.8271513
803.00 0.8270038
803.10 0.8268564
803.20 0.826709
803.30 0.8265617
803.40 0.8264144
803.50 0.8262672
803.60 0.82612
803.70 0.8259728
803.80 0.8258257
803.90 0.8256787
804.00 0.8255317
804.10 0.8253847
804.20 0.8252377
804.30 0.8250903
804.40 0.8249429
804.50 0.8247955
804.60 0.8246482
804.70 0.824501
804.80 0.8243538
804.90 0.8242066
805.00 0.8240595
805.10 0.8239125
805.20 0.8237655
805.30 0.8236185
805.40 0.8234716
805.50 0.8233247
805.60 0.8231779
805.70 0.8230311
805.80 0.8228844
805.90 0.8227378
806.00 0.8225911
806.10 0.8224445
806.20 0.822298
806.30 0.8221515
806.40 0.8220051
806.50 0.8218587
806.60 0.8217123
806.70 0.8215661
806.80 0.8214198
806.90 0.8212736
807.00 0.8211274
807.10 0.8209813
807.20 0.8208353
807.30 0.8206893
807.40 0.8205433
807.50 0.8203974
807.60 0.8202515
807.70 0.8201057
807.80 0.8199599
807.90 0.8198142
808.00 0.8196685
808.10 0.8195229
808.20 0.8193772
808.30 0.8192281
808.40 0.819079
808.50 0.81893
808.60 0.8187811
808.70 0.8186321
808.80 0.8184833
808.90 0.8183344
809.00 0.8181857
809.10 0.8180369
809.20 0.8178883
809.30 0.8177396
809.40 0.817591
809.50 0.8174425
809.60 0.817294
809.70 0.8171456
809.80 0.8169972
809.90 0.8168489
810.00 0.8167006
810.10 0.8165523
810.20 0.8164041
810.30 0.816256
810.40 0.8161079
810.50 0.8159598
810.60 0.8158118
810.70 0.8156639
810.80 0.815516
810.90 0.8153681
811.00 0.8152203
811.10 0.8150725
811.20 0.8149248
811.30 0.8147772
811.40 0.8146295
811.50 0.814482
811.60 0.8143344
811.70 0.814187
811.80 0.8140395
811.90 0.8138922
812.00 0.8137448
812.10 0.8135976
812.20 0.8134503
812.30 0.8133012
812.40 0.8131517
812.50 0.8130022
812.60 0.8128527
812.70 0.8127033
812.80 0.812554
812.90 0.8124047
813.00 0.8122554
813.10 0.8121062
813.20 0.8119571
813.30 0.811808
813.40 0.8116589
813.50 0.8115099
813.60 0.811361
813.70 0.811212
813.80 0.8110632
813.90 0.8109144
814.00 0.8107656
814.10 0.8106169
814.20 0.8104682
814.30 0.8103196
814.40 0.810171
814.50 0.8100225
814.60 0.809874
814.70 0.8097256
814.80 0.8095772
814.90 0.8094289
815.00 0.8092806
815.10 0.8091324
815.20 0.8089842
815.30 0.8088361
815.40 0.808688
815.50 0.80854
815.60 0.808392
815.70 0.808244
815.80 0.8080962
815.90 0.8079483
816.00 0.8078005
816.10 0.8076528
816.20 0.8075051
816.30 0.8073574
816.40 0.8072098
816.50 0.8070623
816.60 0.8069148
816.70 0.8067673
816.80 0.8066199
816.90 0.8064725
817.00 0.8063252
817.10 0.8061779
817.20 0.8060307
817.30 0.8058836
817.40 0.8057364
817.50 0.8055894
817.60 0.8054423
817.70 0.8052954
817.80 0.8051484
817.90 0.8050015
818.00 0.8048547
818.10 0.8047079
818.20 0.8045612
818.30 0.8044145
818.40 0.8042678
818.50 0.8041212
818.60 0.8039747
818.70 0.8038282
818.80 0.8036817
818.90 0.8035353
819.00 0.803389
819.10 0.8032426
819.20 0.8030964
819.30 0.8029499
819.40 0.8028032
819.50 0.8026566
819.60 0.80251
819.70 0.8023635
819.80 0.802217
819.90 0.8020705
820.00 0.8019242
820.10 0.8017734
820.20 0.8016317
820.30 0.8014966
820.40 0.8013541
820.50 0.801206
820.60 0.8010581
820.70 0.8009101
820.80 0.8007622
820.90 0.8006144
821.00 0.8004666
821.10 0.8003189
821.20 0.8001712
821.30 0.8000236
821.40 0.799876
821.50 0.7997284
821.60 0.7995809
821.70 0.7994335
821.80 0.7992861
821.90 0.7991387
822.00 0.7989914
822.10 0.7988442
822.20 0.798697
822.30 0.7985498
822.40 0.7984027
822.50 0.7982556
822.60 0.7981086
822.70 0.7979616
822.80 0.7978147
822.90 0.7976679
823.00 0.797521
823.10 0.7973743
823.20 0.7972275
823.30 0.7970808
823.40 0.7969342
823.50 0.7967876
823.60 0.7966411
823.70 0.7964946
823.80 0.7963482
823.90 0.7962018
824.00 0.7960554
824.10 0.7959091
824.20 0.7957629
824.30 0.7956167
824.40 0.7954705
824.50 0.7953244
824.60 0.7951783
824.70 0.7950323
824.80 0.7948864
824.90 0.7947404
825.00 0.7945946
825.10 0.7944487
825.20 0.794303
825.30 0.7941572
825.40 0.7940115
825.50 0.7938659
825.60 0.7937203
825.70 0.7935748
825.80 0.7934293
825.90 0.7932838
826.00 0.7931384
826.10 0.7929931
826.20 0.7928478
826.30 0.7926996
826.40 0.7925495
826.50 0.7923994
826.60 0.7922494
826.70 0.7920995
826.80 0.7919496
826.90 0.7917997
827.00 0.7916499
827.10 0.7915002
827.20 0.7913505
827.30 0.7912008
827.40 0.7910512
827.50 0.7909017
827.60 0.7907522
827.70 0.7906027
827.80 0.7904533
827.90 0.790304
828.00 0.7901546
828.10 0.7900054
828.20 0.7898562
828.30 0.789707
828.40 0.7895579
828.50 0.7894088
828.60 0.7892606
828.70 0.789113
828.80 0.7889655
828.90 0.788818
829.00 0.7886706
829.10 0.7885232
829.20 0.7883759
829.30 0.7882287
829.40 0.7880814
829.50 0.7879343
829.60 0.7877871
829.70 0.78764
829.80 0.787493
829.90 0.787346
830.00 0.7871991
830.10 0.7870522
830.20 0.7869054
830.30 0.7867586
830.40 0.7866118
830.50 0.7864651
830.60 0.7863185
830.70 0.7861719
830.80 0.7860253
830.90 0.7858788
831.00 0.7857323
831.10 0.7855859
831.20 0.7854396
831.30 0.7852933
831.40 0.785147
831.50 0.7850008
831.60 0.7848546
831.70 0.7847085
831.80 0.7845624
831.90 0.7844164
832.00 0.7842704
832.10 0.7841244
832.20 0.7839786
832.30 0.7838327
832.40 0.7836869
832.50 0.7835412
832.60 0.7833955
832.70 0.7832498
832.80 0.7831042
832.90 0.7829587
833.00 0.7828132
833.10 0.7826677
833.20 0.7825223
833.30 0.7823769
833.40 0.7822316
833.50 0.7820863
833.60 0.7819411
833.70 0.7817959
833.80 0.7816508
833.90 0.7815057
834.00 0.7813607
834.10 0.7812157
834.20 0.7810707
834.30 0.7809258
834.40 0.780781
834.50 0.7806362
834.60 0.7804914
834.70 0.7803467
834.80 0.7802021
834.90 0.7800575
835.00 0.7799129
835.10 0.7797684
835.20 0.7796239
835.30 0.7794795
835.40 0.7793351
835.50 0.7791908
835.60 0.7790465
835.70 0.7789022
835.80 0.778758
835.90 0.7786139
836.00 0.7784698
836.10 0.7783258
836.20 0.7781817
836.30 0.7780378
836.40 0.7778939
836.50 0.77775
836.60 0.7776062
836.70 0.7774624
836.80 0.7773187
836.90 0.7771725
837.00 0.7770253
837.10 0.7768781
837.20 0.7767309
837.30 0.7765838
837.40 0.7764367
837.50 0.7762897
837.60 0.7761428
837.70 0.7759958
837.80 0.775849
837.90 0.7757022
838.00 0.7755554
838.10 0.7754087
838.20 0.775262
838.30 0.7751153
838.40 0.7749688
838.50 0.7748222
838.60 0.7746758
838.70 0.7745293
838.80 0.7743829
838.90 0.7742366
839.00 0.7740903
839.10 0.773944
839.20 0.7737978
839.30 0.7736517
839.40 0.7735056
839.50 0.7733595
839.60 0.7732135
839.70 0.7730676
839.80 0.7729217
839.90 0.7727758
840.00 0.77263
840.10 0.7724842
840.20 0.7723385
840.30 0.7721928
840.40 0.7720472
840.50 0.7719016
840.60 0.7717561
840.70 0.7716106
840.80 0.7714651
840.90 0.7713198
841.00 0.7711744
841.10 0.7710291
841.20 0.7708839
841.30 0.7707386
841.40 0.7705935
841.50 0.7704484
841.60 0.7703033
841.70 0.7701583
841.80 0.7700133
841.90 0.7698684
842.00 0.7697235
842.10 0.7695787
842.20 0.7694339
842.30 0.7692891
842.40 0.7691444
842.50 0.7689998
842.60 0.7688552
842.70 0.7687107
842.80 0.7685661
842.90 0.7684217
843.00 0.7682773
843.10 0.7681329
843.20 0.7679886
843.30 0.7678443
843.40 0.7677001
843.50 0.7675559
843.60 0.7674118
843.70 0.7672677
843.80 0.7671237
843.90 0.7669797
844.00 0.7668358
844.10 0.7666919
844.20 0.766548
844.30 0.7664042
844.40 0.7662605
844.50 0.7661167
844.60 0.7659731
844.70 0.7658295
844.80 0.7656859
844.90 0.7655424
845.00 0.7653989
845.10 0.7652555
845.20 0.7651121
845.30 0.7649653
845.40 0.7648185
845.50 0.7646718
845.60 0.7645251
845.70 0.7643785
845.80 0.7642319
845.90 0.7640854
846.00 0.7639389
846.10 0.7637925
846.20 0.7636461
846.30 0.7634998
846.40 0.7633535
846.50 0.7632073
846.60 0.7630611
846.70 0.762915
846.80 0.7627689
846.90 0.7626228
847.00 0.7624768
847.10 0.7623309
847.20 0.762185
847.30 0.7620391
847.40 0.7618933
847.50 0.7617475
847.60 0.7616018
847.70 0.7614562
847.80 0.7613105
847.90 0.761165
848.00 0.7610195
848.10 0.760874
848.20 0.7607286
848.30 0.7605832
848.40 0.7604378
848.50 0.7602926
848.60 0.7601473
848.70 0.7600021
848.80 0.759857
848.90 0.7597119
849.00 0.7595668
849.10 0.7594218
849.20 0.7592769
849.30 0.759132
849.40 0.7589871
849.50 0.7588423
849.60 0.7586975
849.70 0.7585528
849.80 0.7584082
849.90 0.7582635
850.00 0.758119
850.10 0.7579744
850.20 0.7578299
850.30 0.7576855
850.40 0.7575411
850.50 0.7573968
850.60 0.7572525
850.70 0.7571082
850.80 0.756964
850.90 0.7568199
851.00 0.7566758
851.10 0.7565317
851.20 0.7563877
851.30 0.7562437
851.40 0.7560998
851.50 0.7559559
851.60 0.7558121
851.70 0.7556683
851.80 0.7555246
851.90 0.7553809
852.00 0.7552373
852.10 0.7550937
852.20 0.7549501
852.30 0.7548066
852.40 0.7546632
852.50 0.7545198
852.60 0.7543764
852.70 0.7542331
852.80 0.7540898
852.90 0.7539466
853.00 0.7538034
853.10 0.7536603
853.20 0.7535172
853.30 0.7533742
853.40 0.7532312
853.50 0.7530882
853.60 0.7529454
853.70 0.7528009
853.80 0.7526547
853.90 0.7525086
854.00 0.7523626
854.10 0.7522166
854.20 0.7520706
854.30 0.7519247
854.40 0.7517788
854.50 0.751633
854.60 0.7514872
854.70 0.7513415
854.80 0.7511959
854.90 0.7510502
855.00 0.7509046
855.10 0.7507591
855.20 0.7506136
855.30 0.7504682
855.40 0.7503228
855.50 0.7501775
855.60 0.7500322
855.70 0.7498869
855.80 0.7497417
855.90 0.7495966
856.00 0.7494515
856.10 0.7493064
856.20 0.7491614
856.30 0.7490164
856.40 0.7488715
856.50 0.7487267
856.60 0.7485818
856.70 0.7484371
856.80 0.7482923
856.90 0.7481476
857.00 0.748003
857.10 0.7478584
857.20 0.7477139
857.30 0.7475694
857.40 0.747425
857.50 0.7472806
857.60 0.7471362
857.70 0.7469919
857.80 0.7468477
857.90 0.7467034
858.00 0.7465593
858.10 0.7464152
858.20 0.7462711
858.30 0.7461271
858.40 0.7459831
858.50 0.7458392
858.60 0.7456953
858.70 0.7455515
858.80 0.7454077
858.90 0.7452639
859.00 0.7451202
859.10 0.7449766
859.20 0.744833
859.30 0.7446894
859.40 0.7445459
859.50 0.7444025
859.60 0.7442591
859.70 0.7441157
859.80 0.7439724
859.90 0.7438291
860.00 0.7436859
860.10 0.7435427
860.20 0.7433996
860.30 0.7432565
860.40 0.7431134
860.50 0.7429704
860.60 0.7428275
860.70 0.7426846
860.80 0.7425417
860.90 0.7423989
861.00 0.7422561
861.10 0.7421134
861.20 0.7419708
861.30 0.7418281
861.40 0.7416856
861.50 0.741543
861.60 0.7414005
861.70 0.7412581
861.80 0.7411157
861.90 0.7409734
862.00 0.740831
862.10 0.7406888
862.20 0.7405464
862.30 0.7404024
862.40 0.7402586
862.50 0.7401147
862.60 0.739971
862.70 0.7398272
862.80 0.7396835
862.90 0.7395399
863.00 0.7393963
863.10 0.7392527
863.20 0.7391092
863.30 0.7389658
863.40 0.7388224
863.50 0.738679
863.60 0.7385357
863.70 0.7383924
863.80 0.7382492
863.90 0.738106
864.00 0.7379629
864.10 0.7378198
864.20 0.7376768
864.30 0.7375338
864.40 0.7373908
864.50 0.737248
864.60 0.7371051
864.70 0.7369623
864.80 0.7368195
864.90 0.7366768
865.00 0.7365342
865.10 0.7363915
865.20 0.736249
865.30 0.7361064
865.40 0.735964
865.50 0.7358215
865.60 0.7356791
865.70 0.7355368
865.80 0.7353945
865.90 0.7352522
866.00 0.73511
866.10 0.7349679
866.20 0.7348258
866.30 0.7346837
866.40 0.7345417
866.50 0.7343997
866.60 0.7342578
866.70 0.7341159
866.80 0.7339741
866.90 0.7338323
867.00 0.7336905
867.10 0.7335488
867.20 0.7334072
867.30 0.7332656
867.40 0.733124
867.50 0.7329825
867.60 0.732841
867.70 0.7326996
867.80 0.7325582
867.90 0.7324169
868.00 0.7322756
868.10 0.7321344
868.20 0.7319932
868.30 0.731852
868.40 0.7317109
868.50 0.7315699
868.60 0.7314288
868.70 0.7312879
868.80 0.731147
868.90 0.7310061
869.00 0.7308652
869.10 0.7307245
869.20 0.7305837
869.30 0.730443
869.40 0.7303024
869.50 0.7301618
869.60 0.7300212
869.70 0.7298807
869.80 0.7297402
869.90 0.7295998
870.00 0.7294594
870.10 0.7293191
870.20 0.7291788
870.30 0.7290386
870.40 0.7288984
870.50 0.7287582
870.60 0.7286181
870.70 0.7284781
870.80 0.728338
870.90 0.728194
871.00 0.7280495
871.10 0.7279051
871.20 0.7277608
871.30 0.7276164
871.40 0.7274722
871.50 0.727328
871.60 0.7271838
871.70 0.7270396
871.80 0.7268956
871.90 0.7267515
872.00 0.7266075
872.10 0.7264636
872.20 0.7263197
872.30 0.7261759
872.40 0.7260321
872.50 0.7258883
872.60 0.7257446
872.70 0.7256009
872.80 0.7254573
872.90 0.7253138
873.00 0.7251702
873.10 0.7250268
873.20 0.7248833
873.30 0.72474
873.40 0.7245966
873.50 0.7244533
873.60 0.7243101
873.70 0.7241669
873.80 0.7240238
873.90 0.7238807
874.00 0.7237376
874.10 0.7235946
874.20 0.7234517
874.30 0.7233087
874.40 0.7231659
874.50 0.7230231
874.60 0.7228803
874.70 0.7227375
874.80 0.7225949
874.90 0.7224522
875.00 0.7223096
875.10 0.7221671
875.20 0.7220256
875.30 0.721886
875.40 0.7217464
875.50 0.7216068
875.60 0.7214673
875.70 0.7213279
875.80 0.7211885
875.90 0.7210491
876.00 0.7209098
876.10 0.7207705
876.20 0.7206313
876.30 0.7204921
876.40 0.720353
876.50 0.7202139
876.60 0.7200748
876.70 0.7199358
876.80 0.7197968
876.90 0.7196579
877.00 0.719519
877.10 0.7193802
877.20 0.7192414
877.30 0.7191027
877.40 0.718964
877.50 0.7188253
877.60 0.7186867
877.70 0.7185482
877.80 0.7184097
877.90 0.7182712
878.00 0.7181328
878.10 0.7179944
878.20 0.717856
878.30 0.7177177
878.40 0.7175795
878.50 0.7174413
878.60 0.7173031
878.70 0.717165
878.80 0.7170269
878.90 0.7168889
879.00 0.7167509
879.10 0.716613
879.20 0.7164751
879.30 0.7163372
879.40 0.7161994
879.50 0.7160616
879.60 0.7159192
879.70 0.7157758
879.80 0.7156324
879.90 0.715489
880.00 0.7153457
880.10 0.7152024
880.20 0.7150592
880.30 0.7149161
880.40 0.714773
880.50 0.7146299
880.60 0.7144869
880.70 0.7143439
880.80 0.714201
880.90 0.7140581
881.00 0.7139152
881.10 0.7137724
881.20 0.7136297
881.30 0.713487
881.40 0.7133443
881.50 0.7132017
881.60 0.7130592
881.70 0.7129167
881.80 0.7127742
881.90 0.7126318
882.00 0.7124894
882.10 0.7123471
882.20 0.7122048
882.30 0.7120626
882.40 0.7119204
882.50 0.7117782
882.60 0.7116361
882.70 0.7114941
882.80 0.7113521
882.90 0.7112101
883.00 0.7110682
883.10 0.7109263
883.20 0.7107845
883.30 0.7106427
883.40 0.710501
883.50 0.7103593
883.60 0.7102177
883.70 0.7100761
883.80 0.7099346
883.90 0.7097931
884.00 0.7096539
884.10 0.7095152
884.20 0.7093766
884.30 0.709238
884.40 0.7090995
884.50 0.708961
884.60 0.7088225
884.70 0.7086841
884.80 0.7085458
884.90 0.7084075
885.00 0.7082692
885.10 0.708131
885.20 0.7079928
885.30 0.7078546
885.40 0.7077165
885.50 0.7075785
885.60 0.7074405
885.70 0.7073025
885.80 0.7071646
885.90 0.7070267
886.00 0.7068889
886.10 0.7067511
886.20 0.7066134
886.30 0.7064757
886.40 0.706338
886.50 0.7062004
886.60 0.7060629
886.70 0.7059254
886.80 0.7057879
886.90 0.7056504
887.00 0.7055131
887.10 0.7053757
887.20 0.7052384
887.30 0.7051012
887.40 0.704964
887.50 0.7048268
887.60 0.7046897
887.70 0.7045526
887.80 0.7044156
887.90 0.7042786
888.00 0.7041416
888.10 0.7040047
888.20 0.7038678
888.30 0.703731
888.40 0.7035906
888.50 0.7034496
888.60 0.7033087
888.70 0.7031678
888.80 0.703027
888.90 0.7028862
889.00 0.7027455
889.10 0.7026048
889.20 0.7024642
889.30 0.7023236
889.40 0.702183
889.50 0.7020425
889.60 0.701902
889.70 0.7017616
889.80 0.7016213
889.90 0.7014809
890.00 0.7013407
890.10 0.7012004
890.20 0.7010602
890.30 0.7009201
890.40 0.70078
890.50 0.7006399
890.60 0.7004999
890.70 0.70036
890.80 0.70022
890.90 0.7000802
891.00 0.6999404
891.10 0.6998006
891.20 0.6996608
891.30 0.6995211
891.40 0.6993815
891.50 0.6992419
891.60 0.6991023
891.70 0.6989628
891.80 0.6988234
891.90 0.6986839
892.00 0.6985446
892.10 0.6984052
892.20 0.6982659
892.30 0.6981267
892.40 0.6979875
892.50 0.6978484
892.60 0.6977092
892.70 0.6975702
892.80 0.6974312
892.90 0.6972922
893.00 0.6971533
893.10 0.6970144
893.20 0.6968755
893.30 0.6967367
893.40 0.696598
893.50 0.6964593
893.60 0.6963206
893.70 0.696182
893.80 0.6960434
893.90 0.6959049
894.00 0.6957664
894.10 0.695628
894.20 0.6954896
894.30 0.6953513
894.40 0.695213
894.50 0.6950747
894.60 0.6949365
894.70 0.6947983
894.80 0.6946602
894.90 0.6945221
895.00 0.6943841
895.10 0.6942461
895.20 0.6941081
895.30 0.6939702
895.40 0.6938324
895.50 0.6936946
895.60 0.6935568
895.70 0.6934191
895.80 0.6932814
895.90 0.6931437
896.00 0.6930061
896.10 0.6928686
896.20 0.6927311
896.30 0.6925936
896.40 0.6924562
896.50 0.6923188
896.60 0.6921815
896.70 0.6920442
896.80 0.691907
896.90 0.6917698
897.00 0.6916326
897.10 0.6914955
897.20 0.6913585
897.30 0.6912226
897.40 0.6910867
897.50 0.6909509
897.60 0.6908152
897.70 0.6906795
897.80 0.6905438
897.90 0.6904082
898.00 0.6902726
898.10 0.690137
898.20 0.6900015
898.30 0.6898661
898.40 0.6897306
898.50 0.6895953
898.60 0.6894599
898.70 0.6893247
898.80 0.6891894
898.90 0.6890542
899.00 0.6889191
899.10 0.688784
899.20 0.6886489
899.30 0.6885139
899.40 0.6883789
899.50 0.6882439
899.60 0.688109
899.70 0.6879742
899.80 0.6878394
899.90 0.6877046
900.00 0.6875699
900.10 0.6874352
900.20 0.6873005
900.30 0.6871659
900.40 0.6870314
900.50 0.6868969
900.60 0.6867624
900.70 0.686628
900.80 0.6864936
900.90 0.6863593
901.00 0.686225
901.10 0.6860907
901.20 0.6859565
901.30 0.6858223
901.40 0.6856882
901.50 0.6855541
901.60 0.6854201
901.70 0.6852851
901.80 0.685146
901.90 0.685007
902.00 0.684868
902.10 0.684729
902.20 0.6845901
902.30 0.6844512
902.40 0.6843123
902.50 0.6841736
902.60 0.6840348
902.70 0.6838961
902.80 0.6837575
902.90 0.6836188
903.00 0.6834803
903.10 0.6833418
903.20 0.6832033
903.30 0.6830648
903.40 0.6829264
903.50 0.6827881
903.60 0.6826498
903.70 0.6825115
903.80 0.6823733
903.90 0.6822352
904.00 0.682097
904.10 0.681959
904.20 0.6818209
904.30 0.6816829
904.40 0.681545
904.50 0.6814071
904.60 0.6812692
904.70 0.6811314
904.80 0.6809937
904.90 0.6808559
905.00 0.6807183
905.10 0.6805806
905.20 0.680443
905.30 0.6803055
905.40 0.680168
905.50 0.6800305
905.60 0.6798931
905.70 0.6797557
905.80 0.6796184
905.90 0.6794811
906.00 0.6793439
906.10 0.6792067
906.20 0.6790703
906.30 0.6789356
906.40 0.6788009
906.50 0.6786663
906.60 0.6785317
906.70 0.6783972
906.80 0.6782627
906.90 0.6781283
907.00 0.6779938
907.10 0.6778595
907.20 0.6777252
907.30 0.6775909
907.40 0.6774566
907.50 0.6773224
907.60 0.6771883
907.70 0.6770542
907.80 0.6769201
907.90 0.6767861
908.00 0.6766521
908.10 0.6765182
908.20 0.6763843
908.30 0.6762504
908.40 0.6761166
908.50 0.6759828
908.60 0.6758491
908.70 0.6757154
908.80 0.6755818
908.90 0.6754482
909.00 0.6753146
909.10 0.6751811
909.20 0.6750476
909.30 0.6749142
909.40 0.6747808
909.50 0.6746475
909.60 0.6745142
909.70 0.6743809
909.80 0.6742477
909.90 0.6741145
910.00 0.6739814
910.10 0.6738483
910.20 0.6737152
910.30 0.6735822
910.40 0.6734493
910.50 0.6733163
910.60 0.6731835
910.70 0.6730506
910.80 0.6729153
910.90 0.67278
911.00 0.6726448
911.10 0.6725097
911.20 0.6723745
911.30 0.6722395
911.40 0.6721044
911.50 0.6719694
911.60 0.6718345
911.70 0.6716996
911.80 0.6715647
911.90 0.6714299
912.00 0.6712951
912.10 0.6711604
912.20 0.6710257
912.30 0.670891
912.40 0.6707564
912.50 0.6706219
912.60 0.6704874
912.70 0.6703529
912.80 0.6702184
912.90 0.6700841
913.00 0.6699497
913.10 0.6698154
913.20 0.6696811
913.30 0.6695469
913.40 0.6694127
913.50 0.6692786
913.60 0.6691445
913.70 0.6690105
913.80 0.6688765
913.90 0.6687425
914.00 0.6686086
914.10 0.6684747
914.20 0.6683408
914.30 0.6682071
914.40 0.6680733
914.50 0.6679396
914.60 0.6678059
914.70 0.6676723
914.80 0.6675387
914.90 0.6674052
915.00 0.6672717
915.10 0.6671382
915.20 0.6670048
915.30 0.6668696
915.40 0.6667337
915.50 0.6665979
915.60 0.6664621
915.70 0.6663263
915.80 0.6661906
915.90 0.6660549
916.00 0.6659193
916.10 0.6657837
916.20 0.6656481
916.30 0.6655126
916.40 0.6653772
916.50 0.6652417
916.60 0.6651064
916.70 0.664971
916.80 0.6648357
916.90 0.6647005
917.00 0.6645653
917.10 0.6644301
917.20 0.664295
917.30 0.6641599
917.40 0.6640249
917.50 0.6638899
917.60 0.663755
917.70 0.6636201
917.80 0.6634852
917.90 0.6633504
918.00 0.6632156
918.10 0.6630809
918.20 0.6629462
918.30 0.6628116
918.40 0.662677
918.50 0.6625424
918.60 0.6624079
918.70 0.6622734
918.80 0.662139
918.90 0.6620046
919.00 0.6618702
919.10 0.6617359
919.20 0.6616017
919.30 0.6614675
919.40 0.6613333
919.50 0.6611992
919.60 0.6610651
919.70 0.660931
919.80 0.660797
919.90 0.6606631
920.00 0.6605291
920.10 0.6603953
920.20 0.6602614
920.30 0.6601277
920.40 0.6599939
920.50 0.6598602
920.60 0.6597265
920.70 0.6595929
920.80 0.6594593
920.90 0.6593258
921.00 0.6591923
921.10 0.6590589
921.20 0.6589255
921.30 0.6587921
921.40 0.6586588
921.50 0.6585255
921.60 0.6583923
921.70 0.6582591
921.80 0.6581259
921.90 0.6579928
922.00 0.6578597
922.10 0.6577267
922.20 0.6575937
922.30 0.6574608
922.40 0.6573279
922.50 0.657195
922.60 0.6570622
922.70 0.6569294
922.80 0.6567967
922.90 0.656664
923.00 0.6565314
923.10 0.6563988
923.20 0.6562662
923.30 0.6561337
923.40 0.6560012
923.50 0.6558688
923.60 0.6557364
923.70 0.655604
923.80 0.6554717
923.90 0.6553394
924.00 0.6552072
924.10 0.655075
924.20 0.6549429
924.30 0.6548108
924.40 0.6546787
924.50 0.6545466
924.60 0.6544145
924.70 0.6542825
924.80 0.6541505
924.90 0.6540185
925.00 0.6538866
925.10 0.6537548
925.20 0.653623
925.30 0.6534912
925.40 0.6533594
925.50 0.6532277
925.60 0.6530961
925.70 0.6529645
925.80 0.6528329
925.90 0.6527014
926.00 0.6525699
926.10 0.6524384
926.20 0.652307
926.30 0.6521757
926.40 0.6520443
926.50 0.6519131
926.60 0.6517818
926.70 0.6516506
926.80 0.6515195
926.90 0.6513884
927.00 0.6512573
927.10 0.6511263
927.20 0.6509953
927.30 0.6508643
927.40 0.6507334
927.50 0.6506025
927.60 0.6504717
927.70 0.6503409
927.80 0.6502102
927.90 0.6500795
928.00 0.6499488
928.10 0.6498182
928.20 0.6496876
928.30 0.6495571
928.40 0.6494266
928.50 0.6492961
928.60 0.6491657
928.70 0.6490354
928.80 0.648905
928.90 0.6487747
929.00 0.6486445
929.10 0.648512
929.20 0.6483795
929.30 0.648247
929.40 0.6481146
929.50 0.6479822
929.60 0.6478499
929.70 0.6477175
929.80 0.6475853
929.90 0.647453
930.00 0.6473209
930.10 0.6471887
930.20 0.6470566
930.30 0.6469246
930.40 0.6467926
930.50 0.6466606
930.60 0.6465286
930.70 0.6463968
930.80 0.6462649
930.90 0.6461331
931.00 0.6460013
931.10 0.6458696
931.20 0.6457379
931.30 0.6456063
931.40 0.6454747
931.50 0.6453431
931.60 0.6452116
931.70 0.6450801
931.80 0.6449487
931.90 0.6448173
932.00 0.644686
932.10 0.6445547
932.20 0.6444234
932.30 0.6442922
932.40 0.644161
932.50 0.6440298
932.60 0.6438987
932.70 0.6437677
932.80 0.6436367
932.90 0.6435057
933.00 0.6433748
933.10 0.6432439
933.20 0.643113
933.30 0.6429822
933.40 0.6428514
933.50 0.6427207
933.60 0.64259
933.70 0.6424593
933.80 0.6423287
933.90 0.642198
934.00 0.6420674
934.10 0.6419369
934.20 0.6418064
934.30 0.6416759
934.40 0.6415455
934.50 0.6414151
934.60 0.6412847
934.70 0.6411544
934.80 0.6410242
934.90 0.640894
935.00 0.6407638
935.10 0.6406336
935.20 0.6405035
935.30 0.6403735
935.40 0.6402435
935.50 0.6401135
935.60 0.6399836
935.70 0.6398537
935.80 0.6397238
935.90 0.639594
936.00 0.6394642
936.10 0.6393345
936.20 0.6392048
936.30 0.6390752
936.40 0.6389456
936.50 0.638816
936.60 0.6386865
936.70 0.638557
936.80 0.6384275
936.90 0.6382981
937.00 0.6381688
937.10 0.6380395
937.20 0.6379102
937.30 0.6377809
937.40 0.6376517
937.50 0.6375226
937.60 0.6373935
937.70 0.6372644
937.80 0.6371353
937.90 0.6370063
938.00 0.6368774
938.10 0.6367485
938.20 0.6366196
938.30 0.6364908
938.40 0.636362
938.50 0.6362332
938.60 0.6361045
938.70 0.6359758
938.80 0.6358472
938.90 0.6357186
939.00 0.63559
939.10 0.6354615
939.20 0.6353331
939.30 0.6352046
939.40 0.6350762
939.50 0.6349479
939.60 0.6348196
939.70 0.6346913
939.80 0.6345631
939.90 0.6344349
940.00 0.6343067
940.10 0.6341786
940.20 0.6340506
940.30 0.6339225
940.40 0.6337945
940.50 0.6336666
940.60 0.6335387
940.70 0.6334108
940.80 0.633283
940.90 0.6331552
941.00 0.6330275
941.10 0.6328997
941.20 0.6327721
941.30 0.6326444
941.40 0.6325169
941.50 0.6323893
941.60 0.6322618
941.70 0.6321343
941.80 0.6320069
941.90 0.6318795
942.00 0.6317522
942.10 0.6316249
942.20 0.6314976
942.30 0.6313704
942.40 0.6312432
942.50 0.631116
942.60 0.6309889
942.70 0.6308618
942.80 0.6307348
942.90 0.6306078
943.00 0.63048
943.10 0.6303508
943.20 0.6302216
943.30 0.6300924
943.40 0.6299633
943.50 0.6298343
943.60 0.6297053
943.70 0.6295763
943.80 0.6294474
943.90 0.6293185
944.00 0.6291896
944.10 0.6290608
944.20 0.628932
944.30 0.6288033
944.40 0.6286746
944.50 0.628546
944.60 0.6284173
944.70 0.6282888
944.80 0.6281602
944.90 0.6280318
945.00 0.6279033
945.10 0.6277749
945.20 0.6276465
945.30 0.6275182
945.40 0.6273899
945.50 0.6272617
945.60 0.6271335
945.70 0.6270053
945.80 0.6268772
945.90 0.6267491
946.00 0.626621
946.10 0.626493
946.20 0.626365
946.30 0.6262371
946.40 0.6261092
946.50 0.6259814
946.60 0.6258536
946.70 0.6257258
946.80 0.6255981
946.90 0.6254704
947.00 0.6253428
947.10 0.6252151
947.20 0.6250876
947.30 0.62496
947.40 0.6248326
947.50 0.6247051
947.60 0.6245777
947.70 0.6244503
947.80 0.624323
947.90 0.6241957
948.00 0.6240685
948.10 0.6239413
948.20 0.6238141
948.30 0.623687
948.40 0.6235599
948.50 0.6234328
948.60 0.6233058
948.70 0.6231789
948.80 0.6230519
948.90 0.622925
949.00 0.6227982
949.10 0.6226714
949.20 0.6225446
949.30 0.6224179
949.40 0.6222912
949.50 0.6221645
949.60 0.6220379
949.70 0.6219113
949.80 0.6217848
949.90 0.6216583
950.00 0.6215318
950.10 0.6214054
950.20 0.6212791
950.30 0.6211527
950.40 0.6210264
950.50 0.6209002
950.60 0.6207739
950.70 0.6206478
950.80 0.6205216
950.90 0.6203955
951.00 0.6202695
951.10 0.6201434
951.20 0.6200175
951.30 0.6198915
951.40 0.6197656
951.50 0.6196397
951.60 0.6195139
951.70 0.6193881
951.80 0.6192624
951.90 0.6191367
952.00 0.619011
952.10 0.6188854
952.20 0.6187598
952.30 0.6186342
952.40 0.6185085
952.50 0.6183809
952.60 0.6182532
952.70 0.6181256
952.80 0.617998
952.90 0.6178705
953.00 0.617743
953.10 0.6176155
953.20 0.6174881
953.30 0.6173608
953.40 0.6172334
953.50 0.6171061
953.60 0.6169789
953.70 0.6168517
953.80 0.6167245
953.90 0.6165974
954.00 0.6164703
954.10 0.6163432
954.20 0.6162162
954.30 0.6160892
954.40 0.6159623
954.50 0.6158354
954.60 0.6157086
954.70 0.6155817
954.80 0.615455
954.90 0.6153282
955.00 0.6152015
955.10 0.6150749
955.20 0.6149483
955.30 0.6148217
955.40 0.6146952
955.50 0.6145687
955.60 0.6144422
955.70 0.6143158
955.80 0.6141894
955.90 0.6140631
956.00 0.6139368
956.10 0.6138105
956.20 0.6136843
956.30 0.6135581
956.40 0.6134319
956.50 0.6133058
956.60 0.6131798
956.70 0.6130538
956.80 0.6129278
956.90 0.6128018
957.00 0.6126759
957.10 0.61255
957.20 0.6124242
957.30 0.6122984
957.40 0.6121727
957.50 0.612047
957.60 0.6119213
957.70 0.6117957
957.80 0.6116701
957.90 0.6115445
958.00 0.611419
958.10 0.6112935
958.20 0.6111681
958.30 0.6110427
958.40 0.6109173
958.50 0.610792
958.60 0.6106667
958.70 0.6105415
958.80 0.6104163
958.90 0.6102911
959.00 0.610166
959.10 0.6100409
959.20 0.6099158
959.30 0.6097908
959.40 0.6096659
959.50 0.6095409
959.60 0.609416
959.70 0.6092912
959.80 0.6091664
959.90 0.6090416
960.00 0.6089169
960.10 0.6087922
960.20 0.6086675
960.30 0.6085429
960.40 0.6084183
960.50 0.6082937
960.60 0.6081692
960.70 0.6080448
960.80 0.6079203
960.90 0.607796
961.00 0.6076716
961.10 0.6075473
961.20 0.607423
961.30 0.6072988
961.40 0.6071746
961.50 0.6070504
961.60 0.6069263
961.70 0.6068022
961.80 0.6066782
961.90 0.6065542
962.00 0.6064293
962.10 0.6063043
962.20 0.6061794
962.30 0.6060544
962.40 0.6059295
962.50 0.6058047
962.60 0.6056799
962.70 0.6055551
962.80 0.6054304
962.90 0.6053057
963.00 0.605181
963.10 0.6050564
963.20 0.6049318
963.30 0.6048073
963.40 0.6046828
963.50 0.6045584
963.60 0.6044339
963.70 0.6043095
963.80 0.6041852
963.90 0.6040609
964.00 0.6039366
964.10 0.6038124
964.20 0.6036882
964.30 0.6035641
964.40 0.60344
964.50 0.6033159
964.60 0.6031918
964.70 0.6030678
964.80 0.6029439
964.90 0.60282
965.00 0.6026961
965.10 0.6025722
965.20 0.6024484
965.30 0.6023247
965.40 0.6022009
965.50 0.6020772
965.60 0.6019536
965.70 0.60183
965.80 0.6017064
965.90 0.6015829
966.00 0.6014594
966.10 0.6013359
966.20 0.6012125
966.30 0.6010891
966.40 0.6009658
966.50 0.6008424
966.60 0.6007192
966.70 0.6005959
966.80 0.6004728
966.90 0.6003496
967.00 0.6002265
967.10 0.6001034
967.20 0.5999804
967.30 0.5998574
967.40 0.5997344
967.50 0.5996115
967.60 0.5994886
967.70 0.5993657
967.80 0.5992429
967.90 0.5991201
968.00 0.5989974
968.10 0.5988747
968.20 0.598752
968.30 0.5986294
968.40 0.5985068
968.50 0.5983843
968.60 0.5982618
968.70 0.5981393
968.80 0.5980169
968.90 0.5978945
969.00 0.5977721
969.10 0.5976498
969.20 0.5975275
969.30 0.5974053
969.40 0.5972831
969.50 0.5971609
969.60 0.5970388
969.70 0.5969167
969.80 0.5967946
969.90 0.5966726
970.00 0.5965506
970.10 0.5964287
970.20 0.5963068
970.30 0.5961849
970.40 0.5960631
970.50 0.5959413
970.60 0.5958195
970.70 0.5956978
970.80 0.5955761
970.90 0.5954545
971.00 0.5953329
971.10 0.5952113
971.20 0.5950898
971.30 0.5949683
971.40 0.5948468
971.50 0.5947254
971.60 0.5946027
971.70 0.5944793
971.80 0.5943559
971.90 0.5942326
972.00 0.5941093
972.10 0.593986
972.20 0.5938628
972.30 0.5937397
972.40 0.5936165
972.50 0.5934934
972.60 0.5933704
972.70 0.5932474
972.80 0.5931244
972.90 0.5930014
973.00 0.5928785
973.10 0.5927557
973.20 0.5926328
973.30 0.59251
973.40 0.5923873
973.50 0.5922646
973.60 0.5921419
973.70 0.5920192
973.80 0.5918966
973.90 0.5917741
974.00 0.5916515
974.10 0.5915291
974.20 0.5914066
974.30 0.5912842
974.40 0.5911618
974.50 0.5910395
974.60 0.5909172
974.70 0.5907949
974.80 0.5906727
974.90 0.5905505
975.00 0.5904284
975.10 0.5903062
975.20 0.5901842
975.30 0.5900621
975.40 0.5899401
975.50 0.5898182
975.60 0.5896963
975.70 0.5895744
975.80 0.5894525
975.90 0.5893307
976.00 0.5892089
976.10 0.5890872
976.20 0.5889655
976.30 0.5888438
976.40 0.5887222
976.50 0.5886006
976.60 0.5884791
976.70 0.5883576
976.80 0.5882361
976.90 0.5881147
977.00 0.5879933
977.10 0.5878719
977.20 0.5877506
977.30 0.5876293
977.40 0.5875081
977.50 0.5873868
977.60 0.5872657
977.70 0.5871445
977.80 0.5870234
977.90 0.5869024
978.00 0.5867813
978.10 0.5866604
978.20 0.5865394
978.30 0.5864185
978.40 0.5862976
978.50 0.5861768
978.60 0.586056
978.70 0.5859352
978.80 0.5858145
978.90 0.5856938
979.00 0.5855731
979.10 0.5854525
979.20 0.5853319
979.30 0.5852114
979.40 0.5850909
979.50 0.5849704
979.60 0.58485
979.70 0.5847296
979.80 0.5846092
979.90 0.5844889
980.00 0.5843686
980.10 0.5842484
980.20 0.5841282
980.30 0.584008
980.40 0.5838879
980.50 0.5837678
980.60 0.5836477
980.70 0.5835277
980.80 0.5834077
980.90 0.5832877
981.00 0.5831678
981.10 0.5830479
981.20 0.5829281
981.30 0.5828078
981.40 0.5826871
981.50 0.5825663
981.60 0.5824457
981.70 0.582325
981.80 0.5822044
981.90 0.5820839
982.00 0.5819633
982.10 0.5818428
982.20 0.5817224
982.30 0.581602
982.40 0.5814816
982.50 0.5813612
982.60 0.5812409
982.70 0.5811207
982.80 0.5810004
982.90 0.5808802
983.00 0.5807601
983.10 0.5806399
983.20 0.5805199
983.30 0.5803998
983.40 0.5802798
983.50 0.5801598
983.60 0.5800399
983.70 0.57992
983.80 0.5798001
983.90 0.5796803
984.00 0.5795605
984.10 0.5794407
984.20 0.579321
984.30 0.5792013
984.40 0.5790817
984.50 0.5789621
984.60 0.5788425
984.70 0.578723
984.80 0.5786035
984.90 0.578484
985.00 0.5783646
985.10 0.5782452
985.20 0.5781259
985.30 0.5780065
985.40 0.5778873
985.50 0.577768
985.60 0.5776488
985.70 0.5775296
985.80 0.5774105
985.90 0.5772914
986.00 0.5771724
986.10 0.5770533
986.20 0.5769343
986.30 0.5768154
986.40 0.5766965
986.50 0.5765776
986.60 0.5764588
986.70 0.57634
986.80 0.5762212
986.90 0.5761024
987.00 0.5759838
987.10 0.5758651
987.20 0.5757465
987.30 0.5756279
987.40 0.5755093
987.50 0.5753908
987.60 0.5752723
987.70 0.5751539
987.80 0.5750355
987.90 0.5749171
988.00 0.5747988
988.10 0.5746805
988.20 0.5745622
988.30 0.574444
988.40 0.5743258
988.50 0.5742076
988.60 0.5740895
988.70 0.5739714
988.80 0.5738534
988.90 0.5737354
989.00 0.5736174
989.10 0.5734995
989.20 0.5733816
989.30 0.5732637
989.40 0.5731459
989.50 0.5730281
989.60 0.5729103
989.70 0.5727926
989.80 0.5726749
989.90 0.5725573
990.00 0.5724397
990.10 0.5723221
990.20 0.5722045
990.30 0.572087
990.40 0.5719696
990.50 0.5718521
990.60 0.5717347
990.70 0.5716174
990.80 0.5715
990.90 0.5713827
991.00 0.5712655
991.10 0.5711475
991.20 0.5710285
991.30 0.5709094
991.40 0.5707904
991.50 0.5706714
991.60 0.5705524
991.70 0.5704335
991.80 0.5703146
991.90 0.5701958
992.00 0.570077
992.10 0.5699582
992.20 0.5698395
992.30 0.5697208
992.40 0.5696021
992.50 0.5694835
992.60 0.5693649
992.70 0.5692464
992.80 0.5691279
992.90 0.5690094
993.00 0.5688909
993.10 0.5687725
993.20 0.5686542
993.30 0.5685358
993.40 0.5684175
993.50 0.5682993
993.60 0.5681811
993.70 0.5680629
993.80 0.5679447
993.90 0.5678266
994.00 0.5677085
994.10 0.5675905
994.20 0.5674725
994.30 0.5673545
994.40 0.5672366
994.50 0.5671187
994.60 0.5670008
994.70 0.566883
994.80 0.5667652
994.90 0.5666474
995.00 0.5665297
995.10 0.566412
995.20 0.5662944
995.30 0.5661767
995.40 0.5660592
995.50 0.5659416
995.60 0.5658241
995.70 0.5657066
995.80 0.5655892
995.90 0.5654718
996.00 0.5653544
996.10 0.5652371
996.20 0.5651198
996.30 0.5650026
996.40 0.5648853
996.50 0.5647682
996.60 0.564651
996.70 0.5645339
996.80 0.5644168
996.90 0.5642998
997.00 0.5641828
997.10 0.5640658
997.20 0.5639489
997.30 0.563832
997.40 0.5637151
997.50 0.5635983
997.60 0.5634815
997.70 0.5633647
997.80 0.563248
997.90 0.5631313
998.00 0.5630147
998.10 0.5628981
998.20 0.5627815
998.30 0.5626649
998.40 0.5625484
998.50 0.562432
998.60 0.5623155
998.70 0.5621991
998.80 0.5620827
998.90 0.5619664
999.00 0.5618501
999.10 0.5617339
999.20 0.5616176
999.30 0.5615014
999.40 0.5613853
999.50 0.5612692
999.60 0.5611531
999.70 0.561037
999.80 0.560921
999.90 0.560805
1000.00 0.5606891
1000.10 0.5605732
1000.20 0.5604573
1000.30 0.5603415
1000.40 0.5602257
1000.50 0.5601099
1000.60 0.5599942
1000.70 0.5598785
1000.80 0.5597628
1000.90 0.5596472
1001.00 0.5595316
1001.10 0.5594161
1001.20 0.5593006
1001.30 0.5591851
1001.40 0.5590697
1001.50 0.5589543
1001.60 0.558839
1001.70 0.5587237
1001.80 0.5586084
1001.90 0.5584931
1002.00 0.5583779
1002.10 0.5582628
1002.20 0.5581476
1002.30 0.5580325
1002.40 0.5579175
1002.50 0.5578024
1002.60 0.5576874
1002.70 0.5575725
1002.80 0.5574575
1002.90 0.5573426
1003.00 0.5572278
1003.10 0.557113
1003.20 0.5569982
1003.30 0.5568834
1003.40 0.5567687
1003.50 0.556654
1003.60 0.5565394
1003.70 0.5564247
1003.80 0.5563102
1003.90 0.5561956
1004.00 0.5560811
1004.10 0.5559666
1004.20 0.5558522
1004.30 0.5557378
1004.40 0.5556234
1004.50 0.555509
1004.60 0.5553947
1004.70 0.5552805
1004.80 0.5551662
1004.90 0.555052
1005.00 0.5549379
1005.10 0.5548237
1005.20 0.5547096
1005.30 0.5545956
1005.40 0.5544815
1005.50 0.5543675
1005.60 0.5542536
1005.70 0.5541397
1005.80 0.5540258
1005.90 0.5539119
1006.00 0.5537977
1006.10 0.5536821
1006.20 0.5535664
1006.30 0.5534509
1006.40 0.5533353
1006.50 0.5532198
1006.60 0.5531044
1006.70 0.5529889
1006.80 0.5528735
1006.90 0.5527582
1007.00 0.5526428
1007.10 0.5525275
1007.20 0.5524123
1007.30 0.5522971
1007.40 0.5521819
1007.50 0.5520667
1007.60 0.5519516
1007.70 0.5518365
1007.80 0.5517215
1007.90 0.5516064
1008.00 0.5514915
1008.10 0.5513765
1008.20 0.5512616
1008.30 0.5511467
1008.40 0.5510319
1008.50 0.5509171
1008.60 0.5508023
1008.70 0.5506876
1008.80 0.5505729
1008.90 0.5504582
1009.00 0.5503436
1009.10 0.550229
1009.20 0.5501144
1009.30 0.5499999
1009.40 0.5498854
1009.50 0.5497709
1009.60 0.5496565
1009.70 0.5495421
1009.80 0.5494277
1009.90 0.5493134
1010.00 0.5491991
1010.10 0.5490849
1010.20 0.5489707
1010.30 0.5488565
1010.40 0.5487423
1010.50 0.5486282
1010.60 0.5485141
1010.70 0.5484001
1010.80 0.5482861
1010.90 0.5481721
1011.00 0.5480582
1011.10 0.5479443
1011.20 0.5478305
1011.30 0.5477167
1011.40 0.5476029
1011.50 0.5474892
1011.60 0.5473755
1011.70 0.5472619
1011.80 0.5471483
1011.90 0.5470347
1012.00 0.5469212
1012.10 0.5468077
1012.20 0.5466942
1012.30 0.5465807
1012.40 0.5464673
1012.50 0.5463539
1012.60 0.5462406
1012.70 0.5461273
1012.80 0.546014
1012.90 0.5459008
1013.00 0.5457876
1013.10 0.5456744
1013.20 0.5455613
1013.30 0.5454482
1013.40 0.5453351
1013.50 0.5452221
1013.60 0.5451091
1013.70 0.5449961
1013.80 0.5448832
1013.90 0.5447703
1014.00 0.5446574
1014.10 0.5445446
1014.20 0.5444318
1014.30 0.544319
1014.40 0.5442063
1014.50 0.5440936
1014.60 0.5439809
1014.70 0.5438683
1014.80 0.5437557
1014.90 0.5436432
1015.00 0.5435306
1015.10 0.5434181
1015.20 0.5433057
1015.30 0.5431933
1015.40 0.5430809
1015.50 0.5429685
1015.60 0.5428562
1015.70 0.5427439
1015.80 0.5426317
1015.90 0.5425194
1016.00 0.5424072
1016.10 0.542294
1016.20 0.5421801
1016.30 0.5420662
1016.40 0.5419523
1016.50 0.5418385
1016.60 0.5417247
1016.70 0.541611
1016.80 0.5414973
1016.90 0.5413836
1017.00 0.5412699
1017.10 0.5411563
1017.20 0.5410427
1017.30 0.5409292
1017.40 0.5408157
1017.50 0.5407022
1017.60 0.5405888
1017.70 0.5404754
1017.80 0.540362
1017.90 0.5402487
1018.00 0.5401354
1018.10 0.5400221
1018.20 0.5399089
1018.30 0.5397957
1018.40 0.5396825
1018.50 0.5395694
1018.60 0.5394563
1018.70 0.5393432
1018.80 0.5392302
1018.90 0.5391172
1019.00 0.5390042
1019.10 0.5388913
1019.20 0.5387784
1019.30 0.5386655
1019.40 0.5385527
1019.50 0.5384399
1019.60 0.5383271
1019.70 0.5382144
1019.80 0.5381017
1019.90 0.5379891
1020.00 0.5378764
1020.10 0.5377638
1020.20 0.5376513
1020.30 0.5375388
1020.40 0.5374263
1020.50 0.5373138
1020.60 0.5372014
1020.70 0.537089
1020.80 0.5369767
1020.90 0.5368643
1021.00 0.536752
1021.10 0.5366399
1021.20 0.5365295
1021.30 0.5364192
1021.40 0.5363089
1021.50 0.5361986
1021.60 0.5360883
1021.70 0.5359781
1021.80 0.5358679
1021.90 0.5357578
1022.00 0.5356476
1022.10 0.5355376
1022.20 0.5354275
1022.30 0.5353175
1022.40 0.5352075
1022.50 0.5350975
1022.60 0.5349876
1022.70 0.5348777
1022.80 0.5347678
1022.90 0.534658
1023.00 0.5345482
1023.10 0.5344385
1023.20 0.5343287
1023.30 0.534219
1023.40 0.5341094
1023.50 0.5339997
1023.60 0.5338902
1023.70 0.5337806
1023.80 0.5336711
1023.90 0.5335616
1024.00 0.5334521
1024.10 0.5333427
1024.20 0.5332332
1024.30 0.5331239
1024.40 0.5330145
1024.50 0.5329052
1024.60 0.532796
1024.70 0.5326867
1024.80 0.5325775
1024.90 0.5324683
1025.00 0.5323592
1025.10 0.5322501
1025.20 0.532141
1025.30 0.532032
1025.40 0.531923
1025.50 0.531814
1025.60 0.531705
1025.70 0.5315961
1025.80 0.5314872
1025.90 0.5313784
1026.00 0.5312696
1026.10 0.5311608
1026.20 0.531052
1026.30 0.5309398
1026.40 0.5308276
1026.50 0.5307154
1026.60 0.5306033
1026.70 0.5304913
1026.80 0.5303792
1026.90 0.5302672
1027.00 0.5301552
1027.10 0.5300433
1027.20 0.5299314
1027.30 0.5298195
1027.40 0.5297076
1027.50 0.5295958
1027.60 0.529484
1027.70 0.5293723
1027.80 0.5292606
1027.90 0.5291489
1028.00 0.5290373
1028.10 0.5289256
1028.20 0.5288141
1028.30 0.5287025
1028.40 0.528591
1028.50 0.5284795
1028.60 0.5283681
1028.70 0.5282567
1028.80 0.5281453
1028.90 0.528034
1029.00 0.5279227
1029.10 0.5278114
1029.20 0.5277001
1029.30 0.5275889
1029.40 0.5274777
1029.50 0.5273666
1029.60 0.5272555
1029.70 0.5271444
1029.80 0.5270334
1029.90 0.5269223
1030.00 0.5268114
1030.10 0.5267004
1030.20 0.5265895
1030.30 0.5264786
1030.40 0.5263678
1030.50 0.526257
1030.60 0.5261462
1030.70 0.5260354
1030.80 0.5259247
1030.90 0.5258141
1031.00 0.5257034
1031.10 0.5255928
1031.20 0.5254822
1031.30 0.5253717
1031.40 0.5252629
1031.50 0.5251542
1031.60 0.5250455
1031.70 0.5249369
1031.80 0.5248283
1031.90 0.5247198
1032.00 0.5246113
1032.10 0.5245028
1032.20 0.5243943
1032.30 0.5242859
1032.40 0.5241775
1032.50 0.5240691
1032.60 0.5239608
1032.70 0.5238525
1032.80 0.5237442
1032.90 0.523636
1033.00 0.5235278
1033.10 0.5234196
1033.20 0.5233115
1033.30 0.5232034
1033.40 0.5230953
1033.50 0.5229873
1033.60 0.5228792
1033.70 0.5227713
1033.80 0.5226633
1033.90 0.5225554
1034.00 0.5224475
1034.10 0.5223397
1034.20 0.5222319
1034.30 0.5221241
1034.40 0.5220163
1034.50 0.5219086
1034.60 0.5218009
1034.70 0.5216933
1034.80 0.5215856
1034.90 0.521478
1035.00 0.5213705
1035.10 0.5212629
1035.20 0.5211554
1035.30 0.521048
1035.40 0.5209405
1035.50 0.5208331
1035.60 0.5207258
1035.70 0.5206184
1035.80 0.5205111
1035.90 0.5204038
1036.00 0.5202966
1036.10 0.5201894
1036.20 0.5200822
1036.30 0.519975
1036.40 0.5198679
1036.50 0.5197602
1036.60 0.5196514
1036.70 0.5195427
1036.80 0.519434
1036.90 0.5193254
1037.00 0.5192168
1037.10 0.5191082
1037.20 0.5189996
1037.30 0.5188911
1037.40 0.5187826
1037.50 0.5186741
1037.60 0.5185657
1037.70 0.5184573
1037.80 0.5183489
1037.90 0.5182406
1038.00 0.5181323
1038.10 0.518024
1038.20 0.5179158
1038.30 0.5178076
1038.40 0.5176994
1038.50 0.5175913
1038.60 0.5174832
1038.70 0.5173751
1038.80 0.5172671
1038.90 0.5171591
1039.00 0.5170511
1039.10 0.5169431
1039.20 0.5168352
1039.30 0.5167273
1039.40 0.5166195
1039.50 0.5165117
1039.60 0.5164039
1039.70 0.5162961
1039.80 0.5161884
1039.90 0.5160807
1040.00 0.515973
1040.10 0.5158654
1040.20 0.5157578
1040.30 0.5156502
1040.40 0.5155427
1040.50 0.5154352
1040.60 0.5153277
1040.70 0.5152203
1040.80 0.5151129
1040.90 0.5150055
1041.00 0.5148982
1041.10 0.5147909
1041.20 0.5146836
1041.30 0.5145763
1041.40 0.5144691
1041.50 0.514362
1041.60 0.5142548
1041.70 0.5141477
1041.80 0.5140407
1041.90 0.5139338
1042.00 0.5138268
1042.10 0.5137199
1042.20 0.513613
1042.30 0.5135062
1042.40 0.5133994
1042.50 0.5132926
1042.60 0.5131858
1042.70 0.5130791
1042.80 0.5129724
1042.90 0.5128658
1043.00 0.5127591
1043.10 0.5126526
1043.20 0.512546
1043.30 0.5124395
1043.40 0.512333
1043.50 0.5122265
1043.60 0.5121201
1043.70 0.5120136
1043.80 0.5119073
1043.90 0.5118009
1044.00 0.5116946
1044.10 0.5115883
1044.20 0.5114821
1044.30 0.5113759
1044.40 0.5112697
1044.50 0.5111635
1044.60 0.5110574
1044.70 0.5109513
1044.80 0.5108452
1044.90 0.5107392
1045.00 0.5106332
1045.10 0.5105272
1045.20 0.5104213
1045.30 0.5103154
1045.40 0.5102095
1045.50 0.5101037
1045.60 0.5099979
1045.70 0.5098921
1045.80 0.5097863
1045.90 0.5096806
1046.00 0.5095749
1046.10 0.5094693
1046.20 0.5093637
1046.30 0.5092581
1046.40 0.5091525
1046.50 0.509047
1046.60 0.5089415
1046.70 0.508836
1046.80 0.5087306
1046.90 0.5086239
1047.00 0.5085169
1047.10 0.5084099
1047.20 0.5083029
1047.30 0.508196
1047.40 0.5080891
1047.50 0.5079823
1047.60 0.5078754
1047.70 0.5077686
1047.80 0.5076619
1047.90 0.5075551
1048.00 0.5074484
1048.10 0.5073417
1048.20 0.5072351
1048.30 0.5071285
1048.40 0.5070219
1048.50 0.5069153
1048.60 0.5068088
1048.70 0.5067023
1048.80 0.5065959
1048.90 0.5064895
1049.00 0.5063831
1049.10 0.5062767
1049.20 0.5061704
1049.30 0.5060641
1049.40 0.5059578
1049.50 0.5058516
1049.60 0.5057454
1049.70 0.5056392
1049.80 0.5055331
1049.90 0.505427
1050.00 0.5053209
1050.10 0.5052148
1050.20 0.5051088
1050.30 0.5050028
1050.40 0.5048969
1050.50 0.5047909
1050.60 0.5046851
1050.70 0.5045792
1050.80 0.5044734
1050.90 0.5043676
1051.00 0.5042618
1051.10 0.5041561
1051.20 0.5040504
1051.30 0.5039447
1051.40 0.503839
1051.50 0.5037334
1051.60 0.5036279
1051.70 0.5035223
1051.80 0.5034168
1051.90 0.5033113
1052.00 0.5032058
1052.10 0.5031005
1052.20 0.5029952
1052.30 0.5028899
1052.40 0.5027847
1052.50 0.5026795
1052.60 0.5025743
1052.70 0.5024692
1052.80 0.502364
1052.90 0.502259
1053.00 0.5021539
1053.10 0.5020489
1053.20 0.5019439
1053.30 0.501839
1053.40 0.501734
1053.50 0.5016291
1053.60 0.5015243
1053.70 0.5014194
1053.80 0.5013146
1053.90 0.5012099
1054.00 0.5011051
1054.10 0.5010004
1054.20 0.5008957
1054.30 0.5007911
1054.40 0.5006865
1054.50 0.5005819
1054.60 0.5004773
1054.70 0.5003728
1054.80 0.5002683
1054.90 0.5001638
1055.00 0.5000594
1055.10 0.499955
1055.20 0.4998506
1055.30 0.4997463
1055.40 0.4996419
1055.50 0.4995377
1055.60 0.4994334
1055.70 0.4993292
1055.80 0.499225
1055.90 0.4991208
1056.00 0.4990167
1056.10 0.4989126
1056.20 0.4988085
1056.30 0.4987045
1056.40 0.4986005
1056.50 0.4984965
1056.60 0.4983926
1056.70 0.4982887
1056.80 0.4981848
1056.90 0.4980809
1057.00 0.4979771
1057.10 0.4978733
1057.20 0.4977695
1057.30 0.4976658
1057.40 0.4975621
1057.50 0.4974584
1057.60 0.4973548
1057.70 0.4972512
1057.80 0.4971476
1057.90 0.497044
1058.00 0.4969405
1058.10 0.496837
1058.20 0.4967335
1058.30 0.4966301
1058.40 0.4965267
1058.50 0.4964233
1058.60 0.49632
1058.70 0.4962167
1058.80 0.4961134
1058.90 0.4960102
1059.00 0.4959069
1059.10 0.4958038
1059.20 0.4957006
1059.30 0.4955975
1059.40 0.4954944
1059.50 0.4953913
1059.60 0.4952883
1059.70 0.4951852
1059.80 0.4950823
1059.90 0.4949793
1060.00 0.4948764
1060.10 0.4947735
1060.20 0.4946706
1060.30 0.4945678
1060.40 0.494465
1060.50 0.4943622
1060.60 0.4942595
1060.70 0.4941568
1060.80 0.4940541
1060.90 0.4939515
1061.00 0.4938488
1061.10 0.4937463
1061.20 0.4936437
1061.30 0.4935412
1061.40 0.4934387
1061.50 0.4933362
1061.60 0.4932338
1061.70 0.4931313
1061.80 0.493029
1061.90 0.4929266
1062.00 0.4928243
1062.10 0.492722
1062.20 0.4926197
1062.30 0.4925175
1062.40 0.4924153
1062.50 0.4923131
1062.60 0.492211
1062.70 0.492109
1062.80 0.492007
1062.90 0.4919051
1063.00 0.4918031
1063.10 0.4917012
1063.20 0.4915994
1063.30 0.4914975
1063.40 0.4913957
1063.50 0.4912939
1063.60 0.4911922
1063.70 0.4910905
1063.80 0.4909888
1063.90 0.4908871
1064.00 0.4907855
1064.10 0.4906839
1064.20 0.4905823
1064.30 0.4904807
1064.40 0.4903792
1064.50 0.4902777
1064.60 0.4901763
1064.70 0.4900749
1064.80 0.4899735
1064.90 0.4898721
1065.00 0.4897707
1065.10 0.4896694
1065.20 0.4895682
1065.30 0.4894669
1065.40 0.4893657
1065.50 0.4892645
1065.60 0.4891633
1065.70 0.4890622
1065.80 0.4889611
1065.90 0.48886
1066.00 0.488759
1066.10 0.488658
1066.20 0.488557
1066.30 0.488456
1066.40 0.4883551
1066.50 0.4882542
1066.60 0.4881533
1066.70 0.4880525
1066.80 0.4879517
1066.90 0.4878509
1067.00 0.4877501
1067.10 0.4876494
1067.20 0.4875487
1067.30 0.487448
1067.40 0.4873474
1067.50 0.4872468
1067.60 0.4871462
1067.70 0.4870457
1067.80 0.4869452
1067.90 0.4868441
1068.00 0.4867421
1068.10 0.4866402
1068.20 0.4865382
1068.30 0.4864363
1068.40 0.4863344
1068.50 0.4862325
1068.60 0.4861307
1068.70 0.4860289
1068.80 0.4859271
1068.90 0.4858254
1069.00 0.4857236
1069.10 0.4856219
1069.20 0.4855203
1069.30 0.4854187
1069.40 0.4853171
1069.50 0.4852155
1069.60 0.485114
1069.70 0.4850124
1069.80 0.484911
1069.90 0.4848095
1070.00 0.4847081
1070.10 0.4846067
1070.20 0.4845053
1070.30 0.484404
1070.40 0.4843027
1070.50 0.4842014
1070.60 0.4841002
1070.70 0.483999
1070.80 0.4838978
1070.90 0.4837966
1071.00 0.4836955
1071.10 0.4835944
1071.20 0.4834933
1071.30 0.4833923
1071.40 0.4832913
1071.50 0.4831903
1071.60 0.4830893
1071.70 0.4829884
1071.80 0.4828875
1071.90 0.4827867
1072.00 0.4826858
1072.10 0.482585
1072.20 0.4824842
1072.30 0.4823835
1072.40 0.4822828
1072.50 0.4821821
1072.60 0.4820814
1072.70 0.4819808
1072.80 0.4818802
1072.90 0.4817796
1073.00 0.4816791
1073.10 0.4815786
1073.20 0.4814781
1073.30 0.4813778
1073.40 0.4812774
1073.50 0.4811771
1073.60 0.4810769
1073.70 0.4809767
1073.80 0.4808765
1073.90 0.4807763
1074.00 0.4806761
1074.10 0.480576
1074.20 0.4804759
1074.30 0.4803759
1074.40 0.4802758
1074.50 0.4801758
1074.60 0.4800759
1074.70 0.4799759
1074.80 0.479876
1074.90 0.4797761
1075.00 0.4796763
1075.10 0.4795764
1075.20 0.4794767
1075.30 0.4793769
1075.40 0.4792771
1075.50 0.4791774
1075.60 0.4790777
1075.70 0.4789781
1075.80 0.4788785
1075.90 0.4787789
1076.00 0.4786793
1076.10 0.4785798
1076.20 0.4784803
1076.30 0.4783808
1076.40 0.4782813
1076.50 0.4781819
1076.60 0.4780825
1076.70 0.4779831
1076.80 0.4778838
1076.90 0.4777845
1077.00 0.4776852
1077.10 0.477586
1077.20 0.4774867
1077.30 0.4773875
1077.40 0.4772884
1077.50 0.4771892
1077.60 0.4770901
1077.70 0.476991
1077.80 0.476892
1077.90 0.476793
1078.00 0.476694
1078.10 0.476595
1078.20 0.4764961
1078.30 0.4763972
1078.40 0.4762983
1078.50 0.4761994
1078.60 0.4760998
1078.70 0.4759995
1078.80 0.4758992
1078.90 0.475799
1079.00 0.4756987
1079.10 0.4755986
1079.20 0.4754984
1079.30 0.4753983
1079.40 0.4752982
1079.50 0.4751981
1079.60 0.4750981
1079.70 0.4749981
1079.80 0.4748981
1079.90 0.4747981
1080.00 0.4746982
1080.10 0.4745983
1080.20 0.4744985
1080.30 0.4743986
1080.40 0.4742988
1080.50 0.474199
1080.60 0.4740993
1080.70 0.4739996
1080.80 0.4738999
1080.90 0.4738002
1081.00 0.4737006
1081.10 0.473601
1081.20 0.4735014
1081.30 0.4734018
1081.40 0.4733023
1081.50 0.4732028
1081.60 0.4731034
1081.70 0.4730039
1081.80 0.4729045
1081.90 0.4728051
1082.00 0.4727058
1082.10 0.4726065
1082.20 0.4725072
1082.30 0.4724079
1082.40 0.4723087
1082.50 0.4722095
1082.60 0.4721103
1082.70 0.4720112
1082.80 0.471912
1082.90 0.471813
1083.00 0.4717139
1083.10 0.4716149
1083.20 0.4715159
1083.30 0.4714169
1083.40 0.4713179
1083.50 0.471219
1083.60 0.4711201
1083.70 0.4710213
1083.80 0.4709224
1083.90 0.4708236
1084.00 0.4707249
1084.10 0.4706263
1084.20 0.4705277
1084.30 0.4704291
1084.40 0.4703306
1084.50 0.4702321
1084.60 0.4701336
1084.70 0.4700351
1084.80 0.4699367
1084.90 0.4698383
1085.00 0.4697399
1085.10 0.4696416
1085.20 0.4695433
1085.30 0.469445
1085.40 0.4693467
1085.50 0.4692485
1085.60 0.4691503
1085.70 0.4690521
1085.80 0.4689539
1085.90 0.4688558
1086.00 0.4687577
1086.10 0.4686597
1086.20 0.4685616
1086.30 0.4684636
1086.40 0.4683656
1086.50 0.4682677
1086.60 0.4681698
1086.70 0.4680719
1086.80 0.467974
1086.90 0.4678762
1087.00 0.4677784
1087.10 0.4676806
1087.20 0.4675828
1087.30 0.4674851
1087.40 0.4673874
1087.50 0.4672897
1087.60 0.4671921
1087.70 0.4670945
1087.80 0.4669969
1087.90 0.4668993
1088.00 0.4668018
1088.10 0.4667043
1088.20 0.4666068
1088.30 0.4665094
1088.40 0.4664119
1088.50 0.4663145
1088.60 0.4662172
1088.70 0.4661198
1088.80 0.4660225
1088.90 0.4659253
1089.00 0.465828
1089.10 0.4657308
1089.20 0.4656336
1089.30 0.4655364
1089.40 0.4654393
1089.50 0.4653422
1089.60 0.4652451
1089.70 0.465148
1089.80 0.465051
1089.90 0.464954
1090.00 0.464857
1090.10 0.4647601
1090.20 0.4646631
1090.30 0.4645662
1090.40 0.4644694
1090.50 0.4643725
1090.60 0.4642757
1090.70 0.464179
1090.80 0.4640822
1090.90 0.4639855
1091.00 0.4638888
1091.10 0.4637921
1091.20 0.4636955
1091.30 0.4635988
1091.40 0.4635023
1091.50 0.4634057
1091.60 0.4633092
1091.70 0.4632127
1091.80 0.4631162
1091.90 0.4630197
1092.00 0.4629233
1092.10 0.4628269
1092.20 0.4627305
1092.30 0.4626342
1092.40 0.4625379
1092.50 0.4624416
1092.60 0.4623453
1092.70 0.4622491
1092.80 0.4621529
1092.90 0.4620567
1093.00 0.4619606
1093.10 0.4618645
1093.20 0.4617684
1093.30 0.4616723
1093.40 0.4615763
1093.50 0.4614803
1093.60 0.4613843
1093.70 0.4612883
1093.80 0.4611924
1093.90 0.4610965
1094.00 0.4610006
1094.10 0.4609048
1094.20 0.460809
1094.30 0.4607132
1094.40 0.4606174
1094.50 0.4605217
1094.60 0.460426
1094.70 0.4603303
1094.80 0.4602343
1094.90 0.4601381
1095.00 0.4600419
1095.10 0.4599457
1095.20 0.4598496
1095.30 0.4597535
1095.40 0.4596574
1095.50 0.4595613
1095.60 0.4594653
1095.70 0.4593693
1095.80 0.4592733
1095.90 0.4591773
1096.00 0.4590814
1096.10 0.4589855
1096.20 0.4588896
1096.30 0.4587938
1096.40 0.458698
1096.50 0.4586022
1096.60 0.4585064
1096.70 0.4584107
1096.80 0.458315
1096.90 0.4582193
1097.00 0.4581237
1097.10 0.458028
1097.20 0.4579324
1097.30 0.4578369
1097.40 0.4577413
1097.50 0.4576458
1097.60 0.4575503
1097.70 0.4574548
1097.80 0.4573594
1097.90 0.457264
1098.00 0.4571686
1098.10 0.4570733
1098.20 0.4569779
1098.30 0.4568826
1098.40 0.4567874
1098.50 0.4566921
1098.60 0.4565969
1098.70 0.4565017
1098.80 0.4564066
1098.90 0.4563114
1099.00 0.4562163
1099.10 0.4561212
1099.20 0.4560262
1099.30 0.4559312
1099.40 0.4558361
1099.50 0.4557412
1099.60 0.4556462
1099.70 0.4555513
1099.80 0.4554564
1099.90 0.4553616
1100.00 0.4552667
1100.10 0.4551719
1100.20 0.4550771
1100.30 0.4549824
1100.40 0.4548876
1100.50 0.4547929
1100.60 0.4546982
1100.70 0.4546036
1100.80 0.454509
1100.90 0.4544144
1101.00 0.4543198
1101.10 0.4542253
1101.20 0.4541307
1101.30 0.4540363
1101.40 0.4539418
1101.50 0.4538474
1101.60 0.4537529
1101.70 0.4536586
1101.80 0.4535642
1101.90 0.4534699
1102.00 0.4533756
1102.10 0.4532813
1102.20 0.4531871
1102.30 0.4530928
1102.40 0.4529986
1102.50 0.4529045
1102.60 0.4528103
1102.70 0.4527162
1102.80 0.4526221
1102.90 0.4525281
1103.00 0.452434
1103.10 0.45234
1103.20 0.452246
1103.30 0.4521521
1103.40 0.4520582
1103.50 0.4519643
1103.60 0.4518704
1103.70 0.4517765
1103.80 0.4516827
1103.90 0.4515889
1104.00 0.4514952
1104.10 0.4514014
1104.20 0.4513077
1104.30 0.451214
1104.40 0.4511203
1104.50 0.4510267
1104.60 0.4509331
1104.70 0.4508395
1104.80 0.450746
1104.90 0.4506524
1105.00 0.4505589
1105.10 0.4504655
1105.20 0.450372
1105.30 0.4502786
1105.40 0.4501852
1105.50 0.4500918
1105.60 0.4499985
1105.70 0.4499051
1105.80 0.4498113
1105.90 0.4497174
1106.00 0.4496236
1106.10 0.4495298
1106.20 0.4494361
1106.30 0.4493423
1106.40 0.4492486
1106.50 0.4491549
1106.60 0.4490613
1106.70 0.4489676
1106.80 0.448874
1106.90 0.4487805
1107.00 0.4486869
1107.10 0.4485934
1107.20 0.4484999
1107.30 0.4484064
1107.40 0.448313
1107.50 0.4482196
1107.60 0.4481262
1107.70 0.4480328
1107.80 0.4479395
1107.90 0.4478462
1108.00 0.4477529
1108.10 0.4476596
1108.20 0.4475664
1108.30 0.4474732
1108.40 0.44738
1108.50 0.4472868
1108.60 0.4471937
1108.70 0.4471006
1108.80 0.4470075
1108.90 0.4469145
1109.00 0.4468215
1109.10 0.4467285
1109.20 0.4466355
1109.30 0.4465425
1109.40 0.4464496
1109.50 0.4463567
1109.60 0.4462639
1109.70 0.446171
1109.80 0.4460782
1109.90 0.4459854
1110.00 0.4458927
1110.10 0.4457999
1110.20 0.4457072
1110.30 0.4456145
1110.40 0.4455219
1110.50 0.4454293
1110.60 0.4453367
1110.70 0.4452441
1110.80 0.4451515
1110.90 0.445059
1111.00 0.4449665
1111.10 0.444874
1111.20 0.4447816
1111.30 0.4446892
1111.40 0.4445968
1111.50 0.4445044
1111.60 0.4444121
1111.70 0.4443197
1111.80 0.4442275
1111.90 0.4441352
1112.00 0.444043
1112.10 0.4439507
1112.20 0.4438586
1112.30 0.4437664
1112.40 0.4436743
1112.50 0.4435822
1112.60 0.4434901
1112.70 0.443398
1112.80 0.443306
1112.90 0.443214
1113.00 0.443122
1113.10 0.44303
1113.20 0.4429381
1113.30 0.4428462
1113.40 0.4427543
1113.50 0.4426625
1113.60 0.4425707
1113.70 0.4424789
1113.80 0.4423871
1113.90 0.4422954
1114.00 0.4422036
1114.10 0.4421119
1114.20 0.4420203
1114.30 0.4419286
1114.40 0.441837
1114.50 0.4417454
1114.60 0.4416539
1114.70 0.4415623
1114.80 0.4414708
1114.90 0.4413793
1115.00 0.4412878
1115.10 0.4411964
1115.20 0.441105
1115.30 0.4410136
1115.40 0.4409223
1115.50 0.4408309
1115.60 0.4407396
1115.70 0.4406483
1115.80 0.4405571
1115.90 0.4404658
1116.00 0.4403746
1116.10 0.4402835
1116.20 0.4401923
1116.30 0.4401012
1116.40 0.4400101
1116.50 0.439919
1116.60 0.4398279
1116.70 0.4397369
1116.80 0.4396454
1116.90 0.4395532
1117.00 0.439461
1117.10 0.4393688
1117.20 0.4392767
1117.30 0.4391846
1117.40 0.4390925
1117.50 0.4390005
1117.60 0.4389085
1117.70 0.4388165
1117.80 0.4387245
1117.90 0.4386326
1118.00 0.4385406
1118.10 0.4384488
1118.20 0.4383569
1118.30 0.438265
1118.40 0.4381732
1118.50 0.4380814
1118.60 0.4379897
1118.70 0.4378979
1118.80 0.4378062
1118.90 0.4377146
1119.00 0.4376229
1119.10 0.4375313
1119.20 0.4374397
1119.30 0.4373481
1119.40 0.4372565
1119.50 0.437165
1119.60 0.4370735
1119.70 0.436982
1119.80 0.4368906
1119.90 0.4367991
1120.00 0.4367077
1120.10 0.4366163
1120.20 0.436525
1120.30 0.4364337
1120.40 0.4363424
1120.50 0.4362511
1120.60 0.4361599
1120.70 0.4360686
1120.80 0.4359774
1120.90 0.4358863
1121.00 0.4357951
1121.10 0.435704
1121.20 0.4356129
1121.30 0.4355218
1121.40 0.4354308
1121.50 0.4353398
1121.60 0.4352488
1121.70 0.4351578
1121.80 0.4350669
1121.90 0.434976
1122.00 0.4348851
1122.10 0.4347942
1122.20 0.4347034
1122.30 0.4346126
1122.40 0.4345226
1122.50 0.4344332
1122.60 0.4343438
1122.70 0.4342544
1122.80 0.434165
1122.90 0.4340757
1123.00 0.4339864
1123.10 0.4338971
1123.20 0.4338078
1123.30 0.4337186
1123.40 0.4336294
1123.50 0.4335402
1123.60 0.4334511
1123.70 0.4333619
1123.80 0.4332728
1123.90 0.4331838
1124.00 0.4330947
1124.10 0.4330057
1124.20 0.4329167
1124.30 0.4328277
1124.40 0.4327387
1124.50 0.4326498
1124.60 0.4325609
1124.70 0.432472
1124.80 0.4323831
1124.90 0.4322943
1125.00 0.4322055
1125.10 0.4321167
1125.20 0.432028
1125.30 0.4319392
1125.40 0.4318505
1125.50 0.4317618
1125.60 0.4316732
1125.70 0.4315845
1125.80 0.4314959
1125.90 0.4314073
1126.00 0.4313188
1126.10 0.4312302
1126.20 0.4311417
1126.30 0.4310532
1126.40 0.4309648
1126.50 0.4308763
1126.60 0.4307879
1126.70 0.4306995
1126.80 0.4306112
1126.90 0.4305228
1127.00 0.4304345
1127.10 0.4303462
1127.20 0.430258
1127.30 0.4301697
1127.40 0.4300815
1127.50 0.4299933
1127.60 0.4299051
1127.70 0.429817
1127.80 0.4297289
1127.90 0.4296408
1128.00 0.4295513
1128.10 0.4294614
1128.20 0.4293715
1128.30 0.4292817
1128.40 0.4291919
1128.50 0.4291021
1128.60 0.4290123
1128.70 0.4289226
1128.80 0.4288329
1128.90 0.4287432
1129.00 0.4286535
1129.10 0.4285639
1129.20 0.4284743
1129.30 0.4283847
1129.40 0.4282951
1129.50 0.4282056
1129.60 0.4281161
1129.70 0.4280266
1129.80 0.4279371
1129.90 0.4278477
1130.00 0.4277583
1130.10 0.4276689
1130.20 0.4275795
1130.30 0.4274902
1130.40 0.4274009
1130.50 0.4273116
1130.60 0.4272223
1130.70 0.4271331
1130.80 0.4270439
1130.90 0.4269547
1131.00 0.4268655
1131.10 0.4267764
1131.20 0.4266873
1131.30 0.4265982
1131.40 0.4265091
1131.50 0.4264201
1131.60 0.4263311
1131.70 0.4262421
1131.80 0.4261531
1131.90 0.4260642
1132.00 0.4259753
1132.10 0.4258864
1132.20 0.4257975
1132.30 0.4257087
1132.40 0.4256199
1132.50 0.4255311
1132.60 0.4254423
1132.70 0.4253536
1132.80 0.4252648
1132.90 0.4251762
1133.00 0.4250875
1133.10 0.4249988
1133.20 0.4249102
1133.30 0.4248216
1133.40 0.4247331
1133.50 0.4246445
1133.60 0.424556
1133.70 0.4244675
1133.80 0.424379
1133.90 0.4242906
1134.00 0.4242022
1134.10 0.4241138
1134.20 0.4240254
1134.30 0.4239371
1134.40 0.4238487
1134.50 0.4237604
1134.60 0.4236722
1134.70 0.4235839
1134.80 0.4234957
1134.90 0.4234075
1135.00 0.4233193
1135.10 0.4232312
1135.20 0.423143
1135.30 0.4230549
1135.40 0.4229669
1135.50 0.4228788
1135.60 0.4227908
1135.70 0.4227028
1135.80 0.4226148
1135.90 0.4225268
1136.00 0.4224389
1136.10 0.422351
1136.20 0.4222631
1136.30 0.4221753
1136.40 0.4220874
1136.50 0.4219996
1136.60 0.4219118
1136.70 0.4218241
1136.80 0.4217363
1136.90 0.4216486
1137.00 0.4215609
1137.10 0.4214733
1137.20 0.4213856
1137.30 0.421298
1137.40 0.4212104
1137.50 0.4211229
1137.60 0.4210353
1137.70 0.4209478
1137.80 0.4208603
1137.90 0.4207728
1138.00 0.4206854
1138.10 0.420598
1138.20 0.4205106
1138.30 0.4204232
1138.40 0.4203359
1138.50 0.4202485
1138.60 0.4201612
1138.70 0.420074
1138.80 0.4199867
1138.90 0.4198995
1139.00 0.4198123
1139.10 0.4197251
1139.20 0.419638
1139.30 0.4195503
1139.40 0.4194627
1139.50 0.4193751
1139.60 0.4192876
1139.70 0.4192
1139.80 0.4191125
1139.90 0.419025
1140.00 0.4189376
1140.10 0.4188501
1140.20 0.4187627
1140.30 0.4186753
1140.40 0.418588
1140.50 0.4185006
1140.60 0.4184133
1140.70 0.418326
1140.80 0.4182388
1140.90 0.4181515
1141.00 0.4180643
1141.10 0.4179771
1141.20 0.4178899
1141.30 0.4178028
1141.40 0.4177156
1141.50 0.4176285
1141.60 0.4175415
1141.70 0.4174544
1141.80 0.4173674
1141.90 0.4172804
1142.00 0.4171934
1142.10 0.4171065
1142.20 0.4170195
1142.30 0.4169326
1142.40 0.4168457
1142.50 0.4167589
1142.60 0.416672
1142.70 0.4165852
1142.80 0.4164984
1142.90 0.4164117
1143.00 0.4163249
1143.10 0.4162382
1143.20 0.4161515
1143.30 0.4160649
1143.40 0.4159782
1143.50 0.4158916
1143.60 0.415805
1143.70 0.4157184
1143.80 0.4156319
1143.90 0.4155454
1144.00 0.4154589
1144.10 0.4153724
1144.20 0.4152859
1144.30 0.4151995
1144.40 0.4151131
1144.50 0.4150267
1144.60 0.4149404
1144.70 0.414854
1144.80 0.4147677
1144.90 0.4146814
1145.00 0.4145952
1145.10 0.4145089
1145.20 0.4144227
1145.30 0.4143365
1145.40 0.4142504
1145.50 0.4141642
1145.60 0.4140781
1145.70 0.413992
1145.80 0.4139059
1145.90 0.4138199
1146.00 0.4137339
1146.10 0.4136479
1146.20 0.4135619
1146.30 0.4134759
1146.40 0.41339
1146.50 0.4133041
1146.60 0.4132182
1146.70 0.4131324
1146.80 0.4130465
1146.90 0.4129607
1147.00 0.4128749
1147.10 0.4127892
1147.20 0.4127034
1147.30 0.4126177
1147.40 0.412532
1147.50 0.4124464
1147.60 0.4123607
1147.70 0.4122751
1147.80 0.4121895
1147.90 0.4121039
1148.00 0.4120184
1148.10 0.4119328
1148.20 0.4118473
1148.30 0.4117619
1148.40 0.4116764
1148.50 0.411591
1148.60 0.4115056
1148.70 0.4114202
1148.80 0.4113348
1148.90 0.4112495
1149.00 0.4111641
1149.10 0.4110789
1149.20 0.4109936
1149.30 0.4109083
1149.40 0.4108231
1149.50 0.4107379
1149.60 0.4106527
1149.70 0.4105676
1149.80 0.4104825
1149.90 0.4103974
1150.00 0.4103123
1150.10 0.4102272
1150.20 0.4101422
1150.30 0.4100572
1150.40 0.4099722
1150.50 0.4098872
1150.60 0.4098023
1150.70 0.4097175
1150.80 0.4096327
1150.90 0.409548
1151.00 0.4094633
1151.10 0.4093786
1151.20 0.4092939
1151.30 0.4092093
1151.40 0.4091247
1151.50 0.4090401
1151.60 0.4089555
1151.70 0.4088709
1151.80 0.4087864
1151.90 0.4087019
1152.00 0.4086174
1152.10 0.408533
1152.20 0.4084485
1152.30 0.4083641
1152.40 0.4082797
1152.50 0.4081954
1152.60 0.408111
1152.70 0.4080267
1152.80 0.4079424
1152.90 0.4078581
1153.00 0.4077739
1153.10 0.4076896
1153.20 0.4076054
1153.30 0.4075212
1153.40 0.4074371
1153.50 0.407353
1153.60 0.4072688
1153.70 0.4071848
1153.80 0.4071007
1153.90 0.4070166
1154.00 0.4069326
1154.10 0.4068486
1154.20 0.4067646
1154.30 0.4066807
1154.40 0.4065968
1154.50 0.4065129
1154.60 0.406429
1154.70 0.4063451
1154.80 0.4062613
1154.90 0.4061775
1155.00 0.4060937
1155.10 0.4060099
1155.20 0.4059262
1155.30 0.4058424
1155.40 0.4057587
1155.50 0.4056751
1155.60 0.4055914
1155.70 0.4055078
1155.80 0.4054242
1155.90 0.4053406
1156.00 0.405257
1156.10 0.4051735
1156.20 0.40509
1156.30 0.4050065
1156.40 0.404923
1156.50 0.4048396
1156.60 0.4047561
1156.70 0.4046727
1156.80 0.4045894
1156.90 0.404506
1157.00 0.4044227
1157.10 0.4043394
1157.20 0.4042561
1157.30 0.4041728
1157.40 0.4040896
1157.50 0.4040064
1157.60 0.4039232
1157.70 0.40384
1157.80 0.4037569
1157.90 0.4036737
1158.00 0.4035906
1158.10 0.4035076
1158.20 0.4034245
1158.30 0.4033415
1158.40 0.4032585
1158.50 0.4031755
1158.60 0.4030925
1158.70 0.4030096
1158.80 0.4029266
1158.90 0.4028437
1159.00 0.4027609
1159.10 0.402678
1159.20 0.4025952
1159.30 0.4025124
1159.40 0.4024296
1159.50 0.4023468
1159.60 0.4022641
1159.70 0.4021814
1159.80 0.4020987
1159.90 0.402016
1160.00 0.4019334
1160.10 0.4018507
1160.20 0.4017681
1160.30 0.4016855
1160.40 0.401603
1160.50 0.4015204
1160.60 0.4014379
1160.70 0.4013554
1160.80 0.401273
1160.90 0.4011905
1161.00 0.4011081
1161.10 0.4010257
1161.20 0.4009433
1161.30 0.400861
1161.40 0.4007786
1161.50 0.4006963
1161.60 0.400614
1161.70 0.4005317
1161.80 0.4004495
1161.90 0.4003673
1162.00 0.4002851
1162.10 0.4002029
1162.20 0.4001197
1162.30 0.4000365
1162.40 0.3999533
1162.50 0.3998701
1162.60 0.399787
1162.70 0.3997039
1162.80 0.3996208
1162.90 0.3995377
1163.00 0.3994547
1163.10 0.3993717
1163.20 0.3992887
1163.30 0.3992057
1163.40 0.3991227
1163.50 0.3990398
1163.60 0.3989569
1163.70 0.398874
1163.80 0.3987912
1163.90 0.3987083
1164.00 0.3986255
1164.10 0.3985427
1164.20 0.3984599
1164.30 0.3983772
1164.40 0.3982945
1164.50 0.3982118
1164.60 0.3981291
1164.70 0.3980464
1164.80 0.3979638
1164.90 0.3978812
1165.00 0.3977986
1165.10 0.397716
1165.20 0.3976335
1165.30 0.3975509
1165.40 0.3974684
1165.50 0.3973859
1165.60 0.3973035
1165.70 0.3972211
1165.80 0.3971386
1165.90 0.3970563
1166.00 0.3969739
1166.10 0.3968915
1166.20 0.3968092
1166.30 0.3967269
1166.40 0.3966446
1166.50 0.3965624
1166.60 0.3964802
1166.70 0.3963979
1166.80 0.3963158
1166.90 0.3962336
1167.00 0.3961514
1167.10 0.3960693
1167.20 0.3959872
1167.30 0.3959052
1167.40 0.3958231
1167.50 0.3957411
1167.60 0.3956591
1167.70 0.3955771
1167.80 0.3954951
1167.90 0.3954132
1168.00 0.3953312
1168.10 0.3952493
1168.20 0.3951675
1168.30 0.3950856
1168.40 0.3950038
1168.50 0.394922
1168.60 0.3948402
1168.70 0.3947584
1168.80 0.3946767
1168.90 0.394595
1169.00 0.3945133
1169.10 0.3944316
1169.20 0.39435
1169.30 0.3942683
1169.40 0.3941867
1169.50 0.3941051
1169.60 0.3940236
1169.70 0.393942
1169.80 0.3938605
1169.90 0.393779
1170.00 0.3936975
1170.10 0.3936161
1170.20 0.3935347
1170.30 0.3934533
1170.40 0.3933719
1170.50 0.3932905
1170.60 0.3932092
1170.70 0.3931278
1170.80 0.3930465
1170.90 0.3929653
1171.00 0.392884
1171.10 0.3928028
1171.20 0.3927216
1171.30 0.3926404
1171.40 0.3925592
1171.50 0.3924781
1171.60 0.392397
1171.70 0.3923159
1171.80 0.3922348
1171.90 0.3921537
1172.00 0.3920727
1172.10 0.3919917
1172.20 0.3919107
1172.30 0.3918297
1172.40 0.3917488
1172.50 0.3916678
1172.60 0.3915869
1172.70 0.3915061
1172.80 0.3914252
1172.90 0.3913444
1173.00 0.3912636
1173.10 0.3911828
1173.20 0.391102
1173.30 0.3910212
1173.40 0.3909405
1173.50 0.3908598
1173.60 0.3907791
1173.70 0.3906985
1173.80 0.3906179
1173.90 0.3905374
1174.00 0.390457
1174.10 0.3903766
1174.20 0.3902961
1174.30 0.3902157
1174.40 0.3901354
1174.50 0.390055
1174.60 0.3899747
1174.70 0.3898944
1174.80 0.3898141
1174.90 0.3897338
1175.00 0.3896536
1175.10 0.3895734
1175.20 0.3894932
1175.30 0.389413
1175.40 0.3893328
1175.50 0.3892527
1175.60 0.3891726
1175.70 0.3890925
1175.80 0.3890124
1175.90 0.3889324
1176.00 0.3888523
1176.10 0.3887723
1176.20 0.3886924
1176.30 0.3886124
1176.40 0.3885325
1176.50 0.3884525
1176.60 0.3883726
1176.70 0.3882928
1176.80 0.3882129
1176.90 0.3881331
1177.00 0.3880533
1177.10 0.3879735
1177.20 0.3878937
1177.30 0.387814
1177.40 0.3877342
1177.50 0.3876545
1177.60 0.3875749
1177.70 0.3874952
1177.80 0.3874156
1177.90 0.3873359
1178.00 0.3872563
1178.10 0.3871768
1178.20 0.3870972
1178.30 0.3870177
1178.40 0.3869382
1178.50 0.3868587
1178.60 0.3867792
1178.70 0.3866998
1178.80 0.3866203
1178.90 0.3865409
1179.00 0.3864616
1179.10 0.3863822
1179.20 0.3863029
1179.30 0.3862235
1179.40 0.3861442
1179.50 0.386065
1179.60 0.3859856
1179.70 0.3859052
1179.80 0.3858249
1179.90 0.3857445
1180.00 0.3856642
1180.10 0.3855839
1180.20 0.3855036
1180.30 0.3854234
1180.40 0.3853432
1180.50 0.385263
1180.60 0.3851828
1180.70 0.3851026
1180.80 0.3850225
1180.90 0.3849423
1181.00 0.3848622
1181.10 0.3847822
1181.20 0.3847021
1181.30 0.3846221
1181.40 0.3845421
1181.50 0.3844621
1181.60 0.3843821
1181.70 0.3843022
1181.80 0.3842222
1181.90 0.3841423
1182.00 0.3840625
1182.10 0.3839826
1182.20 0.3839028
1182.30 0.3838229
1182.40 0.3837431
1182.50 0.3836634
1182.60 0.3835836
1182.70 0.3835039
1182.80 0.3834242
1182.90 0.3833445
1183.00 0.3832648
1183.10 0.3831852
1183.20 0.3831055
1183.30 0.3830259
1183.40 0.3829464
1183.50 0.3828668
1183.60 0.3827873
1183.70 0.3827077
1183.80 0.3826282
1183.90 0.3825488
1184.00 0.3824693
1184.10 0.3823899
1184.20 0.3823105
1184.30 0.3822311
1184.40 0.3821517
1184.50 0.3820724
1184.60 0.381993
1184.70 0.3819137
1184.80 0.3818345
1184.90 0.3817552
1185.00 0.381676
1185.10 0.3815967
1185.20 0.3815175
1185.30 0.3814384
1185.40 0.3813592
1185.50 0.3812801
1185.60 0.3812012
1185.70 0.3811222
1185.80 0.3810433
1185.90 0.3809644
1186.00 0.3808855
1186.10 0.3808067
1186.20 0.3807278
1186.30 0.380649
1186.40 0.3805702
1186.50 0.3804914
1186.60 0.3804127
1186.70 0.3803339
1186.80 0.3802552
1186.90 0.3801765
1187.00 0.3800979
1187.10 0.3800192
1187.20 0.3799406
1187.30 0.379862
1187.40 0.3797834
1187.50 0.3797048
1187.60 0.3796263
1187.70 0.3795478
1187.80 0.3794693
1187.90 0.3793908
1188.00 0.3793123
1188.10 0.3792339
1188.20 0.3791555
1188.30 0.3790771
1188.40 0.3789987
1188.50 0.3789203
1188.60 0.378842
1188.70 0.3787637
1188.80 0.3786854
1188.90 0.3786071
1189.00 0.3785289
1189.10 0.3784506
1189.20 0.3783724
1189.30 0.3782942
1189.40 0.3782161
1189.50 0.3781379
1189.60 0.3780598
1189.70 0.3779817
1189.80 0.3779036
1189.90 0.3778256
1190.00 0.3777475
1190.10 0.3776695
1190.20 0.3775915
1190.30 0.3775135
1190.40 0.3774356
1190.50 0.3773576
1190.60 0.3772797
1190.70 0.3772018
1190.80 0.3771239
1190.90 0.3770461
1191.00 0.3769683
1191.10 0.3768904
1191.20 0.3768127
1191.30 0.3767349
1191.40 0.3766571
1191.50 0.3765794
1191.60 0.3765017
1191.70 0.376424
1191.80 0.3763464
1191.90 0.3762687
1192.00 0.3761911
1192.10 0.3761135
1192.20 0.3760359
1192.30 0.3759583
1192.40 0.3758808
1192.50 0.3758033
1192.60 0.3757258
1192.70 0.3756483
1192.80 0.3755708
1192.90 0.3754934
1193.00 0.375416
1193.10 0.3753386
1193.20 0.3752612
1193.30 0.3751839
1193.40 0.3751065
1193.50 0.3750292
1193.60 0.3749519
1193.70 0.3748746
1193.80 0.3747974
1193.90 0.3747202
1194.00 0.3746429
1194.10 0.3745658
1194.20 0.3744886
1194.30 0.3744114
1194.40 0.3743343
1194.50 0.3742572
1194.60 0.3741801
1194.70 0.3741031
1194.80 0.374026
1194.90 0.373949
1195.00 0.373872
1195.10 0.373795
1195.20 0.373718
1195.30 0.3736411
1195.40 0.3735642
1195.50 0.3734873
1195.60 0.3734104
1195.70 0.3733335
1195.80 0.3732567
1195.90 0.3731799
1196.00 0.3731031
1196.10 0.3730263
1196.20 0.3729495
1196.30 0.3728728
1196.40 0.3727961
1196.50 0.3727194
1196.60 0.3726427
1196.70 0.372566
1196.80 0.3724894
1196.90 0.3724128
1197.00 0.3723362
1197.10 0.3722596
1197.20 0.3721831
1197.30 0.3721065
1197.40 0.3720301
1197.50 0.3719538
1197.60 0.3718775
1197.70 0.3718011
1197.80 0.3717249
1197.90 0.3716486
1198.00 0.3715723
1198.10 0.3714961
1198.20 0.3714199
1198.30 0.3713437
1198.40 0.3712676
1198.50 0.3711914
1198.60 0.3711153
1198.70 0.3710392
1198.80 0.3709631
1198.90 0.370887
1199.00 0.370811
1199.10 0.3707349
1199.20 0.3706589
1199.30 0.370583
1199.40 0.370507
1199.50 0.370431
1199.60 0.3703551
1199.70 0.3702792
1199.80 0.3702033
1199.90 0.3701275
1200.00 0.3700516
