# Version 2.1 - nm, norm@500 to 1, cut digits, bergeron_He_18000_85.dat_18000
# Wavelength(nm)  Flambda(ergs/cm^s/s/nm)
300.00 3.92086
300.10 3.918293
300.20 3.915683
300.30 3.913076
300.40 3.910471
300.50 3.907868
300.60 3.905269
300.70 3.902672
300.80 3.900077
300.90 3.897486
301.00 3.894896
301.10 3.89231
301.20 3.889726
301.30 3.887144
301.40 3.884565
301.50 3.881989
301.60 3.879415
301.70 3.876844
301.80 3.874275
301.90 3.871709
302.00 3.869145
302.10 3.866229
302.20 3.863277
302.30 3.860327
302.40 3.857381
302.50 3.854438
302.60 3.851498
302.70 3.84856
302.80 3.845626
302.90 3.842695
303.00 3.839767
303.10 3.836842
303.20 3.83392
303.30 3.830986
303.40 3.827914
303.50 3.824845
303.60 3.82178
303.70 3.818717
303.80 3.815658
303.90 3.812602
304.00 3.80955
304.10 3.8065
304.20 3.803454
304.30 3.800411
304.40 3.797371
304.50 3.794334
304.60 3.791378
304.70 3.788434
304.80 3.785493
304.90 3.782554
305.00 3.779619
305.10 3.776687
305.20 3.773758
305.30 3.770832
305.40 3.767909
305.50 3.764988
305.60 3.762071
305.70 3.759157
305.80 3.756246
305.90 3.753338
306.00 3.750433
306.10 3.747531
306.20 3.744632
306.30 3.741736
306.40 3.738779
306.50 3.735806
306.60 3.732837
306.70 3.72987
306.80 3.726907
306.90 3.723946
307.00 3.720989
307.10 3.718034
307.20 3.715083
307.30 3.712135
307.40 3.709189
307.50 3.706247
307.60 3.703308
307.70 3.700372
307.80 3.697439
307.90 3.694509
308.00 3.691582
308.10 3.688658
308.20 3.685737
308.30 3.682819
308.40 3.679904
308.50 3.676992
308.60 3.674083
308.70 3.671177
308.80 3.668079
308.90 3.664427
309.00 3.661394
309.10 3.658364
309.20 3.655337
309.30 3.652313
309.40 3.649292
309.50 3.64627
309.60 3.643252
309.70 3.640236
309.80 3.637224
309.90 3.634215
310.00 3.631209
310.10 3.628206
310.20 3.625207
310.30 3.62221
310.40 3.619115
310.50 3.615912
310.60 3.612712
310.70 3.609516
310.80 3.606324
310.90 3.603135
311.00 3.599969
311.10 3.596806
311.20 3.593647
311.30 3.590484
311.40 3.587305
311.50 3.584128
311.60 3.580956
311.70 3.577786
311.80 3.57462
311.90 3.571457
312.00 3.568297
312.10 3.565141
312.20 3.561374
312.30 3.557607
312.40 3.554455
312.50 3.550439
312.60 3.547323
312.70 3.54421
312.80 3.541101
312.90 3.537686
313.00 3.53394
313.10 3.530198
313.20 3.52646
313.30 3.52272
313.40 3.518965
313.50 3.515214
313.60 3.511467
313.70 3.507724
313.80 3.503985
313.90 3.50025
314.00 3.496519
314.10 3.492081
314.20 3.487648
314.30 3.48322
314.40 3.478797
314.50 3.474378
314.60 3.469965
314.70 3.465556
314.80 3.461209
314.90 3.456472
315.00 3.45114
315.10 3.445857
315.20 3.44058
315.30 3.435308
315.40 3.430043
315.50 3.424783
315.60 3.41953
315.70 3.414283
315.80 3.409041
315.90 3.403806
316.00 3.398576
316.10 3.394121
316.20 3.38967
316.30 3.385993
316.40 3.378484
316.50 3.362553
316.60 3.338215
316.70 3.313907
316.80 3.289629
316.90 3.28526
317.00 3.280895
317.10 3.276536
317.20 3.272181
317.30 3.280638
317.40 3.285885
317.50 3.282027
317.60 3.278174
317.70 3.274325
317.80 3.27048
317.90 3.250429
318.00 3.221411
318.10 3.174997
318.20 3.12864
318.30 3.082341
318.40 3.016901
318.50 2.896933
318.60 2.752728
318.70 2.402061
318.80 1.705832
318.90 2.310942
319.00 2.553805
319.10 2.699242
319.20 2.823293
319.30 2.886873
319.40 2.950372
319.50 3.013792
319.60 3.064206
319.70 3.092497
319.80 3.120752
319.90 3.148971
320.00 3.171679
320.10 3.188431
320.20 3.204697
320.30 3.21783
320.40 3.228087
320.50 3.238182
320.60 3.246292
320.70 3.253226
320.80 3.25854
320.90 3.262101
321.00 3.265658
321.10 3.269209
321.20 3.272301
321.30 3.273095
321.40 3.273888
321.50 3.274679
321.60 3.275468
321.70 3.276256
321.80 3.27665
321.90 3.276617
322.00 3.275253
322.10 3.274508
322.20 3.273763
322.30 3.273019
322.40 3.272275
322.50 3.271532
322.60 3.270789
322.70 3.270046
322.80 3.268789
322.90 3.267157
323.00 3.265527
323.10 3.263898
323.20 3.26227
323.30 3.260644
323.40 3.259019
323.50 3.257395
323.60 3.255773
323.70 3.254152
323.80 3.252532
323.90 3.250914
324.00 3.248908
324.10 3.246903
324.20 3.244901
324.30 3.2429
324.40 3.240815
324.50 3.238639
324.60 3.236465
324.70 3.234294
324.80 3.232124
324.90 3.229956
325.00 3.227791
325.10 3.225627
325.20 3.223361
325.30 3.220874
325.40 3.218389
325.50 3.21597
325.60 3.21363
325.70 3.211292
325.80 3.208957
325.90 3.206634
326.00 3.204325
326.10 3.202018
326.20 3.199713
326.30 3.197499
326.40 3.19554
326.50 3.193087
326.60 3.190636
326.70 3.188188
326.80 3.185742
326.90 3.183298
327.00 3.180857
327.10 3.178418
327.20 3.175982
327.30 3.173548
327.40 3.171116
327.50 3.168687
327.60 3.16626
327.70 3.163835
327.80 3.161413
327.90 3.158564
328.00 3.155184
328.10 3.151724
328.20 3.148267
328.30 3.144814
328.40 3.141365
328.50 3.139161
328.60 3.137251
328.70 3.135342
328.80 3.133373
328.90 3.131227
329.00 3.129084
329.10 3.126943
329.20 3.124803
329.30 3.122666
329.40 3.120531
329.50 3.118397
329.60 3.116266
329.70 3.114137
329.80 3.112009
329.90 3.109884
330.00 3.107708
330.10 3.105471
330.20 3.103235
330.30 3.101002
330.40 3.098757
330.50 3.0965
330.60 3.094245
330.70 3.091992
330.80 3.089741
330.90 3.087492
331.00 3.085246
331.10 3.083002
331.20 3.080759
331.30 3.078519
331.40 3.076281
331.50 3.073964
331.60 3.07155
331.70 3.069137
331.80 3.06677
331.90 3.064406
332.00 3.062045
332.10 3.059686
332.20 3.057329
332.30 3.054974
332.40 3.052622
332.50 3.050272
332.60 3.047924
332.70 3.045579
332.80 3.043236
332.90 3.040895
333.00 3.038556
333.10 3.036077
333.20 3.033425
333.30 3.030776
333.40 3.028129
333.50 3.025485
333.60 3.022843
333.70 3.020204
333.80 3.017568
333.90 3.014935
334.00 3.012304
334.10 3.009634
334.20 3.006917
334.30 3.004202
334.40 3.00149
334.50 2.998781
334.60 2.996074
334.70 2.993188
334.80 2.989766
334.90 2.98589
335.00 2.982019
335.10 2.97751
335.20 2.973684
335.30 2.970613
335.40 2.966282
335.50 2.966049
335.60 2.966327
335.70 2.965684
335.80 2.96528
335.90 2.964569
336.00 2.963485
336.10 2.962401
336.20 2.961319
336.30 2.959829
336.40 2.957844
336.50 2.95586
336.60 2.953878
336.70 2.951898
336.80 2.94992
336.90 2.948045
337.00 2.946295
337.10 2.944548
337.20 2.942801
337.30 2.940964
337.40 2.938995
337.50 2.937027
337.60 2.935061
337.70 2.933097
337.80 2.931135
337.90 2.929159
338.00 2.927166
338.10 2.925174
338.20 2.923184
338.30 2.921196
338.40 2.919154
338.50 2.916977
338.60 2.914802
338.70 2.912629
338.80 2.910458
338.90 2.908289
339.00 2.906122
339.10 2.903957
339.20 2.901794
339.30 2.899539
339.40 2.89715
339.50 2.89484
339.60 2.892625
339.70 2.890412
339.80 2.888201
339.90 2.885992
340.00 2.883785
340.10 2.881581
340.20 2.879378
340.30 2.877178
340.40 2.874979
340.50 2.872783
340.60 2.870589
340.70 2.868397
340.80 2.866138
340.90 2.863782
341.00 2.861361
341.10 2.858859
341.20 2.856359
341.30 2.853861
341.40 2.851366
341.50 2.848874
341.60 2.846383
341.70 2.843896
341.80 2.841362
341.90 2.838773
342.00 2.836187
342.10 2.833603
342.20 2.831206
342.30 2.828044
342.40 2.82483
342.50 2.822082
342.60 2.819337
342.70 2.816595
342.80 2.813856
342.90 2.811119
343.00 2.808151
343.10 2.8049
343.20 2.801652
343.30 2.798408
343.40 2.795115
343.50 2.791753
343.60 2.788394
343.70 2.785038
343.80 2.781686
343.90 2.778337
344.00 2.774238
344.10 2.76906
344.20 2.763887
344.30 2.758719
344.40 2.752628
344.50 2.745208
344.60 2.736237
344.70 2.728188
344.80 2.733193
344.90 2.73745
345.00 2.741868
345.10 2.744148
345.20 2.745732
345.30 2.746317
345.40 2.746901
345.50 2.747063
345.60 2.746467
345.70 2.74552
345.80 2.744575
345.90 2.74363
346.00 2.742686
346.10 2.741742
346.20 2.740589
346.30 2.739134
346.40 2.737681
346.50 2.736229
346.60 2.734778
346.70 2.733328
346.80 2.73188
346.90 2.730433
347.00 2.728987
347.10 2.727542
347.20 2.725975
347.30 2.724231
347.40 2.72249
347.50 2.720749
347.60 2.719011
347.70 2.717273
347.80 2.715538
347.90 2.713804
348.00 2.712071
348.10 2.71034
348.20 2.708611
348.30 2.706883
348.40 2.705156
348.50 2.703432
348.60 2.701708
348.70 2.700118
348.80 2.698432
348.90 2.696549
349.00 2.694667
349.10 2.692788
349.20 2.69091
349.30 2.689034
349.40 2.687159
349.50 2.685287
349.60 2.683416
349.70 2.681546
349.80 2.679679
349.90 2.677813
350.00 2.675948
350.10 2.674086
350.20 2.672225
350.30 2.670317
350.40 2.66834
350.50 2.666365
350.60 2.664392
350.70 2.662421
350.80 2.660452
350.90 2.658484
351.00 2.656518
351.10 2.654554
351.20 2.652592
351.30 2.650632
351.40 2.648715
351.50 2.646875
351.60 2.645037
351.70 2.6432
351.80 2.641365
351.90 2.639531
352.00 2.6377
352.10 2.63587
352.20 2.633592
352.30 2.631476
352.40 2.629663
352.50 2.627852
352.60 2.626043
352.70 2.624235
352.80 2.622429
352.90 2.620624
353.00 2.618821
353.10 2.61702
353.20 2.61522
353.30 2.613422
353.40 2.611625
353.50 2.609642
353.60 2.607612
353.70 2.605585
353.80 2.60356
353.90 2.601587
354.00 2.599707
354.10 2.597828
354.20 2.595951
354.30 2.594076
354.40 2.592203
354.50 2.590331
354.60 2.588461
354.70 2.586592
354.80 2.58478
354.90 2.583047
355.00 2.581316
355.10 2.579586
355.20 2.577858
355.30 2.575842
355.40 2.573829
355.50 2.571817
355.60 2.569807
355.70 2.568188
355.80 2.566745
355.90 2.564523
356.00 2.562247
356.10 2.560305
356.20 2.558365
356.30 2.556426
356.40 2.554489
356.50 2.552555
356.60 2.550621
356.70 2.54869
356.80 2.54676
356.90 2.544832
357.00 2.542906
357.10 2.540982
357.20 2.539059
357.30 2.537138
357.40 2.535142
357.50 2.533008
357.60 2.530877
357.70 2.528748
357.80 2.526789
357.90 2.524833
358.00 2.522487
358.10 2.520046
358.20 2.517607
358.30 2.515171
358.40 2.512737
358.50 2.510306
358.60 2.507876
358.70 2.505449
358.80 2.503025
358.90 2.500602
359.00 2.497975
359.10 2.494982
359.20 2.491934
359.30 2.488505
359.40 2.48508
359.50 2.481592
359.60 2.478092
359.70 2.474595
359.80 2.470523
359.90 2.466456
360.00 2.461853
360.10 2.456296
360.20 2.450745
360.30 2.445199
360.40 2.43966
360.50 2.434126
360.60 2.426428
360.70 2.417411
360.80 2.408403
360.90 2.399406
361.00 2.38863
361.10 2.371044
361.20 2.349329
361.30 2.313679
361.40 2.349023
361.50 2.380449
361.60 2.392168
361.70 2.39378
361.80 2.395654
361.90 2.397994
362.00 2.400331
362.10 2.40169
362.20 2.402109
362.30 2.401296
362.40 2.400484
362.50 2.399673
362.60 2.398861
362.70 2.396993
362.80 2.395153
362.90 2.391513
363.00 2.387876
363.10 2.384958
363.20 2.382051
363.30 2.379257
363.40 2.378529
363.50 2.381288
363.60 2.384625
363.70 2.388344
363.80 2.390125
363.90 2.391849
364.00 2.393571
364.10 2.39529
364.20 2.397007
364.30 2.398868
364.40 2.400764
364.50 2.401778
364.60 2.402379
364.70 2.40298
364.80 2.403579
364.90 2.403415
365.00 2.403251
365.10 2.401935
365.20 2.399468
365.30 2.398155
365.40 2.397993
365.50 2.398405
365.60 2.398816
365.70 2.39907
365.80 2.399324
365.90 2.398835
366.00 2.398161
366.10 2.397133
366.20 2.396105
366.30 2.395078
366.40 2.394052
366.50 2.392766
366.60 2.39146
366.70 2.390156
366.80 2.388853
366.90 2.38733
367.00 2.385414
367.10 2.383499
367.20 2.381587
367.30 2.379676
367.40 2.377767
367.50 2.375845
367.60 2.373921
367.70 2.371136
367.80 2.368353
367.90 2.365573
368.00 2.362527
368.10 2.359557
368.20 2.355763
368.30 2.351962
368.40 2.348164
368.50 2.344371
368.60 2.34058
368.70 2.336794
368.80 2.333012
368.90 2.329412
369.00 2.324756
369.10 2.31976
369.20 2.315087
369.30 2.308954
369.40 2.302828
369.50 2.296708
369.60 2.289313
369.70 2.281926
369.80 2.272819
369.90 2.263704
370.00 2.254598
370.10 2.244535
370.20 2.232118
370.30 2.219714
370.40 2.207323
370.50 2.20258
370.60 2.214724
370.70 2.229341
370.80 2.239808
370.90 2.250263
371.00 2.254717
371.10 2.259105
371.20 2.262324
371.30 2.265538
371.40 2.26927
371.50 2.2724
371.60 2.275525
371.70 2.278648
371.80 2.281766
371.90 2.284881
372.00 2.288294
372.10 2.290233
372.20 2.291589
372.30 2.292943
372.40 2.294295
372.50 2.295646
372.60 2.296995
372.70 2.298342
372.80 2.298208
372.90 2.298075
373.00 2.297952
373.10 2.297829
373.20 2.296597
373.30 2.295367
373.40 2.286979
373.50 2.283003
373.60 2.285631
373.70 2.288257
373.80 2.291291
373.90 2.293498
374.00 2.294193
374.10 2.294887
374.20 2.29558
374.30 2.296272
374.40 2.296414
374.50 2.296009
374.60 2.295598
374.70 2.295195
374.80 2.294793
374.90 2.29439
375.00 2.293531
375.10 2.292672
375.20 2.291813
375.30 2.290592
375.40 2.289372
375.50 2.288153
375.60 2.286935
375.70 2.285717
375.80 2.284501
375.90 2.283286
376.00 2.280996
376.10 2.279304
376.20 2.27762
376.30 2.275937
376.40 2.274255
376.50 2.272316
376.60 2.269989
376.70 2.267665
376.80 2.265272
376.90 2.26281
377.00 2.26035
377.10 2.257893
377.20 2.255349
377.30 2.252474
377.40 2.249601
377.50 2.246731
377.60 2.243434
377.70 2.24014
377.80 2.236849
377.90 2.233562
378.00 2.23007
378.10 2.225787
378.20 2.221504
378.30 2.217225
378.40 2.21295
378.50 2.208679
378.60 2.204413
378.70 2.20015
378.80 2.195892
378.90 2.191335
379.00 2.186219
379.10 2.180792
379.20 2.175371
379.30 2.169507
379.40 2.163201
379.50 2.156902
379.60 2.150523
379.70 2.143542
379.80 2.134772
379.90 2.126012
380.00 2.11726
380.10 2.108517
380.20 2.099783
380.30 2.091058
380.40 2.082342
380.50 2.073635
380.60 2.061965
380.70 2.050527
380.80 2.039101
380.90 2.027687
381.00 2.016285
381.10 2.007297
381.20 1.995852
381.30 1.979909
381.40 1.960331
381.50 1.938202
381.60 1.913897
381.70 1.886438
381.80 1.860363
381.90 1.842543
382.00 1.821584
382.10 1.866383
382.20 1.90651
382.30 1.938609
382.40 1.964897
382.50 1.982497
382.60 2.000079
382.70 2.013468
382.80 2.019965
382.90 2.024281
383.00 2.028593
383.10 2.032899
383.20 2.037531
383.30 2.043398
383.40 2.049174
383.50 2.054817
383.60 2.059422
383.70 2.063433
383.80 2.06744
383.90 2.071442
384.00 2.07544
384.10 2.079434
384.20 2.083423
384.30 2.087407
384.40 2.090671
384.50 2.093216
384.60 2.095757
384.70 2.098296
384.80 2.10083
384.90 2.103023
385.00 2.104598
385.10 2.106156
385.20 2.107048
385.30 2.108054
385.40 2.108613
385.50 2.108723
385.60 2.108833
385.70 2.108943
385.80 2.109053
385.90 2.109166
386.00 2.108676
386.10 2.107477
386.20 2.105193
386.30 2.102911
386.40 2.099696
386.50 2.095363
386.60 2.087752
386.70 2.071525
386.80 2.030169
386.90 2.042969
387.00 2.052243
387.10 2.055743
387.20 2.057447
387.30 2.056666
387.40 2.054051
387.50 2.050112
387.60 2.044397
387.70 2.034148
387.80 2.023909
387.90 2.013681
388.00 2.001903
388.10 1.982965
388.20 1.952278
388.30 1.914414
388.40 1.876589
388.50 1.825764
388.60 1.743538
388.70 1.614398
388.80 1.333166
388.90 1.154482
389.00 1.45846
389.10 1.618547
389.20 1.715979
389.30 1.783891
389.40 1.83387
389.50 1.8774
389.60 1.909901
389.70 1.932981
389.80 1.948317
389.90 1.963638
390.00 1.978943
390.10 1.994232
390.20 2.009504
390.30 2.020538
390.40 2.026801
390.50 2.033058
390.60 2.039308
390.70 2.045551
390.80 2.050418
390.90 2.053911
391.00 2.056012
391.10 2.058372
391.20 2.060583
391.30 2.061752
391.40 2.06237
391.50 2.062986
391.60 2.063602
391.70 2.064216
391.80 2.06483
391.90 2.064659
392.00 2.063606
392.10 2.062554
392.20 2.061502
392.30 2.060451
392.40 2.059401
392.50 2.057355
392.60 2.056307
392.70 2.054264
392.80 2.053218
392.90 2.051988
393.00 2.050415
393.10 2.049092
393.20 2.04796
393.30 2.045926
393.40 2.043983
393.50 2.042141
393.60 2.039317
393.70 2.037179
393.80 2.034704
393.90 2.031692
394.00 2.028716
394.10 2.025662
394.20 2.022127
394.30 2.01813
394.40 2.013562
394.50 2.00892
394.60 2.003494
394.70 1.99786
394.80 1.991424
394.90 1.98497
395.00 1.977534
395.10 1.968878
395.20 1.959496
395.30 1.949862
395.40 1.940238
395.50 1.928186
395.60 1.915245
395.70 1.90055
395.80 1.881095
395.90 1.86166
396.00 1.841434
396.10 1.809101
396.20 1.766123
396.30 1.7154
396.40 1.600757
396.50 1.677005
396.60 1.807749
396.70 1.835162
396.80 1.832332
396.90 1.82912
397.00 1.850218
397.10 1.881747
397.20 1.898544
397.30 1.903785
397.40 1.906191
397.50 1.908593
397.60 1.910784
397.70 1.910856
397.80 1.910928
397.90 1.910627
398.00 1.909321
398.10 1.908016
398.20 1.906128
398.30 1.903584
398.40 1.901046
398.50 1.898604
398.60 1.894974
398.70 1.890877
398.80 1.886776
398.90 1.882281
399.00 1.87705
399.10 1.871756
399.20 1.865293
399.30 1.858836
399.40 1.852386
399.50 1.845942
399.60 1.838899
399.70 1.831639
399.80 1.824386
399.90 1.817141
400.00 1.809892
400.10 1.802347
400.20 1.794373
400.30 1.78538
400.40 1.776159
400.50 1.767281
400.60 1.756543
400.70 1.746102
400.80 1.733927
400.90 1.721119
401.00 1.708156
401.10 1.696805
401.20 1.684397
401.30 1.671116
401.40 1.655837
401.50 1.639841
401.60 1.623745
401.70 1.603903
401.80 1.581543
401.90 1.554386
402.00 1.525032
402.10 1.489213
402.20 1.448314
402.30 1.400774
402.40 1.344803
402.50 1.272984
402.60 1.193701
402.70 1.265092
402.80 1.346805
402.90 1.410464
403.00 1.471223
403.10 1.519635
403.20 1.557624
403.30 1.588806
403.40 1.6159
403.50 1.638023
403.60 1.658913
403.70 1.676244
403.80 1.690852
403.90 1.702316
404.00 1.71261
404.10 1.719946
404.20 1.725205
404.30 1.730458
404.40 1.732931
404.50 1.728747
404.60 1.726485
404.70 1.729852
404.80 1.734811
404.90 1.74032
405.00 1.745742
405.10 1.750633
405.20 1.755447
405.30 1.760257
405.40 1.764994
405.50 1.769727
405.60 1.774455
405.70 1.779179
405.80 1.783897
405.90 1.78861
406.00 1.792228
406.10 1.795842
406.20 1.799452
406.30 1.803058
406.40 1.806712
406.50 1.810293
406.60 1.813109
406.70 1.816047
406.80 1.818779
406.90 1.821658
407.00 1.823822
407.10 1.825984
407.20 1.828143
407.30 1.8303
407.40 1.832455
407.50 1.834608
407.60 1.836758
407.70 1.838905
407.80 1.841051
407.90 1.843178
408.00 1.844795
408.10 1.846368
408.20 1.847365
408.30 1.84826
408.40 1.849155
408.50 1.850576
408.60 1.851261
408.70 1.851946
408.80 1.852571
408.90 1.852721
409.00 1.852872
409.10 1.853023
409.20 1.853174
409.30 1.853324
409.40 1.853462
409.50 1.853204
409.60 1.852946
409.70 1.852643
409.80 1.85216
409.90 1.851665
410.00 1.850762
410.10 1.85062
410.20 1.849585
410.30 1.848327
410.40 1.847012
410.50 1.845513
410.60 1.844015
410.70 1.842269
410.80 1.83953
410.90 1.836794
411.00 1.833524
411.10 1.830058
411.20 1.826595
411.30 1.822874
411.40 1.818053
411.50 1.811402
411.60 1.804757
411.70 1.796824
411.80 1.783727
411.90 1.769013
412.00 1.735134
412.10 1.600468
412.20 1.635842
412.30 1.674757
412.40 1.696045
412.50 1.707982
412.60 1.718752
412.70 1.726411
412.80 1.733289
412.90 1.739459
413.00 1.743547
413.10 1.745202
413.20 1.746856
413.30 1.748508
413.40 1.750158
413.50 1.751495
413.60 1.751359
413.70 1.750512
413.80 1.749666
413.90 1.748821
414.00 1.747546
414.10 1.744911
414.20 1.741634
414.30 1.735425
414.40 1.730117
414.50 1.730492
414.60 1.735595
414.70 1.741455
414.80 1.746934
414.90 1.751221
415.00 1.755504
415.10 1.759783
415.20 1.763761
415.30 1.766794
415.40 1.769825
415.50 1.772822
415.60 1.774837
415.70 1.77685
415.80 1.778804
415.90 1.780577
416.00 1.782348
416.10 1.783932
416.20 1.784776
416.30 1.785618
416.40 1.78646
416.50 1.787276
416.60 1.787303
416.70 1.787303
416.80 1.786445
416.90 1.78328
417.00 1.781925
417.10 1.783943
417.20 1.785293
417.30 1.786623
417.40 1.787324
417.50 1.788025
417.60 1.788714
417.70 1.789348
417.80 1.789518
417.90 1.789687
418.00 1.789856
418.10 1.790025
418.20 1.790194
418.30 1.790331
418.40 1.789635
418.50 1.789446
418.60 1.789258
418.70 1.789069
418.80 1.78888
418.90 1.788691
419.00 1.788502
419.10 1.788313
419.20 1.788124
419.30 1.787925
419.40 1.787381
419.50 1.786837
419.60 1.786291
419.70 1.785734
419.80 1.785178
419.90 1.784592
420.00 1.783913
420.10 1.783234
420.20 1.782556
420.30 1.781878
420.40 1.781201
420.50 1.780524
420.60 1.779847
420.70 1.779171
420.80 1.778496
420.90 1.777815
421.00 1.776971
421.10 1.776127
421.20 1.775253
421.30 1.774287
421.40 1.773322
421.50 1.772357
421.60 1.771393
421.70 1.77043
421.80 1.769467
421.90 1.768535
422.00 1.767697
422.10 1.76686
422.20 1.766023
422.30 1.765186
422.40 1.764344
422.50 1.763292
422.60 1.76224
422.70 1.761189
422.80 1.760139
422.90 1.75909
423.00 1.758041
423.10 1.756994
423.20 1.755947
423.30 1.754901
423.40 1.753856
423.50 1.752811
423.60 1.751767
423.70 1.750725
423.80 1.749682
423.90 1.748641
424.00 1.747601
424.10 1.746561
424.20 1.745522
424.30 1.744484
424.40 1.743488
424.50 1.742322
424.60 1.741157
424.70 1.739993
424.80 1.73883
424.90 1.737668
425.00 1.736507
425.10 1.735347
425.20 1.734188
425.30 1.733029
425.40 1.731872
425.50 1.730722
425.60 1.729571
425.70 1.728422
425.80 1.727274
425.90 1.726127
426.00 1.72498
426.10 1.723834
426.20 1.72269
426.30 1.721546
426.40 1.720403
426.50 1.719261
426.60 1.718119
426.70 1.716979
426.80 1.71584
426.90 1.714696
427.00 1.713405
427.10 1.712114
427.20 1.710825
427.30 1.709536
427.40 1.708248
427.50 1.706962
427.60 1.705676
427.70 1.704392
427.80 1.703108
427.90 1.701826
428.00 1.700544
428.10 1.699264
428.20 1.697984
428.30 1.696706
428.40 1.695428
428.50 1.694152
428.60 1.692876
428.70 1.691602
428.80 1.690313
428.90 1.688824
429.00 1.687336
429.10 1.685849
429.20 1.684363
429.30 1.682879
429.40 1.681395
429.50 1.679913
429.60 1.678432
429.70 1.676953
429.80 1.675474
429.90 1.673997
430.00 1.672521
430.10 1.671046
430.20 1.669572
430.30 1.668099
430.40 1.666628
430.50 1.665158
430.60 1.663689
430.70 1.662221
430.80 1.660754
430.90 1.659289
431.00 1.657825
431.10 1.656362
431.20 1.6549
431.30 1.653409
431.40 1.651529
431.50 1.64965
431.60 1.647773
431.70 1.645897
431.80 1.644023
431.90 1.642151
432.00 1.64028
432.10 1.63841
432.20 1.636542
432.30 1.634676
432.40 1.632811
432.50 1.630948
432.60 1.629086
432.70 1.627226
432.80 1.625368
432.90 1.623511
433.00 1.621655
433.10 1.619801
433.20 1.617949
433.30 1.616076
433.40 1.613915
433.50 1.611755
433.60 1.609598
433.70 1.607442
433.80 1.605121
433.90 1.602598
434.00 1.600059
434.10 1.597511
434.20 1.594966
434.30 1.592422
434.40 1.589881
434.50 1.587341
434.60 1.584804
434.70 1.582269
434.80 1.579692
434.90 1.576522
435.00 1.573355
435.10 1.570191
435.20 1.567029
435.30 1.56387
435.40 1.560714
435.50 1.557561
435.60 1.55441
435.70 1.551262
435.80 1.548117
435.90 1.544974
436.00 1.541834
436.10 1.538697
436.20 1.535563
436.30 1.532209
436.40 1.52855
436.50 1.524434
436.60 1.520321
436.70 1.516212
436.80 1.512107
436.90 1.508005
437.00 1.503907
437.10 1.499812
437.20 1.495275
437.30 1.490331
437.40 1.485314
437.50 1.479286
437.60 1.473264
437.70 1.467248
437.80 1.461236
437.90 1.45523
438.00 1.449111
438.10 1.441426
438.20 1.433748
438.30 1.425892
438.40 1.416965
438.50 1.398749
438.60 1.380103
438.70 1.345344
438.80 1.305034
438.90 1.320981
439.00 1.341446
439.10 1.358357
439.20 1.374709
439.30 1.38383
439.40 1.392944
439.50 1.402049
439.60 1.410868
439.70 1.416087
439.80 1.420421
439.90 1.42358
440.00 1.426736
440.10 1.429889
440.20 1.432867
440.30 1.433563
440.40 1.434258
440.50 1.434952
440.60 1.435645
440.70 1.436338
440.80 1.43703
440.90 1.437721
441.00 1.438411
441.10 1.439101
441.20 1.439696
441.30 1.439043
441.40 1.43827
441.50 1.43735
441.60 1.43643
441.70 1.434864
441.80 1.433013
441.90 1.431164
442.00 1.429317
442.10 1.427471
442.20 1.425626
442.30 1.423783
442.40 1.421439
442.50 1.418482
442.60 1.415528
442.70 1.412324
442.80 1.408744
442.90 1.405209
443.00 1.401156
443.10 1.396471
443.20 1.39154
443.30 1.386383
443.40 1.380807
443.50 1.374719
443.60 1.367583
443.70 1.356924
443.80 1.33419
443.90 1.337778
444.00 1.336591
444.10 1.334043
444.20 1.330816
444.30 1.325953
444.40 1.320014
444.50 1.314081
444.60 1.307475
444.70 1.300047
444.80 1.29162
444.90 1.282271
445.00 1.27293
445.10 1.263598
445.20 1.253158
445.30 1.241364
445.40 1.229581
445.50 1.217808
445.60 1.206046
445.70 1.194294
445.80 1.179494
445.90 1.161887
446.00 1.144295
446.10 1.126719
446.20 1.107578
446.30 1.0845
446.40 1.053475
446.50 1.017572
446.60 0.9817002
446.70 0.9458606
446.80 0.907253
446.90 0.8660964
447.00 0.869982
447.10 0.839787
447.20 0.7894246
447.30 0.8249141
447.40 0.878707
447.50 0.9319917
447.60 0.9788305
447.70 1.019724
447.80 1.051627
447.90 1.080506
448.00 1.104316
448.10 1.123453
448.20 1.142572
448.30 1.161673
448.40 1.180758
448.50 1.199826
448.60 1.215818
448.70 1.228974
448.80 1.241864
448.90 1.251372
449.00 1.260872
449.10 1.270363
449.20 1.279846
449.30 1.288604
449.40 1.295082
449.50 1.301554
449.60 1.306984
449.70 1.311451
449.80 1.315915
449.90 1.320374
450.00 1.324829
450.10 1.329281
450.20 1.333728
450.30 1.338171
450.40 1.340226
450.50 1.342279
450.60 1.344331
450.70 1.34638
450.80 1.348428
450.90 1.350473
451.00 1.351092
451.10 1.35171
451.20 1.351328
451.30 1.349588
451.40 1.345976
451.50 1.342366
451.60 1.335372
451.70 1.320857
451.80 1.308236
451.90 1.307657
452.00 1.310461
452.10 1.313262
452.20 1.316436
452.30 1.319607
452.40 1.322775
452.50 1.32594
452.60 1.329406
452.70 1.332401
452.80 1.334961
452.90 1.337519
453.00 1.340074
453.10 1.342626
453.20 1.344659
453.30 1.34669
453.40 1.348719
453.50 1.350746
453.60 1.352772
453.70 1.354795
453.80 1.356611
453.90 1.358173
454.00 1.359735
454.10 1.361294
454.20 1.362461
454.30 1.363626
454.40 1.36479
454.50 1.365953
454.60 1.367115
454.70 1.367984
454.80 1.368582
454.90 1.369179
455.00 1.369776
455.10 1.370373
455.20 1.370968
455.30 1.371563
455.40 1.372157
455.50 1.372751
455.60 1.373344
455.70 1.373936
455.80 1.374324
455.90 1.374712
456.00 1.375099
456.10 1.375404
456.20 1.375487
456.30 1.37557
456.40 1.375653
456.50 1.375736
456.60 1.375819
456.70 1.375901
456.80 1.375983
456.90 1.376065
457.00 1.376147
457.10 1.376229
457.20 1.375955
457.30 1.375764
457.40 1.375574
457.50 1.375383
457.60 1.375193
457.70 1.375002
457.80 1.374812
457.90 1.374621
458.00 1.374431
458.10 1.374241
458.20 1.37405
458.30 1.37386
458.40 1.37367
458.50 1.37348
458.60 1.373289
458.70 1.373081
458.80 1.372866
458.90 1.372651
459.00 1.372436
459.10 1.372221
459.20 1.372006
459.30 1.371612
459.40 1.371218
459.50 1.370824
459.60 1.370431
459.70 1.370037
459.80 1.369644
459.90 1.369251
460.00 1.368859
460.10 1.368466
460.20 1.368074
460.30 1.367682
460.40 1.36729
460.50 1.366898
460.60 1.366507
460.70 1.366078
460.80 1.365631
460.90 1.365184
461.00 1.364738
461.10 1.364291
461.20 1.363742
461.30 1.363151
461.40 1.36256
461.50 1.36197
461.60 1.36138
461.70 1.36079
461.80 1.3601
461.90 1.35941
462.00 1.358721
462.10 1.358032
462.20 1.357344
462.30 1.356657
462.40 1.355969
462.50 1.355283
462.60 1.354596
462.70 1.35391
462.80 1.353225
462.90 1.35254
463.00 1.351856
463.10 1.351172
463.20 1.350412
463.30 1.349622
463.40 1.348833
463.50 1.348044
463.60 1.347256
463.70 1.346468
463.80 1.345681
463.90 1.344848
464.00 1.344004
464.10 1.34316
464.20 1.342317
464.30 1.341475
464.40 1.340633
464.50 1.339792
464.60 1.338952
464.70 1.338134
464.80 1.337325
464.90 1.336517
465.00 1.33571
465.10 1.334904
465.20 1.334097
465.30 1.333211
465.40 1.332272
465.50 1.331333
465.60 1.330394
465.70 1.329457
465.80 1.32852
465.90 1.3276
466.00 1.326684
466.10 1.325769
466.20 1.324855
466.30 1.323886
466.40 1.322895
466.50 1.321904
466.60 1.320915
466.70 1.319926
466.80 1.318937
466.90 1.31795
467.00 1.316963
467.10 1.315977
467.20 1.314991
467.30 1.314306
467.40 1.313192
467.50 1.31194
467.60 1.310689
467.70 1.309439
467.80 1.30819
467.90 1.306933
468.00 1.305673
468.10 1.304415
468.20 1.303157
468.30 1.3019
468.40 1.300644
468.50 1.299344
468.60 1.297844
468.70 1.296138
468.80 1.29473
468.90 1.293088
469.00 1.291205
469.10 1.289292
469.20 1.287347
469.30 1.285404
469.40 1.283463
469.50 1.28091
469.60 1.278108
469.70 1.275309
469.80 1.272512
469.90 1.269699
470.00 1.266111
470.10 1.261232
470.20 1.255886
470.30 1.250544
470.40 1.245207
470.50 1.239874
470.60 1.229235
470.70 1.217276
470.80 1.205328
470.90 1.19339
471.00 1.172309
471.10 1.140892
471.20 1.086537
471.30 0.931737
471.40 0.8720855
471.50 0.9711824
471.60 1.018412
471.70 1.061114
471.80 1.084741
471.90 1.103589
472.00 1.122421
472.10 1.141238
472.20 1.152513
472.30 1.161898
472.40 1.171275
472.50 1.180644
472.60 1.190004
472.70 1.197185
472.80 1.201005
472.90 1.204205
473.00 1.207402
473.10 1.210597
473.20 1.213789
473.30 1.216977
473.40 1.220163
473.50 1.223347
473.60 1.226527
473.70 1.229705
473.80 1.231262
473.90 1.232415
474.00 1.233566
474.10 1.234716
474.20 1.235414
474.30 1.235927
474.40 1.23644
474.50 1.236952
474.60 1.23743
474.70 1.237563
474.80 1.237696
474.90 1.237829
475.00 1.237961
475.10 1.238093
475.20 1.238225
475.30 1.238357
475.40 1.238235
475.50 1.23805
475.60 1.237865
475.70 1.237681
475.80 1.237496
475.90 1.237311
476.00 1.237126
476.10 1.236942
476.20 1.236589
476.30 1.236168
476.40 1.235747
476.50 1.235326
476.60 1.234905
476.70 1.234485
476.80 1.234065
476.90 1.233448
477.00 1.232781
477.10 1.232115
477.20 1.23145
477.30 1.230785
477.40 1.23012
477.50 1.229456
477.60 1.228793
477.70 1.228129
477.80 1.227467
477.90 1.226804
478.00 1.226143
478.10 1.225481
478.20 1.22482
478.30 1.22416
478.40 1.2235
478.50 1.22284
478.60 1.222181
478.70 1.221378
478.80 1.220517
478.90 1.21973
479.00 1.218962
479.10 1.218195
479.20 1.217427
479.30 1.216661
479.40 1.215843
479.50 1.214995
479.60 1.214147
479.70 1.213301
479.80 1.212454
479.90 1.211609
480.00 1.210764
480.10 1.209919
480.20 1.209075
480.30 1.208232
480.40 1.20739
480.50 1.206548
480.60 1.205706
480.70 1.204865
480.80 1.204025
480.90 1.203185
481.00 1.202346
481.10 1.201508
481.20 1.200584
481.30 1.19966
481.40 1.198738
481.50 1.197816
481.60 1.196894
481.70 1.195973
481.80 1.195053
481.90 1.194134
482.00 1.193215
482.10 1.192297
482.20 1.191367
482.30 1.190263
482.40 1.18916
482.50 1.188057
482.60 1.186956
482.70 1.185855
482.80 1.184755
482.90 1.183656
483.00 1.182558
483.10 1.18146
483.20 1.180364
483.30 1.179268
483.40 1.178173
483.50 1.177079
483.60 1.175985
483.70 1.17488
483.80 1.173775
483.90 1.172672
484.00 1.171569
484.10 1.170466
484.20 1.169228
484.30 1.167931
484.40 1.166635
484.50 1.16534
484.60 1.164046
484.70 1.162739
484.80 1.161251
484.90 1.159764
485.00 1.158278
485.10 1.156794
485.20 1.15531
485.30 1.153828
485.40 1.152346
485.50 1.150866
485.60 1.149387
485.70 1.147663
485.80 1.14594
485.90 1.144219
486.00 1.142499
486.10 1.140781
486.20 1.139063
486.30 1.137347
486.40 1.135633
486.50 1.133919
486.60 1.132207
486.70 1.130483
486.80 1.128586
486.90 1.12669
487.00 1.124796
487.10 1.122903
487.20 1.120488
487.30 1.118076
487.40 1.115666
487.50 1.113257
487.60 1.110851
487.70 1.108446
487.80 1.106043
487.90 1.103642
488.00 1.101243
488.10 1.098846
488.20 1.096417
488.30 1.093555
488.40 1.090695
488.50 1.087837
488.60 1.084981
488.70 1.082127
488.80 1.078849
488.90 1.075573
489.00 1.072155
489.10 1.068366
489.20 1.06458
489.30 1.060797
489.40 1.057017
489.50 1.05324
489.60 1.049466
489.70 1.045695
489.80 1.0411
489.90 1.036006
490.00 1.030915
490.10 1.025829
490.20 1.020747
490.30 1.015669
490.40 1.009987
490.50 1.00431
490.60 0.9986366
490.70 0.9929683
490.80 0.9870467
490.90 0.9806893
491.00 0.9755126
491.10 0.9754337
491.20 0.972809
491.30 0.9644607
491.40 0.9535308
491.50 0.9388848
491.60 0.9186611
491.70 0.8920345
491.80 0.8651066
491.90 0.8339127
492.00 0.8133371
492.10 0.8545732
492.20 0.75486
492.30 0.7355531
492.40 0.778338
492.50 0.8135224
492.60 0.8410226
492.70 0.8585516
492.80 0.8760662
492.90 0.8935666
493.00 0.9105099
493.10 0.9202305
493.20 0.9299432
493.30 0.9396479
493.40 0.9493447
493.50 0.9590335
493.60 0.9660389
493.70 0.9722298
493.80 0.9784157
493.90 0.9840477
494.00 0.9888172
494.10 0.9933481
494.20 0.9973773
494.30 1.001403
494.40 1.005426
494.50 1.009445
494.60 1.013394
494.70 1.016451
494.80 1.019405
494.90 1.02207
495.00 1.024733
495.10 1.027394
495.20 1.028919
495.30 1.030444
495.40 1.031967
495.50 1.033489
495.60 1.03501
495.70 1.036529
495.80 1.038047
495.90 1.039563
496.00 1.041079
496.10 1.042453
496.20 1.043511
496.30 1.044316
496.40 1.04512
496.50 1.045924
496.60 1.046726
496.70 1.046951
496.80 1.047176
496.90 1.047401
497.00 1.047625
497.10 1.047849
497.20 1.048072
497.30 1.048238
497.40 1.048239
497.50 1.048239
497.60 1.048105
497.70 1.047655
497.80 1.046824
497.90 1.045994
498.00 1.045165
498.10 1.044336
498.20 1.043507
498.30 1.042679
498.40 1.041852
498.50 1.041025
498.60 1.040199
498.70 1.038547
498.80 1.036896
498.90 1.034972
499.00 1.033049
499.10 1.031127
499.20 1.029131
499.30 1.026741
499.40 1.023685
499.50 1.020631
499.60 1.017579
499.70 1.014407
499.80 1.009601
499.90 1.004799
500.00 1
500.10 0.9952052
500.20 0.9891031
500.30 0.9802209
500.40 0.9713458
500.50 0.9624776
500.60 0.9536165
500.70 0.9447624
500.80 0.9331962
500.90 0.9158636
501.00 0.8985448
501.10 0.8812397
501.20 0.8508608
501.30 0.8101915
501.40 0.7609542
501.50 0.660578
501.60 0.6731316
501.70 0.8084852
501.80 0.8676349
501.90 0.9029507
502.00 0.9323777
502.10 0.9493323
502.20 0.9658159
502.30 0.9762128
502.40 0.984775
502.50 0.989451
502.60 0.9941232
502.70 0.9987915
502.80 1.003456
502.90 1.008117
503.00 1.011729
503.10 1.01312
503.20 1.01451
503.30 1.015899
503.40 1.016821
503.50 1.016417
503.60 1.016013
503.70 1.01561
503.80 1.014924
503.90 1.01217
504.00 1.007025
504.10 0.9968018
504.20 0.9865869
504.30 0.97638
504.40 0.9683399
504.50 0.9664477
504.60 0.963381
504.70 0.9490432
504.80 0.8886316
504.90 0.9184437
505.00 0.9374929
505.10 0.9485578
505.20 0.9582298
505.30 0.9639564
505.40 0.9696784
505.50 0.9753958
505.60 0.9801404
505.70 0.9828245
505.80 0.9855064
505.90 0.9881861
506.00 0.9908637
506.10 0.993539
506.20 0.9957985
506.30 0.9968794
506.40 0.9979593
506.50 0.9990383
506.60 1.000116
506.70 1.001193
506.80 1.00227
506.90 1.003345
507.00 1.004419
507.10 1.005383
507.20 1.005936
507.30 1.005987
507.40 1.006038
507.50 1.006089
507.60 1.00614
507.70 1.00619
507.80 1.006241
507.90 1.006291
508.00 1.006341
508.10 1.006391
508.20 1.006441
508.30 1.006491
508.40 1.00654
508.50 1.00659
508.60 1.006639
508.70 1.006689
508.80 1.006622
508.90 1.006408
509.00 1.006257
509.10 1.006044
509.20 1.005698
509.30 1.005353
509.40 1.005007
509.50 1.004662
509.60 1.004316
509.70 1.003971
509.80 1.003626
509.90 1.003282
510.00 1.002937
510.10 1.002593
510.20 1.002249
510.30 1.001881
510.40 1.001443
510.50 1.001005
510.60 1.000567
510.70 1.00013
510.80 0.9996928
510.90 0.999256
511.00 0.9988195
511.10 0.9983833
511.20 0.9979473
511.30 0.9975116
511.40 0.9970761
511.50 0.9966409
511.60 0.9961939
511.70 0.9957215
511.80 0.9952494
511.90 0.9947776
512.00 0.9943061
512.10 0.9938349
512.20 0.9933639
512.30 0.992887
512.40 0.9923925
512.50 0.9918983
512.60 0.9914045
512.70 0.9909109
512.80 0.9904176
512.90 0.9899247
513.00 0.9894321
513.10 0.9889397
513.20 0.9884477
513.30 0.987956
513.40 0.9874646
513.50 0.9869735
513.60 0.9864827
513.70 0.9859922
513.80 0.9855021
513.90 0.9850122
514.00 0.9844585
514.10 0.9838947
514.20 0.9833312
514.30 0.9827681
514.40 0.9822054
514.50 0.9816431
514.60 0.9810811
514.70 0.9805195
514.80 0.9799582
514.90 0.9793973
515.00 0.9788368
515.10 0.9782766
515.20 0.9777168
515.30 0.9771573
515.40 0.9765982
515.50 0.9760395
515.60 0.9754811
515.70 0.9749231
515.80 0.9743654
515.90 0.9738081
516.00 0.9732512
516.10 0.9726946
516.20 0.9721384
516.30 0.9715825
516.40 0.971027
516.50 0.9704719
516.60 0.969917
516.70 0.9693625
516.80 0.9688084
516.90 0.9682546
517.00 0.9677011
517.10 0.9671481
517.20 0.9665953
517.30 0.966043
517.40 0.9654909
517.50 0.9649393
517.60 0.964388
517.70 0.963837
517.80 0.9632864
517.90 0.9627362
518.00 0.9621863
518.10 0.9616367
518.20 0.9610876
518.30 0.9605387
518.40 0.9599902
518.50 0.9594421
518.60 0.9588943
518.70 0.9583469
518.80 0.9577998
518.90 0.9572531
519.00 0.9567067
519.10 0.9561461
519.20 0.9555693
519.30 0.9549929
519.40 0.9544168
519.50 0.9538412
519.60 0.9532659
519.70 0.952691
519.80 0.9521164
519.90 0.9515422
520.00 0.9509684
520.10 0.950395
520.20 0.9498219
520.30 0.9492492
520.40 0.9486769
520.50 0.948105
520.60 0.9475334
520.70 0.9469622
520.80 0.9463913
520.90 0.9458208
521.00 0.9452507
521.10 0.944681
521.20 0.9441116
521.30 0.9435426
521.40 0.942974
521.50 0.9424057
521.60 0.9418378
521.70 0.9412703
521.80 0.9407031
521.90 0.9401363
522.00 0.9395698
522.10 0.9390038
522.20 0.938438
522.30 0.9378727
522.40 0.9373077
522.50 0.9367431
522.60 0.9361788
522.70 0.9356149
522.80 0.9350514
522.90 0.9344882
523.00 0.9339254
523.10 0.933363
523.20 0.9328009
523.30 0.9322392
523.40 0.9316778
523.50 0.9311168
523.60 0.9305562
523.70 0.9299959
523.80 0.929436
523.90 0.9288764
524.00 0.9283172
524.10 0.9277584
524.20 0.9271999
524.30 0.9266429
524.40 0.9260871
524.50 0.9255317
524.60 0.9249766
524.70 0.9244219
524.80 0.9238676
524.90 0.9233136
525.00 0.9227599
525.10 0.9222066
525.20 0.9216537
525.30 0.9211011
525.40 0.9205489
525.50 0.919997
525.60 0.9194455
525.70 0.9188944
525.80 0.9183435
525.90 0.9177931
526.00 0.917243
526.10 0.9166932
526.20 0.9161438
526.30 0.9155948
526.40 0.9150461
526.50 0.9144977
526.60 0.9139497
526.70 0.9134021
526.80 0.9128548
526.90 0.9123078
527.00 0.9117612
527.10 0.9112149
527.20 0.910669
527.30 0.9101235
527.40 0.9095783
527.50 0.9090334
527.60 0.9084889
527.70 0.9079447
527.80 0.9074009
527.90 0.9068575
528.00 0.9063143
528.10 0.9057716
528.20 0.9052291
528.30 0.904687
528.40 0.9041453
528.50 0.9036039
528.60 0.9030629
528.70 0.9025222
528.80 0.9019818
528.90 0.9014418
529.00 0.9009021
529.10 0.9003628
529.20 0.8998238
529.30 0.8992851
529.40 0.8987468
529.50 0.8982077
529.60 0.8976618
529.70 0.8971162
529.80 0.896571
529.90 0.8960261
530.00 0.8954816
530.10 0.8949374
530.20 0.8943935
530.30 0.89385
530.40 0.8933069
530.50 0.8927641
530.60 0.8922216
530.70 0.8916795
530.80 0.8911377
530.90 0.8905963
531.00 0.8900552
531.10 0.8895145
531.20 0.8889741
531.30 0.888434
531.40 0.8878943
531.50 0.887355
531.60 0.886816
531.70 0.8862773
531.80 0.885739
531.90 0.885201
532.00 0.8846633
532.10 0.884126
532.20 0.883589
532.30 0.8830523
532.40 0.8825159
532.50 0.8819799
532.60 0.8814442
532.70 0.8809089
532.80 0.8803739
532.90 0.8798392
533.00 0.8793049
533.10 0.8787709
533.20 0.8782373
533.30 0.877704
533.40 0.877171
533.50 0.8766384
533.60 0.8761061
533.70 0.8755741
533.80 0.8750425
533.90 0.8745112
534.00 0.8739803
534.10 0.8734497
534.20 0.8729194
534.30 0.8723895
534.40 0.8718599
534.50 0.8713306
534.60 0.8708017
534.70 0.8702731
534.80 0.8697433
534.90 0.8692074
535.00 0.8686718
535.10 0.8681366
535.20 0.8676017
535.30 0.8670671
535.40 0.8665329
535.50 0.865999
535.60 0.8654655
535.70 0.8649323
535.80 0.8643994
535.90 0.8638669
536.00 0.8633347
536.10 0.8628028
536.20 0.8622713
536.30 0.8617401
536.40 0.8612093
536.50 0.8606788
536.60 0.8601486
536.70 0.8596188
536.80 0.8590893
536.90 0.8585601
537.00 0.8580313
537.10 0.8575028
537.20 0.8569746
537.30 0.8564468
537.40 0.8559193
537.50 0.8553921
537.60 0.8548653
537.70 0.8543388
537.80 0.8538126
537.90 0.8532868
538.00 0.8527613
538.10 0.8522361
538.20 0.8517112
538.30 0.8511867
538.40 0.8506626
538.50 0.8501387
538.60 0.8496152
538.70 0.849092
538.80 0.8485691
538.90 0.8480466
539.00 0.8475244
539.10 0.8470026
539.20 0.846481
539.30 0.8459598
539.40 0.8454389
539.50 0.8449184
539.60 0.8443981
539.70 0.8438782
539.80 0.8433587
539.90 0.8428394
540.00 0.8423205
540.10 0.8418019
540.20 0.8412989
540.30 0.8408025
540.40 0.8403063
540.50 0.8398105
540.60 0.839315
540.70 0.8388198
540.80 0.8383249
540.90 0.8378303
541.00 0.8373361
541.10 0.8368421
541.20 0.8363484
541.30 0.8358551
541.40 0.835362
541.50 0.8348693
541.60 0.8343769
541.70 0.8338847
541.80 0.8333929
541.90 0.8329014
542.00 0.8324102
542.10 0.8319193
542.20 0.8314287
542.30 0.8309384
542.40 0.8304484
542.50 0.8299588
542.60 0.8294694
542.70 0.8289803
542.80 0.8284915
542.90 0.8280031
543.00 0.8275149
543.10 0.8270271
543.20 0.8265395
543.30 0.8260523
543.40 0.8255653
543.50 0.8250787
543.60 0.8245923
543.70 0.8241063
543.80 0.8236205
543.90 0.8231351
544.00 0.82265
544.10 0.8221651
544.20 0.8216806
544.30 0.8211964
544.40 0.8207124
544.50 0.8202288
544.60 0.8197455
544.70 0.8192624
544.80 0.8187797
544.90 0.8182973
545.00 0.8178151
545.10 0.8173333
545.20 0.8168517
545.30 0.8163705
545.40 0.8158896
545.50 0.8154089
545.60 0.8149232
545.70 0.8144356
545.80 0.8139482
545.90 0.8134611
546.00 0.8129744
546.10 0.8124879
546.20 0.8120017
546.30 0.8115159
546.40 0.8110303
546.50 0.8105451
546.60 0.8100601
546.70 0.8095754
546.80 0.8090911
546.90 0.808607
547.00 0.8081233
547.10 0.8076398
547.20 0.8071567
547.30 0.8066738
547.40 0.8061913
547.50 0.805709
547.60 0.805227
547.70 0.8047454
547.80 0.804264
547.90 0.8037829
548.00 0.8033022
548.10 0.8028217
548.20 0.8023415
548.30 0.8018616
548.40 0.801382
548.50 0.8009026
548.60 0.8004236
548.70 0.7999448
548.80 0.7994663
548.90 0.7989882
549.00 0.7985103
549.10 0.7980327
549.20 0.7975554
549.30 0.7970784
549.40 0.7966017
549.50 0.7961253
549.60 0.7956492
549.70 0.7951734
549.80 0.7946979
549.90 0.7942227
550.00 0.7937477
550.10 0.7932731
550.20 0.7927987
550.30 0.7923247
550.40 0.7918509
550.50 0.7913774
550.60 0.7909043
550.70 0.7904314
550.80 0.7899588
550.90 0.7894865
551.00 0.7890147
551.10 0.7885449
551.20 0.7880753
551.30 0.7876061
551.40 0.7871371
551.50 0.7866684
551.60 0.7862
551.70 0.7857319
551.80 0.7852641
551.90 0.7847965
552.00 0.7843293
552.10 0.7838623
552.20 0.7833957
552.30 0.7829293
552.40 0.7824632
552.50 0.7819974
552.60 0.7815318
552.70 0.7810666
552.80 0.7806016
552.90 0.7801369
553.00 0.7796726
553.10 0.7792085
553.20 0.7787446
553.30 0.7782811
553.40 0.7778179
553.50 0.7773549
553.60 0.7768922
553.70 0.7764298
553.80 0.7759677
553.90 0.7755059
554.00 0.7750443
554.10 0.774583
554.20 0.7741221
554.30 0.7736614
554.40 0.7732009
554.50 0.7727408
554.60 0.7722809
554.70 0.7718214
554.80 0.7713621
554.90 0.7709031
555.00 0.7704443
555.10 0.7699859
555.20 0.7695277
555.30 0.7690698
555.40 0.7686122
555.50 0.7681549
555.60 0.7676978
555.70 0.767241
555.80 0.7667845
555.90 0.7663283
556.00 0.7658724
556.10 0.7654167
556.20 0.7649613
556.30 0.7645062
556.40 0.7640514
556.50 0.7635965
556.60 0.7631351
556.70 0.762674
556.80 0.7622132
556.90 0.7617526
557.00 0.7612923
557.10 0.7608323
557.20 0.7603726
557.30 0.7599132
557.40 0.7594541
557.50 0.7589952
557.60 0.7585366
557.70 0.7580783
557.80 0.7576203
557.90 0.7571625
558.00 0.756705
558.10 0.7562479
558.20 0.7557909
558.30 0.7553343
558.40 0.754878
558.50 0.7544219
558.60 0.7539661
558.70 0.7535106
558.80 0.7530553
558.90 0.7526004
559.00 0.7521457
559.10 0.7516913
559.20 0.7512372
559.30 0.7507833
559.40 0.7503297
559.50 0.7498764
559.60 0.7494234
559.70 0.7489706
559.80 0.7485182
559.90 0.748066
560.00 0.747614
560.10 0.7471624
560.20 0.746711
560.30 0.7462599
560.40 0.7458091
560.50 0.7453586
560.60 0.7449083
560.70 0.7444583
560.80 0.7440085
560.90 0.7435591
561.00 0.7431099
561.10 0.742661
561.20 0.7422124
561.30 0.741764
561.40 0.7413159
561.50 0.7408681
561.60 0.7404205
561.70 0.7399733
561.80 0.7395263
561.90 0.7390795
562.00 0.7386331
562.10 0.7381842
562.20 0.7377314
562.30 0.737279
562.40 0.7368269
562.50 0.736375
562.60 0.7359234
562.70 0.7354721
562.80 0.735021
562.90 0.7345702
563.00 0.7341197
563.10 0.7336695
563.20 0.7332195
563.30 0.7327698
563.40 0.7323204
563.50 0.7318713
563.60 0.7314224
563.70 0.7309738
563.80 0.7305255
563.90 0.7300775
564.00 0.7296297
564.10 0.7291822
564.20 0.7287349
564.30 0.728288
564.40 0.7278413
564.50 0.7273949
564.60 0.7269487
564.70 0.7265028
564.80 0.7260572
564.90 0.7256069
565.00 0.7251446
565.10 0.7246827
565.20 0.724221
565.30 0.7237595
565.40 0.7232984
565.50 0.7228376
565.60 0.722377
565.70 0.7219167
565.80 0.7214567
565.90 0.720997
566.00 0.7205375
566.10 0.7200784
566.20 0.7196195
566.30 0.7191609
566.40 0.7187025
566.50 0.7182445
566.60 0.7177867
566.70 0.7173292
566.80 0.716872
566.90 0.7164151
567.00 0.7159584
567.10 0.715502
567.20 0.7150459
567.30 0.7145901
567.40 0.7141345
567.50 0.7136792
567.60 0.7132242
567.70 0.7127619
567.80 0.7122676
567.90 0.7117735
568.00 0.7112798
568.10 0.7107863
568.20 0.7102932
568.30 0.7098004
568.40 0.7093078
568.50 0.7088156
568.60 0.7083237
568.70 0.7078321
568.80 0.7073407
568.90 0.7068497
569.00 0.706359
569.10 0.7058686
569.20 0.7053785
569.30 0.7048886
569.40 0.7043991
569.50 0.7039099
569.60 0.703421
569.70 0.7029324
569.80 0.7024441
569.90 0.701956
570.00 0.7014683
570.10 0.7009809
570.20 0.7004938
570.30 0.700007
570.40 0.6995204
570.50 0.6990342
570.60 0.6985483
570.70 0.6980626
570.80 0.6975773
570.90 0.6970923
571.00 0.6966075
571.10 0.6961231
571.20 0.695639
571.30 0.6951551
571.40 0.6946716
571.50 0.6941883
571.60 0.6937053
571.70 0.6932227
571.80 0.6927403
571.90 0.6922582
572.00 0.6917764
572.10 0.691295
572.20 0.6908138
572.30 0.6903329
572.40 0.6898523
572.50 0.6893719
572.60 0.6888919
572.70 0.6884122
572.80 0.6879328
572.90 0.6874536
573.00 0.6869748
573.10 0.6864962
573.20 0.686018
573.30 0.68554
573.40 0.6850272
573.50 0.6844663
573.60 0.6839057
573.70 0.6833454
573.80 0.6827855
573.90 0.682226
574.00 0.6816668
574.10 0.681108
574.20 0.6805495
574.30 0.6799913
574.40 0.6794335
574.50 0.678876
574.60 0.6783189
574.70 0.6777622
574.80 0.6772058
574.90 0.6766497
575.00 0.676094
575.10 0.6755386
575.20 0.6749835
575.30 0.6744289
575.40 0.6738745
575.50 0.6733205
575.60 0.6727669
575.70 0.6722135
575.80 0.6716606
575.90 0.6711079
576.00 0.6705557
576.10 0.6700037
576.20 0.6694521
576.30 0.6689009
576.40 0.66835
576.50 0.6677994
576.60 0.6672492
576.70 0.6666993
576.80 0.6661497
576.90 0.6656005
577.00 0.6650517
577.10 0.6645032
577.20 0.663955
577.30 0.6634071
577.40 0.6628596
577.50 0.6623125
577.60 0.6617261
577.70 0.6610758
577.80 0.6604258
577.90 0.6597763
578.00 0.6591271
578.10 0.6584784
578.20 0.6578301
578.30 0.6571821
578.40 0.6565346
578.50 0.6558875
578.60 0.6552408
578.70 0.6545946
578.80 0.6539487
578.90 0.6533032
579.00 0.6526582
579.10 0.6520046
579.20 0.6512609
579.30 0.6505177
579.40 0.649775
579.50 0.6490327
579.60 0.6482909
579.70 0.6475496
579.80 0.6468088
579.90 0.6460684
580.00 0.6453285
580.10 0.6445081
580.20 0.6435561
580.30 0.6426047
580.40 0.6416539
580.50 0.6407038
580.60 0.6397542
580.70 0.6388053
580.80 0.637857
580.90 0.6369093
581.00 0.6359622
581.10 0.6350157
581.20 0.6340699
581.30 0.6331246
581.40 0.63218
581.50 0.631236
581.60 0.6302926
581.70 0.6293498
581.80 0.6284076
581.90 0.627466
582.00 0.626525
582.10 0.6254584
582.20 0.6241865
582.30 0.6229154
582.40 0.6216451
582.50 0.6203757
582.60 0.6191071
582.70 0.6178393
582.80 0.6165724
582.90 0.6153063
583.00 0.6140411
583.10 0.6127767
583.20 0.6115131
583.30 0.6102503
583.40 0.6089884
583.50 0.6077273
583.60 0.6062178
583.70 0.6043029
583.80 0.6023892
583.90 0.6004768
584.00 0.5985657
584.10 0.5966558
584.20 0.5947473
584.30 0.59284
584.40 0.590934
584.50 0.5890292
584.60 0.5871257
584.70 0.5852235
584.80 0.5833225
584.90 0.581296
585.00 0.5786935
585.10 0.5760927
585.20 0.5731286
585.30 0.5695709
585.40 0.5660155
585.50 0.5624626
585.60 0.5589121
585.70 0.555364
585.80 0.5518182
585.90 0.5482749
586.00 0.5447339
586.10 0.5411953
586.20 0.5365553
586.30 0.5301182
586.40 0.5236854
586.50 0.517257
586.60 0.5108329
586.70 0.5044132
586.80 0.4957947
586.90 0.4835889
587.00 0.4713913
587.10 0.4592021
587.20 0.4445841
587.30 0.4260013
587.40 0.4074987
587.50 0.3925559
587.60 0.3928626
587.70 0.4007806
587.80 0.4202875
587.90 0.4405377
588.00 0.457753
588.10 0.4700292
588.20 0.482297
588.30 0.4945564
588.40 0.5044759
588.50 0.5105858
588.60 0.5166915
588.70 0.5227931
588.80 0.5288905
588.90 0.5349837
589.00 0.5398505
589.10 0.5427204
589.20 0.5455883
589.30 0.5484543
589.40 0.5513182
589.50 0.5541802
589.60 0.5570403
589.70 0.5598983
589.80 0.5627544
589.90 0.5656085
590.00 0.5679579
590.10 0.5694858
590.20 0.5710126
590.30 0.5725384
590.40 0.5740631
590.50 0.5755867
590.60 0.5771093
590.70 0.5786308
590.80 0.5798071
590.90 0.5808282
591.00 0.5818485
591.10 0.582868
591.20 0.5838869
591.30 0.584905
591.40 0.5859224
591.50 0.5869391
591.60 0.5877492
591.70 0.5882231
591.80 0.5886966
591.90 0.5891698
592.00 0.5896426
592.10 0.5901151
592.20 0.5905872
592.30 0.591059
592.40 0.5915304
592.50 0.5920014
592.60 0.5924722
592.70 0.5929425
592.80 0.5934125
592.90 0.5938822
593.00 0.5943515
593.10 0.5946822
593.20 0.5947872
593.30 0.5948921
593.40 0.5949969
593.50 0.5951015
593.60 0.5952061
593.70 0.5953106
593.80 0.5954149
593.90 0.5955192
594.00 0.5956234
594.10 0.5957274
594.20 0.5958314
594.30 0.5959352
594.40 0.596039
594.50 0.5961426
594.60 0.5962461
594.70 0.5963496
594.80 0.5964529
594.90 0.5965561
595.00 0.5966592
595.10 0.5966992
595.20 0.5966362
595.30 0.5965733
595.40 0.5965103
595.50 0.5964474
595.60 0.5963844
595.70 0.5963215
595.80 0.5962586
595.90 0.5961957
596.00 0.5961328
596.10 0.5960699
596.20 0.596007
596.30 0.5959442
596.40 0.5958813
596.50 0.5958184
596.60 0.5957556
596.70 0.5956369
596.80 0.5954839
596.90 0.5953311
597.00 0.5951783
597.10 0.5950256
597.20 0.5948729
597.30 0.5947203
597.40 0.5945678
597.50 0.5944153
597.60 0.5942547
597.70 0.5940806
597.80 0.5939066
597.90 0.5937326
598.00 0.5935588
598.10 0.593385
598.20 0.5932113
598.30 0.5930377
598.40 0.5928642
598.50 0.5926908
598.60 0.5925174
598.70 0.5923442
598.80 0.592171
598.90 0.5919979
599.00 0.5918248
599.10 0.5916519
599.20 0.5914791
599.30 0.5913063
599.40 0.5910663
599.50 0.5908264
599.60 0.5905866
599.70 0.5903469
599.80 0.5901074
599.90 0.589868
600.00 0.5896288
600.10 0.5893896
600.20 0.5891506
600.30 0.5889118
600.40 0.588673
600.50 0.5884344
600.60 0.5881959
600.70 0.5879575
600.80 0.5877192
600.90 0.5874811
601.00 0.5872431
601.10 0.5870052
601.20 0.5867675
601.30 0.5865299
601.40 0.5862372
601.50 0.5859448
601.60 0.5856524
601.70 0.5853603
601.80 0.5850683
601.90 0.5847765
602.00 0.5844848
602.10 0.5841933
602.20 0.5839019
602.30 0.5836107
602.40 0.5833197
602.50 0.5830289
602.60 0.5827382
602.70 0.5825399
602.80 0.5823467
602.90 0.5820479
603.00 0.5817493
603.10 0.5814508
603.20 0.5811525
603.30 0.5808544
603.40 0.5805565
603.50 0.5802587
603.60 0.5799611
603.70 0.5796636
603.80 0.5793663
603.90 0.5790692
604.00 0.5787722
604.10 0.5784754
604.20 0.5781788
604.30 0.5778823
604.40 0.577586
604.50 0.5771848
604.60 0.5767839
604.70 0.5763832
604.80 0.5759827
604.90 0.5755824
605.00 0.5751824
605.10 0.5747826
605.20 0.574383
605.30 0.5739837
605.40 0.5735846
605.50 0.5729065
605.60 0.5722288
605.70 0.5715516
605.80 0.5708747
605.90 0.5701983
606.00 0.5695223
606.10 0.5679758
606.20 0.5664304
606.30 0.5648859
606.40 0.5633424
606.50 0.5593995
606.60 0.5554591
606.70 0.5458893
606.80 0.5411219
606.90 0.543445
607.00 0.545975
607.10 0.5478784
607.20 0.5497804
607.30 0.5508485
607.40 0.5519158
607.50 0.5529824
607.60 0.5540482
607.70 0.5544203
607.80 0.5547921
607.90 0.5551637
608.00 0.5555349
608.10 0.5559059
608.20 0.5562767
608.30 0.5564789
608.40 0.556681
608.50 0.556883
608.60 0.5570847
608.70 0.5571215
608.80 0.5570841
608.90 0.5570467
609.00 0.5570093
609.10 0.5569719
609.20 0.5569345
609.30 0.5568293
609.40 0.5567241
609.50 0.5566189
609.60 0.5565138
609.70 0.5564087
609.80 0.5563037
609.90 0.5561987
610.00 0.5560937
610.10 0.5559888
610.20 0.5558839
610.30 0.555779
610.40 0.5556742
610.50 0.5555694
610.60 0.5554647
610.70 0.55536
610.80 0.5552554
610.90 0.5550462
611.00 0.5548371
611.10 0.5546281
611.20 0.5544192
611.30 0.5542104
611.40 0.5540018
611.50 0.5537932
611.60 0.5535848
611.70 0.5533764
611.80 0.5531682
611.90 0.5529601
612.00 0.552752
612.10 0.5525441
612.20 0.5523363
612.30 0.5521286
612.40 0.5518869
612.50 0.5516453
612.60 0.5514038
612.70 0.5511625
612.80 0.5509213
612.90 0.5506802
613.00 0.5504392
613.10 0.5501984
613.20 0.5499577
613.30 0.5497172
613.40 0.5494767
613.50 0.5492364
613.60 0.5489962
613.70 0.5487562
613.80 0.5485162
613.90 0.5482764
614.00 0.5480368
614.10 0.5477972
614.20 0.5475578
614.30 0.5473185
614.40 0.5471403
614.50 0.5469623
614.60 0.5467843
614.70 0.5466064
614.80 0.5463477
614.90 0.5460725
615.00 0.5457975
615.10 0.5455226
615.20 0.5452479
615.30 0.5449733
615.40 0.5446989
615.50 0.5444246
615.60 0.5441505
615.70 0.5438765
615.80 0.5436027
615.90 0.543329
616.00 0.5430554
616.10 0.5427821
616.20 0.5425088
616.30 0.5422357
616.40 0.5419628
616.50 0.54169
616.60 0.5414174
616.70 0.5411449
616.80 0.5408725
616.90 0.5405979
617.00 0.5403234
617.10 0.5400491
617.20 0.5397749
617.30 0.5395009
617.40 0.539227
617.50 0.5389533
617.60 0.5386797
617.70 0.5384063
617.80 0.538133
617.90 0.5378599
618.00 0.5375869
618.10 0.5373141
618.20 0.5370414
618.30 0.5367688
618.40 0.5364964
618.50 0.5362242
618.60 0.5359521
618.70 0.5356801
618.80 0.5354083
618.90 0.5351367
619.00 0.5348652
619.10 0.5345938
619.20 0.5343226
619.30 0.5340516
619.40 0.5337806
619.50 0.5335099
619.60 0.5332393
619.70 0.5329688
619.80 0.5326985
619.90 0.5324283
620.00 0.5321582
620.10 0.5318883
620.20 0.5316186
620.30 0.531349
620.40 0.5310796
620.50 0.5308103
620.60 0.5305411
620.70 0.5302721
620.80 0.5300032
620.90 0.5297328
621.00 0.5294596
621.10 0.5291866
621.20 0.5289137
621.30 0.5286409
621.40 0.5283683
621.50 0.5280958
621.60 0.5278235
621.70 0.5275514
621.80 0.5272793
621.90 0.5270075
622.00 0.5267357
622.10 0.5264642
622.20 0.5261927
622.30 0.5259215
622.40 0.5256503
622.50 0.5253793
622.60 0.5251085
622.70 0.5248378
622.80 0.5245673
622.90 0.5242969
623.00 0.5240266
623.10 0.5237565
623.20 0.5234865
623.30 0.5232167
623.40 0.5229471
623.50 0.5226775
623.60 0.5224082
623.70 0.5221389
623.80 0.5218698
623.90 0.5216009
624.00 0.5213321
624.10 0.5210635
624.20 0.520795
624.30 0.5205266
624.40 0.5202584
624.50 0.5199903
624.60 0.5197224
624.70 0.5194546
624.80 0.519187
624.90 0.5189195
625.00 0.5186522
625.10 0.518385
625.20 0.5181179
625.30 0.517851
625.40 0.5175842
625.50 0.5173176
625.60 0.5170511
625.70 0.5167848
625.80 0.5165186
625.90 0.5162526
626.00 0.5159867
626.10 0.5157209
626.20 0.5154553
626.30 0.5151898
626.40 0.5149245
626.50 0.5146593
626.60 0.5143943
626.70 0.5141294
626.80 0.5138646
626.90 0.5136
627.00 0.5133355
627.10 0.5130681
627.20 0.5127924
627.30 0.5125169
627.40 0.5122416
627.50 0.5119664
627.60 0.5116913
627.70 0.5114164
627.80 0.5111416
627.90 0.510867
628.00 0.5105926
628.10 0.5103182
628.20 0.5100441
628.30 0.5097701
628.40 0.5094962
628.50 0.5092225
628.60 0.5089489
628.70 0.5086755
628.80 0.5084022
628.90 0.5081291
629.00 0.5078561
629.10 0.5075833
629.20 0.5073106
629.30 0.507038
629.40 0.5067657
629.50 0.5064934
629.60 0.5062213
629.70 0.5059494
629.80 0.5056776
629.90 0.5054059
630.00 0.5051344
630.10 0.5048631
630.20 0.5045918
630.30 0.5043208
630.40 0.5040499
630.50 0.5037792
630.60 0.5035086
630.70 0.5032382
630.80 0.5029679
630.90 0.5026977
631.00 0.5024277
631.10 0.5021578
631.20 0.5018881
631.30 0.5016186
631.40 0.5013491
631.50 0.5010799
631.60 0.5008107
631.70 0.5005417
631.80 0.5002729
631.90 0.5000042
632.00 0.4997357
632.10 0.4994672
632.20 0.499199
632.30 0.4989309
632.40 0.4986629
632.50 0.4983951
632.60 0.4981274
632.70 0.4978598
632.80 0.4975925
632.90 0.4973252
633.00 0.4970581
633.10 0.4967911
633.20 0.4965243
633.30 0.4962576
633.40 0.4959917
633.50 0.4957263
633.60 0.4954611
633.70 0.4951961
633.80 0.4949312
633.90 0.4946664
634.00 0.4944017
634.10 0.4941373
634.20 0.4938729
634.30 0.4936087
634.40 0.4933446
634.50 0.4930807
634.60 0.4928169
634.70 0.4925533
634.80 0.4922898
634.90 0.4920264
635.00 0.4917632
635.10 0.4915001
635.20 0.4912372
635.30 0.4909744
635.40 0.4907118
635.50 0.4904493
635.60 0.4901869
635.70 0.4899247
635.80 0.4896626
635.90 0.4894006
636.00 0.4891388
636.10 0.4888772
636.20 0.4886156
636.30 0.4883542
636.40 0.488093
636.50 0.4878319
636.60 0.4875925
636.70 0.4873556
636.80 0.4871189
636.90 0.4868822
637.00 0.4866457
637.10 0.4864094
637.20 0.4861731
637.30 0.485937
637.40 0.485701
637.50 0.4854651
637.60 0.4852293
637.70 0.4849937
637.80 0.4847582
637.90 0.4845228
638.00 0.4842876
638.10 0.4840524
638.20 0.4838174
638.30 0.4835825
638.40 0.4833477
638.50 0.4831131
638.60 0.4828786
638.70 0.4826442
638.80 0.4824099
638.90 0.4821758
639.00 0.4819417
639.10 0.4817078
639.20 0.481474
639.30 0.4812404
639.40 0.4810068
639.50 0.4807734
639.60 0.4805401
639.70 0.4802991
639.80 0.4800317
639.90 0.4797644
640.00 0.4794973
640.10 0.4792303
640.20 0.4789635
640.30 0.4786968
640.40 0.4784303
640.50 0.4781639
640.60 0.4778977
640.70 0.4776316
640.80 0.4773656
640.90 0.4770998
641.00 0.4768341
641.10 0.4765686
641.20 0.4763032
641.30 0.4760379
641.40 0.4757728
641.50 0.4755078
641.60 0.475243
641.70 0.4749783
641.80 0.4747138
641.90 0.4744494
642.00 0.4741851
642.10 0.473921
642.20 0.4736571
642.30 0.4733932
642.40 0.4731295
642.50 0.472866
642.60 0.4726026
642.70 0.4723393
642.80 0.4720762
642.90 0.471816
643.00 0.4715647
643.10 0.4713136
643.20 0.4710626
643.30 0.4708117
643.40 0.470561
643.50 0.4703104
643.60 0.4700599
643.70 0.4698096
643.80 0.4695594
643.90 0.4693093
644.00 0.4690593
644.10 0.4688095
644.20 0.4685599
644.30 0.4683103
644.40 0.4680609
644.50 0.4678116
644.60 0.4675625
644.70 0.4673135
644.80 0.4670646
644.90 0.4668159
645.00 0.4665672
645.10 0.4663188
645.20 0.4660704
645.30 0.4658222
645.40 0.4655741
645.50 0.4653261
645.60 0.4650783
645.70 0.4648306
645.80 0.4645831
645.90 0.4643356
646.00 0.4640883
646.10 0.4638355
646.20 0.4635667
646.30 0.4632981
646.40 0.4630296
646.50 0.4627612
646.60 0.462493
646.70 0.4622249
646.80 0.461957
646.90 0.4616892
647.00 0.4614216
647.10 0.4611541
647.20 0.4608868
647.30 0.4606196
647.40 0.4603525
647.50 0.4600856
647.60 0.4598188
647.70 0.4595522
647.80 0.4592857
647.90 0.4590193
648.00 0.4587531
648.10 0.4584871
648.20 0.4582212
648.30 0.4579554
648.40 0.4576897
648.50 0.4574243
648.60 0.4571589
648.70 0.4568937
648.80 0.4566286
648.90 0.4563637
649.00 0.4560989
649.10 0.4558343
649.20 0.4555698
649.30 0.4553054
649.40 0.4550304
649.50 0.4547551
649.60 0.4544799
649.70 0.4542049
649.80 0.4539301
649.90 0.4536554
650.00 0.4533808
650.10 0.4531064
650.20 0.4528321
650.30 0.452558
650.40 0.452284
650.50 0.4520102
650.60 0.4517365
650.70 0.451463
650.80 0.4511896
650.90 0.4509164
651.00 0.4506433
651.10 0.4503703
651.20 0.4500975
651.30 0.4498249
651.40 0.4495524
651.50 0.44928
651.60 0.4490078
651.70 0.4487357
651.80 0.4484638
651.90 0.448192
652.00 0.4479204
652.10 0.4476489
652.20 0.4473775
652.30 0.4471063
652.40 0.4468353
652.50 0.4465644
652.60 0.446277
652.70 0.4459808
652.80 0.4456848
652.90 0.4453889
653.00 0.4450932
653.10 0.4447977
653.20 0.4445023
653.30 0.4442071
653.40 0.443912
653.50 0.4436171
653.60 0.4433224
653.70 0.4430278
653.80 0.4427334
653.90 0.4424391
654.00 0.442145
654.10 0.4418511
654.20 0.4415573
654.30 0.4412637
654.40 0.4409702
654.50 0.4406769
654.60 0.4403838
654.70 0.4400908
654.80 0.4397979
654.90 0.4395053
655.00 0.4392128
655.10 0.4389204
655.20 0.4386282
655.30 0.4383362
655.40 0.4380443
655.50 0.4377525
655.60 0.437461
655.70 0.4371696
655.80 0.436822
655.90 0.4364747
656.00 0.4361275
656.10 0.4357805
656.20 0.4354337
656.30 0.4350872
656.40 0.4347408
656.50 0.4343945
656.60 0.4340485
656.70 0.4337027
656.80 0.4333571
656.90 0.4330116
657.00 0.4326664
657.10 0.4323213
657.20 0.4319764
657.30 0.4316317
657.40 0.4312872
657.50 0.4309429
657.60 0.4305988
657.70 0.4302549
657.80 0.4298155
657.90 0.4293721
658.00 0.4289282
658.10 0.4284846
658.20 0.4280413
658.30 0.4275982
658.40 0.4271553
658.50 0.4267127
658.60 0.4262703
658.70 0.4258282
658.80 0.4253863
658.90 0.4249447
659.00 0.4245033
659.10 0.4240861
659.20 0.4237051
659.30 0.4231647
659.40 0.4226245
659.50 0.4220848
659.60 0.4215453
659.70 0.4210061
659.80 0.4204672
659.90 0.4199286
660.00 0.4193904
660.10 0.4188524
660.20 0.4183148
660.30 0.4177775
660.40 0.4171574
660.50 0.4165231
660.60 0.4158891
660.70 0.4152555
660.80 0.4146223
660.90 0.4137585
661.00 0.4128953
661.10 0.4120325
661.20 0.4111703
661.30 0.4103085
661.40 0.4094473
661.50 0.4085866
661.60 0.4077263
661.70 0.4068666
661.80 0.4060074
661.90 0.4047957
662.00 0.4035848
662.10 0.4023746
662.20 0.4011652
662.30 0.3999564
662.40 0.3986226
662.50 0.3969279
662.60 0.3952341
662.70 0.3935414
662.80 0.3918497
662.90 0.3899842
663.00 0.3881199
663.10 0.3864312
663.20 0.3913771
663.30 0.3991122
663.40 0.4023067
663.50 0.4035807
663.60 0.4048539
663.70 0.4052183
663.80 0.4055825
663.90 0.4055333
664.00 0.4054112
664.10 0.4049409
664.20 0.4044709
664.30 0.4040011
664.40 0.4035317
664.50 0.4030624
664.60 0.4025935
664.70 0.4016195
664.80 0.400646
664.90 0.3996731
665.00 0.3987008
665.10 0.397729
665.20 0.3967578
665.30 0.3957872
665.40 0.3948171
665.50 0.3934557
665.60 0.392026
665.70 0.390304
665.80 0.3883277
665.90 0.3863527
666.00 0.3843788
666.10 0.382406
666.20 0.3804345
666.30 0.378464
666.40 0.3764948
666.50 0.3730673
666.60 0.3693844
666.70 0.3657037
666.80 0.3620252
666.90 0.3583488
667.00 0.3546747
667.10 0.348976
667.20 0.3429232
667.30 0.3340467
667.40 0.3251755
667.50 0.3116932
667.60 0.2974045
667.70 0.2804275
667.80 0.2704201
667.90 0.2722001
668.00 0.2824297
668.10 0.2942615
668.20 0.3061249
668.30 0.314065
668.40 0.3213095
668.50 0.3285496
668.60 0.3357854
668.70 0.340837
668.80 0.3441015
668.90 0.3473641
669.00 0.3506247
669.10 0.3538833
669.20 0.3571399
669.30 0.3590817
669.40 0.3607907
669.50 0.3624987
669.60 0.3642056
669.70 0.3659115
669.80 0.3676164
669.90 0.3693202
670.00 0.371023
670.10 0.3727248
670.20 0.3744255
670.30 0.375484
670.40 0.3764287
670.50 0.3773728
670.60 0.3783164
670.70 0.3792594
670.80 0.3798503
670.90 0.3804408
671.00 0.3810309
671.10 0.3816207
671.20 0.3822101
671.30 0.3827992
671.40 0.3833878
671.50 0.3839761
671.60 0.3845641
671.70 0.3851517
671.80 0.3857389
671.90 0.3861407
672.00 0.3865096
672.10 0.3868782
672.20 0.3872466
672.30 0.3876148
672.40 0.3878871
672.50 0.388152
672.60 0.3884167
672.70 0.3886812
672.80 0.3889456
672.90 0.3892097
673.00 0.3894737
673.10 0.3897376
673.20 0.3900012
673.30 0.3901799
673.40 0.3902666
673.50 0.3903369
673.60 0.3904071
673.70 0.3904773
673.80 0.3905474
673.90 0.3906175
674.00 0.3906875
674.10 0.3907575
674.20 0.3908274
674.30 0.3908972
674.40 0.390967
674.50 0.3910367
674.60 0.3911064
674.70 0.391176
674.80 0.3912456
674.90 0.391315
675.00 0.3913845
675.10 0.3914538
675.20 0.3915232
675.30 0.3915924
675.40 0.39155
675.50 0.3914879
675.60 0.3914259
675.70 0.3913639
675.80 0.3913018
675.90 0.3912398
676.00 0.3911779
676.10 0.3911159
676.20 0.391054
676.30 0.3909921
676.40 0.3909302
676.50 0.3908683
676.60 0.3908064
676.70 0.3907446
676.80 0.3906828
676.90 0.390621
677.00 0.3905592
677.10 0.3904974
677.20 0.3904357
677.30 0.3903739
677.40 0.3903122
677.50 0.3902505
677.60 0.3901889
677.70 0.3901272
677.80 0.3900656
677.90 0.3899586
678.00 0.3898435
678.10 0.3897286
678.20 0.3896136
678.30 0.3894988
678.40 0.3893839
678.50 0.3892692
678.60 0.3891545
678.70 0.3890398
678.80 0.3889252
678.90 0.3888106
679.00 0.3886961
679.10 0.3885473
679.20 0.3883839
679.30 0.3882205
679.40 0.3880573
679.50 0.3878941
679.60 0.3877309
679.70 0.3875679
679.80 0.387405
679.90 0.3872421
680.00 0.3870793
680.10 0.3869166
680.20 0.3867539
680.30 0.3865914
680.40 0.3864289
680.50 0.3862665
680.60 0.3861042
680.70 0.3859419
680.80 0.3857798
680.90 0.3856177
681.00 0.3854557
681.10 0.3852937
681.20 0.3851319
681.30 0.3849701
681.40 0.3848084
681.50 0.3846468
681.60 0.3844853
681.70 0.3843238
681.80 0.3841624
681.90 0.3840011
682.00 0.3838399
682.10 0.3836788
682.20 0.3835177
682.30 0.3833567
682.40 0.3831958
682.50 0.3830349
682.60 0.3828742
682.70 0.3827135
682.80 0.3825529
682.90 0.3823924
683.00 0.3822319
683.10 0.3820716
683.20 0.3819113
683.30 0.3817511
683.40 0.3815909
683.50 0.3814309
683.60 0.3812709
683.70 0.381111
683.80 0.3809512
683.90 0.3807914
684.00 0.3806317
684.10 0.3804721
684.20 0.3803126
684.30 0.3801532
684.40 0.3799938
684.50 0.3798345
684.60 0.3796753
684.70 0.3795162
684.80 0.3793571
684.90 0.3791981
685.00 0.3790392
685.10 0.3788804
685.20 0.3787216
685.30 0.378563
685.40 0.3784044
685.50 0.3782459
685.60 0.3780874
685.70 0.377929
685.80 0.3777707
685.90 0.3775939
686.00 0.3774124
686.10 0.3772311
686.20 0.3770498
686.30 0.3768687
686.40 0.3766876
686.50 0.3765066
686.60 0.3763257
686.70 0.3761449
686.80 0.3759642
686.90 0.3757835
687.00 0.375603
687.10 0.3754225
687.20 0.3752422
687.30 0.3750619
687.40 0.3748817
687.50 0.3747016
687.60 0.3745216
687.70 0.3743417
687.80 0.3741618
687.90 0.3739821
688.00 0.3738024
688.10 0.3736229
688.20 0.3734434
688.30 0.373264
688.40 0.3730847
688.50 0.3729055
688.60 0.3727264
688.70 0.3725473
688.80 0.3723684
688.90 0.3721895
689.00 0.3720108
689.10 0.3718321
689.20 0.3716535
689.30 0.371475
689.40 0.3712966
689.50 0.3711182
689.60 0.37094
689.70 0.3707618
689.80 0.3705838
689.90 0.3704058
690.00 0.3702279
690.10 0.3700501
690.20 0.3698724
690.30 0.3696947
690.40 0.3695172
690.50 0.3693397
690.60 0.3691624
690.70 0.3689851
690.80 0.3688079
690.90 0.3686308
691.00 0.3684538
691.10 0.3682768
691.20 0.3681
691.30 0.3679232
691.40 0.3677466
691.50 0.36757
691.60 0.3673935
691.70 0.3672171
691.80 0.3670407
691.90 0.3668645
692.00 0.3666884
692.10 0.3665123
692.20 0.3663363
692.30 0.3661604
692.40 0.3659846
692.50 0.3658089
692.60 0.3656333
692.70 0.3654549
692.80 0.3652661
692.90 0.3650774
693.00 0.3648888
693.10 0.3647002
693.20 0.3645118
693.30 0.3643235
693.40 0.3641352
693.50 0.3639471
693.60 0.363759
693.70 0.363571
693.80 0.3633831
693.90 0.3631954
694.00 0.3630077
694.10 0.3628201
694.20 0.3626326
694.30 0.3624452
694.40 0.3622579
694.50 0.3620706
694.60 0.3618835
694.70 0.3616965
694.80 0.3615095
694.90 0.3613227
695.00 0.3611359
695.10 0.3609492
695.20 0.3607627
695.30 0.3605762
695.40 0.3603898
695.50 0.3602035
695.60 0.3600173
695.70 0.3598312
695.80 0.3596451
695.90 0.3594592
696.00 0.3592734
696.10 0.3590876
696.20 0.358902
696.30 0.3587164
696.40 0.3585309
696.50 0.3583456
696.60 0.3581553
696.70 0.3579639
696.80 0.3577726
696.90 0.3575814
697.00 0.3573903
697.10 0.3571993
697.20 0.3570083
697.30 0.3568175
697.40 0.3566268
697.50 0.3564362
697.60 0.3562456
697.70 0.3560552
697.80 0.3558649
697.90 0.3556746
698.00 0.3554844
698.10 0.3552944
698.20 0.3551044
698.30 0.3549145
698.40 0.3547248
698.50 0.3545351
698.60 0.3543455
698.70 0.354156
698.80 0.3539666
698.90 0.3537773
699.00 0.353588
699.10 0.3533833
699.20 0.353175
699.30 0.3529669
699.40 0.3527588
699.50 0.3525508
699.60 0.352343
699.70 0.3521316
699.80 0.35192
699.90 0.3517086
700.00 0.3514973
700.10 0.3512862
700.20 0.3510751
700.30 0.3508641
700.40 0.3506532
700.50 0.3504425
700.60 0.3502318
700.70 0.3500212
700.80 0.3498108
700.90 0.3496004
701.00 0.3493902
701.10 0.3491177
701.20 0.3488308
701.30 0.348544
701.40 0.3482573
701.50 0.3479708
701.60 0.3476844
701.70 0.3473982
701.80 0.3471121
701.90 0.3468262
702.00 0.3465405
702.10 0.3462548
702.20 0.3459694
702.30 0.3456841
702.40 0.3453989
702.50 0.3451139
702.60 0.3447124
702.70 0.3442839
702.80 0.3438556
702.90 0.3434276
703.00 0.3429997
703.10 0.3425721
703.20 0.3421447
703.30 0.3417176
703.40 0.3412907
703.50 0.340864
703.60 0.3404375
703.70 0.3400113
703.80 0.3395853
703.90 0.3391595
704.00 0.338734
704.10 0.3383086
704.20 0.3374477
704.30 0.3364851
704.40 0.335523
704.50 0.3345615
704.60 0.3336004
704.70 0.33264
704.80 0.33168
704.90 0.3307206
705.00 0.3297617
705.10 0.3288033
705.20 0.3268783
705.30 0.3247277
705.40 0.3225782
705.50 0.32043
705.60 0.3182829
705.70 0.3161371
705.80 0.3116745
705.90 0.3066709
706.00 0.3016701
706.10 0.2966721
706.20 0.2864643
706.30 0.2750399
706.40 0.2563898
706.50 0.2332747
706.60 0.229819
706.70 0.2501649
706.80 0.2648688
706.90 0.2782536
707.00 0.2853476
707.10 0.2909641
707.20 0.2965774
707.30 0.3021875
707.40 0.3051721
707.50 0.3075401
707.60 0.3099067
707.70 0.312272
707.80 0.3146359
707.90 0.3169985
708.00 0.3181686
708.10 0.3190588
708.20 0.3199484
708.30 0.3208376
708.40 0.3217262
708.50 0.3226143
708.60 0.3235019
708.70 0.324389
708.80 0.3252756
708.90 0.3261616
709.00 0.3265028
709.10 0.3267161
709.20 0.3269293
709.30 0.3271423
709.40 0.3273553
709.50 0.327568
709.60 0.3277807
709.70 0.3279932
709.80 0.3282056
709.90 0.3284178
710.00 0.3286299
710.10 0.3288419
710.20 0.3290538
710.30 0.3292655
710.40 0.3294771
710.50 0.3296885
710.60 0.3297356
710.70 0.3297442
710.80 0.3297527
710.90 0.3297613
711.00 0.3297698
711.10 0.3297782
711.20 0.3297867
711.30 0.3297952
711.40 0.3298036
711.50 0.329812
711.60 0.3298204
711.70 0.3298288
711.80 0.3298371
711.90 0.3298455
712.00 0.3298538
712.10 0.3297804
712.20 0.3296877
712.30 0.3295952
712.40 0.3295027
712.50 0.3294102
712.60 0.3293177
712.70 0.3292253
712.80 0.329133
712.90 0.3290406
713.00 0.3289483
713.10 0.3288561
713.20 0.3287639
713.30 0.3286717
713.40 0.3285796
713.50 0.3284875
713.60 0.3283954
713.70 0.3283034
713.80 0.3282114
713.90 0.3281195
714.00 0.3280276
714.10 0.3279064
714.20 0.3277785
714.30 0.3276506
714.40 0.3275228
714.50 0.327395
714.60 0.3272673
714.70 0.3271396
714.80 0.327012
714.90 0.3268845
715.00 0.326757
715.10 0.3266296
715.20 0.3265023
715.30 0.326375
715.40 0.3262477
715.50 0.3261205
715.60 0.3259934
715.70 0.3258663
715.80 0.3257393
715.90 0.3256124
716.00 0.3254855
716.10 0.3253587
716.20 0.3252319
716.30 0.3251052
716.40 0.3249785
716.50 0.3248519
716.60 0.3247095
716.70 0.3245634
716.80 0.3244173
716.90 0.3242714
717.00 0.3241255
717.10 0.3239796
717.20 0.3238339
717.30 0.3236882
717.40 0.3235426
717.50 0.323397
717.60 0.3232515
717.70 0.3231061
717.80 0.3229607
717.90 0.3228155
718.00 0.3226703
718.10 0.3225251
718.20 0.3223773
718.30 0.322228
718.40 0.3220788
718.50 0.3219296
718.60 0.3217806
718.70 0.3216316
718.80 0.3214826
718.90 0.3213338
719.00 0.321185
719.10 0.3210363
719.20 0.3208876
719.30 0.3207391
719.40 0.3205905
719.50 0.3204421
719.60 0.3202937
719.70 0.3201455
719.80 0.3199972
719.90 0.3198491
720.00 0.319701
720.10 0.319553
720.20 0.319405
720.30 0.3192572
720.40 0.3191093
720.50 0.3189616
720.60 0.3188139
720.70 0.3187048
720.80 0.3186164
720.90 0.3184505
721.00 0.3182815
721.10 0.3181126
721.20 0.3179438
721.30 0.317775
721.40 0.3176063
721.50 0.3174378
721.60 0.3172693
721.70 0.3171008
721.80 0.3169325
721.90 0.3167642
722.00 0.316596
722.10 0.3164279
722.20 0.3162599
722.30 0.316092
722.40 0.3159241
722.50 0.3157563
722.60 0.3155886
722.70 0.3154222
722.80 0.3152566
722.90 0.315091
723.00 0.3149255
723.10 0.3147601
723.20 0.3145948
723.30 0.3144295
723.40 0.3142643
723.50 0.3140992
723.60 0.3139342
723.70 0.3137693
723.80 0.3136044
723.90 0.3134397
724.00 0.313275
724.10 0.3131103
724.20 0.3129014
724.30 0.3126686
724.40 0.312436
724.50 0.3122035
724.60 0.3119711
724.70 0.3117388
724.80 0.3115066
724.90 0.3112746
725.00 0.3110426
725.10 0.3108108
725.20 0.3105791
725.30 0.3103475
725.40 0.310116
725.50 0.3098847
725.60 0.3096534
725.70 0.3094223
725.80 0.3090776
725.90 0.3086719
726.00 0.3082664
726.10 0.3078611
726.20 0.307456
726.30 0.3070511
726.40 0.3066465
726.50 0.306242
726.60 0.3058378
726.70 0.3054338
726.80 0.3046394
726.90 0.3036353
727.00 0.3026318
727.10 0.3016287
727.20 0.3006262
727.30 0.2996243
727.40 0.2976215
727.50 0.2950807
727.60 0.2925413
727.70 0.2900033
727.80 0.2846354
727.90 0.2777463
728.00 0.265968
728.10 0.2353587
728.20 0.2212582
728.30 0.2464279
728.40 0.2583259
728.50 0.2679336
728.60 0.2737991
728.70 0.2776497
728.80 0.2814982
728.90 0.2853445
729.00 0.2876408
729.10 0.2891026
729.20 0.2905635
729.30 0.2920236
729.40 0.293483
729.50 0.2949415
729.60 0.2957554
729.70 0.2962223
729.80 0.2966889
729.90 0.2971553
730.00 0.2976214
730.10 0.2980872
730.20 0.2985528
730.30 0.299018
730.40 0.2994831
730.50 0.2999478
730.60 0.3001272
730.70 0.3001529
730.80 0.3001786
730.90 0.3002042
731.00 0.3002299
731.10 0.3002555
731.20 0.3002811
731.30 0.3003066
731.40 0.3003322
731.50 0.3003577
731.60 0.3003831
731.70 0.3004086
731.80 0.300434
731.90 0.3004594
732.00 0.3004848
732.10 0.3005102
732.20 0.3004657
732.30 0.3003836
732.40 0.3003016
732.50 0.3002196
732.60 0.3001377
732.70 0.3000558
732.80 0.2999739
732.90 0.299892
733.00 0.2998102
733.10 0.2997284
733.20 0.2996467
733.30 0.2995649
733.40 0.2994833
733.50 0.2994016
733.60 0.29932
733.70 0.299216
733.80 0.2991
733.90 0.2989841
734.00 0.2988683
734.10 0.2987525
734.20 0.2986367
734.30 0.298521
734.40 0.2984053
734.50 0.2982897
734.60 0.2981742
734.70 0.2980587
734.80 0.2979432
734.90 0.2978278
735.00 0.2977125
735.10 0.2975972
735.20 0.2974819
735.30 0.2973629
735.40 0.2971992
735.50 0.2970357
735.60 0.2968722
735.70 0.296733
735.80 0.296607
735.90 0.296481
736.00 0.2963551
736.10 0.2962292
736.20 0.2961034
736.30 0.2959777
736.40 0.295852
736.50 0.2957264
736.60 0.2956008
736.70 0.2954753
736.80 0.2953498
736.90 0.2952244
737.00 0.2950991
737.10 0.2949738
737.20 0.2948486
737.30 0.2947234
737.40 0.2945983
737.50 0.2944732
737.60 0.2943482
737.70 0.2942233
737.80 0.2940984
737.90 0.2939735
738.00 0.2938488
738.10 0.2937241
738.20 0.2935922
738.30 0.2934564
738.40 0.2933207
738.50 0.2931851
738.60 0.2930495
738.70 0.2929141
738.80 0.2927786
738.90 0.2926433
739.00 0.2925079
739.10 0.2923727
739.20 0.2922375
739.30 0.2921024
739.40 0.2919673
739.50 0.2918324
739.60 0.2916974
739.70 0.2915625
739.80 0.2914277
739.90 0.291293
740.00 0.2911583
740.10 0.2910237
740.20 0.2908891
740.30 0.2907546
740.40 0.2906202
740.50 0.2904858
740.60 0.2903515
740.70 0.2902173
740.80 0.2900831
740.90 0.289949
741.00 0.2898149
741.10 0.2896809
741.20 0.289547
741.30 0.2894131
741.40 0.2892793
741.50 0.2891455
741.60 0.2890118
741.70 0.2888782
741.80 0.2887446
741.90 0.2886111
742.00 0.2884777
742.10 0.2883443
742.20 0.2882109
742.30 0.2880777
742.40 0.2879445
742.50 0.2878113
742.60 0.2876783
742.70 0.2875462
742.80 0.287415
742.90 0.2872839
743.00 0.2871528
743.10 0.2870218
743.20 0.2868908
743.30 0.2867599
743.40 0.2866291
743.50 0.2864983
743.60 0.2863676
743.70 0.2862373
743.80 0.2861082
743.90 0.2859792
744.00 0.2858502
744.10 0.2857213
744.20 0.2855925
744.30 0.2854637
744.40 0.285335
744.50 0.2852063
744.60 0.2850777
744.70 0.2849492
744.80 0.2848207
744.90 0.2846923
745.00 0.2845639
745.10 0.2844356
745.20 0.2843074
745.30 0.2841792
745.40 0.2840511
745.50 0.283923
745.60 0.283795
745.70 0.283667
745.80 0.2835391
745.90 0.2834113
746.00 0.2832835
746.10 0.2831558
746.20 0.2830281
746.30 0.2829005
746.40 0.282773
746.50 0.2826455
746.60 0.2825181
746.70 0.2823907
746.80 0.2822634
746.90 0.2821361
747.00 0.2820089
747.10 0.2818818
747.20 0.2817547
747.30 0.2816277
747.40 0.2815007
747.50 0.2813738
747.60 0.281247
747.70 0.2811202
747.80 0.2809935
747.90 0.2808668
748.00 0.2807402
748.10 0.2806136
748.20 0.2804871
748.30 0.2803607
748.40 0.2802343
748.50 0.2801079
748.60 0.2799817
748.70 0.2798554
748.80 0.2797293
748.90 0.2796032
749.00 0.2794771
749.10 0.2793512
749.20 0.2792252
749.30 0.2790994
749.40 0.2789735
749.50 0.2788478
749.60 0.2787221
749.70 0.2785964
749.80 0.2784709
749.90 0.2783453
750.00 0.2782199
750.10 0.2780925
750.20 0.2779602
750.30 0.2778279
750.40 0.2776956
750.50 0.2775635
750.60 0.2774314
750.70 0.2772994
750.80 0.2771674
750.90 0.2770355
751.00 0.2769036
751.10 0.2767718
751.20 0.2766401
751.30 0.2765084
751.40 0.2763768
751.50 0.2762452
751.60 0.2761137
751.70 0.2759823
751.80 0.2758509
751.90 0.2757196
752.00 0.2755883
752.10 0.2754572
752.20 0.275326
752.30 0.2751949
752.40 0.2750639
752.50 0.274933
752.60 0.2748021
752.70 0.2746712
752.80 0.2745405
752.90 0.2744098
753.00 0.2742791
753.10 0.2741485
753.20 0.274018
753.30 0.2738875
753.40 0.2737571
753.50 0.2736267
753.60 0.2734964
753.70 0.2733662
753.80 0.273236
753.90 0.2731115
754.00 0.2729886
754.10 0.2728658
754.20 0.2727431
754.30 0.2726204
754.40 0.2724978
754.50 0.2723752
754.60 0.2722527
754.70 0.2721302
754.80 0.2720078
754.90 0.2718854
755.00 0.2717631
755.10 0.2716409
755.20 0.2715187
755.30 0.2713965
755.40 0.2712744
755.50 0.2711524
755.60 0.2710304
755.70 0.2709085
755.80 0.2707867
755.90 0.2706648
756.00 0.2705431
756.10 0.2704214
756.20 0.2702998
756.30 0.2701782
756.40 0.2700566
756.50 0.2699352
756.60 0.2698137
756.70 0.2696924
756.80 0.269571
756.90 0.2694498
757.00 0.2693286
757.10 0.2692074
757.20 0.2690863
757.30 0.2689653
757.40 0.2688443
757.50 0.2687234
757.60 0.2686009
757.70 0.2684742
757.80 0.2683476
757.90 0.268221
758.00 0.2680945
758.10 0.267968
758.20 0.2678417
758.30 0.2677153
758.40 0.267589
758.50 0.2674628
758.60 0.2673367
758.70 0.2672106
758.80 0.2670845
758.90 0.2669585
759.00 0.2668326
759.10 0.2667067
759.20 0.2665809
759.30 0.2664551
759.40 0.2663294
759.50 0.2662038
759.60 0.2660782
759.70 0.2659527
759.80 0.2658272
759.90 0.2657018
760.00 0.2655764
760.10 0.2654511
760.20 0.2653259
760.30 0.2652007
760.40 0.2650755
760.50 0.2649504
760.60 0.2648254
760.70 0.2647005
760.80 0.2645755
760.90 0.2644507
761.00 0.2643259
761.10 0.2642012
761.20 0.2640765
761.30 0.2639518
761.40 0.2638287
761.50 0.2637077
761.60 0.2635867
761.70 0.2634658
761.80 0.2633449
761.90 0.2632241
762.00 0.2631034
762.10 0.2629827
762.20 0.262862
762.30 0.2627415
762.40 0.2626209
762.50 0.2625004
762.60 0.26238
762.70 0.2622597
762.80 0.2621393
762.90 0.2620191
763.00 0.2618989
763.10 0.2617787
763.20 0.2616586
763.30 0.2615386
763.40 0.2614186
763.50 0.2612987
763.60 0.2611788
763.70 0.2610589
763.80 0.2609392
763.90 0.2608195
764.00 0.2606998
764.10 0.2605802
764.20 0.2604606
764.30 0.2603411
764.40 0.2602217
764.50 0.2601023
764.60 0.2599829
764.70 0.2598636
764.80 0.2597444
764.90 0.2596252
765.00 0.2595061
765.10 0.259387
765.20 0.2592684
765.30 0.2591503
765.40 0.2590322
765.50 0.2589142
765.60 0.2587962
765.70 0.2586783
765.80 0.2585605
765.90 0.2584427
766.00 0.2583249
766.10 0.2582072
766.20 0.2580896
766.30 0.257972
766.40 0.2578545
766.50 0.257737
766.60 0.2576195
766.70 0.2575021
766.80 0.2573848
766.90 0.2572675
767.00 0.2571503
767.10 0.2570331
767.20 0.256916
767.30 0.256799
767.40 0.2566819
767.50 0.256565
767.60 0.2564481
767.70 0.2563312
767.80 0.2562144
767.90 0.2560976
768.00 0.2559809
768.10 0.2558643
768.20 0.2557477
768.30 0.2556311
768.40 0.2555146
768.50 0.2553982
768.60 0.2552818
768.70 0.2551655
768.80 0.2550492
768.90 0.254933
769.00 0.2548168
769.10 0.2547006
769.20 0.2545846
769.30 0.2544685
769.40 0.2543526
769.50 0.2542366
769.60 0.2541208
769.70 0.2540049
769.80 0.2538892
769.90 0.2537735
770.00 0.2536578
770.10 0.2535422
770.20 0.2534266
770.30 0.2533111
770.40 0.2531956
770.50 0.2530802
770.60 0.2529649
770.70 0.2528496
770.80 0.2527343
770.90 0.2526191
771.00 0.252504
771.10 0.2523889
771.20 0.2522738
771.30 0.2521588
771.40 0.2520439
771.50 0.251929
771.60 0.2518141
771.70 0.2516993
771.80 0.2515846
771.90 0.2514699
772.00 0.2513552
772.10 0.2512407
772.20 0.2511261
772.30 0.2510116
772.40 0.2508972
772.50 0.2507828
772.60 0.2506685
772.70 0.2505542
772.80 0.2504399
772.90 0.2503266
773.00 0.2502133
773.10 0.2501
773.20 0.2499868
773.30 0.2498736
773.40 0.2497605
773.50 0.2496474
773.60 0.2495344
773.70 0.2494215
773.80 0.2493085
773.90 0.2491957
774.00 0.2490829
774.10 0.2489701
774.20 0.2488574
774.30 0.2487447
774.40 0.2486321
774.50 0.2485196
774.60 0.248407
774.70 0.2482946
774.80 0.2481822
774.90 0.2480698
775.00 0.2479575
775.10 0.2478452
775.20 0.247733
775.30 0.2476208
775.40 0.2475087
775.50 0.2473966
775.60 0.2472846
775.70 0.2471727
775.80 0.2470607
775.90 0.2469489
776.00 0.2468371
776.10 0.2467253
776.20 0.2466136
776.30 0.2465019
776.40 0.2463903
776.50 0.2462787
776.60 0.2461672
776.70 0.2460557
776.80 0.2459443
776.90 0.2458329
777.00 0.2457216
777.10 0.2456103
777.20 0.2454991
777.30 0.2453879
777.40 0.2452768
777.50 0.2451657
777.60 0.2450546
777.70 0.2449437
777.80 0.2448327
777.90 0.2447218
778.00 0.244611
778.10 0.2445002
778.20 0.2443895
778.30 0.2442788
778.40 0.2441681
778.50 0.2440576
778.60 0.243947
778.70 0.2438365
778.80 0.2437261
778.90 0.2436157
779.00 0.2435053
779.10 0.243395
779.20 0.2432848
779.30 0.2431746
779.40 0.2430644
779.50 0.2429543
779.60 0.2428443
779.70 0.2427342
779.80 0.2426243
779.90 0.2425144
780.00 0.2424045
780.10 0.2422947
780.20 0.2421849
780.30 0.2420752
780.40 0.2419655
780.50 0.2418559
780.60 0.2417465
780.70 0.2416372
780.80 0.241528
780.90 0.2414188
781.00 0.2413096
781.10 0.2412005
781.20 0.2410914
781.30 0.2409824
781.40 0.2408735
781.50 0.2407645
781.60 0.2406557
781.70 0.2405468
781.80 0.2404381
781.90 0.2403294
782.00 0.2402207
782.10 0.240112
782.20 0.2400035
782.30 0.2398949
782.40 0.2397864
782.50 0.239678
782.60 0.2395696
782.70 0.2394613
782.80 0.239353
782.90 0.2392447
783.00 0.2391365
783.10 0.2390284
783.20 0.2389203
783.30 0.2388122
783.40 0.2387042
783.50 0.2385962
783.60 0.2384883
783.70 0.2383805
783.80 0.2382726
783.90 0.2381649
784.00 0.2380571
784.10 0.2379495
784.20 0.2378418
784.30 0.2377342
784.40 0.2376267
784.50 0.2375192
784.60 0.2374121
784.70 0.2373059
784.80 0.2371997
784.90 0.2370935
785.00 0.2369874
785.10 0.2368814
785.20 0.2367754
785.30 0.2366694
785.40 0.2365635
785.50 0.2364577
785.60 0.2363518
785.70 0.2362461
785.80 0.2361403
785.90 0.2360347
786.00 0.235929
786.10 0.2358234
786.20 0.2357179
786.30 0.2356124
786.40 0.235507
786.50 0.2354016
786.60 0.2352962
786.70 0.2351909
786.80 0.2350856
786.90 0.2349804
787.00 0.2348752
787.10 0.2347701
787.20 0.234665
787.30 0.23456
787.40 0.234455
787.50 0.2343501
787.60 0.2342452
787.70 0.2341403
787.80 0.2340355
787.90 0.2339307
788.00 0.233826
788.10 0.2337213
788.20 0.2336167
788.30 0.2335121
788.40 0.2334077
788.50 0.2333034
788.60 0.2331992
788.70 0.2330949
788.80 0.2329908
788.90 0.2328866
789.00 0.2327825
789.10 0.2326785
789.20 0.2325745
789.30 0.2324706
789.40 0.2323667
789.50 0.2322628
789.60 0.232159
789.70 0.2320552
789.80 0.2319515
789.90 0.2318478
790.00 0.2317442
790.10 0.2316406
790.20 0.2315371
790.30 0.2314336
790.40 0.2313301
790.50 0.2312267
790.60 0.2311233
790.70 0.23102
790.80 0.2309167
790.90 0.2308135
791.00 0.2307103
791.10 0.2306072
791.20 0.2305041
791.30 0.2304011
791.40 0.230298
791.50 0.2301951
791.60 0.2300922
791.70 0.2299893
791.80 0.2298865
791.90 0.2297837
792.00 0.229681
792.10 0.2295783
792.20 0.2294756
792.30 0.2293732
792.40 0.2292712
792.50 0.2291693
792.60 0.2290675
792.70 0.2289656
792.80 0.2288639
792.90 0.2287621
793.00 0.2286604
793.10 0.2285588
793.20 0.2284572
793.30 0.2283557
793.40 0.2282541
793.50 0.2281527
793.60 0.2280513
793.70 0.2279499
793.80 0.2278486
793.90 0.2277473
794.00 0.227646
794.10 0.2275448
794.20 0.2274437
794.30 0.2273425
794.40 0.2272415
794.50 0.2271404
794.60 0.2270395
794.70 0.2269385
794.80 0.2268376
794.90 0.2267368
795.00 0.226636
795.10 0.2265352
795.20 0.2264345
795.30 0.2263338
795.40 0.2262332
795.50 0.2261326
795.60 0.226032
795.70 0.2259315
795.80 0.2258311
795.90 0.2257306
796.00 0.2256303
796.10 0.2255299
796.20 0.2254296
796.30 0.22533
796.40 0.2252306
796.50 0.2251311
796.60 0.2250318
796.70 0.2249324
796.80 0.2248332
796.90 0.2247339
797.00 0.2246347
797.10 0.2245355
797.20 0.2244364
797.30 0.2243374
797.40 0.2242383
797.50 0.2241393
797.60 0.2240404
797.70 0.2239415
797.80 0.2238426
797.90 0.2237438
798.00 0.223645
798.10 0.2235463
798.20 0.2234476
798.30 0.2233489
798.40 0.2232503
798.50 0.2231518
798.60 0.2230533
798.70 0.2229548
798.80 0.2228563
798.90 0.2227579
799.00 0.2226596
799.10 0.2225613
799.20 0.222463
799.30 0.2223648
799.40 0.2222666
799.50 0.2221685
799.60 0.2220704
799.70 0.2219723
799.80 0.2218743
799.90 0.2217763
800.00 0.2216784
800.10 0.2215805
800.20 0.2214826
800.30 0.2213848
800.40 0.2212871
800.50 0.2211893
800.60 0.2210917
800.70 0.220994
800.80 0.2208964
800.90 0.2207989
801.00 0.2207014
801.10 0.2206039
801.20 0.2205065
801.30 0.2204091
801.40 0.2203117
801.50 0.2202144
801.60 0.2201172
801.70 0.22002
801.80 0.2199228
801.90 0.2198256
802.00 0.2197285
802.10 0.2196315
802.20 0.2195345
802.30 0.2194375
802.40 0.2193406
802.50 0.2192437
802.60 0.2191468
802.70 0.21905
802.80 0.2189533
802.90 0.2188566
803.00 0.2187599
803.10 0.2186632
803.20 0.2185666
803.30 0.2184701
803.40 0.2183736
803.50 0.2182771
803.60 0.2181807
803.70 0.2180843
803.80 0.2179879
803.90 0.2178916
804.00 0.2177953
804.10 0.2176991
804.20 0.217603
804.30 0.2175069
804.40 0.217411
804.50 0.217315
804.60 0.2172191
804.70 0.2171233
804.80 0.2170274
804.90 0.2169317
805.00 0.2168359
805.10 0.2167402
805.20 0.2166446
805.30 0.216549
805.40 0.2164534
805.50 0.2163579
805.60 0.2162624
805.70 0.2161669
805.80 0.2160715
805.90 0.2159762
806.00 0.2158808
806.10 0.2157855
806.20 0.2156903
806.30 0.2155951
806.40 0.2154999
806.50 0.2154048
806.60 0.2153097
806.70 0.2152147
806.80 0.2151197
806.90 0.2150247
807.00 0.2149298
807.10 0.2148349
807.20 0.2147401
807.30 0.2146453
807.40 0.2145505
807.50 0.2144558
807.60 0.2143611
807.70 0.2142665
807.80 0.2141719
807.90 0.2140773
808.00 0.2139828
808.10 0.2138883
808.20 0.2137939
808.30 0.2137007
808.40 0.2136075
808.50 0.2135143
808.60 0.2134212
808.70 0.2133282
808.80 0.2132351
808.90 0.2131421
809.00 0.2130492
809.10 0.2129563
809.20 0.2128634
809.30 0.2127706
809.40 0.2126778
809.50 0.212585
809.60 0.2124923
809.70 0.2123996
809.80 0.212307
809.90 0.2122144
810.00 0.2121218
810.10 0.2120293
810.20 0.2119368
810.30 0.2118444
810.40 0.211752
810.50 0.2116596
810.60 0.2115673
810.70 0.211475
810.80 0.2113828
810.90 0.2112906
811.00 0.2111984
811.10 0.2111063
811.20 0.2110142
811.30 0.2109221
811.40 0.2108301
811.50 0.2107382
811.60 0.2106462
811.70 0.2105543
811.80 0.2104625
811.90 0.2103707
812.00 0.2102789
812.10 0.2101871
812.20 0.2100954
812.30 0.2100039
812.40 0.2099124
812.50 0.209821
812.60 0.2097296
812.70 0.2096383
812.80 0.2095469
812.90 0.2094557
813.00 0.2093644
813.10 0.2092732
813.20 0.2091821
813.30 0.2090909
813.40 0.2089999
813.50 0.2089088
813.60 0.2088178
813.70 0.2087268
813.80 0.2086359
813.90 0.208545
814.00 0.2084542
814.10 0.2083634
814.20 0.2082726
814.30 0.2081818
814.40 0.2080911
814.50 0.2080005
814.60 0.2079099
814.70 0.2078193
814.80 0.2077287
814.90 0.2076382
815.00 0.2075478
815.10 0.2074573
815.20 0.2073669
815.30 0.2072766
815.40 0.2071863
815.50 0.207096
815.60 0.2070057
815.70 0.2069155
815.80 0.2068254
815.90 0.2067352
816.00 0.2066451
816.10 0.2065551
816.20 0.2064651
816.30 0.2063751
816.40 0.2062852
816.50 0.2061953
816.60 0.2061054
816.70 0.2060156
816.80 0.2059258
816.90 0.205836
817.00 0.2057463
817.10 0.2056567
817.20 0.205567
817.30 0.2054774
817.40 0.2053879
817.50 0.2052983
817.60 0.2052089
817.70 0.2051194
817.80 0.20503
817.90 0.2049406
818.00 0.2048513
818.10 0.204762
818.20 0.2046727
818.30 0.2045835
818.40 0.2044943
818.50 0.2044052
818.60 0.2043161
818.70 0.204227
818.80 0.204138
818.90 0.204049
819.00 0.20396
819.10 0.2038711
819.20 0.2037822
819.30 0.2036942
819.40 0.2036069
819.50 0.2035196
819.60 0.2034323
819.70 0.2033451
819.80 0.2032579
819.90 0.2031707
820.00 0.2030836
820.10 0.2029896
820.20 0.2029012
820.30 0.2028221
820.40 0.202738
820.50 0.2026503
820.60 0.2025626
820.70 0.202475
820.80 0.2023874
820.90 0.2022999
821.00 0.2022123
821.10 0.2021249
821.20 0.2020374
821.30 0.20195
821.40 0.2018626
821.50 0.2017753
821.60 0.201688
821.70 0.2016007
821.80 0.2015135
821.90 0.2014263
822.00 0.2013392
822.10 0.201252
822.20 0.201165
822.30 0.2010779
822.40 0.2009909
822.50 0.2009039
822.60 0.200817
822.70 0.2007301
822.80 0.2006432
822.90 0.2005564
823.00 0.2004696
823.10 0.2003829
823.20 0.2002962
823.30 0.2002095
823.40 0.2001228
823.50 0.2000362
823.60 0.1999497
823.70 0.1998631
823.80 0.1997766
823.90 0.1996902
824.00 0.1996037
824.10 0.1995173
824.20 0.199431
824.30 0.1993447
824.40 0.1992584
824.50 0.1991721
824.60 0.1990859
824.70 0.1989997
824.80 0.1989136
824.90 0.1988275
825.00 0.1987414
825.10 0.1986554
825.20 0.1985694
825.30 0.1984834
825.40 0.1983975
825.50 0.1983116
825.60 0.1982258
825.70 0.19814
825.80 0.1980542
825.90 0.1979684
826.00 0.1978827
826.10 0.197797
826.20 0.1977114
826.30 0.1976262
826.40 0.1975413
826.50 0.1974565
826.60 0.1973717
826.70 0.1972869
826.80 0.1972022
826.90 0.1971175
827.00 0.1970328
827.10 0.1969482
827.20 0.1968636
827.30 0.196779
827.40 0.1966945
827.50 0.19661
827.60 0.1965255
827.70 0.1964411
827.80 0.1963567
827.90 0.1962724
828.00 0.1961881
828.10 0.1961038
828.20 0.1960195
828.30 0.1959353
828.40 0.1958512
828.50 0.195767
828.60 0.1956831
828.70 0.1955995
828.80 0.1955158
828.90 0.1954323
829.00 0.1953487
829.10 0.1952652
829.20 0.1951817
829.30 0.1950982
829.40 0.1950148
829.50 0.1949314
829.60 0.1948481
829.70 0.1947648
829.80 0.1946815
829.90 0.1945983
830.00 0.1945151
830.10 0.1944319
830.20 0.1943487
830.30 0.1942656
830.40 0.1941826
830.50 0.1940995
830.60 0.1940165
830.70 0.1939335
830.80 0.1938506
830.90 0.1937677
831.00 0.1936848
831.10 0.193602
831.20 0.1935192
831.30 0.1934365
831.40 0.1933537
831.50 0.193271
831.60 0.1931884
831.70 0.1931057
831.80 0.1930231
831.90 0.1929406
832.00 0.1928581
832.10 0.1927756
832.20 0.1926931
832.30 0.1926107
832.40 0.1925283
832.50 0.192446
832.60 0.1923636
832.70 0.1922813
832.80 0.1921991
832.90 0.1921169
833.00 0.1920347
833.10 0.1919525
833.20 0.1918704
833.30 0.1917883
833.40 0.1917063
833.50 0.1916243
833.60 0.1915423
833.70 0.1914604
833.80 0.1913784
833.90 0.1912966
834.00 0.1912147
834.10 0.1911329
834.20 0.1910511
834.30 0.1909694
834.40 0.1908877
834.50 0.190806
834.60 0.1907243
834.70 0.1906427
834.80 0.1905612
834.90 0.1904796
835.00 0.1903981
835.10 0.1903166
835.20 0.1902352
835.30 0.1901538
835.40 0.1900724
835.50 0.1899911
835.60 0.1899098
835.70 0.1898285
835.80 0.1897472
835.90 0.189666
836.00 0.1895849
836.10 0.1895037
836.20 0.1894226
836.30 0.1893415
836.40 0.1892605
836.50 0.1891795
836.60 0.1890985
836.70 0.1890176
836.80 0.1889367
836.90 0.1888566
837.00 0.1887769
837.10 0.1886972
837.20 0.1886176
837.30 0.188538
837.40 0.1884584
837.50 0.1883789
837.60 0.1882994
837.70 0.1882199
837.80 0.1881405
837.90 0.1880611
838.00 0.1879817
838.10 0.1879023
838.20 0.187823
838.30 0.1877437
838.40 0.1876645
838.50 0.1875853
838.60 0.1875061
838.70 0.187427
838.80 0.1873478
838.90 0.1872688
839.00 0.1871897
839.10 0.1871107
839.20 0.1870317
839.30 0.1869528
839.40 0.1868738
839.50 0.186795
839.60 0.1867161
839.70 0.1866373
839.80 0.1865585
839.90 0.1864797
840.00 0.186401
840.10 0.1863223
840.20 0.1862436
840.30 0.186165
840.40 0.1860864
840.50 0.1860078
840.60 0.1859293
840.70 0.1858508
840.80 0.1857723
840.90 0.1856939
841.00 0.1856155
841.10 0.1855371
841.20 0.1854588
841.30 0.1853805
841.40 0.1853022
841.50 0.185224
841.60 0.1851458
841.70 0.1850676
841.80 0.1849895
841.90 0.1849113
842.00 0.1848333
842.10 0.1847552
842.20 0.1846772
842.30 0.1845992
842.40 0.1845213
842.50 0.1844434
842.60 0.1843655
842.70 0.1842876
842.80 0.1842098
842.90 0.184132
843.00 0.1840542
843.10 0.1839765
843.20 0.1838988
843.30 0.1838211
843.40 0.1837435
843.50 0.1836659
843.60 0.1835883
843.70 0.1835108
843.80 0.1834333
843.90 0.1833558
844.00 0.1832784
844.10 0.183201
844.20 0.1831236
844.30 0.1830462
844.40 0.1829689
844.50 0.1828916
844.60 0.1828144
844.70 0.1827372
844.80 0.18266
844.90 0.1825828
845.00 0.1825057
845.10 0.1824286
845.20 0.1823515
845.30 0.1822751
845.40 0.1821986
845.50 0.1821222
845.60 0.1820459
845.70 0.1819696
845.80 0.1818933
845.90 0.181817
846.00 0.1817408
846.10 0.1816646
846.20 0.1815884
846.30 0.1815122
846.40 0.1814361
846.50 0.1813601
846.60 0.181284
846.70 0.181208
846.80 0.181132
846.90 0.181056
847.00 0.1809801
847.10 0.1809042
847.20 0.1808284
847.30 0.1807525
847.40 0.1806767
847.50 0.1806009
847.60 0.1805252
847.70 0.1804495
847.80 0.1803738
847.90 0.1802982
848.00 0.1802225
848.10 0.180147
848.20 0.1800714
848.30 0.1799959
848.40 0.1799204
848.50 0.1798449
848.60 0.1797695
848.70 0.1796941
848.80 0.1796187
848.90 0.1795434
849.00 0.179468
849.10 0.1793928
849.20 0.1793175
849.30 0.1792423
849.40 0.1791671
849.50 0.1790919
849.60 0.1790168
849.70 0.1789417
849.80 0.1788666
849.90 0.1787916
850.00 0.1787166
850.10 0.1786416
850.20 0.1785667
850.30 0.1784918
850.40 0.1784169
850.50 0.178342
850.60 0.1782672
850.70 0.1781924
850.80 0.1781176
850.90 0.1780429
851.00 0.1779682
851.10 0.1778935
851.20 0.1778189
851.30 0.1777442
851.40 0.1776697
851.50 0.1775951
851.60 0.1775206
851.70 0.1774461
851.80 0.1773716
851.90 0.1772972
852.00 0.1772228
852.10 0.1771484
852.20 0.1770741
852.30 0.1769997
852.40 0.1769255
852.50 0.1768512
852.60 0.176777
852.70 0.1767028
852.80 0.1766286
852.90 0.1765545
853.00 0.1764804
853.10 0.1764063
853.20 0.1763323
853.30 0.1762583
853.40 0.1761843
853.50 0.1761103
853.60 0.1760364
853.70 0.1759628
853.80 0.1758895
853.90 0.1758162
854.00 0.175743
854.10 0.1756698
854.20 0.1755966
854.30 0.1755234
854.40 0.1754503
854.50 0.1753772
854.60 0.1753041
854.70 0.1752311
854.80 0.1751581
854.90 0.1750851
855.00 0.1750122
855.10 0.1749393
855.20 0.1748664
855.30 0.1747935
855.40 0.1747207
855.50 0.1746479
855.60 0.1745751
855.70 0.1745024
855.80 0.1744297
855.90 0.174357
856.00 0.1742844
856.10 0.1742117
856.20 0.1741391
856.30 0.1740666
856.40 0.173994
856.50 0.1739215
856.60 0.1738491
856.70 0.1737766
856.80 0.1737042
856.90 0.1736318
857.00 0.1735594
857.10 0.1734871
857.20 0.1734148
857.30 0.1733425
857.40 0.1732703
857.50 0.1731981
857.60 0.1731259
857.70 0.1730537
857.80 0.1729816
857.90 0.1729095
858.00 0.1728378
858.10 0.1727663
858.20 0.1726947
858.30 0.1726232
858.40 0.1725518
858.50 0.1724803
858.60 0.1724089
858.70 0.1723375
858.80 0.1722662
858.90 0.1721949
859.00 0.1721236
859.10 0.1720523
859.20 0.1719811
859.30 0.1719098
859.40 0.1718387
859.50 0.1717675
859.60 0.1716964
859.70 0.1716253
859.80 0.1715542
859.90 0.1714832
860.00 0.1714122
860.10 0.1713412
860.20 0.1712702
860.30 0.1711993
860.40 0.1711284
860.50 0.1710575
860.60 0.1709867
860.70 0.1709159
860.80 0.1708451
860.90 0.1707743
861.00 0.1707036
861.10 0.1706329
861.20 0.1705622
861.30 0.1704916
861.40 0.170421
861.50 0.1703504
861.60 0.1702798
861.70 0.1702093
861.80 0.1701388
861.90 0.1700683
862.00 0.1699979
862.10 0.1699275
862.20 0.1698571
862.30 0.1697873
862.40 0.1697175
862.50 0.1696478
862.60 0.169578
862.70 0.1695083
862.80 0.1694387
862.90 0.169369
863.00 0.1692994
863.10 0.1692298
863.20 0.1691602
863.30 0.1690907
863.40 0.1690212
863.50 0.1689517
863.60 0.1688823
863.70 0.1688128
863.80 0.1687434
863.90 0.1686741
864.00 0.1686047
864.10 0.1685354
864.20 0.1684661
864.30 0.1683969
864.40 0.1683276
864.50 0.1682584
864.60 0.1681892
864.70 0.1681201
864.80 0.168051
864.90 0.1679819
865.00 0.1679128
865.10 0.1678438
865.20 0.1677748
865.30 0.1677058
865.40 0.1676368
865.50 0.1675679
865.60 0.167499
865.70 0.1674301
865.80 0.1673613
865.90 0.1672924
866.00 0.1672236
866.10 0.1671549
866.20 0.1670861
866.30 0.1670174
866.40 0.1669487
866.50 0.1668801
866.60 0.1668114
866.70 0.1667428
866.80 0.1666743
866.90 0.1666057
867.00 0.1665372
867.10 0.1664687
867.20 0.1664002
867.30 0.1663318
867.40 0.1662634
867.50 0.166195
867.60 0.1661266
867.70 0.1660583
867.80 0.16599
867.90 0.1659217
868.00 0.1658535
868.10 0.1657853
868.20 0.1657171
868.30 0.1656489
868.40 0.1655807
868.50 0.1655126
868.60 0.1654445
868.70 0.1653765
868.80 0.1653084
868.90 0.1652404
869.00 0.1651725
869.10 0.1651045
869.20 0.1650366
869.30 0.1649687
869.40 0.1649008
869.50 0.164833
869.60 0.1647651
869.70 0.1646973
869.80 0.1646296
869.90 0.1645618
870.00 0.1644941
870.10 0.1644264
870.20 0.1643588
870.30 0.1642912
870.40 0.1642236
870.50 0.164156
870.60 0.1640884
870.70 0.1640209
870.80 0.1639534
870.90 0.1638864
871.00 0.1638195
871.10 0.1637526
871.20 0.1636857
871.30 0.1636189
871.40 0.1635521
871.50 0.1634853
871.60 0.1634185
871.70 0.1633518
871.80 0.1632851
871.90 0.1632184
872.00 0.1631518
872.10 0.1630851
872.20 0.1630185
872.30 0.162952
872.40 0.1628854
872.50 0.1628189
872.60 0.1627524
872.70 0.1626859
872.80 0.1626195
872.90 0.162553
873.00 0.1624867
873.10 0.1624203
873.20 0.1623539
873.30 0.1622876
873.40 0.1622213
873.50 0.1621551
873.60 0.1620888
873.70 0.1620226
873.80 0.1619565
873.90 0.1618903
874.00 0.1618242
874.10 0.1617581
874.20 0.161692
874.30 0.1616259
874.40 0.1615599
874.50 0.1614939
874.60 0.1614279
874.70 0.161362
874.80 0.1612961
874.90 0.1612302
875.00 0.1611643
875.10 0.1610984
875.20 0.1610328
875.30 0.1609675
875.40 0.1609021
875.50 0.1608369
875.60 0.1607716
875.70 0.1607064
875.80 0.1606412
875.90 0.160576
876.00 0.1605108
876.10 0.1604457
876.20 0.1603806
876.30 0.1603155
876.40 0.1602505
876.50 0.1601854
876.60 0.1601204
876.70 0.1600555
876.80 0.1599905
876.90 0.1599256
877.00 0.1598607
877.10 0.1597958
877.20 0.159731
877.30 0.1596661
877.40 0.1596013
877.50 0.1595366
877.60 0.1594718
877.70 0.1594071
877.80 0.1593424
877.90 0.1592777
878.00 0.1592131
878.10 0.1591485
878.20 0.1590839
878.30 0.1590193
878.40 0.1589548
878.50 0.1588902
878.60 0.1588258
878.70 0.1587613
878.80 0.1586968
878.90 0.1586324
879.00 0.158568
879.10 0.1585037
879.20 0.1584393
879.30 0.158375
879.40 0.1583107
879.50 0.1582464
879.60 0.1581824
879.70 0.1581185
879.80 0.1580546
879.90 0.1579907
880.00 0.1579268
880.10 0.157863
880.20 0.1577992
880.30 0.1577354
880.40 0.1576717
880.50 0.1576079
880.60 0.1575442
880.70 0.1574805
880.80 0.1574169
880.90 0.1573532
881.00 0.1572896
881.10 0.157226
881.20 0.1571625
881.30 0.1570989
881.40 0.1570354
881.50 0.1569719
881.60 0.1569085
881.70 0.156845
881.80 0.1567816
881.90 0.1567182
882.00 0.1566549
882.10 0.1565915
882.20 0.1565282
882.30 0.1564649
882.40 0.1564017
882.50 0.1563384
882.60 0.1562752
882.70 0.156212
882.80 0.1561489
882.90 0.1560857
883.00 0.1560226
883.10 0.1559595
883.20 0.1558965
883.30 0.1558334
883.40 0.1557704
883.50 0.1557074
883.60 0.1556444
883.70 0.1555815
883.80 0.1555186
883.90 0.1554557
884.00 0.1553932
884.10 0.1553308
884.20 0.1552684
884.30 0.155206
884.40 0.1551437
884.50 0.1550814
884.60 0.1550191
884.70 0.1549568
884.80 0.1548946
884.90 0.1548324
885.00 0.1547702
885.10 0.154708
885.20 0.1546459
885.30 0.1545838
885.40 0.1545217
885.50 0.1544596
885.60 0.1543976
885.70 0.1543356
885.80 0.1542736
885.90 0.1542116
886.00 0.1541496
886.10 0.1540877
886.20 0.1540258
886.30 0.1539639
886.40 0.1539021
886.50 0.1538403
886.60 0.1537785
886.70 0.1537167
886.80 0.1536549
886.90 0.1535932
887.00 0.1535315
887.10 0.1534698
887.20 0.1534081
887.30 0.1533465
887.40 0.1532849
887.50 0.1532233
887.60 0.1531617
887.70 0.1531002
887.80 0.1530387
887.90 0.1529772
888.00 0.1529157
888.10 0.1528543
888.20 0.1527929
888.30 0.1527315
888.40 0.1526707
888.50 0.1526101
888.60 0.1525494
888.70 0.1524889
888.80 0.1524283
888.90 0.1523677
889.00 0.1523072
889.10 0.1522467
889.20 0.1521862
889.30 0.1521258
889.40 0.1520653
889.50 0.1520049
889.60 0.1519446
889.70 0.1518842
889.80 0.1518239
889.90 0.1517635
890.00 0.1517032
890.10 0.151643
890.20 0.1515827
890.30 0.1515225
890.40 0.1514623
890.50 0.1514021
890.60 0.151342
890.70 0.1512819
890.80 0.1512218
890.90 0.1511617
891.00 0.1511016
891.10 0.1510416
891.20 0.1509816
891.30 0.1509216
891.40 0.1508616
891.50 0.1508017
891.60 0.1507417
891.70 0.1506818
891.80 0.150622
891.90 0.1505621
892.00 0.1505023
892.10 0.1504425
892.20 0.1503827
892.30 0.1503229
892.40 0.1502632
892.50 0.1502035
892.60 0.1501438
892.70 0.1500841
892.80 0.1500245
892.90 0.1499649
893.00 0.1499053
893.10 0.1498457
893.20 0.1497861
893.30 0.1497266
893.40 0.1496671
893.50 0.1496076
893.60 0.1495482
893.70 0.1494887
893.80 0.1494293
893.90 0.1493699
894.00 0.1493106
894.10 0.1492512
894.20 0.1491919
894.30 0.1491326
894.40 0.1490733
894.50 0.149014
894.60 0.1489548
894.70 0.1488956
894.80 0.1488364
894.90 0.1487773
895.00 0.1487181
895.10 0.148659
895.20 0.1485999
895.30 0.1485408
895.40 0.1484818
895.50 0.1484227
895.60 0.1483637
895.70 0.1483048
895.80 0.1482458
895.90 0.1481869
896.00 0.1481279
896.10 0.148069
896.20 0.1480102
896.30 0.1479513
896.40 0.1478925
896.50 0.1478337
896.60 0.1477749
896.70 0.1477162
896.80 0.1476574
896.90 0.1475987
897.00 0.14754
897.10 0.1474814
897.20 0.1474227
897.30 0.1473644
897.40 0.147306
897.50 0.1472477
897.60 0.1471894
897.70 0.1471311
897.80 0.1470729
897.90 0.1470146
898.00 0.1469564
898.10 0.1468982
898.20 0.1468401
898.30 0.1467819
898.40 0.1467238
898.50 0.1466657
898.60 0.1466076
898.70 0.1465496
898.80 0.1464915
898.90 0.1464335
899.00 0.1463755
899.10 0.1463176
899.20 0.1462596
899.30 0.1462017
899.40 0.1461438
899.50 0.1460859
899.60 0.1460281
899.70 0.1459702
899.80 0.1459124
899.90 0.1458546
900.00 0.1457969
900.10 0.1457391
900.20 0.1456814
900.30 0.1456237
900.40 0.145566
900.50 0.1455084
900.60 0.1454507
900.70 0.1453931
900.80 0.1453355
900.90 0.145278
901.00 0.1452204
901.10 0.1451629
901.20 0.1451054
901.30 0.1450479
901.40 0.1449905
901.50 0.144933
901.60 0.1448756
901.70 0.1448183
901.80 0.1447613
901.90 0.1447044
902.00 0.1446475
902.10 0.1445906
902.20 0.1445338
902.30 0.1444769
902.40 0.1444201
902.50 0.1443633
902.60 0.1443065
902.70 0.1442498
902.80 0.144193
902.90 0.1441363
903.00 0.1440796
903.10 0.144023
903.20 0.1439663
903.30 0.1439097
903.40 0.1438531
903.50 0.1437965
903.60 0.1437399
903.70 0.1436834
903.80 0.1436269
903.90 0.1435704
904.00 0.1435139
904.10 0.1434575
904.20 0.143401
904.30 0.1433446
904.40 0.1432882
904.50 0.1432319
904.60 0.1431755
904.70 0.1431192
904.80 0.1430629
904.90 0.1430066
905.00 0.1429503
905.10 0.1428941
905.20 0.1428379
905.30 0.1427817
905.40 0.1427255
905.50 0.1426694
905.60 0.1426132
905.70 0.1425571
905.80 0.142501
905.90 0.142445
906.00 0.1423889
906.10 0.1423329
906.20 0.1422771
906.30 0.1422218
906.40 0.1421665
906.50 0.1421112
906.60 0.1420559
906.70 0.1420007
906.80 0.1419454
906.90 0.1418902
907.00 0.1418351
907.10 0.1417799
907.20 0.1417248
907.30 0.1416696
907.40 0.1416145
907.50 0.1415595
907.60 0.1415044
907.70 0.1414494
907.80 0.1413944
907.90 0.1413394
908.00 0.1412844
908.10 0.1412294
908.20 0.1411745
908.30 0.1411196
908.40 0.1410647
908.50 0.1410098
908.60 0.140955
908.70 0.1409002
908.80 0.1408454
908.90 0.1407906
909.00 0.1407358
909.10 0.1406811
909.20 0.1406263
909.30 0.1405716
909.40 0.140517
909.50 0.1404623
909.60 0.1404077
909.70 0.140353
909.80 0.1402984
909.90 0.1402439
910.00 0.1401893
910.10 0.1401348
910.20 0.1400802
910.30 0.1400258
910.40 0.1399713
910.50 0.1399168
910.60 0.1398624
910.70 0.139808
910.80 0.1397536
910.90 0.1396992
911.00 0.1396448
911.10 0.1395905
911.20 0.1395362
911.30 0.1394819
911.40 0.1394276
911.50 0.1393734
911.60 0.1393192
911.70 0.139265
911.80 0.1392108
911.90 0.1391566
912.00 0.1391024
912.10 0.1390483
912.20 0.1389942
912.30 0.1389401
912.40 0.1388861
912.50 0.138832
912.60 0.138778
912.70 0.138724
912.80 0.13867
912.90 0.138616
913.00 0.1385621
913.10 0.1385082
913.20 0.1384543
913.30 0.1384004
913.40 0.1383465
913.50 0.1382927
913.60 0.1382388
913.70 0.138185
913.80 0.1381313
913.90 0.1380775
914.00 0.1380238
914.10 0.13797
914.20 0.1379163
914.30 0.1378626
914.40 0.137809
914.50 0.1377553
914.60 0.1377017
914.70 0.1376481
914.80 0.1375945
914.90 0.137541
915.00 0.1374874
915.10 0.1374339
915.20 0.1373804
915.30 0.1373271
915.40 0.1372739
915.50 0.1372207
915.60 0.1371675
915.70 0.1371143
915.80 0.1370612
915.90 0.137008
916.00 0.1369549
916.10 0.1369018
916.20 0.1368488
916.30 0.1367957
916.40 0.1367427
916.50 0.1366897
916.60 0.1366367
916.70 0.1365837
916.80 0.1365308
916.90 0.1364778
917.00 0.1364249
917.10 0.136372
917.20 0.1363191
917.30 0.1362663
917.40 0.1362135
917.50 0.1361607
917.60 0.1361079
917.70 0.1360551
917.80 0.1360023
917.90 0.1359496
918.00 0.1358969
918.10 0.1358442
918.20 0.1357915
918.30 0.1357389
918.40 0.1356862
918.50 0.1356336
918.60 0.135581
918.70 0.1355285
918.80 0.1354759
918.90 0.1354234
919.00 0.1353708
919.10 0.1353183
919.20 0.1352659
919.30 0.1352134
919.40 0.135161
919.50 0.1351086
919.60 0.1350562
919.70 0.1350038
919.80 0.1349514
919.90 0.1348995
920.00 0.1348475
920.10 0.1347956
920.20 0.1347437
920.30 0.1346919
920.40 0.13464
920.50 0.1345882
920.60 0.1345364
920.70 0.1344846
920.80 0.1344328
920.90 0.1343811
921.00 0.1343294
921.10 0.1342777
921.20 0.134226
921.30 0.1341743
921.40 0.1341226
921.50 0.134071
921.60 0.1340194
921.70 0.1339678
921.80 0.1339162
921.90 0.1338647
922.00 0.1338131
922.10 0.1337616
922.20 0.1337101
922.30 0.1336586
922.40 0.1336072
922.50 0.1335557
922.60 0.1335043
922.70 0.1334529
922.80 0.1334015
922.90 0.1333501
923.00 0.1332988
923.10 0.1332475
923.20 0.1331962
923.30 0.1331449
923.40 0.1330936
923.50 0.1330424
923.60 0.1329911
923.70 0.1329399
923.80 0.1328887
923.90 0.1328375
924.00 0.1327864
924.10 0.1327353
924.20 0.1326841
924.30 0.132633
924.40 0.132582
924.50 0.1325312
924.60 0.1324803
924.70 0.1324295
924.80 0.1323788
924.90 0.132328
925.00 0.1322773
925.10 0.1322265
925.20 0.1321758
925.30 0.1321251
925.40 0.1320745
925.50 0.1320238
925.60 0.1319732
925.70 0.1319226
925.80 0.131872
925.90 0.1318214
926.00 0.1317709
926.10 0.1317203
926.20 0.1316698
926.30 0.1316193
926.40 0.1315688
926.50 0.1315184
926.60 0.1314679
926.70 0.1314175
926.80 0.1313671
926.90 0.1313167
927.00 0.1312664
927.10 0.131216
927.20 0.1311657
927.30 0.1311154
927.40 0.1310651
927.50 0.1310148
927.60 0.1309645
927.70 0.1309143
927.80 0.1308641
927.90 0.1308139
928.00 0.1307637
928.10 0.1307135
928.20 0.1306634
928.30 0.1306133
928.40 0.1305632
928.50 0.1305131
928.60 0.130463
928.70 0.130413
928.80 0.1303629
928.90 0.1303129
929.00 0.1302629
929.10 0.1302133
929.20 0.1301637
929.30 0.1301142
929.40 0.1300646
929.50 0.1300151
929.60 0.1299656
929.70 0.1299161
929.80 0.1298667
929.90 0.1298172
930.00 0.1297678
930.10 0.1297184
930.20 0.129669
930.30 0.1296196
930.40 0.1295703
930.50 0.1295209
930.60 0.1294716
930.70 0.1294223
930.80 0.129373
930.90 0.1293238
931.00 0.1292745
931.10 0.1292253
931.20 0.1291761
931.30 0.1291269
931.40 0.1290777
931.50 0.1290286
931.60 0.1289794
931.70 0.1289303
931.80 0.1288812
931.90 0.1288321
932.00 0.1287831
932.10 0.128734
932.20 0.128685
932.30 0.128636
932.40 0.128587
932.50 0.128538
932.60 0.1284891
932.70 0.1284401
932.80 0.1283912
932.90 0.1283423
933.00 0.1282934
933.10 0.1282445
933.20 0.1281957
933.30 0.1281469
933.40 0.1280981
933.50 0.1280493
933.60 0.1280005
933.70 0.127952
933.80 0.1279037
933.90 0.1278554
934.00 0.1278071
934.10 0.1277588
934.20 0.1277105
934.30 0.1276622
934.40 0.127614
934.50 0.1275658
934.60 0.1275176
934.70 0.1274694
934.80 0.1274213
934.90 0.1273731
935.00 0.127325
935.10 0.1272769
935.20 0.1272288
935.30 0.1271807
935.40 0.1271326
935.50 0.1270846
935.60 0.1270366
935.70 0.1269886
935.80 0.1269406
935.90 0.1268926
936.00 0.1268447
936.10 0.1267967
936.20 0.1267488
936.30 0.1267009
936.40 0.126653
936.50 0.1266052
936.60 0.1265573
936.70 0.1265095
936.80 0.1264617
936.90 0.1264139
937.00 0.1263661
937.10 0.1263184
937.20 0.1262706
937.30 0.1262229
937.40 0.1261752
937.50 0.1261275
937.60 0.1260798
937.70 0.1260322
937.80 0.1259845
937.90 0.1259369
938.00 0.1258893
938.10 0.1258417
938.20 0.1257942
938.30 0.1257466
938.40 0.1256991
938.50 0.1256516
938.60 0.1256041
938.70 0.1255566
938.80 0.1255091
938.90 0.1254617
939.00 0.1254143
939.10 0.1253668
939.20 0.1253194
939.30 0.1252721
939.40 0.1252247
939.50 0.1251774
939.60 0.12513
939.70 0.1250827
939.80 0.1250355
939.90 0.1249882
940.00 0.1249409
940.10 0.1248937
940.20 0.1248465
940.30 0.1247993
940.40 0.1247521
940.50 0.1247049
940.60 0.1246578
940.70 0.1246106
940.80 0.1245635
940.90 0.1245164
941.00 0.1244693
941.10 0.1244223
941.20 0.1243752
941.30 0.1243282
941.40 0.1242812
941.50 0.1242342
941.60 0.1241872
941.70 0.1241402
941.80 0.1240933
941.90 0.1240464
942.00 0.1239995
942.10 0.1239526
942.20 0.1239057
942.30 0.1238588
942.40 0.123812
942.50 0.1237652
942.60 0.1237184
942.70 0.1236716
942.80 0.1236248
942.90 0.123578
943.00 0.1235314
943.10 0.1234849
943.20 0.1234384
943.30 0.1233919
943.40 0.1233454
943.50 0.123299
943.60 0.1232525
943.70 0.1232061
943.80 0.1231597
943.90 0.1231133
944.00 0.123067
944.10 0.1230206
944.20 0.1229743
944.30 0.122928
944.40 0.1228817
944.50 0.1228354
944.60 0.1227891
944.70 0.1227429
944.80 0.1226966
944.90 0.1226504
945.00 0.1226042
945.10 0.122558
945.20 0.1225119
945.30 0.1224657
945.40 0.1224196
945.50 0.1223735
945.60 0.1223274
945.70 0.1222813
945.80 0.1222353
945.90 0.1221892
946.00 0.1221432
946.10 0.1220972
946.20 0.1220512
946.30 0.1220052
946.40 0.1219592
946.50 0.1219133
946.60 0.1218674
946.70 0.1218214
946.80 0.1217755
946.90 0.1217297
947.00 0.1216838
947.10 0.121638
947.20 0.1215921
947.30 0.1215463
947.40 0.1215005
947.50 0.1214547
947.60 0.121409
947.70 0.1213632
947.80 0.1213175
947.90 0.1212718
948.00 0.1212261
948.10 0.1211804
948.20 0.1211347
948.30 0.1210891
948.40 0.1210435
948.50 0.1209979
948.60 0.1209523
948.70 0.1209067
948.80 0.1208611
948.90 0.1208156
949.00 0.12077
949.10 0.1207245
949.20 0.120679
949.30 0.1206335
949.40 0.1205881
949.50 0.1205426
949.60 0.1204972
949.70 0.1204518
949.80 0.1204064
949.90 0.120361
950.00 0.1203156
950.10 0.1202703
950.20 0.120225
950.30 0.1201796
950.40 0.1201343
950.50 0.1200891
950.60 0.1200438
950.70 0.1199985
950.80 0.1199533
950.90 0.1199081
951.00 0.1198629
951.10 0.1198177
951.20 0.1197725
951.30 0.1197274
951.40 0.1196822
951.50 0.1196371
951.60 0.119592
951.70 0.1195469
951.80 0.1195019
951.90 0.1194568
952.00 0.1194118
952.10 0.1193667
952.20 0.1193217
952.30 0.1192767
952.40 0.1192318
952.50 0.1191876
952.60 0.1191434
952.70 0.1190992
952.80 0.119055
952.90 0.1190108
953.00 0.1189667
953.10 0.1189226
953.20 0.1188784
953.30 0.1188343
953.40 0.1187903
953.50 0.1187462
953.60 0.1187021
953.70 0.1186581
953.80 0.1186141
953.90 0.1185701
954.00 0.1185261
954.10 0.1184821
954.20 0.1184382
954.30 0.1183942
954.40 0.1183503
954.50 0.1183064
954.60 0.1182625
954.70 0.1182186
954.80 0.1181747
954.90 0.1181309
955.00 0.1180871
955.10 0.1180433
955.20 0.1179995
955.30 0.1179557
955.40 0.1179119
955.50 0.1178681
955.60 0.1178244
955.70 0.1177807
955.80 0.117737
955.90 0.1176933
956.00 0.1176496
956.10 0.117606
956.20 0.1175623
956.30 0.1175187
956.40 0.1174751
956.50 0.1174315
956.60 0.1173879
956.70 0.1173443
956.80 0.1173008
956.90 0.1172573
957.00 0.1172137
957.10 0.1171702
957.20 0.1171268
957.30 0.1170833
957.40 0.1170398
957.50 0.1169964
957.60 0.116953
957.70 0.1169096
957.80 0.1168662
957.90 0.1168228
958.00 0.1167794
958.10 0.1167361
958.20 0.1166928
958.30 0.1166494
958.40 0.1166061
958.50 0.1165629
958.60 0.1165196
958.70 0.1164763
958.80 0.1164331
958.90 0.1163899
959.00 0.1163467
959.10 0.1163035
959.20 0.1162603
959.30 0.1162171
959.40 0.116174
959.50 0.1161309
959.60 0.1160878
959.70 0.1160447
959.80 0.1160016
959.90 0.1159585
960.00 0.1159155
960.10 0.1158724
960.20 0.1158294
960.30 0.1157864
960.40 0.1157434
960.50 0.1157004
960.60 0.1156575
960.70 0.1156145
960.80 0.1155716
960.90 0.1155287
961.00 0.1154858
961.10 0.1154429
961.20 0.1154
961.30 0.1153572
961.40 0.1153144
961.50 0.1152715
961.60 0.1152287
961.70 0.1151859
961.80 0.1151432
961.90 0.1151004
962.00 0.1150578
962.10 0.1150153
962.20 0.1149727
962.30 0.1149302
962.40 0.1148877
962.50 0.1148453
962.60 0.1148028
962.70 0.1147603
962.80 0.1147179
962.90 0.1146755
963.00 0.1146331
963.10 0.1145907
963.20 0.1145483
963.30 0.1145059
963.40 0.1144636
963.50 0.1144213
963.60 0.1143789
963.70 0.1143366
963.80 0.1142944
963.90 0.1142521
964.00 0.1142098
964.10 0.1141676
964.20 0.1141254
964.30 0.1140832
964.40 0.114041
964.50 0.1139988
964.60 0.1139566
964.70 0.1139145
964.80 0.1138723
964.90 0.1138302
965.00 0.1137881
965.10 0.113746
965.20 0.1137039
965.30 0.1136619
965.40 0.1136198
965.50 0.1135778
965.60 0.1135358
965.70 0.1134938
965.80 0.1134518
965.90 0.1134098
966.00 0.1133679
966.10 0.1133259
966.20 0.113284
966.30 0.1132421
966.40 0.1132002
966.50 0.1131583
966.60 0.1131165
966.70 0.1130746
966.80 0.1130328
966.90 0.1129909
967.00 0.1129491
967.10 0.1129073
967.20 0.1128656
967.30 0.1128238
967.40 0.1127821
967.50 0.1127403
967.60 0.1126986
967.70 0.1126569
967.80 0.1126152
967.90 0.1125735
968.00 0.1125319
968.10 0.1124902
968.20 0.1124486
968.30 0.112407
968.40 0.1123654
968.50 0.1123238
968.60 0.1122823
968.70 0.1122407
968.80 0.1121992
968.90 0.1121576
969.00 0.1121161
969.10 0.1120746
969.20 0.1120331
969.30 0.1119917
969.40 0.1119502
969.50 0.1119088
969.60 0.1118674
969.70 0.111826
969.80 0.1117846
969.90 0.1117432
970.00 0.1117018
970.10 0.1116605
970.20 0.1116191
970.30 0.1115778
970.40 0.1115365
970.50 0.1114952
970.60 0.111454
970.70 0.1114127
970.80 0.1113715
970.90 0.1113302
971.00 0.111289
971.10 0.1112478
971.20 0.1112066
971.30 0.1111654
971.40 0.1111243
971.50 0.1110831
971.60 0.1110423
971.70 0.1110018
971.80 0.1109612
971.90 0.1109206
972.00 0.11088
972.10 0.1108395
972.20 0.110799
972.30 0.1107585
972.40 0.110718
972.50 0.1106775
972.60 0.110637
972.70 0.1105965
972.80 0.1105561
972.90 0.1105157
973.00 0.1104753
973.10 0.1104349
973.20 0.1103945
973.30 0.1103541
973.40 0.1103138
973.50 0.1102734
973.60 0.1102331
973.70 0.1101928
973.80 0.1101525
973.90 0.1101122
974.00 0.1100719
974.10 0.1100317
974.20 0.1099914
974.30 0.1099512
974.40 0.109911
974.50 0.1098708
974.60 0.1098306
974.70 0.1097904
974.80 0.1097503
974.90 0.1097101
975.00 0.10967
975.10 0.1096299
975.20 0.1095898
975.30 0.1095497
975.40 0.1095096
975.50 0.1094696
975.60 0.1094295
975.70 0.1093895
975.80 0.1093495
975.90 0.1093095
976.00 0.1092695
976.10 0.1092295
976.20 0.1091896
976.30 0.1091496
976.40 0.1091097
976.50 0.1090698
976.60 0.1090299
976.70 0.10899
976.80 0.1089501
976.90 0.1089102
977.00 0.1088704
977.10 0.1088306
977.20 0.1087907
977.30 0.1087509
977.40 0.1087111
977.50 0.1086714
977.60 0.1086316
977.70 0.1085919
977.80 0.1085521
977.90 0.1085124
978.00 0.1084727
978.10 0.108433
978.20 0.1083933
978.30 0.1083537
978.40 0.108314
978.50 0.1082744
978.60 0.1082347
978.70 0.1081951
978.80 0.1081555
978.90 0.108116
979.00 0.1080764
979.10 0.1080368
979.20 0.1079973
979.30 0.1079578
979.40 0.1079183
979.50 0.1078788
979.60 0.1078393
979.70 0.1077998
979.80 0.1077604
979.90 0.1077209
980.00 0.1076815
980.10 0.1076421
980.20 0.1076027
980.30 0.1075633
980.40 0.1075239
980.50 0.1074845
980.60 0.1074452
980.70 0.1074059
980.80 0.1073666
980.90 0.1073272
981.00 0.107288
981.10 0.1072487
981.20 0.1072094
981.30 0.1071703
981.40 0.1071314
981.50 0.1070926
981.60 0.1070537
981.70 0.1070148
981.80 0.106976
981.90 0.1069371
982.00 0.1068983
982.10 0.1068595
982.20 0.1068207
982.30 0.106782
982.40 0.1067432
982.50 0.1067044
982.60 0.1066657
982.70 0.106627
982.80 0.1065883
982.90 0.1065496
983.00 0.1065109
983.10 0.1064722
983.20 0.1064336
983.30 0.1063949
983.40 0.1063563
983.50 0.1063177
983.60 0.1062791
983.70 0.1062405
983.80 0.1062019
983.90 0.1061634
984.00 0.1061248
984.10 0.1060863
984.20 0.1060478
984.30 0.1060093
984.40 0.1059708
984.50 0.1059323
984.60 0.1058938
984.70 0.1058554
984.80 0.1058169
984.90 0.1057785
985.00 0.1057401
985.10 0.1057017
985.20 0.1056633
985.30 0.1056249
985.40 0.1055866
985.50 0.1055482
985.60 0.1055099
985.70 0.1054716
985.80 0.1054333
985.90 0.105395
986.00 0.1053567
986.10 0.1053185
986.20 0.1052802
986.30 0.105242
986.40 0.1052037
986.50 0.1051655
986.60 0.1051273
986.70 0.1050891
986.80 0.105051
986.90 0.1050128
987.00 0.1049747
987.10 0.1049365
987.20 0.1048984
987.30 0.1048603
987.40 0.1048222
987.50 0.1047841
987.60 0.1047461
987.70 0.104708
987.80 0.10467
987.90 0.104632
988.00 0.104594
988.10 0.104556
988.20 0.104518
988.30 0.10448
988.40 0.104442
988.50 0.1044041
988.60 0.1043662
988.70 0.1043282
988.80 0.1042903
988.90 0.1042524
989.00 0.1042146
989.10 0.1041767
989.20 0.1041388
989.30 0.104101
989.40 0.1040632
989.50 0.1040254
989.60 0.1039876
989.70 0.1039498
989.80 0.103912
989.90 0.1038742
990.00 0.1038365
990.10 0.1037987
990.20 0.103761
990.30 0.1037233
990.40 0.1036856
990.50 0.1036479
990.60 0.1036103
990.70 0.1035726
990.80 0.103535
990.90 0.1034973
991.00 0.1034597
991.10 0.1034222
991.20 0.103385
991.30 0.1033477
991.40 0.1033105
991.50 0.1032732
991.60 0.103236
991.70 0.1031988
991.80 0.1031616
991.90 0.1031244
992.00 0.1030873
992.10 0.1030501
992.20 0.103013
992.30 0.1029759
992.40 0.1029387
992.50 0.1029016
992.60 0.1028645
992.70 0.1028275
992.80 0.1027904
992.90 0.1027534
993.00 0.1027163
993.10 0.1026793
993.20 0.1026423
993.30 0.1026053
993.40 0.1025683
993.50 0.1025313
993.60 0.1024944
993.70 0.1024574
993.80 0.1024205
993.90 0.1023836
994.00 0.1023466
994.10 0.1023097
994.20 0.1022729
994.30 0.102236
994.40 0.1021991
994.50 0.1021623
994.60 0.1021255
994.70 0.1020886
994.80 0.1020518
994.90 0.102015
995.00 0.1019782
995.10 0.1019415
995.20 0.1019047
995.30 0.101868
995.40 0.1018312
995.50 0.1017945
995.60 0.1017578
995.70 0.1017211
995.80 0.1016844
995.90 0.1016478
996.00 0.1016111
996.10 0.1015745
996.20 0.1015379
996.30 0.1015012
996.40 0.1014646
996.50 0.1014281
996.60 0.1013915
996.70 0.1013549
996.80 0.1013184
996.90 0.1012818
997.00 0.1012453
997.10 0.1012088
997.20 0.1011723
997.30 0.1011358
997.40 0.1010993
997.50 0.1010629
997.60 0.1010264
997.70 0.10099
997.80 0.1009536
997.90 0.1009171
998.00 0.1008807
998.10 0.1008444
998.20 0.100808
998.30 0.1007716
998.40 0.1007353
998.50 0.1006989
998.60 0.1006626
998.70 0.1006263
998.80 0.10059
998.90 0.1005537
999.00 0.1005174
999.10 0.1004812
999.20 0.1004449
999.30 0.1004087
999.40 0.1003725
999.50 0.1003363
999.60 0.1003001
999.70 0.1002639
999.80 0.1002277
999.90 0.1001915
1000.00 0.1001554
1000.10 0.1001192
1000.20 0.1000831
1000.30 0.100047
1000.40 0.1000109
1000.50 0.09997482
1000.60 0.09993874
1000.70 0.09990268
1000.80 0.09986663
1000.90 0.0998306
1001.00 0.09979461
1001.10 0.09975876
1001.20 0.09972291
1001.30 0.09968708
1001.40 0.09965126
1001.50 0.09961546
1001.60 0.09957966
1001.70 0.09954388
1001.80 0.09950811
1001.90 0.09947236
1002.00 0.09943661
1002.10 0.09940088
1002.20 0.09936516
1002.30 0.09932945
1002.40 0.09929376
1002.50 0.09925807
1002.60 0.0992224
1002.70 0.09918675
1002.80 0.0991511
1002.90 0.09911546
1003.00 0.09907984
1003.10 0.09904423
1003.20 0.09900864
1003.30 0.09897305
1003.40 0.09893748
1003.50 0.09890192
1003.60 0.09886637
1003.70 0.09883083
1003.80 0.09879531
1003.90 0.0987598
1004.00 0.0987243
1004.10 0.09868881
1004.20 0.09865333
1004.30 0.09861787
1004.40 0.09858242
1004.50 0.09854698
1004.60 0.09851155
1004.70 0.09847614
1004.80 0.09844074
1004.90 0.09840535
1005.00 0.09836997
1005.10 0.0983346
1005.20 0.09829925
1005.30 0.09826391
1005.40 0.09822858
1005.50 0.09819326
1005.60 0.09815795
1005.70 0.09812266
1005.80 0.09808738
1005.90 0.09805211
1006.00 0.09801692
1006.10 0.09798197
1006.20 0.09794704
1006.30 0.09791212
1006.40 0.09787721
1006.50 0.09784231
1006.60 0.09780743
1006.70 0.09777255
1006.80 0.09773769
1006.90 0.09770284
1007.00 0.097668
1007.10 0.09763318
1007.20 0.09759836
1007.30 0.09756356
1007.40 0.09752877
1007.50 0.09749399
1007.60 0.09745923
1007.70 0.09742447
1007.80 0.09738973
1007.90 0.097355
1008.00 0.09732028
1008.10 0.09728558
1008.20 0.09725088
1008.30 0.0972162
1008.40 0.09718153
1008.50 0.09714687
1008.60 0.09711222
1008.70 0.09707758
1008.80 0.09704296
1008.90 0.09700835
1009.00 0.09697375
1009.10 0.09693916
1009.20 0.09690458
1009.30 0.09687002
1009.40 0.09683546
1009.50 0.09680092
1009.60 0.09676639
1009.70 0.09673188
1009.80 0.09669737
1009.90 0.09666287
1010.00 0.09662839
1010.10 0.09659392
1010.20 0.09655946
1010.30 0.09652502
1010.40 0.09649058
1010.50 0.09645616
1010.60 0.09642174
1010.70 0.09638734
1010.80 0.09635296
1010.90 0.09631858
1011.00 0.09628424
1011.10 0.09625004
1011.20 0.09621585
1011.30 0.09618168
1011.40 0.09614751
1011.50 0.09611336
1011.60 0.09607922
1011.70 0.09604509
1011.80 0.09601097
1011.90 0.09597687
1012.00 0.09594277
1012.10 0.09590869
1012.20 0.09587462
1012.30 0.09584056
1012.40 0.09580651
1012.50 0.09577248
1012.60 0.09573845
1012.70 0.09570444
1012.80 0.09567044
1012.90 0.09563645
1013.00 0.09560247
1013.10 0.0955685
1013.20 0.09553455
1013.30 0.0955006
1013.40 0.09546667
1013.50 0.09543275
1013.60 0.09539884
1013.70 0.09536494
1013.80 0.09533106
1013.90 0.09529718
1014.00 0.09526332
1014.10 0.09522947
1014.20 0.09519563
1014.30 0.0951618
1014.40 0.09512798
1014.50 0.09509417
1014.60 0.09506038
1014.70 0.0950266
1014.80 0.09499283
1014.90 0.09495907
1015.00 0.09492532
1015.10 0.09489158
1015.20 0.09485785
1015.30 0.09482414
1015.40 0.09479044
1015.50 0.09475675
1015.60 0.09472307
1015.70 0.0946894
1015.80 0.09465574
1015.90 0.0946221
1016.00 0.09458846
1016.10 0.09455484
1016.20 0.09452123
1016.30 0.09448763
1016.40 0.09445404
1016.50 0.09442046
1016.60 0.0943869
1016.70 0.09435334
1016.80 0.0943198
1016.90 0.09428627
1017.00 0.09425275
1017.10 0.09421924
1017.20 0.09418574
1017.30 0.09415225
1017.40 0.09411878
1017.50 0.09408532
1017.60 0.09405186
1017.70 0.09401842
1017.80 0.09398499
1017.90 0.09395158
1018.00 0.09391817
1018.10 0.09388477
1018.20 0.09385139
1018.30 0.09381802
1018.40 0.09378465
1018.50 0.0937513
1018.60 0.09371797
1018.70 0.09368464
1018.80 0.09365132
1018.90 0.09361802
1019.00 0.09358472
1019.10 0.09355144
1019.20 0.09351817
1019.30 0.09348491
1019.40 0.09345166
1019.50 0.09341842
1019.60 0.09338519
1019.70 0.09335198
1019.80 0.09331878
1019.90 0.09328558
1020.00 0.0932524
1020.10 0.09321923
1020.20 0.09318607
1020.30 0.09315292
1020.40 0.09311979
1020.50 0.09308666
1020.60 0.09305355
1020.70 0.09302044
1020.80 0.09298735
1020.90 0.09295427
1021.00 0.0929212
1021.10 0.09288815
1021.20 0.09285526
1021.30 0.09282237
1021.40 0.09278949
1021.50 0.09275663
1021.60 0.09272377
1021.70 0.09269093
1021.80 0.0926581
1021.90 0.09262527
1022.00 0.09259246
1022.10 0.09255966
1022.20 0.09252688
1022.30 0.0924941
1022.40 0.09246133
1022.50 0.09242858
1022.60 0.09239584
1022.70 0.0923631
1022.80 0.09233038
1022.90 0.09229767
1023.00 0.09226497
1023.10 0.09223228
1023.20 0.0921996
1023.30 0.09216694
1023.40 0.09213428
1023.50 0.09210164
1023.60 0.092069
1023.70 0.09203638
1023.80 0.09200377
1023.90 0.09197117
1024.00 0.09193858
1024.10 0.091906
1024.20 0.09187343
1024.30 0.09184088
1024.40 0.09180833
1024.50 0.0917758
1024.60 0.09174327
1024.70 0.09171076
1024.80 0.09167826
1024.90 0.09164577
1025.00 0.09161329
1025.10 0.09158082
1025.20 0.09154836
1025.30 0.09151591
1025.40 0.09148347
1025.50 0.09145105
1025.60 0.09141863
1025.70 0.09138623
1025.80 0.09135384
1025.90 0.09132146
1026.00 0.09128908
1026.10 0.09125672
1026.20 0.09122438
1026.30 0.09119232
1026.40 0.09116028
1026.50 0.09112824
1026.60 0.09109622
1026.70 0.09106421
1026.80 0.0910322
1026.90 0.09100021
1027.00 0.09096823
1027.10 0.09093626
1027.20 0.0909043
1027.30 0.09087236
1027.40 0.09084042
1027.50 0.09080849
1027.60 0.09077658
1027.70 0.09074467
1027.80 0.09071278
1027.90 0.09068089
1028.00 0.09064902
1028.10 0.09061716
1028.20 0.0905853
1028.30 0.09055346
1028.40 0.09052163
1028.50 0.09048981
1028.60 0.090458
1028.70 0.0904262
1028.80 0.09039442
1028.90 0.09036264
1029.00 0.09033087
1029.10 0.09029911
1029.20 0.09026737
1029.30 0.09023563
1029.40 0.09020391
1029.50 0.0901722
1029.60 0.09014049
1029.70 0.0901088
1029.80 0.09007712
1029.90 0.09004545
1030.00 0.09001379
1030.10 0.08998214
1030.20 0.0899505
1030.30 0.08991887
1030.40 0.08988725
1030.50 0.08985564
1030.60 0.08982405
1030.70 0.08979246
1030.80 0.08976089
1030.90 0.08972932
1031.00 0.08969777
1031.10 0.08966622
1031.20 0.08963469
1031.30 0.08960316
1031.40 0.08957152
1031.50 0.08953988
1031.60 0.08950825
1031.70 0.08947663
1031.80 0.08944503
1031.90 0.08941343
1032.00 0.08938184
1032.10 0.08935027
1032.20 0.0893187
1032.30 0.08928715
1032.40 0.0892556
1032.50 0.08922407
1032.60 0.08919255
1032.70 0.08916103
1032.80 0.08912953
1032.90 0.08909804
1033.00 0.08906656
1033.10 0.08903509
1033.20 0.08900363
1033.30 0.08897218
1033.40 0.08894074
1033.50 0.08890931
1033.60 0.08887789
1033.70 0.08884649
1033.80 0.08881509
1033.90 0.0887837
1034.00 0.08875233
1034.10 0.08872096
1034.20 0.0886896
1034.30 0.08865826
1034.40 0.08862693
1034.50 0.0885956
1034.60 0.08856429
1034.70 0.08853299
1034.80 0.08850169
1034.90 0.08847041
1035.00 0.08843914
1035.10 0.08840788
1035.20 0.08837663
1035.30 0.08834539
1035.40 0.08831416
1035.50 0.08828294
1035.60 0.08825173
1035.70 0.08822053
1035.80 0.08818934
1035.90 0.08815817
1036.00 0.088127
1036.10 0.08809584
1036.20 0.0880647
1036.30 0.08803356
1036.40 0.08800243
1036.50 0.08797153
1036.60 0.08794098
1036.70 0.08791044
1036.80 0.0878799
1036.90 0.08784938
1037.00 0.08781887
1037.10 0.08778836
1037.20 0.08775787
1037.30 0.08772739
1037.40 0.08769692
1037.50 0.08766645
1037.60 0.087636
1037.70 0.08760556
1037.80 0.08757513
1037.90 0.08754471
1038.00 0.08751429
1038.10 0.08748389
1038.20 0.0874535
1038.30 0.08742312
1038.40 0.08739275
1038.50 0.08736239
1038.60 0.08733204
1038.70 0.08730169
1038.80 0.08727136
1038.90 0.08724104
1039.00 0.08721073
1039.10 0.08718043
1039.20 0.08715014
1039.30 0.08711986
1039.40 0.08708959
1039.50 0.08705933
1039.60 0.08702908
1039.70 0.08699883
1039.80 0.0869686
1039.90 0.08693838
1040.00 0.08690817
1040.10 0.08687797
1040.20 0.08684778
1040.30 0.0868176
1040.40 0.08678743
1040.50 0.08675727
1040.60 0.08672712
1040.70 0.08669698
1040.80 0.08666685
1040.90 0.08663673
1041.00 0.08660662
1041.10 0.08657651
1041.20 0.08654642
1041.30 0.08651634
1041.40 0.08648627
1041.50 0.08645621
1041.60 0.08642616
1041.70 0.086396
1041.80 0.08636584
1041.90 0.08633568
1042.00 0.08630553
1042.10 0.08627539
1042.20 0.08624526
1042.30 0.08621514
1042.40 0.08618503
1042.50 0.08615494
1042.60 0.08612485
1042.70 0.08609477
1042.80 0.0860647
1042.90 0.08603464
1043.00 0.08600459
1043.10 0.08597455
1043.20 0.08594452
1043.30 0.0859145
1043.40 0.0858845
1043.50 0.0858545
1043.60 0.08582451
1043.70 0.08579453
1043.80 0.08576456
1043.90 0.0857346
1044.00 0.08570465
1044.10 0.08567471
1044.20 0.08564478
1044.30 0.08561486
1044.40 0.08558495
1044.50 0.08555505
1044.60 0.08552516
1044.70 0.08549528
1044.80 0.08546541
1044.90 0.08543555
1045.00 0.0854057
1045.10 0.08537585
1045.20 0.08534602
1045.30 0.0853162
1045.40 0.08528639
1045.50 0.08525659
1045.60 0.0852268
1045.70 0.08519702
1045.80 0.08516724
1045.90 0.08513748
1046.00 0.08510773
1046.10 0.08507799
1046.20 0.08504825
1046.30 0.08501853
1046.40 0.08498882
1046.50 0.08495911
1046.60 0.08492942
1046.70 0.08489974
1046.80 0.08487006
1046.90 0.0848406
1047.00 0.08481121
1047.10 0.08478184
1047.20 0.08475247
1047.30 0.08472312
1047.40 0.08469377
1047.50 0.08466443
1047.60 0.0846351
1047.70 0.08460579
1047.80 0.08457648
1047.90 0.08454718
1048.00 0.08451789
1048.10 0.08448861
1048.20 0.08445934
1048.30 0.08443008
1048.40 0.08440083
1048.50 0.08437159
1048.60 0.08434236
1048.70 0.08431314
1048.80 0.08428393
1048.90 0.08425472
1049.00 0.08422553
1049.10 0.08419635
1049.20 0.08416717
1049.30 0.08413801
1049.40 0.08410886
1049.50 0.08407971
1049.60 0.08405058
1049.70 0.08402145
1049.80 0.08399233
1049.90 0.08396323
1050.00 0.08393413
1050.10 0.08390504
1050.20 0.08387597
1050.30 0.0838469
1050.40 0.08381784
1050.50 0.08378879
1050.60 0.08375975
1050.70 0.08373072
1050.80 0.0837017
1050.90 0.08367269
1051.00 0.08364369
1051.10 0.0836147
1051.20 0.08358571
1051.30 0.08355674
1051.40 0.08352778
1051.50 0.08349882
1051.60 0.08346988
1051.70 0.08344094
1051.80 0.08341202
1051.90 0.0833831
1052.00 0.0833542
1052.10 0.08332539
1052.20 0.08329663
1052.30 0.08326788
1052.40 0.08323914
1052.50 0.08321041
1052.60 0.08318169
1052.70 0.08315298
1052.80 0.08312428
1052.90 0.08309559
1053.00 0.08306691
1053.10 0.08303824
1053.20 0.08300957
1053.30 0.08298092
1053.40 0.08295228
1053.50 0.08292364
1053.60 0.08289502
1053.70 0.0828664
1053.80 0.08283779
1053.90 0.0828092
1054.00 0.08278061
1054.10 0.08275203
1054.20 0.08272346
1054.30 0.0826949
1054.40 0.08266635
1054.50 0.08263781
1054.60 0.08260927
1054.70 0.08258075
1054.80 0.08255224
1054.90 0.08252373
1055.00 0.08249524
1055.10 0.08246675
1055.20 0.08243828
1055.30 0.08240981
1055.40 0.08238135
1055.50 0.08235291
1055.60 0.08232447
1055.70 0.08229604
1055.80 0.08226762
1055.90 0.08223921
1056.00 0.0822108
1056.10 0.08218241
1056.20 0.08215403
1056.30 0.08212565
1056.40 0.08209729
1056.50 0.08206893
1056.60 0.08204059
1056.70 0.08201225
1056.80 0.08198392
1056.90 0.08195561
1057.00 0.0819273
1057.10 0.081899
1057.20 0.08187071
1057.30 0.08184243
1057.40 0.08181415
1057.50 0.08178589
1057.60 0.08175764
1057.70 0.08172939
1057.80 0.08170116
1057.90 0.08167293
1058.00 0.08164471
1058.10 0.08161651
1058.20 0.08158831
1058.30 0.08156012
1058.40 0.08153194
1058.50 0.08150377
1058.60 0.08147561
1058.70 0.08144745
1058.80 0.08141931
1058.90 0.08139118
1059.00 0.08136305
1059.10 0.08133494
1059.20 0.08130683
1059.30 0.08127873
1059.40 0.08125064
1059.50 0.08122257
1059.60 0.0811945
1059.70 0.08116643
1059.80 0.08113838
1059.90 0.08111034
1060.00 0.08108231
1060.10 0.08105428
1060.20 0.08102627
1060.30 0.08099826
1060.40 0.08097026
1060.50 0.08094228
1060.60 0.0809143
1060.70 0.08088633
1060.80 0.08085837
1060.90 0.08083042
1061.00 0.08080248
1061.10 0.08077454
1061.20 0.08074662
1061.30 0.0807187
1061.40 0.0806908
1061.50 0.0806629
1061.60 0.08063501
1061.70 0.08060713
1061.80 0.08057926
1061.90 0.0805514
1062.00 0.08052355
1062.10 0.08049571
1062.20 0.08046788
1062.30 0.08044005
1062.40 0.08041224
1062.50 0.08038443
1062.60 0.08035669
1062.70 0.08032903
1062.80 0.08030138
1062.90 0.08027373
1063.00 0.0802461
1063.10 0.08021847
1063.20 0.08019085
1063.30 0.08016324
1063.40 0.08013564
1063.50 0.08010805
1063.60 0.08008047
1063.70 0.08005289
1063.80 0.08002533
1063.90 0.07999778
1064.00 0.07997023
1064.10 0.07994269
1064.20 0.07991516
1064.30 0.07988764
1064.40 0.07986013
1064.50 0.07983263
1064.60 0.07980514
1064.70 0.07977766
1064.80 0.07975018
1064.90 0.07972271
1065.00 0.07969526
1065.10 0.07966781
1065.20 0.07964037
1065.30 0.07961294
1065.40 0.07958552
1065.50 0.07955811
1065.60 0.0795307
1065.70 0.07950331
1065.80 0.07947592
1065.90 0.07944854
1066.00 0.07942118
1066.10 0.07939382
1066.20 0.07936647
1066.30 0.07933912
1066.40 0.07931179
1066.50 0.07928447
1066.60 0.07925715
1066.70 0.07922985
1066.80 0.07920255
1066.90 0.07917526
1067.00 0.07914798
1067.10 0.07912071
1067.20 0.07909345
1067.30 0.0790662
1067.40 0.07903895
1067.50 0.07901172
1067.60 0.07898449
1067.70 0.07895727
1067.80 0.07893006
1067.90 0.07890294
1068.00 0.078876
1068.10 0.07884907
1068.20 0.07882215
1068.30 0.07879524
1068.40 0.07876833
1068.50 0.07874143
1068.60 0.07871454
1068.70 0.07868767
1068.80 0.07866079
1068.90 0.07863393
1069.00 0.07860708
1069.10 0.07858023
1069.20 0.0785534
1069.30 0.07852657
1069.40 0.07849975
1069.50 0.07847294
1069.60 0.07844614
1069.70 0.07841935
1069.80 0.07839256
1069.90 0.07836579
1070.00 0.07833902
1070.10 0.07831226
1070.20 0.07828551
1070.30 0.07825877
1070.40 0.07823204
1070.50 0.07820532
1070.60 0.0781786
1070.70 0.07815189
1070.80 0.0781252
1070.90 0.07809851
1071.00 0.07807183
1071.10 0.07804515
1071.20 0.07801849
1071.30 0.07799184
1071.40 0.07796519
1071.50 0.07793855
1071.60 0.07791192
1071.70 0.0778853
1071.80 0.07785869
1071.90 0.07783209
1072.00 0.07780549
1072.10 0.07777891
1072.20 0.07775233
1072.30 0.07772576
1072.40 0.0776992
1072.50 0.07767265
1072.60 0.0776461
1072.70 0.07761957
1072.80 0.07759304
1072.90 0.07756652
1073.00 0.07754001
1073.10 0.07751351
1073.20 0.07748705
1073.30 0.07746068
1073.40 0.07743433
1073.50 0.07740798
1073.60 0.07738165
1073.70 0.07735532
1073.80 0.077329
1073.90 0.07730269
1074.00 0.07727638
1074.10 0.07725009
1074.20 0.0772238
1074.30 0.07719753
1074.40 0.07717126
1074.50 0.07714499
1074.60 0.07711874
1074.70 0.0770925
1074.80 0.07706626
1074.90 0.07704004
1075.00 0.07701382
1075.10 0.07698761
1075.20 0.0769614
1075.30 0.07693521
1075.40 0.07690903
1075.50 0.07688285
1075.60 0.07685668
1075.70 0.07683052
1075.80 0.07680437
1075.90 0.07677823
1076.00 0.07675209
1076.10 0.07672596
1076.20 0.07669985
1076.30 0.07667374
1076.40 0.07664764
1076.50 0.07662154
1076.60 0.07659546
1076.70 0.07656938
1076.80 0.07654331
1076.90 0.07651725
1077.00 0.0764912
1077.10 0.07646516
1077.20 0.07643913
1077.30 0.0764131
1077.40 0.07638708
1077.50 0.07636107
1077.60 0.07633507
1077.70 0.07630908
1077.80 0.0762831
1077.90 0.07625712
1078.00 0.07623115
1078.10 0.07620519
1078.20 0.07617924
1078.30 0.0761533
1078.40 0.07612737
1078.50 0.07610144
1078.60 0.07607552
1078.70 0.07604961
1078.80 0.07602371
1078.90 0.07599782
1079.00 0.07597193
1079.10 0.07594606
1079.20 0.07592019
1079.30 0.07589433
1079.40 0.07586848
1079.50 0.07584264
1079.60 0.0758168
1079.70 0.07579097
1079.80 0.07576516
1079.90 0.07573935
1080.00 0.07571354
1080.10 0.07568775
1080.20 0.07566196
1080.30 0.07563619
1080.40 0.07561042
1080.50 0.07558466
1080.60 0.07555891
1080.70 0.07553316
1080.80 0.07550743
1080.90 0.0754817
1081.00 0.07545598
1081.10 0.07543027
1081.20 0.07540456
1081.30 0.07537887
1081.40 0.07535318
1081.50 0.07532751
1081.60 0.07530184
1081.70 0.07527617
1081.80 0.07525052
1081.90 0.07522487
1082.00 0.07519924
1082.10 0.07517361
1082.20 0.07514799
1082.30 0.07512237
1082.40 0.07509677
1082.50 0.07507117
1082.60 0.07504558
1082.70 0.07502
1082.80 0.07499443
1082.90 0.07496887
1083.00 0.07494331
1083.10 0.07491777
1083.20 0.07489223
1083.30 0.0748667
1083.40 0.07484117
1083.50 0.07481566
1083.60 0.07479015
1083.70 0.07476465
1083.80 0.07473916
1083.90 0.07471368
1084.00 0.07468852
1084.10 0.07466342
1084.20 0.07463832
1084.30 0.07461322
1084.40 0.07458814
1084.50 0.07456306
1084.60 0.07453799
1084.70 0.07451293
1084.80 0.07448788
1084.90 0.07446284
1085.00 0.0744378
1085.10 0.07441277
1085.20 0.07438775
1085.30 0.07436274
1085.40 0.07433773
1085.50 0.07431274
1085.60 0.07428775
1085.70 0.07426277
1085.80 0.07423779
1085.90 0.07421283
1086.00 0.07418787
1086.10 0.07416292
1086.20 0.07413798
1086.30 0.07411305
1086.40 0.07408812
1086.50 0.0740632
1086.60 0.07403829
1086.70 0.07401339
1086.80 0.0739885
1086.90 0.07396361
1087.00 0.07393873
1087.10 0.07391386
1087.20 0.073889
1087.30 0.07386415
1087.40 0.0738393
1087.50 0.07381446
1087.60 0.07378963
1087.70 0.07376481
1087.80 0.07373999
1087.90 0.07371519
1088.00 0.07369039
1088.10 0.0736656
1088.20 0.07364081
1088.30 0.07361604
1088.40 0.07359127
1088.50 0.07356651
1088.60 0.07354176
1088.70 0.07351701
1088.80 0.07349228
1088.90 0.07346755
1089.00 0.07344283
1089.10 0.07341812
1089.20 0.07339341
1089.30 0.07336871
1089.40 0.07334402
1089.50 0.07331934
1089.60 0.07329467
1089.70 0.07327
1089.80 0.07324534
1089.90 0.07322069
1090.00 0.07319604
1090.10 0.0731714
1090.20 0.07314678
1090.30 0.07312215
1090.40 0.07309754
1090.50 0.07307294
1090.60 0.07304834
1090.70 0.07302375
1090.80 0.07299917
1090.90 0.07297459
1091.00 0.07295003
1091.10 0.07292547
1091.20 0.07290092
1091.30 0.07287637
1091.40 0.07285184
1091.50 0.07282731
1091.60 0.07280279
1091.70 0.07277828
1091.80 0.07275378
1091.90 0.07272928
1092.00 0.07270479
1092.10 0.07268031
1092.20 0.07265584
1092.30 0.07263137
1092.40 0.07260691
1092.50 0.07258246
1092.60 0.07255802
1092.70 0.07253359
1092.80 0.07250916
1092.90 0.07248474
1093.00 0.07246033
1093.10 0.07243592
1093.20 0.07241153
1093.30 0.07238714
1093.40 0.07236276
1093.50 0.07233839
1093.60 0.07231402
1093.70 0.07228967
1093.80 0.07226532
1093.90 0.07224097
1094.00 0.07221664
1094.10 0.07219231
1094.20 0.07216799
1094.30 0.07214368
1094.40 0.07211938
1094.50 0.07209508
1094.60 0.07207079
1094.70 0.07204651
1094.80 0.0720223
1094.90 0.07199814
1095.00 0.071974
1095.10 0.07194986
1095.20 0.07192573
1095.30 0.07190161
1095.40 0.07187749
1095.50 0.07185338
1095.60 0.07182928
1095.70 0.07180519
1095.80 0.0717811
1095.90 0.07175703
1096.00 0.07173296
1096.10 0.07170889
1096.20 0.07168484
1096.30 0.07166079
1096.40 0.07163675
1096.50 0.07161272
1096.60 0.0715887
1096.70 0.07156468
1096.80 0.07154067
1096.90 0.07151667
1097.00 0.07149267
1097.10 0.07146869
1097.20 0.07144471
1097.30 0.07142074
1097.40 0.07139677
1097.50 0.07137282
1097.60 0.07134887
1097.70 0.07132493
1097.80 0.07130099
1097.90 0.07127707
1098.00 0.07125315
1098.10 0.07122924
1098.20 0.07120533
1098.30 0.07118144
1098.40 0.07115755
1098.50 0.07113367
1098.60 0.07110979
1098.70 0.07108593
1098.80 0.07106207
1098.90 0.07103822
1099.00 0.07101437
1099.10 0.07099054
1099.20 0.07096671
1099.30 0.07094289
1099.40 0.07091908
1099.50 0.07089527
1099.60 0.07087147
1099.70 0.07084768
1099.80 0.0708239
1099.90 0.07080012
1100.00 0.07077635
1100.10 0.07075259
1100.20 0.07072884
1100.30 0.07070509
1100.40 0.07068135
1100.50 0.07065762
1100.60 0.0706339
1100.70 0.07061018
1100.80 0.07058647
1100.90 0.07056277
1101.00 0.07053907
1101.10 0.07051539
1101.20 0.07049171
1101.30 0.07046804
1101.40 0.07044437
1101.50 0.07042072
1101.60 0.07039707
1101.70 0.07037342
1101.80 0.07034979
1101.90 0.07032616
1102.00 0.07030254
1102.10 0.07027893
1102.20 0.07025533
1102.30 0.07023173
1102.40 0.07020814
1102.50 0.07018456
1102.60 0.07016098
1102.70 0.07013741
1102.80 0.07011385
1102.90 0.0700903
1103.00 0.07006675
1103.10 0.07004321
1103.20 0.07001968
1103.30 0.06999616
1103.40 0.06997264
1103.50 0.06994913
1103.60 0.06992563
1103.70 0.06990214
1103.80 0.06987865
1103.90 0.06985517
1104.00 0.0698317
1104.10 0.06980824
1104.20 0.06978478
1104.30 0.06976133
1104.40 0.06973789
1104.50 0.06971445
1104.60 0.06969102
1104.70 0.0696676
1104.80 0.06964419
1104.90 0.06962078
1105.00 0.06959739
1105.10 0.06957399
1105.20 0.06955061
1105.30 0.06952723
1105.40 0.06950386
1105.50 0.0694805
1105.60 0.06945715
1105.70 0.06943381
1105.80 0.0694108
1105.90 0.0693878
1106.00 0.06936481
1106.10 0.06934182
1106.20 0.06931885
1106.30 0.06929588
1106.40 0.06927291
1106.50 0.06924996
1106.60 0.06922701
1106.70 0.06920406
1106.80 0.06918113
1106.90 0.0691582
1107.00 0.06913528
1107.10 0.06911237
1107.20 0.06908946
1107.30 0.06906656
1107.40 0.06904367
1107.50 0.06902079
1107.60 0.06899791
1107.70 0.06897504
1107.80 0.06895217
1107.90 0.06892932
1108.00 0.06890647
1108.10 0.06888363
1108.20 0.06886079
1108.30 0.06883796
1108.40 0.06881514
1108.50 0.06879233
1108.60 0.06876952
1108.70 0.06874672
1108.80 0.06872393
1108.90 0.06870115
1109.00 0.06867837
1109.10 0.0686556
1109.20 0.06863283
1109.30 0.06861008
1109.40 0.06858733
1109.50 0.06856458
1109.60 0.06854185
1109.70 0.06851912
1109.80 0.0684964
1109.90 0.06847369
1110.00 0.06845098
1110.10 0.06842828
1110.20 0.06840559
1110.30 0.0683829
1110.40 0.06836022
1110.50 0.06833755
1110.60 0.06831488
1110.70 0.06829223
1110.80 0.06826958
1110.90 0.06824693
1111.00 0.0682243
1111.10 0.06820167
1111.20 0.06817904
1111.30 0.06815643
1111.40 0.06813382
1111.50 0.06811122
1111.60 0.06808862
1111.70 0.06806604
1111.80 0.06804346
1111.90 0.06802088
1112.00 0.06799832
1112.10 0.06797576
1112.20 0.0679532
1112.30 0.06793066
1112.40 0.06790812
1112.50 0.06788559
1112.60 0.06786307
1112.70 0.06784055
1112.80 0.06781804
1112.90 0.06779554
1113.00 0.06777304
1113.10 0.06775055
1113.20 0.06772807
1113.30 0.06770559
1113.40 0.06768312
1113.50 0.06766066
1113.60 0.06763821
1113.70 0.06761576
1113.80 0.06759332
1113.90 0.06757089
1114.00 0.06754846
1114.10 0.06752604
1114.20 0.06750363
1114.30 0.06748122
1114.40 0.06745882
1114.50 0.06743643
1114.60 0.06741405
1114.70 0.06739167
1114.80 0.0673693
1114.90 0.06734694
1115.00 0.06732458
1115.10 0.06730223
1115.20 0.06727989
1115.30 0.06725755
1115.40 0.06723522
1115.50 0.0672129
1115.60 0.06719058
1115.70 0.06716827
1115.80 0.06714597
1115.90 0.06712368
1116.00 0.06710139
1116.10 0.06707911
1116.20 0.06705684
1116.30 0.06703457
1116.40 0.06701231
1116.50 0.06699006
1116.60 0.06696781
1116.70 0.06694557
1116.80 0.06692338
1116.90 0.06690126
1117.00 0.06687914
1117.10 0.06685703
1117.20 0.06683493
1117.30 0.06681283
1117.40 0.06679074
1117.50 0.06676866
1117.60 0.06674658
1117.70 0.06672452
1117.80 0.06670245
1117.90 0.0666804
1118.00 0.06665835
1118.10 0.06663631
1118.20 0.06661427
1118.30 0.06659224
1118.40 0.06657022
1118.50 0.06654821
1118.60 0.0665262
1118.70 0.0665042
1118.80 0.06648221
1118.90 0.06646022
1119.00 0.06643824
1119.10 0.06641626
1119.20 0.0663943
1119.30 0.06637234
1119.40 0.06635038
1119.50 0.06632844
1119.60 0.0663065
1119.70 0.06628456
1119.80 0.06626264
1119.90 0.06624072
1120.00 0.06621881
1120.10 0.0661969
1120.20 0.066175
1120.30 0.06615311
1120.40 0.06613122
1120.50 0.06610934
1120.60 0.06608747
1120.70 0.06606561
1120.80 0.06604375
1120.90 0.0660219
1121.00 0.06600005
1121.10 0.06597821
1121.20 0.06595638
1121.30 0.06593456
1121.40 0.06591274
1121.50 0.06589093
1121.60 0.06586912
1121.70 0.06584732
1121.80 0.06582553
1121.90 0.06580375
1122.00 0.06578197
1122.10 0.0657602
1122.20 0.06573843
1122.30 0.06571668
1122.40 0.06569506
1122.50 0.06567353
1122.60 0.06565201
1122.70 0.06563049
1122.80 0.06560899
1122.90 0.06558749
1123.00 0.06556599
1123.10 0.0655445
1123.20 0.06552302
1123.30 0.06550155
1123.40 0.06548008
1123.50 0.06545862
1123.60 0.06543716
1123.70 0.06541571
1123.80 0.06539427
1123.90 0.06537284
1124.00 0.06535141
1124.10 0.06532999
1124.20 0.06530857
1124.30 0.06528716
1124.40 0.06526576
1124.50 0.06524436
1124.60 0.06522297
1124.70 0.06520159
1124.80 0.06518022
1124.90 0.06515885
1125.00 0.06513748
1125.10 0.06511613
1125.20 0.06509478
1125.30 0.06507343
1125.40 0.0650521
1125.50 0.06503077
1125.60 0.06500944
1125.70 0.06498813
1125.80 0.06496682
1125.90 0.06494551
1126.00 0.06492422
1126.10 0.06490293
1126.20 0.06488164
1126.30 0.06486036
1126.40 0.06483909
1126.50 0.06481783
1126.60 0.06479657
1126.70 0.06477532
1126.80 0.06475407
1126.90 0.06473283
1127.00 0.0647116
1127.10 0.06469038
1127.20 0.06466916
1127.30 0.06464795
1127.40 0.06462674
1127.50 0.06460554
1127.60 0.06458435
1127.70 0.06456316
1127.80 0.06454198
1127.90 0.06452081
1128.00 0.06449972
1128.10 0.06447865
1128.20 0.0644576
1128.30 0.06443655
1128.40 0.06441551
1128.50 0.06439447
1128.60 0.06437344
1128.70 0.06435242
1128.80 0.0643314
1128.90 0.06431039
1129.00 0.06428939
1129.10 0.06426839
1129.20 0.0642474
1129.30 0.06422641
1129.40 0.06420543
1129.50 0.06418446
1129.60 0.0641635
1129.70 0.06414254
1129.80 0.06412158
1129.90 0.06410064
1130.00 0.0640797
1130.10 0.06405876
1130.20 0.06403784
1130.30 0.06401692
1130.40 0.063996
1130.50 0.06397509
1130.60 0.06395419
1130.70 0.0639333
1130.80 0.06391241
1130.90 0.06389153
1131.00 0.06387065
1131.10 0.06384978
1131.20 0.06382892
1131.30 0.06380806
1131.40 0.06378721
1131.50 0.06376636
1131.60 0.06374553
1131.70 0.0637247
1131.80 0.06370387
1131.90 0.06368305
1132.00 0.06366224
1132.10 0.06364143
1132.20 0.06362063
1132.30 0.06359984
1132.40 0.06357905
1132.50 0.06355827
1132.60 0.0635375
1132.70 0.06351673
1132.80 0.06349597
1132.90 0.06347522
1133.00 0.06345447
1133.10 0.06343372
1133.20 0.06341299
1133.30 0.06339226
1133.40 0.06337153
1133.50 0.06335082
1133.60 0.06333011
1133.70 0.0633094
1133.80 0.0632887
1133.90 0.06326801
1134.00 0.06324733
1134.10 0.06322665
1134.20 0.06320597
1134.30 0.06318531
1134.40 0.06316465
1134.50 0.06314399
1134.60 0.06312335
1134.70 0.0631027
1134.80 0.06308207
1134.90 0.06306144
1135.00 0.06304082
1135.10 0.0630202
1135.20 0.06299959
1135.30 0.06297899
1135.40 0.06295839
1135.50 0.0629378
1135.60 0.06291721
1135.70 0.06289664
1135.80 0.06287606
1135.90 0.0628555
1136.00 0.06283494
1136.10 0.06281438
1136.20 0.06279384
1136.30 0.0627733
1136.40 0.06275276
1136.50 0.06273223
1136.60 0.06271171
1136.70 0.06269119
1136.80 0.06267069
1136.90 0.06265018
1137.00 0.06262968
1137.10 0.06260919
1137.20 0.06258871
1137.30 0.06256823
1137.40 0.06254776
1137.50 0.06252729
1137.60 0.06250683
1137.70 0.06248638
1137.80 0.06246593
1137.90 0.06244549
1138.00 0.06242506
1138.10 0.06240463
1138.20 0.0623842
1138.30 0.06236379
1138.40 0.06234338
1138.50 0.06232297
1138.60 0.06230258
1138.70 0.06228218
1138.80 0.0622618
1138.90 0.06224142
1139.00 0.06222105
1139.10 0.06220068
1139.20 0.06218032
1139.30 0.06216016
1139.40 0.06214001
1139.50 0.06211986
1139.60 0.06209972
1139.70 0.06207959
1139.80 0.06205946
1139.90 0.06203934
1140.00 0.06201923
1140.10 0.06199912
1140.20 0.06197902
1140.30 0.06195892
1140.40 0.06193883
1140.50 0.06191874
1140.60 0.06189867
1140.70 0.06187859
1140.80 0.06185853
1140.90 0.06183847
1141.00 0.06181841
1141.10 0.06179837
1141.20 0.06177832
1141.30 0.06175829
1141.40 0.06173826
1141.50 0.06171824
1141.60 0.06169822
1141.70 0.06167821
1141.80 0.0616582
1141.90 0.0616382
1142.00 0.06161821
1142.10 0.06159822
1142.20 0.06157824
1142.30 0.06155826
1142.40 0.0615383
1142.50 0.06151833
1142.60 0.06149838
1142.70 0.06147843
1142.80 0.06145848
1142.90 0.06143854
1143.00 0.06141861
1143.10 0.06139868
1143.20 0.06137876
1143.30 0.06135885
1143.40 0.06133894
1143.50 0.06131904
1143.60 0.06129914
1143.70 0.06127925
1143.80 0.06125936
1143.90 0.06123949
1144.00 0.06121961
1144.10 0.06119975
1144.20 0.06117989
1144.30 0.06116003
1144.40 0.06114018
1144.50 0.06112034
1144.60 0.0611005
1144.70 0.06108067
1144.80 0.06106085
1144.90 0.06104103
1145.00 0.06102122
1145.10 0.06100141
1145.20 0.06098161
1145.30 0.06096182
1145.40 0.06094203
1145.50 0.06092225
1145.60 0.06090247
1145.70 0.0608827
1145.80 0.06086293
1145.90 0.06084317
1146.00 0.06082342
1146.10 0.06080368
1146.20 0.06078393
1146.30 0.0607642
1146.40 0.06074447
1146.50 0.06072475
1146.60 0.06070503
1146.70 0.06068532
1146.80 0.06066561
1146.90 0.06064592
1147.00 0.06062622
1147.10 0.06060654
1147.20 0.06058685
1147.30 0.06056718
1147.40 0.06054751
1147.50 0.06052785
1147.60 0.06050819
1147.70 0.06048854
1147.80 0.06046889
1147.90 0.06044925
1148.00 0.06042962
1148.10 0.06040999
1148.20 0.06039037
1148.30 0.06037075
1148.40 0.06035114
1148.50 0.06033154
1148.60 0.06031194
1148.70 0.06029235
1148.80 0.06027276
1148.90 0.06025318
1149.00 0.06023361
1149.10 0.06021404
1149.20 0.06019447
1149.30 0.06017492
1149.40 0.06015537
1149.50 0.06013582
1149.60 0.06011628
1149.70 0.06009675
1149.80 0.06007722
1149.90 0.0600577
1150.00 0.06003818
1150.10 0.06001867
1150.20 0.05999917
1150.30 0.05997967
1150.40 0.05996018
1150.50 0.05994069
1150.60 0.05992122
1150.70 0.05990194
1150.80 0.05988266
1150.90 0.05986338
1151.00 0.05984412
1151.10 0.05982485
1151.20 0.0598056
1151.30 0.05978635
1151.40 0.0597671
1151.50 0.05974786
1151.60 0.05972863
1151.70 0.0597094
1151.80 0.05969018
1151.90 0.05967096
1152.00 0.05965175
1152.10 0.05963255
1152.20 0.05961335
1152.30 0.05959416
1152.40 0.05957497
1152.50 0.05955579
1152.60 0.05953661
1152.70 0.05951744
1152.80 0.05949828
1152.90 0.05947912
1153.00 0.05945996
1153.10 0.05944082
1153.20 0.05942168
1153.30 0.05940254
1153.40 0.05938341
1153.50 0.05936429
1153.60 0.05934517
1153.70 0.05932606
1153.80 0.05930695
1153.90 0.05928785
1154.00 0.05926875
1154.10 0.05924966
1154.20 0.05923058
1154.30 0.0592115
1154.40 0.05919243
1154.50 0.05917336
1154.60 0.0591543
1154.70 0.05913525
1154.80 0.0591162
1154.90 0.05909715
1155.00 0.05907811
1155.10 0.05905908
1155.20 0.05904005
1155.30 0.05902103
1155.40 0.05900202
1155.50 0.05898301
1155.60 0.058964
1155.70 0.05894501
1155.80 0.05892601
1155.90 0.05890703
1156.00 0.05888804
1156.10 0.05886907
1156.20 0.0588501
1156.30 0.05883113
1156.40 0.05881229
1156.50 0.05879354
1156.60 0.05877479
1156.70 0.05875605
1156.80 0.05873732
1156.90 0.05871859
1157.00 0.05869987
1157.10 0.05868115
1157.20 0.05866244
1157.30 0.05864373
1157.40 0.05862504
1157.50 0.05860634
1157.60 0.05858765
1157.70 0.05856897
1157.80 0.05855029
1157.90 0.05853162
1158.00 0.05851295
1158.10 0.05849429
1158.20 0.05847564
1158.30 0.05845699
1158.40 0.05843834
1158.50 0.0584197
1158.60 0.05840107
1158.70 0.05838244
1158.80 0.05836382
1158.90 0.05834521
1159.00 0.05832659
1159.10 0.05830799
1159.20 0.05828939
1159.30 0.0582708
1159.40 0.05825221
1159.50 0.05823362
1159.60 0.05821505
1159.70 0.05819647
1159.80 0.05817791
1159.90 0.05815935
1160.00 0.05814079
1160.10 0.05812224
1160.20 0.0581037
1160.30 0.05808516
1160.40 0.05806663
1160.50 0.0580481
1160.60 0.05802958
1160.70 0.05801106
1160.80 0.05799255
1160.90 0.05797404
1161.00 0.05795554
1161.10 0.05793705
1161.20 0.05791856
1161.30 0.05790008
1161.40 0.0578816
1161.50 0.05786313
1161.60 0.05784466
1161.70 0.0578262
1161.80 0.05780774
1161.90 0.05778929
1162.00 0.05777085
1162.10 0.05775241
1162.20 0.05773386
1162.30 0.05771532
1162.40 0.05769678
1162.50 0.05767825
1162.60 0.05765972
1162.70 0.0576412
1162.80 0.05762269
1162.90 0.05760418
1163.00 0.05758567
1163.10 0.05756718
1163.20 0.05754868
1163.30 0.0575302
1163.40 0.05751171
1163.50 0.05749324
1163.60 0.05747477
1163.70 0.0574563
1163.80 0.05743784
1163.90 0.05741939
1164.00 0.05740094
1164.10 0.0573825
1164.20 0.05736406
1164.30 0.05734563
1164.40 0.0573272
1164.50 0.05730878
1164.60 0.05729036
1164.70 0.05727195
1164.80 0.05725355
1164.90 0.05723515
1165.00 0.05721676
1165.10 0.05719837
1165.20 0.05717998
1165.30 0.05716161
1165.40 0.05714323
1165.50 0.05712487
1165.60 0.05710651
1165.70 0.05708815
1165.80 0.0570698
1165.90 0.05705146
1166.00 0.05703312
1166.10 0.05701478
1166.20 0.05699646
1166.30 0.05697813
1166.40 0.05695981
1166.50 0.0569415
1166.60 0.0569232
1166.70 0.0569049
1166.80 0.0568866
1166.90 0.05686831
1167.00 0.05685002
1167.10 0.05683175
1167.20 0.05681347
1167.30 0.0567952
1167.40 0.05677694
1167.50 0.05675868
1167.60 0.05674043
1167.70 0.05672218
1167.80 0.05670394
1167.90 0.05668571
1168.00 0.05666765
1168.10 0.05664962
1168.20 0.0566316
1168.30 0.05661358
1168.40 0.05659556
1168.50 0.05657755
1168.60 0.05655955
1168.70 0.05654155
1168.80 0.05652356
1168.90 0.05650557
1169.00 0.05648759
1169.10 0.05646961
1169.20 0.05645164
1169.30 0.05643368
1169.40 0.05641572
1169.50 0.05639776
1169.60 0.05637981
1169.70 0.05636187
1169.80 0.05634393
1169.90 0.05632599
1170.00 0.05630806
1170.10 0.05629014
1170.20 0.05627222
1170.30 0.05625431
1170.40 0.0562364
1170.50 0.0562185
1170.60 0.0562006
1170.70 0.05618271
1170.80 0.05616482
1170.90 0.05614694
1171.00 0.05612907
1171.10 0.0561112
1171.20 0.05609333
1171.30 0.05607547
1171.40 0.05605762
1171.50 0.05603977
1171.60 0.05602192
1171.70 0.05600408
1171.80 0.05598625
1171.90 0.05596842
1172.00 0.0559506
1172.10 0.05593278
1172.20 0.05591497
1172.30 0.05589716
1172.40 0.05587936
1172.50 0.05586156
1172.60 0.05584377
1172.70 0.05582598
1172.80 0.0558082
1172.90 0.05579043
1173.00 0.05577266
1173.10 0.05575489
1173.20 0.05573713
1173.30 0.05571938
1173.40 0.05570163
1173.50 0.05568388
1173.60 0.05566614
1173.70 0.05564841
1173.80 0.05563104
1173.90 0.05561378
1174.00 0.05559652
1174.10 0.05557927
1174.20 0.05556202
1174.30 0.05554478
1174.40 0.05552754
1174.50 0.05551031
1174.60 0.05549308
1174.70 0.05547586
1174.80 0.05545864
1174.90 0.05544142
1175.00 0.05542422
1175.10 0.05540701
1175.20 0.05538982
1175.30 0.05537262
1175.40 0.05535544
1175.50 0.05533825
1175.60 0.05532108
1175.70 0.0553039
1175.80 0.05528674
1175.90 0.05526957
1176.00 0.05525242
1176.10 0.05523526
1176.20 0.05521812
1176.30 0.05520097
1176.40 0.05518384
1176.50 0.05516671
1176.60 0.05514958
1176.70 0.05513246
1176.80 0.05511534
1176.90 0.05509823
1177.00 0.05508112
1177.10 0.05506402
1177.20 0.05504692
1177.30 0.05502983
1177.40 0.05501274
1177.50 0.05499566
1177.60 0.05497858
1177.70 0.05496151
1177.80 0.05494444
1177.90 0.05492738
1178.00 0.05491032
1178.10 0.05489327
1178.20 0.05487623
1178.30 0.05485918
1178.40 0.05484215
1178.50 0.05482511
1178.60 0.05480809
1178.70 0.05479107
1178.80 0.05477405
1178.90 0.05475704
1179.00 0.05474003
1179.10 0.05472303
1179.20 0.05470603
1179.30 0.05468904
1179.40 0.05467205
1179.50 0.05465507
1179.60 0.05463805
1179.70 0.0546207
1179.80 0.05460336
1179.90 0.05458603
1180.00 0.05456869
1180.10 0.05455137
1180.20 0.05453405
1180.30 0.05451673
1180.40 0.05449942
1180.50 0.05448211
1180.60 0.05446481
1180.70 0.05444751
1180.80 0.05443022
1180.90 0.05441294
1181.00 0.05439566
1181.10 0.05437838
1181.20 0.05436111
1181.30 0.05434385
1181.40 0.05432658
1181.50 0.05430933
1181.60 0.05429208
1181.70 0.05427483
1181.80 0.05425759
1181.90 0.05424036
1182.00 0.05422313
1182.10 0.0542059
1182.20 0.05418868
1182.30 0.05417147
1182.40 0.05415426
1182.50 0.05413705
1182.60 0.05411985
1182.70 0.05410266
1182.80 0.05408547
1182.90 0.05406828
1183.00 0.0540511
1183.10 0.05403393
1183.20 0.05401676
1183.30 0.0539996
1183.40 0.05398244
1183.50 0.05396528
1183.60 0.05394813
1183.70 0.05393099
1183.80 0.05391385
1183.90 0.05389671
1184.00 0.05387958
1184.10 0.05386246
1184.20 0.05384534
1184.30 0.05382823
1184.40 0.05381112
1184.50 0.05379401
1184.60 0.05377691
1184.70 0.05375982
1184.80 0.05374273
1184.90 0.05372564
1185.00 0.05370856
1185.10 0.05369149
1185.20 0.05367442
1185.30 0.05365736
1185.40 0.0536403
1185.50 0.05362335
1185.60 0.05360657
1185.70 0.05358978
1185.80 0.05357301
1185.90 0.05355624
1186.00 0.05353947
1186.10 0.05352271
1186.20 0.05350595
1186.30 0.0534892
1186.40 0.05347245
1186.50 0.05345571
1186.60 0.05343897
1186.70 0.05342224
1186.80 0.05340551
1186.90 0.05338878
1187.00 0.05337207
1187.10 0.05335535
1187.20 0.05333864
1187.30 0.05332194
1187.40 0.05330524
1187.50 0.05328855
1187.60 0.05327186
1187.70 0.05325517
1187.80 0.05323849
1187.90 0.05322182
1188.00 0.05320515
1188.10 0.05318849
1188.20 0.05317183
1188.30 0.05315517
1188.40 0.05313852
1188.50 0.05312188
1188.60 0.05310523
1188.70 0.0530886
1188.80 0.05307197
1188.90 0.05305534
1189.00 0.05303872
1189.10 0.05302211
1189.20 0.05300549
1189.30 0.05298889
1189.40 0.05297229
1189.50 0.05295569
1189.60 0.0529391
1189.70 0.05292251
1189.80 0.05290593
1189.90 0.05288935
1190.00 0.05287278
1190.10 0.05285621
1190.20 0.05283964
1190.30 0.05282309
1190.40 0.05280653
1190.50 0.05278998
1190.60 0.05277344
1190.70 0.0527569
1190.80 0.05274037
1190.90 0.05272384
1191.00 0.05270731
1191.10 0.05269079
1191.20 0.05267428
1191.30 0.05265777
1191.40 0.05264126
1191.50 0.05262476
1191.60 0.05260827
1191.70 0.05259177
1191.80 0.05257529
1191.90 0.05255881
1192.00 0.05254233
1192.10 0.05252586
1192.20 0.05250939
1192.30 0.05249293
1192.40 0.05247647
1192.50 0.05246002
1192.60 0.05244357
1192.70 0.05242713
1192.80 0.05241069
1192.90 0.05239426
1193.00 0.05237783
1193.10 0.0523614
1193.20 0.05234498
1193.30 0.05232857
1193.40 0.05231216
1193.50 0.05229575
1193.60 0.05227935
1193.70 0.05226296
1193.80 0.05224657
1193.90 0.05223018
1194.00 0.0522138
1194.10 0.05219742
1194.20 0.05218105
1194.30 0.05216469
1194.40 0.05214832
1194.50 0.05213197
1194.60 0.05211561
1194.70 0.05209926
1194.80 0.05208292
1194.90 0.05206658
1195.00 0.05205025
1195.10 0.05203392
1195.20 0.0520176
1195.30 0.05200128
1195.40 0.05198496
1195.50 0.05196865
1195.60 0.05195235
1195.70 0.05193605
1195.80 0.05191975
1195.90 0.05190346
1196.00 0.05188717
1196.10 0.05187089
1196.20 0.05185461
1196.30 0.05183834
1196.40 0.05182207
1196.50 0.05180581
1196.60 0.05178955
1196.70 0.0517733
1196.80 0.05175705
1196.90 0.05174081
1197.00 0.05172457
1197.10 0.05170833
1197.20 0.0516921
1197.30 0.05167588
1197.40 0.05165988
1197.50 0.05164392
1197.60 0.05162796
1197.70 0.05161201
1197.80 0.05159607
1197.90 0.05158012
1198.00 0.05156418
1198.10 0.05154825
1198.20 0.05153232
1198.30 0.0515164
1198.40 0.05150048
1198.50 0.05148456
1198.60 0.05146865
1198.70 0.05145275
1198.80 0.05143685
1198.90 0.05142095
1199.00 0.05140506
1199.10 0.05138917
1199.20 0.05137329
1199.30 0.05135741
1199.40 0.05134154
1199.50 0.05132567
1199.60 0.0513098
1199.70 0.05129394
1199.80 0.05127809
1199.90 0.05126224
1200.00 0.05124639
