# Version 2.1 - nm, norm@500 to 1, cut digits, bergeron_He_6500_85.dat_6500
# Wavelength(nm)  Flambda(ergs/cm^s/s/nm)
300.00 0.7807403
300.10 0.7812406
300.20 0.7817347
300.30 0.7822339
300.40 0.7827719
300.50 0.783309
300.60 0.7838452
300.70 0.7843805
300.80 0.784915
300.90 0.7854485
301.00 0.7859812
301.10 0.786513
301.20 0.7870439
301.30 0.787574
301.40 0.7881031
301.50 0.7886314
301.60 0.7891588
301.70 0.7896854
301.80 0.790211
301.90 0.7907358
302.00 0.7912598
302.10 0.7917967
302.20 0.7923344
302.30 0.7928711
302.40 0.7934069
302.50 0.7939419
302.60 0.794476
302.70 0.7950092
302.80 0.7955416
302.90 0.796073
303.00 0.7966036
303.10 0.7971333
303.20 0.7976621
303.30 0.7981885
303.40 0.7986998
303.50 0.7992102
303.60 0.7997197
303.70 0.8002284
303.80 0.8007363
303.90 0.8012433
304.00 0.8017495
304.10 0.8022548
304.20 0.8027593
304.30 0.803263
304.40 0.8037658
304.50 0.8042678
304.60 0.8047912
304.70 0.8053163
304.80 0.8058404
304.90 0.8063637
305.00 0.8068861
305.10 0.8074077
305.20 0.8079284
305.30 0.8084483
305.40 0.8089673
305.50 0.8094854
305.60 0.8100027
305.70 0.8105192
305.80 0.8110348
305.90 0.8115495
306.00 0.8120634
306.10 0.8125765
306.20 0.8130887
306.30 0.8136001
306.40 0.8141053
306.50 0.814608
306.60 0.8151099
306.70 0.815611
306.80 0.8161113
306.90 0.8166107
307.00 0.8171093
307.10 0.8176071
307.20 0.818104
307.30 0.8186002
307.40 0.8190955
307.50 0.81959
307.60 0.8200837
307.70 0.8205766
307.80 0.8210686
307.90 0.8215599
308.00 0.8220503
308.10 0.8225399
308.20 0.8230288
308.30 0.8235168
308.40 0.824004
308.50 0.8244904
308.60 0.824976
308.70 0.8254608
308.80 0.825954
308.90 0.8264725
309.00 0.8269746
309.10 0.8274758
309.20 0.8279762
309.30 0.8284758
309.40 0.8289755
309.50 0.8294799
309.60 0.8299835
309.70 0.8304862
309.80 0.8309882
309.90 0.8314893
310.00 0.8319896
310.10 0.832489
310.20 0.8329877
310.30 0.8334855
310.40 0.8339697
310.50 0.8344392
310.60 0.834908
310.70 0.8353759
310.80 0.8358431
310.90 0.8363095
311.00 0.8368219
311.10 0.8373335
311.20 0.8378442
311.30 0.8383441
311.40 0.8388147
311.50 0.8392844
311.60 0.8397534
311.70 0.8402217
311.80 0.8406891
311.90 0.8411558
312.00 0.8416217
312.10 0.8420868
312.20 0.8426103
312.30 0.8431382
312.40 0.8436077
312.50 0.844041
312.60 0.8444764
312.70 0.8449111
312.80 0.8453451
312.90 0.8458112
313.00 0.8463122
313.10 0.8468123
313.20 0.8473117
313.30 0.8478079
313.40 0.8482969
313.50 0.8487851
313.60 0.8492725
313.70 0.8497591
313.80 0.8502449
313.90 0.8507299
314.00 0.8512141
314.10 0.8516671
314.20 0.8521194
314.30 0.8525709
314.40 0.8530217
314.50 0.8534717
314.60 0.8539209
314.70 0.8543695
314.80 0.8548153
314.90 0.8552802
315.00 0.855772
315.10 0.8562491
315.20 0.8567255
315.30 0.8572011
315.40 0.857676
315.50 0.85815
315.60 0.8586233
315.70 0.8590323
315.80 0.8594406
315.90 0.8598482
316.00 0.8602552
316.10 0.8607248
316.20 0.8611936
316.30 0.8616617
316.40 0.8622555
316.50 0.8625955
316.60 0.8630613
316.70 0.8635263
316.80 0.8639906
316.90 0.8644541
317.00 0.8649169
317.10 0.8653788
317.20 0.8658401
317.30 0.8663064
317.40 0.8667698
317.50 0.8672264
317.60 0.8676822
317.70 0.8681374
317.80 0.8685918
317.90 0.8690346
318.00 0.8692626
318.10 0.8697172
318.20 0.8701711
318.30 0.8706243
318.40 0.8710767
318.50 0.8715284
318.60 0.8720442
318.70 0.8724944
318.80 0.8728691
318.90 0.8733925
319.00 0.8737758
319.10 0.8742231
319.20 0.8746676
319.30 0.8751055
319.40 0.8755427
319.50 0.8759792
319.60 0.8764464
319.70 0.8768815
319.80 0.8773158
319.90 0.8777494
320.00 0.8781861
320.10 0.8786261
320.20 0.8790596
320.30 0.8794497
320.40 0.8799616
320.50 0.8803247
320.60 0.8808154
320.70 0.8812511
320.80 0.8816861
320.90 0.8821204
321.00 0.882554
321.10 0.8829868
321.20 0.8834471
321.30 0.8838734
321.40 0.8842991
321.50 0.884724
321.60 0.8851482
321.70 0.8855718
321.80 0.8860034
321.90 0.8864438
322.00 0.8868873
322.10 0.8873082
322.20 0.8877285
322.30 0.888148
322.40 0.8885669
322.50 0.888985
322.60 0.8894025
322.70 0.8898193
322.80 0.8902667
322.90 0.890686
323.00 0.8911047
323.10 0.8915227
323.20 0.89194
323.30 0.8923566
323.40 0.8927725
323.50 0.8931877
323.60 0.8936023
323.70 0.8940162
323.80 0.8944294
323.90 0.8948419
324.00 0.8952571
324.10 0.8956717
324.20 0.8960856
324.30 0.8964885
324.40 0.8968844
324.50 0.8973043
324.60 0.8977235
324.70 0.8981421
324.80 0.8985599
324.90 0.8989771
325.00 0.8993936
325.10 0.8998094
325.20 0.9002083
325.30 0.9005722
325.40 0.9009354
325.50 0.9013193
325.60 0.9017285
325.70 0.902137
325.80 0.9025449
325.90 0.9029518
326.00 0.9033579
326.10 0.9037633
326.20 0.904168
326.30 0.9045684
326.40 0.9049575
326.50 0.9053685
326.60 0.9057789
326.70 0.9061886
326.80 0.9065977
326.90 0.907006
327.00 0.9074137
327.10 0.9078208
327.20 0.9082271
327.30 0.9086328
327.40 0.9090378
327.50 0.9094422
327.60 0.9098459
327.70 0.910249
327.80 0.9106513
327.90 0.9110327
328.00 0.9114138
328.10 0.9118217
328.20 0.9122288
328.30 0.9126353
328.40 0.9130412
328.50 0.9134176
328.60 0.9137867
328.70 0.9141551
328.80 0.9145303
328.90 0.9149258
329.00 0.9153206
329.10 0.9157148
329.20 0.9161083
329.30 0.9165012
329.40 0.9168934
329.50 0.917285
329.60 0.9176759
329.70 0.9180662
329.80 0.9184559
329.90 0.9188449
330.00 0.9192297
330.10 0.9196095
330.20 0.9199887
330.30 0.9203673
330.40 0.9207507
330.50 0.9211395
330.60 0.9215276
330.70 0.9219152
330.80 0.922302
330.90 0.9226883
331.00 0.9230739
331.10 0.9234588
331.20 0.9238432
331.30 0.9242269
331.40 0.9246099
331.50 0.9249858
331.60 0.9253529
331.70 0.9257194
331.80 0.9260975
331.90 0.9264754
332.00 0.9268528
332.10 0.9272295
332.20 0.9276055
332.30 0.927981
332.40 0.9283558
332.50 0.9287301
332.60 0.9291037
332.70 0.9294766
332.80 0.929849
332.90 0.9302208
333.00 0.9305919
333.10 0.9309551
333.20 0.9313088
333.30 0.931662
333.40 0.9320145
333.50 0.9323664
333.60 0.9327178
333.70 0.9330685
333.80 0.9334187
333.90 0.9337683
334.00 0.9341173
334.10 0.9344827
334.20 0.9348683
334.30 0.9352533
334.40 0.9356376
334.50 0.9360214
334.60 0.9364045
334.70 0.9367543
334.80 0.9370611
334.90 0.9373634
335.00 0.9376651
335.10 0.9381433
335.20 0.9384852
335.30 0.9388998
335.40 0.9391279
335.50 0.9395806
335.60 0.9399483
335.70 0.9401861
335.80 0.9405246
335.90 0.9408877
336.00 0.9412811
336.10 0.9416739
336.20 0.942066
336.30 0.9424323
336.40 0.9427672
336.50 0.9431016
336.60 0.9434354
336.70 0.9437686
336.80 0.9441013
336.90 0.9444543
337.00 0.9448322
337.10 0.9452095
337.20 0.9455861
337.30 0.9459457
337.40 0.9462808
337.50 0.9466154
337.60 0.9469495
337.70 0.947283
337.80 0.9476159
337.90 0.9479526
338.00 0.9482939
338.10 0.9486346
338.20 0.9489748
338.30 0.9493144
338.40 0.9496525
338.50 0.9499875
338.60 0.9503219
338.70 0.9506558
338.80 0.9509891
338.90 0.9513219
339.00 0.9516541
339.10 0.9519858
339.20 0.9523169
339.30 0.9526499
339.40 0.9529859
339.50 0.9533197
339.60 0.9536509
339.70 0.9539815
339.80 0.9543115
339.90 0.954641
340.00 0.9549699
340.10 0.9552983
340.20 0.9556261
340.30 0.9559534
340.40 0.9562801
340.50 0.9566063
340.60 0.9569319
340.70 0.957257
340.80 0.9575831
340.90 0.9579108
341.00 0.9582423
341.10 0.9585784
341.20 0.9589139
341.30 0.9592489
341.40 0.9595833
341.50 0.9599171
341.60 0.9602504
341.70 0.9605832
341.80 0.9609032
341.90 0.9612077
342.00 0.9615118
342.10 0.9618153
342.20 0.9621616
342.30 0.9624376
342.40 0.9627054
342.50 0.9630489
342.60 0.9633918
342.70 0.9637342
342.80 0.964076
342.90 0.9644172
343.00 0.9647352
343.10 0.9650249
343.20 0.9653141
343.30 0.9656028
343.40 0.9659092
343.50 0.9662412
343.60 0.9665726
343.70 0.9669035
343.80 0.9672339
343.90 0.9675637
344.00 0.9678783
344.10 0.9681713
344.20 0.9684639
344.30 0.9687559
344.40 0.9690475
344.50 0.9693385
344.60 0.9697165
344.70 0.9700065
344.80 0.970296
344.90 0.970585
345.00 0.970999
345.10 0.971287
345.20 0.9715791
345.30 0.9718775
345.40 0.9721754
345.50 0.972453
345.60 0.9727336
345.70 0.9730539
345.80 0.9733736
345.90 0.9736929
346.00 0.9740115
346.10 0.9743297
346.20 0.9746328
346.30 0.9749147
346.40 0.9751961
346.50 0.9754771
346.60 0.9757575
346.70 0.9760374
346.80 0.9763169
346.90 0.9765959
347.00 0.9768744
347.10 0.9771524
347.20 0.9774381
347.30 0.9777352
347.40 0.9780318
347.50 0.9783279
347.60 0.9786235
347.70 0.9789186
347.80 0.9792132
347.90 0.9795073
348.00 0.9798009
348.10 0.980094
348.20 0.9803866
348.30 0.9806787
348.40 0.9809703
348.50 0.9812614
348.60 0.981552
348.70 0.9818974
348.80 0.9822273
348.90 0.9825104
349.00 0.982793
349.10 0.9830751
349.20 0.9833567
349.30 0.9836378
349.40 0.9839184
349.50 0.9841986
349.60 0.9844783
349.70 0.9847575
349.80 0.9850362
349.90 0.9853144
350.00 0.9855922
350.10 0.9858694
350.20 0.9861462
350.30 0.9864231
350.40 0.9867001
350.50 0.9869766
350.60 0.9872527
350.70 0.9875283
350.80 0.9878035
350.90 0.9880781
351.00 0.9883523
351.10 0.988626
351.20 0.9888992
351.30 0.989172
351.40 0.9894405
351.50 0.9897019
351.60 0.9899628
351.70 0.9902233
351.80 0.9904833
351.90 0.9907429
352.00 0.991002
352.10 0.9912606
352.20 0.9916431
352.30 0.9919845
352.40 0.9922471
352.50 0.9925093
352.60 0.992771
352.70 0.9930323
352.80 0.9932931
352.90 0.9935534
353.00 0.9938133
353.10 0.9940728
353.20 0.9943318
353.30 0.9945903
353.40 0.9948484
353.50 0.995107
353.60 0.9953654
353.70 0.9956233
353.80 0.9958807
353.90 0.9961354
354.00 0.9963856
354.10 0.9966353
354.20 0.9968846
354.30 0.9971334
354.40 0.9973818
354.50 0.9976298
354.60 0.9978773
354.70 0.9981244
354.80 0.9983759
354.90 0.998634
355.00 0.9988917
355.10 0.9991489
355.20 0.9994057
355.30 0.999681
355.40 0.9999559
355.50 1.00023
355.60 1.000504
355.70 1.000734
355.80 1.000945
355.90 1.001262
356.00 1.001556
356.10 1.001796
356.20 1.002035
356.30 1.002274
356.40 1.002512
356.50 1.00275
356.60 1.002988
356.70 1.003225
356.80 1.003462
356.90 1.003698
357.00 1.003934
357.10 1.004169
357.20 1.004404
357.30 1.004639
357.40 1.004884
357.50 1.005148
357.60 1.005411
357.70 1.005673
357.80 1.00592
357.90 1.006167
358.00 1.006403
358.10 1.006635
358.20 1.006867
358.30 1.007099
358.40 1.00733
358.50 1.007561
358.60 1.007792
358.70 1.008021
358.80 1.008251
358.90 1.00848
359.00 1.008742
359.10 1.009061
359.20 1.009363
359.30 1.009559
359.40 1.009755
359.50 1.00996
359.60 1.010168
359.70 1.010375
359.80 1.010629
359.90 1.010882
360.00 1.01113
360.10 1.011368
360.20 1.011607
360.30 1.011844
360.40 1.012082
360.50 1.012319
360.60 1.012453
360.70 1.012719
360.80 1.012984
360.90 1.013249
361.00 1.013466
361.10 1.013691
361.20 1.013842
361.30 1.014134
361.40 1.014242
361.50 1.014563
361.60 1.014784
361.70 1.014997
361.80 1.015204
361.90 1.015398
362.00 1.015592
362.10 1.015826
362.20 1.016069
362.30 1.016312
362.40 1.016555
362.50 1.016797
362.60 1.017039
362.70 1.01728
362.80 1.017425
362.90 1.01763
363.00 1.017834
363.10 1.018063
363.20 1.018291
363.30 1.018464
363.40 1.018815
363.50 1.018877
363.60 1.019179
363.70 1.019352
363.80 1.019685
363.90 1.019853
364.00 1.020021
364.10 1.020188
364.20 1.020356
364.30 1.020619
364.40 1.020907
364.50 1.021117
364.60 1.021316
364.70 1.021515
364.80 1.021714
364.90 1.021915
365.00 1.022115
365.10 1.022315
365.20 1.022515
365.30 1.022715
365.40 1.022914
365.50 1.023112
365.60 1.02331
365.70 1.023526
365.80 1.02374
365.90 1.023924
366.00 1.0241
366.10 1.02433
366.20 1.024559
366.30 1.024788
366.40 1.025017
366.50 1.025259
366.60 1.025461
366.70 1.025615
366.80 1.025769
366.90 1.025946
367.00 1.026165
367.10 1.026383
367.20 1.026601
367.30 1.026819
367.40 1.027036
367.50 1.027216
367.60 1.027386
367.70 1.027567
367.80 1.027747
367.90 1.027927
368.00 1.028146
368.10 1.028328
368.20 1.028528
368.30 1.028728
368.40 1.028928
368.50 1.029127
368.60 1.029326
368.70 1.029524
368.80 1.029723
368.90 1.029888
369.00 1.030038
369.10 1.030199
369.20 1.030391
369.30 1.030576
369.40 1.03076
369.50 1.030944
369.60 1.031125
369.70 1.031304
369.80 1.031497
369.90 1.03169
370.00 1.031882
370.10 1.032036
370.20 1.032216
370.30 1.032397
370.40 1.032673
370.50 1.032852
370.60 1.033034
370.70 1.033127
370.80 1.033302
370.90 1.033478
371.00 1.033661
371.10 1.033843
371.20 1.034109
371.30 1.034374
371.40 1.034464
371.50 1.034659
371.60 1.034853
371.70 1.035047
371.80 1.035241
371.90 1.035435
372.00 1.035565
372.10 1.035793
372.20 1.035967
372.30 1.036142
372.40 1.036316
372.50 1.03649
372.60 1.036663
372.70 1.036836
372.80 1.037005
372.90 1.037174
373.00 1.037349
373.10 1.037525
373.20 1.037696
373.30 1.037867
373.40 1.037947
373.50 1.038118
373.60 1.038288
373.70 1.038367
373.80 1.038553
373.90 1.038705
374.00 1.038874
374.10 1.039043
374.20 1.039211
374.30 1.039379
374.40 1.039614
374.50 1.039709
374.60 1.039875
374.70 1.040043
374.80 1.040211
374.90 1.040379
375.00 1.040544
375.10 1.04071
375.20 1.040875
375.30 1.041039
375.40 1.041203
375.50 1.041367
375.60 1.041531
375.70 1.041694
375.80 1.041857
375.90 1.04202
376.00 1.042175
376.10 1.042323
376.20 1.042471
376.30 1.042618
376.40 1.042765
376.50 1.042927
376.60 1.043112
376.70 1.043297
376.80 1.043466
376.90 1.043619
377.00 1.043771
377.10 1.043924
377.20 1.044079
377.30 1.044246
377.40 1.044413
377.50 1.044579
377.60 1.044721
377.70 1.044862
377.80 1.045004
377.90 1.045144
378.00 1.045354
378.10 1.045499
378.20 1.045643
378.30 1.045787
378.40 1.04593
378.50 1.046073
378.60 1.046216
378.70 1.046359
378.80 1.046501
378.90 1.046628
379.00 1.046729
379.10 1.046882
379.20 1.047034
379.30 1.047175
379.40 1.047304
379.50 1.047433
379.60 1.047584
379.70 1.047759
379.80 1.047891
379.90 1.048023
380.00 1.048154
380.10 1.048285
380.20 1.048416
380.30 1.048546
380.40 1.048676
380.50 1.048806
380.60 1.049056
380.70 1.04918
380.80 1.049304
380.90 1.049428
381.00 1.049551
381.10 1.049654
381.20 1.049805
381.30 1.049947
381.40 1.050181
381.50 1.050255
381.60 1.050371
381.70 1.050533
381.80 1.050716
381.90 1.050774
382.00 1.050831
382.10 1.051062
382.20 1.051223
382.30 1.051366
382.40 1.051492
382.50 1.051592
382.60 1.051692
382.70 1.051822
382.80 1.051971
382.90 1.052106
383.00 1.052241
383.10 1.052375
383.20 1.052506
383.30 1.052624
383.40 1.05272
383.50 1.052786
383.60 1.052987
383.70 1.053118
383.80 1.053249
383.90 1.05338
384.00 1.05351
384.10 1.05364
384.20 1.05377
384.30 1.053899
384.40 1.054029
384.50 1.05416
384.60 1.05429
384.70 1.05442
384.80 1.054533
384.90 1.054604
385.00 1.054716
385.10 1.054827
385.20 1.054934
385.30 1.055079
385.40 1.055216
385.50 1.055344
385.60 1.055472
385.70 1.055599
385.80 1.05571
385.90 1.055759
386.00 1.055872
386.10 1.056042
386.20 1.056151
386.30 1.056259
386.40 1.056334
386.50 1.056451
386.60 1.056558
386.70 1.056689
386.80 1.056819
386.90 1.05695
387.00 1.057004
387.10 1.057134
387.20 1.057285
387.30 1.057389
387.40 1.057476
387.50 1.057605
387.60 1.057736
387.70 1.057822
387.80 1.057908
387.90 1.057994
388.00 1.058111
388.10 1.058293
388.20 1.058353
388.30 1.058448
388.40 1.058543
388.50 1.058671
388.60 1.058802
388.70 1.058801
388.80 1.059021
388.90 1.059052
389.00 1.059215
389.10 1.059274
389.20 1.059414
389.30 1.059488
389.40 1.059629
389.50 1.05972
389.60 1.059782
389.70 1.059961
389.80 1.060041
389.90 1.06012
390.00 1.0602
390.10 1.060279
390.20 1.060358
390.30 1.060459
390.40 1.060584
390.50 1.060709
390.60 1.060834
390.70 1.060959
390.80 1.061031
390.90 1.06105
391.00 1.061164
391.10 1.061264
391.20 1.06137
391.30 1.061481
391.40 1.061572
391.50 1.061663
391.60 1.061754
391.70 1.061845
391.80 1.061935
391.90 1.062018
392.00 1.062103
392.10 1.062203
392.20 1.062295
392.30 1.062369
392.40 1.062496
392.50 1.062623
392.60 1.062657
392.70 1.06272
392.80 1.062835
392.90 1.062943
393.00 1.063012
393.10 1.06313
393.20 1.063289
393.30 1.063321
393.40 1.063384
393.50 1.063517
393.60 1.063503
393.70 1.063598
393.80 1.063807
393.90 1.063838
394.00 1.063889
394.10 1.06404
394.20 1.064079
394.30 1.064183
394.40 1.06432
394.50 1.064378
394.60 1.064474
394.70 1.064562
394.80 1.064619
394.90 1.064674
395.00 1.064677
395.10 1.064782
395.20 1.064847
395.30 1.064942
395.40 1.065036
395.50 1.065101
395.60 1.065155
395.70 1.065227
395.80 1.065349
395.90 1.065472
396.00 1.065588
396.10 1.065633
396.20 1.06566
396.30 1.065752
396.40 1.065831
396.50 1.065831
396.60 1.066044
396.70 1.066131
396.80 1.066168
396.90 1.06619
397.00 1.066279
397.10 1.066411
397.20 1.066437
397.30 1.066437
397.40 1.066506
397.50 1.066574
397.60 1.066644
397.70 1.066732
397.80 1.06682
397.90 1.066909
398.00 1.067001
398.10 1.067093
398.20 1.067167
398.30 1.06722
398.40 1.067273
398.50 1.067351
398.60 1.067356
398.70 1.067444
398.80 1.067559
398.90 1.067652
399.00 1.067706
399.10 1.067704
399.20 1.067789
399.30 1.067873
399.40 1.067958
399.50 1.068042
399.60 1.068093
399.70 1.068132
399.80 1.068171
399.90 1.068209
400.00 1.068249
400.10 1.068323
400.20 1.068445
400.30 1.068502
400.40 1.068531
400.50 1.068565
400.60 1.06865
400.70 1.068748
400.80 1.068802
400.90 1.068874
401.00 1.068913
401.10 1.068936
401.20 1.068986
401.30 1.069025
401.40 1.069118
401.50 1.069226
401.60 1.069332
401.70 1.069404
401.80 1.069404
401.90 1.069465
402.00 1.069555
402.10 1.069476
402.20 1.069591
402.30 1.069688
402.40 1.069659
402.50 1.069696
402.60 1.069806
402.70 1.069883
402.80 1.069898
402.90 1.069944
403.00 1.070037
403.10 1.070099
403.20 1.070205
403.30 1.070154
403.40 1.070241
403.50 1.070281
403.60 1.070299
403.70 1.070339
403.80 1.070448
403.90 1.070536
404.00 1.070546
404.10 1.070547
404.20 1.070637
404.30 1.070728
404.40 1.070747
404.50 1.07083
404.60 1.070842
404.70 1.070931
404.80 1.070884
404.90 1.070955
405.00 1.070944
405.10 1.071
405.20 1.071078
405.30 1.071155
405.40 1.071191
405.50 1.071228
405.60 1.071264
405.70 1.0713
405.80 1.071336
405.90 1.071372
406.00 1.071432
406.10 1.071491
406.20 1.07155
406.30 1.071609
406.40 1.071666
406.50 1.071585
406.60 1.071669
406.70 1.071726
406.80 1.071737
406.90 1.071789
407.00 1.071828
407.10 1.071867
407.20 1.071905
407.30 1.071944
407.40 1.071982
407.50 1.072021
407.60 1.072059
407.70 1.072097
407.80 1.072134
407.90 1.072172
408.00 1.072229
408.10 1.072245
408.20 1.072231
408.30 1.07225
408.40 1.072269
408.50 1.072346
408.60 1.072399
408.70 1.072451
408.80 1.072498
408.90 1.072503
409.00 1.07253
409.10 1.072558
409.20 1.072585
409.30 1.072612
409.40 1.072639
409.50 1.072649
409.60 1.072659
409.70 1.072673
409.80 1.072705
409.90 1.072738
410.00 1.0728
410.10 1.072905
410.20 1.07293
410.30 1.072936
410.40 1.072946
410.50 1.072967
410.60 1.072988
410.70 1.073009
410.80 1.073034
410.90 1.073058
411.00 1.073087
411.10 1.073116
411.20 1.073146
411.30 1.073168
411.40 1.07316
411.50 1.07322
411.60 1.073279
411.70 1.073327
411.80 1.073328
411.90 1.0733
412.00 1.073301
412.10 1.073414
412.20 1.073303
412.30 1.073357
412.40 1.07347
412.50 1.073486
412.60 1.073497
412.70 1.0735
412.80 1.0735
412.90 1.073546
413.00 1.073582
413.10 1.073592
413.20 1.073603
413.30 1.073613
413.40 1.073623
413.50 1.073619
413.60 1.073585
413.70 1.073621
413.80 1.073657
413.90 1.073692
414.00 1.073719
414.10 1.073717
414.20 1.07368
414.30 1.073693
414.40 1.073794
414.50 1.073818
414.60 1.073725
414.70 1.073796
414.80 1.073849
414.90 1.073847
415.00 1.073844
415.10 1.073841
415.20 1.073846
415.30 1.073878
415.40 1.07391
415.50 1.073941
415.60 1.07395
415.70 1.073958
415.80 1.073968
415.90 1.073981
416.00 1.073995
416.10 1.074007
416.20 1.074017
416.30 1.074027
416.40 1.074036
416.50 1.074045
416.60 1.07404
416.70 1.074031
416.80 1.073967
416.90 1.073953
417.00 1.074051
417.10 1.074014
417.20 1.074009
417.30 1.074003
417.40 1.074002
417.50 1.074001
417.60 1.073997
417.70 1.07398
417.80 1.073998
417.90 1.074016
418.00 1.074033
418.10 1.074051
418.20 1.074068
418.30 1.074086
418.40 1.074111
418.50 1.0741
418.60 1.074089
418.70 1.074078
418.80 1.074066
418.90 1.074055
419.00 1.074044
419.10 1.074032
419.20 1.074021
419.30 1.074009
419.40 1.074006
419.50 1.074002
419.60 1.074004
419.70 1.074026
419.80 1.074049
419.90 1.074065
420.00 1.074059
420.10 1.074054
420.20 1.074049
420.30 1.074043
420.40 1.074037
420.50 1.074032
420.60 1.074026
420.70 1.07402
420.80 1.074014
420.90 1.074008
421.00 1.074011
421.10 1.074015
421.20 1.074013
421.30 1.073991
421.40 1.07397
421.50 1.073948
421.60 1.073927
421.70 1.073905
421.80 1.073883
421.90 1.073878
422.00 1.073927
422.10 1.073963
422.20 1.073947
422.30 1.073931
422.40 1.073916
422.50 1.073902
422.60 1.073888
422.70 1.073874
422.80 1.07386
422.90 1.073846
423.00 1.073832
423.10 1.073818
423.20 1.073803
423.30 1.073789
423.40 1.073774
423.50 1.073759
423.60 1.073745
423.70 1.07373
423.80 1.073715
423.90 1.0737
424.00 1.073684
424.10 1.073669
424.20 1.073653
424.30 1.073638
424.40 1.07366
424.50 1.073637
424.60 1.073613
424.70 1.07359
424.80 1.073567
424.90 1.073543
425.00 1.073519
425.10 1.073496
425.20 1.073472
425.30 1.073448
425.40 1.073424
425.50 1.073401
425.60 1.073378
425.70 1.073355
425.80 1.073332
425.90 1.073309
426.00 1.073286
426.10 1.073263
426.20 1.073239
426.30 1.073215
426.40 1.073192
426.50 1.073168
426.60 1.073144
426.70 1.07312
426.80 1.073096
426.90 1.073072
427.00 1.073053
427.10 1.073034
427.20 1.073015
427.30 1.072995
427.40 1.072976
427.50 1.072956
427.60 1.072937
427.70 1.072917
427.80 1.072897
427.90 1.072877
428.00 1.072857
428.10 1.072837
428.20 1.072817
428.30 1.072796
428.40 1.072776
428.50 1.072756
428.60 1.072735
428.70 1.072714
428.80 1.072693
428.90 1.07266
429.00 1.072628
429.10 1.072596
429.20 1.072564
429.30 1.072531
429.40 1.072499
429.50 1.072466
429.60 1.072434
429.70 1.072401
429.80 1.072368
429.90 1.072335
430.00 1.072302
430.10 1.072269
430.20 1.072236
430.30 1.072202
430.40 1.072169
430.50 1.072136
430.60 1.072102
430.70 1.072068
430.80 1.072035
430.90 1.072001
431.00 1.071967
431.10 1.071933
431.20 1.071899
431.30 1.071865
431.40 1.071831
431.50 1.071796
431.60 1.071762
431.70 1.071728
431.80 1.071693
431.90 1.071658
432.00 1.071624
432.10 1.071589
432.20 1.071554
432.30 1.071519
432.40 1.071484
432.50 1.071449
432.60 1.071414
432.70 1.071379
432.80 1.071343
432.90 1.071308
433.00 1.071272
433.10 1.071237
433.20 1.071201
433.30 1.071164
433.40 1.071107
433.50 1.071051
433.60 1.070994
433.70 1.070937
433.80 1.070882
433.90 1.07083
434.00 1.070787
434.10 1.070749
434.20 1.070712
434.30 1.070674
434.40 1.070637
434.50 1.070599
434.60 1.070561
434.70 1.070523
434.80 1.070485
434.90 1.070441
435.00 1.070398
435.10 1.070354
435.20 1.07031
435.30 1.070266
435.40 1.070223
435.50 1.070179
435.60 1.070135
435.70 1.070091
435.80 1.070047
435.90 1.070002
436.00 1.069958
436.10 1.069914
436.20 1.069869
436.30 1.069798
436.40 1.069697
436.50 1.069647
436.60 1.069597
436.70 1.069547
436.80 1.069497
436.90 1.069446
437.00 1.069396
437.10 1.069346
437.20 1.06932
437.30 1.069318
437.40 1.06931
437.50 1.069241
437.60 1.069171
437.70 1.069101
437.80 1.069031
437.90 1.068961
438.00 1.068893
438.10 1.068859
438.20 1.068824
438.30 1.068822
438.40 1.068785
438.50 1.068692
438.60 1.068595
438.70 1.068569
438.80 1.068488
438.90 1.068473
439.00 1.068366
439.10 1.068339
439.20 1.06831
439.30 1.06825
439.40 1.068191
439.50 1.068131
439.60 1.068074
439.70 1.068008
439.80 1.067926
439.90 1.067889
440.00 1.067851
440.10 1.067814
440.20 1.067774
440.30 1.067707
440.40 1.06764
440.50 1.067573
440.60 1.067506
440.70 1.067439
440.80 1.067372
440.90 1.067305
441.00 1.067237
441.10 1.06717
441.20 1.067107
441.30 1.067105
441.40 1.067066
441.50 1.066982
441.60 1.066898
441.70 1.066866
441.80 1.066799
441.90 1.066732
442.00 1.066665
442.10 1.066598
442.20 1.066531
442.30 1.066463
442.40 1.0664
442.50 1.066343
442.60 1.066285
442.70 1.066213
442.80 1.066126
442.90 1.066123
443.00 1.066085
443.10 1.066005
443.20 1.065943
443.30 1.065898
443.40 1.06583
443.50 1.065736
443.60 1.065629
443.70 1.065583
443.80 1.065553
443.90 1.065474
444.00 1.065393
444.10 1.065298
444.20 1.065287
444.30 1.06522
444.40 1.065132
444.50 1.065044
444.60 1.064959
444.70 1.064879
444.80 1.064804
444.90 1.064734
445.00 1.064664
445.10 1.064594
445.20 1.064524
445.30 1.064455
445.40 1.064386
445.50 1.064317
445.60 1.064248
445.70 1.064179
445.80 1.06411
445.90 1.064039
446.00 1.063969
446.10 1.063898
446.20 1.063899
446.30 1.063836
446.40 1.06378
446.50 1.063684
446.60 1.063589
446.70 1.063494
446.80 1.063431
446.90 1.063399
447.00 1.063301
447.10 1.063269
447.20 1.063148
447.30 1.063078
447.40 1.062985
447.50 1.062952
447.60 1.062906
447.70 1.062847
447.80 1.062675
447.90 1.062593
448.00 1.062515
448.10 1.06244
448.20 1.062365
448.30 1.06229
448.40 1.062215
448.50 1.062141
448.60 1.062072
448.70 1.062009
448.80 1.061947
448.90 1.061882
449.00 1.061816
449.10 1.061751
449.20 1.061686
449.30 1.061563
449.40 1.061495
449.50 1.061427
449.60 1.061357
449.70 1.061285
449.80 1.061212
449.90 1.06114
450.00 1.061068
450.10 1.060995
450.20 1.060923
450.30 1.06085
450.40 1.060753
450.50 1.060657
450.60 1.06056
450.70 1.060464
450.80 1.060367
450.90 1.060271
451.00 1.060202
451.10 1.060134
451.20 1.060038
451.30 1.060008
451.40 1.059912
451.50 1.059815
451.60 1.05978
451.70 1.059621
451.80 1.059587
451.90 1.059428
452.00 1.059393
452.10 1.059358
452.20 1.059261
452.30 1.059164
452.40 1.059067
452.50 1.05897
452.60 1.05892
452.70 1.058851
452.80 1.058766
452.90 1.058681
453.00 1.058596
453.10 1.058511
453.20 1.05842
453.30 1.05833
453.40 1.058239
453.50 1.058149
453.60 1.058058
453.70 1.057967
453.80 1.057884
453.90 1.05781
454.00 1.057736
454.10 1.057661
454.20 1.057554
454.30 1.057447
454.40 1.05734
454.50 1.057232
454.60 1.057125
454.70 1.057032
454.80 1.056951
454.90 1.05687
455.00 1.056789
455.10 1.056708
455.20 1.056628
455.30 1.056547
455.40 1.056466
455.50 1.056385
455.60 1.056304
455.70 1.056223
455.80 1.056119
455.90 1.056015
456.00 1.055911
456.10 1.055811
456.20 1.055722
456.30 1.055633
456.40 1.055543
456.50 1.055454
456.60 1.055365
456.70 1.055275
456.80 1.055186
456.90 1.055096
457.00 1.055007
457.10 1.054917
457.20 1.054756
457.30 1.054667
457.40 1.054579
457.50 1.05449
457.60 1.054402
457.70 1.054313
457.80 1.054225
457.90 1.054136
458.00 1.054048
458.10 1.053959
458.20 1.053871
458.30 1.053782
458.40 1.053694
458.50 1.053605
458.60 1.053516
458.70 1.053419
458.80 1.053318
458.90 1.053217
459.00 1.053116
459.10 1.053015
459.20 1.052914
459.30 1.052816
459.40 1.052717
459.50 1.052619
459.60 1.052521
459.70 1.052423
459.80 1.052324
459.90 1.052226
460.00 1.052128
460.10 1.052029
460.20 1.051931
460.30 1.051833
460.40 1.051734
460.50 1.051636
460.60 1.051538
460.70 1.051425
460.80 1.051305
460.90 1.051186
461.00 1.051066
461.10 1.050946
461.20 1.050854
461.30 1.050772
461.40 1.050667
461.50 1.050556
461.60 1.050445
461.70 1.050334
461.80 1.050236
461.90 1.050139
462.00 1.050041
462.10 1.049943
462.20 1.049846
462.30 1.049748
462.40 1.049651
462.50 1.049553
462.60 1.049456
462.70 1.049358
462.80 1.04926
462.90 1.049163
463.00 1.049065
463.10 1.048967
463.20 1.04886
463.30 1.048749
463.40 1.048637
463.50 1.048526
463.60 1.048415
463.70 1.048304
463.80 1.048192
463.90 1.048088
464.00 1.047985
464.10 1.047882
464.20 1.04778
464.30 1.047677
464.40 1.047574
464.50 1.047471
464.60 1.047369
464.70 1.047264
464.80 1.047159
464.90 1.047054
465.00 1.046948
465.10 1.046843
465.20 1.046738
465.30 1.046631
465.40 1.046524
465.50 1.046417
465.60 1.04631
465.70 1.046203
465.80 1.046096
465.90 1.045967
466.00 1.045831
466.10 1.045696
466.20 1.045561
466.30 1.045443
466.40 1.045333
466.50 1.045222
466.60 1.045111
466.70 1.045001
466.80 1.04489
466.90 1.044779
467.00 1.044669
467.10 1.044558
467.20 1.044448
467.30 1.04437
467.40 1.044272
467.50 1.044167
467.60 1.044062
467.70 1.043957
467.80 1.043851
467.90 1.04373
468.00 1.043602
468.10 1.043474
468.20 1.043346
468.30 1.043239
468.40 1.043139
468.50 1.042999
468.60 1.042955
468.70 1.042801
468.80 1.042642
468.90 1.042553
469.00 1.042438
469.10 1.04233
469.20 1.042231
469.30 1.042132
469.40 1.042033
469.50 1.041918
469.60 1.041797
469.70 1.041675
469.80 1.041554
469.90 1.04144
470.00 1.041331
470.10 1.041212
470.20 1.041095
470.30 1.040979
470.40 1.040863
470.50 1.040747
470.60 1.040621
470.70 1.040493
470.80 1.040366
470.90 1.040238
471.00 1.04011
471.10 1.040027
471.20 1.039889
471.30 1.039733
471.40 1.039691
471.50 1.039534
471.60 1.039424
471.70 1.039325
471.80 1.039203
471.90 1.039075
472.00 1.038947
472.10 1.03882
472.20 1.038692
472.30 1.038565
472.40 1.038437
472.50 1.03831
472.60 1.038182
472.70 1.038099
472.80 1.037988
472.90 1.037866
473.00 1.037744
473.10 1.037622
473.20 1.037501
473.30 1.037379
473.40 1.037257
473.50 1.037135
473.60 1.037013
473.70 1.036892
473.80 1.03676
473.90 1.036626
474.00 1.036491
474.10 1.036357
474.20 1.036233
474.30 1.036113
474.40 1.035993
474.50 1.035873
474.60 1.035752
474.70 1.035624
474.80 1.035496
474.90 1.035368
475.00 1.03524
475.10 1.035112
475.20 1.034984
475.30 1.034856
475.40 1.034737
475.50 1.03462
475.60 1.034504
475.70 1.034387
475.80 1.03427
475.90 1.034153
476.00 1.034037
476.10 1.03392
476.20 1.033796
476.30 1.033669
476.40 1.033542
476.50 1.033415
476.60 1.033288
476.70 1.033161
476.80 1.033034
476.90 1.032903
477.00 1.032771
477.10 1.03264
477.20 1.032508
477.30 1.032377
477.40 1.032245
477.50 1.032114
477.60 1.031982
477.70 1.031851
477.80 1.03172
477.90 1.031588
478.00 1.031457
478.10 1.031326
478.20 1.031194
478.30 1.031063
478.40 1.030932
478.50 1.0308
478.60 1.030669
478.70 1.030531
478.80 1.03039
478.90 1.030256
479.00 1.030125
479.10 1.029994
479.20 1.029863
479.30 1.029732
479.40 1.029601
479.50 1.029472
479.60 1.029342
479.70 1.029213
479.80 1.029083
479.90 1.028954
480.00 1.028825
480.10 1.028695
480.20 1.028566
480.30 1.028436
480.40 1.028307
480.50 1.028178
480.60 1.028048
480.70 1.027919
480.80 1.02779
480.90 1.027661
481.00 1.027531
481.10 1.027402
481.20 1.027265
481.30 1.027129
481.40 1.026992
481.50 1.026855
481.60 1.026718
481.70 1.026582
481.80 1.026445
481.90 1.026309
482.00 1.026172
482.10 1.026035
482.20 1.025899
482.30 1.025768
482.40 1.025637
482.50 1.025505
482.60 1.025374
482.70 1.025243
482.80 1.025112
482.90 1.02498
483.00 1.024849
483.10 1.024718
483.20 1.024587
483.30 1.024456
483.40 1.024325
483.50 1.024193
483.60 1.024062
483.70 1.023925
483.80 1.023787
483.90 1.02365
484.00 1.023513
484.10 1.023375
484.20 1.02324
484.30 1.023105
484.40 1.02297
484.50 1.022835
484.60 1.0227
484.70 1.022565
484.80 1.022416
484.90 1.022268
485.00 1.022119
485.10 1.021971
485.20 1.021822
485.30 1.021674
485.40 1.021526
485.50 1.021377
485.60 1.021229
485.70 1.021093
485.80 1.020958
485.90 1.020822
486.00 1.020686
486.10 1.020551
486.20 1.020415
486.30 1.02028
486.40 1.020144
486.50 1.020009
486.60 1.019874
486.70 1.019739
486.80 1.019608
486.90 1.019478
487.00 1.019348
487.10 1.019218
487.20 1.019073
487.30 1.018928
487.40 1.018783
487.50 1.018638
487.60 1.018494
487.70 1.018349
487.80 1.018204
487.90 1.018059
488.00 1.017914
488.10 1.017769
488.20 1.017625
488.30 1.01748
488.40 1.017336
488.50 1.017192
488.60 1.017047
488.70 1.016903
488.80 1.01676
488.90 1.016617
489.00 1.016474
489.10 1.016335
489.20 1.016196
489.30 1.016057
489.40 1.015917
489.50 1.015778
489.60 1.015639
489.70 1.0155
489.80 1.015315
489.90 1.015171
490.00 1.015028
490.10 1.014884
490.20 1.01474
490.30 1.014596
490.40 1.014446
490.50 1.014295
490.60 1.014145
490.70 1.013994
490.80 1.013812
490.90 1.013694
491.00 1.013544
491.10 1.013393
491.20 1.013243
491.30 1.013093
491.40 1.013009
491.50 1.012793
491.60 1.01268
491.70 1.012547
491.80 1.012416
491.90 1.012298
492.00 1.012114
492.10 1.011964
492.20 1.011814
492.30 1.011664
492.40 1.011517
492.50 1.011399
492.60 1.011215
492.70 1.011066
492.80 1.010916
492.90 1.010766
493.00 1.010617
493.10 1.010475
493.20 1.010332
493.30 1.010189
493.40 1.010046
493.50 1.009904
493.60 1.009721
493.70 1.009584
493.80 1.009446
493.90 1.009301
494.00 1.009143
494.10 1.008987
494.20 1.008835
494.30 1.008684
494.40 1.008532
494.50 1.008381
494.60 1.008232
494.70 1.00811
494.80 1.00798
494.90 1.007826
495.00 1.007673
495.10 1.007519
495.20 1.007369
495.30 1.007218
495.40 1.007067
495.50 1.006916
495.60 1.006766
495.70 1.006615
495.80 1.006465
495.90 1.006314
496.00 1.006163
496.10 1.00601
496.20 1.005852
496.30 1.0057
496.40 1.005547
496.50 1.005394
496.60 1.005242
496.70 1.005081
496.80 1.00492
496.90 1.004759
497.00 1.004598
497.10 1.004437
497.20 1.004276
497.30 1.004125
497.40 1.003999
497.50 1.003874
497.60 1.003739
497.70 1.003581
497.80 1.003426
497.90 1.00327
498.00 1.003115
498.10 1.00296
498.20 1.002805
498.30 1.00265
498.40 1.002495
498.50 1.00234
498.60 1.002185
498.70 1.002038
498.80 1.00189
498.90 1.00171
499.00 1.00153
499.10 1.001349
499.20 1.00119
499.30 1.001065
499.40 1.000907
499.50 1.000748
499.60 1.00059
499.70 1.000432
499.80 1.000288
499.90 1.000144
500.00 1
500.10 0.9998559
500.20 0.9997056
500.30 0.9995421
500.40 0.9993787
500.50 0.9992152
500.60 0.9990519
500.70 0.9988885
500.80 0.9987277
500.90 0.9985722
501.00 0.9984168
501.10 0.9982613
501.20 0.9981292
501.30 0.9979325
501.40 0.9977521
501.50 0.997606
501.60 0.9974599
501.70 0.9973138
501.80 0.9971678
501.90 0.9970218
502.00 0.9968669
502.10 0.9966931
502.20 0.9965198
502.30 0.9963525
502.40 0.9961868
502.50 0.9960243
502.60 0.995862
502.70 0.9956996
502.80 0.9955373
502.90 0.9953751
503.00 0.9952171
503.10 0.9950679
503.20 0.9949188
503.30 0.9947697
503.40 0.9946195
503.50 0.9944657
503.60 0.994312
503.70 0.9941584
503.80 0.9940024
503.90 0.9938296
504.00 0.9936645
504.10 0.9935157
504.20 0.993367
504.30 0.9932184
504.40 0.9930578
504.50 0.9928632
504.60 0.9926815
504.70 0.9925367
504.80 0.992392
504.90 0.9922473
505.00 0.9920897
505.10 0.9918954
505.20 0.9916889
505.30 0.9914475
505.40 0.9912062
505.50 0.990965
505.60 0.9907802
505.70 0.9907153
505.80 0.9906503
505.90 0.9905852
506.00 0.9905202
506.10 0.9904551
506.20 0.9903627
506.30 0.9901925
506.40 0.9900224
506.50 0.9898523
506.60 0.9896824
506.70 0.9895124
506.80 0.9893425
506.90 0.9891727
507.00 0.989003
507.10 0.9887628
507.20 0.9884369
507.30 0.9882933
507.40 0.9881497
507.50 0.9880061
507.60 0.9878626
507.70 0.9877191
507.80 0.9875756
507.90 0.9874322
508.00 0.9872888
508.10 0.9871455
508.20 0.9870022
508.30 0.9868589
508.40 0.9867157
508.50 0.9865725
508.60 0.9864293
508.70 0.9862862
508.80 0.9860795
508.90 0.985692
509.00 0.9853047
509.10 0.9849955
509.20 0.9848516
509.30 0.9847078
509.40 0.984564
509.50 0.9844202
509.60 0.9842765
509.70 0.9841328
509.80 0.9839891
509.90 0.9838455
510.00 0.9837019
510.10 0.9835584
510.20 0.9834149
510.30 0.9832671
510.40 0.9831072
510.50 0.9829474
510.60 0.9827876
510.70 0.9826279
510.80 0.9824682
510.90 0.9823086
511.00 0.982149
511.10 0.9819895
511.20 0.98183
511.30 0.9816706
511.40 0.9815112
511.50 0.9813519
511.60 0.9812085
511.70 0.981099
511.80 0.9809896
511.90 0.9808801
512.00 0.9807707
512.10 0.9806612
512.20 0.9805518
512.30 0.9804172
512.40 0.980211
512.50 0.9800049
512.60 0.9797989
512.70 0.979593
512.80 0.9793871
512.90 0.9791813
513.00 0.9789757
513.10 0.9787701
513.20 0.9785646
513.30 0.9783591
513.40 0.9781538
513.50 0.9779486
513.60 0.9777434
513.70 0.9775383
513.80 0.9773333
513.90 0.9771284
514.00 0.9769652
514.10 0.9768089
514.20 0.9766526
514.30 0.9764964
514.40 0.9763402
514.50 0.9761841
514.60 0.976028
514.70 0.9758719
514.80 0.9757159
514.90 0.97556
515.00 0.9754041
515.10 0.9752482
515.20 0.9750924
515.30 0.9749367
515.40 0.974781
515.50 0.9746253
515.60 0.9744697
515.70 0.9743141
515.80 0.9741586
515.90 0.9740031
516.00 0.9738477
516.10 0.9736923
516.20 0.973537
516.30 0.9733817
516.40 0.9732265
516.50 0.9730654
516.60 0.9728734
516.70 0.9726815
516.80 0.9724896
516.90 0.9722978
517.00 0.9721062
517.10 0.9719145
517.20 0.971723
517.30 0.9715315
517.40 0.9713401
517.50 0.9711488
517.60 0.9709576
517.70 0.9707664
517.80 0.9705753
517.90 0.9703843
518.00 0.9701934
518.10 0.9700025
518.20 0.9698118
518.30 0.969621
518.40 0.9694304
518.50 0.9692398
518.60 0.9690494
518.70 0.9688589
518.80 0.9686686
518.90 0.9684783
519.00 0.9682882
519.10 0.9681057
519.20 0.9679319
519.30 0.9677581
519.40 0.9675844
519.50 0.9674108
519.60 0.9672372
519.70 0.9670637
519.80 0.9668903
519.90 0.9667169
520.00 0.9665436
520.10 0.9663704
520.20 0.9661972
520.30 0.966024
520.40 0.965851
520.50 0.965678
520.60 0.965505
520.70 0.9653321
520.80 0.9651593
520.90 0.9649866
521.00 0.9648139
521.10 0.9646412
521.20 0.9644686
521.30 0.9642961
521.40 0.9641237
521.50 0.9639513
521.60 0.963779
521.70 0.9636067
521.80 0.9634345
521.90 0.9632623
522.00 0.9630902
522.10 0.9629182
522.20 0.9627463
522.30 0.9625744
522.40 0.9624025
522.50 0.9622307
522.60 0.962059
522.70 0.9618874
522.80 0.9617158
522.90 0.9615442
523.00 0.9613728
523.10 0.9612013
523.20 0.96103
523.30 0.9608587
523.40 0.9606875
523.50 0.9605163
523.60 0.9603452
523.70 0.9601741
523.80 0.9600031
523.90 0.9598322
524.00 0.9596613
524.10 0.9594905
524.20 0.9593198
524.30 0.959148
524.40 0.9589755
524.50 0.958803
524.60 0.9586306
524.70 0.9584583
524.80 0.958286
524.90 0.9581138
525.00 0.9579417
525.10 0.9577696
525.20 0.9575975
525.30 0.9574256
525.40 0.9572537
525.50 0.9570818
525.60 0.95691
525.70 0.9567383
525.80 0.9565666
525.90 0.956395
526.00 0.9562235
526.10 0.956052
526.20 0.9558806
526.30 0.9557093
526.40 0.955538
526.50 0.9553667
526.60 0.9551956
526.70 0.9550244
526.80 0.9548534
526.90 0.9546824
527.00 0.9545115
527.10 0.9543406
527.20 0.9541698
527.30 0.9539991
527.40 0.9538284
527.50 0.9536578
527.60 0.9534872
527.70 0.9533167
527.80 0.9531463
527.90 0.9529759
528.00 0.9528056
528.10 0.9526353
528.20 0.9524651
528.30 0.952295
528.40 0.9521249
528.50 0.9519549
528.60 0.9517849
528.70 0.951615
528.80 0.9514452
528.90 0.9512754
529.00 0.9511057
529.10 0.950936
529.20 0.9507664
529.30 0.9505969
529.40 0.9504274
529.50 0.9502554
529.60 0.950067
529.70 0.9498788
529.80 0.9496906
529.90 0.9495025
530.00 0.9493144
530.10 0.9491265
530.20 0.9489386
530.30 0.9487508
530.40 0.948563
530.50 0.9483754
530.60 0.9481878
530.70 0.9480003
530.80 0.9478128
530.90 0.9476255
531.00 0.9474382
531.10 0.947251
531.20 0.9470638
531.30 0.9468767
531.40 0.9466897
531.50 0.9465028
531.60 0.946316
531.70 0.9461292
531.80 0.9459425
531.90 0.9457558
532.00 0.9455693
532.10 0.9453828
532.20 0.9451964
532.30 0.9450102
532.40 0.944824
532.50 0.9446378
532.60 0.9444518
532.70 0.9442658
532.80 0.9440799
532.90 0.9438941
533.00 0.9437083
533.10 0.9435226
533.20 0.943337
533.30 0.9431514
533.40 0.942966
533.50 0.9427806
533.60 0.9425952
533.70 0.94241
533.80 0.9422248
533.90 0.9420397
534.00 0.9418547
534.10 0.9416697
534.20 0.9414848
534.30 0.9413
534.40 0.9411153
534.50 0.9409306
534.60 0.940746
534.70 0.9405615
534.80 0.9403767
534.90 0.9401906
535.00 0.9400046
535.10 0.9398187
535.20 0.9396328
535.30 0.9394471
535.40 0.9392614
535.50 0.9390757
535.60 0.9388902
535.70 0.9387047
535.80 0.9385193
535.90 0.9383339
536.00 0.9381487
536.10 0.9379635
536.20 0.9377784
536.30 0.9375933
536.40 0.9374083
536.50 0.9372234
536.60 0.9370386
536.70 0.9368538
536.80 0.9366692
536.90 0.9364845
537.00 0.9363
537.10 0.9361155
537.20 0.9359311
537.30 0.9357468
537.40 0.9355626
537.50 0.9353784
537.60 0.9351943
537.70 0.9350103
537.80 0.9348263
537.90 0.9346424
538.00 0.9344586
538.10 0.9342749
538.20 0.9340912
538.30 0.9339076
538.40 0.9337241
538.50 0.9335406
538.60 0.9333572
538.70 0.9331739
538.80 0.9329907
538.90 0.9328075
539.00 0.9326244
539.10 0.9324414
539.20 0.9322584
539.30 0.9320755
539.40 0.9318927
539.50 0.93171
539.60 0.9315273
539.70 0.9313447
539.80 0.9311622
539.90 0.9309797
540.00 0.9307974
540.10 0.930615
540.20 0.9304317
540.30 0.9302479
540.40 0.9300642
540.50 0.9298806
540.60 0.9296971
540.70 0.9295136
540.80 0.9293302
540.90 0.9291469
541.00 0.9289636
541.10 0.9287804
541.20 0.9285973
541.30 0.9284143
541.40 0.9282313
541.50 0.9280484
541.60 0.9278656
541.70 0.9276828
541.80 0.9275002
541.90 0.9273175
542.00 0.927135
542.10 0.9269525
542.20 0.9267701
542.30 0.9265878
542.40 0.9264056
542.50 0.9262234
542.60 0.9260413
542.70 0.9258592
542.80 0.9256773
542.90 0.9254954
543.00 0.9253136
543.10 0.9251318
543.20 0.9249501
543.30 0.9247685
543.40 0.924587
543.50 0.9244055
543.60 0.9242241
543.70 0.9240428
543.80 0.9238615
543.90 0.9236803
544.00 0.9234992
544.10 0.9233182
544.20 0.9231372
544.30 0.9229563
544.40 0.9227755
544.50 0.9225947
544.60 0.922414
544.70 0.9222334
544.80 0.9220529
544.90 0.9218724
545.00 0.921692
545.10 0.9215116
545.20 0.9213314
545.30 0.9211512
545.40 0.920971
545.50 0.920791
545.60 0.9206099
545.70 0.9204284
545.80 0.920247
545.90 0.9200656
546.00 0.9198843
546.10 0.9197031
546.20 0.9195219
546.30 0.9193409
546.40 0.9191599
546.50 0.9189789
546.60 0.9187981
546.70 0.9186173
546.80 0.9184365
546.90 0.9182559
547.00 0.9180753
547.10 0.9178948
547.20 0.9177143
547.30 0.917534
547.40 0.9173537
547.50 0.9171735
547.60 0.9169933
547.70 0.9168132
547.80 0.9166332
547.90 0.9164532
548.00 0.9162734
548.10 0.9160936
548.20 0.9159138
548.30 0.9157342
548.40 0.9155546
548.50 0.9153752
548.60 0.9151958
548.70 0.9150164
548.80 0.9148372
548.90 0.914658
549.00 0.9144789
549.10 0.9142998
549.20 0.9141208
549.30 0.9139419
549.40 0.9137631
549.50 0.9135843
549.60 0.9134056
549.70 0.913227
549.80 0.9130484
549.90 0.9128699
550.00 0.9126915
550.10 0.9125132
550.20 0.9123349
550.30 0.9121567
550.40 0.9119785
550.50 0.9118004
550.60 0.9116224
550.70 0.9114445
550.80 0.9112666
550.90 0.9110888
551.00 0.9109063
551.10 0.9106968
551.20 0.9104874
551.30 0.9102781
551.40 0.9100689
551.50 0.9098598
551.60 0.9096508
551.70 0.9094419
551.80 0.909233
551.90 0.9090243
552.00 0.9088156
552.10 0.9086071
552.20 0.9083986
552.30 0.9081902
552.40 0.9079819
552.50 0.9077737
552.60 0.9075656
552.70 0.9073576
552.80 0.9071497
552.90 0.9069418
553.00 0.9067341
553.10 0.9065264
553.20 0.9063189
553.30 0.9061114
553.40 0.905904
553.50 0.9056968
553.60 0.9054896
553.70 0.9052824
553.80 0.9050934
553.90 0.9049164
554.00 0.9047395
554.10 0.9045627
554.20 0.9043859
554.30 0.9042092
554.40 0.9040326
554.50 0.9038561
554.60 0.9036796
554.70 0.9035031
554.80 0.9033268
554.90 0.9031505
555.00 0.9029743
555.10 0.9027981
555.20 0.9026221
555.30 0.902446
555.40 0.9022701
555.50 0.9020942
555.60 0.9019184
555.70 0.9017427
555.80 0.901567
555.90 0.9013914
556.00 0.9012159
556.10 0.9010404
556.20 0.900865
556.30 0.9006897
556.40 0.9005144
556.50 0.9003384
556.60 0.9001471
556.70 0.8999559
556.80 0.8997648
556.90 0.8995738
557.00 0.8993828
557.10 0.8991919
557.20 0.8990011
557.30 0.8988104
557.40 0.8986197
557.50 0.8984291
557.60 0.8982386
557.70 0.8980482
557.80 0.8978579
557.90 0.8976676
558.00 0.8974775
558.10 0.8972874
558.20 0.8970974
558.30 0.8969074
558.40 0.8967175
558.50 0.8965278
558.60 0.8963381
558.70 0.8961484
558.80 0.8959589
558.90 0.8957694
559.00 0.89558
559.10 0.8953907
559.20 0.8952015
559.30 0.8950123
559.40 0.8948232
559.50 0.8946342
559.60 0.8944453
559.70 0.8942565
559.80 0.8940677
559.90 0.893879
560.00 0.8936904
560.10 0.8935019
560.20 0.8933134
560.30 0.893125
560.40 0.8929367
560.50 0.8927485
560.60 0.8925603
560.70 0.8923723
560.80 0.8921843
560.90 0.8919964
561.00 0.8918085
561.10 0.8916208
561.20 0.8914331
561.30 0.8912455
561.40 0.8910579
561.50 0.8908705
561.60 0.8906831
561.70 0.8904958
561.80 0.8903086
561.90 0.8901215
562.00 0.8899344
562.10 0.8897412
562.20 0.8895387
562.30 0.8893363
562.40 0.889134
562.50 0.8889318
562.60 0.8887297
562.70 0.8885276
562.80 0.8883257
562.90 0.8881238
563.00 0.887922
563.10 0.8877203
563.20 0.8875187
563.30 0.8873172
563.40 0.8871158
563.50 0.8869144
563.60 0.8867132
563.70 0.886512
563.80 0.8863109
563.90 0.8861099
564.00 0.885909
564.10 0.8857082
564.20 0.8855075
564.30 0.8853068
564.40 0.8851063
564.50 0.8849058
564.60 0.8847054
564.70 0.8845051
564.80 0.8843049
564.90 0.8841048
565.00 0.8839048
565.10 0.8837049
565.20 0.883505
565.30 0.8833053
565.40 0.8831056
565.50 0.8829061
565.60 0.8827066
565.70 0.8825072
565.80 0.8823079
565.90 0.8821086
566.00 0.8819095
566.10 0.8817104
566.20 0.8815115
566.30 0.8813126
566.40 0.8811138
566.50 0.8809151
566.60 0.8807164
566.70 0.8805179
566.80 0.8803194
566.90 0.8801211
567.00 0.8799228
567.10 0.8797246
567.20 0.8795265
567.30 0.8793284
567.40 0.8791305
567.50 0.8789326
567.60 0.8787348
567.70 0.8785396
567.80 0.8783547
567.90 0.8781698
568.00 0.8779851
568.10 0.8778004
568.20 0.8776158
568.30 0.8774313
568.40 0.8772469
568.50 0.8770625
568.60 0.8768782
568.70 0.876694
568.80 0.8765099
568.90 0.8763258
569.00 0.8761418
569.10 0.8759579
569.20 0.8757741
569.30 0.8755903
569.40 0.8754066
569.50 0.875223
569.60 0.8750395
569.70 0.874856
569.80 0.8746726
569.90 0.8744893
570.00 0.874306
570.10 0.8741229
570.20 0.8739398
570.30 0.8737568
570.40 0.8735738
570.50 0.873391
570.60 0.8732082
570.70 0.8730255
570.80 0.8728428
570.90 0.8726602
571.00 0.8724778
571.10 0.8722953
571.20 0.872113
571.30 0.8719307
571.40 0.8717485
571.50 0.8715664
571.60 0.8713843
571.70 0.8712024
571.80 0.8710205
571.90 0.8708386
572.00 0.8706569
572.10 0.8704752
572.20 0.8702936
572.30 0.8701121
572.40 0.8699306
572.50 0.8697492
572.60 0.8695679
572.70 0.8693867
572.80 0.8692055
572.90 0.8690244
573.00 0.8688434
573.10 0.8686625
573.20 0.8684816
573.30 0.8683008
573.40 0.868115
573.50 0.8679221
573.60 0.8677294
573.70 0.8675367
573.80 0.8673442
573.90 0.8671517
574.00 0.8669592
574.10 0.8667669
574.20 0.8665747
574.30 0.8663825
574.40 0.8661904
574.50 0.8659984
574.60 0.8658065
574.70 0.8656146
574.80 0.8654228
574.90 0.8652312
575.00 0.8650396
575.10 0.864848
575.20 0.8646566
575.30 0.8644652
575.40 0.8642739
575.50 0.8640827
575.60 0.8638916
575.70 0.8637006
575.80 0.8635096
575.90 0.8633188
576.00 0.863128
576.10 0.8629372
576.20 0.8627466
576.30 0.862556
576.40 0.8623656
576.50 0.8621752
576.60 0.8619849
576.70 0.8617946
576.80 0.8616045
576.90 0.8614144
577.00 0.8612244
577.10 0.8610345
577.20 0.8608447
577.30 0.8606549
577.40 0.8604652
577.50 0.8602756
577.60 0.8600827
577.70 0.8598842
577.80 0.8596858
577.90 0.8594875
578.00 0.8592893
578.10 0.8590911
578.20 0.8588931
578.30 0.8586951
578.40 0.8584973
578.50 0.8582995
578.60 0.8581018
578.70 0.8579041
578.80 0.8577066
578.90 0.8575091
579.00 0.8573118
579.10 0.8571126
579.20 0.8568944
579.30 0.8566763
579.40 0.8564583
579.50 0.8562404
579.60 0.8560226
579.70 0.8558049
579.80 0.8555873
579.90 0.8553698
580.00 0.8551524
580.10 0.8549486
580.20 0.8547667
580.30 0.854585
580.40 0.8544033
580.50 0.8542217
580.60 0.8540401
580.70 0.8538587
580.80 0.8536773
580.90 0.853496
581.00 0.8533147
581.10 0.8531336
581.20 0.8529525
581.30 0.8527714
581.40 0.8525905
581.50 0.8524096
581.60 0.8522288
581.70 0.8520481
581.80 0.8518674
581.90 0.8516869
582.00 0.8515064
582.10 0.8513212
582.20 0.8511284
582.30 0.8509357
582.40 0.850743
582.50 0.8505505
582.60 0.850358
582.70 0.8501656
582.80 0.8499733
582.90 0.8497811
583.00 0.8495889
583.10 0.8493968
583.20 0.8492048
583.30 0.8490129
583.40 0.8488211
583.50 0.8486294
583.60 0.8484215
583.70 0.8481871
583.80 0.8479528
583.90 0.8477187
584.00 0.8474846
584.10 0.8472507
584.20 0.8470169
584.30 0.8467832
584.40 0.8465496
584.50 0.8463161
584.60 0.8460827
584.70 0.8458495
584.80 0.8456163
584.90 0.8454208
585.00 0.845396
585.10 0.8453713
585.20 0.8452743
585.30 0.8450594
585.40 0.8448446
585.50 0.8446299
585.60 0.8444153
585.70 0.8442008
585.80 0.8439864
585.90 0.8437721
586.00 0.8435579
586.10 0.8433438
586.20 0.8431484
586.30 0.8429836
586.40 0.8428189
586.50 0.8426542
586.60 0.8424896
586.70 0.8423251
586.80 0.842114
586.90 0.841827
587.00 0.8415402
587.10 0.8412536
587.20 0.8411066
587.30 0.8411873
587.40 0.8411285
587.50 0.8408422
587.60 0.840556
587.70 0.84027
587.80 0.8399841
587.90 0.8396984
588.00 0.8394824
588.10 0.8393799
588.20 0.8392776
588.30 0.8391752
588.40 0.8390497
588.50 0.8388864
588.60 0.8387232
588.70 0.8385601
588.80 0.838397
588.90 0.838234
589.00 0.8380526
589.10 0.8378411
589.20 0.8376297
589.30 0.8374183
589.40 0.8372071
589.50 0.8369959
589.60 0.8367849
589.70 0.836574
589.80 0.8363631
589.90 0.8361523
590.00 0.83595
590.10 0.8357612
590.20 0.8355726
590.30 0.835384
590.40 0.8351955
590.50 0.8350071
590.60 0.8348188
590.70 0.8346306
590.80 0.8344375
590.90 0.8342424
591.00 0.8340474
591.10 0.8338524
591.20 0.8336575
591.30 0.8334627
591.40 0.833268
591.50 0.8330734
591.60 0.8328825
591.70 0.8326974
591.80 0.8325124
591.90 0.8323275
592.00 0.8321427
592.10 0.831958
592.20 0.8317733
592.30 0.8315887
592.40 0.8314042
592.50 0.8312198
592.60 0.8310354
592.70 0.8308511
592.80 0.8306669
592.90 0.8304828
593.00 0.8302988
593.10 0.8301057
593.20 0.8298978
593.30 0.82969
593.40 0.8294823
593.50 0.8292747
593.60 0.8290672
593.70 0.8288598
593.80 0.8286524
593.90 0.8284452
594.00 0.8282381
594.10 0.828031
594.20 0.8278241
594.30 0.8276172
594.40 0.8274104
594.50 0.8272038
594.60 0.8269972
594.70 0.8267907
594.80 0.8265843
594.90 0.826378
595.00 0.8261718
595.10 0.8259729
595.20 0.8257861
595.30 0.8255994
595.40 0.8254128
595.50 0.8252262
595.60 0.8250397
595.70 0.8248533
595.80 0.824667
595.90 0.8244807
596.00 0.8242945
596.10 0.8241085
596.20 0.8239224
596.30 0.8237365
596.40 0.8235506
596.50 0.8233649
596.60 0.8231792
596.70 0.8229853
596.80 0.8227865
596.90 0.8225877
597.00 0.8223891
597.10 0.8221905
597.20 0.821992
597.30 0.8217936
597.40 0.8215953
597.50 0.8213971
597.60 0.8212008
597.70 0.8210077
597.80 0.8208145
597.90 0.8206215
598.00 0.8204286
598.10 0.8202357
598.20 0.820043
598.30 0.8198503
598.40 0.8196577
598.50 0.8194651
598.60 0.8192727
598.70 0.8190803
598.80 0.8188881
598.90 0.8186959
599.00 0.8185038
599.10 0.8183117
599.20 0.8181198
599.30 0.8179279
599.40 0.8177255
599.50 0.8175232
599.60 0.817321
599.70 0.8171188
599.80 0.8169168
599.90 0.8167148
600.00 0.816513
600.10 0.8163112
600.20 0.8161095
600.30 0.8159079
600.40 0.8157064
600.50 0.815505
600.60 0.8153036
600.70 0.8151024
600.80 0.8149012
600.90 0.8147002
601.00 0.8144992
601.10 0.8142983
601.20 0.8140975
601.30 0.8138968
601.40 0.8136798
601.50 0.8134629
601.60 0.8132461
601.70 0.8130294
601.80 0.8128128
601.90 0.8125963
602.00 0.8123799
602.10 0.8121636
602.20 0.8119474
602.30 0.8117313
602.40 0.8115153
602.50 0.8112994
602.60 0.8110836
602.70 0.8111568
602.80 0.8112451
602.90 0.8110196
603.00 0.8107941
603.10 0.8105688
603.20 0.8103436
603.30 0.8101184
603.40 0.8098934
603.50 0.8096685
603.60 0.8094437
603.70 0.809219
603.80 0.8089944
603.90 0.8087699
604.00 0.8085455
604.10 0.8083212
604.20 0.808097
604.30 0.8078729
604.40 0.8076489
604.50 0.807451
604.60 0.8072532
604.70 0.8070555
604.80 0.8068579
604.90 0.8066604
605.00 0.8064629
605.10 0.8062655
605.20 0.8060683
605.30 0.8058711
605.40 0.805674
605.50 0.805523
605.60 0.8053721
605.70 0.8052212
605.80 0.8050704
605.90 0.8049196
606.00 0.804769
606.10 0.8045034
606.20 0.804238
606.30 0.8039727
606.40 0.8037076
606.50 0.8037868
606.60 0.803866
606.70 0.803601
606.80 0.8033361
606.90 0.8030714
607.00 0.8028068
607.10 0.8025424
607.20 0.8022781
607.30 0.8021855
607.40 0.802093
607.50 0.8020005
607.60 0.8019081
607.70 0.8016442
607.80 0.8013804
607.90 0.8011168
608.00 0.8008533
608.10 0.8005899
608.20 0.8003267
608.30 0.8002223
608.40 0.800118
608.50 0.8000138
608.60 0.7999095
608.70 0.7996959
608.80 0.7994332
608.90 0.7991706
609.00 0.7989082
609.10 0.7986459
609.20 0.7983837
609.30 0.798207
609.40 0.7980303
609.50 0.7978536
609.60 0.7976771
609.70 0.7975006
609.80 0.7973242
609.90 0.7971478
610.00 0.7969716
610.10 0.7967954
610.20 0.7966193
610.30 0.7964432
610.40 0.7962672
610.50 0.7960913
610.60 0.7959155
610.70 0.7957398
610.80 0.7955641
610.90 0.7953489
611.00 0.7951338
611.10 0.7949188
611.20 0.7947039
611.30 0.7944891
611.40 0.7942744
611.50 0.7940598
611.60 0.7938452
611.70 0.7936308
611.80 0.7934165
611.90 0.7932023
612.00 0.7929882
612.10 0.7927742
612.20 0.7925602
612.30 0.7923464
612.40 0.7921552
612.50 0.7919641
612.60 0.791773
612.70 0.791582
612.80 0.7913911
612.90 0.7912003
613.00 0.7910096
613.10 0.790819
613.20 0.7906284
613.30 0.7904379
613.40 0.7902475
613.50 0.7900572
613.60 0.789867
613.70 0.7896768
613.80 0.7894868
613.90 0.7892968
614.00 0.7891069
614.10 0.7889171
614.20 0.7887273
614.30 0.7885377
614.40 0.7884419
614.50 0.7883461
614.60 0.7882504
614.70 0.7881547
614.80 0.787979
614.90 0.787787
615.00 0.7875951
615.10 0.7874033
615.20 0.7872116
615.30 0.78702
615.40 0.7868285
615.50 0.786637
615.60 0.7864456
615.70 0.7862543
615.80 0.7860631
615.90 0.785872
616.00 0.7856809
616.10 0.7854899
616.20 0.785299
616.30 0.7851082
616.40 0.7849175
616.50 0.7847269
616.60 0.7845363
616.70 0.7843458
616.80 0.7841555
616.90 0.7839667
617.00 0.7837781
617.10 0.7835896
617.20 0.7834011
617.30 0.7832127
617.40 0.7830244
617.50 0.7828362
617.60 0.7826481
617.70 0.78246
617.80 0.782272
617.90 0.7820841
618.00 0.7818963
618.10 0.7817086
618.20 0.7815209
618.30 0.7813333
618.40 0.7811459
618.50 0.7809584
618.60 0.7807711
618.70 0.7805838
618.80 0.7803967
618.90 0.7802096
619.00 0.7800226
619.10 0.7798356
619.20 0.7796488
619.30 0.779462
619.40 0.7792753
619.50 0.7790887
619.60 0.7789022
619.70 0.7787157
619.80 0.7785293
619.90 0.778343
620.00 0.7781568
620.10 0.7779707
620.20 0.7777846
620.30 0.7775987
620.40 0.7774128
620.50 0.777227
620.60 0.7770412
620.70 0.7768556
620.80 0.77667
620.90 0.7764803
621.00 0.7762831
621.10 0.776086
621.20 0.775889
621.30 0.7756921
621.40 0.7754953
621.50 0.7752985
621.60 0.7751019
621.70 0.7749053
621.80 0.7747088
621.90 0.7745124
622.00 0.7743161
622.10 0.7741199
622.20 0.7739238
622.30 0.7737277
622.40 0.7735318
622.50 0.7733359
622.60 0.7731401
622.70 0.7729444
622.80 0.7727488
622.90 0.7725532
623.00 0.7723578
623.10 0.7721624
623.20 0.7719671
623.30 0.771772
623.40 0.7715769
623.50 0.7713818
623.60 0.7711869
623.70 0.770992
623.80 0.7707973
623.90 0.7706026
624.00 0.770408
624.10 0.7702135
624.20 0.7700191
624.30 0.7698247
624.40 0.7696305
624.50 0.7694363
624.60 0.7692422
624.70 0.7690482
624.80 0.7688543
624.90 0.7686605
625.00 0.7684668
625.10 0.7682731
625.20 0.7680795
625.30 0.767886
625.40 0.7676926
625.50 0.7674993
625.60 0.7673061
625.70 0.7671129
625.80 0.7669198
625.90 0.7667269
626.00 0.766534
626.10 0.7663411
626.20 0.7661484
626.30 0.7659558
626.40 0.7657632
626.50 0.7655707
626.60 0.7653783
626.70 0.765186
626.80 0.7649938
626.90 0.7648016
627.00 0.7646096
627.10 0.7644202
627.20 0.7642381
627.30 0.7640561
627.40 0.7638741
627.50 0.7636922
627.60 0.7635104
627.70 0.7633286
627.80 0.7631469
627.90 0.7629653
628.00 0.7627838
628.10 0.7626024
628.20 0.762421
628.30 0.7622397
628.40 0.7620585
628.50 0.7618774
628.60 0.7616964
628.70 0.7615154
628.80 0.7613345
628.90 0.7611536
629.00 0.7609729
629.10 0.7607922
629.20 0.7606116
629.30 0.7604311
629.40 0.7602507
629.50 0.7600703
629.60 0.75989
629.70 0.7597098
629.80 0.7595297
629.90 0.7593496
630.00 0.7591696
630.10 0.7589897
630.20 0.7588099
630.30 0.7586114
630.40 0.7584114
630.50 0.7582115
630.60 0.7580116
630.70 0.7578119
630.80 0.7576122
630.90 0.7574126
631.00 0.7572132
631.10 0.7570138
631.20 0.7568144
631.30 0.7566152
631.40 0.7564161
631.50 0.7562171
631.60 0.7560181
631.70 0.7558192
631.80 0.7556205
631.90 0.7554218
632.00 0.7552232
632.10 0.7550246
632.20 0.7548262
632.30 0.7546279
632.40 0.7544296
632.50 0.7542315
632.60 0.7540334
632.70 0.7538354
632.80 0.7536375
632.90 0.7534397
633.00 0.753242
633.10 0.7530443
633.20 0.7528468
633.30 0.7526493
633.40 0.7524517
633.50 0.752254
633.60 0.7520565
633.70 0.751859
633.80 0.7516615
633.90 0.7514642
634.00 0.751267
634.10 0.7510698
634.20 0.7508728
634.30 0.7506758
634.40 0.7504789
634.50 0.7502821
634.60 0.7500854
634.70 0.7498888
634.80 0.7496922
634.90 0.7494958
635.00 0.7492994
635.10 0.7491031
635.20 0.7489069
635.30 0.7487108
635.40 0.7485148
635.50 0.7483189
635.60 0.748123
635.70 0.7479272
635.80 0.7477316
635.90 0.747536
636.00 0.7473405
636.10 0.7471451
636.20 0.7469497
636.30 0.7467545
636.40 0.7465593
636.50 0.7463642
636.60 0.746187
636.70 0.7460118
636.80 0.7458367
636.90 0.7456616
637.00 0.7454866
637.10 0.7453117
637.20 0.7451369
637.30 0.7449621
637.40 0.7447875
637.50 0.7446128
637.60 0.7444383
637.70 0.7442638
637.80 0.7440894
637.90 0.7439151
638.00 0.7437409
638.10 0.7435667
638.20 0.7433926
638.30 0.7432186
638.40 0.7430446
638.50 0.7428707
638.60 0.7426969
638.70 0.7425232
638.80 0.7423495
638.90 0.7421759
639.00 0.7420024
639.10 0.7418289
639.20 0.7416556
639.30 0.7414822
639.40 0.741309
639.50 0.7411359
639.60 0.7409628
639.70 0.7407852
639.80 0.7405923
639.90 0.7403995
640.00 0.7402068
640.10 0.7400142
640.20 0.7398216
640.30 0.7396292
640.40 0.7394368
640.50 0.7392445
640.60 0.7390524
640.70 0.7388602
640.80 0.7386682
640.90 0.7384763
641.00 0.7382844
641.10 0.7380926
641.20 0.7379009
641.30 0.7377093
641.40 0.7375178
641.50 0.7373263
641.60 0.737135
641.70 0.7369437
641.80 0.7367525
641.90 0.7365614
642.00 0.7363704
642.10 0.7361794
642.20 0.7359886
642.30 0.7357978
642.40 0.7356071
642.50 0.7354165
642.60 0.735226
642.70 0.7350355
642.80 0.7348452
642.90 0.7346549
643.00 0.7344647
643.10 0.7342746
643.20 0.7340846
643.30 0.7338947
643.40 0.7337048
643.50 0.733515
643.60 0.7333253
643.70 0.7331357
643.80 0.7329462
643.90 0.7327568
644.00 0.7325674
644.10 0.7323781
644.20 0.7321889
644.30 0.7319998
644.40 0.7318108
644.50 0.7316218
644.60 0.731433
644.70 0.7312442
644.80 0.7310555
644.90 0.7308669
645.00 0.7306783
645.10 0.7304899
645.20 0.7303015
645.30 0.7301132
645.40 0.729925
645.50 0.7297369
645.60 0.7295488
645.70 0.7293609
645.80 0.729173
645.90 0.7289852
646.00 0.7287974
646.10 0.7286097
646.20 0.7284218
646.30 0.7282339
646.40 0.7280461
646.50 0.7278585
646.60 0.7276708
646.70 0.7274833
646.80 0.7272959
646.90 0.7271085
647.00 0.7269212
647.10 0.726734
647.20 0.7265469
647.30 0.7263598
647.40 0.7261729
647.50 0.725986
647.60 0.7257992
647.70 0.7256125
647.80 0.7254258
647.90 0.7252393
648.00 0.7250528
648.10 0.7248664
648.20 0.7246801
648.30 0.7244938
648.40 0.7243077
648.50 0.7241216
648.60 0.7239356
648.70 0.7237497
648.80 0.7235639
648.90 0.7233781
649.00 0.7231924
649.10 0.7230068
649.20 0.7228213
649.30 0.7226359
649.40 0.7224505
649.50 0.7222652
649.60 0.72208
649.70 0.7218949
649.80 0.7217099
649.90 0.7215249
650.00 0.72134
650.10 0.7211552
650.20 0.7209705
650.30 0.7207858
650.40 0.7206013
650.50 0.7204168
650.60 0.7202324
650.70 0.720048
650.80 0.7198638
650.90 0.7196796
651.00 0.7194955
651.10 0.7193115
651.20 0.7191276
651.30 0.7189437
651.40 0.7187599
651.50 0.7185762
651.60 0.7183926
651.70 0.7182091
651.80 0.7180256
651.90 0.7178422
652.00 0.7176589
652.10 0.7174757
652.20 0.7172926
652.30 0.7171095
652.40 0.7169265
652.50 0.7167436
652.60 0.7165612
652.70 0.7163793
652.80 0.7161974
652.90 0.7160155
653.00 0.7158338
653.10 0.7156521
653.20 0.7154705
653.30 0.715289
653.40 0.7151075
653.50 0.7149262
653.60 0.7147449
653.70 0.7145637
653.80 0.7143825
653.90 0.7142015
654.00 0.7140205
654.10 0.7138396
654.20 0.7136588
654.30 0.713478
654.40 0.7132974
654.50 0.7131168
654.60 0.7129362
654.70 0.7127558
654.80 0.7125754
654.90 0.7123952
655.00 0.712215
655.10 0.7120348
655.20 0.7118548
655.30 0.7116748
655.40 0.7114949
655.50 0.7113151
655.60 0.7111353
655.70 0.7109556
655.80 0.7107683
655.90 0.710581
656.00 0.7103938
656.10 0.7102067
656.20 0.7100196
656.30 0.7098327
656.40 0.7096458
656.50 0.709459
656.60 0.7092723
656.70 0.7090857
656.80 0.7088991
656.90 0.7087127
657.00 0.7085263
657.10 0.70834
657.20 0.7081537
657.30 0.7079676
657.40 0.7077815
657.50 0.7075955
657.60 0.7074096
657.70 0.7072238
657.80 0.7070088
657.90 0.7068338
658.00 0.706666
658.10 0.7064982
658.20 0.7063305
658.30 0.7061628
658.40 0.7059953
658.50 0.7058278
658.60 0.7056603
658.70 0.705493
658.80 0.7053257
658.90 0.7051585
659.00 0.7049913
659.10 0.7048055
659.20 0.7045917
659.30 0.7044302
659.40 0.7042688
659.50 0.7041075
659.60 0.7039462
659.70 0.703785
659.80 0.7036238
659.90 0.7034628
660.00 0.7033017
660.10 0.7031408
660.20 0.7029799
660.30 0.7028191
660.40 0.7026141
660.50 0.7024013
660.60 0.7021887
660.70 0.7019762
660.80 0.7017637
660.90 0.7016093
661.00 0.701455
661.10 0.7013008
661.20 0.7011466
661.30 0.7009925
661.40 0.7008384
661.50 0.7006844
661.60 0.7005305
661.70 0.7003766
661.80 0.7002228
661.90 0.7000112
662.00 0.6997997
662.10 0.6995884
662.20 0.6993771
662.30 0.6991659
662.40 0.6989548
662.50 0.6987438
662.60 0.6985329
662.70 0.6983221
662.80 0.6981114
662.90 0.6979008
663.00 0.6976903
663.10 0.6974799
663.20 0.6972696
663.30 0.6970593
663.40 0.6968492
663.50 0.6966392
663.60 0.6964292
663.70 0.6964868
663.80 0.6965443
663.90 0.6963745
664.00 0.6961648
664.10 0.6959552
664.20 0.6957456
664.30 0.6955362
664.40 0.6953268
664.50 0.6951176
664.60 0.6949084
664.70 0.6946993
664.80 0.6944903
664.90 0.6942814
665.00 0.6940727
665.10 0.693864
665.20 0.6936554
665.30 0.6934468
665.40 0.6932384
665.50 0.6930301
665.60 0.6928219
665.70 0.6926504
665.80 0.6925171
665.90 0.6923839
666.00 0.6922507
666.10 0.6921176
666.20 0.6919845
666.30 0.6918515
666.40 0.6917185
666.50 0.6915222
666.60 0.6913147
666.70 0.6911073
666.80 0.6909001
666.90 0.6906929
667.00 0.6904858
667.10 0.6902788
667.20 0.6900719
667.30 0.6898651
667.40 0.6896584
667.50 0.6894517
667.60 0.6892452
667.70 0.6891098
667.80 0.6894003
667.90 0.6891939
668.00 0.6889875
668.10 0.6887813
668.20 0.6885752
668.30 0.6883691
668.40 0.6881631
668.50 0.6879573
668.60 0.6877515
668.70 0.6875458
668.80 0.6873402
668.90 0.6871347
669.00 0.6869293
669.10 0.686724
669.20 0.6865188
669.30 0.6863617
669.40 0.6862132
669.50 0.6860647
669.60 0.6859163
669.70 0.6857679
669.80 0.6856196
669.90 0.6854714
670.00 0.6853232
670.10 0.685175
670.20 0.685027
670.30 0.6848311
670.40 0.6846268
670.50 0.6844226
670.60 0.6842185
670.70 0.6840144
670.80 0.6838105
670.90 0.6836067
671.00 0.6834029
671.10 0.6831993
671.20 0.6829957
671.30 0.6827923
671.40 0.6825889
671.50 0.6823856
671.60 0.6821824
671.70 0.6819793
671.80 0.6817763
671.90 0.6816703
672.00 0.6815814
672.10 0.6814925
672.20 0.6814037
672.30 0.6813149
672.40 0.6811202
672.50 0.6809177
672.60 0.6807152
672.70 0.6805128
672.80 0.6803106
672.90 0.6801084
673.00 0.6799063
673.10 0.6797043
673.20 0.6795024
673.30 0.6793005
673.40 0.6791225
673.50 0.6789488
673.60 0.6787751
673.70 0.6786015
673.80 0.678428
673.90 0.6782546
674.00 0.6780812
674.10 0.6779079
674.20 0.6777347
674.30 0.6775615
674.40 0.6773884
674.50 0.6772154
674.60 0.6770425
674.70 0.6768696
674.80 0.6766968
674.90 0.6765241
675.00 0.6763515
675.10 0.6761789
675.20 0.6760064
675.30 0.675834
675.40 0.6756569
675.50 0.675479
675.60 0.6753013
675.70 0.6751236
675.80 0.674946
675.90 0.6747685
676.00 0.674591
676.10 0.6744136
676.20 0.6742363
676.30 0.6740591
676.40 0.673882
676.50 0.6737049
676.60 0.6735279
676.70 0.673351
676.80 0.6731741
676.90 0.6729973
677.00 0.6728206
677.10 0.672644
677.20 0.6724675
677.30 0.672291
677.40 0.6721146
677.50 0.6719383
677.60 0.671762
677.70 0.6715858
677.80 0.6714097
677.90 0.671215
678.00 0.671017
678.10 0.6708191
678.20 0.6706213
678.30 0.6704235
678.40 0.6702259
678.50 0.6700284
678.60 0.6698309
678.70 0.6696335
678.80 0.6694363
678.90 0.6692391
679.00 0.6690419
679.10 0.6688619
679.20 0.6686892
679.30 0.6685166
679.40 0.6683441
679.50 0.6681716
679.60 0.6679992
679.70 0.6678269
679.80 0.6676546
679.90 0.6674824
680.00 0.6673103
680.10 0.6671383
680.20 0.6669663
680.30 0.6667945
680.40 0.6666226
680.50 0.6664509
680.60 0.6662792
680.70 0.6661076
680.80 0.6659361
680.90 0.6657646
681.00 0.6655933
681.10 0.6654219
681.20 0.6652507
681.30 0.6650795
681.40 0.6649084
681.50 0.6647374
681.60 0.6645665
681.70 0.6643956
681.80 0.6642248
681.90 0.664054
682.00 0.6638834
682.10 0.6637128
682.20 0.6635422
682.30 0.6633718
682.40 0.6632014
682.50 0.6630311
682.60 0.6628609
682.70 0.6626907
682.80 0.6625206
682.90 0.6623506
683.00 0.6621806
683.10 0.6620107
683.20 0.6618409
683.30 0.6616712
683.40 0.6615015
683.50 0.6613319
683.60 0.6611624
683.70 0.6609929
683.80 0.6608236
683.90 0.6606542
684.00 0.660485
684.10 0.6603158
684.20 0.6601467
684.30 0.6599777
684.40 0.6598087
684.50 0.6596398
684.60 0.659471
684.70 0.6593023
684.80 0.6591336
684.90 0.658965
685.00 0.6587964
685.10 0.658628
685.20 0.6584596
685.30 0.6582912
685.40 0.658123
685.50 0.6579548
685.60 0.6577867
685.70 0.6576186
685.80 0.6574507
685.90 0.6572763
686.00 0.6571004
686.10 0.6569245
686.20 0.6567487
686.30 0.656573
686.40 0.6563974
686.50 0.6562219
686.60 0.6560464
686.70 0.655871
686.80 0.6556957
686.90 0.6555204
687.00 0.6553453
687.10 0.6551702
687.20 0.6549951
687.30 0.6548202
687.40 0.6546453
687.50 0.6544705
687.60 0.6542958
687.70 0.6541211
687.80 0.6539465
687.90 0.653772
688.00 0.6535976
688.10 0.6534232
688.20 0.6532489
688.30 0.6530747
688.40 0.6529006
688.50 0.6527265
688.60 0.6525525
688.70 0.6523786
688.80 0.6522047
688.90 0.652031
689.00 0.6518573
689.10 0.6516836
689.20 0.6515101
689.30 0.6513366
689.40 0.6511632
689.50 0.6509899
689.60 0.6508166
689.70 0.6506434
689.80 0.6504703
689.90 0.6502973
690.00 0.6501243
690.10 0.6499514
690.20 0.6497786
690.30 0.6496058
690.40 0.6494332
690.50 0.6492605
690.60 0.649088
690.70 0.6489156
690.80 0.6487432
690.90 0.6485709
691.00 0.6483986
691.10 0.6482265
691.20 0.6480544
691.30 0.6478823
691.40 0.6477104
691.50 0.6475385
691.60 0.6473667
691.70 0.647195
691.80 0.6470233
691.90 0.6468517
692.00 0.6466802
692.10 0.6465088
692.20 0.6463374
692.30 0.6461661
692.40 0.6459948
692.50 0.6458237
692.60 0.6456526
692.70 0.6454812
692.80 0.6453087
692.90 0.6451361
693.00 0.6449637
693.10 0.6447913
693.20 0.644619
693.30 0.6444468
693.40 0.6442747
693.50 0.6441026
693.60 0.6439306
693.70 0.6437587
693.80 0.6435868
693.90 0.643415
694.00 0.6432433
694.10 0.6430716
694.20 0.6429001
694.30 0.6427286
694.40 0.6425571
694.50 0.6423858
694.60 0.6422145
694.70 0.6420433
694.80 0.6418722
694.90 0.6417011
695.00 0.6415301
695.10 0.6413592
695.20 0.6411883
695.30 0.6410175
695.40 0.6408468
695.50 0.6406762
695.60 0.6405056
695.70 0.6403351
695.80 0.6401647
695.90 0.6399944
696.00 0.6398241
696.10 0.6396539
696.20 0.6394837
696.30 0.6393137
696.40 0.6391437
696.50 0.6389738
696.60 0.6388098
696.70 0.6386473
696.80 0.6384849
696.90 0.6383225
697.00 0.6381602
697.10 0.637998
697.20 0.6378358
697.30 0.6376737
697.40 0.6375117
697.50 0.6373497
697.60 0.6371878
697.70 0.637026
697.80 0.6368642
697.90 0.6367025
698.00 0.6365409
698.10 0.6363793
698.20 0.6362178
698.30 0.6360564
698.40 0.635895
698.50 0.6357337
698.60 0.6355725
698.70 0.6354113
698.80 0.6352502
698.90 0.6350892
699.00 0.6349282
699.10 0.6347506
699.20 0.634569
699.30 0.6343875
699.40 0.6342061
699.50 0.6340248
699.60 0.6338436
699.70 0.6336624
699.80 0.6334813
699.90 0.6333003
700.00 0.6331194
700.10 0.6329385
700.20 0.6327578
700.30 0.6325771
700.40 0.6323964
700.50 0.6322159
700.60 0.6320354
700.70 0.631855
700.80 0.6316747
700.90 0.6314945
701.00 0.6313143
701.10 0.6311621
701.20 0.6310164
701.30 0.6308708
701.40 0.6307252
701.50 0.6305797
701.60 0.6304343
701.70 0.6302889
701.80 0.6301436
701.90 0.6299983
702.00 0.6298531
702.10 0.6297079
702.20 0.6295628
702.30 0.6294178
702.40 0.6292728
702.50 0.6291279
702.60 0.6289553
702.70 0.6287763
702.80 0.6285974
702.90 0.6284185
703.00 0.6282398
703.10 0.6280611
703.20 0.6278825
703.30 0.6277039
703.40 0.6275255
703.50 0.6273471
703.60 0.6271688
703.70 0.6269905
703.80 0.6268124
703.90 0.6266343
704.00 0.6264563
704.10 0.6262783
704.20 0.6261005
704.30 0.6259227
704.40 0.625745
704.50 0.6255674
704.60 0.6253898
704.70 0.6252123
704.80 0.6250349
704.90 0.6248576
705.00 0.6246803
705.10 0.6245032
705.20 0.6243261
705.30 0.624149
705.40 0.6239721
705.50 0.6237952
705.60 0.6236184
705.70 0.6234417
705.80 0.623265
705.90 0.6230885
706.00 0.622912
706.10 0.6227355
706.20 0.6225592
706.30 0.6223829
706.40 0.6222067
706.50 0.6220306
706.60 0.6218545
706.70 0.6216786
706.80 0.6215027
706.90 0.6213268
707.00 0.6212537
707.10 0.6212046
707.20 0.6211555
707.30 0.6211064
707.40 0.6209549
707.50 0.6207794
707.60 0.6206039
707.70 0.6204286
707.80 0.6202533
707.90 0.620078
708.00 0.6199029
708.10 0.6197278
708.20 0.6195528
708.30 0.6193779
708.40 0.619203
708.50 0.6190282
708.60 0.6188535
708.70 0.6186789
708.80 0.6185043
708.90 0.6183299
709.00 0.6181554
709.10 0.6179811
709.20 0.6178068
709.30 0.6176327
709.40 0.6174585
709.50 0.6172845
709.60 0.6171105
709.70 0.6169366
709.80 0.6167628
709.90 0.6165891
710.00 0.6164154
710.10 0.6162418
710.20 0.6160683
710.30 0.6158948
710.40 0.6157214
710.50 0.6155481
710.60 0.6153749
710.70 0.6152017
710.80 0.6150286
710.90 0.6148556
711.00 0.6146827
711.10 0.6145098
711.20 0.614337
711.30 0.6141643
711.40 0.6139916
711.50 0.613819
711.60 0.6136465
711.70 0.6134741
711.80 0.6133017
711.90 0.6131295
712.00 0.6129572
712.10 0.6128096
712.20 0.6126679
712.30 0.6125261
712.40 0.6123845
712.50 0.6122429
712.60 0.6121013
712.70 0.6119598
712.80 0.6118183
712.90 0.6116769
713.00 0.6115356
713.10 0.6113943
713.20 0.6112531
713.30 0.6111119
713.40 0.6109708
713.50 0.6108297
713.60 0.6106887
713.70 0.6105378
713.80 0.6103668
713.90 0.6101958
714.00 0.6100249
714.10 0.609854
714.20 0.6096833
714.30 0.6095126
714.40 0.609342
714.50 0.6091714
714.60 0.6090009
714.70 0.6088305
714.80 0.6086602
714.90 0.6084899
715.00 0.6083197
715.10 0.6081496
715.20 0.6079795
715.30 0.6078096
715.40 0.6076396
715.50 0.6074698
715.60 0.6073
715.70 0.6071303
715.80 0.6069607
715.90 0.6067912
716.00 0.6066217
716.10 0.6064523
716.20 0.6062829
716.30 0.6061137
716.40 0.6059445
716.50 0.6057753
716.60 0.6056063
716.70 0.6054373
716.80 0.6052684
716.90 0.6050995
717.00 0.6049307
717.10 0.604762
717.20 0.6045934
717.30 0.6044248
717.40 0.6042564
717.50 0.6040879
717.60 0.6039196
717.70 0.6037513
717.80 0.6035831
717.90 0.6034149
718.00 0.6032469
718.10 0.6030789
718.20 0.6029237
718.30 0.6027755
718.40 0.6026273
718.50 0.6024792
718.60 0.6023311
718.70 0.6021832
718.80 0.6020352
718.90 0.6018873
719.00 0.6017395
719.10 0.6015918
719.20 0.6014441
719.30 0.6012964
719.40 0.6011488
719.50 0.6010013
719.60 0.6008539
719.70 0.6007065
719.80 0.6005591
719.90 0.6004118
720.00 0.6002646
720.10 0.6001174
720.20 0.5999703
720.30 0.5998233
720.40 0.5996763
720.50 0.5995293
720.60 0.5993825
720.70 0.599223
720.80 0.5990567
720.90 0.5988905
721.00 0.5987244
721.10 0.5985584
721.20 0.5983924
721.30 0.5982265
721.40 0.5980606
721.50 0.5978949
721.60 0.5977292
721.70 0.5975635
721.80 0.597398
721.90 0.5972325
722.00 0.597067
722.10 0.5969017
722.20 0.5967364
722.30 0.5965712
722.40 0.596406
722.50 0.5962409
722.60 0.5960759
722.70 0.595911
722.80 0.5957461
722.90 0.5955813
723.00 0.5954165
723.10 0.5952519
723.20 0.5950873
723.30 0.5949227
723.40 0.5947583
723.50 0.5945939
723.60 0.5944295
723.70 0.5942653
723.80 0.5941011
723.90 0.5939369
724.00 0.5937729
724.10 0.5936089
724.20 0.593445
724.30 0.5932811
724.40 0.5931173
724.50 0.5929536
724.60 0.5927899
724.70 0.5926264
724.80 0.5924628
724.90 0.5922994
725.00 0.592136
725.10 0.5919727
725.20 0.5918095
725.30 0.5916463
725.40 0.5914832
725.50 0.5913201
725.60 0.5911571
725.70 0.5909942
725.80 0.5908314
725.90 0.5906686
726.00 0.5905059
726.10 0.5903433
726.20 0.5901807
726.30 0.5900182
726.40 0.5898558
726.50 0.5896934
726.60 0.5895311
726.70 0.5893688
726.80 0.5892067
726.90 0.5890446
727.00 0.5888825
727.10 0.5887206
727.20 0.5885587
727.30 0.5883968
727.40 0.588235
727.50 0.5880733
727.60 0.5879117
727.70 0.5877501
727.80 0.5875886
727.90 0.5874272
728.00 0.5872658
728.10 0.5871045
728.20 0.5869433
728.30 0.5867821
728.40 0.586621
728.50 0.58646
728.60 0.586299
728.70 0.5861381
728.80 0.5859773
728.90 0.5858165
729.00 0.5856558
729.10 0.5854951
729.20 0.5853346
729.30 0.5851741
729.40 0.5850136
729.50 0.5848532
729.60 0.5846929
729.70 0.5845327
729.80 0.5843725
729.90 0.5842124
730.00 0.5840523
730.10 0.5838924
730.20 0.5837324
730.30 0.5835726
730.40 0.5834128
730.50 0.5832531
730.60 0.5830934
730.70 0.5829338
730.80 0.5827743
730.90 0.5826149
731.00 0.5824555
731.10 0.5822962
731.20 0.5821369
731.30 0.5819777
731.40 0.5818186
731.50 0.5816595
731.60 0.5815005
731.70 0.5813416
731.80 0.5811827
731.90 0.5810239
732.00 0.5808652
732.10 0.5807065
732.20 0.5805479
732.30 0.5803893
732.40 0.5802309
732.50 0.5800724
732.60 0.5799141
732.70 0.5797558
732.80 0.5795976
732.90 0.5794394
733.00 0.5792813
733.10 0.5791233
733.20 0.5789654
733.30 0.5788075
733.40 0.5786496
733.50 0.5784919
733.60 0.5783342
733.70 0.5781765
733.80 0.5780189
733.90 0.5778614
734.00 0.577704
734.10 0.5775466
734.20 0.5773893
734.30 0.577232
734.40 0.5770749
734.50 0.5769177
734.60 0.5767607
734.70 0.5766037
734.80 0.5764467
734.90 0.5762899
735.00 0.5761331
735.10 0.5759763
735.20 0.5758197
735.30 0.5756631
735.40 0.5755065
735.50 0.57535
735.60 0.5751936
735.70 0.5750494
735.80 0.5749118
735.90 0.5747743
736.00 0.5746368
736.10 0.5744994
736.20 0.574362
736.30 0.5742247
736.40 0.5740874
736.50 0.5739502
736.60 0.5738131
736.70 0.573676
736.80 0.5735389
736.90 0.5734019
737.00 0.573265
737.10 0.5731281
737.20 0.5729913
737.30 0.5728545
737.40 0.5727177
737.50 0.5725811
737.60 0.5724444
737.70 0.5723079
737.80 0.5721713
737.90 0.5720349
738.00 0.5718985
738.10 0.5717621
738.20 0.571607
738.30 0.5714419
738.40 0.5712768
738.50 0.5711118
738.60 0.5709469
738.70 0.570782
738.80 0.5706172
738.90 0.5704525
739.00 0.5702878
739.10 0.5701233
739.20 0.5699587
739.30 0.5697943
739.40 0.5696299
739.50 0.5694656
739.60 0.5693013
739.70 0.5691372
739.80 0.568973
739.90 0.568809
740.00 0.568645
740.10 0.5684811
740.20 0.5683173
740.30 0.5681535
740.40 0.5679898
740.50 0.5678262
740.60 0.5676626
740.70 0.5674991
740.80 0.5673357
740.90 0.5671723
741.00 0.567009
741.10 0.5668458
741.20 0.5666826
741.30 0.5665195
741.40 0.5663565
741.50 0.5661935
741.60 0.5660306
741.70 0.5658678
741.80 0.565705
741.90 0.5655423
742.00 0.5653797
742.10 0.5652171
742.20 0.5650547
742.30 0.5648922
742.40 0.5647299
742.50 0.5645676
742.60 0.5644054
742.70 0.5642488
742.80 0.5640969
742.90 0.563945
743.00 0.5637932
743.10 0.5636415
743.20 0.5634898
743.30 0.5633382
743.40 0.5631867
743.50 0.5630352
743.60 0.5628838
743.70 0.5627324
743.80 0.5625811
743.90 0.5624299
744.00 0.5622787
744.10 0.5621276
744.20 0.5619765
744.30 0.5618255
744.40 0.5616746
744.50 0.5615237
744.60 0.5613729
744.70 0.5612221
744.80 0.5610714
744.90 0.5609208
745.00 0.5607702
745.10 0.5606197
745.20 0.5604693
745.30 0.5603189
745.40 0.5601685
745.50 0.5600183
745.60 0.5598681
745.70 0.5597179
745.80 0.5595678
745.90 0.5594178
746.00 0.5592678
746.10 0.5591179
746.20 0.5589681
746.30 0.5588183
746.40 0.5586686
746.50 0.5585189
746.60 0.5583693
746.70 0.5582197
746.80 0.5580702
746.90 0.5579208
747.00 0.5577715
747.10 0.5576221
747.20 0.5574729
747.30 0.5573237
747.40 0.5571746
747.50 0.5570255
747.60 0.5568765
747.70 0.5567276
747.80 0.5565787
747.90 0.5564299
748.00 0.5562811
748.10 0.5561324
748.20 0.5559837
748.30 0.5558351
748.40 0.5556866
748.50 0.5555381
748.60 0.5553897
748.70 0.5552414
748.80 0.5550931
748.90 0.5549449
749.00 0.5547967
749.10 0.5546486
749.20 0.5545005
749.30 0.5543525
749.40 0.5542046
749.50 0.5540567
749.60 0.5539089
749.70 0.5537611
749.80 0.5536134
749.90 0.5534658
750.00 0.5533182
750.10 0.5531707
750.20 0.5530232
750.30 0.5528758
750.40 0.5527285
750.50 0.5525812
750.60 0.552434
750.70 0.5522868
750.80 0.5521397
750.90 0.5519926
751.00 0.5518456
751.10 0.5516987
751.20 0.5515518
751.30 0.551405
751.40 0.5512583
751.50 0.5511116
751.60 0.5509649
751.70 0.5508183
751.80 0.5506718
751.90 0.5505253
752.00 0.5503789
752.10 0.5502326
752.20 0.5500863
752.30 0.5499401
752.40 0.5497939
752.50 0.5496478
752.60 0.5495017
752.70 0.5493557
752.80 0.5492098
752.90 0.5490639
753.00 0.5489181
753.10 0.5487723
753.20 0.5486266
753.30 0.548481
753.40 0.5483354
753.50 0.5481898
753.60 0.5480444
753.70 0.5478989
753.80 0.5477536
753.90 0.5476083
754.00 0.547463
754.10 0.5473178
754.20 0.5471727
754.30 0.5470276
754.40 0.5468826
754.50 0.5467377
754.60 0.5465928
754.70 0.5464479
754.80 0.5463032
754.90 0.5461584
755.00 0.5460138
755.10 0.5458691
755.20 0.5457246
755.30 0.5455801
755.40 0.5454357
755.50 0.5452913
755.60 0.545147
755.70 0.5450027
755.80 0.5448585
755.90 0.5447143
756.00 0.5445702
756.10 0.5444262
756.20 0.5442822
756.30 0.5441383
756.40 0.5439944
756.50 0.5438506
756.60 0.5437069
756.70 0.5435632
756.80 0.5434195
756.90 0.5432759
757.00 0.5431324
757.10 0.542989
757.20 0.5428455
757.30 0.5427022
757.40 0.5425589
757.50 0.5424157
757.60 0.5422692
757.70 0.5421144
757.80 0.5419597
757.90 0.5418051
758.00 0.5416505
758.10 0.541496
758.20 0.5413415
758.30 0.5411871
758.40 0.5410328
758.50 0.5408785
758.60 0.5407243
758.70 0.5405702
758.80 0.5404161
758.90 0.5402621
759.00 0.5401081
759.10 0.5399542
759.20 0.5398004
759.30 0.5396466
759.40 0.5394929
759.50 0.5393393
759.60 0.5391857
759.70 0.5390322
759.80 0.5388787
759.90 0.5387253
760.00 0.538572
760.10 0.5384187
760.20 0.5382655
760.30 0.5381123
760.40 0.5379592
760.50 0.5378062
760.60 0.5376533
760.70 0.5375004
760.80 0.5373475
760.90 0.5371947
761.00 0.537042
761.10 0.5368894
761.20 0.5367368
761.30 0.5365842
761.40 0.5364364
761.50 0.5362955
761.60 0.5361547
761.70 0.5360139
761.80 0.5358732
761.90 0.5357325
762.00 0.5355919
762.10 0.5354514
762.20 0.5353109
762.30 0.5351705
762.40 0.5350301
762.50 0.5348898
762.60 0.5347495
762.70 0.5346093
762.80 0.5344691
762.90 0.534329
763.00 0.5341889
763.10 0.5340489
763.20 0.533909
763.30 0.5337691
763.40 0.5336293
763.50 0.5334895
763.60 0.5333498
763.70 0.5332101
763.80 0.5330705
763.90 0.532931
764.00 0.5327915
764.10 0.532652
764.20 0.5325126
764.30 0.5323733
764.40 0.532234
764.50 0.5320948
764.60 0.5319556
764.70 0.5318165
764.80 0.5316774
764.90 0.5315384
765.00 0.5313995
765.10 0.5312606
765.20 0.5311188
765.30 0.5309743
765.40 0.5308299
765.50 0.5306856
765.60 0.5305413
765.70 0.5303971
765.80 0.530253
765.90 0.5301089
766.00 0.5299648
766.10 0.5298209
766.20 0.5296769
766.30 0.5295331
766.40 0.5293892
766.50 0.5292455
766.60 0.5291018
766.70 0.5289581
766.80 0.5288146
766.90 0.528671
767.00 0.5285276
767.10 0.5283841
767.20 0.5282408
767.30 0.5280975
767.40 0.5279542
767.50 0.5278111
767.60 0.5276679
767.70 0.5275249
767.80 0.5273818
767.90 0.5272389
768.00 0.527096
768.10 0.5269531
768.20 0.5268103
768.30 0.5266676
768.40 0.5265249
768.50 0.5263823
768.60 0.5262397
768.70 0.5260972
768.80 0.5259548
768.90 0.5258124
769.00 0.52567
769.10 0.5255278
769.20 0.5253855
769.30 0.5252434
769.40 0.5251012
769.50 0.5249592
769.60 0.5248172
769.70 0.5246752
769.80 0.5245333
769.90 0.5243915
770.00 0.5242497
770.10 0.524108
770.20 0.5239663
770.30 0.5238247
770.40 0.5236832
770.50 0.5235417
770.60 0.5234002
770.70 0.5232588
770.80 0.5231175
770.90 0.5229762
771.00 0.522835
771.10 0.5226938
771.20 0.5225527
771.30 0.5224117
771.40 0.5222707
771.50 0.5221297
771.60 0.5219889
771.70 0.521848
771.80 0.5217073
771.90 0.5215665
772.00 0.5214259
772.10 0.5212853
772.20 0.5211447
772.30 0.5210042
772.40 0.5208638
772.50 0.5207234
772.60 0.520583
772.70 0.5204428
772.80 0.5203025
772.90 0.5201569
773.00 0.5200114
773.10 0.5198659
773.20 0.5197205
773.30 0.5195751
773.40 0.5194298
773.50 0.5192846
773.60 0.5191394
773.70 0.5189942
773.80 0.5188491
773.90 0.5187041
774.00 0.5185592
774.10 0.5184143
774.20 0.5182694
774.30 0.5181246
774.40 0.5179799
774.50 0.5178352
774.60 0.5176906
774.70 0.517546
774.80 0.5174015
774.90 0.5172571
775.00 0.5171127
775.10 0.5169684
775.20 0.5168241
775.30 0.5166799
775.40 0.5165357
775.50 0.5163916
775.60 0.5162476
775.70 0.5161036
775.80 0.5159596
775.90 0.5158158
776.00 0.5156719
776.10 0.5155282
776.20 0.5153845
776.30 0.5152408
776.40 0.5150972
776.50 0.5149537
776.60 0.5148102
776.70 0.5146668
776.80 0.5145235
776.90 0.5143801
777.00 0.5142369
777.10 0.5140937
777.20 0.5139506
777.30 0.5138075
777.40 0.5136645
777.50 0.5135215
777.60 0.5133786
777.70 0.5132357
777.80 0.5130929
777.90 0.5129502
778.00 0.5128075
778.10 0.5126649
778.20 0.5125223
778.30 0.5123798
778.40 0.5122374
778.50 0.5120949
778.60 0.5119526
778.70 0.5118103
778.80 0.5116681
778.90 0.5115259
779.00 0.5113838
779.10 0.5112417
779.20 0.5110997
779.30 0.5109578
779.40 0.5108159
779.50 0.510674
779.60 0.5105322
779.70 0.5103905
779.80 0.5102488
779.90 0.5101072
780.00 0.5099657
780.10 0.5098242
780.20 0.5096827
780.30 0.5095413
780.40 0.5094
780.50 0.5092587
780.60 0.5091178
780.70 0.5089771
780.80 0.5088365
780.90 0.5086959
781.00 0.5085553
781.10 0.5084149
781.20 0.5082745
781.30 0.5081341
781.40 0.5079938
781.50 0.5078535
781.60 0.5077133
781.70 0.5075732
781.80 0.5074331
781.90 0.507293
782.00 0.5071531
782.10 0.5070131
782.20 0.5068733
782.30 0.5067335
782.40 0.5065937
782.50 0.506454
782.60 0.5063143
782.70 0.5061748
782.80 0.5060352
782.90 0.5058957
783.00 0.5057563
783.10 0.5056169
783.20 0.5054776
783.30 0.5053383
783.40 0.5051991
783.50 0.50506
783.60 0.5049209
783.70 0.5047818
783.80 0.5046428
783.90 0.5045039
784.00 0.504365
784.10 0.5042262
784.20 0.5040874
784.30 0.5039487
784.40 0.50381
784.50 0.5036714
784.60 0.5035326
784.70 0.5033933
784.80 0.5032541
784.90 0.503115
785.00 0.5029759
785.10 0.5028368
785.20 0.5026979
785.30 0.5025589
785.40 0.50242
785.50 0.5022812
785.60 0.5021425
785.70 0.5020037
785.80 0.5018651
785.90 0.5017265
786.00 0.5015879
786.10 0.5014494
786.20 0.501311
786.30 0.5011726
786.40 0.5010343
786.50 0.500896
786.60 0.5007578
786.70 0.5006196
786.80 0.5004815
786.90 0.5003434
787.00 0.5002054
787.10 0.5000674
787.20 0.4999295
787.30 0.4997917
787.40 0.4996539
787.50 0.4995162
787.60 0.4993785
787.70 0.4992408
787.80 0.4991033
787.90 0.4989657
788.00 0.4988283
788.10 0.4986908
788.20 0.4985535
788.30 0.4984162
788.40 0.4982862
788.50 0.4981598
788.60 0.4980335
788.70 0.4979072
788.80 0.4977809
788.90 0.4976547
789.00 0.4975286
789.10 0.4974025
789.20 0.4972765
789.30 0.4971505
789.40 0.4970245
789.50 0.4968986
789.60 0.4967728
789.70 0.496647
789.80 0.4965212
789.90 0.4963955
790.00 0.4962698
790.10 0.4961442
790.20 0.4960187
790.30 0.4958931
790.40 0.4957677
790.50 0.4956422
790.60 0.4955169
790.70 0.4953915
790.80 0.4952663
790.90 0.495141
791.00 0.4950158
791.10 0.4948907
791.20 0.4947656
791.30 0.4946406
791.40 0.4945156
791.50 0.4943906
791.60 0.4942657
791.70 0.4941409
791.80 0.4940161
791.90 0.4938913
792.00 0.4937666
792.10 0.4936419
792.20 0.4935173
792.30 0.4933902
792.40 0.4932554
792.50 0.4931207
792.60 0.4929861
792.70 0.4928515
792.80 0.4927169
792.90 0.4925824
793.00 0.492448
793.10 0.4923136
793.20 0.4921792
793.30 0.492045
793.40 0.4919107
793.50 0.4917765
793.60 0.4916424
793.70 0.4915083
793.80 0.4913743
793.90 0.4912403
794.00 0.4911064
794.10 0.4909725
794.20 0.4908387
794.30 0.4907049
794.40 0.4905712
794.50 0.4904376
794.60 0.490304
794.70 0.4901704
794.80 0.4900369
794.90 0.4899034
795.00 0.48977
795.10 0.4896367
795.20 0.4895034
795.30 0.4893701
795.40 0.4892369
795.50 0.4891038
795.60 0.4889707
795.70 0.4888376
795.80 0.4887046
795.90 0.4885717
796.00 0.4884388
796.10 0.488306
796.20 0.4881732
796.30 0.4880363
796.40 0.4878987
796.50 0.4877612
796.60 0.4876237
796.70 0.4874862
796.80 0.4873489
796.90 0.4872115
797.00 0.4870743
797.10 0.486937
797.20 0.4867999
797.30 0.4866627
797.40 0.4865257
797.50 0.4863887
797.60 0.4862517
797.70 0.4861148
797.80 0.485978
797.90 0.4858412
798.00 0.4857044
798.10 0.4855677
798.20 0.4854311
798.30 0.4852945
798.40 0.485158
798.50 0.4850215
798.60 0.4848851
798.70 0.4847487
798.80 0.4846124
798.90 0.4844762
799.00 0.4843399
799.10 0.4842038
799.20 0.4840677
799.30 0.4839316
799.40 0.4837956
799.50 0.4836597
799.60 0.4835238
799.70 0.483388
799.80 0.4832522
799.90 0.4831164
800.00 0.4829808
800.10 0.4828451
800.20 0.4827096
800.30 0.482574
800.40 0.4824386
800.50 0.4823031
800.60 0.4821678
800.70 0.4820325
800.80 0.4818972
800.90 0.481762
801.00 0.4816268
801.10 0.4814917
801.20 0.4813567
801.30 0.4812217
801.40 0.4810867
801.50 0.4809519
801.60 0.480817
801.70 0.4806822
801.80 0.4805475
801.90 0.4804128
802.00 0.4802782
802.10 0.4801436
802.20 0.4800091
802.30 0.4798746
802.40 0.4797402
802.50 0.4796058
802.60 0.4794715
802.70 0.4793372
802.80 0.479203
802.90 0.4790688
803.00 0.4789347
803.10 0.4788007
803.20 0.4786667
803.30 0.4785327
803.40 0.4783988
803.50 0.4782649
803.60 0.4781311
803.70 0.4779974
803.80 0.4778637
803.90 0.4777301
804.00 0.4775965
804.10 0.4774629
804.20 0.4773305
804.30 0.4772021
804.40 0.4770737
804.50 0.4769454
804.60 0.4768171
804.70 0.4766889
804.80 0.4765607
804.90 0.4764326
805.00 0.4763045
805.10 0.4761765
805.20 0.4760485
805.30 0.4759206
805.40 0.4757927
805.50 0.4756649
805.60 0.4755371
805.70 0.4754093
805.80 0.4752817
805.90 0.475154
806.00 0.4750264
806.10 0.4748989
806.20 0.4747714
806.30 0.4746439
806.40 0.4745165
806.50 0.4743892
806.60 0.4742619
806.70 0.4741346
806.80 0.4740074
806.90 0.4738803
807.00 0.4737532
807.10 0.4736261
807.20 0.4734991
807.30 0.4733721
807.40 0.4732452
807.50 0.4731184
807.60 0.4729916
807.70 0.4728648
807.80 0.4727381
807.90 0.4726114
808.00 0.4724848
808.10 0.4723582
808.20 0.4722317
808.30 0.4721052
808.40 0.4719788
808.50 0.4718524
808.60 0.471726
808.70 0.4715998
808.80 0.4714735
808.90 0.4713473
809.00 0.4712212
809.10 0.4710951
809.20 0.4709691
809.30 0.4708431
809.40 0.4707171
809.50 0.4705912
809.60 0.4704653
809.70 0.4703395
809.80 0.4702138
809.90 0.4700881
810.00 0.4699624
810.10 0.4698368
810.20 0.4697112
810.30 0.4695857
810.40 0.4694602
810.50 0.4693348
810.60 0.4692094
810.70 0.4690841
810.80 0.4689588
810.90 0.4688336
811.00 0.4687084
811.10 0.4685833
811.20 0.4684582
811.30 0.4683331
811.40 0.4682081
811.50 0.4680832
811.60 0.4679583
811.70 0.4678334
811.80 0.4677086
811.90 0.4675838
812.00 0.4674591
812.10 0.4673345
812.20 0.4672098
812.30 0.4670798
812.40 0.4669484
812.50 0.4668171
812.60 0.4666858
812.70 0.4665546
812.80 0.4664234
812.90 0.4662923
813.00 0.4661612
813.10 0.4660302
813.20 0.4658992
813.30 0.4657683
813.40 0.4656374
813.50 0.4655066
813.60 0.4653758
813.70 0.4652451
813.80 0.4651144
813.90 0.4649838
814.00 0.4648532
814.10 0.4647227
814.20 0.4645922
814.30 0.4644618
814.40 0.4643314
814.50 0.4642011
814.60 0.4640708
814.70 0.4639406
814.80 0.4638104
814.90 0.4636803
815.00 0.4635502
815.10 0.4634202
815.20 0.4632902
815.30 0.4631603
815.40 0.4630304
815.50 0.4629006
815.60 0.4627708
815.70 0.4626411
815.80 0.4625114
815.90 0.4623818
816.00 0.4622522
816.10 0.4621227
816.20 0.4619932
816.30 0.4618638
816.40 0.4617344
816.50 0.4616051
816.60 0.4614758
816.70 0.4613466
816.80 0.4612174
816.90 0.4610883
817.00 0.4609592
817.10 0.4608302
817.20 0.4607012
817.30 0.4605723
817.40 0.4604434
817.50 0.4603145
817.60 0.4601858
817.70 0.460057
817.80 0.4599283
817.90 0.4597997
818.00 0.4596711
818.10 0.4595426
818.20 0.4594141
818.30 0.4592856
818.40 0.4591573
818.50 0.4590289
818.60 0.4589006
818.70 0.4587724
818.80 0.4586442
818.90 0.458516
819.00 0.4583879
819.10 0.4582599
819.20 0.4581319
819.30 0.4580136
819.40 0.4579018
819.50 0.4577901
819.60 0.4576784
819.70 0.4575667
819.80 0.4574551
819.90 0.4573435
820.00 0.457232
820.10 0.4571205
820.20 0.457009
820.30 0.4568976
820.40 0.4567788
820.50 0.4566547
820.60 0.4565307
820.70 0.4564067
820.80 0.4562827
820.90 0.4561588
821.00 0.456035
821.10 0.4559112
821.20 0.4557874
821.30 0.4556637
821.40 0.45554
821.50 0.4554164
821.60 0.4552928
821.70 0.4551693
821.80 0.4550458
821.90 0.4549224
822.00 0.454799
822.10 0.4546756
822.20 0.4545523
822.30 0.4544291
822.40 0.4543059
822.50 0.4541827
822.60 0.4540596
822.70 0.4539366
822.80 0.4538135
822.90 0.4536906
823.00 0.4535676
823.10 0.4534448
823.20 0.4533219
823.30 0.4531991
823.40 0.4530764
823.50 0.4529537
823.60 0.4528311
823.70 0.4527085
823.80 0.4525859
823.90 0.4524634
824.00 0.4523409
824.10 0.4522185
824.20 0.4520962
824.30 0.4519738
824.40 0.4518516
824.50 0.4517293
824.60 0.4516071
824.70 0.451485
824.80 0.4513629
824.90 0.4512409
825.00 0.4511188
825.10 0.4509969
825.20 0.450875
825.30 0.4507531
825.40 0.4506313
825.50 0.4505095
825.60 0.4503878
825.70 0.4502661
825.80 0.4501445
825.90 0.4500229
826.00 0.4499013
826.10 0.4497798
826.20 0.4496584
826.30 0.4495349
826.40 0.44941
826.50 0.4492852
826.60 0.4491604
826.70 0.4490357
826.80 0.448911
826.90 0.4487864
827.00 0.4486618
827.10 0.4485373
827.20 0.4484128
827.30 0.4482883
827.40 0.4481639
827.50 0.4480396
827.60 0.4479153
827.70 0.447791
827.80 0.4476668
827.90 0.4475427
828.00 0.4474185
828.10 0.4472945
828.20 0.4471705
828.30 0.4470465
828.40 0.4469226
828.50 0.4467987
828.60 0.4466763
828.70 0.4465551
828.80 0.446434
828.90 0.446313
829.00 0.4461919
829.10 0.446071
829.20 0.4459501
829.30 0.4458292
829.40 0.4457084
829.50 0.4455876
829.60 0.4454668
829.70 0.4453461
829.80 0.4452255
829.90 0.4451049
830.00 0.4449843
830.10 0.4448638
830.20 0.4447433
830.30 0.4446229
830.40 0.4445025
830.50 0.4443822
830.60 0.4442619
830.70 0.4441417
830.80 0.4440215
830.90 0.4439013
831.00 0.4437812
831.10 0.4436611
831.20 0.4435411
831.30 0.4434212
831.40 0.4433012
831.50 0.4431813
831.60 0.4430615
831.70 0.4429417
831.80 0.442822
831.90 0.4427023
832.00 0.4425826
832.10 0.442463
832.20 0.4423434
832.30 0.4422239
832.40 0.4421044
832.50 0.441985
832.60 0.4418656
832.70 0.4417462
832.80 0.4416269
832.90 0.4415077
833.00 0.4413885
833.10 0.4412693
833.20 0.4411502
833.30 0.4410311
833.40 0.440912
833.50 0.4407931
833.60 0.4406741
833.70 0.4405552
833.80 0.4404364
833.90 0.4403175
834.00 0.4401988
834.10 0.44008
834.20 0.4399614
834.30 0.4398427
834.40 0.4397241
834.50 0.4396056
834.60 0.4394871
834.70 0.4393686
834.80 0.4392502
834.90 0.4391318
835.00 0.4390135
835.10 0.4388952
835.20 0.438777
835.30 0.4386588
835.40 0.4385406
835.50 0.4384225
835.60 0.4383045
835.70 0.4381865
835.80 0.4380685
835.90 0.4379505
836.00 0.4378327
836.10 0.4377148
836.20 0.437597
836.30 0.4374793
836.40 0.4373615
836.50 0.4372439
836.60 0.4371263
836.70 0.4370087
836.80 0.4368911
836.90 0.4367707
837.00 0.4366491
837.10 0.4365275
837.20 0.436406
837.30 0.4362845
837.40 0.436163
837.50 0.4360416
837.60 0.4359202
837.70 0.4357989
837.80 0.4356776
837.90 0.4355564
838.00 0.4354352
838.10 0.4353141
838.20 0.435193
838.30 0.4350719
838.40 0.4349509
838.50 0.43483
838.60 0.4347091
838.70 0.4345882
838.80 0.4344674
838.90 0.4343466
839.00 0.4342259
839.10 0.4341052
839.20 0.4339846
839.30 0.433864
839.40 0.4337434
839.50 0.4336229
839.60 0.4335025
839.70 0.433382
839.80 0.4332617
839.90 0.4331413
840.00 0.4330211
840.10 0.4329008
840.20 0.4327806
840.30 0.4326605
840.40 0.4325404
840.50 0.4324203
840.60 0.4323003
840.70 0.4321804
840.80 0.4320605
840.90 0.4319406
841.00 0.4318207
841.10 0.431701
841.20 0.4315812
841.30 0.4314615
841.40 0.4313419
841.50 0.4312223
841.60 0.4311027
841.70 0.4309832
841.80 0.4308637
841.90 0.4307443
842.00 0.4306249
842.10 0.4305056
842.20 0.4303863
842.30 0.4302671
842.40 0.4301479
842.50 0.4300287
842.60 0.4299096
842.70 0.4297905
842.80 0.4296715
842.90 0.4295525
843.00 0.4294336
843.10 0.4293147
843.20 0.4291959
843.30 0.4290771
843.40 0.4289583
843.50 0.4288396
843.60 0.4287209
843.70 0.4286023
843.80 0.4284837
843.90 0.4283652
844.00 0.4282467
844.10 0.4281282
844.20 0.4280098
844.30 0.4278915
844.40 0.4277732
844.50 0.4276549
844.60 0.4275367
844.70 0.4274185
844.80 0.4273003
844.90 0.4271822
845.00 0.4270642
845.10 0.4269462
845.20 0.4268282
845.30 0.4267146
845.40 0.4266011
845.50 0.4264876
845.60 0.4263742
845.70 0.4262608
845.80 0.4261475
845.90 0.4260341
846.00 0.4259209
846.10 0.4258076
846.20 0.4256945
846.30 0.4255813
846.40 0.4254682
846.50 0.4253551
846.60 0.4252421
846.70 0.4251291
846.80 0.4250162
846.90 0.4249033
847.00 0.4247905
847.10 0.4246776
847.20 0.4245649
847.30 0.4244521
847.40 0.4243395
847.50 0.4242268
847.60 0.4241142
847.70 0.4240016
847.80 0.4238891
847.90 0.4237766
848.00 0.4236642
848.10 0.4235518
848.20 0.4234394
848.30 0.4233271
848.40 0.4232148
848.50 0.4231026
848.60 0.4229904
848.70 0.4228782
848.80 0.4227661
848.90 0.4226541
849.00 0.422542
849.10 0.42243
849.20 0.4223181
849.30 0.4222062
849.40 0.4220943
849.50 0.4219825
849.60 0.4218707
849.70 0.421759
849.80 0.4216473
849.90 0.4215356
850.00 0.421424
850.10 0.4213124
850.20 0.4212009
850.30 0.4210894
850.40 0.4209779
850.50 0.4208665
850.60 0.4207551
850.70 0.4206438
850.80 0.4205325
850.90 0.4204212
851.00 0.42031
851.10 0.4201989
851.20 0.4200877
851.30 0.4199766
851.40 0.4198656
851.50 0.4197546
851.60 0.4196436
851.70 0.4195327
851.80 0.4194218
851.90 0.4193109
852.00 0.4192001
852.10 0.4190894
852.20 0.4189786
852.30 0.418868
852.40 0.4187573
852.50 0.4186467
852.60 0.4185361
852.70 0.4184256
852.80 0.4183151
852.90 0.4182047
853.00 0.4180943
853.10 0.4179839
853.20 0.4178736
853.30 0.4177633
853.40 0.4176531
853.50 0.4175429
853.60 0.4174327
853.70 0.4173207
853.80 0.4172067
853.90 0.4170927
854.00 0.4169787
854.10 0.4168648
854.20 0.416751
854.30 0.4166371
854.40 0.4165234
854.50 0.4164096
854.60 0.4162959
854.70 0.4161823
854.80 0.4160687
854.90 0.4159551
855.00 0.4158416
855.10 0.4157281
855.20 0.4156146
855.30 0.4155012
855.40 0.4153879
855.50 0.4152746
855.60 0.4151613
855.70 0.415048
855.80 0.4149349
855.90 0.4148217
856.00 0.4147086
856.10 0.4145955
856.20 0.4144825
856.30 0.4143695
856.40 0.4142566
856.50 0.4141437
856.60 0.4140308
856.70 0.413918
856.80 0.4138052
856.90 0.4136925
857.00 0.4135798
857.10 0.4134671
857.20 0.4133545
857.30 0.4132419
857.40 0.4131294
857.50 0.4130169
857.60 0.4129044
857.70 0.412792
857.80 0.4126797
857.90 0.4125673
858.00 0.4124551
858.10 0.4123428
858.20 0.4122306
858.30 0.4121185
858.40 0.4120063
858.50 0.4118943
858.60 0.4117822
858.70 0.4116702
858.80 0.4115583
858.90 0.4114463
859.00 0.4113345
859.10 0.4112226
859.20 0.4111108
859.30 0.4109991
859.40 0.4108874
859.50 0.4107757
859.60 0.4106641
859.70 0.4105525
859.80 0.410441
859.90 0.4103294
860.00 0.410218
860.10 0.4101066
860.20 0.4099952
860.30 0.4098838
860.40 0.4097725
860.50 0.4096613
860.60 0.40955
860.70 0.4094389
860.80 0.4093277
860.90 0.4092166
861.00 0.4091056
861.10 0.4089945
861.20 0.4088836
861.30 0.4087726
861.40 0.4086617
861.50 0.4085509
861.60 0.4084401
861.70 0.4083293
861.80 0.4082186
861.90 0.4081079
862.00 0.4079972
862.10 0.4078866
862.20 0.4077756
862.30 0.4076612
862.40 0.407547
862.50 0.4074327
862.60 0.4073185
862.70 0.4072044
862.80 0.4070902
862.90 0.4069762
863.00 0.4068621
863.10 0.4067482
863.20 0.4066342
863.30 0.4065203
863.40 0.4064064
863.50 0.4062926
863.60 0.4061788
863.70 0.4060651
863.80 0.4059514
863.90 0.4058378
864.00 0.4057241
864.10 0.4056106
864.20 0.405497
864.30 0.4053836
864.40 0.4052701
864.50 0.4051567
864.60 0.4050433
864.70 0.40493
864.80 0.4048167
864.90 0.4047035
865.00 0.4045903
865.10 0.4044772
865.20 0.404364
865.30 0.404251
865.40 0.4041379
865.50 0.404025
865.60 0.403912
865.70 0.4037991
865.80 0.4036862
865.90 0.4035734
866.00 0.4034606
866.10 0.4033479
866.20 0.4032352
866.30 0.4031225
866.40 0.4030099
866.50 0.4028974
866.60 0.4027848
866.70 0.4026723
866.80 0.4025599
866.90 0.4024475
867.00 0.4023351
867.10 0.4022228
867.20 0.4021105
867.30 0.4019982
867.40 0.401886
867.50 0.4017739
867.60 0.4016617
867.70 0.4015497
867.80 0.4014376
867.90 0.4013256
868.00 0.4012137
868.10 0.4011017
868.20 0.4009899
868.30 0.400878
868.40 0.4007662
868.50 0.4006545
868.60 0.4005428
868.70 0.4004311
868.80 0.4003195
868.90 0.4002079
869.00 0.4000963
869.10 0.3999848
869.20 0.3998734
869.30 0.3997619
869.40 0.3996505
869.50 0.3995392
869.60 0.3994279
869.70 0.3993166
869.80 0.3992054
869.90 0.3990942
870.00 0.3989831
870.10 0.398872
870.20 0.3987609
870.30 0.3986499
870.40 0.3985389
870.50 0.398428
870.60 0.3983171
870.70 0.3982062
870.80 0.3980954
870.90 0.3979882
871.00 0.3978815
871.10 0.3977748
871.20 0.3976682
871.30 0.3975616
871.40 0.397455
871.50 0.3973485
871.60 0.397242
871.70 0.3971356
871.80 0.3970292
871.90 0.3969228
872.00 0.3968165
872.10 0.3967102
872.20 0.3966039
872.30 0.3964977
872.40 0.3963915
872.50 0.3962854
872.60 0.3961793
872.70 0.3960732
872.80 0.3959672
872.90 0.3958612
873.00 0.3957553
873.10 0.3956494
873.20 0.3955435
873.30 0.3954376
873.40 0.3953319
873.50 0.3952261
873.60 0.3951204
873.70 0.3950147
873.80 0.3949091
873.90 0.3948034
874.00 0.3946979
874.10 0.3945923
874.20 0.3944869
874.30 0.3943814
874.40 0.394276
874.50 0.3941706
874.60 0.3940653
874.70 0.39396
874.80 0.3938547
874.90 0.3937495
875.00 0.3936443
875.10 0.3935391
875.20 0.393434
875.30 0.3933289
875.40 0.3932239
875.50 0.3931189
875.60 0.3930139
875.70 0.392909
875.80 0.3928041
875.90 0.3926993
876.00 0.3925945
876.10 0.3924897
876.20 0.392385
876.30 0.3922803
876.40 0.3921756
876.50 0.392071
876.60 0.3919664
876.70 0.3918618
876.80 0.3917573
876.90 0.3916529
877.00 0.3915484
877.10 0.391444
877.20 0.3913397
877.30 0.3912353
877.40 0.3911311
877.50 0.3910268
877.60 0.3909226
877.70 0.3908184
877.80 0.3907143
877.90 0.3906102
878.00 0.3905061
878.10 0.3904021
878.20 0.3902981
878.30 0.3901942
878.40 0.3900902
878.50 0.3899864
878.60 0.3898825
878.70 0.3897787
878.80 0.389675
878.90 0.3895712
879.00 0.3894675
879.10 0.3893639
879.20 0.3892603
879.30 0.3891567
879.40 0.3890532
879.50 0.3889496
879.60 0.3888463
879.70 0.388743
879.80 0.3886398
879.90 0.3885366
880.00 0.3884334
880.10 0.3883303
880.20 0.3882272
880.30 0.3881241
880.40 0.3880211
880.50 0.3879181
880.60 0.3878152
880.70 0.3877122
880.80 0.3876094
880.90 0.3875065
881.00 0.3874037
881.10 0.387301
881.20 0.3871982
881.30 0.3870955
881.40 0.3869929
881.50 0.3868903
881.60 0.3867877
881.70 0.3866851
881.80 0.3865826
881.90 0.3864801
882.00 0.3863777
882.10 0.3862753
882.20 0.3861729
882.30 0.3860706
882.40 0.3859683
882.50 0.3858661
882.60 0.3857639
882.70 0.3856617
882.80 0.3855595
882.90 0.3854574
883.00 0.3853554
883.10 0.3852533
883.20 0.3851513
883.30 0.3850494
883.40 0.3849474
883.50 0.3848455
883.60 0.3847437
883.70 0.3846419
883.80 0.3845401
883.90 0.3844383
884.00 0.3843304
884.10 0.3842214
884.20 0.3841124
884.30 0.3840034
884.40 0.3838945
884.50 0.3837856
884.60 0.3836768
884.70 0.383568
884.80 0.3834592
884.90 0.3833505
885.00 0.3832418
885.10 0.3831331
885.20 0.3830245
885.30 0.3829159
885.40 0.3828074
885.50 0.3826989
885.60 0.3825905
885.70 0.3824821
885.80 0.3823737
885.90 0.3822653
886.00 0.382157
886.10 0.3820488
886.20 0.3819406
886.30 0.3818324
886.40 0.3817242
886.50 0.3816161
886.60 0.3815081
886.70 0.3814001
886.80 0.3812921
886.90 0.3811841
887.00 0.3810762
887.10 0.3809684
887.20 0.3808605
887.30 0.3807527
887.40 0.380645
887.50 0.3805373
887.60 0.3804296
887.70 0.380322
887.80 0.3802144
887.90 0.3801068
888.00 0.3799993
888.10 0.3798918
888.20 0.3797844
888.30 0.379677
888.40 0.3795761
888.50 0.3794762
888.60 0.3793764
888.70 0.3792766
888.80 0.3791768
888.90 0.379077
889.00 0.3789773
889.10 0.3788777
889.20 0.378778
889.30 0.3786784
889.40 0.3785789
889.50 0.3784793
889.60 0.3783798
889.70 0.3782804
889.80 0.378181
889.90 0.3780816
890.00 0.3779822
890.10 0.3778829
890.20 0.3777836
890.30 0.3776844
890.40 0.3775852
890.50 0.377486
890.60 0.3773868
890.70 0.3772877
890.80 0.3771886
890.90 0.3770896
891.00 0.3769906
891.10 0.3768916
891.20 0.3767927
891.30 0.3766938
891.40 0.3765949
891.50 0.3764961
891.60 0.3763973
891.70 0.3762986
891.80 0.3761998
891.90 0.3761011
892.00 0.3760025
892.10 0.3759039
892.20 0.3758053
892.30 0.3757067
892.40 0.3756082
892.50 0.3755097
892.60 0.3754113
892.70 0.3753129
892.80 0.3752145
892.90 0.3751162
893.00 0.3750178
893.10 0.3749196
893.20 0.3748213
893.30 0.3747231
893.40 0.374625
893.50 0.3745268
893.60 0.3744287
893.70 0.3743307
893.80 0.3742326
893.90 0.3741346
894.00 0.3740367
894.10 0.3739387
894.20 0.3738408
894.30 0.373743
894.40 0.3736452
894.50 0.3735474
894.60 0.3734496
894.70 0.3733519
894.80 0.3732542
894.90 0.3731565
895.00 0.3730589
895.10 0.3729613
895.20 0.3728638
895.30 0.3727663
895.40 0.3726688
895.50 0.3725714
895.60 0.3724739
895.70 0.3723766
895.80 0.3722792
895.90 0.3721819
896.00 0.3720846
896.10 0.3719874
896.20 0.3718902
896.30 0.371793
896.40 0.3716959
896.50 0.3715988
896.60 0.3715017
896.70 0.3714046
896.80 0.3713076
896.90 0.3712107
897.00 0.3711137
897.10 0.3710168
897.20 0.3709197
897.30 0.370816
897.40 0.3707123
897.50 0.3706087
897.60 0.3705051
897.70 0.3704015
897.80 0.370298
897.90 0.3701945
898.00 0.3700911
898.10 0.3699877
898.20 0.3698843
898.30 0.369781
898.40 0.3696777
898.50 0.3695744
898.60 0.3694712
898.70 0.369368
898.80 0.3692649
898.90 0.3691617
899.00 0.3690587
899.10 0.3689556
899.20 0.3688526
899.30 0.3687497
899.40 0.3686467
899.50 0.3685438
899.60 0.368441
899.70 0.3683381
899.80 0.3682354
899.90 0.3681326
900.00 0.3680299
900.10 0.3679272
900.20 0.3678246
900.30 0.367722
900.40 0.3676194
900.50 0.3675169
900.60 0.3674144
900.70 0.3673119
900.80 0.3672095
900.90 0.3671071
901.00 0.3670048
901.10 0.3669025
901.20 0.3668002
901.30 0.366698
901.40 0.3665958
901.50 0.3664936
901.60 0.3663915
901.70 0.3662906
901.80 0.3661955
901.90 0.3661004
902.00 0.3660054
902.10 0.3659104
902.20 0.3658154
902.30 0.3657205
902.40 0.3656255
902.50 0.3655307
902.60 0.3654358
902.70 0.365341
902.80 0.3652462
902.90 0.3651515
903.00 0.3650567
903.10 0.3649621
903.20 0.3648674
903.30 0.3647728
903.40 0.3646782
903.50 0.3645836
903.60 0.3644891
903.70 0.3643946
903.80 0.3643002
903.90 0.3642058
904.00 0.3641114
904.10 0.364017
904.20 0.3639227
904.30 0.3638284
904.40 0.3637342
904.50 0.3636399
904.60 0.3635457
904.70 0.3634516
904.80 0.3633575
904.90 0.3632634
905.00 0.3631693
905.10 0.3630753
905.20 0.3629813
905.30 0.3628873
905.40 0.3627934
905.50 0.3626995
905.60 0.3626056
905.70 0.3625118
905.80 0.362418
905.90 0.3623242
906.00 0.3622305
906.10 0.3621368
906.20 0.362041
906.30 0.3619407
906.40 0.3618404
906.50 0.3617402
906.60 0.36164
906.70 0.3615398
906.80 0.3614397
906.90 0.3613396
907.00 0.3612396
907.10 0.3611395
907.20 0.3610395
907.30 0.3609396
907.40 0.3608397
907.50 0.3607398
907.60 0.36064
907.70 0.3605402
907.80 0.3604404
907.90 0.3603406
908.00 0.3602409
908.10 0.3601413
908.20 0.3600416
908.30 0.359942
908.40 0.3598425
908.50 0.3597429
908.60 0.3596435
908.70 0.359544
908.80 0.3594446
908.90 0.3593452
909.00 0.3592458
909.10 0.3591465
909.20 0.3590472
909.30 0.358948
909.40 0.3588488
909.50 0.3587496
909.60 0.3586505
909.70 0.3585513
909.80 0.3584523
909.90 0.3583532
910.00 0.3582542
910.10 0.3581553
910.20 0.3580563
910.30 0.3579574
910.40 0.3578586
910.50 0.3577597
910.60 0.3576609
910.70 0.3575622
910.80 0.3574635
910.90 0.3573648
911.00 0.3572661
911.10 0.3571675
911.20 0.3570689
911.30 0.3569704
911.40 0.3568718
911.50 0.3567734
911.60 0.3566749
911.70 0.3565765
911.80 0.3564781
911.90 0.3563798
912.00 0.3562815
912.10 0.3561832
912.20 0.356085
912.30 0.3559868
912.40 0.3558886
912.50 0.3557904
912.60 0.3556923
912.70 0.3555943
912.80 0.3554962
912.90 0.3553982
913.00 0.3553003
913.10 0.3552023
913.20 0.3551045
913.30 0.3550066
913.40 0.3549088
913.50 0.354811
913.60 0.3547132
913.70 0.3546155
913.80 0.3545178
913.90 0.3544201
914.00 0.3543225
914.10 0.3542249
914.20 0.3541274
914.30 0.3540299
914.40 0.3539324
914.50 0.3538349
914.60 0.3537375
914.70 0.3536401
914.80 0.3535428
914.90 0.3534455
915.00 0.3533482
915.10 0.353251
915.20 0.3531537
915.30 0.3530613
915.40 0.352971
915.50 0.3528807
915.60 0.3527904
915.70 0.3527001
915.80 0.3526099
915.90 0.3525197
916.00 0.3524296
916.10 0.3523395
916.20 0.3522494
916.30 0.3521593
916.40 0.3520693
916.50 0.3519793
916.60 0.3518893
916.70 0.3517993
916.80 0.3517094
916.90 0.3516196
917.00 0.3515297
917.10 0.3514399
917.20 0.3513501
917.30 0.3512604
917.40 0.3511706
917.50 0.3510809
917.60 0.3509913
917.70 0.3509016
917.80 0.350812
917.90 0.3507225
918.00 0.3506329
918.10 0.3505434
918.20 0.3504539
918.30 0.3503645
918.40 0.3502751
918.50 0.3501857
918.60 0.3500963
918.70 0.350007
918.80 0.3499177
918.90 0.3498284
919.00 0.3497392
919.10 0.34965
919.20 0.3495608
919.30 0.3494717
919.40 0.3493826
919.50 0.3492935
919.60 0.3492044
919.70 0.3491154
919.80 0.3490264
919.90 0.3489313
920.00 0.3488359
920.10 0.3487404
920.20 0.348645
920.30 0.3485497
920.40 0.3484543
920.50 0.348359
920.60 0.3482638
920.70 0.3481685
920.80 0.3480733
920.90 0.3479782
921.00 0.347883
921.10 0.3477879
921.20 0.3476929
921.30 0.3475978
921.40 0.3475028
921.50 0.3474079
921.60 0.3473129
921.70 0.347218
921.80 0.3471231
921.90 0.3470283
922.00 0.3469335
922.10 0.3468387
922.20 0.346744
922.30 0.3466493
922.40 0.3465546
922.50 0.34646
922.60 0.3463654
922.70 0.3462708
922.80 0.3461763
922.90 0.3460817
923.00 0.3459873
923.10 0.3458928
923.20 0.3457984
923.30 0.345704
923.40 0.3456097
923.50 0.3455154
923.60 0.3454211
923.70 0.3453269
923.80 0.3452327
923.90 0.3451385
924.00 0.3450443
924.10 0.3449502
924.20 0.3448561
924.30 0.3447621
924.40 0.3446681
924.50 0.3445743
924.60 0.3444805
924.70 0.3443868
924.80 0.3442931
924.90 0.3441995
925.00 0.3441058
925.10 0.3440122
925.20 0.3439187
925.30 0.3438251
925.40 0.3437316
925.50 0.3436382
925.60 0.3435447
925.70 0.3434513
925.80 0.343358
925.90 0.3432646
926.00 0.3431713
926.10 0.3430781
926.20 0.3429848
926.30 0.3428916
926.40 0.3427984
926.50 0.3427053
926.60 0.3426122
926.70 0.3425191
926.80 0.3424261
926.90 0.342333
927.00 0.3422401
927.10 0.3421471
927.20 0.3420542
927.30 0.3419613
927.40 0.3418684
927.50 0.3417756
927.60 0.3416828
927.70 0.3415901
927.80 0.3414974
927.90 0.3414047
928.00 0.341312
928.10 0.3412194
928.20 0.3411268
928.30 0.3410342
928.40 0.3409417
928.50 0.3408492
928.60 0.3407567
928.70 0.3406643
928.80 0.3405719
928.90 0.3404795
929.00 0.3403871
929.10 0.3402948
929.20 0.3402025
929.30 0.3401103
929.40 0.3400181
929.50 0.3399259
929.60 0.3398338
929.70 0.3397416
929.80 0.3396495
929.90 0.3395575
930.00 0.3394655
930.10 0.3393735
930.20 0.3392815
930.30 0.3391896
930.40 0.3390977
930.50 0.3390058
930.60 0.338914
930.70 0.3388222
930.80 0.3387304
930.90 0.3386387
931.00 0.338547
931.10 0.3384553
931.20 0.3383636
931.30 0.338272
931.40 0.3381804
931.50 0.3380889
931.60 0.3379974
931.70 0.3379059
931.80 0.3378144
931.90 0.337723
932.00 0.3376316
932.10 0.3375403
932.20 0.3374489
932.30 0.3373576
932.40 0.3372664
932.50 0.3371751
932.60 0.3370839
932.70 0.3369928
932.80 0.3369016
932.90 0.3368105
933.00 0.3367194
933.10 0.3366284
933.20 0.3365374
933.30 0.3364464
933.40 0.3363554
933.50 0.3362645
933.60 0.3361736
933.70 0.3360852
933.80 0.3359977
933.90 0.3359102
934.00 0.3358227
934.10 0.3357352
934.20 0.3356478
934.30 0.3355604
934.40 0.3354731
934.50 0.3353858
934.60 0.3352985
934.70 0.3352112
934.80 0.335124
934.90 0.3350368
935.00 0.3349496
935.10 0.3348624
935.20 0.3347753
935.30 0.3346882
935.40 0.3346012
935.50 0.3345141
935.60 0.3344271
935.70 0.3343402
935.80 0.3342532
935.90 0.3341663
936.00 0.3340794
936.10 0.3339926
936.20 0.3339058
936.30 0.333819
936.40 0.3337322
936.50 0.3336455
936.60 0.3335588
936.70 0.3334721
936.80 0.3333855
936.90 0.3332989
937.00 0.3332123
937.10 0.3331257
937.20 0.3330392
937.30 0.3329527
937.40 0.3328662
937.50 0.3327798
937.60 0.3326934
937.70 0.332607
937.80 0.3325206
937.90 0.3324343
938.00 0.332348
938.10 0.3322618
938.20 0.3321755
938.30 0.3320893
938.40 0.3320031
938.50 0.331917
938.60 0.3318309
938.70 0.3317448
938.80 0.3316587
938.90 0.3315727
939.00 0.3314867
939.10 0.3314007
939.20 0.3313148
939.30 0.3312289
939.40 0.331143
939.50 0.3310571
939.60 0.3309713
939.70 0.3308855
939.80 0.3307997
939.90 0.330714
940.00 0.3306283
940.10 0.3305426
940.20 0.3304569
940.30 0.3303713
940.40 0.3302857
940.50 0.3302002
940.60 0.3301146
940.70 0.3300291
940.80 0.3299436
940.90 0.3298582
941.00 0.3297728
941.10 0.3296874
941.20 0.329602
941.30 0.3295167
941.40 0.3294314
941.50 0.3293461
941.60 0.3292608
941.70 0.3291756
941.80 0.3290904
941.90 0.3290053
942.00 0.3289201
942.10 0.328835
942.20 0.32875
942.30 0.3286649
942.40 0.3285799
942.50 0.3284949
942.60 0.3284099
942.70 0.328325
942.80 0.3282401
942.90 0.3281552
943.00 0.3280693
943.10 0.3279816
943.20 0.327894
943.30 0.3278063
943.40 0.3277187
943.50 0.3276312
943.60 0.3275436
943.70 0.3274561
943.80 0.3273686
943.90 0.3272812
944.00 0.3271938
944.10 0.3271064
944.20 0.327019
944.30 0.3269317
944.40 0.3268444
944.50 0.3267571
944.60 0.3266699
944.70 0.3265827
944.80 0.3264955
944.90 0.3264084
945.00 0.3263212
945.10 0.3262341
945.20 0.3261471
945.30 0.3260601
945.40 0.3259731
945.50 0.3258861
945.60 0.3257991
945.70 0.3257122
945.80 0.3256253
945.90 0.3255385
946.00 0.3254517
946.10 0.3253649
946.20 0.3252781
946.30 0.3251914
946.40 0.3251046
946.50 0.325018
946.60 0.3249313
946.70 0.3248447
946.80 0.3247581
946.90 0.3246715
947.00 0.324585
947.10 0.3244985
947.20 0.324412
947.30 0.3243256
947.40 0.3242392
947.50 0.3241528
947.60 0.3240664
947.70 0.3239801
947.80 0.3238938
947.90 0.3238075
948.00 0.3237213
948.10 0.3236351
948.20 0.3235489
948.30 0.3234628
948.40 0.3233766
948.50 0.3232905
948.60 0.3232045
948.70 0.3231184
948.80 0.3230324
948.90 0.3229465
949.00 0.3228605
949.10 0.3227746
949.20 0.3226887
949.30 0.3226028
949.40 0.322517
949.50 0.3224312
949.60 0.3223454
949.70 0.3222597
949.80 0.322174
949.90 0.3220883
950.00 0.3220026
950.10 0.321917
950.20 0.3218314
950.30 0.3217458
950.40 0.3216603
950.50 0.3215748
950.60 0.3214893
950.70 0.3214038
950.80 0.3213184
950.90 0.321233
951.00 0.3211476
951.10 0.3210623
951.20 0.320977
951.30 0.3208917
951.40 0.3208064
951.50 0.3207212
951.60 0.320636
951.70 0.3205508
951.80 0.3204657
951.90 0.3203806
952.00 0.3202955
952.10 0.3202104
952.20 0.3201254
952.30 0.3200404
952.40 0.3199555
952.50 0.3198707
952.60 0.319786
952.70 0.3197013
952.80 0.3196166
952.90 0.3195319
953.00 0.3194473
953.10 0.3193627
953.20 0.3192782
953.30 0.3191936
953.40 0.3191091
953.50 0.3190246
953.60 0.3189402
953.70 0.3188558
953.80 0.3187714
953.90 0.318687
954.00 0.3186027
954.10 0.3185184
954.20 0.3184341
954.30 0.3183498
954.40 0.3182656
954.50 0.3181814
954.60 0.3180972
954.70 0.3180131
954.80 0.317929
954.90 0.3178449
955.00 0.3177609
955.10 0.3176768
955.20 0.3175928
955.30 0.3175089
955.40 0.3174249
955.50 0.317341
955.60 0.3172571
955.70 0.3171733
955.80 0.3170894
955.90 0.3170056
956.00 0.3169219
956.10 0.3168381
956.20 0.3167544
956.30 0.3166707
956.40 0.3165871
956.50 0.3165034
956.60 0.3164198
956.70 0.3163362
956.80 0.3162527
956.90 0.3161692
957.00 0.3160857
957.10 0.3160022
957.20 0.3159188
957.30 0.3158354
957.40 0.315752
957.50 0.3156686
957.60 0.3155853
957.70 0.315502
957.80 0.3154188
957.90 0.3153355
958.00 0.3152523
958.10 0.3151691
958.20 0.315086
958.30 0.3150028
958.40 0.3149197
958.50 0.3148367
958.60 0.3147536
958.70 0.3146706
958.80 0.3145876
958.90 0.3145046
959.00 0.3144217
959.10 0.3143388
959.20 0.3142559
959.30 0.3141731
959.40 0.3140902
959.50 0.3140075
959.60 0.3139247
959.70 0.3138419
959.80 0.3137592
959.90 0.3136765
960.00 0.3135939
960.10 0.3135113
960.20 0.3134287
960.30 0.3133461
960.40 0.3132635
960.50 0.313181
960.60 0.3130985
960.70 0.3130161
960.80 0.3129336
960.90 0.3128512
961.00 0.3127688
961.10 0.3126865
961.20 0.3126041
961.30 0.3125219
961.40 0.3124396
961.50 0.3123573
961.60 0.3122751
961.70 0.3121929
961.80 0.3121108
961.90 0.3120286
962.00 0.3119443
962.10 0.3118595
962.20 0.3117748
962.30 0.3116901
962.40 0.3116054
962.50 0.3115208
962.60 0.3114362
962.70 0.3113516
962.80 0.311267
962.90 0.3111825
963.00 0.311098
963.10 0.3110136
963.20 0.3109291
963.30 0.3108447
963.40 0.3107603
963.50 0.310676
963.60 0.3105916
963.70 0.3105073
963.80 0.3104231
963.90 0.3103388
964.00 0.3102546
964.10 0.3101704
964.20 0.3100863
964.30 0.3100021
964.40 0.309918
964.50 0.309834
964.60 0.3097499
964.70 0.3096659
964.80 0.3095819
964.90 0.309498
965.00 0.309414
965.10 0.3093301
965.20 0.3092462
965.30 0.3091624
965.40 0.3090786
965.50 0.3089948
965.60 0.308911
965.70 0.3088273
965.80 0.3087436
965.90 0.3086599
966.00 0.3085763
966.10 0.3084926
966.20 0.308409
966.30 0.3083255
966.40 0.3082419
966.50 0.3081584
966.60 0.3080749
966.70 0.3079915
966.80 0.3079081
966.90 0.3078247
967.00 0.3077413
967.10 0.3076579
967.20 0.3075746
967.30 0.3074913
967.40 0.3074081
967.50 0.3073248
967.60 0.3072416
967.70 0.3071585
967.80 0.3070753
967.90 0.3069922
968.00 0.3069091
968.10 0.306826
968.20 0.306743
968.30 0.30666
968.40 0.306577
968.50 0.306494
968.60 0.3064111
968.70 0.3063282
968.80 0.3062454
968.90 0.3061625
969.00 0.3060797
969.10 0.3059969
969.20 0.3059141
969.30 0.3058314
969.40 0.3057487
969.50 0.305666
969.60 0.3055834
969.70 0.3055008
969.80 0.3054182
969.90 0.3053356
970.00 0.3052531
970.10 0.3051705
970.20 0.3050881
970.30 0.3050056
970.40 0.3049232
970.50 0.3048408
970.60 0.3047584
970.70 0.304676
970.80 0.3045937
970.90 0.3045114
971.00 0.3044292
971.10 0.3043469
971.20 0.3042647
971.30 0.3041825
971.40 0.3041004
971.50 0.3040183
971.60 0.3039381
971.70 0.303859
971.80 0.3037799
971.90 0.3037008
972.00 0.3036218
972.10 0.3035427
972.20 0.3034638
972.30 0.3033848
972.40 0.3033059
972.50 0.3032269
972.60 0.3031481
972.70 0.3030692
972.80 0.3029904
972.90 0.3029116
973.00 0.3028328
973.10 0.302754
973.20 0.3026753
973.30 0.3025966
973.40 0.3025179
973.50 0.3024393
973.60 0.3023606
973.70 0.302282
973.80 0.3022035
973.90 0.3021249
974.00 0.3020464
974.10 0.3019679
974.20 0.3018894
974.30 0.301811
974.40 0.3017326
974.50 0.3016542
974.60 0.3015758
974.70 0.3014975
974.80 0.3014192
974.90 0.3013409
975.00 0.3012626
975.10 0.3011844
975.20 0.3011062
975.30 0.301028
975.40 0.3009498
975.50 0.3008717
975.60 0.3007936
975.70 0.3007155
975.80 0.3006374
975.90 0.3005594
976.00 0.3004814
976.10 0.3004034
976.20 0.3003254
976.30 0.3002475
976.40 0.3001696
976.50 0.3000917
976.60 0.3000139
976.70 0.2999361
976.80 0.2998583
976.90 0.2997805
977.00 0.2997027
977.10 0.299625
977.20 0.2995473
977.30 0.2994696
977.40 0.299392
977.50 0.2993144
977.60 0.2992368
977.70 0.2991592
977.80 0.2990816
977.90 0.2990041
978.00 0.2989266
978.10 0.2988492
978.20 0.2987717
978.30 0.2986943
978.40 0.2986169
978.50 0.2985395
978.60 0.2984622
978.70 0.2983849
978.80 0.2983076
978.90 0.2982303
979.00 0.2981531
979.10 0.2980759
979.20 0.2979987
979.30 0.2979215
979.40 0.2978444
979.50 0.2977673
979.60 0.2976902
979.70 0.2976131
979.80 0.2975361
979.90 0.297459
980.00 0.2973821
980.10 0.2973051
980.20 0.2972282
980.30 0.2971512
980.40 0.2970744
980.50 0.2969975
980.60 0.2969207
980.70 0.2968438
980.80 0.2967671
980.90 0.2966903
981.00 0.2966136
981.10 0.2965368
981.20 0.2964602
981.30 0.2963822
981.40 0.2963031
981.50 0.296224
981.60 0.2961449
981.70 0.2960658
981.80 0.2959867
981.90 0.2959077
982.00 0.2958287
982.10 0.2957497
982.20 0.2956708
982.30 0.2955919
982.40 0.295513
982.50 0.2954341
982.60 0.2953553
982.70 0.2952765
982.80 0.2951977
982.90 0.2951189
983.00 0.2950402
983.10 0.2949615
983.20 0.2948828
983.30 0.2948041
983.40 0.2947255
983.50 0.2946469
983.60 0.2945683
983.70 0.2944897
983.80 0.2944112
983.90 0.2943327
984.00 0.2942542
984.10 0.2941758
984.20 0.2940974
984.30 0.294019
984.40 0.2939406
984.50 0.2938622
984.60 0.2937839
984.70 0.2937056
984.80 0.2936273
984.90 0.2935491
985.00 0.2934709
985.10 0.2933927
985.20 0.2933145
985.30 0.2932364
985.40 0.2931582
985.50 0.2930802
985.60 0.2930021
985.70 0.292924
985.80 0.292846
985.90 0.292768
986.00 0.2926901
986.10 0.2926121
986.20 0.2925342
986.30 0.2924563
986.40 0.2923785
986.50 0.2923006
986.60 0.2922228
986.70 0.2921451
986.80 0.2920673
986.90 0.2919896
987.00 0.2919118
987.10 0.2918342
987.20 0.2917565
987.30 0.2916789
987.40 0.2916013
987.50 0.2915237
987.60 0.2914461
987.70 0.2913686
987.80 0.2912911
987.90 0.2912136
988.00 0.2911362
988.10 0.2910587
988.20 0.2909813
988.30 0.290904
988.40 0.2908266
988.50 0.2907493
988.60 0.290672
988.70 0.2905947
988.80 0.2905174
988.90 0.2904402
989.00 0.290363
989.10 0.2902858
989.20 0.2902087
989.30 0.2901316
989.40 0.2900545
989.50 0.2899774
989.60 0.2899004
989.70 0.2898233
989.80 0.2897463
989.90 0.2896694
990.00 0.2895924
990.10 0.2895155
990.20 0.2894386
990.30 0.2893617
990.40 0.2892849
990.50 0.289208
990.60 0.2891312
990.70 0.2890545
990.80 0.2889777
990.90 0.288901
991.00 0.2888243
991.10 0.2887487
991.20 0.2886748
991.30 0.288601
991.40 0.2885271
991.50 0.2884533
991.60 0.2883796
991.70 0.2883058
991.80 0.2882321
991.90 0.2881584
992.00 0.2880847
992.10 0.2880111
992.20 0.2879375
992.30 0.2878639
992.40 0.2877903
992.50 0.2877167
992.60 0.2876432
992.70 0.2875697
992.80 0.2874962
992.90 0.2874227
993.00 0.2873493
993.10 0.2872759
993.20 0.2872025
993.30 0.2871291
993.40 0.2870558
993.50 0.2869825
993.60 0.2869092
993.70 0.2868359
993.80 0.2867627
993.90 0.2866894
994.00 0.2866162
994.10 0.2865431
994.20 0.2864699
994.30 0.2863968
994.40 0.2863237
994.50 0.2862506
994.60 0.2861775
994.70 0.2861045
994.80 0.2860315
994.90 0.2859585
995.00 0.2858855
995.10 0.2858126
995.20 0.2857397
995.30 0.2856668
995.40 0.2855939
995.50 0.2855211
995.60 0.2854483
995.70 0.2853755
995.80 0.2853027
995.90 0.2852299
996.00 0.2851572
996.10 0.2850803
996.20 0.2850024
996.30 0.2849246
996.40 0.2848469
996.50 0.2847691
996.60 0.2846914
996.70 0.2846137
996.80 0.284536
996.90 0.2844584
997.00 0.2843808
997.10 0.2843032
997.20 0.2842256
997.30 0.284148
997.40 0.2840705
997.50 0.283993
997.60 0.2839155
997.70 0.2838381
997.80 0.2837607
997.90 0.2836833
998.00 0.2836059
998.10 0.2835286
998.20 0.2834513
998.30 0.283374
998.40 0.2832967
998.50 0.2832195
998.60 0.2831422
998.70 0.283065
998.80 0.2829879
998.90 0.2829107
999.00 0.2828336
999.10 0.2827565
999.20 0.2826795
999.30 0.2826024
999.40 0.2825254
999.50 0.2824484
999.60 0.2823714
999.70 0.2822945
999.80 0.2822176
999.90 0.2821407
1000.00 0.2820638
1000.10 0.281987
1000.20 0.2819102
1000.30 0.2818334
1000.40 0.2817566
1000.50 0.2816799
1000.60 0.2816032
1000.70 0.2815265
1000.80 0.2814498
1000.90 0.2813732
1001.00 0.2812979
1001.10 0.2812266
1001.20 0.2811553
1001.30 0.281084
1001.40 0.2810127
1001.50 0.2809415
1001.60 0.2808702
1001.70 0.280799
1001.80 0.2807278
1001.90 0.2806567
1002.00 0.2805855
1002.10 0.2805144
1002.20 0.2804433
1002.30 0.2803723
1002.40 0.2803012
1002.50 0.2802302
1002.60 0.2801592
1002.70 0.2800882
1002.80 0.2800173
1002.90 0.2799463
1003.00 0.2798754
1003.10 0.2798046
1003.20 0.2797337
1003.30 0.2796629
1003.40 0.279592
1003.50 0.2795212
1003.60 0.2794505
1003.70 0.2793797
1003.80 0.279309
1003.90 0.2792383
1004.00 0.2791676
1004.10 0.2790969
1004.20 0.2790263
1004.30 0.2789557
1004.40 0.2788851
1004.50 0.2788145
1004.60 0.278744
1004.70 0.2786735
1004.80 0.278603
1004.90 0.2785325
1005.00 0.278462
1005.10 0.2783916
1005.20 0.2783212
1005.30 0.2782508
1005.40 0.2781804
1005.50 0.2781101
1005.60 0.2780398
1005.70 0.2779695
1005.80 0.2778992
1005.90 0.2778289
1006.00 0.2777587
1006.10 0.2776885
1006.20 0.2776183
1006.30 0.2775481
1006.40 0.277478
1006.50 0.2774079
1006.60 0.2773378
1006.70 0.2772677
1006.80 0.2771977
1006.90 0.2771276
1007.00 0.2770576
1007.10 0.2769876
1007.20 0.2769177
1007.30 0.2768477
1007.40 0.2767778
1007.50 0.2767079
1007.60 0.276638
1007.70 0.2765682
1007.80 0.2764983
1007.90 0.2764285
1008.00 0.2763587
1008.10 0.276289
1008.20 0.2762192
1008.30 0.2761495
1008.40 0.2760798
1008.50 0.2760101
1008.60 0.2759405
1008.70 0.2758709
1008.80 0.2758012
1008.90 0.2757317
1009.00 0.2756621
1009.10 0.2755926
1009.20 0.275523
1009.30 0.2754535
1009.40 0.2753841
1009.50 0.2753146
1009.60 0.2752452
1009.70 0.2751758
1009.80 0.2751064
1009.90 0.275037
1010.00 0.2749677
1010.10 0.2748983
1010.20 0.274829
1010.30 0.2747598
1010.40 0.2746905
1010.50 0.2746213
1010.60 0.2745521
1010.70 0.2744829
1010.80 0.2744137
1010.90 0.2743446
1011.00 0.2742746
1011.10 0.2742008
1011.20 0.274127
1011.30 0.2740531
1011.40 0.2739794
1011.50 0.2739056
1011.60 0.2738319
1011.70 0.2737582
1011.80 0.2736845
1011.90 0.2736108
1012.00 0.2735372
1012.10 0.2734636
1012.20 0.27339
1012.30 0.2733164
1012.40 0.2732429
1012.50 0.2731694
1012.60 0.2730959
1012.70 0.2730224
1012.80 0.2729489
1012.90 0.2728755
1013.00 0.2728021
1013.10 0.2727287
1013.20 0.2726554
1013.30 0.2725821
1013.40 0.2725087
1013.50 0.2724355
1013.60 0.2723622
1013.70 0.272289
1013.80 0.2722158
1013.90 0.2721426
1014.00 0.2720694
1014.10 0.2719963
1014.20 0.2719232
1014.30 0.2718501
1014.40 0.271777
1014.50 0.2717039
1014.60 0.2716309
1014.70 0.2715579
1014.80 0.2714849
1014.90 0.271412
1015.00 0.2713391
1015.10 0.2712662
1015.20 0.2711933
1015.30 0.2711204
1015.40 0.2710476
1015.50 0.2709748
1015.60 0.270902
1015.70 0.2708292
1015.80 0.2707565
1015.90 0.2706838
1016.00 0.2706111
1016.10 0.2705414
1016.20 0.2704736
1016.30 0.2704058
1016.40 0.2703381
1016.50 0.2702703
1016.60 0.2702026
1016.70 0.2701349
1016.80 0.2700673
1016.90 0.2699996
1017.00 0.269932
1017.10 0.2698644
1017.20 0.2697968
1017.30 0.2697292
1017.40 0.2696617
1017.50 0.2695942
1017.60 0.2695267
1017.70 0.2694592
1017.80 0.2693918
1017.90 0.2693243
1018.00 0.2692569
1018.10 0.2691895
1018.20 0.2691221
1018.30 0.2690548
1018.40 0.2689875
1018.50 0.2689202
1018.60 0.2688529
1018.70 0.2687856
1018.80 0.2687184
1018.90 0.2686512
1019.00 0.268584
1019.10 0.2685168
1019.20 0.2684496
1019.30 0.2683825
1019.40 0.2683154
1019.50 0.2682483
1019.60 0.2681812
1019.70 0.2681141
1019.80 0.2680471
1019.90 0.2679801
1020.00 0.2679131
1020.10 0.2678461
1020.20 0.2677792
1020.30 0.2677123
1020.40 0.2676454
1020.50 0.2675785
1020.60 0.2675116
1020.70 0.2674448
1020.80 0.267378
1020.90 0.2673112
1021.00 0.2672444
1021.10 0.2671773
1021.20 0.267106
1021.30 0.2670346
1021.40 0.2669633
1021.50 0.2668921
1021.60 0.2668208
1021.70 0.2667496
1021.80 0.2666784
1021.90 0.2666072
1022.00 0.266536
1022.10 0.2664649
1022.20 0.2663937
1022.30 0.2663226
1022.40 0.2662516
1022.50 0.2661805
1022.60 0.2661095
1022.70 0.2660385
1022.80 0.2659675
1022.90 0.2658965
1023.00 0.2658256
1023.10 0.2657547
1023.20 0.2656838
1023.30 0.2656129
1023.40 0.2655421
1023.50 0.2654712
1023.60 0.2654004
1023.70 0.2653297
1023.80 0.2652589
1023.90 0.2651882
1024.00 0.2651175
1024.10 0.2650468
1024.20 0.2649761
1024.30 0.2649055
1024.40 0.2648348
1024.50 0.2647642
1024.60 0.2646937
1024.70 0.2646231
1024.80 0.2645526
1024.90 0.2644821
1025.00 0.2644116
1025.10 0.2643411
1025.20 0.2642707
1025.30 0.2642003
1025.40 0.2641299
1025.50 0.2640595
1025.60 0.2639891
1025.70 0.2639188
1025.80 0.2638485
1025.90 0.2637782
1026.00 0.2637079
1026.10 0.2636377
1026.20 0.2635675
1026.30 0.2634973
1026.40 0.2634271
1026.50 0.263357
1026.60 0.2632868
1026.70 0.2632167
1026.80 0.2631466
1026.90 0.2630766
1027.00 0.2630065
1027.10 0.2629365
1027.20 0.2628665
1027.30 0.2627965
1027.40 0.2627266
1027.50 0.2626566
1027.60 0.2625867
1027.70 0.2625168
1027.80 0.262447
1027.90 0.2623771
1028.00 0.2623073
1028.10 0.2622375
1028.20 0.2621677
1028.30 0.262098
1028.40 0.2620282
1028.50 0.2619585
1028.60 0.2618889
1028.70 0.2618192
1028.80 0.2617495
1028.90 0.2616799
1029.00 0.2616103
1029.10 0.2615407
1029.20 0.2614712
1029.30 0.2614017
1029.40 0.2613321
1029.50 0.2612627
1029.60 0.2611932
1029.70 0.2611237
1029.80 0.2610543
1029.90 0.2609849
1030.00 0.2609155
1030.10 0.2608462
1030.20 0.2607769
1030.30 0.2607075
1030.40 0.2606383
1030.50 0.260569
1030.60 0.2604997
1030.70 0.2604305
1030.80 0.2603613
1030.90 0.2602921
1031.00 0.260223
1031.10 0.2601538
1031.20 0.2600847
1031.30 0.2600156
1031.40 0.2599512
1031.50 0.2598869
1031.60 0.2598227
1031.70 0.2597585
1031.80 0.2596943
1031.90 0.2596301
1032.00 0.259566
1032.10 0.2595019
1032.20 0.2594378
1032.30 0.2593737
1032.40 0.2593096
1032.50 0.2592456
1032.60 0.2591815
1032.70 0.2591175
1032.80 0.2590535
1032.90 0.2589896
1033.00 0.2589256
1033.10 0.2588617
1033.20 0.2587978
1033.30 0.2587339
1033.40 0.25867
1033.50 0.2586062
1033.60 0.2585424
1033.70 0.2584786
1033.80 0.2584148
1033.90 0.258351
1034.00 0.2582873
1034.10 0.2582235
1034.20 0.2581598
1034.30 0.2580961
1034.40 0.2580325
1034.50 0.2579688
1034.60 0.2579052
1034.70 0.2578416
1034.80 0.257778
1034.90 0.2577144
1035.00 0.2576509
1035.10 0.2575873
1035.20 0.2575238
1035.30 0.2574603
1035.40 0.2573969
1035.50 0.2573334
1035.60 0.25727
1035.70 0.2572066
1035.80 0.2571432
1035.90 0.2570798
1036.00 0.2570164
1036.10 0.2569531
1036.20 0.2568898
1036.30 0.2568265
1036.40 0.2567632
1036.50 0.2566982
1036.60 0.2566304
1036.70 0.2565626
1036.80 0.2564948
1036.90 0.2564271
1037.00 0.2563594
1037.10 0.2562917
1037.20 0.256224
1037.30 0.2561563
1037.40 0.2560887
1037.50 0.2560211
1037.60 0.2559535
1037.70 0.2558859
1037.80 0.2558183
1037.90 0.2557508
1038.00 0.2556833
1038.10 0.2556158
1038.20 0.2555483
1038.30 0.2554809
1038.40 0.2554135
1038.50 0.2553461
1038.60 0.2552787
1038.70 0.2552113
1038.80 0.255144
1038.90 0.2550767
1039.00 0.2550094
1039.10 0.2549421
1039.20 0.2548748
1039.30 0.2548076
1039.40 0.2547404
1039.50 0.2546732
1039.60 0.254606
1039.70 0.2545389
1039.80 0.2544718
1039.90 0.2544046
1040.00 0.2543376
1040.10 0.2542705
1040.20 0.2542035
1040.30 0.2541364
1040.40 0.2540694
1040.50 0.2540024
1040.60 0.2539355
1040.70 0.2538685
1040.80 0.2538016
1040.90 0.2537347
1041.00 0.2536679
1041.10 0.253601
1041.20 0.2535342
1041.30 0.2534674
1041.40 0.2534006
1041.50 0.2533338
1041.60 0.253267
1041.70 0.2532005
1041.80 0.2531339
1041.90 0.2530674
1042.00 0.2530009
1042.10 0.2529345
1042.20 0.252868
1042.30 0.2528016
1042.40 0.2527352
1042.50 0.2526688
1042.60 0.2526025
1042.70 0.2525361
1042.80 0.2524698
1042.90 0.2524035
1043.00 0.2523372
1043.10 0.252271
1043.20 0.2522047
1043.30 0.2521385
1043.40 0.2520723
1043.50 0.2520062
1043.60 0.25194
1043.70 0.2518739
1043.80 0.2518078
1043.90 0.2517417
1044.00 0.2516756
1044.10 0.2516096
1044.20 0.2515435
1044.30 0.2514775
1044.40 0.2514115
1044.50 0.2513456
1044.60 0.2512796
1044.70 0.2512137
1044.80 0.2511478
1044.90 0.2510819
1045.00 0.251016
1045.10 0.2509502
1045.20 0.2508844
1045.30 0.2508186
1045.40 0.2507528
1045.50 0.250687
1045.60 0.2506213
1045.70 0.2505556
1045.80 0.2504899
1045.90 0.2504242
1046.00 0.2503585
1046.10 0.2502929
1046.20 0.2502273
1046.30 0.2501617
1046.40 0.2500961
1046.50 0.2500306
1046.60 0.249965
1046.70 0.2498995
1046.80 0.249834
1046.90 0.2497719
1047.00 0.2497109
1047.10 0.2496499
1047.20 0.2495889
1047.30 0.2495279
1047.40 0.249467
1047.50 0.2494061
1047.60 0.2493452
1047.70 0.2492843
1047.80 0.2492234
1047.90 0.2491625
1048.00 0.2491017
1048.10 0.2490409
1048.20 0.2489801
1048.30 0.2489193
1048.40 0.2488586
1048.50 0.2487978
1048.60 0.2487371
1048.70 0.2486764
1048.80 0.2486158
1048.90 0.2485551
1049.00 0.2484944
1049.10 0.2484338
1049.20 0.2483732
1049.30 0.2483126
1049.40 0.2482521
1049.50 0.2481915
1049.60 0.248131
1049.70 0.2480705
1049.80 0.24801
1049.90 0.2479495
1050.00 0.247889
1050.10 0.2478286
1050.20 0.2477682
1050.30 0.2477078
1050.40 0.2476474
1050.50 0.247587
1050.60 0.2475267
1050.70 0.2474663
1050.80 0.247406
1050.90 0.2473457
1051.00 0.2472855
1051.10 0.2472252
1051.20 0.247165
1051.30 0.2471048
1051.40 0.2470446
1051.50 0.2469844
1051.60 0.2469242
1051.70 0.2468641
1051.80 0.2468039
1051.90 0.2467438
1052.00 0.2466838
1052.10 0.2466209
1052.20 0.2465566
1052.30 0.2464923
1052.40 0.2464281
1052.50 0.2463639
1052.60 0.2462997
1052.70 0.2462355
1052.80 0.2461714
1052.90 0.2461073
1053.00 0.2460432
1053.10 0.2459791
1053.20 0.245915
1053.30 0.245851
1053.40 0.2457869
1053.50 0.2457229
1053.60 0.2456589
1053.70 0.245595
1053.80 0.245531
1053.90 0.2454671
1054.00 0.2454032
1054.10 0.2453393
1054.20 0.2452754
1054.30 0.2452116
1054.40 0.2451477
1054.50 0.2450839
1054.60 0.2450201
1054.70 0.2449564
1054.80 0.2448926
1054.90 0.2448289
1055.00 0.2447652
1055.10 0.2447015
1055.20 0.2446378
1055.30 0.2445741
1055.40 0.2445105
1055.50 0.2444469
1055.60 0.2443833
1055.70 0.2443197
1055.80 0.2442562
1055.90 0.2441926
1056.00 0.2441291
1056.10 0.2440656
1056.20 0.2440022
1056.30 0.2439387
1056.40 0.2438753
1056.50 0.2438118
1056.60 0.2437484
1056.70 0.2436851
1056.80 0.2436217
1056.90 0.2435584
1057.00 0.2434951
1057.10 0.2434318
1057.20 0.2433685
1057.30 0.2433052
1057.40 0.243242
1057.50 0.2431788
1057.60 0.2431156
1057.70 0.2430524
1057.80 0.2429892
1057.90 0.2429261
1058.00 0.2428629
1058.10 0.2427998
1058.20 0.2427368
1058.30 0.2426737
1058.40 0.2426107
1058.50 0.2425476
1058.60 0.2424846
1058.70 0.2424216
1058.80 0.2423587
1058.90 0.2422957
1059.00 0.2422328
1059.10 0.2421699
1059.20 0.242107
1059.30 0.2420441
1059.40 0.2419813
1059.50 0.2419184
1059.60 0.2418556
1059.70 0.2417928
1059.80 0.2417301
1059.90 0.2416673
1060.00 0.2416046
1060.10 0.2415419
1060.20 0.2414792
1060.30 0.2414165
1060.40 0.2413538
1060.50 0.2412912
1060.60 0.2412286
1060.70 0.241166
1060.80 0.2411034
1060.90 0.2410409
1061.00 0.2409783
1061.10 0.2409158
1061.20 0.2408533
1061.30 0.2407908
1061.40 0.2407283
1061.50 0.2406659
1061.60 0.2406035
1061.70 0.2405411
1061.80 0.2404787
1061.90 0.2404163
1062.00 0.240354
1062.10 0.2402916
1062.20 0.2402293
1062.30 0.240167
1062.40 0.2401048
1062.50 0.2400425
1062.60 0.2399804
1062.70 0.2399183
1062.80 0.2398563
1062.90 0.2397943
1063.00 0.2397323
1063.10 0.2396703
1063.20 0.2396084
1063.30 0.2395464
1063.40 0.2394845
1063.50 0.2394226
1063.60 0.2393608
1063.70 0.2392989
1063.80 0.2392371
1063.90 0.2391753
1064.00 0.2391135
1064.10 0.2390517
1064.20 0.2389899
1064.30 0.2389282
1064.40 0.2388665
1064.50 0.2388048
1064.60 0.2387431
1064.70 0.2386814
1064.80 0.2386198
1064.90 0.2385581
1065.00 0.2384965
1065.10 0.238435
1065.20 0.2383734
1065.30 0.2383118
1065.40 0.2382503
1065.50 0.2381888
1065.60 0.2381273
1065.70 0.2380658
1065.80 0.2380044
1065.90 0.2379429
1066.00 0.2378815
1066.10 0.2378201
1066.20 0.2377587
1066.30 0.2376974
1066.40 0.237636
1066.50 0.2375747
1066.60 0.2375134
1066.70 0.2374521
1066.80 0.2373908
1066.90 0.2373296
1067.00 0.2372684
1067.10 0.2372071
1067.20 0.237146
1067.30 0.2370848
1067.40 0.2370236
1067.50 0.2369625
1067.60 0.2369014
1067.70 0.2368403
1067.80 0.2367792
1067.90 0.2367195
1068.00 0.2366626
1068.10 0.2366058
1068.20 0.236549
1068.30 0.2364921
1068.40 0.2364353
1068.50 0.2363786
1068.60 0.2363218
1068.70 0.2362651
1068.80 0.2362083
1068.90 0.2361516
1069.00 0.2360949
1069.10 0.2360382
1069.20 0.2359816
1069.30 0.2359249
1069.40 0.2358683
1069.50 0.2358117
1069.60 0.2357551
1069.70 0.2356985
1069.80 0.235642
1069.90 0.2355854
1070.00 0.2355289
1070.10 0.2354724
1070.20 0.2354159
1070.30 0.2353594
1070.40 0.235303
1070.50 0.2352465
1070.60 0.2351901
1070.70 0.2351337
1070.80 0.2350773
1070.90 0.2350209
1071.00 0.2349646
1071.10 0.2349082
1071.20 0.2348519
1071.30 0.2347956
1071.40 0.2347393
1071.50 0.2346831
1071.60 0.2346268
1071.70 0.2345706
1071.80 0.2345144
1071.90 0.2344582
1072.00 0.234402
1072.10 0.2343458
1072.20 0.2342896
1072.30 0.2342335
1072.40 0.2341774
1072.50 0.2341213
1072.60 0.2340652
1072.70 0.2340091
1072.80 0.2339531
1072.90 0.2338971
1073.00 0.233841
1073.10 0.233785
1073.20 0.2337282
1073.30 0.2336683
1073.40 0.2336084
1073.50 0.2335485
1073.60 0.2334886
1073.70 0.2334287
1073.80 0.2333689
1073.90 0.233309
1074.00 0.2332492
1074.10 0.2331894
1074.20 0.2331297
1074.30 0.2330699
1074.40 0.2330102
1074.50 0.2329504
1074.60 0.2328907
1074.70 0.2328311
1074.80 0.2327714
1074.90 0.2327117
1075.00 0.2326521
1075.10 0.2325925
1075.20 0.2325329
1075.30 0.2324733
1075.40 0.2324138
1075.50 0.2323542
1075.60 0.2322947
1075.70 0.2322352
1075.80 0.2321757
1075.90 0.2321163
1076.00 0.2320568
1076.10 0.2319974
1076.20 0.231938
1076.30 0.2318786
1076.40 0.2318192
1076.50 0.2317599
1076.60 0.2317005
1076.70 0.2316412
1076.80 0.2315819
1076.90 0.2315226
1077.00 0.2314633
1077.10 0.2314041
1077.20 0.2313449
1077.30 0.2312856
1077.40 0.2312264
1077.50 0.2311673
1077.60 0.2311081
1077.70 0.231049
1077.80 0.2309898
1077.90 0.2309307
1078.00 0.2308717
1078.10 0.2308126
1078.20 0.2307535
1078.30 0.2306945
1078.40 0.2306355
1078.50 0.2305765
1078.60 0.2305175
1078.70 0.2304585
1078.80 0.2303996
1078.90 0.2303407
1079.00 0.2302818
1079.10 0.2302229
1079.20 0.230164
1079.30 0.2301052
1079.40 0.2300463
1079.50 0.2299875
1079.60 0.2299287
1079.70 0.2298699
1079.80 0.2298111
1079.90 0.2297524
1080.00 0.2296937
1080.10 0.229635
1080.20 0.2295763
1080.30 0.2295176
1080.40 0.2294589
1080.50 0.2294003
1080.60 0.2293417
1080.70 0.2292831
1080.80 0.2292245
1080.90 0.2291659
1081.00 0.2291074
1081.10 0.2290488
1081.20 0.2289903
1081.30 0.2289318
1081.40 0.2288733
1081.50 0.2288149
1081.60 0.2287564
1081.70 0.228698
1081.80 0.2286396
1081.90 0.2285812
1082.00 0.2285228
1082.10 0.2284645
1082.20 0.2284061
1082.30 0.2283478
1082.40 0.2282895
1082.50 0.2282312
1082.60 0.2281729
1082.70 0.2281147
1082.80 0.2280564
1082.90 0.2279982
1083.00 0.22794
1083.10 0.2278819
1083.20 0.2278237
1083.30 0.2277655
1083.40 0.2277074
1083.50 0.2276493
1083.60 0.2275912
1083.70 0.2275331
1083.80 0.2274751
1083.90 0.227417
1084.00 0.2273592
1084.10 0.2273013
1084.20 0.2272435
1084.30 0.2271857
1084.40 0.2271279
1084.50 0.2270701
1084.60 0.2270124
1084.70 0.2269546
1084.80 0.2268969
1084.90 0.2268392
1085.00 0.2267815
1085.10 0.2267238
1085.20 0.2266662
1085.30 0.2266085
1085.40 0.2265509
1085.50 0.2264933
1085.60 0.2264357
1085.70 0.2263782
1085.80 0.2263206
1085.90 0.2262631
1086.00 0.2262056
1086.10 0.2261481
1086.20 0.2260906
1086.30 0.2260331
1086.40 0.2259757
1086.50 0.2259183
1086.60 0.2258609
1086.70 0.2258035
1086.80 0.2257461
1086.90 0.2256887
1087.00 0.2256314
1087.10 0.2255741
1087.20 0.2255168
1087.30 0.2254595
1087.40 0.2254022
1087.50 0.2253449
1087.60 0.2252877
1087.70 0.2252305
1087.80 0.2251733
1087.90 0.2251161
1088.00 0.2250589
1088.10 0.2250018
1088.20 0.2249446
1088.30 0.2248875
1088.40 0.2248304
1088.50 0.2247733
1088.60 0.2247163
1088.70 0.2246592
1088.80 0.2246022
1088.90 0.2245452
1089.00 0.2244882
1089.10 0.2244312
1089.20 0.2243742
1089.30 0.2243173
1089.40 0.2242604
1089.50 0.2242035
1089.60 0.2241466
1089.70 0.2240897
1089.80 0.2240328
1089.90 0.223976
1090.00 0.2239191
1090.10 0.2238623
1090.20 0.2238055
1090.30 0.2237488
1090.40 0.223692
1090.50 0.2236353
1090.60 0.2235785
1090.70 0.2235218
1090.80 0.2234651
1090.90 0.2234085
1091.00 0.2233518
1091.10 0.2232952
1091.20 0.2232385
1091.30 0.2231819
1091.40 0.2231253
1091.50 0.2230688
1091.60 0.2230122
1091.70 0.2229557
1091.80 0.2228991
1091.90 0.2228426
1092.00 0.2227862
1092.10 0.2227297
1092.20 0.2226732
1092.30 0.2226168
1092.40 0.2225604
1092.50 0.222504
1092.60 0.2224476
1092.70 0.2223912
1092.80 0.2223349
1092.90 0.2222785
1093.00 0.2222222
1093.10 0.2221659
1093.20 0.2221096
1093.30 0.2220533
1093.40 0.2219971
1093.50 0.2219409
1093.60 0.2218846
1093.70 0.2218284
1093.80 0.2217723
1093.90 0.2217161
1094.00 0.2216599
1094.10 0.2216038
1094.20 0.2215477
1094.30 0.2214916
1094.40 0.2214355
1094.50 0.2213794
1094.60 0.2213234
1094.70 0.2212674
1094.80 0.2212114
1094.90 0.2211556
1095.00 0.2210998
1095.10 0.2210439
1095.20 0.2209882
1095.30 0.2209324
1095.40 0.2208766
1095.50 0.2208209
1095.60 0.2207652
1095.70 0.2207094
1095.80 0.2206538
1095.90 0.2205981
1096.00 0.2205424
1096.10 0.2204868
1096.20 0.2204312
1096.30 0.2203755
1096.40 0.2203199
1096.50 0.2202644
1096.60 0.2202088
1096.70 0.2201533
1096.80 0.2200977
1096.90 0.2200422
1097.00 0.2199867
1097.10 0.2199313
1097.20 0.2198758
1097.30 0.2198204
1097.40 0.2197649
1097.50 0.2197095
1097.60 0.2196541
1097.70 0.2195988
1097.80 0.2195434
1097.90 0.2194881
1098.00 0.2194327
1098.10 0.2193774
1098.20 0.2193221
1098.30 0.2192668
1098.40 0.2192116
1098.50 0.2191563
1098.60 0.2191011
1098.70 0.2190459
1098.80 0.2189907
1098.90 0.2189355
1099.00 0.2188804
1099.10 0.2188252
1099.20 0.2187701
1099.30 0.218715
1099.40 0.2186599
1099.50 0.2186048
1099.60 0.2185497
1099.70 0.2184947
1099.80 0.2184397
1099.90 0.2183846
1100.00 0.2183296
1100.10 0.2182747
1100.20 0.2182197
1100.30 0.2181647
1100.40 0.2181098
1100.50 0.2180549
1100.60 0.218
1100.70 0.2179451
1100.80 0.2178902
1100.90 0.2178354
1101.00 0.2177806
1101.10 0.2177257
1101.20 0.2176709
1101.30 0.2176161
1101.40 0.2175614
1101.50 0.2175066
1101.60 0.2174519
1101.70 0.2173972
1101.80 0.2173425
1101.90 0.2172878
1102.00 0.2172331
1102.10 0.2171784
1102.20 0.2171238
1102.30 0.2170692
1102.40 0.2170146
1102.50 0.21696
1102.60 0.2169054
1102.70 0.2168509
1102.80 0.2167963
1102.90 0.2167418
1103.00 0.2166873
1103.10 0.2166328
1103.20 0.2165783
1103.30 0.2165239
1103.40 0.2164694
1103.50 0.216415
1103.60 0.2163606
1103.70 0.2163062
1103.80 0.2162518
1103.90 0.2161974
1104.00 0.2161431
1104.10 0.2160887
1104.20 0.2160344
1104.30 0.2159801
1104.40 0.2159258
1104.50 0.2158716
1104.60 0.2158173
1104.70 0.2157631
1104.80 0.2157089
1104.90 0.2156547
1105.00 0.2156005
1105.10 0.2155463
1105.20 0.2154922
1105.30 0.215438
1105.40 0.2153839
1105.50 0.2153298
1105.60 0.2152757
1105.70 0.2152216
1105.80 0.2151677
1105.90 0.2151138
1106.00 0.21506
1106.10 0.2150061
1106.20 0.2149523
1106.30 0.2148984
1106.40 0.2148446
1106.50 0.2147908
1106.60 0.214737
1106.70 0.2146833
1106.80 0.2146295
1106.90 0.2145758
1107.00 0.2145221
1107.10 0.2144684
1107.20 0.2144147
1107.30 0.214361
1107.40 0.2143074
1107.50 0.2142537
1107.60 0.2142001
1107.70 0.2141465
1107.80 0.2140929
1107.90 0.2140393
1108.00 0.2139858
1108.10 0.2139322
1108.20 0.2138787
1108.30 0.2138252
1108.40 0.2137717
1108.50 0.2137182
1108.60 0.2136647
1108.70 0.2136113
1108.80 0.2135579
1108.90 0.2135045
1109.00 0.213451
1109.10 0.2133977
1109.20 0.2133443
1109.30 0.2132909
1109.40 0.2132376
1109.50 0.2131843
1109.60 0.213131
1109.70 0.2130777
1109.80 0.2130244
1109.90 0.2129712
1110.00 0.2129179
1110.10 0.2128647
1110.20 0.2128115
1110.30 0.2127583
1110.40 0.2127051
1110.50 0.2126519
1110.60 0.2125988
1110.70 0.2125457
1110.80 0.2124925
1110.90 0.2124394
1111.00 0.2123863
1111.10 0.2123333
1111.20 0.2122802
1111.30 0.2122272
1111.40 0.2121742
1111.50 0.2121212
1111.60 0.2120682
1111.70 0.2120152
1111.80 0.2119622
1111.90 0.2119093
1112.00 0.2118563
1112.10 0.2118034
1112.20 0.2117505
1112.30 0.2116977
1112.40 0.2116448
1112.50 0.2115919
1112.60 0.2115391
1112.70 0.2114863
1112.80 0.2114335
1112.90 0.2113807
1113.00 0.2113279
1113.10 0.2112752
1113.20 0.2112224
1113.30 0.2111697
1113.40 0.211117
1113.50 0.2110643
1113.60 0.2110116
1113.70 0.2109589
1113.80 0.2109063
1113.90 0.2108536
1114.00 0.210801
1114.10 0.2107484
1114.20 0.2106958
1114.30 0.2106433
1114.40 0.2105907
1114.50 0.2105382
1114.60 0.2104856
1114.70 0.2104331
1114.80 0.2103806
1114.90 0.2103282
1115.00 0.2102757
1115.10 0.2102233
1115.20 0.2101708
1115.30 0.2101184
1115.40 0.210066
1115.50 0.2100136
1115.60 0.2099612
1115.70 0.2099089
1115.80 0.2098565
1115.90 0.2098042
1116.00 0.2097519
1116.10 0.2096996
1116.20 0.2096473
1116.30 0.2095951
1116.40 0.2095428
1116.50 0.2094906
1116.60 0.2094384
1116.70 0.2093862
1116.80 0.2093341
1116.90 0.209282
1117.00 0.20923
1117.10 0.209178
1117.20 0.209126
1117.30 0.2090741
1117.40 0.2090221
1117.50 0.2089702
1117.60 0.2089183
1117.70 0.2088664
1117.80 0.2088145
1117.90 0.2087626
1118.00 0.2087108
1118.10 0.2086589
1118.20 0.2086071
1118.30 0.2085553
1118.40 0.2085035
1118.50 0.2084517
1118.60 0.2083999
1118.70 0.2083482
1118.80 0.2082964
1118.90 0.2082447
1119.00 0.208193
1119.10 0.2081413
1119.20 0.2080896
1119.30 0.208038
1119.40 0.2079863
1119.50 0.2079347
1119.60 0.2078831
1119.70 0.2078315
1119.80 0.2077799
1119.90 0.2077283
1120.00 0.2076768
1120.10 0.2076252
1120.20 0.2075737
1120.30 0.2075222
1120.40 0.2074707
1120.50 0.2074192
1120.60 0.2073678
1120.70 0.2073163
1120.80 0.2072649
1120.90 0.2072135
1121.00 0.2071621
1121.10 0.2071107
1121.20 0.2070593
1121.30 0.207008
1121.40 0.2069566
1121.50 0.2069053
1121.60 0.206854
1121.70 0.2068027
1121.80 0.2067514
1121.90 0.2067001
1122.00 0.2066489
1122.10 0.2065976
1122.20 0.2065464
1122.30 0.2064952
1122.40 0.206444
1122.50 0.2063928
1122.60 0.2063416
1122.70 0.2062905
1122.80 0.2062394
1122.90 0.2061882
1123.00 0.2061371
1123.10 0.206086
1123.20 0.206035
1123.30 0.2059839
1123.40 0.2059329
1123.50 0.2058818
1123.60 0.2058308
1123.70 0.2057798
1123.80 0.2057288
1123.90 0.2056778
1124.00 0.2056269
1124.10 0.2055759
1124.20 0.205525
1124.30 0.2054741
1124.40 0.2054232
1124.50 0.2053723
1124.60 0.2053215
1124.70 0.2052706
1124.80 0.2052198
1124.90 0.2051689
1125.00 0.2051181
1125.10 0.2050673
1125.20 0.2050166
1125.30 0.2049658
1125.40 0.204915
1125.50 0.2048643
1125.60 0.2048136
1125.70 0.2047629
1125.80 0.2047122
1125.90 0.2046615
1126.00 0.2046108
1126.10 0.2045602
1126.20 0.2045096
1126.30 0.204459
1126.40 0.2044084
1126.50 0.2043578
1126.60 0.2043072
1126.70 0.2042566
1126.80 0.2042061
1126.90 0.2041556
1127.00 0.2041051
1127.10 0.2040546
1127.20 0.2040041
1127.30 0.2039536
1127.40 0.2039031
1127.50 0.2038527
1127.60 0.2038023
1127.70 0.2037519
1127.80 0.2037015
1127.90 0.2036511
1128.00 0.2036008
1128.10 0.2035506
1128.20 0.2035004
1128.30 0.2034503
1128.40 0.2034001
1128.50 0.2033499
1128.60 0.2032998
1128.70 0.2032497
1128.80 0.2031996
1128.90 0.2031495
1129.00 0.2030994
1129.10 0.2030493
1129.20 0.2029993
1129.30 0.2029493
1129.40 0.2028992
1129.50 0.2028492
1129.60 0.2027993
1129.70 0.2027493
1129.80 0.2026993
1129.90 0.2026494
1130.00 0.2025994
1130.10 0.2025495
1130.20 0.2024996
1130.30 0.2024497
1130.40 0.2023999
1130.50 0.20235
1130.60 0.2023002
1130.70 0.2022503
1130.80 0.2022005
1130.90 0.2021507
1131.00 0.2021009
1131.10 0.2020512
1131.20 0.2020014
1131.30 0.2019517
1131.40 0.2019019
1131.50 0.2018522
1131.60 0.2018025
1131.70 0.2017528
1131.80 0.2017031
1131.90 0.2016535
1132.00 0.2016038
1132.10 0.2015542
1132.20 0.2015046
1132.30 0.201455
1132.40 0.2014054
1132.50 0.2013559
1132.60 0.2013063
1132.70 0.2012568
1132.80 0.2012072
1132.90 0.2011577
1133.00 0.2011082
1133.10 0.2010587
1133.20 0.2010093
1133.30 0.2009598
1133.40 0.2009104
1133.50 0.2008609
1133.60 0.2008115
1133.70 0.2007621
1133.80 0.2007127
1133.90 0.2006634
1134.00 0.200614
1134.10 0.2005647
1134.20 0.2005153
1134.30 0.200466
1134.40 0.2004167
1134.50 0.2003674
1134.60 0.2003182
1134.70 0.2002689
1134.80 0.2002197
1134.90 0.2001705
1135.00 0.2001212
1135.10 0.200072
1135.20 0.2000229
1135.30 0.1999737
1135.40 0.1999245
1135.50 0.1998754
1135.60 0.1998263
1135.70 0.1997771
1135.80 0.199728
1135.90 0.199679
1136.00 0.1996299
1136.10 0.1995808
1136.20 0.1995318
1136.30 0.1994828
1136.40 0.1994338
1136.50 0.1993848
1136.60 0.1993358
1136.70 0.1992868
1136.80 0.1992378
1136.90 0.1991889
1137.00 0.19914
1137.10 0.199091
1137.20 0.1990421
1137.30 0.1989933
1137.40 0.1989444
1137.50 0.1988955
1137.60 0.1988467
1137.70 0.1987979
1137.80 0.198749
1137.90 0.1987002
1138.00 0.1986514
1138.10 0.1986027
1138.20 0.1985539
1138.30 0.1985052
1138.40 0.1984564
1138.50 0.1984077
1138.60 0.198359
1138.70 0.1983103
1138.80 0.1982616
1138.90 0.198213
1139.00 0.1981643
1139.10 0.1981157
1139.20 0.1980671
1139.30 0.1980169
1139.40 0.1979668
1139.50 0.1979166
1139.60 0.1978665
1139.70 0.1978163
1139.80 0.1977662
1139.90 0.1977161
1140.00 0.1976661
1140.10 0.197616
1140.20 0.1975659
1140.30 0.1975159
1140.40 0.1974659
1140.50 0.1974159
1140.60 0.1973659
1140.70 0.1973159
1140.80 0.1972659
1140.90 0.197216
1141.00 0.1971661
1141.10 0.1971161
1141.20 0.1970662
1141.30 0.1970163
1141.40 0.1969665
1141.50 0.1969166
1141.60 0.1968667
1141.70 0.1968169
1141.80 0.1967671
1141.90 0.1967173
1142.00 0.1966675
1142.10 0.1966177
1142.20 0.196568
1142.30 0.1965182
1142.40 0.1964685
1142.50 0.1964188
1142.60 0.1963691
1142.70 0.1963194
1142.80 0.1962697
1142.90 0.19622
1143.00 0.1961704
1143.10 0.1961207
1143.20 0.1960711
1143.30 0.1960215
1143.40 0.1959719
1143.50 0.1959224
1143.60 0.1958728
1143.70 0.1958233
1143.80 0.1957737
1143.90 0.1957242
1144.00 0.1956747
1144.10 0.1956252
1144.20 0.1955757
1144.30 0.1955263
1144.40 0.1954768
1144.50 0.1954274
1144.60 0.195378
1144.70 0.1953286
1144.80 0.1952792
1144.90 0.1952298
1145.00 0.1951805
1145.10 0.1951311
1145.20 0.1950818
1145.30 0.1950325
1145.40 0.1949832
1145.50 0.1949339
1145.60 0.1948846
1145.70 0.1948353
1145.80 0.1947861
1145.90 0.1947368
1146.00 0.1946876
1146.10 0.1946384
1146.20 0.1945892
1146.30 0.1945401
1146.40 0.1944909
1146.50 0.1944418
1146.60 0.1943926
1146.70 0.1943435
1146.80 0.1942944
1146.90 0.1942453
1147.00 0.1941962
1147.10 0.1941472
1147.20 0.1940981
1147.30 0.1940491
1147.40 0.1940001
1147.50 0.1939511
1147.60 0.1939021
1147.70 0.1938531
1147.80 0.1938041
1147.90 0.1937552
1148.00 0.1937062
1148.10 0.1936573
1148.20 0.1936084
1148.30 0.1935595
1148.40 0.1935106
1148.50 0.1934618
1148.60 0.1934129
1148.70 0.1933641
1148.80 0.1933153
1148.90 0.1932665
1149.00 0.1932177
1149.10 0.1931689
1149.20 0.1931201
1149.30 0.1930714
1149.40 0.1930226
1149.50 0.1929739
1149.60 0.1929252
1149.70 0.1928765
1149.80 0.1928278
1149.90 0.1927792
1150.00 0.1927305
1150.10 0.1926819
1150.20 0.1926332
1150.30 0.1925846
1150.40 0.192536
1150.50 0.1924874
1150.60 0.192439
1150.70 0.1923922
1150.80 0.1923455
1150.90 0.1922988
1151.00 0.1922521
1151.10 0.1922054
1151.20 0.1921587
1151.30 0.192112
1151.40 0.1920654
1151.50 0.1920187
1151.60 0.1919721
1151.70 0.1919255
1151.80 0.1918789
1151.90 0.1918323
1152.00 0.1917857
1152.10 0.1917392
1152.20 0.1916926
1152.30 0.1916461
1152.40 0.1915996
1152.50 0.1915531
1152.60 0.1915066
1152.70 0.1914601
1152.80 0.1914136
1152.90 0.1913672
1153.00 0.1913207
1153.10 0.1912743
1153.20 0.1912279
1153.30 0.1911815
1153.40 0.1911351
1153.50 0.1910887
1153.60 0.1910424
1153.70 0.190996
1153.80 0.1909497
1153.90 0.1909034
1154.00 0.1908571
1154.10 0.1908108
1154.20 0.1907645
1154.30 0.1907182
1154.40 0.190672
1154.50 0.1906257
1154.60 0.1905795
1154.70 0.1905333
1154.80 0.1904871
1154.90 0.1904409
1155.00 0.1903947
1155.10 0.1903485
1155.20 0.1903024
1155.30 0.1902563
1155.40 0.1902101
1155.50 0.190164
1155.60 0.1901179
1155.70 0.1900718
1155.80 0.1900258
1155.90 0.1899797
1156.00 0.1899337
1156.10 0.1898876
1156.20 0.1898416
1156.30 0.1897956
1156.40 0.1897496
1156.50 0.1897036
1156.60 0.1896577
1156.70 0.1896117
1156.80 0.1895658
1156.90 0.1895199
1157.00 0.189474
1157.10 0.1894281
1157.20 0.1893822
1157.30 0.1893363
1157.40 0.1892904
1157.50 0.1892446
1157.60 0.1891988
1157.70 0.1891529
1157.80 0.1891071
1157.90 0.1890613
1158.00 0.1890156
1158.10 0.1889698
1158.20 0.188924
1158.30 0.1888783
1158.40 0.1888326
1158.50 0.1887869
1158.60 0.1887412
1158.70 0.1886955
1158.80 0.1886498
1158.90 0.1886041
1159.00 0.1885585
1159.10 0.1885128
1159.20 0.1884672
1159.30 0.1884216
1159.40 0.188376
1159.50 0.1883304
1159.60 0.1882848
1159.70 0.1882393
1159.80 0.1881937
1159.90 0.1881482
1160.00 0.1881027
1160.10 0.1880572
1160.20 0.1880117
1160.30 0.1879662
1160.40 0.1879207
1160.50 0.1878753
1160.60 0.1878298
1160.70 0.1877844
1160.80 0.187739
1160.90 0.1876936
1161.00 0.1876482
1161.10 0.1876028
1161.20 0.1875574
1161.30 0.1875121
1161.40 0.1874667
1161.50 0.1874214
1161.60 0.1873761
1161.70 0.1873308
1161.80 0.1872855
1161.90 0.1872402
1162.00 0.187195
1162.10 0.1871497
1162.20 0.1871039
1162.30 0.1870582
1162.40 0.1870125
1162.50 0.1869667
1162.60 0.186921
1162.70 0.1868753
1162.80 0.1868297
1162.90 0.186784
1163.00 0.1867383
1163.10 0.1866927
1163.20 0.1866471
1163.30 0.1866015
1163.40 0.1865559
1163.50 0.1865103
1163.60 0.1864647
1163.70 0.1864191
1163.80 0.1863736
1163.90 0.186328
1164.00 0.1862825
1164.10 0.186237
1164.20 0.1861915
1164.30 0.186146
1164.40 0.1861005
1164.50 0.1860551
1164.60 0.1860096
1164.70 0.1859642
1164.80 0.1859188
1164.90 0.1858734
1165.00 0.185828
1165.10 0.1857826
1165.20 0.1857372
1165.30 0.1856918
1165.40 0.1856465
1165.50 0.1856012
1165.60 0.1855559
1165.70 0.1855105
1165.80 0.1854652
1165.90 0.18542
1166.00 0.1853747
1166.10 0.1853294
1166.20 0.1852842
1166.30 0.185239
1166.40 0.1851938
1166.50 0.1851485
1166.60 0.1851034
1166.70 0.1850582
1166.80 0.185013
1166.90 0.1849679
1167.00 0.1849227
1167.10 0.1848776
1167.20 0.1848325
1167.30 0.1847874
1167.40 0.1847423
1167.50 0.1846972
1167.60 0.1846521
1167.70 0.1846071
1167.80 0.184562
1167.90 0.184517
1168.00 0.184472
1168.10 0.184427
1168.20 0.184382
1168.30 0.1843371
1168.40 0.1842921
1168.50 0.1842471
1168.60 0.1842022
1168.70 0.1841573
1168.80 0.1841124
1168.90 0.1840675
1169.00 0.1840226
1169.10 0.1839777
1169.20 0.1839329
1169.30 0.183888
1169.40 0.1838432
1169.50 0.1837984
1169.60 0.1837536
1169.70 0.1837088
1169.80 0.183664
1169.90 0.1836192
1170.00 0.1835745
1170.10 0.1835297
1170.20 0.183485
1170.30 0.1834403
1170.40 0.1833955
1170.50 0.1833509
1170.60 0.1833062
1170.70 0.1832615
1170.80 0.1832168
1170.90 0.1831722
1171.00 0.1831276
1171.10 0.1830829
1171.20 0.1830383
1171.30 0.1829937
1171.40 0.1829492
1171.50 0.1829046
1171.60 0.18286
1171.70 0.1828155
1171.80 0.182771
1171.90 0.1827264
1172.00 0.1826819
1172.10 0.1826374
1172.20 0.182593
1172.30 0.1825485
1172.40 0.182504
1172.50 0.1824596
1172.60 0.1824152
1172.70 0.1823707
1172.80 0.1823263
1172.90 0.1822819
1173.00 0.1822376
1173.10 0.1821932
1173.20 0.1821488
1173.30 0.1821045
1173.40 0.1820602
1173.50 0.1820158
1173.60 0.1819715
1173.70 0.1819272
1173.80 0.1818831
1173.90 0.1818389
1174.00 0.1817948
1174.10 0.1817507
1174.20 0.1817066
1174.30 0.1816625
1174.40 0.1816184
1174.50 0.1815743
1174.60 0.1815303
1174.70 0.1814863
1174.80 0.1814422
1174.90 0.1813982
1175.00 0.1813542
1175.10 0.1813102
1175.20 0.1812662
1175.30 0.1812223
1175.40 0.1811783
1175.50 0.1811344
1175.60 0.1810904
1175.70 0.1810465
1175.80 0.1810026
1175.90 0.1809587
1176.00 0.1809148
1176.10 0.180871
1176.20 0.1808271
1176.30 0.1807833
1176.40 0.1807394
1176.50 0.1806956
1176.60 0.1806518
1176.70 0.180608
1176.80 0.1805642
1176.90 0.1805205
1177.00 0.1804767
1177.10 0.180433
1177.20 0.1803892
1177.30 0.1803455
1177.40 0.1803018
1177.50 0.1802581
1177.60 0.1802144
1177.70 0.1801708
1177.80 0.1801271
1177.90 0.1800834
1178.00 0.1800398
1178.10 0.1799962
1178.20 0.1799526
1178.30 0.179909
1178.40 0.1798654
1178.50 0.1798218
1178.60 0.1797783
1178.70 0.1797347
1178.80 0.1796912
1178.90 0.1796476
1179.00 0.1796041
1179.10 0.1795606
1179.20 0.1795171
1179.30 0.1794737
1179.40 0.1794302
1179.50 0.1793867
1179.60 0.1793433
1179.70 0.1792995
1179.80 0.1792558
1179.90 0.1792121
1180.00 0.1791684
1180.10 0.1791247
1180.20 0.179081
1180.30 0.1790374
1180.40 0.1789937
1180.50 0.1789501
1180.60 0.1789065
1180.70 0.1788628
1180.80 0.1788192
1180.90 0.1787757
1181.00 0.1787321
1181.10 0.1786885
1181.20 0.178645
1181.30 0.1786014
1181.40 0.1785579
1181.50 0.1785144
1181.60 0.1784709
1181.70 0.1784274
1181.80 0.1783839
1181.90 0.1783404
1182.00 0.178297
1182.10 0.1782535
1182.20 0.1782101
1182.30 0.1781667
1182.40 0.1781233
1182.50 0.1780799
1182.60 0.1780365
1182.70 0.1779931
1182.80 0.1779498
1182.90 0.1779064
1183.00 0.1778631
1183.10 0.1778198
1183.20 0.1777765
1183.30 0.1777332
1183.40 0.1776899
1183.50 0.1776466
1183.60 0.1776033
1183.70 0.1775601
1183.80 0.1775169
1183.90 0.1774736
1184.00 0.1774304
1184.10 0.1773872
1184.20 0.177344
1184.30 0.1773009
1184.40 0.1772577
1184.50 0.1772145
1184.60 0.1771714
1184.70 0.1771283
1184.80 0.1770851
1184.90 0.177042
1185.00 0.176999
1185.10 0.1769559
1185.20 0.1769128
1185.30 0.1768697
1185.40 0.1768267
1185.50 0.1767837
1185.60 0.1767408
1185.70 0.176698
1185.80 0.1766551
1185.90 0.1766122
1186.00 0.1765694
1186.10 0.1765266
1186.20 0.1764837
1186.30 0.1764409
1186.40 0.1763981
1186.50 0.1763553
1186.60 0.1763126
1186.70 0.1762698
1186.80 0.1762271
1186.90 0.1761843
1187.00 0.1761416
1187.10 0.1760989
1187.20 0.1760562
1187.30 0.1760135
1187.40 0.1759708
1187.50 0.1759282
1187.60 0.1758855
1187.70 0.1758429
1187.80 0.1758002
1187.90 0.1757576
1188.00 0.175715
1188.10 0.1756724
1188.20 0.1756298
1188.30 0.1755873
1188.40 0.1755447
1188.50 0.1755022
1188.60 0.1754596
1188.70 0.1754171
1188.80 0.1753746
1188.90 0.1753321
1189.00 0.1752896
1189.10 0.1752471
1189.20 0.1752047
1189.30 0.1751622
1189.40 0.1751198
1189.50 0.1750774
1189.60 0.1750349
1189.70 0.1749925
1189.80 0.1749501
1189.90 0.1749078
1190.00 0.1748654
1190.10 0.174823
1190.20 0.1747807
1190.30 0.1747383
1190.40 0.174696
1190.50 0.1746537
1190.60 0.1746114
1190.70 0.1745691
1190.80 0.1745269
1190.90 0.1744846
1191.00 0.1744423
1191.10 0.1744001
1191.20 0.1743579
1191.30 0.1743157
1191.40 0.1742735
1191.50 0.1742316
1191.60 0.1741897
1191.70 0.1741479
1191.80 0.174106
1191.90 0.1740641
1192.00 0.1740223
1192.10 0.1739805
1192.20 0.1739387
1192.30 0.1738969
1192.40 0.1738551
1192.50 0.1738133
1192.60 0.1737716
1192.70 0.1737298
1192.80 0.1736881
1192.90 0.1736463
1193.00 0.1736046
1193.10 0.1735629
1193.20 0.1735212
1193.30 0.1734795
1193.40 0.1734378
1193.50 0.1733962
1193.60 0.1733545
1193.70 0.1733129
1193.80 0.1732713
1193.90 0.1732297
1194.00 0.1731881
1194.10 0.1731465
1194.20 0.1731049
1194.30 0.1730633
1194.40 0.1730218
1194.50 0.1729802
1194.60 0.1729387
1194.70 0.1728972
1194.80 0.1728556
1194.90 0.1728141
1195.00 0.1727727
1195.10 0.1727312
1195.20 0.1726897
1195.30 0.1726483
1195.40 0.1726068
1195.50 0.1725654
1195.60 0.172524
1195.70 0.1724826
1195.80 0.1724412
1195.90 0.1723998
1196.00 0.1723584
1196.10 0.172317
1196.20 0.1722757
1196.30 0.1722343
1196.40 0.172193
1196.50 0.1721517
1196.60 0.1721104
1196.70 0.1720691
1196.80 0.1720278
1196.90 0.1719865
1197.00 0.1719453
1197.10 0.171904
1197.20 0.1718628
1197.30 0.1718216
1197.40 0.1717802
1197.50 0.1717388
1197.60 0.1716975
1197.70 0.1716561
1197.80 0.1716148
1197.90 0.1715735
1198.00 0.1715322
1198.10 0.1714908
1198.20 0.1714496
1198.30 0.1714083
1198.40 0.171367
1198.50 0.1713257
1198.60 0.1712845
1198.70 0.1712433
1198.80 0.171202
1198.90 0.1711608
1199.00 0.1711196
1199.10 0.1710784
1199.20 0.1710373
1199.30 0.1709961
1199.40 0.1709549
1199.50 0.1709138
1199.60 0.1708727
1199.70 0.1708315
1199.80 0.1707904
1199.90 0.1707493
1200.00 0.1707082
