# Version 2.1 - nm, norm@500 to 1, cut digits, bergeron_He_20000_80.dat_20000
# Wavelength(nm)  Flambda(ergs/cm^s/s/nm)
300.00 4.105401
300.10 4.102722
300.20 4.099989
300.30 4.097206
300.40 4.094067
300.50 4.090932
300.60 4.0878
300.70 4.084671
300.80 4.081546
300.90 4.078424
301.00 4.075305
301.10 4.072189
301.20 4.069076
301.30 4.065967
301.40 4.062861
301.50 4.059758
301.60 4.056659
301.70 4.053562
301.80 4.050469
301.90 4.047379
302.00 4.044293
302.10 4.040787
302.20 4.037238
302.30 4.033693
302.40 4.030152
302.50 4.026615
302.60 4.023081
302.70 4.019551
302.80 4.016025
302.90 4.012503
303.00 4.008985
303.10 4.00547
303.20 4.001959
303.30 3.998459
303.40 3.995027
303.50 3.991598
303.60 3.988173
303.70 3.984752
303.80 3.981334
303.90 3.97792
304.00 3.97451
304.10 3.971103
304.20 3.9677
304.30 3.9643
304.40 3.960904
304.50 3.957512
304.60 3.954014
304.70 3.950508
304.80 3.947005
304.90 3.943506
305.00 3.940011
305.10 3.93652
305.20 3.933032
305.30 3.929548
305.40 3.926068
305.50 3.922591
305.60 3.919118
305.70 3.915649
305.80 3.912184
305.90 3.908722
306.00 3.905264
306.10 3.90181
306.20 3.898359
306.30 3.894912
306.40 3.891478
306.50 3.888051
306.60 3.884627
306.70 3.881207
306.80 3.877791
306.90 3.874378
307.00 3.870969
307.10 3.867563
307.20 3.864161
307.30 3.860763
307.40 3.857368
307.50 3.853977
307.60 3.85059
307.70 3.847206
307.80 3.843825
307.90 3.840449
308.00 3.837075
308.10 3.833706
308.20 3.83034
308.30 3.826977
308.40 3.823618
308.50 3.820263
308.60 3.816911
308.70 3.813563
308.80 3.810169
308.90 3.806639
309.00 3.803073
309.10 3.799512
309.20 3.795954
309.30 3.7924
309.40 3.788848
309.50 3.785295
309.60 3.781746
309.70 3.7782
309.80 3.774658
309.90 3.77112
310.00 3.767585
310.10 3.764055
310.20 3.760528
310.30 3.757005
310.40 3.753548
310.50 3.750163
310.60 3.746781
310.70 3.743403
310.80 3.740028
310.90 3.736657
311.00 3.732841
311.10 3.729029
311.20 3.725221
311.30 3.721481
311.40 3.717927
311.50 3.714376
311.60 3.71083
311.70 3.707287
311.80 3.703749
311.90 3.700214
312.00 3.696682
312.10 3.693155
312.20 3.689207
312.30 3.685024
312.40 3.68121
312.50 3.677263
312.60 3.673504
312.70 3.669749
312.80 3.665998
312.90 3.662182
313.00 3.658296
313.10 3.654415
313.20 3.650537
313.30 3.646552
313.40 3.642253
313.50 3.637959
313.60 3.633669
313.70 3.629384
313.80 3.625104
313.90 3.620829
314.00 3.616558
314.10 3.611577
314.20 3.606601
314.30 3.601631
314.40 3.596667
314.50 3.591708
314.60 3.586755
314.70 3.581807
314.80 3.576698
314.90 3.571035
315.00 3.565286
315.10 3.558945
315.20 3.552612
315.30 3.546287
315.40 3.539968
315.50 3.533657
315.60 3.527354
315.70 3.52095
315.80 3.514554
315.90 3.508166
316.00 3.501785
316.10 3.49637
316.20 3.490963
316.30 3.490672
316.40 3.485273
316.50 3.465841
316.60 3.428575
316.70 3.399642
316.80 3.370744
316.90 3.367344
317.00 3.363947
317.10 3.360555
317.20 3.357165
317.30 3.371106
317.40 3.380391
317.50 3.376476
317.60 3.372565
317.70 3.368658
317.80 3.364755
317.90 3.338502
318.00 3.303403
318.10 3.246995
318.20 3.190658
318.30 3.134391
318.40 3.054421
318.50 2.906934
318.60 2.73196
318.70 2.336569
318.80 1.802668
318.90 2.289575
319.00 2.554042
319.10 2.720693
319.20 2.863095
319.30 2.936942
319.40 3.010696
319.50 3.084357
319.60 3.140567
319.70 3.172688
319.80 3.204768
319.90 3.236807
320.00 3.262963
320.10 3.282761
320.20 3.300271
320.30 3.314304
320.40 3.326558
320.50 3.335809
320.60 3.344003
320.70 3.35062
320.80 3.355737
320.90 3.359232
321.00 3.362723
321.10 3.366209
321.20 3.368866
321.30 3.369126
321.40 3.369385
321.50 3.369644
321.60 3.369901
321.70 3.370157
321.80 3.370086
321.90 3.369659
322.00 3.369199
322.10 3.367873
322.20 3.366549
322.30 3.365226
322.40 3.363903
322.50 3.362582
322.60 3.361262
322.70 3.359942
322.80 3.358286
322.90 3.356315
323.00 3.354346
323.10 3.352379
323.20 3.350413
323.30 3.34845
323.40 3.346488
323.50 3.344528
323.60 3.342569
323.70 3.340613
323.80 3.338658
323.90 3.336705
324.00 3.334646
324.10 3.332588
324.20 3.330533
324.30 3.328074
324.40 3.324998
324.50 3.322503
324.60 3.32001
324.70 3.317519
324.80 3.315031
324.90 3.312545
325.00 3.310062
325.10 3.307581
325.20 3.305111
325.30 3.302658
325.40 3.300208
325.50 3.297675
325.60 3.295042
325.70 3.292412
325.80 3.289785
325.90 3.287177
326.00 3.28459
326.10 3.282006
326.20 3.279425
326.30 3.276746
326.40 3.273786
326.50 3.27112
326.60 3.268457
326.70 3.265797
326.80 3.263139
326.90 3.260484
327.00 3.257831
327.10 3.255181
327.20 3.252533
327.30 3.249889
327.40 3.247247
327.50 3.244607
327.60 3.24197
327.70 3.239336
327.80 3.236704
327.90 3.23439
328.00 3.23138
328.10 3.227107
328.20 3.222839
328.30 3.218575
328.40 3.214316
328.50 3.211922
328.60 3.209968
328.70 3.208015
328.80 3.205986
328.90 3.203736
329.00 3.201489
329.10 3.199244
329.20 3.197001
329.30 3.19476
329.40 3.192521
329.50 3.190284
329.60 3.18805
329.70 3.185818
329.80 3.183587
329.90 3.181359
330.00 3.179001
330.10 3.176484
330.20 3.17397
330.30 3.171458
330.40 3.168926
330.50 3.166372
330.60 3.16382
330.70 3.161271
330.80 3.158725
330.90 3.156181
331.00 3.153639
331.10 3.1511
331.20 3.148563
331.30 3.146029
331.40 3.143498
331.50 3.140833
331.60 3.138005
331.70 3.13518
331.80 3.132428
331.90 3.129681
332.00 3.126938
332.10 3.124197
332.20 3.121459
332.30 3.118723
332.40 3.11599
332.50 3.11326
332.60 3.110533
332.70 3.107809
332.80 3.105087
332.90 3.102368
333.00 3.099651
333.10 3.096699
333.20 3.093459
333.30 3.090222
333.40 3.086988
333.50 3.083758
333.60 3.08053
333.70 3.077307
333.80 3.074086
333.90 3.070869
334.00 3.067655
334.10 3.064204
334.20 3.060463
334.30 3.056725
334.40 3.052992
334.50 3.049262
334.60 3.045537
334.70 3.041189
334.80 3.035647
334.90 3.029483
335.00 3.023327
335.10 3.017052
335.20 3.012407
335.30 3.006631
335.40 3.001997
335.50 3.003473
335.60 3.005515
335.70 3.00656
335.80 3.007605
335.90 3.00801
336.00 3.007635
336.10 3.00726
336.20 3.006885
336.30 3.006044
336.40 3.004634
336.50 3.003225
336.60 3.001817
336.70 3.00041
336.80 2.999004
336.90 2.99743
337.00 2.995652
337.10 2.993875
337.20 2.992099
337.30 2.990248
337.40 2.988287
337.50 2.986329
337.60 2.984371
337.70 2.982416
337.80 2.980463
337.90 2.978498
338.00 2.976519
338.10 2.974542
338.20 2.972566
338.30 2.970593
338.40 2.968538
338.50 2.966281
338.60 2.964027
338.70 2.961775
338.80 2.959525
338.90 2.957278
339.00 2.955032
339.10 2.952789
339.20 2.950547
339.30 2.948281
339.40 2.945978
339.50 2.943548
339.60 2.940965
339.70 2.938384
339.80 2.935806
339.90 2.93323
340.00 2.930656
340.10 2.928086
340.20 2.925517
340.30 2.922952
340.40 2.920388
340.50 2.917827
340.60 2.915269
340.70 2.912713
340.80 2.910276
340.90 2.908008
341.00 2.905499
341.10 2.902697
341.20 2.899897
341.30 2.897101
341.40 2.894307
341.50 2.891516
341.60 2.888727
341.70 2.885942
341.80 2.882956
341.90 2.879726
342.00 2.876499
342.10 2.873275
342.20 2.869817
342.30 2.866339
342.40 2.862914
342.50 2.859231
342.60 2.855552
342.70 2.851876
342.80 2.848205
342.90 2.844537
343.00 2.840686
343.10 2.836611
343.20 2.83254
343.30 2.828473
343.40 2.823771
343.50 2.818154
343.60 2.812543
343.70 2.806939
343.80 2.80134
343.90 2.795747
344.00 2.788905
344.10 2.780266
344.20 2.771636
344.30 2.763016
344.40 2.752637
344.50 2.739728
344.60 2.725951
344.70 2.711484
344.80 2.723031
344.90 2.732818
345.00 2.744333
345.10 2.750258
345.20 2.755028
345.30 2.758142
345.40 2.761252
345.50 2.763631
345.60 2.764658
345.70 2.76502
345.80 2.765382
345.90 2.765742
346.00 2.766101
346.10 2.76646
346.20 2.766147
346.30 2.76487
346.40 2.763593
346.50 2.762318
346.60 2.761043
346.70 2.75977
346.80 2.758497
346.90 2.757226
347.00 2.755955
347.10 2.754686
347.20 2.753228
347.30 2.751498
347.40 2.749769
347.50 2.748043
347.60 2.746317
347.70 2.744593
347.80 2.742871
347.90 2.74115
348.00 2.739431
348.10 2.737713
348.20 2.735997
348.30 2.734282
348.40 2.732569
348.50 2.730857
348.60 2.729147
348.70 2.727548
348.80 2.725812
348.90 2.723829
349.00 2.721849
349.10 2.71987
349.20 2.717893
349.30 2.715918
349.40 2.713944
349.50 2.711973
349.60 2.710003
349.70 2.708035
349.80 2.706069
349.90 2.704105
350.00 2.702143
350.10 2.700182
350.20 2.698223
350.30 2.696244
350.40 2.694234
350.50 2.692226
350.60 2.690219
350.70 2.688215
350.80 2.686213
350.90 2.684212
351.00 2.682213
351.10 2.680216
351.20 2.678221
351.30 2.676228
351.40 2.674305
351.50 2.672506
351.60 2.670709
351.70 2.668913
351.80 2.667119
351.90 2.665327
352.00 2.663536
352.10 2.661747
352.20 2.659585
352.30 2.657522
352.40 2.65566
352.50 2.653798
352.60 2.651939
352.70 2.650081
352.80 2.648225
352.90 2.646371
353.00 2.644518
353.10 2.642668
353.20 2.640818
353.30 2.638971
353.40 2.637125
353.50 2.635378
353.60 2.633657
353.70 2.631938
353.80 2.63022
353.90 2.628505
354.00 2.626792
354.10 2.625081
354.20 2.623371
354.30 2.621663
354.40 2.619956
354.50 2.618251
354.60 2.616547
354.70 2.614845
354.80 2.613143
354.90 2.61144
355.00 2.609739
355.10 2.60804
355.20 2.606341
355.30 2.604405
355.40 2.602469
355.50 2.600536
355.60 2.598605
355.70 2.596998
355.80 2.595539
355.90 2.59408
356.00 2.592344
356.10 2.590539
356.20 2.588736
356.30 2.586934
356.40 2.585134
356.50 2.583336
356.60 2.581539
356.70 2.579744
356.80 2.57795
356.90 2.576158
357.00 2.574368
357.10 2.572579
357.20 2.570792
357.30 2.569006
357.40 2.567132
357.50 2.565101
357.60 2.563071
357.70 2.561044
357.80 2.559158
357.90 2.557275
358.00 2.554838
358.10 2.552266
358.20 2.549696
358.30 2.547128
358.40 2.544563
358.50 2.542
358.60 2.539439
358.70 2.536882
358.80 2.534326
358.90 2.531773
359.00 2.528832
359.10 2.525201
359.20 2.521531
359.30 2.517577
359.40 2.513627
359.50 2.509459
359.60 2.505238
359.70 2.501022
359.80 2.495143
359.90 2.48927
360.00 2.482306
360.10 2.4734
360.20 2.464503
360.30 2.455615
360.40 2.446738
360.50 2.437869
360.60 2.424703
360.70 2.407144
360.80 2.389605
360.90 2.372084
361.00 2.351581
361.10 2.317595
361.20 2.27744
361.30 2.218002
361.40 2.283485
361.50 2.343319
361.60 2.367505
361.70 2.369616
361.80 2.373241
361.90 2.379556
362.00 2.385864
362.10 2.389862
362.20 2.391575
362.30 2.390255
362.40 2.388936
362.50 2.387618
362.60 2.386301
362.70 2.382826
362.80 2.378814
362.90 2.373639
363.00 2.36847
363.10 2.362743
363.20 2.357017
363.30 2.353866
363.40 2.353539
363.50 2.359017
363.60 2.368358
363.70 2.375432
363.80 2.381211
363.90 2.385879
364.00 2.390542
364.10 2.395199
364.20 2.399851
364.30 2.404864
364.40 2.409963
364.50 2.415422
364.60 2.41857
364.70 2.421715
364.80 2.424856
364.90 2.426408
365.00 2.427957
365.10 2.427587
365.20 2.425299
365.30 2.423492
365.40 2.425517
365.50 2.428018
365.60 2.430516
365.70 2.433098
365.80 2.435677
365.90 2.436825
366.00 2.437614
366.10 2.437689
366.20 2.437763
366.30 2.437837
366.40 2.437911
366.50 2.43762
366.60 2.436301
366.70 2.434972
366.80 2.433645
366.90 2.431949
367.00 2.4296
367.10 2.427253
367.20 2.424908
367.30 2.422565
367.40 2.420224
367.50 2.41702
367.60 2.413602
367.70 2.409304
367.80 2.405009
367.90 2.400719
368.00 2.396085
368.10 2.391044
368.20 2.384082
368.30 2.377105
368.40 2.370135
368.50 2.363173
368.60 2.356218
368.70 2.349269
368.80 2.342329
368.90 2.334414
369.00 2.325247
369.10 2.31621
369.20 2.306436
369.30 2.294875
369.40 2.283326
369.50 2.27179
369.60 2.257057
369.70 2.24234
369.80 2.225734
369.90 2.209125
370.00 2.192534
370.10 2.17501
370.20 2.154716
370.30 2.134438
370.40 2.114643
370.50 2.107564
370.60 2.130514
370.70 2.156624
370.80 2.176742
370.90 2.196838
371.00 2.206495
371.10 2.216036
371.20 2.224075
371.30 2.232104
371.40 2.241025
371.50 2.249652
371.60 2.258269
371.70 2.266876
371.80 2.275474
371.90 2.284063
372.00 2.291644
372.10 2.298327
372.20 2.303091
372.30 2.30785
372.40 2.312603
372.50 2.31735
372.60 2.322093
372.70 2.326829
372.80 2.329243
372.90 2.331653
373.00 2.333183
373.10 2.334701
373.20 2.332991
373.30 2.331283
373.40 2.31628
373.50 2.308166
373.60 2.3138
373.70 2.321717
373.80 2.328367
373.90 2.335696
374.00 2.339474
374.10 2.343248
374.20 2.347017
374.30 2.350783
374.40 2.352947
374.50 2.354631
374.60 2.355657
374.70 2.356682
374.80 2.357706
374.90 2.358728
375.00 2.358986
375.10 2.359243
375.20 2.359499
375.30 2.358631
375.40 2.357763
375.50 2.356896
375.60 2.356029
375.70 2.355164
375.80 2.354298
375.90 2.353434
376.00 2.352182
376.10 2.350347
376.20 2.348507
376.30 2.346669
376.40 2.344832
376.50 2.342611
376.60 2.339813
376.70 2.337017
376.80 2.334056
376.90 2.330929
377.00 2.327806
377.10 2.324685
377.20 2.321376
377.30 2.317348
377.40 2.313323
377.50 2.309303
377.60 2.304571
377.70 2.299844
377.80 2.295122
377.90 2.290404
378.00 2.285345
378.10 2.278764
378.20 2.27218
378.30 2.265602
378.40 2.259031
378.50 2.252466
378.60 2.245908
378.70 2.239357
378.80 2.232812
378.90 2.22561
379.00 2.217183
379.10 2.208541
379.20 2.199907
379.30 2.190572
379.40 2.180535
379.50 2.170509
379.60 2.160165
379.70 2.148632
379.80 2.134454
379.90 2.120291
380.00 2.106141
380.10 2.092007
380.20 2.077887
380.30 2.063782
380.40 2.049691
380.50 2.035615
380.60 2.016843
380.70 1.996136
380.80 1.97545
380.90 1.954786
381.00 1.934143
381.10 1.912221
381.20 1.887732
381.30 1.859267
381.40 1.828766
381.50 1.794471
381.60 1.757898
381.70 1.718821
381.80 1.684852
381.90 1.667753
382.00 1.640157
382.10 1.694467
382.20 1.751346
382.30 1.80073
382.40 1.842843
382.50 1.87409
382.60 1.905305
382.70 1.930668
382.80 1.94413
382.90 1.952262
383.00 1.960385
383.10 1.968499
383.20 1.977415
383.30 1.989364
383.40 2.001081
383.50 2.012457
383.60 2.023599
383.70 2.032498
383.80 2.041388
383.90 2.050269
384.00 2.059139
384.10 2.068001
384.20 2.076852
384.30 2.085695
384.40 2.093401
384.50 2.099972
384.60 2.106537
384.70 2.113094
384.80 2.119303
384.90 2.12406
385.00 2.128509
385.10 2.132937
385.20 2.136171
385.30 2.138997
385.40 2.141358
385.50 2.143255
385.60 2.14515
385.70 2.147043
385.80 2.148725
385.90 2.14962
386.00 2.150118
386.10 2.149963
386.20 2.147194
386.30 2.144429
386.40 2.140382
386.50 2.131869
386.60 2.117822
386.70 2.086374
386.80 2.004328
386.90 2.026139
387.00 2.048952
387.10 2.062355
387.20 2.07231
387.30 2.078892
387.40 2.080774
387.50 2.080962
387.60 2.078369
387.70 2.070067
387.80 2.061773
387.90 2.053488
388.00 2.042994
388.10 2.023229
388.20 1.990214
388.30 1.948272
388.40 1.906373
388.50 1.850475
388.60 1.761065
388.70 1.624915
388.80 1.365817
388.90 1.236465
389.00 1.483195
389.10 1.638966
389.20 1.740034
389.30 1.813333
389.40 1.869045
389.50 1.917918
389.60 1.95524
389.70 1.982586
389.80 2.000744
389.90 2.018884
390.00 2.037005
390.10 2.055107
390.20 2.07319
390.30 2.086312
390.40 2.093852
390.50 2.101383
390.60 2.108906
390.70 2.116422
390.80 2.122235
390.90 2.126349
391.00 2.129324
391.10 2.131887
391.20 2.134392
391.30 2.135619
391.40 2.13564
391.50 2.135662
391.60 2.135683
391.70 2.135703
391.80 2.135724
391.90 2.135588
392.00 2.134821
392.10 2.133372
392.20 2.13183
392.30 2.129474
392.40 2.127293
392.50 2.125234
392.60 2.122908
392.70 2.120583
392.80 2.11882
392.90 2.117741
393.00 2.116664
393.10 2.115587
393.20 2.114511
393.30 2.113436
393.40 2.112155
393.50 2.109793
393.60 2.106729
393.70 2.104421
393.80 2.101292
393.90 2.098165
394.00 2.094987
394.10 2.090946
394.20 2.086544
394.30 2.082028
394.40 2.076531
394.50 2.070202
394.60 2.062731
394.70 2.054797
394.80 2.045102
394.90 2.035362
395.00 2.023861
395.10 2.012065
395.20 1.997755
395.30 1.982886
395.40 1.968031
395.50 1.948503
395.60 1.92726
395.70 1.90277
395.80 1.869472
395.90 1.836207
396.00 1.801588
396.10 1.746605
396.20 1.674457
396.30 1.590842
396.40 1.434551
396.50 1.546624
396.60 1.753177
396.70 1.80553
396.80 1.797816
396.90 1.785447
397.00 1.825189
397.10 1.887106
397.20 1.918174
397.30 1.92397
397.40 1.927075
397.50 1.930177
397.60 1.933167
397.70 1.935062
397.80 1.936954
397.90 1.938227
398.00 1.937829
398.10 1.937432
398.20 1.936143
398.30 1.93385
398.40 1.931524
398.50 1.928077
398.60 1.923915
398.70 1.918581
398.80 1.913026
398.90 1.906999
399.00 1.900095
399.10 1.892025
399.20 1.883349
399.30 1.874681
399.40 1.866022
399.50 1.857371
399.60 1.847271
399.70 1.836641
399.80 1.826022
399.90 1.815413
400.00 1.804792
400.10 1.793445
400.20 1.781498
400.30 1.768373
400.40 1.754881
400.50 1.74082
400.60 1.726005
400.70 1.710412
400.80 1.693964
400.90 1.674693
401.00 1.657338
401.10 1.64216
401.20 1.625829
401.30 1.608887
401.40 1.588877
401.50 1.567817
401.60 1.546618
401.70 1.52025
401.80 1.490828
401.90 1.456399
402.00 1.42048
402.10 1.379855
402.20 1.336731
402.30 1.290166
402.40 1.241253
402.50 1.186922
402.60 1.135372
402.70 1.176283
402.80 1.234799
402.90 1.29436
403.00 1.353153
403.10 1.406851
403.20 1.45461
403.30 1.496215
403.40 1.53403
403.50 1.565682
403.60 1.595707
403.70 1.621546
403.80 1.643259
403.90 1.661148
404.00 1.678021
404.10 1.690368
404.20 1.697748
404.30 1.705121
404.40 1.705771
404.50 1.693668
404.60 1.685802
404.70 1.691604
404.80 1.70123
404.90 1.710989
405.00 1.720605
405.10 1.729779
405.20 1.738937
405.30 1.748086
405.40 1.756429
405.50 1.764764
405.60 1.77309
405.70 1.781408
405.80 1.789718
405.90 1.798019
406.00 1.804468
406.10 1.810911
406.20 1.817347
406.30 1.823777
406.40 1.830212
406.50 1.836253
406.60 1.841714
406.70 1.846799
406.80 1.851926
406.90 1.856517
407.00 1.86039
407.10 1.864259
407.20 1.868124
407.30 1.871985
407.40 1.875842
407.50 1.879695
407.60 1.883544
407.70 1.887389
407.80 1.89123
407.90 1.895038
408.00 1.897886
408.10 1.900361
408.20 1.902213
408.30 1.904279
408.40 1.906342
408.50 1.908516
408.60 1.909702
408.70 1.910886
408.80 1.91203
408.90 1.912783
409.00 1.913315
409.10 1.913846
409.20 1.914376
409.30 1.914906
409.40 1.915423
409.50 1.915565
409.60 1.915707
409.70 1.915703
409.80 1.915119
409.90 1.914525
410.00 1.913591
410.10 1.912658
410.20 1.911488
410.30 1.91026
410.40 1.908624
410.50 1.905698
410.60 1.902774
410.70 1.899577
410.80 1.895278
410.90 1.890983
411.00 1.885084
411.10 1.878595
411.20 1.872112
411.30 1.865198
411.40 1.856416
411.50 1.843508
411.60 1.830612
411.70 1.815074
411.80 1.788936
411.90 1.759205
412.00 1.692446
412.10 1.458057
412.20 1.501934
412.30 1.576153
412.40 1.622432
412.50 1.651206
412.60 1.675082
412.70 1.692289
412.80 1.707818
412.90 1.722136
413.00 1.730091
413.10 1.732821
413.20 1.735548
413.30 1.738272
413.40 1.740994
413.50 1.743001
413.60 1.741754
413.70 1.739231
413.80 1.736711
413.90 1.734193
414.00 1.730916
414.10 1.725234
414.20 1.718484
414.30 1.707747
414.40 1.69717
414.50 1.696878
414.60 1.706036
414.70 1.716736
414.80 1.727203
414.90 1.736954
415.00 1.746696
415.10 1.756428
415.20 1.765554
415.30 1.772787
415.40 1.780012
415.50 1.787187
415.60 1.792959
415.70 1.798726
415.80 1.804299
415.90 1.809266
416.00 1.814229
416.10 1.8188
416.20 1.82182
416.30 1.824837
416.40 1.827851
416.50 1.830811
416.60 1.832142
416.70 1.833461
416.80 1.832831
416.90 1.826222
417.00 1.82402
417.10 1.82931
417.20 1.833575
417.30 1.837799
417.40 1.840808
417.50 1.843814
417.60 1.846666
417.70 1.848893
417.80 1.85045
417.90 1.852004
418.00 1.853557
418.10 1.855109
418.20 1.856658
418.30 1.858189
418.40 1.859106
418.50 1.859882
418.60 1.860657
418.70 1.861431
418.80 1.862204
418.90 1.862977
419.00 1.863748
419.10 1.864518
419.20 1.865288
419.30 1.866038
419.40 1.866175
419.50 1.866312
419.60 1.866391
419.70 1.866238
419.80 1.866084
419.90 1.86589
420.00 1.86557
420.10 1.865249
420.20 1.864929
420.30 1.864609
420.40 1.864288
420.50 1.863968
420.60 1.863648
420.70 1.863329
420.80 1.863009
420.90 1.862688
421.00 1.862322
421.10 1.861956
421.20 1.861487
421.30 1.860706
421.40 1.859926
421.50 1.859146
421.60 1.858367
421.70 1.857588
421.80 1.85681
421.90 1.856007
422.00 1.855128
422.10 1.854249
422.20 1.853371
422.30 1.852493
422.40 1.851612
422.50 1.850591
422.60 1.84957
422.70 1.848551
422.80 1.847532
422.90 1.846514
423.00 1.845496
423.10 1.84448
423.20 1.843464
423.30 1.842449
423.40 1.841434
423.50 1.840421
423.60 1.839408
423.70 1.838396
423.80 1.837384
423.90 1.836374
424.00 1.835364
424.10 1.834355
424.20 1.833346
424.30 1.832339
424.40 1.830648
424.50 1.829499
424.60 1.828351
424.70 1.827203
424.80 1.826057
424.90 1.824911
425.00 1.823767
425.10 1.822623
425.20 1.82148
425.30 1.820338
425.40 1.819179
425.50 1.817903
425.60 1.816628
425.70 1.815354
425.80 1.814082
425.90 1.81281
426.00 1.811539
426.10 1.810269
426.20 1.809
426.30 1.807732
426.40 1.806465
426.50 1.805199
426.60 1.803934
426.70 1.80267
426.80 1.801407
426.90 1.800138
427.00 1.798629
427.10 1.797122
427.20 1.795615
427.30 1.79411
427.40 1.792606
427.50 1.791104
427.60 1.789602
427.70 1.788102
427.80 1.786603
427.90 1.785105
428.00 1.783608
428.10 1.782113
428.20 1.780618
428.30 1.779125
428.40 1.777634
428.50 1.776143
428.60 1.774653
428.70 1.773165
428.80 1.771654
428.90 1.769827
429.00 1.768002
429.10 1.766178
429.20 1.764356
429.30 1.762535
429.40 1.760716
429.50 1.758898
429.60 1.757081
429.70 1.755267
429.80 1.753453
429.90 1.751642
430.00 1.749831
430.10 1.748022
430.20 1.746215
430.30 1.744409
430.40 1.742605
430.50 1.740802
430.60 1.739001
430.70 1.737201
430.80 1.735402
430.90 1.733605
431.00 1.73181
431.10 1.730016
431.20 1.728223
431.30 1.726377
431.40 1.72379
431.50 1.721206
431.60 1.718624
431.70 1.716044
431.80 1.713466
431.90 1.710891
432.00 1.708318
432.10 1.705747
432.20 1.703178
432.30 1.700612
432.40 1.698047
432.50 1.695485
432.60 1.692925
432.70 1.690367
432.80 1.687811
432.90 1.685258
433.00 1.682707
433.10 1.680158
433.20 1.677611
433.30 1.675025
433.40 1.671894
433.50 1.668767
433.60 1.665642
433.70 1.66252
433.80 1.65929
433.90 1.655928
434.00 1.652308
434.10 1.648531
434.20 1.644758
434.30 1.640988
434.40 1.637222
434.50 1.633458
434.60 1.629698
434.70 1.625941
434.80 1.622097
434.90 1.617051
435.00 1.61201
435.10 1.606973
435.20 1.601941
435.30 1.596913
435.40 1.591889
435.50 1.58687
435.60 1.581855
435.70 1.576845
435.80 1.571839
435.90 1.566838
436.00 1.561841
436.10 1.556849
436.20 1.55186
436.30 1.54639
436.40 1.540251
436.50 1.533057
436.60 1.52587
436.70 1.518689
436.80 1.511514
436.90 1.504346
437.00 1.497185
437.10 1.49003
437.20 1.481985
437.30 1.47312
437.40 1.464151
437.50 1.453685
437.60 1.443228
437.70 1.432781
437.80 1.422343
437.90 1.411915
438.00 1.401361
438.10 1.389026
438.20 1.376702
438.30 1.365545
438.40 1.35165
438.50 1.321445
438.60 1.290546
438.70 1.234903
438.80 1.177202
438.90 1.20119
439.00 1.231922
439.10 1.259543
439.20 1.286442
439.30 1.304075
439.40 1.321692
439.50 1.339293
439.60 1.35653
439.70 1.368368
439.80 1.378208
439.90 1.386481
440.00 1.394747
440.10 1.403004
440.20 1.410919
440.30 1.414367
440.40 1.417812
440.50 1.421253
440.60 1.424691
440.70 1.428126
440.80 1.431558
440.90 1.434986
441.00 1.438412
441.10 1.441833
441.20 1.445081
441.30 1.446047
441.40 1.446484
441.50 1.446277
441.60 1.446069
441.70 1.445629
441.80 1.443975
441.90 1.442322
442.00 1.44067
442.10 1.43902
442.20 1.437371
442.30 1.435723
442.40 1.433369
442.50 1.430152
442.60 1.426938
442.70 1.423577
442.80 1.419916
442.90 1.415252
443.00 1.410123
443.10 1.404425
443.20 1.398257
443.30 1.391654
443.40 1.384232
443.50 1.375808
443.60 1.365702
443.70 1.347552
443.80 1.305806
443.90 1.315924
444.00 1.319871
444.10 1.320897
444.20 1.319897
444.30 1.316349
444.40 1.310568
444.50 1.304792
444.60 1.297885
444.70 1.289597
444.80 1.280119
444.90 1.269545
445.00 1.258981
445.10 1.248426
445.20 1.236695
445.30 1.223527
445.40 1.210371
445.50 1.197227
445.60 1.184094
445.70 1.170972
445.80 1.154708
445.90 1.135547
446.00 1.116403
446.10 1.097276
446.20 1.07627
446.30 1.052808
446.40 1.023837
446.50 0.9922755
446.60 0.9607419
446.70 0.9292364
446.80 0.9002568
446.90 0.8736076
447.00 0.8715019
447.10 0.8612625
447.20 0.8462375
447.30 0.8601091
447.40 0.8891316
447.50 0.9219331
447.60 0.9557881
447.70 0.9906119
447.80 1.021104
447.90 1.049706
448.00 1.074276
448.10 1.095127
448.20 1.11596
448.30 1.136773
448.40 1.157568
448.50 1.178345
448.60 1.196126
448.70 1.211144
448.80 1.225898
448.90 1.2373
449.00 1.248691
449.10 1.260072
449.20 1.271443
449.30 1.28187
449.40 1.290234
449.50 1.29859
449.60 1.305665
449.70 1.311557
449.80 1.317445
449.90 1.323327
450.00 1.329204
450.10 1.335075
450.20 1.340941
450.30 1.346802
450.40 1.34946
450.50 1.352116
450.60 1.354769
450.70 1.35742
450.80 1.360068
450.90 1.362714
451.00 1.364137
451.10 1.365559
451.20 1.365621
451.30 1.363438
451.40 1.357187
451.50 1.350941
451.60 1.336865
451.70 1.306508
451.80 1.278997
451.90 1.282814
452.00 1.290694
452.10 1.298568
452.20 1.305496
452.30 1.312419
452.40 1.319335
452.50 1.326245
452.60 1.331984
452.70 1.337015
452.80 1.341391
452.90 1.345763
453.00 1.350131
453.10 1.354495
453.20 1.357794
453.30 1.361089
453.40 1.364382
453.50 1.367672
453.60 1.370958
453.70 1.374242
453.80 1.37715
453.90 1.379602
454.00 1.38205
454.10 1.384497
454.20 1.386602
454.30 1.388704
454.40 1.390805
454.50 1.392904
454.60 1.395
454.70 1.396665
454.80 1.397931
454.90 1.399196
455.00 1.400459
455.10 1.401722
455.20 1.402983
455.30 1.404242
455.40 1.405501
455.50 1.406758
455.60 1.408014
455.70 1.409269
455.80 1.409971
455.90 1.410672
456.00 1.411372
456.10 1.411993
456.20 1.412403
456.30 1.412812
456.40 1.413221
456.50 1.413629
456.60 1.414037
456.70 1.414444
456.80 1.414851
456.90 1.415257
457.00 1.415662
457.10 1.416068
457.20 1.416552
457.30 1.416659
457.40 1.416767
457.50 1.416874
457.60 1.416982
457.70 1.417088
457.80 1.417195
457.90 1.417302
458.00 1.417408
458.10 1.417514
458.20 1.41762
458.30 1.417725
458.40 1.417831
458.50 1.417936
458.60 1.418041
458.70 1.41801
458.80 1.417924
458.90 1.417837
459.00 1.417751
459.10 1.417665
459.20 1.417578
459.30 1.417384
459.40 1.41719
459.50 1.416995
459.60 1.416801
459.70 1.416607
459.80 1.416413
459.90 1.416219
460.00 1.416025
460.10 1.415831
460.20 1.415637
460.30 1.415443
460.40 1.415249
460.50 1.415055
460.60 1.414861
460.70 1.414549
460.80 1.414178
460.90 1.413807
461.00 1.413436
461.10 1.413065
461.20 1.412523
461.30 1.411911
461.40 1.411425
461.50 1.410972
461.60 1.410518
461.70 1.410065
461.80 1.409371
461.90 1.408676
462.00 1.407983
462.10 1.40729
462.20 1.406597
462.30 1.405905
462.40 1.405213
462.50 1.404522
462.60 1.403831
462.70 1.403141
462.80 1.402451
462.90 1.401762
463.00 1.401073
463.10 1.400384
463.20 1.399572
463.30 1.398709
463.40 1.397847
463.50 1.396986
463.60 1.396125
463.70 1.395264
463.80 1.394405
463.90 1.393517
464.00 1.392623
464.10 1.391729
464.20 1.390836
464.30 1.389944
464.40 1.389052
464.50 1.388161
464.60 1.387271
464.70 1.386314
464.80 1.38533
464.90 1.384347
465.00 1.383365
465.10 1.382383
465.20 1.381402
465.30 1.380409
465.40 1.379409
465.50 1.378409
465.60 1.377411
465.70 1.376413
465.80 1.375415
465.90 1.374398
466.00 1.373376
466.10 1.372355
466.20 1.371335
466.30 1.370205
466.40 1.369029
466.50 1.367855
466.60 1.366681
466.70 1.365509
466.80 1.364337
466.90 1.363166
467.00 1.361996
467.10 1.360827
467.20 1.359659
467.30 1.358451
467.40 1.357097
467.50 1.355712
467.60 1.354328
467.70 1.352945
467.80 1.351563
467.90 1.350027
468.00 1.348429
468.10 1.346831
468.20 1.345236
468.30 1.343537
468.40 1.341798
468.50 1.339854
468.60 1.337839
468.70 1.335801
468.80 1.333787
468.90 1.331425
469.00 1.329194
469.10 1.326617
469.20 1.323874
469.30 1.321133
469.40 1.318394
469.50 1.314711
469.60 1.310645
469.70 1.306582
469.80 1.302523
469.90 1.298416
470.00 1.292789
470.10 1.285179
470.20 1.276859
470.30 1.268546
470.40 1.26024
470.50 1.251941
470.60 1.23554
470.70 1.217126
470.80 1.198728
470.90 1.180346
471.00 1.148777
471.10 1.10237
471.20 1.027284
471.30 0.8629496
471.40 0.8129602
471.50 0.9215967
471.60 0.978634
471.70 1.030221
471.80 1.060399
471.90 1.085211
472.00 1.110002
472.10 1.134772
472.20 1.149701
472.30 1.162163
472.40 1.174615
472.50 1.187057
472.60 1.199487
472.70 1.208979
472.80 1.214437
472.90 1.219183
473.00 1.223925
473.10 1.228663
473.20 1.233397
473.30 1.238126
473.40 1.242852
473.50 1.247573
473.60 1.25229
473.70 1.257004
473.80 1.259638
473.90 1.261751
474.00 1.263862
474.10 1.265971
474.20 1.267339
474.30 1.268404
474.40 1.269468
474.50 1.270531
474.60 1.271533
474.70 1.271931
474.80 1.272329
474.90 1.272726
475.00 1.273123
475.10 1.27352
475.20 1.273916
475.30 1.274311
475.40 1.274353
475.50 1.274306
475.60 1.27426
475.70 1.274213
475.80 1.274166
475.90 1.274119
476.00 1.274072
476.10 1.274025
476.20 1.273805
476.30 1.273515
476.40 1.273225
476.50 1.272935
476.60 1.272645
476.70 1.272356
476.80 1.272066
476.90 1.271432
477.00 1.270713
477.10 1.269994
477.20 1.269276
477.30 1.268558
477.40 1.26784
477.50 1.267123
477.60 1.266407
477.70 1.265691
477.80 1.264975
477.90 1.26426
478.00 1.263546
478.10 1.262832
478.20 1.262118
478.30 1.261405
478.40 1.260693
478.50 1.259981
478.60 1.259269
478.70 1.258274
478.80 1.257165
478.90 1.256264
479.00 1.255417
479.10 1.254569
479.20 1.253723
479.30 1.252877
479.40 1.251976
479.50 1.251044
479.60 1.250112
479.70 1.249182
479.80 1.248251
479.90 1.247322
480.00 1.246393
480.10 1.245465
480.20 1.244537
480.30 1.243611
480.40 1.242684
480.50 1.241759
480.60 1.240834
480.70 1.23991
480.80 1.238986
480.90 1.238063
481.00 1.237141
481.10 1.23622
481.20 1.2351
481.30 1.233981
481.40 1.232862
481.50 1.231745
481.60 1.230628
481.70 1.229512
481.80 1.228397
481.90 1.227283
482.00 1.22617
482.10 1.225057
482.20 1.223933
482.30 1.222644
482.40 1.221356
482.50 1.220069
482.60 1.218784
482.70 1.217499
482.80 1.216215
482.90 1.214932
483.00 1.21365
483.10 1.212369
483.20 1.211088
483.30 1.209809
483.40 1.208531
483.50 1.207254
483.60 1.205977
483.70 1.204448
483.80 1.202919
483.90 1.201392
484.00 1.199866
484.10 1.198341
484.20 1.196791
484.30 1.195232
484.40 1.193674
484.50 1.192117
484.60 1.190562
484.70 1.188985
484.80 1.187115
484.90 1.185247
485.00 1.18338
485.10 1.181514
485.20 1.17965
485.30 1.177787
485.40 1.175926
485.50 1.174066
485.60 1.172208
485.70 1.169891
485.80 1.167575
485.90 1.165261
486.00 1.16295
486.10 1.160639
486.20 1.158331
486.30 1.156025
486.40 1.15372
486.50 1.151417
486.60 1.149116
486.70 1.146796
486.80 1.144204
486.90 1.141614
487.00 1.139026
487.10 1.13644
487.20 1.133165
487.30 1.129892
487.40 1.126622
487.50 1.123354
487.60 1.120089
487.70 1.116826
487.80 1.113567
487.90 1.110309
488.00 1.107054
488.10 1.103802
488.20 1.100497
488.30 1.09645
488.40 1.092407
488.50 1.088367
488.60 1.08433
488.70 1.080296
488.80 1.075723
488.90 1.071153
489.00 1.066303
489.10 1.060728
489.20 1.055158
489.30 1.049592
489.40 1.04403
489.50 1.038473
489.60 1.03292
489.70 1.027372
489.80 1.021145
489.90 1.013899
490.00 1.006658
490.10 0.9994232
490.20 0.9921942
490.30 0.984971
490.40 0.9764621
490.50 0.96796
490.60 0.9594648
490.70 0.9509764
490.80 0.9415065
490.90 0.9326938
491.00 0.9267455
491.10 0.9314041
491.20 0.9318198
491.30 0.9216414
491.40 0.9067482
491.50 0.8880781
491.60 0.8608608
491.70 0.8261963
491.80 0.7914711
491.90 0.7555943
492.00 0.7344904
492.10 0.782962
492.20 0.7034098
492.30 0.6872784
492.40 0.7161579
492.50 0.746902
492.60 0.7755183
492.70 0.7969288
492.80 0.8183219
492.90 0.8396975
493.00 0.8604592
493.10 0.8732816
493.20 0.8860936
493.30 0.8988951
493.40 0.9116862
493.50 0.9244668
493.60 0.9341409
493.70 0.9423744
493.80 0.9506011
493.90 0.9583289
494.00 0.9652807
494.10 0.9718261
494.20 0.9775152
494.30 0.9831996
494.40 0.9888794
494.50 0.9945544
494.60 1.000143
494.70 1.004646
494.80 1.008994
494.90 1.012909
495.00 1.016822
495.10 1.020731
495.20 1.023281
495.30 1.025829
495.40 1.028375
495.50 1.030918
495.60 1.03346
495.70 1.035999
495.80 1.038537
495.90 1.041072
496.00 1.043605
496.10 1.045856
496.20 1.047491
496.30 1.048855
496.40 1.050217
496.50 1.051578
496.60 1.052938
496.70 1.053667
496.80 1.054396
496.90 1.055124
497.00 1.055851
497.10 1.056578
497.20 1.057304
497.30 1.057868
497.40 1.05797
497.50 1.058071
497.60 1.058137
497.70 1.058068
497.80 1.057244
497.90 1.056422
498.00 1.0556
498.10 1.054778
498.20 1.053957
498.30 1.053137
498.40 1.052317
498.50 1.051498
498.60 1.050679
498.70 1.048973
498.80 1.047267
498.90 1.044754
499.00 1.042242
499.10 1.039733
499.20 1.036965
499.30 1.03351
499.40 1.029671
499.50 1.025834
499.60 1.022
499.70 1.018017
499.80 1.012007
499.90 1.006001
500.00 1
500.10 0.9940038
500.20 0.9864503
500.30 0.9755847
500.40 0.9647278
500.50 0.9538794
500.60 0.9430396
500.70 0.9322084
500.80 0.9185389
500.90 0.8988331
501.00 0.8791429
501.10 0.8594684
501.20 0.8265113
501.30 0.7847178
501.40 0.7362854
501.50 0.6597898
501.60 0.6612037
501.70 0.7723328
501.80 0.8352798
501.90 0.8763116
502.00 0.9110783
502.10 0.9325787
502.20 0.9535257
502.30 0.9673346
502.40 0.9788632
502.50 0.9855623
502.60 0.992256
502.70 0.9989442
502.80 1.005627
502.90 1.012305
503.00 1.017549
503.10 1.019757
503.20 1.021964
503.30 1.024168
503.40 1.025661
503.50 1.025132
503.60 1.024603
503.70 1.024074
503.80 1.023158
503.90 1.019395
504.00 1.011234
504.10 0.9937319
504.20 0.9762433
504.30 0.9587686
504.40 0.9455527
504.50 0.9444244
504.60 0.9405553
504.70 0.9128026
504.80 0.8028763
504.90 0.8487365
505.00 0.8872033
505.10 0.909403
505.20 0.9287653
505.30 0.94009
505.40 0.9514056
505.50 0.9627123
505.60 0.9719367
505.70 0.9767497
505.80 0.9815589
505.90 0.9863642
506.00 0.9911657
506.10 0.9959632
506.20 1.000061
506.30 1.002177
506.40 1.004291
506.50 1.006403
506.60 1.008513
506.70 1.010621
506.80 1.012728
506.90 1.014833
507.00 1.016937
507.10 1.018688
507.20 1.019529
507.30 1.019903
507.40 1.020277
507.50 1.020651
507.60 1.021024
507.70 1.021397
507.80 1.021769
507.90 1.022141
508.00 1.022513
508.10 1.022884
508.20 1.023255
508.30 1.023626
508.40 1.023996
508.50 1.024366
508.60 1.024735
508.70 1.025105
508.80 1.02552
508.90 1.025514
509.00 1.025315
509.10 1.025104
509.20 1.024865
509.30 1.024626
509.40 1.024387
509.50 1.024148
509.60 1.02391
509.70 1.023671
509.80 1.023433
509.90 1.023194
510.00 1.022956
510.10 1.022718
510.20 1.02248
510.30 1.0222
510.40 1.021799
510.50 1.021399
510.60 1.020999
510.70 1.020599
510.80 1.0202
510.90 1.0198
511.00 1.019401
511.10 1.019002
511.20 1.018604
511.30 1.018205
511.40 1.017807
511.50 1.017409
511.60 1.016967
511.70 1.016432
511.80 1.015896
511.90 1.015361
512.00 1.014826
512.10 1.014292
512.20 1.013758
512.30 1.013245
512.40 1.01279
512.50 1.012335
512.60 1.011881
512.70 1.011427
512.80 1.010973
512.90 1.01052
513.00 1.010067
513.10 1.009614
513.20 1.009161
513.30 1.008709
513.40 1.008257
513.50 1.007805
513.60 1.007353
513.70 1.006902
513.80 1.006451
513.90 1.006
514.00 1.005439
514.10 1.004859
514.20 1.00428
514.30 1.003702
514.40 1.003124
514.50 1.002546
514.60 1.001968
514.70 1.001391
514.80 1.000815
514.90 1.000238
515.00 0.9996623
515.10 0.9990867
515.20 0.9985114
515.30 0.9979366
515.40 0.9973621
515.50 0.996788
515.60 0.9962142
515.70 0.9956409
515.80 0.9950679
515.90 0.9944952
516.00 0.993923
516.10 0.9933511
516.20 0.9927795
516.30 0.9922084
516.40 0.9916376
516.50 0.9910612
516.60 0.9904537
516.70 0.9898467
516.80 0.9892401
516.90 0.9886338
517.00 0.988028
517.10 0.9874225
517.20 0.9868175
517.30 0.9862128
517.40 0.9856086
517.50 0.9850047
517.60 0.9844012
517.70 0.9837981
517.80 0.9831954
517.90 0.9825931
518.00 0.9819912
518.10 0.9813897
518.20 0.9807886
518.30 0.9801878
518.40 0.9795875
518.50 0.9789875
518.60 0.9783879
518.70 0.9777888
518.80 0.97719
518.90 0.9765916
519.00 0.9759936
519.10 0.9753884
519.20 0.9747752
519.30 0.9741623
519.40 0.9735499
519.50 0.9729378
519.60 0.9723262
519.70 0.9717149
519.80 0.9711041
519.90 0.9704936
520.00 0.9698836
520.10 0.9692739
520.20 0.9686647
520.30 0.9680558
520.40 0.9674474
520.50 0.9668393
520.60 0.9662316
520.70 0.9656243
520.80 0.9650174
520.90 0.964411
521.00 0.9638049
521.10 0.9631992
521.20 0.9625939
521.30 0.961989
521.40 0.9613844
521.50 0.9607803
521.60 0.9601766
521.70 0.9595732
521.80 0.9589703
521.90 0.9583677
522.00 0.9577656
522.10 0.9571638
522.20 0.9565624
522.30 0.9559614
522.40 0.9553608
522.50 0.9547606
522.60 0.9541608
522.70 0.9535613
522.80 0.9529623
522.90 0.9523636
523.00 0.9517653
523.10 0.9511675
523.20 0.95057
523.30 0.9499729
523.40 0.9493761
523.50 0.9487798
523.60 0.9481839
523.70 0.9475883
523.80 0.9469931
523.90 0.9463983
524.00 0.9458039
524.10 0.9452099
524.20 0.9446163
524.30 0.9440243
524.40 0.9434337
524.50 0.9428435
524.60 0.9422536
524.70 0.9416642
524.80 0.9410751
524.90 0.9404864
525.00 0.9398981
525.10 0.9393101
525.20 0.9387226
525.30 0.9381354
525.40 0.9375486
525.50 0.9369622
525.60 0.9363761
525.70 0.9357904
525.80 0.9352052
525.90 0.9346202
526.00 0.9340357
526.10 0.9334516
526.20 0.9328678
526.30 0.9322844
526.40 0.9317013
526.50 0.9311187
526.60 0.9305364
526.70 0.9299545
526.80 0.929373
526.90 0.9287918
527.00 0.9282111
527.10 0.9276307
527.20 0.9270506
527.30 0.926471
527.40 0.9258917
527.50 0.9253128
527.60 0.9247342
527.70 0.9241561
527.80 0.9235783
527.90 0.9230008
528.00 0.9224238
528.10 0.9218471
528.20 0.9212708
528.30 0.9206948
528.40 0.9201193
528.50 0.9195441
528.60 0.9189692
528.70 0.9183948
528.80 0.9178207
528.90 0.917247
529.00 0.9166736
529.10 0.9161006
529.20 0.915528
529.30 0.9149557
529.40 0.9143838
529.50 0.9138102
529.60 0.9132242
529.70 0.9126385
529.80 0.9120532
529.90 0.9114682
530.00 0.9108837
530.10 0.9102995
530.20 0.9097157
530.30 0.9091323
530.40 0.9085492
530.50 0.9079665
530.60 0.9073842
530.70 0.9068023
530.80 0.9062208
530.90 0.9056396
531.00 0.9050588
531.10 0.9044783
531.20 0.9038983
531.30 0.9033186
531.40 0.9027393
531.50 0.9021603
531.60 0.9015817
531.70 0.9010035
531.80 0.9004257
531.90 0.8998482
532.00 0.8992712
532.10 0.8986944
532.20 0.8981293
532.30 0.8975703
532.40 0.8970116
532.50 0.8964533
532.60 0.8958953
532.70 0.8953377
532.80 0.8947805
532.90 0.8942236
533.00 0.893667
533.10 0.8931109
533.20 0.892555
533.30 0.8919996
533.40 0.8914444
533.50 0.8908897
533.60 0.8903353
533.70 0.8897812
533.80 0.8892275
533.90 0.8886741
534.00 0.8881211
534.10 0.8875685
534.20 0.8870162
534.30 0.8864642
534.40 0.8859126
534.50 0.8853614
534.60 0.8848105
534.70 0.8842599
534.80 0.8837054
534.90 0.8831327
535.00 0.8825604
535.10 0.8819884
535.20 0.8814168
535.30 0.8808456
535.40 0.8802747
535.50 0.8797042
535.60 0.8791341
535.70 0.8785643
535.80 0.8779949
535.90 0.8774258
536.00 0.8768572
536.10 0.8762888
536.20 0.8757209
536.30 0.8751533
536.40 0.8745861
536.50 0.8740192
536.60 0.8734527
536.70 0.8728865
536.80 0.8723208
536.90 0.8717553
537.00 0.8711903
537.10 0.8706256
537.20 0.8700612
537.30 0.8694972
537.40 0.8689336
537.50 0.8683704
537.60 0.8678075
537.70 0.8672449
537.80 0.8666827
537.90 0.8661209
538.00 0.8655594
538.10 0.8649983
538.20 0.8644376
538.30 0.8638772
538.40 0.8633171
538.50 0.8627574
538.60 0.8621981
538.70 0.8616391
538.80 0.8610805
538.90 0.8605222
539.00 0.8599643
539.10 0.8594068
539.20 0.8588496
539.30 0.8582927
539.40 0.8577362
539.50 0.8571801
539.60 0.8566243
539.70 0.8560689
539.80 0.8555138
539.90 0.8549591
540.00 0.8544047
540.10 0.8538507
540.20 0.8533102
540.30 0.8527754
540.40 0.852241
540.50 0.8517069
540.60 0.8511731
540.70 0.8506397
540.80 0.8501066
540.90 0.8495738
541.00 0.8490414
541.10 0.8485093
541.20 0.8479776
541.30 0.8474461
541.40 0.8469151
541.50 0.8463843
541.60 0.8458539
541.70 0.8453238
541.80 0.8447941
541.90 0.8442647
542.00 0.8437356
542.10 0.8432069
542.20 0.8426784
542.30 0.8421504
542.40 0.8416226
542.50 0.8410952
542.60 0.8405681
542.70 0.8400414
542.80 0.8395149
542.90 0.8389889
543.00 0.8384631
543.10 0.8379377
543.20 0.8374126
543.30 0.8368878
543.40 0.8363634
543.50 0.8358392
543.60 0.8353155
543.70 0.834792
543.80 0.8342689
543.90 0.8337461
544.00 0.8332236
544.10 0.8327015
544.20 0.8321797
544.30 0.8316582
544.40 0.831137
544.50 0.8306162
544.60 0.8300957
544.70 0.8295755
544.80 0.8290556
544.90 0.8285361
545.00 0.8280169
545.10 0.827498
545.20 0.8269795
545.30 0.8264613
545.40 0.8259434
545.50 0.8254258
545.60 0.8249045
545.70 0.8243819
545.80 0.8238596
545.90 0.8233376
546.00 0.8228159
546.10 0.8222946
546.20 0.8217736
546.30 0.8212529
546.40 0.8207326
546.50 0.8202126
546.60 0.8196929
546.70 0.8191735
546.80 0.8186545
546.90 0.8181357
547.00 0.8176173
547.10 0.8170993
547.20 0.8165815
547.30 0.8160641
547.40 0.815547
547.50 0.8150302
547.60 0.8145138
547.70 0.8139976
547.80 0.8134818
547.90 0.8129663
548.00 0.8124512
548.10 0.8119363
548.20 0.8114218
548.30 0.8109141
548.40 0.8104158
548.50 0.8099177
548.60 0.8094199
548.70 0.8089225
548.80 0.8084254
548.90 0.8079285
549.00 0.807432
549.10 0.8069358
549.20 0.8064399
549.30 0.8059443
549.40 0.805449
549.50 0.804954
549.60 0.8044594
549.70 0.803965
549.80 0.8034709
549.90 0.8029772
550.00 0.8024837
550.10 0.8019906
550.20 0.8014978
550.30 0.8010052
550.40 0.800513
550.50 0.8000211
550.60 0.7995295
550.70 0.7990381
550.80 0.7985471
550.90 0.7980564
551.00 0.7975663
551.10 0.7970783
551.20 0.7965905
551.30 0.7961031
551.40 0.7956159
551.50 0.7951291
551.60 0.7946425
551.70 0.7941562
551.80 0.7936703
551.90 0.7931846
552.00 0.7926993
552.10 0.7922142
552.20 0.7917295
552.30 0.791245
552.40 0.7907609
552.50 0.790277
552.60 0.7897935
552.70 0.7893102
552.80 0.7888272
552.90 0.7883446
553.00 0.7878622
553.10 0.7873801
553.20 0.7868984
553.30 0.7864169
553.40 0.7859357
553.50 0.7854548
553.60 0.7849742
553.70 0.7844939
553.80 0.7840049
553.90 0.78351
554.00 0.7830155
554.10 0.7825213
554.20 0.7820274
554.30 0.7815338
554.40 0.7810405
554.50 0.7805475
554.60 0.7800548
554.70 0.7795625
554.80 0.7790704
554.90 0.7785786
555.00 0.7780871
555.10 0.777596
555.20 0.7771051
555.30 0.7766146
555.40 0.7761243
555.50 0.7756344
555.60 0.7751447
555.70 0.7746554
555.80 0.7741663
555.90 0.7736776
556.00 0.7731891
556.10 0.772701
556.20 0.7722131
556.30 0.7717256
556.40 0.7712384
556.50 0.7707508
556.60 0.7702514
556.70 0.7697523
556.80 0.7692535
556.90 0.7687551
557.00 0.7682569
557.10 0.767759
557.20 0.7672615
557.30 0.7667643
557.40 0.7662673
557.50 0.7657707
557.60 0.7652744
557.70 0.7647784
557.80 0.7642827
557.90 0.7637873
558.00 0.7632922
558.10 0.7627974
558.20 0.7623029
558.30 0.7618087
558.40 0.7613149
558.50 0.7608213
558.60 0.760328
558.70 0.7598351
558.80 0.7593424
558.90 0.7588501
559.00 0.758358
559.10 0.7578663
559.20 0.7573749
559.30 0.7568837
559.40 0.7563929
559.50 0.7559024
559.60 0.7554121
559.70 0.7549222
559.80 0.7544326
559.90 0.7539433
560.00 0.7534542
560.10 0.7529655
560.20 0.7524771
560.30 0.751989
560.40 0.7515012
560.50 0.7510137
560.60 0.7505264
560.70 0.7500395
560.80 0.7495529
560.90 0.7490666
561.00 0.7485806
561.10 0.7480948
561.20 0.7476094
561.30 0.7471243
561.40 0.7466395
561.50 0.7461549
561.60 0.7456707
561.70 0.7451868
561.80 0.7447032
561.90 0.7442198
562.00 0.7437368
562.10 0.7432549
562.20 0.7427747
562.30 0.7422947
562.40 0.7418151
562.50 0.7413357
562.60 0.7408567
562.70 0.7403779
562.80 0.7398994
562.90 0.7394212
563.00 0.7389434
563.10 0.7384658
563.20 0.7379885
563.30 0.7375115
563.40 0.7370347
563.50 0.7365583
563.60 0.7360822
563.70 0.7356063
563.80 0.7351308
563.90 0.7346555
564.00 0.7341806
564.10 0.7337059
564.20 0.7332315
564.30 0.7327574
564.40 0.7322836
564.50 0.7318101
564.60 0.7313368
564.70 0.7308639
564.80 0.7303913
564.90 0.7299147
565.00 0.7294283
565.10 0.7289422
565.20 0.7284564
565.30 0.7279709
565.40 0.7274857
565.50 0.7270008
565.60 0.7265162
565.70 0.7260319
565.80 0.7255479
565.90 0.7250641
566.00 0.7245807
566.10 0.7240976
566.20 0.7236148
566.30 0.7231322
566.40 0.72265
566.50 0.722168
566.60 0.7216864
566.70 0.721205
566.80 0.720724
566.90 0.7202432
567.00 0.7197627
567.10 0.7192825
567.20 0.7188027
567.30 0.7183231
567.40 0.7178438
567.50 0.7173648
567.60 0.7168861
567.70 0.7163948
567.80 0.7158491
567.90 0.7153037
568.00 0.7147587
568.10 0.714214
568.20 0.7136696
568.30 0.7131256
568.40 0.712582
568.50 0.7120386
568.60 0.7114956
568.70 0.710953
568.80 0.7104107
568.90 0.7098687
569.00 0.709327
569.10 0.7087857
569.20 0.7082447
569.30 0.7077041
569.40 0.7071638
569.50 0.7066238
569.60 0.7060842
569.70 0.7055449
569.80 0.705006
569.90 0.7044673
570.00 0.703929
570.10 0.7033911
570.20 0.7028535
570.30 0.7023162
570.40 0.7017792
570.50 0.7012426
570.60 0.7007063
570.70 0.7001704
570.80 0.6996347
570.90 0.6990994
571.00 0.6985645
571.10 0.6980299
571.20 0.6974956
571.30 0.6969616
571.40 0.696428
571.50 0.6958947
571.60 0.6953617
571.70 0.6948291
571.80 0.6942967
571.90 0.6937648
572.00 0.6932331
572.10 0.6927018
572.20 0.6921708
572.30 0.6916401
572.40 0.6911098
572.50 0.6905798
572.60 0.6900501
572.70 0.6895208
572.80 0.6889917
572.90 0.688463
573.00 0.6879347
573.10 0.6874066
573.20 0.6868789
573.30 0.6863515
573.40 0.6857821
573.50 0.6851546
573.60 0.6845275
573.70 0.6839008
573.80 0.6832745
573.90 0.6826486
574.00 0.6820231
574.10 0.681398
574.20 0.6807733
574.30 0.6801489
574.40 0.679525
574.50 0.6789015
574.60 0.6782783
574.70 0.6776556
574.80 0.6770332
574.90 0.6764112
575.00 0.6757896
575.10 0.6751684
575.20 0.6745476
575.30 0.6739272
575.40 0.6733072
575.50 0.6726876
575.60 0.6720684
575.70 0.6714495
575.80 0.670831
575.90 0.670213
576.00 0.6695953
576.10 0.668978
576.20 0.6683611
576.30 0.6677446
576.40 0.6671285
576.50 0.6665127
576.60 0.6658974
576.70 0.6652824
576.80 0.6646678
576.90 0.6640536
577.00 0.6634398
577.10 0.6628264
577.20 0.6622133
577.30 0.6616007
577.40 0.6609884
577.50 0.6603765
577.60 0.6597105
577.70 0.658956
577.80 0.6582019
577.90 0.6574484
578.00 0.6566953
578.10 0.6559427
578.20 0.6551906
578.30 0.6544389
578.40 0.6536878
578.50 0.6529371
578.60 0.6521869
578.70 0.6514372
578.80 0.650688
578.90 0.6499392
579.00 0.6491909
579.10 0.6484302
579.20 0.6475391
579.30 0.6466485
579.40 0.6457585
579.50 0.6448692
579.60 0.6439803
579.70 0.6430921
579.80 0.6422044
579.90 0.6413173
580.00 0.6404308
580.10 0.6394656
580.20 0.6383716
580.30 0.6372784
580.40 0.6361859
580.50 0.6350941
580.60 0.634003
580.70 0.6329126
580.80 0.631823
580.90 0.6307341
581.00 0.6296458
581.10 0.6285583
581.20 0.6274715
581.30 0.6263854
581.40 0.6253
581.50 0.6242153
581.60 0.6231314
581.70 0.6220481
581.80 0.6209656
581.90 0.6198837
582.00 0.6188026
582.10 0.617574
582.20 0.6161046
582.30 0.6146361
582.40 0.6131686
582.50 0.6117021
582.60 0.6102365
582.70 0.6087719
582.80 0.6073083
582.90 0.6058457
583.00 0.604384
583.10 0.6029233
583.20 0.6014636
583.30 0.6000048
583.40 0.598547
583.50 0.5970901
583.60 0.5953533
583.70 0.5931593
583.80 0.5909668
583.90 0.5887758
584.00 0.5865862
584.10 0.5843981
584.20 0.5822115
584.30 0.5800263
584.40 0.5778426
584.50 0.5756603
584.60 0.5734795
584.70 0.5713002
584.80 0.5691223
584.90 0.5668221
585.00 0.5639599
585.10 0.5610995
585.20 0.5579067
585.30 0.5541706
585.40 0.5504371
585.50 0.546706
585.60 0.5429775
585.70 0.5392515
585.80 0.535528
585.90 0.531807
586.00 0.5280885
586.10 0.5243725
586.20 0.5197165
586.30 0.5135263
586.40 0.5073402
586.50 0.5011584
586.60 0.4949808
586.70 0.4888073
586.80 0.4810389
586.90 0.4706677
587.00 0.4603036
587.10 0.4499464
587.20 0.4386805
587.30 0.4259283
587.40 0.4141001
587.50 0.4046432
587.60 0.4050424
587.70 0.4097167
587.80 0.4224472
587.90 0.4365452
588.00 0.4493337
588.10 0.4599935
588.20 0.470646
588.30 0.4812913
588.40 0.4901401
588.50 0.4960646
588.60 0.5019852
588.70 0.5079016
588.80 0.513814
588.90 0.5197224
589.00 0.5245624
589.10 0.5276631
589.20 0.5307618
589.30 0.5338582
589.40 0.5369526
589.50 0.5400448
589.60 0.5431349
589.70 0.5462229
589.80 0.5493087
589.90 0.5523924
590.00 0.554976
590.10 0.5567454
590.20 0.5585137
590.30 0.5602807
590.40 0.5620465
590.50 0.563811
590.60 0.5655743
590.70 0.5673364
590.80 0.5687535
590.90 0.5700151
591.00 0.5712758
591.10 0.5725356
591.20 0.5737946
591.30 0.5750526
591.40 0.5763098
591.50 0.5775661
591.60 0.5785849
591.70 0.5792171
591.80 0.5798488
591.90 0.5804801
592.00 0.5811109
592.10 0.5817412
592.20 0.5823711
592.30 0.5830005
592.40 0.5836295
592.50 0.584258
592.60 0.5848861
592.70 0.5855137
592.80 0.5861408
592.90 0.5867675
593.00 0.5873937
593.10 0.5878653
593.20 0.5880849
593.30 0.5883044
593.40 0.5885237
593.50 0.5887428
593.60 0.5889617
593.70 0.5891804
593.80 0.589399
593.90 0.5896174
594.00 0.5898356
594.10 0.5900536
594.20 0.5902714
594.30 0.5904891
594.40 0.5907066
594.50 0.5909239
594.60 0.591141
594.70 0.5913579
594.80 0.5915747
594.90 0.5917913
595.00 0.5920077
595.10 0.5921358
595.20 0.59212
595.30 0.5921042
595.40 0.5920884
595.50 0.5920726
595.60 0.5920567
595.70 0.5920409
595.80 0.592025
595.90 0.5920091
596.00 0.5919931
596.10 0.5919772
596.20 0.5919612
596.30 0.5919452
596.40 0.5919291
596.50 0.5919131
596.60 0.591897
596.70 0.5918402
596.80 0.5917584
596.90 0.5916766
597.00 0.5915949
597.10 0.5915132
597.20 0.5914315
597.30 0.5913499
597.40 0.5912682
597.50 0.5911866
597.60 0.5910765
597.70 0.5909199
597.80 0.5907634
597.90 0.5906069
598.00 0.5904506
598.10 0.5902943
598.20 0.590138
598.30 0.5899819
598.40 0.5898258
598.50 0.5896698
598.60 0.5895138
598.70 0.589358
598.80 0.5892022
598.90 0.5890465
599.00 0.5888908
599.10 0.5887352
599.20 0.5885797
599.30 0.5884243
599.40 0.5881923
599.50 0.5879606
599.60 0.5877289
599.70 0.5874974
599.80 0.5872659
599.90 0.5870346
600.00 0.5868035
600.10 0.5865724
600.20 0.5863415
600.30 0.5861107
600.40 0.58588
600.50 0.5856494
600.60 0.585419
600.70 0.5851886
600.80 0.5849584
600.90 0.5847283
601.00 0.5844984
601.10 0.5842685
601.20 0.5840388
601.30 0.5838092
601.40 0.5835609
601.50 0.5833127
601.60 0.5830647
601.70 0.5828168
601.80 0.582569
601.90 0.5823213
602.00 0.5820738
602.10 0.5818264
602.20 0.5815792
602.30 0.5813321
602.40 0.5810851
602.50 0.5808382
602.60 0.5805915
602.70 0.5802247
602.80 0.5798518
602.90 0.5795495
603.00 0.5792474
603.10 0.5789455
603.20 0.5786438
603.30 0.5783422
603.40 0.5780408
603.50 0.5777395
603.60 0.5774384
603.70 0.5771375
603.80 0.5768368
603.90 0.5765362
604.00 0.5762358
604.10 0.5759356
604.20 0.5756355
604.30 0.5753356
604.40 0.5750358
604.50 0.5746357
604.60 0.5742358
604.70 0.5738361
604.80 0.5734366
604.90 0.5730374
605.00 0.5726384
605.10 0.5722396
605.20 0.5718411
605.30 0.5714428
605.40 0.5710447
605.50 0.5702749
605.60 0.5695056
605.70 0.5687367
605.80 0.5679684
605.90 0.5672005
606.00 0.566433
606.10 0.564419
606.20 0.5624062
606.30 0.5603948
606.40 0.5583846
606.50 0.5522917
606.60 0.5462029
606.70 0.5270927
606.80 0.5194535
606.90 0.5265718
607.00 0.5316033
607.10 0.5350705
607.20 0.5385353
607.30 0.5402646
607.40 0.5419927
607.50 0.5437196
607.60 0.5454454
607.70 0.5461891
607.80 0.5469323
607.90 0.547675
608.00 0.5484171
608.10 0.5491588
608.20 0.5498999
608.30 0.5502001
608.40 0.5505001
608.50 0.5507998
608.60 0.5510994
608.70 0.5512346
608.80 0.551296
608.90 0.5513574
609.00 0.5514187
609.10 0.5514799
609.20 0.551541
609.30 0.5514891
609.40 0.5514373
609.50 0.5513854
609.60 0.5513335
609.70 0.5512816
609.80 0.5512298
609.90 0.5511779
610.00 0.5511261
610.10 0.5510742
610.20 0.5510224
610.30 0.5509706
610.40 0.5509187
610.50 0.5508669
610.60 0.5508151
610.70 0.5507632
610.80 0.5507114
610.90 0.550554
611.00 0.5503966
611.10 0.5502393
611.20 0.5500821
611.30 0.549925
611.40 0.5497679
611.50 0.5496109
611.60 0.549454
611.70 0.5492971
611.80 0.5491403
611.90 0.5489836
612.00 0.548827
612.10 0.5486704
612.20 0.5485139
612.30 0.5483575
612.40 0.5481273
612.50 0.5478972
612.60 0.5476673
612.70 0.5474374
612.80 0.5472077
612.90 0.5469781
613.00 0.5467486
613.10 0.5465192
613.20 0.54629
613.30 0.5460609
613.40 0.5458319
613.50 0.545603
613.60 0.5453742
613.70 0.5451456
613.80 0.5449171
613.90 0.5446887
614.00 0.5444604
614.10 0.5442323
614.20 0.5440042
614.30 0.5437763
614.40 0.5435181
614.50 0.54326
614.60 0.5430021
614.70 0.5427443
614.80 0.5424865
614.90 0.5422289
615.00 0.5419715
615.10 0.5417142
615.20 0.541457
615.30 0.5411999
615.40 0.540943
615.50 0.5406863
615.60 0.5404296
615.70 0.5401731
615.80 0.5399168
615.90 0.5396606
616.00 0.5394045
616.10 0.5391486
616.20 0.5388927
616.30 0.5386371
616.40 0.5383816
616.50 0.5381262
616.60 0.5378709
616.70 0.5376158
616.80 0.5373608
616.90 0.5370792
617.00 0.5367977
617.10 0.5365163
617.20 0.5362351
617.30 0.535954
617.40 0.5356732
617.50 0.5353924
617.60 0.5351118
617.70 0.5348314
617.80 0.5345511
617.90 0.534271
618.00 0.533991
618.10 0.5337112
618.20 0.5334315
618.30 0.533152
618.40 0.5328727
618.50 0.5325935
618.60 0.5323144
618.70 0.5320355
618.80 0.5317568
618.90 0.5314782
619.00 0.5311997
619.10 0.5309214
619.20 0.5306433
619.30 0.5303653
619.40 0.5300875
619.50 0.5298098
619.60 0.5295322
619.70 0.5292549
619.80 0.5289776
619.90 0.5287005
620.00 0.5284236
620.10 0.5281468
620.20 0.5278702
620.30 0.5275937
620.40 0.5273174
620.50 0.5270412
620.60 0.5267652
620.70 0.5264893
620.80 0.5262136
620.90 0.5259359
621.00 0.5256544
621.10 0.525373
621.20 0.5250918
621.30 0.5248108
621.40 0.5245299
621.50 0.5242492
621.60 0.5239686
621.70 0.5236882
621.80 0.5234079
621.90 0.5231278
622.00 0.5228478
622.10 0.522568
622.20 0.5222884
622.30 0.5220088
622.40 0.5217295
622.50 0.5214503
622.60 0.5211712
622.70 0.5208924
622.80 0.5206136
622.90 0.520335
623.00 0.5200566
623.10 0.5197783
623.20 0.5195002
623.30 0.5192222
623.40 0.5189443
623.50 0.5186667
623.60 0.5183891
623.70 0.5181118
623.80 0.5178345
623.90 0.5175574
624.00 0.5172805
624.10 0.5170038
624.20 0.5167271
624.30 0.5164507
624.40 0.5161743
624.50 0.5158982
624.60 0.5156221
624.70 0.5153463
624.80 0.5150706
624.90 0.514795
625.00 0.5145196
625.10 0.5142443
625.20 0.5139692
625.30 0.5136942
625.40 0.5134194
625.50 0.5131447
625.60 0.5128702
625.70 0.5125958
625.80 0.5123216
625.90 0.5120475
626.00 0.5117736
626.10 0.5114998
626.20 0.5112262
626.30 0.5109527
626.40 0.5106794
626.50 0.5104062
626.60 0.5101332
626.70 0.5098603
626.80 0.5095875
626.90 0.5093149
627.00 0.5090425
627.10 0.5087691
627.20 0.5084928
627.30 0.5082167
627.40 0.5079408
627.50 0.507665
627.60 0.5073893
627.70 0.5071138
627.80 0.5068384
627.90 0.5065632
628.00 0.5062882
628.10 0.5060132
628.20 0.5057385
628.30 0.5054639
628.40 0.5051894
628.50 0.5049151
628.60 0.5046409
628.70 0.5043669
628.80 0.504093
628.90 0.5038193
629.00 0.5035457
629.10 0.5032723
629.20 0.5029991
629.30 0.5027259
629.40 0.502453
629.50 0.5021801
629.60 0.5019074
629.70 0.5016349
629.80 0.5013625
629.90 0.5010903
630.00 0.5008182
630.10 0.5005463
630.20 0.5002745
630.30 0.5000028
630.40 0.4997314
630.50 0.4994601
630.60 0.4991889
630.70 0.4989179
630.80 0.498647
630.90 0.4983763
631.00 0.4981057
631.10 0.4978352
631.20 0.4975649
631.30 0.4972948
631.40 0.4970248
631.50 0.4967549
631.60 0.4964852
631.70 0.4962157
631.80 0.4959463
631.90 0.495677
632.00 0.4954079
632.10 0.4951389
632.20 0.4948701
632.30 0.4946014
632.40 0.4943328
632.50 0.4940644
632.60 0.4937962
632.70 0.4935281
632.80 0.4932601
632.90 0.4929923
633.00 0.4927246
633.10 0.4924571
633.20 0.4921897
633.30 0.4919225
633.40 0.491656
633.50 0.4913901
633.60 0.4911243
633.70 0.4908587
633.80 0.4905932
633.90 0.4903279
634.00 0.4900628
634.10 0.4897977
634.20 0.4895328
634.30 0.4892681
634.40 0.4890035
634.50 0.488739
634.60 0.4884747
634.70 0.4882105
634.80 0.4879465
634.90 0.4876826
635.00 0.4874188
635.10 0.4871552
635.20 0.4868917
635.30 0.4866284
635.40 0.4863652
635.50 0.4861022
635.60 0.4858393
635.70 0.4855765
635.80 0.4853139
635.90 0.4850514
636.00 0.4847891
636.10 0.4845269
636.20 0.4842648
636.30 0.4840029
636.40 0.4837411
636.50 0.4834795
636.60 0.483236
636.70 0.4829946
636.80 0.4827533
636.90 0.4825121
637.00 0.4822711
637.10 0.4820302
637.20 0.4817894
637.30 0.4815488
637.40 0.4813083
637.50 0.4810679
637.60 0.4808276
637.70 0.4805875
637.80 0.4803475
637.90 0.4801076
638.00 0.4798679
638.10 0.4796282
638.20 0.4793887
638.30 0.4791494
638.40 0.4789101
638.50 0.478671
638.60 0.478432
638.70 0.4781931
638.80 0.4779544
638.90 0.4777158
639.00 0.4774773
639.10 0.4772389
639.20 0.4770007
639.30 0.4767626
639.40 0.4765246
639.50 0.4762867
639.60 0.476049
639.70 0.4758026
639.80 0.475527
639.90 0.4752515
640.00 0.4749761
640.10 0.4747009
640.20 0.4744259
640.30 0.474151
640.40 0.4738762
640.50 0.4736016
640.60 0.4733271
640.70 0.4730528
640.80 0.4727787
640.90 0.4725046
641.00 0.4722308
641.10 0.4719571
641.20 0.4716835
641.30 0.4714101
641.40 0.4711368
641.50 0.4708637
641.60 0.4705907
641.70 0.4703179
641.80 0.4700452
641.90 0.4697726
642.00 0.4695002
642.10 0.469228
642.20 0.4689559
642.30 0.4686839
642.40 0.4684121
642.50 0.4681405
642.60 0.467869
642.70 0.4675976
642.80 0.4673264
642.90 0.4670553
643.00 0.4667843
643.10 0.4665135
643.20 0.4662428
643.30 0.4659723
643.40 0.4657019
643.50 0.4654317
643.60 0.4651616
643.70 0.4648916
643.80 0.4646218
643.90 0.4643522
644.00 0.4640827
644.10 0.4638133
644.20 0.4635441
644.30 0.463275
644.40 0.4630061
644.50 0.4627373
644.60 0.4624686
644.70 0.4622002
644.80 0.4619318
644.90 0.4616636
645.00 0.4613955
645.10 0.4611276
645.20 0.4608598
645.30 0.4605922
645.40 0.4603247
645.50 0.4600573
645.60 0.4597901
645.70 0.4595231
645.80 0.4592562
645.90 0.4589894
646.00 0.4587228
646.10 0.4584541
646.20 0.4581795
646.30 0.4579051
646.40 0.4576308
646.50 0.4573567
646.60 0.4570827
646.70 0.4568088
646.80 0.4565351
646.90 0.4562616
647.00 0.4559881
647.10 0.4557149
647.20 0.4554418
647.30 0.4551688
647.40 0.454896
647.50 0.4546233
647.60 0.4543508
647.70 0.4540784
647.80 0.4538062
647.90 0.4535341
648.00 0.4532621
648.10 0.4529903
648.20 0.4527187
648.30 0.4524472
648.40 0.4521758
648.50 0.4519046
648.60 0.4516336
648.70 0.4513626
648.80 0.4510919
648.90 0.4508212
649.00 0.4505508
649.10 0.4502804
649.20 0.4500102
649.30 0.4497402
649.40 0.4494433
649.50 0.4491454
649.60 0.4488478
649.70 0.4485502
649.80 0.4482529
649.90 0.4479557
650.00 0.4476586
650.10 0.4473618
650.20 0.447065
650.30 0.4467685
650.40 0.4464721
650.50 0.4461759
650.60 0.4458798
650.70 0.4455839
650.80 0.4452881
650.90 0.4449925
651.00 0.4446971
651.10 0.4444018
651.20 0.4441067
651.30 0.4438118
651.40 0.443517
651.50 0.4432224
651.60 0.4429279
651.70 0.4426336
651.80 0.4423394
651.90 0.4420454
652.00 0.4417516
652.10 0.441458
652.20 0.4411644
652.30 0.4408711
652.40 0.4405779
652.50 0.4402849
652.60 0.4399714
652.70 0.4396469
652.80 0.4393226
652.90 0.4389985
653.00 0.4386746
653.10 0.4383509
653.20 0.4380273
653.30 0.437704
653.40 0.4373808
653.50 0.4370577
653.60 0.4367349
653.70 0.4364122
653.80 0.4360897
653.90 0.4357674
654.00 0.4354453
654.10 0.4351233
654.20 0.4348015
654.30 0.4344799
654.40 0.4341585
654.50 0.4338372
654.60 0.4335161
654.70 0.4331952
654.80 0.4328745
654.90 0.4325539
655.00 0.4322335
655.10 0.4319133
655.20 0.4315933
655.30 0.4312734
655.40 0.4309538
655.50 0.4306343
655.60 0.4303149
655.70 0.4299958
655.80 0.4295971
655.90 0.4291986
656.00 0.4288004
656.10 0.4284024
656.20 0.4280046
656.30 0.4276071
656.40 0.4272097
656.50 0.4268126
656.60 0.4264157
656.70 0.426019
656.80 0.4256226
656.90 0.4252264
657.00 0.4248303
657.10 0.4244346
657.20 0.424039
657.30 0.4236436
657.40 0.4232485
657.50 0.4228536
657.60 0.4224589
657.70 0.4220645
657.80 0.4216792
657.90 0.4211898
658.00 0.4206823
658.10 0.4201751
658.20 0.4196682
658.30 0.4191616
658.40 0.4186552
658.50 0.4181491
658.60 0.4176434
658.70 0.4171379
658.80 0.4166327
658.90 0.4161278
659.00 0.4156231
659.10 0.4151019
659.20 0.4145557
659.30 0.4139023
659.40 0.4132494
659.50 0.4125968
659.60 0.4119446
659.70 0.4112928
659.80 0.4106413
659.90 0.4099902
660.00 0.4093395
660.10 0.4086892
660.20 0.4080393
660.30 0.4073897
660.40 0.4066223
660.50 0.4058345
660.60 0.4050472
660.70 0.4042603
660.80 0.4034739
660.90 0.4023858
661.00 0.4012985
661.10 0.4002117
661.20 0.3991256
661.30 0.3980401
661.40 0.3969553
661.50 0.3958711
661.60 0.3947876
661.70 0.3937046
661.80 0.3926224
661.90 0.3910871
662.00 0.3895528
662.10 0.3880193
662.20 0.3864868
662.30 0.3849552
662.40 0.3828785
662.50 0.3803597
662.60 0.3778425
662.70 0.3753267
662.80 0.3728124
662.90 0.3689177
663.00 0.3650253
663.10 0.3605537
663.20 0.3680026
663.30 0.3832932
663.40 0.3886972
663.50 0.3907582
663.60 0.3928179
663.70 0.3933746
663.80 0.3939308
663.90 0.3940466
664.00 0.3940847
664.10 0.3935312
664.20 0.392978
664.30 0.3924251
664.40 0.3918725
664.50 0.3913203
664.60 0.3907683
664.70 0.3896211
664.80 0.3884745
664.90 0.3873287
665.00 0.3861834
665.10 0.3850389
665.20 0.383895
665.30 0.3827518
665.40 0.3816093
665.50 0.3801468
665.60 0.3786287
665.70 0.3766317
665.80 0.3744423
665.90 0.3722542
666.00 0.3700674
666.10 0.3678818
666.20 0.3656976
666.30 0.3635147
666.40 0.361333
666.50 0.3577743
666.60 0.3539745
666.70 0.350177
666.80 0.3463817
666.90 0.3425887
667.00 0.338798
667.10 0.3332594
667.20 0.3274154
667.30 0.3195717
667.40 0.3117326
667.50 0.3014536
667.60 0.2907494
667.70 0.2804566
667.80 0.2746585
667.90 0.2758499
668.00 0.2815478
668.10 0.2885986
668.20 0.2958427
668.30 0.3020849
668.40 0.3081473
668.50 0.314206
668.60 0.3202612
668.70 0.3248044
668.80 0.3280929
668.90 0.3313794
669.00 0.3346639
669.10 0.3379465
669.20 0.3412271
669.30 0.3432818
669.40 0.3451195
669.50 0.346956
669.60 0.3487914
669.70 0.3506257
669.80 0.3524589
669.90 0.3542909
670.00 0.3561219
670.10 0.3579518
670.20 0.3597805
670.30 0.3610606
670.40 0.3622432
670.50 0.3634252
670.60 0.3646064
670.70 0.3657869
670.80 0.3665188
670.90 0.3672502
671.00 0.3679812
671.10 0.3687117
671.20 0.3694418
671.30 0.3701714
671.40 0.3709006
671.50 0.3716293
671.60 0.3723576
671.70 0.3730854
671.80 0.3738128
671.90 0.3743165
672.00 0.3747805
672.10 0.3752443
672.20 0.3757078
672.30 0.3761709
672.40 0.3765705
672.50 0.376965
672.60 0.3773593
672.70 0.3777533
672.80 0.3781471
672.90 0.3785406
673.00 0.3789339
673.10 0.3793269
673.20 0.3797197
673.30 0.3800974
673.40 0.3802618
673.50 0.3803884
673.60 0.380515
673.70 0.3806415
673.80 0.3807679
673.90 0.3808942
674.00 0.3810204
674.10 0.3811465
674.20 0.3812725
674.30 0.3813985
674.40 0.3815243
674.50 0.38165
674.60 0.3817757
674.70 0.3819013
674.80 0.3820267
674.90 0.3821521
675.00 0.3822774
675.10 0.3824026
675.20 0.3825277
675.30 0.3826528
675.40 0.382661
675.50 0.3826485
675.60 0.3826361
675.70 0.3826237
675.80 0.3826112
675.90 0.3825988
676.00 0.3825863
676.10 0.3825738
676.20 0.3825613
676.30 0.3825488
676.40 0.3825363
676.50 0.3825238
676.60 0.3825113
676.70 0.3824988
676.80 0.3824862
676.90 0.3824737
677.00 0.3824611
677.10 0.3824486
677.20 0.382436
677.30 0.3824234
677.40 0.3824108
677.50 0.3823982
677.60 0.3823856
677.70 0.3823729
677.80 0.3823603
677.90 0.3822625
678.00 0.3821498
678.10 0.3820371
678.20 0.3819244
678.30 0.3818118
678.40 0.3816993
678.50 0.3815868
678.60 0.3814743
678.70 0.3813619
678.80 0.3812495
678.90 0.3811372
679.00 0.381025
679.10 0.3808842
679.20 0.3807312
679.30 0.3805783
679.40 0.3804255
679.50 0.3802728
679.60 0.3801201
679.70 0.3799675
679.80 0.379815
679.90 0.3796625
680.00 0.3795102
680.10 0.3793578
680.20 0.3792056
680.30 0.3790535
680.40 0.3789014
680.50 0.3787494
680.60 0.3785974
680.70 0.3784456
680.80 0.3782938
680.90 0.378142
681.00 0.3779904
681.10 0.3778388
681.20 0.3776873
681.30 0.3775359
681.40 0.3773845
681.50 0.3772332
681.60 0.377082
681.70 0.3769309
681.80 0.3767798
681.90 0.3766288
682.00 0.3764779
682.10 0.376327
682.20 0.3761763
682.30 0.3760256
682.40 0.3758749
682.50 0.3757244
682.60 0.3755739
682.70 0.3754235
682.80 0.3752731
682.90 0.3751228
683.00 0.3749726
683.10 0.3748225
683.20 0.3746725
683.30 0.3745225
683.40 0.3743726
683.50 0.3742227
683.60 0.3740729
683.70 0.3739232
683.80 0.3737736
683.90 0.3736241
684.00 0.3734746
684.10 0.3733252
684.20 0.3731758
684.30 0.3730265
684.40 0.3728773
684.50 0.3727282
684.60 0.3725792
684.70 0.3724302
684.80 0.3722813
684.90 0.3721324
685.00 0.3719836
685.10 0.3718349
685.20 0.3716863
685.30 0.3715377
685.40 0.3713893
685.50 0.3712408
685.60 0.3710925
685.70 0.3709442
685.80 0.370796
685.90 0.3706228
686.00 0.3704435
686.10 0.3702642
686.20 0.3700851
686.30 0.369906
686.40 0.369727
686.50 0.3695481
686.60 0.3693693
686.70 0.3691906
686.80 0.369012
686.90 0.3688334
687.00 0.368655
687.10 0.3684766
687.20 0.3682983
687.30 0.3681201
687.40 0.367942
687.50 0.367764
687.60 0.3675861
687.70 0.3674082
687.80 0.3672305
687.90 0.3670528
688.00 0.3668752
688.10 0.3666977
688.20 0.3665203
688.30 0.366343
688.40 0.3661658
688.50 0.3659887
688.60 0.3658116
688.70 0.3656347
688.80 0.3654578
688.90 0.365281
689.00 0.3651043
689.10 0.3649277
689.20 0.3647511
689.30 0.3645747
689.40 0.3643983
689.50 0.3642221
689.60 0.3640459
689.70 0.3638698
689.80 0.3636938
689.90 0.3635179
690.00 0.3633421
690.10 0.3631663
690.20 0.3629906
690.30 0.3628151
690.40 0.3626396
690.50 0.3624642
690.60 0.3622889
690.70 0.3621136
690.80 0.3619385
690.90 0.3617635
691.00 0.3615885
691.10 0.3614136
691.20 0.3612388
691.30 0.3610641
691.40 0.3608895
691.50 0.3607149
691.60 0.3605405
691.70 0.3603661
691.80 0.3601918
691.90 0.3600176
692.00 0.3598435
692.10 0.3596695
692.20 0.3594956
692.30 0.3593217
692.40 0.3591479
692.50 0.3589743
692.60 0.3588007
692.70 0.3586229
692.80 0.3584292
692.90 0.3582356
693.00 0.3580421
693.10 0.3578487
693.20 0.3576554
693.30 0.3574622
693.40 0.357269
693.50 0.357076
693.60 0.3568831
693.70 0.3566903
693.80 0.3564975
693.90 0.3563049
694.00 0.3561123
694.10 0.3559199
694.20 0.3557275
694.30 0.3555353
694.40 0.3553431
694.50 0.3551511
694.60 0.3549591
694.70 0.3547672
694.80 0.3545755
694.90 0.3543838
695.00 0.3541922
695.10 0.3540007
695.20 0.3538093
695.30 0.353618
695.40 0.3534268
695.50 0.3532357
695.60 0.3530447
695.70 0.3528538
695.80 0.352663
695.90 0.3524723
696.00 0.3522816
696.10 0.3520911
696.20 0.3519007
696.30 0.3517103
696.40 0.3515201
696.50 0.3513299
696.60 0.3511353
696.70 0.3509397
696.80 0.3507441
696.90 0.3505487
697.00 0.3503534
697.10 0.3501582
697.20 0.349963
697.30 0.349768
697.40 0.3495731
697.50 0.3493782
697.60 0.3491835
697.70 0.3489889
697.80 0.3487943
697.90 0.3485999
698.00 0.3484055
698.10 0.3482113
698.20 0.3480171
698.30 0.3478231
698.40 0.3476291
698.50 0.3474352
698.60 0.3472415
698.70 0.3470478
698.80 0.3468542
698.90 0.3466607
699.00 0.3464674
699.10 0.3462419
699.20 0.346009
699.30 0.3457762
699.40 0.3455435
699.50 0.3453109
699.60 0.3450785
699.70 0.3448504
699.80 0.3446226
699.90 0.3443949
700.00 0.3441673
700.10 0.3439399
700.20 0.3437126
700.30 0.3434854
700.40 0.3432583
700.50 0.3430313
700.60 0.3428044
700.70 0.3425777
700.80 0.342351
700.90 0.3421245
701.00 0.3418981
701.10 0.3416076
701.20 0.3413021
701.30 0.3409968
701.40 0.3406917
701.50 0.3403867
701.60 0.3400819
701.70 0.3397773
701.80 0.3394728
701.90 0.3391684
702.00 0.3388643
702.10 0.3385602
702.20 0.3382564
702.30 0.3379527
702.40 0.3376492
702.50 0.3373458
702.60 0.3368826
702.70 0.3363822
702.80 0.335882
702.90 0.3353821
703.00 0.3348825
703.10 0.3343831
703.20 0.333884
703.30 0.3333852
703.40 0.3328867
703.50 0.3323884
703.60 0.3318904
703.70 0.3313927
703.80 0.3308952
703.90 0.330398
704.00 0.3299011
704.10 0.3294044
704.20 0.3284199
704.30 0.3273214
704.40 0.3262236
704.50 0.3251263
704.60 0.3240297
704.70 0.3229337
704.80 0.3218383
704.90 0.3207435
705.00 0.3196493
705.10 0.3185557
705.20 0.3164007
705.30 0.3139978
705.40 0.3115963
705.50 0.3091962
705.60 0.3067974
705.70 0.3043999
705.80 0.299821
705.90 0.2947328
706.00 0.2896474
706.10 0.2845649
706.20 0.2752285
706.30 0.264899
706.40 0.2495677
706.50 0.233687
706.60 0.231273
706.70 0.2455735
706.80 0.2573107
706.90 0.2683292
707.00 0.2747626
707.10 0.2801187
707.20 0.2854718
707.30 0.2908218
707.40 0.2938061
707.50 0.2962347
707.60 0.2986618
707.70 0.3010876
707.80 0.3035121
707.90 0.3059351
708.00 0.3072343
708.10 0.3082694
708.20 0.309304
708.30 0.310338
708.40 0.3113714
708.50 0.3124041
708.60 0.3134363
708.70 0.3144679
708.80 0.3154989
708.90 0.3165293
709.00 0.3169617
709.10 0.3172537
709.20 0.3175455
709.30 0.3178372
709.40 0.3181287
709.50 0.31842
709.60 0.3187111
709.70 0.319002
709.80 0.3192928
709.90 0.3195834
710.00 0.3198738
710.10 0.3201641
710.20 0.3204541
710.30 0.320744
710.40 0.3210337
710.50 0.3213233
710.60 0.3214007
710.70 0.3214284
710.80 0.321456
710.90 0.3214837
711.00 0.3215113
711.10 0.3215388
711.20 0.3215664
711.30 0.3215939
711.40 0.3216214
711.50 0.3216489
711.60 0.3216763
711.70 0.3217037
711.80 0.3217311
711.90 0.3217584
712.00 0.3217857
712.10 0.3217425
712.20 0.3216827
712.30 0.321623
712.40 0.3215633
712.50 0.3215036
712.60 0.3214439
712.70 0.3213843
712.80 0.3213246
712.90 0.321265
713.00 0.3212054
713.10 0.3211459
713.20 0.3210863
713.30 0.3210268
713.40 0.3209673
713.50 0.3209078
713.60 0.3208483
713.70 0.3207789
713.80 0.320689
713.90 0.3205991
714.00 0.3205093
714.10 0.3203952
714.20 0.3202754
714.30 0.3201557
714.40 0.320036
714.50 0.3199164
714.60 0.3197968
714.70 0.3196773
714.80 0.3195578
714.90 0.3194384
715.00 0.319319
715.10 0.3191997
715.20 0.3190805
715.30 0.3189613
715.40 0.3188422
715.50 0.3187231
715.60 0.318604
715.70 0.3184851
715.80 0.3183661
715.90 0.3182473
716.00 0.3181284
716.10 0.3180097
716.20 0.317891
716.30 0.3177723
716.40 0.3176537
716.50 0.3175352
716.60 0.3174034
716.70 0.3172687
716.80 0.3171339
716.90 0.3169993
717.00 0.3168647
717.10 0.3167302
717.20 0.3165957
717.30 0.3164613
717.40 0.316327
717.50 0.3161927
717.60 0.3160585
717.70 0.3159244
717.80 0.3157903
717.90 0.3156563
718.00 0.3155223
718.10 0.3153884
718.20 0.3152394
718.30 0.3150822
718.40 0.3149251
718.50 0.3147681
718.60 0.3146112
718.70 0.3144544
718.80 0.3142976
718.90 0.3141409
719.00 0.3139843
719.10 0.3138277
719.20 0.3136712
719.30 0.3135148
719.40 0.3133585
719.50 0.3132023
719.60 0.3130461
719.70 0.31289
719.80 0.312734
719.90 0.312578
720.00 0.3124221
720.10 0.3122663
720.20 0.3121106
720.30 0.3119549
720.40 0.3117994
720.50 0.3116439
720.60 0.3114884
720.70 0.3113779
720.80 0.3112915
720.90 0.3111277
721.00 0.3109608
721.10 0.310794
721.20 0.3106273
721.30 0.3104607
721.40 0.3102941
721.50 0.3101276
721.60 0.3099612
721.70 0.3097949
721.80 0.3096286
721.90 0.3094624
722.00 0.3092964
722.10 0.3091303
722.20 0.3089644
722.30 0.3087986
722.40 0.3086328
722.50 0.3084671
722.60 0.3083015
722.70 0.3081245
722.80 0.3079413
722.90 0.3077583
723.00 0.3075753
723.10 0.3073924
723.20 0.3072097
723.30 0.307027
723.40 0.3068444
723.50 0.3066618
723.60 0.3064794
723.70 0.3062971
723.80 0.3061148
723.90 0.3059327
724.00 0.3057506
724.10 0.3055686
724.20 0.3053412
724.30 0.3050893
724.40 0.3048376
724.50 0.304586
724.60 0.3043345
724.70 0.3040832
724.80 0.303832
724.90 0.3035809
725.00 0.3033299
725.10 0.3030791
725.20 0.3028283
725.30 0.3025778
725.40 0.3023273
725.50 0.302077
725.60 0.3018268
725.70 0.3015767
725.80 0.3011354
725.90 0.3005915
726.00 0.3000478
726.10 0.2995044
726.20 0.2989613
726.30 0.2984185
726.40 0.297876
726.50 0.2973337
726.60 0.2967918
726.70 0.2962501
726.80 0.295221
726.90 0.2939299
727.00 0.2926396
727.10 0.2913499
727.20 0.290061
727.30 0.2887727
727.40 0.2861894
727.50 0.2829099
727.60 0.2796322
727.70 0.2763564
727.80 0.2699053
727.90 0.2617475
728.00 0.2487347
728.10 0.2215754
728.20 0.2151404
728.30 0.2340932
728.40 0.2458239
728.50 0.2553685
728.60 0.2614796
728.70 0.2657417
728.80 0.2700016
728.90 0.274259
729.00 0.2768461
729.10 0.2785339
729.20 0.2802208
729.30 0.2819067
729.40 0.2835917
729.50 0.2852758
729.60 0.2862356
729.70 0.2868054
729.80 0.287375
729.90 0.2879442
730.00 0.2885131
730.10 0.2890816
730.20 0.2896499
730.30 0.2902178
730.40 0.2907854
730.50 0.2913527
730.60 0.2916063
730.70 0.2916911
730.80 0.2917759
730.90 0.2918606
731.00 0.2919453
731.10 0.2920298
731.20 0.2921144
731.30 0.2921988
731.40 0.2922833
731.50 0.2923676
731.60 0.2924519
731.70 0.2925362
731.80 0.2926204
731.90 0.2927045
732.00 0.2927886
732.10 0.2928726
732.20 0.29285
732.30 0.29277
732.40 0.2926901
732.50 0.2926101
732.60 0.2925303
732.70 0.2924504
732.80 0.2923706
732.90 0.2922908
733.00 0.2922111
733.10 0.2921314
733.20 0.2920517
733.30 0.291972
733.40 0.2918924
733.50 0.2918128
733.60 0.2917333
733.70 0.2916351
733.80 0.291527
733.90 0.2914189
734.00 0.2913109
734.10 0.2912029
734.20 0.2910949
734.30 0.290987
734.40 0.2908792
734.50 0.2907714
734.60 0.2906636
734.70 0.2905559
734.80 0.2904482
734.90 0.2903406
735.00 0.2902331
735.10 0.2901256
735.20 0.2900181
735.30 0.2899129
735.40 0.2898341
735.50 0.2897553
735.60 0.2896765
735.70 0.2895671
735.80 0.2894411
735.90 0.2893153
736.00 0.2891894
736.10 0.2890637
736.20 0.288938
736.30 0.2888123
736.40 0.2886868
736.50 0.2885612
736.60 0.2884358
736.70 0.2883103
736.80 0.288185
736.90 0.2880597
737.00 0.2879344
737.10 0.2878093
737.20 0.2876841
737.30 0.2875591
737.40 0.287434
737.50 0.2873091
737.60 0.2871842
737.70 0.2870594
737.80 0.2869346
737.90 0.2868098
738.00 0.2866852
738.10 0.2865606
738.20 0.2864293
738.30 0.2862945
738.40 0.2861598
738.50 0.2860251
738.60 0.2858905
738.70 0.285756
738.80 0.2856215
738.90 0.2854871
739.00 0.2853527
739.10 0.2852184
739.20 0.2850842
739.30 0.28495
739.40 0.2848159
739.50 0.2846818
739.60 0.2845479
739.70 0.2844139
739.80 0.2842801
739.90 0.2841463
740.00 0.2840125
740.10 0.2838789
740.20 0.2837453
740.30 0.2836117
740.40 0.2834782
740.50 0.2833448
740.60 0.2832114
740.70 0.2830781
740.80 0.2829449
740.90 0.2828117
741.00 0.2826786
741.10 0.2825455
741.20 0.2824125
741.30 0.2822796
741.40 0.2821467
741.50 0.2820139
741.60 0.2818812
741.70 0.2817485
741.80 0.2816158
741.90 0.2814833
742.00 0.2813508
742.10 0.2812183
742.20 0.2810859
742.30 0.2809536
742.40 0.2808214
742.50 0.2806892
742.60 0.280557
742.70 0.2804191
742.80 0.2802764
742.90 0.2801338
743.00 0.2799913
743.10 0.2798488
743.20 0.2797064
743.30 0.2795641
743.40 0.2794218
743.50 0.2792796
743.60 0.2791375
743.70 0.278998
743.80 0.2788688
743.90 0.2787396
744.00 0.2786104
744.10 0.2784814
744.20 0.2783524
744.30 0.2782234
744.40 0.2780945
744.50 0.2779657
744.60 0.2778369
744.70 0.2777082
744.80 0.2775796
744.90 0.277451
745.00 0.2773224
745.10 0.277194
745.20 0.2770655
745.30 0.2769372
745.40 0.2768089
745.50 0.2766806
745.60 0.2765525
745.70 0.2764243
745.80 0.2762963
745.90 0.2761683
746.00 0.2760403
746.10 0.2759124
746.20 0.2757846
746.30 0.2756568
746.40 0.2755291
746.50 0.2754015
746.60 0.2752739
746.70 0.2751463
746.80 0.2750189
746.90 0.2748914
747.00 0.2747641
747.10 0.2746368
747.20 0.2745095
747.30 0.2743823
747.40 0.2742552
747.50 0.2741281
747.60 0.2740011
747.70 0.2738742
747.80 0.2737473
747.90 0.2736204
748.00 0.2734937
748.10 0.2733669
748.20 0.2732403
748.30 0.2731137
748.40 0.2729871
748.50 0.2728606
748.60 0.2727342
748.70 0.2726078
748.80 0.2724815
748.90 0.2723553
749.00 0.2722291
749.10 0.2721029
749.20 0.2719768
749.30 0.2718508
749.40 0.2717248
749.50 0.2715989
749.60 0.2714731
749.70 0.2713473
749.80 0.2712215
749.90 0.2710958
750.00 0.2709702
750.10 0.2708426
750.20 0.2707098
750.30 0.2705771
750.40 0.2704445
750.50 0.2703119
750.60 0.2701793
750.70 0.2700468
750.80 0.2699144
750.90 0.2697821
751.00 0.2696498
751.10 0.2695176
751.20 0.2693854
751.30 0.2692533
751.40 0.2691212
751.50 0.2689892
751.60 0.2688573
751.70 0.2687255
751.80 0.2685937
751.90 0.2684619
752.00 0.2683302
752.10 0.2681986
752.20 0.268067
752.30 0.2679355
752.40 0.2678041
752.50 0.2676727
752.60 0.2675414
752.70 0.2674101
752.80 0.2672789
752.90 0.2671478
753.00 0.2670167
753.10 0.2668857
753.20 0.2667547
753.30 0.2666238
753.40 0.266493
753.50 0.2663622
753.60 0.2662315
753.70 0.2661008
753.80 0.2659702
753.90 0.2658444
754.00 0.2657199
754.10 0.2655955
754.20 0.2654711
754.30 0.2653468
754.40 0.2652225
754.50 0.2650983
754.60 0.2649742
754.70 0.2648501
754.80 0.2647261
754.90 0.2646021
755.00 0.2644782
755.10 0.2643543
755.20 0.2642305
755.30 0.2641067
755.40 0.2639831
755.50 0.2638594
755.60 0.2637358
755.70 0.2636123
755.80 0.2634888
755.90 0.2633654
756.00 0.2632421
756.10 0.2631188
756.20 0.2629955
756.30 0.2628723
756.40 0.2627492
756.50 0.2626261
756.60 0.2625031
756.70 0.2623801
756.80 0.2622572
756.90 0.2621344
757.00 0.2620116
757.10 0.2618888
757.20 0.2617662
757.30 0.2616435
757.40 0.261521
757.50 0.2613984
757.60 0.2612761
757.70 0.2611542
757.80 0.2610324
757.90 0.2609107
758.00 0.260789
758.10 0.2606673
758.20 0.2605457
758.30 0.2604242
758.40 0.2603027
758.50 0.2601813
758.60 0.2600599
758.70 0.2599386
758.80 0.2598173
758.90 0.2596961
759.00 0.2595749
759.10 0.2594538
759.20 0.2593328
759.30 0.2592118
759.40 0.2590909
759.50 0.25897
759.60 0.2588491
759.70 0.2587284
759.80 0.2586076
759.90 0.258487
760.00 0.2583664
760.10 0.2582458
760.20 0.2581253
760.30 0.2580049
760.40 0.2578845
760.50 0.2577641
760.60 0.2576439
760.70 0.2575236
760.80 0.2574035
760.90 0.2572833
761.00 0.2571633
761.10 0.2570433
761.20 0.2569233
761.30 0.2568034
761.40 0.2566836
761.50 0.2565638
761.60 0.256444
761.70 0.2563243
761.80 0.2562047
761.90 0.2560851
762.00 0.2559656
762.10 0.2558461
762.20 0.2557267
762.30 0.2556073
762.40 0.255488
762.50 0.2553688
762.60 0.2552496
762.70 0.2551304
762.80 0.2550113
762.90 0.2548923
763.00 0.2547733
763.10 0.2546544
763.20 0.2545355
763.30 0.2544167
763.40 0.2542979
763.50 0.2541792
763.60 0.2540605
763.70 0.2539419
763.80 0.2538233
763.90 0.2537048
764.00 0.2535864
764.10 0.253468
764.20 0.2533496
764.30 0.2532313
764.40 0.2531131
764.50 0.2529949
764.60 0.2528768
764.70 0.2527587
764.80 0.2526407
764.90 0.2525227
765.00 0.2524048
765.10 0.2522869
765.20 0.2521679
765.30 0.2520478
765.40 0.2519277
765.50 0.2518078
765.60 0.2516878
765.70 0.2515679
765.80 0.2514481
765.90 0.2513283
766.00 0.2512086
766.10 0.2510889
766.20 0.2509693
766.30 0.2508498
766.40 0.2507303
766.50 0.2506108
766.60 0.2504914
766.70 0.2503721
766.80 0.2502528
766.90 0.2501335
767.00 0.2500144
767.10 0.2498952
767.20 0.2497762
767.30 0.2496571
767.40 0.2495382
767.50 0.2494193
767.60 0.2493004
767.70 0.2491816
767.80 0.2490628
767.90 0.2489441
768.00 0.2488255
768.10 0.2487069
768.20 0.2485884
768.30 0.2484699
768.40 0.2483514
768.50 0.2482331
768.60 0.2481147
768.70 0.2479964
768.80 0.2478782
768.90 0.2477601
769.00 0.2476419
769.10 0.2475239
769.20 0.2474059
769.30 0.2472879
769.40 0.24717
769.50 0.2470522
769.60 0.2469344
769.70 0.2468166
769.80 0.2466989
769.90 0.2465813
770.00 0.2464637
770.10 0.2463462
770.20 0.2462287
770.30 0.2461113
770.40 0.2459939
770.50 0.2458766
770.60 0.2457593
770.70 0.2456421
770.80 0.2455249
770.90 0.2454078
771.00 0.2452907
771.10 0.2451737
771.20 0.2450568
771.30 0.2449399
771.40 0.244823
771.50 0.2447062
771.60 0.2445895
771.70 0.2444728
771.80 0.2443562
771.90 0.2442396
772.00 0.244123
772.10 0.2440065
772.20 0.2438901
772.30 0.2437737
772.40 0.2436574
772.50 0.2435411
772.60 0.2434249
772.70 0.2433087
772.80 0.2431926
772.90 0.2430826
773.00 0.2429726
773.10 0.2428627
773.20 0.2427529
773.30 0.2426431
773.40 0.2425333
773.50 0.2424236
773.60 0.2423139
773.70 0.2422043
773.80 0.2420947
773.90 0.2419852
774.00 0.2418757
774.10 0.2417663
774.20 0.2416569
774.30 0.2415476
774.40 0.2414383
774.50 0.2413291
774.60 0.2412199
774.70 0.2411108
774.80 0.2410017
774.90 0.2408927
775.00 0.2407837
775.10 0.2406748
775.20 0.2405659
775.30 0.240457
775.40 0.2403482
775.50 0.2402395
775.60 0.2401308
775.70 0.2400221
775.80 0.2399135
775.90 0.239805
776.00 0.2396965
776.10 0.239588
776.20 0.2394796
776.30 0.2393712
776.40 0.2392629
776.50 0.2391547
776.60 0.2390464
776.70 0.2389383
776.80 0.2388301
776.90 0.2387221
777.00 0.238614
777.10 0.2385061
777.20 0.2383981
777.30 0.2382902
777.40 0.2381824
777.50 0.2380746
777.60 0.2379669
777.70 0.2378592
777.80 0.2377515
777.90 0.2376439
778.00 0.2375364
778.10 0.2374289
778.20 0.2373214
778.30 0.237214
778.40 0.2371066
778.50 0.2369993
778.60 0.2368921
778.70 0.2367848
778.80 0.2366777
778.90 0.2365705
779.00 0.2364635
779.10 0.2363564
779.20 0.2362494
779.30 0.2361425
779.40 0.2360356
779.50 0.2359288
779.60 0.235822
779.70 0.2357152
779.80 0.2356085
779.90 0.2355019
780.00 0.2353953
780.10 0.2352887
780.20 0.2351822
780.30 0.2350757
780.40 0.2349693
780.50 0.2348629
780.60 0.2347524
780.70 0.2346404
780.80 0.2345284
780.90 0.2344165
781.00 0.2343046
781.10 0.2341928
781.20 0.234081
781.30 0.2339693
781.40 0.2338576
781.50 0.2337459
781.60 0.2336344
781.70 0.2335228
781.80 0.2334113
781.90 0.2332999
782.00 0.2331885
782.10 0.2330772
782.20 0.2329659
782.30 0.2328546
782.40 0.2327434
782.50 0.2326323
782.60 0.2325212
782.70 0.2324102
782.80 0.2322992
782.90 0.2321882
783.00 0.2320773
783.10 0.2319665
783.20 0.2318557
783.30 0.2317449
783.40 0.2316342
783.50 0.2315236
783.60 0.231413
783.70 0.2313024
783.80 0.2311919
783.90 0.2310815
784.00 0.2309711
784.10 0.2308607
784.20 0.2307504
784.30 0.2306401
784.40 0.2305299
784.50 0.2304198
784.60 0.2303118
784.70 0.230209
784.80 0.2301062
784.90 0.2300034
785.00 0.2299007
785.10 0.2297981
785.20 0.2296955
785.30 0.2295929
785.40 0.2294904
785.50 0.2293879
785.60 0.2292854
785.70 0.2291831
785.80 0.2290807
785.90 0.2289784
786.00 0.2288762
786.10 0.2287739
786.20 0.2286718
786.30 0.2285697
786.40 0.2284676
786.50 0.2283655
786.60 0.2282635
786.70 0.2281616
786.80 0.2280597
786.90 0.2279578
787.00 0.227856
787.10 0.2277543
787.20 0.2276525
787.30 0.2275509
787.40 0.2274492
787.50 0.2273476
787.60 0.2272461
787.70 0.2271446
787.80 0.2270431
787.90 0.2269417
788.00 0.2268404
788.10 0.226739
788.20 0.2266377
788.30 0.2265365
788.40 0.2264332
788.50 0.2263288
788.60 0.2262244
788.70 0.2261202
788.80 0.2260159
788.90 0.2259117
789.00 0.2258076
789.10 0.2257035
789.20 0.2255994
789.30 0.2254954
789.40 0.2253914
789.50 0.2252875
789.60 0.2251836
789.70 0.2250798
789.80 0.224976
789.90 0.2248722
790.00 0.2247685
790.10 0.2246649
790.20 0.2245613
790.30 0.2244577
790.40 0.2243542
790.50 0.2242507
790.60 0.2241473
790.70 0.2240439
790.80 0.2239406
790.90 0.2238373
791.00 0.2237341
791.10 0.2236309
791.20 0.2235277
791.30 0.2234246
791.40 0.2233215
791.50 0.2232185
791.60 0.2231155
791.70 0.2230126
791.80 0.2229097
791.90 0.2228069
792.00 0.2227041
792.10 0.2226013
792.20 0.2224986
792.30 0.222396
792.40 0.2222933
792.50 0.2221907
792.60 0.2220882
792.70 0.2219857
792.80 0.2218833
792.90 0.2217809
793.00 0.2216785
793.10 0.2215762
793.20 0.2214739
793.30 0.2213717
793.40 0.2212695
793.50 0.2211674
793.60 0.2210653
793.70 0.2209632
793.80 0.2208612
793.90 0.2207592
794.00 0.2206573
794.10 0.2205555
794.20 0.2204536
794.30 0.2203519
794.40 0.2202501
794.50 0.2201484
794.60 0.2200468
794.70 0.2199452
794.80 0.2198436
794.90 0.2197421
795.00 0.2196406
795.10 0.2195392
795.20 0.2194378
795.30 0.2193364
795.40 0.2192352
795.50 0.2191339
795.60 0.2190327
795.70 0.2189315
795.80 0.2188304
795.90 0.2187293
796.00 0.2186283
796.10 0.2185273
796.20 0.2184264
796.30 0.218328
796.40 0.2182301
796.50 0.2181323
796.60 0.2180345
796.70 0.2179368
796.80 0.2178391
796.90 0.2177414
797.00 0.2176438
797.10 0.2175462
797.20 0.2174487
797.30 0.2173512
797.40 0.2172538
797.50 0.2171564
797.60 0.217059
797.70 0.2169617
797.80 0.2168644
797.90 0.2167672
798.00 0.21667
798.10 0.2165728
798.20 0.2164757
798.30 0.2163787
798.40 0.2162816
798.50 0.2161847
798.60 0.2160877
798.70 0.2159908
798.80 0.215894
798.90 0.2157971
799.00 0.2157004
799.10 0.2156036
799.20 0.215507
799.30 0.2154103
799.40 0.2153137
799.50 0.2152171
799.60 0.2151206
799.70 0.2150241
799.80 0.2149277
799.90 0.2148313
800.00 0.2147349
800.10 0.2146386
800.20 0.2145423
800.30 0.2144461
800.40 0.2143499
800.50 0.2142538
800.60 0.2141577
800.70 0.2140616
800.80 0.2139656
800.90 0.2138696
801.00 0.2137736
801.10 0.2136777
801.20 0.2135819
801.30 0.213486
801.40 0.2133903
801.50 0.2132945
801.60 0.2131988
801.70 0.2131032
801.80 0.2130076
801.90 0.212912
802.00 0.2128164
802.10 0.212721
802.20 0.2126255
802.30 0.2125301
802.40 0.2124347
802.50 0.2123394
802.60 0.2122441
802.70 0.2121489
802.80 0.2120537
802.90 0.2119585
803.00 0.2118634
803.10 0.2117683
803.20 0.2116732
803.30 0.2115782
803.40 0.2114833
803.50 0.2113884
803.60 0.2112935
803.70 0.2111986
803.80 0.2111039
803.90 0.2110091
804.00 0.2109144
804.10 0.2108197
804.20 0.2107246
804.30 0.210628
804.40 0.2105314
804.50 0.2104348
804.60 0.2103383
804.70 0.2102419
804.80 0.2101454
804.90 0.2100491
805.00 0.2099527
805.10 0.2098564
805.20 0.2097602
805.30 0.2096639
805.40 0.2095678
805.50 0.2094716
805.60 0.2093755
805.70 0.2092795
805.80 0.2091835
805.90 0.2090875
806.00 0.2089916
806.10 0.2088957
806.20 0.2087998
806.30 0.208704
806.40 0.2086083
806.50 0.2085125
806.60 0.2084169
806.70 0.2083212
806.80 0.2082256
806.90 0.2081301
807.00 0.2080345
807.10 0.2079391
807.20 0.2078436
807.30 0.2077482
807.40 0.2076529
807.50 0.2075576
807.60 0.2074623
807.70 0.207367
807.80 0.2072719
807.90 0.2071767
808.00 0.2070816
808.10 0.2069865
808.20 0.2068915
808.30 0.2068014
808.40 0.2067113
808.50 0.2066213
808.60 0.2065313
808.70 0.2064413
808.80 0.2063514
808.90 0.2062615
809.00 0.2061716
809.10 0.2060818
809.20 0.2059921
809.30 0.2059023
809.40 0.2058126
809.50 0.2057229
809.60 0.2056333
809.70 0.2055437
809.80 0.2054542
809.90 0.2053647
810.00 0.2052752
810.10 0.2051858
810.20 0.2050964
810.30 0.205007
810.40 0.2049177
810.50 0.2048284
810.60 0.2047391
810.70 0.2046499
810.80 0.2045608
810.90 0.2044716
811.00 0.2043825
811.10 0.2042935
811.20 0.2042045
811.30 0.2041155
811.40 0.2040265
811.50 0.2039376
811.60 0.2038488
811.70 0.2037599
811.80 0.2036711
811.90 0.2035824
812.00 0.2034937
812.10 0.203405
812.20 0.2033163
812.30 0.2032254
812.40 0.203134
812.50 0.2030426
812.60 0.2029513
812.70 0.20286
812.80 0.2027687
812.90 0.2026775
813.00 0.2025863
813.10 0.2024952
813.20 0.2024041
813.30 0.202313
813.40 0.202222
813.50 0.202131
813.60 0.20204
813.70 0.2019491
813.80 0.2018582
813.90 0.2017674
814.00 0.2016766
814.10 0.2015858
814.20 0.2014951
814.30 0.2014044
814.40 0.2013137
814.50 0.2012231
814.60 0.2011326
814.70 0.201042
814.80 0.2009515
814.90 0.2008611
815.00 0.2007707
815.10 0.2006803
815.20 0.20059
815.30 0.2004997
815.40 0.2004094
815.50 0.2003192
815.60 0.200229
815.70 0.2001388
815.80 0.2000487
815.90 0.1999586
816.00 0.1998686
816.10 0.1997786
816.20 0.1996887
816.30 0.1995987
816.40 0.1995089
816.50 0.199419
816.60 0.1993292
816.70 0.1992394
816.80 0.1991497
816.90 0.19906
817.00 0.1989704
817.10 0.1988807
817.20 0.1987912
817.30 0.1987016
817.40 0.1986121
817.50 0.1985227
817.60 0.1984332
817.70 0.1983438
817.80 0.1982545
817.90 0.1981652
818.00 0.1980759
818.10 0.1979867
818.20 0.1978975
818.30 0.1978083
818.40 0.1977192
818.50 0.1976301
818.60 0.197541
818.70 0.197452
818.80 0.197363
818.90 0.1972741
819.00 0.1971852
819.10 0.1970964
819.20 0.1970075
819.30 0.1969163
819.40 0.1968235
819.50 0.1967307
819.60 0.196638
819.70 0.1965453
819.80 0.1964526
819.90 0.19636
820.00 0.1962674
820.10 0.1961789
820.20 0.1961311
820.30 0.1960833
820.40 0.1960131
820.50 0.1959266
820.60 0.1958403
820.70 0.1957539
820.80 0.1956676
820.90 0.1955813
821.00 0.1954951
821.10 0.1954089
821.20 0.1953228
821.30 0.1952366
821.40 0.1951505
821.50 0.1950645
821.60 0.1949785
821.70 0.1948925
821.80 0.1948065
821.90 0.1947206
822.00 0.1946348
822.10 0.1945489
822.20 0.1944631
822.30 0.1943774
822.40 0.1942916
822.50 0.1942059
822.60 0.1941203
822.70 0.1940347
822.80 0.1939491
822.90 0.1938635
823.00 0.193778
823.10 0.1936925
823.20 0.1936071
823.30 0.1935217
823.40 0.1934363
823.50 0.193351
823.60 0.1932657
823.70 0.1931804
823.80 0.1930952
823.90 0.19301
824.00 0.1929249
824.10 0.1928397
824.20 0.1927546
824.30 0.1926696
824.40 0.1925846
824.50 0.1924996
824.60 0.1924147
824.70 0.1923298
824.80 0.1922449
824.90 0.1921601
825.00 0.1920753
825.10 0.1919905
825.20 0.1919058
825.30 0.1918211
825.40 0.1917364
825.50 0.1916518
825.60 0.1915672
825.70 0.1914826
825.80 0.1913981
825.90 0.1913136
826.00 0.1912292
826.10 0.1911448
826.20 0.1910604
826.30 0.1909746
826.40 0.1908878
826.50 0.190801
826.60 0.1907143
826.70 0.1906276
826.80 0.1905409
826.90 0.1904543
827.00 0.1903677
827.10 0.1902811
827.20 0.1901946
827.30 0.1901081
827.40 0.1900217
827.50 0.1899353
827.60 0.1898489
827.70 0.1897626
827.80 0.1896763
827.90 0.18959
828.00 0.1895038
828.10 0.1894176
828.20 0.1893314
828.30 0.1892453
828.40 0.1891592
828.50 0.1890732
828.60 0.1889892
828.70 0.188907
828.80 0.1888248
828.90 0.1887426
829.00 0.1886605
829.10 0.1885784
829.20 0.1884963
829.30 0.1884143
829.40 0.1883323
829.50 0.1882503
829.60 0.1881684
829.70 0.1880865
829.80 0.1880046
829.90 0.1879228
830.00 0.187841
830.10 0.1877592
830.20 0.1876775
830.30 0.1875958
830.40 0.1875142
830.50 0.1874326
830.60 0.187351
830.70 0.1872694
830.80 0.1871879
830.90 0.1871064
831.00 0.1870249
831.10 0.1869435
831.20 0.1868621
831.30 0.1867808
831.40 0.1866995
831.50 0.1866182
831.60 0.1865369
831.70 0.1864557
831.80 0.1863745
831.90 0.1862934
832.00 0.1862123
832.10 0.1861312
832.20 0.1860501
832.30 0.1859691
832.40 0.1858881
832.50 0.1858072
832.60 0.1857263
832.70 0.1856454
832.80 0.1855645
832.90 0.1854837
833.00 0.1854029
833.10 0.1853222
833.20 0.1852415
833.30 0.1851608
833.40 0.1850801
833.50 0.1849995
833.60 0.184919
833.70 0.1848384
833.80 0.1847579
833.90 0.1846774
834.00 0.184597
834.10 0.1845165
834.20 0.1844362
834.30 0.1843558
834.40 0.1842755
834.50 0.1841952
834.60 0.184115
834.70 0.1840348
834.80 0.1839546
834.90 0.1838744
835.00 0.1837943
835.10 0.1837142
835.20 0.1836342
835.30 0.1835542
835.40 0.1834742
835.50 0.1833942
835.60 0.1833143
835.70 0.1832344
835.80 0.1831546
835.90 0.1830748
836.00 0.182995
836.10 0.1829152
836.20 0.1828355
836.30 0.1827558
836.40 0.1826762
836.50 0.1825965
836.60 0.1825169
836.70 0.1824374
836.80 0.1823579
836.90 0.1822791
837.00 0.1822006
837.10 0.1821222
837.20 0.1820438
837.30 0.1819655
837.40 0.1818872
837.50 0.1818089
837.60 0.1817306
837.70 0.1816524
837.80 0.1815742
837.90 0.1814961
838.00 0.1814179
838.10 0.1813398
838.20 0.1812618
838.30 0.1811837
838.40 0.1811057
838.50 0.1810278
838.60 0.1809499
838.70 0.180872
838.80 0.1807941
838.90 0.1807162
839.00 0.1806384
839.10 0.1805607
839.20 0.1804829
839.30 0.1804052
839.40 0.1803275
839.50 0.1802499
839.60 0.1801723
839.70 0.1800947
839.80 0.1800172
839.90 0.1799396
840.00 0.1798622
840.10 0.1797847
840.20 0.1797073
840.30 0.1796299
840.40 0.1795525
840.50 0.1794752
840.60 0.1793979
840.70 0.1793206
840.80 0.1792434
840.90 0.1791662
841.00 0.179089
841.10 0.1790123
841.20 0.1789356
841.30 0.178859
841.40 0.1787824
841.50 0.1787058
841.60 0.1786293
841.70 0.1785528
841.80 0.1784763
841.90 0.1783998
842.00 0.1783234
842.10 0.178247
842.20 0.1781707
842.30 0.1780944
842.40 0.1780181
842.50 0.1779418
842.60 0.1778656
842.70 0.1777894
842.80 0.1777132
842.90 0.1776371
843.00 0.177561
843.10 0.1774849
843.20 0.1774089
843.30 0.1773329
843.40 0.1772569
843.50 0.1771809
843.60 0.177105
843.70 0.1770291
843.80 0.1769533
843.90 0.1768775
844.00 0.1768017
844.10 0.1767259
844.20 0.1766502
844.30 0.1765745
844.40 0.1764988
844.50 0.1764232
844.60 0.1763476
844.70 0.176272
844.80 0.1761964
844.90 0.1761209
845.00 0.1760454
845.10 0.17597
845.20 0.1758946
845.30 0.1758197
845.40 0.1757449
845.50 0.1756701
845.60 0.1755953
845.70 0.1755206
845.80 0.1754459
845.90 0.1753712
846.00 0.1752966
846.10 0.175222
846.20 0.1751474
846.30 0.1750729
846.40 0.1749984
846.50 0.1749239
846.60 0.1748494
846.70 0.174775
846.80 0.1747006
846.90 0.1746262
847.00 0.1745519
847.10 0.1744776
847.20 0.1744033
847.30 0.1743291
847.40 0.1742549
847.50 0.1741807
847.60 0.1741065
847.70 0.1740324
847.80 0.1739583
847.90 0.1738842
848.00 0.1738102
848.10 0.1737362
848.20 0.1736622
848.30 0.1735883
848.40 0.1735144
848.50 0.1734405
848.60 0.1733666
848.70 0.1732928
848.80 0.173219
848.90 0.1731452
849.00 0.1730715
849.10 0.1729978
849.20 0.1729241
849.30 0.1728505
849.40 0.1727769
849.50 0.1727033
849.60 0.1726297
849.70 0.1725562
849.80 0.1724827
849.90 0.1724093
850.00 0.1723358
850.10 0.1722624
850.20 0.172189
850.30 0.1721157
850.40 0.1720424
850.50 0.1719691
850.60 0.1718958
850.70 0.1718226
850.80 0.1717494
850.90 0.1716762
851.00 0.1716031
851.10 0.17153
851.20 0.1714569
851.30 0.1713839
851.40 0.1713108
851.50 0.1712379
851.60 0.1711649
851.70 0.171092
851.80 0.1710191
851.90 0.1709462
852.00 0.1708733
852.10 0.1708005
852.20 0.1707277
852.30 0.170655
852.40 0.1705823
852.50 0.1705096
852.60 0.1704369
852.70 0.1703643
852.80 0.1702917
852.90 0.1702191
853.00 0.1701465
853.10 0.170074
853.20 0.1700015
853.30 0.1699291
853.40 0.1698566
853.50 0.1697842
853.60 0.1697119
853.70 0.16964
853.80 0.1695686
853.90 0.1694972
854.00 0.1694259
854.10 0.1693546
854.20 0.1692834
854.30 0.1692121
854.40 0.1691409
854.50 0.1690698
854.60 0.1689986
854.70 0.1689275
854.80 0.1688564
854.90 0.1687853
855.00 0.1687143
855.10 0.1686433
855.20 0.1685723
855.30 0.1685014
855.40 0.1684305
855.50 0.1683596
855.60 0.1682887
855.70 0.1682179
855.80 0.1681471
855.90 0.1680763
856.00 0.1680056
856.10 0.1679348
856.20 0.1678641
856.30 0.1677935
856.40 0.1677229
856.50 0.1676522
856.60 0.1675817
856.70 0.1675111
856.80 0.1674406
856.90 0.1673701
857.00 0.1672997
857.10 0.1672292
857.20 0.1671588
857.30 0.1670884
857.40 0.1670181
857.50 0.1669478
857.60 0.1668775
857.70 0.1668072
857.80 0.166737
857.90 0.1666668
858.00 0.1665969
858.10 0.1665272
858.20 0.1664574
858.30 0.1663877
858.40 0.1663181
858.50 0.1662485
858.60 0.1661788
858.70 0.1661093
858.80 0.1660397
858.90 0.1659702
859.00 0.1659007
859.10 0.1658312
859.20 0.1657618
859.30 0.1656924
859.40 0.165623
859.50 0.1655536
859.60 0.1654843
859.70 0.165415
859.80 0.1653457
859.90 0.1652765
860.00 0.1652073
860.10 0.1651381
860.20 0.1650689
860.30 0.1649998
860.40 0.1649307
860.50 0.1648616
860.60 0.1647926
860.70 0.1647236
860.80 0.1646546
860.90 0.1645856
861.00 0.1645166
861.10 0.1644477
861.20 0.1643789
861.30 0.16431
861.40 0.1642412
861.50 0.1641724
861.60 0.1641036
861.70 0.1640348
861.80 0.1639661
861.90 0.1638974
862.00 0.1638288
862.10 0.1637601
862.20 0.1636916
862.30 0.1636239
862.40 0.1635563
862.50 0.1634887
862.60 0.1634211
862.70 0.1633535
862.80 0.163286
862.90 0.1632184
863.00 0.163151
863.10 0.1630835
863.20 0.1630161
863.30 0.1629486
863.40 0.1628813
863.50 0.1628139
863.60 0.1627466
863.70 0.1626793
863.80 0.162612
863.90 0.1625448
864.00 0.1624775
864.10 0.1624103
864.20 0.1623432
864.30 0.162276
864.40 0.1622089
864.50 0.1621418
864.60 0.1620748
864.70 0.1620077
864.80 0.1619407
864.90 0.1618737
865.00 0.1618068
865.10 0.1617399
865.20 0.161673
865.30 0.1616061
865.40 0.1615392
865.50 0.1614724
865.60 0.1614056
865.70 0.1613389
865.80 0.1612721
865.90 0.1612054
866.00 0.1611387
866.10 0.161072
866.20 0.1610054
866.30 0.1609388
866.40 0.1608722
866.50 0.1608057
866.60 0.1607391
866.70 0.1606726
866.80 0.1606061
866.90 0.1605397
867.00 0.1604733
867.10 0.1604069
867.20 0.1603405
867.30 0.1602742
867.40 0.1602078
867.50 0.1601415
867.60 0.1600753
867.70 0.160009
867.80 0.1599428
867.90 0.1598766
868.00 0.1598105
868.10 0.1597443
868.20 0.1596782
868.30 0.1596121
868.40 0.1595461
868.50 0.1594801
868.60 0.1594141
868.70 0.1593481
868.80 0.1592821
868.90 0.1592162
869.00 0.1591503
869.10 0.1590844
869.20 0.1590186
869.30 0.1589528
869.40 0.158887
869.50 0.1588212
869.60 0.1587555
869.70 0.1586897
869.80 0.158624
869.90 0.1585584
870.00 0.1584927
870.10 0.1584271
870.20 0.1583615
870.30 0.158296
870.40 0.1582304
870.50 0.1581649
870.60 0.1580995
870.70 0.158034
870.80 0.1579686
870.90 0.1579039
871.00 0.1578394
871.10 0.1577749
871.20 0.1577105
871.30 0.157646
871.40 0.1575816
871.50 0.1575173
871.60 0.1574529
871.70 0.1573886
871.80 0.1573243
871.90 0.15726
872.00 0.1571957
872.10 0.1571315
872.20 0.1570673
872.30 0.1570031
872.40 0.1569389
872.50 0.1568748
872.60 0.1568107
872.70 0.1567466
872.80 0.1566826
872.90 0.1566185
873.00 0.1565545
873.10 0.1564905
873.20 0.1564266
873.30 0.1563627
873.40 0.1562988
873.50 0.1562349
873.60 0.156171
873.70 0.1561072
873.80 0.1560434
873.90 0.1559796
874.00 0.1559159
874.10 0.1558521
874.20 0.1557884
874.30 0.1557248
874.40 0.1556611
874.50 0.1555975
874.60 0.1555339
874.70 0.1554703
874.80 0.1554067
874.90 0.1553432
875.00 0.1552797
875.10 0.1552162
875.20 0.1551529
875.30 0.1550899
875.40 0.1550269
875.50 0.1549639
875.60 0.1549009
875.70 0.1548379
875.80 0.154775
875.90 0.1547121
876.00 0.1546493
876.10 0.1545864
876.20 0.1545236
876.30 0.1544608
876.40 0.154398
876.50 0.1543353
876.60 0.1542725
876.70 0.1542098
876.80 0.1541472
876.90 0.1540845
877.00 0.1540219
877.10 0.1539593
877.20 0.1538967
877.30 0.1538342
877.40 0.1537716
877.50 0.1537091
877.60 0.1536467
877.70 0.1535842
877.80 0.1535218
877.90 0.1534594
878.00 0.153397
878.10 0.1533346
878.20 0.1532723
878.30 0.15321
878.40 0.1531477
878.50 0.1530854
878.60 0.1530232
878.70 0.152961
878.80 0.1528988
878.90 0.1528367
879.00 0.1527745
879.10 0.1527124
879.20 0.1526503
879.30 0.1525883
879.40 0.1525262
879.50 0.1524642
879.60 0.1524024
879.70 0.1523407
879.80 0.1522791
879.90 0.1522174
880.00 0.1521558
880.10 0.1520942
880.20 0.1520326
880.30 0.1519711
880.40 0.1519096
880.50 0.1518481
880.60 0.1517866
880.70 0.1517251
880.80 0.1516637
880.90 0.1516023
881.00 0.1515409
881.10 0.1514796
881.20 0.1514182
881.30 0.1513569
881.40 0.1512956
881.50 0.1512344
881.60 0.1511731
881.70 0.1511119
881.80 0.1510507
881.90 0.1509896
882.00 0.1509284
882.10 0.1508673
882.20 0.1508062
882.30 0.1507451
882.40 0.1506841
882.50 0.1506231
882.60 0.1505621
882.70 0.1505011
882.80 0.1504401
882.90 0.1503792
883.00 0.1503183
883.10 0.1502574
883.20 0.1501966
883.30 0.1501357
883.40 0.1500749
883.50 0.1500142
883.60 0.1499534
883.70 0.1498927
883.80 0.1498319
883.90 0.1497712
884.00 0.1497115
884.10 0.149652
884.20 0.1495925
884.30 0.149533
884.40 0.1494735
884.50 0.1494141
884.60 0.1493547
884.70 0.1492953
884.80 0.1492359
884.90 0.1491765
885.00 0.1491172
885.10 0.1490579
885.20 0.1489986
885.30 0.1489394
885.40 0.1488801
885.50 0.1488209
885.60 0.1487617
885.70 0.1487026
885.80 0.1486434
885.90 0.1485843
886.00 0.1485252
886.10 0.1484661
886.20 0.1484071
886.30 0.1483481
886.40 0.1482891
886.50 0.1482301
886.60 0.1481711
886.70 0.1481122
886.80 0.1480533
886.90 0.1479944
887.00 0.1479355
887.10 0.1478767
887.20 0.1478178
887.30 0.147759
887.40 0.1477003
887.50 0.1476415
887.60 0.1475828
887.70 0.1475241
887.80 0.1474654
887.90 0.1474067
888.00 0.1473481
888.10 0.1472894
888.20 0.1472309
888.30 0.1471723
888.40 0.1471139
888.50 0.1470557
888.60 0.1469974
888.70 0.1469392
888.80 0.146881
888.90 0.1468228
889.00 0.1467646
889.10 0.1467065
889.20 0.1466484
889.30 0.1465903
889.40 0.1465322
889.50 0.1464742
889.60 0.1464162
889.70 0.1463581
889.80 0.1463002
889.90 0.1462422
890.00 0.1461843
890.10 0.1461264
890.20 0.1460685
890.30 0.1460106
890.40 0.1459527
890.50 0.1458949
890.60 0.1458371
890.70 0.1457793
890.80 0.1457216
890.90 0.1456638
891.00 0.1456061
891.10 0.1455484
891.20 0.1454908
891.30 0.1454331
891.40 0.1453755
891.50 0.1453179
891.60 0.1452603
891.70 0.1452028
891.80 0.1451452
891.90 0.1450877
892.00 0.1450302
892.10 0.1449727
892.20 0.1449153
892.30 0.1448579
892.40 0.1448005
892.50 0.1447431
892.60 0.1446857
892.70 0.1446284
892.80 0.1445711
892.90 0.1445138
893.00 0.1444565
893.10 0.1443993
893.20 0.144342
893.30 0.1442848
893.40 0.1442276
893.50 0.1441705
893.60 0.1441133
893.70 0.1440562
893.80 0.1439991
893.90 0.1439421
894.00 0.143885
894.10 0.143828
894.20 0.143771
894.30 0.143714
894.40 0.143657
894.50 0.1436001
894.60 0.1435432
894.70 0.1434863
894.80 0.1434294
894.90 0.1433725
895.00 0.1433157
895.10 0.1432589
895.20 0.1432021
895.30 0.1431453
895.40 0.1430886
895.50 0.1430319
895.60 0.1429752
895.70 0.1429185
895.80 0.1428618
895.90 0.1428052
896.00 0.1427486
896.10 0.142692
896.20 0.1426354
896.30 0.1425789
896.40 0.1425223
896.50 0.1424658
896.60 0.1424093
896.70 0.1423529
896.80 0.1422964
896.90 0.14224
897.00 0.1421836
897.10 0.1421272
897.20 0.1420709
897.30 0.1420155
897.40 0.1419602
897.50 0.1419048
897.60 0.1418495
897.70 0.1417942
897.80 0.1417389
897.90 0.1416837
898.00 0.1416285
898.10 0.1415733
898.20 0.1415181
898.30 0.1414629
898.40 0.1414077
898.50 0.1413526
898.60 0.1412975
898.70 0.1412424
898.80 0.1411874
898.90 0.1411323
899.00 0.1410773
899.10 0.1410223
899.20 0.1409673
899.30 0.1409123
899.40 0.1408574
899.50 0.1408025
899.60 0.1407476
899.70 0.1406927
899.80 0.1406379
899.90 0.140583
900.00 0.1405282
900.10 0.1404734
900.20 0.1404187
900.30 0.1403639
900.40 0.1403092
900.50 0.1402545
900.60 0.1401998
900.70 0.1401451
900.80 0.1400905
900.90 0.1400358
901.00 0.1399812
901.10 0.1399266
901.20 0.1398721
901.30 0.1398175
901.40 0.139763
901.50 0.1397085
901.60 0.139654
901.70 0.1395996
901.80 0.1395451
901.90 0.1394907
902.00 0.1394363
902.10 0.139382
902.20 0.1393276
902.30 0.1392733
902.40 0.1392189
902.50 0.1391647
902.60 0.1391104
902.70 0.1390561
902.80 0.1390019
902.90 0.1389477
903.00 0.1388935
903.10 0.1388393
903.20 0.1387852
903.30 0.138731
903.40 0.1386769
903.50 0.1386228
903.60 0.1385688
903.70 0.1385147
903.80 0.1384607
903.90 0.1384067
904.00 0.1383527
904.10 0.1382988
904.20 0.1382448
904.30 0.1381909
904.40 0.138137
904.50 0.1380831
904.60 0.1380292
904.70 0.1379754
904.80 0.1379216
904.90 0.1378678
905.00 0.137814
905.10 0.1377602
905.20 0.1377065
905.30 0.1376528
905.40 0.1375991
905.50 0.1375454
905.60 0.1374917
905.70 0.1374381
905.80 0.1373845
905.90 0.1373309
906.00 0.1372773
906.10 0.1372237
906.20 0.1371704
906.30 0.1371174
906.40 0.1370645
906.50 0.1370116
906.60 0.1369587
906.70 0.1369059
906.80 0.136853
906.90 0.1368002
907.00 0.1367474
907.10 0.1366946
907.20 0.1366419
907.30 0.1365891
907.40 0.1365364
907.50 0.1364837
907.60 0.136431
907.70 0.1363784
907.80 0.1363257
907.90 0.1362731
908.00 0.1362205
908.10 0.1361679
908.20 0.1361153
908.30 0.1360628
908.40 0.1360103
908.50 0.1359578
908.60 0.1359053
908.70 0.1358528
908.80 0.1358004
908.90 0.135748
909.00 0.1356956
909.10 0.1356432
909.20 0.1355908
909.30 0.1355385
909.40 0.1354861
909.50 0.1354338
909.60 0.1353815
909.70 0.1353293
909.80 0.135277
909.90 0.1352248
910.00 0.1351726
910.10 0.1351204
910.20 0.1350682
910.30 0.1350161
910.40 0.134964
910.50 0.1349119
910.60 0.1348598
910.70 0.1348077
910.80 0.1347563
910.90 0.134705
911.00 0.1346537
911.10 0.1346023
911.20 0.134551
911.30 0.1344998
911.40 0.1344485
911.50 0.1343973
911.60 0.1343461
911.70 0.1342949
911.80 0.1342437
911.90 0.1341925
912.00 0.1341414
912.10 0.1340903
912.20 0.1340392
912.30 0.1339881
912.40 0.133937
912.50 0.133886
912.60 0.133835
912.70 0.133784
912.80 0.133733
912.90 0.133682
913.00 0.1336311
913.10 0.1335801
913.20 0.1335292
913.30 0.1334783
913.40 0.1334275
913.50 0.1333766
913.60 0.1333258
913.70 0.133275
913.80 0.1332242
913.90 0.1331734
914.00 0.1331226
914.10 0.1330719
914.20 0.1330212
914.30 0.1329705
914.40 0.1329198
914.50 0.1328691
914.60 0.1328185
914.70 0.1327679
914.80 0.1327173
914.90 0.1326667
915.00 0.1326161
915.10 0.1325656
915.20 0.132515
915.30 0.1324645
915.40 0.1324138
915.50 0.1323632
915.60 0.1323127
915.70 0.1322621
915.80 0.1322116
915.90 0.1321611
916.00 0.1321106
916.10 0.1320601
916.20 0.1320096
916.30 0.1319592
916.40 0.1319088
916.50 0.1318584
916.60 0.131808
916.70 0.1317576
916.80 0.1317073
916.90 0.1316569
917.00 0.1316066
917.10 0.1315563
917.20 0.1315061
917.30 0.1314558
917.40 0.1314056
917.50 0.1313553
917.60 0.1313051
917.70 0.131255
917.80 0.1312048
917.90 0.1311547
918.00 0.1311045
918.10 0.1310544
918.20 0.1310044
918.30 0.1309543
918.40 0.1309042
918.50 0.1308542
918.60 0.1308042
918.70 0.1307542
918.80 0.1307042
918.90 0.1306543
919.00 0.1306043
919.10 0.1305544
919.20 0.1305045
919.30 0.1304547
919.40 0.1304048
919.50 0.130355
919.60 0.1303051
919.70 0.1302553
919.80 0.1302055
919.90 0.1301561
920.00 0.1301067
920.10 0.1300573
920.20 0.1300079
920.30 0.1299585
920.40 0.1299092
920.50 0.1298598
920.60 0.1298105
920.70 0.1297612
920.80 0.129712
920.90 0.1296627
921.00 0.1296135
921.10 0.1295643
921.20 0.1295151
921.30 0.1294659
921.40 0.1294167
921.50 0.1293676
921.60 0.1293184
921.70 0.1292693
921.80 0.1292202
921.90 0.1291712
922.00 0.1291221
922.10 0.1290731
922.20 0.1290241
922.30 0.1289751
922.40 0.1289261
922.50 0.1288771
922.60 0.1288282
922.70 0.1287793
922.80 0.1287304
922.90 0.1286815
923.00 0.1286326
923.10 0.1285837
923.20 0.1285349
923.30 0.1284861
923.40 0.1284373
923.50 0.1283885
923.60 0.1283397
923.70 0.128291
923.80 0.1282423
923.90 0.1281936
924.00 0.1281449
924.10 0.1280962
924.20 0.1280476
924.30 0.1279989
924.40 0.1279503
924.50 0.1279019
924.60 0.1278536
924.70 0.1278052
924.80 0.1277569
924.90 0.1277086
925.00 0.1276603
925.10 0.127612
925.20 0.1275637
925.30 0.1275155
925.40 0.1274672
925.50 0.127419
925.60 0.1273708
925.70 0.1273226
925.80 0.1272745
925.90 0.1272263
926.00 0.1271782
926.10 0.1271301
926.20 0.127082
926.30 0.127034
926.40 0.1269859
926.50 0.1269379
926.60 0.1268899
926.70 0.1268419
926.80 0.1267939
926.90 0.1267459
927.00 0.126698
927.10 0.12665
927.20 0.1266021
927.30 0.1265542
927.40 0.1265064
927.50 0.1264585
927.60 0.1264107
927.70 0.1263628
927.80 0.126315
927.90 0.1262673
928.00 0.1262195
928.10 0.1261717
928.20 0.126124
928.30 0.1260763
928.40 0.1260286
928.50 0.1259809
928.60 0.1259333
928.70 0.1258856
928.80 0.125838
928.90 0.1257904
929.00 0.1257428
929.10 0.1256958
929.20 0.1256489
929.30 0.125602
929.40 0.1255551
929.50 0.1255083
929.60 0.1254614
929.70 0.1254146
929.80 0.1253678
929.90 0.125321
930.00 0.1252742
930.10 0.1252274
930.20 0.1251807
930.30 0.125134
930.40 0.1250872
930.50 0.1250406
930.60 0.1249939
930.70 0.1249472
930.80 0.1249006
930.90 0.124854
931.00 0.1248074
931.10 0.1247608
931.20 0.1247142
931.30 0.1246676
931.40 0.1246211
931.50 0.1245746
931.60 0.1245281
931.70 0.1244816
931.80 0.1244351
931.90 0.1243887
932.00 0.1243422
932.10 0.1242958
932.20 0.1242494
932.30 0.124203
932.40 0.1241567
932.50 0.1241103
932.60 0.124064
932.70 0.1240177
932.80 0.1239714
932.90 0.1239251
933.00 0.1238788
933.10 0.1238326
933.20 0.1237863
933.30 0.1237401
933.40 0.1236939
933.50 0.1236477
933.60 0.1236016
933.70 0.1235555
933.80 0.1235094
933.90 0.1234633
934.00 0.1234172
934.10 0.1233712
934.20 0.1233252
934.30 0.1232792
934.40 0.1232332
934.50 0.1231872
934.60 0.1231412
934.70 0.1230953
934.80 0.1230494
934.90 0.1230035
935.00 0.1229576
935.10 0.1229117
935.20 0.1228658
935.30 0.12282
935.40 0.1227742
935.50 0.1227284
935.60 0.1226826
935.70 0.1226368
935.80 0.1225911
935.90 0.1225453
936.00 0.1224996
936.10 0.1224539
936.20 0.1224082
936.30 0.1223625
936.40 0.1223169
936.50 0.1222712
936.60 0.1222256
936.70 0.12218
936.80 0.1221344
936.90 0.1220888
937.00 0.1220433
937.10 0.1219977
937.20 0.1219522
937.30 0.1219067
937.40 0.1218612
937.50 0.1218158
937.60 0.1217703
937.70 0.1217249
937.80 0.1216794
937.90 0.121634
938.00 0.1215886
938.10 0.1215433
938.20 0.1214979
938.30 0.1214526
938.40 0.1214073
938.50 0.1213619
938.60 0.1213167
938.70 0.1212714
938.80 0.1212261
938.90 0.1211809
939.00 0.1211357
939.10 0.1210905
939.20 0.1210453
939.30 0.1210001
939.40 0.1209549
939.50 0.1209098
939.60 0.1208647
939.70 0.1208196
939.80 0.1207745
939.90 0.1207294
940.00 0.1206843
940.10 0.1206393
940.20 0.1205943
940.30 0.1205493
940.40 0.1205043
940.50 0.1204593
940.60 0.1204143
940.70 0.1203694
940.80 0.1203245
940.90 0.1202795
941.00 0.1202346
941.10 0.1201898
941.20 0.1201449
941.30 0.1201001
941.40 0.1200552
941.50 0.1200104
941.60 0.1199656
941.70 0.1199208
941.80 0.1198761
941.90 0.1198313
942.00 0.1197866
942.10 0.1197419
942.20 0.1196972
942.30 0.1196525
942.40 0.1196078
942.50 0.1195632
942.60 0.1195185
942.70 0.1194739
942.80 0.1194293
942.90 0.1193847
943.00 0.1193404
943.10 0.1192963
943.20 0.1192523
943.30 0.1192082
943.40 0.1191642
943.50 0.1191202
943.60 0.1190763
943.70 0.1190323
943.80 0.1189884
943.90 0.1189444
944.00 0.1189005
944.10 0.1188566
944.20 0.1188127
944.30 0.1187689
944.40 0.118725
944.50 0.1186812
944.60 0.1186374
944.70 0.1185936
944.80 0.1185498
944.90 0.118506
945.00 0.1184623
945.10 0.1184185
945.20 0.1183748
945.30 0.1183311
945.40 0.1182874
945.50 0.1182437
945.60 0.1182001
945.70 0.1181564
945.80 0.1181128
945.90 0.1180692
946.00 0.1180256
946.10 0.117982
946.20 0.1179385
946.30 0.1178949
946.40 0.1178514
946.50 0.1178079
946.60 0.1177644
946.70 0.1177209
946.80 0.1176774
946.90 0.117634
947.00 0.1175905
947.10 0.1175471
947.20 0.1175037
947.30 0.1174603
947.40 0.1174169
947.50 0.1173736
947.60 0.1173302
947.70 0.1172869
947.80 0.1172436
947.90 0.1172003
948.00 0.117157
948.10 0.1171138
948.20 0.1170705
948.30 0.1170273
948.40 0.1169841
948.50 0.1169409
948.60 0.1168977
948.70 0.1168545
948.80 0.1168113
948.90 0.1167682
949.00 0.1167251
949.10 0.116682
949.20 0.1166389
949.30 0.1165958
949.40 0.1165527
949.50 0.1165097
949.60 0.1164667
949.70 0.1164236
949.80 0.1163806
949.90 0.1163377
950.00 0.1162947
950.10 0.1162517
950.20 0.1162088
950.30 0.1161659
950.40 0.116123
950.50 0.1160801
950.60 0.1160372
950.70 0.1159943
950.80 0.1159515
950.90 0.1159087
951.00 0.1158659
951.10 0.1158231
951.20 0.1157803
951.30 0.1157375
951.40 0.1156948
951.50 0.115652
951.60 0.1156093
951.70 0.1155666
951.80 0.1155239
951.90 0.1154812
952.00 0.1154386
952.10 0.1153959
952.20 0.1153533
952.30 0.1153107
952.40 0.1152681
952.50 0.1152255
952.60 0.115183
952.70 0.1151405
952.80 0.115098
952.90 0.1150555
953.00 0.115013
953.10 0.1149706
953.20 0.1149281
953.30 0.1148857
953.40 0.1148433
953.50 0.1148009
953.60 0.1147585
953.70 0.1147161
953.80 0.1146738
953.90 0.1146314
954.00 0.1145891
954.10 0.1145468
954.20 0.1145045
954.30 0.1144623
954.40 0.11442
954.50 0.1143778
954.60 0.1143355
954.70 0.1142933
954.80 0.1142511
954.90 0.1142089
955.00 0.1141668
955.10 0.1141246
955.20 0.1140825
955.30 0.1140403
955.40 0.1139982
955.50 0.1139561
955.60 0.1139141
955.70 0.113872
955.80 0.11383
955.90 0.1137879
956.00 0.1137459
956.10 0.1137039
956.20 0.1136619
956.30 0.1136199
956.40 0.113578
956.50 0.113536
956.60 0.1134941
956.70 0.1134522
956.80 0.1134103
956.90 0.1133684
957.00 0.1133266
957.10 0.1132847
957.20 0.113243
957.30 0.1132015
957.40 0.11316
957.50 0.1131185
957.60 0.113077
957.70 0.1130355
957.80 0.1129941
957.90 0.1129526
958.00 0.1129112
958.10 0.1128698
958.20 0.1128284
958.30 0.112787
958.40 0.1127456
958.50 0.1127043
958.60 0.112663
958.70 0.1126216
958.80 0.1125803
958.90 0.112539
959.00 0.1124978
959.10 0.1124565
959.20 0.1124153
959.30 0.112374
959.40 0.1123328
959.50 0.1122916
959.60 0.1122504
959.70 0.1122092
959.80 0.1121681
959.90 0.1121269
960.00 0.1120858
960.10 0.1120447
960.20 0.1120036
960.30 0.1119625
960.40 0.1119214
960.50 0.1118804
960.60 0.1118393
960.70 0.1117983
960.80 0.1117573
960.90 0.1117163
961.00 0.1116753
961.10 0.1116344
961.20 0.1115934
961.30 0.1115525
961.40 0.1115115
961.50 0.1114706
961.60 0.1114297
961.70 0.1113889
961.80 0.111348
961.90 0.1113071
962.00 0.1112666
962.10 0.1112261
962.20 0.1111856
962.30 0.1111451
962.40 0.1111046
962.50 0.1110642
962.60 0.1110238
962.70 0.1109833
962.80 0.1109429
962.90 0.1109026
963.00 0.1108622
963.10 0.1108218
963.20 0.1107815
963.30 0.1107411
963.40 0.1107008
963.50 0.1106605
963.60 0.1106202
963.70 0.11058
963.80 0.1105397
963.90 0.1104995
964.00 0.1104592
964.10 0.110419
964.20 0.1103788
964.30 0.1103386
964.40 0.1102985
964.50 0.1102583
964.60 0.1102181
964.70 0.110178
964.80 0.1101379
964.90 0.1100978
965.00 0.1100577
965.10 0.1100176
965.20 0.1099776
965.30 0.1099375
965.40 0.1098975
965.50 0.1098575
965.60 0.1098175
965.70 0.1097775
965.80 0.1097375
965.90 0.1096976
966.00 0.1096576
966.10 0.1096177
966.20 0.1095778
966.30 0.1095379
966.40 0.109498
966.50 0.1094581
966.60 0.1094182
966.70 0.1093784
966.80 0.1093386
966.90 0.1092987
967.00 0.1092589
967.10 0.1092192
967.20 0.1091794
967.30 0.1091396
967.40 0.1090999
967.50 0.1090601
967.60 0.1090204
967.70 0.1089807
967.80 0.108941
967.90 0.1089013
968.00 0.1088617
968.10 0.108822
968.20 0.1087824
968.30 0.1087428
968.40 0.1087032
968.50 0.1086636
968.60 0.108624
968.70 0.1085844
968.80 0.1085449
968.90 0.1085054
969.00 0.1084658
969.10 0.1084263
969.20 0.1083868
969.30 0.1083473
969.40 0.1083079
969.50 0.1082684
969.60 0.108229
969.70 0.1081896
969.80 0.1081502
969.90 0.1081108
970.00 0.1080714
970.10 0.108032
970.20 0.1079926
970.30 0.1079533
970.40 0.107914
970.50 0.1078747
970.60 0.1078354
970.70 0.1077961
970.80 0.1077568
970.90 0.1077176
971.00 0.1076783
971.10 0.1076391
971.20 0.1075999
971.30 0.1075607
971.40 0.1075215
971.50 0.1074823
971.60 0.1074432
971.70 0.1074043
971.80 0.1073653
971.90 0.1073264
972.00 0.1072874
972.10 0.1072485
972.20 0.1072096
972.30 0.1071707
972.40 0.1071318
972.50 0.1070929
972.60 0.1070541
972.70 0.1070152
972.80 0.1069764
972.90 0.1069376
973.00 0.1068988
973.10 0.10686
973.20 0.1068212
973.30 0.1067825
973.40 0.1067437
973.50 0.106705
973.60 0.1066663
973.70 0.1066276
973.80 0.1065889
973.90 0.1065502
974.00 0.1065116
974.10 0.1064729
974.20 0.1064343
974.30 0.1063957
974.40 0.106357
974.50 0.1063184
974.60 0.1062799
974.70 0.1062413
974.80 0.1062027
974.90 0.1061642
975.00 0.1061257
975.10 0.1060872
975.20 0.1060487
975.30 0.1060102
975.40 0.1059717
975.50 0.1059332
975.60 0.1058948
975.70 0.1058564
975.80 0.1058179
975.90 0.1057795
976.00 0.1057412
976.10 0.1057028
976.20 0.1056644
976.30 0.1056261
976.40 0.1055877
976.50 0.1055494
976.60 0.1055111
976.70 0.1054728
976.80 0.1054345
976.90 0.1053962
977.00 0.105358
977.10 0.1053197
977.20 0.1052815
977.30 0.1052433
977.40 0.1052051
977.50 0.1051669
977.60 0.1051287
977.70 0.1050906
977.80 0.1050524
977.90 0.1050143
978.00 0.1049761
978.10 0.104938
978.20 0.1048999
978.30 0.1048619
978.40 0.1048238
978.50 0.1047857
978.60 0.1047477
978.70 0.1047097
978.80 0.1046716
978.90 0.1046336
979.00 0.1045957
979.10 0.1045577
979.20 0.1045197
979.30 0.1044818
979.40 0.1044438
979.50 0.1044059
979.60 0.104368
979.70 0.1043301
979.80 0.1042922
979.90 0.1042544
980.00 0.1042165
980.10 0.1041787
980.20 0.1041408
980.30 0.104103
980.40 0.1040652
980.50 0.1040274
980.60 0.1039896
980.70 0.1039519
980.80 0.1039141
980.90 0.1038764
981.00 0.1038387
981.10 0.103801
981.20 0.1037633
981.30 0.1037258
981.40 0.1036886
981.50 0.1036513
981.60 0.1036141
981.70 0.1035769
981.80 0.1035398
981.90 0.1035026
982.00 0.1034654
982.10 0.1034283
982.20 0.1033912
982.30 0.103354
982.40 0.1033169
982.50 0.1032798
982.60 0.1032428
982.70 0.1032057
982.80 0.1031686
982.90 0.1031316
983.00 0.1030946
983.10 0.1030576
983.20 0.1030206
983.30 0.1029836
983.40 0.1029466
983.50 0.1029096
983.60 0.1028727
983.70 0.1028357
983.80 0.1027988
983.90 0.1027619
984.00 0.102725
984.10 0.1026881
984.20 0.1026513
984.30 0.1026144
984.40 0.1025775
984.50 0.1025407
984.60 0.1025039
984.70 0.1024671
984.80 0.1024303
984.90 0.1023935
985.00 0.1023567
985.10 0.10232
985.20 0.1022832
985.30 0.1022465
985.40 0.1022098
985.50 0.1021731
985.60 0.1021364
985.70 0.1020997
985.80 0.102063
985.90 0.1020264
986.00 0.1019897
986.10 0.1019531
986.20 0.1019165
986.30 0.1018799
986.40 0.1018433
986.50 0.1018067
986.60 0.1017702
986.70 0.1017336
986.80 0.1016971
986.90 0.1016605
987.00 0.101624
987.10 0.1015875
987.20 0.101551
987.30 0.1015146
987.40 0.1014781
987.50 0.1014417
987.60 0.1014052
987.70 0.1013688
987.80 0.1013324
987.90 0.101296
988.00 0.1012596
988.10 0.1012232
988.20 0.1011869
988.30 0.1011505
988.40 0.1011142
988.50 0.1010778
988.60 0.1010415
988.70 0.1010052
988.80 0.1009689
988.90 0.1009327
989.00 0.1008964
989.10 0.1008602
989.20 0.1008239
989.30 0.1007877
989.40 0.1007515
989.50 0.1007153
989.60 0.1006791
989.70 0.1006429
989.80 0.1006068
989.90 0.1005706
990.00 0.1005345
990.10 0.1004984
990.20 0.1004623
990.30 0.1004262
990.40 0.1003901
990.50 0.100354
990.60 0.1003179
990.70 0.1002819
990.80 0.1002459
990.90 0.1002098
991.00 0.1001738
991.10 0.1001378
991.20 0.1001019
991.30 0.1000659
991.40 0.10003
991.50 0.09999406
991.60 0.09995815
991.70 0.09992225
991.80 0.09988637
991.90 0.09985049
992.00 0.09981463
992.10 0.09977878
992.20 0.09974294
992.30 0.09970712
992.40 0.0996713
992.50 0.0996355
992.60 0.09959971
992.70 0.09956394
992.80 0.09952818
992.90 0.09949243
993.00 0.09945669
993.10 0.09942096
993.20 0.09938525
993.30 0.09934955
993.40 0.09931386
993.50 0.09927818
993.60 0.09924252
993.70 0.09920686
993.80 0.09917123
993.90 0.0991356
994.00 0.09909998
994.10 0.09906438
994.20 0.09902879
994.30 0.09899321
994.40 0.09895765
994.50 0.09892209
994.60 0.09888655
994.70 0.09885102
994.80 0.09881551
994.90 0.09878
995.00 0.09874451
995.10 0.09870903
995.20 0.09867357
995.30 0.09863811
995.40 0.09860267
995.50 0.09856724
995.60 0.09853182
995.70 0.09849641
995.80 0.09846102
995.90 0.09842564
996.00 0.09839027
996.10 0.09835491
996.20 0.09831957
996.30 0.09828424
996.40 0.09824893
996.50 0.09821362
996.60 0.09817833
996.70 0.09814305
996.80 0.09810778
996.90 0.09807252
997.00 0.09803728
997.10 0.09800205
997.20 0.09796683
997.30 0.09793162
997.40 0.09789642
997.50 0.09786124
997.60 0.09782607
997.70 0.09779091
997.80 0.09775576
997.90 0.09772063
998.00 0.0976855
998.10 0.09765039
998.20 0.09761529
998.30 0.09758021
998.40 0.09754513
998.50 0.09751007
998.60 0.09747502
998.70 0.09743998
998.80 0.09740496
998.90 0.09736994
999.00 0.09733494
999.10 0.09729995
999.20 0.09726497
999.30 0.09723001
999.40 0.09719505
999.50 0.09716011
999.60 0.09712518
999.70 0.09709026
999.80 0.09705536
999.90 0.09702047
1000.00 0.09698558
1000.10 0.09695071
1000.20 0.09691586
1000.30 0.09688101
1000.40 0.09684618
1000.50 0.09681136
1000.60 0.09677655
1000.70 0.09674175
1000.80 0.09670696
1000.90 0.09667219
1001.00 0.09663747
1001.10 0.09660287
1001.20 0.09656828
1001.30 0.09653371
1001.40 0.09649915
1001.50 0.09646459
1001.60 0.09643006
1001.70 0.09639553
1001.80 0.09636101
1001.90 0.09632651
1002.00 0.09629202
1002.10 0.09625754
1002.20 0.09622307
1002.30 0.09618861
1002.40 0.09615417
1002.50 0.09611974
1002.60 0.09608532
1002.70 0.09605091
1002.80 0.09601651
1002.90 0.09598213
1003.00 0.09594775
1003.10 0.09591339
1003.20 0.09587904
1003.30 0.0958447
1003.40 0.09581038
1003.50 0.09577606
1003.60 0.09574176
1003.70 0.09570747
1003.80 0.09567319
1003.90 0.09563892
1004.00 0.09560467
1004.10 0.09557042
1004.20 0.09553619
1004.30 0.09550197
1004.40 0.09546776
1004.50 0.09543356
1004.60 0.09539938
1004.70 0.09536521
1004.80 0.09533104
1004.90 0.09529689
1005.00 0.09526276
1005.10 0.09522863
1005.20 0.09519451
1005.30 0.09516041
1005.40 0.09512632
1005.50 0.09509224
1005.60 0.09505817
1005.70 0.09502411
1005.80 0.09499007
1005.90 0.09495604
1006.00 0.09492207
1006.10 0.09488831
1006.20 0.09485456
1006.30 0.09482082
1006.40 0.09478709
1006.50 0.09475338
1006.60 0.09471968
1006.70 0.09468599
1006.80 0.09465231
1006.90 0.09461864
1007.00 0.09458498
1007.10 0.09455133
1007.20 0.0945177
1007.30 0.09448408
1007.40 0.09445047
1007.50 0.09441687
1007.60 0.09438328
1007.70 0.0943497
1007.80 0.09431614
1007.90 0.09428259
1008.00 0.09424904
1008.10 0.09421551
1008.20 0.09418199
1008.30 0.09414849
1008.40 0.09411499
1008.50 0.09408151
1008.60 0.09404803
1008.70 0.09401457
1008.80 0.09398112
1008.90 0.09394768
1009.00 0.09391425
1009.10 0.09388084
1009.20 0.09384743
1009.30 0.09381404
1009.40 0.09378066
1009.50 0.09374728
1009.60 0.09371393
1009.70 0.09368058
1009.80 0.09364724
1009.90 0.09361392
1010.00 0.0935806
1010.10 0.0935473
1010.20 0.09351401
1010.30 0.09348073
1010.40 0.09344746
1010.50 0.0934142
1010.60 0.09338096
1010.70 0.09334772
1010.80 0.0933145
1010.90 0.09328129
1011.00 0.09324811
1011.10 0.09321507
1011.20 0.09318204
1011.30 0.09314902
1011.40 0.09311602
1011.50 0.09308302
1011.60 0.09305004
1011.70 0.09301706
1011.80 0.0929841
1011.90 0.09295115
1012.00 0.09291821
1012.10 0.09288528
1012.20 0.09285237
1012.30 0.09281946
1012.40 0.09278657
1012.50 0.09275368
1012.60 0.09272081
1012.70 0.09268795
1012.80 0.0926551
1012.90 0.09262226
1013.00 0.09258943
1013.10 0.09255662
1013.20 0.09252381
1013.30 0.09249102
1013.40 0.09245823
1013.50 0.09242546
1013.60 0.0923927
1013.70 0.09235995
1013.80 0.09232721
1013.90 0.09229449
1014.00 0.09226177
1014.10 0.09222906
1014.20 0.09219637
1014.30 0.09216369
1014.40 0.09213102
1014.50 0.09209836
1014.60 0.09206571
1014.70 0.09203307
1014.80 0.09200044
1014.90 0.09196782
1015.00 0.09193522
1015.10 0.09190262
1015.20 0.09187004
1015.30 0.09183747
1015.40 0.09180491
1015.50 0.09177236
1015.60 0.09173982
1015.70 0.09170729
1015.80 0.09167477
1015.90 0.09164227
1016.00 0.09160977
1016.10 0.09157729
1016.20 0.09154481
1016.30 0.09151235
1016.40 0.0914799
1016.50 0.09144746
1016.60 0.09141503
1016.70 0.09138261
1016.80 0.09135021
1016.90 0.09131781
1017.00 0.09128543
1017.10 0.09125305
1017.20 0.09122069
1017.30 0.09118834
1017.40 0.091156
1017.50 0.09112367
1017.60 0.09109135
1017.70 0.09105904
1017.80 0.09102674
1017.90 0.09099445
1018.00 0.09096218
1018.10 0.09092991
1018.20 0.09089766
1018.30 0.09086542
1018.40 0.09083319
1018.50 0.09080096
1018.60 0.09076875
1018.70 0.09073656
1018.80 0.09070437
1018.90 0.09067219
1019.00 0.09064002
1019.10 0.09060787
1019.20 0.09057572
1019.30 0.09054359
1019.40 0.09051147
1019.50 0.09047935
1019.60 0.09044725
1019.70 0.09041516
1019.80 0.09038308
1019.90 0.09035101
1020.00 0.09031896
1020.10 0.09028691
1020.20 0.09025487
1020.30 0.09022285
1020.40 0.09019083
1020.50 0.09015883
1020.60 0.09012684
1020.70 0.09009485
1020.80 0.09006288
1020.90 0.09003092
1021.00 0.08999897
1021.10 0.08996704
1021.20 0.08993526
1021.30 0.08990348
1021.40 0.08987172
1021.50 0.08983997
1021.60 0.08980822
1021.70 0.08977649
1021.80 0.08974477
1021.90 0.08971306
1022.00 0.08968136
1022.10 0.08964967
1022.20 0.08961799
1022.30 0.08958633
1022.40 0.08955467
1022.50 0.08952302
1022.60 0.08949139
1022.70 0.08945976
1022.80 0.08942815
1022.90 0.08939654
1023.00 0.08936495
1023.10 0.08933337
1023.20 0.0893018
1023.30 0.08927024
1023.40 0.08923869
1023.50 0.08920715
1023.60 0.08917562
1023.70 0.0891441
1023.80 0.08911259
1023.90 0.08908109
1024.00 0.08904961
1024.10 0.08901813
1024.20 0.08898667
1024.30 0.08895521
1024.40 0.08892377
1024.50 0.08889233
1024.60 0.08886091
1024.70 0.0888295
1024.80 0.08879809
1024.90 0.0887667
1025.00 0.08873532
1025.10 0.08870395
1025.20 0.08867259
1025.30 0.08864124
1025.40 0.0886099
1025.50 0.08857858
1025.60 0.08854726
1025.70 0.08851595
1025.80 0.08848465
1025.90 0.08845337
1026.00 0.08842209
1026.10 0.08839083
1026.20 0.08835957
1026.30 0.08832833
1026.40 0.08829709
1026.50 0.08826586
1026.60 0.08823465
1026.70 0.08820344
1026.80 0.08817225
1026.90 0.08814107
1027.00 0.08810989
1027.10 0.08807873
1027.20 0.08804758
1027.30 0.08801644
1027.40 0.0879853
1027.50 0.08795418
1027.60 0.08792307
1027.70 0.08789197
1027.80 0.08786088
1027.90 0.0878298
1028.00 0.08779873
1028.10 0.08776768
1028.20 0.08773663
1028.30 0.08770559
1028.40 0.08767456
1028.50 0.08764355
1028.60 0.08761254
1028.70 0.08758154
1028.80 0.08755056
1028.90 0.08751958
1029.00 0.08748862
1029.10 0.08745766
1029.20 0.08742672
1029.30 0.08739578
1029.40 0.08736486
1029.50 0.08733395
1029.60 0.08730305
1029.70 0.08727215
1029.80 0.08724127
1029.90 0.0872104
1030.00 0.08717954
1030.10 0.08714869
1030.20 0.08711785
1030.30 0.08708702
1030.40 0.0870562
1030.50 0.08702539
1030.60 0.08699459
1030.70 0.0869638
1030.80 0.08693302
1030.90 0.08690225
1031.00 0.08687149
1031.10 0.08684075
1031.20 0.08681001
1031.30 0.08677928
1031.40 0.0867487
1031.50 0.08671813
1031.60 0.08668758
1031.70 0.08665703
1031.80 0.0866265
1031.90 0.08659597
1032.00 0.08656545
1032.10 0.08653495
1032.20 0.08650445
1032.30 0.08647397
1032.40 0.08644349
1032.50 0.08641303
1032.60 0.08638258
1032.70 0.08635213
1032.80 0.0863217
1032.90 0.08629127
1033.00 0.08626086
1033.10 0.08623046
1033.20 0.08620006
1033.30 0.08616968
1033.40 0.08613931
1033.50 0.08610894
1033.60 0.08607859
1033.70 0.08604825
1033.80 0.08601792
1033.90 0.08598759
1034.00 0.08595728
1034.10 0.08592698
1034.20 0.08589669
1034.30 0.0858664
1034.40 0.08583613
1034.50 0.08580587
1034.60 0.08577562
1034.70 0.08574538
1034.80 0.08571515
1034.90 0.08568492
1035.00 0.08565471
1035.10 0.08562451
1035.20 0.08559432
1035.30 0.08556414
1035.40 0.08553397
1035.50 0.08550381
1035.60 0.08547366
1035.70 0.08544352
1035.80 0.08541339
1035.90 0.08538326
1036.00 0.08535315
1036.10 0.08532305
1036.20 0.08529296
1036.30 0.08526288
1036.40 0.08523281
1036.50 0.08520284
1036.60 0.08517302
1036.70 0.0851432
1036.80 0.0851134
1036.90 0.08508361
1037.00 0.08505383
1037.10 0.08502405
1037.20 0.08499429
1037.30 0.08496454
1037.40 0.08493479
1037.50 0.08490506
1037.60 0.08487534
1037.70 0.08484562
1037.80 0.08481592
1037.90 0.08478623
1038.00 0.08475654
1038.10 0.08472687
1038.20 0.0846972
1038.30 0.08466755
1038.40 0.0846379
1038.50 0.08460827
1038.60 0.08457864
1038.70 0.08454903
1038.80 0.08451942
1038.90 0.08448983
1039.00 0.08446024
1039.10 0.08443067
1039.20 0.0844011
1039.30 0.08437155
1039.40 0.084342
1039.50 0.08431246
1039.60 0.08428294
1039.70 0.08425342
1039.80 0.08422391
1039.90 0.08419441
1040.00 0.08416493
1040.10 0.08413545
1040.20 0.08410598
1040.30 0.08407652
1040.40 0.08404708
1040.50 0.08401764
1040.60 0.08398821
1040.70 0.08395879
1040.80 0.08392938
1040.90 0.08389998
1041.00 0.08387059
1041.10 0.08384121
1041.20 0.08381184
1041.30 0.08378248
1041.40 0.08375313
1041.50 0.08372379
1041.60 0.08369446
1041.70 0.08366524
1041.80 0.08363606
1041.90 0.08360689
1042.00 0.08357773
1042.10 0.08354858
1042.20 0.08351944
1042.30 0.08349031
1042.40 0.08346119
1042.50 0.08343208
1042.60 0.08340297
1042.70 0.08337388
1042.80 0.0833448
1042.90 0.08331572
1043.00 0.08328666
1043.10 0.08325761
1043.20 0.08322856
1043.30 0.08319953
1043.40 0.0831705
1043.50 0.08314148
1043.60 0.08311248
1043.70 0.08308348
1043.80 0.08305449
1043.90 0.08302552
1044.00 0.08299655
1044.10 0.08296759
1044.20 0.08293864
1044.30 0.0829097
1044.40 0.08288077
1044.50 0.08285185
1044.60 0.08282294
1044.70 0.08279404
1044.80 0.08276515
1044.90 0.08273626
1045.00 0.08270739
1045.10 0.08267853
1045.20 0.08264968
1045.30 0.08262083
1045.40 0.082592
1045.50 0.08256317
1045.60 0.08253436
1045.70 0.08250555
1045.80 0.08247675
1045.90 0.08244797
1046.00 0.08241919
1046.10 0.08239042
1046.20 0.08236166
1046.30 0.08233292
1046.40 0.08230418
1046.50 0.08227545
1046.60 0.08224673
1046.70 0.08221801
1046.80 0.08218931
1046.90 0.08216062
1047.00 0.08213194
1047.10 0.08210327
1047.20 0.0820746
1047.30 0.08204595
1047.40 0.0820173
1047.50 0.08198867
1047.60 0.08196004
1047.70 0.08193143
1047.80 0.08190282
1047.90 0.08187422
1048.00 0.08184563
1048.10 0.08181705
1048.20 0.08178848
1048.30 0.08175992
1048.40 0.08173137
1048.50 0.08170283
1048.60 0.0816743
1048.70 0.08164578
1048.80 0.08161727
1048.90 0.08158876
1049.00 0.08156027
1049.10 0.08153178
1049.20 0.08150331
1049.30 0.08147484
1049.40 0.08144639
1049.50 0.08141794
1049.60 0.0813895
1049.70 0.08136107
1049.80 0.08133265
1049.90 0.08130424
1050.00 0.08127584
1050.10 0.08124745
1050.20 0.08121907
1050.30 0.0811907
1050.40 0.08116233
1050.50 0.08113398
1050.60 0.08110564
1050.70 0.0810773
1050.80 0.08104897
1050.90 0.08102066
1051.00 0.08099235
1051.10 0.08096405
1051.20 0.08093576
1051.30 0.08090749
1051.40 0.08087922
1051.50 0.08085095
1051.60 0.0808227
1051.70 0.08079446
1051.80 0.08076623
1051.90 0.080738
1052.00 0.08070979
1052.10 0.08068174
1052.20 0.08065379
1052.30 0.08062584
1052.40 0.0805979
1052.50 0.08056997
1052.60 0.08054205
1052.70 0.08051414
1052.80 0.08048623
1052.90 0.08045834
1053.00 0.08043045
1053.10 0.08040258
1053.20 0.08037471
1053.30 0.08034686
1053.40 0.08031901
1053.50 0.08029117
1053.60 0.08026334
1053.70 0.08023552
1053.80 0.08020771
1053.90 0.0801799
1054.00 0.08015211
1054.10 0.08012433
1054.20 0.08009655
1054.30 0.08006879
1054.40 0.08004103
1054.50 0.08001328
1054.60 0.07998554
1054.70 0.07995781
1054.80 0.07993009
1054.90 0.07990238
1055.00 0.07987468
1055.10 0.07984699
1055.20 0.0798193
1055.30 0.07979163
1055.40 0.07976396
1055.50 0.0797363
1055.60 0.07970866
1055.70 0.07968102
1055.80 0.07965339
1055.90 0.07962577
1056.00 0.07959815
1056.10 0.07957055
1056.20 0.07954296
1056.30 0.07951537
1056.40 0.0794878
1056.50 0.07946023
1056.60 0.07943267
1056.70 0.07940512
1056.80 0.07937758
1056.90 0.07935005
1057.00 0.07932253
1057.10 0.07929502
1057.20 0.07926751
1057.30 0.07924002
1057.40 0.07921253
1057.50 0.07918506
1057.60 0.07915759
1057.70 0.07913013
1057.80 0.07910268
1057.90 0.07907524
1058.00 0.07904781
1058.10 0.07902038
1058.20 0.07899297
1058.30 0.07896556
1058.40 0.07893817
1058.50 0.07891078
1058.60 0.0788834
1058.70 0.07885603
1058.80 0.07882867
1058.90 0.07880132
1059.00 0.07877398
1059.10 0.07874665
1059.20 0.07871932
1059.30 0.078692
1059.40 0.0786647
1059.50 0.0786374
1059.60 0.07861011
1059.70 0.07858283
1059.80 0.07855556
1059.90 0.0785283
1060.00 0.07850104
1060.10 0.0784738
1060.20 0.07844656
1060.30 0.07841934
1060.40 0.07839212
1060.50 0.07836491
1060.60 0.07833771
1060.70 0.07831052
1060.80 0.07828333
1060.90 0.07825616
1061.00 0.078229
1061.10 0.07820184
1061.20 0.07817469
1061.30 0.07814755
1061.40 0.07812043
1061.50 0.0780933
1061.60 0.07806619
1061.70 0.07803909
1061.80 0.078012
1061.90 0.07798491
1062.00 0.07795783
1062.10 0.07793077
1062.20 0.07790371
1062.30 0.07787666
1062.40 0.07784962
1062.50 0.07782258
1062.60 0.07779557
1062.70 0.07776857
1062.80 0.07774158
1062.90 0.0777146
1063.00 0.07768762
1063.10 0.07766066
1063.20 0.0776337
1063.30 0.07760676
1063.40 0.07757982
1063.50 0.07755289
1063.60 0.07752597
1063.70 0.07749906
1063.80 0.07747216
1063.90 0.07744526
1064.00 0.07741838
1064.10 0.0773915
1064.20 0.07736463
1064.30 0.07733777
1064.40 0.07731092
1064.50 0.07728408
1064.60 0.07725725
1064.70 0.07723043
1064.80 0.07720361
1064.90 0.0771768
1065.00 0.07715001
1065.10 0.07712322
1065.20 0.07709644
1065.30 0.07706966
1065.40 0.0770429
1065.50 0.07701615
1065.60 0.0769894
1065.70 0.07696266
1065.80 0.07693593
1065.90 0.07690921
1066.00 0.0768825
1066.10 0.0768558
1066.20 0.07682911
1066.30 0.07680242
1066.40 0.07677575
1066.50 0.07674908
1066.60 0.07672242
1066.70 0.07669577
1066.80 0.07666913
1066.90 0.07664249
1067.00 0.07661587
1067.10 0.07658925
1067.20 0.07656264
1067.30 0.07653605
1067.40 0.07650946
1067.50 0.07648287
1067.60 0.0764563
1067.70 0.07642974
1067.80 0.07640318
1067.90 0.0763767
1068.00 0.07635037
1068.10 0.07632405
1068.20 0.07629774
1068.30 0.07627144
1068.40 0.07624514
1068.50 0.07621885
1068.60 0.07619257
1068.70 0.0761663
1068.80 0.07614004
1068.90 0.07611379
1069.00 0.07608754
1069.10 0.07606131
1069.20 0.07603508
1069.30 0.07600886
1069.40 0.07598265
1069.50 0.07595645
1069.60 0.07593025
1069.70 0.07590407
1069.80 0.07587789
1069.90 0.07585172
1070.00 0.07582556
1070.10 0.07579941
1070.20 0.07577327
1070.30 0.07574714
1070.40 0.07572101
1070.50 0.07569489
1070.60 0.07566878
1070.70 0.07564268
1070.80 0.07561659
1070.90 0.0755905
1071.00 0.07556443
1071.10 0.07553836
1071.20 0.0755123
1071.30 0.07548625
1071.40 0.07546021
1071.50 0.07543418
1071.60 0.07540815
1071.70 0.07538214
1071.80 0.07535613
1071.90 0.07533013
1072.00 0.07530414
1072.10 0.07527815
1072.20 0.07525218
1072.30 0.07522621
1072.40 0.07520025
1072.50 0.0751743
1072.60 0.07514836
1072.70 0.07512243
1072.80 0.07509651
1072.90 0.07507059
1073.00 0.07504468
1073.10 0.07501878
1073.20 0.07499292
1073.30 0.07496715
1073.40 0.0749414
1073.50 0.07491565
1073.60 0.07488991
1073.70 0.07486418
1073.80 0.07483846
1073.90 0.07481275
1074.00 0.07478704
1074.10 0.07476135
1074.20 0.07473566
1074.30 0.07470998
1074.40 0.07468431
1074.50 0.07465864
1074.60 0.07463299
1074.70 0.07460734
1074.80 0.0745817
1074.90 0.07455607
1075.00 0.07453045
1075.10 0.07450484
1075.20 0.07447923
1075.30 0.07445363
1075.40 0.07442804
1075.50 0.07440246
1075.60 0.07437689
1075.70 0.07435132
1075.80 0.07432577
1075.90 0.07430022
1076.00 0.07427468
1076.10 0.07424915
1076.20 0.07422362
1076.30 0.07419811
1076.40 0.0741726
1076.50 0.0741471
1076.60 0.07412161
1076.70 0.07409613
1076.80 0.07407066
1076.90 0.07404519
1077.00 0.07401973
1077.10 0.07399428
1077.20 0.07396884
1077.30 0.07394341
1077.40 0.07391798
1077.50 0.07389256
1077.60 0.07386715
1077.70 0.07384175
1077.80 0.07381636
1077.90 0.07379098
1078.00 0.0737656
1078.10 0.07374023
1078.20 0.07371487
1078.30 0.07368952
1078.40 0.07366418
1078.50 0.07363884
1078.60 0.07361362
1078.70 0.07358851
1078.80 0.0735634
1078.90 0.0735383
1079.00 0.07351321
1079.10 0.07348813
1079.20 0.07346306
1079.30 0.07343799
1079.40 0.07341293
1079.50 0.07338788
1079.60 0.07336284
1079.70 0.0733378
1079.80 0.07331278
1079.90 0.07328776
1080.00 0.07326275
1080.10 0.07323775
1080.20 0.07321275
1080.30 0.07318777
1080.40 0.07316279
1080.50 0.07313782
1080.60 0.07311285
1080.70 0.0730879
1080.80 0.07306295
1080.90 0.07303802
1081.00 0.07301308
1081.10 0.07298816
1081.20 0.07296325
1081.30 0.07293834
1081.40 0.07291344
1081.50 0.07288855
1081.60 0.07286367
1081.70 0.07283879
1081.80 0.07281393
1081.90 0.07278907
1082.00 0.07276422
1082.10 0.07273938
1082.20 0.07271454
1082.30 0.07268971
1082.40 0.07266489
1082.50 0.07264008
1082.60 0.07261528
1082.70 0.07259048
1082.80 0.0725657
1082.90 0.07254092
1083.00 0.07251615
1083.10 0.07249138
1083.20 0.07246663
1083.30 0.07244188
1083.40 0.07241714
1083.50 0.07239241
1083.60 0.07236768
1083.70 0.07234297
1083.80 0.07231826
1083.90 0.07229356
1084.00 0.07226896
1084.10 0.07224439
1084.20 0.07221983
1084.30 0.07219527
1084.40 0.07217073
1084.50 0.07214619
1084.60 0.07212165
1084.70 0.07209713
1084.80 0.07207261
1084.90 0.0720481
1085.00 0.0720236
1085.10 0.07199911
1085.20 0.07197462
1085.30 0.07195014
1085.40 0.07192567
1085.50 0.07190121
1085.60 0.07187676
1085.70 0.07185231
1085.80 0.07182787
1085.90 0.07180344
1086.00 0.07177902
1086.10 0.0717546
1086.20 0.07173019
1086.30 0.07170579
1086.40 0.0716814
1086.50 0.07165702
1086.60 0.07163264
1086.70 0.07160827
1086.80 0.07158391
1086.90 0.07155956
1087.00 0.07153521
1087.10 0.07151087
1087.20 0.07148654
1087.30 0.07146222
1087.40 0.07143791
1087.50 0.0714136
1087.60 0.0713893
1087.70 0.07136501
1087.80 0.07134072
1087.90 0.07131645
1088.00 0.07129218
1088.10 0.07126792
1088.20 0.07124367
1088.30 0.07121942
1088.40 0.07119518
1088.50 0.07117095
1088.60 0.07114673
1088.70 0.07112252
1088.80 0.07109831
1088.90 0.07107411
1089.00 0.07104992
1089.10 0.07102574
1089.20 0.07100156
1089.30 0.07097739
1089.40 0.07095323
1089.50 0.07092908
1089.60 0.07090493
1089.70 0.07088079
1089.80 0.07085666
1089.90 0.07083253
1090.00 0.07080842
1090.10 0.07078431
1090.20 0.07076021
1090.30 0.07073611
1090.40 0.07071203
1090.50 0.07068795
1090.60 0.07066388
1090.70 0.07063981
1090.80 0.07061576
1090.90 0.07059171
1091.00 0.07056767
1091.10 0.07054364
1091.20 0.07051961
1091.30 0.0704956
1091.40 0.07047159
1091.50 0.07044758
1091.60 0.07042359
1091.70 0.0703996
1091.80 0.07037562
1091.90 0.07035165
1092.00 0.07032769
1092.10 0.07030373
1092.20 0.07027978
1092.30 0.07025584
1092.40 0.07023191
1092.50 0.07020798
1092.60 0.07018406
1092.70 0.07016015
1092.80 0.07013625
1092.90 0.07011235
1093.00 0.07008846
1093.10 0.07006458
1093.20 0.07004071
1093.30 0.07001684
1093.40 0.06999299
1093.50 0.06996914
1093.60 0.06994529
1093.70 0.06992146
1093.80 0.06989763
1093.90 0.06987381
1094.00 0.06985
1094.10 0.06982619
1094.20 0.06980239
1094.30 0.0697786
1094.40 0.06975482
1094.50 0.06973105
1094.60 0.06970728
1094.70 0.06968352
1094.80 0.06965987
1094.90 0.06963633
1095.00 0.0696128
1095.10 0.06958928
1095.20 0.06956577
1095.30 0.06954226
1095.40 0.06951876
1095.50 0.06949527
1095.60 0.06947178
1095.70 0.06944831
1095.80 0.06942484
1095.90 0.06940137
1096.00 0.06937792
1096.10 0.06935447
1096.20 0.06933103
1096.30 0.0693076
1096.40 0.06928417
1096.50 0.06926075
1096.60 0.06923734
1096.70 0.06921394
1096.80 0.06919054
1096.90 0.06916715
1097.00 0.06914377
1097.10 0.0691204
1097.20 0.06909703
1097.30 0.06907367
1097.40 0.06905032
1097.50 0.06902698
1097.60 0.06900364
1097.70 0.06898031
1097.80 0.06895699
1097.90 0.06893367
1098.00 0.06891037
1098.10 0.06888707
1098.20 0.06886377
1098.30 0.06884049
1098.40 0.06881721
1098.50 0.06879394
1098.60 0.06877067
1098.70 0.06874742
1098.80 0.06872417
1098.90 0.06870093
1099.00 0.06867769
1099.10 0.06865447
1099.20 0.06863125
1099.30 0.06860803
1099.40 0.06858483
1099.50 0.06856163
1099.60 0.06853844
1099.70 0.06851526
1099.80 0.06849208
1099.90 0.06846891
1100.00 0.06844575
1100.10 0.0684226
1100.20 0.06839945
1100.30 0.06837631
1100.40 0.06835318
1100.50 0.06833005
1100.60 0.06830694
1100.70 0.06828383
1100.80 0.06826072
1100.90 0.06823763
1101.00 0.06821454
1101.10 0.06819146
1101.20 0.06816838
1101.30 0.06814532
1101.40 0.06812226
1101.50 0.06809921
1101.60 0.06807616
1101.70 0.06805312
1101.80 0.06803009
1101.90 0.06800707
1102.00 0.06798405
1102.10 0.06796104
1102.20 0.06793804
1102.30 0.06791505
1102.40 0.06789206
1102.50 0.06786908
1102.60 0.06784611
1102.70 0.06782314
1102.80 0.06780018
1102.90 0.06777723
1103.00 0.06775429
1103.10 0.06773135
1103.20 0.06770842
1103.30 0.0676855
1103.40 0.06766259
1103.50 0.06763968
1103.60 0.06761678
1103.70 0.06759388
1103.80 0.067571
1103.90 0.06754812
1104.00 0.06752525
1104.10 0.06750238
1104.20 0.06747953
1104.30 0.06745668
1104.40 0.06743383
1104.50 0.067411
1104.60 0.06738817
1104.70 0.06736535
1104.80 0.06734253
1104.90 0.06731972
1105.00 0.06729692
1105.10 0.06727413
1105.20 0.06725134
1105.30 0.06722857
1105.40 0.06720579
1105.50 0.06718303
1105.60 0.06716027
1105.70 0.06713753
1105.80 0.06711508
1105.90 0.06709264
1106.00 0.0670702
1106.10 0.06704777
1106.20 0.06702535
1106.30 0.06700294
1106.40 0.06698053
1106.50 0.06695813
1106.60 0.06693573
1106.70 0.06691335
1106.80 0.06689097
1106.90 0.0668686
1107.00 0.06684623
1107.10 0.06682387
1107.20 0.06680152
1107.30 0.06677918
1107.40 0.06675684
1107.50 0.06673451
1107.60 0.06671219
1107.70 0.06668987
1107.80 0.06666756
1107.90 0.06664526
1108.00 0.06662296
1108.10 0.06660067
1108.20 0.06657839
1108.30 0.06655612
1108.40 0.06653385
1108.50 0.06651159
1108.60 0.06648933
1108.70 0.06646709
1108.80 0.06644485
1108.90 0.06642261
1109.00 0.06640039
1109.10 0.06637817
1109.20 0.06635596
1109.30 0.06633375
1109.40 0.06631155
1109.50 0.06628936
1109.60 0.06626718
1109.70 0.066245
1109.80 0.06622283
1109.90 0.06620066
1110.00 0.06617851
1110.10 0.06615636
1110.20 0.06613421
1110.30 0.06611208
1110.40 0.06608995
1110.50 0.06606783
1110.60 0.06604571
1110.70 0.0660236
1110.80 0.0660015
1110.90 0.06597941
1111.00 0.06595732
1111.10 0.06593524
1111.20 0.06591316
1111.30 0.06589109
1111.40 0.06586903
1111.50 0.06584698
1111.60 0.06582493
1111.70 0.06580289
1111.80 0.06578086
1111.90 0.06575884
1112.00 0.06573682
1112.10 0.0657148
1112.20 0.0656928
1112.30 0.0656708
1112.40 0.06564881
1112.50 0.06562682
1112.60 0.06560484
1112.70 0.06558287
1112.80 0.06556091
1112.90 0.06553895
1113.00 0.065517
1113.10 0.06549506
1113.20 0.06547312
1113.30 0.06545119
1113.40 0.06542927
1113.50 0.06540735
1113.60 0.06538544
1113.70 0.06536354
1113.80 0.06534164
1113.90 0.06531975
1114.00 0.06529787
1114.10 0.06527599
1114.20 0.06525412
1114.30 0.06523226
1114.40 0.06521041
1114.50 0.06518856
1114.60 0.06516672
1114.70 0.06514488
1114.80 0.06512305
1114.90 0.06510123
1115.00 0.06507942
1115.10 0.06505761
1115.20 0.06503581
1115.30 0.06501401
1115.40 0.06499223
1115.50 0.06497044
1115.60 0.06494867
1115.70 0.0649269
1115.80 0.06490514
1115.90 0.06488339
1116.00 0.06486164
1116.10 0.0648399
1116.20 0.06481817
1116.30 0.06479644
1116.40 0.06477472
1116.50 0.06475301
1116.60 0.0647313
1116.70 0.0647096
1116.80 0.06468799
1116.90 0.0646665
1117.00 0.06464501
1117.10 0.06462353
1117.20 0.06460206
1117.30 0.06458059
1117.40 0.06455913
1117.50 0.06453768
1117.60 0.06451623
1117.70 0.06449479
1117.80 0.06447335
1117.90 0.06445193
1118.00 0.0644305
1118.10 0.06440909
1118.20 0.06438768
1118.30 0.06436628
1118.40 0.06434489
1118.50 0.0643235
1118.60 0.06430212
1118.70 0.06428074
1118.80 0.06425937
1118.90 0.06423801
1119.00 0.06421666
1119.10 0.06419531
1119.20 0.06417397
1119.30 0.06415263
1119.40 0.0641313
1119.50 0.06410998
1119.60 0.06408867
1119.70 0.06406736
1119.80 0.06404606
1119.90 0.06402476
1120.00 0.06400347
1120.10 0.06398219
1120.20 0.06396091
1120.30 0.06393965
1120.40 0.06391838
1120.50 0.06389713
1120.60 0.06387588
1120.70 0.06385463
1120.80 0.0638334
1120.90 0.06381217
1121.00 0.06379095
1121.10 0.06376973
1121.20 0.06374852
1121.30 0.06372731
1121.40 0.06370612
1121.50 0.06368493
1121.60 0.06366374
1121.70 0.06364257
1121.80 0.0636214
1121.90 0.06360023
1122.00 0.06357907
1122.10 0.06355792
1122.20 0.06353678
1122.30 0.06351564
1122.40 0.06349451
1122.50 0.06347338
1122.60 0.06345226
1122.70 0.06343115
1122.80 0.06341004
1122.90 0.06338894
1123.00 0.06336784
1123.10 0.06334676
1123.20 0.06332567
1123.30 0.0633046
1123.40 0.06328353
1123.50 0.06326247
1123.60 0.06324141
1123.70 0.06322037
1123.80 0.06319932
1123.90 0.06317829
1124.00 0.06315726
1124.10 0.06313624
1124.20 0.06311522
1124.30 0.06309421
1124.40 0.06307321
1124.50 0.06305221
1124.60 0.06303122
1124.70 0.06301023
1124.80 0.06298926
1124.90 0.06296829
1125.00 0.06294732
1125.10 0.06292636
1125.20 0.06290541
1125.30 0.06288447
1125.40 0.06286353
1125.50 0.06284259
1125.60 0.06282167
1125.70 0.06280075
1125.80 0.06277984
1125.90 0.06275893
1126.00 0.06273803
1126.10 0.06271714
1126.20 0.06269625
1126.30 0.06267537
1126.40 0.06265449
1126.50 0.06263363
1126.60 0.06261276
1126.70 0.06259191
1126.80 0.06257106
1126.90 0.06255022
1127.00 0.06252938
1127.10 0.06250855
1127.20 0.06248773
1127.30 0.06246691
1127.40 0.0624461
1127.50 0.0624253
1127.60 0.0624045
1127.70 0.06238371
1127.80 0.06236293
1127.90 0.06234215
1128.00 0.06232152
1128.10 0.06230094
1128.20 0.06228037
1128.30 0.06225981
1128.40 0.06223925
1128.50 0.06221869
1128.60 0.06219815
1128.70 0.06217761
1128.80 0.06215707
1128.90 0.06213654
1129.00 0.06211602
1129.10 0.06209551
1129.20 0.062075
1129.30 0.0620545
1129.40 0.062034
1129.50 0.06201351
1129.60 0.06199303
1129.70 0.06197255
1129.80 0.06195208
1129.90 0.06193161
1130.00 0.06191115
1130.10 0.0618907
1130.20 0.06187025
1130.30 0.06184981
1130.40 0.06182938
1130.50 0.06180895
1130.60 0.06178853
1130.70 0.06176812
1130.80 0.06174771
1130.90 0.06172731
1131.00 0.06170691
1131.10 0.06168652
1131.20 0.06166614
1131.30 0.06164576
1131.40 0.06162539
1131.50 0.06160502
1131.60 0.06158466
1131.70 0.06156431
1131.80 0.06154397
1131.90 0.06152363
1132.00 0.06150329
1132.10 0.06148297
1132.20 0.06146264
1132.30 0.06144233
1132.40 0.06142202
1132.50 0.06140172
1132.60 0.06138142
1132.70 0.06136113
1132.80 0.06134085
1132.90 0.06132057
1133.00 0.0613003
1133.10 0.06128003
1133.20 0.06125977
1133.30 0.06123952
1133.40 0.06121927
1133.50 0.06119903
1133.60 0.0611788
1133.70 0.06115857
1133.80 0.06113835
1133.90 0.06111813
1134.00 0.06109792
1134.10 0.06107772
1134.20 0.06105752
1134.30 0.06103733
1134.40 0.06101715
1134.50 0.06099697
1134.60 0.06097679
1134.70 0.06095663
1134.80 0.06093647
1134.90 0.06091631
1135.00 0.06089617
1135.10 0.06087602
1135.20 0.06085589
1135.30 0.06083576
1135.40 0.06081563
1135.50 0.06079552
1135.60 0.06077541
1135.70 0.0607553
1135.80 0.0607352
1135.90 0.06071511
1136.00 0.06069502
1136.10 0.06067494
1136.20 0.06065487
1136.30 0.0606348
1136.40 0.06061474
1136.50 0.06059468
1136.60 0.06057463
1136.70 0.06055459
1136.80 0.06053455
1136.90 0.06051452
1137.00 0.06049449
1137.10 0.06047448
1137.20 0.06045446
1137.30 0.06043445
1137.40 0.06041445
1137.50 0.06039446
1137.60 0.06037447
1137.70 0.06035449
1137.80 0.06033451
1137.90 0.06031454
1138.00 0.06029458
1138.10 0.06027462
1138.20 0.06025467
1138.30 0.06023472
1138.40 0.06021478
1138.50 0.06019485
1138.60 0.06017492
1138.70 0.060155
1138.80 0.06013508
1138.90 0.06011517
1139.00 0.06009527
1139.10 0.06007537
1139.20 0.06005548
1139.30 0.06003585
1139.40 0.06001624
1139.50 0.05999663
1139.60 0.05997703
1139.70 0.05995743
1139.80 0.05993784
1139.90 0.05991825
1140.00 0.05989867
1140.10 0.0598791
1140.20 0.05985953
1140.30 0.05983997
1140.40 0.05982042
1140.50 0.05980087
1140.60 0.05978132
1140.70 0.05976179
1140.80 0.05974226
1140.90 0.05972273
1141.00 0.05970321
1141.10 0.0596837
1141.20 0.05966419
1141.30 0.05964469
1141.40 0.05962519
1141.50 0.0596057
1141.60 0.05958622
1141.70 0.05956674
1141.80 0.05954727
1141.90 0.0595278
1142.00 0.05950834
1142.10 0.05948889
1142.20 0.05946944
1142.30 0.05944999
1142.40 0.05943056
1142.50 0.05941113
1142.60 0.0593917
1142.70 0.05937228
1142.80 0.05935287
1142.90 0.05933346
1143.00 0.05931406
1143.10 0.05929466
1143.20 0.05927527
1143.30 0.05925589
1143.40 0.05923651
1143.50 0.05921714
1143.60 0.05919777
1143.70 0.05917841
1143.80 0.05915906
1143.90 0.05913971
1144.00 0.05912037
1144.10 0.05910103
1144.20 0.0590817
1144.30 0.05906237
1144.40 0.05904305
1144.50 0.05902374
1144.60 0.05900443
1144.70 0.05898513
1144.80 0.05896584
1144.90 0.05894655
1145.00 0.05892726
1145.10 0.05890798
1145.20 0.05888871
1145.30 0.05886944
1145.40 0.05885018
1145.50 0.05883093
1145.60 0.05881168
1145.70 0.05879243
1145.80 0.0587732
1145.90 0.05875396
1146.00 0.05873474
1146.10 0.05871552
1146.20 0.0586963
1146.30 0.0586771
1146.40 0.05865789
1146.50 0.0586387
1146.60 0.0586195
1146.70 0.05860032
1146.80 0.05858114
1146.90 0.05856197
1147.00 0.0585428
1147.10 0.05852364
1147.20 0.05850448
1147.30 0.05848533
1147.40 0.05846618
1147.50 0.05844704
1147.60 0.05842791
1147.70 0.05840878
1147.80 0.05838966
1147.90 0.05837055
1148.00 0.05835144
1148.10 0.05833233
1148.20 0.05831323
1148.30 0.05829414
1148.40 0.05827505
1148.50 0.05825597
1148.60 0.0582369
1148.70 0.05821783
1148.80 0.05819876
1148.90 0.0581797
1149.00 0.05816065
1149.10 0.0581416
1149.20 0.05812256
1149.30 0.05810353
1149.40 0.0580845
1149.50 0.05806547
1149.60 0.05804646
1149.70 0.05802744
1149.80 0.05800844
1149.90 0.05798944
1150.00 0.05797044
1150.10 0.05795145
1150.20 0.05793247
1150.30 0.05791349
1150.40 0.05789452
1150.50 0.05787555
1150.60 0.05785659
1150.70 0.05783764
1150.80 0.05781869
1150.90 0.05779975
1151.00 0.05778082
1151.10 0.05776189
1151.20 0.05774296
1151.30 0.05772404
1151.40 0.05770513
1151.50 0.05768623
1151.60 0.05766732
1151.70 0.05764843
1151.80 0.05762954
1151.90 0.05761066
1152.00 0.05759178
1152.10 0.0575729
1152.20 0.05755404
1152.30 0.05753518
1152.40 0.05751632
1152.50 0.05749747
1152.60 0.05747863
1152.70 0.05745979
1152.80 0.05744096
1152.90 0.05742213
1153.00 0.05740331
1153.10 0.05738449
1153.20 0.05736568
1153.30 0.05734688
1153.40 0.05732808
1153.50 0.05730928
1153.60 0.0572905
1153.70 0.05727171
1153.80 0.05725294
1153.90 0.05723417
1154.00 0.0572154
1154.10 0.05719664
1154.20 0.05717789
1154.30 0.05715914
1154.40 0.0571404
1154.50 0.05712166
1154.60 0.05710293
1154.70 0.05708421
1154.80 0.05706549
1154.90 0.05704677
1155.00 0.05702806
1155.10 0.05700936
1155.20 0.05699066
1155.30 0.05697197
1155.40 0.05695329
1155.50 0.05693461
1155.60 0.05691593
1155.70 0.05689726
1155.80 0.0568786
1155.90 0.05685994
1156.00 0.05684129
1156.10 0.05682264
1156.20 0.056804
1156.30 0.05678536
1156.40 0.05676691
1156.50 0.05674863
1156.60 0.05673034
1156.70 0.05671206
1156.80 0.05669379
1156.90 0.05667552
1157.00 0.05665726
1157.10 0.05663901
1157.20 0.05662075
1157.30 0.05660251
1157.40 0.05658427
1157.50 0.05656603
1157.60 0.05654781
1157.70 0.05652958
1157.80 0.05651136
1157.90 0.05649315
1158.00 0.05647494
1158.10 0.05645674
1158.20 0.05643855
1158.30 0.05642035
1158.40 0.05640217
1158.50 0.05638399
1158.60 0.05636581
1158.70 0.05634765
1158.80 0.05632948
1158.90 0.05631132
1159.00 0.05629317
1159.10 0.05627502
1159.20 0.05625688
1159.30 0.05623874
1159.40 0.05622061
1159.50 0.05620249
1159.60 0.05618437
1159.70 0.05616625
1159.80 0.05614814
1159.90 0.05613004
1160.00 0.05611194
1160.10 0.05609385
1160.20 0.05607576
1160.30 0.05605768
1160.40 0.0560396
1160.50 0.05602153
1160.60 0.05600346
1160.70 0.0559854
1160.80 0.05596734
1160.90 0.05594929
1161.00 0.05593125
1161.10 0.05591321
1161.20 0.05589518
1161.30 0.05587715
1161.40 0.05585912
1161.50 0.05584111
1161.60 0.05582309
1161.70 0.05580509
1161.80 0.05578709
1161.90 0.05576909
1162.00 0.0557511
1162.10 0.05573311
1162.20 0.05571505
1162.30 0.05569699
1162.40 0.05567894
1162.50 0.0556609
1162.60 0.05564286
1162.70 0.05562482
1162.80 0.05560679
1162.90 0.05558877
1163.00 0.05557075
1163.10 0.05555273
1163.20 0.05553472
1163.30 0.05551672
1163.40 0.05549872
1163.50 0.05548073
1163.60 0.05546274
1163.70 0.05544476
1163.80 0.05542679
1163.90 0.05540882
1164.00 0.05539085
1164.10 0.05537289
1164.20 0.05535493
1164.30 0.05533699
1164.40 0.05531904
1164.50 0.0553011
1164.60 0.05528317
1164.70 0.05526524
1164.80 0.05524732
1164.90 0.0552294
1165.00 0.05521149
1165.10 0.05519358
1165.20 0.05517568
1165.30 0.05515778
1165.40 0.05513989
1165.50 0.05512201
1165.60 0.05510413
1165.70 0.05508625
1165.80 0.05506838
1165.90 0.05505052
1166.00 0.05503266
1166.10 0.05501481
1166.20 0.05499696
1166.30 0.05497912
1166.40 0.05496128
1166.50 0.05494345
1166.60 0.05492562
1166.70 0.0549078
1166.80 0.05488998
1166.90 0.05487217
1167.00 0.05485436
1167.10 0.05483656
1167.20 0.05481877
1167.30 0.05480098
1167.40 0.05478319
1167.50 0.05476542
1167.60 0.05474764
1167.70 0.05472987
1167.80 0.05471211
1167.90 0.05469435
1168.00 0.05467674
1168.10 0.05465916
1168.20 0.05464158
1168.30 0.05462401
1168.40 0.05460644
1168.50 0.05458887
1168.60 0.05457131
1168.70 0.05455376
1168.80 0.05453621
1168.90 0.05451867
1169.00 0.05450113
1169.10 0.0544836
1169.20 0.05446607
1169.30 0.05444855
1169.40 0.05443103
1169.50 0.05441352
1169.60 0.05439601
1169.70 0.05437851
1169.80 0.05436101
1169.90 0.05434352
1170.00 0.05432604
1170.10 0.05430855
1170.20 0.05429108
1170.30 0.05427361
1170.40 0.05425614
1170.50 0.05423868
1170.60 0.05422123
1170.70 0.05420378
1170.80 0.05418633
1170.90 0.05416889
1171.00 0.05415146
1171.10 0.05413403
1171.20 0.05411661
1171.30 0.05409919
1171.40 0.05408177
1171.50 0.05406437
1171.60 0.05404696
1171.70 0.05402956
1171.80 0.05401217
1171.90 0.05399478
1172.00 0.0539774
1172.10 0.05396002
1172.20 0.05394265
1172.30 0.05392528
1172.40 0.05390792
1172.50 0.05389056
1172.60 0.05387321
1172.70 0.05385586
1172.80 0.05383852
1172.90 0.05382119
1173.00 0.05380386
1173.10 0.05378653
1173.20 0.05376921
1173.30 0.05375189
1173.40 0.05373458
1173.50 0.05371728
1173.60 0.05369997
1173.70 0.05368268
1173.80 0.05366583
1173.90 0.05364909
1174.00 0.05363237
1174.10 0.05361564
1174.20 0.05359893
1174.30 0.05358222
1174.40 0.05356551
1174.50 0.05354881
1174.60 0.05353211
1174.70 0.05351542
1174.80 0.05349873
1174.90 0.05348204
1175.00 0.05346537
1175.10 0.05344869
1175.20 0.05343203
1175.30 0.05341536
1175.40 0.0533987
1175.50 0.05338205
1175.60 0.0533654
1175.70 0.05334876
1175.80 0.05333212
1175.90 0.05331549
1176.00 0.05329886
1176.10 0.05328223
1176.20 0.05326561
1176.30 0.053249
1176.40 0.05323239
1176.50 0.05321579
1176.60 0.05319919
1176.70 0.05318259
1176.80 0.053166
1176.90 0.05314942
1177.00 0.05313284
1177.10 0.05311626
1177.20 0.05309969
1177.30 0.05308312
1177.40 0.05306656
1177.50 0.05305001
1177.60 0.05303346
1177.70 0.05301691
1177.80 0.05300037
1177.90 0.05298383
1178.00 0.0529673
1178.10 0.05295077
1178.20 0.05293425
1178.30 0.05291773
1178.40 0.05290122
1178.50 0.05288472
1178.60 0.05286821
1178.70 0.05285172
1178.80 0.05283522
1178.90 0.05281873
1179.00 0.05280225
1179.10 0.05278577
1179.20 0.0527693
1179.30 0.05275283
1179.40 0.05273637
1179.50 0.05271991
1179.60 0.0527034
1179.70 0.05268648
1179.80 0.05266957
1179.90 0.05265266
1180.00 0.05263576
1180.10 0.05261886
1180.20 0.05260197
1180.30 0.05258508
1180.40 0.0525682
1180.50 0.05255132
1180.60 0.05253445
1180.70 0.05251758
1180.80 0.05250072
1180.90 0.05248386
1181.00 0.05246701
1181.10 0.05245016
1181.20 0.05243331
1181.30 0.05241648
1181.40 0.05239964
1181.50 0.05238281
1181.60 0.05236599
1181.70 0.05234917
1181.80 0.05233236
1181.90 0.05231555
1182.00 0.05229875
1182.10 0.05228195
1182.20 0.05226515
1182.30 0.05224836
1182.40 0.05223158
1182.50 0.0522148
1182.60 0.05219803
1182.70 0.05218126
1182.80 0.05216449
1182.90 0.05214774
1183.00 0.05213098
1183.10 0.05211423
1183.20 0.05209749
1183.30 0.05208075
1183.40 0.05206401
1183.50 0.05204728
1183.60 0.05203056
1183.70 0.05201384
1183.80 0.05199712
1183.90 0.05198041
1184.00 0.05196371
1184.10 0.05194701
1184.20 0.05193031
1184.30 0.05191362
1184.40 0.05189694
1184.50 0.05188025
1184.60 0.05186358
1184.70 0.05184691
1184.80 0.05183024
1184.90 0.05181358
1185.00 0.05179692
1185.10 0.05178027
1185.20 0.05176363
1185.30 0.05174698
1185.40 0.05173035
1185.50 0.05171381
1185.60 0.05169742
1185.70 0.05168102
1185.80 0.05166464
1185.90 0.05164826
1186.00 0.05163188
1186.10 0.05161551
1186.20 0.05159914
1186.30 0.05158278
1186.40 0.05156642
1186.50 0.05155006
1186.60 0.05153372
1186.70 0.05151737
1186.80 0.05150103
1186.90 0.0514847
1187.00 0.05146837
1187.10 0.05145205
1187.20 0.05143573
1187.30 0.05141941
1187.40 0.0514031
1187.50 0.0513868
1187.60 0.05137049
1187.70 0.0513542
1187.80 0.05133791
1187.90 0.05132162
1188.00 0.05130534
1188.10 0.05128906
1188.20 0.05127279
1188.30 0.05125652
1188.40 0.05124026
1188.50 0.051224
1188.60 0.05120775
1188.70 0.0511915
1188.80 0.05117526
1188.90 0.05115902
1189.00 0.05114278
1189.10 0.05112655
1189.20 0.05111033
1189.30 0.05109411
1189.40 0.05107789
1189.50 0.05106168
1189.60 0.05104548
1189.70 0.05102928
1189.80 0.05101308
1189.90 0.05099689
1190.00 0.0509807
1190.10 0.05096452
1190.20 0.05094834
1190.30 0.05093217
1190.40 0.050916
1190.50 0.05089984
1190.60 0.05088368
1190.70 0.05086753
1190.80 0.05085138
1190.90 0.05083523
1191.00 0.05081909
1191.10 0.05080296
1191.20 0.05078683
1191.30 0.0507707
1191.40 0.0507546
1191.50 0.05073864
1191.60 0.05072268
1191.70 0.05070672
1191.80 0.05069077
1191.90 0.05067483
1192.00 0.05065889
1192.10 0.05064295
1192.20 0.05062702
1192.30 0.05061109
1192.40 0.05059517
1192.50 0.05057925
1192.60 0.05056334
1192.70 0.05054743
1192.80 0.05053152
1192.90 0.05051563
1193.00 0.05049973
1193.10 0.05048384
1193.20 0.05046795
1193.30 0.05045207
1193.40 0.0504362
1193.50 0.05042033
1193.60 0.05040446
1193.70 0.0503886
1193.80 0.05037274
1193.90 0.05035688
1194.00 0.05034104
1194.10 0.05032519
1194.20 0.05030935
1194.30 0.05029352
1194.40 0.05027769
1194.50 0.05026186
1194.60 0.05024604
1194.70 0.05023022
1194.80 0.05021441
1194.90 0.0501986
1195.00 0.0501828
1195.10 0.050167
1195.20 0.05015121
1195.30 0.05013542
1195.40 0.05011964
1195.50 0.05010386
1195.60 0.05008808
1195.70 0.05007231
1195.80 0.05005654
1195.90 0.05004078
1196.00 0.05002503
1196.10 0.05000927
1196.20 0.04999352
1196.30 0.04997778
1196.40 0.04996204
1196.50 0.04994631
1196.60 0.04993058
1196.70 0.04991485
1196.80 0.04989913
1196.90 0.04988342
1197.00 0.04986771
1197.10 0.049852
1197.20 0.0498363
1197.30 0.0498206
1197.40 0.04980484
1197.50 0.04978908
1197.60 0.04977332
1197.70 0.04975756
1197.80 0.04974181
1197.90 0.04972607
1198.00 0.04971033
1198.10 0.04969459
1198.20 0.04967886
1198.30 0.04966313
1198.40 0.04964741
1198.50 0.04963169
1198.60 0.04961598
1198.70 0.04960027
1198.80 0.04958456
1198.90 0.04956886
1199.00 0.04955317
1199.10 0.04953748
1199.20 0.04952179
1199.30 0.04950611
1199.40 0.04949043
1199.50 0.04947476
1199.60 0.04945909
1199.70 0.04944343
1199.80 0.04942777
1199.90 0.04941212
1200.00 0.04939647
