# Version 2.1 - nm, norm@500 to 1, cut digits, bergeron_He_5500_85.dat_5500
# Wavelength(nm)  Flambda(ergs/cm^s/s/nm)
300.00 0.3549035
300.10 0.3554311
300.20 0.3559581
300.30 0.3564862
300.40 0.3570267
300.50 0.3575663
300.60 0.3581052
300.70 0.3586433
300.80 0.3591805
300.90 0.359717
301.00 0.3602527
301.10 0.3607876
301.20 0.3613217
301.30 0.361855
301.40 0.3623876
301.50 0.3629193
301.60 0.3634503
301.70 0.3639805
301.80 0.3645098
301.90 0.3650385
302.00 0.3655663
302.10 0.3661021
302.20 0.366638
302.30 0.3671732
302.40 0.3677076
302.50 0.3682412
302.60 0.368774
302.70 0.369306
302.80 0.3698372
302.90 0.3703677
303.00 0.3708974
303.10 0.3714263
303.20 0.3719544
303.30 0.3724831
303.40 0.3730234
303.50 0.3735629
303.60 0.3741016
303.70 0.3746395
303.80 0.3751766
303.90 0.3757129
304.00 0.3762485
304.10 0.3767832
304.20 0.3773172
304.30 0.3778504
304.40 0.3783828
304.50 0.3789144
304.60 0.3794548
304.70 0.3799954
304.80 0.3805352
304.90 0.3810742
305.00 0.3816125
305.10 0.3821499
305.20 0.3826866
305.30 0.3832225
305.40 0.3837576
305.50 0.3842919
305.60 0.3848254
305.70 0.3853581
305.80 0.3858901
305.90 0.3864213
306.00 0.3869517
306.10 0.3874814
306.20 0.3880102
306.30 0.3885383
306.40 0.3890823
306.50 0.3896305
306.60 0.3901778
306.70 0.3907244
306.80 0.3912701
306.90 0.3918151
307.00 0.3923593
307.10 0.3929027
307.20 0.3934453
307.30 0.3939871
307.40 0.3945281
307.50 0.3950683
307.60 0.3956077
307.70 0.3961464
307.80 0.3966843
307.90 0.3972214
308.00 0.3977577
308.10 0.3982932
308.20 0.398828
308.30 0.3993619
308.40 0.3998951
308.50 0.4004276
308.60 0.4009592
308.70 0.4014901
308.80 0.402027
308.90 0.4025822
309.00 0.4031199
309.10 0.4036569
309.20 0.404193
309.30 0.4047284
309.40 0.4052645
309.50 0.4058092
309.60 0.406353
309.70 0.4068961
309.80 0.4074384
309.90 0.4079799
310.00 0.4085206
310.10 0.4090606
310.20 0.4095997
310.30 0.4101381
310.40 0.4106771
310.50 0.4112168
310.60 0.4117558
310.70 0.4122939
310.80 0.4128313
310.90 0.4133679
311.00 0.4139003
311.10 0.4144318
311.20 0.4149626
311.30 0.4154968
311.40 0.4160422
311.50 0.4165869
311.60 0.4171307
311.70 0.4176738
311.80 0.4182161
311.90 0.4187576
312.00 0.4192983
312.10 0.4198383
312.20 0.4203835
312.30 0.4209273
312.40 0.4214641
312.50 0.4219699
312.60 0.4225091
312.70 0.4230476
312.80 0.4235853
312.90 0.424127
313.00 0.4246729
313.10 0.4252181
313.20 0.4257624
313.30 0.4263067
313.40 0.4268521
313.50 0.4273966
313.60 0.4279405
313.70 0.4284835
313.80 0.4290257
313.90 0.4295672
314.00 0.4301079
314.10 0.4306473
314.20 0.4311859
314.30 0.4317238
314.40 0.4322609
314.50 0.4327972
314.60 0.4333327
314.70 0.4338675
314.80 0.4344108
314.90 0.4349664
315.00 0.4355063
315.10 0.4360437
315.20 0.4365804
315.30 0.4371163
315.40 0.4376514
315.50 0.4381858
315.60 0.4387193
315.70 0.4392613
315.80 0.4398024
315.90 0.4403428
316.00 0.4408824
316.10 0.4414213
316.20 0.4419594
316.30 0.4425511
316.40 0.4430876
316.50 0.4436233
316.60 0.4441583
316.70 0.4446925
316.80 0.445226
316.90 0.4457722
317.00 0.4463177
317.10 0.4468624
317.20 0.4474063
317.30 0.4479328
317.40 0.448463
317.50 0.449005
317.60 0.4495463
317.70 0.4500868
317.80 0.4506266
317.90 0.4511587
318.00 0.4517279
318.10 0.4522649
318.20 0.4528011
318.30 0.4533366
318.40 0.4538748
318.50 0.4544221
318.60 0.4549617
318.70 0.4554807
318.80 0.4560043
318.90 0.4565701
319.00 0.4570938
319.10 0.4576365
319.20 0.45818
319.30 0.458727
319.40 0.4592732
319.50 0.4598187
319.60 0.4603402
319.70 0.4608842
319.80 0.4614273
319.90 0.4619697
320.00 0.4625086
320.10 0.4630437
320.20 0.4635803
320.30 0.4641254
320.40 0.4646741
320.50 0.4651902
320.60 0.4657607
320.70 0.4662913
320.80 0.4668274
320.90 0.4673696
321.00 0.4679111
321.10 0.4684518
321.20 0.4689671
321.30 0.469506
321.40 0.4700441
321.50 0.4705815
321.60 0.4711181
321.70 0.4716539
321.80 0.4722009
321.90 0.47276
322.00 0.4732691
322.10 0.4738112
322.20 0.4743525
322.30 0.4748931
322.40 0.4754329
322.50 0.4759719
322.60 0.4765101
322.70 0.4770477
322.80 0.4775602
322.90 0.4781043
323.00 0.4786476
323.10 0.4791901
323.20 0.4797319
323.30 0.4802729
323.40 0.4808132
323.50 0.4813526
323.60 0.4818914
323.70 0.4824293
323.80 0.4829666
323.90 0.483503
324.00 0.4840371
324.10 0.4845704
324.20 0.4851029
324.30 0.4856431
324.40 0.4861943
324.50 0.4867315
324.60 0.487268
324.70 0.4878037
324.80 0.4883386
324.90 0.4888728
325.00 0.4894063
325.10 0.489939
325.20 0.4904742
325.30 0.4910157
325.40 0.4915564
325.50 0.4920905
325.60 0.4926166
325.70 0.493142
325.80 0.4936666
325.90 0.494202
326.00 0.4947491
326.10 0.4952954
326.20 0.4958409
326.30 0.4963762
326.40 0.4968837
326.50 0.4974239
326.60 0.4979635
326.70 0.4985023
326.80 0.4990403
326.90 0.4995776
327.00 0.5001141
327.10 0.5006499
327.20 0.5011849
327.30 0.5017192
327.40 0.5022527
327.50 0.5027855
327.60 0.5033175
327.70 0.5038488
327.80 0.5043794
327.90 0.5049086
328.00 0.5054287
328.10 0.5059386
328.20 0.5064477
328.30 0.5069562
328.40 0.5074639
328.50 0.5080011
328.60 0.5085446
328.70 0.5090873
328.80 0.5096297
328.90 0.5101726
329.00 0.5107148
329.10 0.5112562
329.20 0.5117969
329.30 0.5123368
329.40 0.5128759
329.50 0.5134143
329.60 0.513952
329.70 0.5144889
329.80 0.5150251
329.90 0.5155605
330.00 0.5161109
330.10 0.5166797
330.20 0.5172477
330.30 0.5178149
330.40 0.5183499
330.50 0.5188501
330.60 0.5193496
330.70 0.5198484
330.80 0.5203465
330.90 0.5208439
331.00 0.5213406
331.10 0.5218366
331.20 0.5223319
331.30 0.5228266
331.40 0.5233205
331.50 0.5238976
331.60 0.5245765
331.70 0.5252544
331.80 0.5257862
331.90 0.5263113
332.00 0.5268356
332.10 0.5273592
332.20 0.5278821
332.30 0.5284043
332.40 0.5289257
332.50 0.5294464
332.60 0.5299664
332.70 0.5304857
332.80 0.5310043
332.90 0.5315221
333.00 0.5320392
333.10 0.5325551
333.20 0.5330696
333.30 0.5335833
333.40 0.5340964
333.50 0.5346087
333.60 0.5351204
333.70 0.5356313
333.80 0.5361415
333.90 0.536651
334.00 0.5371598
334.10 0.5376972
334.20 0.5382696
334.30 0.5388413
334.40 0.5394121
334.50 0.5399822
334.60 0.5405515
334.70 0.5409292
334.80 0.5412621
334.90 0.5418657
335.00 0.5424686
335.10 0.5431518
335.20 0.543555
335.30 0.5441151
335.40 0.5445776
335.50 0.5449789
335.60 0.545561
335.70 0.5461544
335.80 0.5467953
335.90 0.5473811
336.00 0.5478997
336.10 0.5484176
336.20 0.5489348
336.30 0.5494332
336.40 0.5499088
336.50 0.5503838
336.60 0.5508581
336.70 0.5513318
336.80 0.5518048
336.90 0.5522914
337.00 0.5527948
337.10 0.5532974
337.20 0.5537994
337.30 0.5543228
337.40 0.5548774
337.50 0.5554313
337.60 0.5559844
337.70 0.5565367
337.80 0.5570883
337.90 0.5576174
338.00 0.5581191
338.10 0.5586202
338.20 0.5591206
338.30 0.5596202
338.40 0.5601272
338.50 0.5606528
338.60 0.5611778
338.70 0.5617021
338.80 0.5622256
338.90 0.5627484
339.00 0.5632705
339.10 0.5637919
339.20 0.5643126
339.30 0.5648789
339.40 0.5655111
339.50 0.5660836
339.60 0.5665834
339.70 0.5670825
339.80 0.5675808
339.90 0.5680785
340.00 0.5685756
340.10 0.5690719
340.20 0.5695676
340.30 0.5700625
340.40 0.5705568
340.50 0.5710504
340.60 0.5715434
340.70 0.5720356
340.80 0.5725805
340.90 0.5732012
341.00 0.5737598
341.10 0.5742427
341.20 0.574725
341.30 0.5752066
341.40 0.5756876
341.50 0.5761679
341.60 0.5766475
341.70 0.5771265
341.80 0.5776326
341.90 0.5781719
342.00 0.5787105
342.10 0.5792484
342.20 0.579843
342.30 0.5802718
342.40 0.580679
342.50 0.581197
342.60 0.5817143
342.70 0.5822309
342.80 0.5827468
342.90 0.583262
343.00 0.5838045
343.10 0.5843806
343.20 0.5849559
343.30 0.5855304
343.40 0.5860763
343.50 0.5865815
343.60 0.587086
343.70 0.5875898
343.80 0.588093
343.90 0.5885954
344.00 0.5890814
344.10 0.5895442
344.20 0.5900063
344.30 0.5904678
344.40 0.5909757
344.50 0.5915506
344.60 0.5922074
344.70 0.592563
344.80 0.5929066
344.90 0.5934672
345.00 0.5939562
345.10 0.5945268
345.20 0.5950384
345.30 0.5954655
345.40 0.595892
345.50 0.596366
345.60 0.5969124
345.70 0.5974787
345.80 0.5980443
345.90 0.5986091
346.00 0.5991731
346.10 0.5997365
346.20 0.6002617
346.30 0.6007327
346.40 0.6012031
346.50 0.6016728
346.60 0.6021418
346.70 0.6026103
346.80 0.603078
346.90 0.6035452
347.00 0.6040117
347.10 0.6044775
347.20 0.6049634
347.30 0.6054782
347.40 0.6059923
347.50 0.6065058
347.60 0.6070185
347.70 0.6075306
347.80 0.6080419
347.90 0.6085526
348.00 0.6090626
348.10 0.6095719
348.20 0.6100805
348.30 0.6105885
348.40 0.6110957
348.50 0.6116023
348.60 0.6121082
348.70 0.6124671
348.80 0.6128622
348.90 0.6133761
349.00 0.6138893
349.10 0.6144018
349.20 0.6149136
349.30 0.6154247
349.40 0.6159351
349.50 0.6164449
349.60 0.6169539
349.70 0.6174623
349.80 0.61797
349.90 0.618477
350.00 0.6189834
350.10 0.619489
350.20 0.619994
350.30 0.6204923
350.40 0.6209814
350.50 0.6214698
350.60 0.6219575
350.70 0.6224445
350.80 0.622931
350.90 0.6234167
351.00 0.6239018
351.10 0.6243863
351.20 0.6248701
351.30 0.6253532
351.40 0.6258532
351.50 0.6263837
351.60 0.6269134
351.70 0.6274424
351.80 0.6279708
351.90 0.6284984
352.00 0.6290253
352.10 0.6295516
352.20 0.6298129
352.30 0.6301595
352.40 0.6306709
352.50 0.6311816
352.60 0.6316916
352.70 0.6322009
352.80 0.6327096
352.90 0.6332175
353.00 0.6337248
353.10 0.6342315
353.20 0.6347374
353.30 0.6352427
353.40 0.6357473
353.50 0.6361887
353.60 0.6366139
353.70 0.6370385
353.80 0.6374626
353.90 0.6379188
354.00 0.6384327
354.10 0.6389458
354.20 0.6394583
354.30 0.6399702
354.40 0.6404813
354.50 0.6409918
354.60 0.6415016
354.70 0.6420107
354.80 0.6425244
354.90 0.6430449
355.00 0.6435648
355.10 0.644084
355.20 0.6446025
355.30 0.6450407
355.40 0.6454782
355.50 0.6459152
355.60 0.6463515
355.70 0.6468734
355.80 0.6474332
355.90 0.6479365
356.00 0.6483928
356.10 0.6488617
356.20 0.6493299
356.30 0.6497975
356.40 0.6502644
356.50 0.6507308
356.60 0.6511965
356.70 0.6516616
356.80 0.6521261
356.90 0.6525899
357.00 0.6530531
357.10 0.6535157
357.20 0.6539777
357.30 0.6544391
357.40 0.654922
357.50 0.6554436
357.60 0.6559645
357.70 0.6564847
357.80 0.6568914
357.90 0.6572976
358.00 0.657769
358.10 0.6582561
358.20 0.6587426
358.30 0.6592284
358.40 0.6597136
358.50 0.6601982
358.60 0.6606821
358.70 0.6611654
358.80 0.661648
358.90 0.66213
359.00 0.6625782
359.10 0.662967
359.20 0.6633745
359.30 0.6639108
359.40 0.6644463
359.50 0.6648597
359.60 0.6652422
359.70 0.6656242
359.80 0.6662106
359.90 0.6667962
360.00 0.667319
360.10 0.6677307
360.20 0.6681418
360.30 0.6685524
360.40 0.6689624
360.50 0.6693718
360.60 0.6701479
360.70 0.6706137
360.80 0.6710789
360.90 0.6715435
361.00 0.6719753
361.10 0.6724486
361.20 0.672633
361.30 0.6732622
361.40 0.6735361
361.50 0.6741848
361.60 0.6747785
361.70 0.6752382
361.80 0.6756902
361.90 0.6761292
362.00 0.6765675
362.10 0.6770486
362.20 0.6775235
362.30 0.6779686
362.40 0.6784131
362.50 0.678857
362.60 0.6793003
362.70 0.6797794
362.80 0.6803703
362.90 0.6808186
363.00 0.6812662
363.10 0.6816463
363.20 0.6820252
363.30 0.682626
363.40 0.6828691
363.50 0.6835241
363.60 0.6837662
363.70 0.6842825
363.80 0.6848667
363.90 0.6852739
364.00 0.6856805
364.10 0.6860866
364.20 0.6864921
364.30 0.6870013
364.40 0.6875359
364.50 0.6879869
364.60 0.6884264
364.70 0.6888653
364.80 0.6893036
364.90 0.6897441
365.00 0.6901839
365.10 0.6908275
365.20 0.6910619
365.30 0.6917041
365.40 0.6919375
365.50 0.6923745
365.60 0.6928108
365.70 0.6933577
365.80 0.6939039
365.90 0.6944329
366.00 0.6949571
366.10 0.6953764
366.20 0.6957951
366.30 0.6962132
366.40 0.6966308
366.50 0.697109
366.60 0.697548
366.70 0.6979348
366.80 0.6983211
366.90 0.6987454
367.00 0.6992375
367.10 0.699729
367.20 0.7002199
367.30 0.7007101
367.40 0.7011997
367.50 0.70153
367.60 0.7018202
367.70 0.7022868
367.80 0.7027527
367.90 0.7032179
368.00 0.7037144
368.10 0.7043272
368.20 0.7047366
368.30 0.7051435
368.40 0.7055497
368.50 0.7059555
368.60 0.7063607
368.70 0.7067653
368.80 0.7071695
368.90 0.7075471
369.00 0.7080138
369.10 0.7085138
369.20 0.7089382
369.30 0.7093531
369.40 0.7097675
369.50 0.7101813
369.60 0.710789
369.70 0.7113959
369.80 0.7117672
369.90 0.7121356
370.00 0.7125035
370.10 0.7130372
370.20 0.7134522
370.30 0.7138615
370.40 0.7144667
370.50 0.7146763
370.60 0.7152822
370.70 0.7155009
370.80 0.7159034
370.90 0.7163054
371.00 0.7169116
371.10 0.7175191
371.20 0.7179193
371.30 0.718319
371.40 0.7186262
371.50 0.7190479
371.60 0.719469
371.70 0.7198895
371.80 0.7203095
371.90 0.720729
372.00 0.7213618
372.10 0.7215362
372.20 0.7220005
372.30 0.7224642
372.40 0.7229273
372.50 0.7233897
372.60 0.7238516
372.70 0.7243129
372.80 0.7247044
372.90 0.7250953
373.00 0.7254935
373.10 0.7258912
373.20 0.7262845
373.30 0.7266772
373.40 0.7272647
373.50 0.7276563
373.60 0.7280474
373.70 0.7286329
373.80 0.7288888
373.90 0.7294122
374.00 0.7298011
374.10 0.7301894
374.20 0.7305772
374.30 0.7309646
374.40 0.7315456
374.50 0.7321165
374.60 0.7325057
374.70 0.7328927
374.80 0.7332791
374.90 0.7336651
375.00 0.7340486
375.10 0.7344315
375.20 0.734814
375.30 0.7352512
375.40 0.7356878
375.50 0.7361239
375.60 0.7365594
375.70 0.7369943
375.80 0.7374287
375.90 0.7378624
376.00 0.738233
376.10 0.7386787
376.20 0.7391246
376.30 0.7395699
376.40 0.7400146
376.50 0.7404419
376.60 0.7408434
376.70 0.7412444
376.80 0.7416503
376.90 0.7420613
377.00 0.7424717
377.10 0.7428816
377.20 0.7432976
377.30 0.7437381
377.40 0.744178
377.50 0.7446174
377.60 0.7450536
377.70 0.7454892
377.80 0.7459242
377.90 0.7463587
378.00 0.7464611
378.10 0.7468959
378.20 0.7473385
378.30 0.7477804
378.40 0.7482219
378.50 0.7486627
378.60 0.749103
378.70 0.7495427
378.80 0.7499818
378.90 0.7504235
379.00 0.7508702
379.10 0.7512322
379.20 0.7515937
379.30 0.7520036
379.40 0.7524617
379.50 0.7529193
379.60 0.7532889
379.70 0.7535676
379.80 0.7539978
379.90 0.7544274
380.00 0.7548564
380.10 0.7552849
380.20 0.7557128
380.30 0.7561402
380.40 0.756567
380.50 0.7569933
380.60 0.7572875
380.70 0.7576585
380.80 0.758029
380.90 0.758399
381.00 0.7587685
381.10 0.7593081
381.20 0.7598052
381.30 0.7599635
381.40 0.7604424
381.50 0.7608116
381.60 0.7612505
381.70 0.7616932
381.80 0.7619448
381.90 0.7624795
382.00 0.7630136
382.10 0.7631739
382.20 0.7636323
382.30 0.7639783
382.40 0.7643818
382.50 0.7648716
382.60 0.7653609
382.70 0.7657923
382.80 0.7661655
382.90 0.7665448
383.00 0.7669236
383.10 0.7673019
383.20 0.7676885
383.30 0.7681073
383.40 0.7685157
383.50 0.7689086
383.60 0.7693184
383.70 0.7696974
383.80 0.7700759
383.90 0.7704539
384.00 0.7708315
384.10 0.7712085
384.20 0.771585
384.30 0.771961
384.40 0.7723347
384.50 0.772706
384.60 0.7730768
384.70 0.7734471
384.80 0.7738345
384.90 0.7742645
385.00 0.7746509
385.10 0.7750345
385.20 0.7754238
385.30 0.7759527
385.40 0.7764001
385.50 0.7767664
385.60 0.7771321
385.70 0.7774974
385.80 0.7778807
385.90 0.7783332
386.00 0.7787465
386.10 0.7791142
386.20 0.7794158
386.30 0.779717
386.40 0.7802087
386.50 0.7805064
386.60 0.7807726
386.70 0.7812795
386.80 0.7817858
386.90 0.7819276
387.00 0.7825329
387.10 0.7826739
387.20 0.7831505
387.30 0.7836815
387.40 0.7838191
387.50 0.7842745
387.60 0.7847876
387.70 0.7851076
387.80 0.7854272
387.90 0.7857463
388.00 0.7860897
388.10 0.7866482
388.20 0.7869509
388.30 0.7873485
388.40 0.7877455
388.50 0.788083
388.60 0.7883821
388.70 0.7888188
388.80 0.7893036
388.90 0.7894605
389.00 0.789984
389.10 0.7904071
389.20 0.7907368
389.30 0.7910594
389.40 0.7915743
389.50 0.7919617
389.60 0.792207
389.70 0.7926202
389.80 0.7930062
389.90 0.7933917
390.00 0.7937766
390.10 0.7941611
390.20 0.7945451
390.30 0.794929
390.40 0.7953129
390.50 0.7956962
390.60 0.7960791
390.70 0.7964614
390.80 0.7967508
390.90 0.7969475
391.00 0.7972927
391.10 0.7977494
391.20 0.7982262
391.30 0.7986901
391.40 0.7990525
391.50 0.7994144
391.60 0.7997758
391.70 0.8001367
391.80 0.8004972
391.90 0.8008076
392.00 0.8011035
392.10 0.8014619
392.20 0.8018048
392.30 0.8020572
392.40 0.8023866
392.50 0.8030007
392.60 0.8031837
392.70 0.8036577
392.80 0.8041312
392.90 0.8044523
393.00 0.8047933
393.10 0.8051416
393.20 0.8054925
393.30 0.8057873
393.40 0.8061063
393.50 0.8065973
393.60 0.8068212
393.70 0.8071538
393.80 0.8076062
393.90 0.8078984
394.00 0.8082289
394.10 0.8087531
394.20 0.8090546
394.30 0.809457
394.40 0.8096982
394.50 0.80993
394.60 0.8103013
394.70 0.8106764
394.80 0.8110673
394.90 0.811456
395.00 0.8118226
395.10 0.812253
395.20 0.8125823
395.30 0.8129661
395.40 0.8133494
395.50 0.8136693
395.60 0.8139654
395.70 0.814277
395.80 0.814631
395.90 0.8149846
396.00 0.8153451
396.10 0.8157391
396.20 0.8160214
396.30 0.8163501
396.40 0.816805
396.50 0.8172592
396.60 0.8173666
396.70 0.8178291
396.80 0.8182881
396.90 0.8185261
397.00 0.8187705
397.10 0.8192218
397.20 0.8194815
397.30 0.8198101
397.40 0.8201568
397.50 0.8205031
397.60 0.8208577
397.70 0.8212998
397.80 0.8217414
397.90 0.8221509
398.00 0.8224747
398.10 0.8227981
398.20 0.8231059
398.30 0.8233963
398.40 0.8236889
398.50 0.8240672
398.60 0.8244056
398.70 0.824699
398.80 0.8249844
398.90 0.8252912
399.00 0.825638
399.10 0.8259788
399.20 0.8263491
399.30 0.8267188
399.40 0.8270881
399.50 0.8274569
399.60 0.8277839
399.70 0.8280952
399.80 0.8284061
399.90 0.8287166
400.00 0.8290285
400.10 0.8293994
400.20 0.8297756
400.30 0.8301075
400.40 0.8304987
400.50 0.8306719
400.60 0.8310923
400.70 0.831356
400.80 0.8317432
400.90 0.8321756
401.00 0.8323687
401.10 0.8327003
401.20 0.833045
401.30 0.833534
401.40 0.8339231
401.50 0.8342587
401.60 0.8345947
401.70 0.8349583
401.80 0.8352826
401.90 0.8355411
402.00 0.8359572
402.10 0.8362031
402.20 0.8364608
402.30 0.8369117
402.40 0.8370979
402.50 0.837568
402.60 0.8378421
402.70 0.8380799
402.80 0.8385031
402.90 0.8387917
403.00 0.8390462
403.10 0.8394346
403.20 0.8397116
403.30 0.8400681
403.40 0.8403857
403.50 0.8407392
403.60 0.8410897
403.70 0.8412863
403.80 0.8415606
403.90 0.8419029
404.00 0.8422316
404.10 0.8426239
404.20 0.8428738
404.30 0.8431234
404.40 0.8435544
404.50 0.8439545
404.60 0.8443693
404.70 0.8444509
404.80 0.8447277
404.90 0.8452782
405.00 0.8453822
405.10 0.8457715
405.20 0.8461835
405.30 0.8465951
405.40 0.8468956
405.50 0.8471957
405.60 0.8474954
405.70 0.8477947
405.80 0.8480937
405.90 0.8483922
406.00 0.8487057
406.10 0.8490189
406.20 0.8493316
406.30 0.8496439
406.40 0.8499669
406.50 0.8503414
406.60 0.8505807
406.70 0.8509446
406.80 0.8512978
406.90 0.8514871
407.00 0.8517922
407.10 0.8520969
407.20 0.8524012
407.30 0.8527051
407.40 0.8530085
407.50 0.8533116
407.60 0.8536143
407.70 0.8539166
407.80 0.8542185
407.90 0.8545198
408.00 0.8548162
408.10 0.8551328
408.20 0.8554737
408.30 0.8557997
408.40 0.8561254
408.50 0.8565601
408.60 0.8568182
408.70 0.8570761
408.80 0.8573415
408.90 0.8576715
409.00 0.8580022
409.10 0.8583324
409.20 0.8586623
409.30 0.8589917
409.40 0.8593189
409.50 0.8595879
409.60 0.8598566
409.70 0.8601369
409.80 0.8604646
409.90 0.8607883
410.00 0.8609976
410.10 0.8613875
410.20 0.8616353
410.30 0.8618473
410.40 0.8620862
410.50 0.8624106
410.60 0.8627345
410.70 0.8630662
410.80 0.8634302
410.90 0.8637937
411.00 0.8641184
411.10 0.8644285
411.20 0.8647383
411.30 0.8650117
411.40 0.8651454
411.50 0.865407
411.60 0.8656682
411.70 0.8659535
411.80 0.866336
411.90 0.8667181
412.00 0.8670997
412.10 0.8671601
412.20 0.8675409
412.30 0.8678705
412.40 0.8680039
412.50 0.8683374
412.60 0.8686022
412.70 0.8689158
412.80 0.8692411
412.90 0.8697262
413.00 0.8697948
413.10 0.8701337
413.20 0.8704722
413.30 0.8708103
413.40 0.871148
413.50 0.8714663
413.60 0.8717211
413.70 0.8720158
413.80 0.8723102
413.90 0.8726041
414.00 0.8728787
414.10 0.8730925
414.20 0.8733441
414.30 0.8737159
414.40 0.8738335
414.50 0.8741338
414.60 0.8744737
414.70 0.8746856
414.80 0.874916
414.90 0.8752063
415.00 0.8754962
415.10 0.8757858
415.20 0.8760697
415.30 0.8763366
415.40 0.8766031
415.50 0.8768723
415.60 0.8772417
415.70 0.8776106
415.80 0.8779385
415.90 0.8781379
416.00 0.878337
416.10 0.8785626
416.20 0.8788946
416.30 0.8792261
416.40 0.8795573
416.50 0.8798842
416.60 0.8800896
416.70 0.8802994
416.80 0.8806642
416.90 0.881022
417.00 0.8812025
417.10 0.8814298
417.20 0.8817897
417.30 0.8821456
417.40 0.8823858
417.50 0.8826257
417.60 0.8828931
417.70 0.8832672
417.80 0.8835206
417.90 0.8837736
418.00 0.8840263
418.10 0.8842786
418.20 0.8845306
418.30 0.8847857
418.40 0.8851236
418.50 0.8853761
418.60 0.8856282
418.70 0.88588
418.80 0.8861314
418.90 0.8863825
419.00 0.8866332
419.10 0.8868836
419.20 0.8871337
419.30 0.8873862
419.40 0.8877291
419.50 0.8880715
419.60 0.8883859
419.70 0.8885895
419.80 0.8887927
419.90 0.8890124
420.00 0.8892848
420.10 0.8895568
420.20 0.8898284
420.30 0.8900997
420.40 0.8903706
420.50 0.8906411
420.60 0.8909113
420.70 0.8911812
420.80 0.8914506
420.90 0.8917189
421.00 0.8919586
421.10 0.892198
421.20 0.8924467
421.30 0.8927235
421.40 0.893
421.50 0.8932762
421.60 0.893552
421.70 0.8938274
421.80 0.8941024
421.90 0.8943535
422.00 0.8945295
422.10 0.8947203
422.20 0.8949713
422.30 0.895222
422.40 0.8954729
422.50 0.895743
422.60 0.8960127
422.70 0.896282
422.80 0.896551
422.90 0.8968196
423.00 0.8970879
423.10 0.8973558
423.20 0.8976234
423.30 0.8978906
423.40 0.8981575
423.50 0.898424
423.60 0.8986901
423.70 0.8989559
423.80 0.8992214
423.90 0.8994865
424.00 0.8997512
424.10 0.9000157
424.20 0.9002797
424.30 0.9005434
424.40 0.9006619
424.50 0.9009094
424.60 0.9011565
424.70 0.9014033
424.80 0.9016497
424.90 0.9018959
425.00 0.9021417
425.10 0.9023872
425.20 0.9026323
425.30 0.9028771
425.40 0.9031227
425.50 0.9033757
425.60 0.9036284
425.70 0.9038807
425.80 0.9041327
425.90 0.9043844
426.00 0.9046357
426.10 0.9048867
426.20 0.9051374
426.30 0.9053877
426.40 0.9056377
426.50 0.9058873
426.60 0.9061366
426.70 0.9063856
426.80 0.9066343
426.90 0.9068822
427.00 0.9071193
427.10 0.9073561
427.20 0.9075926
427.30 0.9078287
427.40 0.9080645
427.50 0.9083
427.60 0.9085351
427.70 0.90877
427.80 0.9090045
427.90 0.9092387
428.00 0.9094726
428.10 0.9097062
428.20 0.9099395
428.30 0.9101724
428.40 0.910405
428.50 0.9106373
428.60 0.9108693
428.70 0.911101
428.80 0.9113329
428.90 0.9115713
429.00 0.9118093
429.10 0.9120471
429.20 0.9122845
429.30 0.9125216
429.40 0.9127584
429.50 0.9129949
429.60 0.913231
429.70 0.9134669
429.80 0.9137024
429.90 0.9139376
430.00 0.9141725
430.10 0.914407
430.20 0.9146413
430.30 0.9148752
430.40 0.9151088
430.50 0.9153421
430.60 0.9155751
430.70 0.9158078
430.80 0.9160401
430.90 0.9162721
431.00 0.9165039
431.10 0.9167353
431.20 0.9169664
431.30 0.9171963
431.40 0.9174151
431.50 0.9176336
431.60 0.9178517
431.70 0.9180696
431.80 0.9182871
431.90 0.9185044
432.00 0.9187214
432.10 0.918938
432.20 0.9191544
432.30 0.9193705
432.40 0.9195862
432.50 0.9198017
432.60 0.9200169
432.70 0.9202317
432.80 0.9204463
432.90 0.9206606
433.00 0.9208746
433.10 0.9210883
433.20 0.9213017
433.30 0.921514
433.40 0.9217165
433.50 0.9219188
433.60 0.9221207
433.70 0.9223224
433.80 0.9225265
433.90 0.9227338
434.00 0.9229472
434.10 0.9231644
434.20 0.9233813
434.30 0.9235979
434.40 0.9238142
434.50 0.9240303
434.60 0.924246
434.70 0.9244614
434.80 0.9246772
434.90 0.9249021
435.00 0.9251267
435.10 0.925351
435.20 0.9255749
435.30 0.9257986
435.40 0.926022
435.50 0.9262451
435.60 0.9264678
435.70 0.9266903
435.80 0.9269124
435.90 0.9271343
436.00 0.9273559
436.10 0.9275771
436.20 0.9277981
436.30 0.928008
436.40 0.9282061
436.50 0.9284246
436.60 0.9286428
436.70 0.9288607
436.80 0.9290783
436.90 0.9292956
437.00 0.9295126
437.10 0.9297294
437.20 0.9299145
437.30 0.9300706
437.40 0.930229
437.50 0.9304204
437.60 0.9306115
437.70 0.9308024
437.80 0.930993
437.90 0.9311833
438.00 0.9313758
438.10 0.9316007
438.20 0.9318252
438.30 0.9321532
438.40 0.932232
438.50 0.9325151
438.60 0.9327978
438.70 0.9328892
438.80 0.9330794
438.90 0.9333612
439.00 0.9336327
439.10 0.9337726
439.20 0.9339171
439.30 0.9341271
439.40 0.9343367
439.50 0.9345461
439.60 0.9347467
439.70 0.9348413
439.80 0.9349951
439.90 0.9352127
440.00 0.9354301
440.10 0.9356471
440.20 0.9358623
440.30 0.9360554
440.40 0.9362482
440.50 0.9364408
440.60 0.9366331
440.70 0.9368251
440.80 0.9370168
440.90 0.9372083
441.00 0.9373995
441.10 0.9375905
441.20 0.9377864
441.30 0.9380521
441.40 0.9382644
441.50 0.9384117
441.60 0.9385588
441.70 0.9386875
441.80 0.9389017
441.90 0.9391156
442.00 0.9393293
442.10 0.9395426
442.20 0.9397557
442.30 0.9399685
442.40 0.9401816
442.50 0.9403952
442.60 0.9406085
442.70 0.9408171
442.80 0.941011
442.90 0.9411004
443.00 0.9412171
443.10 0.9413674
443.20 0.9415668
443.30 0.9418116
443.40 0.9420043
443.50 0.9421334
443.60 0.9423246
443.70 0.9425917
443.80 0.9428583
443.90 0.9428483
444.00 0.9431144
444.10 0.9433802
444.20 0.9436112
444.30 0.9437752
444.40 0.9438769
444.50 0.9439784
444.60 0.9441643
444.70 0.9444533
444.80 0.9446877
444.90 0.9448716
445.00 0.9450553
445.10 0.9452387
445.20 0.9454195
445.30 0.9455971
445.40 0.9457745
445.50 0.9459517
445.60 0.9461286
445.70 0.9463052
445.80 0.9464843
445.90 0.9466657
446.00 0.9468468
446.10 0.9470276
446.20 0.9472095
446.30 0.9473669
446.40 0.9475008
446.50 0.9476913
446.60 0.9478814
446.70 0.9480713
446.80 0.9482254
446.90 0.9483466
447.00 0.9485385
447.10 0.9487955
447.20 0.9487798
447.30 0.9490362
447.40 0.9492216
447.50 0.9493415
447.60 0.9495504
447.70 0.9498414
447.80 0.9499423
447.90 0.9500809
448.00 0.9502326
448.10 0.9503963
448.20 0.9505598
448.30 0.950723
448.40 0.950886
448.50 0.9510488
448.60 0.951251
448.70 0.9514897
448.80 0.9517226
448.90 0.9518837
449.00 0.9520446
449.10 0.9522053
449.20 0.9523657
449.30 0.9525329
449.40 0.9526528
449.50 0.9527726
449.60 0.9529263
449.70 0.9531115
449.80 0.9532964
449.90 0.9534811
450.00 0.9536655
450.10 0.9538496
450.20 0.9540335
450.30 0.9542171
450.40 0.9543752
450.50 0.9545331
450.60 0.9546908
450.70 0.9548482
450.80 0.9550054
450.90 0.9551623
451.00 0.9552787
451.10 0.9553949
451.20 0.9554905
451.30 0.9556095
451.40 0.9558545
451.50 0.9560992
451.60 0.9560765
451.70 0.9563206
451.80 0.9565645
451.90 0.9565413
452.00 0.9567847
452.10 0.9570277
452.20 0.9572039
452.30 0.9573798
452.40 0.9575554
452.50 0.9577308
452.60 0.9578467
452.70 0.9579879
452.80 0.9581526
452.90 0.9583171
453.00 0.9584813
453.10 0.9586453
453.20 0.9587892
453.30 0.9589328
453.40 0.9590763
453.50 0.9592195
453.60 0.9593624
453.70 0.9595052
453.80 0.9596348
453.90 0.9597485
454.00 0.959862
454.10 0.9599753
454.20 0.9601308
454.30 0.9602861
454.40 0.9604412
454.50 0.9605961
454.60 0.9607507
454.70 0.9609046
454.80 0.9610579
454.90 0.9612109
455.00 0.9613637
455.10 0.9615163
455.20 0.9616686
455.30 0.9618207
455.40 0.9619726
455.50 0.9621243
455.60 0.9622757
455.70 0.9624269
455.80 0.962567
455.90 0.9627069
456.00 0.9628466
456.10 0.9629923
456.20 0.9631545
456.30 0.9633165
456.40 0.9634782
456.50 0.9636397
456.60 0.963801
456.70 0.963962
456.80 0.9641228
456.90 0.9642834
457.00 0.9644437
457.10 0.9646039
457.20 0.9647218
457.30 0.964865
457.40 0.965008
457.50 0.9651507
457.60 0.9652933
457.70 0.9654356
457.80 0.9655777
457.90 0.9657196
458.00 0.9658613
458.10 0.9660028
458.20 0.966144
458.30 0.9662851
458.40 0.9664259
458.50 0.9665665
458.60 0.9667069
458.70 0.9668346
458.80 0.966957
458.90 0.9670793
459.00 0.9672013
459.10 0.9673231
459.20 0.9674448
459.30 0.9675822
459.40 0.9677193
459.50 0.9678563
459.60 0.967993
459.70 0.9681295
459.80 0.9682659
459.90 0.968402
460.00 0.9685379
460.10 0.9686736
460.20 0.9688091
460.30 0.9689443
460.40 0.9690794
460.50 0.9692143
460.60 0.9693489
460.70 0.9694927
460.80 0.9696409
460.90 0.9697889
461.00 0.9699366
461.10 0.9700842
461.20 0.970209
461.30 0.9703245
461.40 0.9704421
461.50 0.97056
461.60 0.9706778
461.70 0.9707953
461.80 0.9709111
461.90 0.9710268
462.00 0.9711423
462.10 0.9712575
462.20 0.9713726
462.30 0.9714875
462.40 0.9716022
462.50 0.9717167
462.60 0.971831
462.70 0.9719452
462.80 0.9720591
462.90 0.9721729
463.00 0.9722864
463.10 0.9723998
463.20 0.9725259
463.30 0.972657
463.40 0.9727879
463.50 0.9729186
463.60 0.9730491
463.70 0.9731794
463.80 0.9733095
463.90 0.9734504
464.00 0.9735938
464.10 0.9737369
464.20 0.9738799
464.30 0.9740227
464.40 0.9741652
464.50 0.9743076
464.60 0.9744497
464.70 0.9745742
464.80 0.9746913
464.90 0.9748083
465.00 0.9749251
465.10 0.9750417
465.20 0.9751581
465.30 0.9752654
465.40 0.9753667
465.50 0.9754678
465.60 0.9755687
465.70 0.9756694
465.80 0.97577
465.90 0.9758968
466.00 0.97603
466.10 0.976163
466.20 0.9762957
466.30 0.9764104
466.40 0.9765176
466.50 0.9766247
466.60 0.9767315
466.70 0.9768382
466.80 0.9769447
466.90 0.977051
467.00 0.9771571
467.10 0.9772631
467.20 0.9773689
467.30 0.9774918
467.40 0.9776142
467.50 0.9777347
467.60 0.9778549
467.70 0.977975
467.80 0.9780949
467.90 0.9781861
468.00 0.9782655
468.10 0.9783448
468.20 0.9784239
468.30 0.978591
468.40 0.9787939
468.50 0.9787484
468.60 0.9789455
468.70 0.9791531
468.80 0.9791026
468.90 0.9792559
469.00 0.9793107
469.10 0.9794204
469.20 0.9795596
469.30 0.9796987
469.40 0.9798376
469.50 0.9799604
469.60 0.9800766
469.70 0.9801926
469.80 0.9803085
469.90 0.9803815
470.00 0.9803263
470.10 0.9804325
470.20 0.9805675
470.30 0.9807023
470.40 0.9808369
470.50 0.9809713
470.60 0.9810582
470.70 0.9811331
470.80 0.9812079
470.90 0.9812825
471.00 0.9815047
471.10 0.981667
471.20 0.9816035
471.30 0.9818001
471.40 0.9817513
471.50 0.9819475
471.60 0.9820454
471.70 0.9821187
471.80 0.9822408
471.90 0.9823749
472.00 0.9825089
472.10 0.9826426
472.20 0.9827204
472.30 0.982784
472.40 0.9828475
472.50 0.9829109
472.60 0.9829741
472.70 0.9830776
472.80 0.9831783
472.90 0.983274
473.00 0.9833696
473.10 0.983465
473.20 0.9835603
473.30 0.9836554
473.40 0.9837503
473.50 0.983845
473.60 0.9839396
473.70 0.984034
473.80 0.9841477
473.90 0.9842662
474.00 0.9843844
474.10 0.9845025
474.20 0.9846142
474.30 0.9847231
474.40 0.9848319
474.50 0.9849406
474.60 0.9850467
474.70 0.9851291
474.80 0.9852114
474.90 0.9852935
475.00 0.9853754
475.10 0.9854572
475.20 0.9855389
475.30 0.9856203
475.40 0.9857101
475.50 0.9858018
475.60 0.9858934
475.70 0.9859847
475.80 0.986076
475.90 0.986167
476.00 0.9862579
476.10 0.9863486
476.20 0.9864263
476.30 0.9864987
476.40 0.9865708
476.50 0.9866429
476.60 0.9867147
476.70 0.9867865
476.80 0.9868581
476.90 0.9869438
477.00 0.9870329
477.10 0.9871219
477.20 0.9872107
477.30 0.9872994
477.40 0.9873879
477.50 0.9874762
477.60 0.9875644
477.70 0.9876524
477.80 0.9877402
477.90 0.9878279
478.00 0.9879154
478.10 0.9880028
478.20 0.98809
478.30 0.9881771
478.40 0.988264
478.50 0.9883507
478.60 0.9884373
478.70 0.9885226
478.80 0.9886073
478.90 0.9886983
479.00 0.9887906
479.10 0.9888828
479.20 0.9889749
479.30 0.9890668
479.40 0.9891457
479.50 0.9892169
479.60 0.989288
479.70 0.989359
479.80 0.9894298
479.90 0.9895005
480.00 0.989571
480.10 0.9896414
480.20 0.9897116
480.30 0.9897817
480.40 0.9898517
480.50 0.9899215
480.60 0.9899911
480.70 0.9900607
480.80 0.99013
480.90 0.9901993
481.00 0.9902684
481.10 0.9903373
481.20 0.9904208
481.30 0.9905041
481.40 0.9905872
481.50 0.9906702
481.60 0.9907531
481.70 0.9908358
481.80 0.9909183
481.90 0.9910007
482.00 0.9910829
482.10 0.991165
482.20 0.9912462
482.30 0.9913179
482.40 0.9913894
482.50 0.9914608
482.60 0.991532
482.70 0.9916031
482.80 0.991674
482.90 0.9917448
483.00 0.9918155
483.10 0.991886
483.20 0.9919563
483.30 0.9920265
483.40 0.9920966
483.50 0.9921666
483.60 0.9922364
483.70 0.9922654
483.80 0.9922944
483.90 0.9923232
484.00 0.992352
484.10 0.9923806
484.20 0.9924489
484.30 0.9925341
484.40 0.9926192
484.50 0.9927041
484.60 0.9927888
484.70 0.9928728
484.80 0.9929488
484.90 0.9930246
485.00 0.9931002
485.10 0.9931757
485.20 0.9932511
485.30 0.9933263
485.40 0.9934014
485.50 0.9934763
485.60 0.9935511
485.70 0.9936068
485.80 0.9936624
485.90 0.9937178
486.00 0.9937731
486.10 0.9938283
486.20 0.9938833
486.30 0.9939383
486.40 0.993993
486.50 0.9940477
486.60 0.9941022
486.70 0.9941559
486.80 0.9941993
486.90 0.9942426
487.00 0.9942858
487.10 0.9943289
487.20 0.9943826
487.30 0.9944363
487.40 0.9944898
487.50 0.9945432
487.60 0.9945965
487.70 0.9946496
487.80 0.9947026
487.90 0.9947555
488.00 0.9948083
488.10 0.9948609
488.20 0.9949159
488.30 0.9950041
488.40 0.9950922
488.50 0.9951801
488.60 0.9952678
488.70 0.9953554
488.80 0.9953673
488.90 0.9953791
489.00 0.9954049
489.10 0.9954671
489.20 0.9955292
489.30 0.9955911
489.40 0.9956529
489.50 0.9957145
489.60 0.9957761
489.70 0.9958375
489.80 0.9959163
489.90 0.9959575
490.00 0.9959985
490.10 0.9960394
490.20 0.9960802
490.30 0.9961208
490.40 0.9961676
490.50 0.9962143
490.60 0.9962609
490.70 0.9963073
490.80 0.9963832
490.90 0.9963998
491.00 0.9965589
491.10 0.9964919
491.20 0.9966506
491.30 0.9965834
491.40 0.9966585
491.50 0.9966745
491.60 0.9968481
491.70 0.9968432
491.80 0.9968397
491.90 0.9968552
492.00 0.9969395
492.10 0.9970967
492.20 0.9970289
492.30 0.9971858
492.40 0.9971078
492.50 0.9971227
492.60 0.9971983
492.70 0.9972424
492.80 0.9972863
492.90 0.9973301
493.00 0.9973734
493.10 0.9974108
493.20 0.997448
493.30 0.9974852
493.40 0.9975222
493.50 0.9975592
493.60 0.9976372
493.70 0.9977334
493.80 0.9978295
493.90 0.9978988
494.00 0.9979261
494.10 0.9979514
494.20 0.9979724
494.30 0.9979933
494.40 0.9980141
494.50 0.9980348
494.60 0.9980602
494.70 0.9981486
494.80 0.9982156
494.90 0.9982215
495.00 0.9982274
495.10 0.9982332
495.20 0.998289
495.30 0.9983448
495.40 0.9984003
495.50 0.9984558
495.60 0.9985111
495.70 0.9985663
495.80 0.9986214
495.90 0.9986763
496.00 0.9987312
496.10 0.9987529
496.20 0.99871
496.30 0.9987423
496.40 0.9987744
496.50 0.9988065
496.60 0.9988384
496.70 0.9988949
496.80 0.9989513
496.90 0.9990075
497.00 0.9990636
497.10 0.9991196
497.20 0.9991754
497.30 0.9992096
497.40 0.9991823
497.50 0.9991549
497.60 0.9991768
497.70 0.9992967
497.80 0.9993315
497.90 0.9993662
498.00 0.9994008
498.10 0.9994352
498.20 0.9994696
498.30 0.9995039
498.40 0.999538
498.50 0.9995721
498.60 0.999606
498.70 0.9996432
498.80 0.9996803
498.90 0.9996959
499.00 0.9997114
499.10 0.9997268
499.20 0.999741
499.30 0.9997541
499.40 0.9997708
499.50 0.9997874
499.60 0.9998039
499.70 0.9998233
499.80 0.9998823
499.90 0.9999412
500.00 1
500.10 1.000059
500.20 1.000098
500.30 1.000097
500.40 1.000097
500.50 1.000096
500.60 1.000095
500.70 1.000094
500.80 1.000112
500.90 1.00017
501.00 1.000228
501.10 1.000287
501.20 1.000243
501.30 1.000278
501.40 1.000347
501.50 1.000273
501.60 1.000415
501.70 1.000341
501.80 1.000449
501.90 1.000482
502.00 1.000501
502.10 1.000486
502.20 1.00048
502.30 1.000575
502.40 1.000639
502.50 1.000636
502.60 1.000633
502.70 1.00063
502.80 1.000627
502.90 1.000624
503.00 1.000631
503.10 1.000657
503.20 1.000683
503.30 1.000709
503.40 1.000733
503.50 1.000751
503.60 1.000768
503.70 1.000786
503.80 1.000811
503.90 1.00089
504.00 1.000953
504.10 1.000978
504.20 1.001003
504.30 1.001028
504.40 1.001055
504.50 1.001086
504.60 1.001006
504.70 1.001069
504.80 1.001031
504.90 1.001131
505.00 1.001027
505.10 1.001058
505.20 1.00109
505.30 1.001127
505.40 1.001164
505.50 1.001201
505.60 1.001234
505.70 1.00126
505.80 1.001286
505.90 1.001311
506.00 1.001337
506.10 1.001362
506.20 1.001383
506.30 1.001392
506.40 1.0014
506.50 1.001409
506.60 1.001417
506.70 1.001425
506.80 1.001433
506.90 1.001441
507.00 1.001449
507.10 1.001456
507.20 1.001464
507.30 1.001479
507.40 1.001494
507.50 1.001509
507.60 1.001524
507.70 1.001539
507.80 1.001554
507.90 1.001569
508.00 1.001584
508.10 1.001598
508.20 1.001613
508.30 1.001627
508.40 1.001642
508.50 1.001656
508.60 1.00167
508.70 1.001684
508.80 1.001592
508.90 1.00152
509.00 1.001561
509.10 1.001591
509.20 1.001598
509.30 1.001606
509.40 1.001613
509.50 1.00162
509.60 1.001627
509.70 1.001634
509.80 1.00164
509.90 1.001647
510.00 1.001654
510.10 1.00166
510.20 1.001667
510.30 1.001675
510.40 1.001686
510.50 1.001698
510.60 1.001709
510.70 1.00172
510.80 1.001731
510.90 1.001742
511.00 1.001753
511.10 1.001764
511.20 1.001775
511.30 1.001786
511.40 1.001797
511.50 1.001807
511.60 1.001812
511.70 1.001803
511.80 1.001795
511.90 1.001786
512.00 1.001777
512.10 1.001769
512.20 1.00176
512.30 1.001754
512.40 1.001755
512.50 1.001756
512.60 1.001757
512.70 1.001758
512.80 1.001759
512.90 1.00176
513.00 1.001761
513.10 1.001761
513.20 1.001762
513.30 1.001762
513.40 1.001763
513.50 1.001763
513.60 1.001763
513.70 1.001764
513.80 1.001764
513.90 1.001764
514.00 1.00176
514.10 1.001755
514.20 1.00175
514.30 1.001745
514.40 1.00174
514.50 1.001735
514.60 1.00173
514.70 1.001725
514.80 1.00172
514.90 1.001715
515.00 1.001709
515.10 1.001704
515.20 1.001698
515.30 1.001693
515.40 1.001687
515.50 1.001681
515.60 1.001675
515.70 1.001669
515.80 1.001664
515.90 1.001658
516.00 1.001651
516.10 1.001645
516.20 1.001639
516.30 1.001633
516.40 1.001626
516.50 1.00162
516.60 1.001614
516.70 1.001607
516.80 1.001601
516.90 1.001594
517.00 1.001587
517.10 1.001581
517.20 1.001574
517.30 1.001567
517.40 1.00156
517.50 1.001553
517.60 1.001546
517.70 1.001539
517.80 1.001532
517.90 1.001524
518.00 1.001517
518.10 1.00151
518.20 1.001502
518.30 1.001495
518.40 1.001487
518.50 1.001479
518.60 1.001472
518.70 1.001464
518.80 1.001456
518.90 1.001448
519.00 1.00144
519.10 1.001428
519.20 1.001412
519.30 1.001396
519.40 1.00138
519.50 1.001364
519.60 1.001348
519.70 1.001332
519.80 1.001316
519.90 1.001299
520.00 1.001283
520.10 1.001266
520.20 1.00125
520.30 1.001233
520.40 1.001217
520.50 1.0012
520.60 1.001183
520.70 1.001166
520.80 1.001149
520.90 1.001132
521.00 1.001115
521.10 1.001098
521.20 1.001081
521.30 1.001064
521.40 1.001047
521.50 1.001029
521.60 1.001012
521.70 1.000995
521.80 1.000977
521.90 1.00096
522.00 1.000942
522.10 1.000924
522.20 1.000906
522.30 1.000889
522.40 1.000871
522.50 1.000853
522.60 1.000835
522.70 1.000817
522.80 1.000799
522.90 1.000781
523.00 1.000762
523.10 1.000744
523.20 1.000726
523.30 1.000707
523.40 1.000689
523.50 1.000671
523.60 1.000652
523.70 1.000633
523.80 1.000615
523.90 1.000596
524.00 1.000577
524.10 1.000558
524.20 1.000539
524.30 1.000518
524.40 1.000496
524.50 1.000473
524.60 1.00045
524.70 1.000428
524.80 1.000405
524.90 1.000382
525.00 1.000359
525.10 1.000336
525.20 1.000313
525.30 1.00029
525.40 1.000267
525.50 1.000244
525.60 1.000221
525.70 1.000197
525.80 1.000174
525.90 1.000151
526.00 1.000127
526.10 1.000104
526.20 1.00008
526.30 1.000057
526.40 1.000033
526.50 1.000009
526.60 0.9999855
526.70 0.9999617
526.80 0.9999378
526.90 0.9999139
527.00 0.9998899
527.10 0.9998658
527.20 0.9998417
527.30 0.9998176
527.40 0.9997934
527.50 0.9997692
527.60 0.9997448
527.70 0.9997205
527.80 0.9996961
527.90 0.9996716
528.00 0.9996471
528.10 0.9996225
528.20 0.9995979
528.30 0.9995732
528.40 0.9995485
528.50 0.9995237
528.60 0.9994989
528.70 0.999474
528.80 0.999449
528.90 0.999424
529.00 0.999399
529.10 0.9993739
529.20 0.9993487
529.30 0.9993235
529.40 0.9992983
529.50 0.9992709
529.60 0.999231
529.70 0.999191
529.80 0.999151
529.90 0.9991109
530.00 0.9990708
530.10 0.9990306
530.20 0.9989904
530.30 0.9989502
530.40 0.9989099
530.50 0.9988696
530.60 0.9988292
530.70 0.9987888
530.80 0.9987484
530.90 0.9987079
531.00 0.9986674
531.10 0.9986268
531.20 0.9985862
531.30 0.9985456
531.40 0.9985049
531.50 0.9984642
531.60 0.9984234
531.70 0.9983826
531.80 0.9983418
531.90 0.9983009
532.00 0.99826
532.10 0.998219
532.20 0.9981829
532.30 0.9981492
532.40 0.9981155
532.50 0.9980818
532.60 0.998048
532.70 0.9980142
532.80 0.9979803
532.90 0.9979464
533.00 0.9979124
533.10 0.9978784
533.20 0.9978443
533.30 0.9978102
533.40 0.9977761
533.50 0.9977419
533.60 0.9977077
533.70 0.9976734
533.80 0.9976391
533.90 0.9976047
534.00 0.9975703
534.10 0.9975358
534.20 0.9975013
534.30 0.9974668
534.40 0.9974322
534.50 0.9973976
534.60 0.9973629
534.70 0.9973282
534.80 0.9972921
534.90 0.9972503
535.00 0.9972085
535.10 0.9971666
535.20 0.9971247
535.30 0.9970828
535.40 0.9970408
535.50 0.9969988
535.60 0.9969567
535.70 0.9969147
535.80 0.9968725
535.90 0.9968304
536.00 0.9967882
536.10 0.9967459
536.20 0.9967037
536.30 0.9966613
536.40 0.996619
536.50 0.9965766
536.60 0.9965342
536.70 0.9964917
536.80 0.9964492
536.90 0.9964067
537.00 0.9963641
537.10 0.9963215
537.20 0.9962788
537.30 0.9962361
537.40 0.9961934
537.50 0.9961506
537.60 0.9961078
537.70 0.996065
537.80 0.9960221
537.90 0.9959792
538.00 0.9959363
538.10 0.9958933
538.20 0.9958503
538.30 0.9958072
538.40 0.9957641
538.50 0.995721
538.60 0.9956778
538.70 0.9956346
538.80 0.9955914
538.90 0.9955481
539.00 0.9955048
539.10 0.9954614
539.20 0.995418
539.30 0.9953746
539.40 0.9953311
539.50 0.9952876
539.60 0.9952441
539.70 0.9952005
539.80 0.9951569
539.90 0.9951133
540.00 0.9950696
540.10 0.9950259
540.20 0.994975
540.30 0.9949211
540.40 0.9948672
540.50 0.9948133
540.60 0.9947593
540.70 0.9947053
540.80 0.9946513
540.90 0.9945973
541.00 0.9945432
541.10 0.9944891
541.20 0.994435
541.30 0.9943808
541.40 0.9943266
541.50 0.9942724
541.60 0.9942182
541.70 0.9941639
541.80 0.9941096
541.90 0.9940553
542.00 0.9940009
542.10 0.9939466
542.20 0.9938921
542.30 0.9938377
542.40 0.9937833
542.50 0.9937288
542.60 0.9936742
542.70 0.9936197
542.80 0.9935651
542.90 0.9935105
543.00 0.9934559
543.10 0.9934013
543.20 0.9933466
543.30 0.9932919
543.40 0.9932371
543.50 0.9931824
543.60 0.9931276
543.70 0.9930728
543.80 0.9930179
543.90 0.9929631
544.00 0.9929082
544.10 0.9928533
544.20 0.9927983
544.30 0.9927433
544.40 0.9926883
544.50 0.9926333
544.60 0.9925783
544.70 0.9925232
544.80 0.9924681
544.90 0.9924129
545.00 0.9923578
545.10 0.9923026
545.20 0.9922474
545.30 0.9921922
545.40 0.9921369
545.50 0.9920816
545.60 0.9920218
545.70 0.99196
545.80 0.9918981
545.90 0.9918363
546.00 0.9917744
546.10 0.9917125
546.20 0.9916506
546.30 0.9915887
546.40 0.9915268
546.50 0.9914648
546.60 0.9914028
546.70 0.9913408
546.80 0.9912788
546.90 0.9912167
547.00 0.9911546
547.10 0.9910925
547.20 0.9910304
547.30 0.9909683
547.40 0.9909061
547.50 0.9908439
547.60 0.9907817
547.70 0.9907195
547.80 0.9906573
547.90 0.990595
548.00 0.9905327
548.10 0.9904704
548.20 0.9904081
548.30 0.9903458
548.40 0.9902836
548.50 0.9902213
548.60 0.990159
548.70 0.9900967
548.80 0.9900343
548.90 0.989972
549.00 0.9899096
549.10 0.9898472
549.20 0.9897848
549.30 0.9897224
549.40 0.9896599
549.50 0.9895974
549.60 0.9895349
549.70 0.9894724
549.80 0.9894099
549.90 0.9893473
550.00 0.9892847
550.10 0.9892221
550.20 0.9891595
550.30 0.9890969
550.40 0.9890342
550.50 0.9889716
550.60 0.9889089
550.70 0.9888461
550.80 0.9887834
550.90 0.9887207
551.00 0.9886574
551.10 0.9885916
551.20 0.9885258
551.30 0.98846
551.40 0.9883941
551.50 0.9883282
551.60 0.9882624
551.70 0.9881965
551.80 0.9881305
551.90 0.9880646
552.00 0.9879986
552.10 0.9879327
552.20 0.9878667
552.30 0.9878007
552.40 0.9877346
552.50 0.9876686
552.60 0.9876025
552.70 0.9875365
552.80 0.9874704
552.90 0.9874043
553.00 0.9873381
553.10 0.987272
553.20 0.9872058
553.30 0.9871397
553.40 0.9870735
553.50 0.9870073
553.60 0.986941
553.70 0.9868748
553.80 0.9868085
553.90 0.9867423
554.00 0.986676
554.10 0.9866097
554.20 0.9865433
554.30 0.986477
554.40 0.9864106
554.50 0.9863443
554.60 0.9862779
554.70 0.9862115
554.80 0.986145
554.90 0.9860786
555.00 0.9860121
555.10 0.9859457
555.20 0.9858792
555.30 0.9858127
555.40 0.9857462
555.50 0.9856796
555.60 0.9856131
555.70 0.9855465
555.80 0.9854799
555.90 0.9854133
556.00 0.9853467
556.10 0.9852801
556.20 0.9852134
556.30 0.9851468
556.40 0.9850801
556.50 0.985013
556.60 0.9849371
556.70 0.9848612
556.80 0.9847853
556.90 0.9847094
557.00 0.9846335
557.10 0.9845576
557.20 0.9844817
557.30 0.9844058
557.40 0.9843298
557.50 0.9842539
557.60 0.9841779
557.70 0.984102
557.80 0.984026
557.90 0.98395
558.00 0.983874
558.10 0.983798
558.20 0.983722
558.30 0.983646
558.40 0.98357
558.50 0.9834939
558.60 0.9834179
558.70 0.9833418
558.80 0.9832658
558.90 0.9831897
559.00 0.9831136
559.10 0.9830376
559.20 0.9829615
559.30 0.9828854
559.40 0.9828092
559.50 0.9827331
559.60 0.982657
559.70 0.9825809
559.80 0.9825047
559.90 0.9824286
560.00 0.9823524
560.10 0.9822762
560.20 0.9822001
560.30 0.9821239
560.40 0.9820477
560.50 0.9819715
560.60 0.9818953
560.70 0.981819
560.80 0.9817428
560.90 0.9816666
561.00 0.9815903
561.10 0.9815141
561.20 0.9814378
561.30 0.9813616
561.40 0.9812853
561.50 0.981209
561.60 0.9811327
561.70 0.9810564
561.80 0.9809801
561.90 0.9809038
562.00 0.9808275
562.10 0.9807476
562.20 0.9806624
562.30 0.9805771
562.40 0.9804919
562.50 0.9804067
562.60 0.9803214
562.70 0.9802362
562.80 0.980151
562.90 0.9800657
563.00 0.9799805
563.10 0.9798952
563.20 0.97981
563.30 0.9797248
563.40 0.9796395
563.50 0.9795543
563.60 0.979469
563.70 0.9793838
563.80 0.9792985
563.90 0.9792133
564.00 0.979128
564.10 0.9790428
564.20 0.9789575
564.30 0.9788722
564.40 0.978787
564.50 0.9787017
564.60 0.9786165
564.70 0.9785312
564.80 0.978446
564.90 0.9783607
565.00 0.9782755
565.10 0.9781904
565.20 0.9781052
565.30 0.97802
565.40 0.9779349
565.50 0.9778497
565.60 0.9777645
565.70 0.9776793
565.80 0.9775942
565.90 0.977509
566.00 0.9774238
566.10 0.9773386
566.20 0.9772534
566.30 0.9771683
566.40 0.9770831
566.50 0.9769979
566.60 0.9769127
566.70 0.9768275
566.80 0.9767423
566.90 0.9766572
567.00 0.976572
567.10 0.9764868
567.20 0.9764016
567.30 0.9763164
567.40 0.9762312
567.50 0.976146
567.60 0.9760608
567.70 0.9759752
567.80 0.9758874
567.90 0.9757996
568.00 0.9757118
568.10 0.975624
568.20 0.9755362
568.30 0.9754484
568.40 0.9753607
568.50 0.9752729
568.60 0.9751851
568.70 0.9750973
568.80 0.9750096
568.90 0.9749218
569.00 0.974834
569.10 0.9747463
569.20 0.9746585
569.30 0.9745707
569.40 0.974483
569.50 0.9743952
569.60 0.9743074
569.70 0.9742197
569.80 0.9741319
569.90 0.9740442
570.00 0.9739564
570.10 0.9738687
570.20 0.9737809
570.30 0.9736931
570.40 0.9736054
570.50 0.9735177
570.60 0.9734299
570.70 0.9733422
570.80 0.9732544
570.90 0.9731667
571.00 0.9730789
571.10 0.9729912
571.20 0.9729035
571.30 0.9728157
571.40 0.972728
571.50 0.9726403
571.60 0.9725526
571.70 0.9724648
571.80 0.9723771
571.90 0.9722894
572.00 0.9722017
572.10 0.9721139
572.20 0.9720262
572.30 0.9719385
572.40 0.9718508
572.50 0.9717631
572.60 0.9716754
572.70 0.9715877
572.80 0.9715
572.90 0.9714123
573.00 0.9713246
573.10 0.9712369
573.20 0.9711492
573.30 0.9710615
573.40 0.970971
573.50 0.9708767
573.60 0.9707824
573.70 0.970688
573.80 0.9705937
573.90 0.9704994
574.00 0.9704051
574.10 0.9703108
574.20 0.9702166
574.30 0.9701223
574.40 0.970028
574.50 0.9699338
574.60 0.9698395
574.70 0.9697453
574.80 0.969651
574.90 0.9695568
575.00 0.9694625
575.10 0.9693683
575.20 0.9692741
575.30 0.9691799
575.40 0.9690857
575.50 0.9689915
575.60 0.9688973
575.70 0.9688032
575.80 0.968709
575.90 0.9686148
576.00 0.9685207
576.10 0.9684265
576.20 0.9683324
576.30 0.9682382
576.40 0.9681441
576.50 0.96805
576.60 0.9679559
576.70 0.9678617
576.80 0.9677676
576.90 0.9676736
577.00 0.9675795
577.10 0.9674854
577.20 0.9673913
577.30 0.9672972
577.40 0.9672032
577.50 0.9671091
577.60 0.9670129
577.70 0.966913
577.80 0.9668131
577.90 0.9667132
578.00 0.9666133
578.10 0.9665135
578.20 0.9664136
578.30 0.9663138
578.40 0.966214
578.50 0.9661141
578.60 0.9660143
578.70 0.9659146
578.80 0.9658148
578.90 0.965715
579.00 0.9656153
579.10 0.9655155
579.20 0.9654163
579.30 0.9653171
579.40 0.9652178
579.50 0.9651186
579.60 0.9650194
579.70 0.9649202
579.80 0.964821
579.90 0.9647218
580.00 0.9646227
580.10 0.964521
580.20 0.964415
580.30 0.9643092
580.40 0.9642033
580.50 0.9640974
580.60 0.9639916
580.70 0.9638857
580.80 0.9637799
580.90 0.9636741
581.00 0.9635684
581.10 0.9634626
581.20 0.9633568
581.30 0.9632511
581.40 0.9631454
581.50 0.9630397
581.60 0.962934
581.70 0.9628283
581.80 0.9627227
581.90 0.962617
582.00 0.9625114
582.10 0.9624099
582.20 0.962315
582.30 0.9622201
582.40 0.9621253
582.50 0.9620304
582.60 0.9619356
582.70 0.9618407
582.80 0.9617459
582.90 0.9616511
583.00 0.9615563
583.10 0.9614614
583.20 0.9613667
583.30 0.9612719
583.40 0.9611771
583.50 0.9610823
583.60 0.9609813
583.70 0.9608701
583.80 0.9607589
583.90 0.9606477
584.00 0.9605365
584.10 0.9604254
584.20 0.9603142
584.30 0.9602031
584.40 0.9600921
584.50 0.959981
584.60 0.9598699
584.70 0.9597589
584.80 0.9596479
584.90 0.9595388
585.00 0.9594382
585.10 0.9593375
585.20 0.9592352
585.30 0.9591301
585.40 0.959025
585.50 0.9589199
585.60 0.9588148
585.70 0.9587097
585.80 0.9586046
585.90 0.9584996
586.00 0.9583946
586.10 0.9582896
586.20 0.9581906
586.30 0.9581015
586.40 0.9580123
586.50 0.9579232
586.60 0.9578341
586.70 0.957745
586.80 0.9576409
586.90 0.9575122
587.00 0.9573836
587.10 0.9572551
587.20 0.9571415
587.30 0.9570525
587.40 0.9570235
587.50 0.9568634
587.60 0.9566916
587.70 0.9565987
587.80 0.9564498
587.90 0.9563608
588.00 0.9562719
588.10 0.956183
588.20 0.956094
588.30 0.9560051
588.40 0.9559062
588.50 0.9557911
588.60 0.955676
588.70 0.9555609
588.80 0.9554459
588.90 0.9553309
589.00 0.9552198
589.10 0.9551153
589.20 0.9550108
589.30 0.9549063
589.40 0.9548018
589.50 0.9546974
589.60 0.9545929
589.70 0.9544885
589.80 0.9543841
589.90 0.9542797
590.00 0.9541694
590.10 0.9540495
590.20 0.9539296
590.30 0.9538097
590.40 0.9536898
590.50 0.95357
590.60 0.9534502
590.70 0.9533304
590.80 0.9532261
590.90 0.9531288
591.00 0.9530315
591.10 0.9529341
591.20 0.9528369
591.30 0.9527396
591.40 0.9526423
591.50 0.9525451
591.60 0.9524413
591.70 0.9523268
591.80 0.9522124
591.90 0.952098
592.00 0.9519836
592.10 0.9518692
592.20 0.9517549
592.30 0.9516405
592.40 0.9515263
592.50 0.951412
592.60 0.9512977
592.70 0.9511835
592.80 0.9510693
592.90 0.9509551
593.00 0.950841
593.10 0.9507278
593.20 0.9506163
593.30 0.9505048
593.40 0.9503933
593.50 0.9502818
593.60 0.9501704
593.70 0.9500589
593.80 0.9499475
593.90 0.9498361
594.00 0.9497248
594.10 0.9496134
594.20 0.9495021
594.30 0.9493908
594.40 0.9492795
594.50 0.9491683
594.60 0.949057
594.70 0.9489458
594.80 0.9488346
594.90 0.9487235
595.00 0.9486123
595.10 0.9485001
595.20 0.9483863
595.30 0.9482726
595.40 0.9481588
595.50 0.9480451
595.60 0.9479314
595.70 0.9478177
595.80 0.947704
595.90 0.9475904
596.00 0.9474768
596.10 0.9473632
596.20 0.9472496
596.30 0.947136
596.40 0.9470225
596.50 0.946909
596.60 0.9467955
596.70 0.9466789
596.80 0.9465603
596.90 0.9464417
597.00 0.9463231
597.10 0.9462046
597.20 0.9460861
597.30 0.9459676
597.40 0.9458492
597.50 0.9457308
597.60 0.9456138
597.70 0.9454992
597.80 0.9453846
597.90 0.9452701
598.00 0.9451555
598.10 0.945041
598.20 0.9449265
598.30 0.9448121
598.40 0.9446976
598.50 0.9445832
598.60 0.9444688
598.70 0.9443545
598.80 0.9442401
598.90 0.9441258
599.00 0.9440115
599.10 0.9438972
599.20 0.943783
599.30 0.9436687
599.40 0.943551
599.50 0.9434333
599.60 0.9433156
599.70 0.9431979
599.80 0.9430803
599.90 0.9429627
600.00 0.9428451
600.10 0.9427275
600.20 0.94261
600.30 0.9424925
600.40 0.942375
600.50 0.9422575
600.60 0.9421401
600.70 0.9420227
600.80 0.9419053
600.90 0.941788
601.00 0.9416706
601.10 0.9415533
601.20 0.9414361
601.30 0.9413188
601.40 0.941202
601.50 0.9410852
601.60 0.9409684
601.70 0.9408517
601.80 0.940735
601.90 0.9406183
602.00 0.9405016
602.10 0.940385
602.20 0.9402683
602.30 0.9401517
602.40 0.9400352
602.50 0.9399186
602.60 0.9398021
602.70 0.9396462
602.80 0.9394882
602.90 0.9393639
603.00 0.9392396
603.10 0.9391154
603.20 0.9389912
603.30 0.938867
603.40 0.9387428
603.50 0.9386187
603.60 0.9384946
603.70 0.9383706
603.80 0.9382465
603.90 0.9381225
604.00 0.9379986
604.10 0.9378746
604.20 0.9377507
604.30 0.9376269
604.40 0.937503
604.50 0.9373866
604.60 0.9372703
604.70 0.937154
604.80 0.9370377
604.90 0.9369215
605.00 0.9368052
605.10 0.936689
605.20 0.9365728
605.30 0.9364567
605.40 0.9363406
605.50 0.9362294
605.60 0.9361183
605.70 0.9360072
605.80 0.9358961
605.90 0.935785
606.00 0.935674
606.10 0.9355506
606.20 0.9354273
606.30 0.935304
606.40 0.9351807
606.50 0.9350204
606.60 0.9348602
606.70 0.934774
606.80 0.9346139
606.90 0.9345277
607.00 0.9343677
607.10 0.9342816
607.20 0.9341955
607.30 0.9340725
607.40 0.9339495
607.50 0.9338266
607.60 0.9337037
607.70 0.9335685
607.80 0.9334333
607.90 0.9332982
608.00 0.9331632
608.10 0.9330281
608.20 0.9328932
608.30 0.9327914
608.40 0.9326897
608.50 0.9325879
608.60 0.9324862
608.70 0.9323681
608.80 0.9322426
608.90 0.9321172
609.00 0.9319918
609.10 0.9318664
609.20 0.9317411
609.30 0.9316095
609.40 0.931478
609.50 0.9313465
609.60 0.931215
609.70 0.9310836
609.80 0.9309522
609.90 0.9308208
610.00 0.9306895
610.10 0.9305582
610.20 0.930427
610.30 0.9302958
610.40 0.9301646
610.50 0.9300334
610.60 0.9299023
610.70 0.9297713
610.80 0.9296402
610.90 0.9295208
611.00 0.9294014
611.10 0.929282
611.20 0.9291626
611.30 0.9290433
611.40 0.928924
611.50 0.9288047
611.60 0.9286855
611.70 0.9285663
611.80 0.9284471
611.90 0.9283279
612.00 0.9282088
612.10 0.9280897
612.20 0.9279706
612.30 0.9278516
612.40 0.9277229
612.50 0.9275942
612.60 0.9274656
612.70 0.927337
612.80 0.9272084
612.90 0.9270799
613.00 0.9269514
613.10 0.926823
613.20 0.9266945
613.30 0.9265661
613.40 0.9264378
613.50 0.9263095
613.60 0.9261812
613.70 0.9260529
613.80 0.9259247
613.90 0.9257965
614.00 0.9256684
614.10 0.9255403
614.20 0.9254122
614.30 0.9252841
614.40 0.925156
614.50 0.9250279
614.60 0.9248998
614.70 0.9247718
614.80 0.9246439
614.90 0.9245161
615.00 0.9243883
615.10 0.9242605
615.20 0.9241328
615.30 0.9240052
615.40 0.9238775
615.50 0.9237499
615.60 0.9236223
615.70 0.9234948
615.80 0.9233673
615.90 0.9232398
616.00 0.9231124
616.10 0.922985
616.20 0.9228576
616.30 0.9227303
616.40 0.922603
616.50 0.9224757
616.60 0.9223485
616.70 0.9222213
616.80 0.9220941
616.90 0.9219643
617.00 0.9218344
617.10 0.9217047
617.20 0.9215749
617.30 0.9214452
617.40 0.9213155
617.50 0.9211858
617.60 0.9210562
617.70 0.9209267
617.80 0.9207971
617.90 0.9206676
618.00 0.9205381
618.10 0.9204087
618.20 0.9202793
618.30 0.9201499
618.40 0.9200206
618.50 0.9198913
618.60 0.9197621
618.70 0.9196328
618.80 0.9195037
618.90 0.9193745
619.00 0.9192454
619.10 0.9191163
619.20 0.9189873
619.30 0.9188583
619.40 0.9187293
619.50 0.9186004
619.60 0.9184715
619.70 0.9183426
619.80 0.9182138
619.90 0.918085
620.00 0.9179562
620.10 0.9178275
620.20 0.9176988
620.30 0.9175701
620.40 0.9174415
620.50 0.9173129
620.60 0.9171844
620.70 0.9170559
620.80 0.9169274
620.90 0.916797
621.00 0.9166633
621.10 0.9165296
621.20 0.916396
621.30 0.9162624
621.40 0.9161288
621.50 0.9159953
621.60 0.9158618
621.70 0.9157284
621.80 0.9155949
621.90 0.9154616
622.00 0.9153282
622.10 0.9151949
622.20 0.9150617
622.30 0.9149285
622.40 0.9147953
622.50 0.9146621
622.60 0.914529
622.70 0.914396
622.80 0.9142629
622.90 0.91413
623.00 0.913997
623.10 0.9138641
623.20 0.9137312
623.30 0.9135984
623.40 0.9134656
623.50 0.9133328
623.60 0.9132001
623.70 0.9130674
623.80 0.9129348
623.90 0.9128022
624.00 0.9126696
624.10 0.9125371
624.20 0.9124046
624.30 0.9122721
624.40 0.9121397
624.50 0.9120073
624.60 0.911875
624.70 0.9117427
624.80 0.9116104
624.90 0.9114782
625.00 0.911346
625.10 0.9112139
625.20 0.9110817
625.30 0.9109497
625.40 0.9108176
625.50 0.9106856
625.60 0.9105537
625.70 0.9104218
625.80 0.9102899
625.90 0.910158
626.00 0.9100262
626.10 0.9098944
626.20 0.9097627
626.30 0.909631
626.40 0.9094993
626.50 0.9093677
626.60 0.9092361
626.70 0.9091046
626.80 0.9089731
626.90 0.9088416
627.00 0.9087102
627.10 0.9085766
627.20 0.9084371
627.30 0.9082976
627.40 0.9081581
627.50 0.9080187
627.60 0.9078794
627.70 0.9077401
627.80 0.9076008
627.90 0.9074616
628.00 0.9073224
628.10 0.9071833
628.20 0.9070442
628.30 0.9069051
628.40 0.9067661
628.50 0.9066271
628.60 0.9064882
628.70 0.9063493
628.80 0.9062105
628.90 0.9060717
629.00 0.9059329
629.10 0.9057942
629.20 0.9056556
629.30 0.9055169
629.40 0.9053783
629.50 0.9052398
629.60 0.9051013
629.70 0.9049628
629.80 0.9048244
629.90 0.904686
630.00 0.9045477
630.10 0.9044094
630.20 0.9042712
630.30 0.9041369
630.40 0.9040031
630.50 0.9038693
630.60 0.9037355
630.70 0.9036018
630.80 0.9034681
630.90 0.9033345
631.00 0.9032009
631.10 0.9030673
631.20 0.9029338
631.30 0.9028003
631.40 0.9026668
631.50 0.9025334
631.60 0.9024001
631.70 0.9022667
631.80 0.9021334
631.90 0.9020002
632.00 0.901867
632.10 0.9017338
632.20 0.9016007
632.30 0.9014676
632.40 0.9013345
632.50 0.9012015
632.60 0.9010685
632.70 0.9009356
632.80 0.9008027
632.90 0.9006698
633.00 0.900537
633.10 0.9004042
633.20 0.9002715
633.30 0.9001388
633.40 0.9000005
633.50 0.8998579
633.60 0.8997153
633.70 0.8995727
633.80 0.8994302
633.90 0.8992878
634.00 0.8991454
634.10 0.899003
634.20 0.8988607
634.30 0.8987184
634.40 0.8985762
634.50 0.898434
634.60 0.8982918
634.70 0.8981497
634.80 0.8980077
634.90 0.8978657
635.00 0.8977237
635.10 0.8975818
635.20 0.8974399
635.30 0.8972981
635.40 0.8971563
635.50 0.8970146
635.60 0.8968729
635.70 0.8967313
635.80 0.8965897
635.90 0.8964481
636.00 0.8963066
636.10 0.8961651
636.20 0.8960237
636.30 0.8958823
636.40 0.895741
636.50 0.8955997
636.60 0.8954622
636.70 0.8953252
636.80 0.8951883
636.90 0.8950514
637.00 0.8949145
637.10 0.8947776
637.20 0.8946409
637.30 0.8945041
637.40 0.8943674
637.50 0.8942307
637.60 0.8940941
637.70 0.8939575
637.80 0.893821
637.90 0.8936845
638.00 0.893548
638.10 0.8934116
638.20 0.8932752
638.30 0.8931389
638.40 0.8930026
638.50 0.8928663
638.60 0.8927301
638.70 0.892594
638.80 0.8924578
638.90 0.8923217
639.00 0.8921857
639.10 0.8920497
639.20 0.8919137
639.30 0.8917778
639.40 0.8916419
639.50 0.8915061
639.60 0.8913703
639.70 0.8912333
639.80 0.891092
639.90 0.8909507
640.00 0.8908095
640.10 0.8906683
640.20 0.8905272
640.30 0.8903861
640.40 0.8902451
640.50 0.8901041
640.60 0.8899632
640.70 0.8898223
640.80 0.8896814
640.90 0.8895406
641.00 0.8893998
641.10 0.8892591
641.20 0.8891184
641.30 0.8889778
641.40 0.8888372
641.50 0.8886967
641.60 0.8885562
641.70 0.8884157
641.80 0.8882753
641.90 0.888135
642.00 0.8879946
642.10 0.8878544
642.20 0.8877141
642.30 0.8875739
642.40 0.8874338
642.50 0.8872937
642.60 0.8871536
642.70 0.8870136
642.80 0.8868737
642.90 0.8867328
643.00 0.8865888
643.10 0.8864449
643.20 0.886301
643.30 0.8861572
643.40 0.8860134
643.50 0.8858697
643.60 0.885726
643.70 0.8855824
643.80 0.8854388
643.90 0.8852953
644.00 0.8851518
644.10 0.8850084
644.20 0.884865
644.30 0.8847216
644.40 0.8845783
644.50 0.8844351
644.60 0.8842918
644.70 0.8841487
644.80 0.8840056
644.90 0.8838625
645.00 0.8837195
645.10 0.8835765
645.20 0.8834335
645.30 0.8832907
645.40 0.8831478
645.50 0.883005
645.60 0.8828623
645.70 0.8827196
645.80 0.8825769
645.90 0.8824343
646.00 0.8822917
646.10 0.8821489
646.20 0.8820051
646.30 0.8818614
646.40 0.8817177
646.50 0.8815741
646.60 0.8814305
646.70 0.881287
646.80 0.8811435
646.90 0.881
647.00 0.8808566
647.10 0.8807133
647.20 0.88057
647.30 0.8804267
647.40 0.8802835
647.50 0.8801404
647.60 0.8799973
647.70 0.8798542
647.80 0.8797112
647.90 0.8795682
648.00 0.8794253
648.10 0.8792824
648.20 0.8791395
648.30 0.8789968
648.40 0.878854
648.50 0.8787113
648.60 0.8785687
648.70 0.8784261
648.80 0.8782835
648.90 0.878141
649.00 0.8779985
649.10 0.8778561
649.20 0.8777137
649.30 0.8775714
649.40 0.8774252
649.50 0.877279
649.60 0.8771327
649.70 0.8769866
649.80 0.8768404
649.90 0.8766944
650.00 0.8765483
650.10 0.8764024
650.20 0.8762564
650.30 0.8761105
650.40 0.8759647
650.50 0.8758189
650.60 0.8756732
650.70 0.8755275
650.80 0.8753818
650.90 0.8752362
651.00 0.8750907
651.10 0.8749452
651.20 0.8747997
651.30 0.8746543
651.40 0.874509
651.50 0.8743637
651.60 0.8742184
651.70 0.8740732
651.80 0.873928
651.90 0.8737829
652.00 0.8736379
652.10 0.8734928
652.20 0.8733479
652.30 0.873203
652.40 0.8730581
652.50 0.8729132
652.60 0.8727675
652.70 0.8726213
652.80 0.8724751
652.90 0.872329
653.00 0.8721829
653.10 0.8720369
653.20 0.871891
653.30 0.871745
653.40 0.8715992
653.50 0.8714533
653.60 0.8713076
653.70 0.8711618
653.80 0.8710161
653.90 0.8708705
654.00 0.8707249
654.10 0.8705794
654.20 0.8704339
654.30 0.8702885
654.40 0.8701431
654.50 0.8699977
654.60 0.8698524
654.70 0.8697072
654.80 0.869562
654.90 0.8694168
655.00 0.8692717
655.10 0.8691267
655.20 0.8689817
655.30 0.8688367
655.40 0.8686918
655.50 0.868547
655.60 0.8684021
655.70 0.8682574
655.80 0.8681129
655.90 0.8679685
656.00 0.8678242
656.10 0.8676799
656.20 0.8675356
656.30 0.8673914
656.40 0.8672473
656.50 0.8671031
656.60 0.8669591
656.70 0.8668151
656.80 0.8666711
656.90 0.8665272
657.00 0.8663833
657.10 0.8662395
657.20 0.8660957
657.30 0.8659519
657.40 0.8658083
657.50 0.8656646
657.60 0.865521
657.70 0.8653775
657.80 0.8652239
657.90 0.8650718
658.00 0.86492
658.10 0.8647683
658.20 0.8646167
658.30 0.8644651
658.40 0.8643135
658.50 0.864162
658.60 0.8640106
658.70 0.8638592
658.80 0.8637078
658.90 0.8635565
659.00 0.8634053
659.10 0.8632814
659.20 0.8631986
659.30 0.8630492
659.40 0.8628998
659.50 0.8627505
659.60 0.8626012
659.70 0.8624519
659.80 0.8623027
659.90 0.8621536
660.00 0.8620045
660.10 0.8618555
660.20 0.8617065
660.30 0.8615576
660.40 0.861401
660.50 0.8612432
660.60 0.8610854
660.70 0.8609277
660.80 0.86077
660.90 0.8606218
661.00 0.8604736
661.10 0.8603255
661.20 0.8601774
661.30 0.8600294
661.40 0.8598814
661.50 0.8597335
661.60 0.8595857
661.70 0.8594378
661.80 0.8592901
661.90 0.8591511
662.00 0.8590123
662.10 0.8588735
662.20 0.8587347
662.30 0.858596
662.40 0.858479
662.50 0.8583129
662.60 0.8581469
662.70 0.857981
662.80 0.8578151
662.90 0.8576803
663.00 0.8575455
663.10 0.8574107
663.20 0.857276
663.30 0.8571414
663.40 0.8570068
663.50 0.8568103
663.60 0.856614
663.70 0.8564709
663.80 0.8563278
663.90 0.8562007
664.00 0.8560764
664.10 0.8559215
664.20 0.8557667
664.30 0.855612
664.40 0.8554572
664.50 0.8553026
664.60 0.855148
664.70 0.8550117
664.80 0.8548755
664.90 0.8547393
665.00 0.8546032
665.10 0.8544671
665.20 0.8543311
665.30 0.8541951
665.40 0.8540591
665.50 0.8538771
665.60 0.853687
665.70 0.8536007
665.80 0.8534409
665.90 0.853281
666.00 0.8531212
666.10 0.8529615
666.20 0.8528019
666.30 0.8526423
666.40 0.8524827
666.50 0.8523456
666.60 0.8522125
666.70 0.8520794
666.80 0.8519464
666.90 0.8518134
667.00 0.8516804
667.10 0.8514997
667.20 0.8513106
667.30 0.8511693
667.40 0.851028
667.50 0.850894
667.60 0.8507613
667.70 0.850647
667.80 0.8504305
667.90 0.850275
668.00 0.8501273
668.10 0.8499766
668.20 0.8498442
668.30 0.8496859
668.40 0.8495231
668.50 0.8493604
668.60 0.8491977
668.70 0.8490793
668.80 0.8489436
668.90 0.848808
669.00 0.8486725
669.10 0.8485369
669.20 0.8484014
669.30 0.8482483
669.40 0.8480922
669.50 0.8479361
669.60 0.84778
669.70 0.847624
669.80 0.8474681
669.90 0.8473122
670.00 0.8471564
670.10 0.8470006
670.20 0.8468449
670.30 0.8466917
670.40 0.8465391
670.50 0.8463866
670.60 0.8462341
670.70 0.8460816
670.80 0.8459379
670.90 0.8457943
671.00 0.8456507
671.10 0.8455072
671.20 0.8453637
671.30 0.8452203
671.40 0.8450769
671.50 0.8449336
671.60 0.8447903
671.70 0.8446471
671.80 0.8445039
671.90 0.8443521
672.00 0.8441989
672.10 0.8440458
672.20 0.8438927
672.30 0.8437396
672.40 0.8435834
672.50 0.8434269
672.60 0.8432705
672.70 0.8431142
672.80 0.8429579
672.90 0.8428017
673.00 0.8426455
673.10 0.8424894
673.20 0.8423334
673.30 0.8421877
673.40 0.84204
673.50 0.841892
673.60 0.8417441
673.70 0.8415963
673.80 0.8414485
673.90 0.8413007
674.00 0.841153
674.10 0.8410054
674.20 0.8408578
674.30 0.8407102
674.40 0.8405627
674.50 0.8404153
674.60 0.8402679
674.70 0.8401205
674.80 0.8399732
674.90 0.839826
675.00 0.8396788
675.10 0.8395316
675.20 0.8393846
675.30 0.8392375
675.40 0.8390854
675.50 0.8389325
675.60 0.8387797
675.70 0.8386269
675.80 0.8384741
675.90 0.8383214
676.00 0.8381688
676.10 0.8380162
676.20 0.8378636
676.30 0.8377112
676.40 0.8375587
676.50 0.8374064
676.60 0.837254
676.70 0.8371018
676.80 0.8369495
676.90 0.8367974
677.00 0.8366453
677.10 0.8364932
677.20 0.8363412
677.30 0.8361893
677.40 0.8360374
677.50 0.8358855
677.60 0.8357337
677.70 0.835582
677.80 0.8354303
677.90 0.835281
678.00 0.8351322
678.10 0.8349834
678.20 0.8348346
678.30 0.8346859
678.40 0.8345373
678.50 0.8343887
678.60 0.8342402
678.70 0.8340917
678.80 0.8339432
678.90 0.8337949
679.00 0.8336465
679.10 0.8334947
679.20 0.8333415
679.30 0.8331883
679.40 0.8330352
679.50 0.8328821
679.60 0.832729
679.70 0.8325761
679.80 0.8324231
679.90 0.8322703
680.00 0.8321175
680.10 0.8319647
680.20 0.831812
680.30 0.8316593
680.40 0.8315067
680.50 0.8313542
680.60 0.8312017
680.70 0.8310493
680.80 0.8308969
680.90 0.8307446
681.00 0.8305923
681.10 0.8304401
681.20 0.8302879
681.30 0.8301358
681.40 0.8299837
681.50 0.8298317
681.60 0.8296797
681.70 0.8295278
681.80 0.829376
681.90 0.8292242
682.00 0.8290725
682.10 0.8289208
682.20 0.8287691
682.30 0.8286176
682.40 0.828466
682.50 0.8283145
682.60 0.8281631
682.70 0.8280118
682.80 0.8278604
682.90 0.8277092
683.00 0.827558
683.10 0.8274068
683.20 0.8272557
683.30 0.8271047
683.40 0.8269537
683.50 0.8268027
683.60 0.8266518
683.70 0.826501
683.80 0.8263502
683.90 0.8261995
684.00 0.8260488
684.10 0.8258982
684.20 0.8257476
684.30 0.8255971
684.40 0.8254466
684.50 0.8252962
684.60 0.8251458
684.70 0.8249955
684.80 0.8248452
684.90 0.824695
685.00 0.8245449
685.10 0.8243948
685.20 0.8242447
685.30 0.8240947
685.40 0.8239448
685.50 0.8237949
685.60 0.8236451
685.70 0.8234953
685.80 0.8233455
685.90 0.8231924
686.00 0.8230385
686.10 0.8228847
686.20 0.8227309
686.30 0.8225771
686.40 0.8224234
686.50 0.8222698
686.60 0.8221162
686.70 0.8219627
686.80 0.8218092
686.90 0.8216558
687.00 0.8215024
687.10 0.8213491
687.20 0.8211958
687.30 0.8210426
687.40 0.8208895
687.50 0.8207364
687.60 0.8205833
687.70 0.8204304
687.80 0.8202774
687.90 0.8201245
688.00 0.8199717
688.10 0.819819
688.20 0.8196662
688.30 0.8195136
688.40 0.819361
688.50 0.8192084
688.60 0.8190559
688.70 0.8189035
688.80 0.8187511
688.90 0.8185987
689.00 0.8184465
689.10 0.8182942
689.20 0.8181421
689.30 0.8179899
689.40 0.8178379
689.50 0.8176859
689.60 0.8175339
689.70 0.817382
689.80 0.8172301
689.90 0.8170783
690.00 0.8169266
690.10 0.8167749
690.20 0.8166233
690.30 0.8164717
690.40 0.8163202
690.50 0.8161687
690.60 0.8160173
690.70 0.8158659
690.80 0.8157146
690.90 0.8155633
691.00 0.8154121
691.10 0.8152609
691.20 0.8151098
691.30 0.8149588
691.40 0.8148078
691.50 0.8146569
691.60 0.814506
691.70 0.8143551
691.80 0.8142043
691.90 0.8140536
692.00 0.8139029
692.10 0.8137523
692.20 0.8136017
692.30 0.8134512
692.40 0.8133008
692.50 0.8131503
692.60 0.813
692.70 0.8128493
692.80 0.8126975
692.90 0.8125456
693.00 0.8123938
693.10 0.8122421
693.20 0.8120904
693.30 0.8119388
693.40 0.8117873
693.50 0.8116358
693.60 0.8114843
693.70 0.8113329
693.80 0.8111816
693.90 0.8110303
694.00 0.810879
694.10 0.8107278
694.20 0.8105767
694.30 0.8104256
694.40 0.8102746
694.50 0.8101236
694.60 0.8099727
694.70 0.8098218
694.80 0.809671
694.90 0.8095202
695.00 0.8093695
695.10 0.8092189
695.20 0.8090683
695.30 0.8089177
695.40 0.8087672
695.50 0.8086168
695.60 0.8084664
695.70 0.8083161
695.80 0.8081658
695.90 0.8080156
696.00 0.8078654
696.10 0.8077153
696.20 0.8075652
696.30 0.8074152
696.40 0.8072652
696.50 0.8071153
696.60 0.806961
696.70 0.8068056
696.80 0.8066504
696.90 0.8064952
697.00 0.80634
697.10 0.8061849
697.20 0.8060299
697.30 0.8058749
697.40 0.8057199
697.50 0.8055651
697.60 0.8054102
697.70 0.8052555
697.80 0.8051008
697.90 0.8049461
698.00 0.8047915
698.10 0.804637
698.20 0.8044825
698.30 0.8043281
698.40 0.8041737
698.50 0.8040194
698.60 0.8038651
698.70 0.8037109
698.80 0.8035567
698.90 0.8034026
699.00 0.8032486
699.10 0.8030948
699.20 0.8029412
699.30 0.8027876
699.40 0.8026341
699.50 0.8024806
699.60 0.8023272
699.70 0.8021764
699.80 0.8020258
699.90 0.8018753
700.00 0.8017248
700.10 0.8015744
700.20 0.801424
700.30 0.8012737
700.40 0.8011235
700.50 0.8009733
700.60 0.8008231
700.70 0.800673
700.80 0.800523
700.90 0.800373
701.00 0.800223
701.10 0.8000695
701.20 0.7999152
701.30 0.7997609
701.40 0.7996067
701.50 0.7994525
701.60 0.7992984
701.70 0.7991444
701.80 0.7989904
701.90 0.7988365
702.00 0.7986826
702.10 0.7985287
702.20 0.798375
702.30 0.7982213
702.40 0.7980676
702.50 0.797914
702.60 0.7977623
702.70 0.7976111
702.80 0.79746
702.90 0.7973089
703.00 0.7971578
703.10 0.7970068
703.20 0.7968559
703.30 0.796705
703.40 0.7965542
703.50 0.7964035
703.60 0.7962527
703.70 0.7961021
703.80 0.7959515
703.90 0.7958009
704.00 0.7956504
704.10 0.7955
704.20 0.7953418
704.30 0.7951818
704.40 0.7950219
704.50 0.7948621
704.60 0.7947023
704.70 0.7945426
704.80 0.794383
704.90 0.7942234
705.00 0.7940638
705.10 0.7939044
705.20 0.7937509
705.30 0.7935988
705.40 0.7934468
705.50 0.7932948
705.60 0.7931429
705.70 0.7929911
705.80 0.7928467
705.90 0.792704
706.00 0.7925615
706.10 0.7924189
706.20 0.7922543
706.30 0.7920846
706.40 0.7919799
706.50 0.7917844
706.60 0.7916407
706.70 0.7915258
706.80 0.791346
706.90 0.7911766
707.00 0.7910294
707.10 0.7908874
707.20 0.7907454
707.30 0.7906035
707.40 0.7904543
707.50 0.7903034
707.60 0.7901525
707.70 0.7900018
707.80 0.789851
707.90 0.7897004
708.00 0.7895439
708.10 0.7893861
708.20 0.7892283
708.30 0.7890706
708.40 0.788913
708.50 0.7887554
708.60 0.7885979
708.70 0.7884405
708.80 0.7882831
708.90 0.7881257
709.00 0.7879706
709.10 0.7878161
709.20 0.7876616
709.30 0.7875072
709.40 0.7873529
709.50 0.7871986
709.60 0.7870443
709.70 0.7868902
709.80 0.786736
709.90 0.786582
710.00 0.7864279
710.10 0.786274
710.20 0.7861201
710.30 0.7859662
710.40 0.7858124
710.50 0.7856587
710.60 0.7855086
710.70 0.7853595
710.80 0.7852104
710.90 0.7850614
711.00 0.7849124
711.10 0.7847635
711.20 0.7846146
711.30 0.7844658
711.40 0.784317
711.50 0.7841683
711.60 0.7840196
711.70 0.783871
711.80 0.7837224
711.90 0.7835739
712.00 0.7834255
712.10 0.7832719
712.20 0.7831171
712.30 0.7829624
712.40 0.7828077
712.50 0.7826531
712.60 0.7824985
712.70 0.782344
712.80 0.7821896
712.90 0.7820352
713.00 0.7818809
713.10 0.7817266
713.20 0.7815724
713.30 0.7814182
713.40 0.7812641
713.50 0.7811101
713.60 0.7809561
713.70 0.7808008
713.80 0.7806428
713.90 0.7804848
714.00 0.7803269
714.10 0.7801718
714.20 0.7800174
714.30 0.7798631
714.40 0.7797088
714.50 0.7795546
714.60 0.7794005
714.70 0.7792463
714.80 0.7790923
714.90 0.7789383
715.00 0.7787844
715.10 0.7786305
715.20 0.7784767
715.30 0.7783229
715.40 0.7781692
715.50 0.7780155
715.60 0.7778619
715.70 0.7777084
715.80 0.7775549
715.90 0.7774014
716.00 0.777248
716.10 0.7770947
716.20 0.7769414
716.30 0.7767882
716.40 0.7766351
716.50 0.776482
716.60 0.7763305
716.70 0.7761795
716.80 0.7760286
716.90 0.7758777
717.00 0.7757268
717.10 0.7755761
717.20 0.7754253
717.30 0.7752747
717.40 0.775124
717.50 0.7749735
717.60 0.7748229
717.70 0.7746725
717.80 0.7745221
717.90 0.7743717
718.00 0.7742214
718.10 0.7740712
718.20 0.7739169
718.30 0.7737606
718.40 0.7736043
718.50 0.7734481
718.60 0.7732919
718.70 0.7731358
718.80 0.7729797
718.90 0.7728237
719.00 0.7726678
719.10 0.7725119
719.20 0.772356
719.30 0.7722002
719.40 0.7720445
719.50 0.7718889
719.60 0.7717332
719.70 0.7715777
719.80 0.7714222
719.90 0.7712668
720.00 0.7711114
720.10 0.7709561
720.20 0.7708008
720.30 0.7706456
720.40 0.7704904
720.50 0.7703353
720.60 0.7701803
720.70 0.7700274
720.80 0.7698758
720.90 0.7697252
721.00 0.7695747
721.10 0.7694242
721.20 0.7692737
721.30 0.7691233
721.40 0.768973
721.50 0.7688227
721.60 0.7686725
721.70 0.7685223
721.80 0.7683722
721.90 0.7682221
722.00 0.7680721
722.10 0.7679222
722.20 0.7677723
722.30 0.7676224
722.40 0.7674726
722.50 0.7673229
722.60 0.7671732
722.70 0.767019
722.80 0.7668624
722.90 0.7667058
723.00 0.7665493
723.10 0.7663929
723.20 0.7662365
723.30 0.7660802
723.40 0.7659239
723.50 0.7657677
723.60 0.7656115
723.70 0.7654554
723.80 0.7652994
723.90 0.7651434
724.00 0.7649875
724.10 0.7648316
724.20 0.7646778
724.30 0.764525
724.40 0.7643724
724.50 0.7642197
724.60 0.7640672
724.70 0.7639147
724.80 0.7637622
724.90 0.7636098
725.00 0.7634575
725.10 0.7633052
725.20 0.763153
725.30 0.7630008
725.40 0.7628487
725.50 0.7626966
725.60 0.7625446
725.70 0.7623926
725.80 0.7622432
725.90 0.7620953
726.00 0.7619473
726.10 0.7617995
726.20 0.7616517
726.30 0.7615039
726.40 0.7613562
726.50 0.7612085
726.60 0.7610609
726.70 0.7609134
726.80 0.7607592
726.90 0.7606014
727.00 0.7604437
727.10 0.7602861
727.20 0.7601285
727.30 0.759971
727.40 0.7598135
727.50 0.7596561
727.60 0.7594988
727.70 0.7593415
727.80 0.7591842
727.90 0.7590271
728.00 0.758906
728.10 0.7587373
728.20 0.7586252
728.30 0.7584169
728.40 0.7582754
728.50 0.7581699
728.60 0.758031
728.70 0.7578743
728.80 0.7577176
728.90 0.757561
729.00 0.7574044
729.10 0.7572479
729.20 0.7570914
729.30 0.756935
729.40 0.7567787
729.50 0.7566224
729.60 0.7564662
729.70 0.75631
729.80 0.7561539
729.90 0.7559979
730.00 0.7558419
730.10 0.7556859
730.20 0.75553
730.30 0.7553742
730.40 0.7552184
730.50 0.7550627
730.60 0.7549112
730.70 0.754762
730.80 0.7546128
730.90 0.7544637
731.00 0.7543146
731.10 0.7541656
731.20 0.7540167
731.30 0.7538678
731.40 0.7537189
731.50 0.7535701
731.60 0.7534214
731.70 0.7532727
731.80 0.753124
731.90 0.7529754
732.00 0.7528269
732.10 0.7526784
732.20 0.7525237
732.30 0.7523656
732.40 0.7522075
732.50 0.7520495
732.60 0.7518916
732.70 0.7517337
732.80 0.7515759
732.90 0.7514182
733.00 0.7512605
733.10 0.7511028
733.20 0.7509452
733.30 0.7507877
733.40 0.7506302
733.50 0.7504728
733.60 0.7503155
733.70 0.7501632
733.80 0.7500137
733.90 0.7498643
734.00 0.7497149
734.10 0.7495655
734.20 0.7494163
734.30 0.749267
734.40 0.7491178
734.50 0.7489687
734.60 0.7488197
734.70 0.7486706
734.80 0.7485217
734.90 0.7483728
735.00 0.7482239
735.10 0.7480751
735.20 0.7479263
735.30 0.747778
735.40 0.7476334
735.50 0.7474888
735.60 0.7473443
735.70 0.747193
735.80 0.7470383
735.90 0.7468835
736.00 0.7467289
736.10 0.7465742
736.20 0.7464197
736.30 0.7462652
736.40 0.7461107
736.50 0.7459563
736.60 0.745802
736.70 0.7456477
736.80 0.7454935
736.90 0.7453393
737.00 0.7451852
737.10 0.7450311
737.20 0.7448771
737.30 0.7447232
737.40 0.7445693
737.50 0.7444155
737.60 0.7442617
737.70 0.744108
737.80 0.7439543
737.90 0.7438007
738.00 0.7436472
738.10 0.7434937
738.20 0.7433407
738.30 0.7431881
738.40 0.7430356
738.50 0.7428831
738.60 0.7427307
738.70 0.7425783
738.80 0.742426
738.90 0.7422737
739.00 0.7421215
739.10 0.7419693
739.20 0.7418172
739.30 0.7416651
739.40 0.7415132
739.50 0.7413612
739.60 0.7412093
739.70 0.7410575
739.80 0.7409057
739.90 0.740754
740.00 0.7406023
740.10 0.7404507
740.20 0.7402992
740.30 0.7401477
740.40 0.7399962
740.50 0.7398448
740.60 0.7396935
740.70 0.7395422
740.80 0.739391
740.90 0.7392398
741.00 0.7390887
741.10 0.7389376
741.20 0.7387866
741.30 0.7386357
741.40 0.7384848
741.50 0.7383339
741.60 0.7381831
741.70 0.7380324
741.80 0.7378817
741.90 0.7377311
742.00 0.7375805
742.10 0.73743
742.20 0.7372795
742.30 0.7371291
742.40 0.7369788
742.50 0.7368285
742.60 0.7366782
742.70 0.7365278
742.80 0.7363772
742.90 0.7362266
743.00 0.7360761
743.10 0.7359257
743.20 0.7357753
743.30 0.735625
743.40 0.7354747
743.50 0.7353245
743.60 0.7351743
743.70 0.7350236
743.80 0.7348706
743.90 0.7347177
744.00 0.7345649
744.10 0.7344121
744.20 0.7342594
744.30 0.7341067
744.40 0.7339541
744.50 0.7338015
744.60 0.733649
744.70 0.7334965
744.80 0.7333441
744.90 0.7331918
745.00 0.7330395
745.10 0.7328873
745.20 0.7327351
745.30 0.732583
745.40 0.7324309
745.50 0.7322789
745.60 0.7321269
745.70 0.731975
745.80 0.7318232
745.90 0.7316714
746.00 0.7315196
746.10 0.731368
746.20 0.7312163
746.30 0.7310648
746.40 0.7309132
746.50 0.7307618
746.60 0.7306104
746.70 0.730459
746.80 0.7303077
746.90 0.7301565
747.00 0.7300053
747.10 0.7298542
747.20 0.7297031
747.30 0.7295521
747.40 0.7294011
747.50 0.7292502
747.60 0.7290993
747.70 0.7289485
747.80 0.7287978
747.90 0.7286471
748.00 0.7284964
748.10 0.7283458
748.20 0.7281953
748.30 0.7280448
748.40 0.7278944
748.50 0.727744
748.60 0.7275937
748.70 0.7274435
748.80 0.7272933
748.90 0.7271431
749.00 0.726993
749.10 0.726843
749.20 0.726693
749.30 0.726543
749.40 0.7263932
749.50 0.7262433
749.60 0.7260936
749.70 0.7259438
749.80 0.7257942
749.90 0.7256446
750.00 0.725495
750.10 0.7253448
750.20 0.7251927
750.30 0.7250407
750.40 0.7248887
750.50 0.7247368
750.60 0.724585
750.70 0.7244332
750.80 0.7242815
750.90 0.7241298
751.00 0.7239782
751.10 0.7238266
751.20 0.7236751
751.30 0.7235236
751.40 0.7233722
751.50 0.7232209
751.60 0.7230696
751.70 0.7229184
751.80 0.7227672
751.90 0.722616
752.00 0.722465
752.10 0.722314
752.20 0.722163
752.30 0.7220121
752.40 0.7218612
752.50 0.7217104
752.60 0.7215597
752.70 0.721409
752.80 0.7212584
752.90 0.7211078
753.00 0.7209573
753.10 0.7208068
753.20 0.7206564
753.30 0.720506
753.40 0.7203557
753.50 0.7202054
753.60 0.7200552
753.70 0.7199051
753.80 0.719755
753.90 0.719605
754.00 0.719455
754.10 0.719305
754.20 0.7191552
754.30 0.7190054
754.40 0.7188556
754.50 0.7187059
754.60 0.7185562
754.70 0.7184066
754.80 0.7182571
754.90 0.7181076
755.00 0.7179581
755.10 0.7178087
755.20 0.7176594
755.30 0.7175101
755.40 0.7173609
755.50 0.7172117
755.60 0.7170626
755.70 0.7169135
755.80 0.7167645
755.90 0.7166156
756.00 0.7164667
756.10 0.7163178
756.20 0.716169
756.30 0.7160203
756.40 0.7158716
756.50 0.715723
756.60 0.7155744
756.70 0.7154259
756.80 0.7152774
756.90 0.715129
757.00 0.7149806
757.10 0.7148323
757.20 0.714684
757.30 0.7145358
757.40 0.7143877
757.50 0.7142396
757.60 0.7140907
757.70 0.7139398
757.80 0.7137889
757.90 0.7136381
758.00 0.7134874
758.10 0.7133367
758.20 0.7131861
758.30 0.7130355
758.40 0.712885
758.50 0.7127345
758.60 0.7125841
758.70 0.7124338
758.80 0.7122835
758.90 0.7121332
759.00 0.711983
759.10 0.7118329
759.20 0.7116828
759.30 0.7115328
759.40 0.7113828
759.50 0.7112329
759.60 0.711083
759.70 0.7109332
759.80 0.7107834
759.90 0.7106337
760.00 0.7104841
760.10 0.7103345
760.20 0.7101849
760.30 0.7100354
760.40 0.709886
760.50 0.7097366
760.60 0.7095873
760.70 0.709438
760.80 0.7092888
760.90 0.7091396
761.00 0.7089905
761.10 0.7088415
761.20 0.7086924
761.30 0.7085435
761.40 0.7083936
761.50 0.7082423
761.60 0.708091
761.70 0.7079398
761.80 0.7077887
761.90 0.7076376
762.00 0.7074865
762.10 0.7073355
762.20 0.7071846
762.30 0.7070337
762.40 0.7068829
762.50 0.7067321
762.60 0.7065814
762.70 0.7064307
762.80 0.7062801
762.90 0.7061296
763.00 0.7059791
763.10 0.7058286
763.20 0.7056782
763.30 0.7055279
763.40 0.7053776
763.50 0.7052274
763.60 0.7050772
763.70 0.7049271
763.80 0.704777
763.90 0.704627
764.00 0.7044771
764.10 0.7043272
764.20 0.7041773
764.30 0.7040275
764.40 0.7038778
764.50 0.7037281
764.60 0.7035785
764.70 0.7034289
764.80 0.7032794
764.90 0.7031299
765.00 0.7029805
765.10 0.7028311
765.20 0.7026817
765.30 0.7025321
765.40 0.7023825
765.50 0.7022331
765.60 0.7020836
765.70 0.7019343
765.80 0.7017849
765.90 0.7016357
766.00 0.7014865
766.10 0.7013373
766.20 0.7011882
766.30 0.7010391
766.40 0.7008901
766.50 0.7007412
766.60 0.7005923
766.70 0.7004435
766.80 0.7002947
766.90 0.700146
767.00 0.6999973
767.10 0.6998487
767.20 0.6997001
767.30 0.6995516
767.40 0.6994031
767.50 0.6992547
767.60 0.6991064
767.70 0.6989581
767.80 0.6988098
767.90 0.6986617
768.00 0.6985135
768.10 0.6983654
768.20 0.6982174
768.30 0.6980694
768.40 0.6979215
768.50 0.6977736
768.60 0.6976258
768.70 0.6974781
768.80 0.6973303
768.90 0.6971827
769.00 0.6970351
769.10 0.6968875
769.20 0.69674
769.30 0.6965926
769.40 0.6964452
769.50 0.6962979
769.60 0.6961506
769.70 0.6960033
769.80 0.6958562
769.90 0.695709
770.00 0.695562
770.10 0.6954149
770.20 0.695268
770.30 0.6951211
770.40 0.6949742
770.50 0.6948274
770.60 0.6946806
770.70 0.6945339
770.80 0.6943873
770.90 0.6942407
771.00 0.6940941
771.10 0.6939476
771.20 0.6938012
771.30 0.6936548
771.40 0.6935085
771.50 0.6933622
771.60 0.693216
771.70 0.6930698
771.80 0.6929237
771.90 0.6927776
772.00 0.6926316
772.10 0.6924856
772.20 0.6923397
772.30 0.6921938
772.40 0.692048
772.50 0.6919023
772.60 0.6917566
772.70 0.6916109
772.80 0.6914653
772.90 0.6913159
773.00 0.6911665
773.10 0.6910172
773.20 0.690868
773.30 0.6907188
773.40 0.6905696
773.50 0.6904205
773.60 0.6902715
773.70 0.6901225
773.80 0.6899736
773.90 0.6898247
774.00 0.6896759
774.10 0.6895271
774.20 0.6893784
774.30 0.6892297
774.40 0.6890811
774.50 0.6889326
774.60 0.6887841
774.70 0.6886356
774.80 0.6884872
774.90 0.6883389
775.00 0.6881906
775.10 0.6880424
775.20 0.6878942
775.30 0.6877461
775.40 0.687598
775.50 0.68745
775.60 0.687302
775.70 0.6871541
775.80 0.6870062
775.90 0.6868584
776.00 0.6867107
776.10 0.686563
776.20 0.6864153
776.30 0.6862678
776.40 0.6861202
776.50 0.6859727
776.60 0.6858253
776.70 0.6856779
776.80 0.6855306
776.90 0.6853833
777.00 0.6852361
777.10 0.6850889
777.20 0.6849418
777.30 0.6847948
777.40 0.6846478
777.50 0.6845008
777.60 0.6843539
777.70 0.6842071
777.80 0.6840603
777.90 0.6839135
778.00 0.6837668
778.10 0.6836202
778.20 0.6834736
778.30 0.6833271
778.40 0.6831806
778.50 0.6830342
778.60 0.6828878
778.70 0.6827415
778.80 0.6825952
778.90 0.682449
779.00 0.6823029
779.10 0.6821567
779.20 0.6820107
779.30 0.6818647
779.40 0.6817187
779.50 0.6815728
779.60 0.681427
779.70 0.6812812
779.80 0.6811355
779.90 0.6809898
780.00 0.6808441
780.10 0.6806985
780.20 0.680553
780.30 0.6804075
780.40 0.6802621
780.50 0.6801167
780.60 0.6799713
780.70 0.6798258
780.80 0.6796805
780.90 0.6795351
781.00 0.6793898
781.10 0.6792446
781.20 0.6790994
781.30 0.6789543
781.40 0.6788092
781.50 0.6786642
781.60 0.6785192
781.70 0.6783743
781.80 0.6782294
781.90 0.6780846
782.00 0.6779399
782.10 0.6777952
782.20 0.6776505
782.30 0.6775059
782.40 0.6773613
782.50 0.6772168
782.60 0.6770724
782.70 0.676928
782.80 0.6767836
782.90 0.6766393
783.00 0.6764951
783.10 0.6763509
783.20 0.6762068
783.30 0.6760627
783.40 0.6759186
783.50 0.6757746
783.60 0.6756307
783.70 0.6754868
783.80 0.675343
783.90 0.6751992
784.00 0.6750555
784.10 0.6749118
784.20 0.6747682
784.30 0.6746246
784.40 0.6744811
784.50 0.6743376
784.60 0.6741927
784.70 0.6740444
784.80 0.6738961
784.90 0.6737479
785.00 0.6735997
785.10 0.6734516
785.20 0.6733036
785.30 0.6731556
785.40 0.6730077
785.50 0.6728598
785.60 0.6727119
785.70 0.6725642
785.80 0.6724164
785.90 0.6722688
786.00 0.6721212
786.10 0.6719736
786.20 0.6718261
786.30 0.6716786
786.40 0.6715312
786.50 0.6713839
786.60 0.6712366
786.70 0.6710893
786.80 0.6709421
786.90 0.670795
787.00 0.6706479
787.10 0.6705009
787.20 0.6703539
787.30 0.670207
787.40 0.6700601
787.50 0.6699133
787.60 0.6697665
787.70 0.6696198
787.80 0.6694731
787.90 0.6693265
788.00 0.66918
788.10 0.6690334
788.20 0.668887
788.30 0.6687406
788.40 0.668595
788.50 0.6684499
788.60 0.6683048
788.70 0.6681598
788.80 0.6680148
788.90 0.6678699
789.00 0.6677251
789.10 0.6675802
789.20 0.6674355
789.30 0.6672908
789.40 0.6671461
789.50 0.6670015
789.60 0.6668569
789.70 0.6667124
789.80 0.666568
789.90 0.6664236
790.00 0.6662792
790.10 0.6661349
790.20 0.6659907
790.30 0.6658465
790.40 0.6657024
790.50 0.6655583
790.60 0.6654142
790.70 0.6652702
790.80 0.6651263
790.90 0.6649824
791.00 0.6648386
791.10 0.6646948
791.20 0.6645511
791.30 0.6644074
791.40 0.6642638
791.50 0.6641202
791.60 0.6639767
791.70 0.6638332
791.80 0.6636898
791.90 0.6635464
792.00 0.6634031
792.10 0.6632598
792.20 0.6631166
792.30 0.6629734
792.40 0.6628303
792.50 0.6626873
792.60 0.6625443
792.70 0.6624013
792.80 0.6622584
792.90 0.6621156
793.00 0.6619728
793.10 0.66183
793.20 0.6616873
793.30 0.6615447
793.40 0.6614021
793.50 0.6612595
793.60 0.661117
793.70 0.6609746
793.80 0.6608322
793.90 0.6606898
794.00 0.6605475
794.10 0.6604053
794.20 0.6602631
794.30 0.660121
794.40 0.6599789
794.50 0.6598368
794.60 0.6596949
794.70 0.6595529
794.80 0.659411
794.90 0.6592692
795.00 0.6591274
795.10 0.6589857
795.20 0.658844
795.30 0.6587023
795.40 0.6585608
795.50 0.6584192
795.60 0.6582777
795.70 0.6581363
795.80 0.6579949
795.90 0.6578536
796.00 0.6577123
796.10 0.6575711
796.20 0.6574299
796.30 0.6572858
796.40 0.6571413
796.50 0.6569968
796.60 0.6568523
796.70 0.6567079
796.80 0.6565636
796.90 0.6564193
797.00 0.656275
797.10 0.6561308
797.20 0.6559867
797.30 0.6558426
797.40 0.6556985
797.50 0.6555545
797.60 0.6554106
797.70 0.6552667
797.80 0.6551229
797.90 0.6549791
798.00 0.6548354
798.10 0.6546917
798.20 0.6545481
798.30 0.6544045
798.40 0.654261
798.50 0.6541175
798.60 0.6539741
798.70 0.6538307
798.80 0.6536874
798.90 0.6535441
799.00 0.6534009
799.10 0.6532577
799.20 0.6531146
799.30 0.6529715
799.40 0.6528285
799.50 0.6526855
799.60 0.6525426
799.70 0.6523998
799.80 0.652257
799.90 0.6521142
800.00 0.6519715
800.10 0.6518288
800.20 0.6516862
800.30 0.6515437
800.40 0.6514012
800.50 0.6512587
800.60 0.6511163
800.70 0.650974
800.80 0.6508317
800.90 0.6506894
801.00 0.6505472
801.10 0.6504051
801.20 0.650263
801.30 0.6501209
801.40 0.6499789
801.50 0.649837
801.60 0.6496951
801.70 0.6495533
801.80 0.6494115
801.90 0.6492697
802.00 0.649128
802.10 0.6489864
802.20 0.6488448
802.30 0.6487032
802.40 0.6485618
802.50 0.6484203
802.60 0.6482789
802.70 0.6481376
802.80 0.6479963
802.90 0.6478551
803.00 0.6477139
803.10 0.6475727
803.20 0.6474316
803.30 0.6472906
803.40 0.6471496
803.50 0.6470087
803.60 0.6468678
803.70 0.6467269
803.80 0.6465862
803.90 0.6464454
804.00 0.6463047
804.10 0.6461641
804.20 0.6460228
804.30 0.6458789
804.40 0.6457351
804.50 0.6455913
804.60 0.6454476
804.70 0.6453039
804.80 0.6451603
804.90 0.6450167
805.00 0.6448732
805.10 0.6447297
805.20 0.6445863
805.30 0.6444429
805.40 0.6442996
805.50 0.6441564
805.60 0.6440131
805.70 0.64387
805.80 0.6437269
805.90 0.6435838
806.00 0.6434408
806.10 0.6432979
806.20 0.643155
806.30 0.6430121
806.40 0.6428693
806.50 0.6427266
806.60 0.6425839
806.70 0.6424412
806.80 0.6422986
806.90 0.6421561
807.00 0.6420136
807.10 0.6418711
807.20 0.6417287
807.30 0.6415864
807.40 0.6414441
807.50 0.6413019
807.60 0.6411597
807.70 0.6410175
807.80 0.6408754
807.90 0.6407334
808.00 0.6405914
808.10 0.6404495
808.20 0.6403076
808.30 0.6401658
808.40 0.640024
808.50 0.6398822
808.60 0.6397405
808.70 0.6395989
808.80 0.6394573
808.90 0.6393158
809.00 0.6391743
809.10 0.6390329
809.20 0.6388915
809.30 0.6387502
809.40 0.6386089
809.50 0.6384677
809.60 0.6383265
809.70 0.6381854
809.80 0.6380443
809.90 0.6379032
810.00 0.6377623
810.10 0.6376213
810.20 0.6374805
810.30 0.6373396
810.40 0.6371989
810.50 0.6370581
810.60 0.6369174
810.70 0.6367768
810.80 0.6366362
810.90 0.6364957
811.00 0.6363552
811.10 0.6362148
811.20 0.6360744
811.30 0.6359341
811.40 0.6357938
811.50 0.6356536
811.60 0.6355134
811.70 0.6353733
811.80 0.6352332
811.90 0.6350932
812.00 0.6349532
812.10 0.6348133
812.20 0.6346734
812.30 0.6345326
812.40 0.6343917
812.50 0.6342509
812.60 0.63411
812.70 0.6339693
812.80 0.6338285
812.90 0.6336879
813.00 0.6335473
813.10 0.6334067
813.20 0.6332662
813.30 0.6331257
813.40 0.6329853
813.50 0.6328449
813.60 0.6327046
813.70 0.6325643
813.80 0.6324241
813.90 0.632284
814.00 0.6321438
814.10 0.6320038
814.20 0.6318637
814.30 0.6317238
814.40 0.6315839
814.50 0.631444
814.60 0.6313042
814.70 0.6311644
814.80 0.6310247
814.90 0.630885
815.00 0.6307454
815.10 0.6306058
815.20 0.6304663
815.30 0.6303268
815.40 0.6301874
815.50 0.630048
815.60 0.6299087
815.70 0.6297694
815.80 0.6296302
815.90 0.629491
816.00 0.6293519
816.10 0.6292128
816.20 0.6290738
816.30 0.6289348
816.40 0.6287959
816.50 0.628657
816.60 0.6285181
816.70 0.6283794
816.80 0.6282406
816.90 0.6281019
817.00 0.6279633
817.10 0.6278247
817.20 0.6276862
817.30 0.6275477
817.40 0.6274093
817.50 0.6272709
817.60 0.6271325
817.70 0.6269942
817.80 0.626856
817.90 0.6267178
818.00 0.6265796
818.10 0.6264415
818.20 0.6263035
818.30 0.6261655
818.40 0.6260275
818.50 0.6258896
818.60 0.6257518
818.70 0.625614
818.80 0.6254762
818.90 0.6253385
819.00 0.6252009
819.10 0.6250632
819.20 0.6249257
819.30 0.6247906
819.40 0.6246572
819.50 0.6245238
819.60 0.6243905
819.70 0.6242572
819.80 0.6241239
819.90 0.6239908
820.00 0.6238576
820.10 0.6237228
820.20 0.6235707
820.30 0.6234187
820.40 0.6232747
820.50 0.6231365
820.60 0.6229983
820.70 0.6228602
820.80 0.6227222
820.90 0.6225842
821.00 0.6224462
821.10 0.6223083
821.20 0.6221705
821.30 0.6220327
821.40 0.6218949
821.50 0.6217572
821.60 0.6216195
821.70 0.6214819
821.80 0.6213444
821.90 0.6212068
822.00 0.6210694
822.10 0.620932
822.20 0.6207946
822.30 0.6206573
822.40 0.62052
822.50 0.6203828
822.60 0.6202456
822.70 0.6201085
822.80 0.6199714
822.90 0.6198343
823.00 0.6196974
823.10 0.6195604
823.20 0.6194235
823.30 0.6192867
823.40 0.6191499
823.50 0.6190132
823.60 0.6188765
823.70 0.6187398
823.80 0.6186032
823.90 0.6184667
824.00 0.6183302
824.10 0.6181937
824.20 0.6180573
824.30 0.617921
824.40 0.6177847
824.50 0.6176484
824.60 0.6175122
824.70 0.617376
824.80 0.6172399
824.90 0.6171038
825.00 0.6169678
825.10 0.6168318
825.20 0.6166959
825.30 0.61656
825.40 0.6164242
825.50 0.6162884
825.60 0.6161527
825.70 0.616017
825.80 0.6158813
825.90 0.6157458
826.00 0.6156102
826.10 0.6154747
826.20 0.6153393
826.30 0.615202
826.40 0.6150635
826.50 0.614925
826.60 0.6147866
826.70 0.6146483
826.80 0.6145099
826.90 0.6143717
827.00 0.6142335
827.10 0.6140953
827.20 0.6139572
827.30 0.6138192
827.40 0.6136811
827.50 0.6135432
827.60 0.6134053
827.70 0.6132674
827.80 0.6131296
827.90 0.6129918
828.00 0.6128541
828.10 0.6127164
828.20 0.6125788
828.30 0.6124412
828.40 0.6123037
828.50 0.6121662
828.60 0.6120289
828.70 0.6118917
828.80 0.6117546
828.90 0.6116175
829.00 0.6114805
829.10 0.6113435
829.20 0.6112066
829.30 0.6110697
829.40 0.6109329
829.50 0.6107961
829.60 0.6106594
829.70 0.6105227
829.80 0.6103861
829.90 0.6102495
830.00 0.6101129
830.10 0.6099765
830.20 0.60984
830.30 0.6097036
830.40 0.6095673
830.50 0.609431
830.60 0.6092947
830.70 0.6091585
830.80 0.6090224
830.90 0.6088862
831.00 0.6087502
831.10 0.6086142
831.20 0.6084782
831.30 0.6083423
831.40 0.6082064
831.50 0.6080706
831.60 0.6079348
831.70 0.6077991
831.80 0.6076634
831.90 0.6075278
832.00 0.6073922
832.10 0.6072567
832.20 0.6071212
832.30 0.6069857
832.40 0.6068503
832.50 0.606715
832.60 0.6065797
832.70 0.6064444
832.80 0.6063092
832.90 0.6061741
833.00 0.606039
833.10 0.6059039
833.20 0.6057689
833.30 0.6056339
833.40 0.605499
833.50 0.6053641
833.60 0.6052293
833.70 0.6050945
833.80 0.6049598
833.90 0.6048251
834.00 0.6046905
834.10 0.6045559
834.20 0.6044214
834.30 0.6042869
834.40 0.6041524
834.50 0.604018
834.60 0.6038837
834.70 0.6037494
834.80 0.6036151
834.90 0.6034809
835.00 0.6033467
835.10 0.6032126
835.20 0.6030785
835.30 0.6029445
835.40 0.6028105
835.50 0.6026766
835.60 0.6025427
835.70 0.6024089
835.80 0.6022751
835.90 0.6021414
836.00 0.6020077
836.10 0.601874
836.20 0.6017404
836.30 0.6016069
836.40 0.6014733
836.50 0.6013399
836.60 0.6012065
836.70 0.6010731
836.80 0.6009398
836.90 0.6008045
837.00 0.6006684
837.10 0.6005323
837.20 0.6003963
837.30 0.6002603
837.40 0.6001244
837.50 0.5999885
837.60 0.5998527
837.70 0.5997169
837.80 0.5995812
837.90 0.5994455
838.00 0.5993098
838.10 0.5991742
838.20 0.5990387
838.30 0.5989032
838.40 0.5987677
838.50 0.5986323
838.60 0.598497
838.70 0.5983617
838.80 0.5982264
838.90 0.5980912
839.00 0.597956
839.10 0.5978209
839.20 0.5976858
839.30 0.5975508
839.40 0.5974158
839.50 0.5972809
839.60 0.597146
839.70 0.5970112
839.80 0.5968764
839.90 0.5967417
840.00 0.596607
840.10 0.5964723
840.20 0.5963377
840.30 0.5962032
840.40 0.5960687
840.50 0.5959342
840.60 0.5957998
840.70 0.5956655
840.80 0.5955311
840.90 0.5953969
841.00 0.5952626
841.10 0.5951285
841.20 0.5949943
841.30 0.5948603
841.40 0.5947262
841.50 0.5945922
841.60 0.5944583
841.70 0.5943244
841.80 0.5941906
841.90 0.5940568
842.00 0.593923
842.10 0.5937893
842.20 0.5936556
842.30 0.593522
842.40 0.5933884
842.50 0.5932549
842.60 0.5931215
842.70 0.592988
842.80 0.5928546
842.90 0.5927213
843.00 0.592588
843.10 0.5924548
843.20 0.5923216
843.30 0.5921884
843.40 0.5920553
843.50 0.5919223
843.60 0.5917893
843.70 0.5916563
843.80 0.5915234
843.90 0.5913905
844.00 0.5912577
844.10 0.5911249
844.20 0.5909922
844.30 0.5908595
844.40 0.5907269
844.50 0.5905943
844.60 0.5904617
844.70 0.5903293
844.80 0.5901968
844.90 0.5900644
845.00 0.589932
845.10 0.5897997
845.20 0.5896674
845.30 0.5895343
845.40 0.5894011
845.50 0.589268
845.60 0.5891349
845.70 0.5890019
845.80 0.588869
845.90 0.5887361
846.00 0.5886032
846.10 0.5884704
846.20 0.5883376
846.30 0.5882049
846.40 0.5880722
846.50 0.5879395
846.60 0.5878069
846.70 0.5876744
846.80 0.5875419
846.90 0.5874095
847.00 0.587277
847.10 0.5871447
847.20 0.5870124
847.30 0.5868801
847.40 0.5867479
847.50 0.5866157
847.60 0.5864836
847.70 0.5863515
847.80 0.5862194
847.90 0.5860875
848.00 0.5859555
848.10 0.5858236
848.20 0.5856918
848.30 0.5855599
848.40 0.5854282
848.50 0.5852965
848.60 0.5851648
848.70 0.5850332
848.80 0.5849016
848.90 0.5847701
849.00 0.5846386
849.10 0.5845071
849.20 0.5843757
849.30 0.5842444
849.40 0.5841131
849.50 0.5839818
849.60 0.5838506
849.70 0.5837194
849.80 0.5835883
849.90 0.5834572
850.00 0.5833262
850.10 0.5831952
850.20 0.5830643
850.30 0.5829334
850.40 0.5828025
850.50 0.5826717
850.60 0.582541
850.70 0.5824103
850.80 0.5822796
850.90 0.582149
851.00 0.5820184
851.10 0.5818879
851.20 0.5817574
851.30 0.5816269
851.40 0.5814965
851.50 0.5813662
851.60 0.5812359
851.70 0.5811056
851.80 0.5809754
851.90 0.5808452
852.00 0.5807151
852.10 0.580585
852.20 0.580455
852.30 0.580325
852.40 0.580195
852.50 0.5800651
852.60 0.5799353
852.70 0.5798055
852.80 0.5796757
852.90 0.579546
853.00 0.5794163
853.10 0.5792867
853.20 0.5791571
853.30 0.5790276
853.40 0.5788981
853.50 0.5787686
853.60 0.5786392
853.70 0.5785085
853.80 0.5783765
853.90 0.5782446
854.00 0.5781127
854.10 0.5779808
854.20 0.577849
854.30 0.5777172
854.40 0.5775855
854.50 0.5774538
854.60 0.5773222
854.70 0.5771906
854.80 0.577059
854.90 0.5769275
855.00 0.5767961
855.10 0.5766647
855.20 0.5765333
855.30 0.576402
855.40 0.5762707
855.50 0.5761395
855.60 0.5760083
855.70 0.5758772
855.80 0.5757461
855.90 0.575615
856.00 0.575484
856.10 0.5753531
856.20 0.5752222
856.30 0.5750913
856.40 0.5749605
856.50 0.5748297
856.60 0.574699
856.70 0.5745683
856.80 0.5744377
856.90 0.5743071
857.00 0.5741766
857.10 0.5740461
857.20 0.5739156
857.30 0.5737852
857.40 0.5736548
857.50 0.5735245
857.60 0.5733942
857.70 0.573264
857.80 0.5731338
857.90 0.5730037
858.00 0.572875
858.10 0.5727467
858.20 0.5726184
858.30 0.5724902
858.40 0.572362
858.50 0.5722339
858.60 0.5721058
858.70 0.5719777
858.80 0.5718497
858.90 0.5717218
859.00 0.5715938
859.10 0.571466
859.20 0.5713381
859.30 0.5712104
859.40 0.5710826
859.50 0.5709549
859.60 0.5708273
859.70 0.5706997
859.80 0.5705721
859.90 0.5704446
860.00 0.5703171
860.10 0.5701897
860.20 0.5700623
860.30 0.5699349
860.40 0.5698076
860.50 0.5696804
860.60 0.5695532
860.70 0.569426
860.80 0.5692989
860.90 0.5691718
861.00 0.5690447
861.10 0.5689177
861.20 0.5687908
861.30 0.5686639
861.40 0.568537
861.50 0.5684102
861.60 0.5682834
861.70 0.5681567
861.80 0.56803
861.90 0.5679033
862.00 0.5677767
862.10 0.5676502
862.20 0.5675233
862.30 0.5673933
862.40 0.5672635
862.50 0.5671336
862.60 0.5670038
862.70 0.5668741
862.80 0.5667444
862.90 0.5666147
863.00 0.5664851
863.10 0.5663556
863.20 0.566226
863.30 0.5660966
863.40 0.5659671
863.50 0.5658378
863.60 0.5657084
863.70 0.5655791
863.80 0.5654499
863.90 0.5653207
864.00 0.5651915
864.10 0.5650624
864.20 0.5649333
864.30 0.5648043
864.40 0.5646753
864.50 0.5645464
864.60 0.5644175
864.70 0.5642886
864.80 0.5641598
864.90 0.5640311
865.00 0.5639023
865.10 0.5637737
865.20 0.5636451
865.30 0.5635165
865.40 0.5633879
865.50 0.5632594
865.60 0.563131
865.70 0.5630026
865.80 0.5628742
865.90 0.5627459
866.00 0.5626176
866.10 0.5624894
866.20 0.5623612
866.30 0.5622331
866.40 0.562105
866.50 0.5619769
866.60 0.5618489
866.70 0.561721
866.80 0.561593
866.90 0.5614652
867.00 0.5613373
867.10 0.5612096
867.20 0.5610818
867.30 0.5609541
867.40 0.5608265
867.50 0.5606988
867.60 0.5605713
867.70 0.5604438
867.80 0.5603163
867.90 0.5601888
868.00 0.5600615
868.10 0.5599341
868.20 0.5598068
868.30 0.5596795
868.40 0.5595523
868.50 0.5594252
868.60 0.559298
868.70 0.5591709
868.80 0.5590439
868.90 0.5589169
869.00 0.5587899
869.10 0.558663
869.20 0.5585362
869.30 0.5584093
869.40 0.5582826
869.50 0.5581558
869.60 0.5580291
869.70 0.5579025
869.80 0.5577759
869.90 0.5576493
870.00 0.5575228
870.10 0.5573963
870.20 0.5572699
870.30 0.5571435
870.40 0.5570172
870.50 0.5568909
870.60 0.5567646
870.70 0.5566384
870.80 0.5565122
870.90 0.5563861
871.00 0.55626
871.10 0.5561339
871.20 0.5560079
871.30 0.5558819
871.40 0.555756
871.50 0.5556301
871.60 0.5555043
871.70 0.5553785
871.80 0.5552527
871.90 0.555127
872.00 0.5550013
872.10 0.5548757
872.20 0.5547501
872.30 0.5546246
872.40 0.5544991
872.50 0.5543736
872.60 0.5542482
872.70 0.5541228
872.80 0.5539975
872.90 0.5538722
873.00 0.553747
873.10 0.5536218
873.20 0.5534966
873.30 0.5533715
873.40 0.5532465
873.50 0.5531214
873.60 0.5529965
873.70 0.5528715
873.80 0.5527466
873.90 0.5526218
874.00 0.5524969
874.10 0.5523722
874.20 0.5522474
874.30 0.5521228
874.40 0.5519981
874.50 0.5518735
874.60 0.551749
874.70 0.5516244
874.80 0.5515
874.90 0.5513755
875.00 0.5512512
875.10 0.5511268
875.20 0.5510019
875.30 0.550876
875.40 0.5507502
875.50 0.5506244
875.60 0.5504986
875.70 0.5503729
875.80 0.5502472
875.90 0.5501216
876.00 0.549996
876.10 0.5498704
876.20 0.5497449
876.30 0.5496195
876.40 0.5494941
876.50 0.5493687
876.60 0.5492433
876.70 0.5491181
876.80 0.5489928
876.90 0.5488676
877.00 0.5487424
877.10 0.5486173
877.20 0.5484922
877.30 0.5483672
877.40 0.5482422
877.50 0.5481173
877.60 0.5479924
877.70 0.5478675
877.80 0.5477427
877.90 0.5476179
878.00 0.5474932
878.10 0.5473685
878.20 0.5472438
878.30 0.5471192
878.40 0.5469946
878.50 0.5468701
878.60 0.5467456
878.70 0.5466212
878.80 0.5464968
878.90 0.5463725
879.00 0.5462482
879.10 0.5461239
879.20 0.5459997
879.30 0.5458755
879.40 0.5457513
879.50 0.5456272
879.60 0.5455032
879.70 0.5453792
879.80 0.5452552
879.90 0.5451313
880.00 0.5450074
880.10 0.5448835
880.20 0.5447597
880.30 0.544636
880.40 0.5445123
880.50 0.5443886
880.60 0.544265
880.70 0.5441414
880.80 0.5440178
880.90 0.5438943
881.00 0.5437708
881.10 0.5436474
881.20 0.543524
881.30 0.5434007
881.40 0.5432774
881.50 0.5431541
881.60 0.5430309
881.70 0.5429078
881.80 0.5427846
881.90 0.5426615
882.00 0.5425385
882.10 0.5424155
882.20 0.5422925
882.30 0.5421696
882.40 0.5420467
882.50 0.5419239
882.60 0.5418011
882.70 0.5416784
882.80 0.5415556
882.90 0.541433
883.00 0.5413103
883.10 0.5411878
883.20 0.5410652
883.30 0.5409427
883.40 0.5408202
883.50 0.5406978
883.60 0.5405754
883.70 0.5404531
883.80 0.5403308
883.90 0.5402086
884.00 0.540085
884.10 0.5399613
884.20 0.5398376
884.30 0.5397139
884.40 0.5395903
884.50 0.5394667
884.60 0.5393431
884.70 0.5392196
884.80 0.5390962
884.90 0.5389727
885.00 0.5388494
885.10 0.538726
885.20 0.5386027
885.30 0.5384795
885.40 0.5383563
885.50 0.5382331
885.60 0.53811
885.70 0.5379869
885.80 0.5378639
885.90 0.5377409
886.00 0.5376179
886.10 0.537495
886.20 0.5373721
886.30 0.5372493
886.40 0.5371265
886.50 0.5370037
886.60 0.536881
886.70 0.5367584
886.80 0.5366357
886.90 0.5365132
887.00 0.5363906
887.10 0.5362681
887.20 0.5361457
887.30 0.5360233
887.40 0.5359009
887.50 0.5357785
887.60 0.5356563
887.70 0.535534
887.80 0.5354118
887.90 0.5352896
888.00 0.5351675
888.10 0.5350454
888.20 0.5349234
888.30 0.5348014
888.40 0.5346788
888.50 0.5345561
888.60 0.5344334
888.70 0.5343108
888.80 0.5341883
888.90 0.5340658
889.00 0.5339433
889.10 0.5338209
889.20 0.5336985
889.30 0.5335761
889.40 0.5334538
889.50 0.5333316
889.60 0.5332094
889.70 0.5330872
889.80 0.532965
889.90 0.5328429
890.00 0.5327209
890.10 0.5325989
890.20 0.5324769
890.30 0.532355
890.40 0.5322331
890.50 0.5321112
890.60 0.5319894
890.70 0.5318677
890.80 0.5317459
890.90 0.5316242
891.00 0.5315026
891.10 0.531381
891.20 0.5312594
891.30 0.5311379
891.40 0.5310164
891.50 0.530895
891.60 0.5307736
891.70 0.5306523
891.80 0.5305309
891.90 0.5304097
892.00 0.5302884
892.10 0.5301672
892.20 0.5300461
892.30 0.529925
892.40 0.5298039
892.50 0.5296829
892.60 0.5295619
892.70 0.529441
892.80 0.5293201
892.90 0.5291992
893.00 0.5290784
893.10 0.5289576
893.20 0.5288369
893.30 0.5287162
893.40 0.5285955
893.50 0.5284749
893.60 0.5283543
893.70 0.5282338
893.80 0.5281133
893.90 0.5279928
894.00 0.5278724
894.10 0.527752
894.20 0.5276317
894.30 0.5275114
894.40 0.5273911
894.50 0.5272709
894.60 0.5271508
894.70 0.5270306
894.80 0.5269105
894.90 0.5267905
895.00 0.5266705
895.10 0.5265505
895.20 0.5264306
895.30 0.5263107
895.40 0.5261909
895.50 0.5260711
895.60 0.5259513
895.70 0.5258316
895.80 0.5257119
895.90 0.5255922
896.00 0.5254726
896.10 0.5253531
896.20 0.5252335
896.30 0.5251141
896.40 0.5249946
896.50 0.5248752
896.60 0.5247558
896.70 0.5246365
896.80 0.5245172
896.90 0.524398
897.00 0.5242788
897.10 0.5241596
897.20 0.5240405
897.30 0.5239207
897.40 0.5238009
897.50 0.5236812
897.60 0.5235615
897.70 0.5234418
897.80 0.5233222
897.90 0.5232026
898.00 0.5230831
898.10 0.5229636
898.20 0.5228442
898.30 0.5227247
898.40 0.5226054
898.50 0.522486
898.60 0.5223668
898.70 0.5222475
898.80 0.5221283
898.90 0.5220091
899.00 0.52189
899.10 0.5217709
899.20 0.5216519
899.30 0.5215329
899.40 0.5214139
899.50 0.521295
899.60 0.5211761
899.70 0.5210572
899.80 0.5209384
899.90 0.5208196
900.00 0.5207009
900.10 0.5205822
900.20 0.5204636
900.30 0.520345
900.40 0.5202264
900.50 0.5201079
900.60 0.5199894
900.70 0.5198709
900.80 0.5197525
900.90 0.5196341
901.00 0.5195158
901.10 0.5193975
901.20 0.5192793
901.30 0.519161
901.40 0.5190429
901.50 0.5189247
901.60 0.5188066
901.70 0.5186883
901.80 0.5185688
901.90 0.5184494
902.00 0.5183299
902.10 0.5182105
902.20 0.5180912
902.30 0.5179719
902.40 0.5178526
902.50 0.5177334
902.60 0.5176142
902.70 0.5174951
902.80 0.517376
902.90 0.5172569
903.00 0.5171379
903.10 0.5170189
903.20 0.5168999
903.30 0.516781
903.40 0.5166622
903.50 0.5165433
903.60 0.5164246
903.70 0.5163058
903.80 0.5161871
903.90 0.5160684
904.00 0.5159498
904.10 0.5158312
904.20 0.5157127
904.30 0.5155942
904.40 0.5154757
904.50 0.5153573
904.60 0.5152389
904.70 0.5151205
904.80 0.5150022
904.90 0.514884
905.00 0.5147657
905.10 0.5146476
905.20 0.5145294
905.30 0.5144113
905.40 0.5142932
905.50 0.5141752
905.60 0.5140572
905.70 0.5139393
905.80 0.5138213
905.90 0.5137035
906.00 0.5135856
906.10 0.5134679
906.20 0.5133501
906.30 0.5132324
906.40 0.5131148
906.50 0.5129972
906.60 0.5128797
906.70 0.5127622
906.80 0.5126447
906.90 0.5125273
907.00 0.5124099
907.10 0.5122925
907.20 0.5121752
907.30 0.5120579
907.40 0.5119407
907.50 0.5118235
907.60 0.5117063
907.70 0.5115892
907.80 0.5114721
907.90 0.5113551
908.00 0.5112381
908.10 0.5111211
908.20 0.5110042
908.30 0.5108873
908.40 0.5107705
908.50 0.5106537
908.60 0.5105369
908.70 0.5104202
908.80 0.5103035
908.90 0.5101868
909.00 0.5100702
909.10 0.5099536
909.20 0.5098371
909.30 0.5097206
909.40 0.5096042
909.50 0.5094877
909.60 0.5093714
909.70 0.509255
909.80 0.5091387
909.90 0.5090225
910.00 0.5089062
910.10 0.5087901
910.20 0.5086739
910.30 0.5085578
910.40 0.5084417
910.50 0.5083257
910.60 0.5082097
910.70 0.5080938
910.80 0.5079764
910.90 0.5078591
911.00 0.5077418
911.10 0.5076245
911.20 0.5075073
911.30 0.5073902
911.40 0.5072731
911.50 0.507156
911.60 0.5070389
911.70 0.5069219
911.80 0.5068049
911.90 0.506688
912.00 0.5065711
912.10 0.5064543
912.20 0.5063374
912.30 0.5062207
912.40 0.5061039
912.50 0.5059872
912.60 0.5058706
912.70 0.505754
912.80 0.5056374
912.90 0.5055208
913.00 0.5054043
913.10 0.5052879
913.20 0.5051715
913.30 0.5050551
913.40 0.5049387
913.50 0.5048224
913.60 0.5047062
913.70 0.5045899
913.80 0.5044737
913.90 0.5043576
914.00 0.5042415
914.10 0.5041254
914.20 0.5040094
914.30 0.5038934
914.40 0.5037774
914.50 0.5036615
914.60 0.5035456
914.70 0.5034298
914.80 0.503314
914.90 0.5031982
915.00 0.5030825
915.10 0.5029668
915.20 0.5028511
915.30 0.5027356
915.40 0.50262
915.50 0.5025046
915.60 0.5023891
915.70 0.5022737
915.80 0.5021584
915.90 0.502043
916.00 0.5019278
916.10 0.5018125
916.20 0.5016973
916.30 0.5015821
916.40 0.501467
916.50 0.5013519
916.60 0.5012368
916.70 0.5011218
916.80 0.5010069
916.90 0.5008919
917.00 0.500777
917.10 0.5006621
917.20 0.5005473
917.30 0.5004325
917.40 0.5003178
917.50 0.5002031
917.60 0.5000884
917.70 0.4999738
917.80 0.4998592
917.90 0.4997446
918.00 0.4996301
918.10 0.4995156
918.20 0.4994012
918.30 0.4992867
918.40 0.4991724
918.50 0.499058
918.60 0.4989438
918.70 0.4988295
918.80 0.4987153
918.90 0.4986011
919.00 0.498487
919.10 0.4983729
919.20 0.4982588
919.30 0.4981448
919.40 0.4980308
919.50 0.4979168
919.60 0.4978029
919.70 0.497689
919.80 0.4975752
919.90 0.4974601
920.00 0.4973449
920.10 0.4972298
920.20 0.4971147
920.30 0.4969996
920.40 0.4968846
920.50 0.4967696
920.60 0.4966547
920.70 0.4965398
920.80 0.4964249
920.90 0.4963101
921.00 0.4961953
921.10 0.4960806
921.20 0.4959658
921.30 0.4958512
921.40 0.4957365
921.50 0.4956219
921.60 0.4955074
921.70 0.4953929
921.80 0.4952784
921.90 0.4951639
922.00 0.4950495
922.10 0.4949352
922.20 0.4948208
922.30 0.4947065
922.40 0.4945923
922.50 0.4944781
922.60 0.4943639
922.70 0.4942497
922.80 0.4941356
922.90 0.4940216
923.00 0.4939075
923.10 0.4937936
923.20 0.4936796
923.30 0.4935657
923.40 0.4934518
923.50 0.493338
923.60 0.4932242
923.70 0.4931104
923.80 0.4929967
923.90 0.492883
924.00 0.4927693
924.10 0.4926557
924.20 0.4925422
924.30 0.4924286
924.40 0.4923154
924.50 0.4922034
924.60 0.4920914
924.70 0.4919795
924.80 0.4918675
924.90 0.4917557
925.00 0.4916439
925.10 0.4915321
925.20 0.4914203
925.30 0.4913086
925.40 0.4911969
925.50 0.4910853
925.60 0.4909736
925.70 0.4908621
925.80 0.4907505
925.90 0.490639
926.00 0.4905276
926.10 0.4904162
926.20 0.4903048
926.30 0.4901934
926.40 0.4900821
926.50 0.4899708
926.60 0.4898596
926.70 0.4897484
926.80 0.4896372
926.90 0.4895261
927.00 0.489415
927.10 0.4893039
927.20 0.4891929
927.30 0.4890819
927.40 0.488971
927.50 0.4888601
927.60 0.4887492
927.70 0.4886383
927.80 0.4885275
927.90 0.4884168
928.00 0.488306
928.10 0.4881953
928.20 0.4880847
928.30 0.4879741
928.40 0.4878635
928.50 0.4877529
928.60 0.4876424
928.70 0.4875319
928.80 0.4874215
928.90 0.4873111
929.00 0.4872007
929.10 0.4870878
929.20 0.4869748
929.30 0.4868618
929.40 0.4867488
929.50 0.4866359
929.60 0.486523
929.70 0.4864102
929.80 0.4862974
929.90 0.4861846
930.00 0.4860719
930.10 0.4859592
930.20 0.4858466
930.30 0.4857339
930.40 0.4856214
930.50 0.4855088
930.60 0.4853963
930.70 0.4852839
930.80 0.4851714
930.90 0.485059
931.00 0.4849467
931.10 0.4848344
931.20 0.4847221
931.30 0.4846098
931.40 0.4844976
931.50 0.4843855
931.60 0.4842733
931.70 0.4841612
931.80 0.4840492
931.90 0.4839372
932.00 0.4838252
932.10 0.4837132
932.20 0.4836013
932.30 0.4834894
932.40 0.4833776
932.50 0.4832658
932.60 0.483154
932.70 0.4830423
932.80 0.4829306
932.90 0.482819
933.00 0.4827074
933.10 0.4825958
933.20 0.4824842
933.30 0.4823727
933.40 0.4822613
933.50 0.4821498
933.60 0.4820384
933.70 0.4819271
933.80 0.4818159
933.90 0.4817047
934.00 0.4815935
934.10 0.4814824
934.20 0.4813713
934.30 0.4812602
934.40 0.4811492
934.50 0.4810382
934.60 0.4809273
934.70 0.4808164
934.80 0.4807055
934.90 0.4805946
935.00 0.4804838
935.10 0.4803731
935.20 0.4802623
935.30 0.4801516
935.40 0.480041
935.50 0.4799304
935.60 0.4798198
935.70 0.4797092
935.80 0.4795987
935.90 0.4794882
936.00 0.4793778
936.10 0.4792674
936.20 0.479157
936.30 0.4790467
936.40 0.4789364
936.50 0.4788261
936.60 0.4787159
936.70 0.4786057
936.80 0.4784956
936.90 0.4783854
937.00 0.4782754
937.10 0.4781653
937.20 0.4780553
937.30 0.4779453
937.40 0.4778354
937.50 0.4777255
937.60 0.4776156
937.70 0.4775058
937.80 0.477396
937.90 0.4772863
938.00 0.4771766
938.10 0.4770669
938.20 0.4769572
938.30 0.4768476
938.40 0.476738
938.50 0.4766285
938.60 0.476519
938.70 0.4764095
938.80 0.4763001
938.90 0.4761907
939.00 0.4760813
939.10 0.475972
939.20 0.4758627
939.30 0.4757535
939.40 0.4756443
939.50 0.4755351
939.60 0.4754259
939.70 0.4753168
939.80 0.4752077
939.90 0.4750987
940.00 0.4749897
940.10 0.4748807
940.20 0.4747718
940.30 0.4746629
940.40 0.474554
940.50 0.4744452
940.60 0.4743364
940.70 0.4742277
940.80 0.474119
940.90 0.4740103
941.00 0.4739016
941.10 0.473793
941.20 0.4736844
941.30 0.4735759
941.40 0.4734674
941.50 0.4733589
941.60 0.4732505
941.70 0.4731421
941.80 0.4730337
941.90 0.4729254
942.00 0.4728171
942.10 0.4727088
942.20 0.4726006
942.30 0.4724924
942.40 0.4723843
942.50 0.4722761
942.60 0.4721681
942.70 0.47206
942.80 0.471952
942.90 0.471844
943.00 0.4717356
943.10 0.4716265
943.20 0.4715174
943.30 0.4714084
943.40 0.4712993
943.50 0.4711904
943.60 0.4710814
943.70 0.4709725
943.80 0.4708636
943.90 0.4707548
944.00 0.470646
944.10 0.4705372
944.20 0.4704285
944.30 0.4703198
944.40 0.4702111
944.50 0.4701025
944.60 0.4699939
944.70 0.4698853
944.80 0.4697768
944.90 0.4696683
945.00 0.4695599
945.10 0.4694514
945.20 0.4693431
945.30 0.4692347
945.40 0.4691264
945.50 0.4690181
945.60 0.4689099
945.70 0.4688017
945.80 0.4686935
945.90 0.4685854
946.00 0.4684773
946.10 0.4683692
946.20 0.4682612
946.30 0.4681532
946.40 0.4680452
946.50 0.4679373
946.60 0.4678294
946.70 0.4677216
946.80 0.4676138
946.90 0.467506
947.00 0.4673982
947.10 0.4672905
947.20 0.4671829
947.30 0.4670752
947.40 0.4669676
947.50 0.46686
947.60 0.4667525
947.70 0.466645
947.80 0.4665375
947.90 0.4664301
948.00 0.4663227
948.10 0.4662153
948.20 0.466108
948.30 0.4660007
948.40 0.4658935
948.50 0.4657862
948.60 0.4656791
948.70 0.4655719
948.80 0.4654648
948.90 0.4653577
949.00 0.4652507
949.10 0.4651436
949.20 0.4650367
949.30 0.4649297
949.40 0.4648228
949.50 0.4647159
949.60 0.4646091
949.70 0.4645023
949.80 0.4643955
949.90 0.4642888
950.00 0.4641821
950.10 0.4640754
950.20 0.4639688
950.30 0.4638622
950.40 0.4637556
950.50 0.4636491
950.60 0.4635426
950.70 0.4634362
950.80 0.4633297
950.90 0.4632233
951.00 0.463117
951.10 0.4630107
951.20 0.4629044
951.30 0.4627981
951.40 0.4626919
951.50 0.4625857
951.60 0.4624796
951.70 0.4623735
951.80 0.4622674
951.90 0.4621613
952.00 0.4620553
952.10 0.4619494
952.20 0.4618434
952.30 0.4617375
952.40 0.4616316
952.50 0.4615259
952.60 0.4614202
952.70 0.4613145
952.80 0.4612088
952.90 0.4611032
953.00 0.4609976
953.10 0.4608921
953.20 0.4607866
953.30 0.4606811
953.40 0.4605757
953.50 0.4604703
953.60 0.4603649
953.70 0.4602595
953.80 0.4601542
953.90 0.460049
954.00 0.4599437
954.10 0.4598385
954.20 0.4597333
954.30 0.4596282
954.40 0.4595231
954.50 0.459418
954.60 0.459313
954.70 0.459208
954.80 0.459103
954.90 0.4589981
955.00 0.4588932
955.10 0.4587883
955.20 0.4586835
955.30 0.4585787
955.40 0.4584739
955.50 0.4583692
955.60 0.4582645
955.70 0.4581598
955.80 0.4580552
955.90 0.4579506
956.00 0.4578461
956.10 0.4577415
956.20 0.457637
956.30 0.4575326
956.40 0.4574281
956.50 0.4573237
956.60 0.4572194
956.70 0.4571151
956.80 0.4570108
956.90 0.4569065
957.00 0.4568023
957.10 0.4566981
957.20 0.4565934
957.30 0.456488
957.40 0.4563826
957.50 0.4562773
957.60 0.4561721
957.70 0.4560668
957.80 0.4559616
957.90 0.4558565
958.00 0.4557513
958.10 0.4556462
958.20 0.4555412
958.30 0.4554361
958.40 0.4553311
958.50 0.4552262
958.60 0.4551212
958.70 0.4550163
958.80 0.4549115
958.90 0.4548066
959.00 0.4547018
959.10 0.4545971
959.20 0.4544924
959.30 0.4543877
959.40 0.454283
959.50 0.4541784
959.60 0.4540738
959.70 0.4539692
959.80 0.4538647
959.90 0.4537602
960.00 0.4536558
960.10 0.4535513
960.20 0.4534469
960.30 0.4533426
960.40 0.4532383
960.50 0.453134
960.60 0.4530297
960.70 0.4529255
960.80 0.4528213
960.90 0.4527171
961.00 0.452613
961.10 0.4525089
961.20 0.4524049
961.30 0.4523009
961.40 0.4521969
961.50 0.4520929
961.60 0.451989
961.70 0.4518851
961.80 0.4517812
961.90 0.4516774
962.00 0.4515732
962.10 0.4514689
962.20 0.4513647
962.30 0.4512605
962.40 0.4511563
962.50 0.4510522
962.60 0.4509481
962.70 0.450844
962.80 0.45074
962.90 0.450636
963.00 0.450532
963.10 0.4504281
963.20 0.4503242
963.30 0.4502203
963.40 0.4501165
963.50 0.4500127
963.60 0.4499089
963.70 0.4498052
963.80 0.4497015
963.90 0.4495978
964.00 0.4494942
964.10 0.4493906
964.20 0.449287
964.30 0.4491835
964.40 0.44908
964.50 0.4489765
964.60 0.4488731
964.70 0.4487697
964.80 0.4486664
964.90 0.448563
965.00 0.4484597
965.10 0.4483565
965.20 0.4482532
965.30 0.44815
965.40 0.4480469
965.50 0.4479437
965.60 0.4478406
965.70 0.4477375
965.80 0.4476345
965.90 0.4475315
966.00 0.4474285
966.10 0.4473256
966.20 0.4472227
966.30 0.4471198
966.40 0.447017
966.50 0.4469142
966.60 0.4468114
966.70 0.4467087
966.80 0.446606
966.90 0.4465033
967.00 0.4464007
967.10 0.4462981
967.20 0.4461955
967.30 0.446093
967.40 0.4459904
967.50 0.445888
967.60 0.4457855
967.70 0.4456831
967.80 0.4455807
967.90 0.4454784
968.00 0.4453761
968.10 0.4452738
968.20 0.4451716
968.30 0.4450694
968.40 0.4449672
968.50 0.444865
968.60 0.4447629
968.70 0.4446608
968.80 0.4445588
968.90 0.4444568
969.00 0.4443548
969.10 0.4442528
969.20 0.4441509
969.30 0.444049
969.40 0.4439472
969.50 0.4438454
969.60 0.4437436
969.70 0.4436418
969.80 0.4435401
969.90 0.4434384
970.00 0.4433367
970.10 0.4432351
970.20 0.4431335
970.30 0.443032
970.40 0.4429304
970.50 0.4428289
970.60 0.4427275
970.70 0.4426261
970.80 0.4425247
970.90 0.4424233
971.00 0.442322
971.10 0.4422207
971.20 0.4421194
971.30 0.4420181
971.40 0.4419169
971.50 0.4418158
971.60 0.4417139
971.70 0.4416117
971.80 0.4415096
971.90 0.4414074
972.00 0.4413053
972.10 0.4412033
972.20 0.4411013
972.30 0.4409993
972.40 0.4408973
972.50 0.4407954
972.60 0.4406935
972.70 0.4405916
972.80 0.4404898
972.90 0.440388
973.00 0.4402862
973.10 0.4401844
973.20 0.4400827
973.30 0.4399811
973.40 0.4398794
973.50 0.4397778
973.60 0.4396762
973.70 0.4395747
973.80 0.4394732
973.90 0.4393717
974.00 0.4392703
974.10 0.4391689
974.20 0.4390675
974.30 0.4389661
974.40 0.4388648
974.50 0.4387635
974.60 0.4386623
974.70 0.4385611
974.80 0.4384599
974.90 0.4383587
975.00 0.4382576
975.10 0.4381565
975.20 0.4380554
975.30 0.4379544
975.40 0.4378534
975.50 0.4377525
975.60 0.4376515
975.70 0.4375506
975.80 0.4374498
975.90 0.4373489
976.00 0.4372481
976.10 0.4371474
976.20 0.4370466
976.30 0.4369459
976.40 0.4368453
976.50 0.4367446
976.60 0.436644
976.70 0.4365434
976.80 0.4364429
976.90 0.4363424
977.00 0.4362419
977.10 0.4361415
977.20 0.4360411
977.30 0.4359407
977.40 0.4358403
977.50 0.43574
977.60 0.4356397
977.70 0.4355395
977.80 0.4354392
977.90 0.435339
978.00 0.4352389
978.10 0.4351388
978.20 0.4350387
978.30 0.4349386
978.40 0.4348386
978.50 0.4347386
978.60 0.4346386
978.70 0.4345387
978.80 0.4344387
978.90 0.4343389
979.00 0.434239
979.10 0.4341392
979.20 0.4340394
979.30 0.4339397
979.40 0.43384
979.50 0.4337403
979.60 0.4336406
979.70 0.433541
979.80 0.4334414
979.90 0.4333419
980.00 0.4332424
980.10 0.4331429
980.20 0.4330434
980.30 0.432944
980.40 0.4328446
980.50 0.4327452
980.60 0.4326459
980.70 0.4325466
980.80 0.4324473
980.90 0.432348
981.00 0.4322488
981.10 0.4321497
981.20 0.4320505
981.30 0.4319512
981.40 0.4318516
981.50 0.4317521
981.60 0.4316526
981.70 0.4315532
981.80 0.4314537
981.90 0.4313543
982.00 0.431255
982.10 0.4311556
982.20 0.4310563
982.30 0.4309571
982.40 0.4308578
982.50 0.4307586
982.60 0.4306595
982.70 0.4305603
982.80 0.4304612
982.90 0.4303621
983.00 0.4302631
983.10 0.4301641
983.20 0.4300651
983.30 0.4299662
983.40 0.4298672
983.50 0.4297683
983.60 0.4296695
983.70 0.4295707
983.80 0.4294719
983.90 0.4293731
984.00 0.4292744
984.10 0.4291757
984.20 0.429077
984.30 0.4289784
984.40 0.4288797
984.50 0.4287812
984.60 0.4286826
984.70 0.4285841
984.80 0.4284856
984.90 0.4283872
985.00 0.4282888
985.10 0.4281904
985.20 0.428092
985.30 0.4279937
985.40 0.4278954
985.50 0.4277971
985.60 0.4276989
985.70 0.4276007
985.80 0.4275025
985.90 0.4274044
986.00 0.4273063
986.10 0.4272082
986.20 0.4271101
986.30 0.4270121
986.40 0.4269141
986.50 0.4268162
986.60 0.4267183
986.70 0.4266204
986.80 0.4265225
986.90 0.4264247
987.00 0.4263269
987.10 0.4262291
987.20 0.4261314
987.30 0.4260336
987.40 0.425936
987.50 0.4258383
987.60 0.4257407
987.70 0.4256431
987.80 0.4255456
987.90 0.4254481
988.00 0.4253506
988.10 0.4252531
988.20 0.4251557
988.30 0.4250583
988.40 0.4249609
988.50 0.4248636
988.60 0.4247663
988.70 0.424669
988.80 0.4245717
988.90 0.4244745
989.00 0.4243773
989.10 0.4242802
989.20 0.424183
989.30 0.424086
989.40 0.4239889
989.50 0.4238919
989.60 0.4237949
989.70 0.4236979
989.80 0.4236009
989.90 0.423504
990.00 0.4234072
990.10 0.4233103
990.20 0.4232135
990.30 0.4231167
990.40 0.4230199
990.50 0.4229232
990.60 0.4228265
990.70 0.4227299
990.80 0.4226332
990.90 0.4225366
991.00 0.42244
991.10 0.4223431
991.20 0.4222456
991.30 0.4221481
991.40 0.4220506
991.50 0.4219532
991.60 0.4218558
991.70 0.4217584
991.80 0.4216611
991.90 0.4215638
992.00 0.4214665
992.10 0.4213693
992.20 0.4212721
992.30 0.4211749
992.40 0.4210777
992.50 0.4209806
992.60 0.4208835
992.70 0.4207864
992.80 0.4206894
992.90 0.4205924
993.00 0.4204954
993.10 0.4203985
993.20 0.4203016
993.30 0.4202047
993.40 0.4201079
993.50 0.420011
993.60 0.4199142
993.70 0.4198175
993.80 0.4197208
993.90 0.4196241
994.00 0.4195274
994.10 0.4194308
994.20 0.4193342
994.30 0.4192376
994.40 0.419141
994.50 0.4190445
994.60 0.418948
994.70 0.4188516
994.80 0.4187552
994.90 0.4186588
995.00 0.4185624
995.10 0.4184661
995.20 0.4183698
995.30 0.4182735
995.40 0.4181773
995.50 0.418081
995.60 0.4179849
995.70 0.4178887
995.80 0.4177926
995.90 0.4176965
996.00 0.4176004
996.10 0.4175044
996.20 0.4174084
996.30 0.4173124
996.40 0.4172165
996.50 0.4171206
996.60 0.4170247
996.70 0.4169289
996.80 0.4168331
996.90 0.4167373
997.00 0.4166415
997.10 0.4165458
997.20 0.4164501
997.30 0.4163544
997.40 0.4162588
997.50 0.4161632
997.60 0.4160676
997.70 0.415972
997.80 0.4158765
997.90 0.415781
998.00 0.4156856
998.10 0.4155902
998.20 0.4154948
998.30 0.4153994
998.40 0.4153041
998.50 0.4152087
998.60 0.4151135
998.70 0.4150182
998.80 0.414923
998.90 0.4148278
999.00 0.4147327
999.10 0.4146375
999.20 0.4145424
999.30 0.4144474
999.40 0.4143523
999.50 0.4142573
999.60 0.4141623
999.70 0.4140674
999.80 0.4139725
999.90 0.4138776
1000.00 0.4137827
1000.10 0.4136879
1000.20 0.4135931
1000.30 0.4134983
1000.40 0.4134035
1000.50 0.4133088
1000.60 0.4132142
1000.70 0.4131195
1000.80 0.4130249
1000.90 0.4129303
1001.00 0.4128355
1001.10 0.41274
1001.20 0.4126445
1001.30 0.412549
1001.40 0.4124536
1001.50 0.4123582
1001.60 0.4122629
1001.70 0.4121676
1001.80 0.4120723
1001.90 0.411977
1002.00 0.4118818
1002.10 0.4117866
1002.20 0.4116914
1002.30 0.4115962
1002.40 0.4115011
1002.50 0.411406
1002.60 0.411311
1002.70 0.411216
1002.80 0.411121
1002.90 0.411026
1003.00 0.4109311
1003.10 0.4108361
1003.20 0.4107413
1003.30 0.4106464
1003.40 0.4105516
1003.50 0.4104568
1003.60 0.410362
1003.70 0.4102673
1003.80 0.4101726
1003.90 0.4100779
1004.00 0.4099833
1004.10 0.4098887
1004.20 0.4097941
1004.30 0.4096996
1004.40 0.409605
1004.50 0.4095105
1004.60 0.4094161
1004.70 0.4093216
1004.80 0.4092272
1004.90 0.4091329
1005.00 0.4090385
1005.10 0.4089442
1005.20 0.4088499
1005.30 0.4087557
1005.40 0.4086614
1005.50 0.4085672
1005.60 0.4084731
1005.70 0.4083789
1005.80 0.4082848
1005.90 0.4081907
1006.00 0.4080967
1006.10 0.4080026
1006.20 0.4079087
1006.30 0.4078147
1006.40 0.4077207
1006.50 0.4076268
1006.60 0.407533
1006.70 0.4074391
1006.80 0.4073453
1006.90 0.4072515
1007.00 0.4071577
1007.10 0.407064
1007.20 0.4069703
1007.30 0.4068766
1007.40 0.406783
1007.50 0.4066894
1007.60 0.4065958
1007.70 0.4065022
1007.80 0.4064087
1007.90 0.4063152
1008.00 0.4062217
1008.10 0.4061283
1008.20 0.4060349
1008.30 0.4059415
1008.40 0.4058481
1008.50 0.4057548
1008.60 0.4056615
1008.70 0.4055682
1008.80 0.405475
1008.90 0.4053818
1009.00 0.4052886
1009.10 0.4051955
1009.20 0.4051023
1009.30 0.4050092
1009.40 0.4049162
1009.50 0.4048231
1009.60 0.4047301
1009.70 0.4046372
1009.80 0.4045442
1009.90 0.4044513
1010.00 0.4043584
1010.10 0.4042655
1010.20 0.4041727
1010.30 0.4040799
1010.40 0.4039871
1010.50 0.4038944
1010.60 0.4038017
1010.70 0.403709
1010.80 0.4036163
1010.90 0.4035237
1011.00 0.4034311
1011.10 0.4033387
1011.20 0.4032462
1011.30 0.4031538
1011.40 0.4030615
1011.50 0.4029692
1011.60 0.4028769
1011.70 0.4027846
1011.80 0.4026923
1011.90 0.4026001
1012.00 0.4025079
1012.10 0.4024158
1012.20 0.4023236
1012.30 0.4022315
1012.40 0.4021395
1012.50 0.4020474
1012.60 0.4019554
1012.70 0.4018634
1012.80 0.4017715
1012.90 0.4016795
1013.00 0.4015876
1013.10 0.4014958
1013.20 0.4014039
1013.30 0.4013121
1013.40 0.4012203
1013.50 0.4011285
1013.60 0.4010368
1013.70 0.4009451
1013.80 0.4008534
1013.90 0.4007618
1014.00 0.4006702
1014.10 0.4005786
1014.20 0.400487
1014.30 0.4003955
1014.40 0.400304
1014.50 0.4002125
1014.60 0.4001211
1014.70 0.4000296
1014.80 0.3999382
1014.90 0.3998469
1015.00 0.3997555
1015.10 0.3996642
1015.20 0.399573
1015.30 0.3994817
1015.40 0.3993905
1015.50 0.3992993
1015.60 0.3992081
1015.70 0.399117
1015.80 0.3990259
1015.90 0.3989348
1016.00 0.3988437
1016.10 0.3987521
1016.20 0.39866
1016.30 0.398568
1016.40 0.398476
1016.50 0.3983841
1016.60 0.3982921
1016.70 0.3982002
1016.80 0.3981084
1016.90 0.3980165
1017.00 0.3979247
1017.10 0.3978329
1017.20 0.3977412
1017.30 0.3976495
1017.40 0.3975578
1017.50 0.3974661
1017.60 0.3973744
1017.70 0.3972828
1017.80 0.3971912
1017.90 0.3970997
1018.00 0.3970081
1018.10 0.3969166
1018.20 0.3968252
1018.30 0.3967337
1018.40 0.3966423
1018.50 0.3965509
1018.60 0.3964596
1018.70 0.3963682
1018.80 0.3962769
1018.90 0.3961857
1019.00 0.3960944
1019.10 0.3960032
1019.20 0.395912
1019.30 0.3958208
1019.40 0.3957297
1019.50 0.3956386
1019.60 0.3955475
1019.70 0.3954565
1019.80 0.3953654
1019.90 0.3952745
1020.00 0.3951835
1020.10 0.3950925
1020.20 0.3950016
1020.30 0.3949108
1020.40 0.3948199
1020.50 0.3947291
1020.60 0.3946383
1020.70 0.3945475
1020.80 0.3944568
1020.90 0.3943661
1021.00 0.3942754
1021.10 0.3941847
1021.20 0.3940942
1021.30 0.3940038
1021.40 0.3939133
1021.50 0.3938229
1021.60 0.3937325
1021.70 0.3936422
1021.80 0.3935518
1021.90 0.3934615
1022.00 0.3933713
1022.10 0.393281
1022.20 0.3931908
1022.30 0.3931006
1022.40 0.3930105
1022.50 0.3929203
1022.60 0.3928302
1022.70 0.3927401
1022.80 0.3926501
1022.90 0.3925601
1023.00 0.3924701
1023.10 0.3923801
1023.20 0.3922902
1023.30 0.3922002
1023.40 0.3921104
1023.50 0.3920205
1023.60 0.3919307
1023.70 0.3918409
1023.80 0.3917511
1023.90 0.3916613
1024.00 0.3915716
1024.10 0.3914819
1024.20 0.3913923
1024.30 0.3913026
1024.40 0.391213
1024.50 0.3911234
1024.60 0.3910339
1024.70 0.3909444
1024.80 0.3908549
1024.90 0.3907654
1025.00 0.390676
1025.10 0.3905865
1025.20 0.3904972
1025.30 0.3904078
1025.40 0.3903185
1025.50 0.3902291
1025.60 0.3901399
1025.70 0.3900506
1025.80 0.3899614
1025.90 0.3898722
1026.00 0.389783
1026.10 0.3896939
1026.20 0.3896048
1026.30 0.3895157
1026.40 0.3894266
1026.50 0.3893376
1026.60 0.3892486
1026.70 0.3891596
1026.80 0.3890706
1026.90 0.3889817
1027.00 0.3888928
1027.10 0.3888039
1027.20 0.3887151
1027.30 0.3886263
1027.40 0.3885375
1027.50 0.3884487
1027.60 0.38836
1027.70 0.3882713
1027.80 0.3881826
1027.90 0.3880939
1028.00 0.3880053
1028.10 0.3879167
1028.20 0.3878281
1028.30 0.3877396
1028.40 0.3876511
1028.50 0.3875626
1028.60 0.3874741
1028.70 0.3873857
1028.80 0.3872973
1028.90 0.3872089
1029.00 0.3871205
1029.10 0.3870322
1029.20 0.3869439
1029.30 0.3868556
1029.40 0.3867674
1029.50 0.3866792
1029.60 0.386591
1029.70 0.3865028
1029.80 0.3864147
1029.90 0.3863265
1030.00 0.3862385
1030.10 0.3861504
1030.20 0.3860624
1030.30 0.3859744
1030.40 0.3858864
1030.50 0.3857984
1030.60 0.3857105
1030.70 0.3856226
1030.80 0.3855347
1030.90 0.3854469
1031.00 0.3853591
1031.10 0.3852713
1031.20 0.3851835
1031.30 0.3850958
1031.40 0.3850072
1031.50 0.3849187
1031.60 0.3848302
1031.70 0.3847417
1031.80 0.3846532
1031.90 0.3845648
1032.00 0.3844764
1032.10 0.384388
1032.20 0.3842996
1032.30 0.3842113
1032.40 0.384123
1032.50 0.3840347
1032.60 0.3839465
1032.70 0.3838583
1032.80 0.3837701
1032.90 0.3836819
1033.00 0.3835938
1033.10 0.3835057
1033.20 0.3834176
1033.30 0.3833295
1033.40 0.3832415
1033.50 0.3831535
1033.60 0.3830655
1033.70 0.3829775
1033.80 0.3828896
1033.90 0.3828017
1034.00 0.3827139
1034.10 0.382626
1034.20 0.3825382
1034.30 0.3824504
1034.40 0.3823626
1034.50 0.3822749
1034.60 0.3821872
1034.70 0.3820995
1034.80 0.3820119
1034.90 0.3819242
1035.00 0.3818366
1035.10 0.381749
1035.20 0.3816615
1035.30 0.381574
1035.40 0.3814865
1035.50 0.381399
1035.60 0.3813116
1035.70 0.3812241
1035.80 0.3811368
1035.90 0.3810494
1036.00 0.3809621
1036.10 0.3808747
1036.20 0.3807875
1036.30 0.3807002
1036.40 0.380613
1036.50 0.3805258
1036.60 0.3804386
1036.70 0.3803514
1036.80 0.3802643
1036.90 0.3801772
1037.00 0.3800901
1037.10 0.3800031
1037.20 0.3799161
1037.30 0.3798291
1037.40 0.3797421
1037.50 0.3796552
1037.60 0.3795683
1037.70 0.3794814
1037.80 0.3793945
1037.90 0.3793077
1038.00 0.3792209
1038.10 0.3791341
1038.20 0.3790473
1038.30 0.3789606
1038.40 0.3788739
1038.50 0.3787872
1038.60 0.3787006
1038.70 0.3786139
1038.80 0.3785273
1038.90 0.3784408
1039.00 0.3783542
1039.10 0.3782677
1039.20 0.3781812
1039.30 0.3780948
1039.40 0.3780083
1039.50 0.3779219
1039.60 0.3778355
1039.70 0.3777492
1039.80 0.3776628
1039.90 0.3775765
1040.00 0.3774902
1040.10 0.377404
1040.20 0.3773177
1040.30 0.3772315
1040.40 0.3771454
1040.50 0.3770592
1040.60 0.3769731
1040.70 0.376887
1040.80 0.3768009
1040.90 0.3767149
1041.00 0.3766288
1041.10 0.3765428
1041.20 0.3764569
1041.30 0.3763709
1041.40 0.376285
1041.50 0.3761991
1041.60 0.3761133
1041.70 0.3760275
1041.80 0.3759419
1041.90 0.3758562
1042.00 0.3757706
1042.10 0.375685
1042.20 0.3755994
1042.30 0.3755139
1042.40 0.3754284
1042.50 0.3753429
1042.60 0.3752574
1042.70 0.3751719
1042.80 0.3750865
1042.90 0.3750011
1043.00 0.3749158
1043.10 0.3748304
1043.20 0.3747451
1043.30 0.3746598
1043.40 0.3745746
1043.50 0.3744893
1043.60 0.3744041
1043.70 0.3743189
1043.80 0.3742338
1043.90 0.3741486
1044.00 0.3740635
1044.10 0.3739785
1044.20 0.3738934
1044.30 0.3738084
1044.40 0.3737234
1044.50 0.3736384
1044.60 0.3735534
1044.70 0.3734685
1044.80 0.3733836
1044.90 0.3732987
1045.00 0.3732139
1045.10 0.3731291
1045.20 0.3730443
1045.30 0.3729595
1045.40 0.3728747
1045.50 0.37279
1045.60 0.3727053
1045.70 0.3726206
1045.80 0.372536
1045.90 0.3724514
1046.00 0.3723668
1046.10 0.3722822
1046.20 0.3721977
1046.30 0.3721131
1046.40 0.3720287
1046.50 0.3719442
1046.60 0.3718597
1046.70 0.3717753
1046.80 0.3716909
1046.90 0.3716059
1047.00 0.3715206
1047.10 0.3714353
1047.20 0.3713501
1047.30 0.3712648
1047.40 0.3711797
1047.50 0.3710945
1047.60 0.3710093
1047.70 0.3709242
1047.80 0.3708391
1047.90 0.3707541
1048.00 0.370669
1048.10 0.370584
1048.20 0.3704991
1048.30 0.3704141
1048.40 0.3703292
1048.50 0.3702443
1048.60 0.3701594
1048.70 0.3700745
1048.80 0.3699897
1048.90 0.3699049
1049.00 0.3698201
1049.10 0.3697353
1049.20 0.3696506
1049.30 0.3695659
1049.40 0.3694812
1049.50 0.3693966
1049.60 0.369312
1049.70 0.3692274
1049.80 0.3691428
1049.90 0.3690582
1050.00 0.3689737
1050.10 0.3688892
1050.20 0.3688047
1050.30 0.3687203
1050.40 0.3686359
1050.50 0.3685515
1050.60 0.3684671
1050.70 0.3683828
1050.80 0.3682984
1050.90 0.3682141
1051.00 0.3681299
1051.10 0.3680456
1051.20 0.3679614
1051.30 0.3678772
1051.40 0.367793
1051.50 0.3677089
1051.60 0.3676248
1051.70 0.3675407
1051.80 0.3674566
1051.90 0.3673726
1052.00 0.3672886
1052.10 0.3672047
1052.20 0.3671209
1052.30 0.3670371
1052.40 0.3669533
1052.50 0.3668695
1052.60 0.3667858
1052.70 0.3667021
1052.80 0.3666184
1052.90 0.3665348
1053.00 0.3664512
1053.10 0.3663676
1053.20 0.366284
1053.30 0.3662005
1053.40 0.3661169
1053.50 0.3660334
1053.60 0.36595
1053.70 0.3658665
1053.80 0.3657831
1053.90 0.3656997
1054.00 0.3656163
1054.10 0.365533
1054.20 0.3654497
1054.30 0.3653664
1054.40 0.3652831
1054.50 0.3651998
1054.60 0.3651166
1054.70 0.3650334
1054.80 0.3649503
1054.90 0.3648671
1055.00 0.364784
1055.10 0.3647009
1055.20 0.3646178
1055.30 0.3645348
1055.40 0.3644518
1055.50 0.3643688
1055.60 0.3642858
1055.70 0.3642028
1055.80 0.3641199
1055.90 0.364037
1056.00 0.3639542
1056.10 0.3638713
1056.20 0.3637885
1056.30 0.3637057
1056.40 0.3636229
1056.50 0.3635402
1056.60 0.3634574
1056.70 0.3633747
1056.80 0.3632921
1056.90 0.3632094
1057.00 0.3631268
1057.10 0.3630442
1057.20 0.3629616
1057.30 0.3628791
1057.40 0.3627966
1057.50 0.3627141
1057.60 0.3626316
1057.70 0.3625491
1057.80 0.3624667
1057.90 0.3623843
1058.00 0.3623019
1058.10 0.3622196
1058.20 0.3621372
1058.30 0.3620549
1058.40 0.3619727
1058.50 0.3618904
1058.60 0.3618082
1058.70 0.361726
1058.80 0.3616438
1058.90 0.3615616
1059.00 0.3614795
1059.10 0.3613974
1059.20 0.3613153
1059.30 0.3612333
1059.40 0.3611512
1059.50 0.3610692
1059.60 0.3609872
1059.70 0.3609053
1059.80 0.3608234
1059.90 0.3607414
1060.00 0.3606596
1060.10 0.3605777
1060.20 0.3604959
1060.30 0.360414
1060.40 0.3603323
1060.50 0.3602505
1060.60 0.3601688
1060.70 0.360087
1060.80 0.3600054
1060.90 0.3599237
1061.00 0.3598421
1061.10 0.3597604
1061.20 0.3596788
1061.30 0.3595973
1061.40 0.3595157
1061.50 0.3594342
1061.60 0.3593527
1061.70 0.3592712
1061.80 0.3591898
1061.90 0.3591084
1062.00 0.359027
1062.10 0.3589456
1062.20 0.3588643
1062.30 0.3587829
1062.40 0.3587016
1062.50 0.3586204
1062.60 0.3585388
1062.70 0.3584568
1062.80 0.3583748
1062.90 0.3582928
1063.00 0.3582109
1063.10 0.358129
1063.20 0.3580471
1063.30 0.3579653
1063.40 0.3578834
1063.50 0.3578016
1063.60 0.3577199
1063.70 0.3576381
1063.80 0.3575564
1063.90 0.3574747
1064.00 0.357393
1064.10 0.3573113
1064.20 0.3572297
1064.30 0.3571481
1064.40 0.3570665
1064.50 0.3569849
1064.60 0.3569034
1064.70 0.3568219
1064.80 0.3567404
1064.90 0.3566589
1065.00 0.3565775
1065.10 0.3564961
1065.20 0.3564147
1065.30 0.3563333
1065.40 0.356252
1065.50 0.3561707
1065.60 0.3560894
1065.70 0.3560081
1065.80 0.3559269
1065.90 0.3558457
1066.00 0.3557645
1066.10 0.3556833
1066.20 0.3556021
1066.30 0.355521
1066.40 0.3554399
1066.50 0.3553589
1066.60 0.3552778
1066.70 0.3551968
1066.80 0.3551158
1066.90 0.3550348
1067.00 0.3549538
1067.10 0.3548729
1067.20 0.354792
1067.30 0.3547111
1067.40 0.3546303
1067.50 0.3545494
1067.60 0.3544686
1067.70 0.3543878
1067.80 0.3543071
1067.90 0.3542263
1068.00 0.3541456
1068.10 0.3540649
1068.20 0.3539843
1068.30 0.3539036
1068.40 0.353823
1068.50 0.3537424
1068.60 0.3536618
1068.70 0.3535813
1068.80 0.3535008
1068.90 0.3534203
1069.00 0.3533398
1069.10 0.3532593
1069.20 0.3531789
1069.30 0.3530985
1069.40 0.3530181
1069.50 0.3529378
1069.60 0.3528574
1069.70 0.3527771
1069.80 0.3526968
1069.90 0.3526166
1070.00 0.3525363
1070.10 0.3524561
1070.20 0.3523759
1070.30 0.3522958
1070.40 0.3522156
1070.50 0.3521355
1070.60 0.3520554
1070.70 0.3519753
1070.80 0.3518953
1070.90 0.3518153
1071.00 0.3517353
1071.10 0.3516553
1071.20 0.3515753
1071.30 0.3514954
1071.40 0.3514155
1071.50 0.3513356
1071.60 0.3512558
1071.70 0.3511759
1071.80 0.3510961
1071.90 0.3510163
1072.00 0.3509366
1072.10 0.3508568
1072.20 0.3507771
1072.30 0.3506974
1072.40 0.3506178
1072.50 0.3505381
1072.60 0.3504585
1072.70 0.3503789
1072.80 0.3502993
1072.90 0.3502198
1073.00 0.3501403
1073.10 0.3500607
1073.20 0.3499811
1073.30 0.3499009
1073.40 0.3498207
1073.50 0.3497406
1073.60 0.3496605
1073.70 0.3495804
1073.80 0.3495003
1073.90 0.3494203
1074.00 0.3493402
1074.10 0.3492602
1074.20 0.3491802
1074.30 0.3491003
1074.40 0.3490204
1074.50 0.3489405
1074.60 0.3488606
1074.70 0.3487807
1074.80 0.3487009
1074.90 0.3486211
1075.00 0.3485413
1075.10 0.3484615
1075.20 0.3483818
1075.30 0.348302
1075.40 0.3482223
1075.50 0.3481427
1075.60 0.348063
1075.70 0.3479834
1075.80 0.3479038
1075.90 0.3478242
1076.00 0.3477447
1076.10 0.3476651
1076.20 0.3475856
1076.30 0.3475061
1076.40 0.3474267
1076.50 0.3473472
1076.60 0.3472678
1076.70 0.3471884
1076.80 0.3471091
1076.90 0.3470297
1077.00 0.3469504
1077.10 0.3468711
1077.20 0.3467918
1077.30 0.3467126
1077.40 0.3466334
1077.50 0.3465542
1077.60 0.346475
1077.70 0.3463958
1077.80 0.3463167
1077.90 0.3462376
1078.00 0.3461585
1078.10 0.3460795
1078.20 0.3460004
1078.30 0.3459214
1078.40 0.3458424
1078.50 0.3457634
1078.60 0.345685
1078.70 0.3456069
1078.80 0.3455289
1078.90 0.3454509
1079.00 0.3453729
1079.10 0.345295
1079.20 0.345217
1079.30 0.3451391
1079.40 0.3450612
1079.50 0.3449834
1079.60 0.3449055
1079.70 0.3448277
1079.80 0.3447499
1079.90 0.3446721
1080.00 0.3445944
1080.10 0.3445167
1080.20 0.344439
1080.30 0.3443613
1080.40 0.3442836
1080.50 0.344206
1080.60 0.3441284
1080.70 0.3440508
1080.80 0.3439732
1080.90 0.3438957
1081.00 0.3438181
1081.10 0.3437406
1081.20 0.3436632
1081.30 0.3435857
1081.40 0.3435083
1081.50 0.3434309
1081.60 0.3433535
1081.70 0.3432761
1081.80 0.3431988
1081.90 0.3431215
1082.00 0.3430442
1082.10 0.3429669
1082.20 0.3428897
1082.30 0.3428124
1082.40 0.3427352
1082.50 0.342658
1082.60 0.3425809
1082.70 0.3425038
1082.80 0.3424266
1082.90 0.3423495
1083.00 0.3422725
1083.10 0.3421954
1083.20 0.3421184
1083.30 0.3420414
1083.40 0.3419644
1083.50 0.3418875
1083.60 0.3418105
1083.70 0.3417336
1083.80 0.3416568
1083.90 0.3415799
1084.00 0.3415024
1084.10 0.3414249
1084.20 0.3413474
1084.30 0.3412699
1084.40 0.3411924
1084.50 0.341115
1084.60 0.3410375
1084.70 0.3409601
1084.80 0.3408828
1084.90 0.3408054
1085.00 0.3407281
1085.10 0.3406508
1085.20 0.3405735
1085.30 0.3404962
1085.40 0.340419
1085.50 0.3403417
1085.60 0.3402646
1085.70 0.3401874
1085.80 0.3401102
1085.90 0.3400331
1086.00 0.339956
1086.10 0.3398789
1086.20 0.3398019
1086.30 0.3397248
1086.40 0.3396478
1086.50 0.3395708
1086.60 0.3394938
1086.70 0.3394169
1086.80 0.33934
1086.90 0.3392631
1087.00 0.3391862
1087.10 0.3391093
1087.20 0.3390325
1087.30 0.3389557
1087.40 0.3388789
1087.50 0.3388021
1087.60 0.3387254
1087.70 0.3386487
1087.80 0.338572
1087.90 0.3384953
1088.00 0.3384186
1088.10 0.338342
1088.20 0.3382654
1088.30 0.3381888
1088.40 0.3381122
1088.50 0.3380357
1088.60 0.3379592
1088.70 0.3378827
1088.80 0.3378062
1088.90 0.3377298
1089.00 0.3376533
1089.10 0.3375769
1089.20 0.3375005
1089.30 0.3374242
1089.40 0.3373478
1089.50 0.3372715
1089.60 0.3371952
1089.70 0.3371189
1089.80 0.3370427
1089.90 0.3369665
1090.00 0.3368902
1090.10 0.3368141
1090.20 0.3367379
1090.30 0.3366618
1090.40 0.3365856
1090.50 0.3365095
1090.60 0.3364335
1090.70 0.3363574
1090.80 0.3362814
1090.90 0.3362054
1091.00 0.3361294
1091.10 0.3360534
1091.20 0.3359775
1091.30 0.3359016
1091.40 0.3358257
1091.50 0.3357498
1091.60 0.3356739
1091.70 0.3355981
1091.80 0.3355223
1091.90 0.3354465
1092.00 0.3353707
1092.10 0.335295
1092.20 0.3352193
1092.30 0.3351436
1092.40 0.3350679
1092.50 0.3349922
1092.60 0.3349166
1092.70 0.334841
1092.80 0.3347654
1092.90 0.3346898
1093.00 0.3346143
1093.10 0.3345388
1093.20 0.3344633
1093.30 0.3343878
1093.40 0.3343123
1093.50 0.3342369
1093.60 0.3341615
1093.70 0.3340861
1093.80 0.3340107
1093.90 0.3339354
1094.00 0.3338601
1094.10 0.3337848
1094.20 0.3337095
1094.30 0.3336342
1094.40 0.333559
1094.50 0.3334838
1094.60 0.3334086
1094.70 0.3333334
1094.80 0.3332579
1094.90 0.3331821
1095.00 0.3331063
1095.10 0.3330306
1095.20 0.3329548
1095.30 0.3328791
1095.40 0.3328034
1095.50 0.3327277
1095.60 0.332652
1095.70 0.3325764
1095.80 0.3325008
1095.90 0.3324252
1096.00 0.3323496
1096.10 0.3322741
1096.20 0.3321986
1096.30 0.332123
1096.40 0.3320476
1096.50 0.3319721
1096.60 0.3318967
1096.70 0.3318213
1096.80 0.3317459
1096.90 0.3316705
1097.00 0.3315951
1097.10 0.3315198
1097.20 0.3314445
1097.30 0.3313692
1097.40 0.331294
1097.50 0.3312187
1097.60 0.3311435
1097.70 0.3310683
1097.80 0.3309931
1097.90 0.330918
1098.00 0.3308428
1098.10 0.3307677
1098.20 0.3306926
1098.30 0.3306176
1098.40 0.3305425
1098.50 0.3304675
1098.60 0.3303925
1098.70 0.3303175
1098.80 0.3302426
1098.90 0.3301676
1099.00 0.3300927
1099.10 0.3300178
1099.20 0.329943
1099.30 0.3298681
1099.40 0.3297933
1099.50 0.3297185
1099.60 0.3296437
1099.70 0.3295689
1099.80 0.3294942
1099.90 0.3294195
1100.00 0.3293448
1100.10 0.3292701
1100.20 0.3291955
1100.30 0.3291208
1100.40 0.3290462
1100.50 0.3289716
1100.60 0.3288971
1100.70 0.3288225
1100.80 0.328748
1100.90 0.3286735
1101.00 0.328599
1101.10 0.3285246
1101.20 0.3284501
1101.30 0.3283757
1101.40 0.3283013
1101.50 0.328227
1101.60 0.3281526
1101.70 0.3280783
1101.80 0.328004
1101.90 0.3279297
1102.00 0.3278554
1102.10 0.3277812
1102.20 0.327707
1102.30 0.3276328
1102.40 0.3275586
1102.50 0.3274845
1102.60 0.3274103
1102.70 0.3273362
1102.80 0.3272621
1102.90 0.3271881
1103.00 0.327114
1103.10 0.32704
1103.20 0.326966
1103.30 0.326892
1103.40 0.326818
1103.50 0.3267441
1103.60 0.3266702
1103.70 0.3265963
1103.80 0.3265224
1103.90 0.3264485
1104.00 0.3263747
1104.10 0.3263009
1104.20 0.3262271
1104.30 0.3261533
1104.40 0.3260796
1104.50 0.3260059
1104.60 0.3259322
1104.70 0.3258585
1104.80 0.3257848
1104.90 0.3257112
1105.00 0.3256376
1105.10 0.325564
1105.20 0.3254904
1105.30 0.3254168
1105.40 0.3253433
1105.50 0.3252698
1105.60 0.3251963
1105.70 0.3251228
1105.80 0.3250495
1105.90 0.3249762
1106.00 0.324903
1106.10 0.3248297
1106.20 0.3247565
1106.30 0.3246833
1106.40 0.3246101
1106.50 0.324537
1106.60 0.3244638
1106.70 0.3243907
1106.80 0.3243176
1106.90 0.3242446
1107.00 0.3241715
1107.10 0.3240985
1107.20 0.3240255
1107.30 0.3239525
1107.40 0.3238795
1107.50 0.3238066
1107.60 0.3237337
1107.70 0.3236608
1107.80 0.3235879
1107.90 0.323515
1108.00 0.3234422
1108.10 0.3233693
1108.20 0.3232966
1108.30 0.3232238
1108.40 0.323151
1108.50 0.3230783
1108.60 0.3230056
1108.70 0.3229329
1108.80 0.3228602
1108.90 0.3227876
1109.00 0.3227149
1109.10 0.3226423
1109.20 0.3225697
1109.30 0.3224972
1109.40 0.3224246
1109.50 0.3223521
1109.60 0.3222796
1109.70 0.3222071
1109.80 0.3221346
1109.90 0.3220622
1110.00 0.3219898
1110.10 0.3219174
1110.20 0.321845
1110.30 0.3217726
1110.40 0.3217003
1110.50 0.321628
1110.60 0.3215557
1110.70 0.3214834
1110.80 0.3214112
1110.90 0.3213389
1111.00 0.3212667
1111.10 0.3211945
1111.20 0.3211223
1111.30 0.3210502
1111.40 0.3209781
1111.50 0.320906
1111.60 0.3208339
1111.70 0.3207618
1111.80 0.3206898
1111.90 0.3206177
1112.00 0.3205457
1112.10 0.3204737
1112.20 0.3204018
1112.30 0.3203298
1112.40 0.3202579
1112.50 0.320186
1112.60 0.3201141
1112.70 0.3200423
1112.80 0.3199704
1112.90 0.3198986
1113.00 0.3198268
1113.10 0.319755
1113.20 0.3196833
1113.30 0.3196115
1113.40 0.3195398
1113.50 0.3194681
1113.60 0.3193964
1113.70 0.3193248
1113.80 0.3192532
1113.90 0.3191815
1114.00 0.31911
1114.10 0.3190384
1114.20 0.3189668
1114.30 0.3188953
1114.40 0.3188238
1114.50 0.3187523
1114.60 0.3186808
1114.70 0.3186094
1114.80 0.318538
1114.90 0.3184665
1115.00 0.3183952
1115.10 0.3183238
1115.20 0.3182524
1115.30 0.3181811
1115.40 0.3181098
1115.50 0.3180385
1115.60 0.3179673
1115.70 0.317896
1115.80 0.3178248
1115.90 0.3177536
1116.00 0.3176824
1116.10 0.3176112
1116.20 0.3175401
1116.30 0.317469
1116.40 0.3173979
1116.50 0.3173268
1116.60 0.3172557
1116.70 0.3171847
1116.80 0.3171134
1116.90 0.3170418
1117.00 0.3169701
1117.10 0.3168985
1117.20 0.316827
1117.30 0.3167554
1117.40 0.3166839
1117.50 0.3166123
1117.60 0.3165409
1117.70 0.3164694
1117.80 0.3163979
1117.90 0.3163265
1118.00 0.3162551
1118.10 0.3161837
1118.20 0.3161123
1118.30 0.316041
1118.40 0.3159696
1118.50 0.3158983
1118.60 0.315827
1118.70 0.3157557
1118.80 0.3156845
1118.90 0.3156133
1119.00 0.3155421
1119.10 0.3154709
1119.20 0.3153997
1119.30 0.3153286
1119.40 0.3152574
1119.50 0.3151863
1119.60 0.3151152
1119.70 0.3150442
1119.80 0.3149731
1119.90 0.3149021
1120.00 0.3148311
1120.10 0.3147601
1120.20 0.3146891
1120.30 0.3146182
1120.40 0.3145473
1120.50 0.3144764
1120.60 0.3144055
1120.70 0.3143346
1120.80 0.3142638
1120.90 0.3141929
1121.00 0.3141221
1121.10 0.3140514
1121.20 0.3139806
1121.30 0.3139099
1121.40 0.3138391
1121.50 0.3137684
1121.60 0.3136978
1121.70 0.3136271
1121.80 0.3135564
1121.90 0.3134858
1122.00 0.3134152
1122.10 0.3133446
1122.20 0.3132741
1122.30 0.3132035
1122.40 0.313133
1122.50 0.3130625
1122.60 0.312992
1122.70 0.3129216
1122.80 0.3128511
1122.90 0.3127807
1123.00 0.3127103
1123.10 0.3126399
1123.20 0.3125696
1123.30 0.3124992
1123.40 0.3124289
1123.50 0.3123586
1123.60 0.3122883
1123.70 0.3122181
1123.80 0.3121478
1123.90 0.3120776
1124.00 0.3120074
1124.10 0.3119372
1124.20 0.3118671
1124.30 0.3117969
1124.40 0.3117268
1124.50 0.3116567
1124.60 0.3115866
1124.70 0.3115166
1124.80 0.3114465
1124.90 0.3113765
1125.00 0.3113065
1125.10 0.3112365
1125.20 0.3111666
1125.30 0.3110966
1125.40 0.3110267
1125.50 0.3109568
1125.60 0.3108869
1125.70 0.3108171
1125.80 0.3107472
1125.90 0.3106774
1126.00 0.3106076
1126.10 0.3105378
1126.20 0.310468
1126.30 0.3103983
1126.40 0.3103286
1126.50 0.3102589
1126.60 0.3101892
1126.70 0.3101195
1126.80 0.3100499
1126.90 0.3099803
1127.00 0.3099107
1127.10 0.3098411
1127.20 0.3097715
1127.30 0.309702
1127.40 0.3096325
1127.50 0.3095629
1127.60 0.3094935
1127.70 0.309424
1127.80 0.3093546
1127.90 0.3092851
1128.00 0.3092155
1128.10 0.3091459
1128.20 0.3090763
1128.30 0.3090068
1128.40 0.3089372
1128.50 0.3088677
1128.60 0.3087981
1128.70 0.3087286
1128.80 0.3086592
1128.90 0.3085897
1129.00 0.3085203
1129.10 0.3084508
1129.20 0.3083814
1129.30 0.3083121
1129.40 0.3082427
1129.50 0.3081734
1129.60 0.308104
1129.70 0.3080347
1129.80 0.3079655
1129.90 0.3078962
1130.00 0.307827
1130.10 0.3077577
1130.20 0.3076885
1130.30 0.3076193
1130.40 0.3075502
1130.50 0.307481
1130.60 0.3074119
1130.70 0.3073428
1130.80 0.3072737
1130.90 0.3072047
1131.00 0.3071356
1131.10 0.3070666
1131.20 0.3069976
1131.30 0.3069286
1131.40 0.3068596
1131.50 0.3067907
1131.60 0.3067218
1131.70 0.3066528
1131.80 0.306584
1131.90 0.3065151
1132.00 0.3064462
1132.10 0.3063774
1132.20 0.3063086
1132.30 0.3062398
1132.40 0.306171
1132.50 0.3061023
1132.60 0.3060336
1132.70 0.3059648
1132.80 0.3058961
1132.90 0.3058275
1133.00 0.3057588
1133.10 0.3056902
1133.20 0.3056216
1133.30 0.305553
1133.40 0.3054844
1133.50 0.3054158
1133.60 0.3053473
1133.70 0.3052788
1133.80 0.3052103
1133.90 0.3051418
1134.00 0.3050733
1134.10 0.3050049
1134.20 0.3049365
1134.30 0.3048681
1134.40 0.3047997
1134.50 0.3047313
1134.60 0.304663
1134.70 0.3045947
1134.80 0.3045264
1134.90 0.3044581
1135.00 0.3043898
1135.10 0.3043216
1135.20 0.3042533
1135.30 0.3041851
1135.40 0.3041169
1135.50 0.3040488
1135.60 0.3039806
1135.70 0.3039125
1135.80 0.3038444
1135.90 0.3037763
1136.00 0.3037082
1136.10 0.3036402
1136.20 0.3035721
1136.30 0.3035041
1136.40 0.3034361
1136.50 0.3033681
1136.60 0.3033002
1136.70 0.3032322
1136.80 0.3031643
1136.90 0.3030964
1137.00 0.3030285
1137.10 0.3029607
1137.20 0.3028928
1137.30 0.302825
1137.40 0.3027572
1137.50 0.3026894
1137.60 0.3026216
1137.70 0.3025539
1137.80 0.3024862
1137.90 0.3024185
1138.00 0.3023508
1138.10 0.3022831
1138.20 0.3022154
1138.30 0.3021478
1138.40 0.3020802
1138.50 0.3020126
1138.60 0.301945
1138.70 0.3018775
1138.80 0.3018099
1138.90 0.3017424
1139.00 0.3016749
1139.10 0.3016074
1139.20 0.30154
1139.30 0.3014723
1139.40 0.3014047
1139.50 0.301337
1139.60 0.3012694
1139.70 0.3012018
1139.80 0.3011343
1139.90 0.3010667
1140.00 0.3009992
1140.10 0.3009317
1140.20 0.3008642
1140.30 0.3007967
1140.40 0.3007292
1140.50 0.3006618
1140.60 0.3005944
1140.70 0.300527
1140.80 0.3004596
1140.90 0.3003922
1141.00 0.3003249
1141.10 0.3002576
1141.20 0.3001903
1141.30 0.300123
1141.40 0.3000557
1141.50 0.2999885
1141.60 0.2999212
1141.70 0.299854
1141.80 0.2997868
1141.90 0.2997197
1142.00 0.2996525
1142.10 0.2995854
1142.20 0.2995183
1142.30 0.2994512
1142.40 0.2993841
1142.50 0.299317
1142.60 0.29925
1142.70 0.299183
1142.80 0.299116
1142.90 0.299049
1143.00 0.298982
1143.10 0.2989151
1143.20 0.2988481
1143.30 0.2987812
1143.40 0.2987143
1143.50 0.2986475
1143.60 0.2985806
1143.70 0.2985138
1143.80 0.298447
1143.90 0.2983802
1144.00 0.2983134
1144.10 0.2982466
1144.20 0.2981799
1144.30 0.2981132
1144.40 0.2980465
1144.50 0.2979798
1144.60 0.2979131
1144.70 0.2978465
1144.80 0.2977799
1144.90 0.2977132
1145.00 0.2976467
1145.10 0.2975801
1145.20 0.2975135
1145.30 0.297447
1145.40 0.2973805
1145.50 0.297314
1145.60 0.2972475
1145.70 0.2971811
1145.80 0.2971146
1145.90 0.2970482
1146.00 0.2969818
1146.10 0.2969154
1146.20 0.296849
1146.30 0.2967827
1146.40 0.2967164
1146.50 0.2966501
1146.60 0.2965838
1146.70 0.2965175
1146.80 0.2964512
1146.90 0.296385
1147.00 0.2963188
1147.10 0.2962526
1147.20 0.2961864
1147.30 0.2961203
1147.40 0.2960541
1147.50 0.295988
1147.60 0.2959219
1147.70 0.2958558
1147.80 0.2957897
1147.90 0.2957237
1148.00 0.2956577
1148.10 0.2955916
1148.20 0.2955257
1148.30 0.2954597
1148.40 0.2953937
1148.50 0.2953278
1148.60 0.2952619
1148.70 0.295196
1148.80 0.2951301
1148.90 0.2950642
1149.00 0.2949984
1149.10 0.2949325
1149.20 0.2948667
1149.30 0.2948009
1149.40 0.2947352
1149.50 0.2946694
1149.60 0.2946037
1149.70 0.294538
1149.80 0.2944723
1149.90 0.2944066
1150.00 0.2943409
1150.10 0.2942753
1150.20 0.2942097
1150.30 0.2941441
1150.40 0.2940785
1150.50 0.2940129
1150.60 0.2939474
1150.70 0.293882
1150.80 0.2938166
1150.90 0.2937512
1151.00 0.2936859
1151.10 0.2936206
1151.20 0.2935553
1151.30 0.29349
1151.40 0.2934247
1151.50 0.2933595
1151.60 0.2932943
1151.70 0.293229
1151.80 0.2931639
1151.90 0.2930987
1152.00 0.2930335
1152.10 0.2929684
1152.20 0.2929033
1152.30 0.2928382
1152.40 0.2927731
1152.50 0.292708
1152.60 0.292643
1152.70 0.292578
1152.80 0.2925129
1152.90 0.292448
1153.00 0.292383
1153.10 0.292318
1153.20 0.2922531
1153.30 0.2921882
1153.40 0.2921233
1153.50 0.2920584
1153.60 0.2919935
1153.70 0.2919287
1153.80 0.2918638
1153.90 0.291799
1154.00 0.2917342
1154.10 0.2916695
1154.20 0.2916047
1154.30 0.29154
1154.40 0.2914753
1154.50 0.2914106
1154.60 0.2913459
1154.70 0.2912812
1154.80 0.2912166
1154.90 0.2911519
1155.00 0.2910873
1155.10 0.2910227
1155.20 0.2909581
1155.30 0.2908936
1155.40 0.290829
1155.50 0.2907645
1155.60 0.2907
1155.70 0.2906355
1155.80 0.2905711
1155.90 0.2905066
1156.00 0.2904422
1156.10 0.2903778
1156.20 0.2903134
1156.30 0.290249
1156.40 0.2901843
1156.50 0.2901192
1156.60 0.2900542
1156.70 0.2899892
1156.80 0.2899242
1156.90 0.2898592
1157.00 0.2897943
1157.10 0.2897293
1157.20 0.2896644
1157.30 0.2895995
1157.40 0.2895346
1157.50 0.2894698
1157.60 0.2894049
1157.70 0.2893401
1157.80 0.2892753
1157.90 0.2892105
1158.00 0.2891457
1158.10 0.289081
1158.20 0.2890162
1158.30 0.2889515
1158.40 0.2888868
1158.50 0.2888221
1158.60 0.2887575
1158.70 0.2886928
1158.80 0.2886282
1158.90 0.2885636
1159.00 0.288499
1159.10 0.2884344
1159.20 0.2883698
1159.30 0.2883053
1159.40 0.2882408
1159.50 0.2881763
1159.60 0.2881118
1159.70 0.2880473
1159.80 0.2879829
1159.90 0.2879184
1160.00 0.287854
1160.10 0.2877896
1160.20 0.2877253
1160.30 0.2876609
1160.40 0.2875966
1160.50 0.2875322
1160.60 0.2874679
1160.70 0.2874036
1160.80 0.2873394
1160.90 0.2872751
1161.00 0.2872109
1161.10 0.2871467
1161.20 0.2870825
1161.30 0.2870183
1161.40 0.2869541
1161.50 0.28689
1161.60 0.2868258
1161.70 0.2867617
1161.80 0.2866976
1161.90 0.2866336
1162.00 0.2865695
1162.10 0.2865055
1162.20 0.2864416
1162.30 0.2863777
1162.40 0.2863139
1162.50 0.2862501
1162.60 0.2861863
1162.70 0.2861225
1162.80 0.2860587
1162.90 0.2859949
1163.00 0.2859312
1163.10 0.2858675
1163.20 0.2858038
1163.30 0.2857401
1163.40 0.2856764
1163.50 0.2856128
1163.60 0.2855492
1163.70 0.2854855
1163.80 0.285422
1163.90 0.2853584
1164.00 0.2852948
1164.10 0.2852313
1164.20 0.2851677
1164.30 0.2851042
1164.40 0.2850407
1164.50 0.2849773
1164.60 0.2849138
1164.70 0.2848504
1164.80 0.284787
1164.90 0.2847236
1165.00 0.2846602
1165.10 0.2845968
1165.20 0.2845335
1165.30 0.2844701
1165.40 0.2844068
1165.50 0.2843435
1165.60 0.2842802
1165.70 0.284217
1165.80 0.2841537
1165.90 0.2840905
1166.00 0.2840273
1166.10 0.2839641
1166.20 0.2839009
1166.30 0.2838378
1166.40 0.2837746
1166.50 0.2837115
1166.60 0.2836484
1166.70 0.2835853
1166.80 0.2835223
1166.90 0.2834592
1167.00 0.2833962
1167.10 0.2833332
1167.20 0.2832702
1167.30 0.2832072
1167.40 0.2831442
1167.50 0.2830813
1167.60 0.2830183
1167.70 0.2829554
1167.80 0.2828925
1167.90 0.2828297
1168.00 0.2827668
1168.10 0.282704
1168.20 0.2826411
1168.30 0.2825783
1168.40 0.2825155
1168.50 0.2824528
1168.60 0.28239
1168.70 0.2823273
1168.80 0.2822646
1168.90 0.2822019
1169.00 0.2821392
1169.10 0.2820765
1169.20 0.2820139
1169.30 0.2819512
1169.40 0.2818886
1169.50 0.281826
1169.60 0.2817634
1169.70 0.2817009
1169.80 0.2816383
1169.90 0.2815758
1170.00 0.2815133
1170.10 0.2814508
1170.20 0.2813883
1170.30 0.2813259
1170.40 0.2812634
1170.50 0.281201
1170.60 0.2811386
1170.70 0.2810762
1170.80 0.2810138
1170.90 0.2809515
1171.00 0.2808891
1171.10 0.2808268
1171.20 0.2807645
1171.30 0.2807022
1171.40 0.2806399
1171.50 0.2805777
1171.60 0.2805155
1171.70 0.2804532
1171.80 0.280391
1171.90 0.2803288
1172.00 0.2802667
1172.10 0.2802045
1172.20 0.2801424
1172.30 0.2800803
1172.40 0.2800182
1172.50 0.2799561
1172.60 0.279894
1172.70 0.279832
1172.80 0.27977
1172.90 0.2797079
1173.00 0.279646
1173.10 0.279584
1173.20 0.279522
1173.30 0.2794601
1173.40 0.2793981
1173.50 0.2793362
1173.60 0.2792743
1173.70 0.2792125
1173.80 0.2791507
1173.90 0.279089
1174.00 0.2790273
1174.10 0.2789656
1174.20 0.278904
1174.30 0.2788424
1174.40 0.2787807
1174.50 0.2787191
1174.60 0.2786576
1174.70 0.278596
1174.80 0.2785344
1174.90 0.2784729
1175.00 0.2784114
1175.10 0.2783499
1175.20 0.2782884
1175.30 0.2782269
1175.40 0.2781655
1175.50 0.278104
1175.60 0.2780426
1175.70 0.2779812
1175.80 0.2779198
1175.90 0.2778585
1176.00 0.2777971
1176.10 0.2777358
1176.20 0.2776745
1176.30 0.2776132
1176.40 0.2775519
1176.50 0.2774906
1176.60 0.2774294
1176.70 0.2773682
1176.80 0.2773069
1176.90 0.2772458
1177.00 0.2771846
1177.10 0.2771234
1177.20 0.2770623
1177.30 0.2770011
1177.40 0.27694
1177.50 0.2768789
1177.60 0.2768178
1177.70 0.2767568
1177.80 0.2766957
1177.90 0.2766347
1178.00 0.2765737
1178.10 0.2765127
1178.20 0.2764517
1178.30 0.2763908
1178.40 0.2763298
1178.50 0.2762689
1178.60 0.276208
1178.70 0.2761471
1178.80 0.2760862
1178.90 0.2760253
1179.00 0.2759645
1179.10 0.2759036
1179.20 0.2758428
1179.30 0.275782
1179.40 0.2757213
1179.50 0.2756605
1179.60 0.2755998
1179.70 0.275539
1179.80 0.2754783
1179.90 0.2754176
1180.00 0.2753569
1180.10 0.2752963
1180.20 0.2752356
1180.30 0.275175
1180.40 0.2751144
1180.50 0.2750538
1180.60 0.2749932
1180.70 0.2749327
1180.80 0.2748721
1180.90 0.2748116
1181.00 0.2747511
1181.10 0.2746906
1181.20 0.2746301
1181.30 0.2745697
1181.40 0.2745092
1181.50 0.2744488
1181.60 0.2743884
1181.70 0.274328
1181.80 0.2742676
1181.90 0.2742072
1182.00 0.2741469
1182.10 0.2740866
1182.20 0.2740262
1182.30 0.2739659
1182.40 0.2739057
1182.50 0.2738454
1182.60 0.2737852
1182.70 0.2737249
1182.80 0.2736647
1182.90 0.2736045
1183.00 0.2735443
1183.10 0.2734842
1183.20 0.273424
1183.30 0.2733639
1183.40 0.2733038
1183.50 0.2732437
1183.60 0.2731836
1183.70 0.2731235
1183.80 0.2730635
1183.90 0.2730034
1184.00 0.2729434
1184.10 0.2728834
1184.20 0.2728234
1184.30 0.2727635
1184.40 0.2727035
1184.50 0.2726436
1184.60 0.2725837
1184.70 0.2725238
1184.80 0.2724639
1184.90 0.272404
1185.00 0.2723441
1185.10 0.2722843
1185.20 0.2722245
1185.30 0.2721647
1185.40 0.2721049
1185.50 0.2720449
1185.60 0.2719846
1185.70 0.2719244
1185.80 0.2718641
1185.90 0.2718039
1186.00 0.2717437
1186.10 0.2716835
1186.20 0.2716233
1186.30 0.2715632
1186.40 0.271503
1186.50 0.2714429
1186.60 0.2713828
1186.70 0.2713227
1186.80 0.2712626
1186.90 0.2712026
1187.00 0.2711425
1187.10 0.2710825
1187.20 0.2710225
1187.30 0.2709625
1187.40 0.2709025
1187.50 0.2708426
1187.60 0.2707826
1187.70 0.2707227
1187.80 0.2706628
1187.90 0.2706029
1188.00 0.270543
1188.10 0.2704831
1188.20 0.2704233
1188.30 0.2703634
1188.40 0.2703036
1188.50 0.2702438
1188.60 0.270184
1188.70 0.2701243
1188.80 0.2700645
1188.90 0.2700048
1189.00 0.2699451
1189.10 0.2698854
1189.20 0.2698257
1189.30 0.269766
1189.40 0.2697064
1189.50 0.2696467
1189.60 0.2695871
1189.70 0.2695275
1189.80 0.2694679
1189.90 0.2694084
1190.00 0.2693488
1190.10 0.2692893
1190.20 0.2692297
1190.30 0.2691702
1190.40 0.2691107
1190.50 0.2690513
1190.60 0.2689918
1190.70 0.2689324
1190.80 0.2688729
1190.90 0.2688135
1191.00 0.2687541
1191.10 0.2686948
1191.20 0.2686354
1191.30 0.2685761
1191.40 0.2685167
1191.50 0.2684574
1191.60 0.2683981
1191.70 0.2683388
1191.80 0.2682796
1191.90 0.2682203
1192.00 0.2681611
1192.10 0.2681019
1192.20 0.2680427
1192.30 0.2679835
1192.40 0.2679243
1192.50 0.2678652
1192.60 0.267806
1192.70 0.2677469
1192.80 0.2676878
1192.90 0.2676287
1193.00 0.2675697
1193.10 0.2675106
1193.20 0.2674516
1193.30 0.2673925
1193.40 0.2673335
1193.50 0.2672745
1193.60 0.2672156
1193.70 0.2671566
1193.80 0.2670977
1193.90 0.2670387
1194.00 0.2669798
1194.10 0.2669209
1194.20 0.2668621
1194.30 0.2668032
1194.40 0.2667443
1194.50 0.2666855
1194.60 0.2666267
1194.70 0.2665679
1194.80 0.2665091
1194.90 0.2664504
1195.00 0.2663916
1195.10 0.2663329
1195.20 0.2662741
1195.30 0.2662154
1195.40 0.2661568
1195.50 0.2660981
1195.60 0.2660394
1195.70 0.2659808
1195.80 0.2659222
1195.90 0.2658636
1196.00 0.265805
1196.10 0.2657464
1196.20 0.2656878
1196.30 0.2656293
1196.40 0.2655708
1196.50 0.2655122
1196.60 0.2654537
1196.70 0.2653953
1196.80 0.2653368
1196.90 0.2652784
1197.00 0.2652199
1197.10 0.2651615
1197.20 0.2651031
1197.30 0.2650447
1197.40 0.2649865
1197.50 0.2649283
1197.60 0.2648701
1197.70 0.2648119
1197.80 0.2647537
1197.90 0.2646956
1198.00 0.2646374
1198.10 0.2645793
1198.20 0.2645212
1198.30 0.2644631
1198.40 0.264405
1198.50 0.264347
1198.60 0.2642889
1198.70 0.2642309
1198.80 0.2641729
1198.90 0.2641149
1199.00 0.2640569
1199.10 0.263999
1199.20 0.263941
1199.30 0.2638831
1199.40 0.2638252
1199.50 0.2637673
1199.60 0.2637094
1199.70 0.2636515
1199.80 0.2635937
1199.90 0.2635358
1200.00 0.263478
