# Version 2.1 - nm, norm@500 to 1, cut digits, bergeron_He_10000_75.dat_10000
# Wavelength(nm)  Flambda(ergs/cm^s/s/nm)
300.00 1.992927
300.10 1.992519
300.20 1.992098
300.30 1.991696
300.40 1.991424
300.50 1.991153
300.60 1.990881
300.70 1.99061
300.80 1.990338
300.90 1.990066
301.00 1.989794
301.10 1.989522
301.20 1.98925
301.30 1.988978
301.40 1.988706
301.50 1.988433
301.60 1.988161
301.70 1.987889
301.80 1.987616
301.90 1.987344
302.00 1.987071
302.10 1.986774
302.20 1.986475
302.30 1.986176
302.40 1.985877
302.50 1.985578
302.60 1.985279
302.70 1.984979
302.80 1.98468
302.90 1.984381
303.00 1.984081
303.10 1.983782
303.20 1.983482
303.30 1.983178
303.40 1.982827
303.50 1.982476
303.60 1.982126
303.70 1.981775
303.80 1.981425
303.90 1.981074
304.00 1.980724
304.10 1.980373
304.20 1.980023
304.30 1.979673
304.40 1.979322
304.50 1.978972
304.60 1.978645
304.70 1.97832
304.80 1.977996
304.90 1.977671
305.00 1.977346
305.10 1.977022
305.20 1.976697
305.30 1.976373
305.40 1.976048
305.50 1.975724
305.60 1.975399
305.70 1.975074
305.80 1.97475
305.90 1.974425
306.00 1.974101
306.10 1.973776
306.20 1.973452
306.30 1.973127
306.40 1.972799
306.50 1.972469
306.60 1.97214
306.70 1.97181
306.80 1.97148
306.90 1.971151
307.00 1.970821
307.10 1.970492
307.20 1.970162
307.30 1.969833
307.40 1.969503
307.50 1.969174
307.60 1.968844
307.70 1.968515
307.80 1.968186
307.90 1.967856
308.00 1.967527
308.10 1.967197
308.20 1.966868
308.30 1.966539
308.40 1.966209
308.50 1.96588
308.60 1.965551
308.70 1.965221
308.80 1.964891
308.90 1.96456
309.00 1.964141
309.10 1.963723
309.20 1.963304
309.30 1.962886
309.40 1.962477
309.50 1.962126
309.60 1.961774
309.70 1.961423
309.80 1.961071
309.90 1.96072
310.00 1.960369
310.10 1.960017
310.20 1.959666
310.30 1.959315
310.40 1.958938
310.50 1.958532
310.60 1.958127
310.70 1.957721
310.80 1.957316
310.90 1.956911
311.00 1.95659
311.10 1.95627
311.20 1.955949
311.30 1.955619
311.40 1.955265
311.50 1.95491
311.60 1.954555
311.70 1.9542
311.80 1.953845
311.90 1.95349
312.00 1.953136
312.10 1.952781
312.20 1.952537
312.30 1.952092
312.40 1.951486
312.50 1.951003
312.60 1.950688
312.70 1.950373
312.80 1.950058
312.90 1.94969
313.00 1.949265
313.10 1.94884
313.20 1.948415
313.30 1.948004
313.40 1.947634
313.50 1.947263
313.60 1.946892
313.70 1.946521
313.80 1.946151
313.90 1.94578
314.00 1.94541
314.10 1.94506
314.20 1.94471
314.30 1.944359
314.40 1.944009
314.50 1.94366
314.60 1.94331
314.70 1.94296
314.80 1.94257
314.90 1.942086
315.00 1.941623
315.10 1.941245
315.20 1.940867
315.30 1.940489
315.40 1.940111
315.50 1.939734
315.60 1.939356
315.70 1.938978
315.80 1.938601
315.90 1.938223
316.00 1.937846
316.10 1.937469
316.20 1.937092
316.30 1.936432
316.40 1.936055
316.50 1.935679
316.60 1.935584
316.70 1.934925
316.80 1.934267
316.90 1.933891
317.00 1.933515
317.10 1.933139
317.20 1.932763
317.30 1.932513
317.40 1.932217
317.50 1.93179
317.60 1.931363
317.70 1.930936
317.80 1.93051
317.90 1.930031
318.00 1.929418
318.10 1.929043
318.20 1.928668
318.30 1.928294
318.40 1.927919
318.50 1.927544
318.60 1.927315
318.70 1.926857
318.80 1.926205
318.90 1.926108
319.00 1.925673
319.10 1.925299
319.20 1.9249
319.30 1.924428
319.40 1.923956
319.50 1.923484
319.60 1.92289
319.70 1.922565
319.80 1.92224
319.90 1.921915
320.00 1.921435
320.10 1.920786
320.20 1.920672
320.30 1.920163
320.40 1.91968
320.50 1.919418
320.60 1.918782
320.70 1.91841
320.80 1.918038
320.90 1.917666
321.00 1.917295
321.10 1.916923
321.20 1.916354
321.30 1.915919
321.40 1.915485
321.50 1.91505
321.60 1.914616
321.70 1.914182
321.80 1.91374
321.90 1.913288
322.00 1.913033
322.10 1.912591
322.20 1.912149
322.30 1.911707
322.40 1.911265
322.50 1.910824
322.60 1.910383
322.70 1.909941
322.80 1.909345
322.90 1.908933
323.00 1.908521
323.10 1.908109
323.20 1.907698
323.30 1.907286
323.40 1.906875
323.50 1.906464
323.60 1.906053
323.70 1.905642
323.80 1.905231
323.90 1.904821
324.00 1.904365
324.10 1.903909
324.20 1.903454
324.30 1.902991
324.40 1.902524
324.50 1.902075
324.60 1.901627
324.70 1.901178
324.80 1.90073
324.90 1.900282
325.00 1.899835
325.10 1.899387
325.20 1.898947
325.30 1.898525
325.40 1.898102
325.50 1.897647
325.60 1.897154
325.70 1.89666
325.80 1.896167
325.90 1.895715
326.00 1.895308
326.10 1.894902
326.20 1.894496
326.30 1.894003
326.40 1.893264
326.50 1.892834
326.60 1.892406
326.70 1.891977
326.80 1.891548
326.90 1.89112
327.00 1.890691
327.10 1.890263
327.20 1.889835
327.30 1.889408
327.40 1.88898
327.50 1.888553
327.60 1.888125
327.70 1.887698
327.80 1.887271
327.90 1.886742
328.00 1.886178
328.10 1.885708
328.20 1.885237
328.30 1.884767
328.40 1.884297
328.50 1.883877
328.60 1.883468
328.70 1.883059
328.80 1.882631
328.90 1.88215
329.00 1.88167
329.10 1.881189
329.20 1.880709
329.30 1.880229
329.40 1.879749
329.50 1.87927
329.60 1.878791
329.70 1.878312
329.80 1.877833
329.90 1.877354
330.00 1.876874
330.10 1.87639
330.20 1.875907
330.30 1.875424
330.40 1.874943
330.50 1.874466
330.60 1.873988
330.70 1.873511
330.80 1.873034
330.90 1.872558
331.00 1.872081
331.10 1.871605
331.20 1.871129
331.30 1.870654
331.40 1.870178
331.50 1.869688
331.60 1.86918
331.70 1.868672
331.80 1.868191
331.90 1.867711
332.00 1.867232
332.10 1.866752
332.20 1.866273
332.30 1.865794
332.40 1.865316
332.50 1.864837
332.60 1.864359
332.70 1.863881
332.80 1.863403
332.90 1.862926
333.00 1.862449
333.10 1.861981
333.20 1.861526
333.30 1.861071
333.40 1.860615
333.50 1.860161
333.60 1.859706
333.70 1.859251
333.80 1.858797
333.90 1.858343
334.00 1.857889
334.10 1.857405
334.20 1.856884
334.30 1.856364
334.40 1.855843
334.50 1.855323
334.60 1.854804
334.70 1.854456
334.80 1.854157
334.90 1.853627
335.00 1.853098
335.10 1.852453
335.20 1.852102
335.30 1.851475
335.40 1.851125
335.50 1.850713
335.60 1.850112
335.70 1.849737
335.80 1.849137
335.90 1.848593
336.00 1.848119
336.10 1.847645
336.20 1.847171
336.30 1.846679
336.40 1.846164
336.50 1.845649
336.60 1.845135
336.70 1.844621
336.80 1.844107
336.90 1.84361
337.00 1.843132
337.10 1.842654
337.20 1.842177
337.30 1.841686
337.40 1.841178
337.50 1.84067
337.60 1.840162
337.70 1.839655
337.80 1.839148
337.90 1.838638
338.00 1.838126
338.10 1.837614
338.20 1.837102
338.30 1.83659
338.40 1.83609
338.50 1.835616
338.60 1.835143
338.70 1.83467
338.80 1.834197
338.90 1.833725
339.00 1.833252
339.10 1.83278
339.20 1.832308
339.30 1.831793
339.40 1.831214
339.50 1.830665
339.60 1.830151
339.70 1.829637
339.80 1.829123
339.90 1.82861
340.00 1.828097
340.10 1.827584
340.20 1.827072
340.30 1.82656
340.40 1.826048
340.50 1.825537
340.60 1.825025
340.70 1.824514
340.80 1.82408
340.90 1.823754
341.00 1.82334
341.10 1.822818
341.20 1.822296
341.30 1.821774
341.40 1.821253
341.50 1.820731
341.60 1.820211
341.70 1.81969
341.80 1.819181
341.90 1.818686
342.00 1.818191
342.10 1.817697
342.20 1.817089
342.30 1.816583
342.40 1.81613
342.50 1.815555
342.60 1.81498
342.70 1.814405
342.80 1.813831
342.90 1.813258
343.00 1.812734
343.10 1.812272
343.20 1.81181
343.30 1.811348
343.40 1.810873
343.50 1.810378
343.60 1.809883
343.70 1.809388
343.80 1.808893
343.90 1.808399
344.00 1.807873
344.10 1.807299
344.20 1.806727
344.30 1.806154
344.40 1.805582
344.50 1.80501
344.60 1.80472
344.70 1.804149
344.80 1.80359
344.90 1.803007
345.00 1.802632
345.10 1.802062
345.20 1.801495
345.30 1.800932
345.40 1.80037
345.50 1.800002
345.60 1.799691
345.70 1.799123
345.80 1.798556
345.90 1.797988
346.00 1.797421
346.10 1.796855
346.20 1.796308
346.30 1.795789
346.40 1.795271
346.50 1.794753
346.60 1.794235
346.70 1.793717
346.80 1.7932
346.90 1.792683
347.00 1.792166
347.10 1.79165
347.20 1.791132
347.30 1.790613
347.40 1.790094
347.50 1.789575
347.60 1.789056
347.70 1.788538
347.80 1.78802
347.90 1.787503
348.00 1.786985
348.10 1.786468
348.20 1.785951
348.30 1.785435
348.40 1.784919
348.50 1.784403
348.60 1.783887
348.70 1.783248
348.80 1.782632
348.90 1.782106
349.00 1.78158
349.10 1.781054
349.20 1.780528
349.30 1.780003
349.40 1.779478
349.50 1.778954
349.60 1.77843
349.70 1.777906
349.80 1.777382
349.90 1.776859
350.00 1.776336
350.10 1.775813
350.20 1.775291
350.30 1.774773
350.40 1.77426
350.50 1.773747
350.60 1.773235
350.70 1.772723
350.80 1.772211
350.90 1.7717
351.00 1.771189
351.10 1.770678
351.20 1.770168
351.30 1.769658
351.40 1.769123
351.50 1.768546
351.60 1.767969
351.70 1.767393
351.80 1.766817
351.90 1.766241
352.00 1.765666
352.10 1.765091
352.20 1.764682
352.30 1.764234
352.40 1.763704
352.50 1.763173
352.60 1.762643
352.70 1.762114
352.80 1.761584
352.90 1.761055
353.00 1.760527
353.10 1.759998
353.20 1.75947
353.30 1.758942
353.40 1.758415
353.50 1.75784
353.60 1.757253
353.70 1.756667
353.80 1.756081
353.90 1.755512
354.00 1.754974
354.10 1.754436
354.20 1.753899
354.30 1.753362
354.40 1.752825
354.50 1.752289
354.60 1.751752
354.70 1.751217
354.80 1.750663
354.90 1.750084
355.00 1.749505
355.10 1.748926
355.20 1.748348
355.30 1.747884
355.40 1.747419
355.50 1.746955
355.60 1.746491
355.70 1.745935
355.80 1.745337
355.90 1.744601
356.00 1.743967
356.10 1.74342
356.20 1.742874
356.30 1.742327
356.40 1.741781
356.50 1.741235
356.60 1.74069
356.70 1.740145
356.80 1.7396
356.90 1.739056
357.00 1.738511
357.10 1.737968
357.20 1.737424
357.30 1.736881
357.40 1.736374
357.50 1.735929
357.60 1.735485
357.70 1.73504
357.80 1.734472
357.90 1.733904
358.00 1.733354
358.10 1.732808
358.20 1.732263
358.30 1.731718
358.40 1.731173
358.50 1.730629
358.60 1.730085
358.70 1.729541
358.80 1.728998
358.90 1.728455
359.00 1.727902
359.10 1.727333
359.20 1.726763
359.30 1.726177
359.40 1.725593
359.50 1.725083
359.60 1.724592
359.70 1.724101
359.80 1.723474
359.90 1.722847
360.00 1.722247
360.10 1.721697
360.20 1.721147
360.30 1.720597
360.40 1.720048
360.50 1.719498
360.60 1.71914
360.70 1.718622
360.80 1.718103
360.90 1.717585
361.00 1.716912
361.10 1.716202
361.20 1.715877
361.30 1.715101
361.40 1.714823
361.50 1.714069
361.60 1.713536
361.70 1.713021
361.80 1.712472
361.90 1.711863
362.00 1.711254
362.10 1.710855
362.20 1.71043
362.30 1.709864
362.40 1.709298
362.50 1.708732
362.60 1.708167
362.70 1.707539
362.80 1.706789
362.90 1.706276
363.00 1.705763
363.10 1.705215
363.20 1.704668
363.30 1.704236
363.40 1.703726
363.50 1.703217
363.60 1.702494
363.70 1.702009
363.80 1.701263
363.90 1.700735
364.00 1.700207
364.10 1.699679
364.20 1.699152
364.30 1.698679
364.40 1.69822
364.50 1.697716
364.60 1.697068
364.70 1.696419
364.80 1.695772
364.90 1.695267
365.00 1.694763
365.10 1.694258
365.20 1.693543
365.30 1.693039
365.40 1.692324
365.50 1.691822
365.60 1.691319
365.70 1.690779
365.80 1.690238
365.90 1.689767
366.00 1.689312
366.10 1.6887
366.20 1.688089
366.30 1.687478
366.40 1.686867
366.50 1.686385
366.60 1.68589
366.70 1.685289
366.80 1.684689
366.90 1.68411
367.00 1.68357
367.10 1.68303
367.20 1.682491
367.30 1.681952
367.40 1.681413
367.50 1.680759
367.60 1.680077
367.70 1.679604
367.80 1.67913
367.90 1.678657
368.00 1.678097
368.10 1.677597
368.20 1.677016
368.30 1.676433
368.40 1.67585
368.50 1.675268
368.60 1.674687
368.70 1.674105
368.80 1.673524
368.90 1.673093
369.00 1.672518
369.10 1.671842
369.20 1.671353
369.30 1.670724
369.40 1.670096
369.50 1.669468
369.60 1.668977
369.70 1.668486
369.80 1.667919
369.90 1.667353
370.00 1.666786
370.10 1.666123
370.20 1.665632
370.30 1.665144
370.40 1.664662
370.50 1.663964
370.60 1.663472
370.70 1.662791
370.80 1.662303
370.90 1.661816
371.00 1.661333
371.10 1.66085
371.20 1.66016
371.30 1.65947
371.40 1.659098
371.50 1.65851
371.60 1.657922
371.70 1.657335
371.80 1.656748
371.90 1.656162
372.00 1.6558
372.10 1.655202
372.20 1.654653
372.30 1.654104
372.40 1.653555
372.50 1.653007
372.60 1.652459
372.70 1.651912
372.80 1.651228
372.90 1.650545
373.00 1.650066
373.10 1.64959
373.20 1.648909
373.30 1.648228
373.40 1.647751
373.50 1.647274
373.60 1.646797
373.70 1.646321
373.80 1.645529
373.90 1.644965
374.00 1.644388
374.10 1.643812
374.20 1.643236
374.30 1.642661
374.40 1.642036
374.50 1.641703
374.60 1.641137
374.70 1.640564
374.80 1.639991
374.90 1.639418
375.00 1.638812
375.10 1.638206
375.20 1.637601
375.30 1.637072
375.40 1.636544
375.50 1.636016
375.60 1.635489
375.70 1.634962
375.80 1.634435
375.90 1.633908
376.00 1.633039
376.10 1.632516
376.20 1.631996
376.30 1.631477
376.40 1.630957
376.50 1.63041
376.60 1.629819
376.70 1.629228
376.80 1.62864
376.90 1.628054
377.00 1.627469
377.10 1.626884
377.20 1.626319
377.30 1.625828
377.40 1.625338
377.50 1.624847
377.60 1.624245
377.70 1.623644
377.80 1.623043
377.90 1.622442
378.00 1.621739
378.10 1.621198
378.20 1.620661
378.30 1.620124
378.40 1.619588
378.50 1.619052
378.60 1.618516
378.70 1.617981
378.80 1.617446
378.90 1.616902
379.00 1.61634
379.10 1.615802
379.20 1.615265
379.30 1.614697
379.40 1.614099
379.50 1.613502
379.60 1.612936
379.70 1.612407
379.80 1.611844
379.90 1.611281
380.00 1.610719
380.10 1.610157
380.20 1.609596
380.30 1.609035
380.40 1.608474
380.50 1.607914
380.60 1.607178
380.70 1.6066
380.80 1.606022
380.90 1.605445
381.00 1.604868
381.10 1.604269
381.20 1.603746
381.30 1.603194
381.40 1.602739
381.50 1.602098
381.60 1.601508
381.70 1.601027
381.80 1.600476
381.90 1.600026
382.00 1.599188
382.10 1.598738
382.20 1.598056
382.30 1.597607
382.40 1.597109
382.50 1.596538
382.60 1.595967
382.70 1.59546
382.80 1.59496
382.90 1.594397
383.00 1.593834
383.10 1.593271
383.20 1.592697
383.30 1.592079
383.40 1.591486
383.50 1.590931
383.60 1.590129
383.70 1.589603
383.80 1.589078
383.90 1.588554
384.00 1.58803
384.10 1.587506
384.20 1.586982
384.30 1.586459
384.40 1.585919
384.50 1.585361
384.60 1.584804
384.70 1.584248
384.80 1.583635
384.90 1.582927
385.00 1.582432
385.10 1.581931
385.20 1.581201
385.30 1.580573
385.40 1.579983
385.50 1.579429
385.60 1.578876
385.70 1.578323
385.80 1.577762
385.90 1.577166
386.00 1.576595
386.10 1.576049
386.20 1.575526
386.30 1.575003
386.40 1.574426
386.50 1.573898
386.60 1.573462
386.70 1.572648
386.80 1.572213
386.90 1.571683
387.00 1.570966
387.10 1.570531
387.20 1.569993
387.30 1.569296
387.40 1.568853
387.50 1.568211
387.60 1.56767
387.70 1.567144
387.80 1.566617
387.90 1.566092
388.00 1.565507
388.10 1.564757
388.20 1.564388
388.30 1.563821
388.40 1.563254
388.50 1.562718
388.60 1.562174
388.70 1.56137
388.80 1.560941
388.90 1.560489
389.00 1.55971
389.10 1.559282
389.20 1.558643
389.30 1.55812
389.40 1.557511
389.50 1.556951
389.60 1.556399
389.70 1.555689
389.80 1.555144
389.90 1.5546
390.00 1.554055
390.10 1.553511
390.20 1.552968
390.30 1.552411
390.40 1.55184
390.50 1.551269
390.60 1.550698
390.70 1.550128
390.80 1.549551
390.90 1.548968
391.00 1.54865
391.10 1.548038
391.20 1.547388
391.30 1.546713
391.40 1.546169
391.50 1.545625
391.60 1.545081
391.70 1.544538
391.80 1.543995
391.90 1.543499
392.00 1.542982
392.10 1.542354
392.20 1.541712
392.30 1.541051
392.40 1.540528
392.50 1.54009
392.60 1.539553
392.70 1.538889
392.80 1.538352
392.90 1.537757
393.00 1.537169
393.10 1.536615
393.20 1.536091
393.30 1.535492
393.40 1.534878
393.50 1.534463
393.60 1.533907
393.70 1.533269
393.80 1.532872
393.90 1.532276
394.00 1.531663
394.10 1.530973
394.20 1.530381
394.30 1.529855
394.40 1.529315
394.50 1.528873
394.60 1.528301
394.70 1.527722
394.80 1.527114
394.90 1.526514
395.00 1.526092
395.10 1.52532
395.20 1.524736
395.30 1.524201
395.40 1.523665
395.50 1.523066
395.60 1.522443
395.70 1.521842
395.80 1.5213
395.90 1.520758
396.00 1.520236
396.10 1.519838
396.20 1.519251
396.30 1.518616
396.40 1.518209
396.50 1.517444
396.60 1.517038
396.70 1.516399
396.80 1.515868
396.90 1.51514
397.00 1.5147
397.10 1.514236
397.20 1.513613
397.30 1.51316
397.40 1.512511
397.50 1.511863
397.60 1.511227
397.70 1.510721
397.80 1.510215
397.90 1.509675
398.00 1.509044
398.10 1.508414
398.20 1.507861
398.30 1.507396
398.40 1.506922
398.50 1.506166
398.60 1.50569
398.70 1.505127
398.80 1.504518
398.90 1.50395
399.00 1.503459
399.10 1.503075
399.20 1.502485
399.30 1.501895
399.40 1.501306
399.50 1.500717
399.60 1.50012
399.70 1.49952
399.80 1.49892
399.90 1.498321
400.00 1.497726
400.10 1.497249
400.20 1.496822
400.30 1.496291
400.40 1.495683
400.50 1.495038
400.60 1.49442
400.70 1.49385
400.80 1.493443
400.90 1.492817
401.00 1.492366
401.10 1.491622
401.20 1.491155
401.30 1.490487
401.40 1.489934
401.50 1.489452
401.60 1.48897
401.70 1.488498
401.80 1.48783
401.90 1.487273
402.00 1.4867
402.10 1.485961
402.20 1.485571
402.30 1.485034
402.40 1.484444
402.50 1.484056
402.60 1.483318
402.70 1.48293
402.80 1.482194
402.90 1.481598
403.00 1.481037
403.10 1.480685
403.20 1.479958
403.30 1.479492
403.40 1.47883
403.50 1.47826
403.60 1.477741
403.70 1.477327
403.80 1.476601
403.90 1.476067
404.00 1.47548
404.10 1.475096
404.20 1.474539
404.30 1.473983
404.40 1.473254
404.50 1.472699
404.60 1.472143
404.70 1.471761
404.80 1.471044
404.90 1.470652
405.00 1.469926
405.10 1.469397
405.20 1.468918
405.30 1.468439
405.40 1.467887
405.50 1.467335
405.60 1.466783
405.70 1.466232
405.80 1.465681
405.90 1.46513
406.00 1.464547
406.10 1.463964
406.20 1.463381
406.30 1.462798
406.40 1.462212
406.50 1.461579
406.60 1.461116
406.70 1.460504
406.80 1.45992
406.90 1.459309
407.00 1.458762
407.10 1.458216
407.20 1.457671
407.30 1.457125
407.40 1.45658
407.50 1.456036
407.60 1.455492
407.70 1.454948
407.80 1.454404
407.90 1.453862
408.00 1.453335
408.10 1.452771
408.20 1.452236
408.30 1.451746
408.40 1.451256
408.50 1.450605
408.60 1.450012
408.70 1.44942
408.80 1.448857
408.90 1.448475
409.00 1.447897
409.10 1.447319
409.20 1.446741
409.30 1.446164
409.40 1.445587
409.50 1.445
409.60 1.444413
409.70 1.443835
409.80 1.443285
409.90 1.442741
410.00 1.442364
410.10 1.441661
410.20 1.441063
410.30 1.440492
410.40 1.439942
410.50 1.439462
410.60 1.438981
410.70 1.438484
410.80 1.437919
410.90 1.437355
411.00 1.436762
411.10 1.436157
411.20 1.435554
411.30 1.434989
411.40 1.434572
411.50 1.433992
411.60 1.433414
411.70 1.432845
411.80 1.432316
411.90 1.431754
412.00 1.431392
412.10 1.430697
412.20 1.430003
412.30 1.429642
412.40 1.428961
412.50 1.428588
412.60 1.427896
412.70 1.427307
412.80 1.426745
412.90 1.426166
413.00 1.425826
413.10 1.425267
413.20 1.424709
413.30 1.424151
413.40 1.423593
413.50 1.423009
413.60 1.422361
413.70 1.421839
413.80 1.421317
413.90 1.420795
414.00 1.420273
414.10 1.419752
414.20 1.419192
414.30 1.41854
414.40 1.418152
414.50 1.417468
414.60 1.417113
414.70 1.416429
414.80 1.415786
414.90 1.415268
415.00 1.41475
415.10 1.414232
415.20 1.4137
415.30 1.413122
415.40 1.412544
415.50 1.411966
415.60 1.411404
415.70 1.410842
415.80 1.410305
415.90 1.409842
416.00 1.409379
416.10 1.408889
416.20 1.40829
416.30 1.407692
416.40 1.407094
416.50 1.406499
416.60 1.405987
416.70 1.40547
416.80 1.404986
416.90 1.404447
417.00 1.403774
417.10 1.403425
417.20 1.402753
417.30 1.402087
417.40 1.401645
417.50 1.401203
417.60 1.400715
417.70 1.400048
417.80 1.399486
417.90 1.398924
418.00 1.398362
418.10 1.397801
418.20 1.397241
418.30 1.396689
418.40 1.396358
418.50 1.395796
418.60 1.395234
418.70 1.394673
418.80 1.394112
418.90 1.393551
419.00 1.392991
419.10 1.392431
419.20 1.391872
419.30 1.391313
419.40 1.390763
419.50 1.390213
419.60 1.389663
419.70 1.38911
419.80 1.388556
419.90 1.388007
420.00 1.387472
420.10 1.386937
420.20 1.386403
420.30 1.385868
420.40 1.385334
420.50 1.384801
420.60 1.384268
420.70 1.383735
420.80 1.383202
420.90 1.38267
421.00 1.382128
421.10 1.381586
421.20 1.38105
421.30 1.380531
421.40 1.380012
421.50 1.379493
421.60 1.378975
421.70 1.378457
421.80 1.37794
421.90 1.37739
422.00 1.376737
422.10 1.376105
422.20 1.375553
422.30 1.375002
422.40 1.374451
422.50 1.373913
422.60 1.373374
422.70 1.372837
422.80 1.372299
422.90 1.371762
423.00 1.371225
423.10 1.370689
423.20 1.370153
423.30 1.369617
423.40 1.369082
423.50 1.368547
423.60 1.368012
423.70 1.367478
423.80 1.366944
423.90 1.36641
424.00 1.365877
424.10 1.365344
424.20 1.364812
424.30 1.36428
424.40 1.363725
424.50 1.363209
424.60 1.362694
424.70 1.362179
424.80 1.361664
424.90 1.36115
425.00 1.360636
425.10 1.360122
425.20 1.359609
425.30 1.359096
425.40 1.358577
425.50 1.358022
425.60 1.357466
425.70 1.356911
425.80 1.356357
425.90 1.355802
426.00 1.355248
426.10 1.354695
426.20 1.354142
426.30 1.353589
426.40 1.353036
426.50 1.352484
426.60 1.351932
426.70 1.351381
426.80 1.35083
426.90 1.35028
427.00 1.349746
427.10 1.349212
427.20 1.348678
427.30 1.348145
427.40 1.347612
427.50 1.34708
427.60 1.346548
427.70 1.346016
427.80 1.345484
427.90 1.344953
428.00 1.344422
428.10 1.343892
428.20 1.343362
428.30 1.342832
428.40 1.342303
428.50 1.341774
428.60 1.341245
428.70 1.340717
428.80 1.340189
428.90 1.339663
429.00 1.339136
429.10 1.338611
429.20 1.338085
429.30 1.33756
429.40 1.337035
429.50 1.336511
429.60 1.335987
429.70 1.335463
429.80 1.334939
429.90 1.334416
430.00 1.333893
430.10 1.333371
430.20 1.332849
430.30 1.332327
430.40 1.331806
430.50 1.331285
430.60 1.330764
430.70 1.330244
430.80 1.329724
430.90 1.329204
431.00 1.328685
431.10 1.328166
431.20 1.327647
431.30 1.327127
431.40 1.326588
431.50 1.326049
431.60 1.325511
431.70 1.324972
431.80 1.324435
431.90 1.323897
432.00 1.32336
432.10 1.322823
432.20 1.322287
432.30 1.321751
432.40 1.321215
432.50 1.32068
432.60 1.320145
432.70 1.31961
432.80 1.319076
432.90 1.318542
433.00 1.318008
433.10 1.317475
433.20 1.316942
433.30 1.316409
433.40 1.315867
433.50 1.315325
433.60 1.314783
433.70 1.314242
433.80 1.313746
433.90 1.313304
434.00 1.312805
434.10 1.312271
434.20 1.311736
434.30 1.311202
434.40 1.310669
434.50 1.310136
434.60 1.309603
434.70 1.30907
434.80 1.308539
434.90 1.308019
435.00 1.3075
435.10 1.30698
435.20 1.306461
435.30 1.305943
435.40 1.305425
435.50 1.304907
435.60 1.304389
435.70 1.303872
435.80 1.303355
435.90 1.302839
436.00 1.302322
436.10 1.301806
436.20 1.301291
436.30 1.300739
436.40 1.300149
436.50 1.299632
436.60 1.299115
436.70 1.298598
436.80 1.298082
436.90 1.297567
437.00 1.297051
437.10 1.296536
437.20 1.296044
437.30 1.295572
437.40 1.295095
437.50 1.294552
437.60 1.29401
437.70 1.293468
437.80 1.292926
437.90 1.292385
438.00 1.291848
438.10 1.291371
438.20 1.290894
438.30 1.290367
438.40 1.289789
438.50 1.289347
438.60 1.288896
438.70 1.288309
438.80 1.287721
438.90 1.287135
439.00 1.286842
439.10 1.286256
439.20 1.285675
439.30 1.285163
439.40 1.284651
439.50 1.28414
439.60 1.283624
439.70 1.28304
439.80 1.282487
439.90 1.28197
440.00 1.281454
440.10 1.280939
440.20 1.280423
440.30 1.2799
440.40 1.279377
440.50 1.278854
440.60 1.278332
440.70 1.27781
440.80 1.277289
440.90 1.276767
441.00 1.276247
441.10 1.275726
441.20 1.275214
441.30 1.274816
441.40 1.274337
441.50 1.27376
441.60 1.273183
441.70 1.272896
441.80 1.272364
441.90 1.271833
442.00 1.271301
442.10 1.27077
442.20 1.27024
442.30 1.26971
442.40 1.269203
442.50 1.268724
442.60 1.268245
442.70 1.267729
442.80 1.267156
442.90 1.266584
443.00 1.26608
443.10 1.265657
443.20 1.265158
443.30 1.264587
443.40 1.264017
443.50 1.263447
443.60 1.262913
443.70 1.262595
443.80 1.262026
443.90 1.261458
444.00 1.260954
444.10 1.26053
444.20 1.260041
444.30 1.259474
444.40 1.258907
444.50 1.258341
444.60 1.257841
444.70 1.257424
444.80 1.256966
444.90 1.256471
445.00 1.255977
445.10 1.255483
445.20 1.254979
445.30 1.254463
445.40 1.253948
445.50 1.253433
445.60 1.252919
445.70 1.252405
445.80 1.251866
445.90 1.251304
446.00 1.250743
446.10 1.250183
446.20 1.249622
446.30 1.249346
446.40 1.248787
446.50 1.248227
446.60 1.247668
446.70 1.24711
446.80 1.246625
446.90 1.246209
447.00 1.245719
447.10 1.245162
447.20 1.244605
447.30 1.244049
447.40 1.243775
447.50 1.243219
447.60 1.242664
447.70 1.242109
447.80 1.24162
447.90 1.241212
448.00 1.240752
448.10 1.240245
448.20 1.239739
448.30 1.239233
448.40 1.238727
448.50 1.238221
448.60 1.237692
448.70 1.23714
448.80 1.236593
448.90 1.236103
449.00 1.235613
449.10 1.235124
449.20 1.234634
449.30 1.234118
449.40 1.233569
449.50 1.23302
449.60 1.23251
449.70 1.232037
449.80 1.231563
449.90 1.23109
450.00 1.230617
450.10 1.230145
450.20 1.229672
450.30 1.229201
450.40 1.228701
450.50 1.228202
450.60 1.227704
450.70 1.227205
450.80 1.226707
450.90 1.226209
451.00 1.225666
451.10 1.225122
451.20 1.224579
451.30 1.224037
451.40 1.223494
451.50 1.222953
451.60 1.222688
451.70 1.222147
451.80 1.221606
451.90 1.221065
452.00 1.220525
452.10 1.219985
452.20 1.219515
452.30 1.219045
452.40 1.218575
452.50 1.218105
452.60 1.217567
452.70 1.217061
452.80 1.216585
452.90 1.216108
453.00 1.215632
453.10 1.215157
453.20 1.214663
453.30 1.214169
453.40 1.213675
453.50 1.213182
453.60 1.212689
453.70 1.212197
453.80 1.211685
453.90 1.211152
454.00 1.210618
454.10 1.210085
454.20 1.209602
454.30 1.20912
454.40 1.208638
454.50 1.208156
454.60 1.207674
454.70 1.20718
454.80 1.206676
454.90 1.206171
455.00 1.205667
455.10 1.205163
455.20 1.20466
455.30 1.204156
455.40 1.203654
455.50 1.203151
455.60 1.202649
455.70 1.202147
455.80 1.201692
455.90 1.201238
456.00 1.200784
456.10 1.200318
456.20 1.199817
456.30 1.199316
456.40 1.198816
456.50 1.198316
456.60 1.197817
456.70 1.197317
456.80 1.196818
456.90 1.19632
457.00 1.195821
457.10 1.195323
457.20 1.194813
457.30 1.194328
457.40 1.193844
457.50 1.19336
457.60 1.192876
457.70 1.192392
457.80 1.191909
457.90 1.191427
458.00 1.190944
458.10 1.190462
458.20 1.18998
458.30 1.189498
458.40 1.189017
458.50 1.188536
458.60 1.188055
458.70 1.187582
458.80 1.187111
458.90 1.186641
459.00 1.186171
459.10 1.185701
459.20 1.185232
459.30 1.184734
459.40 1.184237
459.50 1.183741
459.60 1.183244
459.70 1.182748
459.80 1.182253
459.90 1.181757
460.00 1.181262
460.10 1.180767
460.20 1.180273
460.30 1.179779
460.40 1.179285
460.50 1.178791
460.60 1.178298
460.70 1.177829
460.80 1.177371
460.90 1.176914
461.00 1.176457
461.10 1.176
461.20 1.175506
461.30 1.174996
461.40 1.174487
461.50 1.173978
461.60 1.17347
461.70 1.172961
461.80 1.172491
461.90 1.17202
462.00 1.17155
462.10 1.17108
462.20 1.17061
462.30 1.170141
462.40 1.169672
462.50 1.169203
462.60 1.168735
462.70 1.168266
462.80 1.167799
462.90 1.167331
463.00 1.166864
463.10 1.166397
463.20 1.165904
463.30 1.165401
463.40 1.164898
463.50 1.164395
463.60 1.163893
463.70 1.163391
463.80 1.162889
463.90 1.162414
464.00 1.161945
464.10 1.161477
464.20 1.161009
464.30 1.160541
464.40 1.160074
464.50 1.159607
464.60 1.15914
464.70 1.158651
464.80 1.158152
464.90 1.157654
465.00 1.157156
465.10 1.156659
465.20 1.156162
465.30 1.155692
465.40 1.15524
465.50 1.154789
465.60 1.154338
465.70 1.153887
465.80 1.153437
465.90 1.15295
466.00 1.152456
466.10 1.151961
466.20 1.151467
466.30 1.150992
466.40 1.150524
466.50 1.150057
466.60 1.14959
466.70 1.149123
466.80 1.148657
466.90 1.148191
467.00 1.147725
467.10 1.14726
467.20 1.146795
467.30 1.146311
467.40 1.145821
467.50 1.145331
467.60 1.144841
467.70 1.144351
467.80 1.143862
467.90 1.143373
468.00 1.142885
468.10 1.142397
468.20 1.141909
468.30 1.141421
468.40 1.140934
468.50 1.140646
468.60 1.140217
468.70 1.139731
468.80 1.139245
468.90 1.138759
469.00 1.138273
469.10 1.137788
469.20 1.137303
469.30 1.136818
469.40 1.136334
469.50 1.13585
469.60 1.135366
469.70 1.134883
469.80 1.1344
469.90 1.133917
470.00 1.133435
470.10 1.13299
470.20 1.13256
470.30 1.13213
470.40 1.131701
470.50 1.131272
470.60 1.130802
470.70 1.130321
470.80 1.129841
470.90 1.129361
471.00 1.128882
471.10 1.128403
471.20 1.127924
471.30 1.127445
471.40 1.126967
471.50 1.126489
471.60 1.126011
471.70 1.125534
471.80 1.125057
471.90 1.12458
472.00 1.124103
472.10 1.123627
472.20 1.123151
472.30 1.122676
472.40 1.122201
472.50 1.121726
472.60 1.121251
472.70 1.120974
472.80 1.120555
472.90 1.120082
473.00 1.119608
473.10 1.119135
473.20 1.118662
473.30 1.118189
473.40 1.117717
473.50 1.117245
473.60 1.116773
473.70 1.116302
473.80 1.11583
473.90 1.115359
474.00 1.114889
474.10 1.114419
474.20 1.113949
474.30 1.113479
474.40 1.11301
474.50 1.112541
474.60 1.112072
474.70 1.111603
474.80 1.111135
474.90 1.110667
475.00 1.1102
475.10 1.109732
475.20 1.109265
475.30 1.108799
475.40 1.108332
475.50 1.107866
475.60 1.1074
475.70 1.106935
475.80 1.106469
475.90 1.106004
476.00 1.10554
476.10 1.105075
476.20 1.104637
476.30 1.104209
476.40 1.103782
476.50 1.103355
476.60 1.102928
476.70 1.102501
476.80 1.102075
476.90 1.10162
477.00 1.101158
477.10 1.100696
477.20 1.100235
477.30 1.099774
477.40 1.099313
477.50 1.098853
477.60 1.098393
477.70 1.097933
477.80 1.097473
477.90 1.097014
478.00 1.096555
478.10 1.096097
478.20 1.095638
478.30 1.09518
478.40 1.094722
478.50 1.094265
478.60 1.093808
478.70 1.093351
478.80 1.092894
478.90 1.092438
479.00 1.091981
479.10 1.091526
479.20 1.09107
479.30 1.090615
479.40 1.09016
479.50 1.089705
479.60 1.089251
479.70 1.088797
479.80 1.088343
479.90 1.08789
480.00 1.087436
480.10 1.086983
480.20 1.086531
480.30 1.086078
480.40 1.085626
480.50 1.085174
480.60 1.084723
480.70 1.084272
480.80 1.083821
480.90 1.08337
481.00 1.082919
481.10 1.082469
481.20 1.082019
481.30 1.08157
481.40 1.081121
481.50 1.080672
481.60 1.080223
481.70 1.079774
481.80 1.079326
481.90 1.078878
482.00 1.078431
482.10 1.077983
482.20 1.077535
482.30 1.077071
482.40 1.076607
482.50 1.076144
482.60 1.075681
482.70 1.075218
482.80 1.074755
482.90 1.074293
483.00 1.073831
483.10 1.073369
483.20 1.072908
483.30 1.072446
483.40 1.071986
483.50 1.071525
483.60 1.071065
483.70 1.070622
483.80 1.070179
483.90 1.069737
484.00 1.069295
484.10 1.068853
484.20 1.068412
484.30 1.067971
484.40 1.06753
484.50 1.067089
484.60 1.066649
484.70 1.066209
484.80 1.065769
484.90 1.065329
485.00 1.06489
485.10 1.064451
485.20 1.064012
485.30 1.063574
485.40 1.063136
485.50 1.062698
485.60 1.06226
485.70 1.061823
485.80 1.061386
485.90 1.060949
486.00 1.060512
486.10 1.060076
486.20 1.05964
486.30 1.059204
486.40 1.058769
486.50 1.058334
486.60 1.057899
486.70 1.057464
486.80 1.05703
486.90 1.056595
487.00 1.056162
487.10 1.055728
487.20 1.055273
487.30 1.054818
487.40 1.054363
487.50 1.053909
487.60 1.053455
487.70 1.053001
487.80 1.052548
487.90 1.052095
488.00 1.051642
488.10 1.051189
488.20 1.050739
488.30 1.050308
488.40 1.049878
488.50 1.049448
488.60 1.049019
488.70 1.04859
488.80 1.048161
488.90 1.047732
489.00 1.047303
489.10 1.046875
489.20 1.046447
489.30 1.04602
489.40 1.045592
489.50 1.045165
489.60 1.044738
489.70 1.044311
489.80 1.043882
489.90 1.043409
490.00 1.042937
490.10 1.042465
490.20 1.041993
490.30 1.041522
490.40 1.041097
490.50 1.040673
490.60 1.040249
490.70 1.039825
490.80 1.039401
490.90 1.038978
491.00 1.038554
491.10 1.038131
491.20 1.037709
491.30 1.037286
491.40 1.036864
491.50 1.036442
491.60 1.036021
491.70 1.035599
491.80 1.035163
491.90 1.034524
492.00 1.034103
492.10 1.033683
492.20 1.033263
492.30 1.032843
492.40 1.032424
492.50 1.032005
492.60 1.031586
492.70 1.031167
492.80 1.030749
492.90 1.03033
493.00 1.029912
493.10 1.029495
493.20 1.029077
493.30 1.02866
493.40 1.028243
493.50 1.027827
493.60 1.027178
493.70 1.026762
493.80 1.026346
493.90 1.025931
494.00 1.025515
494.10 1.0251
494.20 1.024685
494.30 1.024271
494.40 1.023857
494.50 1.023443
494.60 1.023029
494.70 1.022615
494.80 1.022202
494.90 1.021789
495.00 1.021376
495.10 1.020963
495.20 1.020527
495.30 1.020092
495.40 1.019656
495.50 1.019221
495.60 1.018786
495.70 1.018351
495.80 1.017916
495.90 1.017482
496.00 1.017048
496.10 1.016622
496.20 1.016208
496.30 1.015742
496.40 1.015277
496.50 1.014812
496.60 1.014347
496.70 1.013938
496.80 1.01353
496.90 1.013122
497.00 1.012715
497.10 1.012307
497.20 1.0119
497.30 1.011493
497.40 1.011086
497.50 1.01068
497.60 1.010274
497.70 1.009866
497.80 1.009435
497.90 1.009005
498.00 1.008574
498.10 1.008144
498.20 1.007714
498.30 1.007285
498.40 1.006856
498.50 1.006427
498.60 1.005998
498.70 1.005595
498.80 1.005191
498.90 1.004727
499.00 1.004262
499.10 1.003798
499.20 1.003354
499.30 1.002952
499.40 1.002551
499.50 1.002149
499.60 1.001748
499.70 1.001344
499.80 1.000896
499.90 1.000448
500.00 1
500.10 0.9995525
500.20 0.9991206
500.30 0.9987212
500.40 0.9983221
500.50 0.9979232
500.60 0.9975245
500.70 0.9971261
500.80 0.9967279
500.90 0.99633
501.00 0.9959323
501.10 0.9955349
501.20 0.9951016
501.30 0.9945922
501.40 0.994119
501.50 0.9937226
501.60 0.9933264
501.70 0.9929305
501.80 0.9925348
501.90 0.9921393
502.00 0.9917441
502.10 0.9913491
502.20 0.9909454
502.30 0.9904228
502.40 0.9899415
502.50 0.9895476
502.60 0.9891538
502.70 0.9887603
502.80 0.9883671
502.90 0.987974
503.00 0.9875636
503.10 0.9871161
503.20 0.9866688
503.30 0.9862218
503.40 0.9857893
503.50 0.9853978
503.60 0.9850065
503.70 0.9846154
503.80 0.9842246
503.90 0.983834
504.00 0.9834261
504.10 0.9829811
504.20 0.9825365
504.30 0.9820921
504.40 0.9816623
504.50 0.9812731
504.60 0.9808842
504.70 0.9804956
504.80 0.9801071
504.90 0.9797189
505.00 0.979331
505.10 0.9789432
505.20 0.9785411
505.30 0.9780976
505.40 0.9776545
505.50 0.9772115
505.60 0.9767752
505.70 0.9763524
505.80 0.9759299
505.90 0.9755077
506.00 0.9750857
506.10 0.974664
506.20 0.9742456
506.30 0.9738361
506.40 0.9734269
506.50 0.9730179
506.60 0.9726092
506.70 0.9722007
506.80 0.9717924
506.90 0.9713844
507.00 0.9709767
507.10 0.9705771
507.20 0.9701872
507.30 0.9697773
507.40 0.9693677
507.50 0.9689582
507.60 0.9685491
507.70 0.9681402
507.80 0.9677315
507.90 0.9673231
508.00 0.9669149
508.10 0.9665069
508.20 0.9660993
508.30 0.9656918
508.40 0.9652846
508.50 0.9648777
508.60 0.964471
508.70 0.9640645
508.80 0.9636654
508.90 0.9632867
509.00 0.9629082
509.10 0.9625184
509.20 0.9621042
509.30 0.9616903
509.40 0.9612767
509.50 0.9608632
509.60 0.9604501
509.70 0.9600371
509.80 0.9596245
509.90 0.9592121
510.00 0.9587999
510.10 0.958388
510.20 0.9579763
510.30 0.9575699
510.40 0.9571779
510.50 0.9567862
510.60 0.9563947
510.70 0.9560035
510.80 0.9556124
510.90 0.9552216
511.00 0.9548311
511.10 0.9544408
511.20 0.9540507
511.30 0.9536608
511.40 0.9532712
511.50 0.9528818
511.60 0.9524882
511.70 0.9520853
511.80 0.9516828
511.90 0.9512804
512.00 0.9508783
512.10 0.9504764
512.20 0.9500748
512.30 0.9496745
512.40 0.9492777
512.50 0.948881
512.60 0.9484846
512.70 0.9480884
512.80 0.9476924
512.90 0.9472967
513.00 0.9469012
513.10 0.946506
513.20 0.946111
513.30 0.9457162
513.40 0.9453217
513.50 0.9449274
513.60 0.9445333
513.70 0.9441395
513.80 0.9437459
513.90 0.9433526
514.00 0.9429532
514.10 0.9425531
514.20 0.9421533
514.30 0.9417537
514.40 0.9413543
514.50 0.9409552
514.60 0.9405563
514.70 0.9401576
514.80 0.9397592
514.90 0.939361
515.00 0.9389631
515.10 0.9385654
515.20 0.9381679
515.30 0.9377707
515.40 0.9373737
515.50 0.936977
515.60 0.9365805
515.70 0.9361842
515.80 0.9357881
515.90 0.9353923
516.00 0.9349968
516.10 0.9346014
516.20 0.9342064
516.30 0.9338115
516.40 0.9334169
516.50 0.9330225
516.60 0.9326283
516.70 0.9322344
516.80 0.9318407
516.90 0.9314472
517.00 0.931054
517.10 0.930661
517.20 0.9302683
517.30 0.9298758
517.40 0.9294835
517.50 0.9290914
517.60 0.9286996
517.70 0.928308
517.80 0.9279167
517.90 0.9275255
518.00 0.9271347
518.10 0.926744
518.20 0.9263536
518.30 0.9259634
518.40 0.9255734
518.50 0.9251837
518.60 0.9247942
518.70 0.9244049
518.80 0.9240159
518.90 0.9236271
519.00 0.9232385
519.10 0.9228485
519.20 0.9224567
519.30 0.9220651
519.40 0.9216737
519.50 0.9212826
519.60 0.9208917
519.70 0.9205011
519.80 0.9201107
519.90 0.9197205
520.00 0.9193305
520.10 0.9189408
520.20 0.9185513
520.30 0.9181621
520.40 0.917773
520.50 0.9173842
520.60 0.9169957
520.70 0.9166074
520.80 0.9162193
520.90 0.9158314
521.00 0.9154437
521.10 0.9150563
521.20 0.9146691
521.30 0.9142822
521.40 0.9138955
521.50 0.913509
521.60 0.9131227
521.70 0.9127367
521.80 0.9123509
521.90 0.9119653
522.00 0.91158
522.10 0.9111948
522.20 0.9108099
522.30 0.9104253
522.40 0.9100408
522.50 0.9096566
522.60 0.9092727
522.70 0.9088889
522.80 0.9085054
522.90 0.9081221
523.00 0.907739
523.10 0.9073562
523.20 0.9069735
523.30 0.9065911
523.40 0.906209
523.50 0.905827
523.60 0.9054453
523.70 0.9050638
523.80 0.9046826
523.90 0.9043015
524.00 0.9039207
524.10 0.9035401
524.20 0.9031597
524.30 0.9027798
524.40 0.9024002
524.50 0.9020209
524.60 0.9016417
524.70 0.9012628
524.80 0.9008842
524.90 0.9005057
525.00 0.9001275
525.10 0.8997495
525.20 0.8993717
525.30 0.8989941
525.40 0.8986168
525.50 0.8982397
525.60 0.8978628
525.70 0.8974861
525.80 0.8971096
525.90 0.8967334
526.00 0.8963574
526.10 0.8959816
526.20 0.895606
526.30 0.8952307
526.40 0.8948556
526.50 0.8944807
526.60 0.894106
526.70 0.8937315
526.80 0.8933573
526.90 0.8929832
527.00 0.8926094
527.10 0.8922358
527.20 0.8918625
527.30 0.8914893
527.40 0.8911164
527.50 0.8907437
527.60 0.8903712
527.70 0.8899989
527.80 0.8896268
527.90 0.889255
528.00 0.8888834
528.10 0.888512
528.20 0.8881408
528.30 0.8877698
528.40 0.8873991
528.50 0.8870285
528.60 0.8866582
528.70 0.8862881
528.80 0.8859182
528.90 0.8855486
529.00 0.8851791
529.10 0.8848099
529.20 0.8844408
529.30 0.884072
529.40 0.8837035
529.50 0.8833335
529.60 0.8829543
529.70 0.8825753
529.80 0.8821965
529.90 0.881818
530.00 0.8814396
530.10 0.8810615
530.20 0.8806837
530.30 0.880306
530.40 0.8799285
530.50 0.8795513
530.60 0.8791743
530.70 0.8787976
530.80 0.878421
530.90 0.8780447
531.00 0.8776686
531.10 0.8772927
531.20 0.876917
531.30 0.8765416
531.40 0.8761663
531.50 0.8757913
531.60 0.8754165
531.70 0.875042
531.80 0.8746676
531.90 0.8742935
532.00 0.8739196
532.10 0.8735459
532.20 0.8731774
532.30 0.8728116
532.40 0.8724461
532.50 0.8720808
532.60 0.8717157
532.70 0.8713508
532.80 0.8709862
532.90 0.8706217
533.00 0.8702575
533.10 0.8698934
533.20 0.8695296
533.30 0.869166
533.40 0.8688026
533.50 0.8684394
533.60 0.8680765
533.70 0.8677137
533.80 0.8673511
533.90 0.8669888
534.00 0.8666267
534.10 0.8662647
534.20 0.865903
534.30 0.8655415
534.40 0.8651802
534.50 0.8648192
534.60 0.8644583
534.70 0.8640976
534.80 0.8637358
534.90 0.8633686
535.00 0.8630015
535.10 0.8626347
535.20 0.8622681
535.30 0.8619017
535.40 0.8615355
535.50 0.8611695
535.60 0.8608038
535.70 0.8604382
535.80 0.8600729
535.90 0.8597078
536.00 0.8593429
536.10 0.8589782
536.20 0.8586137
536.30 0.8582494
536.40 0.8578854
536.50 0.8575215
536.60 0.8571579
536.70 0.8567945
536.80 0.8564312
536.90 0.8560682
537.00 0.8557054
537.10 0.8553429
537.20 0.8549805
537.30 0.8546183
537.40 0.8542564
537.50 0.8538946
537.60 0.8535331
537.70 0.8531718
537.80 0.8528107
537.90 0.8524498
538.00 0.8520891
538.10 0.8517286
538.20 0.8513683
538.30 0.8510083
538.40 0.8506484
538.50 0.8502888
538.60 0.8499293
538.70 0.8495701
538.80 0.8492111
538.90 0.8488523
539.00 0.8484937
539.10 0.8481353
539.20 0.8477771
539.30 0.8474191
539.40 0.8470613
539.50 0.8467038
539.60 0.8463464
539.70 0.8459892
539.80 0.8456323
539.90 0.8452756
540.00 0.844919
540.10 0.8445627
540.20 0.8442069
540.30 0.8438514
540.40 0.8434961
540.50 0.843141
540.60 0.8427861
540.70 0.8424315
540.80 0.842077
540.90 0.8417227
541.00 0.8413687
541.10 0.8410148
541.20 0.8406612
541.30 0.8403077
541.40 0.8399545
541.50 0.8396014
541.60 0.8392486
541.70 0.838896
541.80 0.8385435
541.90 0.8381913
542.00 0.8378393
542.10 0.8374875
542.20 0.8371359
542.30 0.8367844
542.40 0.8364332
542.50 0.8360822
542.60 0.8357314
542.70 0.8353808
542.80 0.8350304
542.90 0.8346802
543.00 0.8343302
543.10 0.8339804
543.20 0.8336308
543.30 0.8332814
543.40 0.8329322
543.50 0.8325832
543.60 0.8322344
543.70 0.8318858
543.80 0.8315374
543.90 0.8311892
544.00 0.8308412
544.10 0.8304934
544.20 0.8301458
544.30 0.8297984
544.40 0.8294512
544.50 0.8291042
544.60 0.8287574
544.70 0.8284108
544.80 0.8280644
544.90 0.8277182
545.00 0.8273722
545.10 0.8270264
545.20 0.8266808
545.30 0.8263353
545.40 0.8259901
545.50 0.8256451
545.60 0.8252957
545.70 0.8249445
545.80 0.8245936
545.90 0.8242428
546.00 0.8238923
546.10 0.8235419
546.20 0.8231918
546.30 0.8228418
546.40 0.8224921
546.50 0.8221426
546.60 0.8217932
546.70 0.8214441
546.80 0.8210951
546.90 0.8207464
547.00 0.8203978
547.10 0.8200495
547.20 0.8197014
547.30 0.8193534
547.40 0.8190057
547.50 0.8186581
547.60 0.8183108
547.70 0.8179636
547.80 0.8176167
547.90 0.8172699
548.00 0.8169234
548.10 0.816577
548.20 0.8162309
548.30 0.8158878
548.40 0.8155489
548.50 0.8152102
548.60 0.8148717
548.70 0.8145334
548.80 0.8141953
548.90 0.8138574
549.00 0.8135197
549.10 0.8131821
549.20 0.8128448
549.30 0.8125076
549.40 0.8121707
549.50 0.8118339
549.60 0.8114973
549.70 0.811161
549.80 0.8108248
549.90 0.8104888
550.00 0.8101529
550.10 0.8098173
550.20 0.8094819
550.30 0.8091466
550.40 0.8088116
550.50 0.8084767
550.60 0.8081421
550.70 0.8078076
550.80 0.8074733
550.90 0.8071392
551.00 0.8068043
551.10 0.8064642
551.20 0.8061244
551.30 0.8057847
551.40 0.8054452
551.50 0.8051059
551.60 0.8047668
551.70 0.8044279
551.80 0.8040892
551.90 0.8037507
552.00 0.8034124
552.10 0.8030742
552.20 0.8027363
552.30 0.8023985
552.40 0.802061
552.50 0.8017236
552.60 0.8013864
552.70 0.8010494
552.80 0.8007127
552.90 0.800376
553.00 0.8000396
553.10 0.7997034
553.20 0.7993674
553.30 0.7990316
553.40 0.7986959
553.50 0.7983605
553.60 0.7980252
553.70 0.7976901
553.80 0.7973552
553.90 0.7970205
554.00 0.796686
554.10 0.7963517
554.20 0.7960176
554.30 0.7956836
554.40 0.7953499
554.50 0.7950163
554.60 0.794683
554.70 0.7943498
554.80 0.7940168
554.90 0.793684
555.00 0.7933514
555.10 0.7930189
555.20 0.7926867
555.30 0.7923546
555.40 0.7920228
555.50 0.7916911
555.60 0.7913596
555.70 0.7910283
555.80 0.7906972
555.90 0.7903662
556.00 0.7900355
556.10 0.7897049
556.20 0.7893746
556.30 0.7890444
556.40 0.7887144
556.50 0.7883843
556.60 0.7880486
556.70 0.787713
556.80 0.7873777
556.90 0.7870425
557.00 0.7867076
557.10 0.7863728
557.20 0.7860382
557.30 0.7857038
557.40 0.7853696
557.50 0.7850356
557.60 0.7847018
557.70 0.7843681
557.80 0.7840347
557.90 0.7837014
558.00 0.7833683
558.10 0.7830355
558.20 0.7827028
558.30 0.7823703
558.40 0.7820379
558.50 0.7817058
558.60 0.7813739
558.70 0.7810421
558.80 0.7807105
558.90 0.7803792
559.00 0.780048
559.10 0.779717
559.20 0.7793861
559.30 0.7790555
559.40 0.7787251
559.50 0.7783948
559.60 0.7780647
559.70 0.7777348
559.80 0.7774051
559.90 0.7770756
560.00 0.7767463
560.10 0.7764171
560.20 0.7760882
560.30 0.7757594
560.40 0.7754308
560.50 0.7751024
560.60 0.7747742
560.70 0.7744462
560.80 0.7741183
560.90 0.7737907
561.00 0.7734632
561.10 0.7731359
561.20 0.7728088
561.30 0.7724818
561.40 0.7721551
561.50 0.7718285
561.60 0.7715022
561.70 0.771176
561.80 0.77085
561.90 0.7705241
562.00 0.7701985
562.10 0.7698758
562.20 0.7695574
562.30 0.7692392
562.40 0.7689211
562.50 0.7686033
562.60 0.7682856
562.70 0.7679681
562.80 0.7676507
562.90 0.7673336
563.00 0.7670166
563.10 0.7666998
563.20 0.7663832
563.30 0.7660668
563.40 0.7657505
563.50 0.7654344
563.60 0.7651185
563.70 0.7648027
563.80 0.7644872
563.90 0.7641718
564.00 0.7638566
564.10 0.7635415
564.20 0.7632267
564.30 0.762912
564.40 0.7625975
564.50 0.7622831
564.60 0.761969
564.70 0.761655
564.80 0.7613412
564.90 0.7610257
565.00 0.7607059
565.10 0.7603863
565.20 0.7600669
565.30 0.7597476
565.40 0.7594286
565.50 0.7591097
565.60 0.758791
565.70 0.7584724
565.80 0.7581541
565.90 0.7578359
566.00 0.7575179
566.10 0.7572001
566.20 0.7568824
566.30 0.7565649
566.40 0.7562476
566.50 0.7559305
566.60 0.7556136
566.70 0.7552968
566.80 0.7549802
566.90 0.7546638
567.00 0.7543476
567.10 0.7540315
567.20 0.7537157
567.30 0.7534
567.40 0.7530844
567.50 0.7527691
567.60 0.7524539
567.70 0.7521384
567.80 0.751821
567.90 0.7515037
568.00 0.7511867
568.10 0.7508698
568.20 0.7505531
568.30 0.7502366
568.40 0.7499202
568.50 0.749604
568.60 0.749288
568.70 0.7489722
568.80 0.7486565
568.90 0.7483411
569.00 0.7480258
569.10 0.7477106
569.20 0.7473957
569.30 0.7470809
569.40 0.7467663
569.50 0.7464519
569.60 0.7461376
569.70 0.7458236
569.80 0.7455097
569.90 0.7451959
570.00 0.7448824
570.10 0.744569
570.20 0.7442558
570.30 0.7439428
570.40 0.7436299
570.50 0.7433172
570.60 0.7430047
570.70 0.7426924
570.80 0.7423802
570.90 0.7420682
571.00 0.7417564
571.10 0.7414448
571.20 0.7411333
571.30 0.740822
571.40 0.7405109
571.50 0.7401999
571.60 0.7398891
571.70 0.7395785
571.80 0.7392681
571.90 0.7389578
572.00 0.7386477
572.10 0.7383378
572.20 0.738028
572.30 0.7377185
572.40 0.7374091
572.50 0.7370998
572.60 0.7367908
572.70 0.7364819
572.80 0.7361731
572.90 0.7358646
573.00 0.7355562
573.10 0.735248
573.20 0.7349399
573.30 0.7346321
573.40 0.7343237
573.50 0.7340145
573.60 0.7337054
573.70 0.7333965
573.80 0.7330878
573.90 0.7327793
574.00 0.732471
574.10 0.7321628
574.20 0.7318547
574.30 0.7315469
574.40 0.7312392
574.50 0.7309317
574.60 0.7306244
574.70 0.7303172
574.80 0.7300102
574.90 0.7297034
575.00 0.7293967
575.10 0.7290902
575.20 0.7287839
575.30 0.7284777
575.40 0.7281718
575.50 0.7278659
575.60 0.7275603
575.70 0.7272548
575.80 0.7269495
575.90 0.7266444
576.00 0.7263394
576.10 0.7260346
576.20 0.7257299
576.30 0.7254255
576.40 0.7251212
576.50 0.724817
576.60 0.7245131
576.70 0.7242093
576.80 0.7239056
576.90 0.7236022
577.00 0.7232989
577.10 0.7229957
577.20 0.7226928
577.30 0.72239
577.40 0.7220873
577.50 0.7217849
577.60 0.7214856
577.70 0.7211916
577.80 0.7208976
577.90 0.7206039
578.00 0.7203103
578.10 0.7200169
578.20 0.7197236
578.30 0.7194305
578.40 0.7191375
578.50 0.7188448
578.60 0.7185521
578.70 0.7182597
578.80 0.7179673
578.90 0.7176752
579.00 0.7173832
579.10 0.7170906
579.20 0.716791
579.30 0.7164915
579.40 0.7161922
579.50 0.715893
579.60 0.715594
579.70 0.7152952
579.80 0.7149965
579.90 0.714698
580.00 0.7143996
580.10 0.7140988
580.20 0.7137939
580.30 0.7134892
580.40 0.7131846
580.50 0.7128802
580.60 0.712576
580.70 0.7122719
580.80 0.711968
580.90 0.7116642
581.00 0.7113607
581.10 0.7110573
581.20 0.710754
581.30 0.7104509
581.40 0.710148
581.50 0.7098453
581.60 0.7095427
581.70 0.7092403
581.80 0.7089381
581.90 0.708636
582.00 0.7083341
582.10 0.7080376
582.20 0.70775
582.30 0.7074624
582.40 0.7071751
582.50 0.7068878
582.60 0.7066008
582.70 0.7063139
582.80 0.7060271
582.90 0.7057405
583.00 0.7054541
583.10 0.7051678
583.20 0.7048817
583.30 0.7045957
583.40 0.7043099
583.50 0.7040242
583.60 0.7037316
583.70 0.7034277
583.80 0.7031239
583.90 0.7028203
584.00 0.7025168
584.10 0.7022135
584.20 0.7019104
584.30 0.7016075
584.40 0.7013047
584.50 0.701002
584.60 0.7006996
584.70 0.7003973
584.80 0.7000952
584.90 0.6997938
585.00 0.6994956
585.10 0.6991976
585.20 0.6989033
585.30 0.6986149
585.40 0.6983268
585.50 0.6980388
585.60 0.697751
585.70 0.6974633
585.80 0.6971758
585.90 0.6968884
586.00 0.6966012
586.10 0.6963141
586.20 0.6960251
586.30 0.6957329
586.40 0.6954409
586.50 0.6951489
586.60 0.6948572
586.70 0.6945656
586.80 0.6942794
586.90 0.6940018
587.00 0.6937243
587.10 0.693447
587.20 0.6931543
587.30 0.6928363
587.40 0.6925496
587.50 0.6923139
587.60 0.6920783
587.70 0.6916791
587.80 0.6914127
587.90 0.6910957
588.00 0.6907944
588.10 0.6905187
588.20 0.6902431
588.30 0.6899676
588.40 0.6896871
588.50 0.6893983
588.60 0.6891097
588.70 0.6888212
588.80 0.6885329
588.90 0.6882448
589.00 0.6879588
589.10 0.6876764
589.20 0.6873942
589.30 0.6871121
589.40 0.6868301
589.50 0.6865483
589.60 0.6862666
589.70 0.6859851
589.80 0.6857038
589.90 0.6854226
590.00 0.685136
590.10 0.6848405
590.20 0.6845451
590.30 0.6842499
590.40 0.6839549
590.50 0.68366
590.60 0.6833653
590.70 0.6830707
590.80 0.682793
590.90 0.6825229
591.00 0.682253
591.10 0.6819833
591.20 0.6817137
591.30 0.6814442
591.40 0.6811749
591.50 0.6809057
591.60 0.6806309
591.70 0.6803471
591.80 0.6800634
591.90 0.6797798
592.00 0.6794964
592.10 0.6792131
592.20 0.6789301
592.30 0.6786471
592.40 0.6783643
592.50 0.6780817
592.60 0.6777992
592.70 0.6775168
592.80 0.6772347
592.90 0.6769526
593.00 0.6766707
593.10 0.676388
593.20 0.6761037
593.30 0.6758196
593.40 0.6755357
593.50 0.6752519
593.60 0.6749682
593.70 0.6746848
593.80 0.6744014
593.90 0.6741182
594.00 0.6738352
594.10 0.6735523
594.20 0.6732696
594.30 0.672987
594.40 0.6727046
594.50 0.6724223
594.60 0.6721402
594.70 0.6718582
594.80 0.6715764
594.90 0.6712947
595.00 0.6710132
595.10 0.6707338
595.20 0.6704579
595.30 0.670182
595.40 0.6699063
595.50 0.6696308
595.60 0.6693554
595.70 0.6690801
595.80 0.668805
595.90 0.6685301
596.00 0.6682553
596.10 0.6679806
596.20 0.6677061
596.30 0.6674317
596.40 0.6671575
596.50 0.6668834
596.60 0.6666095
596.70 0.666335
596.80 0.6660601
596.90 0.6657855
597.00 0.665511
597.10 0.6652366
597.20 0.6649623
597.30 0.6646883
597.40 0.6644143
597.50 0.6641405
597.60 0.6638657
597.70 0.6635889
597.80 0.6633123
597.90 0.6630358
598.00 0.6627595
598.10 0.6624834
598.20 0.6622074
598.30 0.6619315
598.40 0.6616558
598.50 0.6613802
598.60 0.6611048
598.70 0.6608295
598.80 0.6605544
598.90 0.6602794
599.00 0.6600046
599.10 0.6597299
599.20 0.6594554
599.30 0.659181
599.40 0.658906
599.50 0.6586311
599.60 0.6583564
599.70 0.6580818
599.80 0.6578074
599.90 0.6575332
600.00 0.657259
600.10 0.6569851
600.20 0.6567112
600.30 0.6564376
600.40 0.656164
600.50 0.6558906
600.60 0.6556174
600.70 0.6553443
600.80 0.6550713
600.90 0.6547985
601.00 0.6545259
601.10 0.6542533
601.20 0.653981
601.30 0.6537087
601.40 0.6534315
601.50 0.6531544
601.60 0.6528774
601.70 0.6526006
601.80 0.6523239
601.90 0.6520474
602.00 0.651771
602.10 0.6514948
602.20 0.6512187
602.30 0.6509428
602.40 0.650667
602.50 0.6503914
602.60 0.6501159
602.70 0.6498972
602.80 0.6496816
602.90 0.6494077
603.00 0.6491341
603.10 0.6488605
603.20 0.6485871
603.30 0.6483139
603.40 0.6480408
603.50 0.6477679
603.60 0.6474951
603.70 0.6472224
603.80 0.6469499
603.90 0.6466775
604.00 0.6464053
604.10 0.6461332
604.20 0.6458613
604.30 0.6455895
604.40 0.6453179
604.50 0.645058
604.60 0.6447982
604.70 0.6445386
604.80 0.6442791
604.90 0.6440197
605.00 0.6437605
605.10 0.6435014
605.20 0.6432425
605.30 0.6429837
605.40 0.642725
605.50 0.6424613
605.60 0.6421978
605.70 0.6419344
605.80 0.6416711
605.90 0.641408
606.00 0.641145
606.10 0.6408566
606.20 0.6405682
606.30 0.64028
606.40 0.639992
606.50 0.6397042
606.60 0.6394164
606.70 0.6392057
606.80 0.638995
606.90 0.638631
607.00 0.6384206
607.10 0.6381336
607.20 0.6378467
607.30 0.6375984
607.40 0.6373501
607.50 0.637102
607.60 0.6368541
607.70 0.6365935
607.80 0.636333
607.90 0.6360727
608.00 0.6358125
608.10 0.6355524
608.20 0.6352925
608.30 0.6350127
608.40 0.6347331
608.50 0.6344537
608.60 0.6341744
608.70 0.6339071
608.80 0.6336452
608.90 0.6333835
609.00 0.633122
609.10 0.6328605
609.20 0.6325993
609.30 0.6323345
609.40 0.6320699
609.50 0.6318055
609.60 0.6315412
609.70 0.631277
609.80 0.631013
609.90 0.6307491
610.00 0.6304853
610.10 0.6302217
610.20 0.6299582
610.30 0.6296949
610.40 0.6294317
610.50 0.6291686
610.60 0.6289057
610.70 0.6286429
610.80 0.6283802
610.90 0.628124
611.00 0.627868
611.10 0.627612
611.20 0.6273562
611.30 0.6271006
611.40 0.6268451
611.50 0.6265897
611.60 0.6263344
611.70 0.6260793
611.80 0.6258243
611.90 0.6255694
612.00 0.6253147
612.10 0.6250601
612.20 0.6248056
612.30 0.6245513
612.40 0.6242946
612.50 0.624038
612.60 0.6237816
612.70 0.6235253
612.80 0.6232691
612.90 0.6230131
613.00 0.6227571
613.10 0.6225014
613.20 0.6222457
613.30 0.6219902
613.40 0.6217349
613.50 0.6214796
613.60 0.6212245
613.70 0.6209696
613.80 0.6207147
613.90 0.62046
614.00 0.6202054
614.10 0.619951
614.20 0.6196967
614.30 0.6194425
614.40 0.6191691
614.50 0.6188958
614.60 0.6186226
614.70 0.6183496
614.80 0.6180945
614.90 0.6178433
615.00 0.6175921
615.10 0.6173411
615.20 0.6170903
615.30 0.6168395
615.40 0.6165889
615.50 0.6163384
615.60 0.6160881
615.70 0.6158378
615.80 0.6155878
615.90 0.6153378
616.00 0.615088
616.10 0.6148382
616.20 0.6145887
616.30 0.6143392
616.40 0.6140899
616.50 0.6138407
616.60 0.6135917
616.70 0.6133427
616.80 0.6130939
616.90 0.6128404
617.00 0.6125869
617.10 0.6123336
617.20 0.6120804
617.30 0.6118274
617.40 0.6115745
617.50 0.6113217
617.60 0.611069
617.70 0.6108165
617.80 0.6105641
617.90 0.6103119
618.00 0.6100597
618.10 0.6098077
618.20 0.6095559
618.30 0.6093041
618.40 0.6090525
618.50 0.6088011
618.60 0.6085497
618.70 0.6082985
618.80 0.6080474
618.90 0.6077965
619.00 0.6075457
619.10 0.607295
619.20 0.6070444
619.30 0.606794
619.40 0.6065437
619.50 0.6062935
619.60 0.6060435
619.70 0.6057936
619.80 0.6055438
619.90 0.6052941
620.00 0.6050446
620.10 0.6047952
620.20 0.604546
620.30 0.6042968
620.40 0.6040478
620.50 0.6037989
620.60 0.6035502
620.70 0.6033016
620.80 0.6030531
620.90 0.6028047
621.00 0.6025562
621.10 0.6023079
621.20 0.6020598
621.30 0.6018117
621.40 0.6015638
621.50 0.601316
621.60 0.6010684
621.70 0.6008209
621.80 0.6005735
621.90 0.6003262
622.00 0.600079
622.10 0.599832
622.20 0.5995851
622.30 0.5993384
622.40 0.5990918
622.50 0.5988453
622.60 0.5985989
622.70 0.5983526
622.80 0.5981065
622.90 0.5978605
623.00 0.5976146
623.10 0.5973689
623.20 0.5971233
623.30 0.5968778
623.40 0.5966324
623.50 0.5963872
623.60 0.5961421
623.70 0.5958971
623.80 0.5956523
623.90 0.5954075
624.00 0.5951629
624.10 0.5949185
624.20 0.5946741
624.30 0.5944299
624.40 0.5941858
624.50 0.5939418
624.60 0.593698
624.70 0.5934543
624.80 0.5932107
624.90 0.5929672
625.00 0.5927239
625.10 0.5924806
625.20 0.5922376
625.30 0.5919946
625.40 0.5917517
625.50 0.591509
625.60 0.5912664
625.70 0.591024
625.80 0.5907816
625.90 0.5905394
626.00 0.5902973
626.10 0.5900554
626.20 0.5898135
626.30 0.5895718
626.40 0.5893302
626.50 0.5890887
626.60 0.5888474
626.70 0.5886062
626.80 0.5883651
626.90 0.5881241
627.00 0.5878832
627.10 0.587642
627.20 0.5873996
627.30 0.5871574
627.40 0.5869153
627.50 0.5866733
627.60 0.5864314
627.70 0.5861896
627.80 0.585948
627.90 0.5857065
628.00 0.5854651
628.10 0.5852238
628.20 0.5849827
628.30 0.5847417
628.40 0.5845008
628.50 0.58426
628.60 0.5840194
628.70 0.5837789
628.80 0.5835385
628.90 0.5832982
629.00 0.5830581
629.10 0.5828181
629.20 0.5825782
629.30 0.5823384
629.40 0.5820987
629.50 0.5818592
629.60 0.5816198
629.70 0.5813805
629.80 0.5811413
629.90 0.5809023
630.00 0.5806634
630.10 0.5804246
630.20 0.5801859
630.30 0.5799474
630.40 0.579709
630.50 0.5794707
630.60 0.5792325
630.70 0.5789945
630.80 0.5787565
630.90 0.5785187
631.00 0.5782811
631.10 0.5780435
631.20 0.5778061
631.30 0.5775687
631.40 0.5773315
631.50 0.5770945
631.60 0.5768575
631.70 0.5766207
631.80 0.576384
631.90 0.5761474
632.00 0.5759109
632.10 0.5756746
632.20 0.5754383
632.30 0.5752022
632.40 0.5749663
632.50 0.5747304
632.60 0.5744946
632.70 0.574259
632.80 0.5740235
632.90 0.5737881
633.00 0.5735529
633.10 0.5733177
633.20 0.5730827
633.30 0.5728478
633.40 0.5726133
633.50 0.5723791
633.60 0.5721451
633.70 0.5719112
633.80 0.5716774
633.90 0.5714437
634.00 0.5712102
634.10 0.5709767
634.20 0.5707434
634.30 0.5705102
634.40 0.5702771
634.50 0.5700442
634.60 0.5698113
634.70 0.5695786
634.80 0.569346
634.90 0.5691135
635.00 0.5688811
635.10 0.5686489
635.20 0.5684167
635.30 0.5681847
635.40 0.5679528
635.50 0.567721
635.60 0.5674894
635.70 0.5672578
635.80 0.5670264
635.90 0.5667951
636.00 0.5665639
636.10 0.5663328
636.20 0.5661018
636.30 0.565871
636.40 0.5656403
636.50 0.5654097
636.60 0.5651792
636.70 0.5649488
636.80 0.5647186
636.90 0.5644885
637.00 0.5642584
637.10 0.5640286
637.20 0.5637988
637.30 0.5635691
637.40 0.5633396
637.50 0.5631101
637.60 0.5628808
637.70 0.5626516
637.80 0.5624226
637.90 0.5621936
638.00 0.5619648
638.10 0.561736
638.20 0.5615074
638.30 0.5612789
638.40 0.5610505
638.50 0.5608223
638.60 0.5605941
638.70 0.5603661
638.80 0.5601382
638.90 0.5599104
639.00 0.5596827
639.10 0.5594551
639.20 0.5592276
639.30 0.5590003
639.40 0.558773
639.50 0.5585459
639.60 0.5583189
639.70 0.5580922
639.80 0.5578659
639.90 0.5576398
640.00 0.5574138
640.10 0.5571879
640.20 0.5569621
640.30 0.5567364
640.40 0.5565108
640.50 0.5562854
640.60 0.55606
640.70 0.5558348
640.80 0.5556097
640.90 0.5553847
641.00 0.5551598
641.10 0.554935
641.20 0.5547104
641.30 0.5544858
641.40 0.5542614
641.50 0.5540371
641.60 0.5538129
641.70 0.5535888
641.80 0.5533648
641.90 0.5531409
642.00 0.5529172
642.10 0.5526935
642.20 0.55247
642.30 0.5522466
642.40 0.5520233
642.50 0.5518001
642.60 0.551577
642.70 0.5513541
642.80 0.5511312
642.90 0.5509074
643.00 0.5506805
643.10 0.5504537
643.20 0.550227
643.30 0.5500004
643.40 0.549774
643.50 0.5495476
643.60 0.5493214
643.70 0.5490952
643.80 0.5488692
643.90 0.5486433
644.00 0.5484176
644.10 0.5481919
644.20 0.5479663
644.30 0.5477409
644.40 0.5475156
644.50 0.5472903
644.60 0.5470652
644.70 0.5468403
644.80 0.5466154
644.90 0.5463906
645.00 0.546166
645.10 0.5459414
645.20 0.545717
645.30 0.5454927
645.40 0.5452685
645.50 0.5450444
645.60 0.5448205
645.70 0.5445966
645.80 0.5443729
645.90 0.5441492
646.00 0.5439257
646.10 0.5437035
646.20 0.543485
646.30 0.5432665
646.40 0.5430482
646.50 0.5428299
646.60 0.5426118
646.70 0.5423938
646.80 0.5421759
646.90 0.5419581
647.00 0.5417404
647.10 0.5415228
647.20 0.5413054
647.30 0.541088
647.40 0.5408708
647.50 0.5406536
647.60 0.5404366
647.70 0.5402196
647.80 0.5400028
647.90 0.5397861
648.00 0.5395695
648.10 0.539353
648.20 0.5391366
648.30 0.5389203
648.40 0.5387042
648.50 0.5384881
648.60 0.5382721
648.70 0.5380563
648.80 0.5378405
648.90 0.5376249
649.00 0.5374094
649.10 0.537194
649.20 0.5369787
649.30 0.5367634
649.40 0.5365444
649.50 0.5363253
649.60 0.5361062
649.70 0.5358873
649.80 0.5356685
649.90 0.5354499
650.00 0.5352313
650.10 0.5350128
650.20 0.5347945
650.30 0.5345762
650.40 0.5343581
650.50 0.53414
650.60 0.5339221
650.70 0.5337043
650.80 0.5334866
650.90 0.533269
651.00 0.5330515
651.10 0.5328341
651.20 0.5326169
651.30 0.5323997
651.40 0.5321826
651.50 0.5319657
651.60 0.5317489
651.70 0.5315321
651.80 0.5313155
651.90 0.531099
652.00 0.5308826
652.10 0.5306663
652.20 0.5304501
652.30 0.530234
652.40 0.530018
652.50 0.5298022
652.60 0.5295884
652.70 0.5293758
652.80 0.5291634
652.90 0.528951
653.00 0.5287387
653.10 0.5285266
653.20 0.5283145
653.30 0.5281026
653.40 0.5278907
653.50 0.527679
653.60 0.5274674
653.70 0.5272559
653.80 0.5270444
653.90 0.5268331
654.00 0.5266219
654.10 0.5264108
654.20 0.5261998
654.30 0.5259889
654.40 0.5257781
654.50 0.5255674
654.60 0.5253568
654.70 0.5251464
654.80 0.524936
654.90 0.5247257
655.00 0.5245156
655.10 0.5243055
655.20 0.5240955
655.30 0.5238857
655.40 0.5236759
655.50 0.5234663
655.60 0.5232567
655.70 0.5230473
655.80 0.5228352
655.90 0.5226232
656.00 0.5224114
656.10 0.5221996
656.20 0.5219879
656.30 0.5217764
656.40 0.5215649
656.50 0.5213536
656.60 0.5211423
656.70 0.5209312
656.80 0.5207202
656.90 0.5205092
657.00 0.5202984
657.10 0.5200877
657.20 0.5198771
657.30 0.5196666
657.40 0.5194562
657.50 0.5192459
657.60 0.5190357
657.70 0.5188256
657.80 0.5185542
657.90 0.518335
658.00 0.518125
658.10 0.5179151
658.20 0.5177054
658.30 0.5174957
658.40 0.5172861
658.50 0.5170767
658.60 0.5168673
658.70 0.5166581
658.80 0.5164489
658.90 0.5162399
659.00 0.516031
659.10 0.515843
659.20 0.5156865
659.30 0.5154718
659.40 0.5152571
659.50 0.5150426
659.60 0.5148282
659.70 0.5146139
659.80 0.5143997
659.90 0.5141856
660.00 0.5139716
660.10 0.5137577
660.20 0.5135439
660.30 0.5133302
660.40 0.5131206
660.50 0.5129118
660.60 0.5127031
660.70 0.5124945
660.80 0.512286
660.90 0.5120793
661.00 0.5118726
661.10 0.511666
661.20 0.5114595
661.30 0.5112531
661.40 0.5110469
661.50 0.5108407
661.60 0.5106346
661.70 0.5104286
661.80 0.5102228
661.90 0.5100185
662.00 0.5098143
662.10 0.5096103
662.20 0.5094063
662.30 0.5092024
662.40 0.5090412
662.50 0.5088231
662.60 0.5086052
662.70 0.5083873
662.80 0.5081696
662.90 0.5080163
663.00 0.507863
663.10 0.5075813
663.20 0.5074283
663.30 0.5071468
663.40 0.5069939
663.50 0.5067769
663.60 0.50656
663.70 0.5063476
663.80 0.5061354
663.90 0.505974
664.00 0.5058216
664.10 0.5056052
664.20 0.5053889
664.30 0.5051727
664.40 0.5049566
664.50 0.5047406
664.60 0.5045248
664.70 0.5043259
664.80 0.5041271
664.90 0.5039284
665.00 0.5037298
665.10 0.5035313
665.20 0.5033329
665.30 0.5031345
665.40 0.5029363
665.50 0.5027195
665.60 0.5024995
665.70 0.502324
665.80 0.502123
665.90 0.5019222
666.00 0.5017214
666.10 0.5015207
666.20 0.5013202
666.30 0.5011197
666.40 0.5009193
666.50 0.5007255
666.60 0.5005329
666.70 0.5003403
666.80 0.5001479
666.90 0.4999555
667.00 0.4997633
667.10 0.4995487
667.20 0.4993304
667.30 0.4991217
667.40 0.4989131
667.50 0.4987008
667.60 0.498488
667.70 0.4983292
667.80 0.4980532
667.90 0.4979041
668.00 0.497755
668.10 0.4975522
668.20 0.49734
668.30 0.4971279
668.40 0.4969158
668.50 0.4967039
668.60 0.4964921
668.70 0.4963342
668.80 0.4961367
668.90 0.4959393
669.00 0.495742
669.10 0.4955448
669.20 0.4953477
669.30 0.4951494
669.40 0.494951
669.50 0.4947527
669.60 0.4945545
669.70 0.4943564
669.80 0.4941584
669.90 0.4939605
670.00 0.4937627
670.10 0.493565
670.20 0.4933673
670.30 0.4931685
670.40 0.4929695
670.50 0.4927706
670.60 0.4925718
670.70 0.4923731
670.80 0.49217
670.90 0.491967
671.00 0.4917641
671.10 0.4915612
671.20 0.4913585
671.30 0.4911559
671.40 0.4909533
671.50 0.4907509
671.60 0.4905486
671.70 0.4903463
671.80 0.4901442
671.90 0.4899466
672.00 0.4897499
672.10 0.4895533
672.20 0.4893568
672.30 0.4891604
672.40 0.4889723
672.50 0.4887849
672.60 0.4885976
672.70 0.4884104
672.80 0.4882232
672.90 0.4880362
673.00 0.4878492
673.10 0.4876624
673.20 0.4874756
673.30 0.4872224
673.40 0.487019
673.50 0.4868246
673.60 0.4866302
673.70 0.4864359
673.80 0.4862417
673.90 0.4860476
674.00 0.4858537
674.10 0.4856598
674.20 0.4854659
674.30 0.4852722
674.40 0.4850786
674.50 0.4848851
674.60 0.4846917
674.70 0.4844983
674.80 0.4843051
674.90 0.4841119
675.00 0.4839189
675.10 0.4837259
675.20 0.483533
675.30 0.4833402
675.40 0.4831476
675.50 0.482955
675.60 0.4827625
675.70 0.48257
675.80 0.4823777
675.90 0.4821855
676.00 0.4819934
676.10 0.4818013
676.20 0.4816094
676.30 0.4814175
676.40 0.4812258
676.50 0.4810341
676.60 0.4808425
676.70 0.4806511
676.80 0.4804597
676.90 0.4802684
677.00 0.4800772
677.10 0.479886
677.20 0.479695
677.30 0.4795041
677.40 0.4793132
677.50 0.4791225
677.60 0.4789318
677.70 0.4787413
677.80 0.4785508
677.90 0.4783592
678.00 0.4781675
678.10 0.4779759
678.20 0.4777844
678.30 0.4775929
678.40 0.4774016
678.50 0.4772104
678.60 0.4770192
678.70 0.4768281
678.80 0.4766372
678.90 0.4764463
679.00 0.4762555
679.10 0.4760647
679.20 0.475874
679.30 0.4756834
679.40 0.4754929
679.50 0.4753025
679.60 0.4751121
679.70 0.4749219
679.80 0.4747317
679.90 0.4745416
680.00 0.4743517
680.10 0.4741618
680.20 0.473972
680.30 0.4737823
680.40 0.4735927
680.50 0.4734032
680.60 0.4732137
680.70 0.4730244
680.80 0.4728351
680.90 0.472646
681.00 0.4724569
681.10 0.4722679
681.20 0.4720791
681.30 0.4718903
681.40 0.4717016
681.50 0.471513
681.60 0.4713244
681.70 0.471136
681.80 0.4709477
681.90 0.4707594
682.00 0.4705712
682.10 0.4703832
682.20 0.4701952
682.30 0.4700073
682.40 0.4698195
682.50 0.4696318
682.60 0.4694442
682.70 0.4692566
682.80 0.4690692
682.90 0.4688818
683.00 0.4686946
683.10 0.4685074
683.20 0.4683203
683.30 0.4681333
683.40 0.4679464
683.50 0.4677596
683.60 0.4675729
683.70 0.4673862
683.80 0.4671997
683.90 0.4670132
684.00 0.4668269
684.10 0.4666406
684.20 0.4664544
684.30 0.4662683
684.40 0.4660823
684.50 0.4658963
684.60 0.4657105
684.70 0.4655247
684.80 0.4653391
684.90 0.4651535
685.00 0.464968
685.10 0.4647826
685.20 0.4645973
685.30 0.4644121
685.40 0.464227
685.50 0.4640419
685.60 0.463857
685.70 0.4636721
685.80 0.4634874
685.90 0.4633031
686.00 0.463119
686.10 0.4629349
686.20 0.462751
686.30 0.4625672
686.40 0.4623834
686.50 0.4621998
686.60 0.4620162
686.70 0.4618327
686.80 0.4616493
686.90 0.461466
687.00 0.4612828
687.10 0.4610996
687.20 0.4609166
687.30 0.4607336
687.40 0.4605507
687.50 0.4603679
687.60 0.4601852
687.70 0.4600026
687.80 0.4598201
687.90 0.4596376
688.00 0.4594553
688.10 0.459273
688.20 0.4590908
688.30 0.4589087
688.40 0.4587267
688.50 0.4585448
688.60 0.4583629
688.70 0.4581812
688.80 0.4579995
688.90 0.4578179
689.00 0.4576364
689.10 0.457455
689.20 0.4572737
689.30 0.4570924
689.40 0.4569113
689.50 0.4567302
689.60 0.4565492
689.70 0.4563683
689.80 0.4561875
689.90 0.4560068
690.00 0.4558262
690.10 0.4556456
690.20 0.4554652
690.30 0.4552848
690.40 0.4551045
690.50 0.4549243
690.60 0.4547441
690.70 0.4545641
690.80 0.4543841
690.90 0.4542043
691.00 0.4540245
691.10 0.4538448
691.20 0.4536652
691.30 0.4534856
691.40 0.4533062
691.50 0.4531268
691.60 0.4529476
691.70 0.4527684
691.80 0.4525893
691.90 0.4524103
692.00 0.4522313
692.10 0.4520525
692.20 0.4518737
692.30 0.451695
692.40 0.4515164
692.50 0.4513379
692.60 0.4511595
692.70 0.4509816
692.80 0.4508054
692.90 0.4506293
693.00 0.4504532
693.10 0.4502773
693.20 0.4501014
693.30 0.4499257
693.40 0.44975
693.50 0.4495744
693.60 0.4493988
693.70 0.4492234
693.80 0.449048
693.90 0.4488727
694.00 0.4486976
694.10 0.4485224
694.20 0.4483474
694.30 0.4481725
694.40 0.4479976
694.50 0.4478228
694.60 0.4476481
694.70 0.4474735
694.80 0.4472989
694.90 0.4471245
695.00 0.4469501
695.10 0.4467758
695.20 0.4466016
695.30 0.4464275
695.40 0.4462534
695.50 0.4460794
695.60 0.4459056
695.70 0.4457317
695.80 0.445558
695.90 0.4453844
696.00 0.4452108
696.10 0.4450373
696.20 0.4448639
696.30 0.4446906
696.40 0.4445174
696.50 0.4443442
696.60 0.4441665
696.70 0.4439878
696.80 0.4438091
696.90 0.4436305
697.00 0.443452
697.10 0.4432736
697.20 0.4430953
697.30 0.4429171
697.40 0.4427389
697.50 0.4425609
697.60 0.4423829
697.70 0.442205
697.80 0.4420272
697.90 0.4418494
698.00 0.4416718
698.10 0.4414942
698.20 0.4413167
698.30 0.4411393
698.40 0.440962
698.50 0.4407848
698.60 0.4406076
698.70 0.4404306
698.80 0.4402536
698.90 0.4400767
699.00 0.4398999
699.10 0.4397324
699.20 0.4395672
699.30 0.439402
699.40 0.4392369
699.50 0.4390719
699.60 0.438907
699.70 0.438733
699.80 0.4385586
699.90 0.4383844
700.00 0.4382102
700.10 0.4380361
700.20 0.437862
700.30 0.4376881
700.40 0.4375142
700.50 0.4373404
700.60 0.4371667
700.70 0.4369931
700.80 0.4368195
700.90 0.4366461
701.00 0.4364727
701.10 0.4363016
701.20 0.4361312
701.30 0.4359609
701.40 0.4357906
701.50 0.4356204
701.60 0.4354503
701.70 0.4352803
701.80 0.4351103
701.90 0.4349405
702.00 0.4347707
702.10 0.4346009
702.20 0.4344313
702.30 0.4342618
702.40 0.4340923
702.50 0.4339229
702.60 0.4337501
702.70 0.4335766
702.80 0.4334031
702.90 0.4332297
703.00 0.4330565
703.10 0.4328833
703.20 0.4327101
703.30 0.4325371
703.40 0.4323641
703.50 0.4321912
703.60 0.4320184
703.70 0.4318457
703.80 0.4316731
703.90 0.4315005
704.00 0.431328
704.10 0.4311556
704.20 0.4309868
704.30 0.4308188
704.40 0.4306509
704.50 0.4304831
704.60 0.4303154
704.70 0.4301477
704.80 0.4299802
704.90 0.4298127
705.00 0.4296453
705.10 0.4294779
705.20 0.4293168
705.30 0.4291572
705.40 0.4289976
705.50 0.4288382
705.60 0.4286788
705.70 0.4285195
705.80 0.4283449
705.90 0.4281668
706.00 0.4279888
706.10 0.4278109
706.20 0.4276331
706.30 0.4274553
706.40 0.4273236
706.50 0.4271729
706.60 0.4269685
706.70 0.4268476
706.80 0.426681
706.90 0.4265038
707.00 0.4263266
707.10 0.4261495
707.20 0.4259724
707.30 0.4257955
707.40 0.4256339
707.50 0.4254759
707.60 0.425318
707.70 0.4251602
707.80 0.4250025
707.90 0.4248448
708.00 0.4246811
708.10 0.4245161
708.20 0.4243511
708.30 0.4241862
708.40 0.4240214
708.50 0.4238567
708.60 0.423692
708.70 0.4235275
708.80 0.423363
708.90 0.4231985
709.00 0.4230308
709.10 0.4228623
709.20 0.4226938
709.30 0.4225255
709.40 0.4223573
709.50 0.4221891
709.60 0.422021
709.70 0.4218529
709.80 0.421685
709.90 0.4215171
710.00 0.4213493
710.10 0.4211816
710.20 0.421014
710.30 0.4208464
710.40 0.420679
710.50 0.4205115
710.60 0.4203476
710.70 0.4201846
710.80 0.4200216
710.90 0.4198587
711.00 0.4196959
711.10 0.4195331
711.20 0.4193704
711.30 0.4192078
711.40 0.4190453
711.50 0.4188829
711.60 0.4187205
711.70 0.4185582
711.80 0.418396
711.90 0.4182338
712.00 0.4180717
712.10 0.4179075
712.20 0.4177428
712.30 0.4175782
712.40 0.4174136
712.50 0.4172492
712.60 0.4170848
712.70 0.4169205
712.80 0.4167563
712.90 0.4165921
713.00 0.416428
713.10 0.416264
713.20 0.4161001
713.30 0.4159362
713.40 0.4157725
713.50 0.4156087
713.60 0.4154451
713.70 0.4152867
713.80 0.4151388
713.90 0.414991
714.00 0.4148433
714.10 0.4146816
714.20 0.4145168
714.30 0.4143519
714.40 0.4141872
714.50 0.4140226
714.60 0.413858
714.70 0.4136935
714.80 0.4135291
714.90 0.4133647
715.00 0.4132004
715.10 0.4130362
715.20 0.4128721
715.30 0.4127081
715.40 0.4125441
715.50 0.4123802
715.60 0.4122164
715.70 0.4120526
715.80 0.411889
715.90 0.4117254
716.00 0.4115619
716.10 0.4113984
716.20 0.4112351
716.30 0.4110718
716.40 0.4109085
716.50 0.4107454
716.60 0.4105885
716.70 0.410433
716.80 0.4102777
716.90 0.4101224
717.00 0.4099672
717.10 0.409812
717.20 0.4096569
717.30 0.4095019
717.40 0.409347
717.50 0.4091921
717.60 0.4090373
717.70 0.4088826
717.80 0.4087279
717.90 0.4085734
718.00 0.4084188
718.10 0.4082644
718.20 0.4081051
718.30 0.4079433
718.40 0.4077815
718.50 0.4076199
718.60 0.4074582
718.70 0.4072967
718.80 0.4071353
718.90 0.4069739
719.00 0.4068126
719.10 0.4066513
719.20 0.4064901
719.30 0.4063291
719.40 0.406168
719.50 0.4060071
719.60 0.4058462
719.70 0.4056854
719.80 0.4055247
719.90 0.4053641
720.00 0.4052035
720.10 0.405043
720.20 0.4048826
720.30 0.4047222
720.40 0.4045619
720.50 0.4044017
720.60 0.4042416
720.70 0.4041126
720.80 0.4040005
720.90 0.4038428
721.00 0.4036833
721.10 0.4035238
721.20 0.4033645
721.30 0.4032051
721.40 0.4030459
721.50 0.4028867
721.60 0.4027277
721.70 0.4025686
721.80 0.4024097
721.90 0.4022508
722.00 0.402092
722.10 0.4019333
722.20 0.4017746
722.30 0.401616
722.40 0.4014575
722.50 0.4012991
722.60 0.4011407
722.70 0.400985
722.80 0.4008308
722.90 0.4006766
723.00 0.4005226
723.10 0.4003685
723.20 0.4002146
723.30 0.4000607
723.40 0.3999069
723.50 0.3997532
723.60 0.3995995
723.70 0.3994459
723.80 0.3992924
723.90 0.3991389
724.00 0.3989855
724.10 0.3988322
724.20 0.3986763
724.30 0.3985191
724.40 0.3983619
724.50 0.3982049
724.60 0.3980479
724.70 0.3978909
724.80 0.3977341
724.90 0.3975773
725.00 0.3974205
725.10 0.3972639
725.20 0.3971073
725.30 0.3969508
725.40 0.3967944
725.50 0.396638
725.60 0.3964817
725.70 0.3963255
725.80 0.3961719
725.90 0.3960199
726.00 0.3958679
726.10 0.395716
726.20 0.3955641
726.30 0.3954123
726.40 0.3952606
726.50 0.395109
726.60 0.3949574
726.70 0.3948059
726.80 0.3946591
726.90 0.3945148
727.00 0.3943707
727.10 0.3942265
727.20 0.3940825
727.30 0.3939385
727.40 0.393783
727.50 0.3936214
727.60 0.3934598
727.70 0.3932983
727.80 0.3931368
727.90 0.3929755
728.00 0.3928489
728.10 0.3927343
728.20 0.3925265
728.30 0.3924187
728.40 0.3922763
728.50 0.3921154
728.60 0.3919545
728.70 0.3917937
728.80 0.391633
728.90 0.3914723
729.00 0.3913233
729.10 0.3911805
729.20 0.3910378
729.30 0.3908951
729.40 0.3907525
729.50 0.39061
729.60 0.3904629
729.70 0.3903134
729.80 0.390164
729.90 0.3900147
730.00 0.3898654
730.10 0.3897162
730.20 0.3895671
730.30 0.389418
730.40 0.389269
730.50 0.38912
730.60 0.3889686
730.70 0.3888158
730.80 0.3886631
730.90 0.3885104
731.00 0.3883579
731.10 0.3882054
731.20 0.3880529
731.30 0.3879006
731.40 0.3877483
731.50 0.387596
731.60 0.3874439
731.70 0.3872918
731.80 0.3871398
731.90 0.3869878
732.00 0.3868359
732.10 0.3866841
732.20 0.3865349
732.30 0.3863872
732.40 0.3862395
732.50 0.3860919
732.60 0.3859444
732.70 0.385797
732.80 0.3856496
732.90 0.3855022
733.00 0.385355
733.10 0.3852078
733.20 0.3850606
733.30 0.3849136
733.40 0.3847666
733.50 0.3846196
733.60 0.3844728
733.70 0.3843244
733.80 0.3841753
733.90 0.3840263
734.00 0.3838774
734.10 0.3837285
734.20 0.3835796
734.30 0.3834309
734.40 0.3832822
734.50 0.3831336
734.60 0.382985
734.70 0.3828365
734.80 0.3826881
734.90 0.3825397
735.00 0.3823914
735.10 0.3822432
735.20 0.3820951
735.30 0.3819481
735.40 0.3818137
735.50 0.3816794
735.60 0.3815452
735.70 0.381401
735.80 0.3812514
735.90 0.3811018
736.00 0.3809523
736.10 0.3808029
736.20 0.3806536
736.30 0.3805043
736.40 0.3803551
736.50 0.380206
736.60 0.3800569
736.70 0.3799079
736.80 0.379759
736.90 0.3796101
737.00 0.3794613
737.10 0.3793126
737.20 0.3791639
737.30 0.3790153
737.40 0.3788668
737.50 0.3787183
737.60 0.3785699
737.70 0.3784216
737.80 0.3782733
737.90 0.3781251
738.00 0.377977
738.10 0.3778289
738.20 0.3776837
738.30 0.37754
738.40 0.3773963
738.50 0.3772528
738.60 0.3771092
738.70 0.3769658
738.80 0.3768224
738.90 0.3766791
739.00 0.3765359
739.10 0.3763927
739.20 0.3762496
739.30 0.3761065
739.40 0.3759635
739.50 0.3758206
739.60 0.3756777
739.70 0.3755349
739.80 0.3753922
739.90 0.3752495
740.00 0.3751069
740.10 0.3749643
740.20 0.3748218
740.30 0.3746794
740.40 0.374537
740.50 0.3743948
740.60 0.3742525
740.70 0.3741103
740.80 0.3739682
740.90 0.3738262
741.00 0.3736842
741.10 0.3735423
741.20 0.3734004
741.30 0.3732586
741.40 0.3731169
741.50 0.3729752
741.60 0.3728336
741.70 0.3726921
741.80 0.3725506
741.90 0.3724092
742.00 0.3722679
742.10 0.3721266
742.20 0.3719853
742.30 0.3718442
742.40 0.3717031
742.50 0.371562
742.60 0.371421
742.70 0.3712754
742.80 0.3711259
742.90 0.3709766
743.00 0.3708272
743.10 0.370678
743.20 0.3705288
743.30 0.3703797
743.40 0.3702306
743.50 0.3700816
743.60 0.3699327
743.70 0.3697854
743.80 0.3696444
743.90 0.3695035
744.00 0.3693626
744.10 0.3692218
744.20 0.3690811
744.30 0.3689404
744.40 0.3687998
744.50 0.3686592
744.60 0.3685188
744.70 0.3683783
744.80 0.368238
744.90 0.3680977
745.00 0.3679574
745.10 0.3678172
745.20 0.3676771
745.30 0.3675371
745.40 0.3673971
745.50 0.3672571
745.60 0.3671173
745.70 0.3669775
745.80 0.3668377
745.90 0.366698
746.00 0.3665584
746.10 0.3664189
746.20 0.3662794
746.30 0.3661399
746.40 0.3660005
746.50 0.3658612
746.60 0.365722
746.70 0.3655828
746.80 0.3654437
746.90 0.3653046
747.00 0.3651656
747.10 0.3650266
747.20 0.3648877
747.30 0.3647489
747.40 0.3646102
747.50 0.3644715
747.60 0.3643328
747.70 0.3641942
747.80 0.3640557
747.90 0.3639173
748.00 0.3637789
748.10 0.3636405
748.20 0.3635023
748.30 0.3633641
748.40 0.3632259
748.50 0.3630878
748.60 0.3629498
748.70 0.3628118
748.80 0.3626739
748.90 0.3625361
749.00 0.3623983
749.10 0.3622605
749.20 0.3621229
749.30 0.3619853
749.40 0.3618477
749.50 0.3617102
749.60 0.3615728
749.70 0.3614355
749.80 0.3612982
749.90 0.3611609
750.00 0.3610237
750.10 0.3608868
750.20 0.3607504
750.30 0.3606141
750.40 0.3604778
750.50 0.3603416
750.60 0.3602055
750.70 0.3600694
750.80 0.3599334
750.90 0.3597974
751.00 0.3596615
751.10 0.3595257
751.20 0.3593899
751.30 0.3592541
751.40 0.3591185
751.50 0.3589829
751.60 0.3588473
751.70 0.3587118
751.80 0.3585764
751.90 0.358441
752.00 0.3583057
752.10 0.3581705
752.20 0.3580353
752.30 0.3579002
752.40 0.3577651
752.50 0.3576301
752.60 0.3574951
752.70 0.3573602
752.80 0.3572254
752.90 0.3570906
753.00 0.3569559
753.10 0.3568212
753.20 0.3566866
753.30 0.3565521
753.40 0.3564176
753.50 0.3562832
753.60 0.3561488
753.70 0.3560145
753.80 0.3558803
753.90 0.355744
754.00 0.3556072
754.10 0.3554705
754.20 0.3553338
754.30 0.3551972
754.40 0.3550607
754.50 0.3549242
754.60 0.3547878
754.70 0.3546514
754.80 0.3545151
754.90 0.3543789
755.00 0.3542427
755.10 0.3541066
755.20 0.3539705
755.30 0.3538345
755.40 0.3536986
755.50 0.3535627
755.60 0.3534269
755.70 0.3532911
755.80 0.3531554
755.90 0.3530197
756.00 0.3528841
756.10 0.3527486
756.20 0.3526132
756.30 0.3524777
756.40 0.3523424
756.50 0.3522071
756.60 0.3520719
756.70 0.3519367
756.80 0.3518016
756.90 0.3516665
757.00 0.3515315
757.10 0.3513966
757.20 0.3512617
757.30 0.3511269
757.40 0.3509921
757.50 0.3508574
757.60 0.3507237
757.70 0.3505921
757.80 0.3504606
757.90 0.3503291
758.00 0.3501977
758.10 0.3500664
758.20 0.3499351
758.30 0.3498039
758.40 0.3496728
758.50 0.3495417
758.60 0.3494106
758.70 0.3492796
758.80 0.3491487
758.90 0.3490178
759.00 0.348887
759.10 0.3487562
759.20 0.3486255
759.30 0.3484949
759.40 0.3483643
759.50 0.3482337
759.60 0.3481033
759.70 0.3479728
759.80 0.3478425
759.90 0.3477122
760.00 0.3475819
760.10 0.3474517
760.20 0.3473216
760.30 0.3471915
760.40 0.3470615
760.50 0.3469315
760.60 0.3468016
760.70 0.3466717
760.80 0.3465419
760.90 0.3464122
761.00 0.3462825
761.10 0.3461528
761.20 0.3460233
761.30 0.3458937
761.40 0.3457632
761.50 0.3456313
761.60 0.3454993
761.70 0.3453675
761.80 0.3452357
761.90 0.3451039
762.00 0.3449722
762.10 0.3448406
762.20 0.344709
762.30 0.3445775
762.40 0.344446
762.50 0.3443146
762.60 0.3441832
762.70 0.3440519
762.80 0.3439207
762.90 0.3437895
763.00 0.3436584
763.10 0.3435273
763.20 0.3433963
763.30 0.3432654
763.40 0.3431345
763.50 0.3430036
763.60 0.3428728
763.70 0.3427421
763.80 0.3426114
763.90 0.3424808
764.00 0.3423503
764.10 0.3422198
764.20 0.3420893
764.30 0.3419589
764.40 0.3418286
764.50 0.3416983
764.60 0.3415681
764.70 0.341438
764.80 0.3413079
764.90 0.3411778
765.00 0.3410478
765.10 0.3409179
765.20 0.3407889
765.30 0.3406607
765.40 0.3405326
765.50 0.3404046
765.60 0.3402766
765.70 0.3401486
765.80 0.3400208
765.90 0.3398929
766.00 0.3397652
766.10 0.3396374
766.20 0.3395098
766.30 0.3393822
766.40 0.3392546
766.50 0.3391271
766.60 0.3389997
766.70 0.3388723
766.80 0.338745
766.90 0.3386177
767.00 0.3384905
767.10 0.3383633
767.20 0.3382362
767.30 0.3381091
767.40 0.3379821
767.50 0.3378552
767.60 0.3377283
767.70 0.3376015
767.80 0.3374747
767.90 0.337348
768.00 0.3372213
768.10 0.3370947
768.20 0.3369681
768.30 0.3368416
768.40 0.3367151
768.50 0.3365887
768.60 0.3364624
768.70 0.3363361
768.80 0.3362099
768.90 0.3360837
769.00 0.3359575
769.10 0.3358315
769.20 0.3357054
769.30 0.3355795
769.40 0.3354536
769.50 0.3353277
769.60 0.3352019
769.70 0.3350761
769.80 0.3349504
769.90 0.3348248
770.00 0.3346992
770.10 0.3345737
770.20 0.3344482
770.30 0.3343228
770.40 0.3341974
770.50 0.3340721
770.60 0.3339468
770.70 0.3338216
770.80 0.3336964
770.90 0.3335713
771.00 0.3334463
771.10 0.3333213
771.20 0.3331963
771.30 0.3330715
771.40 0.3329466
771.50 0.3328218
771.60 0.3326971
771.70 0.3325724
771.80 0.3324478
771.90 0.3323232
772.00 0.3321987
772.10 0.3320743
772.20 0.3319499
772.30 0.3318255
772.40 0.3317012
772.50 0.3315769
772.60 0.3314527
772.70 0.3313286
772.80 0.3312045
772.90 0.3310796
773.00 0.3309548
773.10 0.33083
773.20 0.3307053
773.30 0.3305806
773.40 0.330456
773.50 0.3303315
773.60 0.3302069
773.70 0.3300825
773.80 0.3299581
773.90 0.3298337
774.00 0.3297094
774.10 0.3295852
774.20 0.329461
774.30 0.3293369
774.40 0.3292128
774.50 0.3290887
774.60 0.3289648
774.70 0.3288408
774.80 0.328717
774.90 0.3285932
775.00 0.3284694
775.10 0.3283457
775.20 0.328222
775.30 0.3280984
775.40 0.3279749
775.50 0.3278514
775.60 0.3277279
775.70 0.3276045
775.80 0.3274812
775.90 0.3273579
776.00 0.3272346
776.10 0.3271115
776.20 0.3269883
776.30 0.3268652
776.40 0.3267422
776.50 0.3266192
776.60 0.3264963
776.70 0.3263734
776.80 0.3262506
776.90 0.3261279
777.00 0.3260051
777.10 0.3258825
777.20 0.3257599
777.30 0.3256373
777.40 0.3255148
777.50 0.3253924
777.60 0.32527
777.70 0.3251476
777.80 0.3250253
777.90 0.3249031
778.00 0.3247809
778.10 0.3246588
778.20 0.3245367
778.30 0.3244146
778.40 0.3242927
778.50 0.3241707
778.60 0.3240488
778.70 0.323927
778.80 0.3238052
778.90 0.3236835
779.00 0.3235618
779.10 0.3234402
779.20 0.3233187
779.30 0.3231971
779.40 0.3230757
779.50 0.3229543
779.60 0.3228329
779.70 0.3227116
779.80 0.3225903
779.90 0.3224691
780.00 0.322348
780.10 0.3222269
780.20 0.3221058
780.30 0.3219848
780.40 0.3218639
780.50 0.321743
780.60 0.3216234
780.70 0.3215043
780.80 0.3213852
780.90 0.3212662
781.00 0.3211472
781.10 0.3210283
781.20 0.3209095
781.30 0.3207907
781.40 0.3206719
781.50 0.3205532
781.60 0.3204346
781.70 0.320316
781.80 0.3201974
781.90 0.3200789
782.00 0.3199605
782.10 0.3198421
782.20 0.3197237
782.30 0.3196054
782.40 0.3194872
782.50 0.319369
782.60 0.3192509
782.70 0.3191328
782.80 0.3190147
782.90 0.3188967
783.00 0.3187788
783.10 0.3186609
783.20 0.318543
783.30 0.3184252
783.40 0.3183075
783.50 0.3181898
783.60 0.3180721
783.70 0.3179545
783.80 0.317837
783.90 0.3177194
784.00 0.317602
784.10 0.3174846
784.20 0.3173672
784.30 0.3172499
784.40 0.3171327
784.50 0.3170155
784.60 0.3168982
784.70 0.3167809
784.80 0.3166636
784.90 0.3165463
785.00 0.3164291
785.10 0.3163119
785.20 0.3161948
785.30 0.3160778
785.40 0.3159608
785.50 0.3158438
785.60 0.3157269
785.70 0.31561
785.80 0.3154932
785.90 0.3153764
786.00 0.3152597
786.10 0.315143
786.20 0.3150264
786.30 0.3149098
786.40 0.3147933
786.50 0.3146768
786.60 0.3145604
786.70 0.314444
786.80 0.3143277
786.90 0.3142114
787.00 0.3140952
787.10 0.313979
787.20 0.3138629
787.30 0.3137468
787.40 0.3136308
787.50 0.3135148
787.60 0.3133989
787.70 0.313283
787.80 0.3131671
787.90 0.3130514
788.00 0.3129356
788.10 0.3128199
788.20 0.3127043
788.30 0.3125887
788.40 0.3124727
788.50 0.3123565
788.60 0.3122404
788.70 0.3121244
788.80 0.3120084
788.90 0.3118924
789.00 0.3117765
789.10 0.3116606
789.20 0.3115448
789.30 0.311429
789.40 0.3113133
789.50 0.3111977
789.60 0.311082
789.70 0.3109665
789.80 0.3108509
789.90 0.3107355
790.00 0.31062
790.10 0.3105047
790.20 0.3103893
790.30 0.310274
790.40 0.3101588
790.50 0.3100436
790.60 0.3099285
790.70 0.3098134
790.80 0.3096984
790.90 0.3095834
791.00 0.3094684
791.10 0.3093535
791.20 0.3092387
791.30 0.3091239
791.40 0.3090091
791.50 0.3088944
791.60 0.3087798
791.70 0.3086652
791.80 0.3085506
791.90 0.3084361
792.00 0.3083216
792.10 0.3082072
792.20 0.3080929
792.30 0.3079785
792.40 0.3078642
792.50 0.30775
792.60 0.3076358
792.70 0.3075217
792.80 0.3074076
792.90 0.3072936
793.00 0.3071796
793.10 0.3070656
793.20 0.3069517
793.30 0.3068379
793.40 0.3067241
793.50 0.3066103
793.60 0.3064966
793.70 0.306383
793.80 0.3062693
793.90 0.3061558
794.00 0.3060423
794.10 0.3059288
794.20 0.3058154
794.30 0.305702
794.40 0.3055887
794.50 0.3054754
794.60 0.3053622
794.70 0.305249
794.80 0.3051358
794.90 0.3050227
795.00 0.3049097
795.10 0.3047967
795.20 0.3046837
795.30 0.3045708
795.40 0.304458
795.50 0.3043452
795.60 0.3042324
795.70 0.3041197
795.80 0.304007
795.90 0.3038944
796.00 0.3037818
796.10 0.3036693
796.20 0.3035568
796.30 0.3034447
796.40 0.3033327
796.50 0.3032207
796.60 0.3031088
796.70 0.3029969
796.80 0.3028851
796.90 0.3027733
797.00 0.3026615
797.10 0.3025499
797.20 0.3024382
797.30 0.3023266
797.40 0.302215
797.50 0.3021035
797.60 0.3019921
797.70 0.3018807
797.80 0.3017693
797.90 0.301658
798.00 0.3015467
798.10 0.3014355
798.20 0.3013243
798.30 0.3012131
798.40 0.301102
798.50 0.300991
798.60 0.30088
798.70 0.300769
798.80 0.3006581
798.90 0.3005473
799.00 0.3004365
799.10 0.3003257
799.20 0.300215
799.30 0.3001043
799.40 0.2999937
799.50 0.2998831
799.60 0.2997725
799.70 0.299662
799.80 0.2995516
799.90 0.2994412
800.00 0.2993308
800.10 0.2992205
800.20 0.2991103
800.30 0.299
800.40 0.2988899
800.50 0.2987797
800.60 0.2986697
800.70 0.2985596
800.80 0.2984496
800.90 0.2983397
801.00 0.2982298
801.10 0.2981199
801.20 0.2980101
801.30 0.2979004
801.40 0.2977906
801.50 0.297681
801.60 0.2975713
801.70 0.2974618
801.80 0.2973522
801.90 0.2972427
802.00 0.2971333
802.10 0.2970239
802.20 0.2969145
802.30 0.2968052
802.40 0.296696
802.50 0.2965868
802.60 0.2964776
802.70 0.2963684
802.80 0.2962594
802.90 0.2961503
803.00 0.2960413
803.10 0.2959324
803.20 0.2958235
803.30 0.2957146
803.40 0.2956058
803.50 0.2954971
803.60 0.2953883
803.70 0.2952797
803.80 0.295171
803.90 0.2950624
804.00 0.2949539
804.10 0.2948454
804.20 0.294737
804.30 0.294629
804.40 0.2945209
804.50 0.294413
804.60 0.2943051
804.70 0.2941972
804.80 0.2940893
804.90 0.2939815
805.00 0.2938738
805.10 0.2937661
805.20 0.2936584
805.30 0.2935508
805.40 0.2934433
805.50 0.2933357
805.60 0.2932283
805.70 0.2931208
805.80 0.2930134
805.90 0.2929061
806.00 0.2927988
806.10 0.2926915
806.20 0.2925843
806.30 0.2924771
806.40 0.29237
806.50 0.2922629
806.60 0.2921559
806.70 0.2920489
806.80 0.2919419
806.90 0.291835
807.00 0.2917282
807.10 0.2916214
807.20 0.2915146
807.30 0.2914079
807.40 0.2913012
807.50 0.2911945
807.60 0.2910879
807.70 0.2909814
807.80 0.2908749
807.90 0.2907684
808.00 0.290662
808.10 0.2905556
808.20 0.2904493
808.30 0.290343
808.40 0.2902367
808.50 0.2901305
808.60 0.2900244
808.70 0.2899182
808.80 0.2898122
808.90 0.2897061
809.00 0.2896002
809.10 0.2894942
809.20 0.2893883
809.30 0.2892825
809.40 0.2891766
809.50 0.2890709
809.60 0.2889652
809.70 0.2888595
809.80 0.2887538
809.90 0.2886482
810.00 0.2885427
810.10 0.2884372
810.20 0.2883317
810.30 0.2882263
810.40 0.2881209
810.50 0.2880156
810.60 0.2879103
810.70 0.287805
810.80 0.2876998
810.90 0.2875947
811.00 0.2874895
811.10 0.2873845
811.20 0.2872794
811.30 0.2871744
811.40 0.2870695
811.50 0.2869646
811.60 0.2868597
811.70 0.2867549
811.80 0.2866501
811.90 0.2865454
812.00 0.2864407
812.10 0.2863361
812.20 0.2862315
812.30 0.2861268
812.40 0.2860222
812.50 0.2859177
812.60 0.2858132
812.70 0.2857087
812.80 0.2856043
812.90 0.2854999
813.00 0.2853955
813.10 0.2852912
813.20 0.285187
813.30 0.2850828
813.40 0.2849786
813.50 0.2848745
813.60 0.2847704
813.70 0.2846663
813.80 0.2845623
813.90 0.2844584
814.00 0.2843545
814.10 0.2842506
814.20 0.2841468
814.30 0.284043
814.40 0.2839392
814.50 0.2838355
814.60 0.2837319
814.70 0.2836282
814.80 0.2835247
814.90 0.2834211
815.00 0.2833176
815.10 0.2832142
815.20 0.2831108
815.30 0.2830074
815.40 0.2829041
815.50 0.2828008
815.60 0.2826976
815.70 0.2825944
815.80 0.2824912
815.90 0.2823881
816.00 0.282285
816.10 0.282182
816.20 0.282079
816.30 0.281976
816.40 0.2818731
816.50 0.2817703
816.60 0.2816675
816.70 0.2815647
816.80 0.281462
816.90 0.2813593
817.00 0.2812566
817.10 0.281154
817.20 0.2810514
817.30 0.2809489
817.40 0.2808464
817.50 0.280744
817.60 0.2806416
817.70 0.2805392
817.80 0.2804369
817.90 0.2803346
818.00 0.2802324
818.10 0.2801302
818.20 0.280028
818.30 0.2799259
818.40 0.2798239
818.50 0.2797218
818.60 0.2796198
818.70 0.2795179
818.80 0.279416
818.90 0.2793141
819.00 0.2792123
819.10 0.2791105
819.20 0.2790088
819.30 0.2789094
819.40 0.2788117
819.50 0.278714
819.60 0.2786163
819.70 0.2785187
819.80 0.2784211
819.90 0.2783235
820.00 0.278226
820.10 0.2781312
820.20 0.278031
820.30 0.2779268
820.40 0.277824
820.50 0.2777221
820.60 0.2776203
820.70 0.2775185
820.80 0.2774167
820.90 0.277315
821.00 0.2772133
821.10 0.2771117
821.20 0.2770101
821.30 0.2769085
821.40 0.276807
821.50 0.2767055
821.60 0.2766041
821.70 0.2765027
821.80 0.2764014
821.90 0.2763
822.00 0.2761988
822.10 0.2760976
822.20 0.2759964
822.30 0.2758952
822.40 0.2757941
822.50 0.2756931
822.60 0.275592
822.70 0.2754911
822.80 0.2753901
822.90 0.2752892
823.00 0.2751884
823.10 0.2750875
823.20 0.2749868
823.30 0.274886
823.40 0.2747853
823.50 0.2746847
823.60 0.2745841
823.70 0.2744835
823.80 0.274383
823.90 0.2742825
824.00 0.274182
824.10 0.2740816
824.20 0.2739813
824.30 0.2738809
824.40 0.2737807
824.50 0.2736804
824.60 0.2735802
824.70 0.27348
824.80 0.2733799
824.90 0.2732798
825.00 0.2731798
825.10 0.2730798
825.20 0.2729798
825.30 0.2728799
825.40 0.27278
825.50 0.2726802
825.60 0.2725804
825.70 0.2724806
825.80 0.2723809
825.90 0.2722812
826.00 0.2721816
826.10 0.272082
826.20 0.2719824
826.30 0.2718837
826.40 0.2717856
826.50 0.2716876
826.60 0.2715895
826.70 0.2714916
826.80 0.2713936
826.90 0.2712957
827.00 0.2711978
827.10 0.2711
827.20 0.2710022
827.30 0.2709045
827.40 0.2708068
827.50 0.2707091
827.60 0.2706115
827.70 0.2705139
827.80 0.2704163
827.90 0.2703188
828.00 0.2702214
828.10 0.2701239
828.20 0.2700265
828.30 0.2699292
828.40 0.2698319
828.50 0.2697346
828.60 0.2696375
828.70 0.2695407
828.80 0.2694438
828.90 0.269347
829.00 0.2692503
829.10 0.2691536
829.20 0.2690569
829.30 0.2689603
829.40 0.2688637
829.50 0.2687671
829.60 0.2686706
829.70 0.2685741
829.80 0.2684777
829.90 0.2683813
830.00 0.2682849
830.10 0.2681886
830.20 0.2680923
830.30 0.2679961
830.40 0.2678999
830.50 0.2678037
830.60 0.2677076
830.70 0.2676115
830.80 0.2675154
830.90 0.2674194
831.00 0.2673235
831.10 0.2672275
831.20 0.2671316
831.30 0.2670358
831.40 0.2669399
831.50 0.2668441
831.60 0.2667484
831.70 0.2666527
831.80 0.266557
831.90 0.2664614
832.00 0.2663658
832.10 0.2662703
832.20 0.2661747
832.30 0.2660793
832.40 0.2659838
832.50 0.2658884
832.60 0.2657931
832.70 0.2656977
832.80 0.2656024
832.90 0.2655072
833.00 0.265412
833.10 0.2653168
833.20 0.2652217
833.30 0.2651266
833.40 0.2650315
833.50 0.2649365
833.60 0.2648415
833.70 0.2647466
833.80 0.2646517
833.90 0.2645568
834.00 0.264462
834.10 0.2643672
834.20 0.2642724
834.30 0.2641777
834.40 0.264083
834.50 0.2639884
834.60 0.2638938
834.70 0.2637992
834.80 0.2637047
834.90 0.2636102
835.00 0.2635157
835.10 0.2634213
835.20 0.263327
835.30 0.2632326
835.40 0.2631383
835.50 0.263044
835.60 0.2629498
835.70 0.2628556
835.80 0.2627615
835.90 0.2626674
836.00 0.2625733
836.10 0.2624793
836.20 0.2623852
836.30 0.2622913
836.40 0.2621974
836.50 0.2621035
836.60 0.2620096
836.70 0.2619158
836.80 0.261822
836.90 0.2617285
837.00 0.2616351
837.10 0.2615417
837.20 0.2614484
837.30 0.2613551
837.40 0.2612619
837.50 0.2611687
837.60 0.2610755
837.70 0.2609824
837.80 0.2608893
837.90 0.2607962
838.00 0.2607032
838.10 0.2606102
838.20 0.2605173
838.30 0.2604244
838.40 0.2603315
838.50 0.2602386
838.60 0.2601458
838.70 0.2600531
838.80 0.2599604
838.90 0.2598677
839.00 0.259775
839.10 0.2596824
839.20 0.2595898
839.30 0.2594973
839.40 0.2594048
839.50 0.2593123
839.60 0.2592199
839.70 0.2591275
839.80 0.2590351
839.90 0.2589428
840.00 0.2588505
840.10 0.2587582
840.20 0.258666
840.30 0.2585738
840.40 0.2584817
840.50 0.2583896
840.60 0.2582975
840.70 0.2582055
840.80 0.2581135
840.90 0.2580215
841.00 0.2579296
841.10 0.2578377
841.20 0.2577459
841.30 0.2576541
841.40 0.2575623
841.50 0.2574706
841.60 0.2573789
841.70 0.2572872
841.80 0.2571956
841.90 0.257104
842.00 0.2570125
842.10 0.256921
842.20 0.2568295
842.30 0.256738
842.40 0.2566466
842.50 0.2565553
842.60 0.2564639
842.70 0.2563726
842.80 0.2562814
842.90 0.2561901
843.00 0.256099
843.10 0.2560078
843.20 0.2559167
843.30 0.2558256
843.40 0.2557346
843.50 0.2556435
843.60 0.2555526
843.70 0.2554616
843.80 0.2553707
843.90 0.2552799
844.00 0.255189
844.10 0.2550982
844.20 0.2550075
844.30 0.2549168
844.40 0.2548261
844.50 0.2547354
844.60 0.2546448
844.70 0.2545542
844.80 0.2544637
844.90 0.2543732
845.00 0.2542827
845.10 0.2541923
845.20 0.2541019
845.30 0.2540109
845.40 0.2539199
845.50 0.253829
845.60 0.2537381
845.70 0.2536472
845.80 0.2535564
845.90 0.2534656
846.00 0.2533748
846.10 0.2532841
846.20 0.2531934
846.30 0.2531028
846.40 0.2530121
846.50 0.2529216
846.60 0.252831
846.70 0.2527405
846.80 0.2526501
846.90 0.2525596
847.00 0.2524692
847.10 0.2523789
847.20 0.2522885
847.30 0.2521982
847.40 0.252108
847.50 0.2520178
847.60 0.2519276
847.70 0.2518374
847.80 0.2517473
847.90 0.2516572
848.00 0.2515672
848.10 0.2514772
848.20 0.2513872
848.30 0.2512973
848.40 0.2512074
848.50 0.2511175
848.60 0.2510277
848.70 0.2509379
848.80 0.2508481
848.90 0.2507584
849.00 0.2506687
849.10 0.250579
849.20 0.2504894
849.30 0.2503998
849.40 0.2503103
849.50 0.2502208
849.60 0.2501313
849.70 0.2500419
849.80 0.2499525
849.90 0.2498631
850.00 0.2497737
850.10 0.2496844
850.20 0.2495952
850.30 0.2495059
850.40 0.2494167
850.50 0.2493276
850.60 0.2492385
850.70 0.2491494
850.80 0.2490603
850.90 0.2489713
851.00 0.2488823
851.10 0.2487933
851.20 0.2487044
851.30 0.2486156
851.40 0.2485267
851.50 0.2484379
851.60 0.2483491
851.70 0.2482604
851.80 0.2481717
851.90 0.248083
852.00 0.2479944
852.10 0.2479057
852.20 0.2478172
852.30 0.2477286
852.40 0.2476401
852.50 0.2475517
852.60 0.2474633
852.70 0.2473749
852.80 0.2472865
852.90 0.2471982
853.00 0.2471099
853.10 0.2470216
853.20 0.2469334
853.30 0.2468452
853.40 0.2467571
853.50 0.2466689
853.60 0.2465809
853.70 0.2464934
853.80 0.2464066
853.90 0.2463198
854.00 0.2462331
854.10 0.2461464
854.20 0.2460597
854.30 0.245973
854.40 0.2458864
854.50 0.2457999
854.60 0.2457133
854.70 0.2456268
854.80 0.2455404
854.90 0.2454539
855.00 0.2453675
855.10 0.2452811
855.20 0.2451948
855.30 0.2451085
855.40 0.2450222
855.50 0.244936
855.60 0.2448498
855.70 0.2447636
855.80 0.2446775
855.90 0.2445914
856.00 0.2445053
856.10 0.2444193
856.20 0.2443333
856.30 0.2442473
856.40 0.2441614
856.50 0.2440755
856.60 0.2439896
856.70 0.2439038
856.80 0.243818
856.90 0.2437322
857.00 0.2436465
857.10 0.2435608
857.20 0.2434752
857.30 0.2433895
857.40 0.2433039
857.50 0.2432184
857.60 0.2431328
857.70 0.2430473
857.80 0.2429619
857.90 0.2428764
858.00 0.2427896
858.10 0.2427024
858.20 0.2426153
858.30 0.2425282
858.40 0.2424411
858.50 0.2423541
858.60 0.2422671
858.70 0.2421802
858.80 0.2420932
858.90 0.2420063
859.00 0.2419195
859.10 0.2418326
859.20 0.2417459
859.30 0.2416591
859.40 0.2415724
859.50 0.2414857
859.60 0.241399
859.70 0.2413124
859.80 0.2412258
859.90 0.2411393
860.00 0.2410527
860.10 0.2409663
860.20 0.2408798
860.30 0.2407934
860.40 0.240707
860.50 0.2406207
860.60 0.2405343
860.70 0.240448
860.80 0.2403618
860.90 0.2402756
861.00 0.2401894
861.10 0.2401032
861.20 0.2400171
861.30 0.239931
861.40 0.239845
861.50 0.239759
861.60 0.239673
861.70 0.239587
861.80 0.2395011
861.90 0.2394152
862.00 0.2393294
862.10 0.2392436
862.20 0.239158
862.30 0.2390744
862.40 0.2389907
862.50 0.2389071
862.60 0.2388235
862.70 0.23874
862.80 0.2386564
862.90 0.2385729
863.00 0.2384895
863.10 0.2384061
863.20 0.2383227
863.30 0.2382393
863.40 0.238156
863.50 0.2380727
863.60 0.2379894
863.70 0.2379062
863.80 0.237823
863.90 0.2377398
864.00 0.2376567
864.10 0.2375736
864.20 0.2374905
864.30 0.2374075
864.40 0.2373245
864.50 0.2372415
864.60 0.2371585
864.70 0.2370756
864.80 0.2369928
864.90 0.2369099
865.00 0.2368271
865.10 0.2367443
865.20 0.2366616
865.30 0.2365788
865.40 0.2364962
865.50 0.2364135
865.60 0.2363309
865.70 0.2362483
865.80 0.2361657
865.90 0.2360832
866.00 0.2360007
866.10 0.2359182
866.20 0.2358358
866.30 0.2357534
866.40 0.235671
866.50 0.2355887
866.60 0.2355064
866.70 0.2354241
866.80 0.2353419
866.90 0.2352597
867.00 0.2351775
867.10 0.2350953
867.20 0.2350132
867.30 0.2349311
867.40 0.2348491
867.50 0.2347671
867.60 0.2346851
867.70 0.2346031
867.80 0.2345212
867.90 0.2344393
868.00 0.2343574
868.10 0.2342756
868.20 0.2341938
868.30 0.234112
868.40 0.2340303
868.50 0.2339486
868.60 0.2338669
868.70 0.2337853
868.80 0.2337037
868.90 0.2336221
869.00 0.2335405
869.10 0.233459
869.20 0.2333775
869.30 0.2332961
869.40 0.2332147
869.50 0.2331333
869.60 0.2330519
869.70 0.2329706
869.80 0.2328893
869.90 0.232808
870.00 0.2327268
870.10 0.2326456
870.20 0.2325644
870.30 0.2324833
870.40 0.2324021
870.50 0.2323211
870.60 0.23224
870.70 0.232159
870.80 0.232078
870.90 0.2319958
871.00 0.2319134
871.10 0.2318311
871.20 0.2317488
871.30 0.2316665
871.40 0.2315843
871.50 0.2315021
871.60 0.2314199
871.70 0.2313377
871.80 0.2312556
871.90 0.2311736
872.00 0.2310915
872.10 0.2310095
872.20 0.2309275
872.30 0.2308456
872.40 0.2307636
872.50 0.2306818
872.60 0.2305999
872.70 0.2305181
872.80 0.2304363
872.90 0.2303545
873.00 0.2302728
873.10 0.2301911
873.20 0.2301094
873.30 0.2300278
873.40 0.2299462
873.50 0.2298646
873.60 0.2297831
873.70 0.2297015
873.80 0.2296201
873.90 0.2295386
874.00 0.2294572
874.10 0.2293758
874.20 0.2292945
874.30 0.2292131
874.40 0.2291318
874.50 0.2290506
874.60 0.2289693
874.70 0.2288881
874.80 0.228807
874.90 0.2287258
875.00 0.2286447
875.10 0.2285637
875.20 0.2284832
875.30 0.2284039
875.40 0.2283246
875.50 0.2282454
875.60 0.2281661
875.70 0.2280869
875.80 0.2280078
875.90 0.2279286
876.00 0.2278495
876.10 0.2277704
876.20 0.2276914
876.30 0.2276124
876.40 0.2275334
876.50 0.2274544
876.60 0.2273755
876.70 0.2272966
876.80 0.2272177
876.90 0.2271389
877.00 0.2270601
877.10 0.2269813
877.20 0.2269026
877.30 0.2268239
877.40 0.2267452
877.50 0.2266665
877.60 0.2265879
877.70 0.2265093
877.80 0.2264307
877.90 0.2263522
878.00 0.2262737
878.10 0.2261952
878.20 0.2261168
878.30 0.2260384
878.40 0.22596
878.50 0.2258816
878.60 0.2258033
878.70 0.225725
878.80 0.2256467
878.90 0.2255685
879.00 0.2254903
879.10 0.2254121
879.20 0.225334
879.30 0.2252558
879.40 0.2251777
879.50 0.2250997
879.60 0.2250219
879.70 0.2249441
879.80 0.2248664
879.90 0.2247888
880.00 0.2247111
880.10 0.2246335
880.20 0.2245559
880.30 0.2244784
880.40 0.2244009
880.50 0.2243234
880.60 0.2242459
880.70 0.2241685
880.80 0.224091
880.90 0.2240137
881.00 0.2239363
881.10 0.223859
881.20 0.2237817
881.30 0.2237044
881.40 0.2236272
881.50 0.22355
881.60 0.2234728
881.70 0.2233957
881.80 0.2233186
881.90 0.2232415
882.00 0.2231644
882.10 0.2230874
882.20 0.2230104
882.30 0.2229335
882.40 0.2228565
882.50 0.2227796
882.60 0.2227027
882.70 0.2226259
882.80 0.222549
882.90 0.2224723
883.00 0.2223955
883.10 0.2223188
883.20 0.222242
883.30 0.2221654
883.40 0.2220887
883.50 0.2220121
883.60 0.2219355
883.70 0.221859
883.80 0.2217824
883.90 0.2217059
884.00 0.2216281
884.10 0.22155
884.20 0.2214719
884.30 0.2213939
884.40 0.2213158
884.50 0.2212379
884.60 0.2211599
884.70 0.221082
884.80 0.2210041
884.90 0.2209263
885.00 0.2208484
885.10 0.2207706
885.20 0.2206929
885.30 0.2206151
885.40 0.2205374
885.50 0.2204597
885.60 0.2203821
885.70 0.2203044
885.80 0.2202268
885.90 0.2201493
886.00 0.2200718
886.10 0.2199942
886.20 0.2199168
886.30 0.2198393
886.40 0.2197619
886.50 0.2196845
886.60 0.2196072
886.70 0.2195298
886.80 0.2194525
886.90 0.2193753
887.00 0.219298
887.10 0.2192208
887.20 0.2191436
887.30 0.2190665
887.40 0.2189893
887.50 0.2189122
887.60 0.2188352
887.70 0.2187581
887.80 0.2186811
887.90 0.2186042
888.00 0.2185272
888.10 0.2184503
888.20 0.2183734
888.30 0.2182965
888.40 0.2182213
888.50 0.2181464
888.60 0.2180715
888.70 0.2179967
888.80 0.2179218
888.90 0.217847
889.00 0.2177723
889.10 0.2176975
889.20 0.2176228
889.30 0.2175481
889.40 0.2174735
889.50 0.2173988
889.60 0.2173242
889.70 0.2172496
889.80 0.2171751
889.90 0.2171006
890.00 0.2170261
890.10 0.2169516
890.20 0.2168772
890.30 0.2168028
890.40 0.2167284
890.50 0.216654
890.60 0.2165797
890.70 0.2165054
890.80 0.2164311
890.90 0.2163569
891.00 0.2162827
891.10 0.2162085
891.20 0.2161343
891.30 0.2160602
891.40 0.2159861
891.50 0.215912
891.60 0.215838
891.70 0.215764
891.80 0.21569
891.90 0.215616
892.00 0.2155421
892.10 0.2154682
892.20 0.2153943
892.30 0.2153204
892.40 0.2152466
892.50 0.2151728
892.60 0.215099
892.70 0.2150253
892.80 0.2149516
892.90 0.2148779
893.00 0.2148042
893.10 0.2147306
893.20 0.214657
893.30 0.2145834
893.40 0.2145099
893.50 0.2144363
893.60 0.2143628
893.70 0.2142894
893.80 0.2142159
893.90 0.2141425
894.00 0.2140691
894.10 0.2139958
894.20 0.2139225
894.30 0.2138492
894.40 0.2137759
894.50 0.2137026
894.60 0.2136294
894.70 0.2135562
894.80 0.2134831
894.90 0.2134099
895.00 0.2133368
895.10 0.2132637
895.20 0.2131907
895.30 0.2131176
895.40 0.2130446
895.50 0.2129717
895.60 0.2128987
895.70 0.2128258
895.80 0.2127529
895.90 0.2126801
896.00 0.2126072
896.10 0.2125344
896.20 0.2124616
896.30 0.2123889
896.40 0.2123161
896.50 0.2122434
896.60 0.2121708
896.70 0.2120981
896.80 0.2120255
896.90 0.2119529
897.00 0.2118803
897.10 0.2118078
897.20 0.2117352
897.30 0.2116614
897.40 0.2115877
897.50 0.2115139
897.60 0.2114402
897.70 0.2113665
897.80 0.2112929
897.90 0.2112192
898.00 0.2111456
898.10 0.211072
898.20 0.2109985
898.30 0.210925
898.40 0.2108515
898.50 0.210778
898.60 0.2107046
898.70 0.2106312
898.80 0.2105578
898.90 0.2104844
899.00 0.2104111
899.10 0.2103378
899.20 0.2102645
899.30 0.2101913
899.40 0.210118
899.50 0.2100448
899.60 0.2099717
899.70 0.2098985
899.80 0.2098254
899.90 0.2097523
900.00 0.2096793
900.10 0.2096063
900.20 0.2095332
900.30 0.2094603
900.40 0.2093873
900.50 0.2093144
900.60 0.2092415
900.70 0.2091686
900.80 0.2090958
900.90 0.209023
901.00 0.2089502
901.10 0.2088775
901.20 0.2088047
901.30 0.208732
901.40 0.2086593
901.50 0.2085867
901.60 0.2085141
901.70 0.2084418
901.80 0.2083707
901.90 0.2082997
902.00 0.2082288
902.10 0.2081578
902.20 0.2080869
902.30 0.208016
902.40 0.2079452
902.50 0.2078743
902.60 0.2078035
902.70 0.2077328
902.80 0.207662
902.90 0.2075913
903.00 0.2075206
903.10 0.2074499
903.20 0.2073792
903.30 0.2073086
903.40 0.207238
903.50 0.2071675
903.60 0.2070969
903.70 0.2070264
903.80 0.2069559
903.90 0.2068854
904.00 0.206815
904.10 0.2067446
904.20 0.2066742
904.30 0.2066038
904.40 0.2065335
904.50 0.2064632
904.60 0.2063929
904.70 0.2063226
904.80 0.2062524
904.90 0.2061822
905.00 0.206112
905.10 0.2060419
905.20 0.2059717
905.30 0.2059016
905.40 0.2058315
905.50 0.2057615
905.60 0.2056915
905.70 0.2056215
905.80 0.2055515
905.90 0.2054816
906.00 0.2054116
906.10 0.2053417
906.20 0.2052719
906.30 0.2052023
906.40 0.2051328
906.50 0.2050632
906.60 0.2049937
906.70 0.2049242
906.80 0.2048547
906.90 0.2047853
907.00 0.2047159
907.10 0.2046465
907.20 0.2045771
907.30 0.2045078
907.40 0.2044384
907.50 0.2043692
907.60 0.2042999
907.70 0.2042306
907.80 0.2041614
907.90 0.2040922
908.00 0.2040231
908.10 0.2039539
908.20 0.2038848
908.30 0.2038157
908.40 0.2037467
908.50 0.2036776
908.60 0.2036086
908.70 0.2035396
908.80 0.2034707
908.90 0.2034017
909.00 0.2033328
909.10 0.2032639
909.20 0.2031951
909.30 0.2031263
909.40 0.2030574
909.50 0.2029887
909.60 0.2029199
909.70 0.2028512
909.80 0.2027825
909.90 0.2027138
910.00 0.2026451
910.10 0.2025765
910.20 0.2025079
910.30 0.2024393
910.40 0.2023708
910.50 0.2023022
910.60 0.2022337
910.70 0.2021652
910.80 0.2020953
910.90 0.2020253
911.00 0.2019554
911.10 0.2018855
911.20 0.2018157
911.30 0.2017459
911.40 0.2016761
911.50 0.2016063
911.60 0.2015365
911.70 0.2014668
911.80 0.2013971
911.90 0.2013274
912.00 0.2012578
912.10 0.2011882
912.20 0.2011186
912.30 0.201049
912.40 0.2009794
912.50 0.2009099
912.60 0.2008404
912.70 0.200771
912.80 0.2007015
912.90 0.2006321
913.00 0.2005627
913.10 0.2004933
913.20 0.200424
913.30 0.2003547
913.40 0.2002854
913.50 0.2002161
913.60 0.2001469
913.70 0.2000777
913.80 0.2000085
913.90 0.1999393
914.00 0.1998702
914.10 0.1998011
914.20 0.199732
914.30 0.1996629
914.40 0.1995939
914.50 0.1995249
914.60 0.1994559
914.70 0.1993869
914.80 0.199318
914.90 0.1992491
915.00 0.1991802
915.10 0.1991114
915.20 0.1990425
915.30 0.1989749
915.40 0.1989079
915.50 0.1988408
915.60 0.1987738
915.70 0.1987068
915.80 0.1986399
915.90 0.1985729
916.00 0.198506
916.10 0.1984391
916.20 0.1983723
916.30 0.1983054
916.40 0.1982386
916.50 0.1981718
916.60 0.1981051
916.70 0.1980383
916.80 0.1979716
916.90 0.1979049
917.00 0.1978383
917.10 0.1977716
917.20 0.197705
917.30 0.1976384
917.40 0.1975718
917.50 0.1975053
917.60 0.1974388
917.70 0.1973723
917.80 0.1973058
917.90 0.1972393
918.00 0.1971729
918.10 0.1971065
918.20 0.1970401
918.30 0.1969738
918.40 0.1969075
918.50 0.1968412
918.60 0.1967749
918.70 0.1967086
918.80 0.1966424
918.90 0.1965762
919.00 0.19651
919.10 0.1964438
919.20 0.1963777
919.30 0.1963116
919.40 0.1962455
919.50 0.1961795
919.60 0.1961134
919.70 0.1960474
919.80 0.1959814
919.90 0.1959155
920.00 0.1958495
920.10 0.1957836
920.20 0.1957177
920.30 0.1956518
920.40 0.195586
920.50 0.1955202
920.60 0.1954544
920.70 0.1953886
920.80 0.1953228
920.90 0.1952571
921.00 0.1951914
921.10 0.1951257
921.20 0.1950601
921.30 0.1949945
921.40 0.1949289
921.50 0.1948633
921.60 0.1947977
921.70 0.1947322
921.80 0.1946667
921.90 0.1946012
922.00 0.1945357
922.10 0.1944703
922.20 0.1944049
922.30 0.1943395
922.40 0.1942741
922.50 0.1942088
922.60 0.1941434
922.70 0.1940782
922.80 0.1940129
922.90 0.1939476
923.00 0.1938824
923.10 0.1938172
923.20 0.193752
923.30 0.1936869
923.40 0.1936217
923.50 0.1935566
923.60 0.1934916
923.70 0.1934265
923.80 0.1933615
923.90 0.1932964
924.00 0.1932315
924.10 0.1931665
924.20 0.1931016
924.30 0.1930366
924.40 0.1929715
924.50 0.1929055
924.60 0.1928394
924.70 0.1927734
924.80 0.1927074
924.90 0.1926414
925.00 0.1925755
925.10 0.1925095
925.20 0.1924436
925.30 0.1923778
925.40 0.1923119
925.50 0.1922461
925.60 0.1921803
925.70 0.1921145
925.80 0.1920487
925.90 0.191983
926.00 0.1919173
926.10 0.1918516
926.20 0.1917859
926.30 0.1917203
926.40 0.1916547
926.50 0.1915891
926.60 0.1915235
926.70 0.191458
926.80 0.1913924
926.90 0.1913269
927.00 0.1912615
927.10 0.191196
927.20 0.1911306
927.30 0.1910652
927.40 0.1909998
927.50 0.1909345
927.60 0.1908691
927.70 0.1908038
927.80 0.1907385
927.90 0.1906733
928.00 0.1906081
928.10 0.1905428
928.20 0.1904777
928.30 0.1904125
928.40 0.1903473
928.50 0.1902822
928.60 0.1902171
928.70 0.1901521
928.80 0.190087
928.90 0.190022
929.00 0.189957
929.10 0.1898934
929.20 0.1898299
929.30 0.1897663
929.40 0.1897029
929.50 0.1896394
929.60 0.1895759
929.70 0.1895125
929.80 0.1894491
929.90 0.1893857
930.00 0.1893224
930.10 0.1892591
930.20 0.1891958
930.30 0.1891325
930.40 0.1890692
930.50 0.189006
930.60 0.1889428
930.70 0.1888796
930.80 0.1888164
930.90 0.1887533
931.00 0.1886901
931.10 0.188627
931.20 0.188564
931.30 0.1885009
931.40 0.1884379
931.50 0.1883749
931.60 0.1883119
931.70 0.1882489
931.80 0.188186
931.90 0.188123
932.00 0.1880601
932.10 0.1879973
932.20 0.1879344
932.30 0.1878716
932.40 0.1878088
932.50 0.187746
932.60 0.1876832
932.70 0.1876205
932.80 0.1875578
932.90 0.1874951
933.00 0.1874324
933.10 0.1873698
933.20 0.1873071
933.30 0.1872445
933.40 0.187182
933.50 0.1871194
933.60 0.1870569
933.70 0.1869945
933.80 0.1869322
933.90 0.18687
934.00 0.1868078
934.10 0.1867456
934.20 0.1866834
934.30 0.1866212
934.40 0.1865591
934.50 0.186497
934.60 0.1864349
934.70 0.1863728
934.80 0.1863108
934.90 0.1862488
935.00 0.1861868
935.10 0.1861248
935.20 0.1860628
935.30 0.1860009
935.40 0.185939
935.50 0.1858771
935.60 0.1858152
935.70 0.1857534
935.80 0.1856916
935.90 0.1856297
936.00 0.185568
936.10 0.1855062
936.20 0.1854445
936.30 0.1853828
936.40 0.1853211
936.50 0.1852594
936.60 0.1851978
936.70 0.1851361
936.80 0.1850745
936.90 0.185013
937.00 0.1849514
937.10 0.1848899
937.20 0.1848283
937.30 0.1847669
937.40 0.1847054
937.50 0.1846439
937.60 0.1845825
937.70 0.1845211
937.80 0.1844597
937.90 0.1843984
938.00 0.184337
938.10 0.1842757
938.20 0.1842144
938.30 0.1841531
938.40 0.1840919
938.50 0.1840307
938.60 0.1839695
938.70 0.1839083
938.80 0.1838471
938.90 0.183786
939.00 0.1837249
939.10 0.1836638
939.20 0.1836027
939.30 0.1835416
939.40 0.1834806
939.50 0.1834196
939.60 0.1833586
939.70 0.1832976
939.80 0.1832367
939.90 0.1831758
940.00 0.1831149
940.10 0.183054
940.20 0.1829931
940.30 0.1829323
940.40 0.1828715
940.50 0.1828107
940.60 0.1827499
940.70 0.1826892
940.80 0.1826284
940.90 0.1825677
941.00 0.1825071
941.10 0.1824464
941.20 0.1823858
941.30 0.1823251
941.40 0.1822645
941.50 0.182204
941.60 0.1821434
941.70 0.1820829
941.80 0.1820224
941.90 0.1819619
942.00 0.1819014
942.10 0.181841
942.20 0.1817805
942.30 0.1817201
942.40 0.1816598
942.50 0.1815994
942.60 0.1815391
942.70 0.1814787
942.80 0.1814185
942.90 0.1813582
943.00 0.1812978
943.10 0.1812371
943.20 0.1811764
943.30 0.1811158
943.40 0.1810551
943.50 0.1809945
943.60 0.180934
943.70 0.1808734
943.80 0.1808129
943.90 0.1807523
944.00 0.1806919
944.10 0.1806314
944.20 0.1805709
944.30 0.1805105
944.40 0.1804501
944.50 0.1803897
944.60 0.1803294
944.70 0.180269
944.80 0.1802087
944.90 0.1801484
945.00 0.1800881
945.10 0.1800279
945.20 0.1799676
945.30 0.1799074
945.40 0.1798472
945.50 0.1797871
945.60 0.1797269
945.70 0.1796668
945.80 0.1796067
945.90 0.1795466
946.00 0.1794865
946.10 0.1794265
946.20 0.1793665
946.30 0.1793065
946.40 0.1792465
946.50 0.1791865
946.60 0.1791266
946.70 0.1790667
946.80 0.1790068
946.90 0.1789469
947.00 0.1788871
947.10 0.1788272
947.20 0.1787674
947.30 0.1787076
947.40 0.1786479
947.50 0.1785881
947.60 0.1785284
947.70 0.1784687
947.80 0.178409
947.90 0.1783494
948.00 0.1782897
948.10 0.1782301
948.20 0.1781705
948.30 0.178111
948.40 0.1780514
948.50 0.1779919
948.60 0.1779324
948.70 0.1778729
948.80 0.1778134
948.90 0.177754
949.00 0.1776945
949.10 0.1776351
949.20 0.1775757
949.30 0.1775164
949.40 0.177457
949.50 0.1773977
949.60 0.1773384
949.70 0.1772791
949.80 0.1772199
949.90 0.1771607
950.00 0.1771014
950.10 0.1770422
950.20 0.1769831
950.30 0.1769239
950.40 0.1768648
950.50 0.1768057
950.60 0.1767466
950.70 0.1766875
950.80 0.1766285
950.90 0.1765694
951.00 0.1765104
951.10 0.1764515
951.20 0.1763925
951.30 0.1763335
951.40 0.1762746
951.50 0.1762157
951.60 0.1761568
951.70 0.176098
951.80 0.1760391
951.90 0.1759803
952.00 0.1759215
952.10 0.1758628
952.20 0.175804
952.30 0.1757453
952.40 0.1756866
952.50 0.1756288
952.60 0.175571
952.70 0.1755132
952.80 0.1754555
952.90 0.1753977
953.00 0.17534
953.10 0.1752823
953.20 0.1752246
953.30 0.1751669
953.40 0.1751093
953.50 0.1750517
953.60 0.1749941
953.70 0.1749365
953.80 0.174879
953.90 0.1748214
954.00 0.1747639
954.10 0.1747064
954.20 0.1746489
954.30 0.1745915
954.40 0.174534
954.50 0.1744766
954.60 0.1744192
954.70 0.1743618
954.80 0.1743045
954.90 0.1742471
955.00 0.1741898
955.10 0.1741325
955.20 0.1740753
955.30 0.174018
955.40 0.1739608
955.50 0.1739035
955.60 0.1738464
955.70 0.1737892
955.80 0.173732
955.90 0.1736749
956.00 0.1736178
956.10 0.1735607
956.20 0.1735036
956.30 0.1734466
956.40 0.1733895
956.50 0.1733325
956.60 0.1732755
956.70 0.1732185
956.80 0.1731616
956.90 0.1731046
957.00 0.1730477
957.10 0.1729908
957.20 0.172934
957.30 0.1728771
957.40 0.1728203
957.50 0.1727635
957.60 0.1727067
957.70 0.1726499
957.80 0.1725931
957.90 0.1725364
958.00 0.1724797
958.10 0.172423
958.20 0.1723663
958.30 0.1723097
958.40 0.172253
958.50 0.1721964
958.60 0.1721398
958.70 0.1720833
958.80 0.1720267
958.90 0.1719702
959.00 0.1719136
959.10 0.1718572
959.20 0.1718007
959.30 0.1717442
959.40 0.1716878
959.50 0.1716314
959.60 0.171575
959.70 0.1715186
959.80 0.1714622
959.90 0.1714059
960.00 0.1713496
960.10 0.1712933
960.20 0.171237
960.30 0.1711807
960.40 0.1711245
960.50 0.1710683
960.60 0.1710121
960.70 0.1709559
960.80 0.1708998
960.90 0.1708436
961.00 0.1707875
961.10 0.1707314
961.20 0.1706753
961.30 0.1706192
961.40 0.1705632
961.50 0.1705072
961.60 0.1704512
961.70 0.1703952
961.80 0.1703392
961.90 0.1702833
962.00 0.1702275
962.10 0.1701718
962.20 0.1701162
962.30 0.1700605
962.40 0.1700048
962.50 0.1699492
962.60 0.1698936
962.70 0.169838
962.80 0.1697825
962.90 0.1697269
963.00 0.1696714
963.10 0.1696159
963.20 0.1695604
963.30 0.1695049
963.40 0.1694495
963.50 0.169394
963.60 0.1693386
963.70 0.1692832
963.80 0.1692279
963.90 0.1691725
964.00 0.1691172
964.10 0.1690619
964.20 0.1690066
964.30 0.1689513
964.40 0.168896
964.50 0.1688408
964.60 0.1687856
964.70 0.1687304
964.80 0.1686752
964.90 0.1686201
965.00 0.1685649
965.10 0.1685098
965.20 0.1684547
965.30 0.1683996
965.40 0.1683445
965.50 0.1682895
965.60 0.1682345
965.70 0.1681795
965.80 0.1681245
965.90 0.1680695
966.00 0.1680146
966.10 0.1679596
966.20 0.1679047
966.30 0.1678498
966.40 0.167795
966.50 0.1677401
966.60 0.1676853
966.70 0.1676305
966.80 0.1675757
966.90 0.1675209
967.00 0.1674661
967.10 0.1674114
967.20 0.1673567
967.30 0.167302
967.40 0.1672473
967.50 0.1671926
967.60 0.167138
967.70 0.1670834
967.80 0.1670287
967.90 0.1669742
968.00 0.1669196
968.10 0.166865
968.20 0.1668105
968.30 0.166756
968.40 0.1667015
968.50 0.166647
968.60 0.1665926
968.70 0.1665382
968.80 0.1664837
968.90 0.1664293
969.00 0.166375
969.10 0.1663206
969.20 0.1662663
969.30 0.1662119
969.40 0.1661576
969.50 0.1661034
969.60 0.1660491
969.70 0.1659948
969.80 0.1659406
969.90 0.1658864
970.00 0.1658322
970.10 0.1657781
970.20 0.1657239
970.30 0.1656698
970.40 0.1656157
970.50 0.1655616
970.60 0.1655075
970.70 0.1654534
970.80 0.1653994
970.90 0.1653454
971.00 0.1652914
971.10 0.1652374
971.20 0.1651834
971.30 0.1651295
971.40 0.1650755
971.50 0.1650216
971.60 0.1649675
971.70 0.1649132
971.80 0.1648589
971.90 0.1648047
972.00 0.1647504
972.10 0.1646962
972.20 0.164642
972.30 0.1645878
972.40 0.1645337
972.50 0.1644795
972.60 0.1644254
972.70 0.1643713
972.80 0.1643172
972.90 0.1642632
973.00 0.1642091
973.10 0.1641551
973.20 0.1641011
973.30 0.1640471
973.40 0.1639931
973.50 0.1639392
973.60 0.1638852
973.70 0.1638313
973.80 0.1637774
973.90 0.1637236
974.00 0.1636697
974.10 0.1636159
974.20 0.163562
974.30 0.1635082
974.40 0.1634545
974.50 0.1634007
974.60 0.1633469
974.70 0.1632932
974.80 0.1632395
974.90 0.1631858
975.00 0.1631321
975.10 0.1630785
975.20 0.1630249
975.30 0.1629712
975.40 0.1629176
975.50 0.1628641
975.60 0.1628105
975.70 0.162757
975.80 0.1627034
975.90 0.1626499
976.00 0.1625964
976.10 0.162543
976.20 0.1624895
976.30 0.1624361
976.40 0.1623827
976.50 0.1623293
976.60 0.1622759
976.70 0.1622226
976.80 0.1621692
976.90 0.1621159
977.00 0.1620626
977.10 0.1620093
977.20 0.161956
977.30 0.1619028
977.40 0.1618496
977.50 0.1617964
977.60 0.1617432
977.70 0.16169
977.80 0.1616368
977.90 0.1615837
978.00 0.1615306
978.10 0.1614775
978.20 0.1614244
978.30 0.1613713
978.40 0.1613183
978.50 0.1612653
978.60 0.1612123
978.70 0.1611593
978.80 0.1611063
978.90 0.1610533
979.00 0.1610004
979.10 0.1609475
979.20 0.1608946
979.30 0.1608417
979.40 0.1607888
979.50 0.160736
979.60 0.1606832
979.70 0.1606304
979.80 0.1605776
979.90 0.1605248
980.00 0.1604721
980.10 0.1604193
980.20 0.1603666
980.30 0.1603139
980.40 0.1602612
980.50 0.1602086
980.60 0.1601559
980.70 0.1601033
980.80 0.1600507
980.90 0.1599981
981.00 0.1599455
981.10 0.159893
981.20 0.1598404
981.30 0.1597883
981.40 0.1597366
981.50 0.1596849
981.60 0.1596333
981.70 0.1595816
981.80 0.15953
981.90 0.1594784
982.00 0.1594268
982.10 0.1593752
982.20 0.1593236
982.30 0.1592721
982.40 0.1592206
982.50 0.1591691
982.60 0.1591176
982.70 0.1590661
982.80 0.1590147
982.90 0.1589632
983.00 0.1589118
983.10 0.1588604
983.20 0.158809
983.30 0.1587577
983.40 0.1587063
983.50 0.158655
983.60 0.1586037
983.70 0.1585524
983.80 0.1585011
983.90 0.1584498
984.00 0.1583986
984.10 0.1583474
984.20 0.1582962
984.30 0.158245
984.40 0.1581938
984.50 0.1581426
984.60 0.1580915
984.70 0.1580404
984.80 0.1579893
984.90 0.1579382
985.00 0.1578871
985.10 0.1578361
985.20 0.157785
985.30 0.157734
985.40 0.157683
985.50 0.1576321
985.60 0.1575811
985.70 0.1575301
985.80 0.1574792
985.90 0.1574283
986.00 0.1573774
986.10 0.1573265
986.20 0.1572757
986.30 0.1572248
986.40 0.157174
986.50 0.1571232
986.60 0.1570724
986.70 0.1570216
986.80 0.1569709
986.90 0.1569202
987.00 0.1568694
987.10 0.1568187
987.20 0.1567681
987.30 0.1567174
987.40 0.1566667
987.50 0.1566161
987.60 0.1565655
987.70 0.1565149
987.80 0.1564643
987.90 0.1564137
988.00 0.1563632
988.10 0.1563127
988.20 0.1562622
988.30 0.1562117
988.40 0.1561612
988.50 0.1561107
988.60 0.1560603
988.70 0.1560099
988.80 0.1559594
988.90 0.1559091
989.00 0.1558587
989.10 0.1558083
989.20 0.155758
989.30 0.1557077
989.40 0.1556574
989.50 0.1556071
989.60 0.1555568
989.70 0.1555065
989.80 0.1554563
989.90 0.1554061
990.00 0.1553559
990.10 0.1553057
990.20 0.1552555
990.30 0.1552054
990.40 0.1551552
990.50 0.1551051
990.60 0.155055
990.70 0.1550049
990.80 0.1549549
990.90 0.1549048
991.00 0.1548548
991.10 0.1548049
991.20 0.154755
991.30 0.1547052
991.40 0.1546555
991.50 0.1546057
991.60 0.154556
991.70 0.1545062
991.80 0.1544565
991.90 0.1544068
992.00 0.1543571
992.10 0.1543075
992.20 0.1542578
992.30 0.1542082
992.40 0.1541586
992.50 0.154109
992.60 0.1540594
992.70 0.1540099
992.80 0.1539603
992.90 0.1539108
993.00 0.1538613
993.10 0.1538118
993.20 0.1537623
993.30 0.1537128
993.40 0.1536634
993.50 0.153614
993.60 0.1535646
993.70 0.1535152
993.80 0.1534658
993.90 0.1534164
994.00 0.1533671
994.10 0.1533178
994.20 0.1532685
994.30 0.1532192
994.40 0.1531699
994.50 0.1531206
994.60 0.1530714
994.70 0.1530222
994.80 0.152973
994.90 0.1529238
995.00 0.1528746
995.10 0.1528254
995.20 0.1527763
995.30 0.1527272
995.40 0.1526781
995.50 0.152629
995.60 0.1525799
995.70 0.1525308
995.80 0.1524818
995.90 0.1524328
996.00 0.1523838
996.10 0.1523348
996.20 0.1522858
996.30 0.1522369
996.40 0.1521879
996.50 0.152139
996.60 0.1520901
996.70 0.1520412
996.80 0.1519923
996.90 0.1519435
997.00 0.1518946
997.10 0.1518458
997.20 0.151797
997.30 0.1517482
997.40 0.1516994
997.50 0.1516507
997.60 0.1516019
997.70 0.1515532
997.80 0.1515045
997.90 0.1514558
998.00 0.1514071
998.10 0.1513585
998.20 0.1513098
998.30 0.1512612
998.40 0.1512126
998.50 0.151164
998.60 0.1511154
998.70 0.1510669
998.80 0.1510183
998.90 0.1509698
999.00 0.1509213
999.10 0.1508728
999.20 0.1508243
999.30 0.1507759
999.40 0.1507274
999.50 0.150679
999.60 0.1506306
999.70 0.1505822
999.80 0.1505338
999.90 0.1504855
1000.00 0.1504371
1000.10 0.1503888
1000.20 0.1503405
1000.30 0.1502922
1000.40 0.1502439
1000.50 0.1501956
1000.60 0.1501474
1000.70 0.1500991
1000.80 0.1500509
1000.90 0.1500027
1001.00 0.1499546
1001.10 0.1499066
1001.20 0.1498586
1001.30 0.1498107
1001.40 0.1497627
1001.50 0.1497148
1001.60 0.1496669
1001.70 0.149619
1001.80 0.1495711
1001.90 0.1495233
1002.00 0.1494754
1002.10 0.1494276
1002.20 0.1493798
1002.30 0.149332
1002.40 0.1492842
1002.50 0.1492365
1002.60 0.1491887
1002.70 0.149141
1002.80 0.1490933
1002.90 0.1490456
1003.00 0.1489979
1003.10 0.1489502
1003.20 0.1489026
1003.30 0.1488549
1003.40 0.1488073
1003.50 0.1487597
1003.60 0.1487121
1003.70 0.1486646
1003.80 0.148617
1003.90 0.1485695
1004.00 0.1485219
1004.10 0.1484744
1004.20 0.1484269
1004.30 0.1483795
1004.40 0.148332
1004.50 0.1482846
1004.60 0.1482371
1004.70 0.1481897
1004.80 0.1481423
1004.90 0.148095
1005.00 0.1480476
1005.10 0.1480003
1005.20 0.1479529
1005.30 0.1479056
1005.40 0.1478583
1005.50 0.147811
1005.60 0.1477638
1005.70 0.1477165
1005.80 0.1476693
1005.90 0.1476221
1006.00 0.1475748
1006.10 0.1475277
1006.20 0.1474805
1006.30 0.1474333
1006.40 0.1473862
1006.50 0.1473391
1006.60 0.1472919
1006.70 0.1472448
1006.80 0.1471978
1006.90 0.1471507
1007.00 0.1471036
1007.10 0.1470566
1007.20 0.1470096
1007.30 0.1469626
1007.40 0.1469156
1007.50 0.1468686
1007.60 0.1468217
1007.70 0.1467747
1007.80 0.1467278
1007.90 0.1466809
1008.00 0.146634
1008.10 0.1465871
1008.20 0.1465403
1008.30 0.1464934
1008.40 0.1464466
1008.50 0.1463998
1008.60 0.146353
1008.70 0.1463062
1008.80 0.1462595
1008.90 0.1462127
1009.00 0.146166
1009.10 0.1461193
1009.20 0.1460725
1009.30 0.1460259
1009.40 0.1459792
1009.50 0.1459325
1009.60 0.1458859
1009.70 0.1458393
1009.80 0.1457927
1009.90 0.1457461
1010.00 0.1456995
1010.10 0.1456529
1010.20 0.1456064
1010.30 0.1455598
1010.40 0.1455133
1010.50 0.1454668
1010.60 0.1454203
1010.70 0.1453739
1010.80 0.1453274
1010.90 0.145281
1011.00 0.1452346
1011.10 0.1451884
1011.20 0.1451421
1011.30 0.1450959
1011.40 0.1450498
1011.50 0.1450036
1011.60 0.1449574
1011.70 0.1449113
1011.80 0.1448652
1011.90 0.1448191
1012.00 0.144773
1012.10 0.1447269
1012.20 0.1446809
1012.30 0.1446348
1012.40 0.1445888
1012.50 0.1445428
1012.60 0.1444968
1012.70 0.1444508
1012.80 0.1444048
1012.90 0.1443589
1013.00 0.1443129
1013.10 0.144267
1013.20 0.1442211
1013.30 0.1441752
1013.40 0.1441293
1013.50 0.1440835
1013.60 0.1440376
1013.70 0.1439918
1013.80 0.143946
1013.90 0.1439002
1014.00 0.1438544
1014.10 0.1438086
1014.20 0.1437629
1014.30 0.1437171
1014.40 0.1436714
1014.50 0.1436257
1014.60 0.14358
1014.70 0.1435343
1014.80 0.1434887
1014.90 0.143443
1015.00 0.1433974
1015.10 0.1433518
1015.20 0.1433062
1015.30 0.1432606
1015.40 0.143215
1015.50 0.1431695
1015.60 0.1431239
1015.70 0.1430784
1015.80 0.1430329
1015.90 0.1429874
1016.00 0.1429419
1016.10 0.1428971
1016.20 0.1428528
1016.30 0.1428084
1016.40 0.1427641
1016.50 0.1427198
1016.60 0.1426755
1016.70 0.1426312
1016.80 0.1425869
1016.90 0.1425426
1017.00 0.1424984
1017.10 0.1424541
1017.20 0.1424099
1017.30 0.1423657
1017.40 0.1423215
1017.50 0.1422773
1017.60 0.1422332
1017.70 0.142189
1017.80 0.1421449
1017.90 0.1421008
1018.00 0.1420567
1018.10 0.1420126
1018.20 0.1419685
1018.30 0.1419245
1018.40 0.1418804
1018.50 0.1418364
1018.60 0.1417924
1018.70 0.1417484
1018.80 0.1417044
1018.90 0.1416604
1019.00 0.1416164
1019.10 0.1415725
1019.20 0.1415286
1019.30 0.1414847
1019.40 0.1414408
1019.50 0.1413969
1019.60 0.141353
1019.70 0.1413092
1019.80 0.1412653
1019.90 0.1412215
1020.00 0.1411777
1020.10 0.1411339
1020.20 0.1410901
1020.30 0.1410463
1020.40 0.1410026
1020.50 0.1409588
1020.60 0.1409151
1020.70 0.1408714
1020.80 0.1408277
1020.90 0.140784
1021.00 0.1407403
1021.10 0.1406966
1021.20 0.1406521
1021.30 0.1406076
1021.40 0.140563
1021.50 0.1405186
1021.60 0.1404741
1021.70 0.1404296
1021.80 0.1403852
1021.90 0.1403407
1022.00 0.1402963
1022.10 0.1402519
1022.20 0.1402075
1022.30 0.1401631
1022.40 0.1401187
1022.50 0.1400744
1022.60 0.1400301
1022.70 0.1399857
1022.80 0.1399414
1022.90 0.1398971
1023.00 0.1398529
1023.10 0.1398086
1023.20 0.1397644
1023.30 0.1397201
1023.40 0.1396759
1023.50 0.1396317
1023.60 0.1395875
1023.70 0.1395434
1023.80 0.1394992
1023.90 0.139455
1024.00 0.1394109
1024.10 0.1393668
1024.20 0.1393227
1024.30 0.1392786
1024.40 0.1392345
1024.50 0.1391905
1024.60 0.1391464
1024.70 0.1391024
1024.80 0.1390584
1024.90 0.1390144
1025.00 0.1389704
1025.10 0.1389265
1025.20 0.1388825
1025.30 0.1388386
1025.40 0.1387946
1025.50 0.1387507
1025.60 0.1387068
1025.70 0.1386629
1025.80 0.1386191
1025.90 0.1385752
1026.00 0.1385314
1026.10 0.1384876
1026.20 0.1384437
1026.30 0.1383999
1026.40 0.1383562
1026.50 0.1383124
1026.60 0.1382686
1026.70 0.1382249
1026.80 0.1381812
1026.90 0.1381375
1027.00 0.1380938
1027.10 0.1380501
1027.20 0.1380064
1027.30 0.1379627
1027.40 0.1379191
1027.50 0.1378755
1027.60 0.1378319
1027.70 0.1377883
1027.80 0.1377447
1027.90 0.1377011
1028.00 0.1376576
1028.10 0.137614
1028.20 0.1375705
1028.30 0.137527
1028.40 0.1374835
1028.50 0.13744
1028.60 0.1373965
1028.70 0.1373531
1028.80 0.1373096
1028.90 0.1372662
1029.00 0.1372228
1029.10 0.1371794
1029.20 0.137136
1029.30 0.1370927
1029.40 0.1370493
1029.50 0.137006
1029.60 0.1369626
1029.70 0.1369193
1029.80 0.136876
1029.90 0.1368327
1030.00 0.1367895
1030.10 0.1367462
1030.20 0.136703
1030.30 0.1366597
1030.40 0.1366165
1030.50 0.1365733
1030.60 0.1365302
1030.70 0.136487
1030.80 0.1364438
1030.90 0.1364007
1031.00 0.1363576
1031.10 0.1363144
1031.20 0.1362714
1031.30 0.1362283
1031.40 0.1361854
1031.50 0.1361425
1031.60 0.1360996
1031.70 0.1360567
1031.80 0.1360139
1031.90 0.1359711
1032.00 0.1359282
1032.10 0.1358854
1032.20 0.1358426
1032.30 0.1357999
1032.40 0.1357571
1032.50 0.1357144
1032.60 0.1356716
1032.70 0.1356289
1032.80 0.1355862
1032.90 0.1355435
1033.00 0.1355008
1033.10 0.1354582
1033.20 0.1354155
1033.30 0.1353729
1033.40 0.1353303
1033.50 0.1352876
1033.60 0.1352451
1033.70 0.1352025
1033.80 0.1351599
1033.90 0.1351174
1034.00 0.1350748
1034.10 0.1350323
1034.20 0.1349898
1034.30 0.1349473
1034.40 0.1349048
1034.50 0.1348623
1034.60 0.1348199
1034.70 0.1347774
1034.80 0.134735
1034.90 0.1346926
1035.00 0.1346502
1035.10 0.1346078
1035.20 0.1345654
1035.30 0.1345231
1035.40 0.1344807
1035.50 0.1344384
1035.60 0.1343961
1035.70 0.1343538
1035.80 0.1343115
1035.90 0.1342692
1036.00 0.134227
1036.10 0.1341847
1036.20 0.1341425
1036.30 0.1341003
1036.40 0.1340581
1036.50 0.1340159
1036.60 0.1339737
1036.70 0.1339315
1036.80 0.1338894
1036.90 0.1338472
1037.00 0.1338051
1037.10 0.133763
1037.20 0.1337209
1037.30 0.1336788
1037.40 0.1336367
1037.50 0.1335947
1037.60 0.1335526
1037.70 0.1335106
1037.80 0.1334686
1037.90 0.1334266
1038.00 0.1333846
1038.10 0.1333426
1038.20 0.1333007
1038.30 0.1332587
1038.40 0.1332168
1038.50 0.1331749
1038.60 0.133133
1038.70 0.1330911
1038.80 0.1330492
1038.90 0.1330073
1039.00 0.1329655
1039.10 0.1329236
1039.20 0.1328818
1039.30 0.13284
1039.40 0.1327982
1039.50 0.1327564
1039.60 0.1327146
1039.70 0.1326729
1039.80 0.1326311
1039.90 0.1325894
1040.00 0.1325477
1040.10 0.132506
1040.20 0.1324643
1040.30 0.1324226
1040.40 0.132381
1040.50 0.1323393
1040.60 0.1322977
1040.70 0.1322561
1040.80 0.1322145
1040.90 0.1321729
1041.00 0.1321313
1041.10 0.1320897
1041.20 0.1320482
1041.30 0.1320066
1041.40 0.1319651
1041.50 0.1319236
1041.60 0.1318821
1041.70 0.1318416
1041.80 0.1318012
1041.90 0.131761
1042.00 0.1317207
1042.10 0.1316804
1042.20 0.1316401
1042.30 0.1315999
1042.40 0.1315597
1042.50 0.1315194
1042.60 0.1314792
1042.70 0.131439
1042.80 0.1313989
1042.90 0.1313587
1043.00 0.1313185
1043.10 0.1312784
1043.20 0.1312383
1043.30 0.1311982
1043.40 0.131158
1043.50 0.131118
1043.60 0.1310779
1043.70 0.1310378
1043.80 0.1309978
1043.90 0.1309577
1044.00 0.1309177
1044.10 0.1308777
1044.20 0.1308377
1044.30 0.1307977
1044.40 0.1307577
1044.50 0.1307178
1044.60 0.1306778
1044.70 0.1306379
1044.80 0.130598
1044.90 0.1305581
1045.00 0.1305182
1045.10 0.1304783
1045.20 0.1304384
1045.30 0.1303986
1045.40 0.1303587
1045.50 0.1303189
1045.60 0.1302791
1045.70 0.1302393
1045.80 0.1301995
1045.90 0.1301597
1046.00 0.1301199
1046.10 0.1300802
1046.20 0.1300404
1046.30 0.1300007
1046.40 0.129961
1046.50 0.1299213
1046.60 0.1298816
1046.70 0.1298419
1046.80 0.1298022
1046.90 0.1297618
1047.00 0.1297212
1047.10 0.1296806
1047.20 0.12964
1047.30 0.1295994
1047.40 0.1295588
1047.50 0.1295183
1047.60 0.1294777
1047.70 0.1294372
1047.80 0.1293966
1047.90 0.1293561
1048.00 0.1293156
1048.10 0.1292752
1048.20 0.1292347
1048.30 0.1291942
1048.40 0.1291538
1048.50 0.1291133
1048.60 0.1290729
1048.70 0.1290325
1048.80 0.1289921
1048.90 0.1289517
1049.00 0.1289114
1049.10 0.128871
1049.20 0.1288307
1049.30 0.1287904
1049.40 0.12875
1049.50 0.1287097
1049.60 0.1286694
1049.70 0.1286292
1049.80 0.1285889
1049.90 0.1285487
1050.00 0.1285084
1050.10 0.1284682
1050.20 0.128428
1050.30 0.1283878
1050.40 0.1283476
1050.50 0.1283074
1050.60 0.1282673
1050.70 0.1282271
1050.80 0.128187
1050.90 0.1281469
1051.00 0.1281068
1051.10 0.1280667
1051.20 0.1280266
1051.30 0.1279865
1051.40 0.1279465
1051.50 0.1279064
1051.60 0.1278664
1051.70 0.1278264
1051.80 0.1277864
1051.90 0.1277464
1052.00 0.1277064
1052.10 0.1276669
1052.20 0.1276276
1052.30 0.1275883
1052.40 0.127549
1052.50 0.1275097
1052.60 0.1274704
1052.70 0.1274312
1052.80 0.127392
1052.90 0.1273527
1053.00 0.1273135
1053.10 0.1272743
1053.20 0.1272351
1053.30 0.127196
1053.40 0.1271568
1053.50 0.1271177
1053.60 0.1270785
1053.70 0.1270394
1053.80 0.1270003
1053.90 0.1269612
1054.00 0.1269221
1054.10 0.1268831
1054.20 0.126844
1054.30 0.1268049
1054.40 0.1267659
1054.50 0.1267269
1054.60 0.1266879
1054.70 0.1266489
1054.80 0.1266099
1054.90 0.1265709
1055.00 0.126532
1055.10 0.126493
1055.20 0.1264541
1055.30 0.1264152
1055.40 0.1263763
1055.50 0.1263374
1055.60 0.1262985
1055.70 0.1262596
1055.80 0.1262208
1055.90 0.1261819
1056.00 0.1261431
1056.10 0.1261043
1056.20 0.1260654
1056.30 0.1260266
1056.40 0.1259879
1056.50 0.1259491
1056.60 0.1259103
1056.70 0.1258716
1056.80 0.1258328
1056.90 0.1257941
1057.00 0.1257554
1057.10 0.1257167
1057.20 0.125678
1057.30 0.1256394
1057.40 0.1256007
1057.50 0.1255621
1057.60 0.1255234
1057.70 0.1254848
1057.80 0.1254462
1057.90 0.1254076
1058.00 0.125369
1058.10 0.1253304
1058.20 0.1252919
1058.30 0.1252533
1058.40 0.1252148
1058.50 0.1251763
1058.60 0.1251377
1058.70 0.1250992
1058.80 0.1250608
1058.90 0.1250223
1059.00 0.1249838
1059.10 0.1249454
1059.20 0.1249069
1059.30 0.1248685
1059.40 0.1248301
1059.50 0.1247917
1059.60 0.1247533
1059.70 0.1247149
1059.80 0.1246766
1059.90 0.1246382
1060.00 0.1245999
1060.10 0.1245615
1060.20 0.1245232
1060.30 0.1244849
1060.40 0.1244466
1060.50 0.1244084
1060.60 0.1243701
1060.70 0.1243318
1060.80 0.1242936
1060.90 0.1242554
1061.00 0.1242171
1061.10 0.1241789
1061.20 0.1241407
1061.30 0.1241026
1061.40 0.1240644
1061.50 0.1240262
1061.60 0.1239881
1061.70 0.12395
1061.80 0.1239118
1061.90 0.1238737
1062.00 0.1238356
1062.10 0.1237975
1062.20 0.1237595
1062.30 0.1237214
1062.40 0.1236834
1062.50 0.1236453
1062.60 0.1236072
1062.70 0.1235688
1062.80 0.1235305
1062.90 0.1234922
1063.00 0.1234539
1063.10 0.1234156
1063.20 0.1233773
1063.30 0.1233391
1063.40 0.1233008
1063.50 0.1232626
1063.60 0.1232243
1063.70 0.1231861
1063.80 0.1231479
1063.90 0.1231097
1064.00 0.1230716
1064.10 0.1230334
1064.20 0.1229952
1064.30 0.1229571
1064.40 0.122919
1064.50 0.1228809
1064.60 0.1228428
1064.70 0.1228047
1064.80 0.1227666
1064.90 0.1227285
1065.00 0.1226905
1065.10 0.1226524
1065.20 0.1226144
1065.30 0.1225764
1065.40 0.1225384
1065.50 0.1225004
1065.60 0.1224624
1065.70 0.1224244
1065.80 0.1223864
1065.90 0.1223485
1066.00 0.1223106
1066.10 0.1222726
1066.20 0.1222347
1066.30 0.1221968
1066.40 0.1221589
1066.50 0.1221211
1066.60 0.1220832
1066.70 0.1220454
1066.80 0.1220075
1066.90 0.1219697
1067.00 0.1219319
1067.10 0.1218941
1067.20 0.1218563
1067.30 0.1218185
1067.40 0.1217807
1067.50 0.121743
1067.60 0.1217052
1067.70 0.1216675
1067.80 0.1216298
1067.90 0.1215924
1068.00 0.1215556
1068.10 0.1215189
1068.20 0.1214821
1068.30 0.1214454
1068.40 0.1214087
1068.50 0.121372
1068.60 0.1213353
1068.70 0.1212986
1068.80 0.1212619
1068.90 0.1212253
1069.00 0.1211886
1069.10 0.121152
1069.20 0.1211154
1069.30 0.1210788
1069.40 0.1210422
1069.50 0.1210056
1069.60 0.120969
1069.70 0.1209324
1069.80 0.1208959
1069.90 0.1208593
1070.00 0.1208228
1070.10 0.1207863
1070.20 0.1207498
1070.30 0.1207133
1070.40 0.1206768
1070.50 0.1206403
1070.60 0.1206038
1070.70 0.1205674
1070.80 0.1205309
1070.90 0.1204945
1071.00 0.1204581
1071.10 0.1204217
1071.20 0.1203853
1071.30 0.1203489
1071.40 0.1203125
1071.50 0.1202762
1071.60 0.1202398
1071.70 0.1202035
1071.80 0.1201672
1071.90 0.1201309
1072.00 0.1200946
1072.10 0.1200583
1072.20 0.120022
1072.30 0.1199857
1072.40 0.1199495
1072.50 0.1199132
1072.60 0.119877
1072.70 0.1198408
1072.80 0.1198045
1072.90 0.1197683
1073.00 0.1197322
1073.10 0.119696
1073.20 0.1196598
1073.30 0.1196238
1073.40 0.1195878
1073.50 0.1195518
1073.60 0.1195159
1073.70 0.1194799
1073.80 0.1194439
1073.90 0.119408
1074.00 0.1193721
1074.10 0.1193361
1074.20 0.1193002
1074.30 0.1192643
1074.40 0.1192284
1074.50 0.1191925
1074.60 0.1191567
1074.70 0.1191208
1074.80 0.119085
1074.90 0.1190491
1075.00 0.1190133
1075.10 0.1189775
1075.20 0.1189417
1075.30 0.1189059
1075.40 0.1188701
1075.50 0.1188344
1075.60 0.1187986
1075.70 0.1187629
1075.80 0.1187272
1075.90 0.1186914
1076.00 0.1186557
1076.10 0.11862
1076.20 0.1185843
1076.30 0.1185487
1076.40 0.118513
1076.50 0.1184773
1076.60 0.1184417
1076.70 0.1184061
1076.80 0.1183704
1076.90 0.1183348
1077.00 0.1182992
1077.10 0.1182637
1077.20 0.1182281
1077.30 0.1181925
1077.40 0.118157
1077.50 0.1181214
1077.60 0.1180859
1077.70 0.1180504
1077.80 0.1180149
1077.90 0.1179794
1078.00 0.1179439
1078.10 0.1179084
1078.20 0.1178729
1078.30 0.1178375
1078.40 0.117802
1078.50 0.1177666
1078.60 0.1177307
1078.70 0.1176944
1078.80 0.1176581
1078.90 0.1176218
1079.00 0.1175855
1079.10 0.1175492
1079.20 0.117513
1079.30 0.1174767
1079.40 0.1174405
1079.50 0.1174043
1079.60 0.1173681
1079.70 0.1173319
1079.80 0.1172957
1079.90 0.1172595
1080.00 0.1172234
1080.10 0.1171872
1080.20 0.1171511
1080.30 0.1171149
1080.40 0.1170788
1080.50 0.1170427
1080.60 0.1170066
1080.70 0.1169705
1080.80 0.1169344
1080.90 0.1168984
1081.00 0.1168623
1081.10 0.1168263
1081.20 0.1167903
1081.30 0.1167542
1081.40 0.1167182
1081.50 0.1166822
1081.60 0.1166463
1081.70 0.1166103
1081.80 0.1165743
1081.90 0.1165384
1082.00 0.1165024
1082.10 0.1164665
1082.20 0.1164306
1082.30 0.1163947
1082.40 0.1163588
1082.50 0.1163229
1082.60 0.116287
1082.70 0.1162512
1082.80 0.1162153
1082.90 0.1161795
1083.00 0.1161437
1083.10 0.1161079
1083.20 0.1160721
1083.30 0.1160363
1083.40 0.1160005
1083.50 0.1159647
1083.60 0.115929
1083.70 0.1158932
1083.80 0.1158575
1083.90 0.1158217
1084.00 0.115787
1084.10 0.1157523
1084.20 0.1157176
1084.30 0.115683
1084.40 0.1156483
1084.50 0.1156137
1084.60 0.1155791
1084.70 0.1155445
1084.80 0.1155099
1084.90 0.1154753
1085.00 0.1154407
1085.10 0.1154062
1085.20 0.1153716
1085.30 0.1153371
1085.40 0.1153025
1085.50 0.115268
1085.60 0.1152335
1085.70 0.115199
1085.80 0.1151645
1085.90 0.11513
1086.00 0.1150956
1086.10 0.1150611
1086.20 0.1150267
1086.30 0.1149922
1086.40 0.1149578
1086.50 0.1149234
1086.60 0.114889
1086.70 0.1148546
1086.80 0.1148202
1086.90 0.1147858
1087.00 0.1147515
1087.10 0.1147171
1087.20 0.1146828
1087.30 0.1146485
1087.40 0.1146142
1087.50 0.1145798
1087.60 0.1145456
1087.70 0.1145113
1087.80 0.114477
1087.90 0.1144427
1088.00 0.1144085
1088.10 0.1143742
1088.20 0.11434
1088.30 0.1143058
1088.40 0.1142716
1088.50 0.1142374
1088.60 0.1142032
1088.70 0.114169
1088.80 0.1141348
1088.90 0.1141007
1089.00 0.1140665
1089.10 0.1140324
1089.20 0.1139983
1089.30 0.1139642
1089.40 0.1139294
1089.50 0.1138945
1089.60 0.1138595
1089.70 0.1138246
1089.80 0.1137896
1089.90 0.1137547
1090.00 0.1137198
1090.10 0.1136849
1090.20 0.11365
1090.30 0.1136151
1090.40 0.1135802
1090.50 0.1135453
1090.60 0.1135105
1090.70 0.1134756
1090.80 0.1134408
1090.90 0.113406
1091.00 0.1133712
1091.10 0.1133364
1091.20 0.1133016
1091.30 0.1132668
1091.40 0.113232
1091.50 0.1131973
1091.60 0.1131625
1091.70 0.1131278
1091.80 0.1130931
1091.90 0.1130583
1092.00 0.1130236
1092.10 0.1129889
1092.20 0.1129543
1092.30 0.1129196
1092.40 0.1128849
1092.50 0.1128503
1092.60 0.1128157
1092.70 0.112781
1092.80 0.1127464
1092.90 0.1127118
1093.00 0.1126772
1093.10 0.1126426
1093.20 0.112608
1093.30 0.1125735
1093.40 0.1125389
1093.50 0.1125044
1093.60 0.1124699
1093.70 0.1124353
1093.80 0.1124008
1093.90 0.1123663
1094.00 0.1123318
1094.10 0.1122974
1094.20 0.1122629
1094.30 0.1122284
1094.40 0.112194
1094.50 0.1121596
1094.60 0.1121251
1094.70 0.1120907
1094.80 0.1120568
1094.90 0.1120234
1095.00 0.1119901
1095.10 0.1119567
1095.20 0.1119233
1095.30 0.11189
1095.40 0.1118567
1095.50 0.1118233
1095.60 0.11179
1095.70 0.1117567
1095.80 0.1117234
1095.90 0.1116901
1096.00 0.1116568
1096.10 0.1116236
1096.20 0.1115903
1096.30 0.1115571
1096.40 0.1115238
1096.50 0.1114906
1096.60 0.1114574
1096.70 0.1114242
1096.80 0.111391
1096.90 0.1113578
1097.00 0.1113246
1097.10 0.1112915
1097.20 0.1112583
1097.30 0.1112252
1097.40 0.111192
1097.50 0.1111589
1097.60 0.1111258
1097.70 0.1110927
1097.80 0.1110596
1097.90 0.1110265
1098.00 0.1109935
1098.10 0.1109604
1098.20 0.1109274
1098.30 0.1108943
1098.40 0.1108613
1098.50 0.1108283
1098.60 0.1107953
1098.70 0.1107623
1098.80 0.1107293
1098.90 0.1106963
1099.00 0.1106633
1099.10 0.1106304
1099.20 0.1105974
1099.30 0.1105645
1099.40 0.1105315
1099.50 0.1104986
1099.60 0.1104657
1099.70 0.1104328
1099.80 0.1103999
1099.90 0.110367
1100.00 0.1103342
1100.10 0.1103013
1100.20 0.1102685
1100.30 0.1102356
1100.40 0.1102028
1100.50 0.11017
1100.60 0.1101372
1100.70 0.1101044
1100.80 0.1100716
1100.90 0.1100388
1101.00 0.110006
1101.10 0.1099733
1101.20 0.1099405
1101.30 0.1099078
1101.40 0.1098751
1101.50 0.1098424
1101.60 0.1098097
1101.70 0.109777
1101.80 0.1097443
1101.90 0.1097116
1102.00 0.1096789
1102.10 0.1096463
1102.20 0.1096136
1102.30 0.109581
1102.40 0.1095484
1102.50 0.1095158
1102.60 0.1094831
1102.70 0.1094505
1102.80 0.109418
1102.90 0.1093854
1103.00 0.1093528
1103.10 0.1093203
1103.20 0.1092877
1103.30 0.1092552
1103.40 0.1092227
1103.50 0.1091901
1103.60 0.1091576
1103.70 0.1091251
1103.80 0.1090927
1103.90 0.1090602
1104.00 0.1090277
1104.10 0.1089953
1104.20 0.1089628
1104.30 0.1089304
1104.40 0.1088979
1104.50 0.1088655
1104.60 0.1088331
1104.70 0.1088007
1104.80 0.1087683
1104.90 0.108736
1105.00 0.1087036
1105.10 0.1086712
1105.20 0.1086389
1105.30 0.1086066
1105.40 0.1085742
1105.50 0.1085419
1105.60 0.1085096
1105.70 0.1084773
1105.80 0.1084452
1105.90 0.108413
1106.00 0.1083809
1106.10 0.1083487
1106.20 0.1083166
1106.30 0.1082845
1106.40 0.1082524
1106.50 0.1082203
1106.60 0.1081882
1106.70 0.1081561
1106.80 0.1081241
1106.90 0.108092
1107.00 0.10806
1107.10 0.1080279
1107.20 0.1079959
1107.30 0.1079639
1107.40 0.1079319
1107.50 0.1078999
1107.60 0.1078679
1107.70 0.1078359
1107.80 0.107804
1107.90 0.107772
1108.00 0.1077401
1108.10 0.1077081
1108.20 0.1076762
1108.30 0.1076443
1108.40 0.1076124
1108.50 0.1075805
1108.60 0.1075486
1108.70 0.1075167
1108.80 0.1074849
1108.90 0.107453
1109.00 0.1074211
1109.10 0.1073893
1109.20 0.1073575
1109.30 0.1073257
1109.40 0.1072938
1109.50 0.107262
1109.60 0.1072303
1109.70 0.1071985
1109.80 0.1071667
1109.90 0.1071349
1110.00 0.1071032
1110.10 0.1070714
1110.20 0.1070397
1110.30 0.107008
1110.40 0.1069763
1110.50 0.1069446
1110.60 0.1069129
1110.70 0.1068812
1110.80 0.1068495
1110.90 0.1068179
1111.00 0.1067862
1111.10 0.1067546
1111.20 0.1067229
1111.30 0.1066913
1111.40 0.1066597
1111.50 0.1066281
1111.60 0.1065965
1111.70 0.1065649
1111.80 0.1065333
1111.90 0.1065018
1112.00 0.1064702
1112.10 0.1064386
1112.20 0.1064071
1112.30 0.1063756
1112.40 0.1063441
1112.50 0.1063125
1112.60 0.106281
1112.70 0.1062496
1112.80 0.1062181
1112.90 0.1061866
1113.00 0.1061551
1113.10 0.1061237
1113.20 0.1060922
1113.30 0.1060608
1113.40 0.1060294
1113.50 0.105998
1113.60 0.1059666
1113.70 0.1059352
1113.80 0.1059038
1113.90 0.1058724
1114.00 0.1058411
1114.10 0.1058097
1114.20 0.1057783
1114.30 0.105747
1114.40 0.1057157
1114.50 0.1056844
1114.60 0.1056531
1114.70 0.1056218
1114.80 0.1055905
1114.90 0.1055592
1115.00 0.1055279
1115.10 0.1054967
1115.20 0.1054654
1115.30 0.1054342
1115.40 0.1054029
1115.50 0.1053717
1115.60 0.1053405
1115.70 0.1053093
1115.80 0.1052781
1115.90 0.1052469
1116.00 0.1052157
1116.10 0.1051846
1116.20 0.1051534
1116.30 0.1051223
1116.40 0.1050911
1116.50 0.10506
1116.60 0.1050289
1116.70 0.1049978
1116.80 0.1049667
1116.90 0.1049357
1117.00 0.1049048
1117.10 0.1048738
1117.20 0.1048429
1117.30 0.104812
1117.40 0.104781
1117.50 0.1047501
1117.60 0.1047192
1117.70 0.1046883
1117.80 0.1046575
1117.90 0.1046266
1118.00 0.1045957
1118.10 0.1045649
1118.20 0.104534
1118.30 0.1045032
1118.40 0.1044723
1118.50 0.1044415
1118.60 0.1044107
1118.70 0.1043799
1118.80 0.1043491
1118.90 0.1043184
1119.00 0.1042876
1119.10 0.1042568
1119.20 0.1042261
1119.30 0.1041953
1119.40 0.1041646
1119.50 0.1041339
1119.60 0.1041031
1119.70 0.1040724
1119.80 0.1040417
1119.90 0.1040111
1120.00 0.1039804
1120.10 0.1039497
1120.20 0.103919
1120.30 0.1038884
1120.40 0.1038578
1120.50 0.1038271
1120.60 0.1037965
1120.70 0.1037659
1120.80 0.1037353
1120.90 0.1037047
1121.00 0.1036741
1121.10 0.1036435
1121.20 0.103613
1121.30 0.1035824
1121.40 0.1035519
1121.50 0.1035213
1121.60 0.1034908
1121.70 0.1034603
1121.80 0.1034297
1121.90 0.1033992
1122.00 0.1033688
1122.10 0.1033383
1122.20 0.1033078
1122.30 0.1032773
1122.40 0.1032469
1122.50 0.1032164
1122.60 0.103186
1122.70 0.1031556
1122.80 0.1031251
1122.90 0.1030947
1123.00 0.1030643
1123.10 0.1030339
1123.20 0.1030035
1123.30 0.1029732
1123.40 0.1029428
1123.50 0.1029124
1123.60 0.1028821
1123.70 0.1028517
1123.80 0.1028214
1123.90 0.1027911
1124.00 0.1027608
1124.10 0.1027305
1124.20 0.1027002
1124.30 0.1026699
1124.40 0.1026396
1124.50 0.1026094
1124.60 0.1025791
1124.70 0.1025489
1124.80 0.1025186
1124.90 0.1024884
1125.00 0.1024582
1125.10 0.102428
1125.20 0.1023978
1125.30 0.1023676
1125.40 0.1023374
1125.50 0.1023072
1125.60 0.102277
1125.70 0.1022469
1125.80 0.1022167
1125.90 0.1021866
1126.00 0.1021565
1126.10 0.1021264
1126.20 0.1020962
1126.30 0.1020661
1126.40 0.1020361
1126.50 0.102006
1126.60 0.1019759
1126.70 0.1019458
1126.80 0.1019158
1126.90 0.1018857
1127.00 0.1018557
1127.10 0.1018257
1127.20 0.1017956
1127.30 0.1017656
1127.40 0.1017356
1127.50 0.1017056
1127.60 0.1016756
1127.70 0.1016457
1127.80 0.1016157
1127.90 0.1015858
1128.00 0.1015559
1128.10 0.1015261
1128.20 0.1014963
1128.30 0.1014665
1128.40 0.1014367
1128.50 0.1014069
1128.60 0.1013771
1128.70 0.1013474
1128.80 0.1013176
1128.90 0.1012879
1129.00 0.1012581
1129.10 0.1012284
1129.20 0.1011987
1129.30 0.101169
1129.40 0.1011393
1129.50 0.1011096
1129.60 0.1010799
1129.70 0.1010502
1129.80 0.1010205
1129.90 0.1009909
1130.00 0.1009612
1130.10 0.1009316
1130.20 0.100902
1130.30 0.1008723
1130.40 0.1008427
1130.50 0.1008131
1130.60 0.1007835
1130.70 0.1007539
1130.80 0.1007244
1130.90 0.1006948
1131.00 0.1006652
1131.10 0.1006357
1131.20 0.1006062
1131.30 0.1005766
1131.40 0.1005471
1131.50 0.1005176
1131.60 0.1004881
1131.70 0.1004586
1131.80 0.1004291
1131.90 0.1003996
1132.00 0.1003701
1132.10 0.1003407
1132.20 0.1003112
1132.30 0.1002818
1132.40 0.1002523
1132.50 0.1002229
1132.60 0.1001935
1132.70 0.1001641
1132.80 0.1001347
1132.90 0.1001053
1133.00 0.1000759
1133.10 0.1000465
1133.20 0.1000172
1133.30 0.09998783
1133.40 0.09995848
1133.50 0.09992914
1133.60 0.09989981
1133.70 0.09987049
1133.80 0.09984118
1133.90 0.09981188
1134.00 0.09978258
1134.10 0.0997533
1134.20 0.09972402
1134.30 0.09969475
1134.40 0.09966549
1134.50 0.09963624
1134.60 0.099607
1134.70 0.09957777
1134.80 0.09954854
1134.90 0.09951933
1135.00 0.09949012
1135.10 0.09946092
1135.20 0.09943173
1135.30 0.09940255
1135.40 0.09937338
1135.50 0.09934422
1135.60 0.09931506
1135.70 0.09928592
1135.80 0.09925678
1135.90 0.09922765
1136.00 0.09919853
1136.10 0.09916942
1136.20 0.09914032
1136.30 0.09911123
1136.40 0.09908214
1136.50 0.09905307
1136.60 0.099024
1136.70 0.09899494
1136.80 0.09896589
1136.90 0.09893685
1137.00 0.09890782
1137.10 0.0988788
1137.20 0.09884978
1137.30 0.09882078
1137.40 0.09879178
1137.50 0.09876279
1137.60 0.09873381
1137.70 0.09870484
1137.80 0.09867587
1137.90 0.09864692
1138.00 0.09861797
1138.10 0.09858904
1138.20 0.09856011
1138.30 0.09853119
1138.40 0.09850228
1138.50 0.09847338
1138.60 0.09844448
1138.70 0.0984156
1138.80 0.09838672
1138.90 0.09835785
1139.00 0.09832899
1139.10 0.09830014
1139.20 0.0982713
1139.30 0.09824258
1139.40 0.09821387
1139.50 0.09818516
1139.60 0.09815647
1139.70 0.09812779
1139.80 0.09809911
1139.90 0.09807044
1140.00 0.09804178
1140.10 0.09801313
1140.20 0.09798449
1140.30 0.09795585
1140.40 0.09792723
1140.50 0.09789861
1140.60 0.09787
1140.70 0.0978414
1140.80 0.09781281
1140.90 0.09778423
1141.00 0.09775565
1141.10 0.09772709
1141.20 0.09769853
1141.30 0.09766998
1141.40 0.09764144
1141.50 0.09761291
1141.60 0.09758439
1141.70 0.09755587
1141.80 0.09752737
1141.90 0.09749887
1142.00 0.09747038
1142.10 0.0974419
1142.20 0.09741342
1142.30 0.09738496
1142.40 0.09735651
1142.50 0.09732806
1142.60 0.09729962
1142.70 0.09727119
1142.80 0.09724277
1142.90 0.09721436
1143.00 0.09718595
1143.10 0.09715755
1143.20 0.09712917
1143.30 0.09710079
1143.40 0.09707242
1143.50 0.09704405
1143.60 0.0970157
1143.70 0.09698735
1143.80 0.09695902
1143.90 0.09693069
1144.00 0.09690237
1144.10 0.09687406
1144.20 0.09684575
1144.30 0.09681746
1144.40 0.09678917
1144.50 0.09676089
1144.60 0.09673262
1144.70 0.09670436
1144.80 0.09667611
1144.90 0.09664786
1145.00 0.09661963
1145.10 0.0965914
1145.20 0.09656318
1145.30 0.09653497
1145.40 0.09650677
1145.50 0.09647857
1145.60 0.09645039
1145.70 0.09642221
1145.80 0.09639404
1145.90 0.09636588
1146.00 0.09633773
1146.10 0.09630958
1146.20 0.09628145
1146.30 0.09625332
1146.40 0.0962252
1146.50 0.09619709
1146.60 0.09616899
1146.70 0.09614089
1146.80 0.09611281
1146.90 0.09608473
1147.00 0.09605666
1147.10 0.0960286
1147.20 0.09600055
1147.30 0.0959725
1147.40 0.09594447
1147.50 0.09591644
1147.60 0.09588842
1147.70 0.09586041
1147.80 0.09583241
1147.90 0.09580441
1148.00 0.09577643
1148.10 0.09574845
1148.20 0.09572048
1148.30 0.09569252
1148.40 0.09566457
1148.50 0.09563662
1148.60 0.09560869
1148.70 0.09558076
1148.80 0.09555284
1148.90 0.09552493
1149.00 0.09549702
1149.10 0.09546913
1149.20 0.09544124
1149.30 0.09541336
1149.40 0.09538549
1149.50 0.09535763
1149.60 0.09532978
1149.70 0.09530193
1149.80 0.0952741
1149.90 0.09524627
1150.00 0.09521845
1150.10 0.09519063
1150.20 0.09516283
1150.30 0.09513504
1150.40 0.09510725
1150.50 0.09507947
1150.60 0.0950517
1150.70 0.09502405
1150.80 0.0949964
1150.90 0.09496877
1151.00 0.09494114
1151.10 0.09491352
1151.20 0.0948859
1151.30 0.0948583
1151.40 0.0948307
1151.50 0.09480312
1151.60 0.09477554
1151.70 0.09474796
1151.80 0.0947204
1151.90 0.09469284
1152.00 0.0946653
1152.10 0.09463776
1152.20 0.09461023
1152.30 0.0945827
1152.40 0.09455519
1152.50 0.09452768
1152.60 0.09450018
1152.70 0.09447269
1152.80 0.09444521
1152.90 0.09441774
1153.00 0.09439027
1153.10 0.09436281
1153.20 0.09433536
1153.30 0.09430792
1153.40 0.09428049
1153.50 0.09425306
1153.60 0.09422564
1153.70 0.09419823
1153.80 0.09417083
1153.90 0.09414344
1154.00 0.09411605
1154.10 0.09408867
1154.20 0.09406131
1154.30 0.09403394
1154.40 0.09400659
1154.50 0.09397925
1154.60 0.09395191
1154.70 0.09392458
1154.80 0.09389726
1154.90 0.09386995
1155.00 0.09384264
1155.10 0.09381535
1155.20 0.09378806
1155.30 0.09376078
1155.40 0.0937335
1155.50 0.09370624
1155.60 0.09367898
1155.70 0.09365174
1155.80 0.09362449
1155.90 0.09359726
1156.00 0.09357004
1156.10 0.09354282
1156.20 0.09351561
1156.30 0.09348841
1156.40 0.09346162
1156.50 0.09343517
1156.60 0.09340874
1156.70 0.09338231
1156.80 0.09335588
1156.90 0.09332947
1157.00 0.09330306
1157.10 0.09327666
1157.20 0.09325027
1157.30 0.09322389
1157.40 0.09319751
1157.50 0.09317114
1157.60 0.09314478
1157.70 0.09311843
1157.80 0.09309208
1157.90 0.09306574
1158.00 0.09303941
1158.10 0.09301309
1158.20 0.09298678
1158.30 0.09296047
1158.40 0.09293417
1158.50 0.09290788
1158.60 0.09288159
1158.70 0.09285532
1158.80 0.09282905
1158.90 0.09280279
1159.00 0.09277654
1159.10 0.09275029
1159.20 0.09272405
1159.30 0.09269782
1159.40 0.0926716
1159.50 0.09264539
1159.60 0.09261918
1159.70 0.09259298
1159.80 0.09256679
1159.90 0.0925406
1160.00 0.09251443
1160.10 0.09248826
1160.20 0.0924621
1160.30 0.09243594
1160.40 0.0924098
1160.50 0.09238366
1160.60 0.09235753
1160.70 0.09233141
1160.80 0.09230529
1160.90 0.09227918
1161.00 0.09225308
1161.10 0.09222699
1161.20 0.09220091
1161.30 0.09217483
1161.40 0.09214876
1161.50 0.0921227
1161.60 0.09209664
1161.70 0.0920706
1161.80 0.09204456
1161.90 0.09201853
1162.00 0.0919925
1162.10 0.09196649
1162.20 0.09193985
1162.30 0.09191323
1162.40 0.09188662
1162.50 0.09186001
1162.60 0.09183341
1162.70 0.09180682
1162.80 0.09178023
1162.90 0.09175366
1163.00 0.09172709
1163.10 0.09170053
1163.20 0.09167397
1163.30 0.09164743
1163.40 0.09162089
1163.50 0.09159436
1163.60 0.09156784
1163.70 0.09154132
1163.80 0.09151482
1163.90 0.09148832
1164.00 0.09146183
1164.10 0.09143535
1164.20 0.09140887
1164.30 0.0913824
1164.40 0.09135594
1164.50 0.09132949
1164.60 0.09130305
1164.70 0.09127661
1164.80 0.09125018
1164.90 0.09122376
1165.00 0.09119734
1165.10 0.09117094
1165.20 0.09114454
1165.30 0.09111815
1165.40 0.09109177
1165.50 0.09106539
1165.60 0.09103903
1165.70 0.09101267
1165.80 0.09098631
1165.90 0.09095997
1166.00 0.09093363
1166.10 0.09090731
1166.20 0.09088098
1166.30 0.09085467
1166.40 0.09082836
1166.50 0.09080207
1166.60 0.09077578
1166.70 0.09074949
1166.80 0.09072322
1166.90 0.09069695
1167.00 0.09067069
1167.10 0.09064444
1167.20 0.0906182
1167.30 0.09059196
1167.40 0.09056573
1167.50 0.09053951
1167.60 0.0905133
1167.70 0.09048709
1167.80 0.09046089
1167.90 0.0904347
1168.00 0.09040852
1168.10 0.09038235
1168.20 0.09035618
1168.30 0.09033002
1168.40 0.09030387
1168.50 0.09027773
1168.60 0.09025159
1168.70 0.09022546
1168.80 0.09019934
1168.90 0.09017323
1169.00 0.09014713
1169.10 0.09012103
1169.20 0.09009494
1169.30 0.09006886
1169.40 0.09004278
1169.50 0.09001672
1169.60 0.08999066
1169.70 0.0899646
1169.80 0.08993856
1169.90 0.08991252
1170.00 0.0898865
1170.10 0.08986047
1170.20 0.08983446
1170.30 0.08980845
1170.40 0.08978246
1170.50 0.08975646
1170.60 0.08973048
1170.70 0.0897045
1170.80 0.08967854
1170.90 0.08965258
1171.00 0.08962662
1171.10 0.08960068
1171.20 0.08957474
1171.30 0.08954881
1171.40 0.08952288
1171.50 0.08949697
1171.60 0.08947106
1171.70 0.08944516
1171.80 0.08941927
1171.90 0.08939338
1172.00 0.08936751
1172.10 0.08934163
1172.20 0.08931577
1172.30 0.08928992
1172.40 0.08926407
1172.50 0.08923823
1172.60 0.0892124
1172.70 0.08918657
1172.80 0.08916075
1172.90 0.08913494
1173.00 0.08910914
1173.10 0.08908335
1173.20 0.08905756
1173.30 0.08903178
1173.40 0.08900601
1173.50 0.08898024
1173.60 0.08895448
1173.70 0.08892873
1173.80 0.08890362
1173.90 0.08887869
1174.00 0.08885376
1174.10 0.08882884
1174.20 0.08880393
1174.30 0.08877903
1174.40 0.08875413
1174.50 0.08872924
1174.60 0.08870436
1174.70 0.08867948
1174.80 0.08865461
1174.90 0.08862975
1175.00 0.0886049
1175.10 0.08858005
1175.20 0.08855521
1175.30 0.08853038
1175.40 0.08850555
1175.50 0.08848073
1175.60 0.08845592
1175.70 0.08843112
1175.80 0.08840632
1175.90 0.08838153
1176.00 0.08835675
1176.10 0.08833197
1176.20 0.08830721
1176.30 0.08828244
1176.40 0.08825769
1176.50 0.08823294
1176.60 0.0882082
1176.70 0.08818347
1176.80 0.08815875
1176.90 0.08813403
1177.00 0.08810932
1177.10 0.08808461
1177.20 0.08805992
1177.30 0.08803523
1177.40 0.08801054
1177.50 0.08798587
1177.60 0.0879612
1177.70 0.08793654
1177.80 0.08791188
1177.90 0.08788724
1178.00 0.0878626
1178.10 0.08783796
1178.20 0.08781334
1178.30 0.08778872
1178.40 0.08776411
1178.50 0.0877395
1178.60 0.0877149
1178.70 0.08769031
1178.80 0.08766573
1178.90 0.08764115
1179.00 0.08761659
1179.10 0.08759202
1179.20 0.08756747
1179.30 0.08754292
1179.40 0.08751838
1179.50 0.08749385
1179.60 0.08746924
1179.70 0.08744403
1179.80 0.08741883
1179.90 0.08739363
1180.00 0.08736845
1180.10 0.08734326
1180.20 0.08731809
1180.30 0.08729292
1180.40 0.08726777
1180.50 0.08724261
1180.60 0.08721747
1180.70 0.08719233
1180.80 0.0871672
1180.90 0.08714208
1181.00 0.08711696
1181.10 0.08709185
1181.20 0.08706675
1181.30 0.08704166
1181.40 0.08701657
1181.50 0.08699149
1181.60 0.08696642
1181.70 0.08694136
1181.80 0.0869163
1181.90 0.08689125
1182.00 0.08686621
1182.10 0.08684117
1182.20 0.08681614
1182.30 0.08679112
1182.40 0.0867661
1182.50 0.0867411
1182.60 0.0867161
1182.70 0.08669111
1182.80 0.08666612
1182.90 0.08664114
1183.00 0.08661617
1183.10 0.08659121
1183.20 0.08656625
1183.30 0.0865413
1183.40 0.08651636
1183.50 0.08649142
1183.60 0.0864665
1183.70 0.08644158
1183.80 0.08641666
1183.90 0.08639176
1184.00 0.08636686
1184.10 0.08634196
1184.20 0.08631708
1184.30 0.0862922
1184.40 0.08626733
1184.50 0.08624247
1184.60 0.08621761
1184.70 0.08619276
1184.80 0.08616792
1184.90 0.08614309
1185.00 0.08611826
1185.10 0.08609344
1185.20 0.08606863
1185.30 0.08604382
1185.40 0.08601902
1185.50 0.08599456
1185.60 0.08597055
1185.70 0.08594655
1185.80 0.08592256
1185.90 0.08589858
1186.00 0.0858746
1186.10 0.08585063
1186.20 0.08582666
1186.30 0.08580271
1186.40 0.08577876
1186.50 0.08575481
1186.60 0.08573088
1186.70 0.08570695
1186.80 0.08568302
1186.90 0.08565911
1187.00 0.0856352
1187.10 0.08561129
1187.20 0.0855874
1187.30 0.08556351
1187.40 0.08553963
1187.50 0.08551575
1187.60 0.08549188
1187.70 0.08546802
1187.80 0.08544417
1187.90 0.08542032
1188.00 0.08539648
1188.10 0.08537264
1188.20 0.08534882
1188.30 0.085325
1188.40 0.08530118
1188.50 0.08527737
1188.60 0.08525357
1188.70 0.08522978
1188.80 0.08520599
1188.90 0.08518221
1189.00 0.08515844
1189.10 0.08513468
1189.20 0.08511092
1189.30 0.08508716
1189.40 0.08506342
1189.50 0.08503968
1189.60 0.08501595
1189.70 0.08499222
1189.80 0.0849685
1189.90 0.08494479
1190.00 0.08492108
1190.10 0.08489739
1190.20 0.08487369
1190.30 0.08485001
1190.40 0.08482633
1190.50 0.08480266
1190.60 0.08477899
1190.70 0.08475534
1190.80 0.08473169
1190.90 0.08470804
1191.00 0.0846844
1191.10 0.08466077
1191.20 0.08463715
1191.30 0.08461353
1191.40 0.08458982
1191.50 0.08456554
1191.60 0.08454127
1191.70 0.08451701
1191.80 0.08449276
1191.90 0.08446851
1192.00 0.08444427
1192.10 0.08442003
1192.20 0.08439581
1192.30 0.08437159
1192.40 0.08434737
1192.50 0.08432317
1192.60 0.08429897
1192.70 0.08427477
1192.80 0.08425059
1192.90 0.08422641
1193.00 0.08420224
1193.10 0.08417807
1193.20 0.08415392
1193.30 0.08412977
1193.40 0.08410562
1193.50 0.08408148
1193.60 0.08405735
1193.70 0.08403323
1193.80 0.08400911
1193.90 0.083985
1194.00 0.0839609
1194.10 0.08393681
1194.20 0.08391272
1194.30 0.08388864
1194.40 0.08386456
1194.50 0.08384049
1194.60 0.08381643
1194.70 0.08379238
1194.80 0.08376833
1194.90 0.08374429
1195.00 0.08372025
1195.10 0.08369623
1195.20 0.08367221
1195.30 0.08364819
1195.40 0.08362419
1195.50 0.08360019
1195.60 0.0835762
1195.70 0.08355221
1195.80 0.08352823
1195.90 0.08350426
1196.00 0.08348029
1196.10 0.08345634
1196.20 0.08343238
1196.30 0.08340844
1196.40 0.0833845
1196.50 0.08336057
1196.60 0.08333665
1196.70 0.08331273
1196.80 0.08328882
1196.90 0.08326491
1197.00 0.08324102
1197.10 0.08321713
1197.20 0.08319324
1197.30 0.08316937
1197.40 0.08314617
1197.50 0.08312306
1197.60 0.08309996
1197.70 0.08307687
1197.80 0.08305379
1197.90 0.08303071
1198.00 0.08300764
1198.10 0.08298457
1198.20 0.08296151
1198.30 0.08293846
1198.40 0.08291542
1198.50 0.08289238
1198.60 0.08286935
1198.70 0.08284632
1198.80 0.0828233
1198.90 0.08280029
1199.00 0.08277728
1199.10 0.08275428
1199.20 0.08273129
1199.30 0.0827083
1199.40 0.08268532
1199.50 0.08266235
1199.60 0.08263938
1199.70 0.08261642
1199.80 0.08259347
1199.90 0.08257052
1200.00 0.08254758
