# Version 2.1 - nm, norm@500 to 1, cut digits, bergeron_He_17000_90.dat_17000
# Wavelength(nm)  Flambda(ergs/cm^s/s/nm)
300.00 3.820015
300.10 3.817508
300.20 3.814965
300.30 3.812439
300.40 3.810013
300.50 3.80759
300.60 3.805169
300.70 3.80275
300.80 3.800334
300.90 3.79792
301.00 3.795508
301.10 3.793099
301.20 3.790692
301.30 3.788287
301.40 3.785885
301.50 3.783485
301.60 3.781088
301.70 3.778693
301.80 3.7763
301.90 3.77391
302.00 3.771522
302.10 3.768902
302.20 3.766259
302.30 3.763619
302.40 3.760982
302.50 3.758347
302.60 3.755715
302.70 3.753085
302.80 3.750458
302.90 3.747834
303.00 3.745213
303.10 3.742594
303.20 3.739977
303.30 3.737348
303.40 3.734574
303.50 3.731804
303.60 3.729036
303.70 3.726272
303.80 3.72351
303.90 3.720751
304.00 3.717994
304.10 3.715241
304.20 3.71249
304.30 3.709743
304.40 3.706998
304.50 3.704255
304.60 3.701513
304.70 3.698774
304.80 3.696037
304.90 3.693303
305.00 3.690572
305.10 3.687844
305.20 3.685118
305.30 3.682396
305.40 3.679676
305.50 3.676959
305.60 3.674244
305.70 3.671532
305.80 3.668824
305.90 3.666117
306.00 3.663414
306.10 3.660713
306.20 3.658016
306.30 3.65532
306.40 3.652631
306.50 3.649946
306.60 3.647263
306.70 3.644583
306.80 3.641906
306.90 3.639231
307.00 3.636559
307.10 3.63389
307.20 3.631224
307.30 3.62856
307.40 3.625899
307.50 3.62324
307.60 3.620585
307.70 3.617932
307.80 3.615281
307.90 3.612634
308.00 3.609989
308.10 3.607346
308.20 3.604707
308.30 3.60207
308.40 3.599436
308.50 3.596804
308.60 3.594175
308.70 3.591549
308.80 3.589002
308.90 3.586679
309.00 3.583608
309.10 3.58054
309.20 3.577475
309.30 3.574413
309.40 3.571406
309.50 3.568723
309.60 3.566042
309.70 3.563363
309.80 3.560688
309.90 3.558015
310.00 3.555345
310.10 3.552677
310.20 3.550013
310.30 3.547351
310.40 3.544554
310.50 3.541612
310.60 3.538674
310.70 3.535738
310.80 3.532806
310.90 3.529876
311.00 3.527125
311.10 3.524377
311.20 3.521632
311.30 3.518808
311.40 3.515756
311.50 3.512707
311.60 3.509661
311.70 3.506618
311.80 3.503579
311.90 3.500543
312.00 3.497509
312.10 3.49448
312.20 3.49161
312.30 3.488581
312.40 3.485357
312.50 3.482936
312.60 3.47975
312.70 3.476567
312.80 3.473388
312.90 3.470065
313.00 3.466585
313.10 3.463108
313.20 3.459636
313.30 3.456177
313.40 3.452751
313.50 3.449329
313.60 3.44591
313.70 3.442495
313.80 3.439084
313.90 3.435677
314.00 3.432273
314.10 3.428492
314.20 3.424715
314.30 3.420942
314.40 3.417174
314.50 3.413409
314.60 3.409649
314.70 3.405893
314.80 3.401968
314.90 3.398068
315.00 3.394726
315.10 3.390234
315.20 3.385747
315.30 3.381265
315.40 3.376788
315.50 3.372316
315.60 3.367849
315.70 3.363532
315.80 3.35922
315.90 3.354913
316.00 3.350611
316.10 3.345878
316.20 3.341151
316.30 3.334688
316.40 3.326495
316.50 3.314835
316.60 3.299716
316.70 3.28288
316.80 3.266065
316.90 3.26097
317.00 3.255882
317.10 3.250799
317.20 3.245722
317.30 3.248645
317.40 3.24964
317.50 3.245161
317.60 3.240687
317.70 3.236218
317.80 3.231754
317.90 3.216122
318.00 3.194751
318.10 3.158765
318.20 3.122825
318.30 3.086928
318.40 3.036902
318.50 2.94662
318.60 2.838168
318.70 2.579391
318.80 2.05708
318.90 2.495363
319.00 2.669278
319.10 2.775309
319.20 2.866619
319.30 2.916318
319.40 2.965954
319.50 3.015528
319.60 3.053632
319.70 3.076504
319.80 3.099346
319.90 3.122159
320.00 3.140415
320.10 3.153743
320.20 3.166921
320.30 3.17709
320.40 3.186299
320.50 3.194649
320.60 3.201226
320.70 3.206847
320.80 3.211242
320.90 3.214312
321.00 3.217378
321.10 3.220439
321.20 3.223437
321.30 3.224056
321.40 3.224674
321.50 3.225291
321.60 3.225906
321.70 3.22652
321.80 3.226967
321.90 3.227232
322.00 3.227559
322.10 3.226807
322.20 3.226056
322.30 3.225305
322.40 3.224554
322.50 3.223804
322.60 3.223054
322.70 3.222304
322.80 3.221072
322.90 3.219522
323.00 3.217973
323.10 3.216426
323.20 3.21488
323.30 3.213335
323.40 3.211792
323.50 3.210249
323.60 3.208709
323.70 3.207169
323.80 3.205631
323.90 3.204094
324.00 3.202116
324.10 3.20014
324.20 3.198167
324.30 3.196194
324.40 3.194224
324.50 3.192256
324.60 3.190289
324.70 3.188325
324.80 3.186362
324.90 3.1844
325.00 3.182441
325.10 3.180484
325.20 3.178528
325.30 3.176574
325.40 3.174622
325.50 3.172485
325.60 3.170123
325.70 3.167764
325.80 3.165406
325.90 3.163249
326.00 3.161309
326.10 3.15937
326.20 3.157434
326.30 3.155161
326.40 3.151931
326.50 3.149664
326.60 3.147398
326.70 3.145134
326.80 3.142873
326.90 3.140614
327.00 3.138357
327.10 3.136102
327.20 3.13385
327.30 3.131599
327.40 3.129351
327.50 3.127105
327.60 3.124861
327.70 3.122619
327.80 3.12038
327.90 3.118303
328.00 3.115931
328.10 3.112986
328.20 3.110045
328.30 3.107106
328.40 3.10417
328.50 3.101715
328.60 3.099373
328.70 3.097033
328.80 3.094779
328.90 3.092761
329.00 3.090745
329.10 3.088731
329.20 3.086719
329.30 3.084708
329.40 3.0827
329.50 3.080693
329.60 3.078688
329.70 3.076685
329.80 3.074684
329.90 3.072685
330.00 3.070749
330.10 3.068889
330.20 3.06703
330.30 3.065173
330.40 3.063179
330.50 3.061037
330.60 3.058897
330.70 3.056758
330.80 3.054622
330.90 3.052488
331.00 3.050356
331.10 3.048225
331.20 3.046097
331.30 3.043971
331.40 3.041847
331.50 3.039568
331.60 3.037099
331.70 3.034633
331.80 3.032441
331.90 3.030263
332.00 3.028087
332.10 3.025914
332.20 3.023742
332.30 3.021572
332.40 3.019405
332.50 3.017239
332.60 3.015075
332.70 3.012914
332.80 3.010755
332.90 3.008597
333.00 3.006442
333.10 3.004234
333.20 3.00196
333.30 2.999689
333.40 2.99742
333.50 2.995153
333.60 2.992889
333.70 2.990626
333.80 2.988366
333.90 2.986108
334.00 2.983852
334.10 2.981575
334.20 2.979271
334.30 2.97697
334.40 2.974671
334.50 2.972374
334.60 2.970079
334.70 2.96802
334.80 2.965761
334.90 2.962805
335.00 2.959852
335.10 2.957489
335.20 2.95495
335.30 2.951213
335.40 2.949454
335.50 2.947696
335.60 2.945939
335.70 2.944532
335.80 2.943551
335.90 2.942222
336.00 2.940471
336.10 2.938722
336.20 2.936974
336.30 2.935112
336.40 2.933111
336.50 2.931112
336.60 2.929114
336.70 2.927119
336.80 2.925125
336.90 2.923077
337.00 2.920963
337.10 2.918852
337.20 2.916742
337.30 2.914684
337.40 2.9127
337.50 2.910717
337.60 2.908737
337.70 2.906759
337.80 2.904782
337.90 2.902789
338.00 2.900776
338.10 2.898766
338.20 2.896757
338.30 2.89475
338.40 2.892731
338.50 2.89068
338.60 2.88863
338.70 2.886583
338.80 2.884538
338.90 2.882494
339.00 2.880453
339.10 2.878413
339.20 2.876376
339.30 2.87448
339.40 2.872786
339.50 2.870885
339.60 2.868732
339.70 2.86658
339.80 2.864431
339.90 2.862284
340.00 2.860138
340.10 2.857995
340.20 2.855853
340.30 2.853714
340.40 2.851577
340.50 2.849442
340.60 2.847308
340.70 2.845177
340.80 2.842923
340.90 2.840491
341.00 2.838237
341.10 2.836199
341.20 2.834163
341.30 2.832129
341.40 2.830096
341.50 2.828066
341.60 2.826037
341.70 2.824011
341.80 2.821838
341.90 2.819487
342.00 2.817138
342.10 2.814791
342.20 2.812587
342.30 2.810089
342.40 2.807511
342.50 2.805125
342.60 2.802741
342.70 2.800359
342.80 2.79798
342.90 2.795603
343.00 2.793234
343.10 2.790874
343.20 2.788516
343.30 2.786161
343.40 2.783704
343.50 2.781099
343.60 2.778498
343.70 2.775899
343.80 2.773302
343.90 2.770709
344.00 2.767916
344.10 2.764837
344.20 2.761762
344.30 2.758689
344.40 2.755319
344.50 2.751519
344.60 2.747123
344.70 2.743331
344.80 2.743973
344.90 2.744614
345.00 2.744318
345.10 2.744189
345.20 2.743664
345.30 2.742568
345.40 2.741473
345.50 2.740788
345.60 2.740029
345.70 2.738444
345.80 2.736861
345.90 2.735278
346.00 2.733698
346.10 2.732118
346.20 2.73048
346.30 2.728759
346.40 2.727038
346.50 2.725319
346.60 2.723602
346.70 2.721886
346.80 2.720172
346.90 2.718459
347.00 2.716748
347.10 2.715039
347.20 2.713309
347.30 2.71155
347.40 2.709792
347.50 2.708036
347.60 2.706281
347.70 2.704528
347.80 2.702777
347.90 2.701027
348.00 2.699278
348.10 2.697532
348.20 2.695786
348.30 2.694043
348.40 2.692301
348.50 2.69056
348.60 2.688821
348.70 2.686426
348.80 2.684143
348.90 2.682319
349.00 2.680496
349.10 2.678675
349.20 2.676856
349.30 2.675038
349.40 2.673222
349.50 2.671407
349.60 2.669594
349.70 2.667783
349.80 2.665973
349.90 2.664165
350.00 2.662359
350.10 2.660554
350.20 2.658751
350.30 2.656908
350.40 2.655007
350.50 2.653107
350.60 2.65121
350.70 2.649314
350.80 2.647419
350.90 2.645527
351.00 2.643636
351.10 2.641747
351.20 2.639859
351.30 2.637974
351.40 2.63616
351.50 2.634471
351.60 2.632784
351.70 2.631098
351.80 2.629414
351.90 2.627732
352.00 2.62605
352.10 2.624371
352.20 2.622014
352.30 2.619822
352.40 2.617973
352.50 2.616126
352.60 2.61428
352.70 2.612437
352.80 2.610594
352.90 2.608754
353.00 2.606915
353.10 2.605078
353.20 2.603243
353.30 2.601409
353.40 2.599576
353.50 2.597783
353.60 2.596
353.70 2.594219
353.80 2.59244
353.90 2.590607
354.00 2.588678
354.10 2.58675
354.20 2.584825
354.30 2.582901
354.40 2.580979
354.50 2.579059
354.60 2.57714
354.70 2.575224
354.80 2.57337
354.90 2.571607
355.00 2.569845
355.10 2.568085
355.20 2.566326
355.30 2.564242
355.40 2.56216
355.50 2.560079
355.60 2.558001
355.70 2.555957
355.80 2.55393
355.90 2.552118
356.00 2.550228
356.10 2.548225
356.20 2.546225
356.30 2.544226
356.40 2.542229
356.50 2.540234
356.60 2.53824
356.70 2.536249
356.80 2.534259
356.90 2.532271
357.00 2.530286
357.10 2.528301
357.20 2.526319
357.30 2.524339
357.40 2.522418
357.50 2.520601
357.60 2.518787
357.70 2.516974
357.80 2.514949
357.90 2.512926
358.00 2.510774
358.10 2.508592
358.20 2.506412
358.30 2.504234
358.40 2.502058
358.50 2.499884
358.60 2.497711
358.70 2.495541
358.80 2.493373
358.90 2.491208
359.00 2.488887
359.10 2.48629
359.20 2.483628
359.30 2.480509
359.40 2.477394
359.50 2.474899
359.60 2.472561
359.70 2.470226
359.80 2.467325
359.90 2.464427
360.00 2.46127
360.10 2.457654
360.20 2.45404
360.30 2.450431
360.40 2.446825
360.50 2.443223
360.60 2.439302
360.70 2.434605
360.80 2.429912
360.90 2.425225
361.00 2.420027
361.10 2.411799
361.20 2.403051
361.30 2.388386
361.40 2.399526
361.50 2.41132
361.60 2.415764
361.70 2.416424
361.80 2.416927
361.90 2.417149
362.00 2.41737
362.10 2.417084
362.20 2.416549
362.30 2.415796
362.40 2.415045
362.50 2.414294
362.60 2.413543
362.70 2.412328
362.80 2.410998
362.90 2.409012
363.00 2.407028
363.10 2.405099
363.20 2.403172
363.30 2.40041
363.40 2.399419
363.50 2.400404
363.60 2.401059
363.70 2.401128
363.80 2.400393
363.90 2.400013
364.00 2.399633
364.10 2.399253
364.20 2.398873
364.30 2.398326
364.40 2.397738
364.50 2.397737
364.60 2.396857
364.70 2.395978
364.80 2.395099
364.90 2.393787
365.00 2.392475
365.10 2.391165
365.20 2.389203
365.30 2.387243
365.40 2.38724
365.50 2.385934
365.60 2.384629
365.70 2.383917
365.80 2.383205
365.90 2.38202
366.00 2.380719
366.10 2.379418
366.20 2.378119
366.30 2.376821
366.40 2.375524
366.50 2.374228
366.60 2.371637
366.70 2.370344
366.80 2.369052
366.90 2.367593
367.00 2.365838
367.10 2.364084
367.20 2.362333
367.30 2.360582
367.40 2.358834
367.50 2.357457
367.60 2.356175
367.70 2.354216
367.80 2.352259
367.90 2.350303
368.00 2.348485
368.10 2.34594
368.20 2.34365
368.30 2.341369
368.40 2.339089
368.50 2.336812
368.60 2.334536
368.70 2.332263
368.80 2.329992
368.90 2.328085
369.00 2.325694
369.10 2.323022
369.20 2.320472
369.30 2.317514
369.40 2.314558
369.50 2.311606
369.60 2.307819
369.70 2.304036
369.80 2.30004
369.90 2.296046
370.00 2.292055
370.10 2.287637
370.20 2.281329
370.30 2.275019
370.40 2.269997
370.50 2.266141
370.60 2.270558
370.70 2.275129
370.80 2.278311
370.90 2.28149
371.00 2.282191
371.10 2.282867
371.20 2.282895
371.30 2.282921
371.40 2.283474
371.50 2.283655
371.60 2.283834
371.70 2.284013
371.80 2.284192
371.90 2.28437
372.00 2.284773
372.10 2.284443
372.20 2.283844
372.30 2.283246
372.40 2.282647
372.50 2.282049
372.60 2.281451
372.70 2.280854
372.80 2.280253
372.90 2.279653
373.00 2.278437
373.10 2.277216
373.20 2.275371
373.30 2.273528
373.40 2.270437
373.50 2.267974
373.60 2.268631
373.70 2.268663
373.80 2.267722
373.90 2.267482
374.00 2.266892
374.10 2.266302
374.20 2.265712
374.30 2.265123
374.40 2.263913
374.50 2.262705
374.60 2.261497
374.70 2.26029
374.80 2.259084
374.90 2.257879
375.00 2.256675
375.10 2.255472
375.20 2.254269
375.30 2.252892
375.40 2.251515
375.50 2.25014
375.60 2.248766
375.70 2.247392
375.80 2.24602
375.90 2.24465
376.00 2.242237
376.10 2.240501
376.20 2.238774
376.30 2.237049
376.40 2.235325
376.50 2.233647
376.60 2.232038
376.70 2.23043
376.80 2.228606
376.90 2.226567
377.00 2.224529
377.10 2.222494
377.20 2.22048
377.30 2.218541
377.40 2.216604
377.50 2.214668
377.60 2.212168
377.70 2.209671
377.80 2.207176
377.90 2.204683
378.00 2.202722
378.10 2.200022
378.20 2.197309
378.30 2.194599
378.40 2.191892
378.50 2.189186
378.60 2.186484
378.70 2.183784
378.80 2.181087
378.90 2.177989
379.00 2.174147
379.10 2.171062
379.20 2.16798
379.30 2.164503
379.40 2.160631
379.50 2.156763
379.60 2.153178
379.70 2.149608
379.80 2.144512
379.90 2.139422
380.00 2.134336
380.10 2.129256
380.20 2.12418
380.30 2.11911
380.40 2.114044
380.50 2.108984
380.60 2.102483
380.70 2.097011
380.80 2.091544
380.90 2.086083
381.00 2.080628
381.10 2.078787
381.20 2.075117
381.30 2.068076
381.40 2.060095
381.50 2.050428
381.60 2.039382
381.70 2.026317
381.80 2.013402
381.90 2.000412
382.00 1.991015
382.10 2.014415
382.20 2.031594
382.30 2.044824
382.40 2.055414
382.50 2.062055
382.60 2.068688
382.70 2.07342
382.80 2.07542
382.90 2.076827
383.00 2.078232
383.10 2.079636
383.20 2.081066
383.30 2.082598
383.40 2.084097
383.50 2.085547
383.60 2.086994
383.70 2.087776
383.80 2.088556
383.90 2.089336
384.00 2.090114
384.10 2.090892
384.20 2.091668
384.30 2.092443
384.40 2.092972
384.50 2.093256
384.60 2.093539
384.70 2.093822
384.80 2.094104
384.90 2.09408
385.00 2.093497
385.10 2.092946
385.20 2.09299
385.30 2.091904
385.40 2.090955
385.50 2.090143
385.60 2.089332
385.70 2.088522
385.80 2.087511
385.90 2.085745
386.00 2.083909
386.10 2.081995
386.20 2.080015
386.30 2.078038
386.40 2.075062
386.50 2.071668
386.60 2.066794
386.70 2.059031
386.80 2.043714
386.90 2.046437
387.00 2.046832
387.10 2.044613
387.20 2.041874
387.30 2.037831
387.40 2.033586
387.50 2.027899
387.60 2.019832
387.70 2.008656
387.80 1.997492
387.90 1.986339
388.00 1.973934
388.10 1.954893
388.20 1.926128
388.30 1.889217
388.40 1.852344
388.50 1.802926
388.60 1.723035
388.70 1.595221
388.80 1.325607
388.90 1.151271
389.00 1.43956
389.10 1.596396
389.20 1.692186
389.30 1.758418
389.40 1.80638
389.50 1.848255
389.60 1.879275
389.70 1.900025
389.80 1.914053
389.90 1.928067
390.00 1.942066
390.10 1.95605
390.20 1.97002
390.30 1.979967
390.40 1.985388
390.50 1.990803
390.60 1.996211
390.70 2.001614
390.80 2.005733
390.90 2.008569
391.00 2.011607
391.10 2.013341
391.20 2.015138
391.30 2.016449
391.40 2.016934
391.50 2.017418
391.60 2.017902
391.70 2.018384
391.80 2.018866
391.90 2.019135
392.00 2.018936
392.10 2.018397
392.20 2.017813
392.30 2.016785
392.40 2.015757
392.50 2.01473
392.60 2.013704
392.70 2.011549
392.80 2.010525
392.90 2.009502
393.00 2.00848
393.10 2.007458
393.20 2.006336
393.30 2.00419
393.40 2.002148
393.50 2.00113
393.60 1.99899
393.70 1.996851
393.80 1.994614
393.90 1.992479
394.00 1.990285
394.10 1.987515
394.20 1.9848
394.30 1.981968
394.40 1.978394
394.50 1.975338
394.60 1.971839
394.70 1.968222
394.80 1.964151
394.90 1.960069
395.00 1.955351
395.10 1.949937
395.20 1.944509
395.30 1.938808
395.40 1.933112
395.50 1.926239
395.60 1.918935
395.70 1.910798
395.80 1.900398
395.90 1.890008
396.00 1.879258
396.10 1.863039
396.20 1.842138
396.30 1.817666
396.40 1.766536
396.50 1.793895
396.60 1.851992
396.70 1.86616
396.80 1.867823
396.90 1.868864
397.00 1.877642
397.10 1.888656
397.20 1.895495
397.30 1.898622
397.40 1.900093
397.50 1.901562
397.60 1.902847
397.70 1.90228
397.80 1.901714
397.90 1.900831
398.00 1.899091
398.10 1.897352
398.20 1.895561
398.30 1.89371
398.40 1.891862
398.50 1.890069
398.60 1.887174
398.70 1.884326
398.80 1.881594
398.90 1.878355
399.00 1.874174
399.10 1.870756
399.20 1.866561
399.30 1.862371
399.40 1.858185
399.50 1.854003
399.60 1.849488
399.70 1.844853
399.80 1.840223
399.90 1.835597
400.00 1.830961
400.10 1.825864
400.20 1.821211
400.30 1.815874
400.40 1.810246
400.50 1.803727
400.60 1.797783
400.70 1.791464
400.80 1.784069
400.90 1.776504
401.00 1.768725
401.10 1.761573
401.20 1.753411
401.30 1.744677
401.40 1.734908
401.50 1.724845
401.60 1.714694
401.70 1.701393
401.80 1.68703
401.90 1.670449
402.00 1.651788
402.10 1.630056
402.20 1.604729
402.30 1.57307
402.40 1.535496
402.50 1.486056
402.60 1.42926
402.70 1.480287
402.80 1.540708
402.90 1.581123
403.00 1.618389
403.10 1.64769
403.20 1.669928
403.30 1.688035
403.40 1.703224
403.50 1.715874
403.60 1.727849
403.70 1.736792
403.80 1.744673
403.90 1.750479
404.00 1.756316
404.10 1.761072
404.20 1.76393
404.30 1.766785
404.40 1.76804
404.50 1.767166
404.60 1.767888
404.70 1.769671
404.80 1.772077
404.90 1.774295
405.00 1.776979
405.10 1.779211
405.20 1.781362
405.30 1.783511
405.40 1.785456
405.50 1.787398
405.60 1.789339
405.70 1.791277
405.80 1.793213
405.90 1.795147
406.00 1.796813
406.10 1.798477
406.20 1.800139
406.30 1.801799
406.40 1.803486
406.50 1.805132
406.60 1.805819
406.70 1.806904
406.80 1.808482
406.90 1.809516
407.00 1.810308
407.10 1.8111
407.20 1.81189
407.30 1.812679
407.40 1.813468
407.50 1.814255
407.60 1.815041
407.70 1.815827
407.80 1.816611
407.90 1.817379
408.00 1.817631
408.10 1.818177
408.20 1.818625
408.30 1.818755
408.40 1.818884
408.50 1.819312
408.60 1.819143
408.70 1.818974
408.80 1.818858
408.90 1.819022
409.00 1.818731
409.10 1.818441
409.20 1.818151
409.30 1.817861
409.40 1.817564
409.50 1.817044
409.60 1.816523
409.70 1.816025
409.80 1.815617
409.90 1.815194
410.00 1.814309
410.10 1.813424
410.20 1.81254
410.30 1.811657
410.40 1.810692
410.50 1.80947
410.60 1.808249
410.70 1.80693
410.80 1.805215
410.90 1.803502
411.00 1.801547
411.10 1.799503
411.20 1.797461
411.30 1.795303
411.40 1.792649
411.50 1.789235
411.60 1.785824
411.70 1.781691
411.80 1.774667
411.90 1.767341
412.00 1.751613
412.10 1.706943
412.20 1.718153
412.30 1.73016
412.40 1.737143
412.50 1.741962
412.60 1.74477
412.70 1.7472
412.80 1.749533
412.90 1.751211
413.00 1.752569
413.10 1.752733
413.20 1.752896
413.30 1.753059
413.40 1.753222
413.50 1.753394
413.60 1.753413
413.70 1.752819
413.80 1.752227
413.90 1.751634
414.00 1.750859
414.10 1.749506
414.20 1.747667
414.30 1.744389
414.40 1.741926
414.50 1.742784
414.60 1.744499
414.70 1.746188
414.80 1.747754
414.90 1.748934
415.00 1.750113
415.10 1.75129
415.20 1.752284
415.30 1.752698
415.40 1.753111
415.50 1.753519
415.60 1.753759
415.70 1.753998
415.80 1.754216
415.90 1.754366
416.00 1.754515
416.10 1.754562
416.20 1.754201
416.30 1.75384
416.40 1.753479
416.50 1.753119
416.60 1.752779
416.70 1.752424
416.80 1.751583
416.90 1.750205
417.00 1.748903
417.10 1.74908
417.20 1.748741
417.30 1.748409
417.40 1.748278
417.50 1.748146
417.60 1.747873
417.70 1.747047
417.80 1.746543
417.90 1.746039
418.00 1.745536
418.10 1.745033
418.20 1.744531
418.30 1.744018
418.40 1.743211
418.50 1.742485
418.60 1.741761
418.70 1.741037
418.80 1.740313
418.90 1.73959
419.00 1.738868
419.10 1.738145
419.20 1.737424
419.30 1.7367
419.40 1.735871
419.50 1.735044
419.60 1.734217
419.70 1.733391
419.80 1.732565
419.90 1.731717
420.00 1.730796
420.10 1.729875
420.20 1.728955
420.30 1.728036
420.40 1.727118
420.50 1.7262
420.60 1.725283
420.70 1.724366
420.80 1.72345
420.90 1.722528
421.00 1.721356
421.10 1.720186
421.20 1.719069
421.30 1.718113
421.40 1.717158
421.50 1.716204
421.60 1.71525
421.70 1.714297
421.80 1.713345
421.90 1.712426
422.00 1.711615
422.10 1.710742
422.20 1.709624
422.30 1.708507
422.40 1.707393
422.50 1.706388
422.60 1.705383
422.70 1.70438
422.80 1.703377
422.90 1.702375
423.00 1.701373
423.10 1.700372
423.20 1.699372
423.30 1.698373
423.40 1.697375
423.50 1.696377
423.60 1.69538
423.70 1.694384
423.80 1.693389
423.90 1.692394
424.00 1.6914
424.10 1.690407
424.20 1.689414
424.30 1.688423
424.40 1.686506
424.50 1.685517
424.60 1.684528
424.70 1.68354
424.80 1.682552
424.90 1.681566
425.00 1.68058
425.10 1.679594
425.20 1.67861
425.30 1.677626
425.40 1.676627
425.50 1.675521
425.60 1.674415
425.70 1.673311
425.80 1.672207
425.90 1.671104
426.00 1.670002
426.10 1.668901
426.20 1.6678
426.30 1.666701
426.40 1.665602
426.50 1.664504
426.60 1.663407
426.70 1.662311
426.80 1.661216
426.90 1.660119
427.00 1.658938
427.10 1.657759
427.20 1.65658
427.30 1.655403
427.40 1.654226
427.50 1.65305
427.60 1.651876
427.70 1.650702
427.80 1.649529
427.90 1.648357
428.00 1.647186
428.10 1.646015
428.20 1.644846
428.30 1.643678
428.40 1.64251
428.50 1.641344
428.60 1.640178
428.70 1.639013
428.80 1.637846
428.90 1.636628
429.00 1.635411
429.10 1.634195
429.20 1.63298
429.30 1.631766
429.40 1.630553
429.50 1.62934
429.60 1.628129
429.70 1.626919
429.80 1.62571
429.90 1.624501
430.00 1.623294
430.10 1.622087
430.20 1.620882
430.30 1.619677
430.40 1.618474
430.50 1.617271
430.60 1.616069
430.70 1.614869
430.80 1.613669
430.90 1.61247
431.00 1.611272
431.10 1.610075
431.20 1.608879
431.30 1.607663
431.40 1.606169
431.50 1.604677
431.60 1.603186
431.70 1.601696
431.80 1.600207
431.90 1.59872
432.00 1.597233
432.10 1.595748
432.20 1.594264
432.30 1.592782
432.40 1.5913
432.50 1.58982
432.60 1.588341
432.70 1.586863
432.80 1.585386
432.90 1.583911
433.00 1.582436
433.10 1.580963
433.20 1.579491
433.30 1.578016
433.40 1.576486
433.50 1.574957
433.60 1.573429
433.70 1.571902
433.80 1.570282
433.90 1.568548
434.00 1.566771
434.10 1.564969
434.20 1.563168
434.30 1.561369
434.40 1.559571
434.50 1.557775
434.60 1.55598
434.70 1.554187
434.80 1.552378
434.90 1.550342
435.00 1.548308
435.10 1.546275
435.20 1.544245
435.30 1.542216
435.40 1.540188
435.50 1.538163
435.60 1.536139
435.70 1.534117
435.80 1.532096
435.90 1.530077
436.00 1.52806
436.10 1.526045
436.20 1.524031
436.30 1.522013
436.40 1.519957
436.50 1.517445
436.60 1.514936
436.70 1.512429
436.80 1.509924
436.90 1.507421
437.00 1.50492
437.10 1.502421
437.20 1.499706
437.30 1.49679
437.40 1.493843
437.50 1.490431
437.60 1.487023
437.70 1.483618
437.80 1.480216
437.90 1.476816
438.00 1.473344
438.10 1.468863
438.20 1.464387
438.30 1.459821
438.40 1.454986
438.50 1.446627
438.60 1.438022
438.70 1.422714
438.80 1.404797
438.90 1.41037
439.00 1.418602
439.10 1.424728
439.20 1.430626
439.30 1.433583
439.40 1.436537
439.50 1.439488
439.60 1.442414
439.70 1.444204
439.80 1.444935
439.90 1.445305
440.00 1.445675
440.10 1.446044
440.20 1.446334
440.30 1.445588
440.40 1.444842
440.50 1.444096
440.60 1.443351
440.70 1.442606
440.80 1.441862
440.90 1.441119
441.00 1.440376
441.10 1.439633
441.20 1.438859
441.30 1.437655
441.40 1.436289
441.50 1.434724
441.60 1.43316
441.70 1.43118
441.80 1.429035
441.90 1.426891
442.00 1.424749
442.10 1.422609
442.20 1.42047
442.30 1.418334
442.40 1.416084
442.50 1.413695
442.60 1.411308
442.70 1.408554
442.80 1.405242
442.90 1.401869
443.00 1.398489
443.10 1.395102
443.20 1.391369
443.30 1.387318
443.40 1.382818
443.50 1.377769
443.60 1.372614
443.70 1.365695
443.80 1.3558
443.90 1.353753
444.00 1.35034
444.10 1.346202
444.20 1.34189
444.30 1.337405
444.40 1.331757
444.50 1.326114
444.60 1.320075
444.70 1.313552
444.80 1.306407
444.90 1.298689
445.00 1.290978
445.10 1.283273
445.20 1.274448
445.30 1.264253
445.40 1.254067
445.50 1.24389
445.60 1.233722
445.70 1.223563
445.80 1.211131
445.90 1.196605
446.00 1.182093
446.10 1.167593
446.20 1.15152
446.30 1.13219
446.40 1.108112
446.50 1.079892
446.60 1.051697
446.70 1.023528
446.80 0.9918697
446.90 0.9569971
447.00 0.9505924
447.10 0.9028809
447.20 0.8067456
447.30 0.8859255
447.40 0.9459191
447.50 0.9967838
447.60 1.039375
447.70 1.074337
447.80 1.101281
447.90 1.125068
448.00 1.144783
448.10 1.160744
448.20 1.176691
448.30 1.192624
448.40 1.208542
448.50 1.224446
448.60 1.237664
448.70 1.248406
448.80 1.258936
448.90 1.26679
449.00 1.274636
449.10 1.282475
449.20 1.290308
449.30 1.29694
449.40 1.302271
449.50 1.307598
449.60 1.311934
449.70 1.315357
449.80 1.318777
449.90 1.322193
450.00 1.325607
450.10 1.329017
450.20 1.332424
450.30 1.335828
450.40 1.33738
450.50 1.338931
450.60 1.34048
450.70 1.342028
450.80 1.343574
450.90 1.345118
451.00 1.345212
451.10 1.345306
451.20 1.345041
451.30 1.344444
451.40 1.342567
451.50 1.340692
451.60 1.337111
451.70 1.331826
451.80 1.327399
451.90 1.326385
452.00 1.326651
452.10 1.326915
452.20 1.328031
452.30 1.329146
452.40 1.33026
452.50 1.331372
452.60 1.33308
452.70 1.334571
452.80 1.33586
452.90 1.337148
453.00 1.338434
453.10 1.339719
453.20 1.340681
453.30 1.341641
453.40 1.342601
453.50 1.34356
453.60 1.344517
453.70 1.345474
453.80 1.346284
453.90 1.346916
454.00 1.347546
454.10 1.348176
454.20 1.348661
454.30 1.349144
454.40 1.349628
454.50 1.35011
454.60 1.350592
454.70 1.350889
454.80 1.351015
454.90 1.351141
455.00 1.351266
455.10 1.351392
455.20 1.351517
455.30 1.351642
455.40 1.351766
455.50 1.35189
455.60 1.352015
455.70 1.352138
455.80 1.352219
455.90 1.3523
456.00 1.35238
456.10 1.352362
456.20 1.352081
456.30 1.351799
456.40 1.351518
456.50 1.351237
456.60 1.350955
456.70 1.350674
456.80 1.350394
456.90 1.350113
457.00 1.349832
457.10 1.349552
457.20 1.349943
457.30 1.349527
457.40 1.349112
457.50 1.348697
457.60 1.348282
457.70 1.347867
457.80 1.347453
457.90 1.347039
458.00 1.346625
458.10 1.346211
458.20 1.345798
458.30 1.345384
458.40 1.344971
458.50 1.344559
458.60 1.344146
458.70 1.343713
458.80 1.343272
458.90 1.342832
459.00 1.342392
459.10 1.341951
459.20 1.341512
459.30 1.340985
459.40 1.340459
459.50 1.339933
459.60 1.339408
459.70 1.338882
459.80 1.338358
459.90 1.337833
460.00 1.337309
460.10 1.336785
460.20 1.336261
460.30 1.335738
460.40 1.335215
460.50 1.334693
460.60 1.334171
460.70 1.33361
460.80 1.333032
460.90 1.332453
461.00 1.331875
461.10 1.331298
461.20 1.33072
461.30 1.330143
461.40 1.329395
461.50 1.328604
461.60 1.327813
461.70 1.327023
461.80 1.326334
461.90 1.325646
462.00 1.324958
462.10 1.32427
462.20 1.323583
462.30 1.322897
462.40 1.322211
462.50 1.321525
462.60 1.32084
462.70 1.320155
462.80 1.319471
462.90 1.318787
463.00 1.318104
463.10 1.317421
463.20 1.316653
463.30 1.31585
463.40 1.315047
463.50 1.314245
463.60 1.313444
463.70 1.312643
463.80 1.311843
463.90 1.311071
464.00 1.310306
464.10 1.309541
464.20 1.308777
464.30 1.308014
464.40 1.307251
464.50 1.306489
464.60 1.305727
464.70 1.30492
464.80 1.304095
464.90 1.30327
465.00 1.302446
465.10 1.301623
465.20 1.3008
465.30 1.29997
465.40 1.299134
465.50 1.298299
465.60 1.297464
465.70 1.29663
465.80 1.295797
465.90 1.295028
466.00 1.294277
466.10 1.293526
466.20 1.292775
466.30 1.291879
466.40 1.290925
466.50 1.289972
466.60 1.289019
466.70 1.288067
466.80 1.287116
466.90 1.286166
467.00 1.285216
467.10 1.284267
467.20 1.283318
467.30 1.282653
467.40 1.281729
467.50 1.280711
467.60 1.279694
467.70 1.278678
467.80 1.277662
467.90 1.276698
468.00 1.275755
468.10 1.274813
468.20 1.273872
468.30 1.272649
468.40 1.271312
468.50 1.270539
468.60 1.269104
468.70 1.267871
468.80 1.266538
468.90 1.26538
469.00 1.264085
469.10 1.262634
469.20 1.261107
469.30 1.259582
469.40 1.258058
469.50 1.256267
469.60 1.254368
469.70 1.25247
469.80 1.250575
469.90 1.248789
470.00 1.246523
470.10 1.243199
470.20 1.239624
470.30 1.236051
470.40 1.232481
470.50 1.228915
470.60 1.222125
470.70 1.214534
470.80 1.20695
470.90 1.199372
471.00 1.185932
471.10 1.165955
471.20 1.130575
471.30 1.044085
471.40 1.017595
471.50 1.064537
471.60 1.088897
471.70 1.111124
471.80 1.12473
471.90 1.136174
472.00 1.147609
472.10 1.159034
472.20 1.165955
472.30 1.171747
472.40 1.177535
472.50 1.183317
472.60 1.189094
472.70 1.19345
472.80 1.19567
472.90 1.1975
473.00 1.199328
473.10 1.201154
473.20 1.202979
473.30 1.204802
473.40 1.206623
473.50 1.208443
473.60 1.210261
473.70 1.212077
473.80 1.212789
473.90 1.213225
474.00 1.21366
474.10 1.214095
474.20 1.214334
474.30 1.214492
474.40 1.214649
474.50 1.214807
474.60 1.214942
474.70 1.214854
474.80 1.214766
474.90 1.214678
475.00 1.21459
475.10 1.214502
475.20 1.214414
475.30 1.214326
475.40 1.213976
475.50 1.21356
475.60 1.213145
475.70 1.21273
475.80 1.212315
475.90 1.211901
476.00 1.211487
476.10 1.211073
476.20 1.210592
476.30 1.210084
476.40 1.209576
476.50 1.209068
476.60 1.208561
476.70 1.208054
476.80 1.207547
476.90 1.206905
477.00 1.20623
477.10 1.205555
477.20 1.204881
477.30 1.204207
477.40 1.203534
477.50 1.202861
477.60 1.202189
477.70 1.201517
477.80 1.200845
477.90 1.200174
478.00 1.199504
478.10 1.198834
478.20 1.198164
478.30 1.197495
478.40 1.196826
478.50 1.196158
478.60 1.19549
478.70 1.194659
478.80 1.193763
478.90 1.193067
479.00 1.192422
479.10 1.191778
479.20 1.191134
479.30 1.19049
479.40 1.18975
479.50 1.188953
479.60 1.188157
479.70 1.187361
479.80 1.186566
479.90 1.185772
480.00 1.184978
480.10 1.184184
480.20 1.183391
480.30 1.182599
480.40 1.181807
480.50 1.181016
480.60 1.180225
480.70 1.179435
480.80 1.178646
480.90 1.177857
481.00 1.177068
481.10 1.17628
481.20 1.175448
481.30 1.174615
481.40 1.173784
481.50 1.172953
481.60 1.172123
481.70 1.171293
481.80 1.170464
481.90 1.169635
482.00 1.168807
482.10 1.167979
482.20 1.16715
482.30 1.166294
482.40 1.165438
482.50 1.164583
482.60 1.163729
482.70 1.162875
482.80 1.162022
482.90 1.161169
483.00 1.160317
483.10 1.159466
483.20 1.158615
483.30 1.157765
483.40 1.156915
483.50 1.156066
483.60 1.155218
483.70 1.154179
483.80 1.15314
483.90 1.152103
484.00 1.151066
484.10 1.15003
484.20 1.149018
484.30 1.148016
484.40 1.147015
484.50 1.146014
484.60 1.145015
484.70 1.144007
484.80 1.142882
484.90 1.141758
485.00 1.140634
485.10 1.139511
485.20 1.138389
485.30 1.137268
485.40 1.136148
485.50 1.135029
485.60 1.13391
485.70 1.132566
485.80 1.131222
485.90 1.12988
486.00 1.128538
486.10 1.127198
486.20 1.125858
486.30 1.12452
486.40 1.123182
486.50 1.121846
486.60 1.12051
486.70 1.119174
486.80 1.117812
486.90 1.11645
487.00 1.11509
487.10 1.113731
487.20 1.112066
487.30 1.110403
487.40 1.10874
487.50 1.107079
487.60 1.105419
487.70 1.103761
487.80 1.102103
487.90 1.100447
488.00 1.098793
488.10 1.097139
488.20 1.09546
488.30 1.093427
488.40 1.091396
488.50 1.089367
488.60 1.087339
488.70 1.085313
488.80 1.083261
488.90 1.081212
489.00 1.078997
489.10 1.076357
489.20 1.073719
489.30 1.071083
489.40 1.068449
489.50 1.065817
489.60 1.063187
489.70 1.060559
489.80 1.057759
489.90 1.054609
490.00 1.051461
490.10 1.048316
490.20 1.045174
490.30 1.042034
490.40 1.038533
490.50 1.035034
490.60 1.031538
490.70 1.028045
490.80 1.023777
490.90 1.019984
491.00 1.015958
491.10 1.01374
491.20 1.010802
491.30 1.005343
491.40 0.9986003
491.50 0.9901124
491.60 0.9789242
491.70 0.9650857
491.80 0.9510687
491.90 0.9345452
492.00 0.9212208
492.10 0.9308924
492.20 0.8695895
492.30 0.8634632
492.40 0.8910729
492.50 0.9121744
492.60 0.9275724
492.70 0.9372353
492.80 0.9468903
492.90 0.9565374
493.00 0.9658999
493.10 0.9715802
493.20 0.9772558
493.30 0.9829268
493.40 0.9885931
493.50 0.9942547
493.60 0.9984187
493.70 1.002012
493.80 1.005602
493.90 1.008975
494.00 1.012013
494.10 1.014815
494.20 1.01712
494.30 1.019422
494.40 1.021723
494.50 1.024022
494.60 1.026266
494.70 1.027816
494.80 1.029365
494.90 1.030911
495.00 1.032456
495.10 1.034
495.20 1.034755
495.30 1.03551
495.40 1.036265
495.50 1.037019
495.60 1.037772
495.70 1.038524
495.80 1.039275
495.90 1.040026
496.00 1.040777
496.10 1.041333
496.20 1.041488
496.30 1.041763
496.40 1.042038
496.50 1.042312
496.60 1.042586
496.70 1.04248
496.80 1.042375
496.90 1.042269
497.00 1.042163
497.10 1.042058
497.20 1.041952
497.30 1.041765
497.40 1.041346
497.50 1.040927
497.60 1.040509
497.70 1.040064
497.80 1.039259
497.90 1.038454
498.00 1.03765
498.10 1.036847
498.20 1.036044
498.30 1.035242
498.40 1.03444
498.50 1.033639
498.60 1.032838
498.70 1.031374
498.80 1.029911
498.90 1.028358
499.00 1.026806
499.10 1.025255
499.20 1.023648
499.30 1.0217
499.40 1.019125
499.50 1.016553
499.60 1.013982
499.70 1.011328
499.80 1.007549
499.90 1.003773
500.00 1
500.10 0.9962298
500.20 0.9913885
500.30 0.9842692
500.40 0.9771556
500.50 0.9700476
500.60 0.9629452
500.70 0.9558483
500.80 0.9464218
500.90 0.9320423
501.00 0.9176742
501.10 0.9033175
501.20 0.8778711
501.30 0.8446173
501.40 0.8047427
501.50 0.7204773
501.60 0.735356
501.70 0.8476973
501.80 0.8955726
501.90 0.92424
502.00 0.9479231
502.10 0.9610486
502.20 0.9737434
502.30 0.9808467
502.40 0.9867251
502.50 0.9900092
502.60 0.9932906
502.70 0.9965694
502.80 0.9998454
502.90 1.003119
503.00 1.005595
503.10 1.006381
503.20 1.007166
503.30 1.007951
503.40 1.008427
503.50 1.008026
503.60 1.007626
503.70 1.007226
503.80 1.006689
503.90 1.005147
504.00 1.002513
504.10 0.9975598
504.20 0.9926103
504.30 0.9876646
504.40 0.9833722
504.50 0.9809305
504.60 0.9781352
504.70 0.9708794
504.80 0.95287
504.90 0.9619844
505.00 0.9683884
505.10 0.9724401
505.20 0.976056
505.30 0.9784383
505.40 0.9808187
505.50 0.9831972
505.60 0.9851922
505.70 0.9863752
505.80 0.9875572
505.90 0.9887381
506.00 0.9899181
506.10 0.991097
506.20 0.9920645
506.30 0.9924322
506.40 0.9927996
506.50 0.9931667
506.60 0.9935333
506.70 0.9938996
506.80 0.9942655
506.90 0.9946311
507.00 0.9949963
507.10 0.9951188
507.20 0.9947814
507.30 0.9946007
507.40 0.99442
507.50 0.9942393
507.60 0.9940588
507.70 0.9938782
507.80 0.9936978
507.90 0.9935174
508.00 0.9933371
508.10 0.9931569
508.20 0.9929767
508.30 0.9927966
508.40 0.9926165
508.50 0.9924365
508.60 0.9922566
508.70 0.9920768
508.80 0.9918423
508.90 0.9914526
509.00 0.991063
509.10 0.9906737
509.20 0.9902847
509.30 0.9898958
509.40 0.9895072
509.50 0.9891188
509.60 0.9887307
509.70 0.9883427
509.80 0.987955
509.90 0.9875676
510.00 0.9871803
510.10 0.9867933
510.20 0.9864065
510.30 0.9859931
510.40 0.9855035
510.50 0.9850142
510.60 0.9845252
510.70 0.9840365
510.80 0.9835482
510.90 0.9830601
511.00 0.9825723
511.10 0.9820849
511.20 0.9815977
511.30 0.9811109
511.40 0.9806243
511.50 0.9801381
511.60 0.9796248
511.70 0.9790536
511.80 0.9784828
511.90 0.9779123
512.00 0.9773423
512.10 0.9767726
512.20 0.9762032
512.30 0.9756621
512.40 0.9752004
512.50 0.9747391
512.60 0.974278
512.70 0.9738172
512.80 0.9733567
512.90 0.9728965
513.00 0.9724366
513.10 0.9719769
513.20 0.9715176
513.30 0.9710585
513.40 0.9705997
513.50 0.9701412
513.60 0.969683
513.70 0.9692251
513.80 0.9687674
513.90 0.96831
514.00 0.9677677
514.10 0.9672118
514.20 0.9666564
514.30 0.9661012
514.40 0.9655465
514.50 0.964992
514.60 0.964438
514.70 0.9638843
514.80 0.9633309
514.90 0.962778
515.00 0.9622253
515.10 0.9616731
515.20 0.9611211
515.30 0.9605696
515.40 0.9600184
515.50 0.9594675
515.60 0.958917
515.70 0.9583669
515.80 0.9578171
515.90 0.9572677
516.00 0.9567186
516.10 0.9561699
516.20 0.9556215
516.30 0.9550735
516.40 0.9545258
516.50 0.9539785
516.60 0.9534315
516.70 0.9528848
516.80 0.9523385
516.90 0.9517925
517.00 0.9512469
517.10 0.9507016
517.20 0.9501567
517.30 0.9496121
517.40 0.9490679
517.50 0.948524
517.60 0.9479805
517.70 0.9474373
517.80 0.9468945
517.90 0.946352
518.00 0.9458099
518.10 0.9452681
518.20 0.9447267
518.30 0.9441856
518.40 0.9436449
518.50 0.9431045
518.60 0.9425645
518.70 0.9420248
518.80 0.9414854
518.90 0.9409464
519.00 0.9404078
519.10 0.9398586
519.20 0.9392975
519.30 0.9387369
519.40 0.9381765
519.50 0.9376166
519.60 0.937057
519.70 0.9364977
519.80 0.9359389
519.90 0.9353803
520.00 0.9348222
520.10 0.9342644
520.20 0.9337069
520.30 0.9331499
520.40 0.9325931
520.50 0.9320368
520.60 0.9314808
520.70 0.9309251
520.80 0.9303699
520.90 0.9298149
521.00 0.9292604
521.10 0.9287062
521.20 0.9281523
521.30 0.9275988
521.40 0.9270457
521.50 0.9264929
521.60 0.9259404
521.70 0.9253884
521.80 0.9248366
521.90 0.9242853
522.00 0.9237343
522.10 0.9231836
522.20 0.9226333
522.30 0.9220834
522.40 0.9215338
522.50 0.9209845
522.60 0.9204356
522.70 0.9198871
522.80 0.9193389
522.90 0.9187911
523.00 0.9182436
523.10 0.9176965
523.20 0.9171497
523.30 0.9166033
523.40 0.9160572
523.50 0.9155115
523.60 0.9149661
523.70 0.9144211
523.80 0.9138764
523.90 0.9133321
524.00 0.9127881
524.10 0.9122444
524.20 0.9117012
524.30 0.9111661
524.40 0.9106374
524.50 0.9101092
524.60 0.9095812
524.70 0.9090536
524.80 0.9085264
524.90 0.9079994
525.00 0.9074728
525.10 0.9069466
525.20 0.9064206
525.30 0.905895
525.40 0.9053698
525.50 0.9048449
525.60 0.9043203
525.70 0.903796
525.80 0.9032721
525.90 0.9027485
526.00 0.9022252
526.10 0.9017023
526.20 0.9011797
526.30 0.9006575
526.40 0.9001355
526.50 0.8996139
526.60 0.8990927
526.70 0.8985717
526.80 0.8980511
526.90 0.8975309
527.00 0.8970109
527.10 0.8964913
527.20 0.895972
527.30 0.8954531
527.40 0.8949344
527.50 0.8944161
527.60 0.8938982
527.70 0.8933805
527.80 0.8928632
527.90 0.8923462
528.00 0.8918296
528.10 0.8913133
528.20 0.8907973
528.30 0.8902816
528.40 0.8897662
528.50 0.8892512
528.60 0.8887365
528.70 0.8882221
528.80 0.8877081
528.90 0.8871944
529.00 0.886681
529.10 0.8861679
529.20 0.8856552
529.30 0.8851427
529.40 0.8846307
529.50 0.8841175
529.60 0.8835961
529.70 0.8830751
529.80 0.8825544
529.90 0.882034
530.00 0.881514
530.10 0.8809943
530.20 0.8804749
530.30 0.8799559
530.40 0.8794371
530.50 0.8789188
530.60 0.8784007
530.70 0.877883
530.80 0.8773655
530.90 0.8768485
531.00 0.8763317
531.10 0.8758153
531.20 0.8752992
531.30 0.8747834
531.40 0.874268
531.50 0.8737529
531.60 0.8732381
531.70 0.8727236
531.80 0.8722094
531.90 0.8716956
532.00 0.8711821
532.10 0.870669
532.20 0.8701561
532.30 0.8696435
532.40 0.8691312
532.50 0.8686193
532.60 0.8681076
532.70 0.8675963
532.80 0.8670854
532.90 0.8665747
533.00 0.8660644
533.10 0.8655544
533.20 0.8650447
533.30 0.8645353
533.40 0.8640263
533.50 0.8635175
533.60 0.8630091
533.70 0.862501
533.80 0.8619933
533.90 0.8614858
534.00 0.8609787
534.10 0.8604719
534.20 0.8599654
534.30 0.8594593
534.40 0.8589534
534.50 0.8584479
534.60 0.8579427
534.70 0.8574378
534.80 0.8569314
534.90 0.8564176
535.00 0.8559042
535.10 0.855391
535.20 0.8548782
535.30 0.8543657
535.40 0.8538536
535.50 0.8533417
535.60 0.8528302
535.70 0.852319
535.80 0.8518082
535.90 0.8512976
536.00 0.8507874
536.10 0.8502775
536.20 0.8497679
536.30 0.8492586
536.40 0.8487497
536.50 0.8482411
536.60 0.8477328
536.70 0.8472248
536.80 0.8467171
536.90 0.8462098
537.00 0.8457028
537.10 0.8451961
537.20 0.8446897
537.30 0.8441836
537.40 0.8436779
537.50 0.8431724
537.60 0.8426673
537.70 0.8421625
537.80 0.841658
537.90 0.8411539
538.00 0.84065
538.10 0.8401465
538.20 0.8396433
538.30 0.8391404
538.40 0.8386378
538.50 0.8381355
538.60 0.8376336
538.70 0.837132
538.80 0.8366306
538.90 0.8361296
539.00 0.8356289
539.10 0.8351286
539.20 0.8346285
539.30 0.8341287
539.40 0.8336293
539.50 0.8331302
539.60 0.8326314
539.70 0.8321329
539.80 0.8316347
539.90 0.8311368
540.00 0.8306392
540.10 0.830142
540.20 0.829662
540.30 0.8291894
540.40 0.8287169
540.50 0.8282448
540.60 0.827773
540.70 0.8273015
540.80 0.8268303
540.90 0.8263593
541.00 0.8258887
541.10 0.8254183
541.20 0.8249483
541.30 0.8244785
541.40 0.824009
541.50 0.8235398
541.60 0.8230709
541.70 0.8226023
541.80 0.822134
541.90 0.8216659
542.00 0.8211982
542.10 0.8207307
542.20 0.8202636
542.30 0.8197967
542.40 0.8193301
542.50 0.8188638
542.60 0.8183978
542.70 0.8179321
542.80 0.8174666
542.90 0.8170015
543.00 0.8165366
543.10 0.816072
543.20 0.8156077
543.30 0.8151437
543.40 0.81468
543.50 0.8142166
543.60 0.8137534
543.70 0.8132906
543.80 0.812828
543.90 0.8123657
544.00 0.8119037
544.10 0.811442
544.20 0.8109806
544.30 0.8105194
544.40 0.8100586
544.50 0.809598
544.60 0.8091377
544.70 0.8086777
544.80 0.8082179
544.90 0.8077585
545.00 0.8072993
545.10 0.8068404
545.20 0.8063818
545.30 0.8059235
545.40 0.8054655
545.50 0.8050077
545.60 0.8045439
545.70 0.8040776
545.80 0.8036116
545.90 0.8031459
546.00 0.8026805
546.10 0.8022154
546.20 0.8017506
546.30 0.801286
546.40 0.8008218
546.50 0.8003578
546.60 0.7998941
546.70 0.7994307
546.80 0.7989676
546.90 0.7985048
547.00 0.7980422
547.10 0.79758
547.20 0.797118
547.30 0.7966563
547.40 0.7961949
547.50 0.7957338
547.60 0.7952729
547.70 0.7948124
547.80 0.7943521
547.90 0.7938921
548.00 0.7934324
548.10 0.792973
548.20 0.7925138
548.30 0.792046
548.40 0.7915662
548.50 0.7910866
548.60 0.7906073
548.70 0.7901284
548.80 0.7896497
548.90 0.7891713
549.00 0.7886932
549.10 0.7882154
549.20 0.7877379
549.30 0.7872607
549.40 0.7867838
549.50 0.7863072
549.60 0.7858309
549.70 0.7853549
549.80 0.7848792
549.90 0.7844038
550.00 0.7839286
550.10 0.7834538
550.20 0.7829792
550.30 0.782505
550.40 0.782031
550.50 0.7815574
550.60 0.781084
550.70 0.7806109
550.80 0.7801381
550.90 0.7796656
551.00 0.7791999
551.10 0.7787715
551.20 0.7783434
551.30 0.7779155
551.40 0.7774879
551.50 0.7770606
551.60 0.7766335
551.70 0.7762067
551.80 0.7757801
551.90 0.7753538
552.00 0.7749277
552.10 0.7745019
552.20 0.7740764
552.30 0.7736511
552.40 0.773226
552.50 0.7728013
552.60 0.7723768
552.70 0.7719525
552.80 0.7715285
552.90 0.7711048
553.00 0.7706813
553.10 0.770258
553.20 0.7698351
553.30 0.7694123
553.40 0.7689899
553.50 0.7685677
553.60 0.7681457
553.70 0.767724
553.80 0.7672902
553.90 0.7668484
554.00 0.7664069
554.10 0.7659656
554.20 0.7655247
554.30 0.7650839
554.40 0.7646435
554.50 0.7642033
554.60 0.7637634
554.70 0.7633238
554.80 0.7628844
554.90 0.7624453
555.00 0.7620065
555.10 0.7615679
555.20 0.7611296
555.30 0.7606916
555.40 0.7602538
555.50 0.7598163
555.60 0.759379
555.70 0.7589421
555.80 0.7585054
555.90 0.7580689
556.00 0.7576327
556.10 0.7571968
556.20 0.7567612
556.30 0.7563258
556.40 0.7558907
556.50 0.7554549
556.60 0.7550017
556.70 0.7545488
556.80 0.7540962
556.90 0.7536438
557.00 0.7531918
557.10 0.75274
557.20 0.7522885
557.30 0.7518372
557.40 0.7513862
557.50 0.7509356
557.60 0.7504851
557.70 0.750035
557.80 0.7495851
557.90 0.7491355
558.00 0.7486862
558.10 0.7482372
558.20 0.7477884
558.30 0.7473399
558.40 0.7468917
558.50 0.7464437
558.60 0.745996
558.70 0.7455486
558.80 0.7451015
558.90 0.7446546
559.00 0.7442081
559.10 0.7437617
559.20 0.7433157
559.30 0.7428699
559.40 0.7424244
559.50 0.7419792
559.60 0.7415342
559.70 0.7410895
559.80 0.7406451
559.90 0.740201
560.00 0.7397571
560.10 0.7393135
560.20 0.7388701
560.30 0.7384271
560.40 0.7379843
560.50 0.7375417
560.60 0.7370995
560.70 0.7366575
560.80 0.7362157
560.90 0.7357743
561.00 0.7353331
561.10 0.7348922
561.20 0.7344515
561.30 0.7340111
561.40 0.733571
561.50 0.7331311
561.60 0.7326916
561.70 0.7322522
561.80 0.7318132
561.90 0.7313744
562.00 0.7309359
562.10 0.7305062
562.20 0.7300896
562.30 0.7296732
562.40 0.7292571
562.50 0.7288413
562.60 0.7284257
562.70 0.7280103
562.80 0.7275952
562.90 0.7271804
563.00 0.7267658
563.10 0.7263514
563.20 0.7259373
563.30 0.7255235
563.40 0.7251099
563.50 0.7246965
563.60 0.7242834
563.70 0.7238706
563.80 0.7234579
563.90 0.7230456
564.00 0.7226334
564.10 0.7222216
564.20 0.7218099
564.30 0.7213986
564.40 0.7209874
564.50 0.7205765
564.60 0.7201659
564.70 0.7197555
564.80 0.7193453
564.90 0.7189298
565.00 0.7185007
565.10 0.7180718
565.20 0.7176432
565.30 0.7172148
565.40 0.7167868
565.50 0.7163589
565.60 0.7159314
565.70 0.715504
565.80 0.715077
565.90 0.7146502
566.00 0.7142236
566.10 0.7137973
566.20 0.7133713
566.30 0.7129455
566.40 0.71252
566.50 0.7120948
566.60 0.7116698
566.70 0.711245
566.80 0.7108205
566.90 0.7103963
567.00 0.7099723
567.10 0.7095486
567.20 0.7091251
567.30 0.7087019
567.40 0.7082789
567.50 0.7078562
567.60 0.7074337
567.70 0.7070046
567.80 0.7065464
567.90 0.7060884
568.00 0.7056307
568.10 0.7051733
568.20 0.7047161
568.30 0.7042593
568.40 0.7038027
568.50 0.7033464
568.60 0.7028903
568.70 0.7024346
568.80 0.7019791
568.90 0.7015239
569.00 0.701069
569.10 0.7006143
569.20 0.7001599
569.30 0.6997059
569.40 0.699252
569.50 0.6987985
569.60 0.6983452
569.70 0.6978922
569.80 0.6974395
569.90 0.6969871
570.00 0.6965349
570.10 0.696083
570.20 0.6956314
570.30 0.69518
570.40 0.694729
570.50 0.6942782
570.60 0.6938276
570.70 0.6933774
570.80 0.6929274
570.90 0.6924777
571.00 0.6920282
571.10 0.6915791
571.20 0.6911302
571.30 0.6906816
571.40 0.6902332
571.50 0.6897852
571.60 0.6893373
571.70 0.6888898
571.80 0.6884426
571.90 0.6879956
572.00 0.6875488
572.10 0.6871024
572.20 0.6866562
572.30 0.6862103
572.40 0.6857647
572.50 0.6853193
572.60 0.6848742
572.70 0.6844293
572.80 0.6839848
572.90 0.6835405
573.00 0.6830965
573.10 0.6826527
573.20 0.6822092
573.30 0.681766
573.40 0.6812928
573.50 0.6807783
573.60 0.6802641
573.70 0.6797501
573.80 0.6792366
573.90 0.6787233
574.00 0.6782103
574.10 0.6776977
574.20 0.6771854
574.30 0.6766733
574.40 0.6761616
574.50 0.6756503
574.60 0.6751392
574.70 0.6746284
574.80 0.674118
574.90 0.6736079
575.00 0.6730981
575.10 0.6725886
575.20 0.6720794
575.30 0.6715705
575.40 0.671062
575.50 0.6705537
575.60 0.6700458
575.70 0.6695382
575.80 0.6690309
575.90 0.6685239
576.00 0.6680172
576.10 0.6675108
576.20 0.6670048
576.30 0.666499
576.40 0.6659936
576.50 0.6654885
576.60 0.6649837
576.70 0.6644792
576.80 0.663975
576.90 0.6634711
577.00 0.6629675
577.10 0.6624642
577.20 0.6619613
577.30 0.6614586
577.40 0.6609563
577.50 0.6604543
577.60 0.6599266
577.70 0.659357
577.80 0.6587878
577.90 0.6582189
578.00 0.6576504
578.10 0.6570822
578.20 0.6565144
578.30 0.6559469
578.40 0.6553798
578.50 0.6548131
578.60 0.6542467
578.70 0.6536806
578.80 0.6531149
578.90 0.6525496
579.00 0.6519846
579.10 0.651412
579.20 0.6507596
579.30 0.6501075
579.40 0.6494559
579.50 0.6488047
579.60 0.6481539
579.70 0.6475035
579.80 0.6468536
579.90 0.646204
580.00 0.6455549
580.10 0.6448322
580.20 0.6439894
580.30 0.6431471
580.40 0.6423054
580.50 0.6414642
580.60 0.6406236
580.70 0.6397835
580.80 0.638944
580.90 0.6381049
581.00 0.6372665
581.10 0.6364285
581.20 0.6355911
581.30 0.6347543
581.40 0.633918
581.50 0.6330822
581.60 0.6322469
581.70 0.6314122
581.80 0.6305781
581.90 0.6297444
582.00 0.6289113
582.10 0.6279486
582.20 0.6267743
582.30 0.6256007
582.40 0.6244279
582.50 0.6232558
582.60 0.6220845
582.70 0.620914
582.80 0.6197442
582.90 0.6185752
583.00 0.617407
583.10 0.6162396
583.20 0.6150729
583.30 0.6139069
583.40 0.6127418
583.50 0.6115774
583.60 0.610173
583.70 0.608377
583.80 0.6065821
583.90 0.6047885
584.00 0.602996
584.10 0.6012047
584.20 0.5994146
584.30 0.5976257
584.40 0.595838
584.50 0.5940515
584.60 0.5922662
584.70 0.5904821
584.80 0.5886991
584.90 0.5868093
585.00 0.5844287
585.10 0.5820497
585.20 0.5792059
585.30 0.5756034
585.40 0.5720034
585.50 0.5684058
585.60 0.5648106
585.70 0.5612178
585.80 0.5576274
585.90 0.5540395
586.00 0.550454
586.10 0.5468709
586.20 0.542055
586.30 0.5352276
586.40 0.5284049
586.50 0.5215868
586.60 0.5147733
586.70 0.5079645
586.80 0.4988437
586.90 0.4859508
587.00 0.4730667
587.10 0.4601913
587.20 0.4447875
587.30 0.4252559
587.40 0.4056226
587.50 0.3860092
587.60 0.3780152
587.70 0.3973235
587.80 0.4179185
587.90 0.4384264
588.00 0.4561031
588.10 0.4691727
588.20 0.4822333
588.30 0.4952851
588.40 0.5058234
588.50 0.5122695
588.60 0.5187112
588.70 0.5251486
588.80 0.5315815
588.90 0.53801
589.00 0.5431057
589.10 0.5460313
589.20 0.5489549
589.30 0.5518765
589.40 0.5547961
589.50 0.5577136
589.60 0.5606292
589.70 0.5635427
589.80 0.5664542
589.90 0.5693638
590.00 0.5717356
590.10 0.573232
590.20 0.5747274
590.30 0.5762218
590.40 0.5777151
590.50 0.5792074
590.60 0.5806986
590.70 0.5821888
590.80 0.5832598
590.90 0.5841423
591.00 0.5850242
591.10 0.5859055
591.20 0.5867861
591.30 0.5876661
591.40 0.5885455
591.50 0.5894242
591.60 0.5901197
591.70 0.5905169
591.80 0.5909138
591.90 0.5913104
592.00 0.5917067
592.10 0.5921027
592.20 0.5924984
592.30 0.5928938
592.40 0.5932889
592.50 0.5936837
592.60 0.5940782
592.70 0.5944724
592.80 0.5948663
592.90 0.5952599
593.00 0.5956532
593.10 0.5959146
593.20 0.595961
593.30 0.5960074
593.40 0.5960537
593.50 0.5961
593.60 0.5961462
593.70 0.5961923
593.80 0.5962383
593.90 0.5962843
594.00 0.5963303
594.10 0.5963761
594.20 0.5964219
594.30 0.5964677
594.40 0.5965134
594.50 0.596559
594.60 0.5966045
594.70 0.59665
594.80 0.5966954
594.90 0.5967408
595.00 0.5967861
595.10 0.5967734
595.20 0.5966665
595.30 0.5965595
595.40 0.5964526
595.50 0.5963458
595.60 0.5962389
595.70 0.5961322
595.80 0.5960254
595.90 0.5959187
596.00 0.595812
596.10 0.5957054
596.20 0.5955988
596.30 0.5954923
596.40 0.5953857
596.50 0.5952793
596.60 0.5951728
596.70 0.5950087
596.80 0.5948093
596.90 0.59461
597.00 0.5944109
597.10 0.5942118
597.20 0.5940128
597.30 0.5938139
597.40 0.5936151
597.50 0.5934164
597.60 0.5932179
597.70 0.5930194
597.80 0.592821
597.90 0.5926227
598.00 0.5924245
598.10 0.5922264
598.20 0.5920285
598.30 0.5918306
598.40 0.5916328
598.50 0.5914351
598.60 0.5912375
598.70 0.59104
598.80 0.5908426
598.90 0.5906453
599.00 0.5904481
599.10 0.590251
599.20 0.590054
599.30 0.5898571
599.40 0.5895877
599.50 0.5893183
599.60 0.5890492
599.70 0.5887801
599.80 0.5885112
599.90 0.5882425
600.00 0.5879739
600.10 0.5877054
600.20 0.5874371
600.30 0.587169
600.40 0.586901
600.50 0.5866331
600.60 0.5863654
600.70 0.5860978
600.80 0.5858304
600.90 0.5855631
601.00 0.5852959
601.10 0.585029
601.20 0.5847621
601.30 0.5844954
601.40 0.5842273
601.50 0.5839593
601.60 0.5836915
601.70 0.5834238
601.80 0.5831562
601.90 0.5828888
602.00 0.5826216
602.10 0.5823545
602.20 0.5820875
602.30 0.5818207
602.40 0.581554
602.50 0.5812875
602.60 0.5810211
602.70 0.5808247
602.80 0.580632
602.90 0.5803197
603.00 0.5800075
603.10 0.5796955
603.20 0.5793837
603.30 0.5790721
603.40 0.5787607
603.50 0.5784494
603.60 0.5781383
603.70 0.5778274
603.80 0.5775166
603.90 0.577206
604.00 0.5768956
604.10 0.5765854
604.20 0.5762753
604.30 0.5759655
604.40 0.5756557
604.50 0.5753224
604.60 0.5749892
604.70 0.5746562
604.80 0.5743235
604.90 0.5739909
605.00 0.5736585
605.10 0.5733262
605.20 0.5729942
605.30 0.5726623
605.40 0.5723307
605.50 0.571746
605.60 0.5711616
605.70 0.5705777
605.80 0.569994
605.90 0.5694107
606.00 0.5688278
606.10 0.5678109
606.20 0.5667945
606.30 0.5657789
606.40 0.5647638
606.50 0.562448
606.60 0.5601337
606.70 0.556875
606.80 0.5548004
606.90 0.5546176
607.00 0.5551436
607.10 0.5556692
607.20 0.5561944
607.30 0.5566012
607.40 0.5570078
607.50 0.557414
607.60 0.5578199
607.70 0.5580292
607.80 0.5582383
607.90 0.5584472
608.00 0.5586559
608.10 0.5588645
608.20 0.5590729
608.30 0.5589982
608.40 0.5589236
608.50 0.558849
608.60 0.5587744
608.70 0.5586816
608.80 0.5585806
608.90 0.5584797
609.00 0.5583788
609.10 0.5582779
609.20 0.5581771
609.30 0.5579939
609.40 0.5578108
609.50 0.5576277
609.60 0.5574448
609.70 0.557262
609.80 0.5570792
609.90 0.5568965
610.00 0.556714
610.10 0.5565315
610.20 0.5563491
610.30 0.5561668
610.40 0.5559846
610.50 0.5558024
610.60 0.5556204
610.70 0.5554385
610.80 0.5552566
610.90 0.5550437
611.00 0.554831
611.10 0.5546183
611.20 0.5544058
611.30 0.5541934
611.40 0.553981
611.50 0.5537688
611.60 0.5535567
611.70 0.5533448
611.80 0.5531329
611.90 0.5529211
612.00 0.5527094
612.10 0.5524979
612.20 0.5522864
612.30 0.5520751
612.40 0.551802
612.50 0.551529
612.60 0.5512562
612.70 0.5509835
612.80 0.550711
612.90 0.5504386
613.00 0.5501664
613.10 0.5498943
613.20 0.5496224
613.30 0.5493506
613.40 0.549079
613.50 0.5488075
613.60 0.5485362
613.70 0.548265
613.80 0.5479939
613.90 0.547723
614.00 0.5474523
614.10 0.5471817
614.20 0.5469112
614.30 0.5466409
614.40 0.546463
614.50 0.5462852
614.60 0.5461074
614.70 0.5459297
614.80 0.5456787
614.90 0.5454129
615.00 0.5451471
615.10 0.5448815
615.20 0.5446161
615.30 0.5443508
615.40 0.5440856
615.50 0.5438206
615.60 0.5435557
615.70 0.543291
615.80 0.5430264
615.90 0.5427619
616.00 0.5424976
616.10 0.5422335
616.20 0.5419695
616.30 0.5417056
616.40 0.5414419
616.50 0.5411783
616.60 0.5409148
616.70 0.5406515
616.80 0.5403884
616.90 0.5401119
617.00 0.5398356
617.10 0.5395594
617.20 0.5392834
617.30 0.5390075
617.40 0.5387317
617.50 0.5384562
617.60 0.5381807
617.70 0.5379055
617.80 0.5376303
617.90 0.5373554
618.00 0.5370805
618.10 0.5368059
618.20 0.5365313
618.30 0.536257
618.40 0.5359827
618.50 0.5357087
618.60 0.5354347
618.70 0.535161
618.80 0.5348873
618.90 0.5346138
619.00 0.5343405
619.10 0.5340673
619.20 0.5337943
619.30 0.5335214
619.40 0.5332487
619.50 0.5329761
619.60 0.5327036
619.70 0.5324313
619.80 0.5321592
619.90 0.5318872
620.00 0.5316153
620.10 0.5313436
620.20 0.5310721
620.30 0.5308007
620.40 0.5305294
620.50 0.5302583
620.60 0.5299873
620.70 0.5297165
620.80 0.5294458
620.90 0.5291747
621.00 0.5289025
621.10 0.5286304
621.20 0.5283585
621.30 0.5280868
621.40 0.5278152
621.50 0.5275437
621.60 0.5272724
621.70 0.5270012
621.80 0.5267302
621.90 0.5264594
622.00 0.5261886
622.10 0.5259181
622.20 0.5256476
622.30 0.5253774
622.40 0.5251072
622.50 0.5248372
622.60 0.5245674
622.70 0.5242977
622.80 0.5240281
622.90 0.5237587
623.00 0.5234895
623.10 0.5232204
623.20 0.5229514
623.30 0.5226826
623.40 0.5224139
623.50 0.5221454
623.60 0.521877
623.70 0.5216088
623.80 0.5213407
623.90 0.5210727
624.00 0.5208049
624.10 0.5205373
624.20 0.5202698
624.30 0.5200024
624.40 0.5197352
624.50 0.5194681
624.60 0.5192012
624.70 0.5189344
624.80 0.5186677
624.90 0.5184012
625.00 0.5181349
625.10 0.5178687
625.20 0.5176026
625.30 0.5173367
625.40 0.5170709
625.50 0.5168052
625.60 0.5165397
625.70 0.5162744
625.80 0.5160092
625.90 0.5157441
626.00 0.5154792
626.10 0.5152144
626.20 0.5149498
626.30 0.5146853
626.40 0.5144209
626.50 0.5141567
626.60 0.5138926
626.70 0.5136287
626.80 0.5133649
626.90 0.5131013
627.00 0.5128378
627.10 0.5125709
627.20 0.5122945
627.30 0.5120183
627.40 0.5117423
627.50 0.5114664
627.60 0.5111906
627.70 0.510915
627.80 0.5106395
627.90 0.5103642
628.00 0.5100891
628.10 0.5098141
628.20 0.5095392
628.30 0.5092645
628.40 0.5089899
628.50 0.5087155
628.60 0.5084412
628.70 0.5081671
628.80 0.5078932
628.90 0.5076193
629.00 0.5073457
629.10 0.5070721
629.20 0.5067988
629.30 0.5065255
629.40 0.5062525
629.50 0.5059795
629.60 0.5057068
629.70 0.5054341
629.80 0.5051616
629.90 0.5048893
630.00 0.5046171
630.10 0.5043451
630.20 0.5040732
630.30 0.5038143
630.40 0.5035567
630.50 0.5032992
630.60 0.5030419
630.70 0.5027847
630.80 0.5025277
630.90 0.5022707
631.00 0.502014
631.10 0.5017573
631.20 0.5015008
631.30 0.5012445
631.40 0.5009882
631.50 0.5007321
631.60 0.5004762
631.70 0.5002204
631.80 0.4999647
631.90 0.4997092
632.00 0.4994538
632.10 0.4991985
632.20 0.4989434
632.30 0.4986884
632.40 0.4984335
632.50 0.4981788
632.60 0.4979242
632.70 0.4976697
632.80 0.4974154
632.90 0.4971612
633.00 0.4969072
633.10 0.4966533
633.20 0.4963995
633.30 0.4961459
633.40 0.4958929
633.50 0.4956404
633.60 0.4953881
633.70 0.495136
633.80 0.4948839
633.90 0.494632
634.00 0.4943802
634.10 0.4941286
634.20 0.4938771
634.30 0.4936257
634.40 0.4933745
634.50 0.4931234
634.60 0.4928724
634.70 0.4926215
634.80 0.4923708
634.90 0.4921203
635.00 0.4918698
635.10 0.4916195
635.20 0.4913693
635.30 0.4911193
635.40 0.4908694
635.50 0.4906196
635.60 0.49037
635.70 0.4901205
635.80 0.4898711
635.90 0.4896219
636.00 0.4893728
636.10 0.4891238
636.20 0.4888749
636.30 0.4886262
636.40 0.4883776
636.50 0.4881292
636.60 0.4878809
636.70 0.4876328
636.80 0.4873847
636.90 0.4871368
637.00 0.4868891
637.10 0.4866415
637.20 0.486394
637.30 0.4861466
637.40 0.4858994
637.50 0.4856523
637.60 0.4854053
637.70 0.4851585
637.80 0.4849117
637.90 0.4846652
638.00 0.4844187
638.10 0.4841724
638.20 0.4839262
638.30 0.4836802
638.40 0.4834342
638.50 0.4831884
638.60 0.4829428
638.70 0.4826972
638.80 0.4824518
638.90 0.4822066
639.00 0.4819614
639.10 0.4817164
639.20 0.4814715
639.30 0.4812268
639.40 0.4809821
639.50 0.4807376
639.60 0.4804933
639.70 0.4802462
639.80 0.4799897
639.90 0.4797334
640.00 0.4794772
640.10 0.4792212
640.20 0.4789653
640.30 0.4787095
640.40 0.4784538
640.50 0.4781983
640.60 0.477943
640.70 0.4776877
640.80 0.4774326
640.90 0.4771777
641.00 0.4769229
641.10 0.4766682
641.20 0.4764136
641.30 0.4761592
641.40 0.4759049
641.50 0.4756508
641.60 0.4753968
641.70 0.4751429
641.80 0.4748891
641.90 0.4746355
642.00 0.4743821
642.10 0.4741287
642.20 0.4738755
642.30 0.4736225
642.40 0.4733695
642.50 0.4731167
642.60 0.4728641
642.70 0.4726115
642.80 0.4723591
642.90 0.4721069
643.00 0.4718547
643.10 0.4716027
643.20 0.4713508
643.30 0.471099
643.40 0.4708474
643.50 0.4705959
643.60 0.4703446
643.70 0.4700933
643.80 0.4698423
643.90 0.4695913
644.00 0.4693405
644.10 0.4690898
644.20 0.4688392
644.30 0.4685888
644.40 0.4683385
644.50 0.4680884
644.60 0.4678383
644.70 0.4675884
644.80 0.4673387
644.90 0.467089
645.00 0.4668395
645.10 0.4665902
645.20 0.466341
645.30 0.4660919
645.40 0.4658429
645.50 0.465594
645.60 0.4653453
645.70 0.4650968
645.80 0.4648483
645.90 0.4646
646.00 0.4643518
646.10 0.4641041
646.20 0.4638572
646.30 0.4636104
646.40 0.4633638
646.50 0.4631173
646.60 0.462871
646.70 0.4626247
646.80 0.4623786
646.90 0.4621327
647.00 0.4618868
647.10 0.4616411
647.20 0.4613955
647.30 0.4611501
647.40 0.4609048
647.50 0.4606596
647.60 0.4604145
647.70 0.4601696
647.80 0.4599248
647.90 0.4596801
648.00 0.4594356
648.10 0.4591911
648.20 0.4589469
648.30 0.4587027
648.40 0.4584587
648.50 0.4582148
648.60 0.457971
648.70 0.4577274
648.80 0.4574838
648.90 0.4572405
649.00 0.4569972
649.10 0.4567541
649.20 0.4565111
649.30 0.4562682
649.40 0.4560132
649.50 0.4557579
649.60 0.4555026
649.70 0.4552475
649.80 0.4549926
649.90 0.4547378
650.00 0.4544831
650.10 0.4542286
650.20 0.4539742
650.30 0.4537199
650.40 0.4534658
650.50 0.4532118
650.60 0.4529579
650.70 0.4527041
650.80 0.4524506
650.90 0.4521971
651.00 0.4519438
651.10 0.4516906
651.20 0.4514375
651.30 0.4511846
651.40 0.4509318
651.50 0.4506791
651.60 0.4504266
651.70 0.4501742
651.80 0.4499219
651.90 0.4496698
652.00 0.4494178
652.10 0.449166
652.20 0.4489143
652.30 0.4486627
652.40 0.4484112
652.50 0.4481599
652.60 0.4478904
652.70 0.4476111
652.80 0.447332
652.90 0.4470531
653.00 0.4467743
653.10 0.4464956
653.20 0.4462171
653.30 0.4459388
653.40 0.4456606
653.50 0.4453825
653.60 0.4451046
653.70 0.4448269
653.80 0.4445493
653.90 0.4442718
654.00 0.4439945
654.10 0.4437174
654.20 0.4434403
654.30 0.4431635
654.40 0.4428868
654.50 0.4426102
654.60 0.4423338
654.70 0.4420575
654.80 0.4417814
654.90 0.4415055
655.00 0.4412296
655.10 0.440954
655.20 0.4406784
655.30 0.4404031
655.40 0.4401278
655.50 0.4398527
655.60 0.4395778
655.70 0.439303
655.80 0.4390072
655.90 0.4387114
656.00 0.4384159
656.10 0.4381205
656.20 0.4378253
656.30 0.4375302
656.40 0.4372353
656.50 0.4369405
656.60 0.4366459
656.70 0.4363515
656.80 0.4360572
656.90 0.4357631
657.00 0.4354692
657.10 0.4351754
657.20 0.4348817
657.30 0.4345882
657.40 0.4342949
657.50 0.4340018
657.60 0.4337087
657.70 0.4334159
657.80 0.4329343
657.90 0.432558
658.00 0.4322005
658.10 0.4318432
658.20 0.431486
658.30 0.4311291
658.40 0.4307724
658.50 0.4304158
658.60 0.4300595
658.70 0.4297033
658.80 0.4293474
658.90 0.4289916
659.00 0.4286361
659.10 0.4282564
659.20 0.4278403
659.30 0.4273873
659.40 0.4269345
659.50 0.426482
659.60 0.4260297
659.70 0.4255777
659.80 0.4251259
659.90 0.4246744
660.00 0.4242232
660.10 0.4237722
660.20 0.4233214
660.30 0.4228709
660.40 0.4224147
660.50 0.4219578
660.60 0.421501
660.70 0.4210445
660.80 0.4205883
660.90 0.4199031
661.00 0.4192183
661.10 0.4185338
661.20 0.4178498
661.30 0.4171661
661.40 0.4164829
661.50 0.4158
661.60 0.4151176
661.70 0.4144355
661.80 0.4137538
661.90 0.4129344
662.00 0.4121155
662.10 0.4112971
662.20 0.4104791
662.30 0.4096616
662.40 0.4090372
662.50 0.4081205
662.60 0.4072043
662.70 0.4062887
662.80 0.4053736
662.90 0.4048552
663.00 0.404337
663.10 0.4042151
663.20 0.4058742
663.30 0.4083236
663.40 0.4097827
663.50 0.4104501
663.60 0.411117
663.70 0.4111769
663.80 0.4112368
663.90 0.4111405
664.00 0.4110166
664.10 0.4104981
664.20 0.40998
664.30 0.4094621
664.40 0.4089445
664.50 0.4084272
664.60 0.4079101
664.70 0.4070623
664.80 0.4062149
664.90 0.405368
665.00 0.4045216
665.10 0.4036757
665.20 0.4028303
665.30 0.4019853
665.40 0.4011409
665.50 0.3998283
665.60 0.3984338
665.70 0.3970748
665.80 0.3952285
665.90 0.3933832
666.00 0.3915391
666.10 0.3896961
666.20 0.3878541
666.30 0.3860132
666.40 0.3841735
666.50 0.3807908
666.60 0.3771377
666.70 0.3734868
666.80 0.369838
666.90 0.3661914
667.00 0.362547
667.10 0.3566963
667.20 0.3504594
667.30 0.3412992
667.40 0.3321446
667.50 0.3180846
667.60 0.3031668
667.70 0.2841365
667.80 0.2678861
667.90 0.2726301
668.00 0.287524
668.10 0.3009611
668.20 0.314127
668.30 0.3224977
668.40 0.3300188
668.50 0.3375354
668.60 0.3450475
668.70 0.3501736
668.80 0.3534392
668.90 0.3567029
669.00 0.3599647
669.10 0.3632245
669.20 0.3664823
669.30 0.3683177
669.40 0.3699015
669.50 0.3714843
669.60 0.3730661
669.70 0.374647
669.80 0.3762269
669.90 0.3778058
670.00 0.3793838
670.10 0.3809609
670.20 0.3825369
670.30 0.383491
670.40 0.3843349
670.50 0.3851784
670.60 0.3860213
670.70 0.3868636
670.80 0.3873485
670.90 0.3878331
671.00 0.3883174
671.10 0.3888014
671.20 0.3892851
671.30 0.3897685
671.40 0.3902516
671.50 0.3907344
671.60 0.3912168
671.70 0.391699
671.80 0.3921808
671.90 0.3924869
672.00 0.3927619
672.10 0.3930367
672.20 0.3933113
672.30 0.3935857
672.40 0.3937366
672.50 0.3938781
672.60 0.3940195
672.70 0.3941609
672.80 0.3943021
672.90 0.3944432
673.00 0.3945842
673.10 0.3947252
673.20 0.394866
673.30 0.3950826
673.40 0.3951132
673.50 0.395111
673.60 0.3951088
673.70 0.3951066
673.80 0.3951044
673.90 0.3951021
674.00 0.3950998
674.10 0.3950976
674.20 0.3950953
674.30 0.3950929
674.40 0.3950906
674.50 0.3950882
674.60 0.3950859
674.70 0.3950835
674.80 0.3950811
674.90 0.3950787
675.00 0.3950762
675.10 0.3950738
675.20 0.3950713
675.30 0.3950689
675.40 0.394995
675.50 0.3949086
675.60 0.3948222
675.70 0.3947358
675.80 0.3946495
675.90 0.3945632
676.00 0.394477
676.10 0.3943908
676.20 0.3943046
676.30 0.3942184
676.40 0.3941323
676.50 0.3940462
676.60 0.3939602
676.70 0.3938742
676.80 0.3937882
676.90 0.3937022
677.00 0.3936163
677.10 0.3935304
677.20 0.3934446
677.30 0.3933588
677.40 0.393273
677.50 0.3931873
677.60 0.3931015
677.70 0.3930159
677.80 0.3929302
677.90 0.3927923
678.00 0.3926453
678.10 0.3924984
678.20 0.3923515
678.30 0.3922046
678.40 0.3920579
678.50 0.3919112
678.60 0.3917646
678.70 0.3916181
678.80 0.3914716
678.90 0.3913252
679.00 0.3911789
679.10 0.3910154
679.20 0.3908447
679.30 0.3906741
679.40 0.3905036
679.50 0.3903331
679.60 0.3901627
679.70 0.3899924
679.80 0.3898222
679.90 0.3896521
680.00 0.3894821
680.10 0.3893121
680.20 0.3891422
680.30 0.3889725
680.40 0.3888027
680.50 0.3886331
680.60 0.3884636
680.70 0.3882941
680.80 0.3881247
680.90 0.3879555
681.00 0.3877862
681.10 0.3876171
681.20 0.3874481
681.30 0.3872791
681.40 0.3871102
681.50 0.3869414
681.60 0.3867727
681.70 0.3866041
681.80 0.3864355
681.90 0.3862671
682.00 0.3860987
682.10 0.3859304
682.20 0.3857622
682.30 0.385594
682.40 0.385426
682.50 0.385258
682.60 0.3850901
682.70 0.3849223
682.80 0.3847545
682.90 0.3845869
683.00 0.3844193
683.10 0.3842518
683.20 0.3840844
683.30 0.3839171
683.40 0.3837499
683.50 0.3835827
683.60 0.3834156
683.70 0.3832486
683.80 0.3830817
683.90 0.3829149
684.00 0.3827481
684.10 0.3825815
684.20 0.3824149
684.30 0.3822484
684.40 0.3820819
684.50 0.3819156
684.60 0.3817493
684.70 0.3815831
684.80 0.381417
684.90 0.381251
685.00 0.3810851
685.10 0.3809192
685.20 0.3807534
685.30 0.3805877
685.40 0.3804221
685.50 0.3802566
685.60 0.3800911
685.70 0.3799257
685.80 0.3797604
685.90 0.3795827
686.00 0.3794019
686.10 0.3792212
686.20 0.3790406
686.30 0.3788601
686.40 0.3786797
686.50 0.3784994
686.60 0.3783192
686.70 0.378139
686.80 0.377959
686.90 0.377779
687.00 0.3775991
687.10 0.3774194
687.20 0.3772397
687.30 0.37706
687.40 0.3768805
687.50 0.3767011
687.60 0.3765217
687.70 0.3763425
687.80 0.3761633
687.90 0.3759842
688.00 0.3758052
688.10 0.3756263
688.20 0.3754475
688.30 0.3752688
688.40 0.3750901
688.50 0.3749116
688.60 0.3747331
688.70 0.3745548
688.80 0.3743765
688.90 0.3741983
689.00 0.3740202
689.10 0.3738421
689.20 0.3736642
689.30 0.3734863
689.40 0.3733086
689.50 0.3731309
689.60 0.3729533
689.70 0.3727758
689.80 0.3725984
689.90 0.3724211
690.00 0.3722438
690.10 0.3720667
690.20 0.3718896
690.30 0.3717126
690.40 0.3715357
690.50 0.3713589
690.60 0.3711822
690.70 0.3710056
690.80 0.370829
690.90 0.3706526
691.00 0.3704762
691.10 0.3702999
691.20 0.3701237
691.30 0.3699476
691.40 0.3697716
691.50 0.3695957
691.60 0.3694198
691.70 0.369244
691.80 0.3690684
691.90 0.3688928
692.00 0.3687173
692.10 0.3685418
692.20 0.3683665
692.30 0.3681912
692.40 0.3680161
692.50 0.367841
692.60 0.367666
692.70 0.3674897
692.80 0.367308
692.90 0.3671265
693.00 0.366945
693.10 0.3667636
693.20 0.3665824
693.30 0.3664012
693.40 0.3662201
693.50 0.3660391
693.60 0.3658581
693.70 0.3656773
693.80 0.3654965
693.90 0.3653159
694.00 0.3651353
694.10 0.3649548
694.20 0.3647744
694.30 0.3645941
694.40 0.3644139
694.50 0.3642338
694.60 0.3640538
694.70 0.3638738
694.80 0.363694
694.90 0.3635142
695.00 0.3633345
695.10 0.3631549
695.20 0.3629754
695.30 0.362796
695.40 0.3626167
695.50 0.3624374
695.60 0.3622583
695.70 0.3620792
695.80 0.3619002
695.90 0.3617213
696.00 0.3615425
696.10 0.3613638
696.20 0.3611852
696.30 0.3610067
696.40 0.3608282
696.50 0.3606498
696.60 0.3604612
696.70 0.3602702
696.80 0.3600793
696.90 0.3598886
697.00 0.3596979
697.10 0.3595073
697.20 0.3593168
697.30 0.3591264
697.40 0.358936
697.50 0.3587458
697.60 0.3585557
697.70 0.3583657
697.80 0.3581757
697.90 0.3579859
698.00 0.3577961
698.10 0.3576065
698.20 0.3574169
698.30 0.3572275
698.40 0.3570381
698.50 0.3568488
698.60 0.3566596
698.70 0.3564705
698.80 0.3562815
698.90 0.3560926
699.00 0.3559038
699.10 0.3557067
699.20 0.3555078
699.30 0.3553089
699.40 0.3551101
699.50 0.3549115
699.60 0.3547129
699.70 0.3545016
699.80 0.3542896
699.90 0.3540778
700.00 0.3538661
700.10 0.3536545
700.20 0.353443
700.30 0.3532316
700.40 0.3530204
700.50 0.3528092
700.60 0.3525981
700.70 0.3523872
700.80 0.3521763
700.90 0.3519655
701.00 0.3517549
701.10 0.3515093
701.20 0.3512556
701.30 0.3510021
701.40 0.3507487
701.50 0.3504954
701.60 0.3502423
701.70 0.3499892
701.80 0.3497363
701.90 0.3494836
702.00 0.349231
702.10 0.3489785
702.20 0.3487261
702.30 0.3484738
702.40 0.3482217
702.50 0.3479697
702.60 0.3476007
702.70 0.3472043
702.80 0.3468081
702.90 0.3464122
703.00 0.3460164
703.10 0.3456209
703.20 0.3452255
703.30 0.3448304
703.40 0.3444355
703.50 0.3440408
703.60 0.3436464
703.70 0.3432521
703.80 0.342858
703.90 0.3424642
704.00 0.3420705
704.10 0.3416771
704.20 0.3409011
704.30 0.3400358
704.40 0.3391709
704.50 0.3383065
704.60 0.3374426
704.70 0.3365791
704.80 0.3357162
704.90 0.3348537
705.00 0.3339916
705.10 0.3331301
705.20 0.3312786
705.30 0.3291958
705.40 0.3271142
705.50 0.3250337
705.60 0.3229545
705.70 0.3208764
705.80 0.3163463
705.90 0.3112435
706.00 0.3061436
706.10 0.3010466
706.20 0.2906937
706.30 0.2791134
706.40 0.2609391
706.50 0.2369921
706.60 0.234406
706.70 0.2548262
706.80 0.2689818
706.90 0.2820737
707.00 0.2892907
707.10 0.2951277
707.20 0.3009613
707.30 0.3067917
707.40 0.3098151
707.50 0.3121793
707.60 0.3145421
707.70 0.3169036
707.80 0.3192638
707.90 0.3216226
708.00 0.3227367
708.10 0.3235587
708.20 0.3243801
708.30 0.3252011
708.40 0.3260216
708.50 0.3268416
708.60 0.3276612
708.70 0.3284803
708.80 0.3292989
708.90 0.330117
709.00 0.3304196
709.10 0.3306012
709.20 0.3307827
709.30 0.3309641
709.40 0.3311453
709.50 0.3313265
709.60 0.3315075
709.70 0.3316884
709.80 0.3318692
709.90 0.3320499
710.00 0.3322305
710.10 0.332411
710.20 0.3325913
710.30 0.3327715
710.40 0.3329517
710.50 0.3331317
710.60 0.333142
710.70 0.3331126
710.80 0.3330832
710.90 0.3330538
711.00 0.3330244
711.10 0.332995
711.20 0.3329656
711.30 0.3329362
711.40 0.3329068
711.50 0.3328774
711.60 0.3328481
711.70 0.3328187
711.80 0.3327893
711.90 0.3327599
712.00 0.3327306
712.10 0.3326442
712.20 0.3325446
712.30 0.332445
712.40 0.3323454
712.50 0.3322459
712.60 0.3321464
712.70 0.332047
712.80 0.3319476
712.90 0.3318482
713.00 0.3317489
713.10 0.3316496
713.20 0.3315504
713.30 0.3314512
713.40 0.3313521
713.50 0.331253
713.60 0.3311539
713.70 0.3310474
713.80 0.3309255
713.90 0.3308037
714.00 0.3306819
714.10 0.3305517
714.20 0.3304196
714.30 0.3302875
714.40 0.3301554
714.50 0.3300235
714.60 0.3298916
714.70 0.3297597
714.80 0.329628
714.90 0.3294962
715.00 0.3293646
715.10 0.329233
715.20 0.3291014
715.30 0.32897
715.40 0.3288385
715.50 0.3287072
715.60 0.3285759
715.70 0.3284447
715.80 0.3283135
715.90 0.3281824
716.00 0.3280513
716.10 0.3279203
716.20 0.3277894
716.30 0.3276585
716.40 0.3275277
716.50 0.3273969
716.60 0.3272573
716.70 0.3271157
716.80 0.3269741
716.90 0.3268326
717.00 0.3266911
717.10 0.3265497
717.20 0.3264084
717.30 0.3262672
717.40 0.326126
717.50 0.3259849
717.60 0.3258438
717.70 0.3257028
717.80 0.3255619
717.90 0.3254211
718.00 0.3252803
718.10 0.3251395
718.20 0.3249929
718.30 0.324843
718.40 0.3246932
718.50 0.3245435
718.60 0.3243938
718.70 0.3242442
718.80 0.3240947
718.90 0.3239453
719.00 0.3237959
719.10 0.3236466
719.20 0.3234974
719.30 0.3233482
719.40 0.3231992
719.50 0.3230501
719.60 0.3229012
719.70 0.3227523
719.80 0.3226035
719.90 0.3224548
720.00 0.3223061
720.10 0.3221575
720.20 0.322009
720.30 0.3218605
720.40 0.3217121
720.50 0.3215638
720.60 0.3214156
720.70 0.3212542
720.80 0.3210858
720.90 0.3209303
721.00 0.3207754
721.10 0.3206207
721.20 0.3204659
721.30 0.3203113
721.40 0.3201567
721.50 0.3200023
721.60 0.3198478
721.70 0.3196935
721.80 0.3195392
721.90 0.319385
722.00 0.3192309
722.10 0.3190768
722.20 0.3189229
722.30 0.318769
722.40 0.3186151
722.50 0.3184614
722.60 0.3183077
722.70 0.3181447
722.80 0.3179767
722.90 0.3178088
723.00 0.3176409
723.10 0.3174732
723.20 0.3173055
723.30 0.3171379
723.40 0.3169704
723.50 0.316803
723.60 0.3166356
723.70 0.3164684
723.80 0.3163012
723.90 0.3161341
724.00 0.315967
724.10 0.3158001
724.20 0.3156095
724.30 0.3154062
724.40 0.315203
724.50 0.315
724.60 0.314797
724.70 0.3145941
724.80 0.3143913
724.90 0.3141886
725.00 0.3139861
725.10 0.3137836
725.20 0.3135812
725.30 0.3133789
725.40 0.3131767
725.50 0.3129746
725.60 0.3127727
725.70 0.3125708
725.80 0.3122809
725.90 0.3119438
726.00 0.3116069
726.10 0.3112701
726.20 0.3109335
726.30 0.3105971
726.40 0.3102609
726.50 0.3099248
726.60 0.3095889
726.70 0.3092532
726.80 0.308652
726.90 0.3079082
727.00 0.3071648
727.10 0.3064217
727.20 0.3056791
727.30 0.3049369
727.40 0.3034038
727.50 0.3014456
727.60 0.2994885
727.70 0.2975324
727.80 0.2934199
727.90 0.2881481
728.00 0.2793576
728.10 0.2589316
728.20 0.2497918
728.30 0.2656281
728.40 0.2734804
728.50 0.2800311
728.60 0.2842016
728.70 0.2870905
728.80 0.2899777
728.90 0.2928634
729.00 0.2946119
729.10 0.2957482
729.20 0.2968838
729.30 0.2980189
729.40 0.2991532
729.50 0.300287
729.60 0.300883
729.70 0.3011896
729.80 0.301496
729.90 0.3018022
730.00 0.3021083
730.10 0.3024142
730.20 0.3027199
730.30 0.3030254
730.40 0.3033307
730.50 0.3036359
730.60 0.3037349
730.70 0.3037231
730.80 0.3037113
730.90 0.3036995
731.00 0.3036877
731.10 0.3036759
731.20 0.303664
731.30 0.3036522
731.40 0.3036403
731.50 0.3036285
731.60 0.3036166
731.70 0.3036048
731.80 0.3035929
731.90 0.303581
732.00 0.3035692
732.10 0.3035573
732.20 0.303488
732.30 0.3033878
732.40 0.3032876
732.50 0.3031875
732.60 0.3030875
732.70 0.3029875
732.80 0.3028875
732.90 0.3027875
733.00 0.3026877
733.10 0.3025878
733.20 0.302488
733.30 0.3023882
733.40 0.3022885
733.50 0.3021889
733.60 0.3020892
733.70 0.3019755
733.80 0.3018542
733.90 0.3017329
734.00 0.3016117
734.10 0.3014905
734.20 0.3013694
734.30 0.3012484
734.40 0.3011274
734.50 0.3010065
734.60 0.3008856
734.70 0.3007647
734.80 0.300644
734.90 0.3005233
735.00 0.3004026
735.10 0.300282
735.20 0.3001614
735.30 0.3000403
735.40 0.2999118
735.50 0.2997833
735.60 0.2996549
735.70 0.2995244
735.80 0.2993929
735.90 0.2992614
736.00 0.2991299
736.10 0.2989985
736.20 0.2988672
736.30 0.2987359
736.40 0.2986047
736.50 0.2984736
736.60 0.2983425
736.70 0.2982115
736.80 0.2980805
736.90 0.2979496
737.00 0.2978188
737.10 0.297688
737.20 0.2975572
737.30 0.2974266
737.40 0.297296
737.50 0.2971654
737.60 0.2970349
737.70 0.2969045
737.80 0.2967742
737.90 0.2966438
738.00 0.2965136
738.10 0.2963834
738.20 0.2962502
738.30 0.2961155
738.40 0.2959807
738.50 0.2958461
738.60 0.2957115
738.70 0.295577
738.80 0.2954425
738.90 0.2953081
739.00 0.2951738
739.10 0.2950395
739.20 0.2949053
739.30 0.2947712
739.40 0.2946371
739.50 0.294503
739.60 0.2943691
739.70 0.2942352
739.80 0.2941013
739.90 0.2939675
740.00 0.2938338
740.10 0.2937002
740.20 0.2935666
740.30 0.293433
740.40 0.2932996
740.50 0.2931661
740.60 0.2930328
740.70 0.2928995
740.80 0.2927663
740.90 0.2926331
741.00 0.2925
741.10 0.292367
741.20 0.292234
741.30 0.2921011
741.40 0.2919682
741.50 0.2918354
741.60 0.2917027
741.70 0.29157
741.80 0.2914374
741.90 0.2913048
742.00 0.2911723
742.10 0.2910399
742.20 0.2909075
742.30 0.2907752
742.40 0.2906429
742.50 0.2905107
742.60 0.2903786
742.70 0.290246
742.80 0.290113
742.90 0.28998
743.00 0.2898471
743.10 0.2897143
743.20 0.2895815
743.30 0.2894488
743.40 0.2893162
743.50 0.2891836
743.60 0.2890511
743.70 0.2889187
743.80 0.2887869
743.90 0.2886551
744.00 0.2885234
744.10 0.2883917
744.20 0.2882602
744.30 0.2881286
744.40 0.2879972
744.50 0.2878657
744.60 0.2877344
744.70 0.2876031
744.80 0.2874719
744.90 0.2873407
745.00 0.2872096
745.10 0.2870786
745.20 0.2869476
745.30 0.2868166
745.40 0.2866858
745.50 0.286555
745.60 0.2864242
745.70 0.2862935
745.80 0.2861629
745.90 0.2860323
746.00 0.2859018
746.10 0.2857714
746.20 0.285641
746.30 0.2855107
746.40 0.2853804
746.50 0.2852502
746.60 0.28512
746.70 0.2849899
746.80 0.2848599
746.90 0.2847299
747.00 0.2846
747.10 0.2844702
747.20 0.2843404
747.30 0.2842106
747.40 0.284081
747.50 0.2839513
747.60 0.2838218
747.70 0.2836923
747.80 0.2835628
747.90 0.2834335
748.00 0.2833041
748.10 0.2831749
748.20 0.2830457
748.30 0.2829165
748.40 0.2827874
748.50 0.2826584
748.60 0.2825294
748.70 0.2824005
748.80 0.2822717
748.90 0.2821429
749.00 0.2820142
749.10 0.2818855
749.20 0.2817569
749.30 0.2816283
749.40 0.2814998
749.50 0.2813714
749.60 0.281243
749.70 0.2811147
749.80 0.2809864
749.90 0.2808582
750.00 0.2807301
750.10 0.2806019
750.20 0.2804734
750.30 0.2803451
750.40 0.2802168
750.50 0.2800885
750.60 0.2799604
750.70 0.2798322
750.80 0.2797042
750.90 0.2795762
751.00 0.2794482
751.10 0.2793203
751.20 0.2791925
751.30 0.2790647
751.40 0.278937
751.50 0.2788093
751.60 0.2786817
751.70 0.2785542
751.80 0.2784267
751.90 0.2782993
752.00 0.2781719
752.10 0.2780446
752.20 0.2779174
752.30 0.2777902
752.40 0.277663
752.50 0.277536
752.60 0.2774089
752.70 0.277282
752.80 0.2771551
752.90 0.2770282
753.00 0.2769014
753.10 0.2767747
753.20 0.276648
753.30 0.2765214
753.40 0.2763948
753.50 0.2762683
753.60 0.2761419
753.70 0.2760155
753.80 0.2758892
753.90 0.2757642
754.00 0.2756396
754.10 0.2755151
754.20 0.2753906
754.30 0.2752662
754.40 0.2751418
754.50 0.2750175
754.60 0.2748933
754.70 0.2747691
754.80 0.274645
754.90 0.2745209
755.00 0.2743969
755.10 0.2742729
755.20 0.274149
755.30 0.2740251
755.40 0.2739013
755.50 0.2737776
755.60 0.2736539
755.70 0.2735303
755.80 0.2734067
755.90 0.2732832
756.00 0.2731597
756.10 0.2730363
756.20 0.272913
756.30 0.2727897
756.40 0.2726664
756.50 0.2725433
756.60 0.2724201
756.70 0.2722971
756.80 0.272174
756.90 0.2720511
757.00 0.2719282
757.10 0.2718053
757.20 0.2716825
757.30 0.2715598
757.40 0.2714371
757.50 0.2713145
757.60 0.2711916
757.70 0.271068
757.80 0.2709444
757.90 0.2708209
758.00 0.2706975
758.10 0.2705741
758.20 0.2704508
758.30 0.2703275
758.40 0.2702043
758.50 0.2700811
758.60 0.269958
758.70 0.269835
758.80 0.269712
758.90 0.269589
759.00 0.2694661
759.10 0.2693433
759.20 0.2692205
759.30 0.2690978
759.40 0.2689752
759.50 0.2688525
759.60 0.26873
759.70 0.2686075
759.80 0.2684851
759.90 0.2683627
760.00 0.2682403
760.10 0.2681181
760.20 0.2679958
760.30 0.2678737
760.40 0.2677516
760.50 0.2676295
760.60 0.2675075
760.70 0.2673855
760.80 0.2672637
760.90 0.2671418
761.00 0.26702
761.10 0.2668983
761.20 0.2667766
761.30 0.266655
761.40 0.2665338
761.50 0.266413
761.60 0.2662924
761.70 0.2661718
761.80 0.2660512
761.90 0.2659307
762.00 0.2658103
762.10 0.2656899
762.20 0.2655695
762.30 0.2654493
762.40 0.265329
762.50 0.2652089
762.60 0.2650887
762.70 0.2649687
762.80 0.2648486
762.90 0.2647287
763.00 0.2646088
763.10 0.2644889
763.20 0.2643691
763.30 0.2642494
763.40 0.2641297
763.50 0.26401
763.60 0.2638905
763.70 0.2637709
763.80 0.2636515
763.90 0.263532
764.00 0.2634127
764.10 0.2632933
764.20 0.2631741
764.30 0.2630549
764.40 0.2629357
764.50 0.2628166
764.60 0.2626976
764.70 0.2625786
764.80 0.2624596
764.90 0.2623407
765.00 0.2622219
765.10 0.2621031
765.20 0.2619848
765.30 0.261867
765.40 0.2617493
765.50 0.2616316
765.60 0.261514
765.70 0.2613964
765.80 0.2612789
765.90 0.2611614
766.00 0.261044
766.10 0.2609266
766.20 0.2608093
766.30 0.260692
766.40 0.2605748
766.50 0.2604576
766.60 0.2603405
766.70 0.2602235
766.80 0.2601065
766.90 0.2599895
767.00 0.2598726
767.10 0.2597558
767.20 0.259639
767.30 0.2595222
767.40 0.2594055
767.50 0.2592889
767.60 0.2591723
767.70 0.2590558
767.80 0.2589393
767.90 0.2588228
768.00 0.2587065
768.10 0.2585901
768.20 0.2584739
768.30 0.2583576
768.40 0.2582415
768.50 0.2581253
768.60 0.2580093
768.70 0.2578932
768.80 0.2577773
768.90 0.2576614
769.00 0.2575455
769.10 0.2574297
769.20 0.2573139
769.30 0.2571982
769.40 0.2570826
769.50 0.2569669
769.60 0.2568514
769.70 0.2567359
769.80 0.2566204
769.90 0.256505
770.00 0.2563897
770.10 0.2562744
770.20 0.2561591
770.30 0.2560439
770.40 0.2559288
770.50 0.2558137
770.60 0.2556987
770.70 0.2555837
770.80 0.2554687
770.90 0.2553538
771.00 0.255239
771.10 0.2551242
771.20 0.2550095
771.30 0.2548948
771.40 0.2547802
771.50 0.2546656
771.60 0.254551
771.70 0.2544366
771.80 0.2543221
771.90 0.2542077
772.00 0.2540934
772.10 0.2539791
772.20 0.2538649
772.30 0.2537507
772.40 0.2536366
772.50 0.2535225
772.60 0.2534085
772.70 0.2532945
772.80 0.2531806
772.90 0.253068
773.00 0.2529554
773.10 0.2528428
773.20 0.2527303
773.30 0.2526179
773.40 0.2525055
773.50 0.2523931
773.60 0.2522808
773.70 0.2521686
773.80 0.2520564
773.90 0.2519442
774.00 0.2518321
774.10 0.2517201
774.20 0.2516081
774.30 0.2514961
774.40 0.2513842
774.50 0.2512724
774.60 0.2511606
774.70 0.2510488
774.80 0.2509371
774.90 0.2508255
775.00 0.2507139
775.10 0.2506023
775.20 0.2504908
775.30 0.2503794
775.40 0.2502679
775.50 0.2501566
775.60 0.2500453
775.70 0.249934
775.80 0.2498228
775.90 0.2497116
776.00 0.2496005
776.10 0.2494895
776.20 0.2493785
776.30 0.2492675
776.40 0.2491566
776.50 0.2490457
776.60 0.2489349
776.70 0.2488241
776.80 0.2487134
776.90 0.2486027
777.00 0.2484921
777.10 0.2483815
777.20 0.248271
777.30 0.2481605
777.40 0.2480501
777.50 0.2479397
777.60 0.2478294
777.70 0.2477191
777.80 0.2476088
777.90 0.2474986
778.00 0.2473885
778.10 0.2472784
778.20 0.2471684
778.30 0.2470584
778.40 0.2469484
778.50 0.2468385
778.60 0.2467287
778.70 0.2466189
778.80 0.2465091
778.90 0.2463994
779.00 0.2462898
779.10 0.2461802
779.20 0.2460706
779.30 0.2459611
779.40 0.2458516
779.50 0.2457422
779.60 0.2456329
779.70 0.2455235
779.80 0.2454143
779.90 0.245305
780.00 0.2451959
780.10 0.2450867
780.20 0.2449777
780.30 0.2448686
780.40 0.2447596
780.50 0.2446507
780.60 0.244542
780.70 0.2444334
780.80 0.2443249
780.90 0.2442164
781.00 0.244108
781.10 0.2439996
781.20 0.2438913
781.30 0.243783
781.40 0.2436748
781.50 0.2435666
781.60 0.2434584
781.70 0.2433503
781.80 0.2432423
781.90 0.2431343
782.00 0.2430263
782.10 0.2429184
782.20 0.2428106
782.30 0.2427027
782.40 0.242595
782.50 0.2424872
782.60 0.2423796
782.70 0.242272
782.80 0.2421644
782.90 0.2420568
783.00 0.2419494
783.10 0.2418419
783.20 0.2417345
783.30 0.2416272
783.40 0.2415199
783.50 0.2414126
783.60 0.2413054
783.70 0.2411983
783.80 0.2410912
783.90 0.2409841
784.00 0.2408771
784.10 0.2407701
784.20 0.2406632
784.30 0.2405563
784.40 0.2404495
784.50 0.2403427
784.60 0.2402361
784.70 0.2401298
784.80 0.2400235
784.90 0.2399173
785.00 0.2398112
785.10 0.239705
785.20 0.239599
785.30 0.2394929
785.40 0.239387
785.50 0.239281
785.60 0.2391752
785.70 0.2390693
785.80 0.2389635
785.90 0.2388578
786.00 0.2387521
786.10 0.2386464
786.20 0.2385408
786.30 0.2384352
786.40 0.2383297
786.50 0.2382242
786.60 0.2381188
786.70 0.2380134
786.80 0.2379081
786.90 0.2378028
787.00 0.2376976
787.10 0.2375924
787.20 0.2374872
787.30 0.2373821
787.40 0.2372771
787.50 0.237172
787.60 0.2370671
787.70 0.2369622
787.80 0.2368573
787.90 0.2367524
788.00 0.2366477
788.10 0.2365429
788.20 0.2364382
788.30 0.2363336
788.40 0.2362294
788.50 0.2361254
788.60 0.2360215
788.70 0.2359177
788.80 0.2358138
788.90 0.2357101
789.00 0.2356063
789.10 0.2355027
789.20 0.235399
789.30 0.2352954
789.40 0.2351919
789.50 0.2350884
789.60 0.2349849
789.70 0.2348815
789.80 0.2347782
789.90 0.2346748
790.00 0.2345716
790.10 0.2344683
790.20 0.2343651
790.30 0.234262
790.40 0.2341589
790.50 0.2340558
790.60 0.2339528
790.70 0.2338499
790.80 0.2337469
790.90 0.2336441
791.00 0.2335412
791.10 0.2334385
791.20 0.2333357
791.30 0.233233
791.40 0.2331304
791.50 0.2330278
791.60 0.2329252
791.70 0.2328227
791.80 0.2327202
791.90 0.2326178
792.00 0.2325154
792.10 0.232413
792.20 0.2323107
792.30 0.2322085
792.40 0.2321063
792.50 0.2320041
792.60 0.2319019
792.70 0.2317999
792.80 0.2316978
792.90 0.2315958
793.00 0.2314939
793.10 0.2313919
793.20 0.2312901
793.30 0.2311883
793.40 0.2310865
793.50 0.2309847
793.60 0.230883
793.70 0.2307814
793.80 0.2306798
793.90 0.2305782
794.00 0.2304767
794.10 0.2303752
794.20 0.2302738
794.30 0.2301724
794.40 0.2300711
794.50 0.2299698
794.60 0.2298685
794.70 0.2297673
794.80 0.2296662
794.90 0.229565
795.00 0.229464
795.10 0.2293629
795.20 0.2292619
795.30 0.229161
795.40 0.2290601
795.50 0.2289592
795.60 0.2288584
795.70 0.2287576
795.80 0.2286569
795.90 0.2285562
796.00 0.2284556
796.10 0.228355
796.20 0.2282544
796.30 0.2281548
796.40 0.2280555
796.50 0.2279562
796.60 0.2278569
796.70 0.2277577
796.80 0.2276585
796.90 0.2275594
797.00 0.2274603
797.10 0.2273612
797.20 0.2272622
797.30 0.2271633
797.40 0.2270643
797.50 0.2269655
797.60 0.2268666
797.70 0.2267678
797.80 0.2266691
797.90 0.2265704
798.00 0.2264717
798.10 0.2263731
798.20 0.2262745
798.30 0.226176
798.40 0.2260775
798.50 0.225979
798.60 0.2258806
798.70 0.2257822
798.80 0.2256839
798.90 0.2255856
799.00 0.2254874
799.10 0.2253891
799.20 0.225291
799.30 0.2251929
799.40 0.2250948
799.50 0.2249968
799.60 0.2248988
799.70 0.2248008
799.80 0.2247029
799.90 0.224605
800.00 0.2245072
800.10 0.2244094
800.20 0.2243117
800.30 0.224214
800.40 0.2241163
800.50 0.2240187
800.60 0.2239211
800.70 0.2238236
800.80 0.2237261
800.90 0.2236287
801.00 0.2235313
801.10 0.2234339
801.20 0.2233366
801.30 0.2232393
801.40 0.223142
801.50 0.2230448
801.60 0.2229477
801.70 0.2228506
801.80 0.2227535
801.90 0.2226565
802.00 0.2225595
802.10 0.2224625
802.20 0.2223656
802.30 0.2222687
802.40 0.2221719
802.50 0.2220751
802.60 0.2219784
802.70 0.2218817
802.80 0.221785
802.90 0.2216884
803.00 0.2215918
803.10 0.2214953
803.20 0.2213988
803.30 0.2213023
803.40 0.2212059
803.50 0.2211096
803.60 0.2210132
803.70 0.2209169
803.80 0.2208207
803.90 0.2207245
804.00 0.2206283
804.10 0.2205322
804.20 0.2204362
804.30 0.2203406
804.40 0.220245
804.50 0.2201494
804.60 0.2200539
804.70 0.2199584
804.80 0.219863
804.90 0.2197676
805.00 0.2196723
805.10 0.2195769
805.20 0.2194817
805.30 0.2193864
805.40 0.2192913
805.50 0.2191961
805.60 0.219101
805.70 0.2190059
805.80 0.2189109
805.90 0.2188159
806.00 0.218721
806.10 0.2186261
806.20 0.2185312
806.30 0.2184364
806.40 0.2183416
806.50 0.2182469
806.60 0.2181522
806.70 0.2180575
806.80 0.2179629
806.90 0.2178683
807.00 0.2177738
807.10 0.2176793
807.20 0.2175848
807.30 0.2174904
807.40 0.217396
807.50 0.2173017
807.60 0.2172074
807.70 0.2171131
807.80 0.2170189
807.90 0.2169247
808.00 0.2168306
808.10 0.2167365
808.20 0.2166424
808.30 0.216549
808.40 0.2164557
808.50 0.2163624
808.60 0.2162692
808.70 0.216176
808.80 0.2160828
808.90 0.2159897
809.00 0.2158966
809.10 0.2158036
809.20 0.2157106
809.30 0.2156176
809.40 0.2155247
809.50 0.2154318
809.60 0.215339
809.70 0.2152462
809.80 0.2151534
809.90 0.2150607
810.00 0.214968
810.10 0.2148753
810.20 0.2147827
810.30 0.2146902
810.40 0.2145976
810.50 0.2145051
810.60 0.2144127
810.70 0.2143203
810.80 0.2142279
810.90 0.2141355
811.00 0.2140432
811.10 0.213951
811.20 0.2138588
811.30 0.2137666
811.40 0.2136744
811.50 0.2135823
811.60 0.2134903
811.70 0.2133983
811.80 0.2133063
811.90 0.2132143
812.00 0.2131224
812.10 0.2130305
812.20 0.2129387
812.30 0.2128474
812.40 0.2127564
812.50 0.2126653
812.60 0.2125743
812.70 0.2124833
812.80 0.2123924
812.90 0.2123014
813.00 0.2122106
813.10 0.2121198
813.20 0.212029
813.30 0.2119382
813.40 0.2118475
813.50 0.2117568
813.60 0.2116662
813.70 0.2115756
813.80 0.211485
813.90 0.2113945
814.00 0.211304
814.10 0.2112136
814.20 0.2111232
814.30 0.2110328
814.40 0.2109425
814.50 0.2108522
814.60 0.2107619
814.70 0.2106717
814.80 0.2105815
814.90 0.2104914
815.00 0.2104013
815.10 0.2103112
815.20 0.2102212
815.30 0.2101312
815.40 0.2100412
815.50 0.2099513
815.60 0.2098614
815.70 0.2097716
815.80 0.2096818
815.90 0.209592
816.00 0.2095023
816.10 0.2094126
816.20 0.209323
816.30 0.2092334
816.40 0.2091438
816.50 0.2090543
816.60 0.2089648
816.70 0.2088753
816.80 0.2087859
816.90 0.2086965
817.00 0.2086071
817.10 0.2085178
817.20 0.2084285
817.30 0.2083393
817.40 0.2082501
817.50 0.2081609
817.60 0.2080718
817.70 0.2079827
817.80 0.2078937
817.90 0.2078047
818.00 0.2077157
818.10 0.2076267
818.20 0.2075378
818.30 0.207449
818.40 0.2073601
818.50 0.2072714
818.60 0.2071826
818.70 0.2070939
818.80 0.2070052
818.90 0.2069166
819.00 0.206828
819.10 0.2067394
819.20 0.2066509
819.30 0.2065614
819.40 0.2064714
819.50 0.2063814
819.60 0.2062915
819.70 0.2062016
819.80 0.2061117
819.90 0.2060219
820.00 0.2059321
820.10 0.2058459
820.20 0.2057658
820.30 0.205682
820.40 0.2055959
820.50 0.2055081
820.60 0.2054203
820.70 0.2053326
820.80 0.2052449
820.90 0.2051572
821.00 0.2050696
821.10 0.204982
821.20 0.2048944
821.30 0.2048069
821.40 0.2047194
821.50 0.2046319
821.60 0.2045445
821.70 0.2044572
821.80 0.2043698
821.90 0.2042825
822.00 0.2041952
822.10 0.204108
822.20 0.2040208
822.30 0.2039337
822.40 0.2038465
822.50 0.2037595
822.60 0.2036724
822.70 0.2035854
822.80 0.2034984
822.90 0.2034115
823.00 0.2033246
823.10 0.2032377
823.20 0.2031509
823.30 0.2030641
823.40 0.2029773
823.50 0.2028906
823.60 0.2028039
823.70 0.2027173
823.80 0.2026307
823.90 0.2025441
824.00 0.2024575
824.10 0.202371
824.20 0.2022846
824.30 0.2021981
824.40 0.2021117
824.50 0.2020254
824.60 0.201939
824.70 0.2018527
824.80 0.2017665
824.90 0.2016803
825.00 0.2015941
825.10 0.2015079
825.20 0.2014218
825.30 0.2013358
825.40 0.2012497
825.50 0.2011637
825.60 0.2010777
825.70 0.2009918
825.80 0.2009059
825.90 0.2008201
826.00 0.2007342
826.10 0.2006484
826.20 0.2005627
826.30 0.2004774
826.40 0.2003924
826.50 0.2003074
826.60 0.2002225
826.70 0.2001376
826.80 0.2000528
826.90 0.199968
827.00 0.1998832
827.10 0.1997984
827.20 0.1997137
827.30 0.1996291
827.40 0.1995444
827.50 0.1994598
827.60 0.1993752
827.70 0.1992907
827.80 0.1992062
827.90 0.1991217
828.00 0.1990373
828.10 0.1989529
828.20 0.1988685
828.30 0.1987842
828.40 0.1986999
828.50 0.1986157
828.60 0.1985317
828.70 0.198448
828.80 0.1983643
828.90 0.1982807
829.00 0.1981971
829.10 0.1981135
829.20 0.19803
829.30 0.1979465
829.40 0.197863
829.50 0.1977796
829.60 0.1976962
829.70 0.1976128
829.80 0.1975295
829.90 0.1974462
830.00 0.1973629
830.10 0.1972797
830.20 0.1971965
830.30 0.1971134
830.40 0.1970303
830.50 0.1969472
830.60 0.1968641
830.70 0.1967811
830.80 0.1966981
830.90 0.1966152
831.00 0.1965322
831.10 0.1964494
831.20 0.1963665
831.30 0.1962837
831.40 0.1962009
831.50 0.1961182
831.60 0.1960355
831.70 0.1959528
831.80 0.1958701
831.90 0.1957875
832.00 0.195705
832.10 0.1956224
832.20 0.1955399
832.30 0.1954574
832.40 0.195375
832.50 0.1952926
832.60 0.1952102
832.70 0.1951279
832.80 0.1950456
832.90 0.1949633
833.00 0.1948811
833.10 0.1947989
833.20 0.1947167
833.30 0.1946346
833.40 0.1945525
833.50 0.1944704
833.60 0.1943884
833.70 0.1943064
833.80 0.1942244
833.90 0.1941425
834.00 0.1940606
834.10 0.1939787
834.20 0.1938969
834.30 0.1938151
834.40 0.1937333
834.50 0.1936516
834.60 0.1935699
834.70 0.1934883
834.80 0.1934066
834.90 0.193325
835.00 0.1932435
835.10 0.1931619
835.20 0.1930804
835.30 0.192999
835.40 0.1929176
835.50 0.1928362
835.60 0.1927548
835.70 0.1926735
835.80 0.1925922
835.90 0.1925109
836.00 0.1924297
836.10 0.1923485
836.20 0.1922673
836.30 0.1921862
836.40 0.1921051
836.50 0.1920241
836.60 0.191943
836.70 0.191862
836.80 0.1917811
836.90 0.1917006
837.00 0.1916203
837.10 0.1915401
837.20 0.1914599
837.30 0.1913798
837.40 0.1912997
837.50 0.1912196
837.60 0.1911395
837.70 0.1910595
837.80 0.1909795
837.90 0.1908996
838.00 0.1908197
838.10 0.1907398
838.20 0.1906599
838.30 0.1905801
838.40 0.1905003
838.50 0.1904205
838.60 0.1903408
838.70 0.1902611
838.80 0.1901815
838.90 0.1901018
839.00 0.1900222
839.10 0.1899427
839.20 0.1898632
839.30 0.1897837
839.40 0.1897042
839.50 0.1896248
839.60 0.1895454
839.70 0.189466
839.80 0.1893867
839.90 0.1893074
840.00 0.1892281
840.10 0.1891488
840.20 0.1890696
840.30 0.1889905
840.40 0.1889113
840.50 0.1888322
840.60 0.1887531
840.70 0.1886741
840.80 0.1885951
840.90 0.1885161
841.00 0.1884372
841.10 0.1883583
841.20 0.1882794
841.30 0.1882005
841.40 0.1881217
841.50 0.1880429
841.60 0.1879642
841.70 0.1878855
841.80 0.1878068
841.90 0.1877282
842.00 0.1876495
842.10 0.187571
842.20 0.1874924
842.30 0.1874139
842.40 0.1873354
842.50 0.1872569
842.60 0.1871785
842.70 0.1871001
842.80 0.1870217
842.90 0.1869434
843.00 0.1868651
843.10 0.1867869
843.20 0.1867086
843.30 0.1866304
843.40 0.1865522
843.50 0.1864741
843.60 0.186396
843.70 0.1863179
843.80 0.1862399
843.90 0.1861619
844.00 0.1860839
844.10 0.1860059
844.20 0.185928
844.30 0.1858501
844.40 0.1857723
844.50 0.1856945
844.60 0.1856167
844.70 0.1855389
844.80 0.1854612
844.90 0.1853835
845.00 0.1853058
845.10 0.1852282
845.20 0.1851506
845.30 0.1850739
845.40 0.1849973
845.50 0.1849207
845.60 0.1848441
845.70 0.1847676
845.80 0.1846911
845.90 0.1846146
846.00 0.1845382
846.10 0.1844617
846.20 0.1843854
846.30 0.184309
846.40 0.1842327
846.50 0.1841564
846.60 0.1840801
846.70 0.1840039
846.80 0.1839277
846.90 0.1838515
847.00 0.1837754
847.10 0.1836993
847.20 0.1836232
847.30 0.1835472
847.40 0.1834711
847.50 0.1833952
847.60 0.1833192
847.70 0.1832433
847.80 0.1831674
847.90 0.1830915
848.00 0.1830157
848.10 0.1829399
848.20 0.1828641
848.30 0.1827884
848.40 0.1827127
848.50 0.182637
848.60 0.1825614
848.70 0.1824857
848.80 0.1824102
848.90 0.1823346
849.00 0.1822591
849.10 0.1821836
849.20 0.1821081
849.30 0.1820327
849.40 0.1819573
849.50 0.1818819
849.60 0.1818066
849.70 0.1817313
849.80 0.181656
849.90 0.1815807
850.00 0.1815055
850.10 0.1814303
850.20 0.1813552
850.30 0.18128
850.40 0.1812049
850.50 0.1811299
850.60 0.1810548
850.70 0.1809798
850.80 0.1809048
850.90 0.1808299
851.00 0.180755
851.10 0.1806801
851.20 0.1806052
851.30 0.1805304
851.40 0.1804556
851.50 0.1803808
851.60 0.1803061
851.70 0.1802314
851.80 0.1801567
851.90 0.1800821
852.00 0.1800075
852.10 0.1799329
852.20 0.1798583
852.30 0.1797838
852.40 0.1797093
852.50 0.1796348
852.60 0.1795604
852.70 0.179486
852.80 0.1794116
852.90 0.1793373
853.00 0.179263
853.10 0.1791887
853.20 0.1791144
853.30 0.1790402
853.40 0.178966
853.50 0.1788918
853.60 0.1788177
853.70 0.1787437
853.80 0.17867
853.90 0.1785962
854.00 0.1785225
854.10 0.1784489
854.20 0.1783752
854.30 0.1783016
854.40 0.178228
854.50 0.1781545
854.60 0.178081
854.70 0.1780075
854.80 0.177934
854.90 0.1778606
855.00 0.1777872
855.10 0.1777138
855.20 0.1776404
855.30 0.1775671
855.40 0.1774938
855.50 0.1774206
855.60 0.1773474
855.70 0.1772742
855.80 0.177201
855.90 0.1771278
856.00 0.1770547
856.10 0.1769817
856.20 0.1769086
856.30 0.1768356
856.40 0.1767626
856.50 0.1766896
856.60 0.1766167
856.70 0.1765438
856.80 0.1764709
856.90 0.1763981
857.00 0.1763252
857.10 0.1762524
857.20 0.1761797
857.30 0.176107
857.40 0.1760343
857.50 0.1759616
857.60 0.1758889
857.70 0.1758163
857.80 0.1757437
857.90 0.1756712
858.00 0.1755987
858.10 0.1755262
858.20 0.1754537
858.30 0.1753812
858.40 0.1753088
858.50 0.1752365
858.60 0.1751641
858.70 0.1750918
858.80 0.1750195
858.90 0.1749472
859.00 0.174875
859.10 0.1748028
859.20 0.1747306
859.30 0.1746584
859.40 0.1745863
859.50 0.1745142
859.60 0.1744422
859.70 0.1743701
859.80 0.1742981
859.90 0.1742261
860.00 0.1741542
860.10 0.1740823
860.20 0.1740104
860.30 0.1739385
860.40 0.1738667
860.50 0.1737949
860.60 0.1737231
860.70 0.1736513
860.80 0.1735796
860.90 0.1735079
861.00 0.1734363
861.10 0.1733646
861.20 0.173293
861.30 0.1732215
861.40 0.1731499
861.50 0.1730784
861.60 0.1730069
861.70 0.1729354
861.80 0.172864
861.90 0.1727926
862.00 0.1727212
862.10 0.1726499
862.20 0.1725787
862.30 0.1725085
862.40 0.1724384
862.50 0.1723683
862.60 0.1722982
862.70 0.1722281
862.80 0.1721581
862.90 0.1720881
863.00 0.1720181
863.10 0.1719482
863.20 0.1718783
863.30 0.1718084
863.40 0.1717385
863.50 0.1716687
863.60 0.1715989
863.70 0.1715291
863.80 0.1714594
863.90 0.1713897
864.00 0.17132
864.10 0.1712503
864.20 0.1711807
864.30 0.1711111
864.40 0.1710415
864.50 0.1709719
864.60 0.1709024
864.70 0.1708329
864.80 0.1707634
864.90 0.170694
865.00 0.1706246
865.10 0.1705552
865.20 0.1704858
865.30 0.1704165
865.40 0.1703472
865.50 0.1702779
865.60 0.1702086
865.70 0.1701394
865.80 0.1700702
865.90 0.1700011
866.00 0.1699319
866.10 0.1698628
866.20 0.1697937
866.30 0.1697247
866.40 0.1696556
866.50 0.1695866
866.60 0.1695176
866.70 0.1694487
866.80 0.1693798
866.90 0.1693109
867.00 0.169242
867.10 0.1691732
867.20 0.1691043
867.30 0.1690356
867.40 0.1689668
867.50 0.1688981
867.60 0.1688294
867.70 0.1687607
867.80 0.168692
867.90 0.1686234
868.00 0.1685548
868.10 0.1684862
868.20 0.1684177
868.30 0.1683492
868.40 0.1682807
868.50 0.1682122
868.60 0.1681438
868.70 0.1680754
868.80 0.168007
868.90 0.1679387
869.00 0.1678703
869.10 0.167802
869.20 0.1677338
869.30 0.1676655
869.40 0.1675973
869.50 0.1675291
869.60 0.1674609
869.70 0.1673928
869.80 0.1673247
869.90 0.1672566
870.00 0.1671886
870.10 0.1671205
870.20 0.1670525
870.30 0.1669846
870.40 0.1669166
870.50 0.1668487
870.60 0.1667808
870.70 0.1667129
870.80 0.1666451
870.90 0.1665773
871.00 0.1665095
871.10 0.1664418
871.20 0.1663741
871.30 0.1663064
871.40 0.1662388
871.50 0.1661711
871.60 0.1661035
871.70 0.166036
871.80 0.1659684
871.90 0.1659009
872.00 0.1658334
872.10 0.1657659
872.20 0.1656985
872.30 0.1656311
872.40 0.1655637
872.50 0.1654963
872.60 0.165429
872.70 0.1653617
872.80 0.1652944
872.90 0.1652271
873.00 0.1651599
873.10 0.1650927
873.20 0.1650255
873.30 0.1649584
873.40 0.1648913
873.50 0.1648242
873.60 0.1647571
873.70 0.1646901
873.80 0.164623
873.90 0.1645561
874.00 0.1644891
874.10 0.1644222
874.20 0.1643552
874.30 0.1642884
874.40 0.1642215
874.50 0.1641547
874.60 0.1640879
874.70 0.1640211
874.80 0.1639543
874.90 0.1638876
875.00 0.1638209
875.10 0.1637542
875.20 0.1636878
875.30 0.1636217
875.40 0.1635556
875.50 0.1634895
875.60 0.1634235
875.70 0.1633575
875.80 0.1632915
875.90 0.1632256
876.00 0.1631597
876.10 0.1630938
876.20 0.1630279
876.30 0.1629621
876.40 0.1628963
876.50 0.1628305
876.60 0.1627647
876.70 0.162699
876.80 0.1626332
876.90 0.1625676
877.00 0.1625019
877.10 0.1624363
877.20 0.1623707
877.30 0.1623051
877.40 0.1622395
877.50 0.162174
877.60 0.1621085
877.70 0.162043
877.80 0.1619775
877.90 0.1619121
878.00 0.1618467
878.10 0.1617813
878.20 0.161716
878.30 0.1616506
878.40 0.1615853
878.50 0.16152
878.60 0.1614548
878.70 0.1613896
878.80 0.1613244
878.90 0.1612592
879.00 0.161194
879.10 0.1611289
879.20 0.1610638
879.30 0.1609987
879.40 0.1609337
879.50 0.1608687
879.60 0.1608039
879.70 0.1607392
879.80 0.1606746
879.90 0.1606099
880.00 0.1605453
880.10 0.1604807
880.20 0.1604162
880.30 0.1603516
880.40 0.1602871
880.50 0.1602226
880.60 0.1601582
880.70 0.1600937
880.80 0.1600293
880.90 0.1599649
881.00 0.1599006
881.10 0.1598362
881.20 0.1597719
881.30 0.1597077
881.40 0.1596434
881.50 0.1595792
881.60 0.1595149
881.70 0.1594508
881.80 0.1593866
881.90 0.1593225
882.00 0.1592584
882.10 0.1591943
882.20 0.1591302
882.30 0.1590662
882.40 0.1590022
882.50 0.1589382
882.60 0.1588742
882.70 0.1588103
882.80 0.1587464
882.90 0.1586825
883.00 0.1586186
883.10 0.1585548
883.20 0.158491
883.30 0.1584272
883.40 0.1583634
883.50 0.1582997
883.60 0.158236
883.70 0.1581723
883.80 0.1581086
883.90 0.158045
884.00 0.1579818
884.10 0.1579187
884.20 0.1578557
884.30 0.1577926
884.40 0.1577296
884.50 0.1576666
884.60 0.1576036
884.70 0.1575407
884.80 0.1574778
884.90 0.1574149
885.00 0.157352
885.10 0.1572892
885.20 0.1572264
885.30 0.1571636
885.40 0.1571008
885.50 0.1570381
885.60 0.1569753
885.70 0.1569126
885.80 0.15685
885.90 0.1567873
886.00 0.1567247
886.10 0.1566621
886.20 0.1565995
886.30 0.156537
886.40 0.1564744
886.50 0.1564119
886.60 0.1563495
886.70 0.156287
886.80 0.1562246
886.90 0.1561622
887.00 0.1560998
887.10 0.1560374
887.20 0.1559751
887.30 0.1559128
887.40 0.1558505
887.50 0.1557882
887.60 0.155726
887.70 0.1556638
887.80 0.1556016
887.90 0.1555394
888.00 0.1554773
888.10 0.1554152
888.20 0.1553531
888.30 0.155291
888.40 0.1552292
888.50 0.1551675
888.60 0.1551057
888.70 0.155044
888.80 0.1549823
888.90 0.1549207
889.00 0.1548591
889.10 0.1547975
889.20 0.1547359
889.30 0.1546743
889.40 0.1546128
889.50 0.1545513
889.60 0.1544898
889.70 0.1544283
889.80 0.1543669
889.90 0.1543055
890.00 0.1542441
890.10 0.1541827
890.20 0.1541213
890.30 0.15406
890.40 0.1539987
890.50 0.1539375
890.60 0.1538762
890.70 0.153815
890.80 0.1537538
890.90 0.1536926
891.00 0.1536314
891.10 0.1535703
891.20 0.1535092
891.30 0.1534481
891.40 0.153387
891.50 0.153326
891.60 0.153265
891.70 0.153204
891.80 0.153143
891.90 0.1530821
892.00 0.1530212
892.10 0.1529603
892.20 0.1528994
892.30 0.1528385
892.40 0.1527777
892.50 0.1527169
892.60 0.1526561
892.70 0.1525954
892.80 0.1525346
892.90 0.1524739
893.00 0.1524132
893.10 0.1523526
893.20 0.1522919
893.30 0.1522313
893.40 0.1521707
893.50 0.1521102
893.60 0.1520496
893.70 0.1519891
893.80 0.1519286
893.90 0.1518681
894.00 0.1518077
894.10 0.1517472
894.20 0.1516868
894.30 0.1516264
894.40 0.1515661
894.50 0.1515057
894.60 0.1514454
894.70 0.1513851
894.80 0.1513249
894.90 0.1512646
895.00 0.1512044
895.10 0.1511442
895.20 0.151084
895.30 0.1510239
895.40 0.1509637
895.50 0.1509036
895.60 0.1508435
895.70 0.1507835
895.80 0.1507234
895.90 0.1506634
896.00 0.1506034
896.10 0.1505435
896.20 0.1504835
896.30 0.1504236
896.40 0.1503637
896.50 0.1503038
896.60 0.150244
896.70 0.1501841
896.80 0.1501243
896.90 0.1500646
897.00 0.1500048
897.10 0.1499451
897.20 0.1498854
897.30 0.1498264
897.40 0.1497675
897.50 0.1497086
897.60 0.1496497
897.70 0.1495908
897.80 0.149532
897.90 0.1494732
898.00 0.1494144
898.10 0.1493556
898.20 0.1492969
898.30 0.1492382
898.40 0.1491795
898.50 0.1491208
898.60 0.1490621
898.70 0.1490035
898.80 0.1489449
898.90 0.1488863
899.00 0.1488277
899.10 0.1487692
899.20 0.1487106
899.30 0.1486521
899.40 0.1485937
899.50 0.1485352
899.60 0.1484768
899.70 0.1484184
899.80 0.14836
899.90 0.1483016
900.00 0.1482433
900.10 0.1481849
900.20 0.1481266
900.30 0.1480684
900.40 0.1480101
900.50 0.1479519
900.60 0.1478937
900.70 0.1478355
900.80 0.1477773
900.90 0.1477191
901.00 0.147661
901.10 0.1476029
901.20 0.1475448
901.30 0.1474868
901.40 0.1474288
901.50 0.1473707
901.60 0.1473128
901.70 0.1472548
901.80 0.1471968
901.90 0.1471389
902.00 0.147081
902.10 0.1470231
902.20 0.1469653
902.30 0.1469074
902.40 0.1468496
902.50 0.1467918
902.60 0.1467341
902.70 0.1466763
902.80 0.1466186
902.90 0.1465609
903.00 0.1465032
903.10 0.1464456
903.20 0.1463879
903.30 0.1463303
903.40 0.1462727
903.50 0.1462151
903.60 0.1461576
903.70 0.1461001
903.80 0.1460426
903.90 0.1459851
904.00 0.1459276
904.10 0.1458702
904.20 0.1458127
904.30 0.1457553
904.40 0.145698
904.50 0.1456406
904.60 0.1455833
904.70 0.145526
904.80 0.1454687
904.90 0.1454114
905.00 0.1453542
905.10 0.145297
905.20 0.1452398
905.30 0.1451826
905.40 0.1451254
905.50 0.1450683
905.60 0.1450112
905.70 0.1449541
905.80 0.144897
905.90 0.14484
906.00 0.1447829
906.10 0.1447259
906.20 0.144669
906.30 0.1446123
906.40 0.1445556
906.50 0.1444989
906.60 0.1444423
906.70 0.1443857
906.80 0.1443291
906.90 0.1442725
907.00 0.1442159
907.10 0.1441594
907.20 0.1441028
907.30 0.1440464
907.40 0.1439899
907.50 0.1439334
907.60 0.143877
907.70 0.1438206
907.80 0.1437642
907.90 0.1437078
908.00 0.1436515
908.10 0.1435951
908.20 0.1435388
908.30 0.1434825
908.40 0.1434263
908.50 0.14337
908.60 0.1433138
908.70 0.1432576
908.80 0.1432014
908.90 0.1431453
909.00 0.1430891
909.10 0.143033
909.20 0.1429769
909.30 0.1429208
909.40 0.1428648
909.50 0.1428088
909.60 0.1427528
909.70 0.1426968
909.80 0.1426408
909.90 0.1425849
910.00 0.1425289
910.10 0.142473
910.20 0.1424171
910.30 0.1423613
910.40 0.1423054
910.50 0.1422496
910.60 0.1421938
910.70 0.1421381
910.80 0.1420828
910.90 0.1420275
911.00 0.1419722
911.10 0.141917
911.20 0.1418618
911.30 0.1418066
911.40 0.1417514
911.50 0.1416963
911.60 0.1416412
911.70 0.1415861
911.80 0.141531
911.90 0.1414759
912.00 0.1414209
912.10 0.1413658
912.20 0.1413108
912.30 0.1412559
912.40 0.1412009
912.50 0.141146
912.60 0.141091
912.70 0.1410361
912.80 0.1409813
912.90 0.1409264
913.00 0.1408716
913.10 0.1408168
913.20 0.140762
913.30 0.1407072
913.40 0.1406524
913.50 0.1405977
913.60 0.140543
913.70 0.1404883
913.80 0.1404336
913.90 0.140379
914.00 0.1403243
914.10 0.1402697
914.20 0.1402151
914.30 0.1401606
914.40 0.140106
914.50 0.1400515
914.60 0.139997
914.70 0.1399425
914.80 0.139888
914.90 0.1398336
915.00 0.1397792
915.10 0.1397248
915.20 0.1396704
915.30 0.1396162
915.40 0.1395621
915.50 0.139508
915.60 0.1394539
915.70 0.1393999
915.80 0.1393458
915.90 0.1392918
916.00 0.1392378
916.10 0.1391839
916.20 0.1391299
916.30 0.139076
916.40 0.1390221
916.50 0.1389682
916.60 0.1389143
916.70 0.1388605
916.80 0.1388067
916.90 0.1387529
917.00 0.1386991
917.10 0.1386453
917.20 0.1385916
917.30 0.1385378
917.40 0.1384841
917.50 0.1384305
917.60 0.1383768
917.70 0.1383231
917.80 0.1382695
917.90 0.1382159
918.00 0.1381623
918.10 0.1381088
918.20 0.1380552
918.30 0.1380017
918.40 0.1379482
918.50 0.1378947
918.60 0.1378413
918.70 0.1377878
918.80 0.1377344
918.90 0.137681
919.00 0.1376276
919.10 0.1375742
919.20 0.1375209
919.30 0.1374676
919.40 0.1374143
919.50 0.137361
919.60 0.1373077
919.70 0.1372545
919.80 0.1372012
919.90 0.1371485
920.00 0.1370957
920.10 0.137043
920.20 0.1369903
920.30 0.1369376
920.40 0.136885
920.50 0.1368323
920.60 0.1367797
920.70 0.1367271
920.80 0.1366746
920.90 0.136622
921.00 0.1365695
921.10 0.1365169
921.20 0.1364644
921.30 0.136412
921.40 0.1363595
921.50 0.1363071
921.60 0.1362546
921.70 0.1362022
921.80 0.1361498
921.90 0.1360975
922.00 0.1360451
922.10 0.1359928
922.20 0.1359405
922.30 0.1358882
922.40 0.135836
922.50 0.1357837
922.60 0.1357315
922.70 0.1356793
922.80 0.1356271
922.90 0.1355749
923.00 0.1355228
923.10 0.1354706
923.20 0.1354185
923.30 0.1353664
923.40 0.1353144
923.50 0.1352623
923.60 0.1352103
923.70 0.1351583
923.80 0.1351063
923.90 0.1350543
924.00 0.1350024
924.10 0.1349504
924.20 0.1348985
924.30 0.1348466
924.40 0.1347947
924.50 0.1347426
924.60 0.1346906
924.70 0.1346385
924.80 0.1345865
924.90 0.1345345
925.00 0.1344825
925.10 0.1344306
925.20 0.1343786
925.30 0.1343267
925.40 0.1342748
925.50 0.134223
925.60 0.1341711
925.70 0.1341192
925.80 0.1340674
925.90 0.1340156
926.00 0.1339638
926.10 0.1339121
926.20 0.1338603
926.30 0.1338086
926.40 0.1337569
926.50 0.1337052
926.60 0.1336535
926.70 0.1336019
926.80 0.1335503
926.90 0.1334987
927.00 0.1334471
927.10 0.1333955
927.20 0.1333439
927.30 0.1332924
927.40 0.1332409
927.50 0.1331894
927.60 0.1331379
927.70 0.1330865
927.80 0.133035
927.90 0.1329836
928.00 0.1329322
928.10 0.1328808
928.20 0.1328295
928.30 0.1327781
928.40 0.1327268
928.50 0.1326755
928.60 0.1326242
928.70 0.1325729
928.80 0.1325217
928.90 0.1324705
929.00 0.1324192
929.10 0.1323689
929.20 0.1323186
929.30 0.1322683
929.40 0.132218
929.50 0.1321678
929.60 0.1321176
929.70 0.1320674
929.80 0.1320172
929.90 0.131967
930.00 0.1319169
930.10 0.1318667
930.20 0.1318166
930.30 0.1317665
930.40 0.1317164
930.50 0.1316664
930.60 0.1316163
930.70 0.1315663
930.80 0.1315163
930.90 0.1314663
931.00 0.1314164
931.10 0.1313664
931.20 0.1313165
931.30 0.1312666
931.40 0.1312167
931.50 0.1311668
931.60 0.1311169
931.70 0.1310671
931.80 0.1310173
931.90 0.1309675
932.00 0.1309177
932.10 0.1308679
932.20 0.1308182
932.30 0.1307685
932.40 0.1307188
932.50 0.1306691
932.60 0.1306194
932.70 0.1305697
932.80 0.1305201
932.90 0.1304705
933.00 0.1304209
933.10 0.1303713
933.20 0.1303217
933.30 0.1302722
933.40 0.1302227
933.50 0.1301732
933.60 0.1301237
933.70 0.1300742
933.80 0.1300247
933.90 0.1299753
934.00 0.1299259
934.10 0.1298765
934.20 0.1298271
934.30 0.1297777
934.40 0.1297284
934.50 0.1296791
934.60 0.1296298
934.70 0.1295805
934.80 0.1295312
934.90 0.1294819
935.00 0.1294327
935.10 0.1293835
935.20 0.1293343
935.30 0.1292851
935.40 0.1292359
935.50 0.1291868
935.60 0.1291377
935.70 0.1290885
935.80 0.1290395
935.90 0.1289904
936.00 0.1289413
936.10 0.1288923
936.20 0.1288433
936.30 0.1287943
936.40 0.1287453
936.50 0.1286963
936.60 0.1286474
936.70 0.1285984
936.80 0.1285495
936.90 0.1285006
937.00 0.1284518
937.10 0.1284029
937.20 0.1283541
937.30 0.1283052
937.40 0.1282564
937.50 0.1282076
937.60 0.1281589
937.70 0.1281101
937.80 0.1280614
937.90 0.1280127
938.00 0.127964
938.10 0.1279153
938.20 0.1278666
938.30 0.127818
938.40 0.1277694
938.50 0.1277208
938.60 0.1276722
938.70 0.1276236
938.80 0.127575
938.90 0.1275265
939.00 0.127478
939.10 0.1274295
939.20 0.127381
939.30 0.1273325
939.40 0.1272841
939.50 0.1272356
939.60 0.1271872
939.70 0.1271388
939.80 0.1270905
939.90 0.1270421
940.00 0.1269938
940.10 0.1269454
940.20 0.1268971
940.30 0.1268488
940.40 0.1268006
940.50 0.1267523
940.60 0.1267041
940.70 0.1266559
940.80 0.1266077
940.90 0.1265595
941.00 0.1265113
941.10 0.1264632
941.20 0.126415
941.30 0.1263669
941.40 0.1263188
941.50 0.1262707
941.60 0.1262227
941.70 0.1261746
941.80 0.1261266
941.90 0.1260786
942.00 0.1260306
942.10 0.1259826
942.20 0.1259347
942.30 0.1258868
942.40 0.1258388
942.50 0.1257909
942.60 0.1257431
942.70 0.1256952
942.80 0.1256473
942.90 0.1255995
943.00 0.1255519
943.10 0.1255048
943.20 0.1254576
943.30 0.1254105
943.40 0.1253633
943.50 0.1253162
943.60 0.1252692
943.70 0.1252221
943.80 0.125175
943.90 0.125128
944.00 0.125081
944.10 0.125034
944.20 0.124987
944.30 0.12494
944.40 0.1248931
944.50 0.1248462
944.60 0.1247992
944.70 0.1247523
944.80 0.1247055
944.90 0.1246586
945.00 0.1246118
945.10 0.1245649
945.20 0.1245181
945.30 0.1244713
945.40 0.1244245
945.50 0.1243778
945.60 0.124331
945.70 0.1242843
945.80 0.1242376
945.90 0.1241909
946.00 0.1241442
946.10 0.1240976
946.20 0.1240509
946.30 0.1240043
946.40 0.1239577
946.50 0.1239111
946.60 0.1238645
946.70 0.123818
946.80 0.1237714
946.90 0.1237249
947.00 0.1236784
947.10 0.1236319
947.20 0.1235854
947.30 0.123539
947.40 0.1234925
947.50 0.1234461
947.60 0.1233997
947.70 0.1233533
947.80 0.123307
947.90 0.1232606
948.00 0.1232143
948.10 0.1231679
948.20 0.1231216
948.30 0.1230753
948.40 0.1230291
948.50 0.1229828
948.60 0.1229366
948.70 0.1228904
948.80 0.1228442
948.90 0.122798
949.00 0.1227518
949.10 0.1227056
949.20 0.1226595
949.30 0.1226134
949.40 0.1225673
949.50 0.1225212
949.60 0.1224751
949.70 0.1224291
949.80 0.122383
949.90 0.122337
950.00 0.122291
950.10 0.122245
950.20 0.1221991
950.30 0.1221531
950.40 0.1221072
950.50 0.1220612
950.60 0.1220153
950.70 0.1219695
950.80 0.1219236
950.90 0.1218777
951.00 0.1218319
951.10 0.1217861
951.20 0.1217403
951.30 0.1216945
951.40 0.1216487
951.50 0.121603
951.60 0.1215572
951.70 0.1215115
951.80 0.1214658
951.90 0.1214201
952.00 0.1213744
952.10 0.1213288
952.20 0.1212831
952.30 0.1212375
952.40 0.1211919
952.50 0.1211463
952.60 0.1211007
952.70 0.1210552
952.80 0.1210096
952.90 0.1209641
953.00 0.1209186
953.10 0.1208731
953.20 0.1208276
953.30 0.1207822
953.40 0.1207367
953.50 0.1206913
953.60 0.1206459
953.70 0.1206005
953.80 0.1205551
953.90 0.1205098
954.00 0.1204644
954.10 0.1204191
954.20 0.1203738
954.30 0.1203285
954.40 0.1202832
954.50 0.1202379
954.60 0.1201927
954.70 0.1201474
954.80 0.1201022
954.90 0.120057
955.00 0.1200118
955.10 0.1199667
955.20 0.1199215
955.30 0.1198764
955.40 0.1198313
955.50 0.1197862
955.60 0.1197411
955.70 0.119696
955.80 0.119651
955.90 0.1196059
956.00 0.1195609
956.10 0.1195159
956.20 0.1194709
956.30 0.119426
956.40 0.119381
956.50 0.1193361
956.60 0.1192911
956.70 0.1192462
956.80 0.1192013
956.90 0.1191565
957.00 0.1191116
957.10 0.1190668
957.20 0.1190221
957.30 0.1189777
957.40 0.1189333
957.50 0.1188889
957.60 0.1188446
957.70 0.1188002
957.80 0.1187559
957.90 0.1187116
958.00 0.1186673
958.10 0.118623
958.20 0.1185787
958.30 0.1185345
958.40 0.1184902
958.50 0.118446
958.60 0.1184018
958.70 0.1183576
958.80 0.1183135
958.90 0.1182693
959.00 0.1182252
959.10 0.118181
959.20 0.1181369
959.30 0.1180928
959.40 0.1180488
959.50 0.1180047
959.60 0.1179607
959.70 0.1179166
959.80 0.1178726
959.90 0.1178286
960.00 0.1177846
960.10 0.1177407
960.20 0.1176967
960.30 0.1176528
960.40 0.1176089
960.50 0.117565
960.60 0.1175211
960.70 0.1174772
960.80 0.1174333
960.90 0.1173895
961.00 0.1173457
961.10 0.1173019
961.20 0.1172581
961.30 0.1172143
961.40 0.1171705
961.50 0.1171268
961.60 0.1170831
961.70 0.1170393
961.80 0.1169956
961.90 0.116952
962.00 0.1169088
962.10 0.1168657
962.20 0.1168226
962.30 0.1167796
962.40 0.1167366
962.50 0.1166936
962.60 0.1166506
962.70 0.1166076
962.80 0.1165646
962.90 0.1165217
963.00 0.1164788
963.10 0.1164358
963.20 0.1163929
963.30 0.1163501
963.40 0.1163072
963.50 0.1162643
963.60 0.1162215
963.70 0.1161787
963.80 0.1161358
963.90 0.1160931
964.00 0.1160503
964.10 0.1160075
964.20 0.1159648
964.30 0.115922
964.40 0.1158793
964.50 0.1158366
964.60 0.1157939
964.70 0.1157512
964.80 0.1157086
964.90 0.1156659
965.00 0.1156233
965.10 0.1155807
965.20 0.1155381
965.30 0.1154955
965.40 0.115453
965.50 0.1154104
965.60 0.1153679
965.70 0.1153253
965.80 0.1152828
965.90 0.1152403
966.00 0.1151979
966.10 0.1151554
966.20 0.115113
966.30 0.1150705
966.40 0.1150281
966.50 0.1149857
966.60 0.1149433
966.70 0.114901
966.80 0.1148586
966.90 0.1148163
967.00 0.1147739
967.10 0.1147316
967.20 0.1146893
967.30 0.1146471
967.40 0.1146048
967.50 0.1145625
967.60 0.1145203
967.70 0.1144781
967.80 0.1144359
967.90 0.1143937
968.00 0.1143515
968.10 0.1143094
968.20 0.1142672
968.30 0.1142251
968.40 0.114183
968.50 0.1141409
968.60 0.1140988
968.70 0.1140567
968.80 0.1140147
968.90 0.1139726
969.00 0.1139306
969.10 0.1138886
969.20 0.1138466
969.30 0.1138046
969.40 0.1137626
969.50 0.1137207
969.60 0.1136788
969.70 0.1136368
969.80 0.1135949
969.90 0.113553
970.00 0.1135112
970.10 0.1134693
970.20 0.1134274
970.30 0.1133856
970.40 0.1133438
970.50 0.113302
970.60 0.1132602
970.70 0.1132184
970.80 0.1131767
970.90 0.1131349
971.00 0.1130932
971.10 0.1130515
971.20 0.1130098
971.30 0.1129681
971.40 0.1129264
971.50 0.1128848
971.60 0.1128433
971.70 0.1128018
971.80 0.1127604
971.90 0.112719
972.00 0.1126776
972.10 0.1126362
972.20 0.1125948
972.30 0.1125535
972.40 0.1125121
972.50 0.1124708
972.60 0.1124295
972.70 0.1123882
972.80 0.1123469
972.90 0.1123056
973.00 0.1122644
973.10 0.1122232
973.20 0.1121819
973.30 0.1121407
973.40 0.1120995
973.50 0.1120583
973.60 0.1120172
973.70 0.111976
973.80 0.1119349
973.90 0.1118938
974.00 0.1118527
974.10 0.1118116
974.20 0.1117705
974.30 0.1117294
974.40 0.1116884
974.50 0.1116473
974.60 0.1116063
974.70 0.1115653
974.80 0.1115243
974.90 0.1114834
975.00 0.1114424
975.10 0.1114014
975.20 0.1113605
975.30 0.1113196
975.40 0.1112787
975.50 0.1112378
975.60 0.1111969
975.70 0.1111561
975.80 0.1111152
975.90 0.1110744
976.00 0.1110336
976.10 0.1109928
976.20 0.110952
976.30 0.1109112
976.40 0.1108704
976.50 0.1108297
976.60 0.110789
976.70 0.1107482
976.80 0.1107075
976.90 0.1106668
977.00 0.1106262
977.10 0.1105855
977.20 0.1105449
977.30 0.1105042
977.40 0.1104636
977.50 0.110423
977.60 0.1103824
977.70 0.1103419
977.80 0.1103013
977.90 0.1102607
978.00 0.1102202
978.10 0.1101797
978.20 0.1101392
978.30 0.1100987
978.40 0.1100582
978.50 0.1100178
978.60 0.1099773
978.70 0.1099369
978.80 0.1098965
978.90 0.1098561
979.00 0.1098157
979.10 0.1097753
979.20 0.1097349
979.30 0.1096946
979.40 0.1096543
979.50 0.109614
979.60 0.1095736
979.70 0.1095334
979.80 0.1094931
979.90 0.1094528
980.00 0.1094126
980.10 0.1093723
980.20 0.1093321
980.30 0.1092919
980.40 0.1092517
980.50 0.1092115
980.60 0.1091714
980.70 0.1091312
980.80 0.1090911
980.90 0.109051
981.00 0.1090109
981.10 0.1089708
981.20 0.1089307
981.30 0.1088908
981.40 0.1088511
981.50 0.1088115
981.60 0.1087718
981.70 0.1087322
981.80 0.1086925
981.90 0.1086529
982.00 0.1086133
982.10 0.1085737
982.20 0.1085341
982.30 0.1084946
982.40 0.108455
982.50 0.1084155
982.60 0.108376
982.70 0.1083365
982.80 0.108297
982.90 0.1082575
983.00 0.108218
983.10 0.1081786
983.20 0.1081391
983.30 0.1080997
983.40 0.1080603
983.50 0.1080209
983.60 0.1079815
983.70 0.1079422
983.80 0.1079028
983.90 0.1078635
984.00 0.1078241
984.10 0.1077848
984.20 0.1077455
984.30 0.1077062
984.40 0.107667
984.50 0.1076277
984.60 0.1075885
984.70 0.1075492
984.80 0.10751
984.90 0.1074708
985.00 0.1074316
985.10 0.1073924
985.20 0.1073533
985.30 0.1073141
985.40 0.107275
985.50 0.1072359
985.60 0.1071968
985.70 0.1071577
985.80 0.1071186
985.90 0.1070795
986.00 0.1070405
986.10 0.1070014
986.20 0.1069624
986.30 0.1069234
986.40 0.1068844
986.50 0.1068454
986.60 0.1068064
986.70 0.1067675
986.80 0.1067285
986.90 0.1066896
987.00 0.1066507
987.10 0.1066118
987.20 0.1065729
987.30 0.106534
987.40 0.1064951
987.50 0.1064563
987.60 0.1064175
987.70 0.1063786
987.80 0.1063398
987.90 0.106301
988.00 0.1062623
988.10 0.1062235
988.20 0.1061847
988.30 0.106146
988.40 0.1061073
988.50 0.1060685
988.60 0.1060298
988.70 0.1059912
988.80 0.1059525
988.90 0.1059138
989.00 0.1058752
989.10 0.1058365
989.20 0.1057979
989.30 0.1057593
989.40 0.1057207
989.50 0.1056821
989.60 0.1056436
989.70 0.105605
989.80 0.1055665
989.90 0.105528
990.00 0.1054895
990.10 0.105451
990.20 0.1054125
990.30 0.105374
990.40 0.1053355
990.50 0.1052971
990.60 0.1052587
990.70 0.1052202
990.80 0.1051818
990.90 0.1051434
991.00 0.1051051
991.10 0.1050668
991.20 0.1050288
991.30 0.1049908
991.40 0.1049528
991.50 0.1049149
991.60 0.1048769
991.70 0.104839
991.80 0.1048011
991.90 0.1047632
992.00 0.1047253
992.10 0.1046874
992.20 0.1046495
992.30 0.1046116
992.40 0.1045738
992.50 0.104536
992.60 0.1044981
992.70 0.1044603
992.80 0.1044225
992.90 0.1043847
993.00 0.104347
993.10 0.1043092
993.20 0.1042715
993.30 0.1042337
993.40 0.104196
993.50 0.1041583
993.60 0.1041206
993.70 0.104083
993.80 0.1040453
993.90 0.1040076
994.00 0.10397
994.10 0.1039324
994.20 0.1038948
994.30 0.1038572
994.40 0.1038196
994.50 0.103782
994.60 0.1037445
994.70 0.1037069
994.80 0.1036694
994.90 0.1036319
995.00 0.1035943
995.10 0.1035569
995.20 0.1035194
995.30 0.1034819
995.40 0.1034444
995.50 0.103407
995.60 0.1033696
995.70 0.1033322
995.80 0.1032947
995.90 0.1032574
996.00 0.10322
996.10 0.1031829
996.20 0.1031459
996.30 0.1031089
996.40 0.103072
996.50 0.103035
996.60 0.1029981
996.70 0.1029611
996.80 0.1029242
996.90 0.1028873
997.00 0.1028504
997.10 0.1028135
997.20 0.1027767
997.30 0.1027398
997.40 0.102703
997.50 0.1026661
997.60 0.1026293
997.70 0.1025925
997.80 0.1025557
997.90 0.1025189
998.00 0.1024822
998.10 0.1024454
998.20 0.1024087
998.30 0.102372
998.40 0.1023352
998.50 0.1022985
998.60 0.1022618
998.70 0.1022252
998.80 0.1021885
998.90 0.1021519
999.00 0.1021152
999.10 0.1020786
999.20 0.102042
999.30 0.1020054
999.40 0.1019688
999.50 0.1019322
999.60 0.1018956
999.70 0.1018591
999.80 0.1018226
999.90 0.101786
1000.00 0.1017495
1000.10 0.101713
1000.20 0.1016765
1000.30 0.10164
1000.40 0.1016036
1000.50 0.1015671
1000.60 0.1015307
1000.70 0.1014943
1000.80 0.1014579
1000.90 0.1014215
1001.00 0.1013851
1001.10 0.1013489
1001.20 0.1013127
1001.30 0.1012765
1001.40 0.1012403
1001.50 0.1012041
1001.60 0.101168
1001.70 0.1011318
1001.80 0.1010957
1001.90 0.1010596
1002.00 0.1010235
1002.10 0.1009874
1002.20 0.1009513
1002.30 0.1009152
1002.40 0.1008792
1002.50 0.1008431
1002.60 0.1008071
1002.70 0.1007711
1002.80 0.1007351
1002.90 0.1006991
1003.00 0.1006631
1003.10 0.1006271
1003.20 0.1005912
1003.30 0.1005552
1003.40 0.1005193
1003.50 0.1004834
1003.60 0.1004475
1003.70 0.1004116
1003.80 0.1003757
1003.90 0.1003398
1004.00 0.100304
1004.10 0.1002681
1004.20 0.1002323
1004.30 0.1001965
1004.40 0.1001607
1004.50 0.1001249
1004.60 0.1000891
1004.70 0.1000533
1004.80 0.1000175
1004.90 0.09998179
1005.00 0.09994605
1005.10 0.09991033
1005.20 0.09987462
1005.30 0.09983892
1005.40 0.09980323
1005.50 0.09976755
1005.60 0.09973189
1005.70 0.09969624
1005.80 0.0996606
1005.90 0.09962498
1006.00 0.09958936
1006.10 0.09955376
1006.20 0.09951816
1006.30 0.09948258
1006.40 0.09944701
1006.50 0.09941146
1006.60 0.09937591
1006.70 0.09934038
1006.80 0.09930486
1006.90 0.09926935
1007.00 0.09923386
1007.10 0.09919837
1007.20 0.0991629
1007.30 0.09912744
1007.40 0.099092
1007.50 0.09905656
1007.60 0.09902114
1007.70 0.09898573
1007.80 0.09895033
1007.90 0.09891494
1008.00 0.09887957
1008.10 0.09884421
1008.20 0.09880886
1008.30 0.09877352
1008.40 0.09873819
1008.50 0.09870288
1008.60 0.09866758
1008.70 0.09863229
1008.80 0.09859701
1008.90 0.09856174
1009.00 0.09852649
1009.10 0.09849125
1009.20 0.09845602
1009.30 0.0984208
1009.40 0.09838559
1009.50 0.0983504
1009.60 0.09831522
1009.70 0.09828005
1009.80 0.09824489
1009.90 0.09820975
1010.00 0.09817461
1010.10 0.09813949
1010.20 0.09810438
1010.30 0.09806928
1010.40 0.0980342
1010.50 0.09799912
1010.60 0.09796406
1010.70 0.09792901
1010.80 0.09789397
1010.90 0.09785895
1011.00 0.09782396
1011.10 0.09778912
1011.20 0.09775428
1011.30 0.09771946
1011.40 0.09768466
1011.50 0.09764986
1011.60 0.09761507
1011.70 0.0975803
1011.80 0.09754554
1011.90 0.09751079
1012.00 0.09747605
1012.10 0.09744133
1012.20 0.09740661
1012.30 0.09737191
1012.40 0.09733722
1012.50 0.09730254
1012.60 0.09726788
1012.70 0.09723322
1012.80 0.09719858
1012.90 0.09716395
1013.00 0.09712933
1013.10 0.09709472
1013.20 0.09706012
1013.30 0.09702554
1013.40 0.09699097
1013.50 0.09695641
1013.60 0.09692186
1013.70 0.09688732
1013.80 0.0968528
1013.90 0.09681828
1014.00 0.09678378
1014.10 0.09674929
1014.20 0.09671481
1014.30 0.09668035
1014.40 0.09664589
1014.50 0.09661145
1014.60 0.09657702
1014.70 0.0965426
1014.80 0.09650819
1014.90 0.09647379
1015.00 0.09643941
1015.10 0.09640503
1015.20 0.09637067
1015.30 0.09633632
1015.40 0.09630198
1015.50 0.09626766
1015.60 0.09623334
1015.70 0.09619904
1015.80 0.09616475
1015.90 0.09613047
1016.00 0.0960962
1016.10 0.09606215
1016.20 0.09602824
1016.30 0.09599434
1016.40 0.09596045
1016.50 0.09592657
1016.60 0.0958927
1016.70 0.09585885
1016.80 0.09582501
1016.90 0.09579118
1017.00 0.09575736
1017.10 0.09572355
1017.20 0.09568975
1017.30 0.09565597
1017.40 0.09562219
1017.50 0.09558843
1017.60 0.09555468
1017.70 0.09552094
1017.80 0.09548721
1017.90 0.09545349
1018.00 0.09541979
1018.10 0.09538609
1018.20 0.09535241
1018.30 0.09531874
1018.40 0.09528508
1018.50 0.09525143
1018.60 0.09521779
1018.70 0.09518417
1018.80 0.09515055
1018.90 0.09511695
1019.00 0.09508336
1019.10 0.09504978
1019.20 0.09501621
1019.30 0.09498265
1019.40 0.0949491
1019.50 0.09491557
1019.60 0.09488204
1019.70 0.09484853
1019.80 0.09481503
1019.90 0.09478154
1020.00 0.09474806
1020.10 0.09471459
1020.20 0.09468114
1020.30 0.09464769
1020.40 0.09461426
1020.50 0.09458084
1020.60 0.09454743
1020.70 0.09451403
1020.80 0.09448064
1020.90 0.09444726
1021.00 0.0944139
1021.10 0.09438053
1021.20 0.09434701
1021.30 0.0943135
1021.40 0.09428
1021.50 0.09424651
1021.60 0.09421303
1021.70 0.09417957
1021.80 0.09414612
1021.90 0.09411267
1022.00 0.09407924
1022.10 0.09404582
1022.20 0.09401241
1022.30 0.09397902
1022.40 0.09394563
1022.50 0.09391225
1022.60 0.09387889
1022.70 0.09384554
1022.80 0.0938122
1022.90 0.09377887
1023.00 0.09374555
1023.10 0.09371224
1023.20 0.09367894
1023.30 0.09364566
1023.40 0.09361239
1023.50 0.09357912
1023.60 0.09354587
1023.70 0.09351263
1023.80 0.0934794
1023.90 0.09344619
1024.00 0.09341298
1024.10 0.09337978
1024.20 0.0933466
1024.30 0.09331343
1024.40 0.09328026
1024.50 0.09324711
1024.60 0.09321397
1024.70 0.09318085
1024.80 0.09314773
1024.90 0.09311462
1025.00 0.09308153
1025.10 0.09304844
1025.20 0.09301537
1025.30 0.09298231
1025.40 0.09294926
1025.50 0.09291622
1025.60 0.09288319
1025.70 0.09285018
1025.80 0.09281717
1025.90 0.09278417
1026.00 0.09275119
1026.10 0.09271822
1026.20 0.09268526
1026.30 0.09265263
1026.40 0.09262001
1026.50 0.0925874
1026.60 0.09255481
1026.70 0.09252222
1026.80 0.09248965
1026.90 0.09245708
1027.00 0.09242453
1027.10 0.09239199
1027.20 0.09235946
1027.30 0.09232694
1027.40 0.09229443
1027.50 0.09226193
1027.60 0.09222944
1027.70 0.09219697
1027.80 0.0921645
1027.90 0.09213204
1028.00 0.0920996
1028.10 0.09206717
1028.20 0.09203475
1028.30 0.09200233
1028.40 0.09196993
1028.50 0.09193754
1028.60 0.09190517
1028.70 0.0918728
1028.80 0.09184044
1028.90 0.09180809
1029.00 0.09177576
1029.10 0.09174343
1029.20 0.09171112
1029.30 0.09167882
1029.40 0.09164653
1029.50 0.09161424
1029.60 0.09158197
1029.70 0.09154971
1029.80 0.09151747
1029.90 0.09148523
1030.00 0.091453
1030.10 0.09142078
1030.20 0.09138858
1030.30 0.09135638
1030.40 0.0913242
1030.50 0.09129203
1030.60 0.09125986
1030.70 0.09122771
1030.80 0.09119557
1030.90 0.09116344
1031.00 0.09113132
1031.10 0.09109921
1031.20 0.09106711
1031.30 0.09103503
1031.40 0.09100339
1031.50 0.09097179
1031.60 0.0909402
1031.70 0.09090862
1031.80 0.09087704
1031.90 0.09084548
1032.00 0.09081393
1032.10 0.09078239
1032.20 0.09075086
1032.30 0.09071934
1032.40 0.09068784
1032.50 0.09065634
1032.60 0.09062485
1032.70 0.09059337
1032.80 0.09056191
1032.90 0.09053045
1033.00 0.09049901
1033.10 0.09046757
1033.20 0.09043615
1033.30 0.09040473
1033.40 0.09037333
1033.50 0.09034193
1033.60 0.09031055
1033.70 0.09027918
1033.80 0.09024782
1033.90 0.09021647
1034.00 0.09018513
1034.10 0.09015379
1034.20 0.09012247
1034.30 0.09009116
1034.40 0.09005987
1034.50 0.09002858
1034.60 0.0899973
1034.70 0.08996603
1034.80 0.08993477
1034.90 0.08990353
1035.00 0.08987229
1035.10 0.08984106
1035.20 0.08980985
1035.30 0.08977864
1035.40 0.08974745
1035.50 0.08971626
1035.60 0.08968509
1035.70 0.08965392
1035.80 0.08962277
1035.90 0.08959162
1036.00 0.08956049
1036.10 0.08952937
1036.20 0.08949826
1036.30 0.08946715
1036.40 0.08943606
1036.50 0.08940486
1036.60 0.08937347
1036.70 0.08934209
1036.80 0.08931072
1036.90 0.08927937
1037.00 0.08924802
1037.10 0.08921669
1037.20 0.08918536
1037.30 0.08915405
1037.40 0.08912274
1037.50 0.08909145
1037.60 0.08906016
1037.70 0.08902889
1037.80 0.08899763
1037.90 0.08896638
1038.00 0.08893513
1038.10 0.0889039
1038.20 0.08887268
1038.30 0.08884147
1038.40 0.08881027
1038.50 0.08877908
1038.60 0.0887479
1038.70 0.08871673
1038.80 0.08868557
1038.90 0.08865442
1039.00 0.08862328
1039.10 0.08859216
1039.20 0.08856104
1039.30 0.08852993
1039.40 0.08849883
1039.50 0.08846775
1039.60 0.08843667
1039.70 0.0884056
1039.80 0.08837455
1039.90 0.0883435
1040.00 0.08831247
1040.10 0.08828144
1040.20 0.08825043
1040.30 0.08821942
1040.40 0.08818843
1040.50 0.08815745
1040.60 0.08812647
1040.70 0.08809551
1040.80 0.08806456
1040.90 0.08803361
1041.00 0.08800268
1041.10 0.08797176
1041.20 0.08794085
1041.30 0.08790995
1041.40 0.08787906
1041.50 0.08784817
1041.60 0.0878173
1041.70 0.08778682
1041.80 0.08775641
1041.90 0.08772602
1042.00 0.08769564
1042.10 0.08766526
1042.20 0.0876349
1042.30 0.08760455
1042.40 0.08757421
1042.50 0.08754388
1042.60 0.08751355
1042.70 0.08748324
1042.80 0.08745294
1042.90 0.08742265
1043.00 0.08739236
1043.10 0.08736209
1043.20 0.08733183
1043.30 0.08730158
1043.40 0.08727133
1043.50 0.0872411
1043.60 0.08721088
1043.70 0.08718067
1043.80 0.08715046
1043.90 0.08712027
1044.00 0.08709009
1044.10 0.08705992
1044.20 0.08702976
1044.30 0.0869996
1044.40 0.08696946
1044.50 0.08693933
1044.60 0.0869092
1044.70 0.08687909
1044.80 0.08684899
1044.90 0.0868189
1045.00 0.08678881
1045.10 0.08675874
1045.20 0.08672868
1045.30 0.08669862
1045.40 0.08666858
1045.50 0.08663855
1045.60 0.08660852
1045.70 0.08657851
1045.80 0.08654851
1045.90 0.08651851
1046.00 0.08648853
1046.10 0.08645855
1046.20 0.08642859
1046.30 0.08639864
1046.40 0.08636869
1046.50 0.08633876
1046.60 0.08630883
1046.70 0.08627892
1046.80 0.08624901
1046.90 0.08621912
1047.00 0.08618923
1047.10 0.08615936
1047.20 0.08612949
1047.30 0.08609964
1047.40 0.08606979
1047.50 0.08603995
1047.60 0.08601013
1047.70 0.08598031
1047.80 0.0859505
1047.90 0.08592071
1048.00 0.08589092
1048.10 0.08586114
1048.20 0.08583138
1048.30 0.08580162
1048.40 0.08577187
1048.50 0.08574213
1048.60 0.0857124
1048.70 0.08568269
1048.80 0.08565298
1048.90 0.08562328
1049.00 0.08559359
1049.10 0.08556391
1049.20 0.08553424
1049.30 0.08550458
1049.40 0.08547493
1049.50 0.08544529
1049.60 0.08541566
1049.70 0.08538604
1049.80 0.08535643
1049.90 0.08532682
1050.00 0.08529723
1050.10 0.08526765
1050.20 0.08523808
1050.30 0.08520852
1050.40 0.08517896
1050.50 0.08514942
1050.60 0.08511989
1050.70 0.08509036
1050.80 0.08506085
1050.90 0.08503134
1051.00 0.08500185
1051.10 0.08497237
1051.20 0.08494289
1051.30 0.08491342
1051.40 0.08488397
1051.50 0.08485452
1051.60 0.08482509
1051.70 0.08479566
1051.80 0.08476624
1051.90 0.08473683
1052.00 0.08470744
1052.10 0.08467824
1052.20 0.08464914
1052.30 0.08462005
1052.40 0.08459097
1052.50 0.08456191
1052.60 0.08453285
1052.70 0.0845038
1052.80 0.08447476
1052.90 0.08444573
1053.00 0.08441671
1053.10 0.0843877
1053.20 0.0843587
1053.30 0.0843297
1053.40 0.08430072
1053.50 0.08427175
1053.60 0.08424278
1053.70 0.08421383
1053.80 0.08418489
1053.90 0.08415595
1054.00 0.08412702
1054.10 0.08409811
1054.20 0.0840692
1054.30 0.0840403
1054.40 0.08401142
1054.50 0.08398254
1054.60 0.08395367
1054.70 0.08392481
1054.80 0.08389596
1054.90 0.08386712
1055.00 0.08383829
1055.10 0.08380947
1055.20 0.08378065
1055.30 0.08375185
1055.40 0.08372306
1055.50 0.08369427
1055.60 0.0836655
1055.70 0.08363673
1055.80 0.08360798
1055.90 0.08357923
1056.00 0.08355049
1056.10 0.08352176
1056.20 0.08349305
1056.30 0.08346434
1056.40 0.08343564
1056.50 0.08340695
1056.60 0.08337826
1056.70 0.08334959
1056.80 0.08332093
1056.90 0.08329228
1057.00 0.08326363
1057.10 0.083235
1057.20 0.08320638
1057.30 0.08317776
1057.40 0.08314915
1057.50 0.08312056
1057.60 0.08309197
1057.70 0.08306339
1057.80 0.08303482
1057.90 0.08300626
1058.00 0.08297771
1058.10 0.08294917
1058.20 0.08292064
1058.30 0.08289212
1058.40 0.0828636
1058.50 0.0828351
1058.60 0.08280661
1058.70 0.08277812
1058.80 0.08274964
1058.90 0.08272118
1059.00 0.08269272
1059.10 0.08266427
1059.20 0.08263583
1059.30 0.0826074
1059.40 0.08257898
1059.50 0.08255057
1059.60 0.08252217
1059.70 0.08249378
1059.80 0.0824654
1059.90 0.08243702
1060.00 0.08240866
1060.10 0.0823803
1060.20 0.08235196
1060.30 0.08232362
1060.40 0.08229529
1060.50 0.08226697
1060.60 0.08223866
1060.70 0.08221036
1060.80 0.08218207
1060.90 0.08215379
1061.00 0.08212552
1061.10 0.08209725
1061.20 0.082069
1061.30 0.08204075
1061.40 0.08201252
1061.50 0.08198429
1061.60 0.08195607
1061.70 0.08192787
1061.80 0.08189967
1061.90 0.08187148
1062.00 0.0818433
1062.10 0.08181512
1062.20 0.08178696
1062.30 0.08175881
1062.40 0.08173066
1062.50 0.08170253
1062.60 0.08167453
1062.70 0.08164668
1062.80 0.08161885
1062.90 0.08159102
1063.00 0.0815632
1063.10 0.08153539
1063.20 0.08150759
1063.30 0.0814798
1063.40 0.08145201
1063.50 0.08142424
1063.60 0.08139648
1063.70 0.08136872
1063.80 0.08134097
1063.90 0.08131324
1064.00 0.08128551
1064.10 0.08125779
1064.20 0.08123008
1064.30 0.08120238
1064.40 0.08117468
1064.50 0.081147
1064.60 0.08111933
1064.70 0.08109166
1064.80 0.081064
1064.90 0.08103635
1065.00 0.08100872
1065.10 0.08098109
1065.20 0.08095347
1065.30 0.08092585
1065.40 0.08089825
1065.50 0.08087066
1065.60 0.08084307
1065.70 0.08081549
1065.80 0.08078793
1065.90 0.08076037
1066.00 0.08073282
1066.10 0.08070528
1066.20 0.08067775
1066.30 0.08065022
1066.40 0.08062271
1066.50 0.0805952
1066.60 0.08056771
1066.70 0.08054022
1066.80 0.08051274
1066.90 0.08048527
1067.00 0.08045781
1067.10 0.08043036
1067.20 0.08040292
1067.30 0.08037548
1067.40 0.08034806
1067.50 0.08032064
1067.60 0.08029324
1067.70 0.08026584
1067.80 0.08023845
1067.90 0.08021116
1068.00 0.08018407
1068.10 0.080157
1068.20 0.08012993
1068.30 0.08010287
1068.40 0.08007581
1068.50 0.08004877
1068.60 0.08002174
1068.70 0.07999471
1068.80 0.07996769
1068.90 0.07994068
1069.00 0.07991368
1069.10 0.07988669
1069.20 0.07985971
1069.30 0.07983274
1069.40 0.07980577
1069.50 0.07977882
1069.60 0.07975187
1069.70 0.07972493
1069.80 0.079698
1069.90 0.07967108
1070.00 0.07964417
1070.10 0.07961726
1070.20 0.07959037
1070.30 0.07956348
1070.40 0.0795366
1070.50 0.07950973
1070.60 0.07948287
1070.70 0.07945602
1070.80 0.07942917
1070.90 0.07940234
1071.00 0.07937551
1071.10 0.0793487
1071.20 0.07932189
1071.30 0.07929509
1071.40 0.07926829
1071.50 0.07924151
1071.60 0.07921474
1071.70 0.07918797
1071.80 0.07916121
1071.90 0.07913446
1072.00 0.07910772
1072.10 0.07908099
1072.20 0.07905427
1072.30 0.07902756
1072.40 0.07900085
1072.50 0.07897415
1072.60 0.07894746
1072.70 0.07892078
1072.80 0.07889411
1072.90 0.07886745
1073.00 0.07884079
1073.10 0.07881415
1073.20 0.07878748
1073.30 0.07876069
1073.40 0.07873391
1073.50 0.07870713
1073.60 0.07868037
1073.70 0.07865361
1073.80 0.07862687
1073.90 0.07860013
1074.00 0.0785734
1074.10 0.07854668
1074.20 0.07851997
1074.30 0.07849326
1074.40 0.07846657
1074.50 0.07843988
1074.60 0.0784132
1074.70 0.07838653
1074.80 0.07835987
1074.90 0.07833322
1075.00 0.07830657
1075.10 0.07827994
1075.20 0.07825331
1075.30 0.07822669
1075.40 0.07820008
1075.50 0.07817348
1075.60 0.07814689
1075.70 0.0781203
1075.80 0.07809373
1075.90 0.07806716
1076.00 0.0780406
1076.10 0.07801405
1076.20 0.07798751
1076.30 0.07796098
1076.40 0.07793445
1076.50 0.07790794
1076.60 0.07788143
1076.70 0.07785493
1076.80 0.07782844
1076.90 0.07780196
1077.00 0.07777549
1077.10 0.07774902
1077.20 0.07772256
1077.30 0.07769612
1077.40 0.07766968
1077.50 0.07764325
1077.60 0.07761682
1077.70 0.07759041
1077.80 0.077564
1077.90 0.07753761
1078.00 0.07751122
1078.10 0.07748484
1078.20 0.07745846
1078.30 0.0774321
1078.40 0.07740575
1078.50 0.0773794
1078.60 0.07735322
1078.70 0.07732716
1078.80 0.07730112
1078.90 0.07727509
1079.00 0.07724906
1079.10 0.07722304
1079.20 0.07719703
1079.30 0.07717103
1079.40 0.07714504
1079.50 0.07711906
1079.60 0.07709308
1079.70 0.07706711
1079.80 0.07704115
1079.90 0.0770152
1080.00 0.07698926
1080.10 0.07696333
1080.20 0.0769374
1080.30 0.07691148
1080.40 0.07688557
1080.50 0.07685967
1080.60 0.07683378
1080.70 0.07680789
1080.80 0.07678202
1080.90 0.07675615
1081.00 0.07673029
1081.10 0.07670443
1081.20 0.07667859
1081.30 0.07665276
1081.40 0.07662693
1081.50 0.07660111
1081.60 0.0765753
1081.70 0.0765495
1081.80 0.0765237
1081.90 0.07649792
1082.00 0.07647214
1082.10 0.07644637
1082.20 0.07642061
1082.30 0.07639485
1082.40 0.07636911
1082.50 0.07634337
1082.60 0.07631764
1082.70 0.07629192
1082.80 0.07626621
1082.90 0.07624051
1083.00 0.07621481
1083.10 0.07618913
1083.20 0.07616345
1083.30 0.07613778
1083.40 0.07611211
1083.50 0.07608646
1083.60 0.07606081
1083.70 0.07603517
1083.80 0.07600954
1083.90 0.07598392
1084.00 0.07595841
1084.10 0.07593292
1084.20 0.07590744
1084.30 0.07588196
1084.40 0.0758565
1084.50 0.07583104
1084.60 0.07580559
1084.70 0.07578015
1084.80 0.07575471
1084.90 0.07572929
1085.00 0.07570387
1085.10 0.07567846
1085.20 0.07565306
1085.30 0.07562767
1085.40 0.07560228
1085.50 0.07557691
1085.60 0.07555154
1085.70 0.07552618
1085.80 0.07550082
1085.90 0.07547548
1086.00 0.07545014
1086.10 0.07542481
1086.20 0.07539949
1086.30 0.07537418
1086.40 0.07534888
1086.50 0.07532358
1086.60 0.07529829
1086.70 0.07527301
1086.80 0.07524774
1086.90 0.07522247
1087.00 0.07519722
1087.10 0.07517197
1087.20 0.07514673
1087.30 0.0751215
1087.40 0.07509627
1087.50 0.07507106
1087.60 0.07504585
1087.70 0.07502065
1087.80 0.07499545
1087.90 0.07497027
1088.00 0.07494509
1088.10 0.07491993
1088.20 0.07489477
1088.30 0.07486961
1088.40 0.07484447
1088.50 0.07481933
1088.60 0.0747942
1088.70 0.07476908
1088.80 0.07474397
1088.90 0.07471887
1089.00 0.07469377
1089.10 0.07466868
1089.20 0.0746436
1089.30 0.07461853
1089.40 0.07459346
1089.50 0.0745684
1089.60 0.07454335
1089.70 0.07451831
1089.80 0.07449327
1089.90 0.07446825
1090.00 0.07444323
1090.10 0.07441822
1090.20 0.07439321
1090.30 0.07436822
1090.40 0.07434323
1090.50 0.07431825
1090.60 0.07429328
1090.70 0.07426832
1090.80 0.07424336
1090.90 0.07421841
1091.00 0.07419347
1091.10 0.07416854
1091.20 0.07414362
1091.30 0.0741187
1091.40 0.07409379
1091.50 0.07406889
1091.60 0.074044
1091.70 0.07401911
1091.80 0.07399424
1091.90 0.07396937
1092.00 0.07394451
1092.10 0.07391965
1092.20 0.07389481
1092.30 0.07386997
1092.40 0.07384514
1092.50 0.07382032
1092.60 0.0737955
1092.70 0.0737707
1092.80 0.0737459
1092.90 0.07372111
1093.00 0.07369633
1093.10 0.07367155
1093.20 0.07364678
1093.30 0.07362202
1093.40 0.07359727
1093.50 0.07357253
1093.60 0.07354779
1093.70 0.07352307
1093.80 0.07349835
1093.90 0.07347363
1094.00 0.07344893
1094.10 0.07342423
1094.20 0.07339954
1094.30 0.07337486
1094.40 0.07335019
1094.50 0.07332552
1094.60 0.07330087
1094.70 0.07327622
1094.80 0.0732517
1094.90 0.07322731
1095.00 0.07320293
1095.10 0.07317855
1095.20 0.07315419
1095.30 0.07312983
1095.40 0.07310548
1095.50 0.07308114
1095.60 0.0730568
1095.70 0.07303247
1095.80 0.07300815
1095.90 0.07298384
1096.00 0.07295954
1096.10 0.07293524
1096.20 0.07291095
1096.30 0.07288667
1096.40 0.0728624
1096.50 0.07283813
1096.60 0.07281387
1096.70 0.07278962
1096.80 0.07276538
1096.90 0.07274114
1097.00 0.07271692
1097.10 0.0726927
1097.20 0.07266848
1097.30 0.07264428
1097.40 0.07262008
1097.50 0.07259589
1097.60 0.07257171
1097.70 0.07254753
1097.80 0.07252337
1097.90 0.07249921
1098.00 0.07247506
1098.10 0.07245091
1098.20 0.07242677
1098.30 0.07240265
1098.40 0.07237852
1098.50 0.07235441
1098.60 0.0723303
1098.70 0.07230621
1098.80 0.07228211
1098.90 0.07225803
1099.00 0.07223395
1099.10 0.07220989
1099.20 0.07218583
1099.30 0.07216177
1099.40 0.07213773
1099.50 0.07211369
1099.60 0.07208966
1099.70 0.07206563
1099.80 0.07204162
1099.90 0.07201761
1100.00 0.07199361
1100.10 0.07196962
1100.20 0.07194563
1100.30 0.07192165
1100.40 0.07189768
1100.50 0.07187372
1100.60 0.07184977
1100.70 0.07182582
1100.80 0.07180188
1100.90 0.07177795
1101.00 0.07175402
1101.10 0.0717301
1101.20 0.07170619
1101.30 0.07168229
1101.40 0.07165839
1101.50 0.07163451
1101.60 0.07161063
1101.70 0.07158675
1101.80 0.07156289
1101.90 0.07153903
1102.00 0.07151518
1102.10 0.07149134
1102.20 0.0714675
1102.30 0.07144367
1102.40 0.07141985
1102.50 0.07139604
1102.60 0.07137224
1102.70 0.07134844
1102.80 0.07132465
1102.90 0.07130086
1103.00 0.07127709
1103.10 0.07125332
1103.20 0.07122956
1103.30 0.07120581
1103.40 0.07118206
1103.50 0.07115832
1103.60 0.07113459
1103.70 0.07111087
1103.80 0.07108715
1103.90 0.07106344
1104.00 0.07103974
1104.10 0.07101605
1104.20 0.07099236
1104.30 0.07096868
1104.40 0.07094501
1104.50 0.07092135
1104.60 0.07089769
1104.70 0.07087404
1104.80 0.0708504
1104.90 0.07082676
1105.00 0.07080314
1105.10 0.07077952
1105.20 0.0707559
1105.30 0.0707323
1105.40 0.0707087
1105.50 0.07068511
1105.60 0.07066153
1105.70 0.07063796
1105.80 0.07061476
1105.90 0.07059156
1106.00 0.07056837
1106.10 0.07054519
1106.20 0.07052201
1106.30 0.07049884
1106.40 0.07047568
1106.50 0.07045253
1106.60 0.07042938
1106.70 0.07040624
1106.80 0.07038311
1106.90 0.07035999
1107.00 0.07033687
1107.10 0.07031376
1107.20 0.07029065
1107.30 0.07026756
1107.40 0.07024447
1107.50 0.07022139
1107.60 0.07019831
1107.70 0.07017525
1107.80 0.07015219
1107.90 0.07012913
1108.00 0.07010609
1108.10 0.07008305
1108.20 0.07006002
1108.30 0.07003699
1108.40 0.07001398
1108.50 0.06999097
1108.60 0.06996796
1108.70 0.06994497
1108.80 0.06992198
1108.90 0.069899
1109.00 0.06987603
1109.10 0.06985306
1109.20 0.0698301
1109.30 0.06980715
1109.40 0.0697842
1109.50 0.06976126
1109.60 0.06973833
1109.70 0.06971541
1109.80 0.06969249
1109.90 0.06966958
1110.00 0.06964668
1110.10 0.06962378
1110.20 0.06960089
1110.30 0.06957801
1110.40 0.06955514
1110.50 0.06953227
1110.60 0.06950941
1110.70 0.06948656
1110.80 0.06946371
1110.90 0.06944087
1111.00 0.06941804
1111.10 0.06939522
1111.20 0.0693724
1111.30 0.06934959
1111.40 0.06932679
1111.50 0.06930399
1111.60 0.0692812
1111.70 0.06925842
1111.80 0.06923565
1111.90 0.06921288
1112.00 0.06919012
1112.10 0.06916736
1112.20 0.06914462
1112.30 0.06912188
1112.40 0.06909914
1112.50 0.06907642
1112.60 0.0690537
1112.70 0.06903099
1112.80 0.06900829
1112.90 0.06898559
1113.00 0.0689629
1113.10 0.06894021
1113.20 0.06891754
1113.30 0.06889487
1113.40 0.06887221
1113.50 0.06884955
1113.60 0.0688269
1113.70 0.06880426
1113.80 0.06878163
1113.90 0.068759
1114.00 0.06873638
1114.10 0.06871377
1114.20 0.06869116
1114.30 0.06866856
1114.40 0.06864597
1114.50 0.06862339
1114.60 0.06860081
1114.70 0.06857824
1114.80 0.06855568
1114.90 0.06853312
1115.00 0.06851057
1115.10 0.06848803
1115.20 0.06846549
1115.30 0.06844296
1115.40 0.06842044
1115.50 0.06839792
1115.60 0.06837542
1115.70 0.06835291
1115.80 0.06833042
1115.90 0.06830793
1116.00 0.06828545
1116.10 0.06826298
1116.20 0.06824051
1116.30 0.06821805
1116.40 0.0681956
1116.50 0.06817316
1116.60 0.06815072
1116.70 0.06812829
1116.80 0.06810585
1116.90 0.06808341
1117.00 0.06806098
1117.10 0.06803855
1117.20 0.06801613
1117.30 0.06799372
1117.40 0.06797131
1117.50 0.06794891
1117.60 0.06792652
1117.70 0.06790413
1117.80 0.06788175
1117.90 0.06785938
1118.00 0.06783702
1118.10 0.06781466
1118.20 0.06779231
1118.30 0.06776996
1118.40 0.06774763
1118.50 0.0677253
1118.60 0.06770297
1118.70 0.06768066
1118.80 0.06765835
1118.90 0.06763605
1119.00 0.06761375
1119.10 0.06759146
1119.20 0.06756918
1119.30 0.0675469
1119.40 0.06752464
1119.50 0.06750237
1119.60 0.06748012
1119.70 0.06745787
1119.80 0.06743563
1119.90 0.0674134
1120.00 0.06739117
1120.10 0.06736895
1120.20 0.06734674
1120.30 0.06732453
1120.40 0.06730233
1120.50 0.06728014
1120.60 0.06725795
1120.70 0.06723577
1120.80 0.0672136
1120.90 0.06719144
1121.00 0.06716928
1121.10 0.06714713
1121.20 0.06712498
1121.30 0.06710284
1121.40 0.06708071
1121.50 0.06705859
1121.60 0.06703647
1121.70 0.06701436
1121.80 0.06699226
1121.90 0.06697016
1122.00 0.06694807
1122.10 0.06692599
1122.20 0.06690391
1122.30 0.06688184
1122.40 0.06685993
1122.50 0.06683812
1122.60 0.06681631
1122.70 0.06679452
1122.80 0.06677273
1122.90 0.06675094
1123.00 0.06672916
1123.10 0.06670739
1123.20 0.06668563
1123.30 0.06666387
1123.40 0.06664212
1123.50 0.06662038
1123.60 0.06659864
1123.70 0.06657691
1123.80 0.06655519
1123.90 0.06653347
1124.00 0.06651176
1124.10 0.06649006
1124.20 0.06646836
1124.30 0.06644667
1124.40 0.06642499
1124.50 0.06640331
1124.60 0.06638164
1124.70 0.06635998
1124.80 0.06633832
1124.90 0.06631667
1125.00 0.06629503
1125.10 0.06627339
1125.20 0.06625176
1125.30 0.06623014
1125.40 0.06620852
1125.50 0.06618691
1125.60 0.06616531
1125.70 0.06614371
1125.80 0.06612212
1125.90 0.06610053
1126.00 0.06607896
1126.10 0.06605739
1126.20 0.06603582
1126.30 0.06601427
1126.40 0.06599271
1126.50 0.06597117
1126.60 0.06594963
1126.70 0.0659281
1126.80 0.06590658
1126.90 0.06588506
1127.00 0.06586355
1127.10 0.06584204
1127.20 0.06582055
1127.30 0.06579906
1127.40 0.06577757
1127.50 0.06575609
1127.60 0.06573462
1127.70 0.06571316
1127.80 0.0656917
1127.90 0.06567025
1128.00 0.06564897
1128.10 0.06562775
1128.20 0.06560654
1128.30 0.06558534
1128.40 0.06556414
1128.50 0.06554295
1128.60 0.06552176
1128.70 0.06550058
1128.80 0.06547941
1128.90 0.06545824
1129.00 0.06543708
1129.10 0.06541593
1129.20 0.06539478
1129.30 0.06537364
1129.40 0.0653525
1129.50 0.06533138
1129.60 0.06531026
1129.70 0.06528914
1129.80 0.06526803
1129.90 0.06524693
1130.00 0.06522584
1130.10 0.06520475
1130.20 0.06518366
1130.30 0.06516259
1130.40 0.06514152
1130.50 0.06512045
1130.60 0.0650994
1130.70 0.06507835
1130.80 0.0650573
1130.90 0.06503627
1131.00 0.06501523
1131.10 0.06499421
1131.20 0.06497319
1131.30 0.06495218
1131.40 0.06493117
1131.50 0.06491018
1131.60 0.06488918
1131.70 0.0648682
1131.80 0.06484722
1131.90 0.06482624
1132.00 0.06480528
1132.10 0.06478432
1132.20 0.06476336
1132.30 0.06474241
1132.40 0.06472147
1132.50 0.06470054
1132.60 0.06467961
1132.70 0.06465869
1132.80 0.06463777
1132.90 0.06461686
1133.00 0.06459596
1133.10 0.06457506
1133.20 0.06455417
1133.30 0.06453329
1133.40 0.06451241
1133.50 0.06449154
1133.60 0.06447067
1133.70 0.06444981
1133.80 0.06442896
1133.90 0.06440811
1134.00 0.06438728
1134.10 0.06436644
1134.20 0.06434561
1134.30 0.06432479
1134.40 0.06430398
1134.50 0.06428317
1134.60 0.06426237
1134.70 0.06424158
1134.80 0.06422079
1134.90 0.0642
1135.00 0.06417923
1135.10 0.06415846
1135.20 0.06413769
1135.30 0.06411694
1135.40 0.06409619
1135.50 0.06407544
1135.60 0.0640547
1135.70 0.06403397
1135.80 0.06401325
1135.90 0.06399253
1136.00 0.06397181
1136.10 0.06395111
1136.20 0.06393041
1136.30 0.06390971
1136.40 0.06388902
1136.50 0.06386834
1136.60 0.06384767
1136.70 0.063827
1136.80 0.06380634
1136.90 0.06378568
1137.00 0.06376503
1137.10 0.06374439
1137.20 0.06372375
1137.30 0.06370312
1137.40 0.06368249
1137.50 0.06366187
1137.60 0.06364126
1137.70 0.06362065
1137.80 0.06360005
1137.90 0.06357946
1138.00 0.06355887
1138.10 0.06353829
1138.20 0.06351772
1138.30 0.06349715
1138.40 0.06347658
1138.50 0.06345603
1138.60 0.06343548
1138.70 0.06341493
1138.80 0.0633944
1138.90 0.06337387
1139.00 0.06335334
1139.10 0.06333282
1139.20 0.06331231
1139.30 0.06329189
1139.40 0.06327149
1139.50 0.06325108
1139.60 0.06323069
1139.70 0.0632103
1139.80 0.06318992
1139.90 0.06316954
1140.00 0.06314917
1140.10 0.0631288
1140.20 0.06310845
1140.30 0.06308809
1140.40 0.06306775
1140.50 0.06304741
1140.60 0.06302707
1140.70 0.06300675
1140.80 0.06298642
1140.90 0.06296611
1141.00 0.0629458
1141.10 0.0629255
1141.20 0.0629052
1141.30 0.06288491
1141.40 0.06286463
1141.50 0.06284435
1141.60 0.06282407
1141.70 0.06280381
1141.80 0.06278355
1141.90 0.0627633
1142.00 0.06274305
1142.10 0.06272281
1142.20 0.06270257
1142.30 0.06268234
1142.40 0.06266212
1142.50 0.0626419
1142.60 0.06262169
1142.70 0.06260149
1142.80 0.06258129
1142.90 0.06256109
1143.00 0.06254091
1143.10 0.06252073
1143.20 0.06250055
1143.30 0.06248038
1143.40 0.06246022
1143.50 0.06244007
1143.60 0.06241992
1143.70 0.06239977
1143.80 0.06237963
1143.90 0.0623595
1144.00 0.06233938
1144.10 0.06231926
1144.20 0.06229914
1144.30 0.06227904
1144.40 0.06225894
1144.50 0.06223884
1144.60 0.06221875
1144.70 0.06219867
1144.80 0.06217859
1144.90 0.06215852
1145.00 0.06213846
1145.10 0.0621184
1145.20 0.06209834
1145.30 0.0620783
1145.40 0.06205826
1145.50 0.06203822
1145.60 0.06201819
1145.70 0.06199817
1145.80 0.06197816
1145.90 0.06195815
1146.00 0.06193814
1146.10 0.06191814
1146.20 0.06189815
1146.30 0.06187816
1146.40 0.06185818
1146.50 0.06183821
1146.60 0.06181824
1146.70 0.06179828
1146.80 0.06177832
1146.90 0.06175837
1147.00 0.06173843
1147.10 0.06171849
1147.20 0.06169856
1147.30 0.06167863
1147.40 0.06165871
1147.50 0.0616388
1147.60 0.06161889
1147.70 0.06159899
1147.80 0.06157909
1147.90 0.0615592
1148.00 0.06153932
1148.10 0.06151944
1148.20 0.06149957
1148.30 0.0614797
1148.40 0.06145984
1148.50 0.06143999
1148.60 0.06142014
1148.70 0.0614003
1148.80 0.06138046
1148.90 0.06136063
1149.00 0.06134081
1149.10 0.06132099
1149.20 0.06130118
1149.30 0.06128137
1149.40 0.06126157
1149.50 0.06124178
1149.60 0.06122199
1149.70 0.06120221
1149.80 0.06118243
1149.90 0.06116266
1150.00 0.0611429
1150.10 0.06112314
1150.20 0.06110338
1150.30 0.06108364
1150.40 0.0610639
1150.50 0.06104416
1150.60 0.06102446
1150.70 0.06100517
1150.80 0.06098588
1150.90 0.0609666
1151.00 0.06094733
1151.10 0.06092806
1151.20 0.0609088
1151.30 0.06088954
1151.40 0.06087029
1151.50 0.06085105
1151.60 0.06083181
1151.70 0.06081257
1151.80 0.06079334
1151.90 0.06077412
1152.00 0.06075491
1152.10 0.0607357
1152.20 0.06071649
1152.30 0.06069729
1152.40 0.0606781
1152.50 0.06065891
1152.60 0.06063973
1152.70 0.06062055
1152.80 0.06060138
1152.90 0.06058222
1153.00 0.06056306
1153.10 0.06054391
1153.20 0.06052476
1153.30 0.06050562
1153.40 0.06048648
1153.50 0.06046735
1153.60 0.06044823
1153.70 0.06042911
1153.80 0.06040999
1153.90 0.06039089
1154.00 0.06037179
1154.10 0.06035269
1154.20 0.0603336
1154.30 0.06031452
1154.40 0.06029544
1154.50 0.06027636
1154.60 0.0602573
1154.70 0.06023823
1154.80 0.06021918
1154.90 0.06020013
1155.00 0.06018108
1155.10 0.06016204
1155.20 0.06014301
1155.30 0.06012398
1155.40 0.06010496
1155.50 0.06008595
1155.60 0.06006694
1155.70 0.06004793
1155.80 0.06002893
1155.90 0.06000994
1156.00 0.05999095
1156.10 0.05997197
1156.20 0.05995299
1156.30 0.05993402
1156.40 0.05991494
1156.50 0.05989575
1156.60 0.05987658
1156.70 0.0598574
1156.80 0.05983824
1156.90 0.05981908
1157.00 0.05979993
1157.10 0.05978078
1157.20 0.05976164
1157.30 0.0597425
1157.40 0.05972337
1157.50 0.05970424
1157.60 0.05968512
1157.70 0.05966601
1157.80 0.0596469
1157.90 0.0596278
1158.00 0.0596087
1158.10 0.05958961
1158.20 0.05957053
1158.30 0.05955145
1158.40 0.05953237
1158.50 0.0595133
1158.60 0.05949424
1158.70 0.05947518
1158.80 0.05945613
1158.90 0.05943709
1159.00 0.05941805
1159.10 0.05939901
1159.20 0.05937998
1159.30 0.05936096
1159.40 0.05934195
1159.50 0.05932293
1159.60 0.05930393
1159.70 0.05928493
1159.80 0.05926593
1159.90 0.05924695
1160.00 0.05922796
1160.10 0.05920898
1160.20 0.05919001
1160.30 0.05917105
1160.40 0.05915209
1160.50 0.05913313
1160.60 0.05911418
1160.70 0.05909524
1160.80 0.0590763
1160.90 0.05905737
1161.00 0.05903844
1161.10 0.05901952
1161.20 0.05900061
1161.30 0.0589817
1161.40 0.05896279
1161.50 0.0589439
1161.60 0.058925
1161.70 0.05890612
1161.80 0.05888723
1161.90 0.05886836
1162.00 0.05884949
1162.10 0.05883062
1162.20 0.05881207
1162.30 0.05879352
1162.40 0.05877498
1162.50 0.05875645
1162.60 0.05873791
1162.70 0.05871939
1162.80 0.05870087
1162.90 0.05868236
1163.00 0.05866385
1163.10 0.05864534
1163.20 0.05862685
1163.30 0.05860835
1163.40 0.05858987
1163.50 0.05857139
1163.60 0.05855291
1163.70 0.05853444
1163.80 0.05851597
1163.90 0.05849751
1164.00 0.05847906
1164.10 0.05846061
1164.20 0.05844217
1164.30 0.05842373
1164.40 0.0584053
1164.50 0.05838687
1164.60 0.05836845
1164.70 0.05835004
1164.80 0.05833163
1164.90 0.05831322
1165.00 0.05829482
1165.10 0.05827643
1165.20 0.05825804
1165.30 0.05823966
1165.40 0.05822128
1165.50 0.05820291
1165.60 0.05818454
1165.70 0.05816618
1165.80 0.05814782
1165.90 0.05812947
1166.00 0.05811113
1166.10 0.05809279
1166.20 0.05807446
1166.30 0.05805613
1166.40 0.05803781
1166.50 0.05801949
1166.60 0.05800118
1166.70 0.05798287
1166.80 0.05796457
1166.90 0.05794627
1167.00 0.05792798
1167.10 0.0579097
1167.20 0.05789142
1167.30 0.05787314
1167.40 0.05785487
1167.50 0.05783661
1167.60 0.05781835
1167.70 0.0578001
1167.80 0.05778185
1167.90 0.05776361
1168.00 0.05774538
1168.10 0.05772715
1168.20 0.05770892
1168.30 0.0576907
1168.40 0.05767249
1168.50 0.05765428
1168.60 0.05763608
1168.70 0.05761788
1168.80 0.05759969
1168.90 0.0575815
1169.00 0.05756332
1169.10 0.05754515
1169.20 0.05752698
1169.30 0.05750881
1169.40 0.05749065
1169.50 0.0574725
1169.60 0.05745435
1169.70 0.05743621
1169.80 0.05741807
1169.90 0.05739993
1170.00 0.05738181
1170.10 0.05736369
1170.20 0.05734557
1170.30 0.05732746
1170.40 0.05730935
1170.50 0.05729125
1170.60 0.05727316
1170.70 0.05725507
1170.80 0.05723698
1170.90 0.0572189
1171.00 0.05720083
1171.10 0.05718276
1171.20 0.0571647
1171.30 0.05714664
1171.40 0.05712859
1171.50 0.05711054
1171.60 0.0570925
1171.70 0.05707446
1171.80 0.05705643
1171.90 0.0570384
1172.00 0.05702038
1172.10 0.05700237
1172.20 0.05698436
1172.30 0.05696635
1172.40 0.05694835
1172.50 0.05693036
1172.60 0.05691237
1172.70 0.05689439
1172.80 0.05687641
1172.90 0.05685844
1173.00 0.05684047
1173.10 0.05682251
1173.20 0.05680455
1173.30 0.0567866
1173.40 0.05676865
1173.50 0.05675071
1173.60 0.05673278
1173.70 0.05671484
1173.80 0.05669715
1173.90 0.05667953
1174.00 0.05666191
1174.10 0.0566443
1174.20 0.05662669
1174.30 0.05660908
1174.40 0.05659148
1174.50 0.05657389
1174.60 0.0565563
1174.70 0.05653872
1174.80 0.05652114
1174.90 0.05650357
1175.00 0.056486
1175.10 0.05646844
1175.20 0.05645088
1175.30 0.05643333
1175.40 0.05641578
1175.50 0.05639824
1175.60 0.05638071
1175.70 0.05636317
1175.80 0.05634565
1175.90 0.05632813
1176.00 0.05631061
1176.10 0.0562931
1176.20 0.05627559
1176.30 0.05625809
1176.40 0.0562406
1176.50 0.05622311
1176.60 0.05620562
1176.70 0.05618814
1176.80 0.05617067
1176.90 0.0561532
1177.00 0.05613573
1177.10 0.05611828
1177.20 0.05610082
1177.30 0.05608337
1177.40 0.05606593
1177.50 0.05604849
1177.60 0.05603105
1177.70 0.05601363
1177.80 0.0559962
1177.90 0.05597878
1178.00 0.05596137
1178.10 0.05594396
1178.20 0.05592656
1178.30 0.05590916
1178.40 0.05589177
1178.50 0.05587438
1178.60 0.055857
1178.70 0.05583962
1178.80 0.05582225
1178.90 0.05580488
1179.00 0.05578752
1179.10 0.05577016
1179.20 0.05575281
1179.30 0.05573546
1179.40 0.05571812
1179.50 0.05570078
1179.60 0.05568342
1179.70 0.05566589
1179.80 0.05564835
1179.90 0.05563082
1180.00 0.0556133
1180.10 0.05559578
1180.20 0.05557827
1180.30 0.05556076
1180.40 0.05554326
1180.50 0.05552576
1180.60 0.05550827
1180.70 0.05549078
1180.80 0.0554733
1180.90 0.05545582
1181.00 0.05543835
1181.10 0.05542088
1181.20 0.05540342
1181.30 0.05538597
1181.40 0.05536851
1181.50 0.05535107
1181.60 0.05533363
1181.70 0.05531619
1181.80 0.05529876
1181.90 0.05528133
1182.00 0.05526391
1182.10 0.0552465
1182.20 0.05522909
1182.30 0.05521168
1182.40 0.05519428
1182.50 0.05517689
1182.60 0.0551595
1182.70 0.05514211
1182.80 0.05512473
1182.90 0.05510736
1183.00 0.05508999
1183.10 0.05507262
1183.20 0.05505526
1183.30 0.05503791
1183.40 0.05502056
1183.50 0.05500321
1183.60 0.05498587
1183.70 0.05496854
1183.80 0.05495121
1183.90 0.05493389
1184.00 0.05491657
1184.10 0.05489925
1184.20 0.05488194
1184.30 0.05486464
1184.40 0.05484734
1184.50 0.05483005
1184.60 0.05481276
1184.70 0.05479547
1184.80 0.0547782
1184.90 0.05476092
1185.00 0.05474365
1185.10 0.05472639
1185.20 0.05470913
1185.30 0.05469188
1185.40 0.05467463
1185.50 0.05465751
1185.60 0.05464056
1185.70 0.05462361
1185.80 0.05460667
1185.90 0.05458973
1186.00 0.0545728
1186.10 0.05455588
1186.20 0.05453896
1186.30 0.05452204
1186.40 0.05450513
1186.50 0.05448822
1186.60 0.05447132
1186.70 0.05445442
1186.80 0.05443753
1186.90 0.05442065
1187.00 0.05440376
1187.10 0.05438689
1187.20 0.05437001
1187.30 0.05435315
1187.40 0.05433629
1187.50 0.05431943
1187.60 0.05430258
1187.70 0.05428573
1187.80 0.05426889
1187.90 0.05425205
1188.00 0.05423522
1188.10 0.05421839
1188.20 0.05420156
1188.30 0.05418475
1188.40 0.05416793
1188.50 0.05415113
1188.60 0.05413432
1188.70 0.05411752
1188.80 0.05410073
1188.90 0.05408394
1189.00 0.05406716
1189.10 0.05405038
1189.20 0.0540336
1189.30 0.05401684
1189.40 0.05400007
1189.50 0.05398331
1189.60 0.05396656
1189.70 0.05394981
1189.80 0.05393306
1189.90 0.05391632
1190.00 0.05389959
1190.10 0.05388286
1190.20 0.05386613
1190.30 0.05384941
1190.40 0.0538327
1190.50 0.05381598
1190.60 0.05379928
1190.70 0.05378258
1190.80 0.05376588
1190.90 0.05374919
1191.00 0.0537325
1191.10 0.05371582
1191.20 0.05369914
1191.30 0.05368247
1191.40 0.05366581
1191.50 0.05364914
1191.60 0.05363249
1191.70 0.05361583
1191.80 0.05359918
1191.90 0.05358254
1192.00 0.0535659
1192.10 0.05354927
1192.20 0.05353264
1192.30 0.05351602
1192.40 0.0534994
1192.50 0.05348279
1192.60 0.05346618
1192.70 0.05344957
1192.80 0.05343297
1192.90 0.05341638
1193.00 0.05339979
1193.10 0.0533832
1193.20 0.05336662
1193.30 0.05335005
1193.40 0.05333348
1193.50 0.05331691
1193.60 0.05330035
1193.70 0.05328379
1193.80 0.05326724
1193.90 0.05325069
1194.00 0.05323415
1194.10 0.05321761
1194.20 0.05320108
1194.30 0.05318455
1194.40 0.05316803
1194.50 0.05315151
1194.60 0.053135
1194.70 0.05311849
1194.80 0.05310199
1194.90 0.05308549
1195.00 0.053069
1195.10 0.05305251
1195.20 0.05303602
1195.30 0.05301954
1195.40 0.05300307
1195.50 0.0529866
1195.60 0.05297013
1195.70 0.05295367
1195.80 0.05293722
1195.90 0.05292076
1196.00 0.05290432
1196.10 0.05288788
1196.20 0.05287144
1196.30 0.05285501
1196.40 0.05283858
1196.50 0.05282216
1196.60 0.05280574
1196.70 0.05278933
1196.80 0.05277292
1196.90 0.05275651
1197.00 0.05274012
1197.10 0.05272372
1197.20 0.05270733
1197.30 0.05269095
1197.40 0.05267463
1197.50 0.05265833
1197.60 0.05264204
1197.70 0.05262575
1197.80 0.05260947
1197.90 0.05259318
1198.00 0.05257691
1198.10 0.05256064
1198.20 0.05254437
1198.30 0.05252811
1198.40 0.05251185
1198.50 0.0524956
1198.60 0.05247935
1198.70 0.05246311
1198.80 0.05244687
1198.90 0.05243064
1199.00 0.05241441
1199.10 0.05239819
1199.20 0.05238197
1199.30 0.05236575
1199.40 0.05234954
1199.50 0.05233334
1199.60 0.05231714
1199.70 0.05230094
1199.80 0.05228475
1199.90 0.05226856
1200.00 0.05225238
