# Version 2.1 - nm, norm@500 to 1, cut digits, bergeron_He_5250_80.dat_5250
# Wavelength(nm)  Flambda(ergs/cm^s/s/nm)
300.00 0.2196259
300.10 0.2200731
300.20 0.2205227
300.30 0.2209706
300.40 0.2214115
300.50 0.2218517
300.60 0.2222913
300.70 0.2227302
300.80 0.2231685
300.90 0.2236062
301.00 0.2240433
301.10 0.2244797
301.20 0.2249155
301.30 0.2253507
301.40 0.2257852
301.50 0.2262191
301.60 0.2266524
301.70 0.2270851
301.80 0.2275171
301.90 0.2279485
302.00 0.2283793
302.10 0.2288214
302.20 0.229264
302.30 0.2297061
302.40 0.2301475
302.50 0.2305883
302.60 0.2310285
302.70 0.231468
302.80 0.2319069
302.90 0.2323451
303.00 0.2327828
303.10 0.2332198
303.20 0.2336561
303.30 0.2340929
303.40 0.2345381
303.50 0.2349826
303.60 0.2354265
303.70 0.2358698
303.80 0.2363124
303.90 0.2367544
304.00 0.2371958
304.10 0.2376365
304.20 0.2380767
304.30 0.2385161
304.40 0.238955
304.50 0.2393932
304.60 0.2398491
304.70 0.2403064
304.80 0.240763
304.90 0.2412189
305.00 0.2416743
305.10 0.2421289
305.20 0.2425829
305.30 0.2430363
305.40 0.243489
305.50 0.2439411
305.60 0.2443925
305.70 0.2448433
305.80 0.2452935
305.90 0.245743
306.00 0.2461919
306.10 0.2466401
306.20 0.2470877
306.30 0.2475347
306.40 0.2479943
306.50 0.2484573
306.60 0.2489196
306.70 0.2493813
306.80 0.2498423
306.90 0.2503027
307.00 0.2507624
307.10 0.2512214
307.20 0.2516798
307.30 0.2521376
307.40 0.2525947
307.50 0.2530512
307.60 0.253507
307.70 0.2539621
307.80 0.2544166
307.90 0.2548705
308.00 0.2553238
308.10 0.2557764
308.20 0.2562283
308.30 0.2566796
308.40 0.2571303
308.50 0.2575803
308.60 0.2580297
308.70 0.2584785
308.80 0.2589353
308.90 0.259416
309.00 0.2598742
309.10 0.2603318
309.20 0.2607888
309.30 0.2612451
309.40 0.2617024
309.50 0.262169
309.60 0.2626349
309.70 0.2631001
309.80 0.2635647
309.90 0.2640286
310.00 0.2644919
310.10 0.2649545
310.20 0.2654165
310.30 0.2658778
310.40 0.266338
310.50 0.2667969
310.60 0.2672551
310.70 0.2677127
310.80 0.2681697
310.90 0.268626
311.00 0.2690997
311.10 0.2695728
311.20 0.2700453
311.30 0.2705171
311.40 0.2709887
311.50 0.2714596
311.60 0.2719299
311.70 0.2723995
311.80 0.2728684
311.90 0.2733367
312.00 0.2738044
312.10 0.2742713
312.20 0.2747547
312.30 0.2752407
312.40 0.27571
312.50 0.2761703
312.60 0.2766369
312.70 0.2771029
312.80 0.2775683
312.90 0.2780376
313.00 0.2785114
313.10 0.2789844
313.20 0.2794568
313.30 0.2799302
313.40 0.2804075
313.50 0.2808841
313.60 0.2813601
313.70 0.2818354
313.80 0.28231
313.90 0.282784
314.00 0.2832573
314.10 0.2837359
314.20 0.2842138
314.30 0.284691
314.40 0.2851676
314.50 0.2856435
314.60 0.2861187
314.70 0.2865933
314.80 0.2870635
314.90 0.2875392
315.00 0.2880322
315.10 0.2885156
315.20 0.2889983
315.30 0.2894803
315.40 0.2899617
315.50 0.2904423
315.60 0.2909224
315.70 0.2913958
315.80 0.2918685
315.90 0.2923407
316.00 0.2928121
316.10 0.2933006
316.20 0.2937885
316.30 0.2942757
316.40 0.2947622
316.50 0.295248
316.60 0.2957332
316.70 0.2962176
316.80 0.2967015
316.90 0.2971846
317.00 0.2976671
317.10 0.2981489
317.20 0.29863
317.30 0.2991295
317.40 0.2996214
317.50 0.3000927
317.60 0.3005635
317.70 0.3010335
317.80 0.3015029
317.90 0.3020053
318.00 0.3024928
318.10 0.3029854
318.20 0.3034774
318.30 0.3039688
318.40 0.3044548
318.50 0.3049273
318.60 0.3054083
318.70 0.3059143
318.80 0.3063779
318.90 0.3068547
319.00 0.3073588
319.10 0.3078621
319.20 0.3083609
319.30 0.3088482
319.40 0.3093348
319.50 0.3098207
319.60 0.3102953
319.70 0.3107799
319.80 0.3112638
319.90 0.311747
320.00 0.3122366
320.10 0.3127332
320.20 0.3132214
320.30 0.3137243
320.40 0.3142326
320.50 0.3147126
320.60 0.3152058
320.70 0.3156983
320.80 0.3161901
320.90 0.3166812
321.00 0.3171717
321.10 0.3176615
321.20 0.3181405
321.30 0.3186432
321.40 0.3191453
321.50 0.3196466
321.60 0.3201472
321.70 0.3206472
321.80 0.3211441
321.90 0.3216377
322.00 0.3221422
322.10 0.3226389
322.20 0.3231348
322.30 0.3236301
322.40 0.3241247
322.50 0.3246187
322.60 0.3251119
322.70 0.3256045
322.80 0.3260817
322.90 0.3265799
323.00 0.3270775
323.10 0.3275744
323.20 0.3280706
323.30 0.3285662
323.40 0.329061
323.50 0.3295552
323.60 0.3300487
323.70 0.3305416
323.80 0.3310338
323.90 0.3315253
324.00 0.3320246
324.10 0.3325232
324.20 0.3330212
324.30 0.333538
324.40 0.3340731
324.50 0.3345683
324.60 0.3350627
324.70 0.3355566
324.80 0.3360497
324.90 0.3365422
325.00 0.337034
325.10 0.3375251
325.20 0.3380238
325.30 0.3385394
325.40 0.3390542
325.50 0.3395617
325.60 0.3400603
325.70 0.3405583
325.80 0.3410555
325.90 0.3415548
326.00 0.3420564
326.10 0.3425572
326.20 0.3430574
326.30 0.3435647
326.40 0.3440933
326.50 0.3446013
326.60 0.3451087
326.70 0.3456153
326.80 0.3461213
326.90 0.3466266
327.00 0.3471312
327.10 0.3476352
327.20 0.3481384
327.30 0.348641
327.40 0.3491429
327.50 0.3496441
327.60 0.3501447
327.70 0.3506445
327.80 0.3511437
327.90 0.351638
328.00 0.3521364
328.10 0.3526453
328.20 0.3531536
328.30 0.3536611
328.40 0.354168
328.50 0.3546739
328.60 0.3551791
328.70 0.3556836
328.80 0.3561892
328.90 0.3566993
329.00 0.3572087
329.10 0.3577174
329.20 0.3582254
329.30 0.3587328
329.40 0.3592395
329.50 0.3597455
329.60 0.3602508
329.70 0.3607554
329.80 0.3612594
329.90 0.3617626
330.00 0.3622723
330.10 0.3627901
330.20 0.3633071
330.30 0.3638234
330.40 0.3643389
330.50 0.3648537
330.60 0.3653678
330.70 0.3658812
330.80 0.366394
330.90 0.366906
331.00 0.3674174
331.10 0.367928
331.20 0.368438
331.30 0.3689473
331.40 0.3694559
331.50 0.3699613
331.60 0.3704629
331.70 0.3709639
331.80 0.3714782
331.90 0.3719925
332.00 0.372506
332.10 0.3730189
332.20 0.3735311
332.30 0.3740426
332.40 0.3745534
332.50 0.3750636
332.60 0.375573
332.70 0.3760818
332.80 0.3765899
332.90 0.3770974
333.00 0.3776041
333.10 0.3781167
333.20 0.3786366
333.30 0.3791558
333.40 0.3796743
333.50 0.3801921
333.60 0.3807092
333.70 0.3812256
333.80 0.3817414
333.90 0.3822564
334.00 0.3827708
334.10 0.3832836
334.20 0.3837944
334.30 0.3843047
334.40 0.3848142
334.50 0.3853231
334.60 0.3858312
334.70 0.3863351
334.80 0.3868414
334.90 0.387358
335.00 0.3878739
335.10 0.3883925
335.20 0.3889176
335.30 0.3894563
335.40 0.3899485
335.50 0.3904952
335.60 0.390994
335.70 0.3915188
335.80 0.3920084
335.90 0.3925114
336.00 0.3930311
336.10 0.39355
336.20 0.3940683
336.30 0.3945859
336.40 0.3951028
336.50 0.395619
336.60 0.3961345
336.70 0.3966494
336.80 0.3971635
336.90 0.3976806
337.00 0.3982015
337.10 0.3987216
337.20 0.3992411
337.30 0.3997629
337.40 0.4002884
337.50 0.4008133
337.60 0.4013374
337.70 0.4018609
337.80 0.4023837
337.90 0.4029046
338.00 0.4034236
338.10 0.4039419
338.20 0.4044595
338.30 0.4049764
338.40 0.4054938
338.50 0.4060134
338.60 0.4065324
338.70 0.4070506
338.80 0.4075682
338.90 0.408085
339.00 0.4086012
339.10 0.4091167
339.20 0.4096316
339.30 0.410145
339.40 0.4106566
339.50 0.4111725
339.60 0.4116938
339.70 0.4122144
339.80 0.4127342
339.90 0.4132535
340.00 0.413772
340.10 0.4142898
340.20 0.414807
340.30 0.4153235
340.40 0.4158393
340.50 0.4163544
340.60 0.4168688
340.70 0.4173826
340.80 0.417904
340.90 0.4184367
341.00 0.418965
341.10 0.4194884
341.20 0.420011
341.30 0.420533
341.40 0.4210543
341.50 0.4215749
341.60 0.4220948
341.70 0.422614
341.80 0.4231348
341.90 0.4236576
342.00 0.4241797
342.10 0.4247011
342.20 0.4252194
342.30 0.4257487
342.40 0.4262779
342.50 0.4267994
342.60 0.4273201
342.70 0.4278402
342.80 0.4283596
342.90 0.4288784
343.00 0.4293997
343.10 0.4299242
343.20 0.4304481
343.30 0.4309713
343.40 0.4314929
343.50 0.4320125
343.60 0.4325314
343.70 0.4330496
343.80 0.4335671
343.90 0.434084
344.00 0.4346042
344.10 0.4351297
344.20 0.4356545
344.30 0.4361786
344.40 0.4367021
344.50 0.4372248
344.60 0.4377347
344.70 0.4382263
344.80 0.4387768
344.90 0.4392671
345.00 0.4398284
345.10 0.4403471
345.20 0.4408694
345.30 0.4413972
345.40 0.4419243
345.50 0.4424326
345.60 0.4429345
345.70 0.443459
345.80 0.4439829
345.90 0.444506
346.00 0.4450285
346.10 0.4455503
346.20 0.4460723
346.30 0.4465947
346.40 0.4471165
346.50 0.4476376
346.60 0.448158
346.70 0.4486777
346.80 0.4491967
346.90 0.4497151
347.00 0.4502328
347.10 0.4507499
347.20 0.4512722
347.30 0.4518024
347.40 0.4523319
347.50 0.4528607
347.60 0.4533889
347.70 0.4539164
347.80 0.4544432
347.90 0.4549693
348.00 0.4554947
348.10 0.4560195
348.20 0.4565435
348.30 0.4570669
348.40 0.4575897
348.50 0.4581117
348.60 0.4586331
348.70 0.4591488
348.80 0.4596669
348.90 0.4601913
349.00 0.460715
349.10 0.461238
349.20 0.4617604
349.30 0.4622821
349.40 0.4628031
349.50 0.4633234
349.60 0.4638431
349.70 0.4643621
349.80 0.4648804
349.90 0.4653981
350.00 0.4659151
350.10 0.4664314
350.20 0.466947
350.30 0.4674673
350.40 0.4679945
350.50 0.4685209
350.60 0.4690467
350.70 0.4695719
350.80 0.4700963
350.90 0.4706201
351.00 0.4711432
351.10 0.4716656
351.20 0.4721874
351.30 0.4727085
351.40 0.47323
351.50 0.4737527
351.60 0.4742747
351.70 0.474796
351.80 0.4753167
351.90 0.4758367
352.00 0.4763561
352.10 0.4768748
352.20 0.4774076
352.30 0.477938
352.40 0.478463
352.50 0.4789874
352.60 0.4795111
352.70 0.4800341
352.80 0.4805564
352.90 0.4810781
353.00 0.4815991
353.10 0.4821195
353.20 0.4826391
353.30 0.4831582
353.40 0.4836765
353.50 0.4841947
353.60 0.4847123
353.70 0.4852292
353.80 0.4857455
353.90 0.4862657
354.00 0.4867935
354.10 0.4873206
354.20 0.487847
354.30 0.4883727
354.40 0.4888977
354.50 0.4894221
354.60 0.4899458
354.70 0.4904689
354.80 0.4909882
354.90 0.4915026
355.00 0.4920163
355.10 0.4925293
355.20 0.4930417
355.30 0.4935717
355.40 0.4941011
355.50 0.4946298
355.60 0.4951578
355.70 0.4956765
355.80 0.4961908
355.90 0.4967068
356.00 0.4972319
356.10 0.4977577
356.20 0.4982828
356.30 0.4988072
356.40 0.4993309
356.50 0.499854
356.60 0.5003764
356.70 0.5008982
356.80 0.5014193
356.90 0.5019397
357.00 0.5024595
357.10 0.5029786
357.20 0.5034971
357.30 0.5040148
357.40 0.5045296
357.50 0.5050395
357.60 0.5055487
357.70 0.5060573
357.80 0.5065797
357.90 0.5071013
358.00 0.5076229
358.10 0.508144
358.20 0.5086645
358.30 0.5091843
358.40 0.5097034
358.50 0.5102219
358.60 0.5107397
358.70 0.5112569
358.80 0.5117734
358.90 0.5122892
359.00 0.5128091
359.10 0.5133368
359.20 0.5138623
359.30 0.5143773
359.40 0.5148917
359.50 0.5154076
359.60 0.5159235
359.70 0.5164387
359.80 0.5169603
359.90 0.5174813
360.00 0.5180004
360.10 0.5185167
360.20 0.5190324
360.30 0.5195474
360.40 0.5200617
360.50 0.5205754
360.60 0.5211291
360.70 0.5216436
360.80 0.5221575
360.90 0.5226707
361.00 0.5231741
361.10 0.5237039
361.20 0.5242167
361.30 0.5247082
361.40 0.5252318
361.50 0.5257546
361.60 0.5262768
361.70 0.5267984
361.80 0.5273162
361.90 0.527828
362.00 0.5283391
362.10 0.5288684
362.20 0.5293946
362.30 0.5299075
362.40 0.5304197
362.50 0.5309313
362.60 0.5314422
362.70 0.5319683
362.80 0.5324707
362.90 0.5329804
363.00 0.5334895
363.10 0.5340055
363.20 0.534521
363.30 0.5350329
363.40 0.5355434
363.50 0.5360533
363.60 0.5365625
363.70 0.5371604
363.80 0.537579
363.90 0.5380481
364.00 0.5385166
364.10 0.5389844
364.20 0.5394517
364.30 0.5400201
364.40 0.5406133
364.50 0.5413905
364.60 0.541802
364.70 0.542213
364.80 0.5426234
364.90 0.5431243
365.00 0.5436247
365.10 0.5443902
365.20 0.5448891
365.30 0.5453874
365.40 0.5456197
365.50 0.5461168
365.60 0.5466134
365.70 0.5472779
365.80 0.5479417
365.90 0.5485404
366.00 0.5491224
366.10 0.5496019
366.20 0.5500808
366.30 0.5505591
366.40 0.5510368
366.50 0.5513126
366.60 0.552072
366.70 0.5525694
366.80 0.5530663
366.90 0.5535821
367.00 0.5541321
367.10 0.5546814
367.20 0.5552301
367.30 0.5557781
367.40 0.5563254
367.50 0.5566589
367.60 0.5569388
367.70 0.5574635
367.80 0.5579876
367.90 0.558511
368.00 0.5591301
368.10 0.5596044
368.20 0.5601208
368.30 0.5606383
368.40 0.5611552
368.50 0.5616714
368.60 0.562187
368.70 0.562702
368.80 0.5632163
368.90 0.5637699
369.00 0.5643404
369.10 0.5648968
369.20 0.5651193
369.30 0.5656793
369.40 0.5662386
369.50 0.5667972
369.60 0.5672649
369.70 0.5677319
369.80 0.5682645
369.90 0.5687972
370.00 0.5693292
370.10 0.5696172
370.20 0.5703334
370.30 0.571059
370.40 0.5712775
370.50 0.5717371
370.60 0.5724541
370.70 0.5729317
370.80 0.573392
370.90 0.5738517
371.00 0.5743185
371.10 0.5747848
371.20 0.5752427
371.30 0.5757001
371.40 0.5762215
371.50 0.5767719
371.60 0.5773216
371.70 0.5778707
371.80 0.5784191
371.90 0.5789668
372.00 0.5794688
372.10 0.5798886
372.20 0.5804296
372.30 0.5809699
372.40 0.5815096
372.50 0.5820486
372.60 0.582587
372.70 0.5831247
372.80 0.5835729
372.90 0.5840206
373.00 0.5844753
373.10 0.5849295
373.20 0.5853793
373.30 0.5858285
373.40 0.5865313
373.50 0.5869792
373.60 0.5874266
373.70 0.5881271
373.80 0.5885416
373.90 0.5890188
374.00 0.5894638
374.10 0.5899083
374.20 0.5903522
374.30 0.5907955
374.40 0.5914278
374.50 0.5921734
374.60 0.5926214
374.70 0.5930642
374.80 0.5935063
374.90 0.593948
375.00 0.5944711
375.10 0.5949936
375.20 0.5955155
375.30 0.5959888
375.40 0.5964615
375.50 0.5969337
375.60 0.5974052
375.70 0.5978762
375.80 0.5983466
375.90 0.5988164
376.00 0.5994905
376.10 0.599938
376.20 0.6003828
376.30 0.6008269
376.40 0.6012705
376.50 0.6017534
376.60 0.6022953
376.70 0.6028366
376.80 0.6033542
376.90 0.6038481
377.00 0.6043413
377.10 0.604834
377.20 0.6053183
377.30 0.6057729
377.40 0.6062269
377.50 0.6066803
377.60 0.6072234
377.70 0.6077658
377.80 0.6083076
377.90 0.6088487
378.00 0.609528
378.10 0.6100129
378.20 0.6104931
378.30 0.6109728
378.40 0.6114519
378.50 0.6119303
378.60 0.6124082
378.70 0.6128855
378.80 0.6133622
378.90 0.6138143
379.00 0.6142214
379.10 0.6146863
379.20 0.6151507
379.30 0.6156971
379.40 0.6163254
379.50 0.616953
379.60 0.6173644
379.70 0.6175414
379.80 0.618053
379.90 0.6185639
380.00 0.6190742
380.10 0.6195839
380.20 0.620093
380.30 0.6206015
380.40 0.6211093
380.50 0.6216165
380.60 0.6221433
380.70 0.6227055
380.80 0.623267
380.90 0.6238279
381.00 0.624388
381.10 0.6246703
381.20 0.6251419
381.30 0.6255384
381.40 0.6262643
381.50 0.6266851
381.60 0.6271331
381.70 0.6275765
381.80 0.628094
381.90 0.6284939
382.00 0.6288934
382.10 0.629535
382.20 0.6299818
382.30 0.6303796
382.40 0.6308169
382.50 0.6313136
382.60 0.6318098
382.70 0.6323862
382.80 0.6329489
382.90 0.633407
383.00 0.6338646
383.10 0.6343216
383.20 0.6347806
383.30 0.6352489
383.40 0.6358102
383.50 0.6365112
383.60 0.6367352
383.70 0.6372278
383.80 0.6377198
383.90 0.6382112
384.00 0.6387019
384.10 0.6391921
384.20 0.6396817
384.30 0.6401707
384.40 0.6406396
384.50 0.6410886
384.60 0.641537
384.70 0.6419848
384.80 0.6425019
384.90 0.6431785
385.00 0.6436652
385.10 0.6441523
385.20 0.6446199
385.30 0.6450123
385.40 0.6454301
385.50 0.6458734
385.60 0.6463161
385.70 0.6467583
385.80 0.6472122
385.90 0.6477117
386.00 0.6482993
386.10 0.64895
386.20 0.6493478
386.30 0.649745
386.40 0.6503658
386.50 0.6507786
386.60 0.6511183
386.70 0.6516109
386.80 0.6522213
386.90 0.6527127
387.00 0.6532153
387.10 0.6535872
387.20 0.654053
387.30 0.6543296
387.40 0.6550469
387.50 0.6554779
387.60 0.6558372
387.70 0.656324
387.80 0.6568102
387.90 0.6572958
388.00 0.6578377
388.10 0.6582817
388.20 0.6587889
388.30 0.6593449
388.40 0.6599002
388.50 0.6604301
388.60 0.6608738
388.70 0.6612937
388.80 0.6616433
388.90 0.6620351
389.00 0.6624356
389.10 0.6629809
389.20 0.6633223
389.30 0.6638459
389.40 0.6644636
389.50 0.6650114
389.60 0.6654039
389.70 0.6657207
389.80 0.6662517
389.90 0.666782
390.00 0.6673117
390.10 0.6678408
390.20 0.6683693
390.30 0.66884
390.40 0.6692458
390.50 0.6696511
390.60 0.670056
390.70 0.6704603
390.80 0.6708839
390.90 0.6713267
391.00 0.671902
391.10 0.6724581
391.20 0.6729561
391.30 0.6733424
391.40 0.6738465
391.50 0.6743499
391.60 0.6748528
391.70 0.675355
391.80 0.6758567
391.90 0.6761628
392.00 0.6764757
392.10 0.6771284
392.20 0.6777609
392.30 0.6781189
392.40 0.6784053
392.50 0.6790355
392.60 0.6793793
392.70 0.6797226
392.80 0.6802148
392.90 0.6806695
393.00 0.6812994
393.10 0.6817823
393.20 0.6821226
393.30 0.682692
393.40 0.6831783
393.50 0.6836597
393.60 0.6841367
393.70 0.6844236
393.80 0.6850516
393.90 0.6853889
394.00 0.6857305
394.10 0.686208
394.20 0.6867858
394.30 0.6872966
394.40 0.6875384
394.50 0.6880253
394.60 0.6884394
394.70 0.6888682
394.80 0.6893535
394.90 0.6898422
395.00 0.6904383
395.10 0.6907953
395.20 0.6912906
395.30 0.6918272
395.40 0.6923632
395.50 0.69279
395.60 0.6931761
395.70 0.6935935
395.80 0.6940966
395.90 0.6945991
396.00 0.6950738
396.10 0.6953689
396.20 0.6959208
396.30 0.696533
396.40 0.6968581
396.50 0.697256
396.60 0.6978788
396.70 0.6981352
396.80 0.6986245
396.90 0.6991184
397.00 0.6996206
397.10 0.7000172
397.20 0.7004644
397.30 0.7009997
397.40 0.7013525
397.50 0.7017049
397.60 0.7020649
397.70 0.7025063
397.80 0.7029471
397.90 0.703389
398.00 0.7038344
398.10 0.7042793
398.20 0.7047791
398.30 0.7053406
398.40 0.7058946
398.50 0.7062269
398.60 0.7067581
398.70 0.7071776
398.80 0.7075505
398.90 0.7080148
399.00 0.7086491
399.10 0.7088124
399.20 0.7092733
399.30 0.7097336
399.40 0.7101934
399.50 0.7106526
399.60 0.7111372
399.70 0.7116308
399.80 0.7121238
399.90 0.7126162
400.00 0.7131031
400.10 0.7134277
400.20 0.7140079
400.30 0.7143426
400.40 0.7146847
400.50 0.7152795
400.60 0.7155672
400.70 0.7160928
400.80 0.7164148
400.90 0.717011
401.00 0.7174896
401.10 0.7176891
401.20 0.7183198
401.30 0.7188091
401.40 0.7192675
401.50 0.7197234
401.60 0.7201745
401.70 0.7204916
401.80 0.7210045
401.90 0.7215226
402.00 0.7218073
402.10 0.722309
402.20 0.722826
402.30 0.7231564
402.40 0.7237193
402.50 0.7239361
402.60 0.7244743
402.70 0.7249651
402.80 0.7252604
402.90 0.7258171
403.00 0.7263297
403.10 0.7265799
403.20 0.7271115
403.30 0.7274212
403.40 0.7279252
403.50 0.7283625
403.60 0.728768
403.70 0.7292048
403.80 0.7297352
403.90 0.7301143
404.00 0.7305426
404.10 0.7307997
404.20 0.7313057
404.30 0.731811
404.40 0.7321188
404.50 0.7326034
404.60 0.7331071
404.70 0.7333939
404.80 0.7339217
404.90 0.7343985
405.00 0.7348071
405.10 0.7351541
405.20 0.735562
405.30 0.7359695
405.40 0.7363969
405.50 0.7368239
405.60 0.7372504
405.70 0.7376763
405.80 0.7381017
405.90 0.7385267
406.00 0.7390279
406.10 0.7395286
406.20 0.7400287
406.30 0.7405282
406.40 0.7410012
406.50 0.741282
406.60 0.7417727
406.70 0.7421577
406.80 0.742462
406.90 0.7430565
407.00 0.7434614
407.10 0.7438659
407.20 0.7442699
407.30 0.7446734
407.40 0.7450764
407.50 0.7454789
407.60 0.7458809
407.70 0.7462825
407.80 0.7466836
407.90 0.7470891
408.00 0.7476534
408.10 0.7480311
408.20 0.7483296
408.30 0.7487939
408.40 0.7492576
408.50 0.7495396
408.60 0.750054
408.70 0.7505678
408.80 0.7510378
408.90 0.7512359
409.00 0.7516818
409.10 0.752127
409.20 0.7525718
409.30 0.753016
409.40 0.7534578
409.50 0.7538365
409.60 0.7542147
409.70 0.7545989
409.80 0.7550085
409.90 0.7554189
410.00 0.755869
410.10 0.7562027
410.20 0.7566325
410.30 0.7570859
410.40 0.7575408
410.50 0.7580018
410.60 0.7584623
410.70 0.7589264
410.80 0.759407
410.90 0.7598871
411.00 0.7602672
411.10 0.7606101
411.20 0.7609525
411.30 0.7612954
411.40 0.7616462
411.50 0.7621634
411.60 0.7626799
411.70 0.763144
411.80 0.7634002
411.90 0.7637397
412.00 0.7644127
412.10 0.7646677
412.20 0.7649223
412.30 0.7655276
412.40 0.7658774
412.50 0.7664279
412.60 0.7666511
412.70 0.7670461
412.80 0.7674836
412.90 0.7677662
413.00 0.7683718
413.10 0.7687414
413.20 0.7691106
413.30 0.7694792
413.40 0.7698475
413.50 0.77024
413.60 0.7707223
413.70 0.7711779
413.80 0.7716329
413.90 0.7720874
414.00 0.7724918
414.10 0.7727386
414.20 0.7730843
414.30 0.773702
414.40 0.7739889
414.50 0.7742246
414.60 0.7748419
414.70 0.7752924
414.80 0.7757176
414.90 0.7760642
415.00 0.7764103
415.10 0.776756
415.20 0.777113
415.30 0.7775068
415.40 0.7779001
415.50 0.778292
415.60 0.7786528
415.70 0.7790131
415.80 0.7793909
415.90 0.7798247
416.00 0.7802581
416.10 0.7806864
416.20 0.7810961
416.30 0.7815054
416.40 0.7819142
416.50 0.7823235
416.60 0.7827646
416.70 0.7832113
416.80 0.7834516
416.90 0.7838717
417.00 0.7844266
417.10 0.784555
417.20 0.7849933
417.30 0.7854324
417.40 0.7859185
417.50 0.786404
417.60 0.7868556
417.70 0.7871747
417.80 0.7875422
417.90 0.7879093
418.00 0.7882759
418.10 0.7886421
418.20 0.7890078
418.30 0.7893816
418.40 0.7899625
418.50 0.7903319
418.60 0.7907008
418.70 0.7910693
418.80 0.7914374
418.90 0.791805
419.00 0.7921721
419.10 0.7925389
419.20 0.7929051
419.30 0.79327
419.40 0.7936036
419.50 0.7939367
419.60 0.7942904
419.70 0.7947275
419.80 0.795164
419.90 0.7955934
420.00 0.7960015
420.10 0.7964092
420.20 0.7968164
420.30 0.7972231
420.40 0.7976293
420.50 0.798035
420.60 0.7984403
420.70 0.7988451
420.80 0.7992494
420.90 0.7996513
421.00 0.7999906
421.10 0.8003294
421.20 0.8006735
421.30 0.8010338
421.40 0.8013938
421.50 0.8017533
421.60 0.8021123
421.70 0.802471
421.80 0.8028292
421.90 0.8031971
422.00 0.8035968
422.10 0.8039905
422.20 0.8043622
422.30 0.8047334
422.40 0.8051045
422.50 0.8054857
422.60 0.8058665
422.70 0.8062468
422.80 0.8066267
422.90 0.8070061
423.00 0.807385
423.10 0.8077636
423.20 0.8081416
423.30 0.8085193
423.40 0.8088964
423.50 0.8092732
423.60 0.8096495
423.70 0.8100253
423.80 0.8104007
423.90 0.8107756
424.00 0.8111501
424.10 0.8115242
424.20 0.8118978
424.30 0.812271
424.40 0.8124851
424.50 0.8128571
424.60 0.8132286
424.70 0.8135997
424.80 0.8139704
424.90 0.8143406
425.00 0.8147104
425.10 0.8150798
425.20 0.8154487
425.30 0.8158172
425.40 0.8161853
425.50 0.8165534
425.60 0.8169211
425.70 0.8172883
425.80 0.8176552
425.90 0.8180216
426.00 0.8183875
426.10 0.818753
426.20 0.8191181
426.30 0.8194828
426.40 0.819847
426.50 0.8202108
426.60 0.8205741
426.70 0.8209371
426.80 0.8212996
426.90 0.821662
427.00 0.8220357
427.10 0.8224089
427.20 0.8227817
427.30 0.823154
427.40 0.8235259
427.50 0.8238974
427.60 0.8242684
427.70 0.824639
427.80 0.8250092
427.90 0.8253789
428.00 0.8257482
428.10 0.8261171
428.20 0.8264855
428.30 0.8268535
428.40 0.827221
428.50 0.8275881
428.60 0.8279548
428.70 0.8283211
428.80 0.8286861
428.90 0.8290393
429.00 0.8293922
429.10 0.8297446
429.20 0.8300966
429.30 0.8304482
429.40 0.8307994
429.50 0.8311501
429.60 0.8315005
429.70 0.8318504
429.80 0.8321999
429.90 0.832549
430.00 0.8328977
430.10 0.8332459
430.20 0.8335938
430.30 0.8339412
430.40 0.8342882
430.50 0.8346349
430.60 0.8349811
430.70 0.8353268
430.80 0.8356722
430.90 0.8360172
431.00 0.8363617
431.10 0.8367059
431.20 0.8370496
431.30 0.8373938
431.40 0.8377481
431.50 0.838102
431.60 0.8384555
431.70 0.8388086
431.80 0.8391613
431.90 0.8395136
432.00 0.8398654
432.10 0.8402168
432.20 0.8405678
432.30 0.8409184
432.40 0.8412686
432.50 0.8416184
432.60 0.8419677
432.70 0.8423167
432.80 0.8426652
432.90 0.8430133
433.00 0.843361
433.10 0.8437083
433.20 0.8440552
433.30 0.8444016
433.40 0.844747
433.50 0.8450919
433.60 0.8454364
433.70 0.8457805
433.80 0.8460719
433.90 0.846299
434.00 0.8466072
434.10 0.8469649
434.20 0.8473222
434.30 0.8476791
434.40 0.8480355
434.50 0.8483916
434.60 0.8487472
434.70 0.8491024
434.80 0.8494553
434.90 0.8497822
435.00 0.8501088
435.10 0.850435
435.20 0.8507608
435.30 0.8510862
435.40 0.8514112
435.50 0.8517359
435.60 0.8520601
435.70 0.852384
435.80 0.8527075
435.90 0.8530306
436.00 0.8533533
436.10 0.8536756
436.20 0.8539975
436.30 0.8543624
436.40 0.8547749
436.50 0.8551223
436.60 0.8554692
436.70 0.8558157
436.80 0.8561618
436.90 0.8565076
437.00 0.8568529
437.10 0.8571978
437.20 0.857474
437.30 0.8576869
437.40 0.857909
437.50 0.8582573
437.60 0.8586053
437.70 0.8589528
437.80 0.8592999
437.90 0.8596466
438.00 0.8599905
438.10 0.8603026
438.20 0.8606143
438.30 0.861124
438.40 0.861374
438.50 0.8617183
438.60 0.862075
438.70 0.8622344
438.80 0.8627615
438.90 0.8629202
439.00 0.8634336
439.10 0.8637754
439.20 0.8641104
439.30 0.8643597
439.40 0.8646086
439.50 0.8648573
439.60 0.8651073
439.70 0.86539
439.80 0.8657119
439.90 0.8660709
440.00 0.8664294
440.10 0.8667875
440.20 0.8671438
440.30 0.867481
440.40 0.8678178
440.50 0.8681543
440.60 0.8684903
440.70 0.868826
440.80 0.8691613
440.90 0.8694961
441.00 0.8698306
441.10 0.8701647
441.20 0.8704946
441.30 0.870774
441.40 0.8710293
441.50 0.8712551
441.60 0.8714807
441.70 0.8717469
441.80 0.8720729
441.90 0.8723985
442.00 0.8727238
442.10 0.8730486
442.20 0.8733731
442.30 0.8736971
442.40 0.874018
442.50 0.8743349
442.60 0.8746515
442.70 0.8750095
442.80 0.8754193
442.90 0.8756931
443.00 0.8760023
443.10 0.876355
443.20 0.876681
443.30 0.8769824
443.40 0.8772944
443.50 0.8776193
443.60 0.8776649
443.70 0.8781692
443.80 0.8783132
443.90 0.8788166
444.00 0.8788791
444.10 0.879202
444.20 0.8795604
444.30 0.8799304
444.40 0.8802192
444.50 0.8805077
444.60 0.8808223
444.70 0.8811689
444.80 0.8814952
444.90 0.8818027
445.00 0.8821098
445.10 0.8824166
445.20 0.8827052
445.30 0.8829717
445.40 0.8832379
445.50 0.8835038
445.60 0.8837693
445.70 0.8840345
445.80 0.8843199
445.90 0.8846239
446.00 0.8849275
446.10 0.8852308
446.20 0.8855747
446.30 0.8859348
446.40 0.8862181
446.50 0.8865321
446.60 0.8868457
446.70 0.887159
446.80 0.8874719
446.90 0.8877844
447.00 0.8881888
447.10 0.8883233
447.20 0.8887056
447.30 0.8889458
447.40 0.8893415
447.50 0.8896518
447.60 0.889957
447.70 0.8902572
447.80 0.8905427
447.90 0.8908772
448.00 0.8911674
448.10 0.8914167
448.20 0.8916657
448.30 0.8919144
448.40 0.8921628
448.50 0.8924109
448.60 0.8926966
448.70 0.8930171
448.80 0.8933349
448.90 0.893622
449.00 0.8939088
449.10 0.8941952
449.20 0.8944813
449.30 0.8948103
449.40 0.8951196
449.50 0.8954285
449.60 0.8957331
449.70 0.8960337
449.80 0.896334
449.90 0.896634
450.00 0.8969335
450.10 0.8972328
450.20 0.8975316
450.30 0.8978302
450.40 0.898072
450.50 0.8983135
450.60 0.8985547
450.70 0.8987956
450.80 0.8990361
450.90 0.8992764
451.00 0.8995801
451.10 0.8998834
451.20 0.9001598
451.30 0.9004665
451.40 0.9007632
451.50 0.9010595
451.60 0.9013554
451.70 0.901651
451.80 0.9019463
451.90 0.9022412
452.00 0.9025357
452.10 0.9028299
452.20 0.9031238
452.30 0.9034173
452.40 0.9037104
452.50 0.9040032
452.60 0.904305
452.70 0.9045603
452.80 0.9047725
452.90 0.9049845
453.00 0.9051962
453.10 0.9054076
453.20 0.9056929
453.30 0.9059778
453.40 0.9062624
453.50 0.9065467
453.60 0.9068306
453.70 0.9071142
453.80 0.9074042
453.90 0.9077024
454.00 0.9080001
454.10 0.9082975
454.20 0.9085872
454.30 0.9088764
454.40 0.9091654
454.50 0.909454
454.60 0.9097422
454.70 0.9100112
454.80 0.9102624
454.90 0.9105133
455.00 0.9107639
455.10 0.9110141
455.20 0.9112641
455.30 0.9115138
455.40 0.9117631
455.50 0.9120122
455.60 0.9122609
455.70 0.9125094
455.80 0.9128406
455.90 0.9131714
456.00 0.9135019
456.10 0.9138144
456.20 0.914079
456.30 0.9143433
456.40 0.9146073
456.50 0.9148709
456.60 0.9151342
456.70 0.9153972
456.80 0.9156599
456.90 0.9159223
457.00 0.9161843
457.10 0.916446
457.20 0.9167021
457.30 0.9169652
457.40 0.917228
457.50 0.9174905
457.60 0.9177526
457.70 0.9180145
457.80 0.918276
457.90 0.9185372
458.00 0.9187981
458.10 0.9190587
458.20 0.9193189
458.30 0.9195789
458.40 0.9198385
458.50 0.9200978
458.60 0.9203568
458.70 0.9206076
458.80 0.9208549
458.90 0.9211019
459.00 0.9213486
459.10 0.9215949
459.20 0.921841
459.30 0.922096
459.40 0.9223507
459.50 0.9226051
459.60 0.9228592
459.70 0.923113
459.80 0.9233664
459.90 0.9236196
460.00 0.9238724
460.10 0.924125
460.20 0.9243772
460.30 0.9246292
460.40 0.9248808
460.50 0.9251321
460.60 0.9253831
460.70 0.9256477
460.80 0.9259189
460.90 0.9261897
461.00 0.9264602
461.10 0.9267304
461.20 0.9268949
461.30 0.9270161
461.40 0.9272795
461.50 0.9275782
461.60 0.9278765
461.70 0.9281745
461.80 0.9284237
461.90 0.9286726
462.00 0.9289211
462.10 0.9291694
462.20 0.9294173
462.30 0.929665
462.40 0.9299124
462.50 0.9301594
462.60 0.9304062
462.70 0.9306526
462.80 0.9308988
462.90 0.9311446
463.00 0.9313902
463.10 0.9316355
463.20 0.9318621
463.30 0.932081
463.40 0.9322996
463.50 0.9325179
463.60 0.932736
463.70 0.9329538
463.80 0.9331713
463.90 0.933414
464.00 0.9336626
464.10 0.933911
464.20 0.9341591
464.30 0.9344069
464.40 0.9346544
464.50 0.9349016
464.60 0.9351485
464.70 0.9353919
464.80 0.9356337
464.90 0.9358752
465.00 0.9361163
465.10 0.9363572
465.20 0.9365979
465.30 0.9368249
465.40 0.9370429
465.50 0.9372606
465.60 0.937478
465.70 0.9376951
465.80 0.937912
465.90 0.9381441
466.00 0.9383798
466.10 0.9386152
466.20 0.9388504
466.30 0.9390954
466.40 0.9393443
466.50 0.9395929
466.60 0.9398412
466.70 0.9400892
466.80 0.9403369
466.90 0.9405843
467.00 0.9408314
467.10 0.9410782
467.20 0.9413247
467.30 0.9413633
467.40 0.9415416
467.50 0.9417759
467.60 0.9420099
467.70 0.9422436
467.80 0.942477
467.90 0.9427182
468.00 0.9429625
468.10 0.9432065
468.20 0.9434501
468.30 0.9436935
468.40 0.9439366
468.50 0.944294
468.60 0.9443681
468.70 0.9445287
468.80 0.9448533
468.90 0.945193
469.00 0.9454045
469.10 0.9455729
469.20 0.9457332
469.30 0.9458933
469.40 0.9460532
469.50 0.9462571
469.60 0.9464788
469.70 0.9467002
469.80 0.9469213
469.90 0.947184
470.00 0.947481
470.10 0.9477123
470.20 0.947962
470.30 0.9482115
470.40 0.9484606
470.50 0.9487095
470.60 0.9488846
470.70 0.9490412
470.80 0.9491976
470.90 0.9493538
471.00 0.9497659
471.10 0.9498667
471.20 0.950172
471.30 0.9502474
471.40 0.9506416
471.50 0.9507165
471.60 0.9509825
471.70 0.9512163
471.80 0.9514498
471.90 0.9516831
472.00 0.9519161
472.10 0.9521487
472.20 0.9523722
472.30 0.952593
472.40 0.9528137
472.50 0.953034
472.60 0.9532541
472.70 0.9532789
472.80 0.9534526
472.90 0.9536832
473.00 0.9539135
473.10 0.9541435
473.20 0.9543732
473.30 0.9546027
473.40 0.9548318
473.50 0.9550607
473.60 0.9552893
473.70 0.9555177
473.80 0.9557346
473.90 0.9559485
474.00 0.9561621
474.10 0.9563755
474.20 0.9565868
474.30 0.9567972
474.40 0.9570072
474.50 0.957217
474.60 0.9574258
474.70 0.9576264
474.80 0.9578268
474.90 0.9580269
475.00 0.9582267
475.10 0.9584263
475.20 0.9586256
475.30 0.9588247
475.40 0.9590069
475.50 0.9591847
475.60 0.9593623
475.70 0.9595396
475.80 0.9597167
475.90 0.9598936
476.00 0.9600703
476.10 0.9602467
476.20 0.960461
476.30 0.9606906
476.40 0.9609199
476.50 0.961149
476.60 0.9613778
476.70 0.9616063
476.80 0.9618346
476.90 0.9620398
477.00 0.962239
477.10 0.9624381
477.20 0.9626368
477.30 0.9628353
477.40 0.9630336
477.50 0.9632316
477.60 0.9634294
477.70 0.9636269
477.80 0.9638241
477.90 0.9640212
478.00 0.9642179
478.10 0.9644144
478.20 0.9646107
478.30 0.9648067
478.40 0.9650025
478.50 0.965198
478.60 0.9653933
478.70 0.9656233
478.80 0.9658674
478.90 0.9660238
479.00 0.9661582
479.10 0.9662923
479.20 0.9664263
479.30 0.9665601
479.40 0.9667301
479.50 0.9669213
479.60 0.9671123
479.70 0.9673031
479.80 0.9674935
479.90 0.9676838
480.00 0.9678738
480.10 0.9680636
480.20 0.9682531
480.30 0.9684424
480.40 0.9686314
480.50 0.9688202
480.60 0.9690088
480.70 0.9691971
480.80 0.9693852
480.90 0.969573
481.00 0.9697606
481.10 0.969948
481.20 0.9701329
481.30 0.9703176
481.40 0.970502
481.50 0.9706862
481.60 0.9708702
481.70 0.9710539
481.80 0.9712374
481.90 0.9714206
482.00 0.9716036
482.10 0.9717864
482.20 0.9719689
482.30 0.9721505
482.40 0.9723319
482.50 0.972513
482.60 0.9726939
482.70 0.9728746
482.80 0.973055
482.90 0.9732352
483.00 0.9734152
483.10 0.9735949
483.20 0.9737744
483.30 0.9739537
483.40 0.9741327
483.50 0.9743115
483.60 0.9744901
483.70 0.9747159
483.80 0.9749413
483.90 0.9751665
484.00 0.9753915
484.10 0.9756161
484.20 0.9757772
484.30 0.9759109
484.40 0.9760445
484.50 0.9761778
484.60 0.976311
484.70 0.9764484
484.80 0.9766439
484.90 0.9768393
485.00 0.9770344
485.10 0.9772293
485.20 0.9774239
485.30 0.9776182
485.40 0.9778124
485.50 0.9780063
485.60 0.9781999
485.70 0.9783743
485.80 0.9785485
485.90 0.9787224
486.00 0.9788962
486.10 0.9790697
486.20 0.9792429
486.30 0.979416
486.40 0.9795888
486.50 0.9797614
486.60 0.9799338
486.70 0.9801017
486.80 0.9802134
486.90 0.9803249
487.00 0.9804363
487.10 0.9805474
487.20 0.9807186
487.30 0.9808895
487.40 0.9810601
487.50 0.9812306
487.60 0.9814008
487.70 0.9815709
487.80 0.9817407
487.90 0.9819102
488.00 0.9820796
488.10 0.9822487
488.20 0.9824187
488.30 0.9826026
488.40 0.9827862
488.50 0.9829696
488.60 0.9831528
488.70 0.9833357
488.80 0.9834786
488.90 0.9836213
489.00 0.9837709
489.10 0.9839383
489.20 0.9841056
489.30 0.9842726
489.40 0.9844394
489.50 0.9846059
489.60 0.9847723
489.70 0.9849384
489.80 0.9851638
489.90 0.9852858
490.00 0.9854076
490.10 0.9855292
490.20 0.9856507
490.30 0.985772
490.40 0.9859593
490.50 0.9861464
490.60 0.9863333
490.70 0.98652
490.80 0.9867449
490.90 0.9868925
491.00 0.9869315
491.10 0.9871173
491.20 0.9873028
491.30 0.9873413
491.40 0.9875649
491.50 0.9877114
491.60 0.9880629
491.70 0.9881821
491.80 0.988303
491.90 0.9884486
492.00 0.9886324
492.10 0.9887208
492.20 0.9888785
492.30 0.9890872
492.40 0.989111
492.50 0.9892555
492.60 0.9894788
492.70 0.9896611
492.80 0.9898431
492.90 0.9900248
493.00 0.9902018
493.10 0.9903176
493.20 0.9904332
493.30 0.9905486
493.40 0.9906639
493.50 0.990779
493.60 0.9909973
493.70 0.9911383
493.80 0.9912791
493.90 0.9914273
494.00 0.9915871
494.10 0.9917441
494.20 0.9918954
494.30 0.9920466
494.40 0.9921976
494.50 0.9923483
494.60 0.9924938
494.70 0.9925726
494.80 0.9926649
494.90 0.9927963
495.00 0.9929276
495.10 0.9930586
495.20 0.9932248
495.30 0.9933907
495.40 0.9935565
495.50 0.993722
495.60 0.9938874
495.70 0.9940525
495.80 0.9942174
495.90 0.9943821
496.00 0.9945465
496.10 0.9946774
496.20 0.9947444
496.30 0.994909
496.40 0.9950735
496.50 0.9952378
496.60 0.9954018
496.70 0.9955125
496.80 0.9956229
496.90 0.9957332
497.00 0.9958434
497.10 0.9959533
497.20 0.9960631
497.30 0.9961922
497.40 0.9963762
497.50 0.99656
497.60 0.9967032
497.70 0.996766
497.80 0.9969015
497.90 0.9970369
498.00 0.9971721
498.10 0.9973071
498.20 0.9974419
498.30 0.9975766
498.40 0.997711
498.50 0.9978453
498.60 0.9979793
498.70 0.998149
498.80 0.9983185
498.90 0.9984599
499.00 0.9986011
499.10 0.9987421
499.20 0.9988815
499.30 0.9990195
499.40 0.9991619
499.50 0.9993042
499.60 0.9994463
499.70 0.9995879
499.80 0.9997255
499.90 0.9998628
500.00 1
500.10 1.000137
500.20 1.000268
500.30 1.000387
500.40 1.000507
500.50 1.000625
500.60 1.000744
500.70 1.000863
500.80 1.000979
500.90 1.001089
501.00 1.0012
501.10 1.001311
501.20 1.001374
501.30 1.001538
501.40 1.001748
501.50 1.001771
501.60 1.001822
501.70 1.002098
501.80 1.002076
501.90 1.00224
502.00 1.002383
502.10 1.002483
502.20 1.002593
502.30 1.002836
502.40 1.003038
502.50 1.003154
502.60 1.003269
502.70 1.003384
502.80 1.003499
502.90 1.003613
503.00 1.003718
503.10 1.003802
503.20 1.003885
503.30 1.003969
503.40 1.004067
503.50 1.004209
503.60 1.00435
503.70 1.004491
503.80 1.004623
503.90 1.004689
504.00 1.004783
504.10 1.004933
504.20 1.005084
504.30 1.005235
504.40 1.005387
504.50 1.005545
504.60 1.005559
504.70 1.005758
504.80 1.005826
504.90 1.005796
505.00 1.006056
505.10 1.006213
505.20 1.006354
505.30 1.006449
505.40 1.006544
505.50 1.006638
505.60 1.006736
505.70 1.006841
505.80 1.006946
505.90 1.00705
506.00 1.007154
506.10 1.007259
506.20 1.007369
506.30 1.007497
506.40 1.007624
506.50 1.007752
506.60 1.007879
506.70 1.008006
506.80 1.008133
506.90 1.00826
507.00 1.008386
507.10 1.008511
507.20 1.008628
507.30 1.00873
507.40 1.008831
507.50 1.008932
507.60 1.009033
507.70 1.009134
507.80 1.009235
507.90 1.009335
508.00 1.009436
508.10 1.009536
508.20 1.009636
508.30 1.009736
508.40 1.009836
508.50 1.009935
508.60 1.010035
508.70 1.010134
508.80 1.010241
508.90 1.010316
509.00 1.010371
509.10 1.010448
509.20 1.010572
509.30 1.010697
509.40 1.010821
509.50 1.010945
509.60 1.011068
509.70 1.011192
509.80 1.011315
509.90 1.011438
510.00 1.011561
510.10 1.011684
510.20 1.011807
510.30 1.01192
510.40 1.012007
510.50 1.012094
510.60 1.012181
510.70 1.012267
510.80 1.012354
510.90 1.01244
511.00 1.012526
511.10 1.012612
511.20 1.012698
511.30 1.012784
511.40 1.012869
511.50 1.012955
511.60 1.013046
511.70 1.013148
511.80 1.01325
511.90 1.013353
512.00 1.013454
512.10 1.013556
512.20 1.013658
512.30 1.013759
512.40 1.013857
512.50 1.013955
512.60 1.014052
512.70 1.01415
512.80 1.014247
512.90 1.014345
513.00 1.014442
513.10 1.014539
513.20 1.014636
513.30 1.014733
513.40 1.014829
513.50 1.014925
513.60 1.015022
513.70 1.015118
513.80 1.015214
513.90 1.01531
514.00 1.015405
514.10 1.0155
514.20 1.015596
514.30 1.015691
514.40 1.015786
514.50 1.01588
514.60 1.015975
514.70 1.016069
514.80 1.016164
514.90 1.016258
515.00 1.016352
515.10 1.016446
515.20 1.01654
515.30 1.016633
515.40 1.016726
515.50 1.01682
515.60 1.016913
515.70 1.017006
515.80 1.017099
515.90 1.017191
516.00 1.017284
516.10 1.017376
516.20 1.017468
516.30 1.017561
516.40 1.017652
516.50 1.017743
516.60 1.017824
516.70 1.017905
516.80 1.017987
516.90 1.018068
517.00 1.018149
517.10 1.018229
517.20 1.01831
517.30 1.018391
517.40 1.018471
517.50 1.018551
517.60 1.018631
517.70 1.018711
517.80 1.018791
517.90 1.018871
518.00 1.01895
518.10 1.01903
518.20 1.019109
518.30 1.019188
518.40 1.019267
518.50 1.019346
518.60 1.019425
518.70 1.019503
518.80 1.019582
518.90 1.01966
519.00 1.019738
519.10 1.019814
519.20 1.019887
519.30 1.01996
519.40 1.020033
519.50 1.020106
519.60 1.020178
519.70 1.020251
519.80 1.020323
519.90 1.020395
520.00 1.020467
520.10 1.020539
520.20 1.020611
520.30 1.020683
520.40 1.020754
520.50 1.020826
520.60 1.020897
520.70 1.020968
520.80 1.021039
520.90 1.02111
521.00 1.021181
521.10 1.021251
521.20 1.021322
521.30 1.021392
521.40 1.021462
521.50 1.021533
521.60 1.021603
521.70 1.021672
521.80 1.021742
521.90 1.021812
522.00 1.021881
522.10 1.02195
522.20 1.02202
522.30 1.022089
522.40 1.022158
522.50 1.022227
522.60 1.022295
522.70 1.022364
522.80 1.022432
522.90 1.022501
523.00 1.022569
523.10 1.022637
523.20 1.022705
523.30 1.022773
523.40 1.02284
523.50 1.022908
523.60 1.022975
523.70 1.023043
523.80 1.02311
523.90 1.023177
524.00 1.023244
524.10 1.02331
524.20 1.023377
524.30 1.023444
524.40 1.023511
524.50 1.023578
524.60 1.023644
524.70 1.023711
524.80 1.023777
524.90 1.023843
525.00 1.02391
525.10 1.023976
525.20 1.024042
525.30 1.024107
525.40 1.024173
525.50 1.024238
525.60 1.024304
525.70 1.024369
525.80 1.024434
525.90 1.024499
526.00 1.024564
526.10 1.024629
526.20 1.024694
526.30 1.024758
526.40 1.024823
526.50 1.024887
526.60 1.024951
526.70 1.025015
526.80 1.025079
526.90 1.025143
527.00 1.025206
527.10 1.02527
527.20 1.025333
527.30 1.025397
527.40 1.02546
527.50 1.025523
527.60 1.025586
527.70 1.025649
527.80 1.025711
527.90 1.025774
528.00 1.025837
528.10 1.025899
528.20 1.025961
528.30 1.026023
528.40 1.026085
528.50 1.026147
528.60 1.026209
528.70 1.02627
528.80 1.026332
528.90 1.026393
529.00 1.026455
529.10 1.026516
529.20 1.026577
529.30 1.026638
529.40 1.026698
529.50 1.026758
529.60 1.026809
529.70 1.02686
529.80 1.026911
529.90 1.026962
530.00 1.027013
530.10 1.027063
530.20 1.027114
530.30 1.027164
530.40 1.027214
530.50 1.027265
530.60 1.027315
530.70 1.027365
530.80 1.027415
530.90 1.027464
531.00 1.027514
531.10 1.027564
531.20 1.027613
531.30 1.027662
531.40 1.027712
531.50 1.027761
531.60 1.02781
531.70 1.027858
531.80 1.027907
531.90 1.027956
532.00 1.028004
532.10 1.028053
532.20 1.028095
532.30 1.028134
532.40 1.028173
532.50 1.028212
532.60 1.02825
532.70 1.028289
532.80 1.028327
532.90 1.028366
533.00 1.028404
533.10 1.028442
533.20 1.02848
533.30 1.028518
533.40 1.028556
533.50 1.028593
533.60 1.028631
533.70 1.028669
533.80 1.028706
533.90 1.028743
534.00 1.02878
534.10 1.028818
534.20 1.028855
534.30 1.028892
534.40 1.028928
534.50 1.028965
534.60 1.029002
534.70 1.029038
534.80 1.029076
534.90 1.029117
535.00 1.029158
535.10 1.029199
535.20 1.02924
535.30 1.029281
535.40 1.029322
535.50 1.029363
535.60 1.029403
535.70 1.029444
535.80 1.029484
535.90 1.029525
536.00 1.029565
536.10 1.029605
536.20 1.029645
536.30 1.029685
536.40 1.029725
536.50 1.029764
536.60 1.029804
536.70 1.029844
536.80 1.029883
536.90 1.029922
537.00 1.029961
537.10 1.030001
537.20 1.03004
537.30 1.030078
537.40 1.030117
537.50 1.030156
537.60 1.030195
537.70 1.030233
537.80 1.030271
537.90 1.03031
538.00 1.030348
538.10 1.030386
538.20 1.030424
538.30 1.030462
538.40 1.0305
538.50 1.030537
538.60 1.030575
538.70 1.030613
538.80 1.03065
538.90 1.030687
539.00 1.030724
539.10 1.030762
539.20 1.030799
539.30 1.030836
539.40 1.030872
539.50 1.030909
539.60 1.030946
539.70 1.030982
539.80 1.031019
539.90 1.031055
540.00 1.031091
540.10 1.031127
540.20 1.031154
540.30 1.031177
540.40 1.0312
540.50 1.031222
540.60 1.031245
540.70 1.031267
540.80 1.03129
540.90 1.031312
541.00 1.031334
541.10 1.031357
541.20 1.031379
541.30 1.031401
541.40 1.031422
541.50 1.031444
541.60 1.031466
541.70 1.031488
541.80 1.031509
541.90 1.031531
542.00 1.031552
542.10 1.031573
542.20 1.031595
542.30 1.031616
542.40 1.031637
542.50 1.031658
542.60 1.031678
542.70 1.031699
542.80 1.03172
542.90 1.031741
543.00 1.031761
543.10 1.031782
543.20 1.031802
543.30 1.031822
543.40 1.031842
543.50 1.031862
543.60 1.031882
543.70 1.031902
543.80 1.031922
543.90 1.031942
544.00 1.031962
544.10 1.031981
544.20 1.032001
544.30 1.03202
544.40 1.032039
544.50 1.032059
544.60 1.032078
544.70 1.032097
544.80 1.032116
544.90 1.032135
545.00 1.032154
545.10 1.032172
545.20 1.032191
545.30 1.03221
545.40 1.032228
545.50 1.032247
545.60 1.032268
545.70 1.032291
545.80 1.032314
545.90 1.032337
546.00 1.03236
546.10 1.032382
546.20 1.032405
546.30 1.032427
546.40 1.03245
546.50 1.032472
546.60 1.032494
546.70 1.032516
546.80 1.032538
546.90 1.03256
547.00 1.032582
547.10 1.032604
547.20 1.032626
547.30 1.032647
547.40 1.032669
547.50 1.03269
547.60 1.032712
547.70 1.032733
547.80 1.032754
547.90 1.032775
548.00 1.032796
548.10 1.032817
548.20 1.032838
548.30 1.032855
548.40 1.032867
548.50 1.03288
548.60 1.032892
548.70 1.032903
548.80 1.032915
548.90 1.032927
549.00 1.032939
549.10 1.032951
549.20 1.032962
549.30 1.032974
549.40 1.032985
549.50 1.032996
549.60 1.033008
549.70 1.033019
549.80 1.03303
549.90 1.033041
550.00 1.033052
550.10 1.033063
550.20 1.033074
550.30 1.033084
550.40 1.033095
550.50 1.033106
550.60 1.033116
550.70 1.033127
550.80 1.033137
550.90 1.033147
551.00 1.033156
551.10 1.033153
551.20 1.033151
551.30 1.033149
551.40 1.033146
551.50 1.033144
551.60 1.033141
551.70 1.033138
551.80 1.033136
551.90 1.033133
552.00 1.03313
552.10 1.033127
552.20 1.033124
552.30 1.033121
552.40 1.033118
552.50 1.033115
552.60 1.033111
552.70 1.033108
552.80 1.033105
552.90 1.033101
553.00 1.033098
553.10 1.033094
553.20 1.033091
553.30 1.033087
553.40 1.033083
553.50 1.033079
553.60 1.033075
553.70 1.033072
553.80 1.033073
553.90 1.033077
554.00 1.033081
554.10 1.033085
554.20 1.033089
554.30 1.033093
554.40 1.033097
554.50 1.033101
554.60 1.033105
554.70 1.033109
554.80 1.033112
554.90 1.033116
555.00 1.033119
555.10 1.033123
555.20 1.033126
555.30 1.03313
555.40 1.033133
555.50 1.033136
555.60 1.033139
555.70 1.033142
555.80 1.033145
555.90 1.033148
556.00 1.033151
556.10 1.033154
556.20 1.033156
556.30 1.033159
556.40 1.033161
556.50 1.033163
556.60 1.033154
556.70 1.033144
556.80 1.033135
556.90 1.033125
557.00 1.033115
557.10 1.033106
557.20 1.033096
557.30 1.033086
557.40 1.033076
557.50 1.033066
557.60 1.033056
557.70 1.033046
557.80 1.033035
557.90 1.033025
558.00 1.033015
558.10 1.033004
558.20 1.032994
558.30 1.032983
558.40 1.032973
558.50 1.032962
558.60 1.032952
558.70 1.032941
558.80 1.03293
558.90 1.032919
559.00 1.032908
559.10 1.032897
559.20 1.032886
559.30 1.032875
559.40 1.032864
559.50 1.032853
559.60 1.032842
559.70 1.03283
559.80 1.032819
559.90 1.032807
560.00 1.032796
560.10 1.032784
560.20 1.032773
560.30 1.032761
560.40 1.032749
560.50 1.032738
560.60 1.032726
560.70 1.032714
560.80 1.032702
560.90 1.03269
561.00 1.032678
561.10 1.032666
561.20 1.032654
561.30 1.032641
561.40 1.032629
561.50 1.032617
561.60 1.032604
561.70 1.032592
561.80 1.032579
561.90 1.032567
562.00 1.032554
562.10 1.032543
562.20 1.032535
562.30 1.032526
562.40 1.032518
562.50 1.032509
562.60 1.032501
562.70 1.032492
562.80 1.032483
562.90 1.032475
563.00 1.032466
563.10 1.032457
563.20 1.032448
563.30 1.032439
563.40 1.03243
563.50 1.032421
563.60 1.032411
563.70 1.032402
563.80 1.032393
563.90 1.032384
564.00 1.032374
564.10 1.032365
564.20 1.032355
564.30 1.032345
564.40 1.032336
564.50 1.032326
564.60 1.032316
564.70 1.032307
564.80 1.032297
564.90 1.032282
565.00 1.032256
565.10 1.032231
565.20 1.032205
565.30 1.032179
565.40 1.032153
565.50 1.032127
565.60 1.032101
565.70 1.032075
565.80 1.032049
565.90 1.032023
566.00 1.031997
566.10 1.031971
566.20 1.031945
566.30 1.031918
566.40 1.031892
566.50 1.031866
566.60 1.031839
566.70 1.031813
566.80 1.031786
566.90 1.03176
567.00 1.031733
567.10 1.031707
567.20 1.03168
567.30 1.031653
567.40 1.031626
567.50 1.0316
567.60 1.031573
567.70 1.031546
567.80 1.031519
567.90 1.031493
568.00 1.031466
568.10 1.03144
568.20 1.031413
568.30 1.031387
568.40 1.03136
568.50 1.031333
568.60 1.031306
568.70 1.031279
568.80 1.031252
568.90 1.031225
569.00 1.031198
569.10 1.031171
569.20 1.031144
569.30 1.031117
569.40 1.03109
569.50 1.031063
569.60 1.031035
569.70 1.031008
569.80 1.030981
569.90 1.030953
570.00 1.030926
570.10 1.030898
570.20 1.030871
570.30 1.030843
570.40 1.030816
570.50 1.030788
570.60 1.03076
570.70 1.030733
570.80 1.030705
570.90 1.030677
571.00 1.030649
571.10 1.030621
571.20 1.030593
571.30 1.030565
571.40 1.030537
571.50 1.030509
571.60 1.030481
571.70 1.030453
571.80 1.030424
571.90 1.030396
572.00 1.030368
572.10 1.030339
572.20 1.030311
572.30 1.030283
572.40 1.030254
572.50 1.030226
572.60 1.030197
572.70 1.030168
572.80 1.03014
572.90 1.030111
573.00 1.030082
573.10 1.030053
573.20 1.030025
573.30 1.029996
573.40 1.029964
573.50 1.029928
573.60 1.029891
573.70 1.029855
573.80 1.029818
573.90 1.029782
574.00 1.029746
574.10 1.029709
574.20 1.029673
574.30 1.029636
574.40 1.029599
574.50 1.029563
574.60 1.029526
574.70 1.029489
574.80 1.029453
574.90 1.029416
575.00 1.029379
575.10 1.029342
575.20 1.029305
575.30 1.029268
575.40 1.029231
575.50 1.029194
575.60 1.029157
575.70 1.02912
575.80 1.029083
575.90 1.029046
576.00 1.029009
576.10 1.028971
576.20 1.028934
576.30 1.028897
576.40 1.02886
576.50 1.028822
576.60 1.028785
576.70 1.028747
576.80 1.02871
576.90 1.028672
577.00 1.028635
577.10 1.028597
577.20 1.02856
577.30 1.028522
577.40 1.028484
577.50 1.028447
577.60 1.028409
577.70 1.028373
577.80 1.028336
577.90 1.028299
578.00 1.028263
578.10 1.028226
578.20 1.028189
578.30 1.028152
578.40 1.028115
578.50 1.028079
578.60 1.028042
578.70 1.028005
578.80 1.027968
578.90 1.027931
579.00 1.027894
579.10 1.027855
579.20 1.027805
579.30 1.027755
579.40 1.027704
579.50 1.027654
579.60 1.027603
579.70 1.027553
579.80 1.027503
579.90 1.027452
580.00 1.027401
580.10 1.027352
580.20 1.027303
580.30 1.027254
580.40 1.027205
580.50 1.027156
580.60 1.027107
580.70 1.027058
580.80 1.027009
580.90 1.02696
581.00 1.026911
581.10 1.026862
581.20 1.026813
581.30 1.026763
581.40 1.026714
581.50 1.026665
581.60 1.026616
581.70 1.026567
581.80 1.026517
581.90 1.026468
582.00 1.026419
582.10 1.026371
582.20 1.026325
582.30 1.026279
582.40 1.026233
582.50 1.026187
582.60 1.026141
582.70 1.026095
582.80 1.026048
582.90 1.026002
583.00 1.025956
583.10 1.02591
583.20 1.025864
583.30 1.025818
583.40 1.025771
583.50 1.025725
583.60 1.025677
583.70 1.025625
583.80 1.025572
583.90 1.02552
584.00 1.025468
584.10 1.025416
584.20 1.025364
584.30 1.025312
584.40 1.02526
584.50 1.025207
584.60 1.025155
584.70 1.025103
584.80 1.025051
584.90 1.024998
585.00 1.024943
585.10 1.024889
585.20 1.02484
585.30 1.0248
585.40 1.02476
585.50 1.02472
585.60 1.02468
585.70 1.02464
585.80 1.0246
585.90 1.02456
586.00 1.02452
586.10 1.02448
586.20 1.024427
586.30 1.024352
586.40 1.024277
586.50 1.024203
586.60 1.024128
586.70 1.024054
586.80 1.023992
586.90 1.023952
587.00 1.023911
587.10 1.023871
587.20 1.023831
587.30 1.02379
587.40 1.023828
587.50 1.023695
587.60 1.023547
587.70 1.023614
587.80 1.023587
587.90 1.023547
588.00 1.023487
588.10 1.023395
588.20 1.023303
588.30 1.023211
588.40 1.023139
588.50 1.023098
588.60 1.023057
588.70 1.023016
588.80 1.022975
588.90 1.022934
589.00 1.022886
589.10 1.022824
589.20 1.022763
589.30 1.022702
589.40 1.02264
589.50 1.022579
589.60 1.022517
589.70 1.022456
589.80 1.022394
589.90 1.022333
590.00 1.022274
590.10 1.022218
590.20 1.022163
590.30 1.022108
590.40 1.022052
590.50 1.021997
590.60 1.021941
590.70 1.021886
590.80 1.021815
590.90 1.021738
591.00 1.021661
591.10 1.021584
591.20 1.021507
591.30 1.02143
591.40 1.021352
591.50 1.021275
591.60 1.021204
591.70 1.021142
591.80 1.02108
591.90 1.021018
592.00 1.020957
592.10 1.020895
592.20 1.020833
592.30 1.020771
592.40 1.020709
592.50 1.020647
592.60 1.020585
592.70 1.020523
592.80 1.020461
592.90 1.020399
593.00 1.020337
593.10 1.020275
593.20 1.020213
593.30 1.020151
593.40 1.020089
593.50 1.020027
593.60 1.019965
593.70 1.019903
593.80 1.019841
593.90 1.019779
594.00 1.019717
594.10 1.019655
594.20 1.019592
594.30 1.01953
594.40 1.019468
594.50 1.019406
594.60 1.019344
594.70 1.019281
594.80 1.019219
594.90 1.019157
595.00 1.019094
595.10 1.019032
595.20 1.018969
595.30 1.018905
595.40 1.018842
595.50 1.018779
595.60 1.018716
595.70 1.018653
595.80 1.018589
595.90 1.018526
596.00 1.018463
596.10 1.0184
596.20 1.018336
596.30 1.018273
596.40 1.01821
596.50 1.018146
596.60 1.018083
596.70 1.018021
596.80 1.01796
596.90 1.017898
597.00 1.017837
597.10 1.017776
597.20 1.017715
597.30 1.017653
597.40 1.017592
597.50 1.017531
597.60 1.017463
597.70 1.017385
597.80 1.017307
597.90 1.017229
598.00 1.017151
598.10 1.017074
598.20 1.016996
598.30 1.016918
598.40 1.01684
598.50 1.016762
598.60 1.016684
598.70 1.016606
598.80 1.016528
598.90 1.01645
599.00 1.016372
599.10 1.016294
599.20 1.016216
599.30 1.016138
599.40 1.016065
599.50 1.015992
599.60 1.01592
599.70 1.015847
599.80 1.015774
599.90 1.015701
600.00 1.015629
600.10 1.015556
600.20 1.015483
600.30 1.01541
600.40 1.015337
600.50 1.015264
600.60 1.015192
600.70 1.015119
600.80 1.015046
600.90 1.014973
601.00 1.0149
601.10 1.014827
601.20 1.014754
601.30 1.014681
601.40 1.014614
601.50 1.014547
601.60 1.01448
601.70 1.014413
601.80 1.014346
601.90 1.014278
602.00 1.014211
602.10 1.014144
602.20 1.014077
602.30 1.014009
602.40 1.013942
602.50 1.013875
602.60 1.013808
602.70 1.01377
602.80 1.013733
602.90 1.013653
603.00 1.013573
603.10 1.013492
603.20 1.013412
603.30 1.013332
603.40 1.013251
603.50 1.013171
603.60 1.01309
603.70 1.01301
603.80 1.01293
603.90 1.012849
604.00 1.012769
604.10 1.012688
604.20 1.012608
604.30 1.012528
604.40 1.012447
604.50 1.012364
604.60 1.012281
604.70 1.012199
604.80 1.012116
604.90 1.012033
605.00 1.01195
605.10 1.011867
605.20 1.011784
605.30 1.011702
605.40 1.011619
605.50 1.011542
605.60 1.011466
605.70 1.01139
605.80 1.011313
605.90 1.011237
606.00 1.01116
606.10 1.011068
606.20 1.010975
606.30 1.010883
606.40 1.01079
606.50 1.010746
606.60 1.010702
606.70 1.010657
606.80 1.010517
606.90 1.010472
607.00 1.010332
607.10 1.010287
607.20 1.010243
607.30 1.01015
607.40 1.010058
607.50 1.009965
607.60 1.009873
607.70 1.009796
607.80 1.00972
607.90 1.009644
608.00 1.009567
608.10 1.009491
608.20 1.009414
608.30 1.009349
608.40 1.009284
608.50 1.009218
608.60 1.009153
608.70 1.009066
608.80 1.00897
608.90 1.008874
609.00 1.008778
609.10 1.008681
609.20 1.008585
609.30 1.008505
609.40 1.008424
609.50 1.008344
609.60 1.008263
609.70 1.008183
609.80 1.008102
609.90 1.008022
610.00 1.007941
610.10 1.007861
610.20 1.00778
610.30 1.0077
610.40 1.007619
610.50 1.007539
610.60 1.007458
610.70 1.007378
610.80 1.007297
610.90 1.007208
611.00 1.007119
611.10 1.007029
611.20 1.00694
611.30 1.006851
611.40 1.006762
611.50 1.006673
611.60 1.006583
611.70 1.006494
611.80 1.006405
611.90 1.006316
612.00 1.006227
612.10 1.006137
612.20 1.006048
612.30 1.005959
612.40 1.005876
612.50 1.005793
612.60 1.005711
612.70 1.005628
612.80 1.005545
612.90 1.005462
613.00 1.005379
613.10 1.005296
613.20 1.005213
613.30 1.005131
613.40 1.005048
613.50 1.004965
613.60 1.004882
613.70 1.004799
613.80 1.004716
613.90 1.004633
614.00 1.004551
614.10 1.004468
614.20 1.004385
614.30 1.004302
614.40 1.0042
614.50 1.004098
614.60 1.003997
614.70 1.003895
614.80 1.003801
614.90 1.003708
615.00 1.003616
615.10 1.003523
615.20 1.003431
615.30 1.003338
615.40 1.003246
615.50 1.003153
615.60 1.003061
615.70 1.002968
615.80 1.002876
615.90 1.002783
616.00 1.002691
616.10 1.002599
616.20 1.002506
616.30 1.002414
616.40 1.002321
616.50 1.002229
616.60 1.002136
616.70 1.002044
616.80 1.001952
616.90 1.001861
617.00 1.001769
617.10 1.001678
617.20 1.001587
617.30 1.001496
617.40 1.001405
617.50 1.001314
617.60 1.001223
617.70 1.001132
617.80 1.001041
617.90 1.00095
618.00 1.000859
618.10 1.000768
618.20 1.000677
618.30 1.000585
618.40 1.000494
618.50 1.000403
618.60 1.000312
618.70 1.000221
618.80 1.00013
618.90 1.000039
619.00 0.9999484
619.10 0.9998574
619.20 0.9997664
619.30 0.9996755
619.40 0.9995845
619.50 0.9994935
619.60 0.9994026
619.70 0.9993116
619.80 0.9992207
619.90 0.9991298
620.00 0.9990388
620.10 0.9989479
620.20 0.998857
620.30 0.9987661
620.40 0.9986752
620.50 0.9985843
620.60 0.9984934
620.70 0.9984025
620.80 0.9983117
620.90 0.9982177
621.00 0.9981182
621.10 0.9980187
621.20 0.9979193
621.30 0.9978198
621.40 0.9977204
621.50 0.9976209
621.60 0.9975215
621.70 0.9974221
621.80 0.9973227
621.90 0.9972233
622.00 0.997124
622.10 0.9970246
622.20 0.9969253
622.30 0.9968259
622.40 0.9967266
622.50 0.9966273
622.60 0.996528
622.70 0.9964287
622.80 0.9963294
622.90 0.9962302
623.00 0.9961309
623.10 0.9960317
623.20 0.9959325
623.30 0.9958333
623.40 0.9957341
623.50 0.9956349
623.60 0.9955357
623.70 0.9954366
623.80 0.9953374
623.90 0.9952383
624.00 0.9951392
624.10 0.99504
624.20 0.9949409
624.30 0.9948419
624.40 0.9947428
624.50 0.9946437
624.60 0.9945447
624.70 0.9944456
624.80 0.9943466
624.90 0.9942476
625.00 0.9941486
625.10 0.9940496
625.20 0.9939507
625.30 0.9938517
625.40 0.9937527
625.50 0.9936538
625.60 0.9935549
625.70 0.993456
625.80 0.9933571
625.90 0.9932582
626.00 0.9931593
626.10 0.9930605
626.20 0.9929616
626.30 0.9928628
626.40 0.992764
626.50 0.9926651
626.60 0.9925663
626.70 0.9924676
626.80 0.9923688
626.90 0.99227
627.00 0.9921713
627.10 0.9920712
627.20 0.9919675
627.30 0.9918638
627.40 0.9917601
627.50 0.9916564
627.60 0.9915528
627.70 0.9914492
627.80 0.9913455
627.90 0.9912419
628.00 0.9911383
628.10 0.9910348
628.20 0.9909312
628.30 0.9908277
628.40 0.9907242
628.50 0.9906206
628.60 0.9905172
628.70 0.9904137
628.80 0.9903102
628.90 0.9902068
629.00 0.9901033
629.10 0.9899999
629.20 0.9898965
629.30 0.9897931
629.40 0.9896898
629.50 0.9895864
629.60 0.9894831
629.70 0.9893798
629.80 0.9892765
629.90 0.9891732
630.00 0.9890699
630.10 0.9889666
630.20 0.9888634
630.30 0.9887601
630.40 0.9886568
630.50 0.9885536
630.60 0.9884503
630.70 0.9883471
630.80 0.9882439
630.90 0.9881407
631.00 0.9880375
631.10 0.9879343
631.20 0.9878312
631.30 0.9877281
631.40 0.9876249
631.50 0.9875218
631.60 0.9874187
631.70 0.9873157
631.80 0.9872126
631.90 0.9871096
632.00 0.9870066
632.10 0.9869035
632.20 0.9868005
632.30 0.9866976
632.40 0.9865946
632.50 0.9864917
632.60 0.9863887
632.70 0.9862858
632.80 0.9861829
632.90 0.98608
633.00 0.9859772
633.10 0.9858743
633.20 0.9857715
633.30 0.9856687
633.40 0.9855616
633.50 0.9854513
633.60 0.985341
633.70 0.9852307
633.80 0.9851204
633.90 0.9850101
634.00 0.9848999
634.10 0.9847897
634.20 0.9846795
634.30 0.9845693
634.40 0.9844592
634.50 0.984349
634.60 0.9842389
634.70 0.9841288
634.80 0.9840188
634.90 0.9839087
635.00 0.9837987
635.10 0.9836887
635.20 0.9835787
635.30 0.9834687
635.40 0.9833588
635.50 0.9832488
635.60 0.9831389
635.70 0.9830291
635.80 0.9829192
635.90 0.9828093
636.00 0.9826995
636.10 0.9825897
636.20 0.9824799
636.30 0.9823702
636.40 0.9822604
636.50 0.9821507
636.60 0.9820409
636.70 0.9819312
636.80 0.9818215
636.90 0.9817118
637.00 0.9816021
637.10 0.9814924
637.20 0.9813828
637.30 0.9812732
637.40 0.9811636
637.50 0.981054
637.60 0.9809444
637.70 0.9808349
637.80 0.9807254
637.90 0.9806159
638.00 0.9805064
638.10 0.9803969
638.20 0.9802875
638.30 0.9801781
638.40 0.9800687
638.50 0.9799593
638.60 0.9798499
638.70 0.9797406
638.80 0.9796313
638.90 0.979522
639.00 0.9794127
639.10 0.9793035
639.20 0.9791942
639.30 0.979085
639.40 0.9789758
639.50 0.9788667
639.60 0.9787575
639.70 0.9786467
639.80 0.9785302
639.90 0.9784137
640.00 0.9782973
640.10 0.9781809
640.20 0.9780645
640.30 0.9779481
640.40 0.9778318
640.50 0.9777155
640.60 0.9775992
640.70 0.9774829
640.80 0.9773667
640.90 0.9772504
641.00 0.9771342
641.10 0.9770181
641.20 0.9769019
641.30 0.9767858
641.40 0.9766697
641.50 0.9765537
641.60 0.9764376
641.70 0.9763216
641.80 0.9762056
641.90 0.9760897
642.00 0.9759737
642.10 0.9758578
642.20 0.9757419
642.30 0.975626
642.40 0.9755102
642.50 0.9753944
642.60 0.9752786
642.70 0.9751628
642.80 0.9750471
642.90 0.9749314
643.00 0.9748157
643.10 0.9747001
643.20 0.9745845
643.30 0.974469
643.40 0.9743534
643.50 0.9742379
643.60 0.9741224
643.70 0.974007
643.80 0.9738916
643.90 0.9737761
644.00 0.9736608
644.10 0.9735454
644.20 0.9734301
644.30 0.9733147
644.40 0.9731995
644.50 0.9730842
644.60 0.9729689
644.70 0.9728537
644.80 0.9727385
644.90 0.9726234
645.00 0.9725082
645.10 0.9723931
645.20 0.972278
645.30 0.972163
645.40 0.9720479
645.50 0.9719329
645.60 0.9718179
645.70 0.9717029
645.80 0.971588
645.90 0.9714731
646.00 0.9713582
646.10 0.9712428
646.20 0.9711262
646.30 0.9710095
646.40 0.9708929
646.50 0.9707763
646.60 0.9706597
646.70 0.9705431
646.80 0.9704266
646.90 0.9703101
647.00 0.9701936
647.10 0.9700772
647.20 0.9699607
647.30 0.9698443
647.40 0.9697279
647.50 0.9696116
647.60 0.9694953
647.70 0.969379
647.80 0.9692627
647.90 0.9691464
648.00 0.9690302
648.10 0.968914
648.20 0.9687978
648.30 0.9686817
648.40 0.9685656
648.50 0.9684495
648.60 0.9683334
648.70 0.9682174
648.80 0.9681014
648.90 0.9679854
649.00 0.9678694
649.10 0.9677535
649.20 0.9676375
649.30 0.9675216
649.40 0.9674007
649.50 0.9672796
649.60 0.9671586
649.70 0.9670375
649.80 0.9669165
649.90 0.9667955
650.00 0.9666746
650.10 0.9665537
650.20 0.9664328
650.30 0.9663119
650.40 0.9661911
650.50 0.9660703
650.60 0.9659495
650.70 0.9658287
650.80 0.965708
650.90 0.9655873
651.00 0.9654667
651.10 0.965346
651.20 0.9652254
651.30 0.9651048
651.40 0.9649843
651.50 0.9648638
651.60 0.9647433
651.70 0.9646228
651.80 0.9645024
651.90 0.964382
652.00 0.9642616
652.10 0.9641412
652.20 0.9640209
652.30 0.9639006
652.40 0.9637804
652.50 0.9636601
652.60 0.9635389
652.70 0.9634171
652.80 0.9632953
652.90 0.9631736
653.00 0.9630519
653.10 0.9629302
653.20 0.9628086
653.30 0.962687
653.40 0.9625654
653.50 0.9624439
653.60 0.9623223
653.70 0.9622008
653.80 0.9620794
653.90 0.9619579
654.00 0.9618365
654.10 0.9617152
654.20 0.9615938
654.30 0.9614725
654.40 0.9613512
654.50 0.96123
654.60 0.9611087
654.70 0.9609875
654.80 0.9608664
654.90 0.9607452
655.00 0.9606241
655.10 0.960503
655.20 0.960382
655.30 0.9602609
655.40 0.96014
655.50 0.960019
655.60 0.959898
655.70 0.9597771
655.80 0.9596492
655.90 0.9595214
656.00 0.9593935
656.10 0.9592657
656.20 0.9591379
656.30 0.9590102
656.40 0.9588825
656.50 0.9587548
656.60 0.9586272
656.70 0.9584996
656.80 0.958372
656.90 0.9582445
657.00 0.958117
657.10 0.9579895
657.20 0.957862
657.30 0.9577346
657.40 0.9576073
657.50 0.9574799
657.60 0.9573526
657.70 0.9572253
657.80 0.9572191
657.90 0.957105
658.00 0.9569719
658.10 0.9568388
658.20 0.9567057
658.30 0.9565727
658.40 0.9564397
658.50 0.9563068
658.60 0.9561739
658.70 0.956041
658.80 0.9559081
658.90 0.9557753
659.00 0.9556426
659.10 0.9555402
659.20 0.9554833
659.30 0.9553543
659.40 0.9552253
659.50 0.9550964
659.60 0.9549675
659.70 0.9548387
659.80 0.9547098
659.90 0.9545811
660.00 0.9544523
660.10 0.9543236
660.20 0.9541949
660.30 0.9540663
660.40 0.9539438
660.50 0.9538224
660.60 0.9537011
660.70 0.9535798
660.80 0.9534585
660.90 0.9533322
661.00 0.953206
661.10 0.9530798
661.20 0.9529536
661.30 0.9528274
661.40 0.9527013
661.50 0.9525753
661.60 0.9524492
661.70 0.9523232
661.80 0.9521972
661.90 0.9520666
662.00 0.951936
662.10 0.9518054
662.20 0.9516748
662.30 0.9515443
662.40 0.9514421
662.50 0.951276
662.60 0.9511099
662.70 0.9509439
662.80 0.950778
662.90 0.9506524
663.00 0.9505269
663.10 0.9504819
663.20 0.9503565
663.30 0.950231
663.40 0.950025
663.50 0.9498997
663.60 0.9497743
663.70 0.9496378
663.80 0.9495013
663.90 0.9493855
664.00 0.9492733
664.10 0.9491481
664.20 0.949023
664.30 0.9488979
664.40 0.9487728
664.50 0.9486477
664.60 0.9485227
664.70 0.9483948
664.80 0.9482669
664.90 0.948139
665.00 0.9480112
665.10 0.9478834
665.20 0.9477556
665.30 0.9476279
665.40 0.9475002
665.50 0.947386
665.60 0.9472743
665.70 0.9470718
665.80 0.9469547
665.90 0.9468377
666.00 0.9467206
666.10 0.9466036
666.20 0.9464867
666.30 0.9463697
666.40 0.9462528
666.50 0.9461296
666.60 0.9460052
666.70 0.9458809
666.80 0.9457566
666.90 0.9456323
667.00 0.945508
667.10 0.9453217
667.20 0.9451244
667.30 0.9449891
667.40 0.944854
667.50 0.9447283
667.60 0.9446043
667.70 0.944524
667.80 0.9444299
667.90 0.9442563
668.00 0.9441324
668.10 0.9439848
668.20 0.943861
668.30 0.9437372
668.40 0.9436134
668.50 0.9434897
668.60 0.943366
668.70 0.9432662
668.80 0.9431379
668.90 0.9430097
669.00 0.9428815
669.10 0.9427534
669.20 0.9426253
669.30 0.9424877
669.40 0.9423485
669.50 0.9422093
669.60 0.9420701
669.70 0.941931
669.80 0.9417919
669.90 0.9416529
670.00 0.9415139
670.10 0.941375
670.20 0.9412361
670.30 0.9411147
670.40 0.9409965
670.50 0.9408784
670.60 0.9407603
670.70 0.9406422
670.80 0.940503
670.90 0.9403638
671.00 0.9402247
671.10 0.9400857
671.20 0.9399466
671.30 0.9398076
671.40 0.9396687
671.50 0.9395298
671.60 0.9393909
671.70 0.9392521
671.80 0.9391133
671.90 0.9389905
672.00 0.9388706
672.10 0.9387506
672.20 0.9386307
672.30 0.9385109
672.40 0.9383735
672.50 0.9382348
672.60 0.9380962
672.70 0.9379576
672.80 0.937819
672.90 0.9376805
673.00 0.937542
673.10 0.9374036
673.20 0.9372652
673.30 0.9371228
673.40 0.936991
673.50 0.9368612
673.60 0.9367315
673.70 0.9366017
673.80 0.936472
673.90 0.9363424
674.00 0.9362127
674.10 0.9360831
674.20 0.9359536
674.30 0.9358241
674.40 0.9356946
674.50 0.9355651
674.60 0.9354357
674.70 0.9353063
674.80 0.935177
674.90 0.9350477
675.00 0.9349184
675.10 0.9347892
675.20 0.93466
675.30 0.9345308
675.40 0.9343977
675.50 0.9342639
675.60 0.9341302
675.70 0.9339965
675.80 0.9338629
675.90 0.9337293
676.00 0.9335957
676.10 0.9334622
676.20 0.9333287
676.30 0.9331953
676.40 0.9330619
676.50 0.9329285
676.60 0.9327952
676.70 0.9326619
676.80 0.9325286
676.90 0.9323954
677.00 0.9322622
677.10 0.9321291
677.20 0.931996
677.30 0.9318629
677.40 0.9317299
677.50 0.9315969
677.60 0.9314639
677.70 0.931331
677.80 0.9311981
677.90 0.9310526
678.00 0.9309048
678.10 0.9307571
678.20 0.9306095
678.30 0.9304619
678.40 0.9303143
678.50 0.9301668
678.60 0.9300194
678.70 0.9298719
678.80 0.9297246
678.90 0.9295772
679.00 0.92943
679.10 0.9292892
679.20 0.9291514
679.30 0.9290135
679.40 0.9288757
679.50 0.928738
679.60 0.9286003
679.70 0.9284626
679.80 0.928325
679.90 0.9281874
680.00 0.9280498
680.10 0.9279123
680.20 0.9277748
680.30 0.9276374
680.40 0.9275
680.50 0.9273627
680.60 0.9272254
680.70 0.9270881
680.80 0.9269509
680.90 0.9268137
681.00 0.9266765
681.10 0.9265394
681.20 0.9264024
681.30 0.9262653
681.40 0.9261284
681.50 0.9259914
681.60 0.9258545
681.70 0.9257177
681.80 0.9255808
681.90 0.9254441
682.00 0.9253073
682.10 0.9251706
682.20 0.925034
682.30 0.9248973
682.40 0.9247608
682.50 0.9246242
682.60 0.9244877
682.70 0.9243513
682.80 0.9242148
682.90 0.9240785
683.00 0.9239421
683.10 0.9238058
683.20 0.9236696
683.30 0.9235334
683.40 0.9233972
683.50 0.9232611
683.60 0.923125
683.70 0.9229889
683.80 0.9228529
683.90 0.9227169
684.00 0.922581
684.10 0.9224451
684.20 0.9223092
684.30 0.9221734
684.40 0.9220376
684.50 0.9219019
684.60 0.9217662
684.70 0.9216305
684.80 0.9214949
684.90 0.9213594
685.00 0.9212238
685.10 0.9210883
685.20 0.9209529
685.30 0.9208175
685.40 0.9206821
685.50 0.9205467
685.60 0.9204114
685.70 0.9202762
685.80 0.920141
685.90 0.9200012
686.00 0.9198603
686.10 0.9197195
686.20 0.9195787
686.30 0.919438
686.40 0.9192973
686.50 0.9191567
686.60 0.9190161
686.70 0.9188755
686.80 0.918735
686.90 0.9185945
687.00 0.918454
687.10 0.9183137
687.20 0.9181733
687.30 0.918033
687.40 0.9178927
687.50 0.9177525
687.60 0.9176123
687.70 0.9174722
687.80 0.9173321
687.90 0.917192
688.00 0.917052
688.10 0.9169121
688.20 0.9167721
688.30 0.9166323
688.40 0.9164924
688.50 0.9163526
688.60 0.9162129
688.70 0.9160732
688.80 0.9159335
688.90 0.9157939
689.00 0.9156543
689.10 0.9155147
689.20 0.9153753
689.30 0.9152358
689.40 0.9150964
689.50 0.914957
689.60 0.9148177
689.70 0.9146784
689.80 0.9145391
689.90 0.9143999
690.00 0.9142608
690.10 0.9141217
690.20 0.9139826
690.30 0.9138436
690.40 0.9137046
690.50 0.9135656
690.60 0.9134267
690.70 0.9132879
690.80 0.913149
690.90 0.9130102
691.00 0.9128715
691.10 0.9127328
691.20 0.9125942
691.30 0.9124555
691.40 0.912317
691.50 0.9121784
691.60 0.91204
691.70 0.9119015
691.80 0.9117631
691.90 0.9116248
692.00 0.9114864
692.10 0.9113482
692.20 0.9112099
692.30 0.9110717
692.40 0.9109336
692.50 0.9107955
692.60 0.9106574
692.70 0.9105182
692.80 0.9103746
692.90 0.910231
693.00 0.9100874
693.10 0.9099439
693.20 0.9098004
693.30 0.909657
693.40 0.9095137
693.50 0.9093703
693.60 0.909227
693.70 0.9090838
693.80 0.9089406
693.90 0.9087975
694.00 0.9086544
694.10 0.9085113
694.20 0.9083683
694.30 0.9082253
694.40 0.9080824
694.50 0.9079395
694.60 0.9077967
694.70 0.9076539
694.80 0.9075112
694.90 0.9073685
695.00 0.9072258
695.10 0.9070832
695.20 0.9069406
695.30 0.9067981
695.40 0.9066556
695.50 0.9065132
695.60 0.9063708
695.70 0.9062285
695.80 0.9060862
695.90 0.9059439
696.00 0.9058017
696.10 0.9056595
696.20 0.9055174
696.30 0.9053753
696.40 0.9052333
696.50 0.9050913
696.60 0.9049485
696.70 0.9048055
696.80 0.9046626
696.90 0.9045197
697.00 0.9043769
697.10 0.9042341
697.20 0.9040914
697.30 0.9039487
697.40 0.903806
697.50 0.9036634
697.60 0.9035209
697.70 0.9033783
697.80 0.9032359
697.90 0.9030934
698.00 0.9029511
698.10 0.9028087
698.20 0.9026664
698.30 0.9025242
698.40 0.902382
698.50 0.9022398
698.60 0.9020977
698.70 0.9019556
698.80 0.9018136
698.90 0.9016716
699.00 0.9015296
699.10 0.901394
699.20 0.9012599
699.30 0.9011258
699.40 0.9009917
699.50 0.9008577
699.60 0.9007237
699.70 0.9005794
699.80 0.9004346
699.90 0.9002899
700.00 0.9001452
700.10 0.9000005
700.20 0.8998559
700.30 0.8997114
700.40 0.8995669
700.50 0.8994224
700.60 0.899278
700.70 0.8991336
700.80 0.8989892
700.90 0.898845
701.00 0.8987007
701.10 0.8985591
701.20 0.8984181
701.30 0.8982772
701.40 0.8981363
701.50 0.8979955
701.60 0.8978547
701.70 0.8977139
701.80 0.8975732
701.90 0.8974326
702.00 0.8972919
702.10 0.8971514
702.20 0.8970108
702.30 0.8968703
702.40 0.8967299
702.50 0.8965895
702.60 0.8964433
702.70 0.8962958
702.80 0.8961484
702.90 0.896001
703.00 0.8958536
703.10 0.8957064
703.20 0.8955591
703.30 0.8954119
703.40 0.8952647
703.50 0.8951176
703.60 0.8949706
703.70 0.8948236
703.80 0.8946766
703.90 0.8945297
704.00 0.8943828
704.10 0.894236
704.20 0.894095
704.30 0.8939554
704.40 0.8938159
704.50 0.8936764
704.60 0.8935369
704.70 0.8933975
704.80 0.8932581
704.90 0.8931188
705.00 0.8929795
705.10 0.8928403
705.20 0.8926857
705.30 0.8925275
705.40 0.8923694
705.50 0.8922114
705.60 0.8920534
705.70 0.8918955
705.80 0.8917472
705.90 0.8916012
706.00 0.8914553
706.10 0.8913094
706.20 0.8911923
706.30 0.8910821
706.40 0.8908603
706.50 0.8907838
706.60 0.8906364
706.70 0.8905263
706.80 0.8903317
706.90 0.8901508
707.00 0.8899986
707.10 0.8898532
707.20 0.8897078
707.30 0.8895625
707.40 0.8894268
707.50 0.8892933
707.60 0.8891599
707.70 0.8890266
707.80 0.8888933
707.90 0.88876
708.00 0.8886115
708.10 0.8884595
708.20 0.8883075
708.30 0.8881555
708.40 0.8880037
708.50 0.8878518
708.60 0.8877
708.70 0.8875483
708.80 0.8873966
708.90 0.887245
709.00 0.8870991
709.10 0.8869546
709.20 0.8868102
709.30 0.8866658
709.40 0.8865215
709.50 0.8863772
709.60 0.8862329
709.70 0.8860887
709.80 0.8859445
709.90 0.8858004
710.00 0.8856564
710.10 0.8855123
710.20 0.8853683
710.30 0.8852244
710.40 0.8850805
710.50 0.8849367
710.60 0.884791
710.70 0.8846449
710.80 0.8844989
710.90 0.8843529
711.00 0.8842069
711.10 0.884061
711.20 0.8839152
711.30 0.8837694
711.40 0.8836236
711.50 0.8834779
711.60 0.8833323
711.70 0.8831866
711.80 0.8830411
711.90 0.8828956
712.00 0.8827501
712.10 0.8826041
712.20 0.882458
712.30 0.8823119
712.40 0.8821659
712.50 0.8820199
712.60 0.881874
712.70 0.8817281
712.80 0.8815823
712.90 0.8814366
713.00 0.8812908
713.10 0.8811451
713.20 0.8809995
713.30 0.8808539
713.40 0.8807084
713.50 0.8805629
713.60 0.8804175
713.70 0.8802778
713.80 0.8801497
713.90 0.8800216
714.00 0.8798936
714.10 0.8797462
714.20 0.8795944
714.30 0.8794425
714.40 0.8792908
714.50 0.8791391
714.60 0.8789874
714.70 0.8788358
714.80 0.8786842
714.90 0.8785327
715.00 0.8783812
715.10 0.8782298
715.20 0.8780784
715.30 0.8779271
715.40 0.8777759
715.50 0.8776246
715.60 0.8774735
715.70 0.8773224
715.80 0.8771713
715.90 0.8770203
716.00 0.8768693
716.10 0.8767184
716.20 0.8765676
716.30 0.8764167
716.40 0.876266
716.50 0.8761153
716.60 0.8759716
716.70 0.8758296
716.80 0.8756877
716.90 0.8755458
717.00 0.8754039
717.10 0.8752621
717.20 0.8751204
717.30 0.8749787
717.40 0.874837
717.50 0.8746954
717.60 0.8745538
717.70 0.8744123
717.80 0.8742708
717.90 0.8741293
718.00 0.873988
718.10 0.8738466
718.20 0.8736997
718.30 0.8735498
718.40 0.8734
718.50 0.8732503
718.60 0.8731006
718.70 0.8729509
718.80 0.8728013
718.90 0.8726518
719.00 0.8725022
719.10 0.8723528
719.20 0.8722034
719.30 0.872054
719.40 0.8719047
719.50 0.8717554
719.60 0.8716062
719.70 0.8714571
719.80 0.871308
719.90 0.8711589
720.00 0.8710099
720.10 0.8708609
720.20 0.870712
720.30 0.8705631
720.40 0.8704143
720.50 0.8702655
720.60 0.8701168
720.70 0.8699603
720.80 0.8697996
720.90 0.8696474
721.00 0.8694955
721.10 0.8693437
721.20 0.8691919
721.30 0.8690402
721.40 0.8688885
721.50 0.8687369
721.60 0.8685853
721.70 0.8684338
721.80 0.8682823
721.90 0.8681309
722.00 0.8679795
722.10 0.8678282
722.20 0.867677
722.30 0.8675257
722.40 0.8673746
722.50 0.8672235
722.60 0.8670724
722.70 0.8669283
722.80 0.8667879
722.90 0.8666475
723.00 0.8665072
723.10 0.866367
723.20 0.8662267
723.30 0.8660866
723.40 0.8659464
723.50 0.8658064
723.60 0.8656663
723.70 0.8655263
723.80 0.8653864
723.90 0.8652465
724.00 0.8651066
724.10 0.8649668
724.20 0.8648175
724.30 0.8646632
724.40 0.8645089
724.50 0.8643546
724.60 0.8642004
724.70 0.8640463
724.80 0.8638922
724.90 0.8637381
725.00 0.8635841
725.10 0.8634302
725.20 0.8632763
725.30 0.8631224
725.40 0.8629687
725.50 0.8628149
725.60 0.8626613
725.70 0.8625076
725.80 0.8623606
725.90 0.8622172
726.00 0.8620738
726.10 0.8619304
726.20 0.8617871
726.30 0.8616439
726.40 0.8615007
726.50 0.8613575
726.60 0.8612144
726.70 0.8610713
726.80 0.8609254
726.90 0.8607779
727.00 0.8606305
727.10 0.8604832
727.20 0.8603359
727.30 0.8601886
727.40 0.8600269
727.50 0.8598574
727.60 0.859688
727.70 0.8595187
727.80 0.8593929
727.90 0.8592905
728.00 0.8591013
728.10 0.858999
728.20 0.8587631
728.30 0.8586608
728.40 0.8584685
728.50 0.8582996
728.60 0.8581525
728.70 0.858017
728.80 0.8578817
728.90 0.8577463
729.00 0.8576038
729.10 0.8574574
729.20 0.8573111
729.30 0.8571649
729.40 0.8570186
729.50 0.8568725
729.60 0.8567206
729.70 0.8565656
729.80 0.8564107
729.90 0.8562559
730.00 0.8561011
730.10 0.8559464
730.20 0.8557917
730.30 0.8556371
730.40 0.8554825
730.50 0.855328
730.60 0.8551757
730.70 0.8550246
730.80 0.8548735
730.90 0.8547225
731.00 0.8545716
731.10 0.8544207
731.20 0.8542698
731.30 0.854119
731.40 0.8539683
731.50 0.8538176
731.60 0.8536669
731.70 0.8535163
731.80 0.8533658
731.90 0.8532153
732.00 0.8530649
732.10 0.8529145
732.20 0.8527677
732.30 0.8526229
732.40 0.8524782
732.50 0.8523335
732.60 0.8521888
732.70 0.8520442
732.80 0.8518997
732.90 0.8517552
733.00 0.8516107
733.10 0.8514663
733.20 0.851322
733.30 0.8511776
733.40 0.8510334
733.50 0.8508891
733.60 0.850745
733.70 0.8505954
733.80 0.850443
733.90 0.8502907
734.00 0.8501384
734.10 0.8499862
734.20 0.849834
734.30 0.8496819
734.40 0.8495298
734.50 0.8493777
734.60 0.8492258
734.70 0.8490738
734.80 0.8489219
734.90 0.8487701
735.00 0.8486183
735.10 0.8484666
735.20 0.8483149
735.30 0.8481631
735.40 0.8480089
735.50 0.8478547
735.60 0.8477005
735.70 0.8475479
735.80 0.8473961
735.90 0.8472443
736.00 0.8470926
736.10 0.8469409
736.20 0.8467893
736.30 0.8466377
736.40 0.8464862
736.50 0.8463347
736.60 0.8461833
736.70 0.8460319
736.80 0.8458806
736.90 0.8457294
737.00 0.8455782
737.10 0.845427
737.20 0.8452759
737.30 0.8451248
737.40 0.8449738
737.50 0.8448229
737.60 0.844672
737.70 0.8445211
737.80 0.8443703
737.90 0.8442196
738.00 0.8440689
738.10 0.8439182
738.20 0.8437675
738.30 0.8436168
738.40 0.8434661
738.50 0.8433155
738.60 0.8431649
738.70 0.8430144
738.80 0.8428639
738.90 0.8427135
739.00 0.8425631
739.10 0.8424128
739.20 0.8422625
739.30 0.8421123
739.40 0.8419621
739.50 0.841812
739.60 0.841662
739.70 0.8415119
739.80 0.841362
739.90 0.8412121
740.00 0.8410622
740.10 0.8409124
740.20 0.8407626
740.30 0.8406129
740.40 0.8404632
740.50 0.8403136
740.60 0.8401641
740.70 0.8400146
740.80 0.8398651
740.90 0.8397157
741.00 0.8395663
741.10 0.839417
741.20 0.8392677
741.30 0.8391185
741.40 0.8389694
741.50 0.8388202
741.60 0.8386712
741.70 0.8385222
741.80 0.8383732
741.90 0.8382243
742.00 0.8380754
742.10 0.8379266
742.20 0.8377778
742.30 0.8376291
742.40 0.8374805
742.50 0.8373319
742.60 0.8371833
742.70 0.8370334
742.80 0.8368825
742.90 0.8367317
743.00 0.8365809
743.10 0.8364301
743.20 0.8362794
743.30 0.8361288
743.40 0.8359782
743.50 0.8358276
743.60 0.8356772
743.70 0.8355263
743.80 0.8353738
743.90 0.8352213
744.00 0.8350689
744.10 0.8349166
744.20 0.8347643
744.30 0.834612
744.40 0.8344598
744.50 0.8343077
744.60 0.8341556
744.70 0.8340035
744.80 0.8338516
744.90 0.8336996
745.00 0.8335477
745.10 0.8333959
745.20 0.8332441
745.30 0.8330924
745.40 0.8329407
745.50 0.8327891
745.60 0.8326375
745.70 0.832486
745.80 0.8323345
745.90 0.8321831
746.00 0.8320317
746.10 0.8318804
746.20 0.8317291
746.30 0.8315779
746.40 0.8314267
746.50 0.8312756
746.60 0.8311245
746.70 0.8309735
746.80 0.8308225
746.90 0.8306716
747.00 0.8305208
747.10 0.83037
747.20 0.8302192
747.30 0.8300685
747.40 0.8299178
747.50 0.8297672
747.60 0.8296167
747.70 0.8294662
747.80 0.8293157
747.90 0.8291653
748.00 0.8290149
748.10 0.8288646
748.20 0.8287144
748.30 0.8285642
748.40 0.828414
748.50 0.8282639
748.60 0.8281139
748.70 0.8279639
748.80 0.8278139
748.90 0.827664
749.00 0.8275142
749.10 0.8273644
749.20 0.8272147
749.30 0.827065
749.40 0.8269153
749.50 0.8267657
749.60 0.8266162
749.70 0.8264667
749.80 0.8263172
749.90 0.8261678
750.00 0.8260185
750.10 0.8258682
750.20 0.8257152
750.30 0.8255622
750.40 0.8254093
750.50 0.8252565
750.60 0.8251037
750.70 0.8249509
750.80 0.8247982
750.90 0.8246456
751.00 0.824493
751.10 0.8243405
751.20 0.824188
751.30 0.8240356
751.40 0.8238832
751.50 0.8237309
751.60 0.8235786
751.70 0.8234264
751.80 0.8232742
751.90 0.8231221
752.00 0.82297
752.10 0.822818
752.20 0.822666
752.30 0.8225141
752.40 0.8223623
752.50 0.8222104
752.60 0.8220587
752.70 0.821907
752.80 0.8217553
752.90 0.8216037
753.00 0.8214522
753.10 0.8213007
753.20 0.8211492
753.30 0.8209978
753.40 0.8208465
753.50 0.8206952
753.60 0.820544
753.70 0.8203928
753.80 0.8202416
753.90 0.8200905
754.00 0.8199395
754.10 0.8197885
754.20 0.8196376
754.30 0.8194867
754.40 0.8193359
754.50 0.8191851
754.60 0.8190344
754.70 0.8188837
754.80 0.8187331
754.90 0.8185825
755.00 0.818432
755.10 0.8182815
755.20 0.8181311
755.30 0.8179807
755.40 0.8178304
755.50 0.8176801
755.60 0.8175299
755.70 0.8173797
755.80 0.8172296
755.90 0.8170795
756.00 0.8169295
756.10 0.8167795
756.20 0.8166296
756.30 0.8164798
756.40 0.81633
756.50 0.8161802
756.60 0.8160305
756.70 0.8158808
756.80 0.8157312
756.90 0.8155817
757.00 0.8154321
757.10 0.8152827
757.20 0.8151333
757.30 0.8149839
757.40 0.8148346
757.50 0.8146854
757.60 0.8145351
757.70 0.814382
757.80 0.814229
757.90 0.814076
758.00 0.8139231
758.10 0.8137702
758.20 0.8136174
758.30 0.8134646
758.40 0.8133119
758.50 0.8131593
758.60 0.8130067
758.70 0.8128541
758.80 0.8127016
758.90 0.8125492
759.00 0.8123968
759.10 0.8122444
759.20 0.8120921
759.30 0.8119399
759.40 0.8117877
759.50 0.8116356
759.60 0.8114835
759.70 0.8113315
759.80 0.8111795
759.90 0.8110276
760.00 0.8108757
760.10 0.8107239
760.20 0.8105721
760.30 0.8104204
760.40 0.8102687
760.50 0.8101171
760.60 0.8099655
760.70 0.809814
760.80 0.8096625
760.90 0.8095111
761.00 0.8093598
761.10 0.8092085
761.20 0.8090572
761.30 0.808906
761.40 0.8087549
761.50 0.8086038
761.60 0.8084527
761.70 0.8083017
761.80 0.8081508
761.90 0.8079999
762.00 0.807849
762.10 0.8076982
762.20 0.8075475
762.30 0.8073968
762.40 0.8072462
762.50 0.8070956
762.60 0.806945
762.70 0.8067946
762.80 0.8066441
762.90 0.8064937
763.00 0.8063434
763.10 0.8061931
763.20 0.8060429
763.30 0.8058927
763.40 0.8057426
763.50 0.8055925
763.60 0.8054425
763.70 0.8052925
763.80 0.8051426
763.90 0.8049927
764.00 0.8048429
764.10 0.8046931
764.20 0.8045434
764.30 0.8043938
764.40 0.8042441
764.50 0.8040946
764.60 0.8039451
764.70 0.8037956
764.80 0.8036462
764.90 0.8034968
765.00 0.8033475
765.10 0.8031982
765.20 0.8030462
765.30 0.8028917
765.40 0.8027373
765.50 0.8025829
765.60 0.8024285
765.70 0.8022742
765.80 0.80212
765.90 0.8019658
766.00 0.8018117
766.10 0.8016576
766.20 0.8015036
766.30 0.8013496
766.40 0.8011957
766.50 0.8010418
766.60 0.800888
766.70 0.8007342
766.80 0.8005805
766.90 0.8004268
767.00 0.8002732
767.10 0.8001197
767.20 0.7999662
767.30 0.7998127
767.40 0.7996593
767.50 0.799506
767.60 0.7993527
767.70 0.7991995
767.80 0.7990463
767.90 0.7988932
768.00 0.7987401
768.10 0.7985871
768.20 0.7984341
768.30 0.7982812
768.40 0.7981283
768.50 0.7979755
768.60 0.7978227
768.70 0.79767
768.80 0.7975174
768.90 0.7973648
769.00 0.7972122
769.10 0.7970597
769.20 0.7969073
769.30 0.7967549
769.40 0.7966025
769.50 0.7964502
769.60 0.796298
769.70 0.7961458
769.80 0.7959937
769.90 0.7958416
770.00 0.7956896
770.10 0.7955376
770.20 0.7953857
770.30 0.7952338
770.40 0.795082
770.50 0.7949302
770.60 0.7947785
770.70 0.7946268
770.80 0.7944752
770.90 0.7943237
771.00 0.7941721
771.10 0.7940207
771.20 0.7938693
771.30 0.7937179
771.40 0.7935666
771.50 0.7934154
771.60 0.7932642
771.70 0.793113
771.80 0.7929619
771.90 0.7928109
772.00 0.7926599
772.10 0.792509
772.20 0.7923581
772.30 0.7922072
772.40 0.7920565
772.50 0.7919057
772.60 0.791755
772.70 0.7916044
772.80 0.7914538
772.90 0.7913012
773.00 0.7911487
773.10 0.7909962
773.20 0.7908438
773.30 0.7906914
773.40 0.790539
773.50 0.7903868
773.60 0.7902345
773.70 0.7900824
773.80 0.7899302
773.90 0.7897782
774.00 0.7896261
774.10 0.7894742
774.20 0.7893222
774.30 0.7891704
774.40 0.7890186
774.50 0.7888668
774.60 0.7887151
774.70 0.7885634
774.80 0.7884118
774.90 0.7882603
775.00 0.7881088
775.10 0.7879573
775.20 0.7878059
775.30 0.7876546
775.40 0.7875033
775.50 0.7873521
775.60 0.7872009
775.70 0.7870497
775.80 0.7868987
775.90 0.7867476
776.00 0.7865966
776.10 0.7864457
776.20 0.7862948
776.30 0.786144
776.40 0.7859932
776.50 0.7858425
776.60 0.7856918
776.70 0.7855412
776.80 0.7853907
776.90 0.7852401
777.00 0.7850897
777.10 0.7849393
777.20 0.7847889
777.30 0.7846386
777.40 0.7844883
777.50 0.7843381
777.60 0.784188
777.70 0.7840378
777.80 0.7838878
777.90 0.7837378
778.00 0.7835878
778.10 0.7834379
778.20 0.7832881
778.30 0.7831383
778.40 0.7829885
778.50 0.7828388
778.60 0.7826892
778.70 0.7825396
778.80 0.7823901
778.90 0.7822406
779.00 0.7820911
779.10 0.7819417
779.20 0.7817924
779.30 0.7816431
779.40 0.7814939
779.50 0.7813447
779.60 0.7811955
779.70 0.7810465
779.80 0.7808974
779.90 0.7807484
780.00 0.7805995
780.10 0.7804506
780.20 0.7803018
780.30 0.780153
780.40 0.7800043
780.50 0.7798556
780.60 0.7797053
780.70 0.7795545
780.80 0.7794037
780.90 0.779253
781.00 0.7791023
781.10 0.7789517
781.20 0.7788011
781.30 0.7786506
781.40 0.7785001
781.50 0.7783497
781.60 0.7781993
781.70 0.778049
781.80 0.7778988
781.90 0.7777486
782.00 0.7775984
782.10 0.7774483
782.20 0.7772982
782.30 0.7771482
782.40 0.7769983
782.50 0.7768484
782.60 0.7766985
782.70 0.7765487
782.80 0.776399
782.90 0.7762493
783.00 0.7760996
783.10 0.77595
783.20 0.7758005
783.30 0.775651
783.40 0.7755015
783.50 0.7753521
783.60 0.7752028
783.70 0.7750535
783.80 0.7749042
783.90 0.7747551
784.00 0.7746059
784.10 0.7744568
784.20 0.7743078
784.30 0.7741588
784.40 0.7740099
784.50 0.773861
784.60 0.7737114
784.70 0.7735601
784.80 0.7734088
784.90 0.7732576
785.00 0.7731065
785.10 0.7729554
785.20 0.7728043
785.30 0.7726533
785.40 0.7725024
785.50 0.7723515
785.60 0.7722006
785.70 0.7720498
785.80 0.7718991
785.90 0.7717484
786.00 0.7715978
786.10 0.7714472
786.20 0.7712966
786.30 0.7711462
786.40 0.7709957
786.50 0.7708454
786.60 0.770695
786.70 0.7705448
786.80 0.7703945
786.90 0.7702444
787.00 0.7700942
787.10 0.7699442
787.20 0.7697941
787.30 0.7696442
787.40 0.7694943
787.50 0.7693444
787.60 0.7691946
787.70 0.7690448
787.80 0.7688951
787.90 0.7687455
788.00 0.7685958
788.10 0.7684463
788.20 0.7682968
788.30 0.7681473
788.40 0.7679965
788.50 0.7678451
788.60 0.7676938
788.70 0.7675425
788.80 0.7673912
788.90 0.76724
789.00 0.7670888
789.10 0.7669377
789.20 0.7667867
789.30 0.7666357
789.40 0.7664847
789.50 0.7663338
789.60 0.766183
789.70 0.7660322
789.80 0.7658815
789.90 0.7657308
790.00 0.7655801
790.10 0.7654295
790.20 0.765279
790.30 0.7651285
790.40 0.7649781
790.50 0.7648277
790.60 0.7646774
790.70 0.7645271
790.80 0.7643769
790.90 0.7642267
791.00 0.7640766
791.10 0.7639265
791.20 0.7637765
791.30 0.7636266
791.40 0.7634766
791.50 0.7633268
791.60 0.763177
791.70 0.7630272
791.80 0.7628775
791.90 0.7627278
792.00 0.7625782
792.10 0.7624287
792.20 0.7622792
792.30 0.762129
792.40 0.7619767
792.50 0.7618245
792.60 0.7616724
792.70 0.7615203
792.80 0.7613683
792.90 0.7612163
793.00 0.7610643
793.10 0.7609124
793.20 0.7607606
793.30 0.7606088
793.40 0.7604571
793.50 0.7603054
793.60 0.7601538
793.70 0.7600022
793.80 0.7598507
793.90 0.7596992
794.00 0.7595478
794.10 0.7593964
794.20 0.7592451
794.30 0.7590939
794.40 0.7589427
794.50 0.7587915
794.60 0.7586404
794.70 0.7584893
794.80 0.7583383
794.90 0.7581874
795.00 0.7580365
795.10 0.7578857
795.20 0.7577349
795.30 0.7575841
795.40 0.7574334
795.50 0.7572828
795.60 0.7571322
795.70 0.7569817
795.80 0.7568312
795.90 0.7566808
796.00 0.7565304
796.10 0.7563801
796.20 0.7562298
796.30 0.7560792
796.40 0.7559287
796.50 0.7557781
796.60 0.7556277
796.70 0.7554773
796.80 0.7553269
796.90 0.7551766
797.00 0.7550263
797.10 0.7548761
797.20 0.754726
797.30 0.7545759
797.40 0.7544258
797.50 0.7542758
797.60 0.7541259
797.70 0.753976
797.80 0.7538261
797.90 0.7536763
798.00 0.7535266
798.10 0.7533769
798.20 0.7532272
798.30 0.7530776
798.40 0.7529281
798.50 0.7527786
798.60 0.7526292
798.70 0.7524798
798.80 0.7523305
798.90 0.7521812
799.00 0.7520319
799.10 0.7518828
799.20 0.7517336
799.30 0.7515846
799.40 0.7514355
799.50 0.7512866
799.60 0.7511376
799.70 0.7509888
799.80 0.7508399
799.90 0.7506912
800.00 0.7505424
800.10 0.7503938
800.20 0.7502451
800.30 0.7500966
800.40 0.7499481
800.50 0.7497996
800.60 0.7496512
800.70 0.7495028
800.80 0.7493545
800.90 0.7492062
801.00 0.749058
801.10 0.7489099
801.20 0.7487617
801.30 0.7486137
801.40 0.7484657
801.50 0.7483177
801.60 0.7481698
801.70 0.7480219
801.80 0.7478741
801.90 0.7477264
802.00 0.7475787
802.10 0.747431
802.20 0.7472834
802.30 0.7471358
802.40 0.7469883
802.50 0.7468409
802.60 0.7466935
802.70 0.7465461
802.80 0.7463988
802.90 0.7462516
803.00 0.7461043
803.10 0.7459572
803.20 0.7458101
803.30 0.745663
803.40 0.745516
803.50 0.7453691
803.60 0.7452222
803.70 0.7450753
803.80 0.7449285
803.90 0.7447818
804.00 0.744635
804.10 0.7444884
804.20 0.7443411
804.30 0.7441914
804.40 0.7440418
804.50 0.7438923
804.60 0.7437428
804.70 0.7435933
804.80 0.7434439
804.90 0.7432945
805.00 0.7431452
805.10 0.742996
805.20 0.7428468
805.30 0.7426976
805.40 0.7425485
805.50 0.7423995
805.60 0.7422505
805.70 0.7421016
805.80 0.7419527
805.90 0.7418038
806.00 0.741655
806.10 0.7415063
806.20 0.7413576
806.30 0.741209
806.40 0.7410604
806.50 0.7409118
806.60 0.7407634
806.70 0.7406149
806.80 0.7404665
806.90 0.7403182
807.00 0.7401699
807.10 0.7400217
807.20 0.7398735
807.30 0.7397254
807.40 0.7395773
807.50 0.7394293
807.60 0.7392813
807.70 0.7391334
807.80 0.7389855
807.90 0.7388377
808.00 0.7386899
808.10 0.7385421
808.20 0.7383945
808.30 0.7382468
808.40 0.7380993
808.50 0.7379518
808.60 0.7378043
808.70 0.7376569
808.80 0.7375095
808.90 0.7373622
809.00 0.7372149
809.10 0.7370677
809.20 0.7369205
809.30 0.7367734
809.40 0.7366263
809.50 0.7364793
809.60 0.7363323
809.70 0.7361854
809.80 0.7360385
809.90 0.7358917
810.00 0.7357449
810.10 0.7355982
810.20 0.7354515
810.30 0.7353049
810.40 0.7351583
810.50 0.7350118
810.60 0.7348654
810.70 0.7347189
810.80 0.7345726
810.90 0.7344262
811.00 0.73428
811.10 0.7341337
811.20 0.7339876
811.30 0.7338415
811.40 0.7336954
811.50 0.7335494
811.60 0.7334034
811.70 0.7332575
811.80 0.7331116
811.90 0.7329658
812.00 0.73282
812.10 0.7326743
812.20 0.7325286
812.30 0.7323797
812.40 0.73223
812.50 0.7320803
812.60 0.7319307
812.70 0.7317812
812.80 0.7316317
812.90 0.7314822
813.00 0.7313329
813.10 0.7311835
813.20 0.7310342
813.30 0.730885
813.40 0.7307358
813.50 0.7305867
813.60 0.7304376
813.70 0.7302886
813.80 0.7301396
813.90 0.7299907
814.00 0.7298418
814.10 0.729693
814.20 0.7295442
814.30 0.7293955
814.40 0.7292468
814.50 0.7290982
814.60 0.7289496
814.70 0.7288011
814.80 0.7286526
814.90 0.7285042
815.00 0.7283558
815.10 0.7282075
815.20 0.7280592
815.30 0.727911
815.40 0.7277629
815.50 0.7276147
815.60 0.7274667
815.70 0.7273187
815.80 0.7271707
815.90 0.7270228
816.00 0.7268749
816.10 0.7267271
816.20 0.7265794
816.30 0.7264317
816.40 0.726284
816.50 0.7261364
816.60 0.7259888
816.70 0.7258413
816.80 0.7256939
816.90 0.7255465
817.00 0.7253991
817.10 0.7252518
817.20 0.7251046
817.30 0.7249574
817.40 0.7248102
817.50 0.7246631
817.60 0.724516
817.70 0.724369
817.80 0.7242221
817.90 0.7240752
818.00 0.7239283
818.10 0.7237815
818.20 0.7236348
818.30 0.7234881
818.40 0.7233414
818.50 0.7231948
818.60 0.7230483
818.70 0.7229018
818.80 0.7227553
818.90 0.7226089
819.00 0.7224626
819.10 0.7223163
819.20 0.72217
819.30 0.7220207
819.40 0.7218692
819.50 0.7217179
819.60 0.7215666
819.70 0.7214153
819.80 0.7212641
819.90 0.721113
820.00 0.7209619
820.10 0.7208086
820.20 0.7206734
820.30 0.7205433
820.40 0.7204034
820.50 0.7202563
820.60 0.7201093
820.70 0.7199624
820.80 0.7198155
820.90 0.7196687
821.00 0.7195219
821.10 0.7193752
821.20 0.7192285
821.30 0.7190819
821.40 0.7189353
821.50 0.7187887
821.60 0.7186423
821.70 0.7184958
821.80 0.7183494
821.90 0.7182031
822.00 0.7180568
822.10 0.7179106
822.20 0.7177644
822.30 0.7176183
822.40 0.7174722
822.50 0.7173262
822.60 0.7171802
822.70 0.7170342
822.80 0.7168884
822.90 0.7167425
823.00 0.7165967
823.10 0.716451
823.20 0.7163053
823.30 0.7161597
823.40 0.7160141
823.50 0.7158686
823.60 0.7157231
823.70 0.7155776
823.80 0.7154322
823.90 0.7152869
824.00 0.7151416
824.10 0.7149964
824.20 0.7148512
824.30 0.714706
824.40 0.714561
824.50 0.7144159
824.60 0.7142709
824.70 0.714126
824.80 0.7139811
824.90 0.7138362
825.00 0.7136914
825.10 0.7135467
825.20 0.713402
825.30 0.7132574
825.40 0.7131128
825.50 0.7129682
825.60 0.7128237
825.70 0.7126792
825.80 0.7125348
825.90 0.7123905
826.00 0.7122462
826.10 0.7121019
826.20 0.7119577
826.30 0.7118129
826.40 0.7116676
826.50 0.7115224
826.60 0.7113772
826.70 0.7112321
826.80 0.7110871
826.90 0.7109421
827.00 0.7107971
827.10 0.7106522
827.20 0.7105073
827.30 0.7103625
827.40 0.7102177
827.50 0.710073
827.60 0.7099284
827.70 0.7097837
827.80 0.7096392
827.90 0.7094947
828.00 0.7093502
828.10 0.7092058
828.20 0.7090614
828.30 0.7089171
828.40 0.7087728
828.50 0.7086286
828.60 0.7084827
828.70 0.7083354
828.80 0.7081881
828.90 0.7080409
829.00 0.7078937
829.10 0.7077466
829.20 0.7075996
829.30 0.7074525
829.40 0.7073056
829.50 0.7071587
829.60 0.7070118
829.70 0.706865
829.80 0.7067183
829.90 0.7065715
830.00 0.7064249
830.10 0.7062783
830.20 0.7061317
830.30 0.7059852
830.40 0.7058388
830.50 0.7056924
830.60 0.705546
830.70 0.7053997
830.80 0.7052534
830.90 0.7051072
831.00 0.7049611
831.10 0.704815
831.20 0.7046689
831.30 0.7045229
831.40 0.7043769
831.50 0.704231
831.60 0.7040852
831.70 0.7039394
831.80 0.7037936
831.90 0.7036479
832.00 0.7035022
832.10 0.7033566
832.20 0.7032111
832.30 0.7030656
832.40 0.7029201
832.50 0.7027747
832.60 0.7026293
832.70 0.702484
832.80 0.7023388
832.90 0.7021936
833.00 0.7020484
833.10 0.7019033
833.20 0.7017582
833.30 0.7016132
833.40 0.7014682
833.50 0.7013233
833.60 0.7011785
833.70 0.7010336
833.80 0.7008889
833.90 0.7007441
834.00 0.7005995
834.10 0.7004549
834.20 0.7003103
834.30 0.7001658
834.40 0.7000213
834.50 0.6998769
834.60 0.6997325
834.70 0.6995882
834.80 0.6994439
834.90 0.6992997
835.00 0.6991555
835.10 0.6990114
835.20 0.6988673
835.30 0.6987232
835.40 0.6985793
835.50 0.6984353
835.60 0.6982914
835.70 0.6981476
835.80 0.6980038
835.90 0.6978601
836.00 0.6977164
836.10 0.6975728
836.20 0.6974292
836.30 0.6972856
836.40 0.6971421
836.50 0.6969987
836.60 0.6968553
836.70 0.6967119
836.80 0.6965686
836.90 0.6964244
837.00 0.6962798
837.10 0.6961352
837.20 0.6959906
837.30 0.6958461
837.40 0.6957017
837.50 0.6955573
837.60 0.6954129
837.70 0.6952686
837.80 0.6951244
837.90 0.6949802
838.00 0.6948361
838.10 0.694692
838.20 0.6945479
838.30 0.6944039
838.40 0.6942599
838.50 0.694116
838.60 0.6939722
838.70 0.6938284
838.80 0.6936846
838.90 0.6935409
839.00 0.6933972
839.10 0.6932536
839.20 0.6931101
839.30 0.6929666
839.40 0.6928231
839.50 0.6926797
839.60 0.6925363
839.70 0.692393
839.80 0.6922497
839.90 0.6921065
840.00 0.6919633
840.10 0.6918202
840.20 0.6916771
840.30 0.6915341
840.40 0.6913911
840.50 0.6912482
840.60 0.6911053
840.70 0.6909625
840.80 0.6908197
840.90 0.6906769
841.00 0.6905342
841.10 0.6903916
841.20 0.690249
841.30 0.6901065
841.40 0.689964
841.50 0.6898215
841.60 0.6896791
841.70 0.6895367
841.80 0.6893944
841.90 0.6892522
842.00 0.68911
842.10 0.6889678
842.20 0.6888257
842.30 0.6886836
842.40 0.6885416
842.50 0.6883996
842.60 0.6882577
842.70 0.6881158
842.80 0.687974
842.90 0.6878322
843.00 0.6876905
843.10 0.6875488
843.20 0.6874072
843.30 0.6872656
843.40 0.687124
843.50 0.6869825
843.60 0.6868411
843.70 0.6866997
843.80 0.6865583
843.90 0.686417
844.00 0.6862758
844.10 0.6861346
844.20 0.6859934
844.30 0.6858523
844.40 0.6857112
844.50 0.6855702
844.60 0.6854293
844.70 0.6852883
844.80 0.6851475
844.90 0.6850066
845.00 0.6848659
845.10 0.6847251
845.20 0.6845844
845.30 0.6844401
845.40 0.6842958
845.50 0.6841515
845.60 0.6840073
845.70 0.6838631
845.80 0.683719
845.90 0.6835749
846.00 0.6834309
846.10 0.6832869
846.20 0.683143
846.30 0.6829992
846.40 0.6828553
846.50 0.6827116
846.60 0.6825678
846.70 0.6824241
846.80 0.6822805
846.90 0.6821369
847.00 0.6819934
847.10 0.6818499
847.20 0.6817065
847.30 0.6815631
847.40 0.6814198
847.50 0.6812765
847.60 0.6811332
847.70 0.6809901
847.80 0.6808469
847.90 0.6807038
848.00 0.6805608
848.10 0.6804178
848.20 0.6802748
848.30 0.6801319
848.40 0.6799891
848.50 0.6798463
848.60 0.6797035
848.70 0.6795608
848.80 0.6794182
848.90 0.6792756
849.00 0.679133
849.10 0.6789905
849.20 0.678848
849.30 0.6787056
849.40 0.6785632
849.50 0.6784209
849.60 0.6782786
849.70 0.6781364
849.80 0.6779943
849.90 0.6778521
850.00 0.67771
850.10 0.677568
850.20 0.677426
850.30 0.6772841
850.40 0.6771422
850.50 0.6770004
850.60 0.6768586
850.70 0.6767168
850.80 0.6765752
850.90 0.6764335
851.00 0.6762919
851.10 0.6761504
851.20 0.6760089
851.30 0.6758674
851.40 0.675726
851.50 0.6755846
851.60 0.6754433
851.70 0.6753021
851.80 0.6751608
851.90 0.6750197
852.00 0.6748786
852.10 0.6747375
852.20 0.6745965
852.30 0.6744555
852.40 0.6743145
852.50 0.6741737
852.60 0.6740328
852.70 0.673892
852.80 0.6737513
852.90 0.6736106
853.00 0.67347
853.10 0.6733294
853.20 0.6731888
853.30 0.6730483
853.40 0.6729079
853.50 0.6727675
853.60 0.6726271
853.70 0.6724862
853.80 0.6723446
853.90 0.672203
854.00 0.6720616
854.10 0.6719201
854.20 0.6717788
854.30 0.6716374
854.40 0.6714961
854.50 0.6713549
854.60 0.6712137
854.70 0.6710726
854.80 0.6709315
854.90 0.6707904
855.00 0.6706494
855.10 0.6705085
855.20 0.6703675
855.30 0.6702267
855.40 0.6700859
855.50 0.6699451
855.60 0.6698044
855.70 0.6696637
855.80 0.6695231
855.90 0.6693825
856.00 0.669242
856.10 0.6691015
856.20 0.6689611
856.30 0.6688207
856.40 0.6686804
856.50 0.6685401
856.60 0.6683998
856.70 0.6682596
856.80 0.6681195
856.90 0.6679794
857.00 0.6678393
857.10 0.6676993
857.20 0.6675594
857.30 0.6674195
857.40 0.6672796
857.50 0.6671398
857.60 0.667
857.70 0.6668603
857.80 0.6667206
857.90 0.666581
858.00 0.6664414
858.10 0.6663019
858.20 0.6661624
858.30 0.6660229
858.40 0.6658835
858.50 0.6657442
858.60 0.6656049
858.70 0.6654656
858.80 0.6653264
858.90 0.6651873
859.00 0.6650481
859.10 0.6649091
859.20 0.6647701
859.30 0.6646311
859.40 0.6644922
859.50 0.6643533
859.60 0.6642144
859.70 0.6640757
859.80 0.6639369
859.90 0.6637982
860.00 0.6636596
860.10 0.663521
860.20 0.6633824
860.30 0.6632439
860.40 0.6631054
860.50 0.662967
860.60 0.6628287
860.70 0.6626903
860.80 0.6625521
860.90 0.6624138
861.00 0.6622756
861.10 0.6621375
861.20 0.6619994
861.30 0.6618614
861.40 0.6617234
861.50 0.6615854
861.60 0.6614475
861.70 0.6613097
861.80 0.6611718
861.90 0.6610341
862.00 0.6608964
862.10 0.6607587
862.20 0.6606206
862.30 0.6604796
862.40 0.6603386
862.50 0.6601976
862.60 0.6600567
862.70 0.6599158
862.80 0.659775
862.90 0.6596343
863.00 0.6594935
863.10 0.6593529
863.20 0.6592122
863.30 0.6590717
863.40 0.6589311
863.50 0.6587906
863.60 0.6586502
863.70 0.6585098
863.80 0.6583695
863.90 0.6582292
864.00 0.6580889
864.10 0.6579487
864.20 0.6578086
864.30 0.6576685
864.40 0.6575284
864.50 0.6573884
864.60 0.6572484
864.70 0.6571085
864.80 0.6569686
864.90 0.6568288
865.00 0.656689
865.10 0.6565493
865.20 0.6564096
865.30 0.65627
865.40 0.6561304
865.50 0.6559909
865.60 0.6558514
865.70 0.6557119
865.80 0.6555725
865.90 0.6554332
866.00 0.6552939
866.10 0.6551546
866.20 0.6550154
866.30 0.6548762
866.40 0.6547371
866.50 0.654598
866.60 0.654459
866.70 0.65432
866.80 0.6541811
866.90 0.6540422
867.00 0.6539034
867.10 0.6537646
867.20 0.6536258
867.30 0.6534871
867.40 0.6533485
867.50 0.6532099
867.60 0.6530713
867.70 0.6529328
867.80 0.6527944
867.90 0.6526559
868.00 0.6525176
868.10 0.6523792
868.20 0.652241
868.30 0.6521027
868.40 0.6519645
868.50 0.6518264
868.60 0.6516883
868.70 0.6515502
868.80 0.6514122
868.90 0.6512743
869.00 0.6511364
869.10 0.6509985
869.20 0.6508607
869.30 0.6507229
869.40 0.6505852
869.50 0.6504475
869.60 0.6503099
869.70 0.6501723
869.80 0.6500348
869.90 0.6498973
870.00 0.6497598
870.10 0.6496224
870.20 0.6494851
870.30 0.6493478
870.40 0.6492105
870.50 0.6490733
870.60 0.6489361
870.70 0.648799
870.80 0.6486619
870.90 0.6485238
871.00 0.6483856
871.10 0.6482475
871.20 0.6481094
871.30 0.6479713
871.40 0.6478334
871.50 0.6476954
871.60 0.6475575
871.70 0.6474196
871.80 0.6472818
871.90 0.6471441
872.00 0.6470064
872.10 0.6468687
872.20 0.6467311
872.30 0.6465935
872.40 0.646456
872.50 0.6463185
872.60 0.646181
872.70 0.6460436
872.80 0.6459063
872.90 0.645769
873.00 0.6456317
873.10 0.6454945
873.20 0.6453574
873.30 0.6452202
873.40 0.6450832
873.50 0.6449461
873.60 0.6448092
873.70 0.6446722
873.80 0.6445353
873.90 0.6443985
874.00 0.6442617
874.10 0.6441249
874.20 0.6439882
874.30 0.6438516
874.40 0.643715
874.50 0.6435784
874.60 0.6434419
874.70 0.6433054
874.80 0.643169
874.90 0.6430326
875.00 0.6428962
875.10 0.6427599
875.20 0.6426237
875.30 0.6424875
875.40 0.6423513
875.50 0.6422152
875.60 0.6420791
875.70 0.6419431
875.80 0.6418071
875.90 0.6416712
876.00 0.6415353
876.10 0.6413995
876.20 0.6412637
876.30 0.6411279
876.40 0.6409922
876.50 0.6408566
876.60 0.6407209
876.70 0.6405854
876.80 0.6404498
876.90 0.6403144
877.00 0.6401789
877.10 0.6400435
877.20 0.6399082
877.30 0.6397729
877.40 0.6396376
877.50 0.6395024
877.60 0.6393673
877.70 0.6392322
877.80 0.6390971
877.90 0.638962
878.00 0.6388271
878.10 0.6386921
878.20 0.6385572
878.30 0.6384224
878.40 0.6382876
878.50 0.6381528
878.60 0.6380181
878.70 0.6378834
878.80 0.6377488
878.90 0.6376142
879.00 0.6374797
879.10 0.6373452
879.20 0.6372107
879.30 0.6370763
879.40 0.636942
879.50 0.6368077
879.60 0.6366716
879.70 0.6365352
879.80 0.6363988
879.90 0.6362625
880.00 0.6361262
880.10 0.63599
880.20 0.6358538
880.30 0.6357177
880.40 0.6355816
880.50 0.6354456
880.60 0.6353096
880.70 0.6351736
880.80 0.6350377
880.90 0.6349018
881.00 0.634766
881.10 0.6346302
881.20 0.6344945
881.30 0.6343588
881.40 0.6342232
881.50 0.6340876
881.60 0.633952
881.70 0.6338165
881.80 0.6336811
881.90 0.6335457
882.00 0.6334103
882.10 0.633275
882.20 0.6331397
882.30 0.6330045
882.40 0.6328693
882.50 0.6327341
882.60 0.632599
882.70 0.632464
882.80 0.632329
882.90 0.632194
883.00 0.6320591
883.10 0.6319242
883.20 0.6317894
883.30 0.6316546
883.40 0.6315199
883.50 0.6313852
883.60 0.6312505
883.70 0.6311159
883.80 0.6309814
883.90 0.6308468
884.00 0.6307124
884.10 0.630578
884.20 0.6304436
884.30 0.6303092
884.40 0.630175
884.50 0.6300407
884.60 0.6299065
884.70 0.6297724
884.80 0.6296382
884.90 0.6295042
885.00 0.6293702
885.10 0.6292362
885.20 0.6291022
885.30 0.6289684
885.40 0.6288345
885.50 0.6287007
885.60 0.628567
885.70 0.6284332
885.80 0.6282996
885.90 0.628166
886.00 0.6280324
886.10 0.6278988
886.20 0.6277654
886.30 0.6276319
886.40 0.6274985
886.50 0.6273652
886.60 0.6272318
886.70 0.6270986
886.80 0.6269654
886.90 0.6268322
887.00 0.626699
887.10 0.6265659
887.20 0.6264329
887.30 0.6262999
887.40 0.6261669
887.50 0.626034
887.60 0.6259011
887.70 0.6257683
887.80 0.6256355
887.90 0.6255028
888.00 0.6253701
888.10 0.6252374
888.20 0.6251048
888.30 0.6249723
888.40 0.6248379
888.50 0.6247033
888.60 0.6245688
888.70 0.6244343
888.80 0.6242999
888.90 0.6241655
889.00 0.6240311
889.10 0.6238968
889.20 0.6237625
889.30 0.6236283
889.40 0.6234942
889.50 0.62336
889.60 0.6232259
889.70 0.6230919
889.80 0.6229579
889.90 0.6228239
890.00 0.62269
890.10 0.6225562
890.20 0.6224223
890.30 0.6222886
890.40 0.6221548
890.50 0.6220211
890.60 0.6218875
890.70 0.6217539
890.80 0.6216203
890.90 0.6214868
891.00 0.6213534
891.10 0.6212199
891.20 0.6210866
891.30 0.6209532
891.40 0.6208199
891.50 0.6206867
891.60 0.6205535
891.70 0.6204203
891.80 0.6202872
891.90 0.6201542
892.00 0.6200211
892.10 0.6198882
892.20 0.6197552
892.30 0.6196223
892.40 0.6194895
892.50 0.6193567
892.60 0.6192239
892.70 0.6190912
892.80 0.6189585
892.90 0.6188259
893.00 0.6186933
893.10 0.6185608
893.20 0.6184283
893.30 0.6182958
893.40 0.6181634
893.50 0.6180311
893.60 0.6178987
893.70 0.6177665
893.80 0.6176342
893.90 0.617502
894.00 0.6173699
894.10 0.6172378
894.20 0.6171057
894.30 0.6169737
894.40 0.6168417
894.50 0.6167098
894.60 0.6165779
894.70 0.6164461
894.80 0.6163143
894.90 0.6161825
895.00 0.6160508
895.10 0.6159191
895.20 0.6157875
895.30 0.6156559
895.40 0.6155244
895.50 0.6153929
895.60 0.6152615
895.70 0.61513
895.80 0.6149987
895.90 0.6148674
896.00 0.6147361
896.10 0.6146049
896.20 0.6144737
896.30 0.6143425
896.40 0.6142114
896.50 0.6140803
896.60 0.6139493
896.70 0.6138184
896.80 0.6136874
896.90 0.6135565
897.00 0.6134257
897.10 0.6132949
897.20 0.613164
897.30 0.6130313
897.40 0.6128986
897.50 0.612766
897.60 0.6126334
897.70 0.6125008
897.80 0.6123683
897.90 0.6122358
898.00 0.6121034
898.10 0.611971
898.20 0.6118387
898.30 0.6117064
898.40 0.6115741
898.50 0.6114419
898.60 0.6113097
898.70 0.6111776
898.80 0.6110455
898.90 0.6109135
899.00 0.6107815
899.10 0.6106495
899.20 0.6105176
899.30 0.6103858
899.40 0.6102539
899.50 0.6101222
899.60 0.6099904
899.70 0.6098588
899.80 0.6097271
899.90 0.6095955
900.00 0.609464
900.10 0.6093324
900.20 0.609201
900.30 0.6090695
900.40 0.6089382
900.50 0.6088068
900.60 0.6086755
900.70 0.6085443
900.80 0.6084131
900.90 0.6082819
901.00 0.6081508
901.10 0.6080197
901.20 0.6078886
901.30 0.6077576
901.40 0.6076267
901.50 0.6074958
901.60 0.6073649
901.70 0.6072341
901.80 0.6071033
901.90 0.6069726
902.00 0.6068419
902.10 0.6067112
902.20 0.6065806
902.30 0.6064501
902.40 0.6063195
902.50 0.6061891
902.60 0.6060586
902.70 0.6059282
902.80 0.6057979
902.90 0.6056676
903.00 0.6055373
903.10 0.6054071
903.20 0.6052769
903.30 0.6051468
903.40 0.6050167
903.50 0.6048866
903.60 0.6047566
903.70 0.6046267
903.80 0.6044968
903.90 0.6043669
904.00 0.604237
904.10 0.6041072
904.20 0.6039775
904.30 0.6038478
904.40 0.6037181
904.50 0.6035885
904.60 0.6034589
904.70 0.6033294
904.80 0.6031999
904.90 0.6030704
905.00 0.602941
905.10 0.6028117
905.20 0.6026823
905.30 0.602553
905.40 0.6024238
905.50 0.6022946
905.60 0.6021655
905.70 0.6020363
905.80 0.6019073
905.90 0.6017782
906.00 0.6016493
906.10 0.6015203
906.20 0.6013908
906.30 0.60126
906.40 0.6011292
906.50 0.6009985
906.60 0.6008678
906.70 0.6007372
906.80 0.6006066
906.90 0.6004761
907.00 0.6003456
907.10 0.6002151
907.20 0.6000847
907.30 0.5999543
907.40 0.599824
907.50 0.5996937
907.60 0.5995635
907.70 0.5994333
907.80 0.5993031
907.90 0.599173
908.00 0.5990429
908.10 0.5989129
908.20 0.5987829
908.30 0.598653
908.40 0.5985231
908.50 0.5983932
908.60 0.5982634
908.70 0.5981336
908.80 0.5980039
908.90 0.5978742
909.00 0.5977446
909.10 0.5976149
909.20 0.5974854
909.30 0.5973559
909.40 0.5972264
909.50 0.597097
909.60 0.5969676
909.70 0.5968382
909.80 0.5967089
909.90 0.5965797
910.00 0.5964504
910.10 0.5963213
910.20 0.5961921
910.30 0.596063
910.40 0.595934
910.50 0.595805
910.60 0.595676
910.70 0.5955471
910.80 0.5954182
910.90 0.5952894
911.00 0.5951606
911.10 0.5950318
911.20 0.5949031
911.30 0.5947744
911.40 0.5946458
911.50 0.5945172
911.60 0.5943887
911.70 0.5942602
911.80 0.5941317
911.90 0.5940033
912.00 0.5938749
912.10 0.5937466
912.20 0.5936183
912.30 0.59349
912.40 0.5933618
912.50 0.5932336
912.60 0.5931055
912.70 0.5929774
912.80 0.5928494
912.90 0.5927214
913.00 0.5925934
913.10 0.5924655
913.20 0.5923377
913.30 0.5922098
913.40 0.592082
913.50 0.5919543
913.60 0.5918266
913.70 0.5916989
913.80 0.5915713
913.90 0.5914437
914.00 0.5913162
914.10 0.5911887
914.20 0.5910612
914.30 0.5909338
914.40 0.5908064
914.50 0.5906791
914.60 0.5905518
914.70 0.5904246
914.80 0.5902974
914.90 0.5901702
915.00 0.5900431
915.10 0.589916
915.20 0.5897889
915.30 0.5896606
915.40 0.5895318
915.50 0.589403
915.60 0.5892743
915.70 0.5891456
915.80 0.5890169
915.90 0.5888883
916.00 0.5887598
916.10 0.5886312
916.20 0.5885027
916.30 0.5883743
916.40 0.5882459
916.50 0.5881175
916.60 0.5879892
916.70 0.5878609
916.80 0.5877327
916.90 0.5876045
917.00 0.5874764
917.10 0.5873482
917.20 0.5872202
917.30 0.5870922
917.40 0.5869642
917.50 0.5868362
917.60 0.5867083
917.70 0.5865805
917.80 0.5864527
917.90 0.5863249
918.00 0.5861971
918.10 0.5860695
918.20 0.5859418
918.30 0.5858142
918.40 0.5856866
918.50 0.5855591
918.60 0.5854316
918.70 0.5853042
918.80 0.5851768
918.90 0.5850494
919.00 0.5849221
919.10 0.5847948
919.20 0.5846676
919.30 0.5845404
919.40 0.5844133
919.50 0.5842862
919.60 0.5841591
919.70 0.5840321
919.80 0.5839051
919.90 0.5837781
920.00 0.5836512
920.10 0.5835244
920.20 0.5833976
920.30 0.5832708
920.40 0.583144
920.50 0.5830173
920.60 0.5828907
920.70 0.5827641
920.80 0.5826375
920.90 0.582511
921.00 0.5823845
921.10 0.582258
921.20 0.5821316
921.30 0.5820053
921.40 0.5818789
921.50 0.5817527
921.60 0.5816264
921.70 0.5815002
921.80 0.5813741
921.90 0.5812479
922.00 0.5811219
922.10 0.5809958
922.20 0.5808698
922.30 0.5807439
922.40 0.580618
922.50 0.5804921
922.60 0.5803663
922.70 0.5802405
922.80 0.5801147
922.90 0.579989
923.00 0.5798633
923.10 0.5797377
923.20 0.5796121
923.30 0.5794866
923.40 0.5793611
923.50 0.5792356
923.60 0.5791102
923.70 0.5789848
923.80 0.5788595
923.90 0.5787342
924.00 0.5786089
924.10 0.5784837
924.20 0.5783585
924.30 0.5782334
924.40 0.5781083
924.50 0.5779832
924.60 0.5778582
924.70 0.5777332
924.80 0.5776083
924.90 0.5774834
925.00 0.5773585
925.10 0.5772337
925.20 0.577109
925.30 0.5769842
925.40 0.5768595
925.50 0.5767349
925.60 0.5766103
925.70 0.5764857
925.80 0.5763612
925.90 0.5762367
926.00 0.5761122
926.10 0.5759878
926.20 0.5758634
926.30 0.5757391
926.40 0.5756148
926.50 0.5754906
926.60 0.5753664
926.70 0.5752422
926.80 0.5751181
926.90 0.574994
927.00 0.5748699
927.10 0.5747459
927.20 0.574622
927.30 0.574498
927.40 0.5743741
927.50 0.5742503
927.60 0.5741265
927.70 0.5740027
927.80 0.573879
927.90 0.5737553
928.00 0.5736317
928.10 0.573508
928.20 0.5733845
928.30 0.573261
928.40 0.5731375
928.50 0.573014
928.60 0.5728906
928.70 0.5727672
928.80 0.5726439
928.90 0.5725206
929.00 0.5723974
929.10 0.5722725
929.20 0.5721475
929.30 0.5720226
929.40 0.5718978
929.50 0.5717729
929.60 0.5716481
929.70 0.5715234
929.80 0.5713987
929.90 0.571274
930.00 0.5711494
930.10 0.5710248
930.20 0.5709003
930.30 0.5707758
930.40 0.5706513
930.50 0.5705269
930.60 0.5704025
930.70 0.5702782
930.80 0.5701539
930.90 0.5700296
931.00 0.5699054
931.10 0.5697813
931.20 0.5696571
931.30 0.569533
931.40 0.569409
931.50 0.5692849
931.60 0.569161
931.70 0.569037
931.80 0.5689131
931.90 0.5687893
932.00 0.5686655
932.10 0.5685417
932.20 0.5684179
932.30 0.5682943
932.40 0.5681706
932.50 0.568047
932.60 0.5679234
932.70 0.5677999
932.80 0.5676764
932.90 0.5675529
933.00 0.5674295
933.10 0.5673061
933.20 0.5671828
933.30 0.5670595
933.40 0.5669362
933.50 0.566813
933.60 0.5666898
933.70 0.5665661
933.80 0.5664421
933.90 0.5663182
934.00 0.5661943
934.10 0.5660705
934.20 0.5659467
934.30 0.565823
934.40 0.5656992
934.50 0.5655756
934.60 0.5654519
934.70 0.5653284
934.80 0.5652048
934.90 0.5650813
935.00 0.5649578
935.10 0.5648344
935.20 0.564711
935.30 0.5645876
935.40 0.5644643
935.50 0.5643411
935.60 0.5642178
935.70 0.5640946
935.80 0.5639715
935.90 0.5638484
936.00 0.5637253
936.10 0.5636023
936.20 0.5634793
936.30 0.5633563
936.40 0.5632334
936.50 0.5631105
936.60 0.5629877
936.70 0.5628649
936.80 0.5627421
936.90 0.5626194
937.00 0.5624967
937.10 0.5623741
937.20 0.5622515
937.30 0.562129
937.40 0.5620064
937.50 0.561884
937.60 0.5617615
937.70 0.5616391
937.80 0.5615168
937.90 0.5613944
938.00 0.5612722
938.10 0.5611499
938.20 0.5610277
938.30 0.5609055
938.40 0.5607834
938.50 0.5606613
938.60 0.5605393
938.70 0.5604173
938.80 0.5602953
938.90 0.5601734
939.00 0.5600515
939.10 0.5599296
939.20 0.5598078
939.30 0.5596861
939.40 0.5595643
939.50 0.5594426
939.60 0.559321
939.70 0.5591994
939.80 0.5590778
939.90 0.5589563
940.00 0.5588348
940.10 0.5587133
940.20 0.5585919
940.30 0.5584705
940.40 0.5583492
940.50 0.5582279
940.60 0.5581066
940.70 0.5579854
940.80 0.5578642
940.90 0.557743
941.00 0.5576219
941.10 0.5575009
941.20 0.5573798
941.30 0.5572588
941.40 0.5571379
941.50 0.557017
941.60 0.5568961
941.70 0.5567753
941.80 0.5566545
941.90 0.5565337
942.00 0.556413
942.10 0.5562923
942.20 0.5561717
942.30 0.5560511
942.40 0.5559305
942.50 0.55581
942.60 0.5556895
942.70 0.555569
942.80 0.5554486
942.90 0.5553282
943.00 0.5552073
943.10 0.5550853
943.20 0.5549634
943.30 0.5548415
943.40 0.5547197
943.50 0.5545979
943.60 0.5544761
943.70 0.5543544
943.80 0.5542327
943.90 0.5541111
944.00 0.5539894
944.10 0.5538679
944.20 0.5537464
944.30 0.5536249
944.40 0.5535034
944.50 0.553382
944.60 0.5532606
944.70 0.5531393
944.80 0.553018
944.90 0.5528967
945.00 0.5527755
945.10 0.5526544
945.20 0.5525332
945.30 0.5524121
945.40 0.5522911
945.50 0.55217
945.60 0.552049
945.70 0.5519281
945.80 0.5518072
945.90 0.5516863
946.00 0.5515655
946.10 0.5514447
946.20 0.551324
946.30 0.5512032
946.40 0.5510826
946.50 0.5509619
946.60 0.5508413
946.70 0.5507208
946.80 0.5506003
946.90 0.5504798
947.00 0.5503593
947.10 0.5502389
947.20 0.5501186
947.30 0.5499983
947.40 0.549878
947.50 0.5497577
947.60 0.5496375
947.70 0.5495173
947.80 0.5493972
947.90 0.5492771
948.00 0.5491571
948.10 0.549037
948.20 0.5489171
948.30 0.5487971
948.40 0.5486772
948.50 0.5485574
948.60 0.5484375
948.70 0.5483177
948.80 0.548198
948.90 0.5480783
949.00 0.5479586
949.10 0.547839
949.20 0.5477194
949.30 0.5475998
949.40 0.5474803
949.50 0.5473608
949.60 0.5472414
949.70 0.547122
949.80 0.5470026
949.90 0.5468833
950.00 0.546764
950.10 0.5466447
950.20 0.5465255
950.30 0.5464063
950.40 0.5462872
950.50 0.5461681
950.60 0.546049
950.70 0.54593
950.80 0.545811
950.90 0.5456921
951.00 0.5455732
951.10 0.5454543
951.20 0.5453355
951.30 0.5452167
951.40 0.5450979
951.50 0.5449792
951.60 0.5448605
951.70 0.5447419
951.80 0.5446233
951.90 0.5445047
952.00 0.5443861
952.10 0.5442677
952.20 0.5441492
952.30 0.5440308
952.40 0.5439123
952.50 0.5437932
952.60 0.5436741
952.70 0.5435551
952.80 0.5434361
952.90 0.5433171
953.00 0.5431982
953.10 0.5430793
953.20 0.5429604
953.30 0.5428416
953.40 0.5427228
953.50 0.5426041
953.60 0.5424854
953.70 0.5423667
953.80 0.5422481
953.90 0.5421295
954.00 0.5420109
954.10 0.5418924
954.20 0.5417739
954.30 0.5416555
954.40 0.5415371
954.50 0.5414187
954.60 0.5413004
954.70 0.5411821
954.80 0.5410639
954.90 0.5409457
955.00 0.5408275
955.10 0.5407093
955.20 0.5405912
955.30 0.5404732
955.40 0.5403552
955.50 0.5402372
955.60 0.5401192
955.70 0.5400013
955.80 0.5398834
955.90 0.5397656
956.00 0.5396478
956.10 0.53953
956.20 0.5394123
956.30 0.5392946
956.40 0.539177
956.50 0.5390593
956.60 0.5389418
956.70 0.5388242
956.80 0.5387067
956.90 0.5385893
957.00 0.5384718
957.10 0.5383544
957.20 0.5382363
957.30 0.5381174
957.40 0.5379985
957.50 0.5378796
957.60 0.5377608
957.70 0.537642
957.80 0.5375233
957.90 0.5374046
958.00 0.5372859
958.10 0.5371673
958.20 0.5370487
958.30 0.5369301
958.40 0.5368116
958.50 0.5366931
958.60 0.5365747
958.70 0.5364563
958.80 0.5363379
958.90 0.5362195
959.00 0.5361013
959.10 0.535983
959.20 0.5358648
959.30 0.5357466
959.40 0.5356284
959.50 0.5355103
959.60 0.5353923
959.70 0.5352742
959.80 0.5351562
959.90 0.5350383
960.00 0.5349204
960.10 0.5348025
960.20 0.5346846
960.30 0.5345668
960.40 0.5344491
960.50 0.5343313
960.60 0.5342136
960.70 0.534096
960.80 0.5339784
960.90 0.5338608
961.00 0.5337432
961.10 0.5336257
961.20 0.5335083
961.30 0.5333908
961.40 0.5332734
961.50 0.5331561
961.60 0.5330387
961.70 0.5329215
961.80 0.5328042
961.90 0.532687
962.00 0.5325699
962.10 0.5324528
962.20 0.5323358
962.30 0.5322188
962.40 0.5321018
962.50 0.5319849
962.60 0.531868
962.70 0.5317512
962.80 0.5316344
962.90 0.5315176
963.00 0.5314008
963.10 0.5312841
963.20 0.5311675
963.30 0.5310509
963.40 0.5309343
963.50 0.5308177
963.60 0.5307012
963.70 0.5305847
963.80 0.5304683
963.90 0.5303519
964.00 0.5302355
964.10 0.5301192
964.20 0.5300029
964.30 0.5298866
964.40 0.5297704
964.50 0.5296542
964.60 0.5295381
964.70 0.529422
964.80 0.5293059
964.90 0.5291898
965.00 0.5290738
965.10 0.5289579
965.20 0.528842
965.30 0.5287261
965.40 0.5286102
965.50 0.5284944
965.60 0.5283786
965.70 0.5282629
965.80 0.5281472
965.90 0.5280315
966.00 0.5279159
966.10 0.5278003
966.20 0.5276847
966.30 0.5275692
966.40 0.5274537
966.50 0.5273382
966.60 0.5272228
966.70 0.5271075
966.80 0.5269921
966.90 0.5268768
967.00 0.5267615
967.10 0.5266463
967.20 0.5265311
967.30 0.5264159
967.40 0.5263008
967.50 0.5261857
967.60 0.5260707
967.70 0.5259557
967.80 0.5258407
967.90 0.5257258
968.00 0.5256108
968.10 0.525496
968.20 0.5253811
968.30 0.5252664
968.40 0.5251516
968.50 0.5250369
968.60 0.5249222
968.70 0.5248075
968.80 0.5246929
968.90 0.5245783
969.00 0.5244638
969.10 0.5243493
969.20 0.5242348
969.30 0.5241204
969.40 0.524006
969.50 0.5238916
969.60 0.5237773
969.70 0.523663
969.80 0.5235487
969.90 0.5234345
970.00 0.5233203
970.10 0.5232062
970.20 0.5230921
970.30 0.522978
970.40 0.522864
970.50 0.52275
970.60 0.522636
970.70 0.5225221
970.80 0.5224082
970.90 0.5222943
971.00 0.5221805
971.10 0.5220667
971.20 0.5219529
971.30 0.5218392
971.40 0.5217255
971.50 0.5216119
971.60 0.5214973
971.70 0.5213823
971.80 0.5212672
971.90 0.5211523
972.00 0.5210373
972.10 0.5209224
972.20 0.5208075
972.30 0.5206927
972.40 0.5205779
972.50 0.5204631
972.60 0.5203484
972.70 0.5202337
972.80 0.520119
972.90 0.5200044
973.00 0.5198898
973.10 0.5197753
973.20 0.5196608
973.30 0.5195463
973.40 0.5194318
973.50 0.5193174
973.60 0.5192031
973.70 0.5190887
973.80 0.5189744
973.90 0.5188602
974.00 0.5187459
974.10 0.5186318
974.20 0.5185176
974.30 0.5184035
974.40 0.5182894
974.50 0.5181754
974.60 0.5180613
974.70 0.5179474
974.80 0.5178334
974.90 0.5177195
975.00 0.5176057
975.10 0.5174918
975.20 0.517378
975.30 0.5172643
975.40 0.5171506
975.50 0.5170369
975.60 0.5169232
975.70 0.5168096
975.80 0.516696
975.90 0.5165825
976.00 0.516469
976.10 0.5163555
976.20 0.5162421
976.30 0.5161286
976.40 0.5160153
976.50 0.515902
976.60 0.5157887
976.70 0.5156754
976.80 0.5155622
976.90 0.515449
977.00 0.5153358
977.10 0.5152227
977.20 0.5151096
977.30 0.5149966
977.40 0.5148836
977.50 0.5147706
977.60 0.5146577
977.70 0.5145448
977.80 0.5144319
977.90 0.514319
978.00 0.5142062
978.10 0.5140935
978.20 0.5139808
978.30 0.5138681
978.40 0.5137554
978.50 0.5136428
978.60 0.5135302
978.70 0.5134176
978.80 0.5133051
978.90 0.5131927
979.00 0.5130802
979.10 0.5129678
979.20 0.5128554
979.30 0.5127431
979.40 0.5126308
979.50 0.5125185
979.60 0.5124063
979.70 0.5122941
979.80 0.5121819
979.90 0.5120698
980.00 0.5119577
980.10 0.5118456
980.20 0.5117336
980.30 0.5116216
980.40 0.5115097
980.50 0.5113977
980.60 0.5112859
980.70 0.511174
980.80 0.5110622
980.90 0.5109504
981.00 0.5108387
981.10 0.510727
981.20 0.5106153
981.30 0.5105033
981.40 0.510391
981.50 0.5102788
981.60 0.5101666
981.70 0.5100544
981.80 0.5099423
981.90 0.5098302
982.00 0.5097181
982.10 0.5096061
982.20 0.5094941
982.30 0.5093821
982.40 0.5092702
982.50 0.5091583
982.60 0.5090464
982.70 0.5089346
982.80 0.5088228
982.90 0.5087111
983.00 0.5085994
983.10 0.5084877
983.20 0.508376
983.30 0.5082644
983.40 0.5081528
983.50 0.5080413
983.60 0.5079298
983.70 0.5078183
983.80 0.5077069
983.90 0.5075955
984.00 0.5074841
984.10 0.5073728
984.20 0.5072615
984.30 0.5071502
984.40 0.507039
984.50 0.5069278
984.60 0.5068166
984.70 0.5067055
984.80 0.5065944
984.90 0.5064833
985.00 0.5063723
985.10 0.5062613
985.20 0.5061504
985.30 0.5060395
985.40 0.5059286
985.50 0.5058177
985.60 0.5057069
985.70 0.5055961
985.80 0.5054854
985.90 0.5053747
986.00 0.505264
986.10 0.5051534
986.20 0.5050428
986.30 0.5049322
986.40 0.5048217
986.50 0.5047112
986.60 0.5046007
986.70 0.5044902
986.80 0.5043798
986.90 0.5042695
987.00 0.5041592
987.10 0.5040489
987.20 0.5039386
987.30 0.5038284
987.40 0.5037182
987.50 0.503608
987.60 0.5034979
987.70 0.5033878
987.80 0.5032777
987.90 0.5031677
988.00 0.5030577
988.10 0.5029478
988.20 0.5028378
988.30 0.502728
988.40 0.5026181
988.50 0.5025083
988.60 0.5023985
988.70 0.5022888
988.80 0.502179
988.90 0.5020694
989.00 0.5019597
989.10 0.5018501
989.20 0.5017405
989.30 0.501631
989.40 0.5015215
989.50 0.501412
989.60 0.5013026
989.70 0.5011931
989.80 0.5010838
989.90 0.5009744
990.00 0.5008651
990.10 0.5007558
990.20 0.5006466
990.30 0.5005374
990.40 0.5004282
990.50 0.5003191
990.60 0.50021
990.70 0.5001009
990.80 0.4999919
990.90 0.4998829
991.00 0.4997739
991.10 0.4996642
991.20 0.4995532
991.30 0.4994422
991.40 0.4993313
991.50 0.4992204
991.60 0.4991095
991.70 0.4989987
991.80 0.4988879
991.90 0.4987771
992.00 0.4986664
992.10 0.4985557
992.20 0.4984451
992.30 0.4983344
992.40 0.4982238
992.50 0.4981133
992.60 0.4980028
992.70 0.4978923
992.80 0.4977818
992.90 0.4976714
993.00 0.497561
993.10 0.4974507
993.20 0.4973404
993.30 0.4972301
993.40 0.4971198
993.50 0.4970096
993.60 0.4968994
993.70 0.4967893
993.80 0.4966792
993.90 0.4965691
994.00 0.4964591
994.10 0.4963491
994.20 0.4962391
994.30 0.4961292
994.40 0.4960192
994.50 0.4959094
994.60 0.4957995
994.70 0.4956897
994.80 0.49558
994.90 0.4954702
995.00 0.4953605
995.10 0.4952509
995.20 0.4951412
995.30 0.4950316
995.40 0.4949221
995.50 0.4948126
995.60 0.4947031
995.70 0.4945936
995.80 0.4944842
995.90 0.4943748
996.00 0.4942654
996.10 0.4941573
996.20 0.4940494
996.30 0.4939416
996.40 0.4938338
996.50 0.4937261
996.60 0.4936184
996.70 0.4935107
996.80 0.493403
996.90 0.4932954
997.00 0.4931878
997.10 0.4930803
997.20 0.4929728
997.30 0.4928653
997.40 0.4927578
997.50 0.4926504
997.60 0.492543
997.70 0.4924357
997.80 0.4923284
997.90 0.4922211
998.00 0.4921138
998.10 0.4920066
998.20 0.4918994
998.30 0.4917923
998.40 0.4916852
998.50 0.4915781
998.60 0.491471
998.70 0.491364
998.80 0.491257
998.90 0.4911501
999.00 0.4910432
999.10 0.4909363
999.20 0.4908294
999.30 0.4907226
999.40 0.4906158
999.50 0.4905091
999.60 0.4904023
999.70 0.4902956
999.80 0.490189
999.90 0.4900824
1000.00 0.4899758
1000.10 0.4898692
1000.20 0.4897627
1000.30 0.4896562
1000.40 0.4895497
1000.50 0.4894433
1000.60 0.4893369
1000.70 0.4892306
1000.80 0.4891242
1000.90 0.4890179
1001.00 0.488911
1001.10 0.488802
1001.20 0.488693
1001.30 0.4885841
1001.40 0.4884753
1001.50 0.4883664
1001.60 0.4882576
1001.70 0.4881489
1001.80 0.4880401
1001.90 0.4879314
1002.00 0.4878228
1002.10 0.4877141
1002.20 0.4876055
1002.30 0.487497
1002.40 0.4873884
1002.50 0.4872799
1002.60 0.4871714
1002.70 0.487063
1002.80 0.4869546
1002.90 0.4868462
1003.00 0.4867379
1003.10 0.4866296
1003.20 0.4865214
1003.30 0.4864131
1003.40 0.4863049
1003.50 0.4861968
1003.60 0.4860886
1003.70 0.4859805
1003.80 0.4858725
1003.90 0.4857644
1004.00 0.4856564
1004.10 0.4855485
1004.20 0.4854405
1004.30 0.4853326
1004.40 0.4852248
1004.50 0.4851169
1004.60 0.4850091
1004.70 0.4849014
1004.80 0.4847936
1004.90 0.484686
1005.00 0.4845783
1005.10 0.4844707
1005.20 0.4843631
1005.30 0.4842555
1005.40 0.484148
1005.50 0.4840405
1005.60 0.483933
1005.70 0.4838256
1005.80 0.4837182
1005.90 0.4836108
1006.00 0.4835038
1006.10 0.4833979
1006.20 0.483292
1006.30 0.4831861
1006.40 0.4830803
1006.50 0.4829746
1006.60 0.4828688
1006.70 0.4827631
1006.80 0.4826574
1006.90 0.4825518
1007.00 0.4824462
1007.10 0.4823406
1007.20 0.4822351
1007.30 0.4821296
1007.40 0.4820241
1007.50 0.4819186
1007.60 0.4818132
1007.70 0.4817078
1007.80 0.4816025
1007.90 0.4814972
1008.00 0.4813919
1008.10 0.4812866
1008.20 0.4811814
1008.30 0.4810762
1008.40 0.480971
1008.50 0.4808659
1008.60 0.4807608
1008.70 0.4806558
1008.80 0.4805507
1008.90 0.4804457
1009.00 0.4803408
1009.10 0.4802358
1009.20 0.4801309
1009.30 0.4800261
1009.40 0.4799212
1009.50 0.4798164
1009.60 0.4797117
1009.70 0.4796069
1009.80 0.4795022
1009.90 0.4793975
1010.00 0.4792929
1010.10 0.4791883
1010.20 0.4790837
1010.30 0.4789792
1010.40 0.4788746
1010.50 0.4787702
1010.60 0.4786657
1010.70 0.4785613
1010.80 0.4784569
1010.90 0.4783525
1011.00 0.478248
1011.10 0.4781424
1011.20 0.4780369
1011.30 0.4779314
1011.40 0.4778259
1011.50 0.4777205
1011.60 0.4776151
1011.70 0.4775097
1011.80 0.4774044
1011.90 0.4772991
1012.00 0.4771938
1012.10 0.4770886
1012.20 0.4769834
1012.30 0.4768782
1012.40 0.476773
1012.50 0.4766679
1012.60 0.4765628
1012.70 0.4764578
1012.80 0.4763528
1012.90 0.4762478
1013.00 0.4761428
1013.10 0.4760379
1013.20 0.475933
1013.30 0.4758282
1013.40 0.4757234
1013.50 0.4756186
1013.60 0.4755138
1013.70 0.4754091
1013.80 0.4753044
1013.90 0.4751997
1014.00 0.4750951
1014.10 0.4749905
1014.20 0.4748859
1014.30 0.4747814
1014.40 0.4746769
1014.50 0.4745724
1014.60 0.474468
1014.70 0.4743636
1014.80 0.4742592
1014.90 0.4741549
1015.00 0.4740505
1015.10 0.4739463
1015.20 0.473842
1015.30 0.4737378
1015.40 0.4736336
1015.50 0.4735295
1015.60 0.4734253
1015.70 0.4733213
1015.80 0.4732172
1015.90 0.4731132
1016.00 0.4730092
1016.10 0.4729052
1016.20 0.4728013
1016.30 0.4726974
1016.40 0.4725935
1016.50 0.4724897
1016.60 0.4723859
1016.70 0.4722821
1016.80 0.4721784
1016.90 0.4720747
1017.00 0.471971
1017.10 0.4718674
1017.20 0.4717638
1017.30 0.4716602
1017.40 0.4715566
1017.50 0.4714531
1017.60 0.4713496
1017.70 0.4712462
1017.80 0.4711427
1017.90 0.4710394
1018.00 0.470936
1018.10 0.4708327
1018.20 0.4707294
1018.30 0.4706261
1018.40 0.4705229
1018.50 0.4704197
1018.60 0.4703165
1018.70 0.4702134
1018.80 0.4701102
1018.90 0.4700072
1019.00 0.4699041
1019.10 0.4698011
1019.20 0.4696981
1019.30 0.4695952
1019.40 0.4694923
1019.50 0.4693894
1019.60 0.4692865
1019.70 0.4691837
1019.80 0.4690809
1019.90 0.4689781
1020.00 0.4688754
1020.10 0.4687727
1020.20 0.46867
1020.30 0.4685674
1020.40 0.4684648
1020.50 0.4683622
1020.60 0.4682597
1020.70 0.4681572
1020.80 0.4680547
1020.90 0.4679522
1021.00 0.4678498
1021.10 0.4677473
1021.20 0.4676437
1021.30 0.4675402
1021.40 0.4674367
1021.50 0.4673332
1021.60 0.4672297
1021.70 0.4671263
1021.80 0.4670229
1021.90 0.4669196
1022.00 0.4668162
1022.10 0.4667129
1022.20 0.4666097
1022.30 0.4665064
1022.40 0.4664032
1022.50 0.4663001
1022.60 0.4661969
1022.70 0.4660938
1022.80 0.4659907
1022.90 0.4658877
1023.00 0.4657847
1023.10 0.4656817
1023.20 0.4655788
1023.30 0.4654758
1023.40 0.4653729
1023.50 0.4652701
1023.60 0.4651673
1023.70 0.4650645
1023.80 0.4649617
1023.90 0.464859
1024.00 0.4647563
1024.10 0.4646536
1024.20 0.464551
1024.30 0.4644484
1024.40 0.4643458
1024.50 0.4642432
1024.60 0.4641407
1024.70 0.4640382
1024.80 0.4639358
1024.90 0.4638334
1025.00 0.463731
1025.10 0.4636286
1025.20 0.4635263
1025.30 0.463424
1025.40 0.4633217
1025.50 0.4632195
1025.60 0.4631173
1025.70 0.4630151
1025.80 0.462913
1025.90 0.4628109
1026.00 0.4627088
1026.10 0.4626068
1026.20 0.4625047
1026.30 0.4624028
1026.40 0.4623008
1026.50 0.4621989
1026.60 0.462097
1026.70 0.4619951
1026.80 0.4618933
1026.90 0.4617915
1027.00 0.4616897
1027.10 0.461588
1027.20 0.4614863
1027.30 0.4613846
1027.40 0.4612829
1027.50 0.4611813
1027.60 0.4610797
1027.70 0.4609782
1027.80 0.4608767
1027.90 0.4607752
1028.00 0.4606737
1028.10 0.4605723
1028.20 0.4604709
1028.30 0.4603695
1028.40 0.4602682
1028.50 0.4601668
1028.60 0.4600656
1028.70 0.4599643
1028.80 0.4598631
1028.90 0.4597619
1029.00 0.4596608
1029.10 0.4595596
1029.20 0.4594585
1029.30 0.4593575
1029.40 0.4592564
1029.50 0.4591554
1029.60 0.4590545
1029.70 0.4589535
1029.80 0.4588526
1029.90 0.4587517
1030.00 0.4586509
1030.10 0.4585501
1030.20 0.4584493
1030.30 0.4583485
1030.40 0.4582478
1030.50 0.4581471
1030.60 0.4580464
1030.70 0.4579458
1030.80 0.4578452
1030.90 0.4577446
1031.00 0.4576441
1031.10 0.4575435
1031.20 0.4574431
1031.30 0.4573426
1031.40 0.4572423
1031.50 0.457142
1031.60 0.4570418
1031.70 0.4569416
1031.80 0.4568414
1031.90 0.4567412
1032.00 0.4566411
1032.10 0.456541
1032.20 0.4564409
1032.30 0.4563409
1032.40 0.4562409
1032.50 0.4561409
1032.60 0.456041
1032.70 0.4559411
1032.80 0.4558412
1032.90 0.4557413
1033.00 0.4556415
1033.10 0.4555417
1033.20 0.455442
1033.30 0.4553422
1033.40 0.4552425
1033.50 0.4551429
1033.60 0.4550432
1033.70 0.4549436
1033.80 0.454844
1033.90 0.4547445
1034.00 0.454645
1034.10 0.4545455
1034.20 0.454446
1034.30 0.4543466
1034.40 0.4542472
1034.50 0.4541478
1034.60 0.4540485
1034.70 0.4539491
1034.80 0.4538499
1034.90 0.4537506
1035.00 0.4536514
1035.10 0.4535522
1035.20 0.453453
1035.30 0.4533539
1035.40 0.4532548
1035.50 0.4531557
1035.60 0.4530567
1035.70 0.4529577
1035.80 0.4528587
1035.90 0.4527597
1036.00 0.4526608
1036.10 0.4525619
1036.20 0.4524631
1036.30 0.4523642
1036.40 0.4522654
1036.50 0.4521661
1036.60 0.4520661
1036.70 0.4519661
1036.80 0.4518661
1036.90 0.4517662
1037.00 0.4516663
1037.10 0.4515664
1037.20 0.4514666
1037.30 0.4513668
1037.40 0.451267
1037.50 0.4511672
1037.60 0.4510675
1037.70 0.4509678
1037.80 0.4508681
1037.90 0.4507685
1038.00 0.4506689
1038.10 0.4505693
1038.20 0.4504698
1038.30 0.4503703
1038.40 0.4502708
1038.50 0.4501713
1038.60 0.4500719
1038.70 0.4499725
1038.80 0.4498731
1038.90 0.4497738
1039.00 0.4496745
1039.10 0.4495752
1039.20 0.449476
1039.30 0.4493768
1039.40 0.4492776
1039.50 0.4491784
1039.60 0.4490793
1039.70 0.4489802
1039.80 0.4488811
1039.90 0.4487821
1040.00 0.4486831
1040.10 0.4485841
1040.20 0.4484851
1040.30 0.4483862
1040.40 0.4482873
1040.50 0.4481885
1040.60 0.4480897
1040.70 0.4479909
1040.80 0.4478921
1040.90 0.4477933
1041.00 0.4476946
1041.10 0.447596
1041.20 0.4474973
1041.30 0.4473987
1041.40 0.4473001
1041.50 0.4472015
1041.60 0.447103
1041.70 0.4470046
1041.80 0.4469063
1041.90 0.4468079
1042.00 0.4467096
1042.10 0.4466114
1042.20 0.4465132
1042.30 0.446415
1042.40 0.4463168
1042.50 0.4462187
1042.60 0.4461205
1042.70 0.4460225
1042.80 0.4459244
1042.90 0.4458264
1043.00 0.4457284
1043.10 0.4456304
1043.20 0.4455325
1043.30 0.4454346
1043.40 0.4453367
1043.50 0.4452389
1043.60 0.445141
1043.70 0.4450433
1043.80 0.4449455
1043.90 0.4448478
1044.00 0.4447501
1044.10 0.4446524
1044.20 0.4445548
1044.30 0.4444571
1044.40 0.4443596
1044.50 0.444262
1044.60 0.4441645
1044.70 0.444067
1044.80 0.4439695
1044.90 0.4438721
1045.00 0.4437747
1045.10 0.4436773
1045.20 0.44358
1045.30 0.4434826
1045.40 0.4433853
1045.50 0.4432881
1045.60 0.4431908
1045.70 0.4430936
1045.80 0.4429965
1045.90 0.4428993
1046.00 0.4428022
1046.10 0.4427051
1046.20 0.4426081
1046.30 0.442511
1046.40 0.442414
1046.50 0.4423171
1046.60 0.4422201
1046.70 0.4421232
1046.80 0.4420263
1046.90 0.4419295
1047.00 0.4418326
1047.10 0.4417358
1047.20 0.4416391
1047.30 0.4415423
1047.40 0.4414456
1047.50 0.4413489
1047.60 0.4412523
1047.70 0.4411556
1047.80 0.4410591
1047.90 0.4409625
1048.00 0.4408659
1048.10 0.4407694
1048.20 0.440673
1048.30 0.4405765
1048.40 0.4404801
1048.50 0.4403837
1048.60 0.4402873
1048.70 0.440191
1048.80 0.4400947
1048.90 0.4399984
1049.00 0.4399021
1049.10 0.4398059
1049.20 0.4397097
1049.30 0.4396136
1049.40 0.4395174
1049.50 0.4394213
1049.60 0.4393252
1049.70 0.4392292
1049.80 0.4391332
1049.90 0.4390372
1050.00 0.4389412
1050.10 0.4388453
1050.20 0.4387494
1050.30 0.4386535
1050.40 0.4385576
1050.50 0.4384618
1050.60 0.438366
1050.70 0.4382703
1050.80 0.4381745
1050.90 0.4380788
1051.00 0.4379831
1051.10 0.4378875
1051.20 0.4377919
1051.30 0.4376963
1051.40 0.4376007
1051.50 0.4375052
1051.60 0.4374097
1051.70 0.4373142
1051.80 0.4372187
1051.90 0.4371233
1052.00 0.4370279
1052.10 0.4369318
1052.20 0.4368354
1052.30 0.436739
1052.40 0.4366426
1052.50 0.4365463
1052.60 0.43645
1052.70 0.4363537
1052.80 0.4362574
1052.90 0.4361612
1053.00 0.436065
1053.10 0.4359688
1053.20 0.4358727
1053.30 0.4357765
1053.40 0.4356805
1053.50 0.4355844
1053.60 0.4354884
1053.70 0.4353924
1053.80 0.4352964
1053.90 0.4352004
1054.00 0.4351045
1054.10 0.4350086
1054.20 0.4349128
1054.30 0.434817
1054.40 0.4347212
1054.50 0.4346254
1054.60 0.4345296
1054.70 0.4344339
1054.80 0.4343382
1054.90 0.4342426
1055.00 0.4341469
1055.10 0.4340513
1055.20 0.4339558
1055.30 0.4338602
1055.40 0.4337647
1055.50 0.4336692
1055.60 0.4335738
1055.70 0.4334783
1055.80 0.4333829
1055.90 0.4332875
1056.00 0.4331922
1056.10 0.4330969
1056.20 0.4330016
1056.30 0.4329063
1056.40 0.4328111
1056.50 0.4327159
1056.60 0.4326207
1056.70 0.4325256
1056.80 0.4324304
1056.90 0.4323354
1057.00 0.4322403
1057.10 0.4321453
1057.20 0.4320502
1057.30 0.4319553
1057.40 0.4318603
1057.50 0.4317654
1057.60 0.4316705
1057.70 0.4315756
1057.80 0.4314808
1057.90 0.431386
1058.00 0.4312912
1058.10 0.4311965
1058.20 0.4311017
1058.30 0.431007
1058.40 0.4309124
1058.50 0.4308177
1058.60 0.4307231
1058.70 0.4306285
1058.80 0.430534
1058.90 0.4304394
1059.00 0.4303449
1059.10 0.4302505
1059.20 0.430156
1059.30 0.4300616
1059.40 0.4299672
1059.50 0.4298728
1059.60 0.4297785
1059.70 0.4296842
1059.80 0.4295899
1059.90 0.4294957
1060.00 0.4294015
1060.10 0.4293073
1060.20 0.4292131
1060.30 0.429119
1060.40 0.4290249
1060.50 0.4289308
1060.60 0.4288367
1060.70 0.4287427
1060.80 0.4286487
1060.90 0.4285547
1061.00 0.4284608
1061.10 0.4283669
1061.20 0.428273
1061.30 0.4281791
1061.40 0.4280853
1061.50 0.4279915
1061.60 0.4278977
1061.70 0.427804
1061.80 0.4277102
1061.90 0.4276165
1062.00 0.4275229
1062.10 0.4274292
1062.20 0.4273356
1062.30 0.4272421
1062.40 0.4271485
1062.50 0.427055
1062.60 0.426961
1062.70 0.4268665
1062.80 0.426772
1062.90 0.4266775
1063.00 0.4265831
1063.10 0.4264887
1063.20 0.4263943
1063.30 0.4262999
1063.40 0.4262056
1063.50 0.4261113
1063.60 0.426017
1063.70 0.4259228
1063.80 0.4258286
1063.90 0.4257344
1064.00 0.4256402
1064.10 0.4255461
1064.20 0.425452
1064.30 0.4253579
1064.40 0.4252639
1064.50 0.4251698
1064.60 0.4250758
1064.70 0.4249819
1064.80 0.4248879
1064.90 0.424794
1065.00 0.4247001
1065.10 0.4246063
1065.20 0.4245125
1065.30 0.4244187
1065.40 0.4243249
1065.50 0.4242312
1065.60 0.4241374
1065.70 0.4240438
1065.80 0.4239501
1065.90 0.4238565
1066.00 0.4237629
1066.10 0.4236693
1066.20 0.4235757
1066.30 0.4234822
1066.40 0.4233887
1066.50 0.4232953
1066.60 0.4232018
1066.70 0.4231084
1066.80 0.423015
1066.90 0.4229217
1067.00 0.4228283
1067.10 0.422735
1067.20 0.4226418
1067.30 0.4225485
1067.40 0.4224553
1067.50 0.4223621
1067.60 0.4222689
1067.70 0.4221758
1067.80 0.4220827
1067.90 0.42199
1068.00 0.4218981
1068.10 0.4218063
1068.20 0.4217144
1068.30 0.4216226
1068.40 0.4215308
1068.50 0.4214391
1068.60 0.4213474
1068.70 0.4212557
1068.80 0.421164
1068.90 0.4210724
1069.00 0.4209807
1069.10 0.4208892
1069.20 0.4207976
1069.30 0.4207061
1069.40 0.4206145
1069.50 0.4205231
1069.60 0.4204316
1069.70 0.4203402
1069.80 0.4202488
1069.90 0.4201574
1070.00 0.4200661
1070.10 0.4199747
1070.20 0.4198834
1070.30 0.4197922
1070.40 0.4197009
1070.50 0.4196097
1070.60 0.4195185
1070.70 0.4194274
1070.80 0.4193362
1070.90 0.4192451
1071.00 0.4191541
1071.10 0.419063
1071.20 0.418972
1071.30 0.418881
1071.40 0.41879
1071.50 0.4186991
1071.60 0.4186081
1071.70 0.4185172
1071.80 0.4184264
1071.90 0.4183355
1072.00 0.4182447
1072.10 0.4181539
1072.20 0.4180632
1072.30 0.4179724
1072.40 0.4178817
1072.50 0.417791
1072.60 0.4177004
1072.70 0.4176098
1072.80 0.4175192
1072.90 0.4174286
1073.00 0.417338
1073.10 0.4172475
1073.20 0.4171566
1073.30 0.4170639
1073.40 0.4169713
1073.50 0.4168788
1073.60 0.4167862
1073.70 0.4166937
1073.80 0.4166012
1073.90 0.4165087
1074.00 0.4164163
1074.10 0.4163239
1074.20 0.4162315
1074.30 0.4161391
1074.40 0.4160468
1074.50 0.4159545
1074.60 0.4158622
1074.70 0.4157699
1074.80 0.4156777
1074.90 0.4155855
1075.00 0.4154933
1075.10 0.4154012
1075.20 0.4153091
1075.30 0.415217
1075.40 0.4151249
1075.50 0.4150329
1075.60 0.4149409
1075.70 0.4148489
1075.80 0.4147569
1075.90 0.414665
1076.00 0.4145731
1076.10 0.4144812
1076.20 0.4143894
1076.30 0.4142976
1076.40 0.4142058
1076.50 0.414114
1076.60 0.4140223
1076.70 0.4139306
1076.80 0.4138389
1076.90 0.4137472
1077.00 0.4136556
1077.10 0.413564
1077.20 0.4134724
1077.30 0.4133809
1077.40 0.4132893
1077.50 0.4131978
1077.60 0.4131064
1077.70 0.4130149
1077.80 0.4129235
1077.90 0.4128321
1078.00 0.4127408
1078.10 0.4126494
1078.20 0.4125581
1078.30 0.4124668
1078.40 0.4123756
1078.50 0.4122844
1078.60 0.4121938
1078.70 0.4121037
1078.80 0.4120137
1078.90 0.4119237
1079.00 0.4118338
1079.10 0.4117438
1079.20 0.4116539
1079.30 0.411564
1079.40 0.4114742
1079.50 0.4113844
1079.60 0.4112946
1079.70 0.4112048
1079.80 0.411115
1079.90 0.4110253
1080.00 0.4109356
1080.10 0.4108459
1080.20 0.4107563
1080.30 0.4106667
1080.40 0.4105771
1080.50 0.4104875
1080.60 0.410398
1080.70 0.4103084
1080.80 0.410219
1080.90 0.4101295
1081.00 0.4100401
1081.10 0.4099506
1081.20 0.4098613
1081.30 0.4097719
1081.40 0.4096826
1081.50 0.4095933
1081.60 0.409504
1081.70 0.4094147
1081.80 0.4093255
1081.90 0.4092363
1082.00 0.4091471
1082.10 0.409058
1082.20 0.4089688
1082.30 0.4088797
1082.40 0.4087907
1082.50 0.4087016
1082.60 0.4086126
1082.70 0.4085236
1082.80 0.4084346
1082.90 0.4083457
1083.00 0.4082568
1083.10 0.4081679
1083.20 0.408079
1083.30 0.4079902
1083.40 0.4079013
1083.50 0.4078126
1083.60 0.4077238
1083.70 0.4076351
1083.80 0.4075463
1083.90 0.4074577
1084.00 0.4073681
1084.10 0.4072785
1084.20 0.4071889
1084.30 0.4070994
1084.40 0.4070098
1084.50 0.4069203
1084.60 0.4068308
1084.70 0.4067414
1084.80 0.406652
1084.90 0.4065626
1085.00 0.4064732
1085.10 0.4063838
1085.20 0.4062945
1085.30 0.4062052
1085.40 0.4061159
1085.50 0.4060267
1085.60 0.4059375
1085.70 0.4058483
1085.80 0.4057591
1085.90 0.40567
1086.00 0.4055808
1086.10 0.4054917
1086.20 0.4054027
1086.30 0.4053136
1086.40 0.4052246
1086.50 0.4051356
1086.60 0.4050467
1086.70 0.4049577
1086.80 0.4048688
1086.90 0.4047799
1087.00 0.4046911
1087.10 0.4046023
1087.20 0.4045134
1087.30 0.4044247
1087.40 0.4043359
1087.50 0.4042472
1087.60 0.4041585
1087.70 0.4040698
1087.80 0.4039811
1087.90 0.4038925
1088.00 0.4038039
1088.10 0.4037153
1088.20 0.4036268
1088.30 0.4035383
1088.40 0.4034498
1088.50 0.4033613
1088.60 0.4032729
1088.70 0.4031844
1088.80 0.403096
1088.90 0.4030077
1089.00 0.4029193
1089.10 0.402831
1089.20 0.4027427
1089.30 0.4026545
1089.40 0.4025662
1089.50 0.402478
1089.60 0.4023898
1089.70 0.4023016
1089.80 0.4022135
1089.90 0.4021254
1090.00 0.4020373
1090.10 0.4019492
1090.20 0.4018612
1090.30 0.4017732
1090.40 0.4016852
1090.50 0.4015972
1090.60 0.4015093
1090.70 0.4014214
1090.80 0.4013335
1090.90 0.4012456
1091.00 0.4011578
1091.10 0.40107
1091.20 0.4009822
1091.30 0.4008944
1091.40 0.4008067
1091.50 0.400719
1091.60 0.4006313
1091.70 0.4005437
1091.80 0.400456
1091.90 0.4003684
1092.00 0.4002808
1092.10 0.4001933
1092.20 0.4001058
1092.30 0.4000183
1092.40 0.3999308
1092.50 0.3998433
1092.60 0.3997559
1092.70 0.3996685
1092.80 0.3995811
1092.90 0.3994938
1093.00 0.3994064
1093.10 0.3993191
1093.20 0.3992319
1093.30 0.3991446
1093.40 0.3990574
1093.50 0.3989702
1093.60 0.398883
1093.70 0.3987958
1093.80 0.3987087
1093.90 0.3986216
1094.00 0.3985345
1094.10 0.3984475
1094.20 0.3983605
1094.30 0.3982735
1094.40 0.3981865
1094.50 0.3980995
1094.60 0.3980126
1094.70 0.3979257
1094.80 0.3978386
1094.90 0.3977514
1095.00 0.3976642
1095.10 0.397577
1095.20 0.3974898
1095.30 0.3974027
1095.40 0.3973155
1095.50 0.3972285
1095.60 0.3971414
1095.70 0.3970543
1095.80 0.3969673
1095.90 0.3968803
1096.00 0.3967934
1096.10 0.3967064
1096.20 0.3966195
1096.30 0.3965326
1096.40 0.3964457
1096.50 0.3963589
1096.60 0.3962721
1096.70 0.3961853
1096.80 0.3960985
1096.90 0.3960118
1097.00 0.395925
1097.10 0.3958383
1097.20 0.3957517
1097.30 0.395665
1097.40 0.3955784
1097.50 0.3954918
1097.60 0.3954053
1097.70 0.3953187
1097.80 0.3952322
1097.90 0.3951457
1098.00 0.3950592
1098.10 0.3949728
1098.20 0.3948864
1098.30 0.3948
1098.40 0.3947136
1098.50 0.3946273
1098.60 0.3945409
1098.70 0.3944546
1098.80 0.3943684
1098.90 0.3942821
1099.00 0.3941959
1099.10 0.3941097
1099.20 0.3940236
1099.30 0.3939374
1099.40 0.3938513
1099.50 0.3937652
1099.60 0.3936791
1099.70 0.3935931
1099.80 0.3935071
1099.90 0.3934211
1100.00 0.3933351
1100.10 0.3932491
1100.20 0.3931632
1100.30 0.3930773
1100.40 0.3929914
1100.50 0.3929056
1100.60 0.3928198
1100.70 0.392734
1100.80 0.3926482
1100.90 0.3925625
1101.00 0.3924767
1101.10 0.392391
1101.20 0.3923054
1101.30 0.3922197
1101.40 0.3921341
1101.50 0.3920485
1101.60 0.3919629
1101.70 0.3918773
1101.80 0.3917918
1101.90 0.3917063
1102.00 0.3916208
1102.10 0.3915354
1102.20 0.39145
1102.30 0.3913646
1102.40 0.3912792
1102.50 0.3911938
1102.60 0.3911085
1102.70 0.3910232
1102.80 0.3909379
1102.90 0.3908526
1103.00 0.3907674
1103.10 0.3906822
1103.20 0.390597
1103.30 0.3905119
1103.40 0.3904267
1103.50 0.3903416
1103.60 0.3902565
1103.70 0.3901715
1103.80 0.3900864
1103.90 0.3900014
1104.00 0.3899164
1104.10 0.3898315
1104.20 0.3897465
1104.30 0.3896616
1104.40 0.3895767
1104.50 0.3894919
1104.60 0.389407
1104.70 0.3893222
1104.80 0.3892374
1104.90 0.3891526
1105.00 0.3890679
1105.10 0.3889832
1105.20 0.3888985
1105.30 0.3888138
1105.40 0.3887291
1105.50 0.3886445
1105.60 0.3885599
1105.70 0.3884753
1105.80 0.3883904
1105.90 0.3883055
1106.00 0.3882206
1106.10 0.3881358
1106.20 0.3880509
1106.30 0.3879661
1106.40 0.3878813
1106.50 0.3877965
1106.60 0.3877118
1106.70 0.3876271
1106.80 0.3875424
1106.90 0.3874577
1107.00 0.3873731
1107.10 0.3872885
1107.20 0.3872039
1107.30 0.3871193
1107.40 0.3870348
1107.50 0.3869502
1107.60 0.3868658
1107.70 0.3867813
1107.80 0.3866968
1107.90 0.3866124
1108.00 0.386528
1108.10 0.3864436
1108.20 0.3863593
1108.30 0.386275
1108.40 0.3861906
1108.50 0.3861064
1108.60 0.3860221
1108.70 0.3859379
1108.80 0.3858537
1108.90 0.3857695
1109.00 0.3856853
1109.10 0.3856012
1109.20 0.3855171
1109.30 0.385433
1109.40 0.3853489
1109.50 0.3852649
1109.60 0.3851809
1109.70 0.3850969
1109.80 0.3850129
1109.90 0.384929
1110.00 0.3848451
1110.10 0.3847612
1110.20 0.3846773
1110.30 0.3845935
1110.40 0.3845096
1110.50 0.3844258
1110.60 0.3843421
1110.70 0.3842583
1110.80 0.3841746
1110.90 0.3840909
1111.00 0.3840072
1111.10 0.3839235
1111.20 0.3838399
1111.30 0.3837563
1111.40 0.3836727
1111.50 0.3835892
1111.60 0.3835056
1111.70 0.3834221
1111.80 0.3833386
1111.90 0.3832552
1112.00 0.3831717
1112.10 0.3830883
1112.20 0.3830049
1112.30 0.3829215
1112.40 0.3828382
1112.50 0.3827549
1112.60 0.3826716
1112.70 0.3825883
1112.80 0.3825051
1112.90 0.3824218
1113.00 0.3823386
1113.10 0.3822555
1113.20 0.3821723
1113.30 0.3820892
1113.40 0.3820061
1113.50 0.381923
1113.60 0.3818399
1113.70 0.3817569
1113.80 0.3816739
1113.90 0.3815909
1114.00 0.3815079
1114.10 0.381425
1114.20 0.381342
1114.30 0.3812592
1114.40 0.3811763
1114.50 0.3810934
1114.60 0.3810106
1114.70 0.3809278
1114.80 0.380845
1114.90 0.3807623
1115.00 0.3806796
1115.10 0.3805968
1115.20 0.3805142
1115.30 0.3804315
1115.40 0.3803489
1115.50 0.3802663
1115.60 0.3801837
1115.70 0.3801011
1115.80 0.3800186
1115.90 0.379936
1116.00 0.3798535
1116.10 0.3797711
1116.20 0.3796886
1116.30 0.3796062
1116.40 0.3795238
1116.50 0.3794414
1116.60 0.3793591
1116.70 0.3792767
1116.80 0.379194
1116.90 0.3791109
1117.00 0.3790277
1117.10 0.3789446
1117.20 0.3788616
1117.30 0.3787785
1117.40 0.3786954
1117.50 0.3786124
1117.60 0.3785294
1117.70 0.3784465
1117.80 0.3783635
1117.90 0.3782806
1118.00 0.3781977
1118.10 0.3781148
1118.20 0.378032
1118.30 0.3779492
1118.40 0.3778664
1118.50 0.3777836
1118.60 0.3777008
1118.70 0.3776181
1118.80 0.3775354
1118.90 0.3774527
1119.00 0.37737
1119.10 0.3772874
1119.20 0.3772048
1119.30 0.3771222
1119.40 0.3770396
1119.50 0.3769571
1119.60 0.3768745
1119.70 0.3767921
1119.80 0.3767096
1119.90 0.3766271
1120.00 0.3765447
1120.10 0.3764623
1120.20 0.3763799
1120.30 0.3762976
1120.40 0.3762152
1120.50 0.3761329
1120.60 0.3760506
1120.70 0.3759684
1120.80 0.3758861
1120.90 0.3758039
1121.00 0.3757217
1121.10 0.3756395
1121.20 0.3755574
1121.30 0.3754753
1121.40 0.3753932
1121.50 0.3753111
1121.60 0.375229
1121.70 0.375147
1121.80 0.375065
1121.90 0.374983
1122.00 0.3749011
1122.10 0.3748191
1122.20 0.3747372
1122.30 0.3746553
1122.40 0.3745734
1122.50 0.3744916
1122.60 0.3744098
1122.70 0.374328
1122.80 0.3742462
1122.90 0.3741644
1123.00 0.3740827
1123.10 0.374001
1123.20 0.3739193
1123.30 0.3738377
1123.40 0.373756
1123.50 0.3736744
1123.60 0.3735928
1123.70 0.3735112
1123.80 0.3734297
1123.90 0.3733482
1124.00 0.3732667
1124.10 0.3731852
1124.20 0.3731037
1124.30 0.3730223
1124.40 0.3729409
1124.50 0.3728595
1124.60 0.3727782
1124.70 0.3726968
1124.80 0.3726155
1124.90 0.3725342
1125.00 0.372453
1125.10 0.3723717
1125.20 0.3722905
1125.30 0.3722093
1125.40 0.3721281
1125.50 0.372047
1125.60 0.3719658
1125.70 0.3718847
1125.80 0.3718036
1125.90 0.3717226
1126.00 0.3716415
1126.10 0.3715605
1126.20 0.3714795
1126.30 0.3713985
1126.40 0.3713176
1126.50 0.3712367
1126.60 0.3711558
1126.70 0.3710749
1126.80 0.370994
1126.90 0.3709132
1127.00 0.3708324
1127.10 0.3707516
1127.20 0.3706708
1127.30 0.3705901
1127.40 0.3705094
1127.50 0.3704287
1127.60 0.370348
1127.70 0.3702674
1127.80 0.3701867
1127.90 0.3701061
1128.00 0.3700257
1128.10 0.3699453
1128.20 0.3698649
1128.30 0.3697845
1128.40 0.3697042
1128.50 0.3696238
1128.60 0.3695436
1128.70 0.3694633
1128.80 0.369383
1128.90 0.3693028
1129.00 0.3692226
1129.10 0.3691424
1129.20 0.3690623
1129.30 0.3689821
1129.40 0.368902
1129.50 0.3688219
1129.60 0.3687418
1129.70 0.3686618
1129.80 0.3685818
1129.90 0.3685018
1130.00 0.3684218
1130.10 0.3683418
1130.20 0.3682619
1130.30 0.368182
1130.40 0.3681021
1130.50 0.3680222
1130.60 0.3679424
1130.70 0.3678626
1130.80 0.3677828
1130.90 0.367703
1131.00 0.3676232
1131.10 0.3675435
1131.20 0.3674638
1131.30 0.3673841
1131.40 0.3673045
1131.50 0.3672248
1131.60 0.3671452
1131.70 0.3670656
1131.80 0.366986
1131.90 0.3669065
1132.00 0.3668269
1132.10 0.3667474
1132.20 0.3666679
1132.30 0.3665885
1132.40 0.366509
1132.50 0.3664296
1132.60 0.3663502
1132.70 0.3662709
1132.80 0.3661915
1132.90 0.3661122
1133.00 0.3660329
1133.10 0.3659536
1133.20 0.3658743
1133.30 0.3657951
1133.40 0.3657159
1133.50 0.3656367
1133.60 0.3655575
1133.70 0.3654784
1133.80 0.3653992
1133.90 0.3653201
1134.00 0.365241
1134.10 0.365162
1134.20 0.3650829
1134.30 0.3650039
1134.40 0.3649249
1134.50 0.364846
1134.60 0.364767
1134.70 0.3646881
1134.80 0.3646092
1134.90 0.3645303
1135.00 0.3644514
1135.10 0.3643726
1135.20 0.3642938
1135.30 0.364215
1135.40 0.3641362
1135.50 0.3640574
1135.60 0.3639787
1135.70 0.3639
1135.80 0.3638213
1135.90 0.3637427
1136.00 0.363664
1136.10 0.3635854
1136.20 0.3635068
1136.30 0.3634282
1136.40 0.3633497
1136.50 0.3632711
1136.60 0.3631926
1136.70 0.3631141
1136.80 0.3630357
1136.90 0.3629572
1137.00 0.3628788
1137.10 0.3628004
1137.20 0.362722
1137.30 0.3626437
1137.40 0.3625654
1137.50 0.362487
1137.60 0.3624088
1137.70 0.3623305
1137.80 0.3622522
1137.90 0.362174
1138.00 0.3620958
1138.10 0.3620176
1138.20 0.3619395
1138.30 0.3618613
1138.40 0.3617832
1138.50 0.3617051
1138.60 0.3616271
1138.70 0.361549
1138.80 0.361471
1138.90 0.361393
1139.00 0.361315
1139.10 0.361237
1139.20 0.3611591
1139.30 0.3610804
1139.40 0.3610017
1139.50 0.360923
1139.60 0.3608443
1139.70 0.3607657
1139.80 0.3606871
1139.90 0.3606085
1140.00 0.3605299
1140.10 0.3604513
1140.20 0.3603728
1140.30 0.3602943
1140.40 0.3602158
1140.50 0.3601373
1140.60 0.3600589
1140.70 0.3599804
1140.80 0.359902
1140.90 0.3598237
1141.00 0.3597453
1141.10 0.359667
1141.20 0.3595886
1141.30 0.3595103
1141.40 0.3594321
1141.50 0.3593538
1141.60 0.3592756
1141.70 0.3591974
1141.80 0.3591192
1141.90 0.359041
1142.00 0.3589629
1142.10 0.3588848
1142.20 0.3588067
1142.30 0.3587286
1142.40 0.3586506
1142.50 0.3585725
1142.60 0.3584945
1142.70 0.3584165
1142.80 0.3583386
1142.90 0.3582606
1143.00 0.3581827
1143.10 0.3581048
1143.20 0.3580269
1143.30 0.3579491
1143.40 0.3578712
1143.50 0.3577934
1143.60 0.3577156
1143.70 0.3576379
1143.80 0.3575601
1143.90 0.3574824
1144.00 0.3574047
1144.10 0.357327
1144.20 0.3572493
1144.30 0.3571717
1144.40 0.3570941
1144.50 0.3570165
1144.60 0.3569389
1144.70 0.3568614
1144.80 0.3567838
1144.90 0.3567063
1145.00 0.3566288
1145.10 0.3565514
1145.20 0.3564739
1145.30 0.3563965
1145.40 0.3563191
1145.50 0.3562417
1145.60 0.3561644
1145.70 0.356087
1145.80 0.3560097
1145.90 0.3559324
1146.00 0.3558551
1146.10 0.3557779
1146.20 0.3557007
1146.30 0.3556235
1146.40 0.3555463
1146.50 0.3554691
1146.60 0.355392
1146.70 0.3553149
1146.80 0.3552378
1146.90 0.3551607
1147.00 0.3550836
1147.10 0.3550066
1147.20 0.3549296
1147.30 0.3548526
1147.40 0.3547756
1147.50 0.3546987
1147.60 0.3546217
1147.70 0.3545448
1147.80 0.3544679
1147.90 0.3543911
1148.00 0.3543142
1148.10 0.3542374
1148.20 0.3541606
1148.30 0.3540838
1148.40 0.3540071
1148.50 0.3539303
1148.60 0.3538536
1148.70 0.3537769
1148.80 0.3537003
1148.90 0.3536236
1149.00 0.353547
1149.10 0.3534704
1149.20 0.3533938
1149.30 0.3533172
1149.40 0.3532407
1149.50 0.3531642
1149.60 0.3530877
1149.70 0.3530112
1149.80 0.3529347
1149.90 0.3528583
1150.00 0.3527819
1150.10 0.3527055
1150.20 0.3526291
1150.30 0.3525527
1150.40 0.3524764
1150.50 0.3524001
1150.60 0.3523238
1150.70 0.3522477
1150.80 0.3521716
1150.90 0.3520955
1151.00 0.3520195
1151.10 0.3519434
1151.20 0.3518674
1151.30 0.3517914
1151.40 0.3517155
1151.50 0.3516395
1151.60 0.3515636
1151.70 0.3514877
1151.80 0.3514118
1151.90 0.3513359
1152.00 0.3512601
1152.10 0.3511842
1152.20 0.3511084
1152.30 0.3510326
1152.40 0.3509569
1152.50 0.3508811
1152.60 0.3508054
1152.70 0.3507297
1152.80 0.350654
1152.90 0.3505784
1153.00 0.3505027
1153.10 0.3504271
1153.20 0.3503515
1153.30 0.350276
1153.40 0.3502004
1153.50 0.3501249
1153.60 0.3500494
1153.70 0.3499739
1153.80 0.3498984
1153.90 0.349823
1154.00 0.3497475
1154.10 0.3496721
1154.20 0.3495967
1154.30 0.3495214
1154.40 0.349446
1154.50 0.3493707
1154.60 0.3492954
1154.70 0.3492201
1154.80 0.3491449
1154.90 0.3490696
1155.00 0.3489944
1155.10 0.3489192
1155.20 0.348844
1155.30 0.3487689
1155.40 0.3486937
1155.50 0.3486186
1155.60 0.3485435
1155.70 0.3484685
1155.80 0.3483934
1155.90 0.3483184
1156.00 0.3482434
1156.10 0.3481684
1156.20 0.3480934
1156.30 0.3480185
1156.40 0.347943
1156.50 0.3478672
1156.60 0.3477914
1156.70 0.3477156
1156.80 0.3476399
1156.90 0.3475641
1157.00 0.3474884
1157.10 0.3474127
1157.20 0.347337
1157.30 0.3472614
1157.40 0.3471857
1157.50 0.3471101
1157.60 0.3470345
1157.70 0.346959
1157.80 0.3468834
1157.90 0.3468079
1158.00 0.3467324
1158.10 0.3466569
1158.20 0.3465814
1158.30 0.346506
1158.40 0.3464306
1158.50 0.3463551
1158.60 0.3462798
1158.70 0.3462044
1158.80 0.3461291
1158.90 0.3460537
1159.00 0.3459784
1159.10 0.3459032
1159.20 0.3458279
1159.30 0.3457527
1159.40 0.3456775
1159.50 0.3456023
1159.60 0.3455271
1159.70 0.3454519
1159.80 0.3453768
1159.90 0.3453017
1160.00 0.3452266
1160.10 0.3451515
1160.20 0.3450765
1160.30 0.3450014
1160.40 0.3449264
1160.50 0.3448514
1160.60 0.3447765
1160.70 0.3447015
1160.80 0.3446266
1160.90 0.3445517
1161.00 0.3444768
1161.10 0.3444019
1161.20 0.3443271
1161.30 0.3442523
1161.40 0.3441775
1161.50 0.3441027
1161.60 0.3440279
1161.70 0.3439532
1161.80 0.3438785
1161.90 0.3438038
1162.00 0.3437291
1162.10 0.3436544
1162.20 0.34358
1162.30 0.3435055
1162.40 0.343431
1162.50 0.3433566
1162.60 0.3432822
1162.70 0.3432078
1162.80 0.3431335
1162.90 0.3430591
1163.00 0.3429848
1163.10 0.3429105
1163.20 0.3428362
1163.30 0.342762
1163.40 0.3426877
1163.50 0.3426135
1163.60 0.3425393
1163.70 0.3424651
1163.80 0.342391
1163.90 0.3423168
1164.00 0.3422427
1164.10 0.3421686
1164.20 0.3420945
1164.30 0.3420205
1164.40 0.3419464
1164.50 0.3418724
1164.60 0.3417984
1164.70 0.3417244
1164.80 0.3416505
1164.90 0.3415765
1165.00 0.3415026
1165.10 0.3414287
1165.20 0.3413549
1165.30 0.341281
1165.40 0.3412072
1165.50 0.3411334
1165.60 0.3410596
1165.70 0.3409858
1165.80 0.340912
1165.90 0.3408383
1166.00 0.3407646
1166.10 0.3406909
1166.20 0.3406172
1166.30 0.3405436
1166.40 0.34047
1166.50 0.3403963
1166.60 0.3403228
1166.70 0.3402492
1166.80 0.3401756
1166.90 0.3401021
1167.00 0.3400286
1167.10 0.3399551
1167.20 0.3398816
1167.30 0.3398082
1167.40 0.3397348
1167.50 0.3396614
1167.60 0.339588
1167.70 0.3395146
1167.80 0.3394412
1167.90 0.3393679
1168.00 0.3392946
1168.10 0.3392213
1168.20 0.3391481
1168.30 0.3390748
1168.40 0.3390016
1168.50 0.3389284
1168.60 0.3388552
1168.70 0.338782
1168.80 0.3387089
1168.90 0.3386358
1169.00 0.3385627
1169.10 0.3384896
1169.20 0.3384165
1169.30 0.3383435
1169.40 0.3382705
1169.50 0.3381974
1169.60 0.3381245
1169.70 0.3380515
1169.80 0.3379786
1169.90 0.3379056
1170.00 0.3378327
1170.10 0.3377598
1170.20 0.337687
1170.30 0.3376141
1170.40 0.3375413
1170.50 0.3374685
1170.60 0.3373957
1170.70 0.337323
1170.80 0.3372502
1170.90 0.3371775
1171.00 0.3371048
1171.10 0.3370321
1171.20 0.3369594
1171.30 0.3368868
1171.40 0.3368142
1171.50 0.3367416
1171.60 0.336669
1171.70 0.3365964
1171.80 0.3365239
1171.90 0.3364513
1172.00 0.3363788
1172.10 0.3363064
1172.20 0.3362339
1172.30 0.3361614
1172.40 0.336089
1172.50 0.3360166
1172.60 0.3359442
1172.70 0.3358719
1172.80 0.3357995
1172.90 0.3357272
1173.00 0.3356549
1173.10 0.3355826
1173.20 0.3355103
1173.30 0.3354381
1173.40 0.3353658
1173.50 0.3352936
1173.60 0.3352214
1173.70 0.3351493
1173.80 0.3350772
1173.90 0.3350053
1174.00 0.3349333
1174.10 0.3348614
1174.20 0.3347894
1174.30 0.3347175
1174.40 0.3346456
1174.50 0.3345738
1174.60 0.3345019
1174.70 0.3344301
1174.80 0.3343583
1174.90 0.3342865
1175.00 0.3342147
1175.10 0.334143
1175.20 0.3340713
1175.30 0.3339996
1175.40 0.3339279
1175.50 0.3338562
1175.60 0.3337845
1175.70 0.3337129
1175.80 0.3336413
1175.90 0.3335697
1176.00 0.3334981
1176.10 0.3334266
1176.20 0.3333551
1176.30 0.3332835
1176.40 0.333212
1176.50 0.3331406
1176.60 0.3330691
1176.70 0.3329977
1176.80 0.3329263
1176.90 0.3328549
1177.00 0.3327835
1177.10 0.3327121
1177.20 0.3326408
1177.30 0.3325695
1177.40 0.3324982
1177.50 0.3324269
1177.60 0.3323556
1177.70 0.3322844
1177.80 0.3322132
1177.90 0.332142
1178.00 0.3320708
1178.10 0.3319996
1178.20 0.3319285
1178.30 0.3318574
1178.40 0.3317862
1178.50 0.3317152
1178.60 0.3316441
1178.70 0.331573
1178.80 0.331502
1178.90 0.331431
1179.00 0.33136
1179.10 0.331289
1179.20 0.3312181
1179.30 0.3311472
1179.40 0.3310763
1179.50 0.3310054
1179.60 0.3309344
1179.70 0.3308627
1179.80 0.330791
1179.90 0.3307193
1180.00 0.3306476
1180.10 0.330576
1180.20 0.3305044
1180.30 0.3304328
1180.40 0.3303612
1180.50 0.3302896
1180.60 0.3302181
1180.70 0.3301466
1180.80 0.330075
1180.90 0.3300036
1181.00 0.3299321
1181.10 0.3298607
1181.20 0.3297892
1181.30 0.3297178
1181.40 0.3296464
1181.50 0.3295751
1181.60 0.3295037
1181.70 0.3294324
1181.80 0.3293611
1181.90 0.3292898
1182.00 0.3292185
1182.10 0.3291473
1182.20 0.329076
1182.30 0.3290048
1182.40 0.3289336
1182.50 0.3288624
1182.60 0.3287913
1182.70 0.3287202
1182.80 0.328649
1182.90 0.3285779
1183.00 0.3285069
1183.10 0.3284358
1183.20 0.3283648
1183.30 0.3282937
1183.40 0.3282227
1183.50 0.3281518
1183.60 0.3280808
1183.70 0.3280099
1183.80 0.3279389
1183.90 0.327868
1184.00 0.3277971
1184.10 0.3277263
1184.20 0.3276554
1184.30 0.3275846
1184.40 0.3275138
1184.50 0.327443
1184.60 0.3273722
1184.70 0.3273015
1184.80 0.3272308
1184.90 0.3271601
1185.00 0.3270894
1185.10 0.3270187
1185.20 0.326948
1185.30 0.3268774
1185.40 0.3268068
1185.50 0.3267362
1185.60 0.3266658
1185.70 0.3265954
1185.80 0.326525
1185.90 0.3264547
1186.00 0.3263843
1186.10 0.326314
1186.20 0.3262437
1186.30 0.3261734
1186.40 0.3261031
1186.50 0.3260329
1186.60 0.3259626
1186.70 0.3258924
1186.80 0.3258222
1186.90 0.325752
1187.00 0.3256819
1187.10 0.3256117
1187.20 0.3255416
1187.30 0.3254715
1187.40 0.3254014
1187.50 0.3253314
1187.60 0.3252613
1187.70 0.3251913
1187.80 0.3251213
1187.90 0.3250513
1188.00 0.3249813
1188.10 0.3249114
1188.20 0.3248414
1188.30 0.3247715
1188.40 0.3247016
1188.50 0.3246318
1188.60 0.3245619
1188.70 0.3244921
1188.80 0.3244223
1188.90 0.3243525
1189.00 0.3242827
1189.10 0.3242129
1189.20 0.3241432
1189.30 0.3240734
1189.40 0.3240037
1189.50 0.3239341
1189.60 0.3238644
1189.70 0.3237947
1189.80 0.3237251
1189.90 0.3236555
1190.00 0.3235859
1190.10 0.3235163
1190.20 0.3234468
1190.30 0.3233773
1190.40 0.3233077
1190.50 0.3232382
1190.60 0.3231688
1190.70 0.3230993
1190.80 0.3230299
1190.90 0.3229604
1191.00 0.322891
1191.10 0.3228216
1191.20 0.3227523
1191.30 0.3226829
1191.40 0.3226136
1191.50 0.3225443
1191.60 0.322475
1191.70 0.3224057
1191.80 0.3223365
1191.90 0.3222672
1192.00 0.322198
1192.10 0.3221288
1192.20 0.3220597
1192.30 0.3219905
1192.40 0.3219214
1192.50 0.3218522
1192.60 0.3217831
1192.70 0.321714
1192.80 0.321645
1192.90 0.3215759
1193.00 0.3215069
1193.10 0.3214379
1193.20 0.3213689
1193.30 0.3212999
1193.40 0.321231
1193.50 0.321162
1193.60 0.3210931
1193.70 0.3210242
1193.80 0.3209553
1193.90 0.3208865
1194.00 0.3208176
1194.10 0.3207488
1194.20 0.32068
1194.30 0.3206112
1194.40 0.3205424
1194.50 0.3204737
1194.60 0.3204049
1194.70 0.3203362
1194.80 0.3202675
1194.90 0.3201989
1195.00 0.3201302
1195.10 0.3200616
1195.20 0.3199929
1195.30 0.3199243
1195.40 0.3198558
1195.50 0.3197872
1195.60 0.3197186
1195.70 0.3196501
1195.80 0.3195816
1195.90 0.3195131
1196.00 0.3194446
1196.10 0.3193762
1196.20 0.3193077
1196.30 0.3192393
1196.40 0.3191709
1196.50 0.3191025
1196.60 0.3190342
1196.70 0.3189658
1196.80 0.3188975
1196.90 0.3188292
1197.00 0.3187609
1197.10 0.3186926
1197.20 0.3186244
1197.30 0.3185562
1197.40 0.3184881
1197.50 0.31842
1197.60 0.318352
1197.70 0.318284
1197.80 0.318216
1197.90 0.318148
1198.00 0.3180801
1198.10 0.3180121
1198.20 0.3179442
1198.30 0.3178763
1198.40 0.3178084
1198.50 0.3177406
1198.60 0.3176727
1198.70 0.3176049
1198.80 0.3175371
1198.90 0.3174693
1199.00 0.3174015
1199.10 0.3173337
1199.20 0.317266
1199.30 0.3171983
1199.40 0.3171306
1199.50 0.3170629
1199.60 0.3169952
1199.70 0.3169276
1199.80 0.31686
1199.90 0.3167924
1200.00 0.3167248
