# Version 2.1 - nm, norm@500 to 1, cut digits, bergeron_He_4000_85.dat_4000
# Wavelength(nm)  Flambda(ergs/cm^s/s/nm)
300.00 0.03614487
300.10 0.03626567
300.20 0.03638665
300.30 0.03650821
300.40 0.03663457
300.50 0.03676076
300.60 0.03688677
300.70 0.0370126
300.80 0.03713826
300.90 0.03726374
301.00 0.03738905
301.10 0.03751419
301.20 0.03763915
301.30 0.03776393
301.40 0.03788854
301.50 0.03801298
301.60 0.03813725
301.70 0.03826134
301.80 0.03838526
301.90 0.038509
302.00 0.03863258
302.10 0.03876223
302.20 0.0388924
302.30 0.03902239
302.40 0.0391522
302.50 0.03928183
302.60 0.03941128
302.70 0.03954055
302.80 0.03966964
302.90 0.03979855
303.00 0.03992728
303.10 0.04005584
303.20 0.04018421
303.30 0.04031308
303.40 0.04044782
303.50 0.04058237
303.60 0.04071674
303.70 0.04085092
303.80 0.04098491
303.90 0.04111872
304.00 0.04125235
304.10 0.04138579
304.20 0.04151904
304.30 0.04165212
304.40 0.041785
304.50 0.04191771
304.60 0.04205702
304.70 0.0421969
304.80 0.04233659
304.90 0.04247608
305.00 0.04261538
305.10 0.04275449
305.20 0.04289341
305.30 0.04303213
305.40 0.04317067
305.50 0.04330902
305.60 0.04344717
305.70 0.04358514
305.80 0.04372291
305.90 0.0438605
306.00 0.04399789
306.10 0.0441351
306.20 0.04427212
306.30 0.04440895
306.40 0.04455425
306.50 0.04470193
306.60 0.04484941
306.70 0.04499669
306.80 0.04514377
306.90 0.04529065
307.00 0.04543733
307.10 0.0455838
307.20 0.04573008
307.30 0.04587615
307.40 0.04602203
307.50 0.0461677
307.60 0.04631318
307.70 0.04645846
307.80 0.04660354
307.90 0.04674842
308.00 0.0468931
308.10 0.04703759
308.20 0.04718188
308.30 0.04732597
308.40 0.04746986
308.50 0.04761356
308.60 0.04775706
308.70 0.04790037
308.80 0.04804438
308.90 0.04819079
309.00 0.0483425
309.10 0.048494
309.20 0.04864529
309.30 0.04879638
309.40 0.0489478
309.50 0.04910229
309.60 0.04925657
309.70 0.04941064
309.80 0.04956451
309.90 0.04971816
310.00 0.04987161
310.10 0.05002484
310.20 0.05017787
310.30 0.0503307
310.40 0.05048518
310.50 0.05064149
310.60 0.05079758
310.70 0.05095347
310.80 0.05110914
310.90 0.0512646
311.00 0.05141823
311.10 0.05157166
311.20 0.05172488
311.30 0.0518809
311.40 0.05204531
311.50 0.0522095
311.60 0.05237346
311.70 0.0525372
311.80 0.05270073
311.90 0.05286403
312.00 0.05302711
312.10 0.05318997
312.20 0.05333873
312.30 0.05348834
312.40 0.05365187
312.50 0.05381099
312.60 0.05398136
312.70 0.05415151
312.80 0.05432143
312.90 0.05448526
313.00 0.05464253
313.10 0.05479958
313.20 0.05495642
313.30 0.05511572
313.40 0.0552824
313.50 0.05544886
313.60 0.05561509
313.70 0.05578109
313.80 0.05594688
313.90 0.05611244
314.00 0.05627778
314.10 0.05644993
314.20 0.05662186
314.30 0.05679355
314.40 0.05696501
314.50 0.05713625
314.60 0.05730725
314.70 0.05747803
314.80 0.05764482
314.90 0.05782195
315.00 0.05802182
315.10 0.05819327
315.20 0.0583645
315.30 0.0585355
315.40 0.05870627
315.50 0.05887682
315.60 0.05904713
315.70 0.05922137
315.80 0.05939537
315.90 0.05956915
316.00 0.05974269
316.10 0.05990358
316.20 0.06006425
316.30 0.06027432
316.40 0.06043454
316.50 0.06061931
316.60 0.06080384
316.70 0.06098812
316.80 0.06117216
316.90 0.0613436
317.00 0.0615148
317.10 0.06168579
317.20 0.06185654
317.30 0.06204421
317.40 0.06222986
317.50 0.06241026
317.60 0.06259041
317.70 0.06277033
317.80 0.06295001
317.90 0.06313658
318.00 0.06332091
318.10 0.06350182
318.20 0.0636825
318.30 0.06386293
318.40 0.06404312
318.50 0.06422308
318.60 0.06440915
318.70 0.06461306
318.80 0.06480205
318.90 0.06497127
319.00 0.06516806
319.10 0.06534656
319.20 0.06552814
319.30 0.06571891
319.40 0.06590944
319.50 0.06609971
319.60 0.06628741
319.70 0.06647718
319.80 0.06666671
319.90 0.06685598
320.00 0.06705054
320.10 0.06725084
320.20 0.06744821
320.30 0.06760227
320.40 0.06783083
320.50 0.0680011
320.60 0.06820012
320.70 0.06839887
320.80 0.06859158
320.90 0.06877777
321.00 0.06896372
321.10 0.06914942
321.20 0.069382
321.30 0.06957171
321.40 0.06976118
321.50 0.06995039
321.60 0.07013936
321.70 0.07032808
321.80 0.07052946
321.90 0.07074455
322.00 0.07092328
322.10 0.0711232
322.20 0.07132286
322.30 0.07152226
322.40 0.07172139
322.50 0.07192026
322.60 0.07211888
322.70 0.07231723
322.80 0.07251236
322.90 0.0727211
323.00 0.07292957
323.10 0.07313776
323.20 0.07334569
323.30 0.07355334
323.40 0.07376073
323.50 0.07396784
323.60 0.07417468
323.70 0.07438126
323.80 0.07458756
323.90 0.0747936
324.00 0.07500026
324.10 0.07520666
324.20 0.07541278
324.30 0.07561595
324.40 0.07581717
324.50 0.0760246
324.60 0.07623175
324.70 0.07643864
324.80 0.07664526
324.90 0.07685161
325.00 0.07705769
325.10 0.0772635
325.20 0.07747179
325.30 0.07768564
325.40 0.07789921
325.50 0.0781118
325.60 0.07832326
325.70 0.07853444
325.80 0.07874535
325.90 0.07895925
326.00 0.07917641
326.10 0.07939329
326.20 0.07960988
326.30 0.07982461
326.40 0.08003451
326.50 0.08025483
326.60 0.08047487
326.70 0.08069462
326.80 0.08091409
326.90 0.08113328
327.00 0.08135218
327.10 0.0815708
327.20 0.08178913
327.30 0.08200719
327.40 0.08222496
327.50 0.08244245
327.60 0.08265966
327.70 0.08287659
327.80 0.08309324
327.90 0.0833105
328.00 0.08353279
328.10 0.08376009
328.20 0.08398711
328.30 0.08421383
328.40 0.08444025
328.50 0.08466196
328.60 0.08488234
328.70 0.08510243
328.80 0.08532542
328.90 0.08555714
329.00 0.08578856
329.10 0.08601968
329.20 0.08625051
329.30 0.08648104
329.40 0.08671127
329.50 0.08694121
329.60 0.08717086
329.70 0.08740021
329.80 0.08762926
329.90 0.08785803
330.00 0.08808888
330.10 0.08832233
330.20 0.0885555
330.30 0.08878836
330.40 0.08902199
330.50 0.08925649
330.60 0.08949069
330.70 0.08972458
330.80 0.08995818
330.90 0.09019148
331.00 0.09042448
331.10 0.09065718
331.20 0.09088959
331.30 0.0911217
331.40 0.09135351
331.50 0.09158664
331.60 0.09182144
331.70 0.09205594
331.80 0.09229715
331.90 0.09253835
332.00 0.09277924
332.10 0.09301983
332.20 0.0932601
332.30 0.09350007
332.40 0.09373974
332.50 0.0939791
332.60 0.09421816
332.70 0.09445691
332.80 0.09469536
332.90 0.0949335
333.00 0.09517134
333.10 0.09541315
333.20 0.09565988
333.30 0.09590629
333.40 0.09615239
333.50 0.09639817
333.60 0.09664364
333.70 0.09688881
333.80 0.09713366
333.90 0.0973782
334.00 0.09762243
334.10 0.09787035
334.20 0.09812284
334.30 0.09837502
334.40 0.09862688
334.50 0.09887841
334.60 0.09912963
334.70 0.09937517
334.80 0.09961637
334.90 0.0998609
335.00 0.1001051
335.10 0.100381
335.20 0.1006303
335.30 0.1008892
335.40 0.1011324
335.50 0.1013863
335.60 0.1016564
335.70 0.1018821
335.80 0.1021515
335.90 0.1024157
336.00 0.1026734
336.10 0.1029309
336.20 0.103188
336.30 0.1034464
336.40 0.1037066
336.50 0.1039664
336.60 0.1042258
336.70 0.104485
336.80 0.1047438
336.90 0.1049993
337.00 0.1052506
337.10 0.1055017
337.20 0.1057525
337.30 0.1060096
337.40 0.1062759
337.50 0.1065419
337.60 0.1068076
337.70 0.107073
337.80 0.107338
337.90 0.1076028
338.00 0.1078675
338.10 0.1081319
338.20 0.1083959
338.30 0.1086596
338.40 0.1089256
338.50 0.1091978
338.60 0.1094697
338.70 0.1097413
338.80 0.1100125
338.90 0.1102833
339.00 0.1105538
339.10 0.110824
339.20 0.1110939
339.30 0.1113613
339.40 0.1116254
339.50 0.111894
339.60 0.112168
339.70 0.1124417
339.80 0.1127151
339.90 0.1129881
340.00 0.1132607
340.10 0.1135331
340.20 0.113805
340.30 0.1140767
340.40 0.114348
340.50 0.114619
340.60 0.1148896
340.70 0.1151599
340.80 0.1154345
340.90 0.1157154
341.00 0.1159977
341.10 0.1162816
341.20 0.1165651
341.30 0.1168483
341.40 0.1171312
341.50 0.1174137
341.60 0.1176959
341.70 0.1179777
341.80 0.1182589
341.90 0.1185393
342.00 0.1188195
342.10 0.1190993
342.20 0.1193725
342.30 0.1196588
342.40 0.1199502
342.50 0.1202351
342.60 0.1205196
342.70 0.1208038
342.80 0.1210877
342.90 0.1213712
343.00 0.1216548
343.10 0.1219388
343.20 0.1222223
343.30 0.1225055
343.40 0.1227927
343.50 0.1230858
343.60 0.1233785
343.70 0.1236708
343.80 0.1239628
343.90 0.1242544
344.00 0.1245471
344.10 0.1248415
344.20 0.1251355
344.30 0.1254292
344.40 0.1257182
344.50 0.1260007
344.60 0.1263075
344.70 0.1265893
344.80 0.1268717
344.90 0.1271737
345.00 0.1274582
345.10 0.1277594
345.20 0.1280565
345.30 0.128348
345.40 0.1286391
345.50 0.1289454
345.60 0.1292599
345.70 0.1295589
345.80 0.1298575
345.90 0.1301557
346.00 0.1304536
346.10 0.1307512
346.20 0.1310517
346.30 0.1313568
346.40 0.1316615
346.50 0.1319658
346.60 0.1322698
346.70 0.1325733
346.80 0.1328766
346.90 0.1331794
347.00 0.1334819
347.10 0.1337839
347.20 0.1340894
347.30 0.1343998
347.40 0.1347098
347.50 0.1350194
347.60 0.1353287
347.70 0.1356376
347.80 0.1359461
347.90 0.1362542
348.00 0.1365619
348.10 0.1368693
348.20 0.1371763
348.30 0.1374829
348.40 0.1377892
348.50 0.1380951
348.60 0.1384006
348.70 0.1387122
348.80 0.1390272
348.90 0.1393444
349.00 0.1396612
349.10 0.1399775
349.20 0.1402935
349.30 0.1406092
349.40 0.1409244
349.50 0.1412392
349.60 0.1415537
349.70 0.1418678
349.80 0.1421815
349.90 0.1424948
350.00 0.1428077
350.10 0.1431203
350.20 0.1434324
350.30 0.1437494
350.40 0.1440734
350.50 0.1443971
350.60 0.1447203
350.70 0.1450431
350.80 0.1453656
350.90 0.1456876
351.00 0.1460093
351.10 0.1463306
351.20 0.1466515
351.30 0.146972
351.40 0.1472961
351.50 0.1476269
351.60 0.1479573
351.70 0.1482874
351.80 0.148617
351.90 0.1489462
352.00 0.1492751
352.10 0.1496035
352.20 0.1499224
352.30 0.1502457
352.40 0.1505769
352.50 0.1509078
352.60 0.1512382
352.70 0.1515683
352.80 0.151898
352.90 0.1522272
353.00 0.1525561
353.10 0.1528846
353.20 0.1532127
353.30 0.1535403
353.40 0.1538676
353.50 0.1542069
353.60 0.1545488
353.70 0.1548903
353.80 0.1552314
353.90 0.1555709
354.00 0.1559078
354.10 0.1562443
354.20 0.1565804
354.30 0.1569162
354.40 0.1572515
354.50 0.1575864
354.60 0.1579209
354.70 0.158255
354.80 0.1585913
354.90 0.1589308
355.00 0.1592699
355.10 0.1596086
355.20 0.1599469
355.30 0.1602948
355.40 0.1606422
355.50 0.1609892
355.60 0.1613358
355.70 0.1616825
355.80 0.1620291
355.90 0.162369
356.00 0.1627154
356.10 0.1630658
356.20 0.1634158
356.30 0.1637654
356.40 0.1641146
356.50 0.1644634
356.60 0.1648117
356.70 0.1651596
356.80 0.1655071
356.90 0.1658542
357.00 0.1662009
357.10 0.1665472
357.20 0.166893
357.30 0.1672385
357.40 0.1675879
357.50 0.1679449
357.60 0.1683015
357.70 0.1686577
357.80 0.169004
357.90 0.1693498
358.00 0.1697053
358.10 0.1700628
358.20 0.1704199
358.30 0.1707765
358.40 0.1711328
358.50 0.1714886
358.60 0.171844
358.70 0.1721989
358.80 0.1725535
358.90 0.1729076
359.00 0.1732671
359.10 0.1736366
359.20 0.1740031
359.30 0.1743518
359.40 0.1747
359.50 0.1750649
359.60 0.1754336
359.70 0.1758018
359.80 0.1761688
359.90 0.1765354
360.00 0.1769013
360.10 0.1772663
360.20 0.177631
360.30 0.1779951
360.40 0.1783589
360.50 0.1787222
360.60 0.1790632
360.70 0.1794312
360.80 0.1797988
360.90 0.180166
361.00 0.1805362
361.10 0.180912
361.20 0.1812683
361.30 0.1816622
361.40 0.1820367
361.50 0.1823728
361.60 0.1827464
361.70 0.1831196
361.80 0.1834923
361.90 0.1838646
362.00 0.1842364
362.10 0.1846078
362.20 0.1849818
362.30 0.1853606
362.40 0.185739
362.50 0.186117
362.60 0.1864944
362.70 0.1868649
362.80 0.1872521
362.90 0.1876176
363.00 0.1879827
363.10 0.1883604
363.20 0.1887377
363.30 0.1891436
363.40 0.1895093
363.50 0.1898746
363.60 0.1902769
363.70 0.1906622
363.80 0.191024
363.90 0.1914099
364.00 0.1917952
364.10 0.1921801
364.20 0.1925646
364.30 0.1929391
364.40 0.1933108
364.50 0.1936954
364.60 0.1940853
364.70 0.1944748
364.80 0.1948638
364.90 0.1952415
365.00 0.1956189
365.10 0.1960144
365.20 0.1964094
365.30 0.196804
365.40 0.1971981
365.50 0.1975732
365.60 0.1979478
365.70 0.1983457
365.80 0.198743
365.90 0.1991309
366.00 0.1995161
366.10 0.1999075
366.20 0.2002985
366.30 0.200689
366.40 0.2010791
366.50 0.2014795
366.60 0.2018918
366.70 0.202285
366.80 0.2026777
366.90 0.2030704
367.00 0.2034635
367.10 0.2038561
367.20 0.2042482
367.30 0.2046398
367.40 0.2050311
367.50 0.2054283
367.60 0.2058266
367.70 0.2062267
367.80 0.2066263
367.90 0.2070254
368.00 0.2074318
368.10 0.2078269
368.20 0.208232
368.30 0.2086368
368.40 0.2090412
368.50 0.2094451
368.60 0.2098486
368.70 0.2102515
368.80 0.210654
368.90 0.2110578
369.00 0.2114664
369.10 0.2118752
369.20 0.2122754
369.30 0.212682
369.40 0.2130882
369.50 0.2134939
369.60 0.2139026
369.70 0.2143108
369.80 0.2147149
369.90 0.2151184
370.00 0.2155214
370.10 0.2159486
370.20 0.2163578
370.30 0.2167658
370.40 0.2171551
370.50 0.2175802
370.60 0.2179877
370.70 0.2183983
370.80 0.2188193
370.90 0.2192398
371.00 0.2196472
371.10 0.220054
371.20 0.2204731
371.30 0.2208917
371.40 0.2212949
371.50 0.2217115
371.60 0.2221277
371.70 0.2225433
371.80 0.2229585
371.90 0.2233732
372.00 0.2237964
372.10 0.2242138
372.20 0.2246367
372.30 0.2250592
372.40 0.2254811
372.50 0.2259025
372.60 0.2263235
372.70 0.226744
372.80 0.2271553
372.90 0.2275662
373.00 0.2279997
373.10 0.2284329
373.20 0.228845
373.30 0.2292567
373.40 0.2297034
373.50 0.2301141
373.60 0.2305421
373.70 0.2309696
373.80 0.2313921
373.90 0.2318231
374.00 0.2322491
374.10 0.2326746
374.20 0.2330997
374.30 0.2335243
374.40 0.2339527
374.50 0.2344013
374.60 0.2348263
374.70 0.2352502
374.80 0.2356737
374.90 0.2360967
375.00 0.2365355
375.10 0.2369738
375.20 0.2374116
375.30 0.2378438
375.40 0.2382756
375.50 0.2387069
375.60 0.2391376
375.70 0.2395679
375.80 0.2399977
375.90 0.240427
376.00 0.24089
376.10 0.2413279
376.20 0.241765
376.30 0.2422016
376.40 0.2426377
376.50 0.2430744
376.60 0.2435125
376.70 0.2439501
376.80 0.2443891
376.90 0.2448295
377.00 0.2452694
377.10 0.2457088
377.20 0.2461469
377.30 0.2465812
377.40 0.247015
377.50 0.2474484
377.60 0.2479
377.70 0.2483511
377.80 0.2488017
377.90 0.2492518
378.00 0.2496721
378.10 0.250122
378.20 0.250572
378.30 0.2510216
378.40 0.2514707
378.50 0.2519192
378.60 0.2523672
378.70 0.2528148
378.80 0.2532618
378.90 0.2537114
379.00 0.2541662
379.10 0.2546123
379.20 0.2550579
379.30 0.2555081
379.40 0.2559629
379.50 0.2564172
379.60 0.256867
379.70 0.2573128
379.80 0.2577675
379.90 0.2582217
380.00 0.2586753
380.10 0.2591285
380.20 0.2595812
380.30 0.2600333
380.40 0.2604849
380.50 0.2609361
380.60 0.2613873
380.70 0.2618493
380.80 0.2623107
380.90 0.2627717
381.00 0.2632321
381.10 0.263692
381.20 0.26414
381.30 0.2645803
381.40 0.265044
381.50 0.2655172
381.60 0.2659857
381.70 0.2664449
381.80 0.2668967
381.90 0.2673525
382.00 0.2678077
382.10 0.2682965
382.20 0.2687507
382.30 0.2692044
382.40 0.2696655
382.50 0.2701382
382.60 0.2706103
382.70 0.2710729
382.80 0.271532
382.90 0.2719978
383.00 0.2724631
383.10 0.2729278
383.20 0.2733941
383.30 0.2738673
383.40 0.274335
383.50 0.2747946
383.60 0.2752799
383.70 0.2757493
383.80 0.2762183
383.90 0.2766867
384.00 0.2771546
384.10 0.2776219
384.20 0.2780888
384.30 0.2785551
384.40 0.2790248
384.50 0.2794978
384.60 0.2799704
384.70 0.2804424
384.80 0.2809153
384.90 0.2813908
385.00 0.2818626
385.10 0.2823349
385.20 0.2828302
385.30 0.2832943
385.40 0.2837681
385.50 0.2842514
385.60 0.2847343
385.70 0.2852166
385.80 0.2856971
385.90 0.2861728
386.00 0.2866433
386.10 0.2871102
386.20 0.2875911
386.30 0.2880714
386.40 0.2885661
386.50 0.2890375
386.60 0.2895243
386.70 0.2900135
386.80 0.2904938
386.90 0.2909736
387.00 0.2914595
387.10 0.2919383
387.20 0.2924237
387.30 0.2928941
387.40 0.2933941
387.50 0.2938743
387.60 0.2943535
387.70 0.2948456
387.80 0.2953371
387.90 0.295828
388.00 0.2963122
388.10 0.2967831
388.20 0.297284
388.30 0.2977683
388.40 0.2982521
388.50 0.2987447
388.60 0.2992454
388.70 0.2997178
388.80 0.300219
388.90 0.3007209
389.00 0.3011958
389.10 0.3016903
389.20 0.3021906
389.30 0.3026845
389.40 0.3031669
389.50 0.3036577
389.60 0.3041585
389.70 0.3046519
389.80 0.3051511
389.90 0.3056497
390.00 0.3061478
390.10 0.3066454
390.20 0.3071424
390.30 0.3076397
390.40 0.3081373
390.50 0.3086344
390.60 0.3091309
390.70 0.3096269
390.80 0.3101259
390.90 0.3106278
391.00 0.3111181
391.10 0.3116206
391.20 0.3121217
391.30 0.3126227
391.40 0.3131272
391.50 0.313631
391.60 0.3141343
391.70 0.3146371
391.80 0.3151393
391.90 0.3156419
392.00 0.3161422
392.10 0.3166377
392.20 0.3171328
392.30 0.3176391
392.40 0.3181556
392.50 0.3186639
392.60 0.3191673
392.70 0.3196646
392.80 0.3201717
392.90 0.3207034
393.00 0.3212752
393.10 0.3218292
393.20 0.3223584
393.30 0.3228362
393.40 0.3232558
393.50 0.3236717
393.60 0.3242809
393.70 0.3246845
393.80 0.3252173
393.90 0.325692
394.00 0.3262014
394.10 0.3268871
394.20 0.3273698
394.30 0.3278055
394.40 0.3283717
394.50 0.3287904
394.60 0.329336
394.70 0.329885
394.80 0.3304483
394.90 0.3310093
395.00 0.3315038
395.10 0.3318308
395.20 0.3323374
395.30 0.3328935
395.40 0.333449
395.50 0.3339465
395.60 0.3344222
395.70 0.3349119
395.80 0.3354401
395.90 0.3359677
396.00 0.3365015
396.10 0.3370657
396.20 0.3375279
396.30 0.3380323
396.40 0.3386514
396.50 0.3392698
396.60 0.3398324
396.70 0.3401976
396.80 0.3408199
396.90 0.3412407
397.00 0.3416671
397.10 0.3422819
397.20 0.3427923
397.30 0.3435392
397.40 0.3440581
397.50 0.3445764
397.60 0.3450921
397.70 0.3455862
397.80 0.3460798
397.90 0.3465742
398.00 0.3470714
398.10 0.3475681
398.20 0.3481108
398.30 0.3487054
398.40 0.3492978
398.50 0.3498438
398.60 0.3503533
398.70 0.3508216
398.80 0.3512825
398.90 0.3517628
399.00 0.3522793
399.10 0.3527903
399.20 0.3533279
399.30 0.3538649
399.40 0.3544013
399.50 0.3549371
399.60 0.355483
399.70 0.3560322
399.80 0.3565809
399.90 0.3571289
400.00 0.357676
400.10 0.3582127
400.20 0.3587541
400.30 0.359255
400.40 0.3598097
400.50 0.3604751
400.60 0.3608596
400.70 0.3614523
400.80 0.3620444
400.90 0.3626358
401.00 0.3629904
401.10 0.3635082
401.20 0.3640192
401.30 0.3646616
401.40 0.3652128
401.50 0.3657151
401.60 0.3662176
401.70 0.3667451
401.80 0.3674781
401.90 0.3679754
402.00 0.3685613
402.10 0.3689698
402.20 0.3694399
402.30 0.3700059
402.40 0.3706772
402.50 0.3713003
402.60 0.3717447
402.70 0.3721558
402.80 0.3727358
402.90 0.3733151
403.00 0.3738939
403.10 0.374472
403.20 0.374918
403.30 0.3754362
403.40 0.3761583
403.50 0.376739
403.60 0.3772513
403.70 0.3776232
403.80 0.3783701
403.90 0.3788742
404.00 0.3793658
404.10 0.3799153
404.20 0.3804868
404.30 0.3810577
404.40 0.3816417
404.50 0.3821976
404.60 0.3827666
404.70 0.3833351
404.80 0.3837779
404.90 0.3844701
405.00 0.3849928
405.10 0.3855164
405.20 0.3859738
405.30 0.3864308
405.40 0.3869952
405.50 0.3875589
405.60 0.3881221
405.70 0.3886846
405.80 0.3892465
405.90 0.3898079
406.00 0.3904035
406.10 0.3909984
406.20 0.3915927
406.30 0.3921864
406.40 0.3927558
406.50 0.3933149
406.60 0.3937205
406.70 0.3943333
406.80 0.3949595
406.90 0.3954117
407.00 0.3959964
407.10 0.3965805
407.20 0.397164
407.30 0.3977469
407.40 0.3983291
407.50 0.3989107
407.60 0.3994917
407.70 0.4000721
407.80 0.4006519
407.90 0.4012273
408.00 0.4016824
408.10 0.4021556
408.20 0.4027285
408.30 0.403307
408.40 0.403885
408.50 0.4044913
408.60 0.4050134
408.70 0.4055349
408.80 0.4060894
408.90 0.4068465
409.00 0.4073879
409.10 0.4079287
409.20 0.4084689
409.30 0.4090086
409.40 0.4095475
409.50 0.4100796
409.60 0.4106111
409.70 0.4111592
409.80 0.4117758
409.90 0.4123929
410.00 0.4130517
410.10 0.4135881
410.20 0.4141792
410.30 0.4147834
410.40 0.4153798
410.50 0.4159525
410.60 0.4165246
410.70 0.4170842
410.80 0.4175956
410.90 0.4181064
411.00 0.4187033
411.10 0.4193316
411.20 0.4199591
411.30 0.4205703
411.40 0.421117
411.50 0.4216373
411.60 0.4221571
411.70 0.4227071
411.80 0.4233799
411.90 0.4240227
412.00 0.4245478
412.10 0.4250724
412.20 0.4255965
412.30 0.4261237
412.40 0.4266745
412.50 0.4274361
412.60 0.4278537
412.70 0.4284062
412.80 0.4289919
412.90 0.4297079
413.00 0.4302537
413.10 0.4308533
413.20 0.4314523
413.30 0.4320506
413.40 0.4326483
413.50 0.433205
413.60 0.4336465
413.70 0.4342343
413.80 0.4348215
413.90 0.4354082
414.00 0.4360115
414.10 0.4366693
414.20 0.4372916
414.30 0.4378034
414.40 0.4383147
414.50 0.4391076
414.60 0.4396243
414.70 0.4401338
414.80 0.44066
414.90 0.4412405
415.00 0.4418204
415.10 0.4423996
415.20 0.442982
415.30 0.4435755
415.40 0.4441684
415.50 0.4447612
415.60 0.4453711
415.70 0.4459804
415.80 0.4465954
415.90 0.4472301
416.00 0.4478642
416.10 0.4484791
416.20 0.4490194
416.30 0.4495592
416.40 0.4500984
416.50 0.4506401
416.60 0.4512817
416.70 0.4519183
416.80 0.4524187
416.90 0.4531981
417.00 0.4537647
417.10 0.4541943
417.20 0.454832
417.30 0.4554676
417.40 0.4560547
417.50 0.4566411
417.60 0.4572607
417.70 0.4580093
417.80 0.4585957
417.90 0.4591814
418.00 0.4597666
418.10 0.4603511
418.20 0.460935
418.30 0.4615158
418.40 0.4620401
418.50 0.4626501
418.60 0.4632594
418.70 0.4638681
418.80 0.4644762
418.90 0.4650836
419.00 0.4656904
419.10 0.4662966
419.20 0.4669021
419.30 0.4675061
419.40 0.4680808
419.50 0.4686549
419.60 0.4692405
419.70 0.4698736
419.80 0.4705061
419.90 0.471131
420.00 0.4717334
420.10 0.4723351
420.20 0.4729363
420.30 0.4735368
420.40 0.4741366
420.50 0.4747359
420.60 0.4753345
420.70 0.4759325
420.80 0.4765299
420.90 0.4771262
421.00 0.4777054
421.10 0.4782839
421.20 0.4788702
421.30 0.4794805
421.40 0.4800903
421.50 0.4806994
421.60 0.4813078
421.70 0.4819157
421.80 0.4825229
421.90 0.4831258
422.00 0.4837166
422.10 0.4843186
422.20 0.4849675
422.30 0.4856158
422.40 0.4862624
422.50 0.4868752
422.60 0.4874873
422.70 0.4880989
422.80 0.4887098
422.90 0.48932
423.00 0.4899297
423.10 0.4905387
423.20 0.4911471
423.30 0.4917548
423.40 0.4923619
423.50 0.4929684
423.60 0.4935743
423.70 0.4941795
423.80 0.4947841
423.90 0.4953881
424.00 0.4959915
424.10 0.4965942
424.20 0.4971963
424.30 0.4977978
424.40 0.4984988
424.50 0.4990985
424.60 0.4996977
424.70 0.5002962
424.80 0.5008942
424.90 0.5014915
425.00 0.5020881
425.10 0.5026842
425.20 0.5032796
425.30 0.5038745
425.40 0.504474
425.50 0.5051083
425.60 0.505742
425.70 0.506375
425.80 0.5070073
425.90 0.507639
426.00 0.5082701
426.10 0.5089005
426.20 0.5095303
426.30 0.5101594
426.40 0.5107879
426.50 0.5114157
426.60 0.5120429
426.70 0.5126694
426.80 0.5132953
426.90 0.5139204
427.00 0.5145412
427.10 0.5151613
427.20 0.5157807
427.30 0.5163995
427.40 0.5170177
427.50 0.5176353
427.60 0.5182522
427.70 0.5188685
427.80 0.5194841
427.90 0.5200991
428.00 0.5207135
428.10 0.5213273
428.20 0.5219404
428.30 0.5225529
428.40 0.5231647
428.50 0.523776
428.60 0.5243866
428.70 0.5249966
428.80 0.5256081
428.90 0.526248
429.00 0.5268872
429.10 0.5275258
429.20 0.5281637
429.30 0.528801
429.40 0.5294376
429.50 0.5300735
429.60 0.5307089
429.70 0.5313435
429.80 0.5319775
429.90 0.5326109
430.00 0.5332436
430.10 0.5338757
430.20 0.5345072
430.30 0.535138
430.40 0.5357681
430.50 0.5363976
430.60 0.5370265
430.70 0.5376547
430.80 0.5382823
430.90 0.5389092
431.00 0.5395355
431.10 0.5401612
431.20 0.5407862
431.30 0.5414109
431.40 0.54204
431.50 0.5426684
431.60 0.5432962
431.70 0.5439234
431.80 0.5445499
431.90 0.5451758
432.00 0.545801
432.10 0.5464256
432.20 0.5470496
432.30 0.5476729
432.40 0.5482956
432.50 0.5489177
432.60 0.5495391
432.70 0.5501599
432.80 0.5507801
432.90 0.5513996
433.00 0.5520185
433.10 0.5526368
433.20 0.5532544
433.30 0.5538745
433.40 0.554534
433.50 0.5551928
433.60 0.555851
433.70 0.5565085
433.80 0.5571434
433.90 0.557751
434.00 0.5583764
434.10 0.5590125
434.20 0.5596479
434.30 0.5602827
434.40 0.5609169
434.50 0.5615504
434.60 0.5621833
434.70 0.5628155
434.80 0.5634489
434.90 0.5641051
435.00 0.5647608
435.10 0.5654157
435.20 0.56607
435.30 0.5667237
435.40 0.5673767
435.50 0.568029
435.60 0.5686806
435.70 0.5693316
435.80 0.569982
435.90 0.5706317
436.00 0.5712807
436.10 0.5719291
436.20 0.5725768
436.30 0.5731547
436.40 0.5736598
436.50 0.5743285
436.60 0.5749966
436.70 0.5756639
436.80 0.5763306
436.90 0.5769967
437.00 0.5776621
437.10 0.5783268
437.20 0.5789488
437.30 0.5795315
437.40 0.5801179
437.50 0.5807603
437.60 0.581402
437.70 0.5820431
437.80 0.5826835
437.90 0.5833233
438.00 0.5839682
438.10 0.5846886
438.20 0.5854083
438.30 0.5859397
438.40 0.5867708
438.50 0.5874066
438.60 0.5880237
438.70 0.5885745
438.80 0.5891859
438.90 0.5899254
439.00 0.5905761
439.10 0.5912081
439.20 0.5918394
439.30 0.5924701
439.40 0.5931002
439.50 0.5937296
439.60 0.5943609
439.70 0.5950376
439.80 0.5957164
439.90 0.5963825
440.00 0.597048
440.10 0.5977127
440.20 0.5983758
440.30 0.5990257
440.40 0.5996749
440.50 0.6003235
440.60 0.6009714
440.70 0.6016187
440.80 0.6022653
440.90 0.6029112
441.00 0.6035565
441.10 0.6042012
441.20 0.6048471
441.30 0.6055169
441.40 0.6061527
441.50 0.6067471
441.60 0.607341
441.70 0.6079916
441.80 0.608648
441.90 0.6093039
442.00 0.6099591
442.10 0.6106136
442.20 0.6112674
442.30 0.6119207
442.40 0.6125667
442.50 0.613204
442.60 0.6138407
442.70 0.6144922
442.80 0.6151653
442.90 0.6158246
443.00 0.6164746
443.10 0.6171132
443.20 0.6177824
443.30 0.6184798
443.40 0.619135
443.50 0.619739
443.60 0.6204811
443.70 0.6210838
443.80 0.6217174
443.90 0.6224448
444.00 0.6230582
444.10 0.6237842
444.20 0.6243083
444.30 0.6251002
444.40 0.6257781
444.50 0.6264553
444.60 0.6271104
444.70 0.6277386
444.80 0.6283739
444.90 0.6290156
445.00 0.6296566
445.10 0.630297
445.20 0.6309395
445.30 0.6315847
445.40 0.6322293
445.50 0.6328732
445.60 0.6335165
445.70 0.6341592
445.80 0.63483
445.90 0.6355266
446.00 0.6362225
446.10 0.6369177
446.20 0.6376698
446.30 0.638195
446.40 0.6388295
446.50 0.639477
446.60 0.6401238
446.70 0.6407699
446.80 0.6414478
446.90 0.6421547
447.00 0.6429157
447.10 0.6434971
447.20 0.6441524
447.30 0.6448566
447.40 0.6454313
447.50 0.6461342
447.60 0.6468296
447.70 0.6475182
447.80 0.648128
447.90 0.6487359
448.00 0.6493697
448.10 0.6500274
448.20 0.6506845
448.30 0.6513409
448.40 0.6519966
448.50 0.6526517
448.60 0.653338
448.70 0.654053
448.80 0.6547641
448.90 0.655432
449.00 0.6560993
449.10 0.6567659
449.20 0.6574318
449.30 0.6581577
449.40 0.6587567
449.50 0.659355
449.60 0.6599988
449.70 0.6606844
449.80 0.6613692
449.90 0.6620535
450.00 0.662737
450.10 0.6634199
450.20 0.6641021
450.30 0.6647836
450.40 0.6654263
450.50 0.6660684
450.60 0.6667098
450.70 0.6673506
450.80 0.6679907
450.90 0.6686302
451.00 0.6693176
451.10 0.6700044
451.20 0.6706532
451.30 0.6713444
451.40 0.6720213
451.50 0.6726975
451.60 0.6733731
451.70 0.6740479
451.80 0.6747222
451.90 0.6753957
452.00 0.6760686
452.10 0.6767409
452.20 0.6774124
452.30 0.6780834
452.40 0.6787536
452.50 0.6794232
452.60 0.6801052
452.70 0.6807776
452.80 0.6814409
452.90 0.6821036
453.00 0.6827656
453.10 0.683427
453.20 0.6840846
453.30 0.6847416
453.40 0.6853979
453.50 0.6860536
453.60 0.6867087
453.70 0.6873631
453.80 0.6880264
453.90 0.6887009
454.00 0.6893746
454.10 0.6900477
454.20 0.6907097
454.30 0.6913711
454.40 0.6920318
454.50 0.6926919
454.60 0.6933513
454.70 0.6940192
454.80 0.6946948
454.90 0.6953697
455.00 0.696044
455.10 0.6967176
455.20 0.6973906
455.30 0.6980629
455.40 0.6987346
455.50 0.6994055
455.60 0.7000759
455.70 0.7007456
455.80 0.7013988
455.90 0.7020514
456.00 0.7027034
456.10 0.7033653
456.20 0.7040553
456.30 0.7047446
456.40 0.7054332
456.50 0.7061211
456.60 0.7068084
456.70 0.7074949
456.80 0.7081809
456.90 0.7088661
457.00 0.7095507
457.10 0.7102346
457.20 0.7108759
457.30 0.7115449
457.40 0.7122133
457.50 0.712881
457.60 0.713548
457.70 0.7142144
457.80 0.7148802
457.90 0.7155453
458.00 0.7162097
458.10 0.7168736
458.20 0.7175367
458.30 0.7181992
458.40 0.7188611
458.50 0.7195223
458.60 0.7201829
458.70 0.7208553
458.80 0.7215321
458.90 0.7222082
459.00 0.7228837
459.10 0.7235586
459.20 0.7242328
459.30 0.7249189
459.40 0.7256044
459.50 0.7262893
459.60 0.7269734
459.70 0.7276569
459.80 0.7283398
459.90 0.7290219
460.00 0.7297034
460.10 0.7303843
460.20 0.7310645
460.30 0.731744
460.40 0.7324229
460.50 0.7331011
460.60 0.7337786
460.70 0.7344519
460.80 0.7351228
460.90 0.735793
461.00 0.7364626
461.10 0.7371315
461.20 0.7377923
461.30 0.7384493
461.40 0.7391099
461.50 0.7397708
461.60 0.740431
461.70 0.7410906
461.80 0.7417795
461.90 0.7424676
462.00 0.7431551
462.10 0.7438419
462.20 0.744528
462.30 0.7452135
462.40 0.7458984
462.50 0.7465825
462.60 0.747266
462.70 0.7479489
462.80 0.748631
462.90 0.7493126
463.00 0.7499934
463.10 0.7506736
463.20 0.7513536
463.30 0.7520332
463.40 0.7527121
463.50 0.7533903
463.60 0.7540679
463.70 0.7547448
463.80 0.7554211
463.90 0.7560939
464.00 0.7567654
464.10 0.7574362
464.20 0.7581063
464.30 0.7587758
464.40 0.7594447
464.50 0.7601129
464.60 0.7607805
464.70 0.7614626
464.80 0.7621501
464.90 0.762837
465.00 0.7635233
465.10 0.7642089
465.20 0.7648938
465.30 0.7655631
465.40 0.7662218
465.50 0.7668799
465.60 0.7675374
465.70 0.7681942
465.80 0.7688503
465.90 0.7695672
466.00 0.7702987
466.10 0.7710294
466.20 0.7717595
466.30 0.7724491
466.40 0.7731218
466.50 0.7737939
466.60 0.7744653
466.70 0.775136
466.80 0.7758061
466.90 0.7764756
467.00 0.7771444
467.10 0.7778126
467.20 0.7784801
467.30 0.7791463
467.40 0.7798339
467.50 0.7805265
467.60 0.7812183
467.70 0.7819096
467.80 0.7826001
467.90 0.783287
468.00 0.783972
468.10 0.7846563
468.20 0.78534
468.30 0.7860231
468.40 0.7867055
468.50 0.7872413
468.60 0.787997
468.70 0.788603
468.80 0.7893294
468.90 0.7900412
469.00 0.7906147
469.10 0.7912783
469.20 0.7920119
469.30 0.7927449
469.40 0.7934771
469.50 0.7941398
469.60 0.7947738
469.70 0.7954072
469.80 0.7960399
469.90 0.7967229
470.00 0.7975294
470.10 0.7982033
470.20 0.7988697
470.30 0.7995354
470.40 0.8002005
470.50 0.8008649
470.60 0.8015322
470.70 0.8021997
470.80 0.8028666
470.90 0.8035328
471.00 0.804214
471.10 0.804868
471.20 0.8056171
471.30 0.8063366
471.40 0.8069437
471.50 0.8077177
471.60 0.8084017
471.70 0.8090628
471.80 0.8097232
471.90 0.810383
472.00 0.8110421
472.10 0.8117006
472.20 0.8123968
472.30 0.8131019
472.40 0.8138064
472.50 0.8145102
472.60 0.8152133
472.70 0.8158653
472.80 0.8165324
472.90 0.817208
473.00 0.817883
473.10 0.8185573
473.20 0.8192309
473.30 0.8199039
473.40 0.8205763
473.50 0.821248
473.60 0.8219191
473.70 0.8225896
473.80 0.8232674
473.90 0.8239466
474.00 0.8246252
474.10 0.8253031
474.20 0.8259987
474.30 0.826701
474.40 0.8274026
474.50 0.8281036
474.60 0.828802
474.70 0.8294801
474.80 0.8301575
474.90 0.8308343
475.00 0.8315104
475.10 0.8321859
475.20 0.8328608
475.30 0.833535
475.40 0.8342144
475.50 0.8348946
475.60 0.8355742
475.70 0.8362532
475.80 0.8369314
475.90 0.8376091
476.00 0.8382861
476.10 0.8389625
476.20 0.8396279
476.30 0.8402885
476.40 0.8409485
476.50 0.8416078
476.60 0.8422666
476.70 0.8429246
476.80 0.8435821
476.90 0.8442701
477.00 0.8449652
477.10 0.8456596
477.20 0.8463534
477.30 0.8470466
477.40 0.847739
477.50 0.8484309
477.60 0.849122
477.70 0.8498125
477.80 0.8505024
477.90 0.8511916
478.00 0.8518802
478.10 0.8525681
478.20 0.8532553
478.30 0.853942
478.40 0.8546279
478.50 0.8553132
478.60 0.8559979
478.70 0.856667
478.80 0.8573293
478.90 0.8580124
479.00 0.8587002
479.10 0.8593873
479.20 0.8600738
479.30 0.8607596
479.40 0.8614429
479.50 0.8621244
479.60 0.8628052
479.70 0.8634854
479.80 0.8641649
479.90 0.8648438
480.00 0.8655221
480.10 0.8661997
480.20 0.8668767
480.30 0.8675531
480.40 0.8682288
480.50 0.8689038
480.60 0.8695783
480.70 0.8702521
480.80 0.8709252
480.90 0.8715977
481.00 0.8722696
481.10 0.8729409
481.20 0.8736174
481.30 0.8742934
481.40 0.8749687
481.50 0.8756433
481.60 0.8763173
481.70 0.8769907
481.80 0.8776635
481.90 0.8783356
482.00 0.879007
482.10 0.8796779
482.20 0.8803489
482.30 0.8810302
482.40 0.8817109
482.50 0.882391
482.60 0.8830704
482.70 0.8837491
482.80 0.8844272
482.90 0.8851047
483.00 0.8857816
483.10 0.8864578
483.20 0.8871334
483.30 0.8878083
483.40 0.8884826
483.50 0.8891563
483.60 0.8898293
483.70 0.8905021
483.80 0.8911742
483.90 0.8918457
484.00 0.8925166
484.10 0.8931868
484.20 0.8938664
484.30 0.8945497
484.40 0.8952323
484.50 0.8959143
484.60 0.8965957
484.70 0.8972763
484.80 0.8979538
484.90 0.8986308
485.00 0.8993071
485.10 0.8999827
485.20 0.9006578
485.30 0.9013322
485.40 0.9020059
485.50 0.9026791
485.60 0.9033516
485.70 0.9040383
485.80 0.9047244
485.90 0.9054098
486.00 0.9060946
486.10 0.9067788
486.20 0.9074623
486.30 0.9081452
486.40 0.9088275
486.50 0.9095091
486.60 0.91019
486.70 0.9108687
486.80 0.9115236
486.90 0.912178
487.00 0.9128318
487.10 0.9134849
487.20 0.9141621
487.30 0.9148387
487.40 0.9155146
487.50 0.9161899
487.60 0.9168646
487.70 0.9175387
487.80 0.9182121
487.90 0.9188849
488.00 0.919557
488.10 0.9202286
488.20 0.9209009
488.30 0.9215912
488.40 0.9222808
488.50 0.9229698
488.60 0.9236582
488.70 0.924346
488.80 0.925037
488.90 0.9257273
489.00 0.9264133
489.10 0.927089
489.20 0.927764
489.30 0.9284384
489.40 0.9291122
489.50 0.9297854
489.60 0.9304579
489.70 0.9311298
489.80 0.9316514
489.90 0.9323316
490.00 0.9330111
490.10 0.9336901
490.20 0.9343683
490.30 0.935046
490.40 0.9357482
490.50 0.9364497
490.60 0.9371505
490.70 0.9378507
490.80 0.9385662
490.90 0.9391462
491.00 0.9397931
491.10 0.9404393
491.20 0.9410849
491.30 0.9419356
491.40 0.9424551
491.50 0.9432237
491.60 0.9438066
491.70 0.9445176
491.80 0.9452184
491.90 0.9457926
492.00 0.9465051
492.10 0.9471452
492.20 0.9479896
492.30 0.9486284
492.40 0.949262
492.50 0.9498327
492.60 0.9505449
492.70 0.9512325
492.80 0.9519194
492.90 0.9526057
493.00 0.9532896
493.10 0.9539497
493.20 0.9546093
493.30 0.9552682
493.40 0.9559265
493.50 0.9565842
493.60 0.9572897
493.70 0.9579656
493.80 0.958641
493.90 0.9593228
494.00 0.9600152
494.10 0.9606958
494.20 0.9613521
494.30 0.9620079
494.40 0.962663
494.50 0.9633175
494.60 0.9639768
494.70 0.9647076
494.80 0.9654214
494.90 0.9660879
495.00 0.9667539
495.10 0.9674193
495.20 0.968074
495.30 0.9687281
495.40 0.9693817
495.50 0.9700346
495.60 0.9706869
495.70 0.9713386
495.80 0.9719897
495.90 0.9726402
496.00 0.9732901
496.10 0.9739674
496.20 0.9746975
496.30 0.9753444
496.40 0.9759907
496.50 0.9766364
496.60 0.9772815
496.70 0.9779626
496.80 0.978643
496.90 0.9793228
497.00 0.9800019
497.10 0.9806804
497.20 0.9813583
497.30 0.9820409
497.40 0.9827378
497.50 0.9834341
497.60 0.9840885
497.70 0.9846617
497.80 0.9853261
497.90 0.9859898
498.00 0.986653
498.10 0.9873155
498.20 0.9879774
498.30 0.9886387
498.40 0.9892994
498.50 0.9899595
498.60 0.990619
498.70 0.9913194
498.80 0.9920191
498.90 0.9927051
499.00 0.9933905
499.10 0.9940753
499.20 0.9947138
499.30 0.9952944
499.40 0.9959882
499.50 0.9966814
499.60 0.9973739
499.70 0.9980627
499.80 0.9987091
499.90 0.9993548
500.00 1
500.10 1.000645
500.20 1.001293
500.30 1.00195
500.40 1.002607
500.50 1.003263
500.60 1.003919
500.70 1.004573
500.80 1.005233
500.90 1.005904
501.00 1.006575
501.10 1.007245
501.20 1.007981
501.30 1.008665
501.40 1.009317
501.50 1.009901
501.60 1.010662
501.70 1.011265
501.80 1.011879
501.90 1.01256
502.00 1.013229
502.10 1.013875
502.20 1.014526
502.30 1.015247
502.40 1.015942
502.50 1.016586
502.60 1.01723
502.70 1.017872
502.80 1.018515
502.90 1.019156
503.00 1.019802
503.10 1.02046
503.20 1.021116
503.30 1.021772
503.40 1.022435
503.50 1.023116
503.60 1.023797
503.70 1.024477
503.80 1.025157
503.90 1.025836
504.00 1.026506
504.10 1.027157
504.20 1.027808
504.30 1.028457
504.40 1.029111
504.50 1.029775
504.60 1.030414
504.70 1.031009
504.80 1.03174
504.90 1.032334
505.00 1.033089
505.10 1.03375
505.20 1.034402
505.30 1.035028
505.40 1.035655
505.50 1.03628
505.60 1.036922
505.70 1.037601
505.80 1.038279
505.90 1.038957
506.00 1.039634
506.10 1.04031
506.20 1.040979
506.30 1.04163
506.40 1.042279
506.50 1.042928
506.60 1.043576
506.70 1.044224
506.80 1.044871
506.90 1.045517
507.00 1.046163
507.10 1.046819
507.20 1.047494
507.30 1.048154
507.40 1.048813
507.50 1.049472
507.60 1.05013
507.70 1.050787
507.80 1.051444
507.90 1.0521
508.00 1.052756
508.10 1.053411
508.20 1.054065
508.30 1.054719
508.40 1.055372
508.50 1.056025
508.60 1.056677
508.70 1.057328
508.80 1.057989
508.90 1.058623
509.00 1.059236
509.10 1.05986
509.20 1.060507
509.30 1.061154
509.40 1.0618
509.50 1.062445
509.60 1.06309
509.70 1.063734
509.80 1.064378
509.90 1.065021
510.00 1.065663
510.10 1.066305
510.20 1.066946
510.30 1.067591
510.40 1.068248
510.50 1.068904
510.60 1.069559
510.70 1.070214
510.80 1.070868
510.90 1.071521
511.00 1.072174
511.10 1.072827
511.20 1.073478
511.30 1.07413
511.40 1.07478
511.50 1.07543
511.60 1.076081
511.70 1.076734
511.80 1.077387
511.90 1.078039
512.00 1.078691
512.10 1.079342
512.20 1.079992
512.30 1.080642
512.40 1.081293
512.50 1.081942
512.60 1.082591
512.70 1.08324
512.80 1.083888
512.90 1.084535
513.00 1.085181
513.10 1.085828
513.20 1.086473
513.30 1.087118
513.40 1.087762
513.50 1.088406
513.60 1.089049
513.70 1.089692
513.80 1.090334
513.90 1.090975
514.00 1.091618
514.10 1.09226
514.20 1.092901
514.30 1.093542
514.40 1.094183
514.50 1.094823
514.60 1.095462
514.70 1.096101
514.80 1.096739
514.90 1.097376
515.00 1.098013
515.10 1.098649
515.20 1.099285
515.30 1.09992
515.40 1.100555
515.50 1.101189
515.60 1.101823
515.70 1.102456
515.80 1.103088
515.90 1.10372
516.00 1.104351
516.10 1.104981
516.20 1.105611
516.30 1.106241
516.40 1.10687
516.50 1.107502
516.60 1.108152
516.70 1.108801
516.80 1.10945
516.90 1.110098
517.00 1.110745
517.10 1.111392
517.20 1.112039
517.30 1.112685
517.40 1.11333
517.50 1.113974
517.60 1.114618
517.70 1.115262
517.80 1.115905
517.90 1.116547
518.00 1.117189
518.10 1.11783
518.20 1.118471
518.30 1.119111
518.40 1.11975
518.50 1.120389
518.60 1.121027
518.70 1.121665
518.80 1.122302
518.90 1.122939
519.00 1.123575
519.10 1.124213
519.20 1.124855
519.30 1.125496
519.40 1.126136
519.50 1.126776
519.60 1.127416
519.70 1.128054
519.80 1.128693
519.90 1.12933
520.00 1.129967
520.10 1.130604
520.20 1.13124
520.30 1.131875
520.40 1.13251
520.50 1.133144
520.60 1.133778
520.70 1.134411
520.80 1.135043
520.90 1.135675
521.00 1.136306
521.10 1.136937
521.20 1.137567
521.30 1.138197
521.40 1.138826
521.50 1.139455
521.60 1.140083
521.70 1.14071
521.80 1.141337
521.90 1.141963
522.00 1.142589
522.10 1.143214
522.20 1.143838
522.30 1.144462
522.40 1.145086
522.50 1.145709
522.60 1.146331
522.70 1.146953
522.80 1.147574
522.90 1.148195
523.00 1.148815
523.10 1.149434
523.20 1.150053
523.30 1.150672
523.40 1.151289
523.50 1.151907
523.60 1.152523
523.70 1.15314
523.80 1.153755
523.90 1.15437
524.00 1.154985
524.10 1.155599
524.20 1.156212
524.30 1.156835
524.40 1.157464
524.50 1.158093
524.60 1.158722
524.70 1.15935
524.80 1.159977
524.90 1.160604
525.00 1.16123
525.10 1.161856
525.20 1.162481
525.30 1.163105
525.40 1.163729
525.50 1.164353
525.60 1.164976
525.70 1.165598
525.80 1.16622
525.90 1.166841
526.00 1.167462
526.10 1.168082
526.20 1.168701
526.30 1.16932
526.40 1.169938
526.50 1.170556
526.60 1.171174
526.70 1.17179
526.80 1.172407
526.90 1.173022
527.00 1.173637
527.10 1.174252
527.20 1.174866
527.30 1.175479
527.40 1.176092
527.50 1.176705
527.60 1.177316
527.70 1.177928
527.80 1.178538
527.90 1.179148
528.00 1.179758
528.10 1.180367
528.20 1.180976
528.30 1.181584
528.40 1.182191
528.50 1.182798
528.60 1.183404
528.70 1.18401
528.80 1.184615
528.90 1.18522
529.00 1.185824
529.10 1.186428
529.20 1.187031
529.30 1.187633
529.40 1.188235
529.50 1.18884
529.60 1.18946
529.70 1.19008
529.80 1.190699
529.90 1.191317
530.00 1.191935
530.10 1.192553
530.20 1.19317
530.30 1.193786
530.40 1.194402
530.50 1.195018
530.60 1.195632
530.70 1.196247
530.80 1.19686
530.90 1.197473
531.00 1.198086
531.10 1.198698
531.20 1.19931
531.30 1.199921
531.40 1.200531
531.50 1.201141
531.60 1.20175
531.70 1.202359
531.80 1.202967
531.90 1.203575
532.00 1.204182
532.10 1.204789
532.20 1.205395
532.30 1.206001
532.40 1.206606
532.50 1.207211
532.60 1.207815
532.70 1.208419
532.80 1.209022
532.90 1.209625
533.00 1.210227
533.10 1.210829
533.20 1.21143
533.30 1.21203
533.40 1.21263
533.50 1.21323
533.60 1.213829
533.70 1.214427
533.80 1.215025
533.90 1.215622
534.00 1.216219
534.10 1.216816
534.20 1.217411
534.30 1.218007
534.40 1.218601
534.50 1.219195
534.60 1.219789
534.70 1.220382
534.80 1.220978
534.90 1.221585
535.00 1.222192
535.10 1.222798
535.20 1.223404
535.30 1.224009
535.40 1.224614
535.50 1.225218
535.60 1.225822
535.70 1.226425
535.80 1.227027
535.90 1.227629
536.00 1.228231
536.10 1.228832
536.20 1.229432
536.30 1.230032
536.40 1.230631
536.50 1.23123
536.60 1.231829
536.70 1.232426
536.80 1.233024
536.90 1.23362
537.00 1.234216
537.10 1.234812
537.20 1.235407
537.30 1.236002
537.40 1.236596
537.50 1.237189
537.60 1.237782
537.70 1.238375
537.80 1.238967
537.90 1.239558
538.00 1.240149
538.10 1.240739
538.20 1.241329
538.30 1.241919
538.40 1.242507
538.50 1.243096
538.60 1.243683
538.70 1.244271
538.80 1.244857
538.90 1.245443
539.00 1.246029
539.10 1.246614
539.20 1.247199
539.30 1.247783
539.40 1.248367
539.50 1.24895
539.60 1.249532
539.70 1.250114
539.80 1.250696
539.90 1.251277
540.00 1.251857
540.10 1.252437
540.20 1.253025
540.30 1.253616
540.40 1.254206
540.50 1.254796
540.60 1.255385
540.70 1.255974
540.80 1.256562
540.90 1.257149
541.00 1.257736
541.10 1.258323
541.20 1.258909
541.30 1.259494
541.40 1.26008
541.50 1.260664
541.60 1.261248
541.70 1.261831
541.80 1.262414
541.90 1.262997
542.00 1.263579
542.10 1.26416
542.20 1.264741
542.30 1.265321
542.40 1.265901
542.50 1.266481
542.60 1.267059
542.70 1.267638
542.80 1.268215
542.90 1.268793
543.00 1.26937
543.10 1.269946
543.20 1.270522
543.30 1.271097
543.40 1.271672
543.50 1.272246
543.60 1.272819
543.70 1.273393
543.80 1.273965
543.90 1.274538
544.00 1.275109
544.10 1.27568
544.20 1.276251
544.30 1.276821
544.40 1.277391
544.50 1.27796
544.60 1.278529
544.70 1.279097
544.80 1.279665
544.90 1.280232
545.00 1.280798
545.10 1.281365
545.20 1.28193
545.30 1.282495
545.40 1.28306
545.50 1.283624
545.60 1.284195
545.70 1.284769
545.80 1.285343
545.90 1.285916
546.00 1.286489
546.10 1.287061
546.20 1.287632
546.30 1.288203
546.40 1.288774
546.50 1.289344
546.60 1.289914
546.70 1.290483
546.80 1.291051
546.90 1.291619
547.00 1.292187
547.10 1.292754
547.20 1.29332
547.30 1.293886
547.40 1.294452
547.50 1.295017
547.60 1.295582
547.70 1.296146
547.80 1.296709
547.90 1.297272
548.00 1.297835
548.10 1.298397
548.20 1.298958
548.30 1.299525
548.40 1.300098
548.50 1.30067
548.60 1.301242
548.70 1.301814
548.80 1.302385
548.90 1.302955
549.00 1.303525
549.10 1.304095
549.20 1.304664
549.30 1.305232
549.40 1.305801
549.50 1.306368
549.60 1.306935
549.70 1.307502
549.80 1.308068
549.90 1.308633
550.00 1.309198
550.10 1.309763
550.20 1.310327
550.30 1.31089
550.40 1.311453
550.50 1.312016
550.60 1.312578
550.70 1.313139
550.80 1.313701
550.90 1.314261
551.00 1.314821
551.10 1.315375
551.20 1.31593
551.30 1.316484
551.40 1.317038
551.50 1.317591
551.60 1.318143
551.70 1.318695
551.80 1.319247
551.90 1.319798
552.00 1.320348
552.10 1.320898
552.20 1.321448
552.30 1.321997
552.40 1.322546
552.50 1.323094
552.60 1.323642
552.70 1.324189
552.80 1.324736
552.90 1.325282
553.00 1.325828
553.10 1.326373
553.20 1.326918
553.30 1.327462
553.40 1.328006
553.50 1.328549
553.60 1.329092
553.70 1.329634
553.80 1.330183
553.90 1.330737
554.00 1.331289
554.10 1.331842
554.20 1.332393
554.30 1.332944
554.40 1.333495
554.50 1.334046
554.60 1.334595
554.70 1.335145
554.80 1.335693
554.90 1.336242
555.00 1.33679
555.10 1.337337
555.20 1.337884
555.30 1.33843
555.40 1.338976
555.50 1.339522
555.60 1.340067
555.70 1.340611
555.80 1.341155
555.90 1.341699
556.00 1.342242
556.10 1.342784
556.20 1.343326
556.30 1.343868
556.40 1.344409
556.50 1.34495
556.60 1.345498
556.70 1.346045
556.80 1.346591
556.90 1.347137
557.00 1.347682
557.10 1.348227
557.20 1.348772
557.30 1.349316
557.40 1.349859
557.50 1.350402
557.60 1.350945
557.70 1.351487
557.80 1.352029
557.90 1.35257
558.00 1.35311
558.10 1.353651
558.20 1.35419
558.30 1.35473
558.40 1.355268
558.50 1.355807
558.60 1.356345
558.70 1.356882
558.80 1.357419
558.90 1.357955
559.00 1.358491
559.10 1.359027
559.20 1.359562
559.30 1.360096
559.40 1.36063
559.50 1.361164
559.60 1.361697
559.70 1.36223
559.80 1.362762
559.90 1.363294
560.00 1.363825
560.10 1.364356
560.20 1.364886
560.30 1.365416
560.40 1.365945
560.50 1.366474
560.60 1.367003
560.70 1.367531
560.80 1.368058
560.90 1.368585
561.00 1.369112
561.10 1.369638
561.20 1.370164
561.30 1.370689
561.40 1.371214
561.50 1.371738
561.60 1.372262
561.70 1.372785
561.80 1.373308
561.90 1.373831
562.00 1.374353
562.10 1.374877
562.20 1.375405
562.30 1.375932
562.40 1.376458
562.50 1.376985
562.60 1.37751
562.70 1.378036
562.80 1.378561
562.90 1.379085
563.00 1.379609
563.10 1.380132
563.20 1.380655
563.30 1.381178
563.40 1.3817
563.50 1.382222
563.60 1.382743
563.70 1.383264
563.80 1.383784
563.90 1.384304
564.00 1.384823
564.10 1.385342
564.20 1.38586
564.30 1.386378
564.40 1.386896
564.50 1.387413
564.60 1.38793
564.70 1.388446
564.80 1.388962
564.90 1.389477
565.00 1.389992
565.10 1.390507
565.20 1.391021
565.30 1.391535
565.40 1.392048
565.50 1.392561
565.60 1.393074
565.70 1.393586
565.80 1.394097
565.90 1.394608
566.00 1.395119
566.10 1.395629
566.20 1.396139
566.30 1.396648
566.40 1.397157
566.50 1.397666
566.60 1.398174
566.70 1.398681
566.80 1.399188
566.90 1.399695
567.00 1.400201
567.10 1.400707
567.20 1.401212
567.30 1.401717
567.40 1.402222
567.50 1.402726
567.60 1.403229
567.70 1.403735
567.80 1.404249
567.90 1.404763
568.00 1.405276
568.10 1.405789
568.20 1.406302
568.30 1.406814
568.40 1.407326
568.50 1.407837
568.60 1.408348
568.70 1.408858
568.80 1.409368
568.90 1.409877
569.00 1.410386
569.10 1.410895
569.20 1.411403
569.30 1.411911
569.40 1.412418
569.50 1.412925
569.60 1.413431
569.70 1.413937
569.80 1.414442
569.90 1.414947
570.00 1.415452
570.10 1.415956
570.20 1.41646
570.30 1.416963
570.40 1.417466
570.50 1.417968
570.60 1.41847
570.70 1.418971
570.80 1.419472
570.90 1.419973
571.00 1.420473
571.10 1.420973
571.20 1.421472
571.30 1.421971
571.40 1.422469
571.50 1.422967
571.60 1.423465
571.70 1.423962
571.80 1.424459
571.90 1.424955
572.00 1.425451
572.10 1.425946
572.20 1.426441
572.30 1.426936
572.40 1.42743
572.50 1.427923
572.60 1.428417
572.70 1.428909
572.80 1.429402
572.90 1.429894
573.00 1.430385
573.10 1.430876
573.20 1.431367
573.30 1.431857
573.40 1.432348
573.50 1.432839
573.60 1.43333
573.70 1.43382
573.80 1.43431
573.90 1.434799
574.00 1.435288
574.10 1.435777
574.20 1.436265
574.30 1.436753
574.40 1.43724
574.50 1.437727
574.60 1.438214
574.70 1.4387
574.80 1.439186
574.90 1.439671
575.00 1.440156
575.10 1.44064
575.20 1.441124
575.30 1.441608
575.40 1.442091
575.50 1.442573
575.60 1.443056
575.70 1.443537
575.80 1.444019
575.90 1.4445
576.00 1.44498
576.10 1.445461
576.20 1.44594
576.30 1.44642
576.40 1.446899
576.50 1.447377
576.60 1.447855
576.70 1.448333
576.80 1.44881
576.90 1.449287
577.00 1.449763
577.10 1.450239
577.20 1.450715
577.30 1.45119
577.40 1.451665
577.50 1.452139
577.60 1.452615
577.70 1.453095
577.80 1.453574
577.90 1.454052
578.00 1.45453
578.10 1.455008
578.20 1.455486
578.30 1.455963
578.40 1.456439
578.50 1.456915
578.60 1.457391
578.70 1.457866
578.80 1.458341
578.90 1.458816
579.00 1.45929
579.10 1.459763
579.20 1.460234
579.30 1.460705
579.40 1.461175
579.50 1.461645
579.60 1.462115
579.70 1.462584
579.80 1.463052
579.90 1.463521
580.00 1.463988
580.10 1.464459
580.20 1.464935
580.30 1.46541
580.40 1.465885
580.50 1.466359
580.60 1.466833
580.70 1.467307
580.80 1.46778
580.90 1.468253
581.00 1.468725
581.10 1.469197
581.20 1.469669
581.30 1.47014
581.40 1.470611
581.50 1.471081
581.60 1.471551
581.70 1.47202
581.80 1.472489
581.90 1.472958
582.00 1.473426
582.10 1.473895
582.20 1.474365
582.30 1.474834
582.40 1.475304
582.50 1.475772
582.60 1.47624
582.70 1.476708
582.80 1.477176
582.90 1.477643
583.00 1.478109
583.10 1.478576
583.20 1.479041
583.30 1.479507
583.40 1.479972
583.50 1.480436
583.60 1.480909
583.70 1.481395
583.80 1.48188
583.90 1.482365
584.00 1.48285
584.10 1.483334
584.20 1.483818
584.30 1.484301
584.40 1.484784
584.50 1.485266
584.60 1.485748
584.70 1.48623
584.80 1.486711
584.90 1.487201
585.00 1.487728
585.10 1.488255
585.20 1.488719
585.30 1.489079
585.40 1.48944
585.50 1.4898
585.60 1.490159
585.70 1.490518
585.80 1.490877
585.90 1.491236
586.00 1.491594
586.10 1.491952
586.20 1.492346
586.30 1.4928
586.40 1.493253
586.50 1.493706
586.60 1.494158
586.70 1.49461
586.80 1.495107
586.90 1.495678
587.00 1.496249
587.10 1.496819
587.20 1.497252
587.30 1.497462
587.40 1.497398
587.50 1.498326
587.60 1.499218
587.70 1.49939
587.80 1.499943
587.90 1.500151
588.00 1.500495
588.10 1.501061
588.20 1.501626
588.30 1.502191
588.40 1.502711
588.50 1.503155
588.60 1.5036
588.70 1.504044
588.80 1.504487
588.90 1.50493
589.00 1.505337
589.10 1.505684
589.20 1.506031
589.30 1.506377
589.40 1.506723
589.50 1.507069
589.60 1.507414
589.70 1.50776
589.80 1.508104
589.90 1.508449
590.00 1.508891
590.10 1.509491
590.20 1.510092
590.30 1.510691
590.40 1.511291
590.50 1.511889
590.60 1.512487
590.70 1.513085
590.80 1.513507
590.90 1.51385
591.00 1.514193
591.10 1.514535
591.20 1.514878
591.30 1.515219
591.40 1.515561
591.50 1.515902
591.60 1.516278
591.70 1.51671
591.80 1.517142
591.90 1.517574
592.00 1.518006
592.10 1.518437
592.20 1.518867
592.30 1.519298
592.40 1.519728
592.50 1.520157
592.60 1.520587
592.70 1.521015
592.80 1.521444
592.90 1.521872
593.00 1.5223
593.10 1.522718
593.20 1.523121
593.30 1.523524
593.40 1.523927
593.50 1.524329
593.60 1.524731
593.70 1.525133
593.80 1.525534
593.90 1.525935
594.00 1.526336
594.10 1.526736
594.20 1.527136
594.30 1.527535
594.40 1.527935
594.50 1.528333
594.60 1.528732
594.70 1.52913
594.80 1.529528
594.90 1.529925
595.00 1.530322
595.10 1.530744
595.20 1.531208
595.30 1.531671
595.40 1.532134
595.50 1.532596
595.60 1.533058
595.70 1.533519
595.80 1.533981
595.90 1.534441
596.00 1.534902
596.10 1.535362
596.20 1.535821
596.30 1.53628
596.40 1.536739
596.50 1.537197
596.60 1.537655
596.70 1.538071
596.80 1.53846
596.90 1.53885
597.00 1.539238
597.10 1.539627
597.20 1.540015
597.30 1.540402
597.40 1.54079
597.50 1.541177
597.60 1.541585
597.70 1.542029
597.80 1.542472
597.90 1.542914
598.00 1.543357
598.10 1.543799
598.20 1.54424
598.30 1.544681
598.40 1.545122
598.50 1.545562
598.60 1.546002
598.70 1.546442
598.80 1.546881
598.90 1.54732
599.00 1.547758
599.10 1.548197
599.20 1.548634
599.30 1.549072
599.40 1.549453
599.50 1.549833
599.60 1.550214
599.70 1.550594
599.80 1.550974
599.90 1.551353
600.00 1.551732
600.10 1.552111
600.20 1.552489
600.30 1.552867
600.40 1.553245
600.50 1.553622
600.60 1.553999
600.70 1.554376
600.80 1.554752
600.90 1.555128
601.00 1.555504
601.10 1.555879
601.20 1.556254
601.30 1.556629
601.40 1.557058
601.50 1.557486
601.60 1.557914
601.70 1.558342
601.80 1.558769
601.90 1.559196
602.00 1.559622
602.10 1.560048
602.20 1.560474
602.30 1.5609
602.40 1.561325
602.50 1.561749
602.60 1.562174
602.70 1.562368
602.80 1.56255
602.90 1.562971
603.00 1.563391
603.10 1.56381
603.20 1.56423
603.30 1.564649
603.40 1.565067
603.50 1.565485
603.60 1.565903
603.70 1.566321
603.80 1.566738
603.90 1.567155
604.00 1.567571
604.10 1.567987
604.20 1.568403
604.30 1.568818
604.40 1.569233
604.50 1.569665
604.60 1.570096
604.70 1.570527
604.80 1.570957
604.90 1.571388
605.00 1.571817
605.10 1.572247
605.20 1.572676
605.30 1.573104
605.40 1.573533
605.50 1.573915
605.60 1.574298
605.70 1.57468
605.80 1.575062
605.90 1.575443
606.00 1.575824
606.10 1.57598
606.20 1.576135
606.30 1.57629
606.40 1.576445
606.50 1.577275
606.60 1.578104
606.70 1.578258
606.80 1.578411
606.90 1.579239
607.00 1.578718
607.10 1.579545
607.20 1.580371
607.30 1.58086
607.40 1.581348
607.50 1.581836
607.60 1.582324
607.70 1.582699
607.80 1.583074
607.90 1.583449
608.00 1.583823
608.10 1.584197
608.20 1.58457
608.30 1.584672
608.40 1.584773
608.50 1.584874
608.60 1.584975
608.70 1.585297
608.80 1.585718
608.90 1.586138
609.00 1.586558
609.10 1.586977
609.20 1.587396
609.30 1.587794
609.40 1.588192
609.50 1.58859
609.60 1.588987
609.70 1.589383
609.80 1.58978
609.90 1.590176
610.00 1.590571
610.10 1.590967
610.20 1.591362
610.30 1.591756
610.40 1.592151
610.50 1.592545
610.60 1.592938
610.70 1.593331
610.80 1.593724
610.90 1.594089
611.00 1.594454
611.10 1.594818
611.20 1.595182
611.30 1.595545
611.40 1.595909
611.50 1.596272
611.60 1.596634
611.70 1.596997
611.80 1.597358
611.90 1.59772
612.00 1.598081
612.10 1.598442
612.20 1.598803
612.30 1.599163
612.40 1.599501
612.50 1.599839
612.60 1.600176
612.70 1.600514
612.80 1.60085
612.90 1.601187
613.00 1.601523
613.10 1.601859
613.20 1.602194
613.30 1.60253
613.40 1.602864
613.50 1.603199
613.60 1.603533
613.70 1.603867
613.80 1.604201
613.90 1.604535
614.00 1.604868
614.10 1.6052
614.20 1.605533
614.30 1.605865
614.40 1.606288
614.50 1.606711
614.60 1.607134
614.70 1.607556
614.80 1.607926
614.90 1.608285
615.00 1.608644
615.10 1.609003
615.20 1.609361
615.30 1.609719
615.40 1.610077
615.50 1.610434
615.60 1.610791
615.70 1.611148
615.80 1.611504
615.90 1.611861
616.00 1.612216
616.10 1.612572
616.20 1.612927
616.30 1.613282
616.40 1.613636
616.50 1.613991
616.60 1.614345
616.70 1.614698
616.80 1.615051
616.90 1.615426
617.00 1.615801
617.10 1.616175
617.20 1.616549
617.30 1.616923
617.40 1.617296
617.50 1.617669
617.60 1.618042
617.70 1.618414
617.80 1.618786
617.90 1.619158
618.00 1.619529
618.10 1.6199
618.20 1.620271
618.30 1.620642
618.40 1.621012
618.50 1.621381
618.60 1.621751
618.70 1.62212
618.80 1.622489
618.90 1.622857
619.00 1.623225
619.10 1.623593
619.20 1.623961
619.30 1.624328
619.40 1.624695
619.50 1.625061
619.60 1.625427
619.70 1.625793
619.80 1.626159
619.90 1.626524
620.00 1.626889
620.10 1.627253
620.20 1.627618
620.30 1.627982
620.40 1.628345
620.50 1.628709
620.60 1.629072
620.70 1.629434
620.80 1.629797
620.90 1.630146
621.00 1.63047
621.10 1.630795
621.20 1.631119
621.30 1.631443
621.40 1.631767
621.50 1.63209
621.60 1.632413
621.70 1.632736
621.80 1.633059
621.90 1.633381
622.00 1.633703
622.10 1.634025
622.20 1.634346
622.30 1.634667
622.40 1.634988
622.50 1.635308
622.60 1.635628
622.70 1.635948
622.80 1.636268
622.90 1.636587
623.00 1.636906
623.10 1.637225
623.20 1.637544
623.30 1.637862
623.40 1.63818
623.50 1.638497
623.60 1.638815
623.70 1.639132
623.80 1.639448
623.90 1.639765
624.00 1.640081
624.10 1.640397
624.20 1.640712
624.30 1.641028
624.40 1.641343
624.50 1.641657
624.60 1.641972
624.70 1.642286
624.80 1.6426
624.90 1.642913
625.00 1.643227
625.10 1.64354
625.20 1.643852
625.30 1.644165
625.40 1.644477
625.50 1.644789
625.60 1.645101
625.70 1.645412
625.80 1.645723
625.90 1.646034
626.00 1.646344
626.10 1.646654
626.20 1.646964
626.30 1.647274
626.40 1.647583
626.50 1.647892
626.60 1.648201
626.70 1.648509
626.80 1.648818
626.90 1.649126
627.00 1.649433
627.10 1.649744
627.20 1.650063
627.30 1.650382
627.40 1.6507
627.50 1.651019
627.60 1.651337
627.70 1.651654
627.80 1.651972
627.90 1.652289
628.00 1.652606
628.10 1.652922
628.20 1.653238
628.30 1.653554
628.40 1.65387
628.50 1.654185
628.60 1.6545
628.70 1.654815
628.80 1.65513
628.90 1.655444
629.00 1.655758
629.10 1.656072
629.20 1.656385
629.30 1.656698
629.40 1.657011
629.50 1.657324
629.60 1.657636
629.70 1.657948
629.80 1.65826
629.90 1.658571
630.00 1.658882
630.10 1.659193
630.20 1.659504
630.30 1.659814
630.40 1.660123
630.50 1.660433
630.60 1.660742
630.70 1.661051
630.80 1.66136
630.90 1.661668
631.00 1.661976
631.10 1.662284
631.20 1.662591
631.30 1.662899
631.40 1.663206
631.50 1.663512
631.60 1.663819
631.70 1.664125
631.80 1.664431
631.90 1.664736
632.00 1.665042
632.10 1.665347
632.20 1.665651
632.30 1.665956
632.40 1.66626
632.50 1.666564
632.60 1.666868
632.70 1.667171
632.80 1.667474
632.90 1.667777
633.00 1.668079
633.10 1.668382
633.20 1.668684
633.30 1.668985
633.40 1.669283
633.50 1.669576
633.60 1.669869
633.70 1.670162
633.80 1.670454
633.90 1.670746
634.00 1.671038
634.10 1.67133
634.20 1.671622
634.30 1.671913
634.40 1.672204
634.50 1.672494
634.60 1.672785
634.70 1.673075
634.80 1.673365
634.90 1.673654
635.00 1.673944
635.10 1.674233
635.20 1.674522
635.30 1.67481
635.40 1.675098
635.50 1.675386
635.60 1.675674
635.70 1.675962
635.80 1.676249
635.90 1.676536
636.00 1.676822
636.10 1.677109
636.20 1.677395
636.30 1.677681
636.40 1.677967
636.50 1.678252
636.60 1.678537
636.70 1.678821
636.80 1.679106
636.90 1.67939
637.00 1.679674
637.10 1.679957
637.20 1.68024
637.30 1.680524
637.40 1.680806
637.50 1.681089
637.60 1.681371
637.70 1.681653
637.80 1.681935
637.90 1.682216
638.00 1.682497
638.10 1.682778
638.20 1.683059
638.30 1.68334
638.40 1.68362
638.50 1.6839
638.60 1.684179
638.70 1.684459
638.80 1.684738
638.90 1.685017
639.00 1.685295
639.10 1.685574
639.20 1.685852
639.30 1.68613
639.40 1.686407
639.50 1.686685
639.60 1.686962
639.70 1.687245
639.80 1.687552
639.90 1.687858
640.00 1.688164
640.10 1.68847
640.20 1.688775
640.30 1.68908
640.40 1.689385
640.50 1.689689
640.60 1.689993
640.70 1.690297
640.80 1.690601
640.90 1.690905
641.00 1.691208
641.10 1.691511
641.20 1.691813
641.30 1.692116
641.40 1.692418
641.50 1.69272
641.60 1.693021
641.70 1.693322
641.80 1.693623
641.90 1.693924
642.00 1.694225
642.10 1.694525
642.20 1.694825
642.30 1.695124
642.40 1.695424
642.50 1.695723
642.60 1.696022
642.70 1.69632
642.80 1.696618
642.90 1.696908
643.00 1.697168
643.10 1.697428
643.20 1.697688
643.30 1.697948
643.40 1.698208
643.50 1.698467
643.60 1.698726
643.70 1.698985
643.80 1.699243
643.90 1.699502
644.00 1.69976
644.10 1.700017
644.20 1.700275
644.30 1.700532
644.40 1.70079
644.50 1.701046
644.60 1.701303
644.70 1.701559
644.80 1.701816
644.90 1.702071
645.00 1.702327
645.10 1.702582
645.20 1.702838
645.30 1.703093
645.40 1.703347
645.50 1.703602
645.60 1.703856
645.70 1.70411
645.80 1.704364
645.90 1.704617
646.00 1.70487
646.10 1.705121
646.20 1.705366
646.30 1.705611
646.40 1.705856
646.50 1.7061
646.60 1.706344
646.70 1.706588
646.80 1.706832
646.90 1.707075
647.00 1.707318
647.10 1.707561
647.20 1.707804
647.30 1.708047
647.40 1.708289
647.50 1.708531
647.60 1.708773
647.70 1.709014
647.80 1.709256
647.90 1.709497
648.00 1.709738
648.10 1.709978
648.20 1.710219
648.30 1.710459
648.40 1.710699
648.50 1.710939
648.60 1.711178
648.70 1.711417
648.80 1.711656
648.90 1.711895
649.00 1.712134
649.10 1.712372
649.20 1.71261
649.30 1.712848
649.40 1.713086
649.50 1.713323
649.60 1.71356
649.70 1.713797
649.80 1.714033
649.90 1.714269
650.00 1.714505
650.10 1.714741
650.20 1.714977
650.30 1.715212
650.40 1.715448
650.50 1.715682
650.60 1.715917
650.70 1.716152
650.80 1.716386
650.90 1.71662
651.00 1.716854
651.10 1.717087
651.20 1.717321
651.30 1.717554
651.40 1.717787
651.50 1.71802
651.60 1.718252
651.70 1.718484
651.80 1.718716
651.90 1.718948
652.00 1.71918
652.10 1.719411
652.20 1.719642
652.30 1.719873
652.40 1.720104
652.50 1.720334
652.60 1.720575
652.70 1.720821
652.80 1.721066
652.90 1.721311
653.00 1.721557
653.10 1.721801
653.20 1.722046
653.30 1.722291
653.40 1.722535
653.50 1.722779
653.60 1.723022
653.70 1.723266
653.80 1.723509
653.90 1.723752
654.00 1.723995
654.10 1.724238
654.20 1.72448
654.30 1.724722
654.40 1.724964
654.50 1.725206
654.60 1.725447
654.70 1.725688
654.80 1.725929
654.90 1.72617
655.00 1.726411
655.10 1.726651
655.20 1.726891
655.30 1.727131
655.40 1.727371
655.50 1.72761
655.60 1.727849
655.70 1.728088
655.80 1.728311
655.90 1.728534
656.00 1.728757
656.10 1.728979
656.20 1.729202
656.30 1.729424
656.40 1.729645
656.50 1.729867
656.60 1.730089
656.70 1.73031
656.80 1.730531
656.90 1.730751
657.00 1.730972
657.10 1.731192
657.20 1.731412
657.30 1.731632
657.40 1.731852
657.50 1.732072
657.60 1.732291
657.70 1.73251
657.80 1.732981
657.90 1.73323
658.00 1.733439
658.10 1.733649
658.20 1.733858
658.30 1.734068
658.40 1.734277
658.50 1.734485
658.60 1.734694
658.70 1.734902
658.80 1.73511
658.90 1.735318
659.00 1.735526
659.10 1.735766
659.20 1.736056
659.30 1.736246
659.40 1.736436
659.50 1.736626
659.60 1.736815
659.70 1.737005
659.80 1.737194
659.90 1.737383
660.00 1.737572
660.10 1.737761
660.20 1.737949
660.30 1.738137
660.40 1.738317
660.50 1.738494
660.60 1.738671
660.70 1.738848
660.80 1.739025
660.90 1.739294
661.00 1.739563
661.10 1.739832
661.20 1.7401
661.30 1.740368
661.40 1.740636
661.50 1.740904
661.60 1.741172
661.70 1.741439
661.80 1.741706
661.90 1.741839
662.00 1.741973
662.10 1.742106
662.20 1.742239
662.30 1.742373
662.40 1.743076
662.50 1.743398
662.60 1.74372
662.70 1.744041
662.80 1.744362
662.90 1.744401
663.00 1.744439
663.10 1.744478
663.20 1.744516
663.30 1.745118
663.40 1.744592
663.50 1.745193
663.60 1.745794
663.70 1.745792
663.80 1.74579
663.90 1.74586
664.00 1.745943
664.10 1.746168
664.20 1.746392
664.30 1.746616
664.40 1.74684
664.50 1.747063
664.60 1.747287
664.70 1.747588
664.80 1.747889
664.90 1.74819
665.00 1.74849
665.10 1.74879
665.20 1.74909
665.30 1.74939
665.40 1.74969
665.50 1.749803
665.60 1.749882
665.70 1.749716
665.80 1.749923
665.90 1.75013
666.00 1.750337
666.10 1.750543
666.20 1.75075
666.30 1.750956
666.40 1.751162
666.50 1.751379
666.60 1.751598
666.70 1.751817
666.80 1.752036
666.90 1.752255
667.00 1.752473
667.10 1.752571
667.20 1.752649
667.30 1.752642
667.40 1.752635
667.50 1.753135
667.60 1.753723
667.70 1.753504
667.80 1.753953
667.90 1.75454
668.00 1.754015
668.10 1.754435
668.20 1.755021
668.30 1.755135
668.40 1.755165
668.50 1.755196
668.60 1.755226
668.70 1.755894
668.80 1.756015
668.90 1.756136
669.00 1.756257
669.10 1.756378
669.20 1.756499
669.30 1.75673
669.40 1.756981
669.50 1.757231
669.60 1.757481
669.70 1.757731
669.80 1.75798
669.90 1.75823
670.00 1.758479
670.10 1.758728
670.20 1.758976
670.30 1.759148
670.40 1.759307
670.50 1.759465
670.60 1.759623
670.70 1.759781
670.80 1.759948
670.90 1.760116
671.00 1.760283
671.10 1.760451
671.20 1.760618
671.30 1.760785
671.40 1.760952
671.50 1.761118
671.60 1.761284
671.70 1.761451
671.80 1.761617
671.90 1.761766
672.00 1.761912
672.10 1.762057
672.20 1.762203
672.30 1.762348
672.40 1.762557
672.50 1.76277
672.60 1.762983
672.70 1.763196
672.80 1.763408
672.90 1.763621
673.00 1.763833
673.10 1.764045
673.20 1.764257
673.30 1.764685
673.40 1.764862
673.50 1.764994
673.60 1.765126
673.70 1.765258
673.80 1.76539
673.90 1.765522
674.00 1.765654
674.10 1.765785
674.20 1.765917
674.30 1.766048
674.40 1.766179
674.50 1.76631
674.60 1.766441
674.70 1.766571
674.80 1.766702
674.90 1.766832
675.00 1.766962
675.10 1.767092
675.20 1.767222
675.30 1.767351
675.40 1.767518
675.50 1.767691
675.60 1.767863
675.70 1.768036
675.80 1.768208
675.90 1.76838
676.00 1.768552
676.10 1.768724
676.20 1.768896
676.30 1.769067
676.40 1.769238
676.50 1.769409
676.60 1.76958
676.70 1.769751
676.80 1.769921
676.90 1.770092
677.00 1.770262
677.10 1.770432
677.20 1.770602
677.30 1.770771
677.40 1.770941
677.50 1.77111
677.60 1.771279
677.70 1.771448
677.80 1.771617
677.90 1.771802
678.00 1.77199
678.10 1.772178
678.20 1.772366
678.30 1.772554
678.40 1.772742
678.50 1.772929
678.60 1.773116
678.70 1.773303
678.80 1.77349
678.90 1.773676
679.00 1.773863
679.10 1.77403
679.20 1.774189
679.30 1.774348
679.40 1.774507
679.50 1.774665
679.60 1.774823
679.70 1.774981
679.80 1.775139
679.90 1.775297
680.00 1.775455
680.10 1.775612
680.20 1.77577
680.30 1.775927
680.40 1.776084
680.50 1.77624
680.60 1.776397
680.70 1.776553
680.80 1.77671
680.90 1.776866
681.00 1.777022
681.10 1.777178
681.20 1.777333
681.30 1.777489
681.40 1.777644
681.50 1.777799
681.60 1.777954
681.70 1.778109
681.80 1.778263
681.90 1.778418
682.00 1.778572
682.10 1.778726
682.20 1.77888
682.30 1.779034
682.40 1.779187
682.50 1.779341
682.60 1.779494
682.70 1.779647
682.80 1.7798
682.90 1.779953
683.00 1.780105
683.10 1.780258
683.20 1.78041
683.30 1.780562
683.40 1.780714
683.50 1.780866
683.60 1.781017
683.70 1.781169
683.80 1.78132
683.90 1.781471
684.00 1.781622
684.10 1.781773
684.20 1.781923
684.30 1.782074
684.40 1.782224
684.50 1.782374
684.60 1.782524
684.70 1.782674
684.80 1.782824
684.90 1.782973
685.00 1.783122
685.10 1.783272
685.20 1.783421
685.30 1.783569
685.40 1.783718
685.50 1.783867
685.60 1.784015
685.70 1.784163
685.80 1.784311
685.90 1.784453
686.00 1.784594
686.10 1.784735
686.20 1.784876
686.30 1.785016
686.40 1.785157
686.50 1.785297
686.60 1.785437
686.70 1.785577
686.80 1.785716
686.90 1.785856
687.00 1.785995
687.10 1.786135
687.20 1.786274
687.30 1.786413
687.40 1.786551
687.50 1.78669
687.60 1.786828
687.70 1.786967
687.80 1.787105
687.90 1.787243
688.00 1.787381
688.10 1.787518
688.20 1.787656
688.30 1.787793
688.40 1.78793
688.50 1.788067
688.60 1.788204
688.70 1.788341
688.80 1.788478
688.90 1.788614
689.00 1.78875
689.10 1.788886
689.20 1.789022
689.30 1.789158
689.40 1.789294
689.50 1.789429
689.60 1.789565
689.70 1.7897
689.80 1.789835
689.90 1.78997
690.00 1.790105
690.10 1.790239
690.20 1.790374
690.30 1.790508
690.40 1.790642
690.50 1.790776
690.60 1.79091
690.70 1.791043
690.80 1.791177
690.90 1.79131
691.00 1.791444
691.10 1.791577
691.20 1.791709
691.30 1.791842
691.40 1.791975
691.50 1.792107
691.60 1.79224
691.70 1.792372
691.80 1.792504
691.90 1.792636
692.00 1.792767
692.10 1.792899
692.20 1.79303
692.30 1.793161
692.40 1.793292
692.50 1.793423
692.60 1.793554
692.70 1.793684
692.80 1.793813
692.90 1.793941
693.00 1.794069
693.10 1.794198
693.20 1.794325
693.30 1.794453
693.40 1.794581
693.50 1.794708
693.60 1.794836
693.70 1.794963
693.80 1.79509
693.90 1.795217
694.00 1.795343
694.10 1.79547
694.20 1.795596
694.30 1.795723
694.40 1.795849
694.50 1.795975
694.60 1.796101
694.70 1.796226
694.80 1.796352
694.90 1.796477
695.00 1.796603
695.10 1.796728
695.20 1.796853
695.30 1.796977
695.40 1.797102
695.50 1.797227
695.60 1.797351
695.70 1.797475
695.80 1.797599
695.90 1.797723
696.00 1.797847
696.10 1.797971
696.20 1.798094
696.30 1.798218
696.40 1.798341
696.50 1.798464
696.60 1.798566
696.70 1.798663
696.80 1.79876
696.90 1.798857
697.00 1.798954
697.10 1.799051
697.20 1.799148
697.30 1.799244
697.40 1.79934
697.50 1.799437
697.60 1.799533
697.70 1.799629
697.80 1.799724
697.90 1.79982
698.00 1.799916
698.10 1.800011
698.20 1.800106
698.30 1.800201
698.40 1.800296
698.50 1.800391
698.60 1.800486
698.70 1.800581
698.80 1.800675
698.90 1.80077
699.00 1.800864
699.10 1.801026
699.20 1.801204
699.30 1.801382
699.40 1.801559
699.50 1.801736
699.60 1.801913
699.70 1.802046
699.80 1.802176
699.90 1.802306
700.00 1.802436
700.10 1.802565
700.20 1.802695
700.30 1.802824
700.40 1.802953
700.50 1.803083
700.60 1.803211
700.70 1.80334
700.80 1.803469
700.90 1.803597
701.00 1.803726
701.10 1.803824
701.20 1.803915
701.30 1.804006
701.40 1.804097
701.50 1.804188
701.60 1.804279
701.70 1.804369
701.80 1.80446
701.90 1.80455
702.00 1.80464
702.10 1.80473
702.20 1.80482
702.30 1.80491
702.40 1.805
702.50 1.805089
702.60 1.805199
702.70 1.805313
702.80 1.805428
702.90 1.805542
703.00 1.805656
703.10 1.80577
703.20 1.805884
703.30 1.805997
703.40 1.806111
703.50 1.806224
703.60 1.806337
703.70 1.80645
703.80 1.806563
703.90 1.806676
704.00 1.806789
704.10 1.806901
704.20 1.806993
704.30 1.80708
704.40 1.807168
704.50 1.807255
704.60 1.807341
704.70 1.807428
704.80 1.807515
704.90 1.807601
705.00 1.807688
705.10 1.807774
705.20 1.807779
705.30 1.807766
705.40 1.807752
705.50 1.807738
705.60 1.807724
705.70 1.80771
705.80 1.807898
705.90 1.808132
706.00 1.808367
706.10 1.808602
706.20 1.808634
706.30 1.80862
706.40 1.808227
706.50 1.808684
706.60 1.809167
706.70 1.808655
706.80 1.808948
706.90 1.809429
707.00 1.809508
707.10 1.809493
707.20 1.809477
707.30 1.809461
707.40 1.80958
707.50 1.809729
707.60 1.809879
707.70 1.810028
707.80 1.810177
707.90 1.810326
708.00 1.810421
708.10 1.810504
708.20 1.810586
708.30 1.810668
708.40 1.810751
708.50 1.810833
708.60 1.810915
708.70 1.810997
708.80 1.811078
708.90 1.81116
709.00 1.811212
709.10 1.811256
709.20 1.8113
709.30 1.811344
709.40 1.811389
709.50 1.811433
709.60 1.811477
709.70 1.81152
709.80 1.811564
709.90 1.811608
710.00 1.811651
710.10 1.811695
710.20 1.811738
710.30 1.811781
710.40 1.811824
710.50 1.811867
710.60 1.81194
710.70 1.81202
710.80 1.8121
710.90 1.812179
711.00 1.812258
711.10 1.812338
711.20 1.812417
711.30 1.812496
711.40 1.812575
711.50 1.812653
711.60 1.812732
711.70 1.812811
711.80 1.812889
711.90 1.812967
712.00 1.813046
712.10 1.813129
712.20 1.813214
712.30 1.813298
712.40 1.813382
712.50 1.813467
712.60 1.813551
712.70 1.813635
712.80 1.813719
712.90 1.813803
713.00 1.813886
713.10 1.81397
713.20 1.814053
713.30 1.814136
713.40 1.81422
713.50 1.814303
713.60 1.814386
713.70 1.814456
713.80 1.814501
713.90 1.814546
714.00 1.814591
714.10 1.814661
714.20 1.814737
714.30 1.814812
714.40 1.814888
714.50 1.814963
714.60 1.815038
714.70 1.815113
714.80 1.815188
714.90 1.815263
715.00 1.815338
715.10 1.815413
715.20 1.815487
715.30 1.815562
715.40 1.815636
715.50 1.81571
715.60 1.815784
715.70 1.815858
715.80 1.815932
715.90 1.816006
716.00 1.816079
716.10 1.816153
716.20 1.816226
716.30 1.8163
716.40 1.816373
716.50 1.816446
716.60 1.816534
716.70 1.816625
716.80 1.816716
716.90 1.816806
717.00 1.816897
717.10 1.816988
717.20 1.817078
717.30 1.817168
717.40 1.817259
717.50 1.817349
717.60 1.817439
717.70 1.817528
717.80 1.817618
717.90 1.817708
718.00 1.817797
718.10 1.817886
718.20 1.817964
718.30 1.818035
718.40 1.818106
718.50 1.818177
718.60 1.818247
718.70 1.818318
718.80 1.818388
718.90 1.818459
719.00 1.818529
719.10 1.818599
719.20 1.818669
719.30 1.818739
719.40 1.818809
719.50 1.818878
719.60 1.818948
719.70 1.819017
719.80 1.819087
719.90 1.819156
720.00 1.819225
720.10 1.819294
720.20 1.819363
720.30 1.819432
720.40 1.819501
720.50 1.819569
720.60 1.819638
720.70 1.819701
720.80 1.819761
720.90 1.81978
721.00 1.819797
721.10 1.819813
721.20 1.81983
721.30 1.819846
721.40 1.819863
721.50 1.819879
721.60 1.819895
721.70 1.819911
721.80 1.819927
721.90 1.819943
722.00 1.819959
722.10 1.819975
722.20 1.819991
722.30 1.820006
722.40 1.820022
722.50 1.820037
722.60 1.820053
722.70 1.820101
722.80 1.820168
722.90 1.820234
723.00 1.8203
723.10 1.820366
723.20 1.820432
723.30 1.820498
723.40 1.820564
723.50 1.82063
723.60 1.820695
723.70 1.820761
723.80 1.820826
723.90 1.820891
724.00 1.820956
724.10 1.821021
724.20 1.821102
724.30 1.82119
724.40 1.821278
724.50 1.821367
724.60 1.821455
724.70 1.821543
724.80 1.821631
724.90 1.821718
725.00 1.821806
725.10 1.821893
725.20 1.821981
725.30 1.822068
725.40 1.822155
725.50 1.822242
725.60 1.822329
725.70 1.822416
725.80 1.822426
725.90 1.822395
726.00 1.822364
726.10 1.822333
726.20 1.822301
726.30 1.82227
726.40 1.822239
726.50 1.822207
726.60 1.822176
726.70 1.822144
726.80 1.822214
726.90 1.822339
727.00 1.822464
727.10 1.822589
727.20 1.822713
727.30 1.822837
727.40 1.82286
727.50 1.822828
727.60 1.822795
727.70 1.822763
727.80 1.822731
727.90 1.822698
728.00 1.823298
728.10 1.822856
728.20 1.823232
728.30 1.822849
728.40 1.823471
728.50 1.823438
728.60 1.823405
728.70 1.823372
728.80 1.823339
728.90 1.823305
729.00 1.823373
729.10 1.823496
729.20 1.823618
729.30 1.82374
729.40 1.823862
729.50 1.823983
729.60 1.824004
729.70 1.82397
729.80 1.823936
729.90 1.823902
730.00 1.823868
730.10 1.823834
730.20 1.8238
730.30 1.823766
730.40 1.823732
730.50 1.823698
730.60 1.823739
730.70 1.823821
730.80 1.823902
730.90 1.823984
731.00 1.824066
731.10 1.824147
731.20 1.824228
731.30 1.824309
731.40 1.82439
731.50 1.824471
731.60 1.824552
731.70 1.824633
731.80 1.824713
731.90 1.824794
732.00 1.824874
732.10 1.824955
732.20 1.82498
732.30 1.824975
732.40 1.82497
732.50 1.824965
732.60 1.82496
732.70 1.824955
732.80 1.82495
732.90 1.824945
733.00 1.824939
733.10 1.824934
733.20 1.824929
733.30 1.824923
733.40 1.824918
733.50 1.824912
733.60 1.824907
733.70 1.824943
733.80 1.825002
733.90 1.825061
734.00 1.825119
734.10 1.825178
734.20 1.825236
734.30 1.825295
734.40 1.825353
734.50 1.825411
734.60 1.825469
734.70 1.825527
734.80 1.825585
734.90 1.825643
735.00 1.825701
735.10 1.825758
735.20 1.825816
735.30 1.825872
735.40 1.82591
735.50 1.825949
735.60 1.825987
735.70 1.826012
735.80 1.826029
735.90 1.826046
736.00 1.826063
736.10 1.82608
736.20 1.826096
736.30 1.826113
736.40 1.82613
736.50 1.826146
736.60 1.826163
736.70 1.826179
736.80 1.826195
736.90 1.826212
737.00 1.826228
737.10 1.826244
737.20 1.82626
737.30 1.826276
737.40 1.826291
737.50 1.826307
737.60 1.826323
737.70 1.826339
737.80 1.826354
737.90 1.82637
738.00 1.826385
738.10 1.8264
738.20 1.826412
738.30 1.826422
738.40 1.826432
738.50 1.826442
738.60 1.826452
738.70 1.826461
738.80 1.826471
738.90 1.826481
739.00 1.82649
739.10 1.826499
739.20 1.826509
739.30 1.826518
739.40 1.826527
739.50 1.826536
739.60 1.826545
739.70 1.826554
739.80 1.826563
739.90 1.826572
740.00 1.826581
740.10 1.82659
740.20 1.826598
740.30 1.826607
740.40 1.826615
740.50 1.826624
740.60 1.826632
740.70 1.82664
740.80 1.826649
740.90 1.826657
741.00 1.826665
741.10 1.826673
741.20 1.826681
741.30 1.826689
741.40 1.826696
741.50 1.826704
741.60 1.826712
741.70 1.826719
741.80 1.826727
741.90 1.826734
742.00 1.826741
742.10 1.826749
742.20 1.826756
742.30 1.826763
742.40 1.82677
742.50 1.826777
742.60 1.826784
742.70 1.826804
742.80 1.826833
742.90 1.826863
743.00 1.826892
743.10 1.826922
743.20 1.826951
743.30 1.82698
743.40 1.827009
743.50 1.827038
743.60 1.827067
743.70 1.82709
743.80 1.82709
743.90 1.82709
744.00 1.82709
744.10 1.82709
744.20 1.827089
744.30 1.827089
744.40 1.827089
744.50 1.827088
744.60 1.827088
744.70 1.827087
744.80 1.827086
744.90 1.827086
745.00 1.827085
745.10 1.827084
745.20 1.827083
745.30 1.827082
745.40 1.827081
745.50 1.82708
745.60 1.827078
745.70 1.827077
745.80 1.827076
745.90 1.827074
746.00 1.827073
746.10 1.827071
746.20 1.82707
746.30 1.827068
746.40 1.827066
746.50 1.827065
746.60 1.827063
746.70 1.827061
746.80 1.827059
746.90 1.827057
747.00 1.827055
747.10 1.827052
747.20 1.82705
747.30 1.827048
747.40 1.827045
747.50 1.827043
747.60 1.82704
747.70 1.827038
747.80 1.827035
747.90 1.827033
748.00 1.82703
748.10 1.827027
748.20 1.827024
748.30 1.827021
748.40 1.827018
748.50 1.827015
748.60 1.827012
748.70 1.827009
748.80 1.827005
748.90 1.827002
749.00 1.826999
749.10 1.826995
749.20 1.826992
749.30 1.826988
749.40 1.826984
749.50 1.826981
749.60 1.826977
749.70 1.826973
749.80 1.826969
749.90 1.826965
750.00 1.826961
750.10 1.82696
750.20 1.826967
750.30 1.826974
750.40 1.82698
750.50 1.826987
750.60 1.826994
750.70 1.827
750.80 1.827006
750.90 1.827013
751.00 1.827019
751.10 1.827025
751.20 1.827031
751.30 1.827037
751.40 1.827043
751.50 1.827049
751.60 1.827055
751.70 1.827061
751.80 1.827067
751.90 1.827072
752.00 1.827078
752.10 1.827084
752.20 1.827089
752.30 1.827094
752.40 1.8271
752.50 1.827105
752.60 1.82711
752.70 1.827115
752.80 1.82712
752.90 1.827125
753.00 1.82713
753.10 1.827135
753.20 1.82714
753.30 1.827145
753.40 1.827149
753.50 1.827154
753.60 1.827158
753.70 1.827163
753.80 1.827167
753.90 1.827153
754.00 1.827134
754.10 1.827115
754.20 1.827096
754.30 1.827077
754.40 1.827058
754.50 1.827038
754.60 1.827019
754.70 1.827
754.80 1.82698
754.90 1.826961
755.00 1.826941
755.10 1.826921
755.20 1.826902
755.30 1.826882
755.40 1.826862
755.50 1.826842
755.60 1.826823
755.70 1.826803
755.80 1.826783
755.90 1.826763
756.00 1.826742
756.10 1.826722
756.20 1.826702
756.30 1.826682
756.40 1.826662
756.50 1.826641
756.60 1.826621
756.70 1.8266
756.80 1.82658
756.90 1.826559
757.00 1.826539
757.10 1.826518
757.20 1.826497
757.30 1.826476
757.40 1.826455
757.50 1.826435
757.60 1.826419
757.70 1.826416
757.80 1.826413
757.90 1.82641
758.00 1.826407
758.10 1.826404
758.20 1.826401
758.30 1.826398
758.40 1.826395
758.50 1.826391
758.60 1.826388
758.70 1.826384
758.80 1.826381
758.90 1.826377
759.00 1.826374
759.10 1.82637
759.20 1.826366
759.30 1.826363
759.40 1.826359
759.50 1.826355
759.60 1.826351
759.70 1.826347
759.80 1.826343
759.90 1.826339
760.00 1.826334
760.10 1.82633
760.20 1.826326
760.30 1.826321
760.40 1.826317
760.50 1.826312
760.60 1.826308
760.70 1.826303
760.80 1.826298
760.90 1.826294
761.00 1.826289
761.10 1.826284
761.20 1.826279
761.30 1.826274
761.40 1.82626
761.50 1.826232
761.60 1.826204
761.70 1.826176
761.80 1.826149
761.90 1.826121
762.00 1.826093
762.10 1.826065
762.20 1.826037
762.30 1.826009
762.40 1.82598
762.50 1.825952
762.60 1.825924
762.70 1.825896
762.80 1.825867
762.90 1.825839
763.00 1.82581
763.10 1.825782
763.20 1.825753
763.30 1.825725
763.40 1.825696
763.50 1.825667
763.60 1.825639
763.70 1.82561
763.80 1.825581
763.90 1.825552
764.00 1.825523
764.10 1.825494
764.20 1.825465
764.30 1.825436
764.40 1.825407
764.50 1.825378
764.60 1.825349
764.70 1.82532
764.80 1.82529
764.90 1.825261
765.00 1.825231
765.10 1.825202
765.20 1.82517
765.30 1.825136
765.40 1.825102
765.50 1.825068
765.60 1.825034
765.70 1.825
765.80 1.824966
765.90 1.824931
766.00 1.824897
766.10 1.824863
766.20 1.824828
766.30 1.824794
766.40 1.82476
766.50 1.824725
766.60 1.82469
766.70 1.824656
766.80 1.824621
766.90 1.824587
767.00 1.824552
767.10 1.824517
767.20 1.824482
767.30 1.824447
767.40 1.824412
767.50 1.824378
767.60 1.824343
767.70 1.824307
767.80 1.824272
767.90 1.824237
768.00 1.824202
768.10 1.824167
768.20 1.824132
768.30 1.824096
768.40 1.824061
768.50 1.824026
768.60 1.82399
768.70 1.823955
768.80 1.823919
768.90 1.823884
769.00 1.823848
769.10 1.823812
769.20 1.823777
769.30 1.823741
769.40 1.823705
769.50 1.823669
769.60 1.823634
769.70 1.823598
769.80 1.823562
769.90 1.823526
770.00 1.82349
770.10 1.823454
770.20 1.823417
770.30 1.823381
770.40 1.823345
770.50 1.823309
770.60 1.823273
770.70 1.823236
770.80 1.8232
770.90 1.823163
771.00 1.823127
771.10 1.823091
771.20 1.823054
771.30 1.823017
771.40 1.822981
771.50 1.822944
771.60 1.822907
771.70 1.822871
771.80 1.822834
771.90 1.822797
772.00 1.82276
772.10 1.822723
772.20 1.822686
772.30 1.822649
772.40 1.822612
772.50 1.822575
772.60 1.822538
772.70 1.822501
772.80 1.822464
772.90 1.822411
773.00 1.822359
773.10 1.822307
773.20 1.822254
773.30 1.822202
773.40 1.822149
773.50 1.822097
773.60 1.822044
773.70 1.821992
773.80 1.821939
773.90 1.821887
774.00 1.821834
774.10 1.821781
774.20 1.821729
774.30 1.821676
774.40 1.821623
774.50 1.82157
774.60 1.821517
774.70 1.821464
774.80 1.821412
774.90 1.821359
775.00 1.821306
775.10 1.821253
775.20 1.8212
775.30 1.821146
775.40 1.821093
775.50 1.82104
775.60 1.820987
775.70 1.820934
775.80 1.820881
775.90 1.820827
776.00 1.820774
776.10 1.820721
776.20 1.820667
776.30 1.820614
776.40 1.82056
776.50 1.820507
776.60 1.820453
776.70 1.8204
776.80 1.820346
776.90 1.820293
777.00 1.820239
777.10 1.820185
777.20 1.820132
777.30 1.820078
777.40 1.820024
777.50 1.81997
777.60 1.819916
777.70 1.819863
777.80 1.819809
777.90 1.819755
778.00 1.819701
778.10 1.819647
778.20 1.819593
778.30 1.819539
778.40 1.819484
778.50 1.81943
778.60 1.819376
778.70 1.819322
778.80 1.819268
778.90 1.819213
779.00 1.819159
779.10 1.819105
779.20 1.819051
779.30 1.818996
779.40 1.818942
779.50 1.818887
779.60 1.818833
779.70 1.818778
779.80 1.818724
779.90 1.818669
780.00 1.818615
780.10 1.81856
780.20 1.818505
780.30 1.81845
780.40 1.818396
780.50 1.818341
780.60 1.81828
780.70 1.818218
780.80 1.818155
780.90 1.818092
781.00 1.818029
781.10 1.817966
781.20 1.817903
781.30 1.81784
781.40 1.817777
781.50 1.817714
781.60 1.817651
781.70 1.817587
781.80 1.817524
781.90 1.817461
782.00 1.817398
782.10 1.817335
782.20 1.817271
782.30 1.817208
782.40 1.817145
782.50 1.817081
782.60 1.817018
782.70 1.816955
782.80 1.816891
782.90 1.816828
783.00 1.816764
783.10 1.816701
783.20 1.816637
783.30 1.816574
783.40 1.81651
783.50 1.816446
783.60 1.816383
783.70 1.816319
783.80 1.816255
783.90 1.816192
784.00 1.816128
784.10 1.816064
784.20 1.816
784.30 1.815937
784.40 1.815873
784.50 1.815809
784.60 1.815747
784.70 1.815692
784.80 1.815636
784.90 1.81558
785.00 1.815524
785.10 1.815468
785.20 1.815412
785.30 1.815356
785.40 1.8153
785.50 1.815244
785.60 1.815188
785.70 1.815132
785.80 1.815076
785.90 1.81502
786.00 1.814964
786.10 1.814907
786.20 1.814851
786.30 1.814795
786.40 1.814739
786.50 1.814682
786.60 1.814626
786.70 1.81457
786.80 1.814513
786.90 1.814457
787.00 1.8144
787.10 1.814344
787.20 1.814287
787.30 1.814231
787.40 1.814174
787.50 1.814117
787.60 1.814061
787.70 1.814004
787.80 1.813947
787.90 1.813891
788.00 1.813834
788.10 1.813777
788.20 1.81372
788.30 1.813663
788.40 1.813594
788.50 1.813519
788.60 1.813444
788.70 1.813368
788.80 1.813293
788.90 1.813218
789.00 1.813142
789.10 1.813067
789.20 1.812992
789.30 1.812916
789.40 1.812841
789.50 1.812766
789.60 1.81269
789.70 1.812615
789.80 1.812539
789.90 1.812464
790.00 1.812388
790.10 1.812313
790.20 1.812237
790.30 1.812161
790.40 1.812086
790.50 1.81201
790.60 1.811935
790.70 1.811859
790.80 1.811783
790.90 1.811708
791.00 1.811632
791.10 1.811556
791.20 1.81148
791.30 1.811405
791.40 1.811329
791.50 1.811253
791.60 1.811177
791.70 1.811101
791.80 1.811025
791.90 1.810949
792.00 1.810874
792.10 1.810798
792.20 1.810722
792.30 1.810646
792.40 1.81057
792.50 1.810494
792.60 1.810418
792.70 1.810342
792.80 1.810266
792.90 1.81019
793.00 1.810114
793.10 1.810038
793.20 1.809962
793.30 1.809886
793.40 1.80981
793.50 1.809734
793.60 1.809658
793.70 1.809581
793.80 1.809505
793.90 1.809429
794.00 1.809353
794.10 1.809277
794.20 1.8092
794.30 1.809124
794.40 1.809048
794.50 1.808972
794.60 1.808895
794.70 1.808819
794.80 1.808742
794.90 1.808666
795.00 1.80859
795.10 1.808513
795.20 1.808437
795.30 1.80836
795.40 1.808284
795.50 1.808207
795.60 1.808131
795.70 1.808054
795.80 1.807978
795.90 1.807901
796.00 1.807825
796.10 1.807748
796.20 1.807672
796.30 1.807592
796.40 1.807511
796.50 1.807431
796.60 1.80735
796.70 1.80727
796.80 1.807189
796.90 1.807109
797.00 1.807028
797.10 1.806948
797.20 1.806867
797.30 1.806787
797.40 1.806706
797.50 1.806625
797.60 1.806545
797.70 1.806464
797.80 1.806383
797.90 1.806303
798.00 1.806222
798.10 1.806141
798.20 1.80606
798.30 1.80598
798.40 1.805899
798.50 1.805818
798.60 1.805737
798.70 1.805657
798.80 1.805576
798.90 1.805495
799.00 1.805414
799.10 1.805333
799.20 1.805252
799.30 1.805171
799.40 1.80509
799.50 1.805009
799.60 1.804928
799.70 1.804847
799.80 1.804766
799.90 1.804685
800.00 1.804604
800.10 1.804523
800.20 1.804442
800.30 1.804361
800.40 1.80428
800.50 1.804199
800.60 1.804118
800.70 1.804037
800.80 1.803956
800.90 1.803874
801.00 1.803793
801.10 1.803712
801.20 1.803631
801.30 1.80355
801.40 1.803468
801.50 1.803387
801.60 1.803306
801.70 1.803224
801.80 1.803143
801.90 1.803062
802.00 1.802981
802.10 1.802899
802.20 1.802818
802.30 1.802736
802.40 1.802655
802.50 1.802574
802.60 1.802492
802.70 1.802411
802.80 1.802329
802.90 1.802248
803.00 1.802166
803.10 1.802085
803.20 1.802003
803.30 1.801922
803.40 1.80184
803.50 1.801759
803.60 1.801677
803.70 1.801595
803.80 1.801514
803.90 1.801432
804.00 1.80135
804.10 1.801269
804.20 1.801186
804.30 1.801101
804.40 1.801016
804.50 1.80093
804.60 1.800845
804.70 1.800759
804.80 1.800674
804.90 1.800589
805.00 1.800503
805.10 1.800418
805.20 1.800332
805.30 1.800247
805.40 1.800161
805.50 1.800076
805.60 1.79999
805.70 1.799905
805.80 1.799819
805.90 1.799734
806.00 1.799648
806.10 1.799563
806.20 1.799477
806.30 1.799391
806.40 1.799306
806.50 1.79922
806.60 1.799135
806.70 1.799049
806.80 1.798963
806.90 1.798878
807.00 1.798792
807.10 1.798706
807.20 1.798621
807.30 1.798535
807.40 1.798449
807.50 1.798363
807.60 1.798278
807.70 1.798192
807.80 1.798106
807.90 1.79802
808.00 1.797934
808.10 1.797849
808.20 1.797762
808.30 1.797658
808.40 1.797553
808.50 1.797448
808.60 1.797343
808.70 1.797239
808.80 1.797134
808.90 1.797029
809.00 1.796924
809.10 1.79682
809.20 1.796715
809.30 1.79661
809.40 1.796505
809.50 1.796401
809.60 1.796296
809.70 1.796191
809.80 1.796086
809.90 1.795981
810.00 1.795877
810.10 1.795772
810.20 1.795667
810.30 1.795562
810.40 1.795457
810.50 1.795353
810.60 1.795248
810.70 1.795143
810.80 1.795038
810.90 1.794933
811.00 1.794828
811.10 1.794724
811.20 1.794619
811.30 1.794514
811.40 1.794409
811.50 1.794304
811.60 1.794199
811.70 1.794095
811.80 1.79399
811.90 1.793885
812.00 1.79378
812.10 1.793675
812.20 1.79357
812.30 1.79347
812.40 1.793372
812.50 1.793273
812.60 1.793174
812.70 1.793076
812.80 1.792977
812.90 1.792878
813.00 1.792779
813.10 1.792681
813.20 1.792582
813.30 1.792483
813.40 1.792384
813.50 1.792286
813.60 1.792187
813.70 1.792088
813.80 1.791989
813.90 1.79189
814.00 1.791792
814.10 1.791693
814.20 1.791594
814.30 1.791495
814.40 1.791396
814.50 1.791298
814.60 1.791199
814.70 1.7911
814.80 1.791001
814.90 1.790902
815.00 1.790803
815.10 1.790704
815.20 1.790606
815.30 1.790507
815.40 1.790408
815.50 1.790309
815.60 1.79021
815.70 1.790111
815.80 1.790012
815.90 1.789913
816.00 1.789815
816.10 1.789716
816.20 1.789617
816.30 1.789518
816.40 1.789419
816.50 1.78932
816.60 1.789221
816.70 1.789122
816.80 1.789023
816.90 1.788924
817.00 1.788825
817.10 1.788726
817.20 1.788627
817.30 1.788528
817.40 1.788429
817.50 1.78833
817.60 1.788231
817.70 1.788132
817.80 1.788033
817.90 1.787934
818.00 1.787835
818.10 1.787736
818.20 1.787637
818.30 1.787538
818.40 1.787439
818.50 1.78734
818.60 1.787241
818.70 1.787142
818.80 1.787043
818.90 1.786944
819.00 1.786845
819.10 1.786746
819.20 1.786647
819.30 1.786502
819.40 1.786326
819.50 1.786151
819.60 1.785976
819.70 1.7858
819.80 1.785625
819.90 1.78545
820.00 1.785275
820.10 1.785076
820.20 1.784925
820.30 1.784809
820.40 1.784697
820.50 1.784587
820.60 1.784477
820.70 1.784367
820.80 1.784257
820.90 1.784147
821.00 1.784036
821.10 1.783926
821.20 1.783816
821.30 1.783706
821.40 1.783596
821.50 1.783486
821.60 1.783376
821.70 1.783266
821.80 1.783156
821.90 1.783046
822.00 1.782936
822.10 1.782826
822.20 1.782716
822.30 1.782606
822.40 1.782496
822.50 1.782386
822.60 1.782276
822.70 1.782166
822.80 1.782056
822.90 1.781946
823.00 1.781836
823.10 1.781726
823.20 1.781616
823.30 1.781506
823.40 1.781396
823.50 1.781286
823.60 1.781176
823.70 1.781067
823.80 1.780957
823.90 1.780847
824.00 1.780737
824.10 1.780627
824.20 1.780517
824.30 1.780407
824.40 1.780297
824.50 1.780187
824.60 1.780077
824.70 1.779967
824.80 1.779857
824.90 1.779747
825.00 1.779637
825.10 1.779527
825.20 1.779417
825.30 1.779307
825.40 1.779197
825.50 1.779087
825.60 1.778977
825.70 1.778867
825.80 1.778757
825.90 1.778647
826.00 1.778537
826.10 1.778427
826.20 1.778317
826.30 1.778204
826.40 1.778089
826.50 1.777974
826.60 1.777858
826.70 1.777743
826.80 1.777628
826.90 1.777513
827.00 1.777398
827.10 1.777283
827.20 1.777168
827.30 1.777052
827.40 1.776937
827.50 1.776822
827.60 1.776707
827.70 1.776592
827.80 1.776477
827.90 1.776362
828.00 1.776247
828.10 1.776131
828.20 1.776016
828.30 1.775901
828.40 1.775786
828.50 1.775671
828.60 1.775552
828.70 1.775428
828.80 1.775305
828.90 1.775182
829.00 1.775059
829.10 1.774936
829.20 1.774813
829.30 1.774689
829.40 1.774566
829.50 1.774443
829.60 1.77432
829.70 1.774197
829.80 1.774074
829.90 1.773951
830.00 1.773828
830.10 1.773705
830.20 1.773582
830.30 1.773458
830.40 1.773335
830.50 1.773212
830.60 1.773089
830.70 1.772966
830.80 1.772843
830.90 1.77272
831.00 1.772597
831.10 1.772474
831.20 1.772351
831.30 1.772228
831.40 1.772105
831.50 1.771982
831.60 1.771859
831.70 1.771737
831.80 1.771614
831.90 1.771491
832.00 1.771368
832.10 1.771245
832.20 1.771122
832.30 1.770999
832.40 1.770876
832.50 1.770753
832.60 1.77063
832.70 1.770507
832.80 1.770385
832.90 1.770262
833.00 1.770139
833.10 1.770016
833.20 1.769893
833.30 1.76977
833.40 1.769648
833.50 1.769525
833.60 1.769402
833.70 1.769279
833.80 1.769156
833.90 1.769034
834.00 1.768911
834.10 1.768788
834.20 1.768665
834.30 1.768543
834.40 1.76842
834.50 1.768297
834.60 1.768174
834.70 1.768052
834.80 1.767929
834.90 1.767806
835.00 1.767684
835.10 1.767561
835.20 1.767438
835.30 1.767316
835.40 1.767193
835.50 1.76707
835.60 1.766948
835.70 1.766825
835.80 1.766702
835.90 1.76658
836.00 1.766457
836.10 1.766335
836.20 1.766212
836.30 1.766089
836.40 1.765967
836.50 1.765844
836.60 1.765722
836.70 1.765599
836.80 1.765477
836.90 1.765358
837.00 1.765241
837.10 1.765124
837.20 1.765007
837.30 1.76489
837.40 1.764773
837.50 1.764656
837.60 1.764539
837.70 1.764422
837.80 1.764305
837.90 1.764188
838.00 1.764071
838.10 1.763954
838.20 1.763837
838.30 1.76372
838.40 1.763603
838.50 1.763486
838.60 1.763369
838.70 1.763252
838.80 1.763135
838.90 1.763019
839.00 1.762902
839.10 1.762785
839.20 1.762668
839.30 1.762551
839.40 1.762434
839.50 1.762317
839.60 1.7622
839.70 1.762083
839.80 1.761966
839.90 1.76185
840.00 1.761733
840.10 1.761616
840.20 1.761499
840.30 1.761382
840.40 1.761265
840.50 1.761149
840.60 1.761032
840.70 1.760915
840.80 1.760798
840.90 1.760681
841.00 1.760565
841.10 1.760433
841.20 1.7603
841.30 1.760166
841.40 1.760033
841.50 1.759899
841.60 1.759765
841.70 1.759632
841.80 1.759498
841.90 1.759365
842.00 1.759231
842.10 1.759098
842.20 1.758964
842.30 1.758831
842.40 1.758697
842.50 1.758564
842.60 1.758431
842.70 1.758297
842.80 1.758164
842.90 1.75803
843.00 1.757897
843.10 1.757764
843.20 1.75763
843.30 1.757497
843.40 1.757364
843.50 1.75723
843.60 1.757097
843.70 1.756964
843.80 1.756831
843.90 1.756697
844.00 1.756564
844.10 1.756431
844.20 1.756298
844.30 1.756165
844.40 1.756031
844.50 1.755898
844.60 1.755765
844.70 1.755632
844.80 1.755499
844.90 1.755366
845.00 1.755233
845.10 1.755099
845.20 1.754966
845.30 1.754822
845.40 1.754678
845.50 1.754534
845.60 1.754391
845.70 1.754247
845.80 1.754103
845.90 1.753959
846.00 1.753815
846.10 1.753671
846.20 1.753527
846.30 1.753383
846.40 1.75324
846.50 1.753096
846.60 1.752952
846.70 1.752808
846.80 1.752665
846.90 1.752521
847.00 1.752377
847.10 1.752234
847.20 1.75209
847.30 1.751946
847.40 1.751803
847.50 1.751659
847.60 1.751516
847.70 1.751372
847.80 1.751228
847.90 1.751085
848.00 1.750941
848.10 1.750798
848.20 1.750655
848.30 1.750511
848.40 1.750368
848.50 1.750224
848.60 1.750081
848.70 1.749938
848.80 1.749794
848.90 1.749651
849.00 1.749508
849.10 1.749364
849.20 1.749221
849.30 1.749078
849.40 1.748935
849.50 1.748791
849.60 1.748648
849.70 1.748505
849.80 1.748362
849.90 1.748219
850.00 1.748076
850.10 1.747932
850.20 1.747789
850.30 1.747646
850.40 1.747503
850.50 1.74736
850.60 1.747217
850.70 1.747074
850.80 1.746931
850.90 1.746788
851.00 1.746645
851.10 1.746503
851.20 1.74636
851.30 1.746217
851.40 1.746074
851.50 1.745931
851.60 1.745788
851.70 1.745646
851.80 1.745503
851.90 1.74536
852.00 1.745217
852.10 1.745075
852.20 1.744932
852.30 1.744789
852.40 1.744647
852.50 1.744504
852.60 1.744361
852.70 1.744219
852.80 1.744076
852.90 1.743934
853.00 1.743791
853.10 1.743648
853.20 1.743506
853.30 1.743363
853.40 1.743221
853.50 1.743079
853.60 1.742936
853.70 1.742796
853.80 1.742659
853.90 1.742522
854.00 1.742385
854.10 1.742248
854.20 1.742111
854.30 1.741974
854.40 1.741837
854.50 1.7417
854.60 1.741564
854.70 1.741427
854.80 1.74129
854.90 1.741153
855.00 1.741016
855.10 1.740879
855.20 1.740742
855.30 1.740606
855.40 1.740469
855.50 1.740332
855.60 1.740195
855.70 1.740059
855.80 1.739922
855.90 1.739785
856.00 1.739649
856.10 1.739512
856.20 1.739375
856.30 1.739239
856.40 1.739102
856.50 1.738965
856.60 1.738829
856.70 1.738692
856.80 1.738556
856.90 1.738419
857.00 1.738283
857.10 1.738146
857.20 1.73801
857.30 1.737873
857.40 1.737737
857.50 1.7376
857.60 1.737464
857.70 1.737328
857.80 1.737191
857.90 1.737055
858.00 1.736906
858.10 1.736754
858.20 1.736602
858.30 1.73645
858.40 1.736298
858.50 1.736146
858.60 1.735994
858.70 1.735842
858.80 1.73569
858.90 1.735538
859.00 1.735386
859.10 1.735234
859.20 1.735082
859.30 1.73493
859.40 1.734778
859.50 1.734627
859.60 1.734475
859.70 1.734323
859.80 1.734171
859.90 1.73402
860.00 1.733868
860.10 1.733716
860.20 1.733565
860.30 1.733413
860.40 1.733262
860.50 1.73311
860.60 1.732958
860.70 1.732807
860.80 1.732655
860.90 1.732504
861.00 1.732353
861.10 1.732201
861.20 1.73205
861.30 1.731898
861.40 1.731747
861.50 1.731596
861.60 1.731444
861.70 1.731293
861.80 1.731142
861.90 1.730991
862.00 1.73084
862.10 1.730688
862.20 1.730537
862.30 1.730383
862.40 1.73023
862.50 1.730076
862.60 1.729923
862.70 1.729769
862.80 1.729616
862.90 1.729462
863.00 1.729309
863.10 1.729155
863.20 1.729002
863.30 1.728848
863.40 1.728695
863.50 1.728542
863.60 1.728388
863.70 1.728235
863.80 1.728082
863.90 1.727929
864.00 1.727775
864.10 1.727622
864.20 1.727469
864.30 1.727316
864.40 1.727163
864.50 1.72701
864.60 1.726857
864.70 1.726704
864.80 1.726551
864.90 1.726398
865.00 1.726245
865.10 1.726092
865.20 1.725939
865.30 1.725786
865.40 1.725633
865.50 1.72548
865.60 1.725328
865.70 1.725175
865.80 1.725022
865.90 1.724869
866.00 1.724717
866.10 1.724564
866.20 1.724411
866.30 1.724259
866.40 1.724106
866.50 1.723953
866.60 1.723801
866.70 1.723648
866.80 1.723496
866.90 1.723343
867.00 1.723191
867.10 1.723038
867.20 1.722886
867.30 1.722734
867.40 1.722581
867.50 1.722429
867.60 1.722277
867.70 1.722124
867.80 1.721972
867.90 1.72182
868.00 1.721667
868.10 1.721515
868.20 1.721363
868.30 1.721211
868.40 1.721059
868.50 1.720907
868.60 1.720755
868.70 1.720603
868.80 1.720451
868.90 1.720299
869.00 1.720147
869.10 1.719995
869.20 1.719843
869.30 1.719691
869.40 1.719539
869.50 1.719387
869.60 1.719235
869.70 1.719083
869.80 1.718932
869.90 1.71878
870.00 1.718628
870.10 1.718476
870.20 1.718325
870.30 1.718173
870.40 1.718021
870.50 1.71787
870.60 1.717718
870.70 1.717567
870.80 1.717415
870.90 1.717261
871.00 1.717108
871.10 1.716954
871.20 1.7168
871.30 1.716646
871.40 1.716492
871.50 1.716339
871.60 1.716185
871.70 1.716031
871.80 1.715877
871.90 1.715724
872.00 1.71557
872.10 1.715416
872.20 1.715263
872.30 1.715109
872.40 1.714956
872.50 1.714802
872.60 1.714649
872.70 1.714495
872.80 1.714342
872.90 1.714189
873.00 1.714035
873.10 1.713882
873.20 1.713728
873.30 1.713575
873.40 1.713422
873.50 1.713269
873.60 1.713115
873.70 1.712962
873.80 1.712809
873.90 1.712656
874.00 1.712503
874.10 1.71235
874.20 1.712197
874.30 1.712043
874.40 1.71189
874.50 1.711737
874.60 1.711584
874.70 1.711432
874.80 1.711279
874.90 1.711126
875.00 1.710973
875.10 1.71082
875.20 1.710662
875.30 1.710494
875.40 1.710326
875.50 1.710159
875.60 1.709991
875.70 1.709824
875.80 1.709656
875.90 1.709489
876.00 1.709321
876.10 1.709154
876.20 1.708986
876.30 1.708819
876.40 1.708652
876.50 1.708484
876.60 1.708317
876.70 1.70815
876.80 1.707983
876.90 1.707816
877.00 1.707648
877.10 1.707481
877.20 1.707314
877.30 1.707147
877.40 1.70698
877.50 1.706813
877.60 1.706646
877.70 1.706479
877.80 1.706313
877.90 1.706146
878.00 1.705979
878.10 1.705812
878.20 1.705645
878.30 1.705479
878.40 1.705312
878.50 1.705145
878.60 1.704979
878.70 1.704812
878.80 1.704645
878.90 1.704479
879.00 1.704312
879.10 1.704146
879.20 1.70398
879.30 1.703813
879.40 1.703647
879.50 1.70348
879.60 1.703324
879.70 1.70317
879.80 1.703016
879.90 1.702863
880.00 1.702709
880.10 1.702555
880.20 1.702401
880.30 1.702247
880.40 1.702094
880.50 1.70194
880.60 1.701786
880.70 1.701633
880.80 1.701479
880.90 1.701325
881.00 1.701172
881.10 1.701018
881.20 1.700865
881.30 1.700711
881.40 1.700558
881.50 1.700404
881.60 1.700251
881.70 1.700098
881.80 1.699944
881.90 1.699791
882.00 1.699638
882.10 1.699484
882.20 1.699331
882.30 1.699178
882.40 1.699025
882.50 1.698871
882.60 1.698718
882.70 1.698565
882.80 1.698412
882.90 1.698259
883.00 1.698106
883.10 1.697953
883.20 1.6978
883.30 1.697647
883.40 1.697494
883.50 1.697341
883.60 1.697188
883.70 1.697035
883.80 1.696882
883.90 1.696729
884.00 1.696565
884.10 1.696397
884.20 1.69623
884.30 1.696063
884.40 1.695896
884.50 1.695729
884.60 1.695562
884.70 1.695395
884.80 1.695228
884.90 1.695061
885.00 1.694894
885.10 1.694728
885.20 1.694561
885.30 1.694394
885.40 1.694227
885.50 1.694061
885.60 1.693894
885.70 1.693727
885.80 1.693561
885.90 1.693394
886.00 1.693227
886.10 1.693061
886.20 1.692894
886.30 1.692728
886.40 1.692562
886.50 1.692395
886.60 1.692229
886.70 1.692063
886.80 1.691896
886.90 1.69173
887.00 1.691564
887.10 1.691398
887.20 1.691231
887.30 1.691065
887.40 1.690899
887.50 1.690733
887.60 1.690567
887.70 1.690401
887.80 1.690235
887.90 1.690069
888.00 1.689903
888.10 1.689737
888.20 1.689572
888.30 1.689406
888.40 1.689232
888.50 1.689057
888.60 1.688882
888.70 1.688707
888.80 1.688532
888.90 1.688357
889.00 1.688183
889.10 1.688008
889.20 1.687833
889.30 1.687658
889.40 1.687484
889.50 1.687309
889.60 1.687135
889.70 1.68696
889.80 1.686786
889.90 1.686611
890.00 1.686437
890.10 1.686262
890.20 1.686088
890.30 1.685914
890.40 1.685739
890.50 1.685565
890.60 1.685391
890.70 1.685217
890.80 1.685042
890.90 1.684868
891.00 1.684694
891.10 1.68452
891.20 1.684346
891.30 1.684172
891.40 1.683998
891.50 1.683824
891.60 1.68365
891.70 1.683477
891.80 1.683303
891.90 1.683129
892.00 1.682955
892.10 1.682782
892.20 1.682608
892.30 1.682434
892.40 1.682261
892.50 1.682087
892.60 1.681914
892.70 1.68174
892.80 1.681567
892.90 1.681393
893.00 1.68122
893.10 1.681047
893.20 1.680874
893.30 1.6807
893.40 1.680527
893.50 1.680354
893.60 1.680181
893.70 1.680008
893.80 1.679834
893.90 1.679661
894.00 1.679488
894.10 1.679315
894.20 1.679142
894.30 1.67897
894.40 1.678797
894.50 1.678624
894.60 1.678451
894.70 1.678278
894.80 1.678106
894.90 1.677933
895.00 1.67776
895.10 1.677588
895.20 1.677415
895.30 1.677242
895.40 1.67707
895.50 1.676897
895.60 1.676725
895.70 1.676553
895.80 1.67638
895.90 1.676208
896.00 1.676036
896.10 1.675863
896.20 1.675691
896.30 1.675519
896.40 1.675347
896.50 1.675175
896.60 1.675002
896.70 1.67483
896.80 1.674658
896.90 1.674486
897.00 1.674314
897.10 1.674143
897.20 1.673971
897.30 1.673804
897.40 1.673637
897.50 1.67347
897.60 1.673303
897.70 1.673136
897.80 1.672969
897.90 1.672803
898.00 1.672636
898.10 1.672469
898.20 1.672303
898.30 1.672136
898.40 1.671969
898.50 1.671803
898.60 1.671636
898.70 1.67147
898.80 1.671303
898.90 1.671137
899.00 1.67097
899.10 1.670804
899.20 1.670638
899.30 1.670471
899.40 1.670305
899.50 1.670139
899.60 1.669972
899.70 1.669806
899.80 1.66964
899.90 1.669474
900.00 1.669308
900.10 1.669142
900.20 1.668976
900.30 1.66881
900.40 1.668644
900.50 1.668478
900.60 1.668312
900.70 1.668146
900.80 1.66798
900.90 1.667815
901.00 1.667649
901.10 1.667483
901.20 1.667317
901.30 1.667152
901.40 1.666986
901.50 1.66682
901.60 1.666655
901.70 1.666487
901.80 1.666308
901.90 1.666129
902.00 1.66595
902.10 1.665771
902.20 1.665592
902.30 1.665413
902.40 1.665234
902.50 1.665055
902.60 1.664876
902.70 1.664697
902.80 1.664519
902.90 1.66434
903.00 1.664161
903.10 1.663983
903.20 1.663804
903.30 1.663626
903.40 1.663447
903.50 1.663269
903.60 1.66309
903.70 1.662912
903.80 1.662734
903.90 1.662555
904.00 1.662377
904.10 1.662199
904.20 1.662021
904.30 1.661842
904.40 1.661664
904.50 1.661486
904.60 1.661308
904.70 1.66113
904.80 1.660952
904.90 1.660774
905.00 1.660596
905.10 1.660419
905.20 1.660241
905.30 1.660063
905.40 1.659885
905.50 1.659708
905.60 1.65953
905.70 1.659352
905.80 1.659175
905.90 1.658997
906.00 1.65882
906.10 1.658642
906.20 1.658464
906.30 1.658285
906.40 1.658106
906.50 1.657926
906.60 1.657747
906.70 1.657568
906.80 1.657389
906.90 1.65721
907.00 1.657031
907.10 1.656852
907.20 1.656673
907.30 1.656494
907.40 1.656316
907.50 1.656137
907.60 1.655958
907.70 1.655779
907.80 1.655601
907.90 1.655422
908.00 1.655243
908.10 1.655065
908.20 1.654886
908.30 1.654708
908.40 1.654529
908.50 1.654351
908.60 1.654172
908.70 1.653994
908.80 1.653816
908.90 1.653638
909.00 1.653459
909.10 1.653281
909.20 1.653103
909.30 1.652925
909.40 1.652747
909.50 1.652569
909.60 1.652391
909.70 1.652213
909.80 1.652035
909.90 1.651857
910.00 1.651679
910.10 1.651501
910.20 1.651324
910.30 1.651146
910.40 1.650968
910.50 1.650791
910.60 1.650613
910.70 1.650435
910.80 1.650258
910.90 1.65008
911.00 1.649903
911.10 1.649725
911.20 1.649548
911.30 1.649371
911.40 1.649193
911.50 1.649016
911.60 1.648839
911.70 1.648662
911.80 1.648485
911.90 1.648307
912.00 1.64813
912.10 1.647953
912.20 1.647776
912.30 1.647599
912.40 1.647422
912.50 1.647246
912.60 1.647069
912.70 1.646892
912.80 1.646715
912.90 1.646538
913.00 1.646362
913.10 1.646185
913.20 1.646008
913.30 1.645832
913.40 1.645655
913.50 1.645479
913.60 1.645302
913.70 1.645126
913.80 1.644949
913.90 1.644773
914.00 1.644597
914.10 1.644421
914.20 1.644244
914.30 1.644068
914.40 1.643892
914.50 1.643716
914.60 1.64354
914.70 1.643364
914.80 1.643188
914.90 1.643012
915.00 1.642836
915.10 1.64266
915.20 1.642484
915.30 1.642307
915.40 1.642129
915.50 1.641952
915.60 1.641774
915.70 1.641597
915.80 1.641419
915.90 1.641242
916.00 1.641064
916.10 1.640887
916.20 1.64071
916.30 1.640533
916.40 1.640355
916.50 1.640178
916.60 1.640001
916.70 1.639824
916.80 1.639647
916.90 1.63947
917.00 1.639293
917.10 1.639116
917.20 1.638939
917.30 1.638762
917.40 1.638585
917.50 1.638409
917.60 1.638232
917.70 1.638055
917.80 1.637879
917.90 1.637702
918.00 1.637525
918.10 1.637349
918.20 1.637172
918.30 1.636996
918.40 1.636819
918.50 1.636643
918.60 1.636467
918.70 1.63629
918.80 1.636114
918.90 1.635938
919.00 1.635761
919.10 1.635585
919.20 1.635409
919.30 1.635233
919.40 1.635057
919.50 1.634881
919.60 1.634705
919.70 1.634529
919.80 1.634353
919.90 1.634165
920.00 1.633977
920.10 1.633788
920.20 1.633599
920.30 1.633411
920.40 1.633222
920.50 1.633034
920.60 1.632846
920.70 1.632657
920.80 1.632469
920.90 1.632281
921.00 1.632092
921.10 1.631904
921.20 1.631716
921.30 1.631528
921.40 1.63134
921.50 1.631152
921.60 1.630964
921.70 1.630776
921.80 1.630588
921.90 1.6304
922.00 1.630213
922.10 1.630025
922.20 1.629837
922.30 1.62965
922.40 1.629462
922.50 1.629274
922.60 1.629087
922.70 1.628899
922.80 1.628712
922.90 1.628525
923.00 1.628337
923.10 1.62815
923.20 1.627963
923.30 1.627775
923.40 1.627588
923.50 1.627401
923.60 1.627214
923.70 1.627027
923.80 1.62684
923.90 1.626653
924.00 1.626466
924.10 1.626279
924.20 1.626092
924.30 1.625905
924.40 1.625718
924.50 1.62553
924.60 1.625342
924.70 1.625153
924.80 1.624965
924.90 1.624777
925.00 1.624589
925.10 1.624401
925.20 1.624213
925.30 1.624025
925.40 1.623837
925.50 1.623649
925.60 1.623461
925.70 1.623273
925.80 1.623085
925.90 1.622898
926.00 1.62271
926.10 1.622522
926.20 1.622335
926.30 1.622147
926.40 1.62196
926.50 1.621772
926.60 1.621585
926.70 1.621397
926.80 1.62121
926.90 1.621023
927.00 1.620835
927.10 1.620648
927.20 1.620461
927.30 1.620274
927.40 1.620087
927.50 1.6199
927.60 1.619713
927.70 1.619526
927.80 1.619339
927.90 1.619152
928.00 1.618965
928.10 1.618778
928.20 1.618591
928.30 1.618405
928.40 1.618218
928.50 1.618031
928.60 1.617845
928.70 1.617658
928.80 1.617472
928.90 1.617285
929.00 1.617099
929.10 1.616913
929.20 1.616726
929.30 1.61654
929.40 1.616354
929.50 1.616168
929.60 1.615981
929.70 1.615795
929.80 1.615609
929.90 1.615423
930.00 1.615237
930.10 1.615051
930.20 1.614865
930.30 1.614679
930.40 1.614494
930.50 1.614308
930.60 1.614122
930.70 1.613936
930.80 1.613751
930.90 1.613565
931.00 1.61338
931.10 1.613194
931.20 1.613009
931.30 1.612823
931.40 1.612638
931.50 1.612453
931.60 1.612267
931.70 1.612082
931.80 1.611897
931.90 1.611712
932.00 1.611526
932.10 1.611341
932.20 1.611156
932.30 1.610971
932.40 1.610786
932.50 1.610601
932.60 1.610416
932.70 1.610232
932.80 1.610047
932.90 1.609862
933.00 1.609677
933.10 1.609493
933.20 1.609308
933.30 1.609124
933.40 1.608939
933.50 1.608754
933.60 1.60857
933.70 1.60838
933.80 1.608188
933.90 1.607996
934.00 1.607804
934.10 1.607612
934.20 1.60742
934.30 1.607228
934.40 1.607037
934.50 1.606845
934.60 1.606653
934.70 1.606461
934.80 1.60627
934.90 1.606078
935.00 1.605887
935.10 1.605695
935.20 1.605504
935.30 1.605313
935.40 1.605121
935.50 1.60493
935.60 1.604739
935.70 1.604548
935.80 1.604356
935.90 1.604165
936.00 1.603974
936.10 1.603783
936.20 1.603592
936.30 1.603401
936.40 1.603211
936.50 1.60302
936.60 1.602829
936.70 1.602638
936.80 1.602447
936.90 1.602257
937.00 1.602066
937.10 1.601876
937.20 1.601685
937.30 1.601495
937.40 1.601304
937.50 1.601114
937.60 1.600924
937.70 1.600733
937.80 1.600543
937.90 1.600353
938.00 1.600163
938.10 1.599973
938.20 1.599782
938.30 1.599592
938.40 1.599402
938.50 1.599213
938.60 1.599023
938.70 1.598833
938.80 1.598643
938.90 1.598453
939.00 1.598264
939.10 1.598074
939.20 1.597884
939.30 1.597695
939.40 1.597505
939.50 1.597316
939.60 1.597126
939.70 1.596937
939.80 1.596747
939.90 1.596558
940.00 1.596369
940.10 1.59618
940.20 1.59599
940.30 1.595801
940.40 1.595612
940.50 1.595423
940.60 1.595234
940.70 1.595045
940.80 1.594856
940.90 1.594667
941.00 1.594479
941.10 1.59429
941.20 1.594101
941.30 1.593912
941.40 1.593724
941.50 1.593535
941.60 1.593347
941.70 1.593158
941.80 1.59297
941.90 1.592781
942.00 1.592593
942.10 1.592405
942.20 1.592216
942.30 1.592028
942.40 1.59184
942.50 1.591652
942.60 1.591464
942.70 1.591275
942.80 1.591087
942.90 1.590899
943.00 1.590709
943.10 1.590513
943.20 1.590318
943.30 1.590123
943.40 1.589928
943.50 1.589733
943.60 1.589538
943.70 1.589343
943.80 1.589148
943.90 1.588953
944.00 1.588758
944.10 1.588563
944.20 1.588368
944.30 1.588173
944.40 1.587979
944.50 1.587784
944.60 1.58759
944.70 1.587395
944.80 1.5872
944.90 1.587006
945.00 1.586812
945.10 1.586617
945.20 1.586423
945.30 1.586229
945.40 1.586034
945.50 1.58584
945.60 1.585646
945.70 1.585452
945.80 1.585258
945.90 1.585064
946.00 1.58487
946.10 1.584676
946.20 1.584482
946.30 1.584288
946.40 1.584095
946.50 1.583901
946.60 1.583707
946.70 1.583514
946.80 1.58332
946.90 1.583127
947.00 1.582933
947.10 1.58274
947.20 1.582546
947.30 1.582353
947.40 1.58216
947.50 1.581966
947.60 1.581773
947.70 1.58158
947.80 1.581387
947.90 1.581194
948.00 1.581001
948.10 1.580808
948.20 1.580615
948.30 1.580422
948.40 1.580229
948.50 1.580037
948.60 1.579844
948.70 1.579651
948.80 1.579458
948.90 1.579266
949.00 1.579073
949.10 1.578881
949.20 1.578688
949.30 1.578496
949.40 1.578304
949.50 1.578111
949.60 1.577919
949.70 1.577727
949.80 1.577535
949.90 1.577342
950.00 1.57715
950.10 1.576958
950.20 1.576766
950.30 1.576574
950.40 1.576382
950.50 1.576191
950.60 1.575999
950.70 1.575807
950.80 1.575615
950.90 1.575424
951.00 1.575232
951.10 1.57504
951.20 1.574849
951.30 1.574657
951.40 1.574466
951.50 1.574274
951.60 1.574083
951.70 1.573892
951.80 1.5737
951.90 1.573509
952.00 1.573318
952.10 1.573127
952.20 1.572936
952.30 1.572745
952.40 1.572554
952.50 1.572361
952.60 1.572169
952.70 1.571977
952.80 1.571785
952.90 1.571593
953.00 1.5714
953.10 1.571208
953.20 1.571016
953.30 1.570824
953.40 1.570633
953.50 1.570441
953.60 1.570249
953.70 1.570057
953.80 1.569865
953.90 1.569674
954.00 1.569482
954.10 1.56929
954.20 1.569099
954.30 1.568907
954.40 1.568716
954.50 1.568525
954.60 1.568333
954.70 1.568142
954.80 1.567951
954.90 1.567759
955.00 1.567568
955.10 1.567377
955.20 1.567186
955.30 1.566995
955.40 1.566804
955.50 1.566613
955.60 1.566422
955.70 1.566231
955.80 1.56604
955.90 1.56585
956.00 1.565659
956.10 1.565468
956.20 1.565278
956.30 1.565087
956.40 1.564896
956.50 1.564706
956.60 1.564516
956.70 1.564325
956.80 1.564135
956.90 1.563944
957.00 1.563754
957.10 1.563564
957.20 1.563374
957.30 1.563184
957.40 1.562994
957.50 1.562804
957.60 1.562614
957.70 1.562424
957.80 1.562234
957.90 1.562044
958.00 1.561854
958.10 1.561664
958.20 1.561475
958.30 1.561285
958.40 1.561095
958.50 1.560906
958.60 1.560716
958.70 1.560527
958.80 1.560337
958.90 1.560148
959.00 1.559958
959.10 1.559769
959.20 1.55958
959.30 1.559391
959.40 1.559201
959.50 1.559012
959.60 1.558823
959.70 1.558634
959.80 1.558445
959.90 1.558256
960.00 1.558067
960.10 1.557878
960.20 1.55769
960.30 1.557501
960.40 1.557312
960.50 1.557123
960.60 1.556935
960.70 1.556746
960.80 1.556558
960.90 1.556369
961.00 1.556181
961.10 1.555992
961.20 1.555804
961.30 1.555615
961.40 1.555427
961.50 1.555239
961.60 1.555051
961.70 1.554863
961.80 1.554674
961.90 1.554486
962.00 1.554288
962.10 1.554087
962.20 1.553887
962.30 1.553687
962.40 1.553486
962.50 1.553286
962.60 1.553086
962.70 1.552886
962.80 1.552686
962.90 1.552486
963.00 1.552286
963.10 1.552086
963.20 1.551886
963.30 1.551686
963.40 1.551486
963.50 1.551286
963.60 1.551087
963.70 1.550887
963.80 1.550687
963.90 1.550488
964.00 1.550288
964.10 1.550089
964.20 1.549889
964.30 1.54969
964.40 1.549491
964.50 1.549291
964.60 1.549092
964.70 1.548893
964.80 1.548694
964.90 1.548495
965.00 1.548296
965.10 1.548097
965.20 1.547898
965.30 1.547699
965.40 1.5475
965.50 1.547302
965.60 1.547103
965.70 1.546904
965.80 1.546706
965.90 1.546507
966.00 1.546308
966.10 1.54611
966.20 1.545911
966.30 1.545713
966.40 1.545515
966.50 1.545317
966.60 1.545118
966.70 1.54492
966.80 1.544722
966.90 1.544524
967.00 1.544326
967.10 1.544128
967.20 1.54393
967.30 1.543732
967.40 1.543534
967.50 1.543336
967.60 1.543139
967.70 1.542941
967.80 1.542743
967.90 1.542546
968.00 1.542348
968.10 1.542151
968.20 1.541953
968.30 1.541756
968.40 1.541558
968.50 1.541361
968.60 1.541164
968.70 1.540967
968.80 1.54077
968.90 1.540572
969.00 1.540375
969.10 1.540178
969.20 1.539981
969.30 1.539784
969.40 1.539588
969.50 1.539391
969.60 1.539194
969.70 1.538997
969.80 1.538801
969.90 1.538604
970.00 1.538407
970.10 1.538211
970.20 1.538014
970.30 1.537818
970.40 1.537622
970.50 1.537425
970.60 1.537229
970.70 1.537033
970.80 1.536836
970.90 1.53664
971.00 1.536444
971.10 1.536248
971.20 1.536052
971.30 1.535856
971.40 1.53566
971.50 1.535464
971.60 1.535264
971.70 1.535062
971.80 1.53486
971.90 1.534657
972.00 1.534455
972.10 1.534253
972.20 1.534051
972.30 1.533849
972.40 1.533647
972.50 1.533445
972.60 1.533243
972.70 1.533041
972.80 1.532839
972.90 1.532638
973.00 1.532436
973.10 1.532234
973.20 1.532033
973.30 1.531831
973.40 1.53163
973.50 1.531428
973.60 1.531227
973.70 1.531026
973.80 1.530824
973.90 1.530623
974.00 1.530422
974.10 1.530221
974.20 1.53002
974.30 1.529819
974.40 1.529618
974.50 1.529417
974.60 1.529216
974.70 1.529015
974.80 1.528814
974.90 1.528613
975.00 1.528413
975.10 1.528212
975.20 1.528011
975.30 1.527811
975.40 1.52761
975.50 1.52741
975.60 1.52721
975.70 1.527009
975.80 1.526809
975.90 1.526609
976.00 1.526409
976.10 1.526208
976.20 1.526008
976.30 1.525808
976.40 1.525608
976.50 1.525408
976.60 1.525208
976.70 1.525009
976.80 1.524809
976.90 1.524609
977.00 1.524409
977.10 1.52421
977.20 1.52401
977.30 1.523811
977.40 1.523611
977.50 1.523412
977.60 1.523212
977.70 1.523013
977.80 1.522814
977.90 1.522614
978.00 1.522415
978.10 1.522216
978.20 1.522017
978.30 1.521818
978.40 1.521619
978.50 1.52142
978.60 1.521221
978.70 1.521022
978.80 1.520823
978.90 1.520625
979.00 1.520426
979.10 1.520227
979.20 1.520029
979.30 1.51983
979.40 1.519632
979.50 1.519433
979.60 1.519235
979.70 1.519036
979.80 1.518838
979.90 1.51864
980.00 1.518442
980.10 1.518244
980.20 1.518045
980.30 1.517847
980.40 1.517649
980.50 1.517451
980.60 1.517254
980.70 1.517056
980.80 1.516858
980.90 1.51666
981.00 1.516462
981.10 1.516265
981.20 1.516067
981.30 1.515869
981.40 1.51567
981.50 1.515472
981.60 1.515273
981.70 1.515075
981.80 1.514876
981.90 1.514678
982.00 1.51448
982.10 1.514281
982.20 1.514083
982.30 1.513885
982.40 1.513687
982.50 1.513489
982.60 1.513291
982.70 1.513093
982.80 1.512895
982.90 1.512697
983.00 1.512499
983.10 1.512301
983.20 1.512104
983.30 1.511906
983.40 1.511708
983.50 1.511511
983.60 1.511313
983.70 1.511116
983.80 1.510918
983.90 1.510721
984.00 1.510523
984.10 1.510326
984.20 1.510129
984.30 1.509932
984.40 1.509734
984.50 1.509537
984.60 1.50934
984.70 1.509143
984.80 1.508946
984.90 1.508749
985.00 1.508553
985.10 1.508356
985.20 1.508159
985.30 1.507962
985.40 1.507766
985.50 1.507569
985.60 1.507372
985.70 1.507176
985.80 1.506979
985.90 1.506783
986.00 1.506587
986.10 1.50639
986.20 1.506194
986.30 1.505998
986.40 1.505802
986.50 1.505606
986.60 1.505409
986.70 1.505213
986.80 1.505017
986.90 1.504822
987.00 1.504626
987.10 1.50443
987.20 1.504234
987.30 1.504038
987.40 1.503843
987.50 1.503647
987.60 1.503451
987.70 1.503256
987.80 1.50306
987.90 1.502865
988.00 1.502669
988.10 1.502474
988.20 1.502279
988.30 1.502084
988.40 1.501888
988.50 1.501693
988.60 1.501498
988.70 1.501303
988.80 1.501108
988.90 1.500913
989.00 1.500718
989.10 1.500523
989.20 1.500328
989.30 1.500134
989.40 1.499939
989.50 1.499744
989.60 1.49955
989.70 1.499355
989.80 1.49916
989.90 1.498966
990.00 1.498772
990.10 1.498577
990.20 1.498383
990.30 1.498189
990.40 1.497994
990.50 1.4978
990.60 1.497606
990.70 1.497412
990.80 1.497218
990.90 1.497024
991.00 1.49683
991.10 1.49663
991.20 1.49642
991.30 1.496209
991.40 1.495999
991.50 1.495789
991.60 1.495579
991.70 1.495369
991.80 1.495159
991.90 1.49495
992.00 1.49474
992.10 1.49453
992.20 1.49432
992.30 1.494111
992.40 1.493901
992.50 1.493692
992.60 1.493482
992.70 1.493273
992.80 1.493064
992.90 1.492854
993.00 1.492645
993.10 1.492436
993.20 1.492227
993.30 1.492018
993.40 1.491809
993.50 1.4916
993.60 1.491391
993.70 1.491182
993.80 1.490973
993.90 1.490764
994.00 1.490556
994.10 1.490347
994.20 1.490138
994.30 1.48993
994.40 1.489721
994.50 1.489513
994.60 1.489305
994.70 1.489096
994.80 1.488888
994.90 1.48868
995.00 1.488472
995.10 1.488264
995.20 1.488055
995.30 1.487847
995.40 1.48764
995.50 1.487432
995.60 1.487224
995.70 1.487016
995.80 1.486808
995.90 1.486601
996.00 1.486393
996.10 1.486194
996.20 1.485996
996.30 1.485799
996.40 1.485601
996.50 1.485404
996.60 1.485207
996.70 1.48501
996.80 1.484813
996.90 1.484615
997.00 1.484418
997.10 1.484221
997.20 1.484024
997.30 1.483828
997.40 1.483631
997.50 1.483434
997.60 1.483237
997.70 1.48304
997.80 1.482844
997.90 1.482647
998.00 1.482451
998.10 1.482254
998.20 1.482058
998.30 1.481861
998.40 1.481665
998.50 1.481468
998.60 1.481272
998.70 1.481076
998.80 1.48088
998.90 1.480684
999.00 1.480488
999.10 1.480292
999.20 1.480096
999.30 1.4799
999.40 1.479704
999.50 1.479508
999.60 1.479312
999.70 1.479116
999.80 1.478921
999.90 1.478725
1000.00 1.47853
1000.10 1.478334
1000.20 1.478139
1000.30 1.477943
1000.40 1.477748
1000.50 1.477552
1000.60 1.477357
1000.70 1.477162
1000.80 1.476967
1000.90 1.476771
1001.00 1.476574
1001.10 1.476368
1001.20 1.476162
1001.30 1.475956
1001.40 1.47575
1001.50 1.475544
1001.60 1.475339
1001.70 1.475133
1001.80 1.474928
1001.90 1.474722
1002.00 1.474517
1002.10 1.474311
1002.20 1.474106
1002.30 1.473901
1002.40 1.473695
1002.50 1.47349
1002.60 1.473285
1002.70 1.47308
1002.80 1.472875
1002.90 1.47267
1003.00 1.472465
1003.10 1.47226
1003.20 1.472055
1003.30 1.471851
1003.40 1.471646
1003.50 1.471441
1003.60 1.471237
1003.70 1.471032
1003.80 1.470828
1003.90 1.470623
1004.00 1.470419
1004.10 1.470214
1004.20 1.47001
1004.30 1.469806
1004.40 1.469602
1004.50 1.469397
1004.60 1.469193
1004.70 1.468989
1004.80 1.468785
1004.90 1.468581
1005.00 1.468378
1005.10 1.468174
1005.20 1.46797
1005.30 1.467766
1005.40 1.467563
1005.50 1.467359
1005.60 1.467155
1005.70 1.466952
1005.80 1.466748
1005.90 1.466545
1006.00 1.466344
1006.10 1.46615
1006.20 1.465957
1006.30 1.465763
1006.40 1.46557
1006.50 1.465377
1006.60 1.465183
1006.70 1.46499
1006.80 1.464797
1006.90 1.464604
1007.00 1.464411
1007.10 1.464218
1007.20 1.464025
1007.30 1.463832
1007.40 1.463639
1007.50 1.463446
1007.60 1.463254
1007.70 1.463061
1007.80 1.462868
1007.90 1.462675
1008.00 1.462483
1008.10 1.46229
1008.20 1.462098
1008.30 1.461905
1008.40 1.461713
1008.50 1.461521
1008.60 1.461328
1008.70 1.461136
1008.80 1.460944
1008.90 1.460752
1009.00 1.46056
1009.10 1.460368
1009.20 1.460176
1009.30 1.459984
1009.40 1.459792
1009.50 1.4596
1009.60 1.459408
1009.70 1.459216
1009.80 1.459025
1009.90 1.458833
1010.00 1.458641
1010.10 1.45845
1010.20 1.458258
1010.30 1.458067
1010.40 1.457875
1010.50 1.457684
1010.60 1.457492
1010.70 1.457301
1010.80 1.45711
1010.90 1.456919
1011.00 1.456724
1011.10 1.456513
1011.20 1.456301
1011.30 1.45609
1011.40 1.455879
1011.50 1.455668
1011.60 1.455457
1011.70 1.455246
1011.80 1.455035
1011.90 1.454824
1012.00 1.454613
1012.10 1.454403
1012.20 1.454192
1012.30 1.453981
1012.40 1.453771
1012.50 1.45356
1012.60 1.45335
1012.70 1.453139
1012.80 1.452929
1012.90 1.452719
1013.00 1.452508
1013.10 1.452298
1013.20 1.452088
1013.30 1.451878
1013.40 1.451668
1013.50 1.451458
1013.60 1.451248
1013.70 1.451038
1013.80 1.450828
1013.90 1.450619
1014.00 1.450409
1014.10 1.450199
1014.20 1.44999
1014.30 1.44978
1014.40 1.449571
1014.50 1.449361
1014.60 1.449152
1014.70 1.448942
1014.80 1.448733
1014.90 1.448524
1015.00 1.448315
1015.10 1.448106
1015.20 1.447897
1015.30 1.447688
1015.40 1.447479
1015.50 1.44727
1015.60 1.447061
1015.70 1.446852
1015.80 1.446643
1015.90 1.446435
1016.00 1.446226
1016.10 1.446023
1016.20 1.445824
1016.30 1.445625
1016.40 1.445426
1016.50 1.445228
1016.60 1.445029
1016.70 1.44483
1016.80 1.444631
1016.90 1.444433
1017.00 1.444234
1017.10 1.444036
1017.20 1.443837
1017.30 1.443639
1017.40 1.44344
1017.50 1.443242
1017.60 1.443043
1017.70 1.442845
1017.80 1.442647
1017.90 1.442449
1018.00 1.442251
1018.10 1.442053
1018.20 1.441855
1018.30 1.441657
1018.40 1.441459
1018.50 1.441261
1018.60 1.441063
1018.70 1.440865
1018.80 1.440668
1018.90 1.44047
1019.00 1.440272
1019.10 1.440075
1019.20 1.439877
1019.30 1.43968
1019.40 1.439482
1019.50 1.439285
1019.60 1.439088
1019.70 1.438891
1019.80 1.438693
1019.90 1.438496
1020.00 1.438299
1020.10 1.438102
1020.20 1.437905
1020.30 1.437708
1020.40 1.437511
1020.50 1.437314
1020.60 1.437117
1020.70 1.436921
1020.80 1.436724
1020.90 1.436527
1021.00 1.436331
1021.10 1.436134
1021.20 1.435937
1021.30 1.435739
1021.40 1.435542
1021.50 1.435345
1021.60 1.435148
1021.70 1.434951
1021.80 1.434754
1021.90 1.434557
1022.00 1.43436
1022.10 1.434163
1022.20 1.433966
1022.30 1.433769
1022.40 1.433572
1022.50 1.433375
1022.60 1.433179
1022.70 1.432982
1022.80 1.432786
1022.90 1.432589
1023.00 1.432393
1023.10 1.432196
1023.20 1.432
1023.30 1.431804
1023.40 1.431607
1023.50 1.431411
1023.60 1.431215
1023.70 1.431019
1023.80 1.430823
1023.90 1.430627
1024.00 1.430431
1024.10 1.430235
1024.20 1.430039
1024.30 1.429843
1024.40 1.429647
1024.50 1.429452
1024.60 1.429256
1024.70 1.42906
1024.80 1.428865
1024.90 1.428669
1025.00 1.428474
1025.10 1.428278
1025.20 1.428083
1025.30 1.427887
1025.40 1.427692
1025.50 1.427497
1025.60 1.427302
1025.70 1.427107
1025.80 1.426911
1025.90 1.426716
1026.00 1.426521
1026.10 1.426326
1026.20 1.426131
1026.30 1.425927
1026.40 1.425723
1026.50 1.425519
1026.60 1.425316
1026.70 1.425112
1026.80 1.424908
1026.90 1.424704
1027.00 1.4245
1027.10 1.424297
1027.20 1.424093
1027.30 1.42389
1027.40 1.423686
1027.50 1.423483
1027.60 1.423279
1027.70 1.423076
1027.80 1.422873
1027.90 1.42267
1028.00 1.422466
1028.10 1.422263
1028.20 1.42206
1028.30 1.421857
1028.40 1.421654
1028.50 1.421451
1028.60 1.421248
1028.70 1.421046
1028.80 1.420843
1028.90 1.42064
1029.00 1.420438
1029.10 1.420235
1029.20 1.420032
1029.30 1.41983
1029.40 1.419627
1029.50 1.419425
1029.60 1.419223
1029.70 1.41902
1029.80 1.418818
1029.90 1.418616
1030.00 1.418414
1030.10 1.418212
1030.20 1.41801
1030.30 1.417808
1030.40 1.417606
1030.50 1.417404
1030.60 1.417202
1030.70 1.417
1030.80 1.416799
1030.90 1.416597
1031.00 1.416395
1031.10 1.416194
1031.20 1.415992
1031.30 1.415791
1031.40 1.415589
1031.50 1.415387
1031.60 1.415185
1031.70 1.414983
1031.80 1.414781
1031.90 1.414579
1032.00 1.414377
1032.10 1.414175
1032.20 1.413973
1032.30 1.413772
1032.40 1.41357
1032.50 1.413368
1032.60 1.413167
1032.70 1.412965
1032.80 1.412764
1032.90 1.412563
1033.00 1.412361
1033.10 1.41216
1033.20 1.411959
1033.30 1.411758
1033.40 1.411557
1033.50 1.411355
1033.60 1.411154
1033.70 1.410954
1033.80 1.410753
1033.90 1.410552
1034.00 1.410351
1034.10 1.41015
1034.20 1.409949
1034.30 1.409749
1034.40 1.409548
1034.50 1.409348
1034.60 1.409147
1034.70 1.408947
1034.80 1.408746
1034.90 1.408546
1035.00 1.408346
1035.10 1.408145
1035.20 1.407945
1035.30 1.407745
1035.40 1.407545
1035.50 1.407345
1035.60 1.407145
1035.70 1.406945
1035.80 1.406745
1035.90 1.406545
1036.00 1.406346
1036.10 1.406146
1036.20 1.405946
1036.30 1.405746
1036.40 1.405547
1036.50 1.405344
1036.60 1.405135
1036.70 1.404927
1036.80 1.404719
1036.90 1.40451
1037.00 1.404302
1037.10 1.404094
1037.20 1.403886
1037.30 1.403678
1037.40 1.40347
1037.50 1.403262
1037.60 1.403054
1037.70 1.402846
1037.80 1.402639
1037.90 1.402431
1038.00 1.402223
1038.10 1.402016
1038.20 1.401808
1038.30 1.401601
1038.40 1.401393
1038.50 1.401186
1038.60 1.400978
1038.70 1.400771
1038.80 1.400564
1038.90 1.400357
1039.00 1.400149
1039.10 1.399942
1039.20 1.399735
1039.30 1.399528
1039.40 1.399322
1039.50 1.399115
1039.60 1.398908
1039.70 1.398701
1039.80 1.398494
1039.90 1.398288
1040.00 1.398081
1040.10 1.397875
1040.20 1.397668
1040.30 1.397462
1040.40 1.397255
1040.50 1.397049
1040.60 1.396843
1040.70 1.396637
1040.80 1.39643
1040.90 1.396224
1041.00 1.396018
1041.10 1.395812
1041.20 1.395606
1041.30 1.3954
1041.40 1.395195
1041.50 1.394989
1041.60 1.394783
1041.70 1.394584
1041.80 1.394387
1041.90 1.394189
1042.00 1.393992
1042.10 1.393794
1042.20 1.393597
1042.30 1.3934
1042.40 1.393203
1042.50 1.393006
1042.60 1.392809
1042.70 1.392612
1042.80 1.392415
1042.90 1.392218
1043.00 1.392021
1043.10 1.391824
1043.20 1.391627
1043.30 1.391431
1043.40 1.391234
1043.50 1.391037
1043.60 1.390841
1043.70 1.390644
1043.80 1.390448
1043.90 1.390251
1044.00 1.390055
1044.10 1.389859
1044.20 1.389662
1044.30 1.389466
1044.40 1.38927
1044.50 1.389074
1044.60 1.388878
1044.70 1.388682
1044.80 1.388486
1044.90 1.38829
1045.00 1.388094
1045.10 1.387898
1045.20 1.387702
1045.30 1.387507
1045.40 1.387311
1045.50 1.387115
1045.60 1.38692
1045.70 1.386724
1045.80 1.386529
1045.90 1.386333
1046.00 1.386138
1046.10 1.385943
1046.20 1.385747
1046.30 1.385552
1046.40 1.385357
1046.50 1.385162
1046.60 1.384967
1046.70 1.384772
1046.80 1.384577
1046.90 1.384375
1047.00 1.384172
1047.10 1.383968
1047.20 1.383765
1047.30 1.383561
1047.40 1.383358
1047.50 1.383154
1047.60 1.382951
1047.70 1.382748
1047.80 1.382545
1047.90 1.382342
1048.00 1.382139
1048.10 1.381936
1048.20 1.381733
1048.30 1.38153
1048.40 1.381327
1048.50 1.381124
1048.60 1.380921
1048.70 1.380719
1048.80 1.380516
1048.90 1.380314
1049.00 1.380111
1049.10 1.379909
1049.20 1.379706
1049.30 1.379504
1049.40 1.379301
1049.50 1.379099
1049.60 1.378897
1049.70 1.378695
1049.80 1.378493
1049.90 1.378291
1050.00 1.378089
1050.10 1.377887
1050.20 1.377685
1050.30 1.377483
1050.40 1.377281
1050.50 1.377079
1050.60 1.376878
1050.70 1.376676
1050.80 1.376474
1050.90 1.376273
1051.00 1.376071
1051.10 1.37587
1051.20 1.375668
1051.30 1.375467
1051.40 1.375266
1051.50 1.375065
1051.60 1.374863
1051.70 1.374662
1051.80 1.374461
1051.90 1.37426
1052.00 1.374059
1052.10 1.373858
1052.20 1.373656
1052.30 1.373455
1052.40 1.373254
1052.50 1.373052
1052.60 1.372851
1052.70 1.37265
1052.80 1.372449
1052.90 1.372248
1053.00 1.372046
1053.10 1.371845
1053.20 1.371644
1053.30 1.371444
1053.40 1.371243
1053.50 1.371042
1053.60 1.370841
1053.70 1.37064
1053.80 1.37044
1053.90 1.370239
1054.00 1.370039
1054.10 1.369838
1054.20 1.369638
1054.30 1.369437
1054.40 1.369237
1054.50 1.369037
1054.60 1.368836
1054.70 1.368636
1054.80 1.368436
1054.90 1.368236
1055.00 1.368036
1055.10 1.367836
1055.20 1.367636
1055.30 1.367436
1055.40 1.367236
1055.50 1.367037
1055.60 1.366837
1055.70 1.366637
1055.80 1.366438
1055.90 1.366238
1056.00 1.366039
1056.10 1.365839
1056.20 1.36564
1056.30 1.36544
1056.40 1.365241
1056.50 1.365042
1056.60 1.364842
1056.70 1.364643
1056.80 1.364444
1056.90 1.364245
1057.00 1.364046
1057.10 1.363847
1057.20 1.363648
1057.30 1.363449
1057.40 1.363251
1057.50 1.363052
1057.60 1.362853
1057.70 1.362654
1057.80 1.362456
1057.90 1.362257
1058.00 1.362059
1058.10 1.36186
1058.20 1.361662
1058.30 1.361464
1058.40 1.361265
1058.50 1.361067
1058.60 1.360869
1058.70 1.360671
1058.80 1.360473
1058.90 1.360275
1059.00 1.360077
1059.10 1.359879
1059.20 1.359681
1059.30 1.359483
1059.40 1.359285
1059.50 1.359087
1059.60 1.35889
1059.70 1.358692
1059.80 1.358494
1059.90 1.358297
1060.00 1.358099
1060.10 1.357902
1060.20 1.357705
1060.30 1.357507
1060.40 1.35731
1060.50 1.357113
1060.60 1.356915
1060.70 1.356718
1060.80 1.356521
1060.90 1.356324
1061.00 1.356127
1061.10 1.35593
1061.20 1.355733
1061.30 1.355537
1061.40 1.35534
1061.50 1.355143
1061.60 1.354946
1061.70 1.35475
1061.80 1.354553
1061.90 1.354357
1062.00 1.35416
1062.10 1.353964
1062.20 1.353767
1062.30 1.353571
1062.40 1.353375
1062.50 1.353178
1062.60 1.352978
1062.70 1.352773
1062.80 1.352568
1062.90 1.352363
1063.00 1.352158
1063.10 1.351954
1063.20 1.351749
1063.30 1.351544
1063.40 1.35134
1063.50 1.351135
1063.60 1.350931
1063.70 1.350726
1063.80 1.350522
1063.90 1.350317
1064.00 1.350113
1064.10 1.349909
1064.20 1.349705
1064.30 1.349501
1064.40 1.349296
1064.50 1.349092
1064.60 1.348888
1064.70 1.348684
1064.80 1.348481
1064.90 1.348277
1065.00 1.348073
1065.10 1.347869
1065.20 1.347666
1065.30 1.347462
1065.40 1.347258
1065.50 1.347055
1065.60 1.346852
1065.70 1.346648
1065.80 1.346445
1065.90 1.346241
1066.00 1.346038
1066.10 1.345835
1066.20 1.345632
1066.30 1.345429
1066.40 1.345226
1066.50 1.345023
1066.60 1.34482
1066.70 1.344617
1066.80 1.344414
1066.90 1.344211
1067.00 1.344009
1067.10 1.343806
1067.20 1.343603
1067.30 1.343401
1067.40 1.343198
1067.50 1.342996
1067.60 1.342793
1067.70 1.342591
1067.80 1.342389
1067.90 1.342187
1068.00 1.341984
1068.10 1.341782
1068.20 1.34158
1068.30 1.341378
1068.40 1.341176
1068.50 1.340974
1068.60 1.340772
1068.70 1.340571
1068.80 1.340369
1068.90 1.340167
1069.00 1.339965
1069.10 1.339764
1069.20 1.339562
1069.30 1.339361
1069.40 1.339159
1069.50 1.338958
1069.60 1.338756
1069.70 1.338555
1069.80 1.338354
1069.90 1.338153
1070.00 1.337952
1070.10 1.337751
1070.20 1.337549
1070.30 1.337348
1070.40 1.337148
1070.50 1.336947
1070.60 1.336746
1070.70 1.336545
1070.80 1.336344
1070.90 1.336144
1071.00 1.335943
1071.10 1.335742
1071.20 1.335542
1071.30 1.335341
1071.40 1.335141
1071.50 1.334941
1071.60 1.33474
1071.70 1.33454
1071.80 1.33434
1071.90 1.33414
1072.00 1.33394
1072.10 1.333739
1072.20 1.333539
1072.30 1.33334
1072.40 1.33314
1072.50 1.33294
1072.60 1.33274
1072.70 1.33254
1072.80 1.33234
1072.90 1.332141
1073.00 1.331941
1073.10 1.331742
1073.20 1.331542
1073.30 1.331342
1073.40 1.331142
1073.50 1.330942
1073.60 1.330743
1073.70 1.330543
1073.80 1.330343
1073.90 1.330144
1074.00 1.329944
1074.10 1.329745
1074.20 1.329545
1074.30 1.329346
1074.40 1.329146
1074.50 1.328947
1074.60 1.328748
1074.70 1.328548
1074.80 1.328349
1074.90 1.32815
1075.00 1.327951
1075.10 1.327752
1075.20 1.327553
1075.30 1.327354
1075.40 1.327155
1075.50 1.326957
1075.60 1.326758
1075.70 1.326559
1075.80 1.32636
1075.90 1.326162
1076.00 1.325963
1076.10 1.325765
1076.20 1.325566
1076.30 1.325368
1076.40 1.32517
1076.50 1.324971
1076.60 1.324773
1076.70 1.324575
1076.80 1.324377
1076.90 1.324179
1077.00 1.323981
1077.10 1.323783
1077.20 1.323585
1077.30 1.323387
1077.40 1.323189
1077.50 1.322991
1077.60 1.322793
1077.70 1.322596
1077.80 1.322398
1077.90 1.3222
1078.00 1.322003
1078.10 1.321805
1078.20 1.321608
1078.30 1.321411
1078.40 1.321213
1078.50 1.321016
1078.60 1.320819
1078.70 1.320621
1078.80 1.320424
1078.90 1.320227
1079.00 1.32003
1079.10 1.319833
1079.20 1.319636
1079.30 1.319439
1079.40 1.319243
1079.50 1.319046
1079.60 1.318849
1079.70 1.318652
1079.80 1.318456
1079.90 1.318259
1080.00 1.318063
1080.10 1.317866
1080.20 1.31767
1080.30 1.317473
1080.40 1.317277
1080.50 1.317081
1080.60 1.316884
1080.70 1.316688
1080.80 1.316492
1080.90 1.316296
1081.00 1.3161
1081.10 1.315904
1081.20 1.315708
1081.30 1.315512
1081.40 1.315316
1081.50 1.315121
1081.60 1.314925
1081.70 1.314729
1081.80 1.314534
1081.90 1.314338
1082.00 1.314142
1082.10 1.313947
1082.20 1.313752
1082.30 1.313556
1082.40 1.313361
1082.50 1.313166
1082.60 1.31297
1082.70 1.312775
1082.80 1.31258
1082.90 1.312385
1083.00 1.31219
1083.10 1.311995
1083.20 1.3118
1083.30 1.311605
1083.40 1.31141
1083.50 1.311215
1083.60 1.311021
1083.70 1.310826
1083.80 1.310631
1083.90 1.310437
1084.00 1.310242
1084.10 1.310047
1084.20 1.309852
1084.30 1.309657
1084.40 1.309462
1084.50 1.309268
1084.60 1.309073
1084.70 1.308878
1084.80 1.308684
1084.90 1.308489
1085.00 1.308294
1085.10 1.3081
1085.20 1.307906
1085.30 1.307711
1085.40 1.307517
1085.50 1.307323
1085.60 1.307128
1085.70 1.306934
1085.80 1.30674
1085.90 1.306546
1086.00 1.306352
1086.10 1.306158
1086.20 1.305964
1086.30 1.30577
1086.40 1.305576
1086.50 1.305383
1086.60 1.305189
1086.70 1.304995
1086.80 1.304802
1086.90 1.304608
1087.00 1.304415
1087.10 1.304221
1087.20 1.304028
1087.30 1.303834
1087.40 1.303641
1087.50 1.303448
1087.60 1.303254
1087.70 1.303061
1087.80 1.302868
1087.90 1.302675
1088.00 1.302482
1088.10 1.302289
1088.20 1.302096
1088.30 1.301903
1088.40 1.30171
1088.50 1.301518
1088.60 1.301325
1088.70 1.301132
1088.80 1.300939
1088.90 1.300747
1089.00 1.300554
1089.10 1.300362
1089.20 1.300169
1089.30 1.299977
1089.40 1.299779
1089.50 1.299579
1089.60 1.299379
1089.70 1.299179
1089.80 1.29898
1089.90 1.29878
1090.00 1.29858
1090.10 1.29838
1090.20 1.298181
1090.30 1.297981
1090.40 1.297781
1090.50 1.297582
1090.60 1.297383
1090.70 1.297183
1090.80 1.296984
1090.90 1.296785
1091.00 1.296585
1091.10 1.296386
1091.20 1.296187
1091.30 1.295988
1091.40 1.295789
1091.50 1.29559
1091.60 1.295391
1091.70 1.295192
1091.80 1.294993
1091.90 1.294794
1092.00 1.294596
1092.10 1.294397
1092.20 1.294198
1092.30 1.294
1092.40 1.293801
1092.50 1.293603
1092.60 1.293404
1092.70 1.293206
1092.80 1.293008
1092.90 1.292809
1093.00 1.292611
1093.10 1.292413
1093.20 1.292215
1093.30 1.292017
1093.40 1.291819
1093.50 1.291621
1093.60 1.291423
1093.70 1.291225
1093.80 1.291027
1093.90 1.29083
1094.00 1.290632
1094.10 1.290434
1094.20 1.290237
1094.30 1.290039
1094.40 1.289841
1094.50 1.289644
1094.60 1.289447
1094.70 1.289249
1094.80 1.289052
1094.90 1.288854
1095.00 1.288657
1095.10 1.288459
1095.20 1.288262
1095.30 1.288064
1095.40 1.287867
1095.50 1.287669
1095.60 1.287472
1095.70 1.287275
1095.80 1.287078
1095.90 1.286881
1096.00 1.286683
1096.10 1.286486
1096.20 1.286289
1096.30 1.286093
1096.40 1.285896
1096.50 1.285699
1096.60 1.285502
1096.70 1.285305
1096.80 1.285109
1096.90 1.284912
1097.00 1.284715
1097.10 1.284519
1097.20 1.284322
1097.30 1.284126
1097.40 1.28393
1097.50 1.283733
1097.60 1.283537
1097.70 1.283341
1097.80 1.283145
1097.90 1.282948
1098.00 1.282752
1098.10 1.282556
1098.20 1.28236
1098.30 1.282164
1098.40 1.281969
1098.50 1.281773
1098.60 1.281577
1098.70 1.281381
1098.80 1.281186
1098.90 1.28099
1099.00 1.280794
1099.10 1.280599
1099.20 1.280403
1099.30 1.280208
1099.40 1.280013
1099.50 1.279817
1099.60 1.279622
1099.70 1.279427
1099.80 1.279232
1099.90 1.279036
1100.00 1.278841
1100.10 1.278646
1100.20 1.278451
1100.30 1.278256
1100.40 1.278062
1100.50 1.277867
1100.60 1.277672
1100.70 1.277477
1100.80 1.277283
1100.90 1.277088
1101.00 1.276893
1101.10 1.276699
1101.20 1.276504
1101.30 1.27631
1101.40 1.276116
1101.50 1.275921
1101.60 1.275727
1101.70 1.275533
1101.80 1.275339
1101.90 1.275144
1102.00 1.27495
1102.10 1.274756
1102.20 1.274562
1102.30 1.274368
1102.40 1.274174
1102.50 1.273981
1102.60 1.273787
1102.70 1.273593
1102.80 1.273399
1102.90 1.273206
1103.00 1.273012
1103.10 1.272819
1103.20 1.272625
1103.30 1.272432
1103.40 1.272238
1103.50 1.272045
1103.60 1.271852
1103.70 1.271658
1103.80 1.271465
1103.90 1.271272
1104.00 1.271079
1104.10 1.270886
1104.20 1.270693
1104.30 1.2705
1104.40 1.270307
1104.50 1.270114
1104.60 1.269921
1104.70 1.269729
1104.80 1.269536
1104.90 1.269343
1105.00 1.269151
1105.10 1.268958
1105.20 1.268766
1105.30 1.268573
1105.40 1.268381
1105.50 1.268188
1105.60 1.267996
1105.70 1.267804
1105.80 1.267608
1105.90 1.267411
1106.00 1.267215
1106.10 1.267019
1106.20 1.266823
1106.30 1.266627
1106.40 1.266431
1106.50 1.266235
1106.60 1.266039
1106.70 1.265843
1106.80 1.265648
1106.90 1.265452
1107.00 1.265256
1107.10 1.265061
1107.20 1.264865
1107.30 1.26467
1107.40 1.264474
1107.50 1.264279
1107.60 1.264084
1107.70 1.263888
1107.80 1.263693
1107.90 1.263498
1108.00 1.263303
1108.10 1.263108
1108.20 1.262912
1108.30 1.262717
1108.40 1.262523
1108.50 1.262328
1108.60 1.262133
1108.70 1.261938
1108.80 1.261743
1108.90 1.261549
1109.00 1.261354
1109.10 1.261159
1109.20 1.260965
1109.30 1.26077
1109.40 1.260576
1109.50 1.260381
1109.60 1.260187
1109.70 1.259993
1109.80 1.259798
1109.90 1.259604
1110.00 1.25941
1110.10 1.259216
1110.20 1.259022
1110.30 1.258828
1110.40 1.258634
1110.50 1.25844
1110.60 1.258246
1110.70 1.258052
1110.80 1.257859
1110.90 1.257665
1111.00 1.257471
1111.10 1.257278
1111.20 1.257084
1111.30 1.25689
1111.40 1.256697
1111.50 1.256504
1111.60 1.25631
1111.70 1.256117
1111.80 1.255924
1111.90 1.25573
1112.00 1.255537
1112.10 1.255344
1112.20 1.255151
1112.30 1.254958
1112.40 1.254765
1112.50 1.254572
1112.60 1.254379
1112.70 1.254186
1112.80 1.253994
1112.90 1.253801
1113.00 1.253608
1113.10 1.253416
1113.20 1.253223
1113.30 1.253031
1113.40 1.252838
1113.50 1.252646
1113.60 1.252453
1113.70 1.252261
1113.80 1.252069
1113.90 1.251876
1114.00 1.251684
1114.10 1.251492
1114.20 1.2513
1114.30 1.251108
1114.40 1.250916
1114.50 1.250724
1114.60 1.250532
1114.70 1.25034
1114.80 1.250148
1114.90 1.249957
1115.00 1.249765
1115.10 1.249573
1115.20 1.249382
1115.30 1.24919
1115.40 1.248999
1115.50 1.248807
1115.60 1.248616
1115.70 1.248424
1115.80 1.248233
1115.90 1.248042
1116.00 1.247851
1116.10 1.247659
1116.20 1.247468
1116.30 1.247277
1116.40 1.247086
1116.50 1.246895
1116.60 1.246704
1116.70 1.246513
1116.80 1.246321
1116.90 1.246126
1117.00 1.245932
1117.10 1.245737
1117.20 1.245542
1117.30 1.245348
1117.40 1.245154
1117.50 1.244959
1117.60 1.244765
1117.70 1.244571
1117.80 1.244376
1117.90 1.244182
1118.00 1.243988
1118.10 1.243794
1118.20 1.2436
1118.30 1.243406
1118.40 1.243212
1118.50 1.243018
1118.60 1.242824
1118.70 1.242631
1118.80 1.242437
1118.90 1.242243
1119.00 1.24205
1119.10 1.241856
1119.20 1.241663
1119.30 1.241469
1119.40 1.241276
1119.50 1.241082
1119.60 1.240889
1119.70 1.240696
1119.80 1.240502
1119.90 1.240309
1120.00 1.240116
1120.10 1.239923
1120.20 1.23973
1120.30 1.239537
1120.40 1.239344
1120.50 1.239151
1120.60 1.238958
1120.70 1.238766
1120.80 1.238573
1120.90 1.23838
1121.00 1.238188
1121.10 1.237995
1121.20 1.237802
1121.30 1.23761
1121.40 1.237417
1121.50 1.237225
1121.60 1.237033
1121.70 1.23684
1121.80 1.236648
1121.90 1.236456
1122.00 1.236264
1122.10 1.236072
1122.20 1.23588
1122.30 1.235688
1122.40 1.235496
1122.50 1.235304
1122.60 1.235112
1122.70 1.23492
1122.80 1.234728
1122.90 1.234537
1123.00 1.234345
1123.10 1.234153
1123.20 1.233962
1123.30 1.23377
1123.40 1.233579
1123.50 1.233387
1123.60 1.233196
1123.70 1.233005
1123.80 1.232813
1123.90 1.232622
1124.00 1.232431
1124.10 1.23224
1124.20 1.232049
1124.30 1.231858
1124.40 1.231667
1124.50 1.231476
1124.60 1.231285
1124.70 1.231094
1124.80 1.230903
1124.90 1.230713
1125.00 1.230522
1125.10 1.230331
1125.20 1.230141
1125.30 1.22995
1125.40 1.22976
1125.50 1.229569
1125.60 1.229379
1125.70 1.229189
1125.80 1.228998
1125.90 1.228808
1126.00 1.228618
1126.10 1.228428
1126.20 1.228238
1126.30 1.228047
1126.40 1.227857
1126.50 1.227668
1126.60 1.227478
1126.70 1.227288
1126.80 1.227098
1126.90 1.226908
1127.00 1.226718
1127.10 1.226529
1127.20 1.226339
1127.30 1.22615
1127.40 1.22596
1127.50 1.225771
1127.60 1.225581
1127.70 1.225392
1127.80 1.225202
1127.90 1.225013
1128.00 1.224821
1128.10 1.224628
1128.20 1.224435
1128.30 1.224242
1128.40 1.224049
1128.50 1.223857
1128.60 1.223664
1128.70 1.223471
1128.80 1.223279
1128.90 1.223086
1129.00 1.222894
1129.10 1.222701
1129.20 1.222509
1129.30 1.222317
1129.40 1.222124
1129.50 1.221932
1129.60 1.22174
1129.70 1.221548
1129.80 1.221356
1129.90 1.221164
1130.00 1.220971
1130.10 1.22078
1130.20 1.220588
1130.30 1.220396
1130.40 1.220204
1130.50 1.220012
1130.60 1.21982
1130.70 1.219629
1130.80 1.219437
1130.90 1.219246
1131.00 1.219054
1131.10 1.218863
1131.20 1.218671
1131.30 1.21848
1131.40 1.218289
1131.50 1.218097
1131.60 1.217906
1131.70 1.217715
1131.80 1.217524
1131.90 1.217333
1132.00 1.217142
1132.10 1.216951
1132.20 1.21676
1132.30 1.216569
1132.40 1.216378
1132.50 1.216187
1132.60 1.215996
1132.70 1.215806
1132.80 1.215615
1132.90 1.215425
1133.00 1.215234
1133.10 1.215043
1133.20 1.214853
1133.30 1.214663
1133.40 1.214472
1133.50 1.214282
1133.60 1.214092
1133.70 1.213901
1133.80 1.213711
1133.90 1.213521
1134.00 1.213331
1134.10 1.213141
1134.20 1.212951
1134.30 1.212761
1134.40 1.212571
1134.50 1.212382
1134.60 1.212192
1134.70 1.212002
1134.80 1.211812
1134.90 1.211623
1135.00 1.211433
1135.10 1.211244
1135.20 1.211054
1135.30 1.210865
1135.40 1.210675
1135.50 1.210486
1135.60 1.210297
1135.70 1.210107
1135.80 1.209918
1135.90 1.209729
1136.00 1.20954
1136.10 1.209351
1136.20 1.209162
1136.30 1.208973
1136.40 1.208784
1136.50 1.208595
1136.60 1.208406
1136.70 1.208218
1136.80 1.208029
1136.90 1.20784
1137.00 1.207652
1137.10 1.207463
1137.20 1.207274
1137.30 1.207086
1137.40 1.206898
1137.50 1.206709
1137.60 1.206521
1137.70 1.206332
1137.80 1.206144
1137.90 1.205956
1138.00 1.205768
1138.10 1.20558
1138.20 1.205392
1138.30 1.205204
1138.40 1.205016
1138.50 1.204828
1138.60 1.20464
1138.70 1.204452
1138.80 1.204264
1138.90 1.204077
1139.00 1.203889
1139.10 1.203701
1139.20 1.203514
1139.30 1.203323
1139.40 1.203132
1139.50 1.202941
1139.60 1.20275
1139.70 1.202559
1139.80 1.202368
1139.90 1.202177
1140.00 1.201986
1140.10 1.201795
1140.20 1.201605
1140.30 1.201414
1140.40 1.201224
1140.50 1.201033
1140.60 1.200843
1140.70 1.200652
1140.80 1.200462
1140.90 1.200271
1141.00 1.200081
1141.10 1.199891
1141.20 1.199701
1141.30 1.19951
1141.40 1.19932
1141.50 1.19913
1141.60 1.19894
1141.70 1.19875
1141.80 1.19856
1141.90 1.19837
1142.00 1.198181
1142.10 1.197991
1142.20 1.197801
1142.30 1.197611
1142.40 1.197422
1142.50 1.197232
1142.60 1.197043
1142.70 1.196853
1142.80 1.196664
1142.90 1.196474
1143.00 1.196285
1143.10 1.196096
1143.20 1.195907
1143.30 1.195717
1143.40 1.195528
1143.50 1.195339
1143.60 1.19515
1143.70 1.194961
1143.80 1.194772
1143.90 1.194583
1144.00 1.194394
1144.10 1.194206
1144.20 1.194017
1144.30 1.193828
1144.40 1.193639
1144.50 1.193451
1144.60 1.193262
1144.70 1.193074
1144.80 1.192885
1144.90 1.192697
1145.00 1.192508
1145.10 1.19232
1145.20 1.192132
1145.30 1.191943
1145.40 1.191755
1145.50 1.191567
1145.60 1.191379
1145.70 1.191191
1145.80 1.191003
1145.90 1.190815
1146.00 1.190627
1146.10 1.190439
1146.20 1.190251
1146.30 1.190064
1146.40 1.189876
1146.50 1.189688
1146.60 1.189501
1146.70 1.189313
1146.80 1.189126
1146.90 1.188938
1147.00 1.188751
1147.10 1.188563
1147.20 1.188376
1147.30 1.188189
1147.40 1.188001
1147.50 1.187814
1147.60 1.187627
1147.70 1.18744
1147.80 1.187253
1147.90 1.187066
1148.00 1.186879
1148.10 1.186692
1148.20 1.186505
1148.30 1.186318
1148.40 1.186132
1148.50 1.185945
1148.60 1.185758
1148.70 1.185571
1148.80 1.185385
1148.90 1.185198
1149.00 1.185012
1149.10 1.184825
1149.20 1.184639
1149.30 1.184453
1149.40 1.184266
1149.50 1.18408
1149.60 1.183894
1149.70 1.183708
1149.80 1.183522
1149.90 1.183336
1150.00 1.18315
1150.10 1.182964
1150.20 1.182778
1150.30 1.182592
1150.40 1.182406
1150.50 1.18222
1150.60 1.182034
1150.70 1.181848
1150.80 1.181663
1150.90 1.181477
1151.00 1.181291
1151.10 1.181105
1151.20 1.18092
1151.30 1.180734
1151.40 1.180549
1151.50 1.180363
1151.60 1.180178
1151.70 1.179992
1151.80 1.179807
1151.90 1.179621
1152.00 1.179436
1152.10 1.179251
1152.20 1.179066
1152.30 1.178881
1152.40 1.178696
1152.50 1.17851
1152.60 1.178325
1152.70 1.178141
1152.80 1.177956
1152.90 1.177771
1153.00 1.177586
1153.10 1.177401
1153.20 1.177216
1153.30 1.177032
1153.40 1.176847
1153.50 1.176663
1153.60 1.176478
1153.70 1.176294
1153.80 1.176109
1153.90 1.175925
1154.00 1.17574
1154.10 1.175556
1154.20 1.175372
1154.30 1.175188
1154.40 1.175003
1154.50 1.174819
1154.60 1.174635
1154.70 1.174451
1154.80 1.174267
1154.90 1.174083
1155.00 1.173899
1155.10 1.173715
1155.20 1.173532
1155.30 1.173348
1155.40 1.173164
1155.50 1.172981
1155.60 1.172797
1155.70 1.172613
1155.80 1.17243
1155.90 1.172246
1156.00 1.172063
1156.10 1.17188
1156.20 1.171696
1156.30 1.171513
1156.40 1.171326
1156.50 1.171137
1156.60 1.170947
1156.70 1.170757
1156.80 1.170568
1156.90 1.170378
1157.00 1.170189
1157.10 1.17
1157.20 1.16981
1157.30 1.169621
1157.40 1.169432
1157.50 1.169243
1157.60 1.169053
1157.70 1.168864
1157.80 1.168675
1157.90 1.168486
1158.00 1.168297
1158.10 1.168109
1158.20 1.16792
1158.30 1.167731
1158.40 1.167542
1158.50 1.167353
1158.60 1.167165
1158.70 1.166976
1158.80 1.166788
1158.90 1.166599
1159.00 1.166411
1159.10 1.166222
1159.20 1.166034
1159.30 1.165846
1159.40 1.165657
1159.50 1.165469
1159.60 1.165281
1159.70 1.165093
1159.80 1.164905
1159.90 1.164717
1160.00 1.164529
1160.10 1.164341
1160.20 1.164153
1160.30 1.163965
1160.40 1.163777
1160.50 1.163589
1160.60 1.163402
1160.70 1.163214
1160.80 1.163027
1160.90 1.162839
1161.00 1.162651
1161.10 1.162464
1161.20 1.162277
1161.30 1.162089
1161.40 1.161902
1161.50 1.161715
1161.60 1.161527
1161.70 1.16134
1161.80 1.161153
1161.90 1.160966
1162.00 1.160779
1162.10 1.160592
1162.20 1.160411
1162.30 1.160231
1162.40 1.16005
1162.50 1.159869
1162.60 1.159689
1162.70 1.159508
1162.80 1.159328
1162.90 1.159147
1163.00 1.158967
1163.10 1.158787
1163.20 1.158606
1163.30 1.158426
1163.40 1.158246
1163.50 1.158066
1163.60 1.157886
1163.70 1.157706
1163.80 1.157525
1163.90 1.157346
1164.00 1.157166
1164.10 1.156986
1164.20 1.156806
1164.30 1.156626
1164.40 1.156446
1164.50 1.156267
1164.60 1.156087
1164.70 1.155907
1164.80 1.155728
1164.90 1.155548
1165.00 1.155369
1165.10 1.155189
1165.20 1.15501
1165.30 1.154831
1165.40 1.154651
1165.50 1.154472
1165.60 1.154293
1165.70 1.154114
1165.80 1.153934
1165.90 1.153755
1166.00 1.153576
1166.10 1.153397
1166.20 1.153218
1166.30 1.153039
1166.40 1.152861
1166.50 1.152682
1166.60 1.152503
1166.70 1.152324
1166.80 1.152146
1166.90 1.151967
1167.00 1.151788
1167.10 1.15161
1167.20 1.151431
1167.30 1.151253
1167.40 1.151074
1167.50 1.150896
1167.60 1.150718
1167.70 1.150539
1167.80 1.150361
1167.90 1.150183
1168.00 1.149999
1168.10 1.149815
1168.20 1.14963
1168.30 1.149446
1168.40 1.149262
1168.50 1.149078
1168.60 1.148894
1168.70 1.148709
1168.80 1.148525
1168.90 1.148341
1169.00 1.148157
1169.10 1.147974
1169.20 1.14779
1169.30 1.147606
1169.40 1.147422
1169.50 1.147238
1169.60 1.147055
1169.70 1.146871
1169.80 1.146687
1169.90 1.146504
1170.00 1.14632
1170.10 1.146137
1170.20 1.145954
1170.30 1.14577
1170.40 1.145587
1170.50 1.145404
1170.60 1.14522
1170.70 1.145037
1170.80 1.144854
1170.90 1.144671
1171.00 1.144488
1171.10 1.144305
1171.20 1.144122
1171.30 1.143939
1171.40 1.143756
1171.50 1.143573
1171.60 1.143391
1171.70 1.143208
1171.80 1.143025
1171.90 1.142843
1172.00 1.14266
1172.10 1.142478
1172.20 1.142295
1172.30 1.142113
1172.40 1.14193
1172.50 1.141748
1172.60 1.141566
1172.70 1.141383
1172.80 1.141201
1172.90 1.141019
1173.00 1.140837
1173.10 1.140655
1173.20 1.140473
1173.30 1.140291
1173.40 1.140109
1173.50 1.139927
1173.60 1.139745
1173.70 1.139563
1173.80 1.139377
1173.90 1.139189
1174.00 1.139001
1174.10 1.138813
1174.20 1.138625
1174.30 1.138437
1174.40 1.138249
1174.50 1.138062
1174.60 1.137874
1174.70 1.137687
1174.80 1.137499
1174.90 1.137311
1175.00 1.137124
1175.10 1.136937
1175.20 1.136749
1175.30 1.136562
1175.40 1.136375
1175.50 1.136187
1175.60 1.136
1175.70 1.135813
1175.80 1.135626
1175.90 1.135439
1176.00 1.135252
1176.10 1.135065
1176.20 1.134878
1176.30 1.134691
1176.40 1.134505
1176.50 1.134318
1176.60 1.134131
1176.70 1.133945
1176.80 1.133758
1176.90 1.133571
1177.00 1.133385
1177.10 1.133198
1177.20 1.133012
1177.30 1.132826
1177.40 1.132639
1177.50 1.132453
1177.60 1.132267
1177.70 1.132081
1177.80 1.131895
1177.90 1.131708
1178.00 1.131522
1178.10 1.131336
1178.20 1.13115
1178.30 1.130965
1178.40 1.130779
1178.50 1.130593
1178.60 1.130407
1178.70 1.130221
1178.80 1.130036
1178.90 1.12985
1179.00 1.129665
1179.10 1.129479
1179.20 1.129294
1179.30 1.129108
1179.40 1.128923
1179.50 1.128737
1179.60 1.128553
1179.70 1.128374
1179.80 1.128195
1179.90 1.128015
1180.00 1.127836
1180.10 1.127657
1180.20 1.127479
1180.30 1.1273
1180.40 1.127121
1180.50 1.126942
1180.60 1.126763
1180.70 1.126584
1180.80 1.126406
1180.90 1.126227
1181.00 1.126049
1181.10 1.12587
1181.20 1.125692
1181.30 1.125513
1181.40 1.125335
1181.50 1.125156
1181.60 1.124978
1181.70 1.1248
1181.80 1.124621
1181.90 1.124443
1182.00 1.124265
1182.10 1.124087
1182.20 1.123909
1182.30 1.123731
1182.40 1.123553
1182.50 1.123375
1182.60 1.123197
1182.70 1.123019
1182.80 1.122842
1182.90 1.122664
1183.00 1.122486
1183.10 1.122308
1183.20 1.122131
1183.30 1.121953
1183.40 1.121776
1183.50 1.121598
1183.60 1.121421
1183.70 1.121243
1183.80 1.121066
1183.90 1.120889
1184.00 1.120711
1184.10 1.120534
1184.20 1.120357
1184.30 1.12018
1184.40 1.120003
1184.50 1.119826
1184.60 1.119649
1184.70 1.119472
1184.80 1.119295
1184.90 1.119118
1185.00 1.118941
1185.10 1.118764
1185.20 1.118588
1185.30 1.118411
1185.40 1.118234
1185.50 1.118055
1185.60 1.117872
1185.70 1.11769
1185.80 1.117507
1185.90 1.117325
1186.00 1.117142
1186.10 1.11696
1186.20 1.116778
1186.30 1.116595
1186.40 1.116413
1186.50 1.116231
1186.60 1.116049
1186.70 1.115866
1186.80 1.115684
1186.90 1.115502
1187.00 1.11532
1187.10 1.115138
1187.20 1.114956
1187.30 1.114775
1187.40 1.114593
1187.50 1.114411
1187.60 1.114229
1187.70 1.114048
1187.80 1.113866
1187.90 1.113684
1188.00 1.113503
1188.10 1.113321
1188.20 1.11314
1188.30 1.112958
1188.40 1.112777
1188.50 1.112596
1188.60 1.112414
1188.70 1.112233
1188.80 1.112052
1188.90 1.111871
1189.00 1.11169
1189.10 1.111509
1189.20 1.111328
1189.30 1.111147
1189.40 1.110966
1189.50 1.110785
1189.60 1.110604
1189.70 1.110423
1189.80 1.110243
1189.90 1.110062
1190.00 1.109881
1190.10 1.109701
1190.20 1.10952
1190.30 1.10934
1190.40 1.109159
1190.50 1.108979
1190.60 1.108798
1190.70 1.108618
1190.80 1.108438
1190.90 1.108258
1191.00 1.108077
1191.10 1.107897
1191.20 1.107717
1191.30 1.107537
1191.40 1.107358
1191.50 1.107184
1191.60 1.10701
1191.70 1.106836
1191.80 1.106662
1191.90 1.106488
1192.00 1.106314
1192.10 1.10614
1192.20 1.105967
1192.30 1.105793
1192.40 1.105619
1192.50 1.105445
1192.60 1.105272
1192.70 1.105098
1192.80 1.104925
1192.90 1.104751
1193.00 1.104578
1193.10 1.104405
1193.20 1.104231
1193.30 1.104058
1193.40 1.103885
1193.50 1.103711
1193.60 1.103538
1193.70 1.103365
1193.80 1.103192
1193.90 1.103019
1194.00 1.102846
1194.10 1.102673
1194.20 1.1025
1194.30 1.102327
1194.40 1.102154
1194.50 1.101982
1194.60 1.101809
1194.70 1.101636
1194.80 1.101463
1194.90 1.101291
1195.00 1.101118
1195.10 1.100946
1195.20 1.100773
1195.30 1.100601
1195.40 1.100428
1195.50 1.100256
1195.60 1.100084
1195.70 1.099911
1195.80 1.099739
1195.90 1.099567
1196.00 1.099395
1196.10 1.099223
1196.20 1.099051
1196.30 1.098878
1196.40 1.098707
1196.50 1.098535
1196.60 1.098363
1196.70 1.098191
1196.80 1.098019
1196.90 1.097847
1197.00 1.097675
1197.10 1.097504
1197.20 1.097332
1197.30 1.09716
1197.40 1.096984
1197.50 1.096806
1197.60 1.096629
1197.70 1.096452
1197.80 1.096274
1197.90 1.096097
1198.00 1.09592
1198.10 1.095743
1198.20 1.095566
1198.30 1.095389
1198.40 1.095211
1198.50 1.095034
1198.60 1.094858
1198.70 1.094681
1198.80 1.094504
1198.90 1.094327
1199.00 1.09415
1199.10 1.093974
1199.20 1.093797
1199.30 1.09362
1199.40 1.093444
1199.50 1.093267
1199.60 1.093091
1199.70 1.092914
1199.80 1.092738
1199.90 1.092561
1200.00 1.092385
