# Version 2.1 - nm, norm@500 to 1, cut digits, bergeron_He_14000_75.dat_14000
# Wavelength(nm)  Flambda(ergs/cm^s/s/nm)
300.00 3.101802
300.10 3.099809
300.20 3.097744
300.30 3.095744
300.40 3.094163
300.50 3.092584
300.60 3.091006
300.70 3.089429
300.80 3.087854
300.90 3.086281
301.00 3.084709
301.10 3.083138
301.20 3.081569
301.30 3.080001
301.40 3.078434
301.50 3.076869
301.60 3.075305
301.70 3.073743
301.80 3.072182
301.90 3.070622
302.00 3.069064
302.10 3.067272
302.20 3.065455
302.30 3.06364
302.40 3.061827
302.50 3.060015
302.60 3.058205
302.70 3.056397
302.80 3.054591
302.90 3.052786
303.00 3.050983
303.10 3.049182
303.20 3.047382
303.30 3.045585
303.40 3.0438
303.50 3.042015
303.60 3.040233
303.70 3.038452
303.80 3.036673
303.90 3.034896
304.00 3.03312
304.10 3.031347
304.20 3.029574
304.30 3.027804
304.40 3.026035
304.50 3.024267
304.60 3.02257
304.70 3.020882
304.80 3.019196
304.90 3.017511
305.00 3.015828
305.10 3.014146
305.20 3.012466
305.30 3.010787
305.40 3.00911
305.50 3.007434
305.60 3.00576
305.70 3.004088
305.80 3.002417
305.90 3.000748
306.00 2.99908
306.10 2.997414
306.20 2.995749
306.30 2.994086
306.40 2.992365
306.50 2.990629
306.60 2.988895
306.70 2.987162
306.80 2.98543
306.90 2.983701
307.00 2.981973
307.10 2.980246
307.20 2.978522
307.30 2.976798
307.40 2.975077
307.50 2.973357
307.60 2.971638
307.70 2.969922
307.80 2.968206
307.90 2.966493
308.00 2.964781
308.10 2.963071
308.20 2.961362
308.30 2.959655
308.40 2.957949
308.50 2.956245
308.60 2.954543
308.70 2.952842
308.80 2.951087
308.90 2.949177
309.00 2.947268
309.10 2.945362
309.20 2.943457
309.30 2.941554
309.40 2.93969
309.50 2.93806
309.60 2.936431
309.70 2.934803
309.80 2.933178
309.90 2.931553
310.00 2.92993
310.10 2.928309
310.20 2.926688
310.30 2.92507
310.40 2.923325
310.50 2.921442
310.60 2.919561
310.70 2.917682
310.80 2.915805
310.90 2.913929
311.00 2.912056
311.10 2.910184
311.20 2.908314
311.30 2.906446
311.40 2.904579
311.50 2.902715
311.60 2.900852
311.70 2.898991
311.80 2.897132
311.90 2.895274
312.00 2.893419
312.10 2.891565
312.20 2.890989
312.30 2.890413
312.40 2.888563
312.50 2.886715
312.60 2.884868
312.70 2.883023
312.80 2.88118
312.90 2.879339
313.00 2.8775
313.10 2.875662
313.20 2.873826
313.30 2.871992
313.40 2.870159
313.50 2.868328
313.60 2.866499
313.70 2.864672
313.80 2.862847
313.90 2.861023
314.00 2.859201
314.10 2.85738
314.20 2.855562
314.30 2.853745
314.40 2.85193
314.50 2.850117
314.60 2.848305
314.70 2.846495
314.80 2.844687
314.90 2.842067
315.00 2.838568
315.10 2.836349
315.20 2.834132
315.30 2.831918
315.40 2.829705
315.50 2.827495
315.60 2.825287
315.70 2.822874
315.80 2.820463
315.90 2.818054
316.00 2.815648
316.10 2.812621
316.20 2.809598
316.30 2.809066
316.40 2.808533
316.50 2.803033
316.60 2.792574
316.70 2.78709
316.80 2.781612
316.90 2.779857
317.00 2.778103
317.10 2.776351
317.20 2.774601
317.30 2.775693
317.40 2.775894
317.50 2.773567
317.60 2.771241
317.70 2.768918
317.80 2.766598
317.90 2.758378
318.00 2.745699
318.10 2.724301
318.20 2.70293
318.30 2.681585
318.40 2.644952
318.50 2.564803
318.60 2.463244
318.70 2.172061
318.80 1.714437
318.90 2.225756
319.00 2.414588
319.10 2.512038
319.20 2.591882
319.30 2.621895
319.40 2.651869
319.50 2.681806
319.60 2.703765
319.70 2.71109
319.80 2.718406
319.90 2.725711
320.00 2.73102
320.10 2.734171
320.20 2.736075
320.30 2.73813
320.40 2.738845
320.50 2.739558
320.60 2.739012
320.70 2.739723
320.80 2.739563
320.90 2.738459
321.00 2.737357
321.10 2.736256
321.20 2.735083
321.30 2.734214
321.40 2.733347
321.50 2.73248
321.60 2.731613
321.70 2.730747
321.80 2.729482
321.90 2.727787
322.00 2.726248
322.10 2.724854
322.20 2.723461
322.30 2.722069
322.40 2.720678
322.50 2.719289
322.60 2.7179
322.70 2.716513
322.80 2.71504
322.90 2.713571
323.00 2.712103
323.10 2.710636
323.20 2.70917
323.30 2.707706
323.40 2.706243
323.50 2.704781
323.60 2.703321
323.70 2.701862
323.80 2.700404
323.90 2.698947
324.00 2.697281
324.10 2.695617
324.20 2.693955
324.30 2.692293
324.40 2.690773
324.50 2.689404
324.60 2.688037
324.70 2.686671
324.80 2.685306
324.90 2.683942
325.00 2.682579
325.10 2.681217
325.20 2.679765
325.30 2.678118
325.40 2.676472
325.50 2.674827
325.60 2.673185
325.70 2.671543
325.80 2.669904
325.90 2.668265
326.00 2.666629
326.10 2.664994
326.20 2.66336
326.30 2.66221
326.40 2.662432
326.50 2.660802
326.60 2.659173
326.70 2.657545
326.80 2.655919
326.90 2.654294
327.00 2.652671
327.10 2.651049
327.20 2.649429
327.30 2.64781
327.40 2.646193
327.50 2.644577
327.60 2.642963
327.70 2.64135
327.80 2.639739
327.90 2.638129
328.00 2.636521
328.10 2.634914
328.20 2.633308
328.30 2.631704
328.40 2.630102
328.50 2.628501
328.60 2.626901
328.70 2.625303
328.80 2.623757
328.90 2.622357
329.00 2.620958
329.10 2.619559
329.20 2.618163
329.30 2.616767
329.40 2.615373
329.50 2.613979
329.60 2.612587
329.70 2.611197
329.80 2.609807
329.90 2.608419
330.00 2.606945
330.10 2.605365
330.20 2.603788
330.30 2.602211
330.40 2.600636
330.50 2.599063
330.60 2.597491
330.70 2.59592
330.80 2.594351
330.90 2.592783
331.00 2.591216
331.10 2.589651
331.20 2.588088
331.30 2.586526
331.40 2.584965
331.50 2.583406
331.60 2.581848
331.70 2.580291
331.80 2.578736
331.90 2.577182
332.00 2.57563
332.10 2.574079
332.20 2.57253
332.30 2.570982
332.40 2.569435
332.50 2.56789
332.60 2.566346
332.70 2.564803
332.80 2.563262
332.90 2.561723
333.00 2.560184
333.10 2.558546
333.20 2.556787
333.30 2.555029
333.40 2.553272
333.50 2.551518
333.60 2.549765
333.70 2.548013
333.80 2.546264
333.90 2.544515
334.00 2.542769
334.10 2.540957
334.20 2.539066
334.30 2.537176
334.40 2.535288
334.50 2.533401
334.60 2.531517
334.70 2.52884
334.80 2.525723
334.90 2.523368
335.00 2.521015
335.10 2.516619
335.20 2.51401
335.30 2.509689
335.40 2.503217
335.50 2.504764
335.60 2.508794
335.70 2.509121
335.80 2.509834
335.90 2.510049
336.00 2.509657
336.10 2.509265
336.20 2.508873
336.30 2.508151
336.40 2.507027
336.50 2.505903
336.60 2.50478
336.70 2.503659
336.80 2.502538
336.90 2.501253
337.00 2.499769
337.10 2.498286
337.20 2.496805
337.30 2.495475
337.40 2.494362
337.50 2.493251
337.60 2.49214
337.70 2.491031
337.80 2.489922
337.90 2.48865
338.00 2.487177
338.10 2.485706
338.20 2.484236
338.30 2.482768
338.40 2.481301
338.50 2.479835
338.60 2.47837
338.70 2.476907
338.80 2.475445
338.90 2.473985
339.00 2.472525
339.10 2.471067
339.20 2.46961
339.30 2.468155
339.40 2.466701
339.50 2.465248
339.60 2.463796
339.70 2.462346
339.80 2.460897
339.90 2.459449
340.00 2.458002
340.10 2.456557
340.20 2.455113
340.30 2.45367
340.40 2.452229
340.50 2.450789
340.60 2.44935
340.70 2.447912
340.80 2.446476
340.90 2.445041
341.00 2.443607
341.10 2.442175
341.20 2.440743
341.30 2.439313
341.40 2.437884
341.50 2.436457
341.60 2.435031
341.70 2.433605
341.80 2.431956
341.90 2.430033
342.00 2.428112
342.10 2.426192
342.20 2.424374
342.30 2.422958
342.40 2.421397
342.50 2.419627
342.60 2.417859
342.70 2.416093
342.80 2.414328
342.90 2.412565
343.00 2.410728
343.10 2.4088
343.20 2.406873
343.30 2.404949
343.40 2.402519
343.50 2.399363
343.60 2.396211
343.70 2.393061
343.80 2.389915
343.90 2.386772
344.00 2.383058
344.10 2.378521
344.20 2.373989
344.30 2.369462
344.40 2.364079
344.50 2.357466
344.60 2.348764
344.70 2.33468
344.80 2.342064
344.90 2.351112
345.00 2.355968
345.10 2.359826
345.20 2.362696
345.30 2.364147
345.40 2.365597
345.50 2.366679
345.60 2.366918
345.70 2.36659
345.80 2.366262
345.90 2.365934
346.00 2.365606
346.10 2.365277
346.20 2.364609
346.30 2.363451
346.40 2.362294
346.50 2.361138
346.60 2.359982
346.70 2.358828
346.80 2.357675
346.90 2.356523
347.00 2.355371
347.10 2.354221
347.20 2.353044
347.30 2.35183
347.40 2.350617
347.50 2.349405
347.60 2.348194
347.70 2.346984
347.80 2.345775
347.90 2.344567
348.00 2.34336
348.10 2.342154
348.20 2.340949
348.30 2.339745
348.40 2.338542
348.50 2.33734
348.60 2.336139
348.70 2.334833
348.80 2.333438
348.90 2.331965
349.00 2.330492
349.10 2.329021
349.20 2.327551
349.30 2.326083
349.40 2.324616
349.50 2.32315
349.60 2.321685
349.70 2.320222
349.80 2.31876
349.90 2.317299
350.00 2.31584
350.10 2.314382
350.20 2.312925
350.30 2.311525
350.40 2.310206
350.50 2.308888
350.60 2.307571
350.70 2.306255
350.80 2.30494
350.90 2.303627
351.00 2.302315
351.10 2.301003
351.20 2.299693
351.30 2.298384
351.40 2.297076
351.50 2.295769
351.60 2.294463
351.70 2.293159
351.80 2.291855
351.90 2.290553
352.00 2.289252
352.10 2.287952
352.20 2.286653
352.30 2.285355
352.40 2.284058
352.50 2.282762
352.60 2.281467
352.70 2.280174
352.80 2.278881
352.90 2.27759
353.00 2.2763
353.10 2.275011
353.20 2.273723
353.30 2.272436
353.40 2.27115
353.50 2.269865
353.60 2.268581
353.70 2.267299
353.80 2.266017
353.90 2.264737
354.00 2.263458
354.10 2.262179
354.20 2.260902
354.30 2.259626
354.40 2.258351
354.50 2.257077
354.60 2.255804
354.70 2.254533
354.80 2.253262
354.90 2.251992
355.00 2.250724
355.10 2.249456
355.20 2.24819
355.30 2.246924
355.40 2.24566
355.50 2.244397
355.60 2.243135
355.70 2.241874
355.80 2.240614
355.90 2.239355
356.00 2.238097
356.10 2.23684
356.20 2.235584
356.30 2.23433
356.40 2.233076
356.50 2.231823
356.60 2.230572
356.70 2.229321
356.80 2.228072
356.90 2.226823
357.00 2.225576
357.10 2.22433
357.20 2.223085
357.30 2.22184
357.40 2.220597
357.50 2.219355
357.60 2.218114
357.70 2.216874
357.80 2.215635
357.90 2.214397
358.00 2.21316
358.10 2.211924
358.20 2.210689
358.30 2.209456
358.40 2.208223
358.50 2.206991
358.60 2.20576
358.70 2.204531
358.80 2.203302
358.90 2.202074
359.00 2.200848
359.10 2.199622
359.20 2.198398
359.30 2.197174
359.40 2.195951
359.50 2.19418
359.60 2.192273
359.70 2.190367
359.80 2.187694
359.90 2.185023
360.00 2.181977
360.10 2.178264
360.20 2.174555
360.30 2.17085
360.40 2.167148
360.50 2.16345
360.60 2.157385
360.70 2.148061
360.80 2.138747
360.90 2.129443
361.00 2.118161
361.10 2.099421
361.20 2.076856
361.30 2.037967
361.40 2.062938
361.50 2.103874
361.60 2.118086
361.70 2.12262
361.80 2.126701
361.90 2.129978
362.00 2.133251
362.10 2.135071
362.20 2.135878
362.30 2.13553
362.40 2.135183
362.50 2.134836
362.60 2.134488
362.70 2.132427
362.80 2.130411
362.90 2.127357
363.00 2.124306
363.10 2.118852
363.20 2.113379
363.30 2.103814
363.40 2.093236
363.50 2.103383
363.60 2.113518
363.70 2.118417
363.80 2.120595
363.90 2.122114
364.00 2.123631
364.10 2.125146
364.20 2.126659
364.30 2.127693
364.40 2.128608
364.50 2.131198
364.60 2.131273
364.70 2.131347
364.80 2.131421
364.90 2.131187
365.00 2.130953
365.10 2.129786
365.20 2.127687
365.30 2.127455
365.40 2.128154
365.50 2.128852
365.60 2.129549
365.70 2.12923
365.80 2.128912
365.90 2.128743
366.00 2.128612
366.10 2.128361
366.20 2.128111
366.30 2.12786
366.40 2.12761
366.50 2.126513
366.60 2.125353
366.70 2.124194
366.80 2.123036
366.90 2.121878
367.00 2.120722
367.10 2.119567
367.20 2.118413
367.30 2.117259
367.40 2.116107
367.50 2.114137
367.60 2.111964
367.70 2.109847
367.80 2.107731
367.90 2.105618
368.00 2.1037
368.10 2.100744
368.20 2.097675
368.30 2.094613
368.40 2.091554
368.50 2.088498
368.60 2.085444
368.70 2.082394
368.80 2.079347
368.90 2.075818
369.00 2.071617
369.10 2.067468
369.20 2.062667
369.30 2.057293
369.40 2.051925
369.50 2.046562
369.60 2.039111
369.70 2.031669
369.80 2.023204
369.90 2.014738
370.00 2.006281
370.10 1.996457
370.20 1.982676
370.30 1.968903
370.40 1.942686
370.50 1.922084
370.60 1.952546
370.70 1.979015
370.80 1.990552
370.90 2.002076
371.00 2.006519
371.10 2.010885
371.20 2.015192
371.30 2.019494
371.40 2.021716
371.50 2.024656
371.60 2.027593
371.70 2.030527
371.80 2.033457
371.90 2.036383
372.00 2.039952
372.10 2.041423
372.20 2.042721
372.30 2.044017
372.40 2.045312
372.50 2.046605
372.60 2.047896
372.70 2.049185
372.80 2.048977
372.90 2.048768
373.00 2.048569
373.10 2.048369
373.20 2.045485
373.30 2.042604
373.40 2.030802
373.50 2.033282
373.60 2.03665
373.70 2.038233
373.80 2.039703
373.90 2.041393
374.00 2.04208
374.10 2.042766
374.20 2.043451
374.30 2.044136
374.40 2.044153
374.50 2.045458
374.60 2.044849
374.70 2.044202
374.80 2.043555
374.90 2.042909
375.00 2.042409
375.10 2.04191
375.20 2.041411
375.30 2.040575
375.40 2.03974
375.50 2.038906
375.60 2.038073
375.70 2.03724
375.80 2.036407
375.90 2.035575
376.00 2.034493
376.10 2.033411
376.20 2.03233
376.30 2.03125
376.40 2.030171
376.50 2.028851
376.60 2.027168
376.70 2.025488
376.80 2.024111
376.90 2.023037
377.00 2.021964
377.10 2.020891
377.20 2.019705
377.30 2.018091
377.40 2.016477
377.50 2.014865
377.60 2.013039
377.70 2.011215
377.80 2.009393
377.90 2.007572
378.00 2.006055
378.10 2.003798
378.20 2.00153
378.30 1.999265
378.40 1.997002
378.50 1.99474
378.60 1.992481
378.70 1.990224
378.80 1.98797
378.90 1.985689
379.00 1.983358
379.10 1.980234
379.20 1.977113
379.30 1.973918
379.40 1.970647
379.50 1.967379
379.60 1.963845
379.70 1.95955
379.80 1.953901
379.90 1.948259
380.00 1.942622
380.10 1.93699
380.20 1.931365
380.30 1.925745
380.40 1.920131
380.50 1.914522
380.60 1.906287
380.70 1.895922
380.80 1.885567
380.90 1.875223
381.00 1.864889
381.10 1.851062
381.20 1.836298
381.30 1.818637
381.40 1.800587
381.50 1.778602
381.60 1.754714
381.70 1.726747
381.80 1.692539
381.90 1.627081
382.00 1.597499
382.10 1.691416
382.20 1.739075
382.30 1.772214
382.40 1.798907
382.50 1.815959
382.60 1.832994
382.70 1.846501
382.80 1.853163
382.90 1.856942
383.00 1.860717
383.10 1.864488
383.20 1.868439
383.30 1.873078
383.40 1.877886
383.50 1.882949
383.60 1.887381
383.70 1.890182
383.80 1.892981
383.90 1.895776
384.00 1.898568
384.10 1.901357
384.20 1.904143
384.30 1.906925
384.40 1.908997
384.50 1.910358
384.60 1.911717
384.70 1.913075
384.80 1.913937
384.90 1.913447
385.00 1.913894
385.10 1.914373
385.20 1.915395
385.30 1.915251
385.40 1.914878
385.50 1.914275
385.60 1.913672
385.70 1.91307
385.80 1.912386
385.90 1.911395
386.00 1.910405
386.10 1.9093
386.20 1.907023
386.30 1.904748
386.40 1.900638
386.50 1.89508
386.60 1.887
386.70 1.866889
386.80 1.840563
386.90 1.850831
387.00 1.859095
387.10 1.864776
387.20 1.869455
387.30 1.874379
387.40 1.875499
387.50 1.876495
387.60 1.8761
387.70 1.873477
387.80 1.870856
387.90 1.868238
388.00 1.864759
388.10 1.857644
388.20 1.843579
388.30 1.824818
388.40 1.806076
388.50 1.777385
388.60 1.724502
388.70 1.632447
388.80 1.416665
388.90 1.295688
389.00 1.553465
389.10 1.668373
389.20 1.733286
389.30 1.774009
389.40 1.799184
389.50 1.819968
389.60 1.833406
389.70 1.84165
389.80 1.845718
389.90 1.849782
390.00 1.853841
390.10 1.857896
390.20 1.861946
390.30 1.864415
390.40 1.865102
390.50 1.865788
390.60 1.866474
390.70 1.867158
390.80 1.867483
390.90 1.867447
391.00 1.866954
391.10 1.866789
391.20 1.866458
391.30 1.865504
391.40 1.864551
391.50 1.863599
391.60 1.862647
391.70 1.861696
391.80 1.860746
391.90 1.859796
392.00 1.858567
392.10 1.856919
392.20 1.855335
392.30 1.853839
392.40 1.851828
392.50 1.849269
392.60 1.847238
392.70 1.845773
392.80 1.845922
392.90 1.845806
393.00 1.845724
393.10 1.845787
393.20 1.84591
393.30 1.844971
393.40 1.844033
393.50 1.843096
393.60 1.84216
393.70 1.841224
393.80 1.840289
393.90 1.839355
394.00 1.838421
394.10 1.837488
394.20 1.836556
394.30 1.834929
394.40 1.833094
394.50 1.832165
394.60 1.830344
394.70 1.828404
394.80 1.826013
394.90 1.823618
395.00 1.820919
395.10 1.817517
395.20 1.813631
395.30 1.809602
395.40 1.805576
395.50 1.799103
395.60 1.791731
395.70 1.782602
395.80 1.768716
395.90 1.754843
396.00 1.740062
396.10 1.710895
396.20 1.668028
396.30 1.61729
396.40 1.511518
396.50 1.542468
396.60 1.68148
396.70 1.722498
396.80 1.730098
396.90 1.732996
397.00 1.747594
397.10 1.766438
397.20 1.774575
397.30 1.775441
397.40 1.776529
397.50 1.777616
397.60 1.778675
397.70 1.779454
397.80 1.780232
397.90 1.780861
398.00 1.781088
398.10 1.781315
398.20 1.781014
398.30 1.78012
398.40 1.77919
398.50 1.777092
398.60 1.775875
398.70 1.774474
398.80 1.772945
398.90 1.771236
399.00 1.769191
399.10 1.766581
399.20 1.763906
399.30 1.761233
399.40 1.758562
399.50 1.755894
399.60 1.752355
399.70 1.748496
399.80 1.74464
399.90 1.740788
400.00 1.736922
400.10 1.732467
400.20 1.728454
400.30 1.722735
400.40 1.716967
400.50 1.710978
400.60 1.704047
400.70 1.696997
400.80 1.688825
400.90 1.676894
401.00 1.669485
401.10 1.666696
401.20 1.661182
401.30 1.652427
401.40 1.64175
401.50 1.630642
401.60 1.619356
401.70 1.601944
401.80 1.583358
401.90 1.561207
402.00 1.536659
402.10 1.507645
402.20 1.473297
402.30 1.430574
402.40 1.373536
402.50 1.286562
402.60 1.139237
402.70 1.24125
402.80 1.35887
402.90 1.419905
403.00 1.475042
403.10 1.516252
403.20 1.548111
403.30 1.573232
403.40 1.59504
403.50 1.612106
403.60 1.628013
403.70 1.641213
403.80 1.651342
403.90 1.65919
404.00 1.666444
404.10 1.669963
404.20 1.672183
404.30 1.6744
404.40 1.672742
404.50 1.666662
404.60 1.662798
404.70 1.665015
404.80 1.668881
404.90 1.672477
405.00 1.67674
405.10 1.679923
405.20 1.682882
405.30 1.685839
405.40 1.687783
405.50 1.689724
405.60 1.691664
405.70 1.693602
405.80 1.695537
405.90 1.697471
406.00 1.698153
406.10 1.698835
406.20 1.699515
406.30 1.700195
406.40 1.700979
406.50 1.701878
406.60 1.702166
406.70 1.702269
406.80 1.702607
406.90 1.70268
407.00 1.702445
407.10 1.702209
407.20 1.701973
407.30 1.701738
407.40 1.701502
407.50 1.701266
407.60 1.701031
407.70 1.700795
407.80 1.700559
407.90 1.700306
408.00 1.699473
408.10 1.69864
408.20 1.698197
408.30 1.697851
408.40 1.697506
408.50 1.696806
408.60 1.695975
408.70 1.695146
408.80 1.694316
408.90 1.693488
409.00 1.69266
409.10 1.691832
409.20 1.691006
409.30 1.690179
409.40 1.689354
409.50 1.688529
409.60 1.687704
409.70 1.686744
409.80 1.685238
409.90 1.683754
410.00 1.682933
410.10 1.682112
410.20 1.68083
410.30 1.679433
410.40 1.67806
410.50 1.676757
410.60 1.675455
410.70 1.674131
410.80 1.672719
410.90 1.671309
411.00 1.669116
411.10 1.666636
411.20 1.664158
411.30 1.661513
411.40 1.658143
411.50 1.653183
411.60 1.648228
411.70 1.641759
411.80 1.629224
411.90 1.613914
412.00 1.574287
412.10 1.487814
412.20 1.511255
412.30 1.549941
412.40 1.577615
412.50 1.593451
412.60 1.605207
412.70 1.61148
412.80 1.616381
412.90 1.620026
413.00 1.620645
413.10 1.619861
413.20 1.619077
413.30 1.618293
413.40 1.617511
413.50 1.616425
413.60 1.613881
413.70 1.610557
413.80 1.607236
413.90 1.603918
414.00 1.599993
414.10 1.594142
414.20 1.587774
414.30 1.574976
414.40 1.559582
414.50 1.571618
414.60 1.580601
414.70 1.585626
414.80 1.590212
414.90 1.59342
415.00 1.596625
415.10 1.599827
415.20 1.602721
415.30 1.604645
415.40 1.606568
415.50 1.60847
415.60 1.609761
415.70 1.611051
415.80 1.612185
415.90 1.612829
416.00 1.613473
416.10 1.61397
416.20 1.613883
416.30 1.613797
416.40 1.61371
416.50 1.613624
416.60 1.613566
416.70 1.613379
416.80 1.61128
416.90 1.607537
417.00 1.606873
417.10 1.607576
417.20 1.608235
417.30 1.608881
417.40 1.609119
417.50 1.609357
417.60 1.609393
417.70 1.608637
417.80 1.608342
417.90 1.608047
418.00 1.607753
418.10 1.607458
418.20 1.607164
418.30 1.606855
418.40 1.606124
418.50 1.605511
418.60 1.604898
418.70 1.604286
418.80 1.603674
418.90 1.603062
419.00 1.602451
419.10 1.60184
419.20 1.60123
419.30 1.600615
419.40 1.599852
419.50 1.599089
419.60 1.598327
419.70 1.597566
419.80 1.596805
419.90 1.596011
420.00 1.595113
420.10 1.594215
420.20 1.593319
420.30 1.592423
420.40 1.591527
420.50 1.590633
420.60 1.589739
420.70 1.588845
420.80 1.587953
420.90 1.587065
421.00 1.586311
421.10 1.585557
421.20 1.584755
421.30 1.583802
421.40 1.582851
421.50 1.5819
421.60 1.58095
421.70 1.580001
421.80 1.579052
421.90 1.578152
422.00 1.577404
422.10 1.576657
422.20 1.57591
422.30 1.575164
422.40 1.574412
422.50 1.573456
422.60 1.5725
422.70 1.571545
422.80 1.57059
422.90 1.569637
423.00 1.568684
423.10 1.567732
423.20 1.56678
423.30 1.56583
423.40 1.56488
423.50 1.563931
423.60 1.562982
423.70 1.562034
423.80 1.561087
423.90 1.560141
424.00 1.559195
424.10 1.55825
424.20 1.557306
424.30 1.556363
424.40 1.555466
424.50 1.554594
424.60 1.553722
424.70 1.552851
424.80 1.551981
424.90 1.551111
425.00 1.550242
425.10 1.549374
425.20 1.548506
425.30 1.547639
425.40 1.546767
425.50 1.545858
425.60 1.54495
425.70 1.544042
425.80 1.543135
425.90 1.542229
426.00 1.541324
426.10 1.540419
426.20 1.539514
426.30 1.538611
426.40 1.537708
426.50 1.536806
426.60 1.535904
426.70 1.535004
426.80 1.534103
426.90 1.533203
427.00 1.532269
427.10 1.531336
427.20 1.530403
427.30 1.529471
427.40 1.52854
427.50 1.52761
427.60 1.52668
427.70 1.525751
427.80 1.524823
427.90 1.523895
428.00 1.522968
428.10 1.522042
428.20 1.521116
428.30 1.520191
428.40 1.519267
428.50 1.518344
428.60 1.517421
428.70 1.516499
428.80 1.515581
428.90 1.514712
429.00 1.513844
429.10 1.512976
429.20 1.512109
429.30 1.511243
429.40 1.510377
429.50 1.509512
429.60 1.508648
429.70 1.507784
429.80 1.506921
429.90 1.506058
430.00 1.505196
430.10 1.504335
430.20 1.503474
430.30 1.502614
430.40 1.501755
430.50 1.500896
430.60 1.500038
430.70 1.499181
430.80 1.498324
430.90 1.497468
431.00 1.496612
431.10 1.495758
431.20 1.494903
431.30 1.494042
431.40 1.493082
431.50 1.492123
431.60 1.491164
431.70 1.490207
431.80 1.48925
431.90 1.488293
432.00 1.487338
432.10 1.486383
432.20 1.485429
432.30 1.484475
432.40 1.483523
432.50 1.482571
432.60 1.481619
432.70 1.480669
432.80 1.479719
432.90 1.47877
433.00 1.477822
433.10 1.476874
433.20 1.475927
433.30 1.474959
433.40 1.473705
433.50 1.472452
433.60 1.4712
433.70 1.469949
433.80 1.468957
433.90 1.46828
434.00 1.467316
434.10 1.466177
434.20 1.465038
434.30 1.463901
434.40 1.462764
434.50 1.461629
434.60 1.460494
434.70 1.45936
434.80 1.458202
434.90 1.456722
435.00 1.455243
435.10 1.453765
435.20 1.452288
435.30 1.450813
435.40 1.449339
435.50 1.447865
435.60 1.446393
435.70 1.444923
435.80 1.443453
435.90 1.441985
436.00 1.440518
436.10 1.439052
436.20 1.437587
436.30 1.436059
436.40 1.434388
436.50 1.431828
436.60 1.42927
436.70 1.426715
436.80 1.424162
436.90 1.421611
437.00 1.419062
437.10 1.416515
437.20 1.413299
437.30 1.409467
437.40 1.405572
437.50 1.400813
437.60 1.396058
437.70 1.391308
437.80 1.386562
437.90 1.38182
438.00 1.376953
438.10 1.370387
438.20 1.363827
438.30 1.358401
438.40 1.350421
438.50 1.33363
438.60 1.315949
438.70 1.276749
438.80 1.229321
438.90 1.260315
439.00 1.289818
439.10 1.306588
439.20 1.322804
439.30 1.331872
439.40 1.340931
439.50 1.349982
439.60 1.35884
439.70 1.364718
439.80 1.369254
439.90 1.372742
440.00 1.376226
440.10 1.379706
440.20 1.382995
440.30 1.383779
440.40 1.384562
440.50 1.385344
440.60 1.386125
440.70 1.386905
440.80 1.387684
440.90 1.388463
441.00 1.389241
441.10 1.390018
441.20 1.390695
441.30 1.390065
441.40 1.389631
441.50 1.389437
441.60 1.389244
441.70 1.388824
441.80 1.388
441.90 1.387178
442.00 1.386356
442.10 1.385534
442.20 1.384713
442.30 1.383893
442.40 1.382786
442.50 1.381328
442.60 1.379871
442.70 1.378748
442.80 1.37807
442.90 1.376665
443.00 1.375022
443.10 1.373088
443.20 1.370884
443.30 1.36843
443.40 1.365666
443.50 1.36252
443.60 1.35767
443.70 1.347895
443.80 1.334339
443.90 1.339262
444.00 1.34153
444.10 1.343449
444.20 1.344232
444.30 1.343559
444.40 1.341993
444.50 1.340428
444.60 1.338123
444.70 1.334913
444.80 1.331295
444.90 1.327299
445.00 1.323306
445.10 1.319317
445.20 1.314096
445.30 1.30737
445.40 1.300649
445.50 1.293934
445.60 1.287226
445.70 1.280523
445.80 1.271315
445.90 1.259799
446.00 1.248293
446.10 1.236797
446.20 1.223607
446.30 1.206922
446.40 1.182503
446.50 1.152831
446.60 1.123186
446.70 1.093568
446.80 1.048129
446.90 0.9881102
447.00 0.9427218
447.10 0.8458981
447.20 0.7656707
447.30 0.9371176
447.40 1.014294
447.50 1.071864
447.60 1.116941
447.70 1.150498
447.80 1.174537
447.90 1.195476
448.00 1.21145
448.10 1.222847
448.20 1.234233
448.30 1.245609
448.40 1.256975
448.50 1.26833
448.60 1.276893
448.70 1.282882
448.80 1.288705
448.90 1.292407
449.00 1.296106
449.10 1.299801
449.20 1.303493
449.30 1.306493
449.40 1.308395
449.50 1.310296
449.60 1.311585
449.70 1.312311
449.80 1.313036
449.90 1.31376
450.00 1.314483
450.10 1.315206
450.20 1.315928
450.30 1.316649
450.40 1.316677
450.50 1.316706
450.60 1.316734
450.70 1.316762
450.80 1.31679
450.90 1.316818
451.00 1.316728
451.10 1.316637
451.20 1.31629
451.30 1.315707
451.40 1.313903
451.50 1.3121
451.60 1.307859
451.70 1.297524
451.80 1.289636
451.90 1.291502
452.00 1.294585
452.10 1.297664
452.20 1.298915
452.30 1.300165
452.40 1.301414
452.50 1.302662
452.60 1.303728
452.70 1.304218
452.80 1.304179
452.90 1.30414
453.00 1.304101
453.10 1.304062
453.20 1.303856
453.30 1.303651
453.40 1.303445
453.50 1.30324
453.60 1.303035
453.70 1.302829
453.80 1.302616
453.90 1.302392
454.00 1.302168
454.10 1.301945
454.20 1.301591
454.30 1.301238
454.40 1.300886
454.50 1.300533
454.60 1.300181
454.70 1.299714
454.80 1.299143
454.90 1.298572
455.00 1.298001
455.10 1.297431
455.20 1.296861
455.30 1.296291
455.40 1.295722
455.50 1.295153
455.60 1.294584
455.70 1.294016
455.80 1.293127
455.90 1.292239
456.00 1.291352
456.10 1.290551
456.20 1.289986
456.30 1.28942
456.40 1.288855
456.50 1.288291
456.60 1.287727
456.70 1.287163
456.80 1.286599
456.90 1.286036
457.00 1.285473
457.10 1.284911
457.20 1.284349
457.30 1.283621
457.40 1.282893
457.50 1.282166
457.60 1.281439
457.70 1.280713
457.80 1.279988
457.90 1.279263
458.00 1.278538
458.10 1.277814
458.20 1.27709
458.30 1.276367
458.40 1.275645
458.50 1.274923
458.60 1.274201
458.70 1.273598
458.80 1.273043
458.90 1.272488
459.00 1.271933
459.10 1.271379
459.20 1.270826
459.30 1.270108
459.40 1.26939
459.50 1.268673
459.60 1.267957
459.70 1.267241
459.80 1.266526
459.90 1.265811
460.00 1.265096
460.10 1.264382
460.20 1.263669
460.30 1.262956
460.40 1.262244
460.50 1.261532
460.60 1.26082
460.70 1.260061
460.80 1.259278
460.90 1.258495
461.00 1.257713
461.10 1.256932
461.20 1.256318
461.30 1.255774
461.40 1.255229
461.50 1.254686
461.60 1.254142
461.70 1.253599
461.80 1.252893
461.90 1.252187
462.00 1.251482
462.10 1.250777
462.20 1.250073
462.30 1.249369
462.40 1.248666
462.50 1.247963
462.60 1.247261
462.70 1.246559
462.80 1.245858
462.90 1.245157
463.00 1.244457
463.10 1.243757
463.20 1.243054
463.30 1.24235
463.40 1.241646
463.50 1.240943
463.60 1.24024
463.70 1.239538
463.80 1.238836
463.90 1.23804
464.00 1.23722
464.10 1.236402
464.20 1.235584
464.30 1.234766
464.40 1.233949
464.50 1.233133
464.60 1.232317
464.70 1.231704
464.80 1.231174
464.90 1.230645
465.00 1.230115
465.10 1.229586
465.20 1.229058
465.30 1.228411
465.40 1.227685
465.50 1.226959
465.60 1.226235
465.70 1.22551
465.80 1.224786
465.90 1.223997
466.00 1.223191
466.10 1.222387
466.20 1.221582
466.30 1.220815
466.40 1.220063
466.50 1.219311
466.60 1.21856
466.70 1.217809
466.80 1.217059
466.90 1.21631
467.00 1.215561
467.10 1.214812
467.20 1.214064
467.30 1.213478
467.40 1.21278
467.50 1.212038
467.60 1.211296
467.70 1.210555
467.80 1.209814
467.90 1.20903
468.00 1.208229
468.10 1.207429
468.20 1.20663
468.30 1.206032
468.40 1.205518
468.50 1.205003
468.60 1.203356
468.70 1.202842
468.80 1.202329
468.90 1.201816
469.00 1.200474
469.10 1.19946
469.20 1.198667
469.30 1.197873
469.40 1.197081
469.50 1.196143
469.60 1.195146
469.70 1.19415
469.80 1.193155
469.90 1.191877
470.00 1.190566
470.10 1.188919
470.20 1.186809
470.30 1.184701
470.40 1.182594
470.50 1.180489
470.60 1.175398
470.70 1.169564
470.80 1.163735
470.90 1.157911
471.00 1.144006
471.10 1.120415
471.20 1.073455
471.30 0.9629155
471.40 0.9687493
471.50 1.052727
471.60 1.088661
471.70 1.11884
471.80 1.131869
471.90 1.140607
472.00 1.149338
472.10 1.158061
472.20 1.161165
472.30 1.162865
472.40 1.164563
472.50 1.16626
472.60 1.167955
472.70 1.168964
472.80 1.168982
472.90 1.168821
473.00 1.16866
473.10 1.1685
473.20 1.168339
473.30 1.168179
473.40 1.168019
473.50 1.167858
473.60 1.167698
473.70 1.167538
473.80 1.167111
473.90 1.166619
474.00 1.166127
474.10 1.165635
474.20 1.165143
474.30 1.164652
474.40 1.164161
474.50 1.16367
474.60 1.16318
474.70 1.16269
474.80 1.1622
474.90 1.161711
475.00 1.161222
475.10 1.160733
475.20 1.160245
475.30 1.159756
475.40 1.15916
475.50 1.158536
475.60 1.157913
475.70 1.15729
475.80 1.156668
475.90 1.156046
476.00 1.155425
476.10 1.154804
476.20 1.154167
476.30 1.153523
476.40 1.152881
476.50 1.152238
476.60 1.151596
476.70 1.150955
476.80 1.150313
476.90 1.149654
477.00 1.148991
477.10 1.148328
477.20 1.147666
477.30 1.147004
477.40 1.146342
477.50 1.145681
477.60 1.145021
477.70 1.14436
477.80 1.143701
477.90 1.143041
478.00 1.142383
478.10 1.141724
478.20 1.141066
478.30 1.140409
478.40 1.139752
478.50 1.139095
478.60 1.138439
478.70 1.137911
478.80 1.137436
478.90 1.136793
479.00 1.136109
479.10 1.135425
479.20 1.134742
479.30 1.134059
479.40 1.133392
479.50 1.132735
479.60 1.132079
479.70 1.131423
479.80 1.130767
479.90 1.130112
480.00 1.129458
480.10 1.128804
480.20 1.12815
480.30 1.127497
480.40 1.126844
480.50 1.126192
480.60 1.12554
480.70 1.124888
480.80 1.124237
480.90 1.123587
481.00 1.122936
481.10 1.122287
481.20 1.121624
481.30 1.120961
481.40 1.120299
481.50 1.119637
481.60 1.118976
481.70 1.118315
481.80 1.117655
481.90 1.116995
482.00 1.116336
482.10 1.115677
482.20 1.115021
482.30 1.114407
482.40 1.113793
482.50 1.113179
482.60 1.112566
482.70 1.111954
482.80 1.111341
482.90 1.110729
483.00 1.110118
483.10 1.109507
483.20 1.108896
483.30 1.108286
483.40 1.107676
483.50 1.107067
483.60 1.106458
483.70 1.1058
483.80 1.105142
483.90 1.104485
484.00 1.103828
484.10 1.103172
484.20 1.102524
484.30 1.10188
484.40 1.101237
484.50 1.100594
484.60 1.099952
484.70 1.099307
484.80 1.09862
484.90 1.097933
485.00 1.097247
485.10 1.096562
485.20 1.095877
485.30 1.095192
485.40 1.094508
485.50 1.093825
485.60 1.093142
485.70 1.092402
485.80 1.091663
485.90 1.090924
486.00 1.090186
486.10 1.089449
486.20 1.088712
486.30 1.087975
486.40 1.087239
486.50 1.086504
486.60 1.085769
486.70 1.085037
486.80 1.084333
486.90 1.08363
487.00 1.082927
487.10 1.082225
487.20 1.081397
487.30 1.08057
487.40 1.079743
487.50 1.078917
487.60 1.078091
487.70 1.077267
487.80 1.076442
487.90 1.075619
488.00 1.074795
488.10 1.073973
488.20 1.073134
488.30 1.072077
488.40 1.071021
488.50 1.069966
488.60 1.068911
488.70 1.067857
488.80 1.066655
488.90 1.065453
489.00 1.064146
489.10 1.062568
489.20 1.060991
489.30 1.059416
489.40 1.057841
489.50 1.056268
489.60 1.054696
489.70 1.053125
489.80 1.051515
489.90 1.049041
490.00 1.046568
490.10 1.044098
490.20 1.04163
490.30 1.039164
490.40 1.0353
490.50 1.031439
490.60 1.027581
490.70 1.023727
490.80 1.019108
490.90 1.014736
491.00 1.012155
491.10 1.013394
491.20 1.0136
491.30 1.009374
491.40 1.00212
491.50 0.9922786
491.60 0.9764467
491.70 0.9551924
491.80 0.9334293
491.90 0.9046995
492.00 0.8753018
492.10 0.8678411
492.20 0.7676903
492.30 0.8050763
492.40 0.8617934
492.50 0.8977778
492.60 0.9229517
492.70 0.937311
492.80 0.9516585
492.90 0.9659943
493.00 0.9797208
493.10 0.9854996
493.20 0.9912737
493.30 0.997043
493.40 1.002807
493.50 1.008567
493.60 1.011834
493.70 1.014319
493.80 1.016801
493.90 1.018884
494.00 1.020344
494.10 1.021638
494.20 1.022583
494.30 1.023527
494.40 1.02447
494.50 1.025412
494.60 1.026338
494.70 1.027046
494.80 1.027624
494.90 1.027832
495.00 1.02804
495.10 1.028247
495.20 1.028042
495.30 1.027836
495.40 1.027631
495.50 1.027425
495.60 1.02722
495.70 1.027015
495.80 1.02681
495.90 1.026605
496.00 1.0264
496.10 1.026128
496.20 1.025732
496.30 1.025567
496.40 1.025402
496.50 1.025237
496.60 1.025072
496.70 1.02451
496.80 1.023948
496.90 1.023386
497.00 1.022825
497.10 1.022264
497.20 1.021703
497.30 1.021182
497.40 1.020771
497.50 1.020361
497.60 1.019951
497.70 1.019526
497.80 1.018895
497.90 1.018264
498.00 1.017634
498.10 1.017004
498.20 1.016375
498.30 1.015746
498.40 1.015118
498.50 1.01449
498.60 1.013862
498.70 1.013456
498.80 1.013049
498.90 1.0121
499.00 1.011151
499.10 1.010203
499.20 1.00943
499.30 1.00884
499.40 1.007721
499.50 1.006604
499.60 1.005487
499.70 1.004348
499.80 1.002897
499.90 1.001448
500.00 1
500.10 0.9985529
500.20 0.9966198
500.30 0.9936534
500.40 0.9906893
500.50 0.9877276
500.60 0.9847681
500.70 0.9818109
500.80 0.9771325
500.90 0.968797
501.00 0.9604681
501.10 0.9521457
501.20 0.9325463
501.30 0.9040059
501.40 0.867634
501.50 0.7748272
501.60 0.7554025
501.70 0.8723696
501.80 0.917045
501.90 0.9403358
502.00 0.9587371
502.10 0.9667772
502.20 0.9744978
502.30 0.9780544
502.40 0.9807933
502.50 0.9817989
502.60 0.9828036
502.70 0.9838075
502.80 0.9848105
502.90 0.9858126
503.00 0.9864456
503.10 0.9862956
503.20 0.9861456
503.30 0.9859957
503.40 0.985783
503.50 0.9853915
503.60 0.9850002
503.70 0.9846091
503.80 0.9841529
503.90 0.9832179
504.00 0.9815236
504.10 0.9782161
504.20 0.9749112
504.30 0.9716088
504.40 0.9683167
504.50 0.965049
504.60 0.9602467
504.70 0.9410871
504.80 0.9054169
504.90 0.92494
505.00 0.9429421
505.10 0.9530041
505.20 0.9611307
505.30 0.9637678
505.40 0.9664027
505.50 0.9690354
505.60 0.9708917
505.70 0.9711018
505.80 0.9713117
505.90 0.9715213
506.00 0.9717307
506.10 0.9719398
506.20 0.9720228
506.30 0.9717474
506.40 0.9714722
506.50 0.9711971
506.60 0.9709222
506.70 0.9706474
506.80 0.9703727
506.90 0.9700982
507.00 0.9698239
507.10 0.969515
507.20 0.9691013
507.30 0.9685984
507.40 0.9680959
507.50 0.9675936
507.60 0.9670917
507.70 0.9665901
507.80 0.9660889
507.90 0.9655879
508.00 0.9650873
508.10 0.9645869
508.20 0.964087
508.30 0.9635873
508.40 0.9630879
508.50 0.9625889
508.60 0.9620902
508.70 0.9615917
508.80 0.9611249
508.90 0.9607472
509.00 0.9603697
509.10 0.9599492
509.20 0.9594369
509.30 0.958925
509.40 0.9584134
509.50 0.9579021
509.60 0.9573911
509.70 0.9568805
509.80 0.9563702
509.90 0.9558602
510.00 0.9553505
510.10 0.9548412
510.20 0.9543322
510.30 0.953822
510.40 0.9533081
510.50 0.9527945
510.60 0.9522812
510.70 0.9517682
510.80 0.9512556
510.90 0.9507432
511.00 0.9502313
511.10 0.9497196
511.20 0.9492083
511.30 0.9486973
511.40 0.9481866
511.50 0.9476762
511.60 0.9471635
511.70 0.9466453
511.80 0.9461274
511.90 0.9456098
512.00 0.9450926
512.10 0.9445757
512.20 0.9440591
512.30 0.9435467
512.40 0.9430456
512.50 0.9425447
512.60 0.9420442
512.70 0.941544
512.80 0.9410441
512.90 0.9405446
513.00 0.9400453
513.10 0.9395464
513.20 0.9390478
513.30 0.9385495
513.40 0.9380516
513.50 0.9375539
513.60 0.9370566
513.70 0.9365595
513.80 0.9360628
513.90 0.9355664
514.00 0.9350579
514.10 0.9345476
514.20 0.9340377
514.30 0.9335281
514.40 0.9330188
514.50 0.9325099
514.60 0.9320013
514.70 0.931493
514.80 0.930985
514.90 0.9304773
515.00 0.92997
515.10 0.929463
515.20 0.9289563
515.30 0.92845
515.40 0.9279439
515.50 0.9274382
515.60 0.9269328
515.70 0.9264278
515.80 0.925923
515.90 0.9254186
516.00 0.9249145
516.10 0.9244107
516.20 0.9239073
516.30 0.9234041
516.40 0.9229013
516.50 0.9223988
516.60 0.9218966
516.70 0.9213947
516.80 0.9208931
516.90 0.9203918
517.00 0.9198908
517.10 0.9193902
517.20 0.9188899
517.30 0.9183899
517.40 0.9178902
517.50 0.9173908
517.60 0.9168918
517.70 0.916393
517.80 0.9158946
517.90 0.9153965
518.00 0.9148987
518.10 0.9144013
518.20 0.9139041
518.30 0.9134073
518.40 0.9129108
518.50 0.9124146
518.60 0.9119187
518.70 0.9114231
518.80 0.9109278
518.90 0.9104329
519.00 0.9099383
519.10 0.909443
519.20 0.9089469
519.30 0.9084511
519.40 0.9079556
519.50 0.9074605
519.60 0.9069656
519.70 0.9064711
519.80 0.9059769
519.90 0.905483
520.00 0.9049894
520.10 0.9044962
520.20 0.9040032
520.30 0.9035105
520.40 0.9030182
520.50 0.9025262
520.60 0.9020345
520.70 0.9015431
520.80 0.901052
520.90 0.9005612
521.00 0.9000707
521.10 0.8995806
521.20 0.8990907
521.30 0.8986012
521.40 0.898112
521.50 0.897623
521.60 0.8971344
521.70 0.8966461
521.80 0.8961581
521.90 0.8956704
522.00 0.8951831
522.10 0.894696
522.20 0.8942092
522.30 0.8937228
522.40 0.8932366
522.50 0.8927508
522.60 0.8922652
522.70 0.89178
522.80 0.8912951
522.90 0.8908105
523.00 0.8903261
523.10 0.8898421
523.20 0.8893584
523.30 0.888875
523.40 0.8883919
523.50 0.8879091
523.60 0.8874267
523.70 0.8869445
523.80 0.8864626
523.90 0.885981
524.00 0.8854998
524.10 0.8850188
524.20 0.8845381
524.30 0.8840576
524.40 0.8835772
524.50 0.8830971
524.60 0.8826173
524.70 0.8821378
524.80 0.8816586
524.90 0.8811797
525.00 0.8807011
525.10 0.8802228
525.20 0.8797448
525.30 0.8792671
525.40 0.8787897
525.50 0.8783127
525.60 0.8778359
525.70 0.8773594
525.80 0.8768832
525.90 0.8764073
526.00 0.8759317
526.10 0.8754564
526.20 0.8749814
526.30 0.8745067
526.40 0.8740323
526.50 0.8735582
526.60 0.8730844
526.70 0.8726109
526.80 0.8721377
526.90 0.8716647
527.00 0.8711921
527.10 0.8707198
527.20 0.8702478
527.30 0.869776
527.40 0.8693046
527.50 0.8688334
527.60 0.8683626
527.70 0.867892
527.80 0.8674218
527.90 0.8669518
528.00 0.8664821
528.10 0.8660127
528.20 0.8655437
528.30 0.8650749
528.40 0.8646064
528.50 0.8641382
528.60 0.8636702
528.70 0.8632026
528.80 0.8627353
528.90 0.8622682
529.00 0.8618015
529.10 0.861335
529.20 0.8608689
529.30 0.860403
529.40 0.8599374
529.50 0.8594721
529.60 0.8590068
529.70 0.8585419
529.80 0.8580772
529.90 0.8576128
530.00 0.8571487
530.10 0.8566849
530.20 0.8562214
530.30 0.8557582
530.40 0.8552953
530.50 0.8548326
530.60 0.8543703
530.70 0.8539082
530.80 0.8534464
530.90 0.8529849
531.00 0.8525237
531.10 0.8520628
531.20 0.8516021
531.30 0.8511418
531.40 0.8506817
531.50 0.850222
531.60 0.8497625
531.70 0.8493033
531.80 0.8488443
531.90 0.8483857
532.00 0.8479274
532.10 0.8474693
532.20 0.8470115
532.30 0.8465539
532.40 0.8460967
532.50 0.8456397
532.60 0.845183
532.70 0.8447266
532.80 0.8442704
532.90 0.8438146
533.00 0.843359
533.10 0.8429037
533.20 0.8424487
533.30 0.841994
533.40 0.8415396
533.50 0.8410854
533.60 0.8406315
533.70 0.8401779
533.80 0.8397246
533.90 0.8392716
534.00 0.8388188
534.10 0.8383664
534.20 0.8379142
534.30 0.8374623
534.40 0.8370106
534.50 0.8365593
534.60 0.8361082
534.70 0.8356574
534.80 0.8352068
534.90 0.8347564
535.00 0.8343062
535.10 0.8338563
535.20 0.8334066
535.30 0.8329573
535.40 0.8325082
535.50 0.8320594
535.60 0.8316109
535.70 0.8311626
535.80 0.8307146
535.90 0.8302669
536.00 0.8298195
536.10 0.8293724
536.20 0.8289255
536.30 0.8284789
536.40 0.8280326
536.50 0.8275865
536.60 0.8271408
536.70 0.8266953
536.80 0.8262501
536.90 0.8258051
537.00 0.8253605
537.10 0.8249161
537.20 0.8244719
537.30 0.8240281
537.40 0.8235845
537.50 0.8231412
537.60 0.8226982
537.70 0.8222554
537.80 0.8218129
537.90 0.8213707
538.00 0.8209288
538.10 0.8204871
538.20 0.8200457
538.30 0.8196046
538.40 0.8191637
538.50 0.8187231
538.60 0.8182828
538.70 0.8178428
538.80 0.817403
538.90 0.8169635
539.00 0.8165243
539.10 0.8160853
539.20 0.8156466
539.30 0.8152082
539.40 0.81477
539.50 0.8143322
539.60 0.8138945
539.70 0.8134572
539.80 0.8130201
539.90 0.8125833
540.00 0.8121467
540.10 0.8117105
540.20 0.8112754
540.30 0.810841
540.40 0.8104068
540.50 0.809973
540.60 0.8095393
540.70 0.809106
540.80 0.8086729
540.90 0.8082401
541.00 0.8078075
541.10 0.8073752
541.20 0.8069432
541.30 0.8065114
541.40 0.8060799
541.50 0.8056487
541.60 0.8052177
541.70 0.804787
541.80 0.8043566
541.90 0.8039264
542.00 0.8034965
542.10 0.8030668
542.20 0.8026374
542.30 0.8022083
542.40 0.8017794
542.50 0.8013508
542.60 0.8009224
542.70 0.8004943
542.80 0.8000665
542.90 0.799639
543.00 0.7992116
543.10 0.7987846
543.20 0.7983578
543.30 0.7979313
543.40 0.797505
543.50 0.797079
543.60 0.7966533
543.70 0.7962278
543.80 0.7958026
543.90 0.7953776
544.00 0.7949529
544.10 0.7945284
544.20 0.7941042
544.30 0.7936803
544.40 0.7932566
544.50 0.7928332
544.60 0.79241
544.70 0.7919871
544.80 0.7915645
544.90 0.7911421
545.00 0.79072
545.10 0.7902981
545.20 0.7898765
545.30 0.7894551
545.40 0.789034
545.50 0.7886131
545.60 0.7881924
545.70 0.7877718
545.80 0.7873516
545.90 0.7869315
546.00 0.7865117
546.10 0.7860922
546.20 0.7856729
546.30 0.7852539
546.40 0.7848351
546.50 0.7844166
546.60 0.7839984
546.70 0.7835804
546.80 0.7831626
546.90 0.7827451
547.00 0.7823279
547.10 0.7819109
547.20 0.7814941
547.30 0.7810776
547.40 0.7806614
547.50 0.7802454
547.60 0.7798297
547.70 0.7794142
547.80 0.778999
547.90 0.778584
548.00 0.7781693
548.10 0.7777548
548.20 0.7773406
548.30 0.7769266
548.40 0.7765128
548.50 0.7760993
548.60 0.775686
548.70 0.775273
548.80 0.7748602
548.90 0.7744477
549.00 0.7740354
549.10 0.7736234
549.20 0.7732116
549.30 0.7728001
549.40 0.7723888
549.50 0.7719778
549.60 0.771567
549.70 0.7711565
549.80 0.7707462
549.90 0.7703361
550.00 0.7699263
550.10 0.7695168
550.20 0.7691075
550.30 0.7686984
550.40 0.7682896
550.50 0.7678811
550.60 0.7674727
550.70 0.7670647
550.80 0.7666569
550.90 0.7662493
551.00 0.7658426
551.10 0.7654398
551.20 0.7650372
551.30 0.7646349
551.40 0.7642328
551.50 0.763831
551.60 0.7634294
551.70 0.7630281
551.80 0.7626269
551.90 0.7622261
552.00 0.7618254
552.10 0.761425
552.20 0.7610249
552.30 0.760625
552.40 0.7602253
552.50 0.7598259
552.60 0.7594267
552.70 0.7590277
552.80 0.758629
552.90 0.7582305
553.00 0.7578323
553.10 0.7574343
553.20 0.7570366
553.30 0.756639
553.40 0.7562417
553.50 0.7558447
553.60 0.7554479
553.70 0.7550513
553.80 0.7546515
553.90 0.7542495
554.00 0.7538477
554.10 0.7534462
554.20 0.753045
554.30 0.7526439
554.40 0.7522432
554.50 0.7518426
554.60 0.7514423
554.70 0.7510423
554.80 0.7506424
554.90 0.7502429
555.00 0.7498435
555.10 0.7494444
555.20 0.7490456
555.30 0.7486469
555.40 0.7482485
555.50 0.7478504
555.60 0.7474525
555.70 0.7470548
555.80 0.7466574
555.90 0.7462602
556.00 0.7458632
556.10 0.7454665
556.20 0.74507
556.30 0.7446738
556.40 0.7442777
556.50 0.7438821
556.60 0.7434893
556.70 0.7430967
556.80 0.7427043
556.90 0.7423122
557.00 0.7419203
557.10 0.7415286
557.20 0.7411372
557.30 0.740746
557.40 0.7403551
557.50 0.7399643
557.60 0.7395738
557.70 0.7391836
557.80 0.7387936
557.90 0.7384038
558.00 0.7380142
558.10 0.7376249
558.20 0.7372358
558.30 0.7368469
558.40 0.7364583
558.50 0.7360698
558.60 0.7356817
558.70 0.7352937
558.80 0.734906
558.90 0.7345185
559.00 0.7341313
559.10 0.7337442
559.20 0.7333574
559.30 0.7329709
559.40 0.7325845
559.50 0.7321984
559.60 0.7318126
559.70 0.7314269
559.80 0.7310415
559.90 0.7306563
560.00 0.7302713
560.10 0.7298866
560.20 0.7295021
560.30 0.7291178
560.40 0.7287338
560.50 0.7283499
560.60 0.7279663
560.70 0.727583
560.80 0.7271998
560.90 0.7268169
561.00 0.7264342
561.10 0.7260518
561.20 0.7256695
561.30 0.7252875
561.40 0.7249058
561.50 0.7245242
561.60 0.7241429
561.70 0.7237618
561.80 0.7233809
561.90 0.7230002
562.00 0.7226198
562.10 0.7222384
562.20 0.7218555
562.30 0.7214728
562.40 0.7210903
562.50 0.7207081
562.60 0.720326
562.70 0.7199442
562.80 0.7195627
562.90 0.7191813
563.00 0.7188002
563.10 0.7184193
563.20 0.7180386
563.30 0.7176582
563.40 0.7172779
563.50 0.7168979
563.60 0.7165182
563.70 0.7161386
563.80 0.7157593
563.90 0.7153802
564.00 0.7150013
564.10 0.7146227
564.20 0.7142442
564.30 0.713866
564.40 0.7134881
564.50 0.7131103
564.60 0.7127328
564.70 0.7123554
564.80 0.7119783
564.90 0.7116023
565.00 0.7112284
565.10 0.7108547
565.20 0.7104812
565.30 0.7101079
565.40 0.7097349
565.50 0.7093621
565.60 0.7089895
565.70 0.7086171
565.80 0.7082449
565.90 0.707873
566.00 0.7075012
566.10 0.7071297
566.20 0.7067585
566.30 0.7063874
566.40 0.7060165
566.50 0.7056459
566.60 0.7052755
566.70 0.7049053
566.80 0.7045353
566.90 0.7041655
567.00 0.703796
567.10 0.7034267
567.20 0.7030575
567.30 0.7026886
567.40 0.70232
567.50 0.7019515
567.60 0.7015832
567.70 0.7012142
567.80 0.7008408
567.90 0.7004676
568.00 0.7000946
568.10 0.6997219
568.20 0.6993493
568.30 0.698977
568.40 0.698605
568.50 0.6982331
568.60 0.6978614
568.70 0.69749
568.80 0.6971188
568.90 0.6967478
569.00 0.696377
569.10 0.6960065
569.20 0.6956361
569.30 0.695266
569.40 0.6948961
569.50 0.6945264
569.60 0.6941569
569.70 0.6937877
569.80 0.6934186
569.90 0.6930498
570.00 0.6926812
570.10 0.6923128
570.20 0.6919446
570.30 0.6915767
570.40 0.6912089
570.50 0.6908414
570.60 0.6904741
570.70 0.690107
570.80 0.6897401
570.90 0.6893734
571.00 0.6890069
571.10 0.6886407
571.20 0.6882747
571.30 0.6879089
571.40 0.6875433
571.50 0.6871779
571.60 0.6868127
571.70 0.6864477
571.80 0.686083
571.90 0.6857185
572.00 0.6853541
572.10 0.68499
572.20 0.6846261
572.30 0.6842625
572.40 0.683899
572.50 0.6835357
572.60 0.6831727
572.70 0.6828098
572.80 0.6824472
572.90 0.6820848
573.00 0.6817226
573.10 0.6813606
573.20 0.6809989
573.30 0.6806373
573.40 0.6802713
573.50 0.6798991
573.60 0.6795272
573.70 0.6791554
573.80 0.6787839
573.90 0.6784126
574.00 0.6780415
574.10 0.6776707
574.20 0.6773
574.30 0.6769296
574.40 0.6765594
574.50 0.6761894
574.60 0.6758196
574.70 0.67545
574.80 0.6750806
574.90 0.6747115
575.00 0.6743426
575.10 0.6739739
575.20 0.6736054
575.30 0.6732371
575.40 0.6728691
575.50 0.6725012
575.60 0.6721336
575.70 0.6717662
575.80 0.671399
575.90 0.671032
576.00 0.6706652
576.10 0.6702987
576.20 0.6699324
576.30 0.6695662
576.40 0.6692003
576.50 0.6688346
576.60 0.6684691
576.70 0.6681039
576.80 0.6677388
576.90 0.667374
577.00 0.6670093
577.10 0.6666449
577.20 0.6662807
577.30 0.6659167
577.40 0.6655529
577.50 0.6651893
577.60 0.6648191
577.70 0.6644378
577.80 0.6640567
577.90 0.6636759
578.00 0.6632952
578.10 0.6629148
578.20 0.6625347
578.30 0.6621547
578.40 0.661775
578.50 0.6613955
578.60 0.6610162
578.70 0.6606371
578.80 0.6602583
578.90 0.6598797
579.00 0.6595013
579.10 0.6591215
579.20 0.6587259
579.30 0.6583305
579.40 0.6579353
579.50 0.6575404
579.60 0.6571457
579.70 0.6567513
579.80 0.6563571
579.90 0.6559631
580.00 0.6555693
580.10 0.6551566
580.20 0.6547127
580.30 0.6542691
580.40 0.6538258
580.50 0.6533827
580.60 0.6529399
580.70 0.6524974
580.80 0.6520552
580.90 0.6516132
581.00 0.6511714
581.10 0.65073
581.20 0.6502888
581.30 0.6498478
581.40 0.6494072
581.50 0.6489668
581.60 0.6485266
581.70 0.6480867
581.80 0.6476471
581.90 0.6472078
582.00 0.6467687
582.10 0.646282
582.20 0.6457174
582.30 0.6451532
582.40 0.6445894
582.50 0.6440258
582.60 0.6434627
582.70 0.6428999
582.80 0.6423374
582.90 0.6417753
583.00 0.6412135
583.10 0.6406521
583.20 0.6400911
583.30 0.6395303
583.40 0.63897
583.50 0.6384099
583.60 0.6377253
583.70 0.6368374
583.80 0.63595
583.90 0.6350633
584.00 0.6341771
584.10 0.6332914
584.20 0.6324063
584.30 0.6315218
584.40 0.6306379
584.50 0.6297545
584.60 0.6288717
584.70 0.6279895
584.80 0.6271078
584.90 0.626155
585.00 0.6248764
585.10 0.6235986
585.20 0.6220191
585.30 0.6199472
585.40 0.6178767
585.50 0.6158076
585.60 0.6137399
585.70 0.6116735
585.80 0.6096086
585.90 0.607545
586.00 0.6054827
586.10 0.6034219
586.20 0.6004205
586.30 0.5958848
586.40 0.5913521
586.50 0.5868226
586.60 0.582296
586.70 0.5777726
586.80 0.5713186
586.90 0.5617154
587.00 0.5521186
587.10 0.5425284
587.20 0.529236
587.30 0.5099036
587.40 0.4860766
587.50 0.4333307
587.60 0.3883044
587.70 0.4672792
587.80 0.4994118
587.90 0.5202628
588.00 0.5368061
588.10 0.5463355
588.20 0.5558584
588.30 0.5653747
588.40 0.5727909
588.50 0.5767871
588.60 0.5807805
588.70 0.5847711
588.80 0.5887591
588.90 0.5927443
589.00 0.5957419
589.10 0.5971313
589.20 0.5985198
589.30 0.5999072
589.40 0.6012937
589.50 0.6026792
589.60 0.6040638
589.70 0.6054473
589.80 0.6068299
589.90 0.6082116
590.00 0.6092294
590.10 0.6096548
590.20 0.6100798
590.30 0.6105045
590.40 0.6109289
590.50 0.611353
590.60 0.6117768
590.70 0.6122002
590.80 0.6124015
590.90 0.6125029
591.00 0.6126043
591.10 0.6127055
591.20 0.6128066
591.30 0.6129077
591.40 0.6130086
591.50 0.6131094
591.60 0.6131309
591.70 0.6130232
591.80 0.6129155
591.90 0.6128079
592.00 0.6127002
592.10 0.6125927
592.20 0.6124851
592.30 0.6123776
592.40 0.6122702
592.50 0.6121627
592.60 0.6120553
592.70 0.611948
592.80 0.6118407
592.90 0.6117334
593.00 0.6116261
593.10 0.6114746
593.20 0.6112508
593.30 0.6110271
593.40 0.6108035
593.50 0.61058
593.60 0.6103566
593.70 0.6101334
593.80 0.6099103
593.90 0.6096873
594.00 0.6094644
594.10 0.6092416
594.20 0.6090189
594.30 0.6087964
594.40 0.6085739
594.50 0.6083516
594.60 0.6081294
594.70 0.6079073
594.80 0.6076854
594.90 0.6074635
595.00 0.6072418
595.10 0.6070048
595.20 0.6067429
595.30 0.6064812
595.40 0.6062196
595.50 0.6059581
595.60 0.6056968
595.70 0.6054356
595.80 0.6051746
595.90 0.6049137
596.00 0.6046529
596.10 0.6043923
596.20 0.6041318
596.30 0.6038715
596.40 0.6036113
596.50 0.6033513
596.60 0.6030914
596.70 0.6028158
596.80 0.6025306
596.90 0.6022456
597.00 0.6019607
597.10 0.601676
597.20 0.6013915
597.30 0.6011071
597.40 0.6008229
597.50 0.6005388
597.60 0.600256
597.70 0.599975
597.80 0.5996942
597.90 0.5994135
598.00 0.599133
598.10 0.5988526
598.20 0.5985724
598.30 0.5982923
598.40 0.5980124
598.50 0.5977327
598.60 0.5974531
598.70 0.5971736
598.80 0.5968943
598.90 0.5966152
599.00 0.5963362
599.10 0.5960574
599.20 0.5957787
599.30 0.5955002
599.40 0.5952114
599.50 0.5949229
599.60 0.5946345
599.70 0.5943463
599.80 0.5940582
599.90 0.5937703
600.00 0.5934825
600.10 0.5931949
600.20 0.5929075
600.30 0.5926202
600.40 0.5923331
600.50 0.5920461
600.60 0.5917593
600.70 0.5914727
600.80 0.5911862
600.90 0.5908999
601.00 0.5906137
601.10 0.5903277
601.20 0.5900418
601.30 0.5897561
601.40 0.5894651
601.50 0.5891743
601.60 0.5888836
601.70 0.5885931
601.80 0.5883027
601.90 0.5880125
602.00 0.5877225
602.10 0.5874326
602.20 0.5871429
602.30 0.5868533
602.40 0.5865639
602.50 0.5862747
602.60 0.5859856
602.70 0.5856864
602.80 0.5853867
602.90 0.5850984
603.00 0.5848103
603.10 0.5845223
603.20 0.5842345
603.30 0.5839468
603.40 0.5836593
603.50 0.583372
603.60 0.5830848
603.70 0.5827978
603.80 0.5825109
603.90 0.5822242
604.00 0.5819376
604.10 0.5816512
604.20 0.581365
604.30 0.5810789
604.40 0.580793
604.50 0.5804987
604.60 0.5802046
604.70 0.5799107
604.80 0.5796169
604.90 0.5793233
605.00 0.5790298
605.10 0.5787365
605.20 0.5784434
605.30 0.5781504
605.40 0.5778576
605.50 0.5775649
605.60 0.5772724
605.70 0.5769801
605.80 0.5766879
605.90 0.5763959
606.00 0.5761041
606.10 0.5757277
606.20 0.5753516
606.30 0.5749757
606.40 0.5746
606.50 0.573768
606.60 0.5729364
606.70 0.5699085
606.80 0.5688084
606.90 0.5700396
607.00 0.5706959
607.10 0.5708454
607.20 0.5709949
607.30 0.5708912
607.40 0.5707875
607.50 0.5706839
607.60 0.5705803
607.70 0.5703588
607.80 0.5701375
607.90 0.5699163
608.00 0.5696952
608.10 0.5694742
608.20 0.5692533
608.30 0.5690037
608.40 0.5687543
608.50 0.568505
608.60 0.5682559
608.70 0.568001
608.80 0.5677436
608.90 0.5674864
609.00 0.5672293
609.10 0.5669723
609.20 0.5667155
609.30 0.5664416
609.40 0.5661677
609.50 0.5658941
609.60 0.5656205
609.70 0.5653472
609.80 0.5650739
609.90 0.5648009
610.00 0.5645279
610.10 0.5642551
610.20 0.5639825
610.30 0.56371
610.40 0.5634377
610.50 0.5631655
610.60 0.5628935
610.70 0.5626216
610.80 0.5623498
610.90 0.5620769
611.00 0.561804
611.10 0.5615313
611.20 0.5612588
611.30 0.5609864
611.40 0.5607142
611.50 0.5604421
611.60 0.5601701
611.70 0.5598983
611.80 0.5596267
611.90 0.5593552
612.00 0.5590838
612.10 0.5588126
612.20 0.5585415
612.30 0.5582706
612.40 0.5579954
612.50 0.5577204
612.60 0.5574455
612.70 0.5571708
612.80 0.5568962
612.90 0.5566217
613.00 0.5563474
613.10 0.5560733
613.20 0.5557993
613.30 0.5555255
613.40 0.5552518
613.50 0.5549782
613.60 0.5547048
613.70 0.5544316
613.80 0.5541585
613.90 0.5538855
614.00 0.5536127
614.10 0.5533401
614.20 0.5530676
614.30 0.5527952
614.40 0.5525204
614.50 0.5522458
614.60 0.5519713
614.70 0.551697
614.80 0.5514254
614.90 0.5511544
615.00 0.5508836
615.10 0.550613
615.20 0.5503425
615.30 0.5500721
615.40 0.5498019
615.50 0.5495318
615.60 0.5492619
615.70 0.5489921
615.80 0.5487224
615.90 0.5484529
616.00 0.5481836
616.10 0.5479144
616.20 0.5476454
616.30 0.5473764
616.40 0.5471077
616.50 0.5468391
616.60 0.5465706
616.70 0.5463023
616.80 0.5460341
616.90 0.5457638
617.00 0.5454936
617.10 0.5452236
617.20 0.5449537
617.30 0.544684
617.40 0.5444144
617.50 0.5441449
617.60 0.5438756
617.70 0.5436065
617.80 0.5433375
617.90 0.5430686
618.00 0.5427999
618.10 0.5425314
618.20 0.5422629
618.30 0.5419947
618.40 0.5417265
618.50 0.5414585
618.60 0.5411907
618.70 0.540923
618.80 0.5406555
618.90 0.540388
619.00 0.5401208
619.10 0.5398537
619.20 0.5395867
619.30 0.5393199
619.40 0.5390532
619.50 0.5387866
619.60 0.5385202
619.70 0.538254
619.80 0.5379879
619.90 0.5377219
620.00 0.5374561
620.10 0.5371904
620.20 0.5369249
620.30 0.5366595
620.40 0.5363942
620.50 0.5361291
620.60 0.5358642
620.70 0.5355993
620.80 0.5353347
620.90 0.5350704
621.00 0.5348066
621.10 0.534543
621.20 0.5342795
621.30 0.5340162
621.40 0.533753
621.50 0.53349
621.60 0.5332271
621.70 0.5329643
621.80 0.5327017
621.90 0.5324392
622.00 0.5321769
622.10 0.5319147
622.20 0.5316526
622.30 0.5313907
622.40 0.5311289
622.50 0.5308673
622.60 0.5306058
622.70 0.5303444
622.80 0.5300832
622.90 0.5298222
623.00 0.5295612
623.10 0.5293004
623.20 0.5290398
623.30 0.5287793
623.40 0.5285189
623.50 0.5282587
623.60 0.5279986
623.70 0.5277386
623.80 0.5274788
623.90 0.5272192
624.00 0.5269596
624.10 0.5267002
624.20 0.526441
624.30 0.5261819
624.40 0.5259229
624.50 0.525664
624.60 0.5254053
624.70 0.5251468
624.80 0.5248884
624.90 0.5246301
625.00 0.5243719
625.10 0.5241139
625.20 0.5238561
625.30 0.5235983
625.40 0.5233407
625.50 0.5230833
625.60 0.522826
625.70 0.5225688
625.80 0.5223117
625.90 0.5220548
626.00 0.5217981
626.10 0.5215414
626.20 0.521285
626.30 0.5210286
626.40 0.5207724
626.50 0.5205163
626.60 0.5202604
626.70 0.5200046
626.80 0.5197489
626.90 0.5194934
627.00 0.519238
627.10 0.5189829
627.20 0.5187287
627.30 0.5184746
627.40 0.5182206
627.50 0.5179667
627.60 0.517713
627.70 0.5174595
627.80 0.517206
627.90 0.5169527
628.00 0.5166996
628.10 0.5164465
628.20 0.5161936
628.30 0.5159409
628.40 0.5156882
628.50 0.5154357
628.60 0.5151834
628.70 0.5149312
628.80 0.5146791
628.90 0.5144271
629.00 0.5141753
629.10 0.5139236
629.20 0.513672
629.30 0.5134206
629.40 0.5131693
629.50 0.5129182
629.60 0.5126672
629.70 0.5124163
629.80 0.5121655
629.90 0.5119149
630.00 0.5116644
630.10 0.5114141
630.20 0.5111639
630.30 0.5109138
630.40 0.5106639
630.50 0.5104141
630.60 0.5101644
630.70 0.5099149
630.80 0.5096655
630.90 0.5094162
631.00 0.5091671
631.10 0.5089181
631.20 0.5086693
631.30 0.5084205
631.40 0.5081719
631.50 0.5079235
631.60 0.5076751
631.70 0.5074269
631.80 0.5071788
631.90 0.5069309
632.00 0.5066831
632.10 0.5064354
632.20 0.5061879
632.30 0.5059405
632.40 0.5056932
632.50 0.505446
632.60 0.505199
632.70 0.5049521
632.80 0.5047053
632.90 0.5044587
633.00 0.5042122
633.10 0.5039658
633.20 0.5037196
633.30 0.5034735
633.40 0.5032269
633.50 0.5029799
633.60 0.5027331
633.70 0.5024863
633.80 0.5022397
633.90 0.5019933
634.00 0.501747
634.10 0.5015008
634.20 0.5012547
634.30 0.5010088
634.40 0.500763
634.50 0.5005173
634.60 0.5002717
634.70 0.5000263
634.80 0.499781
634.90 0.4995359
635.00 0.4992908
635.10 0.4990459
635.20 0.4988012
635.30 0.4985565
635.40 0.498312
635.50 0.4980676
635.60 0.4978234
635.70 0.4975793
635.80 0.4973353
635.90 0.4970914
636.00 0.4968477
636.10 0.4966041
636.20 0.4963606
636.30 0.4961172
636.40 0.495874
636.50 0.4956309
636.60 0.4953915
636.70 0.4951525
636.80 0.4949137
636.90 0.4946751
637.00 0.4944365
637.10 0.4941981
637.20 0.4939598
637.30 0.4937216
637.40 0.4934835
637.50 0.4932456
637.60 0.4930078
637.70 0.4927701
637.80 0.4925325
637.90 0.4922951
638.00 0.4920578
638.10 0.4918206
638.20 0.4915836
638.30 0.4913466
638.40 0.4911098
638.50 0.4908731
638.60 0.4906366
638.70 0.4904001
638.80 0.4901638
638.90 0.4899276
639.00 0.4896916
639.10 0.4894556
639.20 0.4892198
639.30 0.4889841
639.40 0.4887485
639.50 0.4885131
639.60 0.4882778
639.70 0.4880419
639.80 0.4878038
639.90 0.4875659
640.00 0.4873281
640.10 0.4870904
640.20 0.4868529
640.30 0.4866154
640.40 0.4863781
640.50 0.486141
640.60 0.4859039
640.70 0.485667
640.80 0.4854302
640.90 0.4851935
641.00 0.4849569
641.10 0.4847205
641.20 0.4844842
641.30 0.484248
641.40 0.4840119
641.50 0.483776
641.60 0.4835402
641.70 0.4833045
641.80 0.4830689
641.90 0.4828335
642.00 0.4825981
642.10 0.4823629
642.20 0.4821279
642.30 0.4818929
642.40 0.4816581
642.50 0.4814234
642.60 0.4811888
642.70 0.4809543
642.80 0.48072
642.90 0.4804858
643.00 0.4802516
643.10 0.4800176
643.20 0.4797838
643.30 0.47955
643.40 0.4793164
643.50 0.4790829
643.60 0.4788495
643.70 0.4786162
643.80 0.4783831
643.90 0.4781501
644.00 0.4779172
644.10 0.4776844
644.20 0.4774517
644.30 0.4772192
644.40 0.4769868
644.50 0.4767545
644.60 0.4765223
644.70 0.4762903
644.80 0.4760583
644.90 0.4758265
645.00 0.4755948
645.10 0.4753633
645.20 0.4751318
645.30 0.4749005
645.40 0.4746693
645.50 0.4744382
645.60 0.4742072
645.70 0.4739764
645.80 0.4737457
645.90 0.4735151
646.00 0.4732846
646.10 0.4730544
646.20 0.472825
646.30 0.4725957
646.40 0.4723665
646.50 0.4721375
646.60 0.4719085
646.70 0.4716797
646.80 0.471451
646.90 0.4712225
647.00 0.470994
647.10 0.4707656
647.20 0.4705374
647.30 0.4703093
647.40 0.4700813
647.50 0.4698535
647.60 0.4696257
647.70 0.4693981
647.80 0.4691706
647.90 0.4689432
648.00 0.4687159
648.10 0.4684887
648.20 0.4682617
648.30 0.4680348
648.40 0.467808
648.50 0.4675813
648.60 0.4673547
648.70 0.4671283
648.80 0.4669019
648.90 0.4666757
649.00 0.4664496
649.10 0.4662236
649.20 0.4659977
649.30 0.465772
649.40 0.4655446
649.50 0.4653173
649.60 0.4650901
649.70 0.464863
649.80 0.4646361
649.90 0.4644092
650.00 0.4641825
650.10 0.4639559
650.20 0.4637294
650.30 0.463503
650.40 0.4632768
650.50 0.4630506
650.60 0.4628246
650.70 0.4625987
650.80 0.4623729
650.90 0.4621472
651.00 0.4619217
651.10 0.4616962
651.20 0.4614709
651.30 0.4612457
651.40 0.4610206
651.50 0.4607956
651.60 0.4605708
651.70 0.4603461
651.80 0.4601214
651.90 0.4598969
652.00 0.4596725
652.10 0.4594483
652.20 0.4592241
652.30 0.459
652.40 0.4587761
652.50 0.4585523
652.60 0.4583275
652.70 0.4581022
652.80 0.457877
652.90 0.4576519
653.00 0.4574269
653.10 0.4572021
653.20 0.4569773
653.30 0.4567527
653.40 0.4565282
653.50 0.4563038
653.60 0.4560796
653.70 0.4558554
653.80 0.4556314
653.90 0.4554075
654.00 0.4551837
654.10 0.45496
654.20 0.4547364
654.30 0.4545129
654.40 0.4542896
654.50 0.4540664
654.60 0.4538432
654.70 0.4536202
654.80 0.4533974
654.90 0.4531746
655.00 0.4529519
655.10 0.4527294
655.20 0.452507
655.30 0.4522847
655.40 0.4520625
655.50 0.4518404
655.60 0.4516184
655.70 0.4513966
655.80 0.4511693
655.90 0.450942
656.00 0.450715
656.10 0.450488
656.20 0.4502611
656.30 0.4500344
656.40 0.4498078
656.50 0.4495813
656.60 0.4493549
656.70 0.4491286
656.80 0.4489025
656.90 0.4486764
657.00 0.4484505
657.10 0.4482247
657.20 0.447999
657.30 0.4477734
657.40 0.447548
657.50 0.4473227
657.60 0.4470974
657.70 0.4468723
657.80 0.4466865
657.90 0.4464608
658.00 0.4462282
658.10 0.4459956
658.20 0.4457633
658.30 0.445531
658.40 0.4452989
658.50 0.4450668
658.60 0.4448349
658.70 0.4446032
658.80 0.4443715
658.90 0.44414
659.00 0.4439085
659.10 0.4436668
659.20 0.4434095
659.30 0.443162
659.40 0.4429147
659.50 0.4426676
659.60 0.4424205
659.70 0.4421736
659.80 0.4419268
659.90 0.4416801
660.00 0.4414336
660.10 0.4411872
660.20 0.4409409
660.30 0.4406948
660.40 0.4404344
660.50 0.4401717
660.60 0.4399092
660.70 0.4396467
660.80 0.4393844
660.90 0.4390806
661.00 0.4387769
661.10 0.4384734
661.20 0.43817
661.30 0.4378668
661.40 0.4375638
661.50 0.4372609
661.60 0.4369582
661.70 0.4366557
661.80 0.4363533
661.90 0.4359458
662.00 0.4355385
662.10 0.4351314
662.20 0.4347245
662.30 0.4343179
662.40 0.4338053
662.50 0.4330932
662.60 0.4323816
662.70 0.4316704
662.80 0.4309597
662.90 0.4296972
663.00 0.4284355
663.10 0.4266936
663.20 0.4278377
663.30 0.4307909
663.40 0.4319331
663.50 0.432142
663.60 0.4323508
663.70 0.4321942
663.80 0.4320378
663.90 0.4318259
664.00 0.4316043
664.10 0.4312863
664.20 0.4309684
664.30 0.4306507
664.40 0.4303332
664.50 0.4300159
664.60 0.4296987
664.70 0.4292516
664.80 0.4288047
664.90 0.4283581
665.00 0.4279117
665.10 0.4274655
665.20 0.4270197
665.30 0.426574
665.40 0.4261286
665.50 0.42554
665.60 0.4249264
665.70 0.4241075
665.80 0.4231426
665.90 0.4221783
666.00 0.4212145
666.10 0.4202512
666.20 0.4192886
666.30 0.4183265
666.40 0.4173649
666.50 0.4153051
666.60 0.4130528
666.70 0.4108017
666.80 0.408552
666.90 0.4063036
667.00 0.4040566
667.10 0.399969
667.20 0.3955589
667.30 0.3884752
667.40 0.3813958
667.50 0.3685605
667.60 0.3547168
667.70 0.3303318
667.80 0.2928968
667.90 0.3138613
668.00 0.3438636
668.10 0.3584908
668.20 0.3718972
668.30 0.3786897
668.40 0.3843128
668.50 0.3899325
668.60 0.3955488
668.70 0.3990167
668.80 0.4008957
668.90 0.4027734
669.00 0.4046501
669.10 0.4065256
669.20 0.4083999
669.30 0.4092051
669.40 0.4098213
669.50 0.4104372
669.60 0.4110527
669.70 0.4116678
669.80 0.4122825
669.90 0.4128968
670.00 0.4135108
670.10 0.4141243
670.20 0.4147375
670.30 0.4149863
670.40 0.4151707
670.50 0.415355
670.60 0.4155391
670.70 0.4157231
670.80 0.4157232
670.90 0.4157232
671.00 0.4157232
671.10 0.4157232
671.20 0.4157232
671.30 0.4157231
671.40 0.415723
671.50 0.4157229
671.60 0.4157228
671.70 0.4157227
671.80 0.4157226
671.90 0.4156555
672.00 0.4155766
672.10 0.4154977
672.20 0.4154188
672.30 0.41534
672.40 0.4152196
672.50 0.4150961
672.60 0.4149727
672.70 0.4148494
672.80 0.414726
672.90 0.4146028
673.00 0.4144796
673.10 0.4143564
673.20 0.4142333
673.30 0.4141103
673.40 0.413957
673.50 0.4137984
673.60 0.4136399
673.70 0.4134815
673.80 0.4133232
673.90 0.4131649
674.00 0.4130067
674.10 0.4128486
674.20 0.4126906
674.30 0.4125326
674.40 0.4123747
674.50 0.4122169
674.60 0.4120591
674.70 0.4119015
674.80 0.4117439
674.90 0.4115864
675.00 0.4114289
675.10 0.4112716
675.20 0.4111143
675.30 0.4109571
675.40 0.41078
675.50 0.4105995
675.60 0.4104191
675.70 0.4102388
675.80 0.4100585
675.90 0.4098784
676.00 0.4096983
676.10 0.4095183
676.20 0.4093385
676.30 0.4091587
676.40 0.408979
676.50 0.4087993
676.60 0.4086198
676.70 0.4084404
676.80 0.408261
676.90 0.4080817
677.00 0.4079026
677.10 0.4077235
677.20 0.4075445
677.30 0.4073656
677.40 0.4071867
677.50 0.407008
677.60 0.4068294
677.70 0.4066508
677.80 0.4064723
677.90 0.4062906
678.00 0.4061084
678.10 0.4059263
678.20 0.4057442
678.30 0.4055623
678.40 0.4053805
678.50 0.4051987
678.60 0.405017
678.70 0.4048354
678.80 0.4046539
678.90 0.4044725
679.00 0.4042912
679.10 0.4041068
679.20 0.4039211
679.30 0.4037355
679.40 0.4035499
679.50 0.4033645
679.60 0.4031792
679.70 0.4029939
679.80 0.4028087
679.90 0.4026237
680.00 0.4024387
680.10 0.4022538
680.20 0.402069
680.30 0.4018843
680.40 0.4016997
680.50 0.4015152
680.60 0.4013308
680.70 0.4011464
680.80 0.4009622
680.90 0.400778
681.00 0.4005939
681.10 0.40041
681.20 0.4002261
681.30 0.4000423
681.40 0.3998586
681.50 0.399675
681.60 0.3994914
681.70 0.399308
681.80 0.3991247
681.90 0.3989414
682.00 0.3987583
682.10 0.3985752
682.20 0.3983922
682.30 0.3982093
682.40 0.3980265
682.50 0.3978438
682.60 0.3976612
682.70 0.3974787
682.80 0.3972962
682.90 0.3971139
683.00 0.3969316
683.10 0.3967494
683.20 0.3965673
683.30 0.3963854
683.40 0.3962034
683.50 0.3960216
683.60 0.3958399
683.70 0.3956583
683.80 0.3954767
683.90 0.3952953
684.00 0.3951139
684.10 0.3949326
684.20 0.3947514
684.30 0.3945703
684.40 0.3943893
684.50 0.3942084
684.60 0.3940276
684.70 0.3938468
684.80 0.3936662
684.90 0.3934856
685.00 0.3933051
685.10 0.3931247
685.20 0.3929444
685.30 0.3927642
685.40 0.3925841
685.50 0.3924041
685.60 0.3922241
685.70 0.3920443
685.80 0.3918645
685.90 0.3916841
686.00 0.3915036
686.10 0.3913232
686.20 0.3911429
686.30 0.3909627
686.40 0.3907826
686.50 0.3906026
686.60 0.3904226
686.70 0.3902428
686.80 0.390063
686.90 0.3898833
687.00 0.3897037
687.10 0.3895242
687.20 0.3893448
687.30 0.3891655
687.40 0.3889862
687.50 0.3888071
687.60 0.388628
687.70 0.388449
687.80 0.3882701
687.90 0.3880913
688.00 0.3879126
688.10 0.387734
688.20 0.3875554
688.30 0.387377
688.40 0.3871986
688.50 0.3870203
688.60 0.3868421
688.70 0.386664
688.80 0.386486
688.90 0.3863081
689.00 0.3861302
689.10 0.3859525
689.20 0.3857748
689.30 0.3855972
689.40 0.3854197
689.50 0.3852423
689.60 0.385065
689.70 0.3848878
689.80 0.3847106
689.90 0.3845336
690.00 0.3843566
690.10 0.3841797
690.20 0.3840029
690.30 0.3838262
690.40 0.3836495
690.50 0.383473
690.60 0.3832965
690.70 0.3831202
690.80 0.3829439
690.90 0.3827677
691.00 0.3825916
691.10 0.3824155
691.20 0.3822396
691.30 0.3820637
691.40 0.381888
691.50 0.3817123
691.60 0.3815367
691.70 0.3813612
691.80 0.3811857
691.90 0.3810104
692.00 0.3808351
692.10 0.3806599
692.20 0.3804849
692.30 0.3803099
692.40 0.3801349
692.50 0.3799601
692.60 0.3797854
692.70 0.3796105
692.80 0.3794347
692.90 0.3792591
693.00 0.3790835
693.10 0.3789081
693.20 0.3787327
693.30 0.3785574
693.40 0.3783822
693.50 0.378207
693.60 0.378032
693.70 0.377857
693.80 0.3776821
693.90 0.3775074
694.00 0.3773327
694.10 0.377158
694.20 0.3769835
694.30 0.376809
694.40 0.3766347
694.50 0.3764604
694.60 0.3762862
694.70 0.3761121
694.80 0.3759381
694.90 0.3757641
695.00 0.3755903
695.10 0.3754165
695.20 0.3752428
695.30 0.3750692
695.40 0.3748957
695.50 0.3747223
695.60 0.3745489
695.70 0.3743756
695.80 0.3742025
695.90 0.3740294
696.00 0.3738563
696.10 0.3736834
696.20 0.3735106
696.30 0.3733378
696.40 0.3731651
696.50 0.3729925
696.60 0.3728182
696.70 0.3726435
696.80 0.3724689
696.90 0.3722944
697.00 0.37212
697.10 0.3719456
697.20 0.3717714
697.30 0.3715972
697.40 0.3714231
697.50 0.3712491
697.60 0.3710752
697.70 0.3709014
697.80 0.3707276
697.90 0.370554
698.00 0.3703804
698.10 0.3702069
698.20 0.3700335
698.30 0.3698601
698.40 0.3696869
698.50 0.3695137
698.60 0.3693407
698.70 0.3691677
698.80 0.3689948
698.90 0.3688219
699.00 0.3686492
699.10 0.3684747
699.20 0.3682998
699.30 0.368125
699.40 0.3679503
699.50 0.3677757
699.60 0.3676012
699.70 0.3674244
699.80 0.3672475
699.90 0.3670707
700.00 0.366894
700.10 0.3667174
700.20 0.3665409
700.30 0.3663645
700.40 0.3661881
700.50 0.3660118
700.60 0.3658357
700.70 0.3656596
700.80 0.3654836
700.90 0.3653076
701.00 0.3651318
701.10 0.3649485
701.20 0.3647634
701.30 0.3645784
701.40 0.3643936
701.50 0.3642088
701.60 0.3640241
701.70 0.3638395
701.80 0.363655
701.90 0.3634706
702.00 0.3632862
702.10 0.363102
702.20 0.3629179
702.30 0.3627338
702.40 0.3625498
702.50 0.362366
702.60 0.3621505
702.70 0.3619278
702.80 0.3617052
702.90 0.3614826
703.00 0.3612602
703.10 0.3610379
703.20 0.3608158
703.30 0.3605937
703.40 0.3603717
703.50 0.3601499
703.60 0.3599282
703.70 0.3597065
703.80 0.359485
703.90 0.3592636
704.00 0.3590423
704.10 0.3588212
704.20 0.3584487
704.30 0.358041
704.40 0.3576334
704.50 0.3572261
704.60 0.356819
704.70 0.3564121
704.80 0.3560054
704.90 0.355599
705.00 0.3551927
705.10 0.3547867
705.20 0.3538446
705.30 0.3527772
705.40 0.3517105
705.50 0.3506443
705.60 0.3495787
705.70 0.3485138
705.80 0.3456322
705.90 0.342326
706.00 0.3390218
706.10 0.3357194
706.20 0.3280443
706.30 0.3193477
706.40 0.3044744
706.50 0.2789606
706.60 0.2817023
706.70 0.3053506
706.80 0.3169781
706.90 0.3271704
707.00 0.3320448
707.10 0.3356707
707.20 0.3392946
707.30 0.3429164
707.40 0.3443781
707.50 0.3453329
707.60 0.3462871
707.70 0.3472408
707.80 0.3481939
707.90 0.3491465
708.00 0.3494365
708.10 0.349571
708.20 0.3497055
708.30 0.3498398
708.40 0.3499741
708.50 0.3501083
708.60 0.3502424
708.70 0.3503764
708.80 0.3505103
708.90 0.3506441
709.00 0.3505994
709.10 0.3505129
709.20 0.3504265
709.30 0.35034
709.40 0.3502536
709.50 0.3501672
709.60 0.3500809
709.70 0.3499946
709.80 0.3499084
709.90 0.3498221
710.00 0.3497359
710.10 0.3496498
710.20 0.3495636
710.30 0.3494776
710.40 0.3493915
710.50 0.3493055
710.60 0.3491776
710.70 0.3490399
710.80 0.3489023
710.90 0.3487648
711.00 0.3486273
711.10 0.3484899
711.20 0.3483525
711.30 0.3482153
711.40 0.348078
711.50 0.3479409
711.60 0.3478038
711.70 0.3476668
711.80 0.3475298
711.90 0.3473929
712.00 0.347256
712.10 0.3471101
712.20 0.346962
712.30 0.346814
712.40 0.3466661
712.50 0.3465182
712.60 0.3463704
712.70 0.3462227
712.80 0.346075
712.90 0.3459275
713.00 0.3457799
713.10 0.3456325
713.20 0.3454851
713.30 0.3453378
713.40 0.3451906
713.50 0.3450434
713.60 0.3448963
713.70 0.3447476
713.80 0.3445955
713.90 0.3444435
714.00 0.3442915
714.10 0.3441403
714.20 0.3439893
714.30 0.3438384
714.40 0.3436875
714.50 0.3435368
714.60 0.3433861
714.70 0.3432354
714.80 0.3430848
714.90 0.3429343
715.00 0.3427839
715.10 0.3426335
715.20 0.3424833
715.30 0.342333
715.40 0.3421829
715.50 0.3420328
715.60 0.3418828
715.70 0.3417329
715.80 0.341583
715.90 0.3414332
716.00 0.3412835
716.10 0.3411338
716.20 0.3409843
716.30 0.3408347
716.40 0.3406853
716.50 0.3405359
716.60 0.3403844
716.70 0.3402325
716.80 0.3400806
716.90 0.3399289
717.00 0.3397771
717.10 0.3396255
717.20 0.3394739
717.30 0.3393224
717.40 0.339171
717.50 0.3390196
717.60 0.3388683
717.70 0.3387171
717.80 0.338566
717.90 0.3384149
718.00 0.3382639
718.10 0.3381129
718.20 0.3379613
718.30 0.3378094
718.40 0.3376575
718.50 0.3375056
718.60 0.3373539
718.70 0.3372022
718.80 0.3370506
718.90 0.3368991
719.00 0.3367476
719.10 0.3365962
719.20 0.3364449
719.30 0.3362937
719.40 0.3361425
719.50 0.3359914
719.60 0.3358403
719.70 0.3356894
719.80 0.3355385
719.90 0.3353877
720.00 0.3352369
720.10 0.3350862
720.20 0.3349356
720.30 0.3347851
720.40 0.3346346
720.50 0.3344842
720.60 0.3343339
720.70 0.3341841
720.80 0.3340347
720.90 0.3338846
721.00 0.3337345
721.10 0.3335844
721.20 0.3334344
721.30 0.3332845
721.40 0.3331347
721.50 0.3329849
721.60 0.3328352
721.70 0.3326856
721.80 0.332536
721.90 0.3323865
722.00 0.3322371
722.10 0.3320878
722.20 0.3319385
722.30 0.3317893
722.40 0.3316402
722.50 0.3314911
722.60 0.3313421
722.70 0.3311911
722.80 0.3310392
722.90 0.3308873
723.00 0.3307355
723.10 0.3305837
723.20 0.3304321
723.30 0.3302805
723.40 0.3301289
723.50 0.3299775
723.60 0.3298261
723.70 0.3296748
723.80 0.3295235
723.90 0.3293723
724.00 0.3292212
724.10 0.3290702
724.20 0.328914
724.30 0.328755
724.40 0.328596
724.50 0.3284372
724.60 0.3282784
724.70 0.3281197
724.80 0.3279611
724.90 0.3278026
725.00 0.3276441
725.10 0.3274857
725.20 0.3273274
725.30 0.3271691
725.40 0.327011
725.50 0.3268529
725.60 0.3266949
725.70 0.3265369
725.80 0.3263526
725.90 0.3261541
726.00 0.3259556
726.10 0.3257573
726.20 0.3255591
726.30 0.325361
726.40 0.3251629
726.50 0.324965
726.60 0.3247672
726.70 0.3245694
726.80 0.3242432
726.90 0.3238479
727.00 0.3234528
727.10 0.3230579
727.20 0.3226633
727.30 0.3222688
727.40 0.3213167
727.50 0.3200648
727.60 0.3188136
727.70 0.3175631
727.80 0.3141225
727.90 0.3095046
728.00 0.3005596
728.10 0.2789697
728.20 0.2776468
728.30 0.2972487
728.40 0.3052086
728.50 0.3110555
728.60 0.314043
728.70 0.3154914
728.80 0.316939
728.90 0.3183858
729.00 0.3190278
729.10 0.3192367
729.20 0.3194455
729.30 0.3196542
729.40 0.3198628
729.50 0.3200712
729.60 0.3201023
729.70 0.3200379
729.80 0.3199736
729.90 0.3199092
730.00 0.3198449
730.10 0.3197807
730.20 0.3197164
730.30 0.3196522
730.40 0.319588
730.50 0.3195238
730.60 0.3194199
730.70 0.3192946
730.80 0.3191694
730.90 0.3190442
731.00 0.3189191
731.10 0.318794
731.20 0.318669
731.30 0.3185441
731.40 0.3184192
731.50 0.3182944
731.60 0.3181696
731.70 0.3180449
731.80 0.3179202
731.90 0.3177956
732.00 0.317671
732.10 0.3175465
732.20 0.3174144
732.30 0.3172783
732.40 0.3171421
732.50 0.3170061
732.60 0.3168701
732.70 0.3167342
732.80 0.3165983
732.90 0.3164625
733.00 0.3163268
733.10 0.3161911
733.20 0.3160555
733.30 0.3159199
733.40 0.3157844
733.50 0.315649
733.60 0.3155137
733.70 0.315376
733.80 0.315237
733.90 0.3150981
734.00 0.3149593
734.10 0.3148206
734.20 0.3146819
734.30 0.3145433
734.40 0.3144047
734.50 0.3142663
734.60 0.3141278
734.70 0.3139895
734.80 0.3138512
734.90 0.3137129
735.00 0.3135748
735.10 0.3134367
735.20 0.3132986
735.30 0.3131616
735.40 0.3130362
735.50 0.3129109
735.60 0.3127856
735.70 0.3126519
735.80 0.3125136
735.90 0.3123753
736.00 0.3122372
736.10 0.3120991
736.20 0.311961
736.30 0.3118231
736.40 0.3116852
736.50 0.3115473
736.60 0.3114095
736.70 0.3112718
736.80 0.3111342
736.90 0.3109966
737.00 0.3108591
737.10 0.3107216
737.20 0.3105842
737.30 0.3104469
737.40 0.3103096
737.50 0.3101724
737.60 0.3100352
737.70 0.3098981
737.80 0.3097611
737.90 0.3096242
738.00 0.3094873
738.10 0.3093504
738.20 0.3092145
738.30 0.3090792
738.40 0.3089438
738.50 0.3088086
738.60 0.3086734
738.70 0.3085383
738.80 0.3084032
738.90 0.3082682
739.00 0.3081333
739.10 0.3079984
739.20 0.3078636
739.30 0.3077288
739.40 0.3075941
739.50 0.3074595
739.60 0.3073249
739.70 0.3071904
739.80 0.3070559
739.90 0.3069215
740.00 0.3067872
740.10 0.3066529
740.20 0.3065187
740.30 0.3063846
740.40 0.3062505
740.50 0.3061165
740.60 0.3059825
740.70 0.3058486
740.80 0.3057148
740.90 0.305581
741.00 0.3054473
741.10 0.3053137
741.20 0.3051801
741.30 0.3050465
741.40 0.3049131
741.50 0.3047796
741.60 0.3046463
741.70 0.304513
741.80 0.3043798
741.90 0.3042466
742.00 0.3041135
742.10 0.3039805
742.20 0.3038475
742.30 0.3037146
742.40 0.3035817
742.50 0.3034489
742.60 0.3033161
742.70 0.3031828
742.80 0.3030488
742.90 0.302915
743.00 0.3027812
743.10 0.3026475
743.20 0.3025138
743.30 0.3023802
743.40 0.3022467
743.50 0.3021132
743.60 0.3019797
743.70 0.3018467
743.80 0.3017149
743.90 0.3015831
744.00 0.3014514
744.10 0.3013198
744.20 0.3011882
744.30 0.3010567
744.40 0.3009252
744.50 0.3007938
744.60 0.3006625
744.70 0.3005312
744.80 0.3004
744.90 0.3002688
745.00 0.3001377
745.10 0.3000067
745.20 0.2998757
745.30 0.2997448
745.40 0.2996139
745.50 0.2994831
745.60 0.2993524
745.70 0.2992217
745.80 0.2990911
745.90 0.2989605
746.00 0.29883
746.10 0.2986996
746.20 0.2985692
746.30 0.2984388
746.40 0.2983086
746.50 0.2981784
746.60 0.2980482
746.70 0.2979181
746.80 0.2977881
746.90 0.2976581
747.00 0.2975282
747.10 0.2973983
747.20 0.2972685
747.30 0.2971388
747.40 0.2970091
747.50 0.2968795
747.60 0.2967499
747.70 0.2966204
747.80 0.296491
747.90 0.2963616
748.00 0.2962323
748.10 0.296103
748.20 0.2959738
748.30 0.2958446
748.40 0.2957156
748.50 0.2955865
748.60 0.2954575
748.70 0.2953286
748.80 0.2951998
748.90 0.295071
749.00 0.2949422
749.10 0.2948135
749.20 0.2946849
749.30 0.2945563
749.40 0.2944278
749.50 0.2942994
749.60 0.294171
749.70 0.2940426
749.80 0.2939144
749.90 0.2937861
750.00 0.293658
750.10 0.29353
750.20 0.2934022
750.30 0.2932745
750.40 0.2931468
750.50 0.2930192
750.60 0.2928917
750.70 0.2927642
750.80 0.2926368
750.90 0.2925095
751.00 0.2923822
751.10 0.2922549
751.20 0.2921277
751.30 0.2920006
751.40 0.2918735
751.50 0.2917465
751.60 0.2916195
751.70 0.2914926
751.80 0.2913658
751.90 0.291239
752.00 0.2911123
752.10 0.2909856
752.20 0.290859
752.30 0.2907324
752.40 0.2906059
752.50 0.2904795
752.60 0.2903531
752.70 0.2902268
752.80 0.2901005
752.90 0.2899743
753.00 0.2898481
753.10 0.289722
753.20 0.289596
753.30 0.28947
753.40 0.289344
753.50 0.2892182
753.60 0.2890923
753.70 0.2889666
753.80 0.2888409
753.90 0.2887152
754.00 0.2885896
754.10 0.2884641
754.20 0.2883386
754.30 0.2882132
754.40 0.2880878
754.50 0.2879625
754.60 0.2878372
754.70 0.287712
754.80 0.2875869
754.90 0.2874618
755.00 0.2873368
755.10 0.2872118
755.20 0.2870869
755.30 0.286962
755.40 0.2868372
755.50 0.2867125
755.60 0.2865878
755.70 0.2864631
755.80 0.2863385
755.90 0.286214
756.00 0.2860895
756.10 0.2859651
756.20 0.2858408
756.30 0.2857165
756.40 0.2855922
756.50 0.285468
756.60 0.2853439
756.70 0.2852198
756.80 0.2850958
756.90 0.2849718
757.00 0.2848479
757.10 0.284724
757.20 0.2846002
757.30 0.2844765
757.40 0.2843528
757.50 0.2842292
757.60 0.2841057
757.70 0.2839827
757.80 0.2838597
757.90 0.2837368
758.00 0.2836139
758.10 0.2834911
758.20 0.2833683
758.30 0.2832456
758.40 0.2831229
758.50 0.2830003
758.60 0.2828778
758.70 0.2827553
758.80 0.2826329
758.90 0.2825105
759.00 0.2823882
759.10 0.2822659
759.20 0.2821437
759.30 0.2820215
759.40 0.2818994
759.50 0.2817773
759.60 0.2816553
759.70 0.2815334
759.80 0.2814115
759.90 0.2812897
760.00 0.2811679
760.10 0.2810462
760.20 0.2809245
760.30 0.2808029
760.40 0.2806813
760.50 0.2805598
760.60 0.2804383
760.70 0.2803169
760.80 0.2801956
760.90 0.2800743
761.00 0.2799531
761.10 0.2798319
761.20 0.2797108
761.30 0.2795897
761.40 0.2794691
761.50 0.2793493
761.60 0.2792295
761.70 0.2791098
761.80 0.2789901
761.90 0.2788705
762.00 0.2787509
762.10 0.2786314
762.20 0.2785119
762.30 0.2783925
762.40 0.2782731
762.50 0.2781538
762.60 0.2780346
762.70 0.2779154
762.80 0.2777962
762.90 0.2776771
763.00 0.2775581
763.10 0.2774391
763.20 0.2773202
763.30 0.2772013
763.40 0.2770825
763.50 0.2769637
763.60 0.276845
763.70 0.2767263
763.80 0.2766077
763.90 0.2764891
764.00 0.2763706
764.10 0.2762521
764.20 0.2761337
764.30 0.2760154
764.40 0.2758971
764.50 0.2757788
764.60 0.2756606
764.70 0.2755425
764.80 0.2754244
764.90 0.2753063
765.00 0.2751884
765.10 0.2750704
765.20 0.2749525
765.30 0.2748346
765.40 0.2747167
765.50 0.2745989
765.60 0.2744811
765.70 0.2743634
765.80 0.2742457
765.90 0.2741281
766.00 0.2740105
766.10 0.273893
766.20 0.2737755
766.30 0.2736581
766.40 0.2735408
766.50 0.2734235
766.60 0.2733062
766.70 0.273189
766.80 0.2730719
766.90 0.2729548
767.00 0.2728377
767.10 0.2727207
767.20 0.2726038
767.30 0.2724869
767.40 0.27237
767.50 0.2722533
767.60 0.2721365
767.70 0.2720198
767.80 0.2719032
767.90 0.2717866
768.00 0.2716701
768.10 0.2715536
768.20 0.2714372
768.30 0.2713208
768.40 0.2712045
768.50 0.2710882
768.60 0.270972
768.70 0.2708558
768.80 0.2707397
768.90 0.2706236
769.00 0.2705076
769.10 0.2703917
769.20 0.2702757
769.30 0.2701599
769.40 0.2700441
769.50 0.2699283
769.60 0.2698126
769.70 0.2696969
769.80 0.2695813
769.90 0.2694658
770.00 0.2693503
770.10 0.2692348
770.20 0.2691194
770.30 0.2690041
770.40 0.2688888
770.50 0.2687735
770.60 0.2686583
770.70 0.2685431
770.80 0.268428
770.90 0.268313
771.00 0.268198
771.10 0.2680831
771.20 0.2679682
771.30 0.2678533
771.40 0.2677385
771.50 0.2676238
771.60 0.2675091
771.70 0.2673944
771.80 0.2672798
771.90 0.2671653
772.00 0.2670508
772.10 0.2669364
772.20 0.266822
772.30 0.2667076
772.40 0.2665933
772.50 0.2664791
772.60 0.2663649
772.70 0.2662508
772.80 0.2661367
772.90 0.2660231
773.00 0.2659095
773.10 0.265796
773.20 0.2656826
773.30 0.2655692
773.40 0.2654558
773.50 0.2653425
773.60 0.2652293
773.70 0.2651161
773.80 0.2650029
773.90 0.2648898
774.00 0.2647768
774.10 0.2646638
774.20 0.2645508
774.30 0.2644379
774.40 0.2643251
774.50 0.2642123
774.60 0.2640995
774.70 0.2639868
774.80 0.2638742
774.90 0.2637616
775.00 0.263649
775.10 0.2635365
775.20 0.2634241
775.30 0.2633116
775.40 0.2631993
775.50 0.263087
775.60 0.2629747
775.70 0.2628625
775.80 0.2627503
775.90 0.2626382
776.00 0.2625262
776.10 0.2624142
776.20 0.2623022
776.30 0.2621903
776.40 0.2620784
776.50 0.2619666
776.60 0.2618548
776.70 0.2617431
776.80 0.2616314
776.90 0.2615198
777.00 0.2614082
777.10 0.2612967
777.20 0.2611852
777.30 0.2610738
777.40 0.2609624
777.50 0.2608511
777.60 0.2607398
777.70 0.2606286
777.80 0.2605174
777.90 0.2604063
778.00 0.2602952
778.10 0.2601841
778.20 0.2600731
778.30 0.2599622
778.40 0.2598513
778.50 0.2597405
778.60 0.2596297
778.70 0.2595189
778.80 0.2594082
778.90 0.2592976
779.00 0.259187
779.10 0.2590764
779.20 0.2589659
779.30 0.2588554
779.40 0.258745
779.50 0.2586347
779.60 0.2585243
779.70 0.2584141
779.80 0.2583039
779.90 0.2581937
780.00 0.2580836
780.10 0.2579735
780.20 0.2578635
780.30 0.2577535
780.40 0.2576436
780.50 0.2575337
780.60 0.2574249
780.70 0.2573165
780.80 0.2572082
780.90 0.2570999
781.00 0.2569917
781.10 0.2568835
781.20 0.2567754
781.30 0.2566673
781.40 0.2565593
781.50 0.2564513
781.60 0.2563434
781.70 0.2562355
781.80 0.2561276
781.90 0.2560198
782.00 0.2559121
782.10 0.2558044
782.20 0.2556967
782.30 0.2555891
782.40 0.2554815
782.50 0.255374
782.60 0.2552665
782.70 0.2551591
782.80 0.2550517
782.90 0.2549444
783.00 0.2548371
783.10 0.2547299
783.20 0.2546227
783.30 0.2545155
783.40 0.2544084
783.50 0.2543014
783.60 0.2541944
783.70 0.2540874
783.80 0.2539805
783.90 0.2538736
784.00 0.2537668
784.10 0.25366
784.20 0.2535533
784.30 0.2534466
784.40 0.25334
784.50 0.2532334
784.60 0.2531266
784.70 0.2530191
784.80 0.2529117
784.90 0.2528043
785.00 0.252697
785.10 0.2525897
785.20 0.2524825
785.30 0.2523753
785.40 0.2522682
785.50 0.2521611
785.60 0.252054
785.70 0.251947
785.80 0.2518401
785.90 0.2517332
786.00 0.2516263
786.10 0.2515195
786.20 0.2514127
786.30 0.251306
786.40 0.2511993
786.50 0.2510927
786.60 0.2509861
786.70 0.2508796
786.80 0.2507731
786.90 0.2506666
787.00 0.2505602
787.10 0.2504539
787.20 0.2503476
787.30 0.2502413
787.40 0.2501351
787.50 0.2500289
787.60 0.2499228
787.70 0.2498167
787.80 0.2497107
787.90 0.2496047
788.00 0.2494987
788.10 0.2493928
788.20 0.249287
788.30 0.2491812
788.40 0.2490767
788.50 0.2489729
788.60 0.2488692
788.70 0.2487655
788.80 0.2486619
788.90 0.2485583
789.00 0.2484547
789.10 0.2483512
789.20 0.2482477
789.30 0.2481443
789.40 0.2480409
789.50 0.2479376
789.60 0.2478343
789.70 0.247731
789.80 0.2476278
789.90 0.2475247
790.00 0.2474216
790.10 0.2473185
790.20 0.2472155
790.30 0.2471125
790.40 0.2470095
790.50 0.2469067
790.60 0.2468038
790.70 0.246701
790.80 0.2465982
790.90 0.2464955
791.00 0.2463928
791.10 0.2462902
791.20 0.2461876
791.30 0.2460851
791.40 0.2459826
791.50 0.2458801
791.60 0.2457777
791.70 0.2456754
791.80 0.245573
791.90 0.2454708
792.00 0.2453685
792.10 0.2452663
792.20 0.2451642
792.30 0.2450618
792.40 0.2449588
792.50 0.2448557
792.60 0.2447528
792.70 0.2446498
792.80 0.2445469
792.90 0.2444441
793.00 0.2443413
793.10 0.2442385
793.20 0.2441358
793.30 0.2440331
793.40 0.2439305
793.50 0.2438279
793.60 0.2437253
793.70 0.2436228
793.80 0.2435204
793.90 0.2434179
794.00 0.2433156
794.10 0.2432133
794.20 0.243111
794.30 0.2430087
794.40 0.2429065
794.50 0.2428044
794.60 0.2427023
794.70 0.2426002
794.80 0.2424982
794.90 0.2423962
795.00 0.2422943
795.10 0.2421924
795.20 0.2420906
795.30 0.2419888
795.40 0.241887
795.50 0.2417853
795.60 0.2416836
795.70 0.241582
795.80 0.2414804
795.90 0.2413789
796.00 0.2412774
796.10 0.2411759
796.20 0.2410745
796.30 0.2409739
796.40 0.2408735
796.50 0.2407731
796.60 0.2406728
796.70 0.2405725
796.80 0.2404722
796.90 0.240372
797.00 0.2402718
797.10 0.2401717
797.20 0.2400716
797.30 0.2399716
797.40 0.2398716
797.50 0.2397717
797.60 0.2396717
797.70 0.2395719
797.80 0.2394721
797.90 0.2393723
798.00 0.2392725
798.10 0.2391728
798.20 0.2390732
798.30 0.2389736
798.40 0.238874
798.50 0.2387745
798.60 0.238675
798.70 0.2385756
798.80 0.2384762
798.90 0.2383768
799.00 0.2382775
799.10 0.2381782
799.20 0.238079
799.30 0.2379798
799.40 0.2378806
799.50 0.2377815
799.60 0.2376825
799.70 0.2375835
799.80 0.2374845
799.90 0.2373855
800.00 0.2372866
800.10 0.2371878
800.20 0.237089
800.30 0.2369902
800.40 0.2368915
800.50 0.2367928
800.60 0.2366942
800.70 0.2365956
800.80 0.236497
800.90 0.2363985
801.00 0.2363
801.10 0.2362016
801.20 0.2361032
801.30 0.2360048
801.40 0.2359065
801.50 0.2358083
801.60 0.23571
801.70 0.2356119
801.80 0.2355137
801.90 0.2354156
802.00 0.2353176
802.10 0.2352196
802.20 0.2351216
802.30 0.2350236
802.40 0.2349258
802.50 0.2348279
802.60 0.2347301
802.70 0.2346323
802.80 0.2345346
802.90 0.2344369
803.00 0.2343393
803.10 0.2342417
803.20 0.2341441
803.30 0.2340466
803.40 0.2339491
803.50 0.2338517
803.60 0.2337543
803.70 0.2336569
803.80 0.2335596
803.90 0.2334624
804.00 0.2333651
804.10 0.2332679
804.20 0.233171
804.30 0.2330747
804.40 0.2329785
804.50 0.2328824
804.60 0.2327863
804.70 0.2326902
804.80 0.2325942
804.90 0.2324982
805.00 0.2324022
805.10 0.2323063
805.20 0.2322104
805.30 0.2321146
805.40 0.2320188
805.50 0.231923
805.60 0.2318273
805.70 0.2317316
805.80 0.231636
805.90 0.2315404
806.00 0.2314449
806.10 0.2313494
806.20 0.2312539
806.30 0.2311585
806.40 0.2310631
806.50 0.2309677
806.60 0.2308724
806.70 0.2307771
806.80 0.2306819
806.90 0.2305867
807.00 0.2304916
807.10 0.2303965
807.20 0.2303014
807.30 0.2302064
807.40 0.2301114
807.50 0.2300164
807.60 0.2299215
807.70 0.2298267
807.80 0.2297318
807.90 0.229637
808.00 0.2295423
808.10 0.2294476
808.20 0.2293529
808.30 0.2292583
808.40 0.2291637
808.50 0.2290691
808.60 0.2289746
808.70 0.2288802
808.80 0.2287857
808.90 0.2286913
809.00 0.228597
809.10 0.2285027
809.20 0.2284084
809.30 0.2283142
809.40 0.22822
809.50 0.2281258
809.60 0.2280317
809.70 0.2279376
809.80 0.2278436
809.90 0.2277496
810.00 0.2276556
810.10 0.2275617
810.20 0.2274678
810.30 0.227374
810.40 0.2272802
810.50 0.2271865
810.60 0.2270927
810.70 0.2269991
810.80 0.2269054
810.90 0.2268118
811.00 0.2267182
811.10 0.2266247
811.20 0.2265312
811.30 0.2264378
811.40 0.2263444
811.50 0.226251
811.60 0.2261577
811.70 0.2260644
811.80 0.2259712
811.90 0.2258779
812.00 0.2257848
812.10 0.2256916
812.20 0.2255986
812.30 0.2255059
812.40 0.2254133
812.50 0.2253208
812.60 0.2252283
812.70 0.2251358
812.80 0.2250434
812.90 0.224951
813.00 0.2248587
813.10 0.2247664
813.20 0.2246741
813.30 0.2245819
813.40 0.2244897
813.50 0.2243976
813.60 0.2243055
813.70 0.2242134
813.80 0.2241214
813.90 0.2240294
814.00 0.2239375
814.10 0.2238456
814.20 0.2237537
814.30 0.2236618
814.40 0.22357
814.50 0.2234783
814.60 0.2233866
814.70 0.2232949
814.80 0.2232032
814.90 0.2231116
815.00 0.2230201
815.10 0.2229285
815.20 0.2228371
815.30 0.2227456
815.40 0.2226542
815.50 0.2225628
815.60 0.2224715
815.70 0.2223802
815.80 0.2222889
815.90 0.2221977
816.00 0.2221065
816.10 0.2220154
816.20 0.2219242
816.30 0.2218332
816.40 0.2217421
816.50 0.2216511
816.60 0.2215602
816.70 0.2214693
816.80 0.2213784
816.90 0.2212875
817.00 0.2211967
817.10 0.221106
817.20 0.2210152
817.30 0.2209245
817.40 0.2208339
817.50 0.2207433
817.60 0.2206527
817.70 0.2205621
817.80 0.2204716
817.90 0.2203812
818.00 0.2202907
818.10 0.2202004
818.20 0.22011
818.30 0.2200197
818.40 0.2199294
818.50 0.2198392
818.60 0.219749
818.70 0.2196588
818.80 0.2195687
818.90 0.2194786
819.00 0.2193885
819.10 0.2192985
819.20 0.2192085
819.30 0.2191195
819.40 0.2190312
819.50 0.2189429
819.60 0.2188547
819.70 0.2187665
819.80 0.2186783
819.90 0.2185902
820.00 0.2185021
820.10 0.2184005
820.20 0.2182984
820.30 0.2182132
820.40 0.2181258
820.50 0.2180369
820.60 0.2179481
820.70 0.2178593
820.80 0.2177705
820.90 0.2176818
821.00 0.2175931
821.10 0.2175044
821.20 0.2174158
821.30 0.2173272
821.40 0.2172386
821.50 0.2171501
821.60 0.2170616
821.70 0.2169732
821.80 0.2168848
821.90 0.2167964
822.00 0.2167081
822.10 0.2166198
822.20 0.2165315
822.30 0.2164433
822.40 0.2163551
822.50 0.216267
822.60 0.2161789
822.70 0.2160908
822.80 0.2160027
822.90 0.2159147
823.00 0.2158268
823.10 0.2157388
823.20 0.2156509
823.30 0.2155631
823.40 0.2154753
823.50 0.2153875
823.60 0.2152997
823.70 0.215212
823.80 0.2151243
823.90 0.2150367
824.00 0.2149491
824.10 0.2148615
824.20 0.214774
824.30 0.2146865
824.40 0.214599
824.50 0.2145116
824.60 0.2144242
824.70 0.2143369
824.80 0.2142495
824.90 0.2141623
825.00 0.214075
825.10 0.2139878
825.20 0.2139006
825.30 0.2138135
825.40 0.2137264
825.50 0.2136393
825.60 0.2135523
825.70 0.2134653
825.80 0.2133784
825.90 0.2132914
826.00 0.2132046
826.10 0.2131177
826.20 0.2130309
826.30 0.2129444
826.40 0.2128581
826.50 0.2127718
826.60 0.2126856
826.70 0.2125994
826.80 0.2125133
826.90 0.2124272
827.00 0.2123411
827.10 0.2122551
827.20 0.212169
827.30 0.2120831
827.40 0.2119971
827.50 0.2119112
827.60 0.2118254
827.70 0.2117395
827.80 0.2116537
827.90 0.211568
828.00 0.2114823
828.10 0.2113966
828.20 0.2113109
828.30 0.2112253
828.40 0.2111397
828.50 0.2110542
828.60 0.2109689
828.70 0.2108839
828.80 0.2107989
828.90 0.2107139
829.00 0.210629
829.10 0.2105441
829.20 0.2104593
829.30 0.2103745
829.40 0.2102897
829.50 0.210205
829.60 0.2101202
829.70 0.2100356
829.80 0.2099509
829.90 0.2098663
830.00 0.2097818
830.10 0.2096972
830.20 0.2096127
830.30 0.2095283
830.40 0.2094438
830.50 0.2093594
830.60 0.2092751
830.70 0.2091907
830.80 0.2091064
830.90 0.2090222
831.00 0.208938
831.10 0.2088538
831.20 0.2087696
831.30 0.2086855
831.40 0.2086014
831.50 0.2085174
831.60 0.2084333
831.70 0.2083494
831.80 0.2082654
831.90 0.2081815
832.00 0.2080976
832.10 0.2080138
832.20 0.2079299
832.30 0.2078462
832.40 0.2077624
832.50 0.2076787
832.60 0.207595
832.70 0.2075114
832.80 0.2074278
832.90 0.2073442
833.00 0.2072607
833.10 0.2071772
833.20 0.2070937
833.30 0.2070103
833.40 0.2069269
833.50 0.2068435
833.60 0.2067602
833.70 0.2066769
833.80 0.2065936
833.90 0.2065104
834.00 0.2064272
834.10 0.206344
834.20 0.2062609
834.30 0.2061778
834.40 0.2060947
834.50 0.2060117
834.60 0.2059287
834.70 0.2058457
834.80 0.2057628
834.90 0.2056799
835.00 0.2055971
835.10 0.2055142
835.20 0.2054314
835.30 0.2053487
835.40 0.205266
835.50 0.2051833
835.60 0.2051006
835.70 0.205018
835.80 0.2049354
835.90 0.2048529
836.00 0.2047703
836.10 0.2046878
836.20 0.2046054
836.30 0.204523
836.40 0.2044406
836.50 0.2043582
836.60 0.2042759
836.70 0.2041936
836.80 0.2041114
836.90 0.2040294
837.00 0.2039475
837.10 0.2038657
837.20 0.2037839
837.30 0.2037022
837.40 0.2036204
837.50 0.2035387
837.60 0.2034571
837.70 0.2033755
837.80 0.2032939
837.90 0.2032123
838.00 0.2031308
838.10 0.2030493
838.20 0.2029679
838.30 0.2028864
838.40 0.202805
838.50 0.2027237
838.60 0.2026424
838.70 0.2025611
838.80 0.2024798
838.90 0.2023986
839.00 0.2023174
839.10 0.2022362
839.20 0.2021551
839.30 0.202074
839.40 0.201993
839.50 0.2019119
839.60 0.2018309
839.70 0.20175
839.80 0.201669
839.90 0.2015881
840.00 0.2015073
840.10 0.2014264
840.20 0.2013456
840.30 0.2012649
840.40 0.2011842
840.50 0.2011035
840.60 0.2010228
840.70 0.2009422
840.80 0.2008615
840.90 0.200781
841.00 0.2007004
841.10 0.2006199
841.20 0.2005395
841.30 0.2004591
841.40 0.2003787
841.50 0.2002983
841.60 0.200218
841.70 0.2001377
841.80 0.2000574
841.90 0.1999772
842.00 0.1998969
842.10 0.1998168
842.20 0.1997366
842.30 0.1996565
842.40 0.1995765
842.50 0.1994964
842.60 0.1994164
842.70 0.1993364
842.80 0.1992565
842.90 0.1991766
843.00 0.1990967
843.10 0.1990169
843.20 0.198937
843.30 0.1988573
843.40 0.1987775
843.50 0.1986978
843.60 0.1986181
843.70 0.1985384
843.80 0.1984588
843.90 0.1983792
844.00 0.1982997
844.10 0.1982202
844.20 0.1981407
844.30 0.1980612
844.40 0.1979818
844.50 0.1979024
844.60 0.197823
844.70 0.1977437
844.80 0.1976644
844.90 0.1975851
845.00 0.1975059
845.10 0.1974267
845.20 0.1973475
845.30 0.1972691
845.40 0.1971907
845.50 0.1971124
845.60 0.197034
845.70 0.1969557
845.80 0.1968775
845.90 0.1967993
846.00 0.1967211
846.10 0.1966429
846.20 0.1965648
846.30 0.1964867
846.40 0.1964086
846.50 0.1963306
846.60 0.1962526
846.70 0.1961746
846.80 0.1960967
846.90 0.1960187
847.00 0.1959409
847.10 0.195863
847.20 0.1957852
847.30 0.1957074
847.40 0.1956297
847.50 0.1955519
847.60 0.1954743
847.70 0.1953966
847.80 0.195319
847.90 0.1952414
848.00 0.1951638
848.10 0.1950863
848.20 0.1950088
848.30 0.1949313
848.40 0.1948538
848.50 0.1947764
848.60 0.194699
848.70 0.1946217
848.80 0.1945444
848.90 0.1944671
849.00 0.1943898
849.10 0.1943126
849.20 0.1942354
849.30 0.1941583
849.40 0.1940811
849.50 0.194004
849.60 0.193927
849.70 0.1938499
849.80 0.1937729
849.90 0.1936959
850.00 0.193619
850.10 0.1935421
850.20 0.1934652
850.30 0.1933883
850.40 0.1933115
850.50 0.1932347
850.60 0.1931579
850.70 0.1930812
850.80 0.1930045
850.90 0.1929278
851.00 0.1928512
851.10 0.1927746
851.20 0.192698
851.30 0.1926215
851.40 0.192545
851.50 0.1924685
851.60 0.192392
851.70 0.1923156
851.80 0.1922392
851.90 0.1921628
852.00 0.1920865
852.10 0.1920102
852.20 0.1919339
852.30 0.1918577
852.40 0.1917815
852.50 0.1917053
852.60 0.1916292
852.70 0.191553
852.80 0.1914769
852.90 0.1914009
853.00 0.1913249
853.10 0.1912489
853.20 0.1911729
853.30 0.191097
853.40 0.191021
853.50 0.1909452
853.60 0.1908693
853.70 0.1907935
853.80 0.1907176
853.90 0.1906417
854.00 0.1905659
854.10 0.1904901
854.20 0.1904144
854.30 0.1903386
854.40 0.1902629
854.50 0.1901873
854.60 0.1901116
854.70 0.190036
854.80 0.1899605
854.90 0.1898849
855.00 0.1898094
855.10 0.1897339
855.20 0.1896585
855.30 0.189583
855.40 0.1895076
855.50 0.1894323
855.60 0.1893569
855.70 0.1892816
855.80 0.1892063
855.90 0.1891311
856.00 0.1890559
856.10 0.1889807
856.20 0.1889055
856.30 0.1888304
856.40 0.1887553
856.50 0.1886803
856.60 0.1886052
856.70 0.1885302
856.80 0.1884552
856.90 0.1883803
857.00 0.1883054
857.10 0.1882305
857.20 0.1881556
857.30 0.1880808
857.40 0.188006
857.50 0.1879312
857.60 0.1878565
857.70 0.1877818
857.80 0.1877071
857.90 0.1876325
858.00 0.1875585
858.10 0.1874847
858.20 0.1874109
858.30 0.1873372
858.40 0.1872635
858.50 0.1871898
858.60 0.1871161
858.70 0.1870425
858.80 0.1869689
858.90 0.1868954
859.00 0.1868218
859.10 0.1867483
859.20 0.1866748
859.30 0.1866014
859.40 0.186528
859.50 0.1864546
859.60 0.1863812
859.70 0.1863079
859.80 0.1862346
859.90 0.1861613
860.00 0.1860881
860.10 0.1860149
860.20 0.1859417
860.30 0.1858685
860.40 0.1857954
860.50 0.1857223
860.60 0.1856492
860.70 0.1855762
860.80 0.1855032
860.90 0.1854302
861.00 0.1853572
861.10 0.1852843
861.20 0.1852114
861.30 0.1851385
861.40 0.1850657
861.50 0.1849929
861.60 0.1849201
861.70 0.1848474
861.80 0.1847746
861.90 0.1847019
862.00 0.1846293
862.10 0.1845566
862.20 0.1844841
862.30 0.1844122
862.40 0.1843404
862.50 0.1842685
862.60 0.1841967
862.70 0.1841249
862.80 0.1840532
862.90 0.1839815
863.00 0.1839098
863.10 0.1838381
863.20 0.1837664
863.30 0.1836948
863.40 0.1836233
863.50 0.1835517
863.60 0.1834802
863.70 0.1834087
863.80 0.1833372
863.90 0.1832658
864.00 0.1831944
864.10 0.183123
864.20 0.1830516
864.30 0.1829803
864.40 0.182909
864.50 0.1828377
864.60 0.1827665
864.70 0.1826952
864.80 0.1826241
864.90 0.1825529
865.00 0.1824818
865.10 0.1824107
865.20 0.1823396
865.30 0.1822685
865.40 0.1821975
865.50 0.1821265
865.60 0.1820556
865.70 0.1819846
865.80 0.1819137
865.90 0.1818428
866.00 0.181772
866.10 0.1817011
866.20 0.1816303
866.30 0.1815596
866.40 0.1814888
866.50 0.1814181
866.60 0.1813474
866.70 0.1812768
866.80 0.1812061
866.90 0.1811355
867.00 0.181065
867.10 0.1809944
867.20 0.1809239
867.30 0.1808534
867.40 0.1807829
867.50 0.1807125
867.60 0.1806421
867.70 0.1805717
867.80 0.1805014
867.90 0.180431
868.00 0.1803607
868.10 0.1802905
868.20 0.1802202
868.30 0.18015
868.40 0.1800798
868.50 0.1800097
868.60 0.1799395
868.70 0.1798694
868.80 0.1797993
868.90 0.1797293
869.00 0.1796593
869.10 0.1795893
869.20 0.1795193
869.30 0.1794494
869.40 0.1793795
869.50 0.1793096
869.60 0.1792397
869.70 0.1791699
869.80 0.1791001
869.90 0.1790303
870.00 0.1789606
870.10 0.1788908
870.20 0.1788211
870.30 0.1787515
870.40 0.1786818
870.50 0.1786122
870.60 0.1785426
870.70 0.1784731
870.80 0.1784035
870.90 0.178334
871.00 0.1782644
871.10 0.1781948
871.20 0.1781253
871.30 0.1780558
871.40 0.1779864
871.50 0.1779169
871.60 0.1778475
871.70 0.1777781
871.80 0.1777088
871.90 0.1776395
872.00 0.1775702
872.10 0.1775009
872.20 0.1774317
872.30 0.1773624
872.40 0.1772932
872.50 0.1772241
872.60 0.1771549
872.70 0.1770858
872.80 0.1770167
872.90 0.1769477
873.00 0.1768787
873.10 0.1768097
873.20 0.1767407
873.30 0.1766717
873.40 0.1766028
873.50 0.1765339
873.60 0.1764651
873.70 0.1763962
873.80 0.1763274
873.90 0.1762586
874.00 0.1761899
874.10 0.1761211
874.20 0.1760524
874.30 0.1759837
874.40 0.1759151
874.50 0.1758465
874.60 0.1757779
874.70 0.1757093
874.80 0.1756407
874.90 0.1755722
875.00 0.1755037
875.10 0.1754353
875.20 0.1753671
875.30 0.1752994
875.40 0.1752318
875.50 0.1751642
875.60 0.1750966
875.70 0.175029
875.80 0.1749615
875.90 0.174894
876.00 0.1748265
876.10 0.1747591
876.20 0.1746916
876.30 0.1746242
876.40 0.1745569
876.50 0.1744895
876.60 0.1744222
876.70 0.1743549
876.80 0.1742876
876.90 0.1742204
877.00 0.1741531
877.10 0.1740859
877.20 0.1740188
877.30 0.1739516
877.40 0.1738845
877.50 0.1738174
877.60 0.1737504
877.70 0.1736833
877.80 0.1736163
877.90 0.1735493
878.00 0.1734824
878.10 0.1734154
878.20 0.1733485
878.30 0.1732817
878.40 0.1732148
878.50 0.173148
878.60 0.1730812
878.70 0.1730144
878.80 0.1729476
878.90 0.1728809
879.00 0.1728142
879.10 0.1727475
879.20 0.1726809
879.30 0.1726143
879.40 0.1725477
879.50 0.1724811
879.60 0.1724142
879.70 0.1723472
879.80 0.1722803
879.90 0.1722133
880.00 0.1721464
880.10 0.1720796
880.20 0.1720127
880.30 0.1719459
880.40 0.1718791
880.50 0.1718123
880.60 0.1717456
880.70 0.1716789
880.80 0.1716122
880.90 0.1715455
881.00 0.1714789
881.10 0.1714123
881.20 0.1713457
881.30 0.1712791
881.40 0.1712126
881.50 0.1711461
881.60 0.1710796
881.70 0.1710131
881.80 0.1709467
881.90 0.1708803
882.00 0.1708139
882.10 0.1707476
882.20 0.1706812
882.30 0.1706149
882.40 0.1705486
882.50 0.1704824
882.60 0.1704162
882.70 0.17035
882.80 0.1702838
882.90 0.1702176
883.00 0.1701515
883.10 0.1700854
883.20 0.1700193
883.30 0.1699533
883.40 0.1698873
883.50 0.1698213
883.60 0.1697553
883.70 0.1696893
883.80 0.1696234
883.90 0.1695575
884.00 0.1694923
884.10 0.1694271
884.20 0.169362
884.30 0.169297
884.40 0.1692319
884.50 0.1691669
884.60 0.1691019
884.70 0.1690369
884.80 0.168972
884.90 0.168907
885.00 0.1688421
885.10 0.1687773
885.20 0.1687124
885.30 0.1686476
885.40 0.1685828
885.50 0.168518
885.60 0.1684532
885.70 0.1683885
885.80 0.1683238
885.90 0.1682591
886.00 0.1681945
886.10 0.1681299
886.20 0.1680653
886.30 0.1680007
886.40 0.1679361
886.50 0.1678716
886.60 0.1678071
886.70 0.1677426
886.80 0.1676782
886.90 0.1676137
887.00 0.1675493
887.10 0.167485
887.20 0.1674206
887.30 0.1673563
887.40 0.167292
887.50 0.1672277
887.60 0.1671634
887.70 0.1670992
887.80 0.167035
887.90 0.1669708
888.00 0.1669067
888.10 0.1668425
888.20 0.1667784
888.30 0.1667144
888.40 0.1666508
888.50 0.1665874
888.60 0.166524
888.70 0.1664607
888.80 0.1663973
888.90 0.166334
889.00 0.1662707
889.10 0.1662075
889.20 0.1661442
889.30 0.166081
889.40 0.1660178
889.50 0.1659546
889.60 0.1658915
889.70 0.1658284
889.80 0.1657653
889.90 0.1657022
890.00 0.1656392
890.10 0.1655761
890.20 0.1655131
890.30 0.1654502
890.40 0.1653872
890.50 0.1653243
890.60 0.1652614
890.70 0.1651985
890.80 0.1651356
890.90 0.1650728
891.00 0.16501
891.10 0.1649472
891.20 0.1648845
891.30 0.1648217
891.40 0.164759
891.50 0.1646963
891.60 0.1646337
891.70 0.164571
891.80 0.1645084
891.90 0.1644458
892.00 0.1643832
892.10 0.1643207
892.20 0.1642582
892.30 0.1641957
892.40 0.1641332
892.50 0.1640708
892.60 0.1640083
892.70 0.1639459
892.80 0.1638836
892.90 0.1638212
893.00 0.1637589
893.10 0.1636966
893.20 0.1636343
893.30 0.163572
893.40 0.1635098
893.50 0.1634476
893.60 0.1633854
893.70 0.1633232
893.80 0.1632611
893.90 0.163199
894.00 0.1631369
894.10 0.1630748
894.20 0.1630128
894.30 0.1629508
894.40 0.1628888
894.50 0.1628268
894.60 0.1627648
894.70 0.1627029
894.80 0.162641
894.90 0.1625791
895.00 0.1625173
895.10 0.1624555
895.20 0.1623936
895.30 0.1623319
895.40 0.1622701
895.50 0.1622084
895.60 0.1621467
895.70 0.162085
895.80 0.1620233
895.90 0.1619617
896.00 0.1619
896.10 0.1618384
896.20 0.1617769
896.30 0.1617153
896.40 0.1616538
896.50 0.1615923
896.60 0.1615308
896.70 0.1614694
896.80 0.1614079
896.90 0.1613465
897.00 0.1612851
897.10 0.1612238
897.20 0.1611624
897.30 0.161101
897.40 0.1610396
897.50 0.1609783
897.60 0.1609169
897.70 0.1608556
897.80 0.1607943
897.90 0.1607331
898.00 0.1606718
898.10 0.1606106
898.20 0.1605494
898.30 0.1604882
898.40 0.1604271
898.50 0.1603659
898.60 0.1603048
898.70 0.1602437
898.80 0.1601827
898.90 0.1601217
899.00 0.1600606
899.10 0.1599997
899.20 0.1599387
899.30 0.1598777
899.40 0.1598168
899.50 0.1597559
899.60 0.1596951
899.70 0.1596342
899.80 0.1595734
899.90 0.1595126
900.00 0.1594518
900.10 0.159391
900.20 0.1593303
900.30 0.1592696
900.40 0.1592089
900.50 0.1591482
900.60 0.1590876
900.70 0.159027
900.80 0.1589664
900.90 0.1589058
901.00 0.1588453
901.10 0.1587847
901.20 0.1587242
901.30 0.1586637
901.40 0.1586033
901.50 0.1585428
901.60 0.1584824
901.70 0.1584222
901.80 0.1583625
901.90 0.1583028
902.00 0.1582432
902.10 0.1581836
902.20 0.158124
902.30 0.1580644
902.40 0.1580048
902.50 0.1579453
902.60 0.1578858
902.70 0.1578263
902.80 0.1577669
902.90 0.1577074
903.00 0.157648
903.10 0.1575886
903.20 0.1575292
903.30 0.1574699
903.40 0.1574106
903.50 0.1573513
903.60 0.157292
903.70 0.1572327
903.80 0.1571735
903.90 0.1571143
904.00 0.1570551
904.10 0.1569959
904.20 0.1569368
904.30 0.1568777
904.40 0.1568186
904.50 0.1567595
904.60 0.1567004
904.70 0.1566414
904.80 0.1565824
904.90 0.1565234
905.00 0.1564644
905.10 0.1564055
905.20 0.1563465
905.30 0.1562876
905.40 0.1562288
905.50 0.1561699
905.60 0.1561111
905.70 0.1560523
905.80 0.1559935
905.90 0.1559347
906.00 0.155876
906.10 0.1558172
906.20 0.1557586
906.30 0.1557002
906.40 0.1556417
906.50 0.1555834
906.60 0.155525
906.70 0.1554666
906.80 0.1554083
906.90 0.15535
907.00 0.1552917
907.10 0.1552334
907.20 0.1551752
907.30 0.155117
907.40 0.1550588
907.50 0.1550006
907.60 0.1549425
907.70 0.1548843
907.80 0.1548262
907.90 0.1547681
908.00 0.1547101
908.10 0.154652
908.20 0.154594
908.30 0.154536
908.40 0.154478
908.50 0.1544201
908.60 0.1543621
908.70 0.1543042
908.80 0.1542463
908.90 0.1541885
909.00 0.1541306
909.10 0.1540728
909.20 0.154015
909.30 0.1539572
909.40 0.1538994
909.50 0.1538417
909.60 0.153784
909.70 0.1537263
909.80 0.1536686
909.90 0.1536109
910.00 0.1535533
910.10 0.1534957
910.20 0.1534381
910.30 0.1533806
910.40 0.153323
910.50 0.1532655
910.60 0.153208
910.70 0.1531505
910.80 0.153093
910.90 0.1530356
911.00 0.1529782
911.10 0.1529208
911.20 0.1528634
911.30 0.1528061
911.40 0.1527487
911.50 0.1526914
911.60 0.1526341
911.70 0.1525769
911.80 0.1525196
911.90 0.1524624
912.00 0.1524052
912.10 0.152348
912.20 0.1522909
912.30 0.1522337
912.40 0.1521766
912.50 0.1521195
912.60 0.1520625
912.70 0.1520054
912.80 0.1519484
912.90 0.1518914
913.00 0.1518344
913.10 0.1517774
913.20 0.1517205
913.30 0.1516636
913.40 0.1516066
913.50 0.1515498
913.60 0.1514929
913.70 0.1514361
913.80 0.1513793
913.90 0.1513225
914.00 0.1512657
914.10 0.1512089
914.20 0.1511522
914.30 0.1510955
914.40 0.1510388
914.50 0.1509821
914.60 0.1509255
914.70 0.1508689
914.80 0.1508123
914.90 0.1507557
915.00 0.1506991
915.10 0.1506426
915.20 0.150586
915.30 0.1505297
915.40 0.1504735
915.50 0.1504172
915.60 0.150361
915.70 0.1503048
915.80 0.1502487
915.90 0.1501925
916.00 0.1501364
916.10 0.1500803
916.20 0.1500242
916.30 0.1499682
916.40 0.1499121
916.50 0.1498561
916.60 0.1498001
916.70 0.1497442
916.80 0.1496882
916.90 0.1496323
917.00 0.1495764
917.10 0.1495205
917.20 0.1494646
917.30 0.1494088
917.40 0.1493529
917.50 0.1492971
917.60 0.1492413
917.70 0.1491856
917.80 0.1491298
917.90 0.1490741
918.00 0.1490184
918.10 0.1489627
918.20 0.148907
918.30 0.1488514
918.40 0.1487958
918.50 0.1487402
918.60 0.1486846
918.70 0.148629
918.80 0.1485735
918.90 0.148518
919.00 0.1484625
919.10 0.148407
919.20 0.1483516
919.30 0.1482961
919.40 0.1482407
919.50 0.1481853
919.60 0.1481299
919.70 0.1480746
919.80 0.1480193
919.90 0.1479646
920.00 0.1479099
920.10 0.1478553
920.20 0.1478007
920.30 0.1477461
920.40 0.1476915
920.50 0.147637
920.60 0.1475824
920.70 0.1475279
920.80 0.1474734
920.90 0.147419
921.00 0.1473645
921.10 0.1473101
921.20 0.1472557
921.30 0.1472013
921.40 0.1471469
921.50 0.1470926
921.60 0.1470383
921.70 0.146984
921.80 0.1469297
921.90 0.1468754
922.00 0.1468212
922.10 0.1467669
922.20 0.1467127
922.30 0.1466586
922.40 0.1466044
922.50 0.1465502
922.60 0.1464961
922.70 0.146442
922.80 0.1463879
922.90 0.1463339
923.00 0.1462798
923.10 0.1462258
923.20 0.1461718
923.30 0.1461178
923.40 0.1460638
923.50 0.1460099
923.60 0.145956
923.70 0.1459021
923.80 0.1458482
923.90 0.1457943
924.00 0.1457405
924.10 0.1456866
924.20 0.1456328
924.30 0.145579
924.40 0.1455252
924.50 0.1454711
924.60 0.1454169
924.70 0.1453628
924.80 0.1453087
924.90 0.1452546
925.00 0.1452006
925.10 0.1451465
925.20 0.1450925
925.30 0.1450385
925.40 0.1449846
925.50 0.1449306
925.60 0.1448767
925.70 0.1448228
925.80 0.1447689
925.90 0.144715
926.00 0.1446611
926.10 0.1446073
926.20 0.1445535
926.30 0.1444997
926.40 0.1444459
926.50 0.1443922
926.60 0.1443384
926.70 0.1442847
926.80 0.144231
926.90 0.1441773
927.00 0.1441237
927.10 0.14407
927.20 0.1440164
927.30 0.1439628
927.40 0.1439092
927.50 0.1438557
927.60 0.1438022
927.70 0.1437486
927.80 0.1436951
927.90 0.1436417
928.00 0.1435882
928.10 0.1435348
928.20 0.1434813
928.30 0.1434279
928.40 0.1433746
928.50 0.1433212
928.60 0.1432679
928.70 0.1432145
928.80 0.1431612
928.90 0.1431079
929.00 0.1430547
929.10 0.143002
929.20 0.1429494
929.30 0.1428969
929.40 0.1428443
929.50 0.1427918
929.60 0.1427392
929.70 0.1426867
929.80 0.1426342
929.90 0.1425818
930.00 0.1425293
930.10 0.1424769
930.20 0.1424245
930.30 0.1423721
930.40 0.1423197
930.50 0.1422674
930.60 0.1422151
930.70 0.1421628
930.80 0.1421105
930.90 0.1420582
931.00 0.1420059
931.10 0.1419537
931.20 0.1419015
931.30 0.1418493
931.40 0.1417971
931.50 0.141745
931.60 0.1416928
931.70 0.1416407
931.80 0.1415886
931.90 0.1415365
932.00 0.1414845
932.10 0.1414324
932.20 0.1413804
932.30 0.1413284
932.40 0.1412764
932.50 0.1412244
932.60 0.1411725
932.70 0.1411206
932.80 0.1410686
932.90 0.1410168
933.00 0.1409649
933.10 0.140913
933.20 0.1408612
933.30 0.1408094
933.40 0.1407576
933.50 0.1407058
933.60 0.1406541
933.70 0.1406025
933.80 0.140551
933.90 0.1404995
934.00 0.140448
934.10 0.1403966
934.20 0.1403451
934.30 0.1402937
934.40 0.1402423
934.50 0.1401909
934.60 0.1401396
934.70 0.1400883
934.80 0.1400369
934.90 0.1399856
935.00 0.1399344
935.10 0.1398831
935.20 0.1398318
935.30 0.1397806
935.40 0.1397294
935.50 0.1396782
935.60 0.1396271
935.70 0.1395759
935.80 0.1395248
935.90 0.1394737
936.00 0.1394226
936.10 0.1393715
936.20 0.1393204
936.30 0.1392694
936.40 0.1392184
936.50 0.1391674
936.60 0.1391164
936.70 0.1390654
936.80 0.1390145
936.90 0.1389636
937.00 0.1389126
937.10 0.1388618
937.20 0.1388109
937.30 0.13876
937.40 0.1387092
937.50 0.1386584
937.60 0.1386076
937.70 0.1385568
937.80 0.138506
937.90 0.1384553
938.00 0.1384046
938.10 0.1383539
938.20 0.1383032
938.30 0.1382525
938.40 0.1382019
938.50 0.1381512
938.60 0.1381006
938.70 0.13805
938.80 0.1379995
938.90 0.1379489
939.00 0.1378984
939.10 0.1378478
939.20 0.1377973
939.30 0.1377469
939.40 0.1376964
939.50 0.1376459
939.60 0.1375955
939.70 0.1375451
939.80 0.1374947
939.90 0.1374443
940.00 0.137394
940.10 0.1373436
940.20 0.1372933
940.30 0.137243
940.40 0.1371927
940.50 0.1371425
940.60 0.1370922
940.70 0.137042
940.80 0.1369918
940.90 0.1369416
941.00 0.1368914
941.10 0.1368413
941.20 0.1367911
941.30 0.136741
941.40 0.1366909
941.50 0.1366408
941.60 0.1365908
941.70 0.1365407
941.80 0.1364907
941.90 0.1364407
942.00 0.1363907
942.10 0.1363407
942.20 0.1362908
942.30 0.1362409
942.40 0.1361909
942.50 0.136141
942.60 0.1360912
942.70 0.1360413
942.80 0.1359914
942.90 0.1359416
943.00 0.1358919
943.10 0.1358423
943.20 0.1357927
943.30 0.1357432
943.40 0.1356937
943.50 0.1356442
943.60 0.1355947
943.70 0.1355452
943.80 0.1354957
943.90 0.1354463
944.00 0.1353969
944.10 0.1353475
944.20 0.1352981
944.30 0.1352487
944.40 0.1351994
944.50 0.13515
944.60 0.1351007
944.70 0.1350514
944.80 0.1350021
944.90 0.1349529
945.00 0.1349036
945.10 0.1348544
945.20 0.1348052
945.30 0.134756
945.40 0.1347069
945.50 0.1346577
945.60 0.1346086
945.70 0.1345595
945.80 0.1345104
945.90 0.1344613
946.00 0.1344122
946.10 0.1343632
946.20 0.1343141
946.30 0.1342651
946.40 0.1342161
946.50 0.1341671
946.60 0.1341182
946.70 0.1340693
946.80 0.1340203
946.90 0.1339714
947.00 0.1339225
947.10 0.1338737
947.20 0.1338248
947.30 0.133776
947.40 0.1337272
947.50 0.1336784
947.60 0.1336296
947.70 0.1335808
947.80 0.1335321
947.90 0.1334833
948.00 0.1334346
948.10 0.1333859
948.20 0.1333373
948.30 0.1332886
948.40 0.13324
948.50 0.1331913
948.60 0.1331427
948.70 0.1330941
948.80 0.1330456
948.90 0.132997
949.00 0.1329485
949.10 0.1329
949.20 0.1328515
949.30 0.132803
949.40 0.1327545
949.50 0.1327061
949.60 0.1326576
949.70 0.1326092
949.80 0.1325608
949.90 0.1325125
950.00 0.1324641
950.10 0.1324157
950.20 0.1323674
950.30 0.1323191
950.40 0.1322708
950.50 0.1322225
950.60 0.1321743
950.70 0.1321261
950.80 0.1320778
950.90 0.1320296
951.00 0.1319814
951.10 0.1319333
951.20 0.1318851
951.30 0.131837
951.40 0.1317889
951.50 0.1317408
951.60 0.1316927
951.70 0.1316446
951.80 0.1315966
951.90 0.1315485
952.00 0.1315005
952.10 0.1314525
952.20 0.1314045
952.30 0.1313566
952.40 0.1313087
952.50 0.1312615
952.60 0.1312144
952.70 0.1311673
952.80 0.1311202
952.90 0.1310731
953.00 0.131026
953.10 0.130979
953.20 0.130932
953.30 0.130885
953.40 0.130838
953.50 0.130791
953.60 0.130744
953.70 0.1306971
953.80 0.1306501
953.90 0.1306032
954.00 0.1305563
954.10 0.1305094
954.20 0.1304626
954.30 0.1304157
954.40 0.1303689
954.50 0.1303221
954.60 0.1302753
954.70 0.1302285
954.80 0.1301817
954.90 0.130135
955.00 0.1300883
955.10 0.1300415
955.20 0.1299948
955.30 0.1299482
955.40 0.1299015
955.50 0.1298548
955.60 0.1298082
955.70 0.1297616
955.80 0.129715
955.90 0.1296684
956.00 0.1296219
956.10 0.1295753
956.20 0.1295288
956.30 0.1294823
956.40 0.1294358
956.50 0.1293893
956.60 0.1293428
956.70 0.1292964
956.80 0.12925
956.90 0.1292035
957.00 0.1291571
957.10 0.1291108
957.20 0.1290641
957.30 0.1290172
957.40 0.1289703
957.50 0.1289234
957.60 0.1288766
957.70 0.1288297
957.80 0.1287829
957.90 0.1287361
958.00 0.1286893
958.10 0.1286425
958.20 0.1285957
958.30 0.128549
958.40 0.1285022
958.50 0.1284555
958.60 0.1284088
958.70 0.1283621
958.80 0.1283155
958.90 0.1282688
959.00 0.1282222
959.10 0.1281756
959.20 0.128129
959.30 0.1280824
959.40 0.1280358
959.50 0.1279893
959.60 0.1279427
959.70 0.1278962
959.80 0.1278497
959.90 0.1278032
960.00 0.1277568
960.10 0.1277103
960.20 0.1276639
960.30 0.1276174
960.40 0.127571
960.50 0.1275247
960.60 0.1274783
960.70 0.1274319
960.80 0.1273856
960.90 0.1273393
961.00 0.127293
961.10 0.1272467
961.20 0.1272004
961.30 0.1271542
961.40 0.1271079
961.50 0.1270617
961.60 0.1270155
961.70 0.1269693
961.80 0.1269232
961.90 0.126877
962.00 0.1268315
962.10 0.1267861
962.20 0.1267408
962.30 0.1266955
962.40 0.1266501
962.50 0.1266048
962.60 0.1265595
962.70 0.1265143
962.80 0.126469
962.90 0.1264238
963.00 0.1263786
963.10 0.1263334
963.20 0.1262882
963.30 0.126243
963.40 0.1261978
963.50 0.1261527
963.60 0.1261076
963.70 0.1260625
963.80 0.1260174
963.90 0.1259723
964.00 0.1259272
964.10 0.1258822
964.20 0.1258372
964.30 0.1257921
964.40 0.1257471
964.50 0.1257022
964.60 0.1256572
964.70 0.1256122
964.80 0.1255673
964.90 0.1255224
965.00 0.1254775
965.10 0.1254326
965.20 0.1253877
965.30 0.1253429
965.40 0.125298
965.50 0.1252532
965.60 0.1252084
965.70 0.1251636
965.80 0.1251188
965.90 0.1250741
966.00 0.1250293
966.10 0.1249846
966.20 0.1249399
966.30 0.1248952
966.40 0.1248505
966.50 0.1248059
966.60 0.1247612
966.70 0.1247166
966.80 0.124672
966.90 0.1246274
967.00 0.1245828
967.10 0.1245382
967.20 0.1244937
967.30 0.1244491
967.40 0.1244046
967.50 0.1243601
967.60 0.1243156
967.70 0.1242711
967.80 0.1242267
967.90 0.1241822
968.00 0.1241378
968.10 0.1240934
968.20 0.124049
968.30 0.1240046
968.40 0.1239602
968.50 0.1239159
968.60 0.1238716
968.70 0.1238272
968.80 0.1237829
968.90 0.1237386
969.00 0.1236944
969.10 0.1236501
969.20 0.1236059
969.30 0.1235617
969.40 0.1235174
969.50 0.1234733
969.60 0.1234291
969.70 0.1233849
969.80 0.1233408
969.90 0.1232966
970.00 0.1232525
970.10 0.1232084
970.20 0.1231643
970.30 0.1231203
970.40 0.1230762
970.50 0.1230322
970.60 0.1229882
970.70 0.1229442
970.80 0.1229002
970.90 0.1228562
971.00 0.1228122
971.10 0.1227683
971.20 0.1227244
971.30 0.1226804
971.40 0.1226365
971.50 0.1225927
971.60 0.1225489
971.70 0.1225052
971.80 0.1224616
971.90 0.122418
972.00 0.1223743
972.10 0.1223307
972.20 0.1222871
972.30 0.1222436
972.40 0.1222
972.50 0.1221565
972.60 0.1221129
972.70 0.1220694
972.80 0.1220259
972.90 0.1219824
973.00 0.121939
973.10 0.1218955
973.20 0.1218521
973.30 0.1218087
973.40 0.1217653
973.50 0.1217219
973.60 0.1216785
973.70 0.1216351
973.80 0.1215918
973.90 0.1215485
974.00 0.1215051
974.10 0.1214618
974.20 0.1214186
974.30 0.1213753
974.40 0.121332
974.50 0.1212888
974.60 0.1212456
974.70 0.1212024
974.80 0.1211592
974.90 0.121116
975.00 0.1210728
975.10 0.1210297
975.20 0.1209865
975.30 0.1209434
975.40 0.1209003
975.50 0.1208572
975.60 0.1208142
975.70 0.1207711
975.80 0.1207281
975.90 0.120685
976.00 0.120642
976.10 0.120599
976.20 0.120556
976.30 0.1205131
976.40 0.1204701
976.50 0.1204272
976.60 0.1203843
976.70 0.1203414
976.80 0.1202985
976.90 0.1202556
977.00 0.1202127
977.10 0.1201699
977.20 0.1201271
977.30 0.1200842
977.40 0.1200414
977.50 0.1199986
977.60 0.1199559
977.70 0.1199131
977.80 0.1198704
977.90 0.1198277
978.00 0.1197849
978.10 0.1197422
978.20 0.1196996
978.30 0.1196569
978.40 0.1196142
978.50 0.1195716
978.60 0.119529
978.70 0.1194864
978.80 0.1194438
978.90 0.1194012
979.00 0.1193586
979.10 0.1193161
979.20 0.1192736
979.30 0.1192311
979.40 0.1191885
979.50 0.1191461
979.60 0.1191036
979.70 0.1190611
979.80 0.1190187
979.90 0.1189763
980.00 0.1189338
980.10 0.1188914
980.20 0.1188491
980.30 0.1188067
980.40 0.1187643
980.50 0.118722
980.60 0.1186797
980.70 0.1186374
980.80 0.1185951
980.90 0.1185528
981.00 0.1185105
981.10 0.1184683
981.20 0.118426
981.30 0.118384
981.40 0.1183423
981.50 0.1183005
981.60 0.1182588
981.70 0.1182171
981.80 0.1181754
981.90 0.1181337
982.00 0.118092
982.10 0.1180503
982.20 0.1180087
982.30 0.1179671
982.40 0.1179255
982.50 0.1178839
982.60 0.1178423
982.70 0.1178007
982.80 0.1177591
982.90 0.1177176
983.00 0.1176761
983.10 0.1176345
983.20 0.117593
983.30 0.1175515
983.40 0.1175101
983.50 0.1174686
983.60 0.1174272
983.70 0.1173857
983.80 0.1173443
983.90 0.1173029
984.00 0.1172615
984.10 0.1172202
984.20 0.1171788
984.30 0.1171375
984.40 0.1170961
984.50 0.1170548
984.60 0.1170135
984.70 0.1169722
984.80 0.116931
984.90 0.1168897
985.00 0.1168485
985.10 0.1168072
985.20 0.116766
985.30 0.1167248
985.40 0.1166837
985.50 0.1166425
985.60 0.1166013
985.70 0.1165602
985.80 0.1165191
985.90 0.1164779
986.00 0.1164368
986.10 0.1163958
986.20 0.1163547
986.30 0.1163136
986.40 0.1162726
986.50 0.1162316
986.60 0.1161905
986.70 0.1161495
986.80 0.1161086
986.90 0.1160676
987.00 0.1160266
987.10 0.1159857
987.20 0.1159448
987.30 0.1159038
987.40 0.1158629
987.50 0.1158221
987.60 0.1157812
987.70 0.1157403
987.80 0.1156995
987.90 0.1156587
988.00 0.1156178
988.10 0.115577
988.20 0.1155363
988.30 0.1154955
988.40 0.1154547
988.50 0.115414
988.60 0.1153733
988.70 0.1153325
988.80 0.1152918
988.90 0.1152511
989.00 0.1152105
989.10 0.1151698
989.20 0.1151292
989.30 0.1150885
989.40 0.1150479
989.50 0.1150073
989.60 0.1149667
989.70 0.1149262
989.80 0.1148856
989.90 0.114845
990.00 0.1148045
990.10 0.114764
990.20 0.1147235
990.30 0.114683
990.40 0.1146425
990.50 0.1146021
990.60 0.1145616
990.70 0.1145212
990.80 0.1144808
990.90 0.1144403
991.00 0.1144
991.10 0.1143595
991.20 0.1143191
991.30 0.1142787
991.40 0.1142382
991.50 0.1141978
991.60 0.1141574
991.70 0.114117
991.80 0.1140767
991.90 0.1140363
992.00 0.113996
992.10 0.1139557
992.20 0.1139153
992.30 0.1138751
992.40 0.1138348
992.50 0.1137945
992.60 0.1137542
992.70 0.113714
992.80 0.1136738
992.90 0.1136336
993.00 0.1135934
993.10 0.1135532
993.20 0.113513
993.30 0.1134728
993.40 0.1134327
993.50 0.1133926
993.60 0.1133524
993.70 0.1133123
993.80 0.1132723
993.90 0.1132322
994.00 0.1131921
994.10 0.1131521
994.20 0.113112
994.30 0.113072
994.40 0.113032
994.50 0.112992
994.60 0.112952
994.70 0.1129121
994.80 0.1128721
994.90 0.1128322
995.00 0.1127923
995.10 0.1127523
995.20 0.1127125
995.30 0.1126726
995.40 0.1126327
995.50 0.1125928
995.60 0.112553
995.70 0.1125132
995.80 0.1124734
995.90 0.1124336
996.00 0.1123938
996.10 0.1123544
996.20 0.1123152
996.30 0.1122759
996.40 0.1122367
996.50 0.1121975
996.60 0.1121583
996.70 0.1121191
996.80 0.11208
996.90 0.1120408
997.00 0.1120017
997.10 0.1119625
997.20 0.1119234
997.30 0.1118843
997.40 0.1118452
997.50 0.1118062
997.60 0.1117671
997.70 0.111728
997.80 0.111689
997.90 0.11165
998.00 0.111611
998.10 0.111572
998.20 0.111533
998.30 0.111494
998.40 0.1114551
998.50 0.1114161
998.60 0.1113772
998.70 0.1113383
998.80 0.1112994
998.90 0.1112605
999.00 0.1112216
999.10 0.1111828
999.20 0.1111439
999.30 0.1111051
999.40 0.1110663
999.50 0.1110275
999.60 0.1109887
999.70 0.1109499
999.80 0.1109111
999.90 0.1108724
1000.00 0.1108336
1000.10 0.1107949
1000.20 0.1107562
1000.30 0.1107175
1000.40 0.1106788
1000.50 0.1106401
1000.60 0.1106015
1000.70 0.1105628
1000.80 0.1105242
1000.90 0.1104856
1001.00 0.110447
1001.10 0.1104086
1001.20 0.1103701
1001.30 0.1103317
1001.40 0.1102933
1001.50 0.110255
1001.60 0.1102166
1001.70 0.1101782
1001.80 0.1101399
1001.90 0.1101016
1002.00 0.1100633
1002.10 0.110025
1002.20 0.1099867
1002.30 0.1099484
1002.40 0.1099101
1002.50 0.1098719
1002.60 0.1098336
1002.70 0.1097954
1002.80 0.1097572
1002.90 0.109719
1003.00 0.1096808
1003.10 0.1096427
1003.20 0.1096045
1003.30 0.1095663
1003.40 0.1095282
1003.50 0.1094901
1003.60 0.109452
1003.70 0.1094139
1003.80 0.1093758
1003.90 0.1093378
1004.00 0.1092997
1004.10 0.1092617
1004.20 0.1092236
1004.30 0.1091856
1004.40 0.1091476
1004.50 0.1091096
1004.60 0.1090716
1004.70 0.1090337
1004.80 0.1089957
1004.90 0.1089578
1005.00 0.1089199
1005.10 0.108882
1005.20 0.1088441
1005.30 0.1088062
1005.40 0.1087683
1005.50 0.1087304
1005.60 0.1086926
1005.70 0.1086548
1005.80 0.1086169
1005.90 0.1085791
1006.00 0.1085413
1006.10 0.1085035
1006.20 0.1084658
1006.30 0.108428
1006.40 0.1083903
1006.50 0.1083525
1006.60 0.1083148
1006.70 0.1082771
1006.80 0.1082394
1006.90 0.1082017
1007.00 0.1081641
1007.10 0.1081264
1007.20 0.1080888
1007.30 0.1080511
1007.40 0.1080135
1007.50 0.1079759
1007.60 0.1079383
1007.70 0.1079007
1007.80 0.1078632
1007.90 0.1078256
1008.00 0.1077881
1008.10 0.1077505
1008.20 0.107713
1008.30 0.1076755
1008.40 0.107638
1008.50 0.1076005
1008.60 0.1075631
1008.70 0.1075256
1008.80 0.1074882
1008.90 0.1074508
1009.00 0.1074133
1009.10 0.1073759
1009.20 0.1073385
1009.30 0.1073012
1009.40 0.1072638
1009.50 0.1072265
1009.60 0.1071891
1009.70 0.1071518
1009.80 0.1071145
1009.90 0.1070772
1010.00 0.1070399
1010.10 0.1070026
1010.20 0.1069654
1010.30 0.1069281
1010.40 0.1068909
1010.50 0.1068536
1010.60 0.1068164
1010.70 0.1067792
1010.80 0.106742
1010.90 0.1067049
1011.00 0.1066678
1011.10 0.1066313
1011.20 0.1065948
1011.30 0.1065583
1011.40 0.1065219
1011.50 0.1064854
1011.60 0.106449
1011.70 0.1064125
1011.80 0.1063761
1011.90 0.1063397
1012.00 0.1063033
1012.10 0.1062669
1012.20 0.1062306
1012.30 0.1061942
1012.40 0.1061579
1012.50 0.1061215
1012.60 0.1060852
1012.70 0.1060489
1012.80 0.1060126
1012.90 0.1059763
1013.00 0.1059401
1013.10 0.1059038
1013.20 0.1058676
1013.30 0.1058313
1013.40 0.1057951
1013.50 0.1057589
1013.60 0.1057227
1013.70 0.1056865
1013.80 0.1056503
1013.90 0.1056142
1014.00 0.105578
1014.10 0.1055419
1014.20 0.1055058
1014.30 0.1054696
1014.40 0.1054335
1014.50 0.1053975
1014.60 0.1053614
1014.70 0.1053253
1014.80 0.1052893
1014.90 0.1052532
1015.00 0.1052172
1015.10 0.1051812
1015.20 0.1051452
1015.30 0.1051092
1015.40 0.1050732
1015.50 0.1050372
1015.60 0.1050013
1015.70 0.1049653
1015.80 0.1049294
1015.90 0.1048935
1016.00 0.1048576
1016.10 0.1048214
1016.20 0.104785
1016.30 0.1047487
1016.40 0.1047124
1016.50 0.104676
1016.60 0.1046397
1016.70 0.1046034
1016.80 0.1045672
1016.90 0.1045309
1017.00 0.1044946
1017.10 0.1044584
1017.20 0.1044221
1017.30 0.1043859
1017.40 0.1043497
1017.50 0.1043135
1017.60 0.1042773
1017.70 0.1042411
1017.80 0.104205
1017.90 0.1041688
1018.00 0.1041327
1018.10 0.1040966
1018.20 0.1040605
1018.30 0.1040244
1018.40 0.1039883
1018.50 0.1039522
1018.60 0.1039161
1018.70 0.1038801
1018.80 0.103844
1018.90 0.103808
1019.00 0.103772
1019.10 0.103736
1019.20 0.1037
1019.30 0.103664
1019.40 0.103628
1019.50 0.1035921
1019.60 0.1035561
1019.70 0.1035202
1019.80 0.1034843
1019.90 0.1034484
1020.00 0.1034125
1020.10 0.1033766
1020.20 0.1033407
1020.30 0.1033049
1020.40 0.103269
1020.50 0.1032332
1020.60 0.1031974
1020.70 0.1031616
1020.80 0.1031258
1020.90 0.10309
1021.00 0.1030542
1021.10 0.1030185
1021.20 0.1029833
1021.30 0.1029482
1021.40 0.1029131
1021.50 0.102878
1021.60 0.102843
1021.70 0.1028079
1021.80 0.1027728
1021.90 0.1027378
1022.00 0.1027027
1022.10 0.1026677
1022.20 0.1026327
1022.30 0.1025977
1022.40 0.1025627
1022.50 0.1025278
1022.60 0.1024928
1022.70 0.1024578
1022.80 0.1024229
1022.90 0.102388
1023.00 0.1023531
1023.10 0.1023182
1023.20 0.1022833
1023.30 0.1022484
1023.40 0.1022135
1023.50 0.1021787
1023.60 0.1021438
1023.70 0.102109
1023.80 0.1020741
1023.90 0.1020393
1024.00 0.1020045
1024.10 0.1019697
1024.20 0.101935
1024.30 0.1019002
1024.40 0.1018655
1024.50 0.1018307
1024.60 0.101796
1024.70 0.1017613
1024.80 0.1017266
1024.90 0.1016919
1025.00 0.1016572
1025.10 0.1016225
1025.20 0.1015878
1025.30 0.1015532
1025.40 0.1015186
1025.50 0.1014839
1025.60 0.1014493
1025.70 0.1014147
1025.80 0.1013801
1025.90 0.1013455
1026.00 0.101311
1026.10 0.1012764
1026.20 0.1012419
1026.30 0.1012069
1026.40 0.1011719
1026.50 0.1011369
1026.60 0.101102
1026.70 0.101067
1026.80 0.1010321
1026.90 0.1009971
1027.00 0.1009622
1027.10 0.1009273
1027.20 0.1008924
1027.30 0.1008575
1027.40 0.1008227
1027.50 0.1007878
1027.60 0.100753
1027.70 0.1007181
1027.80 0.1006833
1027.90 0.1006485
1028.00 0.1006137
1028.10 0.1005789
1028.20 0.1005441
1028.30 0.1005094
1028.40 0.1004746
1028.50 0.1004399
1028.60 0.1004051
1028.70 0.1003704
1028.80 0.1003357
1028.90 0.100301
1029.00 0.1002663
1029.10 0.1002317
1029.20 0.100197
1029.30 0.1001623
1029.40 0.1001277
1029.50 0.1000931
1029.60 0.1000585
1029.70 0.1000239
1029.80 0.09998927
1029.90 0.09995469
1030.00 0.09992012
1030.10 0.09988556
1030.20 0.09985102
1030.30 0.09981649
1030.40 0.09978196
1030.50 0.09974745
1030.60 0.09971295
1030.70 0.09967847
1030.80 0.09964399
1030.90 0.09960952
1031.00 0.09957507
1031.10 0.09954063
1031.20 0.0995062
1031.30 0.09947178
1031.40 0.09943796
1031.50 0.09940417
1031.60 0.09937039
1031.70 0.09933662
1031.80 0.09930286
1031.90 0.09926912
1032.00 0.09923538
1032.10 0.09920166
1032.20 0.09916795
1032.30 0.09913425
1032.40 0.09910056
1032.50 0.09906688
1032.60 0.09903322
1032.70 0.09899956
1032.80 0.09896592
1032.90 0.09893228
1033.00 0.09889866
1033.10 0.09886505
1033.20 0.09883145
1033.30 0.09879786
1033.40 0.09876428
1033.50 0.09873072
1033.60 0.09869716
1033.70 0.09866362
1033.80 0.09863009
1033.90 0.09859656
1034.00 0.09856305
1034.10 0.09852955
1034.20 0.09849607
1034.30 0.09846259
1034.40 0.09842912
1034.50 0.09839567
1034.60 0.09836222
1034.70 0.09832879
1034.80 0.09829537
1034.90 0.09826196
1035.00 0.09822856
1035.10 0.09819517
1035.20 0.09816179
1035.30 0.09812843
1035.40 0.09809507
1035.50 0.09806173
1035.60 0.09802839
1035.70 0.09799507
1035.80 0.09796176
1035.90 0.09792846
1036.00 0.09789517
1036.10 0.09786189
1036.20 0.09782862
1036.30 0.09779537
1036.40 0.09776212
1036.50 0.09772906
1036.60 0.09769629
1036.70 0.09766352
1036.80 0.09763077
1036.90 0.09759802
1037.00 0.09756529
1037.10 0.09753257
1037.20 0.09749985
1037.30 0.09746715
1037.40 0.09743446
1037.50 0.09740178
1037.60 0.09736911
1037.70 0.09733646
1037.80 0.09730381
1037.90 0.09727117
1038.00 0.09723855
1038.10 0.09720593
1038.20 0.09717333
1038.30 0.09714074
1038.40 0.09710815
1038.50 0.09707558
1038.60 0.09704302
1038.70 0.09701047
1038.80 0.09697793
1038.90 0.0969454
1039.00 0.09691288
1039.10 0.09688038
1039.20 0.09684788
1039.30 0.09681539
1039.40 0.09678292
1039.50 0.09675045
1039.60 0.096718
1039.70 0.09668556
1039.80 0.09665312
1039.90 0.0966207
1040.00 0.09658829
1040.10 0.09655589
1040.20 0.0965235
1040.30 0.09649112
1040.40 0.09645875
1040.50 0.0964264
1040.60 0.09639405
1040.70 0.09636171
1040.80 0.09632939
1040.90 0.09629707
1041.00 0.09626477
1041.10 0.09623247
1041.20 0.09620019
1041.30 0.09616792
1041.40 0.09613565
1041.50 0.0961034
1041.60 0.09607116
1041.70 0.09603868
1041.80 0.09600616
1041.90 0.09597365
1042.00 0.09594115
1042.10 0.09590866
1042.20 0.09587618
1042.30 0.09584371
1042.40 0.09581125
1042.50 0.0957788
1042.60 0.09574637
1042.70 0.09571394
1042.80 0.09568153
1042.90 0.09564912
1043.00 0.09561673
1043.10 0.09558435
1043.20 0.09555197
1043.30 0.09551961
1043.40 0.09548726
1043.50 0.09545492
1043.60 0.09542259
1043.70 0.09539027
1043.80 0.09535796
1043.90 0.09532566
1044.00 0.09529338
1044.10 0.0952611
1044.20 0.09522883
1044.30 0.09519658
1044.40 0.09516433
1044.50 0.0951321
1044.60 0.09509988
1044.70 0.09506766
1044.80 0.09503546
1044.90 0.09500327
1045.00 0.09497109
1045.10 0.09493892
1045.20 0.09490676
1045.30 0.09487461
1045.40 0.09484247
1045.50 0.09481034
1045.60 0.09477822
1045.70 0.09474611
1045.80 0.09471402
1045.90 0.09468193
1046.00 0.09464985
1046.10 0.09461779
1046.20 0.09458573
1046.30 0.09455369
1046.40 0.09452166
1046.50 0.09448963
1046.60 0.09445762
1046.70 0.09442562
1046.80 0.09439363
1046.90 0.09436165
1047.00 0.09432968
1047.10 0.09429772
1047.20 0.09426577
1047.30 0.09423383
1047.40 0.0942019
1047.50 0.09416998
1047.60 0.09413807
1047.70 0.09410617
1047.80 0.09407429
1047.90 0.09404241
1048.00 0.09401055
1048.10 0.09397869
1048.20 0.09394685
1048.30 0.09391501
1048.40 0.09388319
1048.50 0.09385137
1048.60 0.09381957
1048.70 0.09378778
1048.80 0.09375599
1048.90 0.09372422
1049.00 0.09369246
1049.10 0.09366071
1049.20 0.09362897
1049.30 0.09359724
1049.40 0.09356552
1049.50 0.09353381
1049.60 0.09350211
1049.70 0.09347042
1049.80 0.09343874
1049.90 0.09340707
1050.00 0.09337542
1050.10 0.09334377
1050.20 0.09331213
1050.30 0.09328051
1050.40 0.09324889
1050.50 0.09321728
1050.60 0.09318569
1050.70 0.0931541
1050.80 0.09312253
1050.90 0.09309096
1051.00 0.09305941
1051.10 0.09302787
1051.20 0.09299633
1051.30 0.09296481
1051.40 0.0929333
1051.50 0.09290179
1051.60 0.0928703
1051.70 0.09283882
1051.80 0.09280735
1051.90 0.09277588
1052.00 0.09274443
1052.10 0.09271337
1052.20 0.09268251
1052.30 0.09265165
1052.40 0.0926208
1052.50 0.09258997
1052.60 0.09255914
1052.70 0.09252833
1052.80 0.09249752
1052.90 0.09246673
1053.00 0.09243594
1053.10 0.09240517
1053.20 0.0923744
1053.30 0.09234365
1053.40 0.0923129
1053.50 0.09228216
1053.60 0.09225144
1053.70 0.09222072
1053.80 0.09219002
1053.90 0.09215932
1054.00 0.09212864
1054.10 0.09209796
1054.20 0.0920673
1054.30 0.09203664
1054.40 0.092006
1054.50 0.09197536
1054.60 0.09194474
1054.70 0.09191412
1054.80 0.09188352
1054.90 0.09185292
1055.00 0.09182233
1055.10 0.09179176
1055.20 0.09176119
1055.30 0.09173064
1055.40 0.09170009
1055.50 0.09166955
1055.60 0.09163903
1055.70 0.09160851
1055.80 0.09157801
1055.90 0.09154751
1056.00 0.09151702
1056.10 0.09148655
1056.20 0.09145608
1056.30 0.09142562
1056.40 0.09139518
1056.50 0.09136474
1056.60 0.09133431
1056.70 0.0913039
1056.80 0.09127349
1056.90 0.09124309
1057.00 0.0912127
1057.10 0.09118233
1057.20 0.09115196
1057.30 0.0911216
1057.40 0.09109125
1057.50 0.09106091
1057.60 0.09103059
1057.70 0.09100027
1057.80 0.09096996
1057.90 0.09093966
1058.00 0.09090937
1058.10 0.09087909
1058.20 0.09084882
1058.30 0.09081856
1058.40 0.09078831
1058.50 0.09075807
1058.60 0.09072784
1058.70 0.09069762
1058.80 0.09066741
1058.90 0.09063721
1059.00 0.09060702
1059.10 0.09057684
1059.20 0.09054667
1059.30 0.09051651
1059.40 0.09048635
1059.50 0.09045621
1059.60 0.09042608
1059.70 0.09039596
1059.80 0.09036585
1059.90 0.09033574
1060.00 0.09030565
1060.10 0.09027557
1060.20 0.09024549
1060.30 0.09021543
1060.40 0.09018537
1060.50 0.09015533
1060.60 0.09012529
1060.70 0.09009527
1060.80 0.09006525
1060.90 0.09003525
1061.00 0.09000525
1061.10 0.08997527
1061.20 0.08994529
1061.30 0.08991532
1061.40 0.08988536
1061.50 0.08985542
1061.60 0.08982548
1061.70 0.08979555
1061.80 0.08976563
1061.90 0.08973572
1062.00 0.08970583
1062.10 0.08967594
1062.20 0.08964606
1062.30 0.08961619
1062.40 0.08958633
1062.50 0.08955647
1062.60 0.0895265
1062.70 0.08949638
1062.80 0.08946628
1062.90 0.08943618
1063.00 0.08940609
1063.10 0.08937601
1063.20 0.08934594
1063.30 0.08931588
1063.40 0.08928583
1063.50 0.08925579
1063.60 0.08922576
1063.70 0.08919574
1063.80 0.08916573
1063.90 0.08913573
1064.00 0.08910574
1064.10 0.08907576
1064.20 0.08904578
1064.30 0.08901582
1064.40 0.08898587
1064.50 0.08895593
1064.60 0.08892599
1064.70 0.08889607
1064.80 0.08886616
1064.90 0.08883625
1065.00 0.08880636
1065.10 0.08877647
1065.20 0.0887466
1065.30 0.08871673
1065.40 0.08868688
1065.50 0.08865703
1065.60 0.08862719
1065.70 0.08859736
1065.80 0.08856755
1065.90 0.08853774
1066.00 0.08850794
1066.10 0.08847815
1066.20 0.08844837
1066.30 0.0884186
1066.40 0.08838885
1066.50 0.0883591
1066.60 0.08832935
1066.70 0.08829962
1066.80 0.0882699
1066.90 0.08824019
1067.00 0.08821049
1067.10 0.0881808
1067.20 0.08815111
1067.30 0.08812144
1067.40 0.08809178
1067.50 0.08806212
1067.60 0.08803248
1067.70 0.08800284
1067.80 0.08797322
1067.90 0.08794387
1068.00 0.08791508
1068.10 0.0878863
1068.20 0.08785754
1068.30 0.08782878
1068.40 0.08780002
1068.50 0.08777128
1068.60 0.08774255
1068.70 0.08771383
1068.80 0.08768511
1068.90 0.08765641
1069.00 0.08762771
1069.10 0.08759903
1069.20 0.08757035
1069.30 0.08754168
1069.40 0.08751302
1069.50 0.08748437
1069.60 0.08745573
1069.70 0.0874271
1069.80 0.08739848
1069.90 0.08736987
1070.00 0.08734127
1070.10 0.08731267
1070.20 0.08728409
1070.30 0.08725551
1070.40 0.08722694
1070.50 0.08719838
1070.60 0.08716984
1070.70 0.0871413
1070.80 0.08711277
1070.90 0.08708424
1071.00 0.08705573
1071.10 0.08702723
1071.20 0.08699874
1071.30 0.08697025
1071.40 0.08694178
1071.50 0.08691331
1071.60 0.08688485
1071.70 0.0868564
1071.80 0.08682796
1071.90 0.08679953
1072.00 0.08677111
1072.10 0.0867427
1072.20 0.0867143
1072.30 0.0866859
1072.40 0.08665752
1072.50 0.08662914
1072.60 0.08660078
1072.70 0.08657242
1072.80 0.08654407
1072.90 0.08651573
1073.00 0.0864874
1073.10 0.08645908
1073.20 0.08643071
1073.30 0.08640213
1073.40 0.08637355
1073.50 0.08634499
1073.60 0.08631643
1073.70 0.08628789
1073.80 0.08625935
1073.90 0.08623082
1074.00 0.0862023
1074.10 0.0861738
1074.20 0.08614529
1074.30 0.0861168
1074.40 0.08608832
1074.50 0.08605985
1074.60 0.08603138
1074.70 0.08600293
1074.80 0.08597448
1074.90 0.08594605
1075.00 0.08591762
1075.10 0.0858892
1075.20 0.08586079
1075.30 0.08583239
1075.40 0.085804
1075.50 0.08577562
1075.60 0.08574724
1075.70 0.08571888
1075.80 0.08569052
1075.90 0.08566218
1076.00 0.08563384
1076.10 0.08560551
1076.20 0.08557719
1076.30 0.08554888
1076.40 0.08552058
1076.50 0.08549229
1076.60 0.08546401
1076.70 0.08543573
1076.80 0.08540747
1076.90 0.08537921
1077.00 0.08535097
1077.10 0.08532273
1077.20 0.0852945
1077.30 0.08526628
1077.40 0.08523807
1077.50 0.08520987
1077.60 0.08518168
1077.70 0.08515349
1077.80 0.08512532
1077.90 0.08509715
1078.00 0.085069
1078.10 0.08504085
1078.20 0.08501271
1078.30 0.08498458
1078.40 0.08495646
1078.50 0.08492835
1078.60 0.08490046
1078.70 0.08487277
1078.80 0.08484508
1078.90 0.08481741
1079.00 0.08478974
1079.10 0.08476208
1079.20 0.08473442
1079.30 0.08470678
1079.40 0.08467915
1079.50 0.08465152
1079.60 0.08462391
1079.70 0.0845963
1079.80 0.0845687
1079.90 0.08454111
1080.00 0.08451353
1080.10 0.08448596
1080.20 0.08445839
1080.30 0.08443084
1080.40 0.08440329
1080.50 0.08437576
1080.60 0.08434823
1080.70 0.08432071
1080.80 0.0842932
1080.90 0.08426569
1081.00 0.0842382
1081.10 0.08421072
1081.20 0.08418324
1081.30 0.08415577
1081.40 0.08412831
1081.50 0.08410086
1081.60 0.08407342
1081.70 0.08404599
1081.80 0.08401857
1081.90 0.08399115
1082.00 0.08396374
1082.10 0.08393635
1082.20 0.08390896
1082.30 0.08388158
1082.40 0.08385421
1082.50 0.08382684
1082.60 0.08379949
1082.70 0.08377214
1082.80 0.08374481
1082.90 0.08371748
1083.00 0.08369016
1083.10 0.08366285
1083.20 0.08363554
1083.30 0.08360825
1083.40 0.08358097
1083.50 0.08355369
1083.60 0.08352642
1083.70 0.08349916
1083.80 0.08347191
1083.90 0.08344467
1084.00 0.08341719
1084.10 0.0833897
1084.20 0.08336221
1084.30 0.08333473
1084.40 0.08330726
1084.50 0.08327979
1084.60 0.08325234
1084.70 0.0832249
1084.80 0.08319746
1084.90 0.08317003
1085.00 0.08314261
1085.10 0.0831152
1085.20 0.0830878
1085.30 0.08306041
1085.40 0.08303303
1085.50 0.08300565
1085.60 0.08297828
1085.70 0.08295093
1085.80 0.08292358
1085.90 0.08289624
1086.00 0.0828689
1086.10 0.08284158
1086.20 0.08281427
1086.30 0.08278696
1086.40 0.08275966
1086.50 0.08273237
1086.60 0.08270509
1086.70 0.08267782
1086.80 0.08265056
1086.90 0.0826233
1087.00 0.08259606
1087.10 0.08256882
1087.20 0.08254159
1087.30 0.08251437
1087.40 0.08248716
1087.50 0.08245996
1087.60 0.08243277
1087.70 0.08240558
1087.80 0.0823784
1087.90 0.08235124
1088.00 0.08232408
1088.10 0.08229693
1088.20 0.08226978
1088.30 0.08224265
1088.40 0.08221553
1088.50 0.08218841
1088.60 0.0821613
1088.70 0.0821342
1088.80 0.08210711
1088.90 0.08208003
1089.00 0.08205295
1089.10 0.08202589
1089.20 0.08199883
1089.30 0.08197179
1089.40 0.08194501
1089.50 0.08191836
1089.60 0.08189173
1089.70 0.0818651
1089.80 0.08183848
1089.90 0.08181186
1090.00 0.08178526
1090.10 0.08175866
1090.20 0.08173208
1090.30 0.0817055
1090.40 0.08167893
1090.50 0.08165236
1090.60 0.08162581
1090.70 0.08159926
1090.80 0.08157273
1090.90 0.0815462
1091.00 0.08151968
1091.10 0.08149316
1091.20 0.08146666
1091.30 0.08144016
1091.40 0.08141368
1091.50 0.0813872
1091.60 0.08136073
1091.70 0.08133426
1091.80 0.08130781
1091.90 0.08128136
1092.00 0.08125493
1092.10 0.0812285
1092.20 0.08120208
1092.30 0.08117567
1092.40 0.08114926
1092.50 0.08112287
1092.60 0.08109648
1092.70 0.0810701
1092.80 0.08104373
1092.90 0.08101737
1093.00 0.08099101
1093.10 0.08096467
1093.20 0.08093833
1093.30 0.080912
1093.40 0.08088568
1093.50 0.08085936
1093.60 0.08083306
1093.70 0.08080676
1093.80 0.08078048
1093.90 0.0807542
1094.00 0.08072792
1094.10 0.08070166
1094.20 0.08067541
1094.30 0.08064916
1094.40 0.08062292
1094.50 0.08059669
1094.60 0.08057047
1094.70 0.08054425
1094.80 0.08051811
1094.90 0.08049202
1095.00 0.08046595
1095.10 0.08043989
1095.20 0.08041383
1095.30 0.08038778
1095.40 0.08036174
1095.50 0.0803357
1095.60 0.08030968
1095.70 0.08028366
1095.80 0.08025766
1095.90 0.08023165
1096.00 0.08020566
1096.10 0.08017968
1096.20 0.0801537
1096.30 0.08012774
1096.40 0.08010178
1096.50 0.08007582
1096.60 0.08004988
1096.70 0.08002395
1096.80 0.07999802
1096.90 0.0799721
1097.00 0.07994619
1097.10 0.07992029
1097.20 0.07989439
1097.30 0.07986851
1097.40 0.07984263
1097.50 0.07981676
1097.60 0.0797909
1097.70 0.07976504
1097.80 0.0797392
1097.90 0.07971336
1098.00 0.07968753
1098.10 0.07966171
1098.20 0.07963589
1098.30 0.07961009
1098.40 0.07958429
1098.50 0.0795585
1098.60 0.07953272
1098.70 0.07950695
1098.80 0.07948118
1098.90 0.07945543
1099.00 0.07942968
1099.10 0.07940394
1099.20 0.0793782
1099.30 0.07935248
1099.40 0.07932676
1099.50 0.07930105
1099.60 0.07927535
1099.70 0.07924966
1099.80 0.07922397
1099.90 0.0791983
1100.00 0.07917263
1100.10 0.07914697
1100.20 0.07912132
1100.30 0.07909567
1100.40 0.07907004
1100.50 0.07904441
1100.60 0.07901879
1100.70 0.07899317
1100.80 0.07896757
1100.90 0.07894197
1101.00 0.07891638
1101.10 0.0788908
1101.20 0.07886523
1101.30 0.07883967
1101.40 0.07881411
1101.50 0.07878856
1101.60 0.07876302
1101.70 0.07873749
1101.80 0.07871196
1101.90 0.07868645
1102.00 0.07866094
1102.10 0.07863544
1102.20 0.07860995
1102.30 0.07858446
1102.40 0.07855898
1102.50 0.07853352
1102.60 0.07850805
1102.70 0.0784826
1102.80 0.07845716
1102.90 0.07843172
1103.00 0.07840629
1103.10 0.07838087
1103.20 0.07835546
1103.30 0.07833005
1103.40 0.07830465
1103.50 0.07827926
1103.60 0.07825388
1103.70 0.07822851
1103.80 0.07820314
1103.90 0.07817778
1104.00 0.07815243
1104.10 0.07812709
1104.20 0.07810176
1104.30 0.07807643
1104.40 0.07805111
1104.50 0.0780258
1104.60 0.0780005
1104.70 0.0779752
1104.80 0.07794992
1104.90 0.07792464
1105.00 0.07789937
1105.10 0.0778741
1105.20 0.07784885
1105.30 0.0778236
1105.40 0.07779836
1105.50 0.07777313
1105.60 0.07774791
1105.70 0.0777227
1105.80 0.07769778
1105.90 0.07767288
1106.00 0.07764798
1106.10 0.07762309
1106.20 0.0775982
1106.30 0.07757333
1106.40 0.07754846
1106.50 0.0775236
1106.60 0.07749875
1106.70 0.0774739
1106.80 0.07744906
1106.90 0.07742423
1107.00 0.07739941
1107.10 0.0773746
1107.20 0.07734979
1107.30 0.07732499
1107.40 0.0773002
1107.50 0.07727542
1107.60 0.07725065
1107.70 0.07722588
1107.80 0.07720112
1107.90 0.07717637
1108.00 0.07715162
1108.10 0.07712688
1108.20 0.07710215
1108.30 0.07707743
1108.40 0.07705272
1108.50 0.07702801
1108.60 0.07700331
1108.70 0.07697862
1108.80 0.07695394
1108.90 0.07692926
1109.00 0.0769046
1109.10 0.07687993
1109.20 0.07685528
1109.30 0.07683064
1109.40 0.076806
1109.50 0.07678137
1109.60 0.07675675
1109.70 0.07673213
1109.80 0.07670753
1109.90 0.07668293
1110.00 0.07665833
1110.10 0.07663375
1110.20 0.07660917
1110.30 0.0765846
1110.40 0.07656004
1110.50 0.07653549
1110.60 0.07651094
1110.70 0.07648641
1110.80 0.07646187
1110.90 0.07643735
1111.00 0.07641284
1111.10 0.07638833
1111.20 0.07636383
1111.30 0.07633933
1111.40 0.07631485
1111.50 0.07629037
1111.60 0.0762659
1111.70 0.07624144
1111.80 0.07621698
1111.90 0.07619253
1112.00 0.07616809
1112.10 0.07614366
1112.20 0.07611924
1112.30 0.07609482
1112.40 0.07607041
1112.50 0.07604601
1112.60 0.07602161
1112.70 0.07599723
1112.80 0.07597285
1112.90 0.07594847
1113.00 0.07592411
1113.10 0.07589975
1113.20 0.0758754
1113.30 0.07585106
1113.40 0.07582673
1113.50 0.0758024
1113.60 0.07577808
1113.70 0.07575377
1113.80 0.07572946
1113.90 0.07570517
1114.00 0.07568088
1114.10 0.0756566
1114.20 0.07563232
1114.30 0.07560806
1114.40 0.0755838
1114.50 0.07555954
1114.60 0.0755353
1114.70 0.07551106
1114.80 0.07548683
1114.90 0.07546261
1115.00 0.0754384
1115.10 0.07541419
1115.20 0.07538999
1115.30 0.0753658
1115.40 0.07534161
1115.50 0.07531744
1115.60 0.07529327
1115.70 0.0752691
1115.80 0.07524495
1115.90 0.0752208
1116.00 0.07519666
1116.10 0.07517253
1116.20 0.0751484
1116.30 0.07512429
1116.40 0.07510018
1116.50 0.07507607
1116.60 0.07505198
1116.70 0.07502789
1116.80 0.07500394
1116.90 0.07498015
1117.00 0.07495637
1117.10 0.07493259
1117.20 0.07490883
1117.30 0.07488507
1117.40 0.07486132
1117.50 0.07483757
1117.60 0.07481383
1117.70 0.0747901
1117.80 0.07476638
1117.90 0.07474267
1118.00 0.07471896
1118.10 0.07469526
1118.20 0.07467156
1118.30 0.07464788
1118.40 0.0746242
1118.50 0.07460052
1118.60 0.07457686
1118.70 0.0745532
1118.80 0.07452955
1118.90 0.07450591
1119.00 0.07448227
1119.10 0.07445865
1119.20 0.07443502
1119.30 0.07441141
1119.40 0.0743878
1119.50 0.0743642
1119.60 0.07434061
1119.70 0.07431703
1119.80 0.07429345
1119.90 0.07426988
1120.00 0.07424632
1120.10 0.07422276
1120.20 0.07419921
1120.30 0.07417567
1120.40 0.07415214
1120.50 0.07412861
1120.60 0.07410509
1120.70 0.07408158
1120.80 0.07405807
1120.90 0.07403457
1121.00 0.07401108
1121.10 0.0739876
1121.20 0.07396412
1121.30 0.07394065
1121.40 0.07391719
1121.50 0.07389374
1121.60 0.07387029
1121.70 0.07384685
1121.80 0.07382341
1121.90 0.07379999
1122.00 0.07377657
1122.10 0.07375316
1122.20 0.07372975
1122.30 0.07370635
1122.40 0.07368296
1122.50 0.07365958
1122.60 0.0736362
1122.70 0.07361283
1122.80 0.07358947
1122.90 0.07356611
1123.00 0.07354276
1123.10 0.07351942
1123.20 0.07349608
1123.30 0.07347275
1123.40 0.07344943
1123.50 0.07342612
1123.60 0.07340281
1123.70 0.07337952
1123.80 0.07335622
1123.90 0.07333294
1124.00 0.07330966
1124.10 0.07328639
1124.20 0.07326313
1124.30 0.07323987
1124.40 0.07321662
1124.50 0.07319338
1124.60 0.07317014
1124.70 0.07314691
1124.80 0.07312369
1124.90 0.07310048
1125.00 0.07307727
1125.10 0.07305407
1125.20 0.07303088
1125.30 0.07300769
1125.40 0.07298452
1125.50 0.07296134
1125.60 0.07293818
1125.70 0.07291502
1125.80 0.07289187
1125.90 0.07286873
1126.00 0.07284559
1126.10 0.07282247
1126.20 0.07279934
1126.30 0.07277623
1126.40 0.07275312
1126.50 0.07273002
1126.60 0.07270693
1126.70 0.07268384
1126.80 0.07266076
1126.90 0.07263769
1127.00 0.07261462
1127.10 0.07259156
1127.20 0.07256851
1127.30 0.07254547
1127.40 0.07252243
1127.50 0.0724994
1127.60 0.07247638
1127.70 0.07245336
1127.80 0.07243035
1127.90 0.07240735
1128.00 0.07238444
1128.10 0.07236155
1128.20 0.07233867
1128.30 0.0723158
1128.40 0.07229294
1128.50 0.07227008
1128.60 0.07224723
1128.70 0.07222438
1128.80 0.07220155
1128.90 0.07217872
1129.00 0.07215589
1129.10 0.07213308
1129.20 0.07211027
1129.30 0.07208747
1129.40 0.07206467
1129.50 0.07204189
1129.60 0.0720191
1129.70 0.07199633
1129.80 0.07197356
1129.90 0.0719508
1130.00 0.07192805
1130.10 0.0719053
1130.20 0.07188256
1130.30 0.07185983
1130.40 0.0718371
1130.50 0.07181439
1130.60 0.07179167
1130.70 0.07176897
1130.80 0.07174627
1130.90 0.07172358
1131.00 0.0717009
1131.10 0.07167822
1131.20 0.07165555
1131.30 0.07163288
1131.40 0.07161023
1131.50 0.07158758
1131.60 0.07156494
1131.70 0.0715423
1131.80 0.07151967
1131.90 0.07149705
1132.00 0.07147443
1132.10 0.07145182
1132.20 0.07142922
1132.30 0.07140663
1132.40 0.07138404
1132.50 0.07136146
1132.60 0.07133889
1132.70 0.07131632
1132.80 0.07129376
1132.90 0.0712712
1133.00 0.07124866
1133.10 0.07122612
1133.20 0.07120358
1133.30 0.07118106
1133.40 0.07115854
1133.50 0.07113603
1133.60 0.07111352
1133.70 0.07109102
1133.80 0.07106853
1133.90 0.07104605
1134.00 0.07102357
1134.10 0.0710011
1134.20 0.07097863
1134.30 0.07095617
1134.40 0.07093372
1134.50 0.07091128
1134.60 0.07088884
1134.70 0.07086641
1134.80 0.07084399
1134.90 0.07082157
1135.00 0.07079916
1135.10 0.07077675
1135.20 0.07075436
1135.30 0.07073197
1135.40 0.07070959
1135.50 0.07068721
1135.60 0.07066484
1135.70 0.07064248
1135.80 0.07062012
1135.90 0.07059777
1136.00 0.07057543
1136.10 0.07055309
1136.20 0.07053077
1136.30 0.07050844
1136.40 0.07048613
1136.50 0.07046382
1136.60 0.07044152
1136.70 0.07041922
1136.80 0.07039693
1136.90 0.07037465
1137.00 0.07035238
1137.10 0.07033011
1137.20 0.07030785
1137.30 0.07028559
1137.40 0.07026335
1137.50 0.07024111
1137.60 0.07021887
1137.70 0.07019664
1137.80 0.07017442
1137.90 0.07015221
1138.00 0.07013
1138.10 0.0701078
1138.20 0.07008561
1138.30 0.07006342
1138.40 0.07004124
1138.50 0.07001907
1138.60 0.0699969
1138.70 0.06997474
1138.80 0.06995258
1138.90 0.06993044
1139.00 0.0699083
1139.10 0.06988616
1139.20 0.06986404
1139.30 0.06984218
1139.40 0.06982033
1139.50 0.06979849
1139.60 0.06977665
1139.70 0.06975482
1139.80 0.069733
1139.90 0.06971118
1140.00 0.06968938
1140.10 0.06966757
1140.20 0.06964578
1140.30 0.06962399
1140.40 0.06960221
1140.50 0.06958043
1140.60 0.06955866
1140.70 0.0695369
1140.80 0.06951514
1140.90 0.06949339
1141.00 0.06947165
1141.10 0.06944991
1141.20 0.06942818
1141.30 0.06940646
1141.40 0.06938474
1141.50 0.06936303
1141.60 0.06934133
1141.70 0.06931963
1141.80 0.06929794
1141.90 0.06927625
1142.00 0.06925458
1142.10 0.0692329
1142.20 0.06921124
1142.30 0.06918958
1142.40 0.06916793
1142.50 0.06914628
1142.60 0.06912465
1142.70 0.06910301
1142.80 0.06908139
1142.90 0.06905977
1143.00 0.06903816
1143.10 0.06901655
1143.20 0.06899495
1143.30 0.06897336
1143.40 0.06895177
1143.50 0.06893019
1143.60 0.06890862
1143.70 0.06888705
1143.80 0.06886549
1143.90 0.06884393
1144.00 0.06882239
1144.10 0.06880085
1144.20 0.06877931
1144.30 0.06875778
1144.40 0.06873626
1144.50 0.06871475
1144.60 0.06869324
1144.70 0.06867173
1144.80 0.06865024
1144.90 0.06862875
1145.00 0.06860727
1145.10 0.06858579
1145.20 0.06856432
1145.30 0.06854286
1145.40 0.0685214
1145.50 0.06849995
1145.60 0.0684785
1145.70 0.06845707
1145.80 0.06843563
1145.90 0.06841421
1146.00 0.06839279
1146.10 0.06837138
1146.20 0.06834997
1146.30 0.06832857
1146.40 0.06830718
1146.50 0.0682858
1146.60 0.06826442
1146.70 0.06824304
1146.80 0.06822167
1146.90 0.06820031
1147.00 0.06817896
1147.10 0.06815761
1147.20 0.06813627
1147.30 0.06811494
1147.40 0.06809361
1147.50 0.06807228
1147.60 0.06805097
1147.70 0.06802966
1147.80 0.06800836
1147.90 0.06798706
1148.00 0.06796577
1148.10 0.06794449
1148.20 0.06792321
1148.30 0.06790194
1148.40 0.06788067
1148.50 0.06785941
1148.60 0.06783816
1148.70 0.06781692
1148.80 0.06779568
1148.90 0.06777444
1149.00 0.06775322
1149.10 0.067732
1149.20 0.06771078
1149.30 0.06768958
1149.40 0.06766837
1149.50 0.06764718
1149.60 0.06762599
1149.70 0.06760481
1149.80 0.06758363
1149.90 0.06756246
1150.00 0.0675413
1150.10 0.06752014
1150.20 0.06749899
1150.30 0.06747785
1150.40 0.06745671
1150.50 0.06743558
1150.60 0.06741447
1150.70 0.06739361
1150.80 0.06737275
1150.90 0.0673519
1151.00 0.06733105
1151.10 0.06731021
1151.20 0.06728938
1151.30 0.06726856
1151.40 0.06724774
1151.50 0.06722692
1151.60 0.06720611
1151.70 0.06718531
1151.80 0.06716452
1151.90 0.06714373
1152.00 0.06712294
1152.10 0.06710217
1152.20 0.0670814
1152.30 0.06706063
1152.40 0.06703987
1152.50 0.06701912
1152.60 0.06699838
1152.70 0.06697764
1152.80 0.0669569
1152.90 0.06693618
1153.00 0.06691546
1153.10 0.06689474
1153.20 0.06687403
1153.30 0.06685333
1153.40 0.06683263
1153.50 0.06681194
1153.60 0.06679126
1153.70 0.06677058
1153.80 0.06674991
1153.90 0.06672924
1154.00 0.06670858
1154.10 0.06668793
1154.20 0.06666728
1154.30 0.06664664
1154.40 0.06662601
1154.50 0.06660538
1154.60 0.06658476
1154.70 0.06656414
1154.80 0.06654353
1154.90 0.06652293
1155.00 0.06650233
1155.10 0.06648174
1155.20 0.06646115
1155.30 0.06644057
1155.40 0.06642
1155.50 0.06639943
1155.60 0.06637887
1155.70 0.06635832
1155.80 0.06633777
1155.90 0.06631722
1156.00 0.06629669
1156.10 0.06627616
1156.20 0.06625563
1156.30 0.06623511
1156.40 0.06621443
1156.50 0.0661936
1156.60 0.06617278
1156.70 0.06615197
1156.80 0.06613116
1156.90 0.06611036
1157.00 0.06608957
1157.10 0.06606878
1157.20 0.06604799
1157.30 0.06602722
1157.40 0.06600645
1157.50 0.06598568
1157.60 0.06596492
1157.70 0.06594417
1157.80 0.06592343
1157.90 0.06590269
1158.00 0.06588195
1158.10 0.06586123
1158.20 0.06584051
1158.30 0.06581979
1158.40 0.06579908
1158.50 0.06577838
1158.60 0.06575768
1158.70 0.06573699
1158.80 0.06571631
1158.90 0.06569563
1159.00 0.06567496
1159.10 0.0656543
1159.20 0.06563364
1159.30 0.06561298
1159.40 0.06559234
1159.50 0.0655717
1159.60 0.06555106
1159.70 0.06553043
1159.80 0.06550981
1159.90 0.06548919
1160.00 0.06546858
1160.10 0.06544798
1160.20 0.06542738
1160.30 0.06540679
1160.40 0.0653862
1160.50 0.06536563
1160.60 0.06534505
1160.70 0.06532448
1160.80 0.06530392
1160.90 0.06528337
1161.00 0.06526282
1161.10 0.06524228
1161.20 0.06522174
1161.30 0.06520121
1161.40 0.06518069
1161.50 0.06516017
1161.60 0.06513965
1161.70 0.06511915
1161.80 0.06509865
1161.90 0.06507815
1162.00 0.06505767
1162.10 0.06503718
1162.20 0.06501712
1162.30 0.06499705
1162.40 0.064977
1162.50 0.06495694
1162.60 0.0649369
1162.70 0.06491686
1162.80 0.06489683
1162.90 0.0648768
1163.00 0.06485678
1163.10 0.06483676
1163.20 0.06481675
1163.30 0.06479675
1163.40 0.06477675
1163.50 0.06475676
1163.60 0.06473677
1163.70 0.06471679
1163.80 0.06469682
1163.90 0.06467685
1164.00 0.06465688
1164.10 0.06463693
1164.20 0.06461698
1164.30 0.06459703
1164.40 0.06457709
1164.50 0.06455716
1164.60 0.06453723
1164.70 0.06451731
1164.80 0.0644974
1164.90 0.06447749
1165.00 0.06445758
1165.10 0.06443769
1165.20 0.06441779
1165.30 0.06439791
1165.40 0.06437803
1165.50 0.06435815
1165.60 0.06433829
1165.70 0.06431842
1165.80 0.06429857
1165.90 0.06427872
1166.00 0.06425887
1166.10 0.06423903
1166.20 0.0642192
1166.30 0.06419937
1166.40 0.06417955
1166.50 0.06415974
1166.60 0.06413993
1166.70 0.06412012
1166.80 0.06410032
1166.90 0.06408053
1167.00 0.06406075
1167.10 0.06404096
1167.20 0.06402119
1167.30 0.06400142
1167.40 0.06398166
1167.50 0.0639619
1167.60 0.06394215
1167.70 0.0639224
1167.80 0.06390266
1167.90 0.06388293
1168.00 0.06386349
1168.10 0.06384408
1168.20 0.06382468
1168.30 0.06380528
1168.40 0.06378589
1168.50 0.06376651
1168.60 0.06374713
1168.70 0.06372776
1168.80 0.06370839
1168.90 0.06368903
1169.00 0.06366967
1169.10 0.06365032
1169.20 0.06363098
1169.30 0.06361164
1169.40 0.06359231
1169.50 0.06357298
1169.60 0.06355366
1169.70 0.06353434
1169.80 0.06351503
1169.90 0.06349573
1170.00 0.06347643
1170.10 0.06345714
1170.20 0.06343785
1170.30 0.06341857
1170.40 0.06339929
1170.50 0.06338002
1170.60 0.06336076
1170.70 0.0633415
1170.80 0.06332224
1170.90 0.063303
1171.00 0.06328375
1171.10 0.06326452
1171.20 0.06324529
1171.30 0.06322606
1171.40 0.06320684
1171.50 0.06318763
1171.60 0.06316842
1171.70 0.06314922
1171.80 0.06313002
1171.90 0.06311083
1172.00 0.06309164
1172.10 0.06307246
1172.20 0.06305329
1172.30 0.06303412
1172.40 0.06301496
1172.50 0.0629958
1172.60 0.06297665
1172.70 0.0629575
1172.80 0.06293836
1172.90 0.06291922
1173.00 0.06290009
1173.10 0.06288097
1173.20 0.06286185
1173.30 0.06284274
1173.40 0.06282363
1173.50 0.06280453
1173.60 0.06278543
1173.70 0.06276634
1173.80 0.06274708
1173.90 0.06272777
1174.00 0.06270847
1174.10 0.06268918
1174.20 0.06266989
1174.30 0.06265061
1174.40 0.06263133
1174.50 0.06261206
1174.60 0.06259279
1174.70 0.06257353
1174.80 0.06255428
1174.90 0.06253503
1175.00 0.06251579
1175.10 0.06249655
1175.20 0.06247732
1175.30 0.06245809
1175.40 0.06243887
1175.50 0.06241966
1175.60 0.06240045
1175.70 0.06238124
1175.80 0.06236205
1175.90 0.06234285
1176.00 0.06232367
1176.10 0.06230449
1176.20 0.06228531
1176.30 0.06226614
1176.40 0.06224698
1176.50 0.06222782
1176.60 0.06220866
1176.70 0.06218952
1176.80 0.06217037
1176.90 0.06215124
1177.00 0.06213211
1177.10 0.06211298
1177.20 0.06209386
1177.30 0.06207475
1177.40 0.06205564
1177.50 0.06203654
1177.60 0.06201744
1177.70 0.06199835
1177.80 0.06197926
1177.90 0.06196018
1178.00 0.06194111
1178.10 0.06192204
1178.20 0.06190298
1178.30 0.06188392
1178.40 0.06186487
1178.50 0.06184582
1178.60 0.06182678
1178.70 0.06180774
1178.80 0.06178871
1178.90 0.06176969
1179.00 0.06175067
1179.10 0.06173165
1179.20 0.06171265
1179.30 0.06169364
1179.40 0.06167465
1179.50 0.06165566
1179.60 0.0616367
1179.70 0.06161803
1179.80 0.06159936
1179.90 0.0615807
1180.00 0.06156204
1180.10 0.06154339
1180.20 0.06152474
1180.30 0.0615061
1180.40 0.06148746
1180.50 0.06146883
1180.60 0.06145021
1180.70 0.06143159
1180.80 0.06141298
1180.90 0.06139437
1181.00 0.06137576
1181.10 0.06135717
1181.20 0.06133857
1181.30 0.06131999
1181.40 0.0613014
1181.50 0.06128283
1181.60 0.06126426
1181.70 0.06124569
1181.80 0.06122713
1181.90 0.06120858
1182.00 0.06119003
1182.10 0.06117148
1182.20 0.06115294
1182.30 0.06113441
1182.40 0.06111588
1182.50 0.06109736
1182.60 0.06107885
1182.70 0.06106033
1182.80 0.06104183
1182.90 0.06102333
1183.00 0.06100483
1183.10 0.06098634
1183.20 0.06096786
1183.30 0.06094938
1183.40 0.0609309
1183.50 0.06091244
1183.60 0.06089397
1183.70 0.06087551
1183.80 0.06085706
1183.90 0.06083862
1184.00 0.06082017
1184.10 0.06080174
1184.20 0.06078331
1184.30 0.06076488
1184.40 0.06074646
1184.50 0.06072805
1184.60 0.06070964
1184.70 0.06069123
1184.80 0.06067283
1184.90 0.06065444
1185.00 0.06063605
1185.10 0.06061767
1185.20 0.06059929
1185.30 0.06058092
1185.40 0.06056255
1185.50 0.06054422
1185.60 0.06052595
1185.70 0.06050768
1185.80 0.06048941
1185.90 0.06047115
1186.00 0.0604529
1186.10 0.06043465
1186.20 0.0604164
1186.30 0.06039816
1186.40 0.06037993
1186.50 0.0603617
1186.60 0.06034348
1186.70 0.06032526
1186.80 0.06030705
1186.90 0.06028884
1187.00 0.06027064
1187.10 0.06025244
1187.20 0.06023425
1187.30 0.06021606
1187.40 0.06019788
1187.50 0.0601797
1187.60 0.06016153
1187.70 0.06014337
1187.80 0.06012521
1187.90 0.06010705
1188.00 0.0600889
1188.10 0.06007076
1188.20 0.06005262
1188.30 0.06003448
1188.40 0.06001636
1188.50 0.05999823
1188.60 0.05998011
1188.70 0.059962
1188.80 0.05994389
1188.90 0.05992579
1189.00 0.05990769
1189.10 0.0598896
1189.20 0.05987152
1189.30 0.05985344
1189.40 0.05983536
1189.50 0.05981729
1189.60 0.05979922
1189.70 0.05978116
1189.80 0.05976311
1189.90 0.05974506
1190.00 0.05972701
1190.10 0.05970897
1190.20 0.05969094
1190.30 0.05967291
1190.40 0.05965488
1190.50 0.05963687
1190.60 0.05961885
1190.70 0.05960084
1190.80 0.05958284
1190.90 0.05956484
1191.00 0.05954685
1191.10 0.05952886
1191.20 0.05951088
1191.30 0.0594929
1191.40 0.05947493
1191.50 0.05945697
1191.60 0.059439
1191.70 0.05942105
1191.80 0.0594031
1191.90 0.05938515
1192.00 0.05936721
1192.10 0.05934927
1192.20 0.05933134
1192.30 0.05931342
1192.40 0.0592955
1192.50 0.05927758
1192.60 0.05925967
1192.70 0.05924177
1192.80 0.05922387
1192.90 0.05920598
1193.00 0.05918809
1193.10 0.0591702
1193.20 0.05915232
1193.30 0.05913445
1193.40 0.05911658
1193.50 0.05909872
1193.60 0.05908086
1193.70 0.05906301
1193.80 0.05904516
1193.90 0.05902732
1194.00 0.05900948
1194.10 0.05899165
1194.20 0.05897382
1194.30 0.058956
1194.40 0.05893818
1194.50 0.05892037
1194.60 0.05890256
1194.70 0.05888476
1194.80 0.05886697
1194.90 0.05884918
1195.00 0.05883139
1195.10 0.05881361
1195.20 0.05879583
1195.30 0.05877806
1195.40 0.0587603
1195.50 0.05874254
1195.60 0.05872478
1195.70 0.05870703
1195.80 0.05868929
1195.90 0.05867155
1196.00 0.05865381
1196.10 0.05863608
1196.20 0.05861836
1196.30 0.05860064
1196.40 0.05858292
1196.50 0.05856521
1196.60 0.05854751
1196.70 0.05852981
1196.80 0.05851212
1196.90 0.05849443
1197.00 0.05847674
1197.10 0.05845907
1197.20 0.05844139
1197.30 0.05842372
1197.40 0.05840613
1197.50 0.05838855
1197.60 0.05837098
1197.70 0.05835341
1197.80 0.05833584
1197.90 0.05831828
1198.00 0.05830073
1198.10 0.05828318
1198.20 0.05826564
1198.30 0.0582481
1198.40 0.05823057
1198.50 0.05821304
1198.60 0.05819551
1198.70 0.05817799
1198.80 0.05816048
1198.90 0.05814297
1199.00 0.05812547
1199.10 0.05810797
1199.20 0.05809048
1199.30 0.05807299
1199.40 0.05805551
1199.50 0.05803803
1199.60 0.05802055
1199.70 0.05800309
1199.80 0.05798562
1199.90 0.05796816
1200.00 0.05795071
