# Version 2.1 - nm, norm@500 to 1, cut digits, bergeron_He_13000_90.dat_13000
# Wavelength(nm)  Flambda(ergs/cm^s/s/nm)
300.00 2.911427
300.10 2.910086
300.20 2.908744
300.30 2.907398
300.40 2.906018
300.50 2.904639
300.60 2.903262
300.70 2.901885
300.80 2.90051
300.90 2.899136
301.00 2.897763
301.10 2.896392
301.20 2.895021
301.30 2.893652
301.40 2.892284
301.50 2.890917
301.60 2.889552
301.70 2.888187
301.80 2.886824
301.90 2.885461
302.00 2.8841
302.10 2.882728
302.20 2.881356
302.30 2.879984
302.40 2.878614
302.50 2.877245
302.60 2.875877
302.70 2.874511
302.80 2.873145
302.90 2.871781
303.00 2.870418
303.10 2.869056
303.20 2.867695
303.30 2.866333
303.40 2.864948
303.50 2.863564
303.60 2.862181
303.70 2.860799
303.80 2.859418
303.90 2.858039
304.00 2.856661
304.10 2.855284
304.20 2.853908
304.30 2.852534
304.40 2.85116
304.50 2.849788
304.60 2.848413
304.70 2.847039
304.80 2.845667
304.90 2.844295
305.00 2.842925
305.10 2.841556
305.20 2.840187
305.30 2.838821
305.40 2.837455
305.50 2.83609
305.60 2.834727
305.70 2.833365
305.80 2.832004
305.90 2.830644
306.00 2.829286
306.10 2.827928
306.20 2.826572
306.30 2.825217
306.40 2.823835
306.50 2.822445
306.60 2.821056
306.70 2.819669
306.80 2.818283
306.90 2.816898
307.00 2.815515
307.10 2.814132
307.20 2.812751
307.30 2.811371
307.40 2.809992
307.50 2.808615
307.60 2.807238
307.70 2.805863
307.80 2.804489
307.90 2.803116
308.00 2.801745
308.10 2.800374
308.20 2.799005
308.30 2.797637
308.40 2.79627
308.50 2.794904
308.60 2.79354
308.70 2.792176
308.80 2.790763
308.90 2.789204
309.00 2.787848
309.10 2.786493
309.20 2.78514
309.30 2.783788
309.40 2.782433
309.50 2.781053
309.60 2.779675
309.70 2.778298
309.80 2.776922
309.90 2.775548
310.00 2.774174
310.10 2.772802
310.20 2.771431
310.30 2.770061
310.40 2.768683
310.50 2.767294
310.60 2.765907
310.70 2.764521
310.80 2.763136
310.90 2.761752
311.00 2.760306
311.10 2.758861
311.20 2.757417
311.30 2.755986
311.40 2.754589
311.50 2.753193
311.60 2.751799
311.70 2.750405
311.80 2.749013
311.90 2.747623
312.00 2.746233
312.10 2.744845
312.20 2.743536
312.30 2.742203
312.40 2.740787
312.50 2.739404
312.60 2.737979
312.70 2.736556
312.80 2.735134
312.90 2.733694
313.00 2.732236
313.10 2.730779
313.20 2.729323
313.30 2.72787
313.40 2.726422
313.50 2.724975
313.60 2.723529
313.70 2.722085
313.80 2.720642
313.90 2.7192
314.00 2.717759
314.10 2.716263
314.20 2.714768
314.30 2.713275
314.40 2.711783
314.50 2.710292
314.60 2.708802
314.70 2.707314
314.80 2.705867
314.90 2.704349
315.00 2.702632
315.10 2.701017
315.20 2.699403
315.30 2.697791
315.40 2.69618
315.50 2.694571
315.60 2.692964
315.70 2.691258
315.80 2.689554
315.90 2.687851
316.00 2.68615
316.10 2.684302
316.20 2.682456
316.30 2.680462
316.40 2.678619
316.50 2.676332
316.60 2.674196
316.70 2.672062
316.80 2.669931
316.90 2.667653
317.00 2.665377
317.10 2.663104
317.20 2.660833
317.30 2.658306
317.40 2.655534
317.50 2.652058
317.60 2.648587
317.70 2.645119
317.80 2.641655
317.90 2.63631
318.00 2.629825
318.10 2.620373
318.20 2.610932
318.30 2.601502
318.40 2.590557
318.50 2.575279
318.60 2.559563
318.70 2.544587
318.80 2.535739
318.90 2.53882
319.00 2.548162
319.10 2.559287
319.20 2.569665
319.30 2.577947
319.40 2.586218
319.50 2.594478
319.60 2.60077
319.70 2.60423
319.80 2.607686
319.90 2.611137
320.00 2.613681
320.10 2.615246
320.20 2.616506
320.30 2.617444
320.40 2.617812
320.50 2.618034
320.60 2.618139
320.70 2.617954
320.80 2.61763
320.90 2.617156
321.00 2.616682
321.10 2.616208
321.20 2.615374
321.30 2.614495
321.40 2.613616
321.50 2.612738
321.60 2.611861
321.70 2.610984
321.80 2.610123
321.90 2.609278
322.00 2.607918
322.10 2.606799
322.20 2.60568
322.30 2.604563
322.40 2.603446
322.50 2.60233
322.60 2.601216
322.70 2.600102
322.80 2.599128
322.90 2.597873
323.00 2.59662
323.10 2.595368
323.20 2.594116
323.30 2.592866
323.40 2.591617
323.50 2.590369
323.60 2.589121
323.70 2.587875
323.80 2.58663
323.90 2.585386
324.00 2.58417
324.10 2.582954
324.20 2.58174
324.30 2.580523
324.40 2.579254
324.50 2.577942
324.60 2.576631
324.70 2.575321
324.80 2.574012
324.90 2.572704
325.00 2.571398
325.10 2.570092
325.20 2.568794
325.30 2.567509
325.40 2.566225
325.50 2.564937
325.60 2.563645
325.70 2.562354
325.80 2.561064
325.90 2.559767
326.00 2.558463
326.10 2.557159
326.20 2.555857
326.30 2.554544
326.40 2.553201
326.50 2.551907
326.60 2.550613
326.70 2.549321
326.80 2.54803
326.90 2.54674
327.00 2.545451
327.10 2.544164
327.20 2.542877
327.30 2.541591
327.40 2.540307
327.50 2.539023
327.60 2.537741
327.70 2.53646
327.80 2.53518
327.90 2.533773
328.00 2.532335
328.10 2.53103
328.20 2.529727
328.30 2.528424
328.40 2.527122
328.50 2.525818
328.60 2.524514
328.70 2.523211
328.80 2.521909
328.90 2.520609
329.00 2.51931
329.10 2.518012
329.20 2.516715
329.30 2.51542
329.40 2.514125
329.50 2.512831
329.60 2.511539
329.70 2.510248
329.80 2.508957
329.90 2.507668
330.00 2.506369
330.10 2.505057
330.20 2.503747
330.30 2.502437
330.40 2.501137
330.50 2.499846
330.60 2.498556
330.70 2.497267
330.80 2.49598
330.90 2.494693
331.00 2.493408
331.10 2.492124
331.20 2.49084
331.30 2.489558
331.40 2.488277
331.50 2.486996
331.60 2.485714
331.70 2.484433
331.80 2.483136
331.90 2.48184
332.00 2.480545
332.10 2.479252
332.20 2.477959
332.30 2.476667
332.40 2.475377
332.50 2.474088
332.60 2.472799
332.70 2.471512
332.80 2.470226
332.90 2.468941
333.00 2.467657
333.10 2.46637
333.20 2.465077
333.30 2.463786
333.40 2.462496
333.50 2.461207
333.60 2.459919
333.70 2.458632
333.80 2.457346
333.90 2.456061
334.00 2.454778
334.10 2.453491
334.20 2.452201
334.30 2.450912
334.40 2.449624
334.50 2.448337
334.60 2.447051
334.70 2.445801
334.80 2.444574
334.90 2.443317
335.00 2.442061
335.10 2.440706
335.20 2.439383
335.30 2.438034
335.40 2.436812
335.50 2.435624
335.60 2.434173
335.70 2.433046
335.80 2.43173
335.90 2.430444
336.00 2.429195
336.10 2.427947
336.20 2.426701
336.30 2.425445
336.40 2.424179
336.50 2.422914
336.60 2.42165
336.70 2.420387
336.80 2.419124
336.90 2.417843
337.00 2.416538
337.10 2.415235
337.20 2.413932
337.30 2.412649
337.40 2.411395
337.50 2.410142
337.60 2.408889
337.70 2.407638
337.80 2.406388
337.90 2.405128
338.00 2.403857
338.10 2.402587
338.20 2.401318
338.30 2.400049
338.40 2.398781
338.50 2.39751
338.60 2.396241
338.70 2.394972
338.80 2.393704
338.90 2.392438
339.00 2.391173
339.10 2.389908
339.20 2.388645
339.30 2.387377
339.40 2.386103
339.50 2.384832
339.60 2.383567
339.70 2.382302
339.80 2.381038
339.90 2.379776
340.00 2.378515
340.10 2.377254
340.20 2.375995
340.30 2.374737
340.40 2.37348
340.50 2.372224
340.60 2.370969
340.70 2.369715
340.80 2.368459
340.90 2.367201
341.00 2.365942
341.10 2.364683
341.20 2.363425
341.30 2.362168
341.40 2.360912
341.50 2.359657
341.60 2.358404
341.70 2.357151
341.80 2.355896
341.90 2.354638
342.00 2.353381
342.10 2.352125
342.20 2.350846
342.30 2.349619
342.40 2.348407
342.50 2.347164
342.60 2.345922
342.70 2.34468
342.80 2.34344
342.90 2.342201
343.00 2.340934
343.10 2.339632
343.20 2.338331
343.30 2.337032
343.40 2.33576
343.50 2.334526
343.60 2.333293
343.70 2.332062
343.80 2.330831
343.90 2.329602
344.00 2.328348
344.10 2.327058
344.20 2.325769
344.30 2.324481
344.40 2.323219
344.50 2.321996
344.60 2.320723
344.70 2.319376
344.80 2.318282
344.90 2.316938
345.00 2.315896
345.10 2.314679
345.20 2.313481
345.30 2.31231
345.40 2.31114
345.50 2.309895
345.60 2.30861
345.70 2.307399
345.80 2.306189
345.90 2.30498
346.00 2.303773
346.10 2.302566
346.20 2.30135
346.30 2.30012
346.40 2.298892
346.50 2.297664
346.60 2.296438
346.70 2.295212
346.80 2.293988
346.90 2.292765
347.00 2.291542
347.10 2.290321
347.20 2.289102
347.30 2.287885
347.40 2.286669
347.50 2.285454
347.60 2.28424
347.70 2.283027
347.80 2.281815
347.90 2.280604
348.00 2.279395
348.10 2.278186
348.20 2.276978
348.30 2.275771
348.40 2.274566
348.50 2.273361
348.60 2.272157
348.70 2.271016
348.80 2.269855
348.90 2.268635
349.00 2.267417
349.10 2.266199
349.20 2.264983
349.30 2.263768
349.40 2.262553
349.50 2.26134
349.60 2.260128
349.70 2.258917
349.80 2.257706
349.90 2.256497
350.00 2.255289
350.10 2.254082
350.20 2.252876
350.30 2.251673
350.40 2.250476
350.50 2.24928
350.60 2.248085
350.70 2.24689
350.80 2.245697
350.90 2.244505
351.00 2.243314
351.10 2.242123
351.20 2.240934
351.30 2.239746
351.40 2.23855
351.50 2.237342
351.60 2.236134
351.70 2.234927
351.80 2.233721
351.90 2.232516
352.00 2.231312
352.10 2.230109
352.20 2.22885
352.30 2.22761
352.40 2.226408
352.50 2.225207
352.60 2.224006
352.70 2.222807
352.80 2.221609
352.90 2.220412
353.00 2.219216
353.10 2.218021
353.20 2.216827
353.30 2.215634
353.40 2.214442
353.50 2.213244
353.60 2.212046
353.70 2.210849
353.80 2.209653
353.90 2.208458
354.00 2.207264
354.10 2.20607
354.20 2.204878
354.30 2.203686
354.40 2.202496
354.50 2.201306
354.60 2.200118
354.70 2.19893
354.80 2.197744
354.90 2.19656
355.00 2.195376
355.10 2.194193
355.20 2.193011
355.30 2.191832
355.40 2.190653
355.50 2.189476
355.60 2.188299
355.70 2.187155
355.80 2.186027
355.90 2.184863
356.00 2.183662
356.10 2.182468
356.20 2.181276
356.30 2.180084
356.40 2.178893
356.50 2.177703
356.60 2.176515
356.70 2.175327
356.80 2.17414
356.90 2.172954
357.00 2.171769
357.10 2.170586
357.20 2.169403
357.30 2.168221
357.40 2.167028
357.50 2.165816
357.60 2.164605
357.70 2.163395
357.80 2.162186
357.90 2.160978
358.00 2.159771
358.10 2.158565
358.20 2.15736
358.30 2.156156
358.40 2.154953
358.50 2.153751
358.60 2.152549
358.70 2.151349
358.80 2.15015
358.90 2.148952
359.00 2.147755
359.10 2.146559
359.20 2.145364
359.30 2.14417
359.40 2.142977
359.50 2.141719
359.60 2.140446
359.70 2.139174
359.80 2.137898
359.90 2.136623
360.00 2.135334
360.10 2.13402
360.20 2.132707
360.30 2.131395
360.40 2.130085
360.50 2.128775
360.60 2.127531
360.70 2.12618
360.80 2.12483
360.90 2.123481
361.00 2.122195
361.10 2.120893
361.20 2.119618
361.30 2.118216
361.40 2.117044
361.50 2.116192
361.60 2.115241
361.70 2.114299
361.80 2.113372
361.90 2.11247
362.00 2.11157
362.10 2.110583
362.20 2.109572
362.30 2.108557
362.40 2.107543
362.50 2.106529
362.60 2.105517
362.70 2.104511
362.80 2.103452
362.90 2.102405
363.00 2.10136
363.10 2.100306
363.20 2.099252
363.30 2.098117
363.40 2.096963
363.50 2.096035
363.60 2.094882
363.70 2.093855
363.80 2.092804
363.90 2.091708
364.00 2.090612
364.10 2.089517
364.20 2.088423
364.30 2.087288
364.40 2.086142
364.50 2.084998
364.60 2.083929
364.70 2.082861
364.80 2.081794
364.90 2.080653
365.00 2.079513
365.10 2.078374
365.20 2.077236
365.30 2.076099
365.40 2.074963
365.50 2.073827
365.60 2.072693
365.70 2.071661
365.80 2.070629
365.90 2.069518
366.00 2.068387
366.10 2.067257
366.20 2.066129
366.30 2.065001
366.40 2.063874
366.50 2.062747
366.60 2.061622
366.70 2.060498
366.80 2.059375
366.90 2.058252
367.00 2.057131
367.10 2.05601
367.20 2.05489
367.30 2.053772
367.40 2.052654
367.50 2.051537
367.60 2.050421
367.70 2.049306
367.80 2.048192
367.90 2.047078
368.00 2.045966
368.10 2.044854
368.20 2.043744
368.30 2.042634
368.40 2.041525
368.50 2.040417
368.60 2.039311
368.70 2.038204
368.80 2.037099
368.90 2.035995
369.00 2.034892
369.10 2.033789
369.20 2.032688
369.30 2.031587
369.40 2.030487
369.50 2.029388
369.60 2.02829
369.70 2.027193
369.80 2.026039
369.90 2.024884
370.00 2.023731
370.10 2.022596
370.20 2.021504
370.30 2.020412
370.40 2.019001
370.50 2.017797
370.60 2.016925
370.70 2.016054
370.80 2.014967
370.90 2.01388
371.00 2.012795
371.10 2.01171
371.20 2.010627
371.30 2.009544
371.40 2.008462
371.50 2.007381
371.60 2.0063
371.70 2.005221
371.80 2.004142
371.90 2.003065
372.00 2.001988
372.10 2.000912
372.20 1.999837
372.30 1.998763
372.40 1.99769
372.50 1.996617
372.60 1.995546
372.70 1.994475
372.80 1.993298
372.90 1.992123
373.00 1.991054
373.10 1.989987
373.20 1.98892
373.30 1.987855
373.40 1.98679
373.50 1.985727
373.60 1.984664
373.70 1.983602
373.80 1.98254
373.90 1.98148
374.00 1.980367
374.10 1.979256
374.20 1.978145
374.30 1.977035
374.40 1.975979
374.50 1.974924
374.60 1.973817
374.70 1.97271
374.80 1.971605
374.90 1.9705
375.00 1.969449
375.10 1.968399
375.20 1.96735
375.30 1.966271
375.40 1.965194
375.50 1.964117
375.60 1.963041
375.70 1.961966
375.80 1.960892
375.90 1.959819
376.00 1.958776
376.10 1.95769
376.20 1.956603
376.30 1.955517
376.40 1.954433
376.50 1.953367
376.60 1.95233
376.70 1.951294
376.80 1.950234
376.90 1.94915
377.00 1.948067
377.10 1.946985
377.20 1.945901
377.30 1.944804
377.40 1.943709
377.50 1.942614
377.60 1.94154
377.70 1.940467
377.80 1.939394
377.90 1.938322
378.00 1.937066
378.10 1.935965
378.20 1.934869
378.30 1.933774
378.40 1.93268
378.50 1.931587
378.60 1.930494
378.70 1.929403
378.80 1.928312
378.90 1.927248
379.00 1.926231
379.10 1.925132
379.20 1.924034
379.30 1.922911
379.40 1.921764
379.50 1.920618
379.60 1.919457
379.70 1.918272
379.80 1.917086
379.90 1.915901
380.00 1.914718
380.10 1.913535
380.20 1.912353
380.30 1.911172
380.40 1.909992
380.50 1.908813
380.60 1.907528
380.70 1.906339
380.80 1.905151
380.90 1.903965
381.00 1.902779
381.10 1.90178
381.20 1.900783
381.30 1.899581
381.40 1.898511
381.50 1.897306
381.60 1.896118
381.70 1.894936
381.80 1.893587
381.90 1.891779
382.00 1.890789
382.10 1.890513
382.20 1.889707
382.30 1.888923
382.40 1.888113
382.50 1.887265
382.60 1.886417
382.70 1.885505
382.80 1.884544
382.90 1.883607
383.00 1.882671
383.10 1.881735
383.20 1.880814
383.30 1.879945
383.40 1.879031
383.50 1.878052
383.60 1.877068
383.70 1.876036
383.80 1.875005
383.90 1.873975
384.00 1.872946
384.10 1.871918
384.20 1.87089
384.30 1.869864
384.40 1.868818
384.50 1.867752
384.60 1.866687
384.70 1.865623
384.80 1.86453
384.90 1.863379
385.00 1.862325
385.10 1.861266
385.20 1.860011
385.30 1.858842
385.40 1.857635
385.50 1.856391
385.60 1.855148
385.70 1.853907
385.80 1.852651
385.90 1.85134
386.00 1.849993
386.10 1.848599
386.20 1.847103
386.30 1.845607
386.40 1.844037
386.50 1.842384
386.60 1.840781
386.70 1.838983
386.80 1.837086
386.90 1.835142
387.00 1.832891
387.10 1.830548
387.20 1.828104
387.30 1.825278
387.40 1.822254
387.50 1.818699
387.60 1.814526
387.70 1.808786
387.80 1.803051
387.90 1.797322
388.00 1.790964
388.10 1.781911
388.20 1.768295
388.30 1.751709
388.40 1.735139
388.50 1.715648
388.60 1.690061
388.70 1.660896
388.80 1.637239
388.90 1.629321
389.00 1.643098
389.10 1.667324
389.20 1.691502
389.30 1.712601
389.40 1.730052
389.50 1.745302
389.60 1.75677
389.70 1.764588
389.80 1.769116
389.90 1.773639
390.00 1.778157
390.10 1.782671
390.20 1.787179
390.30 1.790078
390.40 1.791166
390.50 1.792253
390.60 1.793339
390.70 1.794423
390.80 1.795111
390.90 1.795404
391.00 1.795432
391.10 1.795364
391.20 1.795284
391.30 1.794997
391.40 1.794534
391.50 1.794071
391.60 1.793608
391.70 1.793145
391.80 1.792682
391.90 1.792178
392.00 1.791581
392.10 1.790919
392.20 1.790235
392.30 1.789388
392.40 1.788614
392.50 1.787886
392.60 1.787106
392.70 1.786258
392.80 1.785349
392.90 1.784633
393.00 1.783725
393.10 1.782818
393.20 1.781911
393.30 1.781005
393.40 1.7801
393.50 1.779039
393.60 1.778099
393.70 1.777196
393.80 1.776092
393.90 1.775095
394.00 1.774079
394.10 1.772969
394.20 1.771972
394.30 1.770858
394.40 1.769712
394.50 1.768464
394.60 1.767354
394.70 1.766198
394.80 1.764865
394.90 1.763534
395.00 1.762244
395.10 1.760922
395.20 1.75942
395.30 1.757909
395.40 1.7564
395.50 1.754723
395.60 1.752985
395.70 1.751203
395.80 1.749302
395.90 1.747403
396.00 1.745514
396.10 1.7437
396.20 1.741871
396.30 1.740044
396.40 1.738598
396.50 1.737726
396.60 1.737735
396.70 1.737815
396.80 1.737892
396.90 1.737916
397.00 1.737948
397.10 1.737859
397.20 1.737646
397.30 1.737323
397.40 1.736864
397.50 1.736405
397.60 1.735933
397.70 1.735327
397.80 1.734722
397.90 1.734081
398.00 1.733344
398.10 1.732607
398.20 1.731845
398.30 1.731052
398.40 1.730253
398.50 1.729241
398.60 1.728334
398.70 1.727406
398.80 1.726464
398.90 1.7255
399.00 1.724497
399.10 1.723422
399.20 1.722302
399.30 1.721182
399.40 1.720064
399.50 1.718946
399.60 1.717756
399.70 1.716539
399.80 1.715324
399.90 1.71411
400.00 1.71289
400.10 1.711461
400.20 1.710191
400.30 1.708755
400.40 1.707314
400.50 1.705848
400.60 1.704269
400.70 1.702676
400.80 1.701135
400.90 1.69939
401.00 1.697685
401.10 1.696
401.20 1.694179
401.30 1.692306
401.40 1.690284
401.50 1.68821
401.60 1.686137
401.70 1.68402
401.80 1.681824
401.90 1.679553
402.00 1.677253
402.10 1.674986
402.20 1.672632
402.30 1.670322
402.40 1.667999
402.50 1.665592
402.60 1.662242
402.70 1.663571
402.80 1.66458
402.90 1.665442
403.00 1.666266
403.10 1.667052
403.20 1.667737
403.30 1.66846
403.40 1.668912
403.50 1.669348
403.60 1.669794
403.70 1.670141
403.80 1.670252
403.90 1.670254
404.00 1.670243
404.10 1.670301
404.20 1.670112
404.30 1.669924
404.40 1.669562
404.50 1.669183
404.60 1.668995
404.70 1.668443
404.80 1.668174
404.90 1.667703
405.00 1.667165
405.10 1.666679
405.20 1.66618
405.30 1.665682
405.40 1.665102
405.50 1.664522
405.60 1.663943
405.70 1.663364
405.80 1.662785
405.90 1.662207
406.00 1.661534
406.10 1.660861
406.20 1.660189
406.30 1.659517
406.40 1.658841
406.50 1.65807
406.60 1.65739
406.70 1.656687
406.80 1.656013
406.90 1.655307
407.00 1.65453
407.10 1.653753
407.20 1.652977
407.30 1.652201
407.40 1.651426
407.50 1.650652
407.60 1.649878
407.70 1.649104
407.80 1.648331
407.90 1.647558
408.00 1.64675
408.10 1.645943
408.20 1.645137
408.30 1.644331
408.40 1.643526
408.50 1.642722
408.60 1.641918
408.70 1.641114
408.80 1.640312
408.90 1.639493
409.00 1.638623
409.10 1.637754
409.20 1.636885
409.30 1.636017
409.40 1.63515
409.50 1.634289
409.60 1.633428
409.70 1.632564
409.80 1.631686
409.90 1.630811
410.00 1.630015
410.10 1.629073
410.20 1.628194
410.30 1.627331
410.40 1.626458
410.50 1.625549
410.60 1.624641
410.70 1.623729
410.80 1.622795
410.90 1.621863
411.00 1.620889
411.10 1.619901
411.20 1.618914
411.30 1.617937
411.40 1.616997
411.50 1.615963
411.60 1.614929
411.70 1.613893
411.80 1.612846
411.90 1.611765
412.00 1.610719
412.10 1.609631
412.20 1.608806
412.30 1.608026
412.40 1.607246
412.50 1.606467
412.60 1.605688
412.70 1.60491
412.80 1.604133
412.90 1.603362
413.00 1.602754
413.10 1.601978
413.20 1.601203
413.30 1.600428
413.40 1.599654
413.50 1.59888
413.60 1.598107
413.70 1.597335
413.80 1.596563
413.90 1.595791
414.00 1.595
414.10 1.594143
414.20 1.593307
414.30 1.592365
414.40 1.591596
414.50 1.590828
414.60 1.590061
414.70 1.589294
414.80 1.588528
414.90 1.587762
415.00 1.586997
415.10 1.586233
415.20 1.585456
415.30 1.584639
415.40 1.583822
415.50 1.583006
415.60 1.582182
415.70 1.581359
415.80 1.580538
415.90 1.579722
416.00 1.578906
416.10 1.578093
416.20 1.577294
416.30 1.576495
416.40 1.575697
416.50 1.574898
416.60 1.574056
416.70 1.573204
416.80 1.572291
416.90 1.571537
417.00 1.570643
417.10 1.569856
417.20 1.569018
417.30 1.568182
417.40 1.56737
417.50 1.566559
417.60 1.565731
417.70 1.564838
417.80 1.564033
417.90 1.563227
418.00 1.562423
418.10 1.561619
418.20 1.560815
418.30 1.560007
418.40 1.559076
418.50 1.558239
418.60 1.557402
418.70 1.556566
418.80 1.55573
418.90 1.554896
419.00 1.554061
419.10 1.553228
419.20 1.552395
419.30 1.551564
419.40 1.550764
419.50 1.549965
419.60 1.549155
419.70 1.548303
419.80 1.547451
419.90 1.546604
420.00 1.545768
420.10 1.544933
420.20 1.544099
420.30 1.543265
420.40 1.542432
420.50 1.5416
420.60 1.540768
420.70 1.539936
420.80 1.539106
420.90 1.538277
421.00 1.537486
421.10 1.536695
421.20 1.535896
421.30 1.535072
421.40 1.534247
421.50 1.533424
421.60 1.532601
421.70 1.531779
421.80 1.530957
421.90 1.530119
422.00 1.52923
422.10 1.528364
422.20 1.527588
422.30 1.526811
422.40 1.526034
422.50 1.525202
422.60 1.524371
422.70 1.52354
422.80 1.52271
422.90 1.521881
423.00 1.521052
423.10 1.520224
423.20 1.519396
423.30 1.518569
423.40 1.517743
423.50 1.516917
423.60 1.516092
423.70 1.515268
423.80 1.514444
423.90 1.51362
424.00 1.512798
424.10 1.511976
424.20 1.511154
424.30 1.510333
424.40 1.509536
424.50 1.508725
424.60 1.507914
424.70 1.507104
424.80 1.506294
424.90 1.505486
425.00 1.504677
425.10 1.50387
425.20 1.503062
425.30 1.502256
425.40 1.501449
425.50 1.500634
425.60 1.49982
425.70 1.499007
425.80 1.498194
425.90 1.497382
426.00 1.49657
426.10 1.495759
426.20 1.494949
426.30 1.494139
426.40 1.49333
426.50 1.492521
426.60 1.491713
426.70 1.490906
426.80 1.490099
426.90 1.489292
427.00 1.488474
427.10 1.487657
427.20 1.48684
427.30 1.486024
427.40 1.485208
427.50 1.484393
427.60 1.483578
427.70 1.482765
427.80 1.481951
427.90 1.481139
428.00 1.480327
428.10 1.479515
428.20 1.478704
428.30 1.477894
428.40 1.477084
428.50 1.476275
428.60 1.475467
428.70 1.474659
428.80 1.473851
428.90 1.473041
429.00 1.472231
429.10 1.471422
429.20 1.470614
429.30 1.469806
429.40 1.468999
429.50 1.468192
429.60 1.467386
429.70 1.46658
429.80 1.465776
429.90 1.464971
430.00 1.464168
430.10 1.463364
430.20 1.462562
430.30 1.46176
430.40 1.460959
430.50 1.460158
430.60 1.459358
430.70 1.458558
430.80 1.457759
430.90 1.456961
431.00 1.456163
431.10 1.455366
431.20 1.454569
431.30 1.453772
431.40 1.452962
431.50 1.452153
431.60 1.451344
431.70 1.450536
431.80 1.449728
431.90 1.448921
432.00 1.448115
432.10 1.447309
432.20 1.446504
432.30 1.445699
432.40 1.444895
432.50 1.444092
432.60 1.443289
432.70 1.442487
432.80 1.441685
432.90 1.440884
433.00 1.440084
433.10 1.439284
433.20 1.438485
433.30 1.437686
433.40 1.436885
433.50 1.436085
433.60 1.435285
433.70 1.434487
433.80 1.433672
433.90 1.432839
434.00 1.432009
434.10 1.431183
434.20 1.430358
434.30 1.429533
434.40 1.428709
434.50 1.427885
434.60 1.427062
434.70 1.42624
434.80 1.425416
434.90 1.424567
435.00 1.423718
435.10 1.42287
435.20 1.422023
435.30 1.421176
435.40 1.42033
435.50 1.419484
435.60 1.41864
435.70 1.417795
435.80 1.416952
435.90 1.416109
436.00 1.415266
436.10 1.414424
436.20 1.413583
436.30 1.412727
436.40 1.41185
436.50 1.410934
436.60 1.410019
436.70 1.409105
436.80 1.408191
436.90 1.407278
437.00 1.406365
437.10 1.405453
437.20 1.404549
437.30 1.403653
437.40 1.402751
437.50 1.401773
437.60 1.400795
437.70 1.399819
437.80 1.398842
437.90 1.397867
438.00 1.396891
438.10 1.395898
438.20 1.394906
438.30 1.393982
438.40 1.392947
438.50 1.391924
438.60 1.390902
438.70 1.389727
438.80 1.388643
438.90 1.388101
439.00 1.387469
439.10 1.386837
439.20 1.386206
439.30 1.385575
439.40 1.384944
439.50 1.384314
439.60 1.383684
439.70 1.383055
439.80 1.38241
439.90 1.381746
440.00 1.381083
440.10 1.380421
440.20 1.379751
440.30 1.378986
440.40 1.378222
440.50 1.377458
440.60 1.376695
440.70 1.375932
440.80 1.37517
440.90 1.374408
441.00 1.373647
441.10 1.372887
441.20 1.372123
441.30 1.371313
441.40 1.37047
441.50 1.369589
441.60 1.368708
441.70 1.367811
441.80 1.366865
441.90 1.365921
442.00 1.364977
442.10 1.364034
442.20 1.363092
442.30 1.36215
442.40 1.361153
442.50 1.360089
442.60 1.359026
442.70 1.357961
442.80 1.35689
442.90 1.355808
443.00 1.354691
443.10 1.35353
443.20 1.352312
443.30 1.351043
443.40 1.349765
443.50 1.348475
443.60 1.347152
443.70 1.345637
443.80 1.344275
443.90 1.342763
444.00 1.341267
444.10 1.339606
444.20 1.337969
444.30 1.336226
444.40 1.334416
444.50 1.332607
444.60 1.330676
444.70 1.328596
444.80 1.326306
444.90 1.323825
445.00 1.321345
445.10 1.318868
445.20 1.316009
445.30 1.312683
445.40 1.309359
445.50 1.306039
445.60 1.302721
445.70 1.299406
445.80 1.295408
445.90 1.290779
446.00 1.286154
446.10 1.281533
446.20 1.276641
446.30 1.271072
446.40 1.26513
446.50 1.258999
446.60 1.252874
446.70 1.246754
446.80 1.240581
446.90 1.234359
447.00 1.228674
447.10 1.222553
447.20 1.22147
447.30 1.226193
447.40 1.231162
447.50 1.236411
447.60 1.241845
447.70 1.247448
447.80 1.252869
447.90 1.258002
448.00 1.26237
448.10 1.266033
448.20 1.269693
448.30 1.27335
448.40 1.277003
448.50 1.280653
448.60 1.283614
448.70 1.28594
448.80 1.288202
448.90 1.289644
449.00 1.291084
449.10 1.292522
449.20 1.293959
449.30 1.29508
449.40 1.295871
449.50 1.296661
449.60 1.297168
449.70 1.297414
449.80 1.297659
449.90 1.297904
450.00 1.298149
450.10 1.298393
450.20 1.298637
450.30 1.29888
450.40 1.298695
450.50 1.29851
450.60 1.298325
450.70 1.29814
450.80 1.297955
450.90 1.29777
451.00 1.29743
451.10 1.297091
451.20 1.296701
451.30 1.296201
451.40 1.2957
451.50 1.295199
451.60 1.294699
451.70 1.294198
451.80 1.293626
451.90 1.293199
452.00 1.2927
452.10 1.292201
452.20 1.291738
452.30 1.291276
452.40 1.290815
452.50 1.290353
452.60 1.289882
452.70 1.289392
452.80 1.288887
452.90 1.288382
453.00 1.287878
453.10 1.287373
453.20 1.28685
453.30 1.286326
453.40 1.285803
453.50 1.28528
453.60 1.284758
453.70 1.284236
453.80 1.283713
453.90 1.283189
454.00 1.282666
454.10 1.282143
454.20 1.281552
454.30 1.280962
454.40 1.280372
454.50 1.279782
454.60 1.279193
454.70 1.278596
454.80 1.277993
454.90 1.27739
455.00 1.276788
455.10 1.276185
455.20 1.275584
455.30 1.274983
455.40 1.274382
455.50 1.273781
455.60 1.273181
455.70 1.272582
455.80 1.271947
455.90 1.271312
456.00 1.270677
456.10 1.270043
456.20 1.269406
456.30 1.26877
456.40 1.268134
456.50 1.267499
456.60 1.266864
456.70 1.26623
456.80 1.265596
456.90 1.264962
457.00 1.264329
457.10 1.263696
457.20 1.263105
457.30 1.262453
457.40 1.261802
457.50 1.261151
457.60 1.2605
457.70 1.25985
457.80 1.2592
457.90 1.258551
458.00 1.257902
458.10 1.257253
458.20 1.256605
458.30 1.255958
458.40 1.255311
458.50 1.254664
458.60 1.254018
458.70 1.253372
458.80 1.252727
458.90 1.252082
459.00 1.251437
459.10 1.250793
459.20 1.25015
459.30 1.249497
459.40 1.248845
459.50 1.248193
459.60 1.247542
459.70 1.246891
459.80 1.24624
459.90 1.24559
460.00 1.244941
460.10 1.244292
460.20 1.243643
460.30 1.242995
460.40 1.242347
460.50 1.2417
460.60 1.241053
460.70 1.240403
460.80 1.239751
460.90 1.2391
461.00 1.23845
461.10 1.2378
461.20 1.237126
461.30 1.236443
461.40 1.23579
461.50 1.235144
461.60 1.234499
461.70 1.233854
461.80 1.233202
461.90 1.232551
462.00 1.2319
462.10 1.23125
462.20 1.2306
462.30 1.229951
462.40 1.229302
462.50 1.228654
462.60 1.228006
462.70 1.227358
462.80 1.226711
462.90 1.226064
463.00 1.225418
463.10 1.224772
463.20 1.22411
463.30 1.223441
463.40 1.222772
463.50 1.222104
463.60 1.221437
463.70 1.22077
463.80 1.220103
463.90 1.219453
464.00 1.218808
464.10 1.218163
464.20 1.217519
464.30 1.216875
464.40 1.216232
464.50 1.215589
464.60 1.214946
464.70 1.214292
464.80 1.213635
464.90 1.212977
465.00 1.21232
465.10 1.211664
465.20 1.211008
465.30 1.210348
465.40 1.209686
465.50 1.209024
465.60 1.208362
465.70 1.207701
465.80 1.207041
465.90 1.206387
466.00 1.205735
466.10 1.205084
466.20 1.204433
466.30 1.203771
466.40 1.203104
466.50 1.202438
466.60 1.201772
466.70 1.201107
466.80 1.200442
466.90 1.199777
467.00 1.199113
467.10 1.19845
467.20 1.197787
467.30 1.197231
467.40 1.19659
467.50 1.195917
467.60 1.195245
467.70 1.194574
467.80 1.193903
467.90 1.193201
468.00 1.192487
468.10 1.191774
468.20 1.191061
468.30 1.190397
468.40 1.189753
468.50 1.18907
468.60 1.188393
468.70 1.187649
468.80 1.186972
468.90 1.186154
469.00 1.185489
469.10 1.184756
469.20 1.18398
469.30 1.183205
469.40 1.182431
469.50 1.1816
469.60 1.180747
469.70 1.179894
469.80 1.179042
469.90 1.178181
470.00 1.177187
470.10 1.176134
470.20 1.175057
470.30 1.173982
470.40 1.172907
470.50 1.171833
470.60 1.170575
470.70 1.169271
470.80 1.167968
470.90 1.166667
471.00 1.165222
471.10 1.163918
471.20 1.162606
471.30 1.16151
471.40 1.160816
471.50 1.160324
471.60 1.160099
471.70 1.159942
471.80 1.159919
471.90 1.159929
472.00 1.159938
472.10 1.159948
472.20 1.159872
472.30 1.159774
472.40 1.159677
472.50 1.159579
472.60 1.159481
472.70 1.159312
472.80 1.158966
472.90 1.158582
473.00 1.158199
473.10 1.157816
473.20 1.157433
473.30 1.15705
473.40 1.156668
473.50 1.156286
473.60 1.155904
473.70 1.155522
473.80 1.155055
473.90 1.154568
474.00 1.154081
474.10 1.153594
474.20 1.153067
474.30 1.152523
474.40 1.15198
474.50 1.151437
474.60 1.150894
474.70 1.150336
474.80 1.149779
474.90 1.149223
475.00 1.148666
475.10 1.14811
475.20 1.147555
475.30 1.147
475.40 1.146425
475.50 1.145845
475.60 1.145265
475.70 1.144686
475.80 1.144108
475.90 1.143529
476.00 1.142951
476.10 1.142374
476.20 1.141785
476.30 1.141192
476.40 1.140599
476.50 1.140006
476.60 1.139414
476.70 1.138822
476.80 1.138231
476.90 1.137632
477.00 1.137032
477.10 1.136433
477.20 1.135834
477.30 1.135235
477.40 1.134637
477.50 1.134039
477.60 1.133441
477.70 1.132844
477.80 1.132247
477.90 1.131651
478.00 1.131055
478.10 1.130459
478.20 1.129864
478.30 1.12927
478.40 1.128675
478.50 1.128081
478.60 1.127488
478.70 1.126885
478.80 1.126278
478.90 1.12568
479.00 1.125085
479.10 1.12449
479.20 1.123895
479.30 1.123301
479.40 1.122707
479.50 1.122114
479.60 1.121521
479.70 1.120929
479.80 1.120337
479.90 1.119745
480.00 1.119154
480.10 1.118563
480.20 1.117973
480.30 1.117383
480.40 1.116793
480.50 1.116204
480.60 1.115615
480.70 1.115027
480.80 1.114439
480.90 1.113851
481.00 1.113264
481.10 1.112677
481.20 1.112074
481.30 1.111471
481.40 1.110868
481.50 1.110265
481.60 1.109663
481.70 1.109062
481.80 1.108461
481.90 1.10786
482.00 1.10726
482.10 1.10666
482.20 1.10606
482.30 1.105465
482.40 1.10487
482.50 1.104276
482.60 1.103682
482.70 1.103089
482.80 1.102496
482.90 1.101903
483.00 1.101311
483.10 1.100719
483.20 1.100127
483.30 1.099536
483.40 1.098945
483.50 1.098355
483.60 1.097765
483.70 1.097167
483.80 1.096569
483.90 1.095972
484.00 1.095376
484.10 1.094779
484.20 1.094189
484.30 1.093602
484.40 1.093015
484.50 1.092429
484.60 1.091843
484.70 1.091255
484.80 1.090637
484.90 1.09002
485.00 1.089403
485.10 1.088787
485.20 1.08817
485.30 1.087555
485.40 1.086939
485.50 1.086325
485.60 1.08571
485.70 1.085101
485.80 1.084493
485.90 1.083885
486.00 1.083278
486.10 1.082671
486.20 1.082064
486.30 1.081458
486.40 1.080852
486.50 1.080246
486.60 1.079641
486.70 1.079035
486.80 1.078406
486.90 1.077778
487.00 1.077151
487.10 1.076523
487.20 1.075863
487.30 1.075204
487.40 1.074545
487.50 1.073886
487.60 1.073228
487.70 1.07257
487.80 1.071913
487.90 1.071256
488.00 1.0706
488.10 1.069944
488.20 1.069285
488.30 1.068576
488.40 1.067867
488.50 1.067159
488.60 1.066452
488.70 1.065745
488.80 1.065034
488.90 1.064324
489.00 1.06359
489.10 1.062796
489.20 1.062003
489.30 1.06121
489.40 1.060417
489.50 1.059626
489.60 1.058835
489.70 1.058044
489.80 1.057205
489.90 1.056284
490.00 1.055364
490.10 1.054444
490.20 1.053525
490.30 1.052607
490.40 1.051558
490.50 1.050511
490.60 1.049464
490.70 1.048418
490.80 1.047324
490.90 1.046204
491.00 1.044975
491.10 1.043747
491.20 1.042397
491.30 1.041047
491.40 1.039679
491.50 1.038104
491.60 1.036575
491.70 1.035003
491.80 1.033425
491.90 1.03174
492.00 1.030025
492.10 1.028396
492.20 1.026875
492.30 1.026912
492.40 1.027237
492.50 1.027508
492.60 1.027763
492.70 1.028174
492.80 1.028584
492.90 1.028994
493.00 1.029397
493.10 1.029704
493.20 1.030011
493.30 1.030318
493.40 1.030624
493.50 1.03093
493.60 1.031036
493.70 1.03112
493.80 1.031204
493.90 1.031253
494.00 1.031248
494.10 1.031193
494.20 1.031031
494.30 1.030869
494.40 1.030708
494.50 1.030546
494.60 1.030381
494.70 1.030166
494.80 1.029928
494.90 1.029623
495.00 1.029319
495.10 1.029015
495.20 1.028612
495.30 1.02821
495.40 1.027807
495.50 1.027405
495.60 1.027003
495.70 1.026601
495.80 1.026199
495.90 1.025798
496.00 1.025397
496.10 1.024992
496.20 1.024575
496.30 1.024103
496.40 1.023631
496.50 1.023159
496.60 1.022688
496.70 1.022186
496.80 1.021685
496.90 1.021185
497.00 1.020684
497.10 1.020184
497.20 1.019685
497.30 1.019177
497.40 1.018644
497.50 1.018112
497.60 1.017558
497.70 1.016957
497.80 1.016363
497.90 1.015769
498.00 1.015176
498.10 1.014583
498.20 1.013991
498.30 1.013399
498.40 1.012807
498.50 1.012216
498.60 1.011625
498.70 1.01098
498.80 1.010335
498.90 1.009637
499.00 1.00894
499.10 1.008243
499.20 1.007533
499.30 1.00676
499.40 1.005901
499.50 1.005043
499.60 1.004185
499.70 1.00331
499.80 1.002206
499.90 1.001103
500.00 1
500.10 0.9988982
500.20 0.9975647
500.30 0.9957382
500.40 0.9939131
500.50 0.9920894
500.60 0.9902671
500.70 0.9884461
500.80 0.9862585
500.90 0.9832907
501.00 0.9803252
501.10 0.9773619
501.20 0.9740272
501.30 0.9707353
501.40 0.9676166
501.50 0.9656322
501.60 0.9654247
501.70 0.9673352
501.80 0.9698638
501.90 0.9726693
502.00 0.9752918
502.10 0.9775284
502.20 0.9797022
502.30 0.9810658
502.40 0.982163
502.50 0.982696
502.60 0.9832284
502.70 0.9837604
502.80 0.9842919
502.90 0.9848228
503.00 0.985151
503.10 0.9850492
503.20 0.9849474
503.30 0.9848456
503.40 0.9846834
503.50 0.984349
503.60 0.9840148
503.70 0.9836809
503.80 0.9833325
503.90 0.9828771
504.00 0.9824058
504.10 0.9819006
504.20 0.9813958
504.30 0.9808912
504.40 0.9803866
504.50 0.9798809
504.60 0.979406
504.70 0.9788835
504.80 0.9783964
504.90 0.9780089
505.00 0.9776216
505.10 0.9772345
505.20 0.9768631
505.30 0.9765357
505.40 0.9762085
505.50 0.9758814
505.60 0.9755356
505.70 0.9751499
505.80 0.9747643
505.90 0.974379
506.00 0.9739939
506.10 0.973609
506.20 0.9732109
506.30 0.9727745
506.40 0.9723384
506.50 0.9719026
506.60 0.971467
506.70 0.9710317
506.80 0.9705966
506.90 0.9701619
507.00 0.9697273
507.10 0.9692747
507.20 0.9687892
507.30 0.9683205
507.40 0.9678521
507.50 0.967384
507.60 0.9669162
507.70 0.9664487
507.80 0.9659814
507.90 0.9655145
508.00 0.9650479
508.10 0.9645815
508.20 0.9641155
508.30 0.9636497
508.40 0.9631843
508.50 0.9627191
508.60 0.9622542
508.70 0.9617896
508.80 0.9612902
508.90 0.9607847
509.00 0.9603122
509.10 0.9598338
509.20 0.9593426
509.30 0.9588516
509.40 0.958361
509.50 0.9578707
509.60 0.9573807
509.70 0.956891
509.80 0.9564016
509.90 0.9559126
510.00 0.9554238
510.10 0.9549354
510.20 0.9544472
510.30 0.9539591
510.40 0.9534705
510.50 0.9529822
510.60 0.9524942
510.70 0.9520065
510.80 0.9515191
510.90 0.9510321
511.00 0.9505453
511.10 0.9500588
511.20 0.9495727
511.30 0.9490869
511.40 0.9486013
511.50 0.9481161
511.60 0.9476317
511.70 0.9471485
511.80 0.9466657
511.90 0.9461832
512.00 0.945701
512.10 0.9452191
512.20 0.9447375
512.30 0.9442603
512.40 0.943795
512.50 0.9433299
512.60 0.9428651
512.70 0.9424006
512.80 0.9419365
512.90 0.9414726
513.00 0.9410089
513.10 0.9405456
513.20 0.9400826
513.30 0.9396199
513.40 0.9391574
513.50 0.9386952
513.60 0.9382334
513.70 0.9377718
513.80 0.9373105
513.90 0.9368495
514.00 0.9363659
514.10 0.9358789
514.20 0.9353922
514.30 0.9349058
514.40 0.9344197
514.50 0.933934
514.60 0.9334485
514.70 0.9329634
514.80 0.9324785
514.90 0.931994
515.00 0.9315097
515.10 0.9310258
515.20 0.9305422
515.30 0.9300589
515.40 0.9295759
515.50 0.9290932
515.60 0.9286107
515.70 0.9281286
515.80 0.9276469
515.90 0.9271654
516.00 0.9266842
516.10 0.9262033
516.20 0.9257227
516.30 0.9252424
516.40 0.9247625
516.50 0.9242828
516.60 0.9238033
516.70 0.9233242
516.80 0.9228454
516.90 0.9223669
517.00 0.9218887
517.10 0.9214108
517.20 0.9209332
517.30 0.9204558
517.40 0.9199788
517.50 0.9195021
517.60 0.9190257
517.70 0.9185496
517.80 0.9180738
517.90 0.9175983
518.00 0.9171231
518.10 0.9166481
518.20 0.9161735
518.30 0.9156992
518.40 0.9152252
518.50 0.9147515
518.60 0.914278
518.70 0.9138049
518.80 0.9133321
518.90 0.9128595
519.00 0.9123873
519.10 0.9119149
519.20 0.9114424
519.30 0.9109701
519.40 0.9104982
519.50 0.9100265
519.60 0.9095551
519.70 0.9090841
519.80 0.9086133
519.90 0.9081428
520.00 0.9076726
520.10 0.9072027
520.20 0.9067331
520.30 0.9062638
520.40 0.9057948
520.50 0.9053261
520.60 0.9048577
520.70 0.9043896
520.80 0.9039217
520.90 0.9034542
521.00 0.9029869
521.10 0.90252
521.20 0.9020533
521.30 0.9015869
521.40 0.9011209
521.50 0.9006551
521.60 0.9001896
521.70 0.8997244
521.80 0.8992594
521.90 0.8987948
522.00 0.8983305
522.10 0.8978664
522.20 0.8974027
522.30 0.8969392
522.40 0.896476
522.50 0.8960131
522.60 0.8955505
522.70 0.8950882
522.80 0.8946262
522.90 0.8941644
523.00 0.893703
523.10 0.8932418
523.20 0.8927809
523.30 0.8923203
523.40 0.89186
523.50 0.8914
523.60 0.8909403
523.70 0.8904808
523.80 0.8900217
523.90 0.8895628
524.00 0.8891042
524.10 0.8886459
524.20 0.8881879
524.30 0.8877296
524.40 0.8872713
524.50 0.8868132
524.60 0.8863554
524.70 0.8858979
524.80 0.8854407
524.90 0.8849838
525.00 0.8845271
525.10 0.8840708
525.20 0.8836147
525.30 0.8831589
525.40 0.8827033
525.50 0.8822481
525.60 0.8817932
525.70 0.8813385
525.80 0.8808841
525.90 0.88043
526.00 0.8799762
526.10 0.8795226
526.20 0.8790694
526.30 0.8786164
526.40 0.8781637
526.50 0.8777113
526.60 0.8772591
526.70 0.8768073
526.80 0.8763557
526.90 0.8759044
527.00 0.8754534
527.10 0.8750026
527.20 0.8745522
527.30 0.874102
527.40 0.8736521
527.50 0.8732024
527.60 0.8727531
527.70 0.872304
527.80 0.8718552
527.90 0.8714067
528.00 0.8709585
528.10 0.8705105
528.20 0.8700628
528.30 0.8696154
528.40 0.8691683
528.50 0.8687214
528.60 0.8682749
528.70 0.8678285
528.80 0.8673825
528.90 0.8669368
529.00 0.8664913
529.10 0.8660461
529.20 0.8656012
529.30 0.8651565
529.40 0.8647121
529.50 0.8642676
529.60 0.863821
529.70 0.8633746
529.80 0.8629285
529.90 0.8624827
530.00 0.8620371
530.10 0.8615919
530.20 0.8611469
530.30 0.8607022
530.40 0.8602577
530.50 0.8598135
530.60 0.8593696
530.70 0.858926
530.80 0.8584827
530.90 0.8580396
531.00 0.8575968
531.10 0.8571543
531.20 0.856712
531.30 0.85627
531.40 0.8558283
531.50 0.8553868
531.60 0.8549457
531.70 0.8545048
531.80 0.8540641
531.90 0.8536238
532.00 0.8531837
532.10 0.8527439
532.20 0.8523069
532.30 0.8518716
532.40 0.8514365
532.50 0.8510017
532.60 0.8505671
532.70 0.8501328
532.80 0.8496988
532.90 0.849265
533.00 0.8488316
533.10 0.8483983
533.20 0.8479654
533.30 0.8475327
533.40 0.8471002
533.50 0.8466681
533.60 0.8462362
533.70 0.8458046
533.80 0.8453732
533.90 0.8449421
534.00 0.8445112
534.10 0.8440806
534.20 0.8436503
534.30 0.8432203
534.40 0.8427905
534.50 0.842361
534.60 0.8419317
534.70 0.8415027
534.80 0.8410727
534.90 0.8406376
535.00 0.8402027
535.10 0.8397681
535.20 0.8393338
535.30 0.8388998
535.40 0.838466
535.50 0.8380325
535.60 0.8375992
535.70 0.8371662
535.80 0.8367335
535.90 0.8363011
536.00 0.8358689
536.10 0.8354369
536.20 0.8350053
536.30 0.8345739
536.40 0.8341427
536.50 0.8337119
536.60 0.8332812
536.70 0.8328509
536.80 0.8324208
536.90 0.831991
537.00 0.8315614
537.10 0.8311321
537.20 0.8307031
537.30 0.8302743
537.40 0.8298458
537.50 0.8294176
537.60 0.8289896
537.70 0.8285618
537.80 0.8281344
537.90 0.8277072
538.00 0.8272802
538.10 0.8268535
538.20 0.8264271
538.30 0.8260009
538.40 0.825575
538.50 0.8251494
538.60 0.824724
538.70 0.8242989
538.80 0.823874
538.90 0.8234494
539.00 0.823025
539.10 0.8226009
539.20 0.8221771
539.30 0.8217535
539.40 0.8213302
539.50 0.8209071
539.60 0.8204843
539.70 0.8200618
539.80 0.8196395
539.90 0.8192174
540.00 0.8187956
540.10 0.8183741
540.20 0.817955
540.30 0.8175371
540.40 0.8171193
540.50 0.8167019
540.60 0.8162847
540.70 0.8158677
540.80 0.815451
540.90 0.8150346
541.00 0.8146184
541.10 0.8142024
541.20 0.8137867
541.30 0.8133713
541.40 0.8129561
541.50 0.8125412
541.60 0.8121265
541.70 0.811712
541.80 0.8112979
541.90 0.8108839
542.00 0.8104702
542.10 0.8100568
542.20 0.8096436
542.30 0.8092307
542.40 0.808818
542.50 0.8084056
542.60 0.8079934
542.70 0.8075814
542.80 0.8071697
542.90 0.8067583
543.00 0.8063471
543.10 0.8059362
543.20 0.8055255
543.30 0.805115
543.40 0.8047048
543.50 0.8042949
543.60 0.8038852
543.70 0.8034757
543.80 0.8030665
543.90 0.8026575
544.00 0.8022488
544.10 0.8018403
544.20 0.8014321
544.30 0.8010241
544.40 0.8006164
544.50 0.8002089
544.60 0.7998016
544.70 0.7993946
544.80 0.7989879
544.90 0.7985814
545.00 0.7981751
545.10 0.7977691
545.20 0.7973633
545.30 0.7969578
545.40 0.7965525
545.50 0.7961474
545.60 0.7957421
545.70 0.7953369
545.80 0.7949319
545.90 0.7945271
546.00 0.7941226
546.10 0.7937183
546.20 0.7933142
546.30 0.7929104
546.40 0.7925069
546.50 0.7921036
546.60 0.7917005
546.70 0.7912977
546.80 0.7908951
546.90 0.7904928
547.00 0.7900907
547.10 0.7896888
547.20 0.7892872
547.30 0.7888858
547.40 0.7884847
547.50 0.7880838
547.60 0.7876831
547.70 0.7872827
547.80 0.7868825
547.90 0.7864826
548.00 0.7860829
548.10 0.7856834
548.20 0.7852842
548.30 0.7848852
548.40 0.7844864
548.50 0.7840878
548.60 0.7836895
548.70 0.7832915
548.80 0.7828936
548.90 0.782496
549.00 0.7820987
549.10 0.7817016
549.20 0.7813047
549.30 0.780908
549.40 0.7805116
549.50 0.7801155
549.60 0.7797195
549.70 0.7793238
549.80 0.7789284
549.90 0.7785331
550.00 0.7781382
550.10 0.7777434
550.20 0.7773489
550.30 0.7769546
550.40 0.7765606
550.50 0.7761667
550.60 0.7757732
550.70 0.7753798
550.80 0.7749867
550.90 0.7745938
551.00 0.7742014
551.10 0.7738101
551.20 0.7734191
551.30 0.7730283
551.40 0.7726377
551.50 0.7722473
551.60 0.7718572
551.70 0.7714673
551.80 0.7710777
551.90 0.7706883
552.00 0.7702991
552.10 0.7699102
552.20 0.7695214
552.30 0.7691329
552.40 0.7687447
552.50 0.7683567
552.60 0.7679689
552.70 0.7675813
552.80 0.767194
552.90 0.7668069
553.00 0.76642
553.10 0.7660333
553.20 0.7656469
553.30 0.7652607
553.40 0.7648748
553.50 0.764489
553.60 0.7641035
553.70 0.7637183
553.80 0.7633332
553.90 0.7629484
554.00 0.7625638
554.10 0.7621794
554.20 0.7617953
554.30 0.7614114
554.40 0.7610277
554.50 0.7606443
554.60 0.7602611
554.70 0.7598781
554.80 0.7594953
554.90 0.7591127
555.00 0.7587304
555.10 0.7583483
555.20 0.7579665
555.30 0.7575848
555.40 0.7572034
555.50 0.7568222
555.60 0.7564413
555.70 0.7560605
555.80 0.75568
555.90 0.7552997
556.00 0.7549197
556.10 0.7545398
556.20 0.7541602
556.30 0.7537808
556.40 0.7534017
556.50 0.7530225
556.60 0.7526397
556.70 0.7522571
556.80 0.7518747
556.90 0.7514926
557.00 0.7511106
557.10 0.7507289
557.20 0.7503475
557.30 0.7499662
557.40 0.7495852
557.50 0.7492044
557.60 0.7488238
557.70 0.7484435
557.80 0.7480633
557.90 0.7476834
558.00 0.7473038
558.10 0.7469243
558.20 0.7465451
558.30 0.7461661
558.40 0.7457873
558.50 0.7454087
558.60 0.7450304
558.70 0.7446523
558.80 0.7442744
558.90 0.7438967
559.00 0.7435193
559.10 0.7431421
559.20 0.7427651
559.30 0.7423883
559.40 0.7420117
559.50 0.7416354
559.60 0.7412593
559.70 0.7408834
559.80 0.7405077
559.90 0.7401323
560.00 0.7397571
560.10 0.7393821
560.20 0.7390073
560.30 0.7386327
560.40 0.7382584
560.50 0.7378843
560.60 0.7375104
560.70 0.7371367
560.80 0.7367632
560.90 0.73639
561.00 0.7360169
561.10 0.7356441
561.20 0.7352715
561.30 0.7348992
561.40 0.734527
561.50 0.7341551
561.60 0.7337834
561.70 0.7334119
561.80 0.7330406
561.90 0.7326695
562.00 0.7322987
562.10 0.7319279
562.20 0.7315569
562.30 0.7311861
562.40 0.7308156
562.50 0.7304453
562.60 0.7300752
562.70 0.7297053
562.80 0.7293356
562.90 0.7289662
563.00 0.728597
563.10 0.728228
563.20 0.7278592
563.30 0.7274906
563.40 0.7271222
563.50 0.7267541
563.60 0.7263861
563.70 0.7260184
563.80 0.7256509
563.90 0.7252836
564.00 0.7249165
564.10 0.7245497
564.20 0.724183
564.30 0.7238166
564.40 0.7234504
564.50 0.7230844
564.60 0.7227186
564.70 0.722353
564.80 0.7219876
564.90 0.7216215
565.00 0.7212532
565.10 0.7208851
565.20 0.7205173
565.30 0.7201496
565.40 0.7197822
565.50 0.719415
565.60 0.719048
565.70 0.7186812
565.80 0.7183146
565.90 0.7179482
566.00 0.7175821
566.10 0.7172162
566.20 0.7168504
566.30 0.7164849
566.40 0.7161197
566.50 0.7157546
566.60 0.7153897
566.70 0.7150251
566.80 0.7146606
566.90 0.7142964
567.00 0.7139324
567.10 0.7135686
567.20 0.713205
567.30 0.7128416
567.40 0.7124784
567.50 0.7121155
567.60 0.7117527
567.70 0.7113895
567.80 0.7110234
567.90 0.7106575
568.00 0.7102919
568.10 0.7099265
568.20 0.7095612
568.30 0.7091962
568.40 0.7088314
568.50 0.7084668
568.60 0.7081025
568.70 0.7077383
568.80 0.7073743
568.90 0.7070106
569.00 0.7066471
569.10 0.7062838
569.20 0.7059207
569.30 0.7055578
569.40 0.7051951
569.50 0.7048326
569.60 0.7044704
569.70 0.7041083
569.80 0.7037465
569.90 0.7033849
570.00 0.7030234
570.10 0.7026622
570.20 0.7023013
570.30 0.7019405
570.40 0.7015799
570.50 0.7012195
570.60 0.7008594
570.70 0.7004994
570.80 0.7001397
570.90 0.6997802
571.00 0.6994208
571.10 0.6990617
571.20 0.6987028
571.30 0.6983441
571.40 0.6979857
571.50 0.6976274
571.60 0.6972693
571.70 0.6969115
571.80 0.6965538
571.90 0.6961964
572.00 0.6958391
572.10 0.6954821
572.20 0.6951253
572.30 0.6947686
572.40 0.6944122
572.50 0.694056
572.60 0.6937
572.70 0.6933442
572.80 0.6929887
572.90 0.6926333
573.00 0.6922781
573.10 0.6919231
573.20 0.6915684
573.30 0.6912138
573.40 0.6908519
573.50 0.6904796
573.60 0.6901075
573.70 0.6897357
573.80 0.689364
573.90 0.6889926
574.00 0.6886214
574.10 0.6882504
574.20 0.6878797
574.30 0.6875091
574.40 0.6871388
574.50 0.6867687
574.60 0.6863988
574.70 0.6860291
574.80 0.6856596
574.90 0.6852904
575.00 0.6849214
575.10 0.6845525
575.20 0.6841839
575.30 0.6838155
575.40 0.6834474
575.50 0.6830794
575.60 0.6827117
575.70 0.6823441
575.80 0.6819768
575.90 0.6816097
576.00 0.6812428
576.10 0.6808761
576.20 0.6805097
576.30 0.6801434
576.40 0.6797774
576.50 0.6794116
576.60 0.679046
576.70 0.6786806
576.80 0.6783154
576.90 0.6779504
577.00 0.6775856
577.10 0.6772211
577.20 0.6768568
577.30 0.6764926
577.40 0.6761287
577.50 0.675765
577.60 0.6753908
577.70 0.6749995
577.80 0.6746083
577.90 0.6742174
578.00 0.6738267
578.10 0.6734363
578.20 0.6730461
578.30 0.6726561
578.40 0.6722663
578.50 0.6718768
578.60 0.6714875
578.70 0.6710984
578.80 0.6707096
578.90 0.6703209
579.00 0.6699326
579.10 0.6695412
579.20 0.6691181
579.30 0.6686952
579.40 0.6682725
579.50 0.6678501
579.60 0.6674279
579.70 0.667006
579.80 0.6665844
579.90 0.666163
580.00 0.6657418
580.10 0.6652962
580.20 0.6648103
580.30 0.6643247
580.40 0.6638395
580.50 0.6633545
580.60 0.6628698
580.70 0.6623854
580.80 0.6619013
580.90 0.6614175
581.00 0.660934
581.10 0.6604508
581.20 0.6599679
581.30 0.6594853
581.40 0.6590029
581.50 0.6585209
581.60 0.6580392
581.70 0.6575577
581.80 0.6570766
581.90 0.6565957
582.00 0.6561151
582.10 0.6555625
582.20 0.6548921
582.30 0.6542222
582.40 0.6535527
582.50 0.6528837
582.60 0.652215
582.70 0.6515468
582.80 0.650879
582.90 0.6502116
583.00 0.6495447
583.10 0.6488781
583.20 0.648212
583.30 0.6475463
583.40 0.646881
583.50 0.6462161
583.60 0.6453903
583.70 0.6443017
583.80 0.6432139
583.90 0.6421267
584.00 0.6410403
584.10 0.6399545
584.20 0.6388695
584.30 0.6377852
584.40 0.6367016
584.50 0.6356186
584.60 0.6345364
584.70 0.6334549
584.80 0.6323741
584.90 0.6312033
585.00 0.6296201
585.10 0.6280379
585.20 0.6261235
585.30 0.6236668
585.40 0.6212117
585.50 0.6187583
585.60 0.6163065
585.70 0.6138563
585.80 0.6114078
585.90 0.6089609
586.00 0.6065157
586.10 0.6040721
586.20 0.6008716
586.30 0.596436
586.40 0.5920035
586.50 0.5875739
586.60 0.5831473
586.70 0.5787237
586.80 0.5735911
586.90 0.5673005
587.00 0.5610141
587.10 0.554732
587.20 0.5483885
587.30 0.5419422
587.40 0.5360743
587.50 0.5303958
587.60 0.5264483
587.70 0.5328025
587.80 0.5383883
587.90 0.5441935
588.00 0.5500028
588.10 0.5558215
588.20 0.5616362
588.30 0.567447
588.40 0.5725265
588.50 0.5764163
588.60 0.5803034
588.70 0.5841879
588.80 0.5880697
588.90 0.5919488
589.00 0.5950456
589.10 0.5968688
589.20 0.5986907
589.30 0.6005113
589.40 0.6023306
589.50 0.6041487
589.60 0.6059655
589.70 0.607781
589.80 0.6095953
589.90 0.6114083
590.00 0.6128164
590.10 0.6135651
590.20 0.6143133
590.30 0.615061
590.40 0.6158081
590.50 0.6165546
590.60 0.6173007
590.70 0.6180461
590.80 0.618494
590.90 0.6188081
591.00 0.619122
591.10 0.6194356
591.20 0.619749
591.30 0.6200621
591.40 0.620375
591.50 0.6206876
591.60 0.62089
591.70 0.6209126
591.80 0.6209352
591.90 0.6209577
592.00 0.6209802
592.10 0.6210027
592.20 0.6210251
592.30 0.6210474
592.40 0.6210697
592.50 0.621092
592.60 0.6211141
592.70 0.6211363
592.80 0.6211584
592.90 0.6211804
593.00 0.6212024
593.10 0.6211557
593.20 0.6209971
593.30 0.6208385
593.40 0.62068
593.50 0.6205216
593.60 0.6203633
593.70 0.620205
593.80 0.6200468
593.90 0.6198887
594.00 0.6197306
594.10 0.6195726
594.20 0.6194147
594.30 0.6192569
594.40 0.6190991
594.50 0.6189414
594.60 0.6187838
594.70 0.6186262
594.80 0.6184687
594.90 0.6183113
595.00 0.618154
595.10 0.6179714
595.20 0.6177478
595.30 0.6175243
595.40 0.6173009
595.50 0.6170776
595.60 0.6168544
595.70 0.6166313
595.80 0.6164084
595.90 0.6161856
596.00 0.6159628
596.10 0.6157402
596.20 0.6155178
596.30 0.6152954
596.40 0.6150731
596.50 0.614851
596.60 0.614629
596.70 0.6143889
596.80 0.6141377
596.90 0.6138867
597.00 0.6136359
597.10 0.6133852
597.20 0.6131346
597.30 0.6128841
597.40 0.6126338
597.50 0.6123836
597.60 0.6121288
597.70 0.6118665
597.80 0.6116042
597.90 0.6113422
598.00 0.6110802
598.10 0.6108184
598.20 0.6105568
598.30 0.6102952
598.40 0.6100339
598.50 0.6097726
598.60 0.6095115
598.70 0.6092506
598.80 0.6089897
598.90 0.6087291
599.00 0.6084685
599.10 0.6082081
599.20 0.6079479
599.30 0.6076878
599.40 0.6074104
599.50 0.6071332
599.60 0.6068562
599.70 0.6065793
599.80 0.6063025
599.90 0.6060259
600.00 0.6057495
600.10 0.6054732
600.20 0.6051971
600.30 0.6049211
600.40 0.6046452
600.50 0.6043695
600.60 0.604094
600.70 0.6038186
600.80 0.6035434
600.90 0.6032683
601.00 0.6029933
601.10 0.6027186
601.20 0.6024439
601.30 0.6021694
601.40 0.6018935
601.50 0.6016177
601.60 0.601342
601.70 0.6010665
601.80 0.6007912
601.90 0.600516
602.00 0.6002409
602.10 0.599966
602.20 0.5996912
602.30 0.5994166
602.40 0.5991422
602.50 0.5988679
602.60 0.5985937
602.70 0.5983115
602.80 0.5980289
602.90 0.5977486
603.00 0.5974685
603.10 0.5971885
603.20 0.5969086
603.30 0.596629
603.40 0.5963494
603.50 0.59607
603.60 0.5957908
603.70 0.5955117
603.80 0.5952328
603.90 0.5949541
604.00 0.5946754
604.10 0.594397
604.20 0.5941187
604.30 0.5938405
604.40 0.5935625
604.50 0.5932765
604.60 0.5929906
604.70 0.5927049
604.80 0.5924194
604.90 0.592134
605.00 0.5918488
605.10 0.5915637
605.20 0.5912788
605.30 0.590994
605.40 0.5907094
605.50 0.5904196
605.60 0.5901299
605.70 0.5898403
605.80 0.5895509
605.90 0.5892617
606.00 0.5889726
606.10 0.588677
606.20 0.5883815
606.30 0.5880861
606.40 0.587791
606.50 0.5874757
606.60 0.5871606
606.70 0.5868862
606.80 0.5865714
606.90 0.5863377
607.00 0.5860637
607.10 0.5857899
607.20 0.5855162
607.30 0.5852426
607.40 0.5849692
607.50 0.5846959
607.60 0.5844228
607.70 0.5841633
607.80 0.5839039
607.90 0.5836447
608.00 0.5833856
608.10 0.5831266
608.20 0.5828678
608.30 0.5826015
608.40 0.5823353
608.50 0.5820693
608.60 0.5818034
608.70 0.5815306
608.80 0.5812549
608.90 0.5809793
609.00 0.5807038
609.10 0.5804285
609.20 0.5801534
609.30 0.5798827
609.40 0.5796123
609.50 0.5793419
609.60 0.5790717
609.70 0.5788017
609.80 0.5785318
609.90 0.578262
610.00 0.5779924
610.10 0.5777229
610.20 0.5774536
610.30 0.5771844
610.40 0.5769154
610.50 0.5766465
610.60 0.5763778
610.70 0.5761092
610.80 0.5758408
610.90 0.5755671
611.00 0.5752937
611.10 0.5750203
611.20 0.5747472
611.30 0.5744741
611.40 0.5742012
611.50 0.5739285
611.60 0.5736559
611.70 0.5733835
611.80 0.5731112
611.90 0.572839
612.00 0.572567
612.10 0.5722952
612.20 0.5720235
612.30 0.5717519
612.40 0.5714818
612.50 0.5712119
612.60 0.5709421
612.70 0.5706725
612.80 0.570403
612.90 0.5701336
613.00 0.5698644
613.10 0.5695953
613.20 0.5693264
613.30 0.5690576
613.40 0.568789
613.50 0.5685205
613.60 0.5682522
613.70 0.567984
613.80 0.5677159
613.90 0.567448
614.00 0.5671802
614.10 0.5669126
614.20 0.5666451
614.30 0.5663778
614.40 0.5660989
614.50 0.5658201
614.60 0.5655414
614.70 0.5652629
614.80 0.5649939
614.90 0.564727
615.00 0.5644602
615.10 0.5641936
615.20 0.5639271
615.30 0.5636607
615.40 0.5633945
615.50 0.5631284
615.60 0.5628625
615.70 0.5625967
615.80 0.562331
615.90 0.5620655
616.00 0.5618001
616.10 0.5615349
616.20 0.5612699
616.30 0.5610049
616.40 0.5607401
616.50 0.5604755
616.60 0.560211
616.70 0.5599466
616.80 0.5596824
616.90 0.5594162
617.00 0.5591502
617.10 0.5588843
617.20 0.5586186
617.30 0.558353
617.40 0.5580876
617.50 0.5578223
617.60 0.5575571
617.70 0.5572921
617.80 0.5570272
617.90 0.5567625
618.00 0.5564979
618.10 0.5562335
618.20 0.5559692
618.30 0.555705
618.40 0.555441
618.50 0.5551771
618.60 0.5549134
618.70 0.5546498
618.80 0.5543863
618.90 0.554123
619.00 0.5538598
619.10 0.5535968
619.20 0.5533339
619.30 0.5530712
619.40 0.5528086
619.50 0.5525461
619.60 0.5522838
619.70 0.5520216
619.80 0.5517595
619.90 0.5514976
620.00 0.5512359
620.10 0.5509742
620.20 0.5507128
620.30 0.5504514
620.40 0.5501902
620.50 0.5499291
620.60 0.5496682
620.70 0.5494074
620.80 0.5491468
620.90 0.5488859
621.00 0.5486246
621.10 0.5483634
621.20 0.5481024
621.30 0.5478414
621.40 0.5475807
621.50 0.54732
621.60 0.5470595
621.70 0.5467992
621.80 0.546539
621.90 0.5462789
622.00 0.546019
622.10 0.5457592
622.20 0.5454995
622.30 0.54524
622.40 0.5449806
622.50 0.5447213
622.60 0.5444622
622.70 0.5442033
622.80 0.5439444
622.90 0.5436857
623.00 0.5434272
623.10 0.5431688
623.20 0.5429105
623.30 0.5426524
623.40 0.5423943
623.50 0.5421365
623.60 0.5418788
623.70 0.5416212
623.80 0.5413637
623.90 0.5411064
624.00 0.5408492
624.10 0.5405922
624.20 0.5403353
624.30 0.5400785
624.40 0.5398219
624.50 0.5395654
624.60 0.539309
624.70 0.5390528
624.80 0.5387967
624.90 0.5385408
625.00 0.538285
625.10 0.5380293
625.20 0.5377737
625.30 0.5375183
625.40 0.5372631
625.50 0.5370079
625.60 0.5367529
625.70 0.5364981
625.80 0.5362433
625.90 0.5359888
626.00 0.5357343
626.10 0.53548
626.20 0.5352258
626.30 0.5349717
626.40 0.5347178
626.50 0.534464
626.60 0.5342104
626.70 0.5339569
626.80 0.5337035
626.90 0.5334503
627.00 0.5331972
627.10 0.5329444
627.20 0.5326924
627.30 0.5324405
627.40 0.5321887
627.50 0.5319371
627.60 0.5316856
627.70 0.5314342
627.80 0.531183
627.90 0.5309319
628.00 0.5306809
628.10 0.5304301
628.20 0.5301794
628.30 0.5299288
628.40 0.5296784
628.50 0.5294281
628.60 0.5291779
628.70 0.5289279
628.80 0.528678
628.90 0.5284282
629.00 0.5281786
629.10 0.527929
629.20 0.5276797
629.30 0.5274304
629.40 0.5271813
629.50 0.5269323
629.60 0.5266835
629.70 0.5264348
629.80 0.5261862
629.90 0.5259377
630.00 0.5256894
630.10 0.5254412
630.20 0.5251931
630.30 0.5249452
630.40 0.5246974
630.50 0.5244498
630.60 0.5242023
630.70 0.5239549
630.80 0.5237077
630.90 0.5234605
631.00 0.5232135
631.10 0.5229667
631.20 0.5227199
631.30 0.5224733
631.40 0.5222269
631.50 0.5219805
631.60 0.5217343
631.70 0.5214882
631.80 0.5212423
631.90 0.5209965
632.00 0.5207508
632.10 0.5205052
632.20 0.5202598
632.30 0.5200145
632.40 0.5197693
632.50 0.5195242
632.60 0.5192793
632.70 0.5190345
632.80 0.5187899
632.90 0.5185453
633.00 0.5183009
633.10 0.5180567
633.20 0.5178125
633.30 0.5175685
633.40 0.517325
633.50 0.517082
633.60 0.5168392
633.70 0.5165964
633.80 0.5163538
633.90 0.5161113
634.00 0.515869
634.10 0.5156267
634.20 0.5153846
634.30 0.5151426
634.40 0.5149008
634.50 0.5146591
634.60 0.5144175
634.70 0.514176
634.80 0.5139346
634.90 0.5136934
635.00 0.5134523
635.10 0.5132114
635.20 0.5129705
635.30 0.5127298
635.40 0.5124892
635.50 0.5122488
635.60 0.5120084
635.70 0.5117682
635.80 0.5115281
635.90 0.5112882
636.00 0.5110483
636.10 0.5108086
636.20 0.510569
636.30 0.5103296
636.40 0.5100902
636.50 0.509851
636.60 0.509612
636.70 0.5093731
636.80 0.5091342
636.90 0.5088956
637.00 0.508657
637.10 0.5084186
637.20 0.5081803
637.30 0.5079421
637.40 0.507704
637.50 0.5074661
637.60 0.5072283
637.70 0.5069906
637.80 0.506753
637.90 0.5065156
638.00 0.5062783
638.10 0.5060411
638.20 0.505804
638.30 0.5055671
638.40 0.5053303
638.50 0.5050936
638.60 0.504857
638.70 0.5046205
638.80 0.5043842
638.90 0.504148
639.00 0.5039119
639.10 0.503676
639.20 0.5034401
639.30 0.5032044
639.40 0.5029688
639.50 0.5027334
639.60 0.502498
639.70 0.5022625
639.80 0.5020259
639.90 0.5017894
640.00 0.5015531
640.10 0.5013169
640.20 0.5010808
640.30 0.5008448
640.40 0.5006089
640.50 0.5003732
640.60 0.5001376
640.70 0.4999021
640.80 0.4996668
640.90 0.4994315
641.00 0.4991964
641.10 0.4989614
641.20 0.4987266
641.30 0.4984918
641.40 0.4982572
641.50 0.4980227
641.60 0.4977883
641.70 0.497554
641.80 0.4973199
641.90 0.4970859
642.00 0.496852
642.10 0.4966182
642.20 0.4963846
642.30 0.496151
642.40 0.4959176
642.50 0.4956843
642.60 0.4954512
642.70 0.4952181
642.80 0.4949852
642.90 0.4947524
643.00 0.4945197
643.10 0.4942871
643.20 0.4940546
643.30 0.4938223
643.40 0.4935901
643.50 0.493358
643.60 0.493126
643.70 0.4928941
643.80 0.4926624
643.90 0.4924307
644.00 0.4921992
644.10 0.4919679
644.20 0.4917366
644.30 0.4915055
644.40 0.4912744
644.50 0.4910435
644.60 0.4908127
644.70 0.4905821
644.80 0.4903515
644.90 0.4901211
645.00 0.4898908
645.10 0.4896606
645.20 0.4894306
645.30 0.4892006
645.40 0.4889708
645.50 0.4887411
645.60 0.4885115
645.70 0.488282
645.80 0.4880527
645.90 0.4878234
646.00 0.4875943
646.10 0.4873655
646.20 0.4871374
646.30 0.4869094
646.40 0.4866815
646.50 0.4864538
646.60 0.4862261
646.70 0.4859986
646.80 0.4857712
646.90 0.4855439
647.00 0.4853168
647.10 0.4850897
647.20 0.4848628
647.30 0.484636
647.40 0.4844093
647.50 0.4841827
647.60 0.4839562
647.70 0.4837299
647.80 0.4835037
647.90 0.4832775
648.00 0.4830515
648.10 0.4828257
648.20 0.4825999
648.30 0.4823743
648.40 0.4821487
648.50 0.4819233
648.60 0.481698
648.70 0.4814728
648.80 0.4812478
648.90 0.4810228
649.00 0.480798
649.10 0.4805732
649.20 0.4803486
649.30 0.4801242
649.40 0.4798977
649.50 0.4796713
649.60 0.479445
649.70 0.4792188
649.80 0.4789927
649.90 0.4787668
650.00 0.4785409
650.10 0.4783152
650.20 0.4780896
650.30 0.4778641
650.40 0.4776388
650.50 0.4774135
650.60 0.4771884
650.70 0.4769633
650.80 0.4767384
650.90 0.4765136
651.00 0.476289
651.10 0.4760644
651.20 0.4758399
651.30 0.4756156
651.40 0.4753914
651.50 0.4751673
651.60 0.4749433
651.70 0.4747194
651.80 0.4744957
651.90 0.4742721
652.00 0.4740485
652.10 0.4738251
652.20 0.4736018
652.30 0.4733786
652.40 0.4731556
652.50 0.4729326
652.60 0.4727087
652.70 0.4724844
652.80 0.4722601
652.90 0.472036
653.00 0.471812
653.10 0.4715881
653.20 0.4713644
653.30 0.4711407
653.40 0.4709172
653.50 0.4706938
653.60 0.4704704
653.70 0.4702472
653.80 0.4700242
653.90 0.4698012
654.00 0.4695783
654.10 0.4693556
654.20 0.469133
654.30 0.4689105
654.40 0.4686881
654.50 0.4684658
654.60 0.4682436
654.70 0.4680216
654.80 0.4677996
654.90 0.4675778
655.00 0.4673561
655.10 0.4671345
655.20 0.466913
655.30 0.4666916
655.40 0.4664703
655.50 0.4662492
655.60 0.4660282
655.70 0.4658072
655.80 0.4655821
655.90 0.4653571
656.00 0.4651322
656.10 0.4649074
656.20 0.4646827
656.30 0.4644581
656.40 0.4642337
656.50 0.4640094
656.60 0.4637851
656.70 0.463561
656.80 0.4633371
656.90 0.4631132
657.00 0.4628894
657.10 0.4626658
657.20 0.4624423
657.30 0.4622188
657.40 0.4619955
657.50 0.4617724
657.60 0.4615493
657.70 0.4613263
657.80 0.4610664
657.90 0.4608331
658.00 0.4606047
658.10 0.4603763
658.20 0.4601481
658.30 0.45992
658.40 0.459692
658.50 0.4594642
658.60 0.4592364
658.70 0.4590088
658.80 0.4587813
658.90 0.4585539
659.00 0.4583266
659.10 0.4580955
659.20 0.4578586
659.30 0.4576214
659.40 0.4573844
659.50 0.4571474
659.60 0.4569106
659.70 0.4566739
659.80 0.4564373
659.90 0.4562008
660.00 0.4559645
660.10 0.4557283
660.20 0.4554922
660.30 0.4552562
660.40 0.4550079
660.50 0.4547576
660.60 0.4545073
660.70 0.4542572
660.80 0.4540073
660.90 0.4537403
661.00 0.4534736
661.10 0.4532069
661.20 0.4529404
661.30 0.4526741
661.40 0.4524079
661.50 0.4521418
661.60 0.4518758
661.70 0.45161
661.80 0.4513444
661.90 0.451076
662.00 0.4508078
662.10 0.4505397
662.20 0.4502718
662.30 0.450004
662.40 0.4497126
662.50 0.4494242
662.60 0.449136
662.70 0.4488479
662.80 0.4485599
662.90 0.448289
663.00 0.4480183
663.10 0.4477139
663.20 0.4474096
663.30 0.4471394
663.40 0.4468692
663.50 0.4465654
663.60 0.4462618
663.70 0.4459701
663.80 0.4456786
663.90 0.4453655
664.00 0.4450488
664.10 0.4446672
664.20 0.4442858
664.30 0.4439046
664.40 0.4435237
664.50 0.4431429
664.60 0.4427623
664.70 0.4422404
664.80 0.4417188
664.90 0.4411975
665.00 0.4406764
665.10 0.4401557
665.20 0.4396353
665.30 0.4391151
665.40 0.4385953
665.50 0.4379419
665.60 0.4372653
665.70 0.4363799
665.80 0.4353958
665.90 0.4344124
666.00 0.4334295
666.10 0.4324473
666.20 0.4314655
666.30 0.4304844
666.40 0.4295038
666.50 0.4279366
666.60 0.4262668
666.70 0.424598
666.80 0.4229302
666.90 0.4212633
667.00 0.4195974
667.10 0.4174882
667.20 0.4153019
667.30 0.4130001
667.40 0.4106995
667.50 0.4085741
667.60 0.4064806
667.70 0.4046438
667.80 0.4028532
667.90 0.4034085
668.00 0.4044306
668.10 0.4058424
668.20 0.4072883
668.30 0.4089884
668.40 0.4107325
668.50 0.4124755
668.60 0.4142174
668.70 0.4158384
668.80 0.4170973
668.90 0.4183555
669.00 0.4196129
669.10 0.4208695
669.20 0.4221253
669.30 0.4227997
669.40 0.4233712
669.50 0.4239423
669.60 0.4245131
669.70 0.4250836
669.80 0.4256536
669.90 0.4262233
670.00 0.4267927
670.10 0.4273617
670.20 0.4279303
670.30 0.4281858
670.40 0.428386
670.50 0.428586
670.60 0.4287859
670.70 0.4289856
670.80 0.4290239
670.90 0.4290622
671.00 0.4291004
671.10 0.4291386
671.20 0.4291767
671.30 0.4292148
671.40 0.4292528
671.50 0.4292909
671.60 0.4293288
671.70 0.4293667
671.80 0.4294046
671.90 0.4293587
672.00 0.4292979
672.10 0.4292372
672.20 0.4291764
672.30 0.4291157
672.40 0.4290134
672.50 0.4289079
672.60 0.4288025
672.70 0.4286971
672.80 0.4285918
672.90 0.4284865
673.00 0.4283813
673.10 0.4282761
673.20 0.4281709
673.30 0.4280438
673.40 0.4278971
673.50 0.4277471
673.60 0.4275971
673.70 0.4274472
673.80 0.4272974
673.90 0.4271476
674.00 0.4269979
674.10 0.4268483
674.20 0.4266988
674.30 0.4265493
674.40 0.4263999
674.50 0.4262506
674.60 0.4261013
674.70 0.4259521
674.80 0.425803
674.90 0.4256539
675.00 0.4255049
675.10 0.425356
675.20 0.4252072
675.30 0.4250584
675.40 0.4248892
675.50 0.4247164
675.60 0.4245437
675.70 0.4243711
675.80 0.4241985
675.90 0.4240261
676.00 0.4238537
676.10 0.4236814
676.20 0.4235092
676.30 0.4233371
676.40 0.4231651
676.50 0.4229932
676.60 0.4228213
676.70 0.4226495
676.80 0.4224778
676.90 0.4223062
677.00 0.4221347
677.10 0.4219632
677.20 0.4217919
677.30 0.4216206
677.40 0.4214494
677.50 0.4212783
677.60 0.4211072
677.70 0.4209363
677.80 0.4207654
677.90 0.4205844
678.00 0.4204017
678.10 0.4202191
678.20 0.4200365
678.30 0.4198541
678.40 0.4196718
678.50 0.4194895
678.60 0.4193073
678.70 0.4191252
678.80 0.4189432
678.90 0.4187613
679.00 0.4185795
679.10 0.4183954
679.20 0.4182105
679.30 0.4180256
679.40 0.4178407
679.50 0.417656
679.60 0.4174714
679.70 0.4172869
679.80 0.4171024
679.90 0.4169181
680.00 0.4167338
680.10 0.4165496
680.20 0.4163655
680.30 0.4161815
680.40 0.4159976
680.50 0.4158138
680.60 0.4156301
680.70 0.4154465
680.80 0.4152629
680.90 0.4150795
681.00 0.4148961
681.10 0.4147128
681.20 0.4145296
681.30 0.4143465
681.40 0.4141635
681.50 0.4139806
681.60 0.4137978
681.70 0.413615
681.80 0.4134324
681.90 0.4132498
682.00 0.4130674
682.10 0.412885
682.20 0.4127027
682.30 0.4125205
682.40 0.4123384
682.50 0.4121563
682.60 0.4119744
682.70 0.4117926
682.80 0.4116108
682.90 0.4114291
683.00 0.4112476
683.10 0.4110661
683.20 0.4108847
683.30 0.4107034
683.40 0.4105221
683.50 0.410341
683.60 0.4101599
683.70 0.409979
683.80 0.4097981
683.90 0.4096173
684.00 0.4094366
684.10 0.409256
684.20 0.4090755
684.30 0.4088951
684.40 0.4087147
684.50 0.4085345
684.60 0.4083543
684.70 0.4081742
684.80 0.4079942
684.90 0.4078143
685.00 0.4076345
685.10 0.4074548
685.20 0.4072751
685.30 0.4070956
685.40 0.4069161
685.50 0.4067367
685.60 0.4065574
685.70 0.4063782
685.80 0.4061991
685.90 0.4060176
686.00 0.4058356
686.10 0.4056537
686.20 0.4054718
686.30 0.4052901
686.40 0.4051084
686.50 0.4049268
686.60 0.4047453
686.70 0.4045639
686.80 0.4043826
686.90 0.4042014
687.00 0.4040202
687.10 0.4038392
687.20 0.4036582
687.30 0.4034774
687.40 0.4032966
687.50 0.4031159
687.60 0.4029353
687.70 0.4027548
687.80 0.4025743
687.90 0.402394
688.00 0.4022137
688.10 0.4020336
688.20 0.4018535
688.30 0.4016735
688.40 0.4014936
688.50 0.4013138
688.60 0.401134
688.70 0.4009544
688.80 0.4007748
688.90 0.4005954
689.00 0.400416
689.10 0.4002367
689.20 0.4000575
689.30 0.3998784
689.40 0.3996993
689.50 0.3995204
689.60 0.3993415
689.70 0.3991627
689.80 0.3989841
689.90 0.3988055
690.00 0.398627
690.10 0.3984485
690.20 0.3982702
690.30 0.3980919
690.40 0.3979138
690.50 0.3977357
690.60 0.3975577
690.70 0.3973798
690.80 0.397202
690.90 0.3970242
691.00 0.3968466
691.10 0.396669
691.20 0.3964916
691.30 0.3963142
691.40 0.3961369
691.50 0.3959597
691.60 0.3957825
691.70 0.3956055
691.80 0.3954285
691.90 0.3952517
692.00 0.3950749
692.10 0.3948982
692.20 0.3947216
692.30 0.394545
692.40 0.3943686
692.50 0.3941922
692.60 0.3940159
692.70 0.3938396
692.80 0.3936629
692.90 0.3934863
693.00 0.3933098
693.10 0.3931333
693.20 0.392957
693.30 0.3927807
693.40 0.3926045
693.50 0.3924284
693.60 0.3922524
693.70 0.3920765
693.80 0.3919006
693.90 0.3917248
694.00 0.3915492
694.10 0.3913736
694.20 0.3911981
694.30 0.3910226
694.40 0.3908473
694.50 0.3906721
694.60 0.3904969
694.70 0.3903218
694.80 0.3901468
694.90 0.3899719
695.00 0.3897971
695.10 0.3896223
695.20 0.3894476
695.30 0.3892731
695.40 0.3890986
695.50 0.3889242
695.60 0.3887498
695.70 0.3885756
695.80 0.3884014
695.90 0.3882274
696.00 0.3880534
696.10 0.3878795
696.20 0.3877057
696.30 0.3875319
696.40 0.3873583
696.50 0.3871847
696.60 0.387006
696.70 0.3868262
696.80 0.3866465
696.90 0.3864669
697.00 0.3862873
697.10 0.3861079
697.20 0.3859285
697.30 0.3857492
697.40 0.38557
697.50 0.3853909
697.60 0.3852119
697.70 0.385033
697.80 0.3848541
697.90 0.3846754
698.00 0.3844967
698.10 0.3843181
698.20 0.3841396
698.30 0.3839612
698.40 0.3837829
698.50 0.3836046
698.60 0.3834265
698.70 0.3832484
698.80 0.3830704
698.90 0.3828925
699.00 0.3827147
699.10 0.3825417
699.20 0.38237
699.30 0.3821983
699.40 0.3820266
699.50 0.3818551
699.60 0.3816836
699.70 0.3814979
699.80 0.3813114
699.90 0.3811251
700.00 0.3809388
700.10 0.3807527
700.20 0.3805666
700.30 0.3803806
700.40 0.3801948
700.50 0.380009
700.60 0.3798232
700.70 0.3796376
700.80 0.3794521
700.90 0.3792667
701.00 0.3790813
701.10 0.3788833
701.20 0.3786824
701.30 0.3784815
701.40 0.3782808
701.50 0.3780802
701.60 0.3778796
701.70 0.3776792
701.80 0.3774789
701.90 0.3772786
702.00 0.3770785
702.10 0.3768785
702.20 0.3766785
702.30 0.3764787
702.40 0.3762789
702.50 0.3760793
702.60 0.3758325
702.70 0.3755748
702.80 0.3753172
702.90 0.3750597
703.00 0.3748024
703.10 0.3745451
703.20 0.3742881
703.30 0.3740311
703.40 0.3737743
703.50 0.3735176
703.60 0.3732611
703.70 0.3730046
703.80 0.3727484
703.90 0.3724922
704.00 0.3722362
704.10 0.3719803
704.20 0.3715786
704.30 0.3711429
704.40 0.3707074
704.50 0.3702721
704.60 0.3698371
704.70 0.3694024
704.80 0.3689678
704.90 0.3685335
705.00 0.3680994
705.10 0.3676656
705.20 0.3669894
705.30 0.3662568
705.40 0.3655245
705.50 0.3647927
705.60 0.3640612
705.70 0.3633302
705.80 0.3624543
705.90 0.3615448
706.00 0.3606358
706.10 0.3597273
706.20 0.3588919
706.30 0.3580739
706.40 0.357353
706.50 0.3565956
706.60 0.3566229
706.70 0.3567605
706.80 0.3571025
706.90 0.3574782
707.00 0.3579985
707.10 0.3585524
707.20 0.359106
707.30 0.3596593
707.40 0.3601158
707.50 0.3605494
707.60 0.3609828
707.70 0.361416
707.80 0.3618488
707.90 0.3622815
708.00 0.362478
708.10 0.3626192
708.20 0.3627602
708.30 0.3629012
708.40 0.363042
708.50 0.3631828
708.60 0.3633234
708.70 0.363464
708.80 0.3636045
708.90 0.3637449
709.00 0.3637244
709.10 0.3636663
709.20 0.3636081
709.30 0.36355
709.40 0.3634919
709.50 0.3634338
709.60 0.3633757
709.70 0.3633177
709.80 0.3632596
709.90 0.3632016
710.00 0.3631436
710.10 0.3630857
710.20 0.3630277
710.30 0.3629697
710.40 0.3629118
710.50 0.3628539
710.60 0.3627443
710.70 0.3626226
710.80 0.3625009
710.90 0.3623793
711.00 0.3622577
711.10 0.3621362
711.20 0.3620147
711.30 0.3618933
711.40 0.361772
711.50 0.3616507
711.60 0.3615294
711.70 0.3614083
711.80 0.3612871
711.90 0.361166
712.00 0.361045
712.10 0.3609053
712.20 0.3607612
712.30 0.3606171
712.40 0.3604732
712.50 0.3603293
712.60 0.3601855
712.70 0.3600417
712.80 0.359898
712.90 0.3597544
713.00 0.3596108
713.10 0.3594673
713.20 0.3593239
713.30 0.3591805
713.40 0.3590372
713.50 0.358894
713.60 0.3587509
713.70 0.3586054
713.80 0.3584551
713.90 0.3583049
714.00 0.3581547
714.10 0.3580052
714.20 0.3578559
714.30 0.3577067
714.40 0.3575576
714.50 0.3574085
714.60 0.3572595
714.70 0.3571105
714.80 0.3569617
714.90 0.3568129
715.00 0.3566641
715.10 0.3565155
715.20 0.3563669
715.30 0.3562184
715.40 0.3560699
715.50 0.3559215
715.60 0.3557732
715.70 0.3556249
715.80 0.3554768
715.90 0.3553287
716.00 0.3551806
716.10 0.3550326
716.20 0.3548847
716.30 0.3547369
716.40 0.3545891
716.50 0.3544414
716.60 0.3542897
716.70 0.354137
716.80 0.3539844
716.90 0.3538318
717.00 0.3536794
717.10 0.353527
717.20 0.3533747
717.30 0.3532224
717.40 0.3530703
717.50 0.3529182
717.60 0.3527661
717.70 0.3526142
717.80 0.3524623
717.90 0.3523104
718.00 0.3521587
718.10 0.352007
718.20 0.3518542
718.30 0.3517008
718.40 0.3515475
718.50 0.3513943
718.60 0.3512412
718.70 0.3510881
718.80 0.3509351
718.90 0.3507821
719.00 0.3506293
719.10 0.3504765
719.20 0.3503237
719.30 0.3501711
719.40 0.3500185
719.50 0.349866
719.60 0.3497135
719.70 0.3495612
719.80 0.3494089
719.90 0.3492566
720.00 0.3491045
720.10 0.3489524
720.20 0.3488004
720.30 0.3486484
720.40 0.3484966
720.50 0.3483448
720.60 0.348193
720.70 0.3480551
720.80 0.3479246
720.90 0.3477727
721.00 0.3476199
721.10 0.3474672
721.20 0.3473145
721.30 0.347162
721.40 0.3470095
721.50 0.346857
721.60 0.3467047
721.70 0.3465524
721.80 0.3464002
721.90 0.3462481
722.00 0.346096
722.10 0.345944
722.20 0.3457921
722.30 0.3456402
722.40 0.3454884
722.50 0.3453367
722.60 0.3451851
722.70 0.3450304
722.80 0.3448741
722.90 0.3447179
723.00 0.3445618
723.10 0.3444058
723.20 0.3442498
723.30 0.3440939
723.40 0.3439381
723.50 0.3437823
723.60 0.3436266
723.70 0.343471
723.80 0.3433155
723.90 0.34316
724.00 0.3430047
724.10 0.3428493
724.20 0.3426896
724.30 0.3425276
724.40 0.3423657
724.50 0.3422038
724.60 0.342042
724.70 0.3418803
724.80 0.3417186
724.90 0.341557
725.00 0.3413955
725.10 0.3412341
725.20 0.3410728
725.30 0.3409115
725.40 0.3407503
725.50 0.3405892
725.60 0.3404282
725.70 0.3402672
725.80 0.3400838
725.90 0.3398884
726.00 0.3396931
726.10 0.3394978
726.20 0.3393027
726.30 0.3391076
726.40 0.3389127
726.50 0.3387178
726.60 0.3385231
726.70 0.3383284
726.80 0.3381021
726.90 0.3378588
727.00 0.3376156
727.10 0.3373725
727.20 0.3371295
727.30 0.3368867
727.40 0.3366227
727.50 0.3363473
727.60 0.336072
727.70 0.3357969
727.80 0.335531
727.90 0.3352702
728.00 0.335025
728.10 0.3347953
728.20 0.3346332
728.30 0.3345624
728.40 0.3344887
728.50 0.334425
728.60 0.3343795
728.70 0.3343438
728.80 0.3343081
728.90 0.3342724
729.00 0.3342368
729.10 0.3342011
729.20 0.3341655
729.30 0.3341298
729.40 0.3340942
729.50 0.3340586
729.60 0.3339866
729.70 0.333895
729.80 0.3338035
729.90 0.3337121
730.00 0.3336207
730.10 0.3335293
730.20 0.3334379
730.30 0.3333466
730.40 0.3332553
730.50 0.3331641
730.60 0.3330525
730.70 0.33293
730.80 0.3328075
730.90 0.3326851
731.00 0.3325627
731.10 0.3324404
731.20 0.3323182
731.30 0.332196
731.40 0.3320738
731.50 0.3319517
731.60 0.3318297
731.70 0.3317077
731.80 0.3315858
731.90 0.3314639
732.00 0.3313421
732.10 0.3312203
732.20 0.3310876
732.30 0.3309491
732.40 0.3308106
732.50 0.3306722
732.60 0.3305338
732.70 0.3303955
732.80 0.3302573
732.90 0.3301191
733.00 0.329981
733.10 0.329843
733.20 0.329705
733.30 0.3295671
733.40 0.3294292
733.50 0.3292915
733.60 0.3291537
733.70 0.3290147
733.80 0.3288749
733.90 0.3287353
734.00 0.3285957
734.10 0.3284561
734.20 0.3283167
734.30 0.3281772
734.40 0.3280379
734.50 0.3278986
734.60 0.3277594
734.70 0.3276202
734.80 0.3274811
734.90 0.3273421
735.00 0.3272031
735.10 0.3270642
735.20 0.3269254
735.30 0.3267867
735.40 0.3266497
735.50 0.3265127
735.60 0.3263758
735.70 0.3262388
735.80 0.3261017
735.90 0.3259647
736.00 0.3258278
736.10 0.3256909
736.20 0.325554
736.30 0.3254173
736.40 0.3252806
736.50 0.3251439
736.60 0.3250074
736.70 0.3248709
736.80 0.3247344
736.90 0.324598
737.00 0.3244617
737.10 0.3243254
737.20 0.3241892
737.30 0.3240531
737.40 0.323917
737.50 0.323781
737.60 0.323645
737.70 0.3235091
737.80 0.3233733
737.90 0.3232375
738.00 0.3231018
738.10 0.3229662
738.20 0.3228288
738.30 0.3226904
738.40 0.3225522
738.50 0.322414
738.60 0.3222758
738.70 0.3221378
738.80 0.3219998
738.90 0.3218618
739.00 0.3217239
739.10 0.3215861
739.20 0.3214484
739.30 0.3213107
739.40 0.321173
739.50 0.3210355
739.60 0.320898
739.70 0.3207605
739.80 0.3206231
739.90 0.3204858
740.00 0.3203486
740.10 0.3202114
740.20 0.3200742
740.30 0.3199372
740.40 0.3198002
740.50 0.3196632
740.60 0.3195263
740.70 0.3193895
740.80 0.3192527
740.90 0.3191161
741.00 0.3189794
741.10 0.3188428
741.20 0.3187063
741.30 0.3185699
741.40 0.3184335
741.50 0.3182972
741.60 0.3181609
741.70 0.3180247
741.80 0.3178886
741.90 0.3177525
742.00 0.3176165
742.10 0.3174805
742.20 0.3173447
742.30 0.3172088
742.40 0.3170731
742.50 0.3169373
742.60 0.3168017
742.70 0.316668
742.80 0.3165358
742.90 0.3164036
743.00 0.3162716
743.10 0.3161395
743.20 0.3160076
743.30 0.3158757
743.40 0.3157439
743.50 0.3156121
743.60 0.3154804
743.70 0.3153482
743.80 0.3152137
743.90 0.3150793
744.00 0.3149449
744.10 0.3148106
744.20 0.3146764
744.30 0.3145422
744.40 0.3144081
744.50 0.3142741
744.60 0.3141401
744.70 0.3140062
744.80 0.3138723
744.90 0.3137385
745.00 0.3136047
745.10 0.3134711
745.20 0.3133374
745.30 0.3132039
745.40 0.3130704
745.50 0.3129369
745.60 0.3128035
745.70 0.3126702
745.80 0.312537
745.90 0.3124038
746.00 0.3122706
746.10 0.3121375
746.20 0.3120045
746.30 0.3118716
746.40 0.3117386
746.50 0.3116058
746.60 0.311473
746.70 0.3113403
746.80 0.3112076
746.90 0.311075
747.00 0.3109425
747.10 0.31081
747.20 0.3106776
747.30 0.3105452
747.40 0.3104129
747.50 0.3102807
747.60 0.3101485
747.70 0.3100164
747.80 0.3098843
747.90 0.3097523
748.00 0.3096204
748.10 0.3094885
748.20 0.3093567
748.30 0.3092249
748.40 0.3090932
748.50 0.3089615
748.60 0.30883
748.70 0.3086984
748.80 0.308567
748.90 0.3084355
749.00 0.3083042
749.10 0.3081729
749.20 0.3080417
749.30 0.3079105
749.40 0.3077794
749.50 0.3076483
749.60 0.3075173
749.70 0.3073864
749.80 0.3072555
749.90 0.3071247
750.00 0.3069939
750.10 0.3068635
750.20 0.3067337
750.30 0.306604
750.40 0.3064743
750.50 0.3063447
750.60 0.3062152
750.70 0.3060857
750.80 0.3059562
750.90 0.3058269
751.00 0.3056976
751.10 0.3055683
751.20 0.3054391
751.30 0.30531
751.40 0.3051809
751.50 0.3050519
751.60 0.3049229
751.70 0.304794
751.80 0.3046651
751.90 0.3045363
752.00 0.3044076
752.10 0.3042789
752.20 0.3041503
752.30 0.3040218
752.40 0.3038932
752.50 0.3037648
752.60 0.3036364
752.70 0.3035081
752.80 0.3033798
752.90 0.3032516
753.00 0.3031234
753.10 0.3029953
753.20 0.3028673
753.30 0.3027393
753.40 0.3026114
753.50 0.3024835
753.60 0.3023557
753.70 0.3022279
753.80 0.3021002
753.90 0.3019726
754.00 0.301845
754.10 0.3017175
754.20 0.30159
754.30 0.3014626
754.40 0.3013352
754.50 0.3012079
754.60 0.3010807
754.70 0.3009535
754.80 0.3008264
754.90 0.3006993
755.00 0.3005723
755.10 0.3004453
755.20 0.3003184
755.30 0.3001916
755.40 0.3000648
755.50 0.299938
755.60 0.2998114
755.70 0.2996847
755.80 0.2995582
755.90 0.2994317
756.00 0.2993052
756.10 0.2991788
756.20 0.2990525
756.30 0.2989262
756.40 0.2988
756.50 0.2986738
756.60 0.2985477
756.70 0.2984216
756.80 0.2982956
756.90 0.2981697
757.00 0.2980438
757.10 0.297918
757.20 0.2977922
757.30 0.2976665
757.40 0.2975408
757.50 0.2974152
757.60 0.2972898
757.70 0.2971647
757.80 0.2970398
757.90 0.2969149
758.00 0.29679
758.10 0.2966652
758.20 0.2965405
758.30 0.2964158
758.40 0.2962911
758.50 0.2961665
758.60 0.296042
758.70 0.2959175
758.80 0.2957931
758.90 0.2956688
759.00 0.2955445
759.10 0.2954202
759.20 0.295296
759.30 0.2951719
759.40 0.2950478
759.50 0.2949238
759.60 0.2947998
759.70 0.2946759
759.80 0.294552
759.90 0.2944282
760.00 0.2943045
760.10 0.2941808
760.20 0.2940571
760.30 0.2939335
760.40 0.29381
760.50 0.2936865
760.60 0.2935631
760.70 0.2934397
760.80 0.2933164
760.90 0.2931932
761.00 0.2930699
761.10 0.2929468
761.20 0.2928237
761.30 0.2927007
761.40 0.2925777
761.50 0.2924547
761.60 0.2923319
761.70 0.292209
761.80 0.2920863
761.90 0.2919636
762.00 0.2918409
762.10 0.2917183
762.20 0.2915957
762.30 0.2914732
762.40 0.2913508
762.50 0.2912284
762.60 0.2911061
762.70 0.2909838
762.80 0.2908616
762.90 0.2907394
763.00 0.2906173
763.10 0.2904952
763.20 0.2903732
763.30 0.2902512
763.40 0.2901293
763.50 0.2900075
763.60 0.2898857
763.70 0.289764
763.80 0.2896423
763.90 0.2895206
764.00 0.2893991
764.10 0.2892775
764.20 0.2891561
764.30 0.2890346
764.40 0.2889133
764.50 0.288792
764.60 0.2886707
764.70 0.2885495
764.80 0.2884283
764.90 0.2883073
765.00 0.2881862
765.10 0.2880652
765.20 0.2879445
765.30 0.2878241
765.40 0.2877037
765.50 0.2875834
765.60 0.2874631
765.70 0.2873429
765.80 0.2872227
765.90 0.2871026
766.00 0.2869826
766.10 0.2868626
766.20 0.2867426
766.30 0.2866227
766.40 0.2865029
766.50 0.2863831
766.60 0.2862633
766.70 0.2861436
766.80 0.286024
766.90 0.2859044
767.00 0.2857849
767.10 0.2856654
767.20 0.285546
767.30 0.2854266
767.40 0.2853073
767.50 0.285188
767.60 0.2850688
767.70 0.2849496
767.80 0.2848305
767.90 0.2847115
768.00 0.2845924
768.10 0.2844735
768.20 0.2843546
768.30 0.2842357
768.40 0.2841169
768.50 0.2839982
768.60 0.2838795
768.70 0.2837609
768.80 0.2836423
768.90 0.2835237
769.00 0.2834053
769.10 0.2832868
769.20 0.2831684
769.30 0.2830501
769.40 0.2829318
769.50 0.2828136
769.60 0.2826954
769.70 0.2825773
769.80 0.2824592
769.90 0.2823412
770.00 0.2822233
770.10 0.2821053
770.20 0.2819875
770.30 0.2818697
770.40 0.2817519
770.50 0.2816342
770.60 0.2815166
770.70 0.281399
770.80 0.2812814
770.90 0.2811639
771.00 0.2810464
771.10 0.280929
771.20 0.2808117
771.30 0.2806944
771.40 0.2805772
771.50 0.28046
771.60 0.2803428
771.70 0.2802257
771.80 0.2801087
771.90 0.2799917
772.00 0.2798748
772.10 0.2797579
772.20 0.2796411
772.30 0.2795243
772.40 0.2794075
772.50 0.2792909
772.60 0.2791742
772.70 0.2790577
772.80 0.2789411
772.90 0.2788257
773.00 0.2787104
773.10 0.2785951
773.20 0.2784798
773.30 0.2783647
773.40 0.2782495
773.50 0.2781344
773.60 0.2780194
773.70 0.2779044
773.80 0.2777894
773.90 0.2776745
774.00 0.2775597
774.10 0.2774449
774.20 0.2773302
774.30 0.2772155
774.40 0.2771008
774.50 0.2769862
774.60 0.2768717
774.70 0.2767572
774.80 0.2766428
774.90 0.2765284
775.00 0.276414
775.10 0.2762997
775.20 0.2761855
775.30 0.2760713
775.40 0.2759571
775.50 0.275843
775.60 0.275729
775.70 0.275615
775.80 0.2755011
775.90 0.2753872
776.00 0.2752733
776.10 0.2751595
776.20 0.2750458
776.30 0.2749321
776.40 0.2748184
776.50 0.2747048
776.60 0.2745913
776.70 0.2744778
776.80 0.2743643
776.90 0.2742509
777.00 0.2741376
777.10 0.2740243
777.20 0.273911
777.30 0.2737978
777.40 0.2736846
777.50 0.2735715
777.60 0.2734585
777.70 0.2733455
777.80 0.2732325
777.90 0.2731196
778.00 0.2730067
778.10 0.2728939
778.20 0.2727812
778.30 0.2726684
778.40 0.2725558
778.50 0.2724432
778.60 0.2723306
778.70 0.2722181
778.80 0.2721056
778.90 0.2719932
779.00 0.2718808
779.10 0.2717685
779.20 0.2716562
779.30 0.271544
779.40 0.2714318
779.50 0.2713197
779.60 0.2712076
779.70 0.2710956
779.80 0.2709836
779.90 0.2708716
780.00 0.2707598
780.10 0.2706479
780.20 0.2705361
780.30 0.2704244
780.40 0.2703127
780.50 0.2702011
780.60 0.2700895
780.70 0.269978
780.80 0.2698666
780.90 0.2697552
781.00 0.2696438
781.10 0.2695325
781.20 0.2694212
781.30 0.26931
781.40 0.2691989
781.50 0.2690878
781.60 0.2689767
781.70 0.2688657
781.80 0.2687547
781.90 0.2686438
782.00 0.2685329
782.10 0.2684221
782.20 0.2683113
782.30 0.2682006
782.40 0.2680899
782.50 0.2679793
782.60 0.2678687
782.70 0.2677582
782.80 0.2676477
782.90 0.2675373
783.00 0.2674269
783.10 0.2673165
783.20 0.2672062
783.30 0.267096
783.40 0.2669858
783.50 0.2668756
783.60 0.2667655
783.70 0.2666555
783.80 0.2665454
783.90 0.2664355
784.00 0.2663256
784.10 0.2662157
784.20 0.2661059
784.30 0.2659961
784.40 0.2658864
784.50 0.2657767
784.60 0.2656673
784.70 0.2655584
784.80 0.2654497
784.90 0.2653409
785.00 0.2652322
785.10 0.2651236
785.20 0.265015
785.30 0.2649064
785.40 0.2647979
785.50 0.2646894
785.60 0.264581
785.70 0.2644727
785.80 0.2643643
785.90 0.2642561
786.00 0.2641478
786.10 0.2640397
786.20 0.2639315
786.30 0.2638234
786.40 0.2637154
786.50 0.2636074
786.60 0.2634994
786.70 0.2633915
786.80 0.2632837
786.90 0.2631759
787.00 0.2630681
787.10 0.2629604
787.20 0.2628527
787.30 0.2627451
787.40 0.2626375
787.50 0.26253
787.60 0.2624225
787.70 0.2623151
787.80 0.2622077
787.90 0.2621003
788.00 0.261993
788.10 0.2618858
788.20 0.2617785
788.30 0.2616714
788.40 0.2615639
788.50 0.2614562
788.60 0.2613486
788.70 0.2612411
788.80 0.2611335
788.90 0.2610261
789.00 0.2609186
789.10 0.2608113
789.20 0.2607039
789.30 0.2605967
789.40 0.2604894
789.50 0.2603822
789.60 0.2602751
789.70 0.260168
789.80 0.2600609
789.90 0.2599539
790.00 0.259847
790.10 0.25974
790.20 0.2596332
790.30 0.2595263
790.40 0.2594196
790.50 0.2593128
790.60 0.2592061
790.70 0.2590995
790.80 0.2589929
790.90 0.2588863
791.00 0.2587798
791.10 0.2586734
791.20 0.258567
791.30 0.2584606
791.40 0.2583543
791.50 0.258248
791.60 0.2581418
791.70 0.2580356
791.80 0.2579294
791.90 0.2578233
792.00 0.2577173
792.10 0.2576113
792.20 0.2575053
792.30 0.2573997
792.40 0.257295
792.50 0.2571904
792.60 0.2570858
792.70 0.2569813
792.80 0.2568768
792.90 0.2567723
793.00 0.2566679
793.10 0.2565635
793.20 0.2564592
793.30 0.2563549
793.40 0.2562507
793.50 0.2561465
793.60 0.2560424
793.70 0.2559383
793.80 0.2558342
793.90 0.2557302
794.00 0.2556262
794.10 0.2555223
794.20 0.2554184
794.30 0.2553146
794.40 0.2552108
794.50 0.2551071
794.60 0.2550034
794.70 0.2548997
794.80 0.2547961
794.90 0.2546925
795.00 0.254589
795.10 0.2544855
795.20 0.2543821
795.30 0.2542787
795.40 0.2541754
795.50 0.2540721
795.60 0.2539688
795.70 0.2538656
795.80 0.2537624
795.90 0.2536593
796.00 0.2535562
796.10 0.2534532
796.20 0.2533502
796.30 0.253247
796.40 0.2531439
796.50 0.2530409
796.60 0.2529379
796.70 0.2528349
796.80 0.252732
796.90 0.2526291
797.00 0.2525262
797.10 0.2524234
797.20 0.2523207
797.30 0.252218
797.40 0.2521153
797.50 0.2520127
797.60 0.2519101
797.70 0.2518076
797.80 0.2517051
797.90 0.2516026
798.00 0.2515002
798.10 0.2513978
798.20 0.2512955
798.30 0.2511932
798.40 0.251091
798.50 0.2509888
798.60 0.2508867
798.70 0.2507846
798.80 0.2506825
798.90 0.2505805
799.00 0.2504785
799.10 0.2503766
799.20 0.2502747
799.30 0.2501729
799.40 0.2500711
799.50 0.2499693
799.60 0.2498676
799.70 0.2497659
799.80 0.2496643
799.90 0.2495627
800.00 0.2494612
800.10 0.2493597
800.20 0.2492582
800.30 0.2491568
800.40 0.2490554
800.50 0.2489541
800.60 0.2488528
800.70 0.2487516
800.80 0.2486504
800.90 0.2485492
801.00 0.2484481
801.10 0.248347
801.20 0.248246
801.30 0.248145
801.40 0.2480441
801.50 0.2479432
801.60 0.2478423
801.70 0.2477415
801.80 0.2476407
801.90 0.24754
802.00 0.2474393
802.10 0.2473387
802.20 0.247238
802.30 0.2471375
802.40 0.247037
802.50 0.2469365
802.60 0.2468361
802.70 0.2467357
802.80 0.2466353
802.90 0.246535
803.00 0.2464348
803.10 0.2463345
803.20 0.2462344
803.30 0.2461342
803.40 0.2460341
803.50 0.2459341
803.60 0.2458341
803.70 0.2457341
803.80 0.2456342
803.90 0.2455343
804.00 0.2454344
804.10 0.2453346
804.20 0.2452351
804.30 0.2451363
804.40 0.2450376
804.50 0.2449389
804.60 0.2448403
804.70 0.2447417
804.80 0.2446432
804.90 0.2445447
805.00 0.2444462
805.10 0.2443478
805.20 0.2442494
805.30 0.244151
805.40 0.2440527
805.50 0.2439545
805.60 0.2438563
805.70 0.2437581
805.80 0.2436599
805.90 0.2435618
806.00 0.2434638
806.10 0.2433658
806.20 0.2432678
806.30 0.2431699
806.40 0.243072
806.50 0.2429741
806.60 0.2428763
806.70 0.2427786
806.80 0.2426808
806.90 0.2425831
807.00 0.2424855
807.10 0.2423879
807.20 0.2422903
807.30 0.2421928
807.40 0.2420953
807.50 0.2419979
807.60 0.2419005
807.70 0.2418031
807.80 0.2417058
807.90 0.2416085
808.00 0.2415113
808.10 0.2414141
808.20 0.241317
808.30 0.2412198
808.40 0.2411228
808.50 0.2410257
808.60 0.2409288
808.70 0.2408318
808.80 0.2407349
808.90 0.240638
809.00 0.2405412
809.10 0.2404444
809.20 0.2403477
809.30 0.2402509
809.40 0.2401543
809.50 0.2400576
809.60 0.2399611
809.70 0.2398645
809.80 0.239768
809.90 0.2396715
810.00 0.2395751
810.10 0.2394787
810.20 0.2393824
810.30 0.2392861
810.40 0.2391898
810.50 0.2390936
810.60 0.2389974
810.70 0.2389013
810.80 0.2388052
810.90 0.2387091
811.00 0.2386131
811.10 0.2385171
811.20 0.2384212
811.30 0.2383253
811.40 0.2382294
811.50 0.2381336
811.60 0.2380378
811.70 0.237942
811.80 0.2378463
811.90 0.2377507
812.00 0.2376551
812.10 0.2375595
812.20 0.2374639
812.30 0.2373687
812.40 0.2372737
812.50 0.2371786
812.60 0.2370836
812.70 0.2369887
812.80 0.2368938
812.90 0.2367989
813.00 0.2367041
813.10 0.2366093
813.20 0.2365145
813.30 0.2364198
813.40 0.2363251
813.50 0.2362305
813.60 0.2361359
813.70 0.2360414
813.80 0.2359468
813.90 0.2358524
814.00 0.2357579
814.10 0.2356635
814.20 0.2355692
814.30 0.2354748
814.40 0.2353806
814.50 0.2352863
814.60 0.2351921
814.70 0.2350979
814.80 0.2350038
814.90 0.2349097
815.00 0.2348157
815.10 0.2347217
815.20 0.2346277
815.30 0.2345338
815.40 0.2344399
815.50 0.234346
815.60 0.2342522
815.70 0.2341585
815.80 0.2340647
815.90 0.233971
816.00 0.2338774
816.10 0.2337837
816.20 0.2336902
816.30 0.2335966
816.40 0.2335031
816.50 0.2334097
816.60 0.2333162
816.70 0.2332229
816.80 0.2331295
816.90 0.2330362
817.00 0.2329429
817.10 0.2328497
817.20 0.2327565
817.30 0.2326634
817.40 0.2325702
817.50 0.2324772
817.60 0.2323841
817.70 0.2322911
817.80 0.2321982
817.90 0.2321052
818.00 0.2320124
818.10 0.2319195
818.20 0.2318267
818.30 0.2317339
818.40 0.2316412
818.50 0.2315485
818.60 0.2314559
818.70 0.2313633
818.80 0.2312707
818.90 0.2311781
819.00 0.2310856
819.10 0.2309932
819.20 0.2309008
819.30 0.2308081
819.40 0.2307153
819.50 0.2306225
819.60 0.2305298
819.70 0.2304371
819.80 0.2303444
819.90 0.2302518
820.00 0.2301592
820.10 0.2300699
820.20 0.2299797
820.30 0.2298853
820.40 0.2297927
820.50 0.2297015
820.60 0.2296103
820.70 0.2295191
820.80 0.2294279
820.90 0.2293368
821.00 0.2292458
821.10 0.2291547
821.20 0.2290637
821.30 0.2289728
821.40 0.2288818
821.50 0.228791
821.60 0.2287001
821.70 0.2286093
821.80 0.2285185
821.90 0.2284278
822.00 0.2283371
822.10 0.2282464
822.20 0.2281558
822.30 0.2280652
822.40 0.2279747
822.50 0.2278842
822.60 0.2277937
822.70 0.2277033
822.80 0.2276129
822.90 0.2275225
823.00 0.2274322
823.10 0.2273419
823.20 0.2272516
823.30 0.2271614
823.40 0.2270713
823.50 0.2269811
823.60 0.226891
823.70 0.226801
823.80 0.2267109
823.90 0.2266209
824.00 0.226531
824.10 0.2264411
824.20 0.2263512
824.30 0.2262614
824.40 0.2261715
824.50 0.2260818
824.60 0.225992
824.70 0.2259024
824.80 0.2258127
824.90 0.2257231
825.00 0.2256335
825.10 0.2255439
825.20 0.2254544
825.30 0.225365
825.40 0.2252755
825.50 0.2251861
825.60 0.2250968
825.70 0.2250074
825.80 0.2249181
825.90 0.2248289
826.00 0.2247397
826.10 0.2246505
826.20 0.2245613
826.30 0.2244727
826.40 0.2243843
826.50 0.224296
826.60 0.2242077
826.70 0.2241194
826.80 0.2240312
826.90 0.223943
827.00 0.2238549
827.10 0.2237668
827.20 0.2236787
827.30 0.2235907
827.40 0.2235027
827.50 0.2234147
827.60 0.2233268
827.70 0.2232389
827.80 0.2231511
827.90 0.2230632
828.00 0.2229755
828.10 0.2228877
828.20 0.2228
828.30 0.2227123
828.40 0.2226247
828.50 0.2225371
828.60 0.2224491
828.70 0.2223609
828.80 0.2222727
828.90 0.2221846
829.00 0.2220964
829.10 0.2220084
829.20 0.2219203
829.30 0.2218323
829.40 0.2217443
829.50 0.2216564
829.60 0.2215685
829.70 0.2214806
829.80 0.2213928
829.90 0.221305
830.00 0.2212172
830.10 0.2211295
830.20 0.2210418
830.30 0.2209542
830.40 0.2208666
830.50 0.220779
830.60 0.2206914
830.70 0.2206039
830.80 0.2205164
830.90 0.220429
831.00 0.2203416
831.10 0.2202542
831.20 0.2201669
831.30 0.2200796
831.40 0.2199924
831.50 0.2199051
831.60 0.2198179
831.70 0.2197308
831.80 0.2196437
831.90 0.2195566
832.00 0.2194695
832.10 0.2193825
832.20 0.2192956
832.30 0.2192086
832.40 0.2191217
832.50 0.2190348
832.60 0.218948
832.70 0.2188612
832.80 0.2187744
832.90 0.2186877
833.00 0.218601
833.10 0.2185144
833.20 0.2184278
833.30 0.2183412
833.40 0.2182546
833.50 0.2181681
833.60 0.2180816
833.70 0.2179952
833.80 0.2179088
833.90 0.2178224
834.00 0.2177361
834.10 0.2176497
834.20 0.2175635
834.30 0.2174772
834.40 0.217391
834.50 0.2173049
834.60 0.2172188
834.70 0.2171327
834.80 0.2170466
834.90 0.2169606
835.00 0.2168746
835.10 0.2167886
835.20 0.2167027
835.30 0.2166168
835.40 0.216531
835.50 0.2164452
835.60 0.2163594
835.70 0.2162736
835.80 0.2161879
835.90 0.2161023
836.00 0.2160166
836.10 0.215931
836.20 0.2158454
836.30 0.2157599
836.40 0.2156744
836.50 0.2155889
836.60 0.2155035
836.70 0.2154181
836.80 0.2153327
836.90 0.2152484
837.00 0.2151644
837.10 0.2150805
837.20 0.2149966
837.30 0.2149128
837.40 0.214829
837.50 0.2147452
837.60 0.2146615
837.70 0.2145778
837.80 0.2144941
837.90 0.2144105
838.00 0.2143269
838.10 0.2142433
838.20 0.2141598
838.30 0.2140763
838.40 0.2139928
838.50 0.2139094
838.60 0.213826
838.70 0.2137426
838.80 0.2136593
838.90 0.213576
839.00 0.2134927
839.10 0.2134095
839.20 0.2133263
839.30 0.2132431
839.40 0.21316
839.50 0.2130769
839.60 0.2129938
839.70 0.2129108
839.80 0.2128278
839.90 0.2127448
840.00 0.2126619
840.10 0.212579
840.20 0.2124961
840.30 0.2124133
840.40 0.2123305
840.50 0.2122477
840.60 0.212165
840.70 0.2120823
840.80 0.2119997
840.90 0.211917
841.00 0.2118344
841.10 0.2117519
841.20 0.2116694
841.30 0.2115869
841.40 0.2115044
841.50 0.211422
841.60 0.2113396
841.70 0.2112572
841.80 0.2111749
841.90 0.2110926
842.00 0.2110104
842.10 0.2109281
842.20 0.210846
842.30 0.2107638
842.40 0.2106817
842.50 0.2105996
842.60 0.2105175
842.70 0.2104355
842.80 0.2103535
842.90 0.2102716
843.00 0.2101896
843.10 0.2101077
843.20 0.2100259
843.30 0.209944
843.40 0.2098623
843.50 0.2097805
843.60 0.2096988
843.70 0.2096171
843.80 0.2095354
843.90 0.2094538
844.00 0.2093722
844.10 0.2092906
844.20 0.2092091
844.30 0.2091276
844.40 0.2090461
844.50 0.2089647
844.60 0.2088833
844.70 0.2088019
844.80 0.2087206
844.90 0.2086393
845.00 0.208558
845.10 0.2084768
845.20 0.2083956
845.30 0.2083142
845.40 0.2082329
845.50 0.2081516
845.60 0.2080703
845.70 0.2079891
845.80 0.2079079
845.90 0.2078268
846.00 0.2077456
846.10 0.2076645
846.20 0.2075835
846.30 0.2075024
846.40 0.2074214
846.50 0.2073405
846.60 0.2072595
846.70 0.2071786
846.80 0.2070978
846.90 0.2070169
847.00 0.2069361
847.10 0.2068554
847.20 0.2067746
847.30 0.2066939
847.40 0.2066133
847.50 0.2065326
847.60 0.206452
847.70 0.2063714
847.80 0.2062909
847.90 0.2062104
848.00 0.2061299
848.10 0.2060494
848.20 0.205969
848.30 0.2058886
848.40 0.2058083
848.50 0.205728
848.60 0.2056477
848.70 0.2055674
848.80 0.2054872
848.90 0.205407
849.00 0.2053269
849.10 0.2052467
849.20 0.2051666
849.30 0.2050866
849.40 0.2050065
849.50 0.2049265
849.60 0.2048466
849.70 0.2047666
849.80 0.2046867
849.90 0.2046069
850.00 0.204527
850.10 0.2044472
850.20 0.2043675
850.30 0.2042877
850.40 0.204208
850.50 0.2041283
850.60 0.2040487
850.70 0.2039691
850.80 0.2038895
850.90 0.2038099
851.00 0.2037304
851.10 0.2036509
851.20 0.2035715
851.30 0.203492
851.40 0.2034126
851.50 0.2033333
851.60 0.2032539
851.70 0.2031746
851.80 0.2030954
851.90 0.2030161
852.00 0.2029369
852.10 0.2028578
852.20 0.2027786
852.30 0.2026995
852.40 0.2026204
852.50 0.2025414
852.60 0.2024624
852.70 0.2023834
852.80 0.2023044
852.90 0.2022255
853.00 0.2021466
853.10 0.2020678
853.20 0.201989
853.30 0.2019102
853.40 0.2018314
853.50 0.2017527
853.60 0.201674
853.70 0.2015957
853.80 0.2015178
853.90 0.20144
854.00 0.2013622
854.10 0.2012845
854.20 0.2012067
854.30 0.201129
854.40 0.2010514
854.50 0.2009737
854.60 0.2008961
854.70 0.2008186
854.80 0.200741
854.90 0.2006635
855.00 0.200586
855.10 0.2005086
855.20 0.2004312
855.30 0.2003538
855.40 0.2002764
855.50 0.2001991
855.60 0.2001218
855.70 0.2000445
855.80 0.1999673
855.90 0.1998901
856.00 0.1998129
856.10 0.1997358
856.20 0.1996587
856.30 0.1995816
856.40 0.1995046
856.50 0.1994275
856.60 0.1993505
856.70 0.1992736
856.80 0.1991967
856.90 0.1991198
857.00 0.1990429
857.10 0.1989661
857.20 0.1988892
857.30 0.1988125
857.40 0.1987357
857.50 0.198659
857.60 0.1985823
857.70 0.1985057
857.80 0.198429
857.90 0.1983525
858.00 0.1982759
858.10 0.1981994
858.20 0.1981229
858.30 0.1980464
858.40 0.1979699
858.50 0.1978935
858.60 0.1978171
858.70 0.1977408
858.80 0.1976645
858.90 0.1975882
859.00 0.1975119
859.10 0.1974357
859.20 0.1973595
859.30 0.1972833
859.40 0.1972072
859.50 0.1971311
859.60 0.197055
859.70 0.1969789
859.80 0.1969029
859.90 0.1968269
860.00 0.196751
860.10 0.196675
860.20 0.1965991
860.30 0.1965233
860.40 0.1964474
860.50 0.1963716
860.60 0.1962958
860.70 0.1962201
860.80 0.1961444
860.90 0.1960687
861.00 0.195993
861.10 0.1959174
861.20 0.1958418
861.30 0.1957662
861.40 0.1956907
861.50 0.1956151
861.60 0.1955397
861.70 0.1954642
861.80 0.1953888
861.90 0.1953134
862.00 0.195238
862.10 0.1951627
862.20 0.1950874
862.30 0.1950125
862.40 0.1949375
862.50 0.1948626
862.60 0.1947877
862.70 0.1947129
862.80 0.194638
862.90 0.1945632
863.00 0.1944885
863.10 0.1944137
863.20 0.194339
863.30 0.1942643
863.40 0.1941897
863.50 0.1941151
863.60 0.1940405
863.70 0.1939659
863.80 0.1938914
863.90 0.1938169
864.00 0.1937424
864.10 0.193668
864.20 0.1935935
864.30 0.1935192
864.40 0.1934448
864.50 0.1933705
864.60 0.1932962
864.70 0.1932219
864.80 0.1931477
864.90 0.1930734
865.00 0.1929993
865.10 0.1929251
865.20 0.192851
865.30 0.1927769
865.40 0.1927028
865.50 0.1926288
865.60 0.1925548
865.70 0.1924808
865.80 0.1924069
865.90 0.1923329
866.00 0.192259
866.10 0.1921852
866.20 0.1921113
866.30 0.1920375
866.40 0.1919638
866.50 0.19189
866.60 0.1918163
866.70 0.1917426
866.80 0.191669
866.90 0.1915953
867.00 0.1915217
867.10 0.1914481
867.20 0.1913746
867.30 0.1913011
867.40 0.1912276
867.50 0.1911541
867.60 0.1910807
867.70 0.1910073
867.80 0.1909339
867.90 0.1908606
868.00 0.1907873
868.10 0.190714
868.20 0.1906407
868.30 0.1905675
868.40 0.1904943
868.50 0.1904211
868.60 0.190348
868.70 0.1902749
868.80 0.1902018
868.90 0.1901287
869.00 0.1900557
869.10 0.1899827
869.20 0.1899097
869.30 0.1898368
869.40 0.1897639
869.50 0.189691
869.60 0.1896181
869.70 0.1895453
869.80 0.1894725
869.90 0.1893997
870.00 0.189327
870.10 0.1892543
870.20 0.1891816
870.30 0.1891089
870.40 0.1890363
870.50 0.1889637
870.60 0.1888911
870.70 0.1888186
870.80 0.1887461
870.90 0.1886747
871.00 0.1886034
871.10 0.1885322
871.20 0.1884609
871.30 0.1883898
871.40 0.1883186
871.50 0.1882475
871.60 0.1881764
871.70 0.1881053
871.80 0.1880342
871.90 0.1879632
872.00 0.1878922
872.10 0.1878213
872.20 0.1877503
872.30 0.1876794
872.40 0.1876085
872.50 0.1875377
872.60 0.1874668
872.70 0.187396
872.80 0.1873253
872.90 0.1872545
873.00 0.1871838
873.10 0.1871131
873.20 0.1870425
873.30 0.1869718
873.40 0.1869012
873.50 0.1868306
873.60 0.1867601
873.70 0.1866896
873.80 0.1866191
873.90 0.1865486
874.00 0.1864781
874.10 0.1864077
874.20 0.1863373
874.30 0.186267
874.40 0.1861966
874.50 0.1861263
874.60 0.1860561
874.70 0.1859858
874.80 0.1859156
874.90 0.1858454
875.00 0.1857752
875.10 0.1857051
875.20 0.1856346
875.30 0.1855637
875.40 0.1854927
875.50 0.1854218
875.60 0.1853509
875.70 0.18528
875.80 0.1852092
875.90 0.1851383
876.00 0.1850676
876.10 0.1849968
876.20 0.1849261
876.30 0.1848554
876.40 0.1847847
876.50 0.184714
876.60 0.1846434
876.70 0.1845728
876.80 0.1845022
876.90 0.1844317
877.00 0.1843612
877.10 0.1842907
877.20 0.1842202
877.30 0.1841498
877.40 0.1840794
877.50 0.184009
877.60 0.1839387
877.70 0.1838683
877.80 0.1837981
877.90 0.1837278
878.00 0.1836575
878.10 0.1835873
878.20 0.1835171
878.30 0.183447
878.40 0.1833769
878.50 0.1833067
878.60 0.1832367
878.70 0.1831666
878.80 0.1830966
878.90 0.1830266
879.00 0.1829566
879.10 0.1828867
879.20 0.1828168
879.30 0.1827469
879.40 0.182677
879.50 0.1826072
879.60 0.1825383
879.70 0.1824697
879.80 0.1824011
879.90 0.1823325
880.00 0.182264
880.10 0.1821955
880.20 0.182127
880.30 0.1820585
880.40 0.1819901
880.50 0.1819217
880.60 0.1818533
880.70 0.1817849
880.80 0.1817166
880.90 0.1816483
881.00 0.18158
881.10 0.1815118
881.20 0.1814435
881.30 0.1813753
881.40 0.1813072
881.50 0.181239
881.60 0.1811709
881.70 0.1811028
881.80 0.1810347
881.90 0.1809667
882.00 0.1808987
882.10 0.1808307
882.20 0.1807627
882.30 0.1806948
882.40 0.1806269
882.50 0.180559
882.60 0.1804911
882.70 0.1804233
882.80 0.1803555
882.90 0.1802877
883.00 0.18022
883.10 0.1801522
883.20 0.1800845
883.30 0.1800168
883.40 0.1799492
883.50 0.1798816
883.60 0.179814
883.70 0.1797464
883.80 0.1796789
883.90 0.1796113
884.00 0.1795431
884.10 0.1794748
884.20 0.1794064
884.30 0.1793382
884.40 0.1792699
884.50 0.1792017
884.60 0.1791334
884.70 0.1790653
884.80 0.1789971
884.90 0.178929
885.00 0.1788609
885.10 0.1787928
885.20 0.1787247
885.30 0.1786567
885.40 0.1785887
885.50 0.1785207
885.60 0.1784528
885.70 0.1783849
885.80 0.178317
885.90 0.1782491
886.00 0.1781813
886.10 0.1781134
886.20 0.1780456
886.30 0.1779779
886.40 0.1779101
886.50 0.1778424
886.60 0.1777747
886.70 0.1777071
886.80 0.1776394
886.90 0.1775718
887.00 0.1775043
887.10 0.1774367
887.20 0.1773692
887.30 0.1773017
887.40 0.1772342
887.50 0.1771667
887.60 0.1770993
887.70 0.1770319
887.80 0.1769645
887.90 0.1768972
888.00 0.1768298
888.10 0.1767625
888.20 0.1766953
888.30 0.176628
888.40 0.1765618
888.50 0.1764957
888.60 0.1764297
888.70 0.1763637
888.80 0.1762977
888.90 0.1762317
889.00 0.1761657
889.10 0.1760998
889.20 0.1760339
889.30 0.1759681
889.40 0.1759022
889.50 0.1758364
889.60 0.1757706
889.70 0.1757048
889.80 0.1756391
889.90 0.1755734
890.00 0.1755077
890.10 0.175442
890.20 0.1753764
890.30 0.1753107
890.40 0.1752452
890.50 0.1751796
890.60 0.175114
890.70 0.1750485
890.80 0.174983
890.90 0.1749176
891.00 0.1748521
891.10 0.1747867
891.20 0.1747213
891.30 0.1746559
891.40 0.1745906
891.50 0.1745253
891.60 0.17446
891.70 0.1743947
891.80 0.1743295
891.90 0.1742643
892.00 0.1741991
892.10 0.1741339
892.20 0.1740688
892.30 0.1740036
892.40 0.1739385
892.50 0.1738735
892.60 0.1738084
892.70 0.1737434
892.80 0.1736784
892.90 0.1736134
893.00 0.1735485
893.10 0.1734836
893.20 0.1734187
893.30 0.1733538
893.40 0.173289
893.50 0.1732241
893.60 0.1731593
893.70 0.1730946
893.80 0.1730298
893.90 0.1729651
894.00 0.1729004
894.10 0.1728357
894.20 0.1727711
894.30 0.1727064
894.40 0.1726418
894.50 0.1725773
894.60 0.1725127
894.70 0.1724482
894.80 0.1723837
894.90 0.1723192
895.00 0.1722548
895.10 0.1721903
895.20 0.1721259
895.30 0.1720615
895.40 0.1719972
895.50 0.1719329
895.60 0.1718686
895.70 0.1718043
895.80 0.17174
895.90 0.1716758
896.00 0.1716116
896.10 0.1715474
896.20 0.1714832
896.30 0.1714191
896.40 0.171355
896.50 0.1712909
896.60 0.1712268
896.70 0.1711628
896.80 0.1710988
896.90 0.1710348
897.00 0.1709708
897.10 0.1709069
897.20 0.170843
897.30 0.1707793
897.40 0.1707157
897.50 0.1706521
897.60 0.1705886
897.70 0.170525
897.80 0.1704615
897.90 0.170398
898.00 0.1703346
898.10 0.1702711
898.20 0.1702077
898.30 0.1701443
898.40 0.1700809
898.50 0.1700176
898.60 0.1699542
898.70 0.1698909
898.80 0.1698277
898.90 0.1697644
899.00 0.1697012
899.10 0.169638
899.20 0.1695748
899.30 0.1695117
899.40 0.1694485
899.50 0.1693854
899.60 0.1693223
899.70 0.1692593
899.80 0.1691962
899.90 0.1691332
900.00 0.1690702
900.10 0.1690073
900.20 0.1689443
900.30 0.1688814
900.40 0.1688185
900.50 0.1687556
900.60 0.1686928
900.70 0.16863
900.80 0.1685672
900.90 0.1685044
901.00 0.1684416
901.10 0.1683789
901.20 0.1683162
901.30 0.1682535
901.40 0.1681909
901.50 0.1681282
901.60 0.1680656
901.70 0.168003
901.80 0.1679405
901.90 0.1678779
902.00 0.1678154
902.10 0.1677529
902.20 0.1676905
902.30 0.167628
902.40 0.1675656
902.50 0.1675032
902.60 0.1674408
902.70 0.1673785
902.80 0.1673162
902.90 0.1672538
903.00 0.1671916
903.10 0.1671293
903.20 0.1670671
903.30 0.1670049
903.40 0.1669427
903.50 0.1668805
903.60 0.1668184
903.70 0.1667563
903.80 0.1666942
903.90 0.1666321
904.00 0.1665701
904.10 0.166508
904.20 0.166446
904.30 0.1663841
904.40 0.1663221
904.50 0.1662602
904.60 0.1661983
904.70 0.1661364
904.80 0.1660745
904.90 0.1660127
905.00 0.1659509
905.10 0.1658891
905.20 0.1658273
905.30 0.1657656
905.40 0.1657039
905.50 0.1656422
905.60 0.1655805
905.70 0.1655189
905.80 0.1654572
905.90 0.1653956
906.00 0.165334
906.10 0.1652725
906.20 0.165211
906.30 0.1651498
906.40 0.1650885
906.50 0.1650273
906.60 0.1649661
906.70 0.164905
906.80 0.1648438
906.90 0.1647827
907.00 0.1647216
907.10 0.1646605
907.20 0.1645994
907.30 0.1645384
907.40 0.1644774
907.50 0.1644164
907.60 0.1643555
907.70 0.1642945
907.80 0.1642336
907.90 0.1641727
908.00 0.1641118
908.10 0.164051
908.20 0.1639902
908.30 0.1639294
908.40 0.1638686
908.50 0.1638078
908.60 0.1637471
908.70 0.1636864
908.80 0.1636257
908.90 0.163565
909.00 0.1635044
909.10 0.1634437
909.20 0.1633831
909.30 0.1633226
909.40 0.163262
909.50 0.1632015
909.60 0.163141
909.70 0.1630805
909.80 0.16302
909.90 0.1629596
910.00 0.1628992
910.10 0.1628388
910.20 0.1627784
910.30 0.1627181
910.40 0.1626577
910.50 0.1625974
910.60 0.1625371
910.70 0.1624769
910.80 0.1624174
910.90 0.162358
911.00 0.1622986
911.10 0.1622392
911.20 0.1621799
911.30 0.1621206
911.40 0.1620612
911.50 0.162002
911.60 0.1619427
911.70 0.1618834
911.80 0.1618242
911.90 0.161765
912.00 0.1617058
912.10 0.1616467
912.20 0.1615875
912.30 0.1615284
912.40 0.1614693
912.50 0.1614103
912.60 0.1613512
912.70 0.1612922
912.80 0.1612332
912.90 0.1611742
913.00 0.1611153
913.10 0.1610563
913.20 0.1609974
913.30 0.1609385
913.40 0.1608796
913.50 0.1608208
913.60 0.160762
913.70 0.1607032
913.80 0.1606444
913.90 0.1605856
914.00 0.1605269
914.10 0.1604682
914.20 0.1604095
914.30 0.1603508
914.40 0.1602921
914.50 0.1602335
914.60 0.1601749
914.70 0.1601163
914.80 0.1600577
914.90 0.1599992
915.00 0.1599407
915.10 0.1598822
915.20 0.1598237
915.30 0.1597649
915.40 0.1597059
915.50 0.1596469
915.60 0.159588
915.70 0.1595291
915.80 0.1594702
915.90 0.1594113
916.00 0.1593525
916.10 0.1592936
916.20 0.1592348
916.30 0.1591761
916.40 0.1591173
916.50 0.1590586
916.60 0.1589998
916.70 0.1589411
916.80 0.1588825
916.90 0.1588238
917.00 0.1587652
917.10 0.1587066
917.20 0.158648
917.30 0.1585894
917.40 0.1585309
917.50 0.1584724
917.60 0.1584139
917.70 0.1583554
917.80 0.1582969
917.90 0.1582385
918.00 0.1581801
918.10 0.1581217
918.20 0.1580633
918.30 0.158005
918.40 0.1579467
918.50 0.1578883
918.60 0.1578301
918.70 0.1577718
918.80 0.1577136
918.90 0.1576554
919.00 0.1575972
919.10 0.157539
919.20 0.1574808
919.30 0.1574227
919.40 0.1573646
919.50 0.1573065
919.60 0.1572484
919.70 0.1571904
919.80 0.1571324
919.90 0.1570751
920.00 0.1570179
920.10 0.1569607
920.20 0.1569035
920.30 0.1568464
920.40 0.1567892
920.50 0.1567321
920.60 0.156675
920.70 0.156618
920.80 0.1565609
920.90 0.1565039
921.00 0.1564469
921.10 0.1563899
921.20 0.156333
921.30 0.156276
921.40 0.1562191
921.50 0.1561622
921.60 0.1561054
921.70 0.1560485
921.80 0.1559917
921.90 0.1559349
922.00 0.1558781
922.10 0.1558213
922.20 0.1557646
922.30 0.1557078
922.40 0.1556511
922.50 0.1555944
922.60 0.1555378
922.70 0.1554811
922.80 0.1554245
922.90 0.1553679
923.00 0.1553113
923.10 0.1552548
923.20 0.1551982
923.30 0.1551417
923.40 0.1550852
923.50 0.1550287
923.60 0.1549723
923.70 0.1549158
923.80 0.1548594
923.90 0.154803
924.00 0.1547467
924.10 0.1546903
924.20 0.154634
924.30 0.1545777
924.40 0.1545213
924.50 0.1544645
924.60 0.1544077
924.70 0.154351
924.80 0.1542942
924.90 0.1542375
925.00 0.1541808
925.10 0.1541242
925.20 0.1540675
925.30 0.1540109
925.40 0.1539543
925.50 0.1538977
925.60 0.1538411
925.70 0.1537846
925.80 0.1537281
925.90 0.1536715
926.00 0.1536151
926.10 0.1535586
926.20 0.1535022
926.30 0.1534457
926.40 0.1533893
926.50 0.153333
926.60 0.1532766
926.70 0.1532203
926.80 0.153164
926.90 0.1531077
927.00 0.1530514
927.10 0.1529951
927.20 0.1529389
927.30 0.1528827
927.40 0.1528265
927.50 0.1527703
927.60 0.1527142
927.70 0.152658
927.80 0.1526019
927.90 0.1525459
928.00 0.1524898
928.10 0.1524337
928.20 0.1523777
928.30 0.1523217
928.40 0.1522657
928.50 0.1522098
928.60 0.1521538
928.70 0.1520979
928.80 0.152042
928.90 0.1519861
929.00 0.1519302
929.10 0.1518751
929.20 0.15182
929.30 0.151765
929.40 0.15171
929.50 0.1516549
929.60 0.1515999
929.70 0.151545
929.80 0.15149
929.90 0.1514351
930.00 0.1513802
930.10 0.1513253
930.20 0.1512704
930.30 0.1512155
930.40 0.1511607
930.50 0.1511059
930.60 0.1510511
930.70 0.1509963
930.80 0.1509416
930.90 0.1508869
931.00 0.1508321
931.10 0.1507774
931.20 0.1507228
931.30 0.1506681
931.40 0.1506135
931.50 0.1505589
931.60 0.1505043
931.70 0.1504497
931.80 0.1503952
931.90 0.1503406
932.00 0.1502861
932.10 0.1502316
932.20 0.1501771
932.30 0.1501227
932.40 0.1500683
932.50 0.1500138
932.60 0.1499594
932.70 0.1499051
932.80 0.1498507
932.90 0.1497964
933.00 0.1497421
933.10 0.1496878
933.20 0.1496335
933.30 0.1495793
933.40 0.149525
933.50 0.1494708
933.60 0.1494166
933.70 0.1493626
933.80 0.1493087
933.90 0.1492547
934.00 0.1492008
934.10 0.149147
934.20 0.1490931
934.30 0.1490393
934.40 0.1489854
934.50 0.1489316
934.60 0.1488779
934.70 0.1488241
934.80 0.1487704
934.90 0.1487166
935.00 0.1486629
935.10 0.1486093
935.20 0.1485556
935.30 0.148502
935.40 0.1484483
935.50 0.1483947
935.60 0.1483411
935.70 0.1482876
935.80 0.148234
935.90 0.1481805
936.00 0.148127
936.10 0.1480735
936.20 0.14802
936.30 0.1479666
936.40 0.1479132
936.50 0.1478598
936.60 0.1478064
936.70 0.147753
936.80 0.1476996
936.90 0.1476463
937.00 0.147593
937.10 0.1475397
937.20 0.1474864
937.30 0.1474332
937.40 0.14738
937.50 0.1473267
937.60 0.1472735
937.70 0.1472204
937.80 0.1471672
937.90 0.1471141
938.00 0.147061
938.10 0.1470079
938.20 0.1469548
938.30 0.1469017
938.40 0.1468487
938.50 0.1467956
938.60 0.1467426
938.70 0.1466897
938.80 0.1466367
938.90 0.1465838
939.00 0.1465308
939.10 0.1464779
939.20 0.146425
939.30 0.1463722
939.40 0.1463193
939.50 0.1462665
939.60 0.1462137
939.70 0.1461609
939.80 0.1461081
939.90 0.1460554
940.00 0.1460026
940.10 0.1459499
940.20 0.1458972
940.30 0.1458445
940.40 0.1457919
940.50 0.1457392
940.60 0.1456866
940.70 0.145634
940.80 0.1455814
940.90 0.1455289
941.00 0.1454763
941.10 0.1454238
941.20 0.1453713
941.30 0.1453188
941.40 0.1452664
941.50 0.1452139
941.60 0.1451615
941.70 0.1451091
941.80 0.1450567
941.90 0.1450043
942.00 0.144952
942.10 0.1448996
942.20 0.1448473
942.30 0.144795
942.40 0.1447427
942.50 0.1446905
942.60 0.1446382
942.70 0.144586
942.80 0.1445338
942.90 0.1444816
943.00 0.1444295
943.10 0.1443776
943.20 0.1443257
943.30 0.1442738
943.40 0.1442219
943.50 0.1441701
943.60 0.1441182
943.70 0.1440664
943.80 0.1440146
943.90 0.1439628
944.00 0.1439111
944.10 0.1438593
944.20 0.1438076
944.30 0.1437559
944.40 0.1437042
944.50 0.1436526
944.60 0.1436009
944.70 0.1435493
944.80 0.1434977
944.90 0.1434461
945.00 0.1433945
945.10 0.1433429
945.20 0.1432914
945.30 0.1432399
945.40 0.1431884
945.50 0.1431369
945.60 0.1430854
945.70 0.143034
945.80 0.1429826
945.90 0.1429312
946.00 0.1428798
946.10 0.1428284
946.20 0.142777
946.30 0.1427257
946.40 0.1426744
946.50 0.1426231
946.60 0.1425718
946.70 0.1425206
946.80 0.1424693
946.90 0.1424181
947.00 0.1423669
947.10 0.1423157
947.20 0.1422645
947.30 0.1422134
947.40 0.1421623
947.50 0.1421111
947.60 0.1420601
947.70 0.142009
947.80 0.1419579
947.90 0.1419069
948.00 0.1418559
948.10 0.1418049
948.20 0.1417539
948.30 0.1417029
948.40 0.141652
948.50 0.141601
948.60 0.1415501
948.70 0.1414992
948.80 0.1414484
948.90 0.1413975
949.00 0.1413467
949.10 0.1412958
949.20 0.141245
949.30 0.1411943
949.40 0.1411435
949.50 0.1410928
949.60 0.141042
949.70 0.1409913
949.80 0.1409406
949.90 0.14089
950.00 0.1408393
950.10 0.1407887
950.20 0.140738
950.30 0.1406874
950.40 0.1406369
950.50 0.1405863
950.60 0.1405358
950.70 0.1404852
950.80 0.1404347
950.90 0.1403842
951.00 0.1403338
951.10 0.1402833
951.20 0.1402329
951.30 0.1401824
951.40 0.140132
951.50 0.1400817
951.60 0.1400313
951.70 0.139981
951.80 0.1399306
951.90 0.1398803
952.00 0.13983
952.10 0.1397797
952.20 0.1397295
952.30 0.1396793
952.40 0.1396291
952.50 0.1395798
952.60 0.1395305
952.70 0.1394812
952.80 0.139432
952.90 0.1393827
953.00 0.1393335
953.10 0.1392843
953.20 0.1392351
953.30 0.139186
953.40 0.1391368
953.50 0.1390877
953.60 0.1390386
953.70 0.1389895
953.80 0.1389404
953.90 0.1388914
954.00 0.1388423
954.10 0.1387933
954.20 0.1387443
954.30 0.1386953
954.40 0.1386463
954.50 0.1385974
954.60 0.1385484
954.70 0.1384995
954.80 0.1384506
954.90 0.1384017
955.00 0.1383528
955.10 0.138304
955.20 0.1382552
955.30 0.1382063
955.40 0.1381575
955.50 0.1381088
955.60 0.13806
955.70 0.1380113
955.80 0.1379625
955.90 0.1379138
956.00 0.1378651
956.10 0.1378164
956.20 0.1377678
956.30 0.1377191
956.40 0.1376705
956.50 0.1376219
956.60 0.1375733
956.70 0.1375247
956.80 0.1374762
956.90 0.1374277
957.00 0.1373791
957.10 0.1373306
957.20 0.1372818
957.30 0.1372327
957.40 0.1371835
957.50 0.1371344
957.60 0.1370853
957.70 0.1370362
957.80 0.1369872
957.90 0.1369381
958.00 0.1368891
958.10 0.1368401
958.20 0.1367911
958.30 0.1367421
958.40 0.1366932
958.50 0.1366442
958.60 0.1365953
958.70 0.1365464
958.80 0.1364975
958.90 0.1364486
959.00 0.1363998
959.10 0.1363509
959.20 0.1363021
959.30 0.1362533
959.40 0.1362045
959.50 0.1361558
959.60 0.136107
959.70 0.1360583
959.80 0.1360096
959.90 0.1359609
960.00 0.1359122
960.10 0.1358635
960.20 0.1358149
960.30 0.1357663
960.40 0.1357176
960.50 0.135669
960.60 0.1356205
960.70 0.1355719
960.80 0.1355234
960.90 0.1354748
961.00 0.1354263
961.10 0.1353778
961.20 0.1353294
961.30 0.1352809
961.40 0.1352325
961.50 0.1351841
961.60 0.1351356
961.70 0.1350873
961.80 0.1350389
961.90 0.1349905
962.00 0.1349429
962.10 0.1348955
962.20 0.1348481
962.30 0.1348006
962.40 0.1347532
962.50 0.1347059
962.60 0.1346585
962.70 0.1346111
962.80 0.1345638
962.90 0.1345165
963.00 0.1344692
963.10 0.1344219
963.20 0.1343746
963.30 0.1343274
963.40 0.1342802
963.50 0.134233
963.60 0.1341858
963.70 0.1341386
963.80 0.1340914
963.90 0.1340443
964.00 0.1339971
964.10 0.13395
964.20 0.1339029
964.30 0.1338558
964.40 0.1338088
964.50 0.1337617
964.60 0.1337147
964.70 0.1336677
964.80 0.1336207
964.90 0.1335737
965.00 0.1335267
965.10 0.1334798
965.20 0.1334329
965.30 0.1333859
965.40 0.133339
965.50 0.1332922
965.60 0.1332453
965.70 0.1331984
965.80 0.1331516
965.90 0.1331048
966.00 0.133058
966.10 0.1330112
966.20 0.1329644
966.30 0.1329177
966.40 0.132871
966.50 0.1328242
966.60 0.1327775
966.70 0.1327309
966.80 0.1326842
966.90 0.1326375
967.00 0.1325909
967.10 0.1325443
967.20 0.1324977
967.30 0.1324511
967.40 0.1324045
967.50 0.132358
967.60 0.1323114
967.70 0.1322649
967.80 0.1322184
967.90 0.1321719
968.00 0.1321255
968.10 0.132079
968.20 0.1320326
968.30 0.1319862
968.40 0.1319398
968.50 0.1318934
968.60 0.131847
968.70 0.1318006
968.80 0.1317543
968.90 0.131708
969.00 0.1316617
969.10 0.1316154
969.20 0.1315691
969.30 0.1315228
969.40 0.1314766
969.50 0.1314304
969.60 0.1313842
969.70 0.131338
969.80 0.1312918
969.90 0.1312456
970.00 0.1311995
970.10 0.1311534
970.20 0.1311073
970.30 0.1310612
970.40 0.1310151
970.50 0.130969
970.60 0.130923
970.70 0.1308769
970.80 0.1308309
970.90 0.1307849
971.00 0.1307389
971.10 0.130693
971.20 0.130647
971.30 0.1306011
971.40 0.1305552
971.50 0.1305093
971.60 0.1304635
971.70 0.1304178
971.80 0.1303722
971.90 0.1303265
972.00 0.1302809
972.10 0.1302353
972.20 0.1301897
972.30 0.1301441
972.40 0.1300985
972.50 0.130053
972.60 0.1300074
972.70 0.1299619
972.80 0.1299164
972.90 0.1298709
973.00 0.1298254
973.10 0.12978
973.20 0.1297345
973.30 0.1296891
973.40 0.1296437
973.50 0.1295983
973.60 0.1295529
973.70 0.1295076
973.80 0.1294622
973.90 0.1294169
974.00 0.1293716
974.10 0.1293263
974.20 0.129281
974.30 0.1292357
974.40 0.1291905
974.50 0.1291453
974.60 0.1291
974.70 0.1290548
974.80 0.1290096
974.90 0.1289645
975.00 0.1289193
975.10 0.1288742
975.20 0.1288291
975.30 0.1287839
975.40 0.1287389
975.50 0.1286938
975.60 0.1286487
975.70 0.1286037
975.80 0.1285586
975.90 0.1285136
976.00 0.1284686
976.10 0.1284237
976.20 0.1283787
976.30 0.1283337
976.40 0.1282888
976.50 0.1282439
976.60 0.128199
976.70 0.1281541
976.80 0.1281092
976.90 0.1280644
977.00 0.1280195
977.10 0.1279747
977.20 0.1279299
977.30 0.1278851
977.40 0.1278403
977.50 0.1277956
977.60 0.1277508
977.70 0.1277061
977.80 0.1276614
977.90 0.1276167
978.00 0.127572
978.10 0.1275273
978.20 0.1274827
978.30 0.127438
978.40 0.1273934
978.50 0.1273488
978.60 0.1273042
978.70 0.1272596
978.80 0.1272151
978.90 0.1271705
979.00 0.127126
979.10 0.1270815
979.20 0.127037
979.30 0.1269925
979.40 0.126948
979.50 0.1269036
979.60 0.1268591
979.70 0.1268147
979.80 0.1267703
979.90 0.1267259
980.00 0.1266816
980.10 0.1266372
980.20 0.1265929
980.30 0.1265485
980.40 0.1265042
980.50 0.1264599
980.60 0.1264156
980.70 0.1263714
980.80 0.1263271
980.90 0.1262829
981.00 0.1262387
981.10 0.1261945
981.20 0.1261503
981.30 0.1261062
981.40 0.1260622
981.50 0.1260183
981.60 0.1259743
981.70 0.1259304
981.80 0.1258865
981.90 0.1258426
982.00 0.1257987
982.10 0.1257549
982.20 0.125711
982.30 0.1256672
982.40 0.1256233
982.50 0.1255795
982.60 0.1255358
982.70 0.125492
982.80 0.1254482
982.90 0.1254045
983.00 0.1253607
983.10 0.125317
983.20 0.1252733
983.30 0.1252296
983.40 0.125186
983.50 0.1251423
983.60 0.1250987
983.70 0.1250551
983.80 0.1250115
983.90 0.1249679
984.00 0.1249243
984.10 0.1248807
984.20 0.1248372
984.30 0.1247936
984.40 0.1247501
984.50 0.1247066
984.60 0.1246631
984.70 0.1246197
984.80 0.1245762
984.90 0.1245328
985.00 0.1244893
985.10 0.1244459
985.20 0.1244025
985.30 0.1243592
985.40 0.1243158
985.50 0.1242724
985.60 0.1242291
985.70 0.1241858
985.80 0.1241425
985.90 0.1240992
986.00 0.1240559
986.10 0.1240127
986.20 0.1239694
986.30 0.1239262
986.40 0.123883
986.50 0.1238398
986.60 0.1237966
986.70 0.1237534
986.80 0.1237102
986.90 0.1236671
987.00 0.123624
987.10 0.1235809
987.20 0.1235378
987.30 0.1234947
987.40 0.1234516
987.50 0.1234086
987.60 0.1233655
987.70 0.1233225
987.80 0.1232795
987.90 0.1232365
988.00 0.1231935
988.10 0.1231506
988.20 0.1231076
988.30 0.1230647
988.40 0.1230218
988.50 0.1229789
988.60 0.122936
988.70 0.1228931
988.80 0.1228503
988.90 0.1228074
989.00 0.1227646
989.10 0.1227218
989.20 0.122679
989.30 0.1226362
989.40 0.1225934
989.50 0.1225507
989.60 0.1225079
989.70 0.1224652
989.80 0.1224225
989.90 0.1223798
990.00 0.1223371
990.10 0.1222944
990.20 0.1222518
990.30 0.1222092
990.40 0.1221665
990.50 0.1221239
990.60 0.1220813
990.70 0.1220388
990.80 0.1219962
990.90 0.1219536
991.00 0.1219111
991.10 0.1218689
991.20 0.1218272
991.30 0.1217855
991.40 0.1217438
991.50 0.1217021
991.60 0.1216604
991.70 0.1216188
991.80 0.1215772
991.90 0.1215355
992.00 0.1214939
992.10 0.1214524
992.20 0.1214108
992.30 0.1213692
992.40 0.1213277
992.50 0.1212861
992.60 0.1212446
992.70 0.1212031
992.80 0.1211616
992.90 0.1211202
993.00 0.1210787
993.10 0.1210373
993.20 0.1209958
993.30 0.1209544
993.40 0.120913
993.50 0.1208716
993.60 0.1208302
993.70 0.1207889
993.80 0.1207475
993.90 0.1207062
994.00 0.1206649
994.10 0.1206236
994.20 0.1205823
994.30 0.120541
994.40 0.1204998
994.50 0.1204585
994.60 0.1204173
994.70 0.1203761
994.80 0.1203349
994.90 0.1202937
995.00 0.1202525
995.10 0.1202113
995.20 0.1201702
995.30 0.120129
995.40 0.1200879
995.50 0.1200468
995.60 0.1200057
995.70 0.1199646
995.80 0.1199236
995.90 0.1198825
996.00 0.1198415
996.10 0.1198
996.20 0.1197584
996.30 0.1197168
996.40 0.1196752
996.50 0.1196336
996.60 0.1195921
996.70 0.1195505
996.80 0.119509
996.90 0.1194675
997.00 0.119426
997.10 0.1193845
997.20 0.1193431
997.30 0.1193016
997.40 0.1192602
997.50 0.1192188
997.60 0.1191773
997.70 0.119136
997.80 0.1190946
997.90 0.1190532
998.00 0.1190119
998.10 0.1189705
998.20 0.1189292
998.30 0.1188879
998.40 0.1188466
998.50 0.1188053
998.60 0.118764
998.70 0.1187228
998.80 0.1186815
998.90 0.1186403
999.00 0.1185991
999.10 0.1185579
999.20 0.1185167
999.30 0.1184756
999.40 0.1184344
999.50 0.1183933
999.60 0.1183521
999.70 0.118311
999.80 0.1182699
999.90 0.1182288
1000.00 0.1181878
1000.10 0.1181467
1000.20 0.1181057
1000.30 0.1180646
1000.40 0.1180236
1000.50 0.1179826
1000.60 0.1179416
1000.70 0.1179007
1000.80 0.1178597
1000.90 0.1178188
1001.00 0.117778
1001.10 0.1177379
1001.20 0.1176977
1001.30 0.1176576
1001.40 0.1176175
1001.50 0.1175774
1001.60 0.1175373
1001.70 0.1174973
1001.80 0.1174572
1001.90 0.1174172
1002.00 0.1173771
1002.10 0.1173371
1002.20 0.1172971
1002.30 0.1172571
1002.40 0.1172171
1002.50 0.1171772
1002.60 0.1171372
1002.70 0.1170973
1002.80 0.1170574
1002.90 0.1170175
1003.00 0.1169776
1003.10 0.1169377
1003.20 0.1168978
1003.30 0.116858
1003.40 0.1168181
1003.50 0.1167783
1003.60 0.1167385
1003.70 0.1166987
1003.80 0.1166589
1003.90 0.1166192
1004.00 0.1165794
1004.10 0.1165397
1004.20 0.1164999
1004.30 0.1164602
1004.40 0.1164205
1004.50 0.1163808
1004.60 0.1163411
1004.70 0.1163015
1004.80 0.1162618
1004.90 0.1162222
1005.00 0.1161826
1005.10 0.116143
1005.20 0.1161034
1005.30 0.1160638
1005.40 0.1160242
1005.50 0.1159847
1005.60 0.1159451
1005.70 0.1159056
1005.80 0.1158661
1005.90 0.1158266
1006.00 0.1157871
1006.10 0.1157476
1006.20 0.1157081
1006.30 0.1156687
1006.40 0.1156293
1006.50 0.1155898
1006.60 0.1155504
1006.70 0.115511
1006.80 0.1154716
1006.90 0.1154323
1007.00 0.1153929
1007.10 0.1153536
1007.20 0.1153142
1007.30 0.1152749
1007.40 0.1152356
1007.50 0.1151963
1007.60 0.115157
1007.70 0.1151178
1007.80 0.1150785
1007.90 0.1150393
1008.00 0.1150001
1008.10 0.1149609
1008.20 0.1149217
1008.30 0.1148825
1008.40 0.1148433
1008.50 0.1148041
1008.60 0.114765
1008.70 0.1147259
1008.80 0.1146868
1008.90 0.1146476
1009.00 0.1146086
1009.10 0.1145695
1009.20 0.1145304
1009.30 0.1144914
1009.40 0.1144523
1009.50 0.1144133
1009.60 0.1143743
1009.70 0.1143353
1009.80 0.1142963
1009.90 0.1142573
1010.00 0.1142184
1010.10 0.1141794
1010.20 0.1141405
1010.30 0.1141016
1010.40 0.1140627
1010.50 0.1140238
1010.60 0.1139849
1010.70 0.113946
1010.80 0.1139072
1010.90 0.1138683
1011.00 0.1138295
1011.10 0.1137909
1011.20 0.1137522
1011.30 0.1137136
1011.40 0.113675
1011.50 0.1136364
1011.60 0.1135978
1011.70 0.1135593
1011.80 0.1135207
1011.90 0.1134822
1012.00 0.1134436
1012.10 0.1134051
1012.20 0.1133666
1012.30 0.1133281
1012.40 0.1132896
1012.50 0.1132512
1012.60 0.1132127
1012.70 0.1131743
1012.80 0.1131358
1012.90 0.1130974
1013.00 0.113059
1013.10 0.1130206
1013.20 0.1129822
1013.30 0.1129439
1013.40 0.1129055
1013.50 0.1128672
1013.60 0.1128289
1013.70 0.1127906
1013.80 0.1127523
1013.90 0.112714
1014.00 0.1126757
1014.10 0.1126374
1014.20 0.1125992
1014.30 0.1125609
1014.40 0.1125227
1014.50 0.1124845
1014.60 0.1124463
1014.70 0.1124081
1014.80 0.11237
1014.90 0.1123318
1015.00 0.1122937
1015.10 0.1122555
1015.20 0.1122174
1015.30 0.1121793
1015.40 0.1121412
1015.50 0.1121031
1015.60 0.1120651
1015.70 0.112027
1015.80 0.111989
1015.90 0.1119509
1016.00 0.1119129
1016.10 0.1118749
1016.20 0.1118369
1016.30 0.111799
1016.40 0.111761
1016.50 0.111723
1016.60 0.1116851
1016.70 0.1116472
1016.80 0.1116093
1016.90 0.1115714
1017.00 0.1115335
1017.10 0.1114956
1017.20 0.1114577
1017.30 0.1114199
1017.40 0.111382
1017.50 0.1113442
1017.60 0.1113064
1017.70 0.1112686
1017.80 0.1112308
1017.90 0.111193
1018.00 0.1111553
1018.10 0.1111175
1018.20 0.1110798
1018.30 0.1110421
1018.40 0.1110044
1018.50 0.1109667
1018.60 0.110929
1018.70 0.1108913
1018.80 0.1108536
1018.90 0.110816
1019.00 0.1107784
1019.10 0.1107407
1019.20 0.1107031
1019.30 0.1106655
1019.40 0.1106279
1019.50 0.1105904
1019.60 0.1105528
1019.70 0.1105153
1019.80 0.1104777
1019.90 0.1104402
1020.00 0.1104027
1020.10 0.1103652
1020.20 0.1103277
1020.30 0.1102903
1020.40 0.1102528
1020.50 0.1102154
1020.60 0.1101779
1020.70 0.1101405
1020.80 0.1101031
1020.90 0.1100657
1021.00 0.1100283
1021.10 0.109991
1021.20 0.1099538
1021.30 0.1099166
1021.40 0.1098794
1021.50 0.1098422
1021.60 0.1098051
1021.70 0.1097679
1021.80 0.1097308
1021.90 0.1096937
1022.00 0.1096566
1022.10 0.1096195
1022.20 0.1095824
1022.30 0.1095454
1022.40 0.1095083
1022.50 0.1094713
1022.60 0.1094343
1022.70 0.1093972
1022.80 0.1093602
1022.90 0.1093233
1023.00 0.1092863
1023.10 0.1092493
1023.20 0.1092124
1023.30 0.1091754
1023.40 0.1091385
1023.50 0.1091016
1023.60 0.1090647
1023.70 0.1090278
1023.80 0.1089909
1023.90 0.108954
1024.00 0.1089172
1024.10 0.1088803
1024.20 0.1088435
1024.30 0.1088067
1024.40 0.1087699
1024.50 0.1087331
1024.60 0.1086963
1024.70 0.1086596
1024.80 0.1086228
1024.90 0.1085861
1025.00 0.1085493
1025.10 0.1085126
1025.20 0.1084759
1025.30 0.1084392
1025.40 0.1084025
1025.50 0.1083659
1025.60 0.1083292
1025.70 0.1082926
1025.80 0.1082559
1025.90 0.1082193
1026.00 0.1081827
1026.10 0.1081461
1026.20 0.1081095
1026.30 0.108073
1026.40 0.1080364
1026.50 0.1079998
1026.60 0.1079633
1026.70 0.1079268
1026.80 0.1078903
1026.90 0.1078538
1027.00 0.1078173
1027.10 0.1077808
1027.20 0.1077443
1027.30 0.1077079
1027.40 0.1076714
1027.50 0.107635
1027.60 0.1075986
1027.70 0.1075622
1027.80 0.1075258
1027.90 0.1074894
1028.00 0.1074531
1028.10 0.1074167
1028.20 0.1073804
1028.30 0.107344
1028.40 0.1073077
1028.50 0.1072714
1028.60 0.1072351
1028.70 0.1071988
1028.80 0.1071626
1028.90 0.1071263
1029.00 0.10709
1029.10 0.1070538
1029.20 0.1070176
1029.30 0.1069814
1029.40 0.1069452
1029.50 0.106909
1029.60 0.1068728
1029.70 0.1068367
1029.80 0.1068005
1029.90 0.1067644
1030.00 0.1067282
1030.10 0.1066921
1030.20 0.106656
1030.30 0.1066199
1030.40 0.1065839
1030.50 0.1065478
1030.60 0.1065117
1030.70 0.1064757
1030.80 0.1064397
1030.90 0.1064036
1031.00 0.1063676
1031.10 0.1063316
1031.20 0.1062957
1031.30 0.1062597
1031.40 0.1062244
1031.50 0.1061892
1031.60 0.1061539
1031.70 0.1061187
1031.80 0.1060835
1031.90 0.1060483
1032.00 0.1060131
1032.10 0.1059779
1032.20 0.1059427
1032.30 0.1059076
1032.40 0.1058724
1032.50 0.1058373
1032.60 0.1058022
1032.70 0.1057671
1032.80 0.105732
1032.90 0.1056969
1033.00 0.1056618
1033.10 0.1056268
1033.20 0.1055917
1033.30 0.1055567
1033.40 0.1055216
1033.50 0.1054866
1033.60 0.1054516
1033.70 0.1054166
1033.80 0.1053816
1033.90 0.1053467
1034.00 0.1053117
1034.10 0.1052768
1034.20 0.1052418
1034.30 0.1052069
1034.40 0.105172
1034.50 0.1051371
1034.60 0.1051022
1034.70 0.1050673
1034.80 0.1050325
1034.90 0.1049976
1035.00 0.1049628
1035.10 0.1049279
1035.20 0.1048931
1035.30 0.1048583
1035.40 0.1048235
1035.50 0.1047887
1035.60 0.1047539
1035.70 0.1047192
1035.80 0.1046844
1035.90 0.1046497
1036.00 0.104615
1036.10 0.1045802
1036.20 0.1045455
1036.30 0.1045108
1036.40 0.1044762
1036.50 0.1044413
1036.60 0.1044061
1036.70 0.1043709
1036.80 0.1043357
1036.90 0.1043005
1037.00 0.1042654
1037.10 0.1042303
1037.20 0.1041951
1037.30 0.10416
1037.40 0.1041249
1037.50 0.1040898
1037.60 0.1040547
1037.70 0.1040196
1037.80 0.1039846
1037.90 0.1039495
1038.00 0.1039145
1038.10 0.1038795
1038.20 0.1038445
1038.30 0.1038095
1038.40 0.1037745
1038.50 0.1037395
1038.60 0.1037045
1038.70 0.1036696
1038.80 0.1036346
1038.90 0.1035997
1039.00 0.1035648
1039.10 0.1035298
1039.20 0.1034949
1039.30 0.1034601
1039.40 0.1034252
1039.50 0.1033903
1039.60 0.1033555
1039.70 0.1033206
1039.80 0.1032858
1039.90 0.103251
1040.00 0.1032162
1040.10 0.1031814
1040.20 0.1031466
1040.30 0.1031118
1040.40 0.1030771
1040.50 0.1030423
1040.60 0.1030076
1040.70 0.1029728
1040.80 0.1029381
1040.90 0.1029034
1041.00 0.1028687
1041.10 0.102834
1041.20 0.1027994
1041.30 0.1027647
1041.40 0.1027301
1041.50 0.1026954
1041.60 0.1026608
1041.70 0.1026268
1041.80 0.1025928
1041.90 0.1025589
1042.00 0.102525
1042.10 0.1024911
1042.20 0.1024572
1042.30 0.1024234
1042.40 0.1023895
1042.50 0.1023557
1042.60 0.1023218
1042.70 0.102288
1042.80 0.1022542
1042.90 0.1022204
1043.00 0.1021866
1043.10 0.1021528
1043.20 0.102119
1043.30 0.1020853
1043.40 0.1020515
1043.50 0.1020178
1043.60 0.1019841
1043.70 0.1019504
1043.80 0.1019167
1043.90 0.101883
1044.00 0.1018493
1044.10 0.1018156
1044.20 0.1017819
1044.30 0.1017483
1044.40 0.1017147
1044.50 0.101681
1044.60 0.1016474
1044.70 0.1016138
1044.80 0.1015802
1044.90 0.1015466
1045.00 0.1015131
1045.10 0.1014795
1045.20 0.101446
1045.30 0.1014124
1045.40 0.1013789
1045.50 0.1013454
1045.60 0.1013119
1045.70 0.1012784
1045.80 0.1012449
1045.90 0.1012114
1046.00 0.101178
1046.10 0.1011445
1046.20 0.1011111
1046.30 0.1010776
1046.40 0.1010442
1046.50 0.1010108
1046.60 0.1009774
1046.70 0.100944
1046.80 0.1009106
1046.90 0.1008773
1047.00 0.1008439
1047.10 0.1008106
1047.20 0.1007773
1047.30 0.1007439
1047.40 0.1007106
1047.50 0.1006773
1047.60 0.100644
1047.70 0.1006108
1047.80 0.1005775
1047.90 0.1005442
1048.00 0.100511
1048.10 0.1004778
1048.20 0.1004445
1048.30 0.1004113
1048.40 0.1003781
1048.50 0.1003449
1048.60 0.1003118
1048.70 0.1002786
1048.80 0.1002454
1048.90 0.1002123
1049.00 0.1001792
1049.10 0.100146
1049.20 0.1001129
1049.30 0.1000798
1049.40 0.1000467
1049.50 0.1000136
1049.60 0.09998057
1049.70 0.09994751
1049.80 0.09991446
1049.90 0.09988143
1050.00 0.0998484
1050.10 0.09981538
1050.20 0.09978237
1050.30 0.09974938
1050.40 0.09971639
1050.50 0.09968342
1050.60 0.09965046
1050.70 0.09961751
1050.80 0.09958456
1050.90 0.09955163
1051.00 0.09951871
1051.10 0.0994858
1051.20 0.0994529
1051.30 0.09942002
1051.40 0.09938714
1051.50 0.09935427
1051.60 0.09932142
1051.70 0.09928857
1051.80 0.09925574
1051.90 0.09922291
1052.00 0.0991901
1052.10 0.09915739
1052.20 0.09912474
1052.30 0.0990921
1052.40 0.09905946
1052.50 0.09902684
1052.60 0.09899423
1052.70 0.09896163
1052.80 0.09892904
1052.90 0.09889647
1053.00 0.0988639
1053.10 0.09883134
1053.20 0.09879879
1053.30 0.09876626
1053.40 0.09873373
1053.50 0.09870122
1053.60 0.09866871
1053.70 0.09863622
1053.80 0.09860374
1053.90 0.09857126
1054.00 0.0985388
1054.10 0.09850635
1054.20 0.09847391
1054.30 0.09844148
1054.40 0.09840906
1054.50 0.09837665
1054.60 0.09834425
1054.70 0.09831186
1054.80 0.09827948
1054.90 0.09824712
1055.00 0.09821476
1055.10 0.09818241
1055.20 0.09815008
1055.30 0.09811775
1055.40 0.09808544
1055.50 0.09805313
1055.60 0.09802084
1055.70 0.09798856
1055.80 0.09795628
1055.90 0.09792402
1056.00 0.09789177
1056.10 0.09785953
1056.20 0.0978273
1056.30 0.09779508
1056.40 0.09776286
1056.50 0.09773067
1056.60 0.09769848
1056.70 0.0976663
1056.80 0.09763413
1056.90 0.09760197
1057.00 0.09756982
1057.10 0.09753769
1057.20 0.09750556
1057.30 0.09747344
1057.40 0.09744134
1057.50 0.09740924
1057.60 0.09737716
1057.70 0.09734508
1057.80 0.09731302
1057.90 0.09728096
1058.00 0.09724892
1058.10 0.09721689
1058.20 0.09718486
1058.30 0.09715285
1058.40 0.09712085
1058.50 0.09708886
1058.60 0.09705687
1058.70 0.0970249
1058.80 0.09699294
1058.90 0.09696099
1059.00 0.09692905
1059.10 0.09689712
1059.20 0.0968652
1059.30 0.09683329
1059.40 0.09680139
1059.50 0.09676951
1059.60 0.09673763
1059.70 0.09670576
1059.80 0.0966739
1059.90 0.09664206
1060.00 0.09661022
1060.10 0.09657839
1060.20 0.09654658
1060.30 0.09651477
1060.40 0.09648297
1060.50 0.09645119
1060.60 0.09641941
1060.70 0.09638765
1060.80 0.09635589
1060.90 0.09632415
1061.00 0.09629241
1061.10 0.09626069
1061.20 0.09622898
1061.30 0.09619727
1061.40 0.09616558
1061.50 0.0961339
1061.60 0.09610222
1061.70 0.09607056
1061.80 0.09603891
1061.90 0.09600727
1062.00 0.09597564
1062.10 0.09594401
1062.20 0.0959124
1062.30 0.0958808
1062.40 0.09584921
1062.50 0.09581763
1062.60 0.09578612
1062.70 0.09575469
1062.80 0.09572328
1062.90 0.09569187
1063.00 0.09566047
1063.10 0.09562909
1063.20 0.09559771
1063.30 0.09556635
1063.40 0.09553499
1063.50 0.09550364
1063.60 0.09547231
1063.70 0.09544098
1063.80 0.09540967
1063.90 0.09537836
1064.00 0.09534707
1064.10 0.09531578
1064.20 0.09528451
1064.30 0.09525324
1064.40 0.09522198
1064.50 0.09519074
1064.60 0.0951595
1064.70 0.09512828
1064.80 0.09509707
1064.90 0.09506586
1065.00 0.09503467
1065.10 0.09500348
1065.20 0.09497231
1065.30 0.09494114
1065.40 0.09490999
1065.50 0.09487884
1065.60 0.09484771
1065.70 0.09481658
1065.80 0.09478547
1065.90 0.09475436
1066.00 0.09472327
1066.10 0.09469218
1066.20 0.09466111
1066.30 0.09463005
1066.40 0.09459899
1066.50 0.09456795
1066.60 0.09453691
1066.70 0.09450589
1066.80 0.09447487
1066.90 0.09444387
1067.00 0.09441287
1067.10 0.09438189
1067.20 0.09435091
1067.30 0.09431995
1067.40 0.09428899
1067.50 0.09425805
1067.60 0.09422711
1067.70 0.09419619
1067.80 0.09416527
1067.90 0.09413453
1068.00 0.09410412
1068.10 0.09407373
1068.20 0.09404334
1068.30 0.09401296
1068.40 0.09398259
1068.50 0.09395224
1068.60 0.09392189
1068.70 0.09389155
1068.80 0.09386122
1068.90 0.0938309
1069.00 0.09380059
1069.10 0.09377029
1069.20 0.09374
1069.30 0.09370972
1069.40 0.09367945
1069.50 0.09364919
1069.60 0.09361894
1069.70 0.0935887
1069.80 0.09355847
1069.90 0.09352825
1070.00 0.09349803
1070.10 0.09346783
1070.20 0.09343764
1070.30 0.09340746
1070.40 0.09337728
1070.50 0.09334712
1070.60 0.09331696
1070.70 0.09328682
1070.80 0.09325668
1070.90 0.09322656
1071.00 0.09319644
1071.10 0.09316634
1071.20 0.09313624
1071.30 0.09310615
1071.40 0.09307607
1071.50 0.09304601
1071.60 0.09301595
1071.70 0.0929859
1071.80 0.09295586
1071.90 0.09292583
1072.00 0.09289581
1072.10 0.0928658
1072.20 0.0928358
1072.30 0.09280581
1072.40 0.09277583
1072.50 0.09274585
1072.60 0.09271589
1072.70 0.09268594
1072.80 0.092656
1072.90 0.09262606
1073.00 0.09259614
1073.10 0.09256622
1073.20 0.09253624
1073.30 0.09250599
1073.40 0.09247575
1073.50 0.09244552
1073.60 0.0924153
1073.70 0.09238509
1073.80 0.09235489
1073.90 0.0923247
1074.00 0.09229451
1074.10 0.09226434
1074.20 0.09223418
1074.30 0.09220402
1074.40 0.09217388
1074.50 0.09214375
1074.60 0.09211362
1074.70 0.09208351
1074.80 0.0920534
1074.90 0.0920233
1075.00 0.09199322
1075.10 0.09196314
1075.20 0.09193307
1075.30 0.09190302
1075.40 0.09187297
1075.50 0.09184293
1075.60 0.0918129
1075.70 0.09178288
1075.80 0.09175287
1075.90 0.09172287
1076.00 0.09169288
1076.10 0.0916629
1076.20 0.09163293
1076.30 0.09160297
1076.40 0.09157302
1076.50 0.09154307
1076.60 0.09151314
1076.70 0.09148322
1076.80 0.0914533
1076.90 0.0914234
1077.00 0.0913935
1077.10 0.09136362
1077.20 0.09133374
1077.30 0.09130388
1077.40 0.09127402
1077.50 0.09124417
1077.60 0.09121433
1077.70 0.09118451
1077.80 0.09115469
1077.90 0.09112488
1078.00 0.09109508
1078.10 0.09106529
1078.20 0.09103551
1078.30 0.09100574
1078.40 0.09097597
1078.50 0.09094622
1078.60 0.09091674
1078.70 0.09088748
1078.80 0.09085824
1078.90 0.090829
1079.00 0.09079977
1079.10 0.09077055
1079.20 0.09074134
1079.30 0.09071214
1079.40 0.09068295
1079.50 0.09065377
1079.60 0.09062459
1079.70 0.09059543
1079.80 0.09056627
1079.90 0.09053713
1080.00 0.09050799
1080.10 0.09047886
1080.20 0.09044975
1080.30 0.09042064
1080.40 0.09039154
1080.50 0.09036245
1080.60 0.09033337
1080.70 0.0903043
1080.80 0.09027523
1080.90 0.09024618
1081.00 0.09021714
1081.10 0.0901881
1081.20 0.09015908
1081.30 0.09013006
1081.40 0.09010105
1081.50 0.09007205
1081.60 0.09004307
1081.70 0.09001409
1081.80 0.08998512
1081.90 0.08995615
1082.00 0.0899272
1082.10 0.08989826
1082.20 0.08986933
1082.30 0.0898404
1082.40 0.08981149
1082.50 0.08978258
1082.60 0.08975368
1082.70 0.08972479
1082.80 0.08969592
1082.90 0.08966705
1083.00 0.08963818
1083.10 0.08960933
1083.20 0.08958049
1083.30 0.08955166
1083.40 0.08952283
1083.50 0.08949402
1083.60 0.08946521
1083.70 0.08943642
1083.80 0.08940763
1083.90 0.08937885
1084.00 0.08935019
1084.10 0.08932155
1084.20 0.08929292
1084.30 0.0892643
1084.40 0.08923569
1084.50 0.08920709
1084.60 0.0891785
1084.70 0.08914991
1084.80 0.08912134
1084.90 0.08909277
1085.00 0.08906421
1085.10 0.08903567
1085.20 0.08900713
1085.30 0.0889786
1085.40 0.08895008
1085.50 0.08892156
1085.60 0.08889306
1085.70 0.08886457
1085.80 0.08883608
1085.90 0.08880761
1086.00 0.08877914
1086.10 0.08875068
1086.20 0.08872223
1086.30 0.08869379
1086.40 0.08866536
1086.50 0.08863694
1086.60 0.08860853
1086.70 0.08858012
1086.80 0.08855173
1086.90 0.08852334
1087.00 0.08849496
1087.10 0.0884666
1087.20 0.08843824
1087.30 0.08840989
1087.40 0.08838155
1087.50 0.08835321
1087.60 0.08832489
1087.70 0.08829657
1087.80 0.08826827
1087.90 0.08823997
1088.00 0.08821168
1088.10 0.0881834
1088.20 0.08815513
1088.30 0.08812687
1088.40 0.08809862
1088.50 0.08807038
1088.60 0.08804214
1088.70 0.08801392
1088.80 0.0879857
1088.90 0.08795749
1089.00 0.08792929
1089.10 0.0879011
1089.20 0.08787292
1089.30 0.08784475
1089.40 0.08781658
1089.50 0.08778843
1089.60 0.08776028
1089.70 0.08773214
1089.80 0.08770401
1089.90 0.08767589
1090.00 0.08764778
1090.10 0.08761967
1090.20 0.08759158
1090.30 0.08756349
1090.40 0.08753541
1090.50 0.08750734
1090.60 0.08747928
1090.70 0.08745123
1090.80 0.08742319
1090.90 0.08739516
1091.00 0.08736713
1091.10 0.08733912
1091.20 0.08731111
1091.30 0.08728311
1091.40 0.08725512
1091.50 0.08722714
1091.60 0.08719917
1091.70 0.08717121
1091.80 0.08714325
1091.90 0.08711531
1092.00 0.08708737
1092.10 0.08705945
1092.20 0.08703153
1092.30 0.08700362
1092.40 0.08697571
1092.50 0.08694782
1092.60 0.08691994
1092.70 0.08689206
1092.80 0.0868642
1092.90 0.08683634
1093.00 0.08680849
1093.10 0.08678065
1093.20 0.08675282
1093.30 0.08672499
1093.40 0.08669718
1093.50 0.08666938
1093.60 0.08664158
1093.70 0.08661379
1093.80 0.08658601
1093.90 0.08655824
1094.00 0.08653048
1094.10 0.08650273
1094.20 0.08647498
1094.30 0.08644725
1094.40 0.08641952
1094.50 0.0863918
1094.60 0.08636409
1094.70 0.08633639
1094.80 0.08630876
1094.90 0.08628119
1095.00 0.08625364
1095.10 0.08622609
1095.20 0.08619855
1095.30 0.08617102
1095.40 0.0861435
1095.50 0.08611599
1095.60 0.08608849
1095.70 0.08606099
1095.80 0.08603351
1095.90 0.08600603
1096.00 0.08597856
1096.10 0.0859511
1096.20 0.08592365
1096.30 0.0858962
1096.40 0.08586877
1096.50 0.08584134
1096.60 0.08581393
1096.70 0.08578652
1096.80 0.08575912
1096.90 0.08573172
1097.00 0.08570434
1097.10 0.08567697
1097.20 0.0856496
1097.30 0.08562224
1097.40 0.08559489
1097.50 0.08556755
1097.60 0.08554022
1097.70 0.0855129
1097.80 0.08548558
1097.90 0.08545828
1098.00 0.08543098
1098.10 0.08540369
1098.20 0.08537641
1098.30 0.08534914
1098.40 0.08532187
1098.50 0.08529462
1098.60 0.08526737
1098.70 0.08524013
1098.80 0.0852129
1098.90 0.08518568
1099.00 0.08515847
1099.10 0.08513126
1099.20 0.08510407
1099.30 0.08507688
1099.40 0.0850497
1099.50 0.08502253
1099.60 0.08499537
1099.70 0.08496822
1099.80 0.08494107
1099.90 0.08491393
1100.00 0.08488681
1100.10 0.08485969
1100.20 0.08483258
1100.30 0.08480547
1100.40 0.08477838
1100.50 0.08475129
1100.60 0.08472422
1100.70 0.08469715
1100.80 0.08467009
1100.90 0.08464303
1101.00 0.08461599
1101.10 0.08458896
1101.20 0.08456193
1101.30 0.08453491
1101.40 0.0845079
1101.50 0.0844809
1101.60 0.08445391
1101.70 0.08442692
1101.80 0.08439995
1101.90 0.08437298
1102.00 0.08434602
1102.10 0.08431907
1102.20 0.08429212
1102.30 0.08426519
1102.40 0.08423826
1102.50 0.08421135
1102.60 0.08418444
1102.70 0.08415754
1102.80 0.08413064
1102.90 0.08410376
1103.00 0.08407689
1103.10 0.08405002
1103.20 0.08402316
1103.30 0.08399631
1103.40 0.08396947
1103.50 0.08394263
1103.60 0.08391581
1103.70 0.08388899
1103.80 0.08386218
1103.90 0.08383538
1104.00 0.08380859
1104.10 0.0837818
1104.20 0.08375503
1104.30 0.08372826
1104.40 0.0837015
1104.50 0.08367475
1104.60 0.08364801
1104.70 0.08362128
1104.80 0.08359455
1104.90 0.08356783
1105.00 0.08354112
1105.10 0.08351442
1105.20 0.08348773
1105.30 0.08346105
1105.40 0.08343437
1105.50 0.0834077
1105.60 0.08338104
1105.70 0.0833544
1105.80 0.08332809
1105.90 0.08330179
1106.00 0.0832755
1106.10 0.08324922
1106.20 0.08322294
1106.30 0.08319667
1106.40 0.08317041
1106.50 0.08314416
1106.60 0.08311792
1106.70 0.08309168
1106.80 0.08306546
1106.90 0.08303924
1107.00 0.08301303
1107.10 0.08298682
1107.20 0.08296063
1107.30 0.08293444
1107.40 0.08290826
1107.50 0.08288209
1107.60 0.08285593
1107.70 0.08282978
1107.80 0.08280363
1107.90 0.08277749
1108.00 0.08275136
1108.10 0.08272524
1108.20 0.08269913
1108.30 0.08267302
1108.40 0.08264693
1108.50 0.08262084
1108.60 0.08259476
1108.70 0.08256868
1108.80 0.08254262
1108.90 0.08251656
1109.00 0.08249051
1109.10 0.08246447
1109.20 0.08243844
1109.30 0.08241241
1109.40 0.0823864
1109.50 0.08236039
1109.60 0.08233439
1109.70 0.08230839
1109.80 0.08228241
1109.90 0.08225643
1110.00 0.08223046
1110.10 0.0822045
1110.20 0.08217855
1110.30 0.08215261
1110.40 0.08212667
1110.50 0.08210074
1110.60 0.08207482
1110.70 0.08204891
1110.80 0.082023
1110.90 0.08199711
1111.00 0.08197122
1111.10 0.08194534
1111.20 0.08191946
1111.30 0.0818936
1111.40 0.08186774
1111.50 0.08184189
1111.60 0.08181605
1111.70 0.08179022
1111.80 0.0817644
1111.90 0.08173858
1112.00 0.08171277
1112.10 0.08168697
1112.20 0.08166118
1112.30 0.08163539
1112.40 0.08160961
1112.50 0.08158385
1112.60 0.08155808
1112.70 0.08153233
1112.80 0.08150659
1112.90 0.08148085
1113.00 0.08145512
1113.10 0.0814294
1113.20 0.08140368
1113.30 0.08137798
1113.40 0.08135228
1113.50 0.08132659
1113.60 0.08130091
1113.70 0.08127524
1113.80 0.08124957
1113.90 0.08122391
1114.00 0.08119826
1114.10 0.08117262
1114.20 0.08114698
1114.30 0.08112136
1114.40 0.08109574
1114.50 0.08107013
1114.60 0.08104453
1114.70 0.08101893
1114.80 0.08099334
1114.90 0.08096776
1115.00 0.08094219
1115.10 0.08091663
1115.20 0.08089107
1115.30 0.08086553
1115.40 0.08083999
1115.50 0.08081445
1115.60 0.08078893
1115.70 0.08076341
1115.80 0.08073791
1115.90 0.08071241
1116.00 0.08068691
1116.10 0.08066143
1116.20 0.08063595
1116.30 0.08061048
1116.40 0.08058502
1116.50 0.08055957
1116.60 0.08053412
1116.70 0.08050868
1116.80 0.0804834
1116.90 0.0804583
1117.00 0.08043321
1117.10 0.08040812
1117.20 0.08038305
1117.30 0.08035798
1117.40 0.08033292
1117.50 0.08030787
1117.60 0.08028282
1117.70 0.08025778
1117.80 0.08023275
1117.90 0.08020773
1118.00 0.08018272
1118.10 0.08015771
1118.20 0.08013271
1118.30 0.08010772
1118.40 0.08008273
1118.50 0.08005776
1118.60 0.08003279
1118.70 0.08000783
1118.80 0.07998287
1118.90 0.07995793
1119.00 0.07993299
1119.10 0.07990806
1119.20 0.07988314
1119.30 0.07985822
1119.40 0.07983331
1119.50 0.07980841
1119.60 0.07978352
1119.70 0.07975864
1119.80 0.07973376
1119.90 0.07970889
1120.00 0.07968403
1120.10 0.07965918
1120.20 0.07963433
1120.30 0.07960949
1120.40 0.07958466
1120.50 0.07955983
1120.60 0.07953502
1120.70 0.07951021
1120.80 0.07948541
1120.90 0.07946061
1121.00 0.07943583
1121.10 0.07941105
1121.20 0.07938628
1121.30 0.07936152
1121.40 0.07933676
1121.50 0.07931201
1121.60 0.07928727
1121.70 0.07926254
1121.80 0.07923781
1121.90 0.0792131
1122.00 0.07918839
1122.10 0.07916368
1122.20 0.07913899
1122.30 0.0791143
1122.40 0.07908962
1122.50 0.07906494
1122.60 0.07904028
1122.70 0.07901562
1122.80 0.07899097
1122.90 0.07896632
1123.00 0.07894169
1123.10 0.07891706
1123.20 0.07889243
1123.30 0.07886782
1123.40 0.07884321
1123.50 0.07881861
1123.60 0.07879402
1123.70 0.07876944
1123.80 0.07874486
1123.90 0.07872029
1124.00 0.07869573
1124.10 0.07867118
1124.20 0.07864663
1124.30 0.07862209
1124.40 0.07859756
1124.50 0.07857303
1124.60 0.07854852
1124.70 0.07852401
1124.80 0.07849951
1124.90 0.07847501
1125.00 0.07845053
1125.10 0.07842605
1125.20 0.07840157
1125.30 0.07837711
1125.40 0.07835265
1125.50 0.0783282
1125.60 0.07830376
1125.70 0.07827933
1125.80 0.0782549
1125.90 0.07823048
1126.00 0.07820607
1126.10 0.07818166
1126.20 0.07815726
1126.30 0.07813287
1126.40 0.07810849
1126.50 0.07808412
1126.60 0.07805975
1126.70 0.07803539
1126.80 0.07801104
1126.90 0.07798669
1127.00 0.07796235
1127.10 0.07793802
1127.20 0.0779137
1127.30 0.07788938
1127.40 0.07786507
1127.50 0.07784077
1127.60 0.07781648
1127.70 0.07779219
1127.80 0.07776791
1127.90 0.07774364
1128.00 0.07771946
1128.10 0.07769531
1128.20 0.07767117
1128.30 0.07764703
1128.40 0.0776229
1128.50 0.07759878
1128.60 0.07757467
1128.70 0.07755056
1128.80 0.07752646
1128.90 0.07750237
1129.00 0.07747828
1129.10 0.0774542
1129.20 0.07743013
1129.30 0.07740607
1129.40 0.07738202
1129.50 0.07735797
1129.60 0.07733393
1129.70 0.07730989
1129.80 0.07728587
1129.90 0.07726185
1130.00 0.07723783
1130.10 0.07721383
1130.20 0.07718983
1130.30 0.07716584
1130.40 0.07714186
1130.50 0.07711788
1130.60 0.07709392
1130.70 0.07706996
1130.80 0.077046
1130.90 0.07702206
1131.00 0.07699812
1131.10 0.07697418
1131.20 0.07695026
1131.30 0.07692634
1131.40 0.07690243
1131.50 0.07687853
1131.60 0.07685463
1131.70 0.07683075
1131.80 0.07680687
1131.90 0.07678299
1132.00 0.07675912
1132.10 0.07673527
1132.20 0.07671141
1132.30 0.07668757
1132.40 0.07666373
1132.50 0.0766399
1132.60 0.07661608
1132.70 0.07659226
1132.80 0.07656845
1132.90 0.07654465
1133.00 0.07652086
1133.10 0.07649707
1133.20 0.07647329
1133.30 0.07644952
1133.40 0.07642575
1133.50 0.07640199
1133.60 0.07637824
1133.70 0.0763545
1133.80 0.07633076
1133.90 0.07630703
1134.00 0.07628331
1134.10 0.07625959
1134.20 0.07623588
1134.30 0.07621218
1134.40 0.07618849
1134.50 0.0761648
1134.60 0.07614112
1134.70 0.07611745
1134.80 0.07609379
1134.90 0.07607013
1135.00 0.07604648
1135.10 0.07602283
1135.20 0.0759992
1135.30 0.07597557
1135.40 0.07595195
1135.50 0.07592833
1135.60 0.07590472
1135.70 0.07588112
1135.80 0.07585753
1135.90 0.07583394
1136.00 0.07581036
1136.10 0.07578679
1136.20 0.07576323
1136.30 0.07573967
1136.40 0.07571612
1136.50 0.07569257
1136.60 0.07566904
1136.70 0.07564551
1136.80 0.07562198
1136.90 0.07559847
1137.00 0.07557496
1137.10 0.07555146
1137.20 0.07552797
1137.30 0.07550448
1137.40 0.075481
1137.50 0.07545753
1137.60 0.07543406
1137.70 0.0754106
1137.80 0.07538715
1137.90 0.07536371
1138.00 0.07534027
1138.10 0.07531684
1138.20 0.07529342
1138.30 0.07527
1138.40 0.07524659
1138.50 0.07522319
1138.60 0.07519979
1138.70 0.07517641
1138.80 0.07515303
1138.90 0.07512965
1139.00 0.07510628
1139.10 0.07508293
1139.20 0.07505957
1139.30 0.07503632
1139.40 0.07501309
1139.50 0.07498985
1139.60 0.07496663
1139.70 0.07494341
1139.80 0.0749202
1139.90 0.074897
1140.00 0.0748738
1140.10 0.07485061
1140.20 0.07482743
1140.30 0.07480425
1140.40 0.07478109
1140.50 0.07475792
1140.60 0.07473477
1140.70 0.07471162
1140.80 0.07468848
1140.90 0.07466535
1141.00 0.07464222
1141.10 0.0746191
1141.20 0.07459599
1141.30 0.07457288
1141.40 0.07454978
1141.50 0.07452669
1141.60 0.0745036
1141.70 0.07448053
1141.80 0.07445745
1141.90 0.07443439
1142.00 0.07441133
1142.10 0.07438828
1142.20 0.07436524
1142.30 0.0743422
1142.40 0.07431917
1142.50 0.07429615
1142.60 0.07427313
1142.70 0.07425012
1142.80 0.07422712
1142.90 0.07420413
1143.00 0.07418114
1143.10 0.07415816
1143.20 0.07413518
1143.30 0.07411222
1143.40 0.07408926
1143.50 0.0740663
1143.60 0.07404336
1143.70 0.07402042
1143.80 0.07399748
1143.90 0.07397456
1144.00 0.07395164
1144.10 0.07392873
1144.20 0.07390582
1144.30 0.07388292
1144.40 0.07386003
1144.50 0.07383714
1144.60 0.07381427
1144.70 0.0737914
1144.80 0.07376853
1144.90 0.07374567
1145.00 0.07372282
1145.10 0.07369998
1145.20 0.07367714
1145.30 0.07365431
1145.40 0.07363149
1145.50 0.07360867
1145.60 0.07358586
1145.70 0.07356306
1145.80 0.07354027
1145.90 0.07351748
1146.00 0.07349469
1146.10 0.07347192
1146.20 0.07344915
1146.30 0.07342639
1146.40 0.07340364
1146.50 0.07338089
1146.60 0.07335815
1146.70 0.07333541
1146.80 0.07331268
1146.90 0.07328996
1147.00 0.07326725
1147.10 0.07324454
1147.20 0.07322184
1147.30 0.07319915
1147.40 0.07317646
1147.50 0.07315378
1147.60 0.07313111
1147.70 0.07310844
1147.80 0.07308578
1147.90 0.07306313
1148.00 0.07304049
1148.10 0.07301785
1148.20 0.07299521
1148.30 0.07297259
1148.40 0.07294997
1148.50 0.07292736
1148.60 0.07290475
1148.70 0.07288215
1148.80 0.07285956
1148.90 0.07283698
1149.00 0.0728144
1149.10 0.07279183
1149.20 0.07276926
1149.30 0.0727467
1149.40 0.07272415
1149.50 0.07270161
1149.60 0.07267907
1149.70 0.07265654
1149.80 0.07263402
1149.90 0.0726115
1150.00 0.07258899
1150.10 0.07256648
1150.20 0.07254399
1150.30 0.0725215
1150.40 0.07249901
1150.50 0.07247653
1150.60 0.07245409
1150.70 0.07243212
1150.80 0.07241015
1150.90 0.07238818
1151.00 0.07236623
1151.10 0.07234428
1151.20 0.07232233
1151.30 0.07230039
1151.40 0.07227846
1151.50 0.07225654
1151.60 0.07223462
1151.70 0.07221271
1151.80 0.07219081
1151.90 0.07216891
1152.00 0.07214702
1152.10 0.07212513
1152.20 0.07210325
1152.30 0.07208138
1152.40 0.07205951
1152.50 0.07203766
1152.60 0.0720158
1152.70 0.07199396
1152.80 0.07197212
1152.90 0.07195028
1153.00 0.07192846
1153.10 0.07190664
1153.20 0.07188482
1153.30 0.07186302
1153.40 0.07184121
1153.50 0.07181942
1153.60 0.07179763
1153.70 0.07177585
1153.80 0.07175408
1153.90 0.07173231
1154.00 0.07171055
1154.10 0.07168879
1154.20 0.07166704
1154.30 0.0716453
1154.40 0.07162356
1154.50 0.07160183
1154.60 0.07158011
1154.70 0.07155839
1154.80 0.07153668
1154.90 0.07151498
1155.00 0.07149328
1155.10 0.07147159
1155.20 0.07144991
1155.30 0.07142823
1155.40 0.07140656
1155.50 0.07138489
1155.60 0.07136323
1155.70 0.07134158
1155.80 0.07131994
1155.90 0.0712983
1156.00 0.07127666
1156.10 0.07125504
1156.20 0.07123342
1156.30 0.0712118
1156.40 0.07118999
1156.50 0.071168
1156.60 0.07114602
1156.70 0.07112405
1156.80 0.07110209
1156.90 0.07108013
1157.00 0.07105818
1157.10 0.07103623
1157.20 0.07101429
1157.30 0.07099236
1157.40 0.07097043
1157.50 0.07094851
1157.60 0.0709266
1157.70 0.0709047
1157.80 0.0708828
1157.90 0.0708609
1158.00 0.07083902
1158.10 0.07081714
1158.20 0.07079526
1158.30 0.07077339
1158.40 0.07075153
1158.50 0.07072968
1158.60 0.07070783
1158.70 0.07068599
1158.80 0.07066415
1158.90 0.07064233
1159.00 0.0706205
1159.10 0.07059869
1159.20 0.07057688
1159.30 0.07055508
1159.40 0.07053328
1159.50 0.07051149
1159.60 0.07048971
1159.70 0.07046793
1159.80 0.07044616
1159.90 0.0704244
1160.00 0.07040264
1160.10 0.07038089
1160.20 0.07035915
1160.30 0.07033741
1160.40 0.07031568
1160.50 0.07029395
1160.60 0.07027223
1160.70 0.07025052
1160.80 0.07022881
1160.90 0.07020712
1161.00 0.07018542
1161.10 0.07016374
1161.20 0.07014206
1161.30 0.07012038
1161.40 0.07009872
1161.50 0.07007706
1161.60 0.0700554
1161.70 0.07003375
1161.80 0.07001211
1161.90 0.06999048
1162.00 0.06996885
1162.10 0.06994723
1162.20 0.06992608
1162.30 0.06990494
1162.40 0.06988381
1162.50 0.06986269
1162.60 0.06984157
1162.70 0.06982046
1162.80 0.06979935
1162.90 0.06977825
1163.00 0.06975715
1163.10 0.06973607
1163.20 0.06971498
1163.30 0.06969391
1163.40 0.06967284
1163.50 0.06965178
1163.60 0.06963072
1163.70 0.06960967
1163.80 0.06958863
1163.90 0.06956759
1164.00 0.06954655
1164.10 0.06952553
1164.20 0.06950451
1164.30 0.0694835
1164.40 0.06946249
1164.50 0.06944149
1164.60 0.06942049
1164.70 0.0693995
1164.80 0.06937852
1164.90 0.06935755
1165.00 0.06933658
1165.10 0.06931561
1165.20 0.06929465
1165.30 0.0692737
1165.40 0.06925276
1165.50 0.06923182
1165.60 0.06921088
1165.70 0.06918996
1165.80 0.06916904
1165.90 0.06914812
1166.00 0.06912721
1166.10 0.06910631
1166.20 0.06908542
1166.30 0.06906453
1166.40 0.06904364
1166.50 0.06902276
1166.60 0.06900189
1166.70 0.06898103
1166.80 0.06896017
1166.90 0.06893931
1167.00 0.06891847
1167.10 0.06889763
1167.20 0.06887679
1167.30 0.06885596
1167.40 0.06883514
1167.50 0.06881432
1167.60 0.06879351
1167.70 0.06877271
1167.80 0.06875191
1167.90 0.06873112
1168.00 0.06871034
1168.10 0.06868956
1168.20 0.06866879
1168.30 0.06864802
1168.40 0.06862726
1168.50 0.06860651
1168.60 0.06858576
1168.70 0.06856502
1168.80 0.06854428
1168.90 0.06852355
1169.00 0.06850283
1169.10 0.06848211
1169.20 0.0684614
1169.30 0.0684407
1169.40 0.06842
1169.50 0.0683993
1169.60 0.06837862
1169.70 0.06835794
1169.80 0.06833726
1169.90 0.06831659
1170.00 0.06829593
1170.10 0.06827528
1170.20 0.06825463
1170.30 0.06823398
1170.40 0.06821334
1170.50 0.06819271
1170.60 0.06817208
1170.70 0.06815146
1170.80 0.06813085
1170.90 0.06811024
1171.00 0.06808964
1171.10 0.06806904
1171.20 0.06804845
1171.30 0.06802787
1171.40 0.06800729
1171.50 0.06798672
1171.60 0.06796616
1171.70 0.0679456
1171.80 0.06792504
1171.90 0.0679045
1172.00 0.06788395
1172.10 0.06786342
1172.20 0.06784289
1172.30 0.06782237
1172.40 0.06780185
1172.50 0.06778134
1172.60 0.06776083
1172.70 0.06774033
1172.80 0.06771984
1172.90 0.06769935
1173.00 0.06767887
1173.10 0.06765839
1173.20 0.06763792
1173.30 0.06761746
1173.40 0.067597
1173.50 0.06757655
1173.60 0.06755611
1173.70 0.06753567
1173.80 0.0675153
1173.90 0.06749496
1174.00 0.06747463
1174.10 0.0674543
1174.20 0.06743397
1174.30 0.06741366
1174.40 0.06739335
1174.50 0.06737304
1174.60 0.06735274
1174.70 0.06733245
1174.80 0.06731216
1174.90 0.06729188
1175.00 0.0672716
1175.10 0.06725133
1175.20 0.06723107
1175.30 0.06721081
1175.40 0.06719056
1175.50 0.06717032
1175.60 0.06715008
1175.70 0.06712984
1175.80 0.06710961
1175.90 0.06708939
1176.00 0.06706917
1176.10 0.06704896
1176.20 0.06702876
1176.30 0.06700856
1176.40 0.06698837
1176.50 0.06696818
1176.60 0.066948
1176.70 0.06692783
1176.80 0.06690766
1176.90 0.06688749
1177.00 0.06686734
1177.10 0.06684718
1177.20 0.06682704
1177.30 0.0668069
1177.40 0.06678676
1177.50 0.06676664
1177.60 0.06674651
1177.70 0.0667264
1177.80 0.06670629
1177.90 0.06668618
1178.00 0.06666609
1178.10 0.06664599
1178.20 0.06662591
1178.30 0.06660582
1178.40 0.06658575
1178.50 0.06656568
1178.60 0.06654562
1178.70 0.06652556
1178.80 0.06650551
1178.90 0.06648546
1179.00 0.06646542
1179.10 0.06644539
1179.20 0.06642536
1179.30 0.06640534
1179.40 0.06638532
1179.50 0.06636531
1179.60 0.0663453
1179.70 0.06632531
1179.80 0.06630531
1179.90 0.06628533
1180.00 0.06626535
1180.10 0.06624537
1180.20 0.0662254
1180.30 0.06620544
1180.40 0.06618548
1180.50 0.06616553
1180.60 0.06614559
1180.70 0.06612565
1180.80 0.06610571
1180.90 0.06608579
1181.00 0.06606586
1181.10 0.06604595
1181.20 0.06602604
1181.30 0.06600613
1181.40 0.06598623
1181.50 0.06596634
1181.60 0.06594645
1181.70 0.06592657
1181.80 0.0659067
1181.90 0.06588683
1182.00 0.06586696
1182.10 0.0658471
1182.20 0.06582725
1182.30 0.0658074
1182.40 0.06578756
1182.50 0.06576773
1182.60 0.0657479
1182.70 0.06572807
1182.80 0.06570825
1182.90 0.06568844
1183.00 0.06566864
1183.10 0.06564883
1183.20 0.06562904
1183.30 0.06560925
1183.40 0.06558947
1183.50 0.06556969
1183.60 0.06554992
1183.70 0.06553015
1183.80 0.06551039
1183.90 0.06549064
1184.00 0.06547089
1184.10 0.06545114
1184.20 0.0654314
1184.30 0.06541167
1184.40 0.06539195
1184.50 0.06537223
1184.60 0.06535251
1184.70 0.0653328
1184.80 0.0653131
1184.90 0.0652934
1185.00 0.06527371
1185.10 0.06525402
1185.20 0.06523434
1185.30 0.06521467
1185.40 0.065195
1185.50 0.06517552
1185.60 0.06515631
1185.70 0.0651371
1185.80 0.06511789
1185.90 0.06509869
1186.00 0.0650795
1186.10 0.06506031
1186.20 0.06504113
1186.30 0.06502195
1186.40 0.06500278
1186.50 0.06498362
1186.60 0.06496446
1186.70 0.0649453
1186.80 0.06492616
1186.90 0.06490701
1187.00 0.06488787
1187.10 0.06486874
1187.20 0.06484962
1187.30 0.06483049
1187.40 0.06481138
1187.50 0.06479227
1187.60 0.06477316
1187.70 0.06475406
1187.80 0.06473497
1187.90 0.06471588
1188.00 0.0646968
1188.10 0.06467772
1188.20 0.06465865
1188.30 0.06463959
1188.40 0.06462052
1188.50 0.06460147
1188.60 0.06458242
1188.70 0.06456338
1188.80 0.06454434
1188.90 0.0645253
1189.00 0.06450628
1189.10 0.06448725
1189.20 0.06446824
1189.30 0.06444923
1189.40 0.06443022
1189.50 0.06441122
1189.60 0.06439223
1189.70 0.06437324
1189.80 0.06435425
1189.90 0.06433528
1190.00 0.0643163
1190.10 0.06429733
1190.20 0.06427837
1190.30 0.06425942
1190.40 0.06424047
1190.50 0.06422152
1190.60 0.06420258
1190.70 0.06418365
1190.80 0.06416472
1190.90 0.06414579
1191.00 0.06412687
1191.10 0.06410796
1191.20 0.06408905
1191.30 0.06407015
1191.40 0.0640512
1191.50 0.06403196
1191.60 0.06401272
1191.70 0.06399348
1191.80 0.06397426
1191.90 0.06395503
1192.00 0.06393582
1192.10 0.06391661
1192.20 0.0638974
1192.30 0.0638782
1192.40 0.063859
1192.50 0.06383981
1192.60 0.06382063
1192.70 0.06380145
1192.80 0.06378228
1192.90 0.06376311
1193.00 0.06374395
1193.10 0.06372479
1193.20 0.06370564
1193.30 0.0636865
1193.40 0.06366736
1193.50 0.06364822
1193.60 0.0636291
1193.70 0.06360997
1193.80 0.06359086
1193.90 0.06357174
1194.00 0.06355264
1194.10 0.06353354
1194.20 0.06351444
1194.30 0.06349535
1194.40 0.06347627
1194.50 0.06345719
1194.60 0.06343811
1194.70 0.06341904
1194.80 0.06339998
1194.90 0.06338092
1195.00 0.06336187
1195.10 0.06334283
1195.20 0.06332379
1195.30 0.06330475
1195.40 0.06328572
1195.50 0.0632667
1195.60 0.06324768
1195.70 0.06322867
1195.80 0.06320966
1195.90 0.06319066
1196.00 0.06317166
1196.10 0.06315267
1196.20 0.06313368
1196.30 0.0631147
1196.40 0.06309573
1196.50 0.06307676
1196.60 0.06305779
1196.70 0.06303883
1196.80 0.06301988
1196.90 0.06300093
1197.00 0.06298199
1197.10 0.06296306
1197.20 0.06294412
1197.30 0.0629252
1197.40 0.06290666
1197.50 0.06288817
1197.60 0.0628697
1197.70 0.06285122
1197.80 0.06283275
1197.90 0.06281429
1198.00 0.06279583
1198.10 0.06277738
1198.20 0.06275893
1198.30 0.06274049
1198.40 0.06272206
1198.50 0.06270363
1198.60 0.0626852
1198.70 0.06266678
1198.80 0.06264836
1198.90 0.06262995
1199.00 0.06261155
1199.10 0.06259315
1199.20 0.06257476
1199.30 0.06255637
1199.40 0.06253798
1199.50 0.06251961
1199.60 0.06250123
1199.70 0.06248287
1199.80 0.0624645
1199.90 0.06244615
1200.00 0.06242779
