# Version 2.1 - nm, norm@500 to 1, cut digits, bergeron_He_12000_80.dat_12000
# Wavelength(nm)  Flambda(ergs/cm^s/s/nm)
300.00 2.61869
300.10 2.617664
300.20 2.61663
300.30 2.6156
300.40 2.614589
300.50 2.613578
300.60 2.612569
300.70 2.61156
300.80 2.610551
300.90 2.609544
301.00 2.608537
301.10 2.607531
301.20 2.606526
301.30 2.605521
301.40 2.604517
301.50 2.603514
301.60 2.602512
301.70 2.601511
301.80 2.60051
301.90 2.59951
302.00 2.598511
302.10 2.597491
302.20 2.59647
302.30 2.59545
302.40 2.59443
302.50 2.593412
302.60 2.592394
302.70 2.591376
302.80 2.59036
302.90 2.589344
303.00 2.588329
303.10 2.587315
303.20 2.586302
303.30 2.58529
303.40 2.58428
303.50 2.583272
303.60 2.582264
303.70 2.581257
303.80 2.580251
303.90 2.579245
304.00 2.578241
304.10 2.577237
304.20 2.576234
304.30 2.575231
304.40 2.574229
304.50 2.573229
304.60 2.572196
304.70 2.571161
304.80 2.570127
304.90 2.569094
305.00 2.568061
305.10 2.567029
305.20 2.565998
305.30 2.564968
305.40 2.563938
305.50 2.56291
305.60 2.561882
305.70 2.560855
305.80 2.559829
305.90 2.558803
306.00 2.557779
306.10 2.556755
306.20 2.555732
306.30 2.554709
306.40 2.553677
306.50 2.552642
306.60 2.551609
306.70 2.550575
306.80 2.549543
306.90 2.548512
307.00 2.547481
307.10 2.546451
307.20 2.545422
307.30 2.544394
307.40 2.543366
307.50 2.54234
307.60 2.541314
307.70 2.540289
307.80 2.539264
307.90 2.538241
308.00 2.537218
308.10 2.536196
308.20 2.535175
308.30 2.534155
308.40 2.533135
308.50 2.532117
308.60 2.531099
308.70 2.530082
308.80 2.529057
308.90 2.52801
309.00 2.526908
309.10 2.525808
309.20 2.524709
309.30 2.523611
309.40 2.522524
309.50 2.521508
309.60 2.520492
309.70 2.519476
309.80 2.518462
309.90 2.517449
310.00 2.516436
310.10 2.515424
310.20 2.514413
310.30 2.513402
310.40 2.512358
310.50 2.511277
310.60 2.510197
310.70 2.509117
310.80 2.508039
310.90 2.506961
311.00 2.505937
311.10 2.504914
311.20 2.503892
311.30 2.502865
311.40 2.501823
311.50 2.500781
311.60 2.499741
311.70 2.498701
311.80 2.497662
311.90 2.496624
312.00 2.495587
312.10 2.49455
312.20 2.493584
312.30 2.492493
312.40 2.491301
312.50 2.490187
312.60 2.489179
312.70 2.488172
312.80 2.487166
312.90 2.486127
313.00 2.485054
313.10 2.483981
313.20 2.482909
313.30 2.481834
313.40 2.480747
313.50 2.479662
313.60 2.478577
313.70 2.477494
313.80 2.476411
313.90 2.475329
314.00 2.474248
314.10 2.473183
314.20 2.47212
314.30 2.471057
314.40 2.469995
314.50 2.468934
314.60 2.467874
314.70 2.466815
314.80 2.465743
314.90 2.464648
315.00 2.463566
315.10 2.46236
315.20 2.461155
315.30 2.45995
315.40 2.458747
315.50 2.457545
315.60 2.456344
315.70 2.455144
315.80 2.453945
315.90 2.452747
316.00 2.45155
316.10 2.450176
316.20 2.448804
316.30 2.447433
316.40 2.446063
316.50 2.444518
316.60 2.442974
316.70 2.441255
316.80 2.439537
316.90 2.438086
317.00 2.436636
317.10 2.435188
317.20 2.433741
317.30 2.432207
317.40 2.430438
317.50 2.427999
317.60 2.425563
317.70 2.423129
317.80 2.420698
317.90 2.416636
318.00 2.410748
318.10 2.400209
318.20 2.389683
318.30 2.37917
318.40 2.362645
318.50 2.329004
318.60 2.289002
318.70 2.222895
318.80 2.183996
318.90 2.234699
319.00 2.285031
319.10 2.32086
319.20 2.350312
319.30 2.361721
319.40 2.373116
319.50 2.384495
319.60 2.392104
319.70 2.394554
319.80 2.397001
319.90 2.399444
320.00 2.40099
320.10 2.401567
320.20 2.401957
320.30 2.402205
320.40 2.401949
320.50 2.401727
320.60 2.401174
320.70 2.400712
320.80 2.400166
320.90 2.399531
321.00 2.398897
321.10 2.398262
321.20 2.397386
321.30 2.396548
321.40 2.39571
321.50 2.394873
321.60 2.394036
321.70 2.3932
321.80 2.392274
321.90 2.39125
322.00 2.390373
322.10 2.389399
322.20 2.388425
322.30 2.387453
322.40 2.386481
322.50 2.38551
322.60 2.38454
322.70 2.383571
322.80 2.382816
322.90 2.381794
323.00 2.380772
323.10 2.379751
323.20 2.378731
323.30 2.377711
323.40 2.376693
323.50 2.375675
323.60 2.374658
323.70 2.373642
323.80 2.372627
323.90 2.371612
324.00 2.3706
324.10 2.369588
324.20 2.368578
324.30 2.367563
324.40 2.366547
324.50 2.365542
324.60 2.364538
324.70 2.363536
324.80 2.362534
324.90 2.361532
325.00 2.360532
325.10 2.359532
325.20 2.358501
325.30 2.357401
325.40 2.356302
325.50 2.355237
325.60 2.354212
325.70 2.353187
325.80 2.352164
325.90 2.351167
326.00 2.350199
326.10 2.349232
326.20 2.348266
326.30 2.347246
326.40 2.346072
326.50 2.345047
326.60 2.344023
326.70 2.343
326.80 2.341978
326.90 2.340957
327.00 2.339937
327.10 2.338917
327.20 2.337898
327.30 2.33688
327.40 2.335863
327.50 2.334846
327.60 2.333831
327.70 2.332816
327.80 2.331802
327.90 2.330746
328.00 2.329661
328.10 2.328596
328.20 2.327532
328.30 2.326469
328.40 2.325406
328.50 2.324358
328.60 2.323313
328.70 2.32227
328.80 2.321232
328.90 2.320209
329.00 2.319187
329.10 2.318166
329.20 2.317146
329.30 2.316126
329.40 2.315108
329.50 2.31409
329.60 2.313073
329.70 2.312057
329.80 2.311041
329.90 2.310027
330.00 2.308987
330.10 2.307916
330.20 2.306846
330.30 2.305777
330.40 2.304735
330.50 2.303723
330.60 2.302712
330.70 2.301702
330.80 2.300692
330.90 2.299684
331.00 2.298676
331.10 2.297669
331.20 2.296662
331.30 2.295657
331.40 2.294652
331.50 2.293594
331.60 2.29247
331.70 2.291346
331.80 2.290319
331.90 2.289297
332.00 2.288275
332.10 2.287254
332.20 2.286234
332.30 2.285215
332.40 2.284196
332.50 2.283179
332.60 2.282162
332.70 2.281146
332.80 2.28013
332.90 2.279116
333.00 2.278102
333.10 2.277074
333.20 2.276027
333.30 2.27498
333.40 2.273935
333.50 2.27289
333.60 2.271846
333.70 2.270803
333.80 2.269761
333.90 2.26872
334.00 2.267679
334.10 2.26664
334.20 2.265601
334.30 2.264563
334.40 2.263526
334.50 2.26249
334.60 2.261454
334.70 2.260414
334.80 2.259342
334.90 2.258235
335.00 2.257128
335.10 2.256289
335.20 2.255259
335.30 2.254087
335.40 2.253059
335.50 2.252031
335.60 2.251004
335.70 2.250119
335.80 2.249093
335.90 2.248104
336.00 2.247159
336.10 2.246214
336.20 2.24527
336.30 2.244292
336.40 2.243271
336.50 2.242251
336.60 2.241232
336.70 2.240214
336.80 2.239196
336.90 2.238178
337.00 2.237159
337.10 2.236141
337.20 2.235124
337.30 2.234109
337.40 2.233099
337.50 2.232089
337.60 2.23108
337.70 2.230072
337.80 2.229064
337.90 2.228053
338.00 2.227035
338.10 2.226019
338.20 2.225003
338.30 2.223988
338.40 2.222967
338.50 2.221933
338.60 2.220899
338.70 2.219867
338.80 2.218835
338.90 2.217804
339.00 2.216773
339.10 2.215744
339.20 2.214715
339.30 2.213703
339.40 2.212712
339.50 2.211709
339.60 2.21069
339.70 2.209671
339.80 2.208653
339.90 2.207636
340.00 2.20662
340.10 2.205605
340.20 2.20459
340.30 2.203577
340.40 2.202564
340.50 2.201552
340.60 2.20054
340.70 2.19953
340.80 2.198533
340.90 2.197554
341.00 2.196557
341.10 2.195536
341.20 2.194516
341.30 2.193496
341.40 2.192478
341.50 2.19146
341.60 2.190443
341.70 2.189427
341.80 2.188388
341.90 2.187322
342.00 2.186257
342.10 2.185193
342.20 2.184239
342.30 2.183288
342.40 2.182225
342.50 2.181153
342.60 2.180083
342.70 2.179014
342.80 2.177945
342.90 2.176877
343.00 2.17582
343.10 2.174776
343.20 2.173732
343.30 2.172689
343.40 2.171617
343.50 2.170503
343.60 2.16939
343.70 2.168278
343.80 2.167167
343.90 2.166057
344.00 2.164886
344.10 2.163628
344.20 2.162371
344.30 2.161115
344.40 2.15986
344.50 2.158606
344.60 2.157354
344.70 2.156102
344.80 2.155157
344.90 2.154497
345.00 2.15379
345.10 2.153137
345.20 2.152406
345.30 2.151561
345.40 2.150717
345.50 2.14995
345.60 2.149185
345.70 2.148288
345.80 2.147392
345.90 2.146496
346.00 2.145601
346.10 2.144707
346.20 2.143781
346.30 2.142809
346.40 2.141838
346.50 2.140868
346.60 2.139898
346.70 2.138929
346.80 2.137961
346.90 2.136994
347.00 2.136028
347.10 2.135062
347.20 2.134079
347.30 2.133071
347.40 2.132064
347.50 2.131057
347.60 2.130052
347.70 2.129047
347.80 2.128043
347.90 2.127039
348.00 2.126037
348.10 2.125035
348.20 2.124035
348.30 2.123035
348.40 2.122035
348.50 2.121037
348.60 2.120039
348.70 2.119204
348.80 2.118332
348.90 2.117331
349.00 2.116332
349.10 2.115333
349.20 2.114335
349.30 2.113337
349.40 2.112341
349.50 2.111345
349.60 2.11035
349.70 2.109356
349.80 2.108363
349.90 2.10737
350.00 2.106378
350.10 2.105387
350.20 2.104397
350.30 2.103407
350.40 2.102415
350.50 2.101425
350.60 2.100435
350.70 2.099446
350.80 2.098458
350.90 2.09747
351.00 2.096484
351.10 2.095498
351.20 2.094513
351.30 2.093529
351.40 2.09254
351.50 2.091542
351.60 2.090544
351.70 2.089548
351.80 2.088552
351.90 2.087557
352.00 2.086563
352.10 2.08557
352.20 2.084577
352.30 2.083588
352.40 2.082602
352.50 2.081617
352.60 2.080633
352.70 2.07965
352.80 2.078668
352.90 2.077686
353.00 2.076705
353.10 2.075725
353.20 2.074746
353.30 2.073767
353.40 2.072789
353.50 2.071809
353.60 2.070829
353.70 2.06985
353.80 2.068871
353.90 2.067882
354.00 2.066871
354.10 2.065862
354.20 2.064854
354.30 2.063846
354.40 2.062839
354.50 2.061833
354.60 2.060828
354.70 2.059824
354.80 2.058834
354.90 2.057866
355.00 2.056898
355.10 2.055931
355.20 2.054965
355.30 2.054003
355.40 2.053043
355.50 2.052084
355.60 2.051125
355.70 2.050115
355.80 2.049083
355.90 2.048009
356.00 2.046998
356.10 2.046022
356.20 2.045048
356.30 2.044074
356.40 2.043101
356.50 2.042129
356.60 2.041158
356.70 2.040187
356.80 2.039217
356.90 2.038248
357.00 2.03728
357.10 2.036312
357.20 2.035346
357.30 2.03438
357.40 2.033412
357.50 2.032439
357.60 2.031468
357.70 2.030497
357.80 2.029488
357.90 2.02848
358.00 2.027457
358.10 2.026431
358.20 2.025405
358.30 2.024381
358.40 2.023357
358.50 2.022334
358.60 2.021312
358.70 2.020291
358.80 2.01927
358.90 2.018251
359.00 2.017238
359.10 2.016238
359.20 2.015238
359.30 2.014235
359.40 2.013232
359.50 2.012135
359.60 2.011016
359.70 2.009898
359.80 2.008781
359.90 2.007665
360.00 2.006458
360.10 2.005089
360.20 2.003722
360.30 2.002355
360.40 2.00099
360.50 1.999626
360.60 1.997947
360.70 1.996022
360.80 1.994099
360.90 1.992177
361.00 1.990026
361.10 1.987727
361.20 1.985358
361.30 1.983607
361.40 1.982862
361.50 1.983746
361.60 1.984168
361.70 1.984426
361.80 1.984539
361.90 1.984394
362.00 1.984249
362.10 1.983944
362.20 1.983522
362.30 1.98296
362.40 1.982399
362.50 1.981838
362.60 1.981277
362.70 1.980441
362.80 1.979738
362.90 1.978915
363.00 1.978093
363.10 1.977128
363.20 1.976162
363.30 1.975367
363.40 1.974347
363.50 1.973731
363.60 1.972913
363.70 1.971978
363.80 1.971013
363.90 1.970121
364.00 1.96923
364.10 1.968339
364.20 1.967449
364.30 1.966526
364.40 1.965595
364.50 1.964786
364.60 1.963885
364.70 1.962986
364.80 1.962087
364.90 1.961145
365.00 1.960203
365.10 1.95913
365.20 1.958323
365.30 1.957251
365.40 1.956445
365.50 1.955507
365.60 1.95457
365.70 1.953622
365.80 1.952675
365.90 1.951749
366.00 1.95083
366.10 1.949894
366.20 1.948959
366.30 1.948025
366.40 1.947092
366.50 1.9463
366.60 1.945241
366.70 1.94428
366.80 1.94332
366.90 1.942376
367.00 1.941459
367.10 1.940544
367.20 1.939629
367.30 1.938715
367.40 1.937801
367.50 1.936892
367.60 1.935984
367.70 1.935
367.80 1.934017
367.90 1.933035
368.00 1.932039
368.10 1.93099
368.20 1.930009
368.30 1.929029
368.40 1.928051
368.50 1.927073
368.60 1.926096
368.70 1.92512
368.80 1.924144
368.90 1.923312
369.00 1.922363
369.10 1.921321
369.20 1.920281
369.30 1.919241
369.40 1.918202
369.50 1.917164
369.60 1.915997
369.70 1.914832
369.80 1.913726
369.90 1.912621
370.00 1.911517
370.10 1.910435
370.20 1.909275
370.30 1.908115
370.40 1.906702
370.50 1.905531
370.60 1.905148
370.70 1.904514
370.80 1.903871
370.90 1.90323
371.00 1.902592
371.10 1.901955
371.20 1.901186
371.30 1.900418
371.40 1.899741
371.50 1.898958
371.60 1.898175
371.70 1.897393
371.80 1.896611
371.90 1.89583
372.00 1.894886
372.10 1.894051
372.20 1.893204
372.30 1.892357
372.40 1.891512
372.50 1.890667
372.60 1.889822
372.70 1.888978
372.80 1.888219
372.90 1.88746
373.00 1.886578
373.10 1.885694
373.20 1.884684
373.30 1.883674
373.40 1.88292
373.50 1.882039
373.60 1.881159
373.70 1.880406
373.80 1.879455
373.90 1.878648
374.00 1.877771
374.10 1.876893
374.20 1.876017
374.30 1.875141
374.40 1.874298
374.50 1.873392
374.60 1.872517
374.70 1.871644
374.80 1.870772
374.90 1.869901
375.00 1.868988
375.10 1.868075
375.20 1.867164
375.30 1.866277
375.40 1.86539
375.50 1.864505
375.60 1.86362
375.70 1.862736
375.80 1.861852
375.90 1.860969
376.00 1.860228
376.10 1.859295
376.20 1.858361
376.30 1.857428
376.40 1.856496
376.50 1.855577
376.60 1.854678
376.70 1.85378
376.80 1.852897
376.90 1.85203
377.00 1.851164
377.10 1.850299
377.20 1.849426
377.30 1.848523
377.40 1.847621
377.50 1.84672
377.60 1.845742
377.70 1.844765
377.80 1.843789
377.90 1.842813
378.00 1.841838
378.10 1.840892
378.20 1.839948
378.30 1.839004
378.40 1.83806
378.50 1.837118
378.60 1.836176
378.70 1.835235
378.80 1.834295
378.90 1.833281
379.00 1.832131
379.10 1.831165
379.20 1.830199
379.30 1.829155
379.40 1.828032
379.50 1.82691
379.60 1.825769
379.70 1.824575
379.80 1.823286
379.90 1.821997
380.00 1.82071
380.10 1.819423
380.20 1.818138
380.30 1.816854
380.40 1.815571
380.50 1.814289
380.60 1.812509
380.70 1.810723
380.80 1.808939
380.90 1.807156
381.00 1.805375
381.10 1.803512
381.20 1.801474
381.30 1.799136
381.40 1.796633
381.50 1.794067
381.60 1.791498
381.70 1.788889
381.80 1.786141
381.90 1.783504
382.00 1.78257
382.10 1.784187
382.20 1.785414
382.30 1.786542
382.40 1.787507
382.50 1.788227
382.60 1.788945
382.70 1.789473
382.80 1.789613
382.90 1.789581
383.00 1.789548
383.10 1.789515
383.20 1.789404
383.30 1.789004
383.40 1.788666
383.50 1.788423
383.60 1.788004
383.70 1.787421
383.80 1.786838
383.90 1.786256
384.00 1.785675
384.10 1.785093
384.20 1.784512
384.30 1.783932
384.40 1.783289
384.50 1.782585
384.60 1.781882
384.70 1.781179
384.80 1.780488
384.90 1.77978
385.00 1.778959
385.10 1.778135
385.20 1.777269
385.30 1.776468
385.40 1.775579
385.50 1.774602
385.60 1.773626
385.70 1.772651
385.80 1.771689
385.90 1.770771
386.00 1.769769
386.10 1.768674
386.20 1.767483
386.30 1.766292
386.40 1.765183
386.50 1.763895
386.60 1.762407
386.70 1.760902
386.80 1.759696
386.90 1.758549
387.00 1.757404
387.10 1.756254
387.20 1.754944
387.30 1.753495
387.40 1.751939
387.50 1.750195
387.60 1.747969
387.70 1.744885
387.80 1.741804
387.90 1.738726
388.00 1.735246
388.10 1.729768
388.20 1.720259
388.30 1.707727
388.40 1.695207
388.50 1.677035
388.60 1.645543
388.70 1.597603
388.80 1.530971
388.90 1.508937
389.00 1.569076
389.10 1.62064
389.20 1.655806
389.30 1.679457
389.40 1.694184
389.50 1.706041
389.60 1.713146
389.70 1.717285
389.80 1.719142
389.90 1.720997
390.00 1.72285
390.10 1.724701
390.20 1.72655
390.30 1.727532
390.40 1.727536
390.50 1.72754
390.60 1.727544
390.70 1.727548
390.80 1.72737
390.90 1.727011
391.00 1.726593
391.10 1.726047
391.20 1.725497
391.30 1.72489
391.40 1.72424
391.50 1.723591
391.60 1.722942
391.70 1.722293
391.80 1.721645
391.90 1.720889
392.00 1.720091
392.10 1.719414
392.20 1.718719
392.30 1.717921
392.40 1.717197
392.50 1.716322
392.60 1.715448
392.70 1.714805
392.80 1.713932
392.90 1.713102
393.00 1.712352
393.10 1.711546
393.20 1.710676
393.30 1.709806
393.40 1.708937
393.50 1.708068
393.60 1.7072
393.70 1.706333
393.80 1.705467
393.90 1.704601
394.00 1.703736
394.10 1.702871
394.20 1.702007
394.30 1.701045
394.40 1.700054
394.50 1.699192
394.60 1.698204
394.70 1.697177
394.80 1.696004
394.90 1.694835
395.00 1.693724
395.10 1.692513
395.20 1.691115
395.30 1.689669
395.40 1.688223
395.50 1.686335
395.60 1.684286
395.70 1.681907
395.80 1.678637
395.90 1.675371
396.00 1.671977
396.10 1.666791
396.20 1.660303
396.30 1.65382
396.40 1.647954
396.50 1.647895
396.60 1.65403
396.70 1.659739
396.80 1.663457
396.90 1.66619
397.00 1.66796
397.10 1.668994
397.20 1.669903
397.30 1.670125
397.40 1.669991
397.50 1.669857
397.60 1.669702
397.70 1.669339
397.80 1.668977
397.90 1.66855
398.00 1.667952
398.10 1.667354
398.20 1.666686
398.30 1.665941
398.40 1.665194
398.50 1.664358
398.60 1.663523
398.70 1.662689
398.80 1.661855
398.90 1.660964
399.00 1.659967
399.10 1.659117
399.20 1.658081
399.30 1.657047
399.40 1.656013
399.50 1.654981
399.60 1.653856
399.70 1.652698
399.80 1.651541
399.90 1.650385
400.00 1.649224
400.10 1.647889
400.20 1.646617
400.30 1.645172
400.40 1.643739
400.50 1.64225
400.60 1.640484
400.70 1.638671
400.80 1.63678
400.90 1.634825
401.00 1.632605
401.10 1.630294
401.20 1.627652
401.30 1.624816
401.40 1.621428
401.50 1.61785
401.60 1.614243
401.70 1.609551
401.80 1.604425
401.90 1.598254
402.00 1.591853
402.10 1.58403
402.20 1.575562
402.30 1.5662
402.40 1.556543
402.50 1.547178
402.60 1.539065
402.70 1.54433
402.80 1.55296
402.90 1.561757
403.00 1.570479
403.10 1.578363
403.20 1.584741
403.30 1.589992
403.40 1.594596
403.50 1.597994
403.60 1.601063
403.70 1.603264
403.80 1.605139
403.90 1.60632
404.00 1.607341
404.10 1.607909
404.20 1.608198
404.30 1.608488
404.40 1.608461
404.50 1.608306
404.60 1.608161
404.70 1.607908
404.80 1.607781
404.90 1.607617
405.00 1.607379
405.10 1.607111
405.20 1.606857
405.30 1.606604
405.40 1.606171
405.50 1.605738
405.60 1.605306
405.70 1.604874
405.80 1.604442
405.90 1.60401
406.00 1.60348
406.10 1.60295
406.20 1.60242
406.30 1.601891
406.40 1.601354
406.50 1.60062
406.60 1.599993
406.70 1.59934
406.80 1.598722
406.90 1.598066
407.00 1.597366
407.10 1.596667
407.20 1.595968
407.30 1.59527
407.40 1.594573
407.50 1.593876
407.60 1.593179
407.70 1.592483
407.80 1.591787
407.90 1.59109
408.00 1.59031
408.10 1.58953
408.20 1.588807
408.30 1.588098
408.40 1.58739
408.50 1.586632
408.60 1.585855
408.70 1.585079
408.80 1.584304
408.90 1.583529
409.00 1.582755
409.10 1.581981
409.20 1.581208
409.30 1.580435
409.40 1.579663
409.50 1.578892
409.60 1.578121
409.70 1.577351
409.80 1.576581
409.90 1.575812
410.00 1.575043
410.10 1.5741
410.20 1.573231
410.30 1.572382
410.40 1.571537
410.50 1.570702
410.60 1.569868
410.70 1.569014
410.80 1.56808
410.90 1.567147
411.00 1.566122
411.10 1.565063
411.20 1.564004
411.30 1.562935
411.40 1.561803
411.50 1.56023
411.60 1.558659
411.70 1.557
411.80 1.55499
411.90 1.552918
412.00 1.550598
412.10 1.548906
412.20 1.548258
412.30 1.548312
412.40 1.548463
412.50 1.548895
412.60 1.549037
412.70 1.548983
412.80 1.54888
412.90 1.548645
413.00 1.548324
413.10 1.547699
413.20 1.547073
413.30 1.546448
413.40 1.545824
413.50 1.545175
413.60 1.544403
413.70 1.543553
413.80 1.542703
413.90 1.541854
414.00 1.540981
414.10 1.54003
414.20 1.539006
414.30 1.537953
414.40 1.537025
414.50 1.536506
414.60 1.536029
414.70 1.535598
414.80 1.535142
414.90 1.534608
415.00 1.534074
415.10 1.533541
415.20 1.533005
415.30 1.532459
415.40 1.531913
415.50 1.531367
415.60 1.530777
415.70 1.530188
415.80 1.52958
415.90 1.528912
416.00 1.528244
416.10 1.527573
416.20 1.526888
416.30 1.526204
416.40 1.52552
416.50 1.524835
416.60 1.524103
416.70 1.523372
416.80 1.522437
416.90 1.521706
417.00 1.520977
417.10 1.520451
417.20 1.519722
417.30 1.518994
417.40 1.518266
417.50 1.517539
417.60 1.516813
417.70 1.516086
417.80 1.515361
417.90 1.514636
418.00 1.513911
418.10 1.513187
418.20 1.512463
418.30 1.51174
418.40 1.511018
418.50 1.510296
418.60 1.509574
418.70 1.508853
418.80 1.508133
418.90 1.507413
419.00 1.506693
419.10 1.505974
419.20 1.505256
419.30 1.504536
419.40 1.503747
419.50 1.502959
419.60 1.502186
419.70 1.50147
419.80 1.500755
419.90 1.500031
420.00 1.499277
420.10 1.498524
420.20 1.497772
420.30 1.49702
420.40 1.496268
420.50 1.495517
420.60 1.494767
420.70 1.494017
420.80 1.493268
420.90 1.492521
421.00 1.491812
421.10 1.491103
421.20 1.490381
421.30 1.489617
421.40 1.488853
421.50 1.488089
421.60 1.487327
421.70 1.486565
421.80 1.485803
421.90 1.485055
422.00 1.484352
422.10 1.483636
422.20 1.48287
422.30 1.482105
422.40 1.481342
422.50 1.480601
422.60 1.47986
422.70 1.47912
422.80 1.47838
422.90 1.477641
423.00 1.476902
423.10 1.476164
423.20 1.475426
423.30 1.474689
423.40 1.473953
423.50 1.473217
423.60 1.472482
423.70 1.471747
423.80 1.471012
423.90 1.470278
424.00 1.469545
424.10 1.468812
424.20 1.46808
424.30 1.467348
424.40 1.466625
424.50 1.465895
424.60 1.465165
424.70 1.464435
424.80 1.463706
424.90 1.462977
425.00 1.462249
425.10 1.461522
425.20 1.460795
425.30 1.460068
425.40 1.459341
425.50 1.458603
425.60 1.457866
425.70 1.457129
425.80 1.456393
425.90 1.455657
426.00 1.454922
426.10 1.454188
426.20 1.453454
426.30 1.45272
426.40 1.451987
426.50 1.451255
426.60 1.450523
426.70 1.449792
426.80 1.449061
426.90 1.44833
427.00 1.447601
427.10 1.446872
427.20 1.446143
427.30 1.445415
427.40 1.444688
427.50 1.443961
427.60 1.443234
427.70 1.442508
427.80 1.441783
427.90 1.441058
428.00 1.440334
428.10 1.43961
428.20 1.438887
428.30 1.438164
428.40 1.437442
428.50 1.43672
428.60 1.435999
428.70 1.435278
428.80 1.434557
428.90 1.433826
429.00 1.433096
429.10 1.432367
429.20 1.431638
429.30 1.430909
429.40 1.430181
429.50 1.429454
429.60 1.428727
429.70 1.428001
429.80 1.427275
429.90 1.42655
430.00 1.425825
430.10 1.425101
430.20 1.424377
430.30 1.423654
430.40 1.422931
430.50 1.422209
430.60 1.421487
430.70 1.420766
430.80 1.420045
430.90 1.419325
431.00 1.418605
431.10 1.417886
431.20 1.417168
431.30 1.416449
431.40 1.415726
431.50 1.415003
431.60 1.414281
431.70 1.413559
431.80 1.412838
431.90 1.412117
432.00 1.411397
432.10 1.410677
432.20 1.409958
432.30 1.40924
432.40 1.408521
432.50 1.407804
432.60 1.407087
432.70 1.40637
432.80 1.405654
432.90 1.404938
433.00 1.404223
433.10 1.403509
433.20 1.402795
433.30 1.40208
433.40 1.401352
433.50 1.400623
433.60 1.399896
433.70 1.399169
433.80 1.398433
433.90 1.397685
434.00 1.396947
434.10 1.396216
434.20 1.395485
434.30 1.394754
434.40 1.394024
434.50 1.393295
434.60 1.392566
434.70 1.391838
434.80 1.391106
434.90 1.390325
435.00 1.389545
435.10 1.388765
435.20 1.387986
435.30 1.387208
435.40 1.38643
435.50 1.385653
435.60 1.384876
435.70 1.3841
435.80 1.383324
435.90 1.382549
436.00 1.381775
436.10 1.381001
436.20 1.380228
436.30 1.379396
436.40 1.378494
436.50 1.377592
436.60 1.37669
436.70 1.375788
436.80 1.374888
436.90 1.373988
437.00 1.373089
437.10 1.37219
437.20 1.371196
437.30 1.370115
437.40 1.369023
437.50 1.36778
437.60 1.366538
437.70 1.365297
437.80 1.364056
437.90 1.362817
438.00 1.361553
438.10 1.359944
438.20 1.358337
438.30 1.356697
438.40 1.354785
438.50 1.3526
438.60 1.350429
438.70 1.348308
438.80 1.346501
438.90 1.346352
439.00 1.346862
439.10 1.347444
439.20 1.348016
439.30 1.348458
439.40 1.348901
439.50 1.349342
439.60 1.349757
439.70 1.349819
439.80 1.34979
439.90 1.349636
440.00 1.349483
440.10 1.349329
440.20 1.349151
440.30 1.348648
440.40 1.348146
440.50 1.347643
440.60 1.347141
440.70 1.346639
440.80 1.346138
440.90 1.345637
441.00 1.345136
441.10 1.344636
441.20 1.344128
441.30 1.343519
441.40 1.342882
441.50 1.342212
441.60 1.341542
441.70 1.340905
441.80 1.340159
441.90 1.339414
442.00 1.338669
442.10 1.337925
442.20 1.337182
442.30 1.336439
442.40 1.335679
442.50 1.334897
442.60 1.334116
442.70 1.333297
442.80 1.332419
442.90 1.331483
443.00 1.330571
443.10 1.32969
443.20 1.328729
443.30 1.327693
443.40 1.326652
443.50 1.325603
443.60 1.324533
443.70 1.323328
443.80 1.322281
443.90 1.321236
444.00 1.320232
444.10 1.319277
444.20 1.318306
444.30 1.317131
444.40 1.315921
444.50 1.314713
444.60 1.313406
444.70 1.311979
444.80 1.310347
444.90 1.308526
445.00 1.306706
445.10 1.304888
445.20 1.302566
445.30 1.299629
445.40 1.296694
445.50 1.293762
445.60 1.290833
445.70 1.287906
445.80 1.283694
445.90 1.278298
446.00 1.272907
446.10 1.267521
446.20 1.261278
446.30 1.252981
446.40 1.241472
446.50 1.227932
446.60 1.214405
446.70 1.200889
446.80 1.184107
446.90 1.164314
447.00 1.143548
447.10 1.119587
447.20 1.11625
447.30 1.136557
447.40 1.158287
447.50 1.179814
447.60 1.198642
447.70 1.214983
447.80 1.226773
447.90 1.237123
448.00 1.244617
448.10 1.249477
448.20 1.254332
448.30 1.259184
448.40 1.26403
448.50 1.268872
448.60 1.272247
448.70 1.274267
448.80 1.276215
448.90 1.277208
449.00 1.2782
449.10 1.279191
449.20 1.280181
449.30 1.280819
449.40 1.281099
449.50 1.281378
449.60 1.28147
449.70 1.28139
449.80 1.28131
449.90 1.281229
450.00 1.281149
450.10 1.281069
450.20 1.280988
450.30 1.280908
450.40 1.280514
450.50 1.28012
450.60 1.279726
450.70 1.279333
450.80 1.27894
450.90 1.278547
451.00 1.278051
451.10 1.277554
451.20 1.277022
451.30 1.276456
451.40 1.275804
451.50 1.275151
451.60 1.2745
451.70 1.273762
451.80 1.273111
451.90 1.272548
452.00 1.272072
452.10 1.271596
452.20 1.271163
452.30 1.270731
452.40 1.2703
452.50 1.269868
452.60 1.269424
452.70 1.268939
452.80 1.268417
452.90 1.267895
453.00 1.267374
453.10 1.266853
453.20 1.266293
453.30 1.265735
453.40 1.265177
453.50 1.264619
453.60 1.264061
453.70 1.263504
453.80 1.262947
453.90 1.262391
454.00 1.261835
454.10 1.261279
454.20 1.260692
454.30 1.260106
454.40 1.25952
454.50 1.258935
454.60 1.25835
454.70 1.257756
454.80 1.257154
454.90 1.256552
455.00 1.255951
455.10 1.25535
455.20 1.25475
455.30 1.25415
455.40 1.253551
455.50 1.252952
455.60 1.252353
455.70 1.251755
455.80 1.251114
455.90 1.250474
456.00 1.249834
456.10 1.249202
456.20 1.248591
456.30 1.24798
456.40 1.24737
456.50 1.246761
456.60 1.246151
456.70 1.245542
456.80 1.244934
456.90 1.244326
457.00 1.243718
457.10 1.243111
457.20 1.242537
457.30 1.241922
457.40 1.241308
457.50 1.240694
457.60 1.240081
457.70 1.239468
457.80 1.238856
457.90 1.238244
458.00 1.237632
458.10 1.237021
458.20 1.23641
458.30 1.2358
458.40 1.23519
458.50 1.23458
458.60 1.233971
458.70 1.233371
458.80 1.232774
458.90 1.232178
459.00 1.231582
459.10 1.230987
459.20 1.230392
459.30 1.229774
459.40 1.229156
459.50 1.228539
459.60 1.227923
459.70 1.227307
459.80 1.226691
459.90 1.226076
460.00 1.225461
460.10 1.224846
460.20 1.224232
460.30 1.223619
460.40 1.223006
460.50 1.222393
460.60 1.22178
460.70 1.221178
460.80 1.220581
460.90 1.219984
461.00 1.219387
461.10 1.218791
461.20 1.218181
461.30 1.217566
461.40 1.216951
461.50 1.216336
461.60 1.215721
461.70 1.215107
461.80 1.214499
461.90 1.213892
462.00 1.213285
462.10 1.212679
462.20 1.212073
462.30 1.211467
462.40 1.210862
462.50 1.210257
462.60 1.209653
462.70 1.209049
462.80 1.208446
462.90 1.207843
463.00 1.20724
463.10 1.206637
463.20 1.206025
463.30 1.205409
463.40 1.204793
463.50 1.204178
463.60 1.203563
463.70 1.202948
463.80 1.202334
463.90 1.201732
464.00 1.201132
464.10 1.200533
464.20 1.199935
464.30 1.199337
464.40 1.198739
464.50 1.198142
464.60 1.197545
464.70 1.196949
464.80 1.196353
464.90 1.195758
465.00 1.195163
465.10 1.194569
465.20 1.193975
465.30 1.193362
465.40 1.192736
465.50 1.192111
465.60 1.191486
465.70 1.190861
465.80 1.190237
465.90 1.18964
466.00 1.18905
466.10 1.18846
466.20 1.18787
466.30 1.187268
466.40 1.186661
466.50 1.186055
466.60 1.185449
466.70 1.184843
466.80 1.184238
466.90 1.183633
467.00 1.183029
467.10 1.182425
467.20 1.181821
467.30 1.181161
467.40 1.180543
467.50 1.179942
467.60 1.179342
467.70 1.178742
467.80 1.178143
467.90 1.177525
468.00 1.176901
468.10 1.176277
468.20 1.175653
468.30 1.175058
468.40 1.174476
468.50 1.173826
468.60 1.173268
468.70 1.172627
468.80 1.171924
468.90 1.171304
469.00 1.170686
469.10 1.170001
469.20 1.169301
469.30 1.168602
469.40 1.167903
469.50 1.167174
469.60 1.166434
469.70 1.165695
469.80 1.164956
469.90 1.164191
470.00 1.163345
470.10 1.162277
470.20 1.161097
470.30 1.159918
470.40 1.158739
470.50 1.157562
470.60 1.155492
470.70 1.153201
470.80 1.150911
470.90 1.148623
471.00 1.145195
471.10 1.140782
471.20 1.136102
471.30 1.132228
471.40 1.131787
471.50 1.134019
471.60 1.136982
471.70 1.140006
471.80 1.141816
471.90 1.143323
472.00 1.144828
472.10 1.146331
472.20 1.146768
472.30 1.146939
472.40 1.147109
472.50 1.147278
472.60 1.147448
472.70 1.147276
472.80 1.146889
472.90 1.146483
473.00 1.146078
473.10 1.145673
473.20 1.145268
473.30 1.144863
473.40 1.144458
473.50 1.144054
473.60 1.14365
473.70 1.143246
473.80 1.142749
473.90 1.142228
474.00 1.141707
474.10 1.141187
474.20 1.140646
474.30 1.140097
474.40 1.139548
474.50 1.139
474.60 1.138452
474.70 1.137908
474.80 1.137364
474.90 1.13682
475.00 1.136277
475.10 1.135734
475.20 1.135191
475.30 1.134649
475.40 1.134097
475.50 1.133542
475.60 1.132988
475.70 1.132435
475.80 1.131881
475.90 1.131328
476.00 1.130775
476.10 1.130223
476.20 1.129662
476.30 1.129097
476.40 1.128533
476.50 1.127969
476.60 1.127405
476.70 1.126842
476.80 1.126279
476.90 1.125719
477.00 1.125161
477.10 1.124604
477.20 1.124046
477.30 1.123489
477.40 1.122933
477.50 1.122376
477.60 1.12182
477.70 1.121265
477.80 1.12071
477.90 1.120155
478.00 1.119601
478.10 1.119047
478.20 1.118493
478.30 1.11794
478.40 1.117387
478.50 1.116834
478.60 1.116282
478.70 1.115676
478.80 1.115048
478.90 1.114478
479.00 1.113923
479.10 1.113368
479.20 1.112814
479.30 1.11226
479.40 1.111708
479.50 1.111157
479.60 1.110606
479.70 1.110056
479.80 1.109506
479.90 1.108956
480.00 1.108407
480.10 1.107858
480.20 1.107309
480.30 1.106761
480.40 1.106213
480.50 1.105666
480.60 1.105118
480.70 1.104572
480.80 1.104025
480.90 1.103479
481.00 1.102933
481.10 1.102388
481.20 1.101832
481.30 1.101276
481.40 1.100721
481.50 1.100165
481.60 1.099611
481.70 1.099056
481.80 1.098502
481.90 1.097949
482.00 1.097395
482.10 1.096842
482.20 1.09629
482.30 1.095738
482.40 1.095186
482.50 1.094635
482.60 1.094084
482.70 1.093533
482.80 1.092983
482.90 1.092433
483.00 1.091884
483.10 1.091334
483.20 1.090786
483.30 1.090237
483.40 1.089689
483.50 1.089141
483.60 1.088594
483.70 1.08803
483.80 1.087465
483.90 1.086902
484.00 1.086338
484.10 1.085775
484.20 1.085218
484.30 1.084662
484.40 1.084107
484.50 1.083552
484.60 1.082998
484.70 1.082444
484.80 1.081898
484.90 1.081352
485.00 1.080806
485.10 1.080261
485.20 1.079716
485.30 1.079172
485.40 1.078628
485.50 1.078084
485.60 1.07754
485.70 1.076987
485.80 1.076433
485.90 1.07588
486.00 1.075328
486.10 1.074776
486.20 1.074224
486.30 1.073672
486.40 1.073121
486.50 1.07257
486.60 1.07202
486.70 1.071467
486.80 1.07088
486.90 1.070293
487.00 1.069707
487.10 1.069121
487.20 1.068545
487.30 1.06797
487.40 1.067395
487.50 1.066821
487.60 1.066247
487.70 1.065673
487.80 1.0651
487.90 1.064527
488.00 1.063955
488.10 1.063383
488.20 1.06281
488.30 1.062228
488.40 1.061647
488.50 1.061066
488.60 1.060485
488.70 1.059905
488.80 1.059253
488.90 1.058601
489.00 1.057937
489.10 1.05724
489.20 1.056543
489.30 1.055847
489.40 1.055151
489.50 1.054456
489.60 1.053761
489.70 1.053067
489.80 1.05231
489.90 1.051444
490.00 1.050578
490.10 1.049712
490.20 1.048847
490.30 1.047983
490.40 1.046856
490.50 1.045729
490.60 1.044603
490.70 1.043478
490.80 1.042249
490.90 1.040862
491.00 1.039482
491.10 1.037956
491.20 1.036284
491.30 1.034173
491.40 1.031808
491.50 1.028781
491.60 1.025036
491.70 1.020643
491.80 1.016186
491.90 1.010843
492.00 1.005093
492.10 0.9993141
492.20 0.9949325
492.30 0.9962895
492.40 1.000068
492.50 1.00458
492.60 1.009099
492.70 1.012268
492.80 1.015435
492.90 1.018598
493.00 1.02162
493.10 1.022788
493.20 1.023954
493.30 1.02512
493.40 1.026285
493.50 1.027448
493.60 1.027951
493.70 1.028186
493.80 1.02842
493.90 1.028565
494.00 1.02857
494.10 1.028511
494.20 1.028316
494.30 1.028121
494.40 1.027926
494.50 1.027731
494.60 1.027527
494.70 1.027192
494.80 1.026859
494.90 1.026533
495.00 1.026207
495.10 1.025881
495.20 1.025452
495.30 1.025023
495.40 1.024594
495.50 1.024166
495.60 1.023737
495.70 1.023309
495.80 1.022882
495.90 1.022454
496.00 1.022027
496.10 1.021568
496.20 1.021047
496.30 1.0206
496.40 1.020154
496.50 1.019707
496.60 1.019261
496.70 1.018766
496.80 1.01827
496.90 1.017775
497.00 1.017281
497.10 1.016786
497.20 1.016292
497.30 1.015795
497.40 1.015289
497.50 1.014784
497.60 1.014273
497.70 1.013751
497.80 1.013234
497.90 1.012716
498.00 1.012199
498.10 1.011682
498.20 1.011166
498.30 1.01065
498.40 1.010134
498.50 1.009619
498.60 1.009104
498.70 1.008557
498.80 1.00801
498.90 1.007412
499.00 1.006815
499.10 1.006218
499.20 1.005641
499.30 1.005068
499.40 1.004394
499.50 1.003721
499.60 1.003048
499.70 1.002367
499.80 1.001577
499.90 1.000788
500.00 1
500.10 0.9992121
500.20 0.9982087
500.30 0.9967473
500.40 0.9952869
500.50 0.9938276
500.60 0.9923694
500.70 0.9909123
500.80 0.9886918
500.90 0.9848491
501.00 0.9810094
501.10 0.9771728
501.20 0.969409
501.30 0.959216
501.40 0.9482187
501.50 0.93573
501.60 0.9336235
501.70 0.945958
501.80 0.9579222
501.90 0.9666195
502.00 0.9737065
502.10 0.9773818
502.20 0.9809048
502.30 0.9824417
502.40 0.983578
502.50 0.9838652
502.60 0.9841522
502.70 0.9844389
502.80 0.9847252
502.90 0.9850113
503.00 0.9851245
503.10 0.9848709
503.20 0.9846175
503.30 0.9843642
503.40 0.9840663
503.50 0.9836417
503.60 0.9832173
503.70 0.9827932
503.80 0.9823548
503.90 0.9818098
504.00 0.9812047
504.10 0.9804718
504.20 0.9797393
504.30 0.9790074
504.40 0.9782203
504.50 0.9772753
504.60 0.9762947
504.70 0.9753511
504.80 0.9746134
504.90 0.9743629
505.00 0.9743428
505.10 0.9743739
505.20 0.97437
505.30 0.9742664
505.40 0.9741627
505.50 0.9740591
505.60 0.97388
505.70 0.9735406
505.80 0.9732014
505.90 0.9728625
506.00 0.9725237
506.10 0.9721851
506.20 0.9718227
506.30 0.9713925
506.40 0.9709625
506.50 0.9705327
506.60 0.9701032
506.70 0.969674
506.80 0.9692451
506.90 0.9688164
507.00 0.9683879
507.10 0.9679746
507.20 0.9675705
507.30 0.967103
507.40 0.9666358
507.50 0.9661688
507.60 0.9657022
507.70 0.9652358
507.80 0.9647697
507.90 0.9643039
508.00 0.9638385
508.10 0.9633733
508.20 0.9629084
508.30 0.9624438
508.40 0.9619794
508.50 0.9615154
508.60 0.9610517
508.70 0.9605882
508.80 0.9600788
508.90 0.9595912
509.00 0.9591577
509.10 0.9587134
509.20 0.9582462
509.30 0.9577792
509.40 0.9573126
509.50 0.9568462
509.60 0.9563802
509.70 0.9559144
509.80 0.9554489
509.90 0.9549837
510.00 0.9545188
510.10 0.9540542
510.20 0.9535899
510.30 0.9531247
510.40 0.9526566
510.50 0.9521888
510.60 0.9517213
510.70 0.9512541
510.80 0.9507871
510.90 0.9503205
511.00 0.9498541
511.10 0.9493881
511.20 0.9489223
511.30 0.9484568
511.40 0.9479916
511.50 0.9475267
511.60 0.9470616
511.70 0.9465955
511.80 0.9461298
511.90 0.9456643
512.00 0.9451992
512.10 0.9447343
512.20 0.9442697
512.30 0.9438068
512.40 0.9433478
512.50 0.9428892
512.60 0.9424308
512.70 0.9419728
512.80 0.941515
512.90 0.9410575
513.00 0.9406002
513.10 0.9401433
513.20 0.9396867
513.30 0.9392303
513.40 0.9387742
513.50 0.9383184
513.60 0.9378629
513.70 0.9374077
513.80 0.9369527
513.90 0.9364981
514.00 0.9360358
514.10 0.9355725
514.20 0.9351095
514.30 0.9346468
514.40 0.9341843
514.50 0.9337222
514.60 0.9332603
514.70 0.9327988
514.80 0.9323375
514.90 0.9318765
515.00 0.9314158
515.10 0.9309554
515.20 0.9304953
515.30 0.9300355
515.40 0.9295759
515.50 0.9291167
515.60 0.9286577
515.70 0.928199
515.80 0.9277406
515.90 0.9272825
516.00 0.9268247
516.10 0.9263671
516.20 0.9259098
516.30 0.9254529
516.40 0.9249962
516.50 0.9245398
516.60 0.9240836
516.70 0.9236277
516.80 0.9231721
516.90 0.9227168
517.00 0.9222618
517.10 0.921807
517.20 0.9213526
517.30 0.9208984
517.40 0.9204445
517.50 0.9199909
517.60 0.9195376
517.70 0.9190845
517.80 0.9186317
517.90 0.9181792
518.00 0.917727
518.10 0.9172751
518.20 0.9168235
518.30 0.9163721
518.40 0.915921
518.50 0.9154702
518.60 0.9150197
518.70 0.9145694
518.80 0.9141195
518.90 0.9136698
519.00 0.9132203
519.10 0.9127705
519.20 0.9123201
519.30 0.91187
519.40 0.9114201
519.50 0.9109706
519.60 0.9105213
519.70 0.9100723
519.80 0.9096236
519.90 0.9091751
520.00 0.908727
520.10 0.9082791
520.20 0.9078315
520.30 0.9073841
520.40 0.9069371
520.50 0.9064903
520.60 0.9060438
520.70 0.9055975
520.80 0.9051516
520.90 0.9047059
521.00 0.9042605
521.10 0.9038154
521.20 0.9033705
521.30 0.9029259
521.40 0.9024816
521.50 0.9020376
521.60 0.9015938
521.70 0.9011504
521.80 0.9007072
521.90 0.9002642
522.00 0.8998216
522.10 0.8993792
522.20 0.8989371
522.30 0.8984952
522.40 0.8980536
522.50 0.8976123
522.60 0.8971713
522.70 0.8967306
522.80 0.8962901
522.90 0.8958499
523.00 0.8954099
523.10 0.8949703
523.20 0.8945309
523.30 0.8940917
523.40 0.8936529
523.50 0.8932143
523.60 0.892776
523.70 0.8923379
523.80 0.8919001
523.90 0.8914626
524.00 0.8910254
524.10 0.8905884
524.20 0.8901517
524.30 0.8897144
524.40 0.8892767
524.50 0.8888393
524.60 0.8884022
524.70 0.8879653
524.80 0.8875287
524.90 0.8870924
525.00 0.8866563
525.10 0.8862205
525.20 0.8857849
525.30 0.8853497
525.40 0.8849147
525.50 0.8844799
525.60 0.8840455
525.70 0.8836113
525.80 0.8831773
525.90 0.8827436
526.00 0.8823102
526.10 0.8818771
526.20 0.8814442
526.30 0.8810116
526.40 0.8805793
526.50 0.8801472
526.60 0.8797154
526.70 0.8792838
526.80 0.8788526
526.90 0.8784215
527.00 0.8779908
527.10 0.8775603
527.20 0.8771301
527.30 0.8767001
527.40 0.8762704
527.50 0.8758409
527.60 0.8754118
527.70 0.8749828
527.80 0.8745542
527.90 0.8741258
528.00 0.8736977
528.10 0.8732698
528.20 0.8728422
528.30 0.8724148
528.40 0.8719878
528.50 0.8715609
528.60 0.8711344
528.70 0.8707081
528.80 0.870282
528.90 0.8698562
529.00 0.8694307
529.10 0.8690055
529.20 0.8685805
529.30 0.8681557
529.40 0.8677312
529.50 0.8673071
529.60 0.8668841
529.70 0.8664614
529.80 0.8660389
529.90 0.8656167
530.00 0.8651948
530.10 0.8647731
530.20 0.8643516
530.30 0.8639304
530.40 0.8635095
530.50 0.8630888
530.60 0.8626684
530.70 0.8622483
530.80 0.8618283
530.90 0.8614087
531.00 0.8609893
531.10 0.8605702
531.20 0.8601513
531.30 0.8597326
531.40 0.8593142
531.50 0.8588961
531.60 0.8584782
531.70 0.8580606
531.80 0.8576433
531.90 0.8572262
532.00 0.8568093
532.10 0.8563927
532.20 0.8559732
532.30 0.8555523
532.40 0.8551317
532.50 0.8547114
532.60 0.8542913
532.70 0.8538714
532.80 0.8534518
532.90 0.8530325
533.00 0.8526134
533.10 0.8521946
533.20 0.851776
533.30 0.8513577
533.40 0.8509397
533.50 0.8505218
533.60 0.8501043
533.70 0.849687
533.80 0.8492699
533.90 0.8488532
534.00 0.8484366
534.10 0.8480203
534.20 0.8476043
534.30 0.8471885
534.40 0.846773
534.50 0.8463577
534.60 0.8459426
534.70 0.8455279
534.80 0.8451135
534.90 0.8447002
535.00 0.8442872
535.10 0.8438744
535.20 0.8434619
535.30 0.8430496
535.40 0.8426376
535.50 0.8422258
535.60 0.8418142
535.70 0.8414029
535.80 0.8409919
535.90 0.8405811
536.00 0.8401706
536.10 0.8397603
536.20 0.8393502
536.30 0.8389404
536.40 0.8385308
536.50 0.8381215
536.60 0.8377125
536.70 0.8373037
536.80 0.8368951
536.90 0.8364868
537.00 0.8360787
537.10 0.8356709
537.20 0.8352633
537.30 0.8348559
537.40 0.8344488
537.50 0.834042
537.60 0.8336354
537.70 0.833229
537.80 0.8328229
537.90 0.832417
538.00 0.8320114
538.10 0.831606
538.20 0.8312009
538.30 0.830796
538.40 0.8303913
538.50 0.8299869
538.60 0.8295828
538.70 0.8291788
538.80 0.8287752
538.90 0.8283717
539.00 0.8279685
539.10 0.8275656
539.20 0.8271629
539.30 0.8267604
539.40 0.8263582
539.50 0.8259562
539.60 0.8255544
539.70 0.8251529
539.80 0.8247517
539.90 0.8243506
540.00 0.8239498
540.10 0.8235493
540.20 0.8231481
540.30 0.8227467
540.40 0.8223456
540.50 0.8219447
540.60 0.821544
540.70 0.8211436
540.80 0.8207434
540.90 0.8203435
541.00 0.8199438
541.10 0.8195443
541.20 0.8191451
541.30 0.8187462
541.40 0.8183474
541.50 0.8179489
541.60 0.8175507
541.70 0.8171526
541.80 0.8167549
541.90 0.8163573
542.00 0.81596
542.10 0.8155629
542.20 0.8151661
542.30 0.8147695
542.40 0.8143731
542.50 0.813977
542.60 0.8135811
542.70 0.8131855
542.80 0.8127901
542.90 0.8123949
543.00 0.812
543.10 0.8116053
543.20 0.8112108
543.30 0.8108165
543.40 0.8104226
543.50 0.8100288
543.60 0.8096353
543.70 0.809242
543.80 0.8088489
543.90 0.8084561
544.00 0.8080635
544.10 0.8076711
544.20 0.807279
544.30 0.8068871
544.40 0.8064955
544.50 0.806104
544.60 0.8057129
544.70 0.8053219
544.80 0.8049312
544.90 0.8045407
545.00 0.8041504
545.10 0.8037604
545.20 0.8033706
545.30 0.802981
545.40 0.8025917
545.50 0.8022026
545.60 0.8018129
545.70 0.801423
545.80 0.8010334
545.90 0.800644
546.00 0.8002548
546.10 0.7998659
546.20 0.7994772
546.30 0.7990887
546.40 0.7987004
546.50 0.7983124
546.60 0.7979246
546.70 0.7975371
546.80 0.7971498
546.90 0.7967627
547.00 0.7963758
547.10 0.7959892
547.20 0.7956028
547.30 0.7952166
547.40 0.7948307
547.50 0.7944449
547.60 0.7940595
547.70 0.7936742
547.80 0.7932892
547.90 0.7929044
548.00 0.7925198
548.10 0.7921354
548.20 0.7917513
548.30 0.7913674
548.40 0.7909837
548.50 0.7906002
548.60 0.790217
548.70 0.789834
548.80 0.7894512
548.90 0.7890686
549.00 0.7886863
549.10 0.7883042
549.20 0.7879223
549.30 0.7875406
549.40 0.7871592
549.50 0.786778
549.60 0.786397
549.70 0.7860162
549.80 0.7856357
549.90 0.7852554
550.00 0.7848753
550.10 0.7844954
550.20 0.7841158
550.30 0.7837364
550.40 0.7833572
550.50 0.7829782
550.60 0.7825995
550.70 0.782221
550.80 0.7818427
550.90 0.7814646
551.00 0.7810869
551.10 0.7807102
551.20 0.7803338
551.30 0.7799576
551.40 0.7795815
551.50 0.7792058
551.60 0.7788302
551.70 0.7784549
551.80 0.7780797
551.90 0.7777048
552.00 0.7773302
552.10 0.7769557
552.20 0.7765815
552.30 0.7762075
552.40 0.7758337
552.50 0.7754601
552.60 0.7750867
552.70 0.7747136
552.80 0.7743407
552.90 0.773968
553.00 0.7735955
553.10 0.7732232
553.20 0.7728512
553.30 0.7724794
553.40 0.7721078
553.50 0.7717364
553.60 0.7713652
553.70 0.7709942
553.80 0.7706235
553.90 0.770253
554.00 0.7698827
554.10 0.7695126
554.20 0.7691427
554.30 0.7687731
554.40 0.7684037
554.50 0.7680344
554.60 0.7676654
554.70 0.7672967
554.80 0.7669281
554.90 0.7665597
555.00 0.7661916
555.10 0.7658237
555.20 0.765456
555.30 0.7650885
555.40 0.7647212
555.50 0.7643541
555.60 0.7639873
555.70 0.7636207
555.80 0.7632542
555.90 0.762888
556.00 0.762522
556.10 0.7621563
556.20 0.7617907
556.30 0.7614254
556.40 0.7610602
556.50 0.7606951
556.60 0.7603272
556.70 0.7599595
556.80 0.759592
556.90 0.7592248
557.00 0.7588577
557.10 0.7584909
557.20 0.7581242
557.30 0.7577578
557.40 0.7573916
557.50 0.7570256
557.60 0.7566599
557.70 0.7562943
557.80 0.755929
557.90 0.7555638
558.00 0.7551989
558.10 0.7548342
558.20 0.7544697
558.30 0.7541054
558.40 0.7537414
558.50 0.7533775
558.60 0.7530139
558.70 0.7526504
558.80 0.7522872
558.90 0.7519242
559.00 0.7515614
559.10 0.7511988
559.20 0.7508364
559.30 0.7504743
559.40 0.7501123
559.50 0.7497506
559.60 0.7493891
559.70 0.7490277
559.80 0.7486666
559.90 0.7483057
560.00 0.747945
560.10 0.7475846
560.20 0.7472243
560.30 0.7468642
560.40 0.7465044
560.50 0.7461447
560.60 0.7457853
560.70 0.7454261
560.80 0.7450671
560.90 0.7447083
561.00 0.7443497
561.10 0.7439913
561.20 0.7436331
561.30 0.7432751
561.40 0.7429174
561.50 0.7425598
561.60 0.7422024
561.70 0.7418453
561.80 0.7414884
561.90 0.7411316
562.00 0.7407751
562.10 0.7404192
562.20 0.740064
562.30 0.739709
562.40 0.7393543
562.50 0.7389997
562.60 0.7386454
562.70 0.7382913
562.80 0.7379373
562.90 0.7375836
563.00 0.7372301
563.10 0.7368767
563.20 0.7365236
563.30 0.7361707
563.40 0.735818
563.50 0.7354655
563.60 0.7351132
563.70 0.7347611
563.80 0.7344092
563.90 0.7340575
564.00 0.733706
564.10 0.7333547
564.20 0.7330037
564.30 0.7326528
564.40 0.7323021
564.50 0.7319516
564.60 0.7316014
564.70 0.7312513
564.80 0.7309014
564.90 0.7305506
565.00 0.7301972
565.10 0.7298439
565.20 0.7294909
565.30 0.729138
565.40 0.7287854
565.50 0.728433
565.60 0.7280808
565.70 0.7277287
565.80 0.7273769
565.90 0.7270253
566.00 0.7266739
566.10 0.7263227
566.20 0.7259717
566.30 0.7256209
566.40 0.7252703
566.50 0.7249199
566.60 0.7245697
566.70 0.7242197
566.80 0.7238699
566.90 0.7235203
567.00 0.7231709
567.10 0.7228218
567.20 0.7224728
567.30 0.722124
567.40 0.7217754
567.50 0.721427
567.60 0.7210788
567.70 0.7207307
567.80 0.7203819
567.90 0.7200333
568.00 0.7196849
568.10 0.7193368
568.20 0.7189888
568.30 0.718641
568.40 0.7182935
568.50 0.7179461
568.60 0.7175989
568.70 0.7172519
568.80 0.7169052
568.90 0.7165586
569.00 0.7162122
569.10 0.7158661
569.20 0.7155201
569.30 0.7151743
569.40 0.7148287
569.50 0.7144833
569.60 0.7141382
569.70 0.7137932
569.80 0.7134484
569.90 0.7131038
570.00 0.7127594
570.10 0.7124152
570.20 0.7120712
570.30 0.7117274
570.40 0.7113838
570.50 0.7110404
570.60 0.7106972
570.70 0.7103542
570.80 0.7100114
570.90 0.7096688
571.00 0.7093264
571.10 0.7089842
571.20 0.7086422
571.30 0.7083003
571.40 0.7079587
571.50 0.7076173
571.60 0.707276
571.70 0.706935
571.80 0.7065941
571.90 0.7062535
572.00 0.705913
572.10 0.7055727
572.20 0.7052327
572.30 0.7048928
572.40 0.7045531
572.50 0.7042136
572.60 0.7038743
572.70 0.7035352
572.80 0.7031963
572.90 0.7028576
573.00 0.7025191
573.10 0.7021808
573.20 0.7018426
573.30 0.7015047
573.40 0.7011651
573.50 0.7008232
573.60 0.7004814
573.70 0.7001398
573.80 0.6997985
573.90 0.6994573
574.00 0.6991164
574.10 0.6987756
574.20 0.698435
574.30 0.6980946
574.40 0.6977544
574.50 0.6974144
574.60 0.6970746
574.70 0.696735
574.80 0.6963956
574.90 0.6960564
575.00 0.6957174
575.10 0.6953785
575.20 0.6950399
575.30 0.6947015
575.40 0.6943632
575.50 0.6940251
575.60 0.6936873
575.70 0.6933496
575.80 0.6930121
575.90 0.6926748
576.00 0.6923377
576.10 0.6920008
576.20 0.6916641
576.30 0.6913276
576.40 0.6909913
576.50 0.6906552
576.60 0.6903192
576.70 0.6899835
576.80 0.6896479
576.90 0.6893125
577.00 0.6889774
577.10 0.6886424
577.20 0.6883076
577.30 0.687973
577.40 0.6876386
577.50 0.6873043
577.60 0.6869645
577.70 0.6866156
577.80 0.6862668
577.90 0.6859182
578.00 0.6855698
578.10 0.6852216
578.20 0.6848736
578.30 0.6845258
578.40 0.6841783
578.50 0.6838309
578.60 0.6834837
578.70 0.6831367
578.80 0.6827899
578.90 0.6824433
579.00 0.6820969
579.10 0.6817499
579.20 0.6813948
579.30 0.6810399
579.40 0.6806851
579.50 0.6803306
579.60 0.6799763
579.70 0.6796222
579.80 0.6792683
579.90 0.6789146
580.00 0.6785611
580.10 0.6781971
580.20 0.6778159
580.30 0.6774349
580.40 0.6770541
580.50 0.6766736
580.60 0.6762932
580.70 0.6759131
580.80 0.6755332
580.90 0.6751536
581.00 0.6747741
581.10 0.6743949
581.20 0.6740159
581.30 0.6736371
581.40 0.6732585
581.50 0.6728802
581.60 0.672502
581.70 0.6721241
581.80 0.6717465
581.90 0.671369
582.00 0.6709917
582.10 0.6705829
582.20 0.6701224
582.30 0.6696622
582.40 0.6692023
582.50 0.6687426
582.60 0.6682833
582.70 0.6678242
582.80 0.6673653
582.90 0.6669068
583.00 0.6664485
583.10 0.6659905
583.20 0.6655328
583.30 0.6650753
583.40 0.6646182
583.50 0.6641613
583.60 0.6636238
583.70 0.662955
583.80 0.6622865
583.90 0.6616184
584.00 0.6609508
584.10 0.6602836
584.20 0.6596168
584.30 0.6589504
584.40 0.6582845
584.50 0.657619
584.60 0.6569538
584.70 0.6562891
584.80 0.6556248
584.90 0.6549069
585.00 0.6539429
585.10 0.6529796
585.20 0.6517667
585.30 0.6501467
585.40 0.6485278
585.50 0.64691
585.60 0.6452932
585.70 0.6436774
585.80 0.6420628
585.90 0.6404492
586.00 0.6388366
586.10 0.6372252
586.20 0.6348306
586.30 0.6311585
586.40 0.6274888
586.50 0.6238216
586.60 0.6201569
586.70 0.6164947
586.80 0.6114164
586.90 0.604028
587.00 0.5966446
587.10 0.5892661
587.20 0.5799486
587.30 0.5674665
587.40 0.5538018
587.50 0.5298929
587.60 0.5132813
587.70 0.5447157
587.80 0.5605133
587.90 0.5729413
588.00 0.5833342
588.10 0.5904149
588.20 0.5974906
588.30 0.6045615
588.40 0.6101293
588.50 0.6132493
588.60 0.6163672
588.70 0.619483
588.80 0.6225966
588.90 0.625708
589.00 0.6280211
589.10 0.629034
589.20 0.6300462
589.30 0.6310576
589.40 0.6320683
589.50 0.6330783
589.60 0.6340876
589.70 0.6350961
589.80 0.6361039
589.90 0.637111
590.00 0.6378191
590.10 0.6380399
590.20 0.6382605
590.30 0.6384809
590.40 0.6387012
590.50 0.6389213
590.60 0.6391411
590.70 0.6393608
590.80 0.6394145
590.90 0.6393936
591.00 0.6393727
591.10 0.6393518
591.20 0.6393309
591.30 0.6393099
591.40 0.6392889
591.50 0.6392679
591.60 0.6391933
591.70 0.6390313
591.80 0.6388693
591.90 0.6387075
592.00 0.6385456
592.10 0.6383839
592.20 0.6382223
592.30 0.6380607
592.40 0.6378992
592.50 0.6377377
592.60 0.6375764
592.70 0.6374151
592.80 0.6372539
592.90 0.6370927
593.00 0.6369316
593.10 0.6367387
593.20 0.6364938
593.30 0.6362491
593.40 0.6360044
593.50 0.6357599
593.60 0.6355155
593.70 0.6352713
593.80 0.6350272
593.90 0.6347832
594.00 0.6345393
594.10 0.6342956
594.20 0.634052
594.30 0.6338085
594.40 0.6335652
594.50 0.6333219
594.60 0.6330788
594.70 0.6328359
594.80 0.632593
594.90 0.6323503
595.00 0.6321077
595.10 0.631855
595.20 0.6315855
595.30 0.6313162
595.40 0.631047
595.50 0.630778
595.60 0.6305091
595.70 0.6302404
595.80 0.6299718
595.90 0.6297034
596.00 0.6294351
596.10 0.6291669
596.20 0.6288989
596.30 0.6286311
596.40 0.6283633
596.50 0.6280958
596.60 0.6278283
596.70 0.6275562
596.80 0.6272813
596.90 0.6270065
597.00 0.6267319
597.10 0.6264574
597.20 0.626183
597.30 0.6259088
597.40 0.6256348
597.50 0.6253609
597.60 0.6250856
597.70 0.6248079
597.80 0.6245304
597.90 0.624253
598.00 0.6239758
598.10 0.6236987
598.20 0.6234218
598.30 0.623145
598.40 0.6228684
598.50 0.622592
598.60 0.6223156
598.70 0.6220395
598.80 0.6217634
598.90 0.6214876
599.00 0.6212118
599.10 0.6209363
599.20 0.6206608
599.30 0.6203856
599.40 0.6201046
599.50 0.6198237
599.60 0.619543
599.70 0.6192625
599.80 0.6189821
599.90 0.6187018
600.00 0.6184217
600.10 0.6181418
600.20 0.617862
600.30 0.6175824
600.40 0.6173029
600.50 0.6170236
600.60 0.6167444
600.70 0.6164654
600.80 0.6161865
600.90 0.6159078
601.00 0.6156292
601.10 0.6153508
601.20 0.6150725
601.30 0.6147944
601.40 0.6145074
601.50 0.6142204
601.60 0.6139337
601.70 0.6136471
601.80 0.6133606
601.90 0.6130743
602.00 0.6127882
602.10 0.6125022
602.20 0.6122164
602.30 0.6119307
602.40 0.6116452
602.50 0.6113599
602.60 0.6110747
602.70 0.6108203
602.80 0.6105676
602.90 0.6102858
603.00 0.6100041
603.10 0.6097227
603.20 0.6094413
603.30 0.6091602
603.40 0.6088791
603.50 0.6085983
603.60 0.6083176
603.70 0.608037
603.80 0.6077566
603.90 0.6074763
604.00 0.6071962
604.10 0.6069163
604.20 0.6066365
604.30 0.6063568
604.40 0.6060773
604.50 0.6057992
604.60 0.6055212
604.70 0.6052434
604.80 0.6049657
604.90 0.6046882
605.00 0.6044108
605.10 0.6041336
605.20 0.6038565
605.30 0.6035796
605.40 0.6033028
605.50 0.6030229
605.60 0.6027432
605.70 0.6024637
605.80 0.6021843
605.90 0.601905
606.00 0.601626
606.10 0.6013309
606.20 0.6010361
606.30 0.6007414
606.40 0.6004468
606.50 0.6001042
606.60 0.5997618
606.70 0.599516
606.80 0.5992221
606.90 0.5989284
607.00 0.5986829
607.10 0.5984376
607.20 0.5981924
607.30 0.5979234
607.40 0.5976544
607.50 0.5973856
607.60 0.5971169
607.70 0.5968404
607.80 0.5965641
607.90 0.5962879
608.00 0.5960118
608.10 0.5957359
608.20 0.5954601
608.30 0.5951977
608.40 0.5949353
608.50 0.5946732
608.60 0.5944111
608.70 0.5941371
608.80 0.5938579
608.90 0.5935788
609.00 0.5932999
609.10 0.5930211
609.20 0.5927425
609.30 0.5924703
609.40 0.5921983
609.50 0.5919265
609.60 0.5916548
609.70 0.5913832
609.80 0.5911118
609.90 0.5908405
610.00 0.5905694
610.10 0.5902984
610.20 0.5900276
610.30 0.5897569
610.40 0.5894863
610.50 0.5892159
610.60 0.5889457
610.70 0.5886756
610.80 0.5884056
610.90 0.588137
611.00 0.5878685
611.10 0.5876002
611.20 0.587332
611.30 0.5870639
611.40 0.586796
611.50 0.5865282
611.60 0.5862606
611.70 0.5859931
611.80 0.5857258
611.90 0.5854586
612.00 0.5851916
612.10 0.5849247
612.20 0.5846579
612.30 0.5843913
612.40 0.5841248
612.50 0.5838585
612.60 0.5835923
612.70 0.5833263
612.80 0.5830604
612.90 0.5827946
613.00 0.582529
613.10 0.5822635
613.20 0.5819982
613.30 0.581733
613.40 0.5814679
613.50 0.581203
613.60 0.5809382
613.70 0.5806736
613.80 0.5804091
613.90 0.5801448
614.00 0.5798806
614.10 0.5796165
614.20 0.5793526
614.30 0.5790888
614.40 0.5788103
614.50 0.5785318
614.60 0.5782535
614.70 0.5779754
614.80 0.5777085
614.90 0.5774441
615.00 0.5771798
615.10 0.5769157
615.20 0.5766517
615.30 0.5763878
615.40 0.5761241
615.50 0.5758605
615.60 0.5755971
615.70 0.5753338
615.80 0.5750706
615.90 0.5748076
616.00 0.5745448
616.10 0.574282
616.20 0.5740194
616.30 0.573757
616.40 0.5734947
616.50 0.5732325
616.60 0.5729705
616.70 0.5727086
616.80 0.5724468
616.90 0.5721833
617.00 0.5719199
617.10 0.5716567
617.20 0.5713936
617.30 0.5711306
617.40 0.5708678
617.50 0.5706051
617.60 0.5703426
617.70 0.5700802
617.80 0.5698179
617.90 0.5695558
618.00 0.5692938
618.10 0.569032
618.20 0.5687703
618.30 0.5685087
618.40 0.5682473
618.50 0.567986
618.60 0.5677249
618.70 0.5674639
618.80 0.567203
618.90 0.5669423
619.00 0.5666817
619.10 0.5664213
619.20 0.5661609
619.30 0.5659008
619.40 0.5656407
619.50 0.5653808
619.60 0.5651211
619.70 0.5648615
619.80 0.564602
619.90 0.5643427
620.00 0.5640835
620.10 0.5638244
620.20 0.5635655
620.30 0.5633067
620.40 0.563048
620.50 0.5627895
620.60 0.5625311
620.70 0.5622729
620.80 0.5620148
620.90 0.5617568
621.00 0.5614989
621.10 0.5612411
621.20 0.5609835
621.30 0.560726
621.40 0.5604686
621.50 0.5602114
621.60 0.5599543
621.70 0.5596973
621.80 0.5594405
621.90 0.5591839
622.00 0.5589273
622.10 0.5586709
622.20 0.5584146
622.30 0.5581585
622.40 0.5579025
622.50 0.5576466
622.60 0.5573909
622.70 0.5571353
622.80 0.5568798
622.90 0.5566245
623.00 0.5563693
623.10 0.5561143
623.20 0.5558594
623.30 0.5556046
623.40 0.5553499
623.50 0.5550954
623.60 0.554841
623.70 0.5545868
623.80 0.5543327
623.90 0.5540787
624.00 0.5538249
624.10 0.5535712
624.20 0.5533176
624.30 0.5530642
624.40 0.5528109
624.50 0.5525577
624.60 0.5523047
624.70 0.5520517
624.80 0.551799
624.90 0.5515463
625.00 0.5512938
625.10 0.5510415
625.20 0.5507892
625.30 0.5505371
625.40 0.5502852
625.50 0.5500333
625.60 0.5497816
625.70 0.5495301
625.80 0.5492786
625.90 0.5490273
626.00 0.5487761
626.10 0.5485251
626.20 0.5482742
626.30 0.5480234
626.40 0.5477728
626.50 0.5475223
626.60 0.5472719
626.70 0.5470216
626.80 0.5467715
626.90 0.5465215
627.00 0.5462717
627.10 0.5460222
627.20 0.5457733
627.30 0.5455246
627.40 0.545276
627.50 0.5450275
627.60 0.5447792
627.70 0.544531
627.80 0.5442829
627.90 0.544035
628.00 0.5437872
628.10 0.5435395
628.20 0.5432919
628.30 0.5430445
628.40 0.5427972
628.50 0.5425501
628.60 0.542303
628.70 0.5420561
628.80 0.5418094
628.90 0.5415627
629.00 0.5413162
629.10 0.5410698
629.20 0.5408236
629.30 0.5405775
629.40 0.5403315
629.50 0.5400856
629.60 0.5398399
629.70 0.5395943
629.80 0.5393488
629.90 0.5391034
630.00 0.5388582
630.10 0.5386131
630.20 0.5383681
630.30 0.5381233
630.40 0.5378786
630.50 0.5376341
630.60 0.5373897
630.70 0.5371454
630.80 0.5369012
630.90 0.5366571
631.00 0.5364132
631.10 0.5361694
631.20 0.5359258
631.30 0.5356822
631.40 0.5354388
631.50 0.5351956
631.60 0.5349524
631.70 0.5347094
631.80 0.5344665
631.90 0.5342237
632.00 0.5339811
632.10 0.5337385
632.20 0.5334961
632.30 0.5332539
632.40 0.5330117
632.50 0.5327697
632.60 0.5325278
632.70 0.5322861
632.80 0.5320445
632.90 0.531803
633.00 0.5315616
633.10 0.5313203
633.20 0.5310792
633.30 0.5308382
633.40 0.5305961
633.50 0.5303533
633.60 0.5301106
633.70 0.529868
633.80 0.5296255
633.90 0.5293832
634.00 0.5291409
634.10 0.5288989
634.20 0.5286569
634.30 0.5284151
634.40 0.5281734
634.50 0.5279318
634.60 0.5276903
634.70 0.527449
634.80 0.5272078
634.90 0.5269667
635.00 0.5267257
635.10 0.5264849
635.20 0.5262442
635.30 0.5260036
635.40 0.5257632
635.50 0.5255229
635.60 0.5252827
635.70 0.5250426
635.80 0.5248026
635.90 0.5245628
636.00 0.5243231
636.10 0.5240835
636.20 0.5238441
636.30 0.5236048
636.40 0.5233656
636.50 0.5231265
636.60 0.52289
636.70 0.522654
636.80 0.5224181
636.90 0.5221823
637.00 0.5219466
637.10 0.521711
637.20 0.5214756
637.30 0.5212403
637.40 0.5210051
637.50 0.52077
637.60 0.5205351
637.70 0.5203003
637.80 0.5200656
637.90 0.519831
638.00 0.5195965
638.10 0.5193622
638.20 0.519128
638.30 0.5188939
638.40 0.5186599
638.50 0.518426
638.60 0.5181923
638.70 0.5179587
638.80 0.5177252
638.90 0.5174918
639.00 0.5172586
639.10 0.5170255
639.20 0.5167925
639.30 0.5165596
639.40 0.5163268
639.50 0.5160942
639.60 0.5158616
639.70 0.5156288
639.80 0.5153945
639.90 0.5151603
640.00 0.5149263
640.10 0.5146924
640.20 0.5144586
640.30 0.5142249
640.40 0.5139913
640.50 0.5137579
640.60 0.5135246
640.70 0.5132914
640.80 0.5130583
640.90 0.5128254
641.00 0.5125925
641.10 0.5123598
641.20 0.5121272
641.30 0.5118948
641.40 0.5116624
641.50 0.5114302
641.60 0.5111981
641.70 0.5109661
641.80 0.5107342
641.90 0.5105025
642.00 0.5102708
642.10 0.5100393
642.20 0.5098079
642.30 0.5095767
642.40 0.5093455
642.50 0.5091145
642.60 0.5088835
642.70 0.5086528
642.80 0.5084221
642.90 0.5081915
643.00 0.507961
643.10 0.5077307
643.20 0.5075005
643.30 0.5072704
643.40 0.5070404
643.50 0.5068105
643.60 0.5065808
643.70 0.5063511
643.80 0.5061216
643.90 0.5058922
644.00 0.5056629
644.10 0.5054338
644.20 0.5052047
644.30 0.5049758
644.40 0.504747
644.50 0.5045183
644.60 0.5042897
644.70 0.5040613
644.80 0.5038329
644.90 0.5036047
645.00 0.5033766
645.10 0.5031486
645.20 0.5029208
645.30 0.502693
645.40 0.5024654
645.50 0.5022379
645.60 0.5020105
645.70 0.5017832
645.80 0.501556
645.90 0.501329
646.00 0.501102
646.10 0.5008761
646.20 0.5006527
646.30 0.5004295
646.40 0.5002063
646.50 0.4999833
646.60 0.4997604
646.70 0.4995376
646.80 0.4993149
646.90 0.4990924
647.00 0.4988699
647.10 0.4986476
647.20 0.4984254
647.30 0.4982033
647.40 0.4979813
647.50 0.4977594
647.60 0.4975376
647.70 0.497316
647.80 0.4970944
647.90 0.496873
648.00 0.4966517
648.10 0.4964305
648.20 0.4962094
648.30 0.4959884
648.40 0.4957675
648.50 0.4955468
648.60 0.4953261
648.70 0.4951056
648.80 0.4948852
648.90 0.4946649
649.00 0.4944447
649.10 0.4942246
649.20 0.4940047
649.30 0.4937848
649.40 0.4935601
649.50 0.4933353
649.60 0.4931106
649.70 0.492886
649.80 0.4926615
649.90 0.4924372
650.00 0.4922129
650.10 0.4919888
650.20 0.4917648
650.30 0.4915409
650.40 0.4913171
650.50 0.4910935
650.60 0.4908699
650.70 0.4906465
650.80 0.4904232
650.90 0.4902
651.00 0.4899769
651.10 0.4897539
651.20 0.489531
651.30 0.4893083
651.40 0.4890856
651.50 0.4888631
651.60 0.4886407
651.70 0.4884184
651.80 0.4881962
651.90 0.4879741
652.00 0.4877522
652.10 0.4875303
652.20 0.4873086
652.30 0.487087
652.40 0.4868655
652.50 0.4866441
652.60 0.4864235
652.70 0.4862035
652.80 0.4859836
652.90 0.4857638
653.00 0.4855441
653.10 0.4853245
653.20 0.485105
653.30 0.4848856
653.40 0.4846664
653.50 0.4844472
653.60 0.4842282
653.70 0.4840092
653.80 0.4837904
653.90 0.4835717
654.00 0.4833531
654.10 0.4831347
654.20 0.4829163
654.30 0.482698
654.40 0.4824799
654.50 0.4822618
654.60 0.4820439
654.70 0.4818261
654.80 0.4816084
654.90 0.4813908
655.00 0.4811733
655.10 0.480956
655.20 0.4807387
655.30 0.4805215
655.40 0.4803045
655.50 0.4800876
655.60 0.4798707
655.70 0.479654
655.80 0.4794377
655.90 0.4792214
656.00 0.4790053
656.10 0.4787893
656.20 0.4785734
656.30 0.4783576
656.40 0.4781419
656.50 0.4779263
656.60 0.4777108
656.70 0.4774955
656.80 0.4772802
656.90 0.4770651
657.00 0.47685
657.10 0.4766351
657.20 0.4764203
657.30 0.4762056
657.40 0.475991
657.50 0.4757765
657.60 0.4755621
657.70 0.4753478
657.80 0.475132
657.90 0.4749154
658.00 0.4746987
658.10 0.4744821
658.20 0.4742656
658.30 0.4740493
658.40 0.473833
658.50 0.4736168
658.60 0.4734008
658.70 0.4731849
658.80 0.4729691
658.90 0.4727533
659.00 0.4725377
659.10 0.4723044
659.20 0.4720446
659.30 0.4718282
659.40 0.471612
659.50 0.4713959
659.60 0.4711799
659.70 0.470964
659.80 0.4707482
659.90 0.4705325
660.00 0.4703169
660.10 0.4701014
660.20 0.4698861
660.30 0.4696708
660.40 0.4694464
660.50 0.4692205
660.60 0.4689947
660.70 0.468769
660.80 0.4685434
660.90 0.4683123
661.00 0.4680813
661.10 0.4678505
661.20 0.4676198
661.30 0.4673892
661.40 0.4671587
661.50 0.4669283
661.60 0.4666981
661.70 0.466468
661.80 0.4662379
661.90 0.4659871
662.00 0.4657363
662.10 0.4654857
662.20 0.4652352
662.30 0.4649849
662.40 0.4647472
662.50 0.4644857
662.60 0.4642244
662.70 0.4639632
662.80 0.4637021
662.90 0.4634412
663.00 0.4631804
663.10 0.4629198
663.20 0.4626996
663.30 0.4624795
663.40 0.4622998
663.50 0.4620799
663.60 0.4618601
663.70 0.4616086
663.80 0.4613573
663.90 0.4611275
664.00 0.4609017
664.10 0.4606021
664.20 0.4603027
664.30 0.4600034
664.40 0.4597043
664.50 0.4594053
664.60 0.4591065
664.70 0.4587321
664.80 0.4583578
664.90 0.4579838
665.00 0.4576099
665.10 0.4572363
665.20 0.4568629
665.30 0.4564896
665.40 0.4561166
665.50 0.4556499
665.60 0.4551669
665.70 0.4544822
665.80 0.4537175
665.90 0.4529533
666.00 0.4521895
666.10 0.4514261
666.20 0.4506631
666.30 0.4499006
666.40 0.4491386
666.50 0.4475528
666.60 0.4458226
666.70 0.4440935
666.80 0.4423653
666.90 0.4406381
667.00 0.438912
667.10 0.4360154
667.20 0.4329139
667.30 0.428562
667.40 0.4242126
667.50 0.4186498
667.60 0.4128758
667.70 0.406477
667.80 0.400392
667.90 0.4034615
668.00 0.4093202
668.10 0.4146194
668.20 0.4198558
668.30 0.4235707
668.40 0.4270155
668.50 0.4304582
668.60 0.4338988
668.70 0.4362867
668.80 0.437557
668.90 0.4388265
669.00 0.4400952
669.10 0.4413632
669.20 0.4426303
669.30 0.4431048
669.40 0.4434393
669.50 0.4437736
669.60 0.4441076
669.70 0.4444415
669.80 0.4447751
669.90 0.4451085
670.00 0.4454416
670.10 0.4457746
670.20 0.4461073
670.30 0.4461686
670.40 0.4461819
670.50 0.4461951
670.60 0.4462084
670.70 0.4462216
670.80 0.4461381
670.90 0.4460545
671.00 0.445971
671.10 0.4458876
671.20 0.4458041
671.30 0.4457207
671.40 0.4456373
671.50 0.445554
671.60 0.4454706
671.70 0.4453874
671.80 0.4453041
671.90 0.4451654
672.00 0.4450169
672.10 0.4448686
672.20 0.4447203
672.30 0.444572
672.40 0.4444224
672.50 0.4442726
672.60 0.444123
672.70 0.4439734
672.80 0.4438239
672.90 0.4436745
673.00 0.4435251
673.10 0.4433758
673.20 0.4432265
673.30 0.4430269
673.40 0.4428452
673.50 0.4426668
673.60 0.4424885
673.70 0.4423103
673.80 0.4421322
673.90 0.4419541
674.00 0.4417761
674.10 0.4415983
674.20 0.4414205
674.30 0.4412428
674.40 0.4410651
674.50 0.4408876
674.60 0.4407102
674.70 0.4405328
674.80 0.4403555
674.90 0.4401783
675.00 0.4400012
675.10 0.4398242
675.20 0.4396473
675.30 0.4394704
675.40 0.4392884
675.50 0.4391055
675.60 0.4389227
675.70 0.4387399
675.80 0.4385573
675.90 0.4383748
676.00 0.4381923
676.10 0.43801
676.20 0.4378277
676.30 0.4376455
676.40 0.4374634
676.50 0.4372814
676.60 0.4370995
676.70 0.4369176
676.80 0.4367359
676.90 0.4365543
677.00 0.4363727
677.10 0.4361912
677.20 0.4360098
677.30 0.4358285
677.40 0.4356473
677.50 0.4354662
677.60 0.4352851
677.70 0.4351042
677.80 0.4349233
677.90 0.4347332
678.00 0.4345415
678.10 0.4343498
678.20 0.4341583
678.30 0.4339669
678.40 0.4337755
678.50 0.4335843
678.60 0.4333931
678.70 0.4332021
678.80 0.4330111
678.90 0.4328203
679.00 0.4326295
679.10 0.4324411
679.20 0.4322538
679.30 0.4320665
679.40 0.4318794
679.50 0.4316923
679.60 0.4315054
679.70 0.4313185
679.80 0.4311317
679.90 0.430945
680.00 0.4307584
680.10 0.4305719
680.20 0.4303855
680.30 0.4301992
680.40 0.430013
680.50 0.4298268
680.60 0.4296408
680.70 0.4294548
680.80 0.429269
680.90 0.4290832
681.00 0.4288975
681.10 0.4287119
681.20 0.4285264
681.30 0.428341
681.40 0.4281557
681.50 0.4279704
681.60 0.4277853
681.70 0.4276002
681.80 0.4274153
681.90 0.4272304
682.00 0.4270456
682.10 0.4268609
682.20 0.4266763
682.30 0.4264918
682.40 0.4263074
682.50 0.426123
682.60 0.4259388
682.70 0.4257546
682.80 0.4255706
682.90 0.4253866
683.00 0.4252027
683.10 0.4250189
683.20 0.4248352
683.30 0.4246516
683.40 0.4244681
683.50 0.4242846
683.60 0.4241013
683.70 0.423918
683.80 0.4237348
683.90 0.4235518
684.00 0.4233688
684.10 0.4231859
684.20 0.423003
684.30 0.4228203
684.40 0.4226377
684.50 0.4224551
684.60 0.4222727
684.70 0.4220903
684.80 0.421908
684.90 0.4217258
685.00 0.4215437
685.10 0.4213617
685.20 0.4211798
685.30 0.4209979
685.40 0.4208162
685.50 0.4206345
685.60 0.4204529
685.70 0.4202714
685.80 0.42009
685.90 0.4199074
686.00 0.4197246
686.10 0.4195419
686.20 0.4193592
686.30 0.4191766
686.40 0.4189942
686.50 0.4188118
686.60 0.4186295
686.70 0.4184473
686.80 0.4182651
686.90 0.4180831
687.00 0.4179012
687.10 0.4177193
687.20 0.4175375
687.30 0.4173559
687.40 0.4171743
687.50 0.4169928
687.60 0.4168113
687.70 0.41663
687.80 0.4164488
687.90 0.4162676
688.00 0.4160865
688.10 0.4159056
688.20 0.4157247
688.30 0.4155439
688.40 0.4153631
688.50 0.4151825
688.60 0.415002
688.70 0.4148215
688.80 0.4146412
688.90 0.4144609
689.00 0.4142807
689.10 0.4141006
689.20 0.4139206
689.30 0.4137406
689.40 0.4135608
689.50 0.413381
689.60 0.4132014
689.70 0.4130218
689.80 0.4128423
689.90 0.4126629
690.00 0.4124835
690.10 0.4123043
690.20 0.4121252
690.30 0.4119461
690.40 0.4117671
690.50 0.4115882
690.60 0.4114094
690.70 0.4112307
690.80 0.4110521
690.90 0.4108735
691.00 0.4106951
691.10 0.4105167
691.20 0.4103384
691.30 0.4101602
691.40 0.4099821
691.50 0.4098041
691.60 0.4096261
691.70 0.4094483
691.80 0.4092705
691.90 0.4090928
692.00 0.4089152
692.10 0.4087377
692.20 0.4085602
692.30 0.4083829
692.40 0.4082056
692.50 0.4080285
692.60 0.4078514
692.70 0.4076743
692.80 0.407497
692.90 0.4073197
693.00 0.4071426
693.10 0.4069655
693.20 0.4067885
693.30 0.4066117
693.40 0.4064348
693.50 0.4062581
693.60 0.4060815
693.70 0.4059049
693.80 0.4057285
693.90 0.4055521
694.00 0.4053758
694.10 0.4051996
694.20 0.4050234
694.30 0.4048474
694.40 0.4046714
694.50 0.4044956
694.60 0.4043198
694.70 0.4041441
694.80 0.4039684
694.90 0.4037929
695.00 0.4036175
695.10 0.4034421
695.20 0.4032668
695.30 0.4030916
695.40 0.4029165
695.50 0.4027415
695.60 0.4025665
695.70 0.4023916
695.80 0.4022169
695.90 0.4020422
696.00 0.4018676
696.10 0.401693
696.20 0.4015186
696.30 0.4013442
696.40 0.4011699
696.50 0.4009957
696.60 0.4008221
696.70 0.4006486
696.80 0.4004752
696.90 0.4003018
697.00 0.4001286
697.10 0.3999554
697.20 0.3997823
697.30 0.3996093
697.40 0.3994364
697.50 0.3992636
697.60 0.3990908
697.70 0.3989182
697.80 0.3987456
697.90 0.3985731
698.00 0.3984007
698.10 0.3982283
698.20 0.3980561
698.30 0.3978839
698.40 0.3977118
698.50 0.3975398
698.60 0.3973679
698.70 0.3971961
698.80 0.3970243
698.90 0.3968526
699.00 0.396681
699.10 0.3965064
699.20 0.3963311
699.30 0.3961559
699.40 0.3959807
699.50 0.3958057
699.60 0.3956307
699.70 0.3954513
699.80 0.3952717
699.90 0.3950922
700.00 0.3949128
700.10 0.3947335
700.20 0.3945543
700.30 0.3943751
700.40 0.3941961
700.50 0.3940171
700.60 0.3938382
700.70 0.3936594
700.80 0.3934807
700.90 0.3933021
701.00 0.3931235
701.10 0.3929443
701.20 0.3927649
701.30 0.3925856
701.40 0.3924064
701.50 0.3922273
701.60 0.3920482
701.70 0.3918693
701.80 0.3916904
701.90 0.3915117
702.00 0.391333
702.10 0.3911544
702.20 0.3909759
702.30 0.3907974
702.40 0.3906191
702.50 0.3904408
702.60 0.3902333
702.70 0.390019
702.80 0.3898048
702.90 0.3895908
703.00 0.3893768
703.10 0.389163
703.20 0.3889492
703.30 0.3887356
703.40 0.388522
703.50 0.3883086
703.60 0.3880952
703.70 0.387882
703.80 0.3876689
703.90 0.3874559
704.00 0.387243
704.10 0.3870302
704.20 0.3867038
704.30 0.386351
704.40 0.3859983
704.50 0.3856458
704.60 0.3852935
704.70 0.3849414
704.80 0.3845895
704.90 0.3842378
705.00 0.3838862
705.10 0.3835349
705.20 0.3828314
705.30 0.3820457
705.40 0.3812604
705.50 0.3804755
705.60 0.3796911
705.70 0.3789071
705.80 0.3773452
705.90 0.3756017
706.00 0.3738591
706.10 0.3721175
706.20 0.3695994
706.30 0.3669004
706.40 0.3643514
706.50 0.3614263
706.60 0.3617927
706.70 0.3641344
706.80 0.3663957
706.90 0.3686691
707.00 0.3703666
707.10 0.3719284
707.20 0.3734893
707.30 0.3750494
707.40 0.3757762
707.50 0.3763076
707.60 0.3768386
707.70 0.3773692
707.80 0.3778996
707.90 0.3784297
708.00 0.3785698
708.10 0.3786185
708.20 0.3786671
708.30 0.3787156
708.40 0.3787642
708.50 0.3788127
708.60 0.3788611
708.70 0.3789095
708.80 0.3789579
708.90 0.3790062
709.00 0.3789216
709.10 0.378806
709.20 0.3786903
709.30 0.3785747
709.40 0.3784592
709.50 0.3783437
709.60 0.3782283
709.70 0.3781129
709.80 0.3779976
709.90 0.3778823
710.00 0.3777671
710.10 0.3776519
710.20 0.3775368
710.30 0.3774217
710.40 0.3773067
710.50 0.3771917
710.60 0.3770535
710.70 0.37691
710.80 0.3767665
710.90 0.3766231
711.00 0.3764798
711.10 0.3763365
711.20 0.3761933
711.30 0.3760501
711.40 0.375907
711.50 0.375764
711.60 0.3756211
711.70 0.3754782
711.80 0.3753354
711.90 0.3751926
712.00 0.3750499
712.10 0.3748997
712.20 0.3747478
712.30 0.3745959
712.40 0.3744441
712.50 0.3742924
712.60 0.3741408
712.70 0.3739892
712.80 0.3738377
712.90 0.3736862
713.00 0.3735349
713.10 0.3733836
713.20 0.3732323
713.30 0.3730812
713.40 0.3729301
713.50 0.3727791
713.60 0.3726281
713.70 0.372473
713.80 0.3723093
713.90 0.3721457
714.00 0.3719822
714.10 0.3718262
714.20 0.3716721
714.30 0.371518
714.40 0.371364
714.50 0.37121
714.60 0.3710561
714.70 0.3709023
714.80 0.3707486
714.90 0.3705949
715.00 0.3704413
715.10 0.3702878
715.20 0.3701343
715.30 0.369981
715.40 0.3698277
715.50 0.3696744
715.60 0.3695212
715.70 0.3693682
715.80 0.3692151
715.90 0.3690622
716.00 0.3689093
716.10 0.3687565
716.20 0.3686037
716.30 0.3684511
716.40 0.3682985
716.50 0.368146
716.60 0.3679888
716.70 0.3678306
716.80 0.3676724
716.90 0.3675143
717.00 0.3673564
717.10 0.3671984
717.20 0.3670406
717.30 0.3668828
717.40 0.3667251
717.50 0.3665675
717.60 0.36641
717.70 0.3662525
717.80 0.3660951
717.90 0.3659377
718.00 0.3657805
718.10 0.3656233
718.20 0.3654682
718.30 0.3653142
718.40 0.3651603
718.50 0.3650064
718.60 0.3648527
718.70 0.364699
718.80 0.3645454
718.90 0.3643918
719.00 0.3642383
719.10 0.3640849
719.20 0.3639316
719.30 0.3637783
719.40 0.3636251
719.50 0.363472
719.60 0.3633189
719.70 0.3631659
719.80 0.363013
719.90 0.3628602
720.00 0.3627074
720.10 0.3625547
720.20 0.3624021
720.30 0.3622495
720.40 0.3620971
720.50 0.3619446
720.60 0.3617923
720.70 0.3616475
720.80 0.3615068
720.90 0.3613548
721.00 0.3612024
721.10 0.3610501
721.20 0.3608978
721.30 0.3607457
721.40 0.3605936
721.50 0.3604415
721.60 0.3602896
721.70 0.3601377
721.80 0.3599859
721.90 0.3598341
722.00 0.3596824
722.10 0.3595308
722.20 0.3593793
722.30 0.3592278
722.40 0.3590764
722.50 0.3589251
722.60 0.3587738
722.70 0.3586211
722.80 0.3584676
722.90 0.3583141
723.00 0.3581607
723.10 0.3580074
723.20 0.3578542
723.30 0.357701
723.40 0.3575479
723.50 0.3573949
723.60 0.357242
723.70 0.3570891
723.80 0.3569363
723.90 0.3567835
724.00 0.3566309
724.10 0.3564783
724.20 0.3563197
724.30 0.3561579
724.40 0.3559963
724.50 0.3558347
724.60 0.3556732
724.70 0.3555117
724.80 0.3553503
724.90 0.355189
725.00 0.3550278
725.10 0.3548667
725.20 0.3547056
725.30 0.3545446
725.40 0.3543837
725.50 0.3542229
725.60 0.3540621
725.70 0.3539014
725.80 0.3537293
725.90 0.3535511
726.00 0.353373
726.10 0.3531949
726.20 0.353017
726.30 0.3528391
726.40 0.3526614
726.50 0.3524837
726.60 0.352306
726.70 0.3521285
726.80 0.3518798
726.90 0.3515929
727.00 0.3513061
727.10 0.3510194
727.20 0.3507329
727.30 0.3504465
727.40 0.3500224
727.50 0.3495242
727.60 0.3490262
727.70 0.3485286
727.80 0.3478571
727.90 0.3470923
728.00 0.3463596
728.10 0.345589
728.20 0.3454523
728.30 0.3458338
728.40 0.3462618
728.50 0.3467012
728.60 0.347021
728.70 0.3472763
728.80 0.3475315
728.90 0.3477865
729.00 0.3478716
729.10 0.3478651
729.20 0.3478586
729.30 0.3478521
729.40 0.3478456
729.50 0.3478391
729.60 0.3477705
729.70 0.3476685
729.80 0.3475666
729.90 0.3474647
730.00 0.3473628
730.10 0.347261
730.20 0.3471593
730.30 0.3470576
730.40 0.3469559
730.50 0.3468543
730.60 0.34673
730.70 0.3465936
730.80 0.3464573
730.90 0.346321
731.00 0.3461848
731.10 0.3460486
731.20 0.3459125
731.30 0.3457765
731.40 0.3456405
731.50 0.3455046
731.60 0.3453687
731.70 0.345233
731.80 0.3450972
731.90 0.3449616
732.00 0.344826
732.10 0.3446904
732.20 0.3445503
732.30 0.3444077
732.40 0.3442652
732.50 0.3441227
732.60 0.3439803
732.70 0.343838
732.80 0.3436958
732.90 0.3435536
733.00 0.3434114
733.10 0.3432694
733.20 0.3431274
733.30 0.3429854
733.40 0.3428436
733.50 0.3427018
733.60 0.34256
733.70 0.3424187
733.80 0.3422777
733.90 0.3421368
734.00 0.3419959
734.10 0.3418551
734.20 0.3417143
734.30 0.3415736
734.40 0.341433
734.50 0.3412924
734.60 0.3411519
734.70 0.3410115
734.80 0.3408711
734.90 0.3407308
735.00 0.3405906
735.10 0.3404504
735.20 0.3403103
735.30 0.3401695
735.40 0.3400196
735.50 0.3398698
735.60 0.3397201
735.70 0.3395753
735.80 0.3394333
735.90 0.3392913
736.00 0.3391493
736.10 0.3390075
736.20 0.3388656
736.30 0.3387239
736.40 0.3385822
736.50 0.3384406
736.60 0.338299
736.70 0.3381576
736.80 0.3380161
736.90 0.3378748
737.00 0.3377335
737.10 0.3375922
737.20 0.3374511
737.30 0.33731
737.40 0.3371689
737.50 0.337028
737.60 0.3368871
737.70 0.3367462
737.80 0.3366054
737.90 0.3364647
738.00 0.3363241
738.10 0.3361835
738.20 0.3360441
738.30 0.3359055
738.40 0.3357669
738.50 0.3356284
738.60 0.33549
738.70 0.3353516
738.80 0.3352133
738.90 0.3350751
739.00 0.3349369
739.10 0.3347988
739.20 0.3346607
739.30 0.3345227
739.40 0.3343848
739.50 0.3342469
739.60 0.3341091
739.70 0.3339714
739.80 0.3338337
739.90 0.333696
740.00 0.3335585
740.10 0.333421
740.20 0.3332835
740.30 0.3331462
740.40 0.3330089
740.50 0.3328716
740.60 0.3327344
740.70 0.3325973
740.80 0.3324602
740.90 0.3323232
741.00 0.3321863
741.10 0.3320494
741.20 0.3319126
741.30 0.3317758
741.40 0.3316391
741.50 0.3315025
741.60 0.3313659
741.70 0.3312294
741.80 0.331093
741.90 0.3309566
742.00 0.3308203
742.10 0.330684
742.20 0.3305478
742.30 0.3304117
742.40 0.3302756
742.50 0.3301396
742.60 0.3300036
742.70 0.3298663
742.80 0.3297278
742.90 0.3295893
743.00 0.329451
743.10 0.3293127
743.20 0.3291745
743.30 0.3290363
743.40 0.3288982
743.50 0.3287601
743.60 0.3286221
743.70 0.3284845
743.80 0.3283481
743.90 0.3282117
744.00 0.3280753
744.10 0.3279391
744.20 0.3278029
744.30 0.3276667
744.40 0.3275307
744.50 0.3273946
744.60 0.3272587
744.70 0.3271228
744.80 0.3269869
744.90 0.3268512
745.00 0.3267155
745.10 0.3265798
745.20 0.3264442
745.30 0.3263087
745.40 0.3261732
745.50 0.3260378
745.60 0.3259025
745.70 0.3257672
745.80 0.3256319
745.90 0.3254968
746.00 0.3253617
746.10 0.3252266
746.20 0.3250916
746.30 0.3249567
746.40 0.3248219
746.50 0.3246871
746.60 0.3245523
746.70 0.3244176
746.80 0.324283
746.90 0.3241485
747.00 0.324014
747.10 0.3238795
747.20 0.3237452
747.30 0.3236108
747.40 0.3234766
747.50 0.3233424
747.60 0.3232082
747.70 0.3230742
747.80 0.3229402
747.90 0.3228062
748.00 0.3226723
748.10 0.3225385
748.20 0.3224047
748.30 0.322271
748.40 0.3221373
748.50 0.3220037
748.60 0.3218702
748.70 0.3217367
748.80 0.3216033
748.90 0.3214699
749.00 0.3213366
749.10 0.3212034
749.20 0.3210702
749.30 0.3209371
749.40 0.320804
749.50 0.320671
749.60 0.3205381
749.70 0.3204052
749.80 0.3202724
749.90 0.3201396
750.00 0.3200069
750.10 0.3198749
750.20 0.3197442
750.30 0.3196136
750.40 0.3194831
750.50 0.3193527
750.60 0.3192223
750.70 0.3190919
750.80 0.3189616
750.90 0.3188314
751.00 0.3187012
751.10 0.3185711
751.20 0.3184411
751.30 0.3183111
751.40 0.3181811
751.50 0.3180513
751.60 0.3179215
751.70 0.3177917
751.80 0.317662
751.90 0.3175323
752.00 0.3174027
752.10 0.3172732
752.20 0.3171437
752.30 0.3170143
752.40 0.316885
752.50 0.3167557
752.60 0.3166264
752.70 0.3164972
752.80 0.3163681
752.90 0.316239
753.00 0.31611
753.10 0.3159811
753.20 0.3158522
753.30 0.3157233
753.40 0.3155945
753.50 0.3154658
753.60 0.3153371
753.70 0.3152085
753.80 0.31508
753.90 0.3149502
754.00 0.3148201
754.10 0.31469
754.20 0.31456
754.30 0.3144301
754.40 0.3143002
754.50 0.3141704
754.60 0.3140407
754.70 0.313911
754.80 0.3137813
754.90 0.3136517
755.00 0.3135222
755.10 0.3133927
755.20 0.3132633
755.30 0.313134
755.40 0.3130047
755.50 0.3128754
755.60 0.3127462
755.70 0.3126171
755.80 0.3124881
755.90 0.312359
756.00 0.3122301
756.10 0.3121012
756.20 0.3119724
756.30 0.3118436
756.40 0.3117149
756.50 0.3115862
756.60 0.3114576
756.70 0.311329
756.80 0.3112005
756.90 0.3110721
757.00 0.3109437
757.10 0.3108154
757.20 0.3106871
757.30 0.3105589
757.40 0.3104308
757.50 0.3103027
757.60 0.3101748
757.70 0.3100472
757.80 0.3099198
757.90 0.3097924
758.00 0.309665
758.10 0.3095377
758.20 0.3094105
758.30 0.3092833
758.40 0.3091562
758.50 0.3090291
758.60 0.3089021
758.70 0.3087751
758.80 0.3086482
758.90 0.3085214
759.00 0.3083946
759.10 0.3082679
759.20 0.3081412
759.30 0.3080146
759.40 0.307888
759.50 0.3077615
759.60 0.3076351
759.70 0.3075087
759.80 0.3073823
759.90 0.307256
760.00 0.3071298
760.10 0.3070036
760.20 0.3068775
760.30 0.3067515
760.40 0.3066254
760.50 0.3064995
760.60 0.3063736
760.70 0.3062478
760.80 0.306122
760.90 0.3059963
761.00 0.3058706
761.10 0.305745
761.20 0.3056194
761.30 0.3054939
761.40 0.3053691
761.50 0.3052453
761.60 0.3051216
761.70 0.3049979
761.80 0.3048743
761.90 0.3047507
762.00 0.3046272
762.10 0.3045038
762.20 0.3043804
762.30 0.304257
762.40 0.3041337
762.50 0.3040105
762.60 0.3038873
762.70 0.3037642
762.80 0.3036411
762.90 0.3035181
763.00 0.3033951
763.10 0.3032722
763.20 0.3031494
763.30 0.3030265
763.40 0.3029038
763.50 0.3027811
763.60 0.3026585
763.70 0.3025359
763.80 0.3024133
763.90 0.3022908
764.00 0.3021684
764.10 0.302046
764.20 0.3019237
764.30 0.3018015
764.40 0.3016792
764.50 0.3015571
764.60 0.301435
764.70 0.3013129
764.80 0.3011909
764.90 0.301069
765.00 0.3009471
765.10 0.3008253
765.20 0.3007033
765.30 0.3005812
765.40 0.3004591
765.50 0.3003372
765.60 0.3002152
765.70 0.3000933
765.80 0.2999715
765.90 0.2998497
766.00 0.299728
766.10 0.2996064
766.20 0.2994847
766.30 0.2993632
766.40 0.2992417
766.50 0.2991202
766.60 0.2989988
766.70 0.2988775
766.80 0.2987562
766.90 0.2986349
767.00 0.2985138
767.10 0.2983926
767.20 0.2982715
767.30 0.2981505
767.40 0.2980295
767.50 0.2979086
767.60 0.2977877
767.70 0.2976669
767.80 0.2975462
767.90 0.2974254
768.00 0.2973048
768.10 0.2971842
768.20 0.2970636
768.30 0.2969431
768.40 0.2968227
768.50 0.2967023
768.60 0.2965819
768.70 0.2964616
768.80 0.2963414
768.90 0.2962212
769.00 0.2961011
769.10 0.295981
769.20 0.295861
769.30 0.295741
769.40 0.2956211
769.50 0.2955012
769.60 0.2953814
769.70 0.2952616
769.80 0.2951419
769.90 0.2950223
770.00 0.2949026
770.10 0.2947831
770.20 0.2946636
770.30 0.2945441
770.40 0.2944247
770.50 0.2943054
770.60 0.2941861
770.70 0.2940668
770.80 0.2939476
770.90 0.2938285
771.00 0.2937094
771.10 0.2935904
771.20 0.2934714
771.30 0.2933525
771.40 0.2932336
771.50 0.2931147
771.60 0.292996
771.70 0.2928772
771.80 0.2927586
771.90 0.2926399
772.00 0.2925214
772.10 0.2924029
772.20 0.2922844
772.30 0.292166
772.40 0.2920476
772.50 0.2919293
772.60 0.291811
772.70 0.2916928
772.80 0.2915747
772.90 0.291457
773.00 0.2913393
773.10 0.2912217
773.20 0.2911042
773.30 0.2909867
773.40 0.2908693
773.50 0.2907519
773.60 0.2906346
773.70 0.2905173
773.80 0.2904001
773.90 0.2902829
774.00 0.2901658
774.10 0.2900487
774.20 0.2899317
774.30 0.2898147
774.40 0.2896978
774.50 0.2895809
774.60 0.2894641
774.70 0.2893473
774.80 0.2892306
774.90 0.2891139
775.00 0.2889973
775.10 0.2888807
775.20 0.2887642
775.30 0.2886477
775.40 0.2885313
775.50 0.2884149
775.60 0.2882986
775.70 0.2881823
775.80 0.2880661
775.90 0.28795
776.00 0.2878339
776.10 0.2877178
776.20 0.2876018
776.30 0.2874858
776.40 0.2873699
776.50 0.287254
776.60 0.2871382
776.70 0.2870224
776.80 0.2869067
776.90 0.2867911
777.00 0.2866755
777.10 0.2865599
777.20 0.2864444
777.30 0.2863289
777.40 0.2862135
777.50 0.2860981
777.60 0.2859828
777.70 0.2858675
777.80 0.2857523
777.90 0.2856372
778.00 0.2855221
778.10 0.285407
778.20 0.285292
778.30 0.285177
778.40 0.2850621
778.50 0.2849472
778.60 0.2848324
778.70 0.2847176
778.80 0.2846029
778.90 0.2844882
779.00 0.2843736
779.10 0.2842591
779.20 0.2841445
779.30 0.2840301
779.40 0.2839156
779.50 0.2838013
779.60 0.2836869
779.70 0.2835727
779.80 0.2834584
779.90 0.2833443
780.00 0.2832301
780.10 0.2831161
780.20 0.283002
780.30 0.2828881
780.40 0.2827741
780.50 0.2826603
780.60 0.2825462
780.70 0.2824321
780.80 0.282318
780.90 0.282204
781.00 0.28209
781.10 0.2819761
781.20 0.2818622
781.30 0.2817484
781.40 0.2816346
781.50 0.2815209
781.60 0.2814072
781.70 0.2812936
781.80 0.28118
781.90 0.2810665
782.00 0.280953
782.10 0.2808396
782.20 0.2807262
782.30 0.2806129
782.40 0.2804996
782.50 0.2803863
782.60 0.2802731
782.70 0.28016
782.80 0.2800469
782.90 0.2799339
783.00 0.2798209
783.10 0.2797079
783.20 0.279595
783.30 0.2794822
783.40 0.2793694
783.50 0.2792566
783.60 0.2791439
783.70 0.2790313
783.80 0.2789187
783.90 0.2788061
784.00 0.2786936
784.10 0.2785812
784.20 0.2784687
784.30 0.2783564
784.40 0.2782441
784.50 0.2781318
784.60 0.27802
784.70 0.2779094
784.80 0.2777988
784.90 0.2776883
785.00 0.2775778
785.10 0.2774673
785.20 0.2773569
785.30 0.2772465
785.40 0.2771362
785.50 0.277026
785.60 0.2769157
785.70 0.2768056
785.80 0.2766954
785.90 0.2765854
786.00 0.2764753
786.10 0.2763654
786.20 0.2762554
786.30 0.2761455
786.40 0.2760357
786.50 0.2759259
786.60 0.2758161
786.70 0.2757064
786.80 0.2755968
786.90 0.2754872
787.00 0.2753776
787.10 0.2752681
787.20 0.2751586
787.30 0.2750492
787.40 0.2749399
787.50 0.2748305
787.60 0.2747212
787.70 0.274612
787.80 0.2745028
787.90 0.2743937
788.00 0.2742846
788.10 0.2741755
788.20 0.2740665
788.30 0.2739576
788.40 0.2738479
788.50 0.273738
788.60 0.2736281
788.70 0.2735182
788.80 0.2734084
788.90 0.2732986
789.00 0.2731889
789.10 0.2730792
789.20 0.2729695
789.30 0.2728599
789.40 0.2727504
789.50 0.2726409
789.60 0.2725315
789.70 0.2724221
789.80 0.2723127
789.90 0.2722034
790.00 0.2720941
790.10 0.2719849
790.20 0.2718757
790.30 0.2717666
790.40 0.2716575
790.50 0.2715485
790.60 0.2714395
790.70 0.2713306
790.80 0.2712217
790.90 0.2711128
791.00 0.271004
791.10 0.2708953
791.20 0.2707866
791.30 0.2706779
791.40 0.2705693
791.50 0.2704608
791.60 0.2703522
791.70 0.2702438
791.80 0.2701353
791.90 0.2700269
792.00 0.2699186
792.10 0.2698103
792.20 0.2697021
792.30 0.2695942
792.40 0.2694875
792.50 0.2693808
792.60 0.2692742
792.70 0.2691676
792.80 0.269061
792.90 0.2689545
793.00 0.2688481
793.10 0.2687417
793.20 0.2686353
793.30 0.268529
793.40 0.2684227
793.50 0.2683165
793.60 0.2682103
793.70 0.2681041
793.80 0.267998
793.90 0.267892
794.00 0.267786
794.10 0.26768
794.20 0.2675741
794.30 0.2674682
794.40 0.2673624
794.50 0.2672566
794.60 0.2671509
794.70 0.2670452
794.80 0.2669395
794.90 0.2668339
795.00 0.2667284
795.10 0.2666229
795.20 0.2665174
795.30 0.266412
795.40 0.2663066
795.50 0.2662012
795.60 0.2660959
795.70 0.2659907
795.80 0.2658855
795.90 0.2657803
796.00 0.2656752
796.10 0.2655702
796.20 0.2654651
796.30 0.2653599
796.40 0.2652546
796.50 0.2651494
796.60 0.2650443
796.70 0.2649391
796.80 0.2648341
796.90 0.264729
797.00 0.264624
797.10 0.2645191
797.20 0.2644142
797.30 0.2643093
797.40 0.2642045
797.50 0.2640998
797.60 0.263995
797.70 0.2638904
797.80 0.2637857
797.90 0.2636811
798.00 0.2635766
798.10 0.2634721
798.20 0.2633676
798.30 0.2632632
798.40 0.2631589
798.50 0.2630545
798.60 0.2629503
798.70 0.262846
798.80 0.2627418
798.90 0.2626377
799.00 0.2625336
799.10 0.2624295
799.20 0.2623255
799.30 0.2622215
799.40 0.2621176
799.50 0.2620137
799.60 0.2619099
799.70 0.2618061
799.80 0.2617023
799.90 0.2615986
800.00 0.2614949
800.10 0.2613913
800.20 0.2612877
800.30 0.2611842
800.40 0.2610807
800.50 0.2609773
800.60 0.2608738
800.70 0.2607705
800.80 0.2606672
800.90 0.2605639
801.00 0.2604607
801.10 0.2603575
801.20 0.2602543
801.30 0.2601512
801.40 0.2600482
801.50 0.2599452
801.60 0.2598422
801.70 0.2597393
801.80 0.2596364
801.90 0.2595335
802.00 0.2594307
802.10 0.259328
802.20 0.2592253
802.30 0.2591226
802.40 0.25902
802.50 0.2589174
802.60 0.2588148
802.70 0.2587124
802.80 0.2586099
802.90 0.2585075
803.00 0.2584051
803.10 0.2583028
803.20 0.2582005
803.30 0.2580983
803.40 0.2579961
803.50 0.2578939
803.60 0.2577918
803.70 0.2576898
803.80 0.2575877
803.90 0.2574857
804.00 0.2573838
804.10 0.2572819
804.20 0.25718
804.30 0.2570779
804.40 0.2569758
804.50 0.2568738
804.60 0.2567718
804.70 0.2566698
804.80 0.2565679
804.90 0.2564661
805.00 0.2563643
805.10 0.2562625
805.20 0.2561608
805.30 0.2560591
805.40 0.2559574
805.50 0.2558558
805.60 0.2557543
805.70 0.2556527
805.80 0.2555513
805.90 0.2554498
806.00 0.2553484
806.10 0.2552471
806.20 0.2551458
806.30 0.2550445
806.40 0.2549433
806.50 0.2548421
806.60 0.254741
806.70 0.2546399
806.80 0.2545388
806.90 0.2544378
807.00 0.2543369
807.10 0.2542359
807.20 0.2541351
807.30 0.2540342
807.40 0.2539334
807.50 0.2538327
807.60 0.253732
807.70 0.2536313
807.80 0.2535307
807.90 0.2534301
808.00 0.2533295
808.10 0.253229
808.20 0.2531286
808.30 0.2530295
808.40 0.2529305
808.50 0.2528315
808.60 0.2527325
808.70 0.2526336
808.80 0.2525348
808.90 0.2524359
809.00 0.2523372
809.10 0.2522384
809.20 0.2521397
809.30 0.2520411
809.40 0.2519424
809.50 0.2518439
809.60 0.2517453
809.70 0.2516468
809.80 0.2515484
809.90 0.25145
810.00 0.2513516
810.10 0.2512533
810.20 0.251155
810.30 0.2510567
810.40 0.2509585
810.50 0.2508604
810.60 0.2507622
810.70 0.2506641
810.80 0.2505661
810.90 0.2504681
811.00 0.2503701
811.10 0.2502722
811.20 0.2501743
811.30 0.2500765
811.40 0.2499787
811.50 0.2498809
811.60 0.2497832
811.70 0.2496855
811.80 0.2495879
811.90 0.2494903
812.00 0.2493927
812.10 0.2492952
812.20 0.2491977
812.30 0.2491004
812.40 0.2490031
812.50 0.2489058
812.60 0.2488086
812.70 0.2487115
812.80 0.2486143
812.90 0.2485173
813.00 0.2484202
813.10 0.2483232
813.20 0.2482262
813.30 0.2481293
813.40 0.2480324
813.50 0.2479356
813.60 0.2478388
813.70 0.247742
813.80 0.2476453
813.90 0.2475486
814.00 0.2474519
814.10 0.2473553
814.20 0.2472588
814.30 0.2471622
814.40 0.2470657
814.50 0.2469693
814.60 0.2468729
814.70 0.2467765
814.80 0.2466802
814.90 0.2465839
815.00 0.2464876
815.10 0.2463914
815.20 0.2462953
815.30 0.2461991
815.40 0.2461031
815.50 0.246007
815.60 0.245911
815.70 0.245815
815.80 0.2457191
815.90 0.2456232
816.00 0.2455274
816.10 0.2454315
816.20 0.2453358
816.30 0.24524
816.40 0.2451443
816.50 0.2450487
816.60 0.2449531
816.70 0.2448575
816.80 0.244762
816.90 0.2446665
817.00 0.244571
817.10 0.2444756
817.20 0.2443802
817.30 0.2442849
817.40 0.2441896
817.50 0.2440943
817.60 0.2439991
817.70 0.2439039
817.80 0.2438088
817.90 0.2437137
818.00 0.2436186
818.10 0.2435236
818.20 0.2434286
818.30 0.2433337
818.40 0.2432388
818.50 0.2431439
818.60 0.2430491
818.70 0.2429543
818.80 0.2428595
818.90 0.2427648
819.00 0.2426701
819.10 0.2425755
819.20 0.2424809
819.30 0.242389
819.40 0.2422988
819.50 0.2422086
819.60 0.2421185
819.70 0.2420284
819.80 0.2419384
819.90 0.2418484
820.00 0.2417584
820.10 0.2416476
820.20 0.2415393
820.30 0.2414576
820.40 0.241369
820.50 0.2412753
820.60 0.2411817
820.70 0.2410881
820.80 0.2409946
820.90 0.2409011
821.00 0.2408076
821.10 0.2407142
821.20 0.2406208
821.30 0.2405275
821.40 0.2404341
821.50 0.2403409
821.60 0.2402476
821.70 0.2401544
821.80 0.2400613
821.90 0.2399682
822.00 0.2398751
822.10 0.239782
822.20 0.239689
822.30 0.2395961
822.40 0.2395031
822.50 0.2394102
822.60 0.2393174
822.70 0.2392246
822.80 0.2391318
822.90 0.239039
823.00 0.2389463
823.10 0.2388537
823.20 0.2387611
823.30 0.2386685
823.40 0.2385759
823.50 0.2384834
823.60 0.2383909
823.70 0.2382985
823.80 0.2382061
823.90 0.2381137
824.00 0.2380214
824.10 0.2379291
824.20 0.2378369
824.30 0.2377447
824.40 0.2376525
824.50 0.2375604
824.60 0.2374683
824.70 0.2373762
824.80 0.2372842
824.90 0.2371922
825.00 0.2371003
825.10 0.2370084
825.20 0.2369165
825.30 0.2368246
825.40 0.2367329
825.50 0.2366411
825.60 0.2365494
825.70 0.2364577
825.80 0.236366
825.90 0.2362744
826.00 0.2361829
826.10 0.2360913
826.20 0.2359998
826.30 0.2359074
826.40 0.2358142
826.50 0.2357212
826.60 0.2356281
826.70 0.2355351
826.80 0.2354422
826.90 0.2353493
827.00 0.2352564
827.10 0.2351635
827.20 0.2350707
827.30 0.2349779
827.40 0.2348852
827.50 0.2347925
827.60 0.2346999
827.70 0.2346072
827.80 0.2345147
827.90 0.2344221
828.00 0.2343296
828.10 0.2342371
828.20 0.2341447
828.30 0.2340523
828.40 0.23396
828.50 0.2338676
828.60 0.2337765
828.70 0.2336865
828.80 0.2335964
828.90 0.2335064
829.00 0.2334165
829.10 0.2333266
829.20 0.2332367
829.30 0.2331468
829.40 0.233057
829.50 0.2329672
829.60 0.2328775
829.70 0.2327878
829.80 0.2326981
829.90 0.2326085
830.00 0.2325189
830.10 0.2324293
830.20 0.2323398
830.30 0.2322503
830.40 0.2321609
830.50 0.2320715
830.60 0.2319821
830.70 0.2318928
830.80 0.2318035
830.90 0.2317142
831.00 0.231625
831.10 0.2315358
831.20 0.2314466
831.30 0.2313575
831.40 0.2312684
831.50 0.2311793
831.60 0.2310903
831.70 0.2310014
831.80 0.2309124
831.90 0.2308235
832.00 0.2307346
832.10 0.2306458
832.20 0.230557
832.30 0.2304682
832.40 0.2303795
832.50 0.2302908
832.60 0.2302022
832.70 0.2301136
832.80 0.230025
832.90 0.2299364
833.00 0.2298479
833.10 0.2297594
833.20 0.229671
833.30 0.2295826
833.40 0.2294942
833.50 0.2294059
833.60 0.2293176
833.70 0.2292294
833.80 0.2291411
833.90 0.2290529
834.00 0.2289648
834.10 0.2288767
834.20 0.2287886
834.30 0.2287006
834.40 0.2286125
834.50 0.2285246
834.60 0.2284366
834.70 0.2283487
834.80 0.2282609
834.90 0.228173
835.00 0.2280852
835.10 0.2279975
835.20 0.2279098
835.30 0.2278221
835.40 0.2277344
835.50 0.2276468
835.60 0.2275592
835.70 0.2274717
835.80 0.2273841
835.90 0.2272967
836.00 0.2272092
836.10 0.2271218
836.20 0.2270345
836.30 0.2269471
836.40 0.2268598
836.50 0.2267726
836.60 0.2266853
836.70 0.2265981
836.80 0.226511
836.90 0.2264241
837.00 0.2263373
837.10 0.2262506
837.20 0.2261639
837.30 0.2260772
837.40 0.2259906
837.50 0.225904
837.60 0.2258175
837.70 0.225731
837.80 0.2256445
837.90 0.225558
838.00 0.2254716
838.10 0.2253852
838.20 0.2252989
838.30 0.2252126
838.40 0.2251263
838.50 0.2250401
838.60 0.2249539
838.70 0.2248677
838.80 0.2247816
838.90 0.2246955
839.00 0.2246094
839.10 0.2245234
839.20 0.2244374
839.30 0.2243514
839.40 0.2242655
839.50 0.2241796
839.60 0.2240937
839.70 0.2240079
839.80 0.2239221
839.90 0.2238364
840.00 0.2237506
840.10 0.223665
840.20 0.2235793
840.30 0.2234937
840.40 0.2234081
840.50 0.2233226
840.60 0.223237
840.70 0.2231516
840.80 0.2230661
840.90 0.2229807
841.00 0.2228953
841.10 0.222811
841.20 0.2227269
841.30 0.2226428
841.40 0.2225588
841.50 0.2224748
841.60 0.2223908
841.70 0.2223069
841.80 0.222223
841.90 0.2221391
842.00 0.2220553
842.10 0.2219715
842.20 0.2218877
842.30 0.221804
842.40 0.2217203
842.50 0.2216366
842.60 0.221553
842.70 0.2214694
842.80 0.2213858
842.90 0.2213023
843.00 0.2212188
843.10 0.2211354
843.20 0.2210519
843.30 0.2209685
843.40 0.2208852
843.50 0.2208018
843.60 0.2207185
843.70 0.2206353
843.80 0.220552
843.90 0.2204688
844.00 0.2203857
844.10 0.2203025
844.20 0.2202194
844.30 0.2201364
844.40 0.2200533
844.50 0.2199703
844.60 0.2198874
844.70 0.2198044
844.80 0.2197215
844.90 0.2196387
845.00 0.2195558
845.10 0.219473
845.20 0.2193903
845.30 0.2193067
845.40 0.2192231
845.50 0.2191395
845.60 0.219056
845.70 0.2189725
845.80 0.2188891
845.90 0.2188057
846.00 0.2187223
846.10 0.218639
846.20 0.2185557
846.30 0.2184724
846.40 0.2183891
846.50 0.2183059
846.60 0.2182228
846.70 0.2181396
846.80 0.2180565
846.90 0.2179734
847.00 0.2178904
847.10 0.2178074
847.20 0.2177244
847.30 0.2176414
847.40 0.2175585
847.50 0.2174757
847.60 0.2173928
847.70 0.21731
847.80 0.2172272
847.90 0.2171445
848.00 0.2170618
848.10 0.2169791
848.20 0.2168964
848.30 0.2168138
848.40 0.2167312
848.50 0.2166487
848.60 0.2165662
848.70 0.2164837
848.80 0.2164012
848.90 0.2163188
849.00 0.2162364
849.10 0.2161541
849.20 0.2160718
849.30 0.2159895
849.40 0.2159072
849.50 0.215825
849.60 0.2157428
849.70 0.2156607
849.80 0.2155785
849.90 0.2154964
850.00 0.2154144
850.10 0.2153324
850.20 0.2152504
850.30 0.2151684
850.40 0.2150865
850.50 0.2150046
850.60 0.2149227
850.70 0.2148409
850.80 0.2147591
850.90 0.2146773
851.00 0.2145956
851.10 0.2145139
851.20 0.2144322
851.30 0.2143506
851.40 0.214269
851.50 0.2141874
851.60 0.2141059
851.70 0.2140244
851.80 0.2139429
851.90 0.2138615
852.00 0.2137801
852.10 0.2136987
852.20 0.2136174
852.30 0.213536
852.40 0.2134548
852.50 0.2133735
852.60 0.2132923
852.70 0.2132111
852.80 0.21313
852.90 0.2130489
853.00 0.2129678
853.10 0.2128867
853.20 0.2128057
853.30 0.2127247
853.40 0.2126438
853.50 0.2125628
853.60 0.2124819
853.70 0.2124012
853.80 0.2123207
853.90 0.2122402
854.00 0.2121598
854.10 0.2120793
854.20 0.2119989
854.30 0.2119186
854.40 0.2118382
854.50 0.2117579
854.60 0.2116777
854.70 0.2115974
854.80 0.2115172
854.90 0.2114371
855.00 0.2113569
855.10 0.2112768
855.20 0.2111967
855.30 0.2111167
855.40 0.2110367
855.50 0.2109567
855.60 0.2108767
855.70 0.2107968
855.80 0.2107169
855.90 0.2106371
856.00 0.2105573
856.10 0.2104775
856.20 0.2103977
856.30 0.210318
856.40 0.2102383
856.50 0.2101586
856.60 0.210079
856.70 0.2099994
856.80 0.2099198
856.90 0.2098403
857.00 0.2097607
857.10 0.2096813
857.20 0.2096018
857.30 0.2095224
857.40 0.209443
857.50 0.2093637
857.60 0.2092843
857.70 0.2092051
857.80 0.2091258
857.90 0.2090466
858.00 0.2089683
858.10 0.2088902
858.20 0.2088122
858.30 0.2087343
858.40 0.2086563
858.50 0.2085784
858.60 0.2085005
858.70 0.2084227
858.80 0.2083448
858.90 0.208267
859.00 0.2081893
859.10 0.2081116
859.20 0.2080339
859.30 0.2079562
859.40 0.2078785
859.50 0.2078009
859.60 0.2077234
859.70 0.2076458
859.80 0.2075683
859.90 0.2074908
860.00 0.2074133
860.10 0.2073359
860.20 0.2072585
860.30 0.2071812
860.40 0.2071038
860.50 0.2070265
860.60 0.2069492
860.70 0.206872
860.80 0.2067948
860.90 0.2067176
861.00 0.2066405
861.10 0.2065633
861.20 0.2064862
861.30 0.2064092
861.40 0.2063321
861.50 0.2062551
861.60 0.2061782
861.70 0.2061012
861.80 0.2060243
861.90 0.2059474
862.00 0.2058706
862.10 0.2057938
862.20 0.2057169
862.30 0.2056393
862.40 0.2055617
862.50 0.2054842
862.60 0.2054067
862.70 0.2053293
862.80 0.2052519
862.90 0.2051745
863.00 0.2050971
863.10 0.2050198
863.20 0.2049425
863.30 0.2048652
863.40 0.204788
863.50 0.2047107
863.60 0.2046336
863.70 0.2045564
863.80 0.2044793
863.90 0.2044022
864.00 0.2043251
864.10 0.2042481
864.20 0.2041711
864.30 0.2040941
864.40 0.2040172
864.50 0.2039403
864.60 0.2038634
864.70 0.2037865
864.80 0.2037097
864.90 0.2036329
865.00 0.2035562
865.10 0.2034794
865.20 0.2034027
865.30 0.2033261
865.40 0.2032494
865.50 0.2031728
865.60 0.2030962
865.70 0.2030197
865.80 0.2029432
865.90 0.2028667
866.00 0.2027902
866.10 0.2027138
866.20 0.2026374
866.30 0.202561
866.40 0.2024847
866.50 0.2024084
866.60 0.2023321
866.70 0.2022558
866.80 0.2021796
866.90 0.2021034
867.00 0.2020273
867.10 0.2019511
867.20 0.201875
867.30 0.201799
867.40 0.2017229
867.50 0.2016469
867.60 0.2015709
867.70 0.201495
867.80 0.201419
867.90 0.2013431
868.00 0.2012673
868.10 0.2011914
868.20 0.2011156
868.30 0.2010399
868.40 0.2009641
868.50 0.2008884
868.60 0.2008127
868.70 0.200737
868.80 0.2006614
868.90 0.2005858
869.00 0.2005102
869.10 0.2004347
869.20 0.2003592
869.30 0.2002837
869.40 0.2002083
869.50 0.2001328
869.60 0.2000574
869.70 0.1999821
869.80 0.1999067
869.90 0.1998314
870.00 0.1997562
870.10 0.1996809
870.20 0.1996057
870.30 0.1995305
870.40 0.1994554
870.50 0.1993802
870.60 0.1993051
870.70 0.1992301
870.80 0.199155
870.90 0.1990812
871.00 0.1990076
871.10 0.198934
871.20 0.1988605
871.30 0.1987869
871.40 0.1987134
871.50 0.1986399
871.60 0.1985665
871.70 0.1984931
871.80 0.1984197
871.90 0.1983463
872.00 0.198273
872.10 0.1981997
872.20 0.1981264
872.30 0.1980531
872.40 0.1979799
872.50 0.1979067
872.60 0.1978335
872.70 0.1977604
872.80 0.1976873
872.90 0.1976142
873.00 0.1975412
873.10 0.1974681
873.20 0.1973952
873.30 0.1973222
873.40 0.1972492
873.50 0.1971763
873.60 0.1971035
873.70 0.1970306
873.80 0.1969578
873.90 0.196885
874.00 0.1968122
874.10 0.1967395
874.20 0.1966667
874.30 0.1965941
874.40 0.1965214
874.50 0.1964488
874.60 0.1963762
874.70 0.1963036
874.80 0.1962311
874.90 0.1961585
875.00 0.196086
875.10 0.1960136
875.20 0.1959408
875.30 0.1958673
875.40 0.1957939
875.50 0.1957204
875.60 0.1956471
875.70 0.1955737
875.80 0.1955004
875.90 0.1954271
876.00 0.1953538
876.10 0.1952806
876.20 0.1952074
876.30 0.1951342
876.40 0.195061
876.50 0.1949879
876.60 0.1949148
876.70 0.1948417
876.80 0.1947687
876.90 0.1946957
877.00 0.1946227
877.10 0.1945497
877.20 0.1944768
877.30 0.1944039
877.40 0.194331
877.50 0.1942582
877.60 0.1941854
877.70 0.1941126
877.80 0.1940398
877.90 0.1939671
878.00 0.1938944
878.10 0.1938217
878.20 0.193749
878.30 0.1936764
878.40 0.1936038
878.50 0.1935313
878.60 0.1934587
878.70 0.1933862
878.80 0.1933137
878.90 0.1932413
879.00 0.1931689
879.10 0.1930965
879.20 0.1930241
879.30 0.1929518
879.40 0.1928794
879.50 0.1928072
879.60 0.192736
879.70 0.1926651
879.80 0.1925942
879.90 0.1925234
880.00 0.1924525
880.10 0.1923818
880.20 0.192311
880.30 0.1922402
880.40 0.1921695
880.50 0.1920988
880.60 0.1920282
880.70 0.1919576
880.80 0.191887
880.90 0.1918164
881.00 0.1917458
881.10 0.1916753
881.20 0.1916048
881.30 0.1915343
881.40 0.1914639
881.50 0.1913935
881.60 0.1913231
881.70 0.1912527
881.80 0.1911824
881.90 0.1911121
882.00 0.1910418
882.10 0.1909716
882.20 0.1909013
882.30 0.1908311
882.40 0.190761
882.50 0.1906908
882.60 0.1906207
882.70 0.1905506
882.80 0.1904805
882.90 0.1904105
883.00 0.1903405
883.10 0.1902705
883.20 0.1902006
883.30 0.1901306
883.40 0.1900607
883.50 0.1899908
883.60 0.189921
883.70 0.1898512
883.80 0.1897814
883.90 0.1897116
884.00 0.1896419
884.10 0.1895721
884.20 0.1895024
884.30 0.1894328
884.40 0.1893631
884.50 0.1892935
884.60 0.1892239
884.70 0.1891544
884.80 0.1890848
884.90 0.1890153
885.00 0.1889458
885.10 0.1888764
885.20 0.1888069
885.30 0.1887375
885.40 0.1886682
885.50 0.1885988
885.60 0.1885295
885.70 0.1884602
885.80 0.1883909
885.90 0.1883217
886.00 0.1882525
886.10 0.1881833
886.20 0.1881141
886.30 0.188045
886.40 0.1879759
886.50 0.1879068
886.60 0.1878377
886.70 0.1877687
886.80 0.1876997
886.90 0.1876307
887.00 0.1875617
887.10 0.1874928
887.20 0.1874239
887.30 0.187355
887.40 0.1872862
887.50 0.1872174
887.60 0.1871486
887.70 0.1870798
887.80 0.1870111
887.90 0.1869423
888.00 0.1868737
888.10 0.186805
888.20 0.1867364
888.30 0.1866677
888.40 0.1865989
888.50 0.1865301
888.60 0.1864614
888.70 0.1863926
888.80 0.1863239
888.90 0.1862552
889.00 0.1861865
889.10 0.1861179
889.20 0.1860493
889.30 0.1859807
889.40 0.1859121
889.50 0.1858436
889.60 0.1857751
889.70 0.1857066
889.80 0.1856381
889.90 0.1855697
890.00 0.1855013
890.10 0.1854329
890.20 0.1853646
890.30 0.1852962
890.40 0.1852279
890.50 0.1851596
890.60 0.1850914
890.70 0.1850232
890.80 0.184955
890.90 0.1848868
891.00 0.1848187
891.10 0.1847505
891.20 0.1846824
891.30 0.1846144
891.40 0.1845463
891.50 0.1844783
891.60 0.1844103
891.70 0.1843423
891.80 0.1842744
891.90 0.1842065
892.00 0.1841386
892.10 0.1840707
892.20 0.1840029
892.30 0.1839351
892.40 0.1838673
892.50 0.1837995
892.60 0.1837318
892.70 0.1836641
892.80 0.1835964
892.90 0.1835288
893.00 0.1834611
893.10 0.1833935
893.20 0.183326
893.30 0.1832584
893.40 0.1831909
893.50 0.1831234
893.60 0.1830559
893.70 0.1829884
893.80 0.182921
893.90 0.1828536
894.00 0.1827862
894.10 0.1827189
894.20 0.1826516
894.30 0.1825843
894.40 0.182517
894.50 0.1824497
894.60 0.1823825
894.70 0.1823153
894.80 0.1822482
894.90 0.182181
895.00 0.1821139
895.10 0.1820468
895.20 0.1819797
895.30 0.1819127
895.40 0.1818457
895.50 0.1817787
895.60 0.1817117
895.70 0.1816448
895.80 0.1815779
895.90 0.181511
896.00 0.1814441
896.10 0.1813773
896.20 0.1813104
896.30 0.1812437
896.40 0.1811769
896.50 0.1811101
896.60 0.1810434
896.70 0.1809767
896.80 0.1809101
896.90 0.1808434
897.00 0.1807768
897.10 0.1807102
897.20 0.1806437
897.30 0.1805779
897.40 0.1805122
897.50 0.1804464
897.60 0.1803807
897.70 0.180315
897.80 0.1802494
897.90 0.1801837
898.00 0.1801181
898.10 0.1800525
898.20 0.179987
898.30 0.1799214
898.40 0.1798559
898.50 0.1797904
898.60 0.179725
898.70 0.1796595
898.80 0.1795941
898.90 0.1795287
899.00 0.1794634
899.10 0.179398
899.20 0.1793327
899.30 0.1792674
899.40 0.1792021
899.50 0.1791369
899.60 0.1790717
899.70 0.1790065
899.80 0.1789413
899.90 0.1788762
900.00 0.1788111
900.10 0.178746
900.20 0.1786809
900.30 0.1786158
900.40 0.1785508
900.50 0.1784858
900.60 0.1784209
900.70 0.1783559
900.80 0.178291
900.90 0.1782261
901.00 0.1781612
901.10 0.1780964
901.20 0.1780315
901.30 0.1779667
901.40 0.177902
901.50 0.1778372
901.60 0.1777725
901.70 0.1777078
901.80 0.1776431
901.90 0.1775784
902.00 0.1775138
902.10 0.1774492
902.20 0.1773846
902.30 0.1773201
902.40 0.1772555
902.50 0.177191
902.60 0.1771265
902.70 0.1770621
902.80 0.1769976
902.90 0.1769332
903.00 0.1768688
903.10 0.1768045
903.20 0.1767401
903.30 0.1766758
903.40 0.1766115
903.50 0.1765472
903.60 0.176483
903.70 0.1764188
903.80 0.1763546
903.90 0.1762904
904.00 0.1762263
904.10 0.1761621
904.20 0.176098
904.30 0.176034
904.40 0.1759699
904.50 0.1759059
904.60 0.1758419
904.70 0.1757779
904.80 0.175714
904.90 0.17565
905.00 0.1755861
905.10 0.1755222
905.20 0.1754584
905.30 0.1753945
905.40 0.1753307
905.50 0.1752669
905.60 0.1752032
905.70 0.1751394
905.80 0.1750757
905.90 0.175012
906.00 0.1749484
906.10 0.1748847
906.20 0.1748212
906.30 0.1747578
906.40 0.1746945
906.50 0.1746312
906.60 0.1745679
906.70 0.1745047
906.80 0.1744414
906.90 0.1743782
907.00 0.174315
907.10 0.1742519
907.20 0.1741888
907.30 0.1741256
907.40 0.1740626
907.50 0.1739995
907.60 0.1739364
907.70 0.1738734
907.80 0.1738104
907.90 0.1737475
908.00 0.1736845
908.10 0.1736216
908.20 0.1735587
908.30 0.1734958
908.40 0.173433
908.50 0.1733701
908.60 0.1733073
908.70 0.1732445
908.80 0.1731818
908.90 0.1731191
909.00 0.1730563
909.10 0.1729937
909.20 0.172931
909.30 0.1728683
909.40 0.1728057
909.50 0.1727431
909.60 0.1726806
909.70 0.172618
909.80 0.1725555
909.90 0.172493
910.00 0.1724305
910.10 0.172368
910.20 0.1723056
910.30 0.1722432
910.40 0.1721808
910.50 0.1721185
910.60 0.1720561
910.70 0.1719938
910.80 0.1719315
910.90 0.1718692
911.00 0.171807
911.10 0.1717448
911.20 0.1716826
911.30 0.1716204
911.40 0.1715582
911.50 0.1714961
911.60 0.171434
911.70 0.1713719
911.80 0.1713099
911.90 0.1712478
912.00 0.1711858
912.10 0.1711238
912.20 0.1710618
912.30 0.1709999
912.40 0.170938
912.50 0.1708761
912.60 0.1708142
912.70 0.1707523
912.80 0.1706905
912.90 0.1706287
913.00 0.1705669
913.10 0.1705052
913.20 0.1704434
913.30 0.1703817
913.40 0.17032
913.50 0.1702583
913.60 0.1701967
913.70 0.1701351
913.80 0.1700735
913.90 0.1700119
914.00 0.1699503
914.10 0.1698888
914.20 0.1698273
914.30 0.1697658
914.40 0.1697043
914.50 0.1696429
914.60 0.1695815
914.70 0.1695201
914.80 0.1694587
914.90 0.1693974
915.00 0.169336
915.10 0.1692747
915.20 0.1692135
915.30 0.1691524
915.40 0.1690914
915.50 0.1690304
915.60 0.1689694
915.70 0.1689085
915.80 0.1688476
915.90 0.1687867
916.00 0.1687259
916.10 0.168665
916.20 0.1686042
916.30 0.1685434
916.40 0.1684826
916.50 0.1684219
916.60 0.1683612
916.70 0.1683005
916.80 0.1682398
916.90 0.1681791
917.00 0.1681185
917.10 0.1680579
917.20 0.1679973
917.30 0.1679367
917.40 0.1678761
917.50 0.1678156
917.60 0.1677551
917.70 0.1676946
917.80 0.1676342
917.90 0.1675737
918.00 0.1675133
918.10 0.1674529
918.20 0.1673926
918.30 0.1673322
918.40 0.1672719
918.50 0.1672116
918.60 0.1671513
918.70 0.1670911
918.80 0.1670308
918.90 0.1669706
919.00 0.1669104
919.10 0.1668503
919.20 0.1667901
919.30 0.16673
919.40 0.1666699
919.50 0.1666098
919.60 0.1665498
919.70 0.1664897
919.80 0.1664297
919.90 0.1663706
920.00 0.1663115
920.10 0.1662525
920.20 0.1661935
920.30 0.1661345
920.40 0.1660755
920.50 0.1660166
920.60 0.1659577
920.70 0.1658988
920.80 0.1658399
920.90 0.165781
921.00 0.1657222
921.10 0.1656634
921.20 0.1656046
921.30 0.1655458
921.40 0.1654871
921.50 0.1654283
921.60 0.1653696
921.70 0.165311
921.80 0.1652523
921.90 0.1651936
922.00 0.165135
922.10 0.1650764
922.20 0.1650179
922.30 0.1649593
922.40 0.1649008
922.50 0.1648423
922.60 0.1647838
922.70 0.1647253
922.80 0.1646668
922.90 0.1646084
923.00 0.16455
923.10 0.1644916
923.20 0.1644333
923.30 0.1643749
923.40 0.1643166
923.50 0.1642583
923.60 0.1642
923.70 0.1641418
923.80 0.1640835
923.90 0.1640253
924.00 0.1639671
924.10 0.163909
924.20 0.1638508
924.30 0.1637927
924.40 0.1637345
924.50 0.1636757
924.60 0.163617
924.70 0.1635583
924.80 0.1634996
924.90 0.1634409
925.00 0.1633823
925.10 0.1633236
925.20 0.163265
925.30 0.1632064
925.40 0.1631479
925.50 0.1630893
925.60 0.1630308
925.70 0.1629723
925.80 0.1629138
925.90 0.1628554
926.00 0.162797
926.10 0.1627385
926.20 0.1626802
926.30 0.1626218
926.40 0.1625634
926.50 0.1625051
926.60 0.1624468
926.70 0.1623885
926.80 0.1623303
926.90 0.162272
927.00 0.1622138
927.10 0.1621556
927.20 0.1620974
927.30 0.1620393
927.40 0.1619811
927.50 0.161923
927.60 0.1618649
927.70 0.1618069
927.80 0.1617488
927.90 0.1616908
928.00 0.1616328
928.10 0.1615748
928.20 0.1615168
928.30 0.1614589
928.40 0.161401
928.50 0.1613431
928.60 0.1612852
928.70 0.1612273
928.80 0.1611695
928.90 0.1611117
929.00 0.1610539
929.10 0.160997
929.20 0.1609401
929.30 0.1608833
929.40 0.1608264
929.50 0.1607696
929.60 0.1607128
929.70 0.1606561
929.80 0.1605993
929.90 0.1605426
930.00 0.1604859
930.10 0.1604293
930.20 0.1603726
930.30 0.160316
930.40 0.1602593
930.50 0.1602028
930.60 0.1601462
930.70 0.1600896
930.80 0.1600331
930.90 0.1599766
931.00 0.1599201
931.10 0.1598636
931.20 0.1598072
931.30 0.1597507
931.40 0.1596943
931.50 0.1596379
931.60 0.1595816
931.70 0.1595252
931.80 0.1594689
931.90 0.1594126
932.00 0.1593563
932.10 0.1593
932.20 0.1592438
932.30 0.1591876
932.40 0.1591314
932.50 0.1590752
932.60 0.159019
932.70 0.1589629
932.80 0.1589067
932.90 0.1588506
933.00 0.1587946
933.10 0.1587385
933.20 0.1586825
933.30 0.1586264
933.40 0.1585704
933.50 0.1585145
933.60 0.1584585
933.70 0.1584024
933.80 0.1583463
933.90 0.1582901
934.00 0.158234
934.10 0.158178
934.20 0.1581219
934.30 0.1580659
934.40 0.1580099
934.50 0.1579539
934.60 0.1578979
934.70 0.1578419
934.80 0.157786
934.90 0.1577301
935.00 0.1576742
935.10 0.1576183
935.20 0.1575625
935.30 0.1575066
935.40 0.1574508
935.50 0.157395
935.60 0.1573392
935.70 0.1572835
935.80 0.1572278
935.90 0.1571721
936.00 0.1571164
936.10 0.1570607
936.20 0.157005
936.30 0.1569494
936.40 0.1568938
936.50 0.1568382
936.60 0.1567826
936.70 0.1567271
936.80 0.1566716
936.90 0.1566161
937.00 0.1565606
937.10 0.1565051
937.20 0.1564496
937.30 0.1563942
937.40 0.1563388
937.50 0.1562834
937.60 0.156228
937.70 0.1561727
937.80 0.1561174
937.90 0.1560621
938.00 0.1560068
938.10 0.1559515
938.20 0.1558963
938.30 0.155841
938.40 0.1557858
938.50 0.1557306
938.60 0.1556755
938.70 0.1556203
938.80 0.1555652
938.90 0.1555101
939.00 0.155455
939.10 0.1553999
939.20 0.1553449
939.30 0.1552898
939.40 0.1552348
939.50 0.1551798
939.60 0.1551249
939.70 0.1550699
939.80 0.155015
939.90 0.1549601
940.00 0.1549052
940.10 0.1548503
940.20 0.1547955
940.30 0.1547406
940.40 0.1546858
940.50 0.154631
940.60 0.1545763
940.70 0.1545215
940.80 0.1544668
940.90 0.1544121
941.00 0.1543574
941.10 0.1543027
941.20 0.1542481
941.30 0.1541934
941.40 0.1541388
941.50 0.1540842
941.60 0.1540296
941.70 0.1539751
941.80 0.1539206
941.90 0.153866
942.00 0.1538116
942.10 0.1537571
942.20 0.1537026
942.30 0.1536482
942.40 0.1535938
942.50 0.1535394
942.60 0.153485
942.70 0.1534306
942.80 0.1533763
942.90 0.153322
943.00 0.1532678
943.10 0.1532137
943.20 0.1531597
943.30 0.1531056
943.40 0.1530516
943.50 0.1529977
943.60 0.1529437
943.70 0.1528897
943.80 0.1528358
943.90 0.1527819
944.00 0.152728
944.10 0.1526742
944.20 0.1526203
944.30 0.1525665
944.40 0.1525127
944.50 0.1524589
944.60 0.1524051
944.70 0.1523514
944.80 0.1522976
944.90 0.1522439
945.00 0.1521902
945.10 0.1521366
945.20 0.1520829
945.30 0.1520293
945.40 0.1519756
945.50 0.1519221
945.60 0.1518685
945.70 0.1518149
945.80 0.1517614
945.90 0.1517079
946.00 0.1516544
946.10 0.1516009
946.20 0.1515474
946.30 0.151494
946.40 0.1514405
946.50 0.1513871
946.60 0.1513338
946.70 0.1512804
946.80 0.151227
946.90 0.1511737
947.00 0.1511204
947.10 0.1510671
947.20 0.1510139
947.30 0.1509606
947.40 0.1509074
947.50 0.1508542
947.60 0.150801
947.70 0.1507478
947.80 0.1506946
947.90 0.1506415
948.00 0.1505884
948.10 0.1505353
948.20 0.1504822
948.30 0.1504291
948.40 0.1503761
948.50 0.1503231
948.60 0.1502701
948.70 0.1502171
948.80 0.1501641
948.90 0.1501112
949.00 0.1500583
949.10 0.1500053
949.20 0.1499525
949.30 0.1498996
949.40 0.1498467
949.50 0.1497939
949.60 0.1497411
949.70 0.1496883
949.80 0.1496355
949.90 0.1495828
950.00 0.14953
950.10 0.1494773
950.20 0.1494246
950.30 0.1493719
950.40 0.1493193
950.50 0.1492666
950.60 0.149214
950.70 0.1491614
950.80 0.1491088
950.90 0.1490562
951.00 0.1490037
951.10 0.1489512
951.20 0.1488986
951.30 0.1488461
951.40 0.1487937
951.50 0.1487412
951.60 0.1486888
951.70 0.1486364
951.80 0.148584
951.90 0.1485316
952.00 0.1484792
952.10 0.1484269
952.20 0.1483746
952.30 0.1483222
952.40 0.14827
952.50 0.1482184
952.60 0.1481667
952.70 0.1481151
952.80 0.1480635
952.90 0.148012
953.00 0.1479604
953.10 0.1479089
953.20 0.1478573
953.30 0.1478058
953.40 0.1477543
953.50 0.1477029
953.60 0.1476514
953.70 0.1476
953.80 0.1475486
953.90 0.1474972
954.00 0.1474458
954.10 0.1473945
954.20 0.1473431
954.30 0.1472918
954.40 0.1472405
954.50 0.1471892
954.60 0.147138
954.70 0.1470867
954.80 0.1470355
954.90 0.1469843
955.00 0.1469331
955.10 0.1468819
955.20 0.1468308
955.30 0.1467796
955.40 0.1467285
955.50 0.1466774
955.60 0.1466263
955.70 0.1465753
955.80 0.1465242
955.90 0.1464732
956.00 0.1464222
956.10 0.1463712
956.20 0.1463202
956.30 0.1462693
956.40 0.1462183
956.50 0.1461674
956.60 0.1461165
956.70 0.1460656
956.80 0.1460148
956.90 0.1459639
957.00 0.1459131
957.10 0.1458623
957.20 0.1458115
957.30 0.1457607
957.40 0.14571
957.50 0.1456592
957.60 0.1456085
957.70 0.1455578
957.80 0.1455071
957.90 0.1454564
958.00 0.1454058
958.10 0.1453552
958.20 0.1453046
958.30 0.145254
958.40 0.1452034
958.50 0.1451528
958.60 0.1451023
958.70 0.1450518
958.80 0.1450013
958.90 0.1449508
959.00 0.1449003
959.10 0.1448499
959.20 0.1447994
959.30 0.144749
959.40 0.1446986
959.50 0.1446482
959.60 0.1445979
959.70 0.1445475
959.80 0.1444972
959.90 0.1444469
960.00 0.1443966
960.10 0.1443463
960.20 0.1442961
960.30 0.1442458
960.40 0.1441956
960.50 0.1441454
960.60 0.1440952
960.70 0.1440451
960.80 0.1439949
960.90 0.1439448
961.00 0.1438947
961.10 0.1438446
961.20 0.1437945
961.30 0.1437444
961.40 0.1436944
961.50 0.1436444
961.60 0.1435944
961.70 0.1435444
961.80 0.1434944
961.90 0.1434445
962.00 0.1433947
962.10 0.143345
962.20 0.1432953
962.30 0.1432456
962.40 0.1431959
962.50 0.1431463
962.60 0.1430966
962.70 0.143047
962.80 0.1429974
962.90 0.1429479
963.00 0.1428983
963.10 0.1428487
963.20 0.1427992
963.30 0.1427497
963.40 0.1427002
963.50 0.1426507
963.60 0.1426013
963.70 0.1425519
963.80 0.1425024
963.90 0.142453
964.00 0.1424036
964.10 0.1423543
964.20 0.1423049
964.30 0.1422556
964.40 0.1422063
964.50 0.142157
964.60 0.1421077
964.70 0.1420584
964.80 0.1420092
964.90 0.1419599
965.00 0.1419107
965.10 0.1418615
965.20 0.1418124
965.30 0.1417632
965.40 0.1417141
965.50 0.1416649
965.60 0.1416158
965.70 0.1415667
965.80 0.1415177
965.90 0.1414686
966.00 0.1414196
966.10 0.1413705
966.20 0.1413215
966.30 0.1412725
966.40 0.1412236
966.50 0.1411746
966.60 0.1411257
966.70 0.1410768
966.80 0.1410279
966.90 0.140979
967.00 0.1409301
967.10 0.1408813
967.20 0.1408324
967.30 0.1407836
967.40 0.1407348
967.50 0.140686
967.60 0.1406373
967.70 0.1405885
967.80 0.1405398
967.90 0.1404911
968.00 0.1404424
968.10 0.1403937
968.20 0.140345
968.30 0.1402964
968.40 0.1402478
968.50 0.1401992
968.60 0.1401506
968.70 0.140102
968.80 0.1400534
968.90 0.1400049
969.00 0.1399564
969.10 0.1399079
969.20 0.1398594
969.30 0.1398109
969.40 0.1397624
969.50 0.139714
969.60 0.1396656
969.70 0.1396172
969.80 0.1395688
969.90 0.1395204
970.00 0.1394721
970.10 0.1394237
970.20 0.1393754
970.30 0.1393271
970.40 0.1392788
970.50 0.1392305
970.60 0.1391823
970.70 0.1391341
970.80 0.1390858
970.90 0.1390376
971.00 0.1389894
971.10 0.1389413
971.20 0.1388931
971.30 0.138845
971.40 0.1387969
971.50 0.1387488
971.60 0.1387011
971.70 0.1386536
971.80 0.1386061
971.90 0.1385587
972.00 0.1385112
972.10 0.1384638
972.20 0.1384164
972.30 0.138369
972.40 0.1383216
972.50 0.1382743
972.60 0.1382269
972.70 0.1381796
972.80 0.1381323
972.90 0.138085
973.00 0.1380377
973.10 0.1379905
973.20 0.1379433
973.30 0.137896
973.40 0.1378488
973.50 0.1378016
973.60 0.1377545
973.70 0.1377073
973.80 0.1376602
973.90 0.137613
974.00 0.1375659
974.10 0.1375188
974.20 0.1374718
974.30 0.1374247
974.40 0.1373777
974.50 0.1373306
974.60 0.1372836
974.70 0.1372366
974.80 0.1371897
974.90 0.1371427
975.00 0.1370958
975.10 0.1370488
975.20 0.1370019
975.30 0.136955
975.40 0.1369082
975.50 0.1368613
975.60 0.1368144
975.70 0.1367676
975.80 0.1367208
975.90 0.136674
976.00 0.1366272
976.10 0.1365805
976.20 0.1365337
976.30 0.136487
976.40 0.1364403
976.50 0.1363936
976.60 0.1363469
976.70 0.1363002
976.80 0.1362536
976.90 0.1362069
977.00 0.1361603
977.10 0.1361137
977.20 0.1360671
977.30 0.1360206
977.40 0.135974
977.50 0.1359275
977.60 0.135881
977.70 0.1358345
977.80 0.135788
977.90 0.1357415
978.00 0.135695
978.10 0.1356486
978.20 0.1356022
978.30 0.1355558
978.40 0.1355094
978.50 0.135463
978.60 0.1354166
978.70 0.1353703
978.80 0.135324
978.90 0.1352777
979.00 0.1352314
979.10 0.1351851
979.20 0.1351388
979.30 0.1350926
979.40 0.1350464
979.50 0.1350001
979.60 0.1349539
979.70 0.1349078
979.80 0.1348616
979.90 0.1348155
980.00 0.1347693
980.10 0.1347232
980.20 0.1346771
980.30 0.134631
980.40 0.1345849
980.50 0.1345389
980.60 0.1344929
980.70 0.1344468
980.80 0.1344008
980.90 0.1343548
981.00 0.1343089
981.10 0.1342629
981.20 0.134217
981.30 0.1341711
981.40 0.1341254
981.50 0.1340797
981.60 0.134034
981.70 0.1339883
981.80 0.1339427
981.90 0.133897
982.00 0.1338514
982.10 0.1338058
982.20 0.1337602
982.30 0.1337146
982.40 0.133669
982.50 0.1336235
982.60 0.1335779
982.70 0.1335324
982.80 0.1334869
982.90 0.1334414
983.00 0.133396
983.10 0.1333505
983.20 0.1333051
983.30 0.1332596
983.40 0.1332142
983.50 0.1331688
983.60 0.1331235
983.70 0.1330781
983.80 0.1330328
983.90 0.1329874
984.00 0.1329421
984.10 0.1328968
984.20 0.1328515
984.30 0.1328063
984.40 0.132761
984.50 0.1327158
984.60 0.1326706
984.70 0.1326253
984.80 0.1325802
984.90 0.132535
985.00 0.1324898
985.10 0.1324447
985.20 0.1323996
985.30 0.1323544
985.40 0.1323094
985.50 0.1322643
985.60 0.1322192
985.70 0.1321742
985.80 0.1321291
985.90 0.1320841
986.00 0.1320391
986.10 0.1319941
986.20 0.1319491
986.30 0.1319042
986.40 0.1318592
986.50 0.1318143
986.60 0.1317694
986.70 0.1317245
986.80 0.1316796
986.90 0.1316348
987.00 0.1315899
987.10 0.1315451
987.20 0.1315003
987.30 0.1314555
987.40 0.1314107
987.50 0.1313659
987.60 0.1313212
987.70 0.1312764
987.80 0.1312317
987.90 0.131187
988.00 0.1311423
988.10 0.1310976
988.20 0.131053
988.30 0.1310083
988.40 0.1309637
988.50 0.1309191
988.60 0.1308745
988.70 0.1308299
988.80 0.1307853
988.90 0.1307408
989.00 0.1306962
989.10 0.1306517
989.20 0.1306072
989.30 0.1305627
989.40 0.1305182
989.50 0.1304738
989.60 0.1304293
989.70 0.1303849
989.80 0.1303405
989.90 0.1302961
990.00 0.1302517
990.10 0.1302073
990.20 0.130163
990.30 0.1301186
990.40 0.1300743
990.50 0.13003
990.60 0.1299857
990.70 0.1299414
990.80 0.1298971
990.90 0.1298529
991.00 0.1298087
991.10 0.1297644
991.20 0.12972
991.30 0.1296756
991.40 0.1296312
991.50 0.1295869
991.60 0.1295426
991.70 0.1294982
991.80 0.1294539
991.90 0.1294097
992.00 0.1293654
992.10 0.1293211
992.20 0.1292769
992.30 0.1292327
992.40 0.1291885
992.50 0.1291443
992.60 0.1291001
992.70 0.1290559
992.80 0.1290118
992.90 0.1289677
993.00 0.1289235
993.10 0.1288794
993.20 0.1288354
993.30 0.1287913
993.40 0.1287472
993.50 0.1287032
993.60 0.1286592
993.70 0.1286151
993.80 0.1285711
993.90 0.1285272
994.00 0.1284832
994.10 0.1284393
994.20 0.1283953
994.30 0.1283514
994.40 0.1283075
994.50 0.1282636
994.60 0.1282197
994.70 0.1281759
994.80 0.128132
994.90 0.1280882
995.00 0.1280444
995.10 0.1280006
995.20 0.1279568
995.30 0.127913
995.40 0.1278693
995.50 0.1278255
995.60 0.1277818
995.70 0.1277381
995.80 0.1276944
995.90 0.1276507
996.00 0.127607
996.10 0.127564
996.20 0.1275211
996.30 0.1274782
996.40 0.1274353
996.50 0.1273924
996.60 0.1273496
996.70 0.1273067
996.80 0.1272639
996.90 0.1272211
997.00 0.1271783
997.10 0.1271355
997.20 0.1270928
997.30 0.12705
997.40 0.1270073
997.50 0.1269646
997.60 0.1269219
997.70 0.1268792
997.80 0.1268365
997.90 0.1267938
998.00 0.1267512
998.10 0.1267085
998.20 0.1266659
998.30 0.1266233
998.40 0.1265807
998.50 0.1265382
998.60 0.1264956
998.70 0.126453
998.80 0.1264105
998.90 0.126368
999.00 0.1263255
999.10 0.126283
999.20 0.1262405
999.30 0.1261981
999.40 0.1261556
999.50 0.1261132
999.60 0.1260708
999.70 0.1260284
999.80 0.125986
999.90 0.1259436
1000.00 0.1259013
1000.10 0.1258589
1000.20 0.1258166
1000.30 0.1257743
1000.40 0.125732
1000.50 0.1256897
1000.60 0.1256474
1000.70 0.1256052
1000.80 0.1255629
1000.90 0.1255207
1001.00 0.1254785
1001.10 0.1254365
1001.20 0.1253945
1001.30 0.1253525
1001.40 0.1253105
1001.50 0.1252685
1001.60 0.1252265
1001.70 0.1251846
1001.80 0.1251427
1001.90 0.1251007
1002.00 0.1250588
1002.10 0.1250169
1002.20 0.1249751
1002.30 0.1249332
1002.40 0.1248914
1002.50 0.1248495
1002.60 0.1248077
1002.70 0.1247659
1002.80 0.1247241
1002.90 0.1246823
1003.00 0.1246406
1003.10 0.1245988
1003.20 0.1245571
1003.30 0.1245154
1003.40 0.1244737
1003.50 0.124432
1003.60 0.1243903
1003.70 0.1243486
1003.80 0.124307
1003.90 0.1242654
1004.00 0.1242237
1004.10 0.1241821
1004.20 0.1241405
1004.30 0.124099
1004.40 0.1240574
1004.50 0.1240158
1004.60 0.1239743
1004.70 0.1239328
1004.80 0.1238913
1004.90 0.1238498
1005.00 0.1238083
1005.10 0.1237668
1005.20 0.1237254
1005.30 0.123684
1005.40 0.1236425
1005.50 0.1236011
1005.60 0.1235597
1005.70 0.1235183
1005.80 0.123477
1005.90 0.1234356
1006.00 0.1233943
1006.10 0.123353
1006.20 0.1233116
1006.30 0.1232703
1006.40 0.1232291
1006.50 0.1231878
1006.60 0.1231465
1006.70 0.1231053
1006.80 0.123064
1006.90 0.1230228
1007.00 0.1229816
1007.10 0.1229404
1007.20 0.1228993
1007.30 0.1228581
1007.40 0.122817
1007.50 0.1227758
1007.60 0.1227347
1007.70 0.1226936
1007.80 0.1226525
1007.90 0.1226114
1008.00 0.1225704
1008.10 0.1225293
1008.20 0.1224883
1008.30 0.1224473
1008.40 0.1224062
1008.50 0.1223652
1008.60 0.1223243
1008.70 0.1222833
1008.80 0.1222423
1008.90 0.1222014
1009.00 0.1221605
1009.10 0.1221196
1009.20 0.1220787
1009.30 0.1220378
1009.40 0.1219969
1009.50 0.1219561
1009.60 0.1219152
1009.70 0.1218744
1009.80 0.1218336
1009.90 0.1217928
1010.00 0.121752
1010.10 0.1217112
1010.20 0.1216705
1010.30 0.1216297
1010.40 0.121589
1010.50 0.1215483
1010.60 0.1215076
1010.70 0.1214669
1010.80 0.1214262
1010.90 0.1213855
1011.00 0.1213449
1011.10 0.1213044
1011.20 0.121264
1011.30 0.1212235
1011.40 0.1211831
1011.50 0.1211427
1011.60 0.1211023
1011.70 0.1210619
1011.80 0.1210215
1011.90 0.1209812
1012.00 0.1209408
1012.10 0.1209005
1012.20 0.1208602
1012.30 0.1208199
1012.40 0.1207796
1012.50 0.1207393
1012.60 0.120699
1012.70 0.1206588
1012.80 0.1206186
1012.90 0.1205783
1013.00 0.1205381
1013.10 0.1204979
1013.20 0.1204577
1013.30 0.1204176
1013.40 0.1203774
1013.50 0.1203373
1013.60 0.1202971
1013.70 0.120257
1013.80 0.1202169
1013.90 0.1201768
1014.00 0.1201368
1014.10 0.1200967
1014.20 0.1200566
1014.30 0.1200166
1014.40 0.1199766
1014.50 0.1199366
1014.60 0.1198966
1014.70 0.1198566
1014.80 0.1198166
1014.90 0.1197767
1015.00 0.1197367
1015.10 0.1196968
1015.20 0.1196569
1015.30 0.119617
1015.40 0.1195771
1015.50 0.1195372
1015.60 0.1194974
1015.70 0.1194575
1015.80 0.1194177
1015.90 0.1193779
1016.00 0.1193381
1016.10 0.1192983
1016.20 0.1192585
1016.30 0.1192187
1016.40 0.119179
1016.50 0.1191392
1016.60 0.1190995
1016.70 0.1190598
1016.80 0.1190201
1016.90 0.1189804
1017.00 0.1189407
1017.10 0.1189011
1017.20 0.1188614
1017.30 0.1188218
1017.40 0.1187822
1017.50 0.1187426
1017.60 0.118703
1017.70 0.1186634
1017.80 0.1186238
1017.90 0.1185843
1018.00 0.1185447
1018.10 0.1185052
1018.20 0.1184657
1018.30 0.1184262
1018.40 0.1183867
1018.50 0.1183472
1018.60 0.1183078
1018.70 0.1182683
1018.80 0.1182289
1018.90 0.1181895
1019.00 0.11815
1019.10 0.1181107
1019.20 0.1180713
1019.30 0.1180319
1019.40 0.1179925
1019.50 0.1179532
1019.60 0.1179139
1019.70 0.1178746
1019.80 0.1178353
1019.90 0.117796
1020.00 0.1177567
1020.10 0.1177174
1020.20 0.1176782
1020.30 0.1176389
1020.40 0.1175997
1020.50 0.1175605
1020.60 0.1175213
1020.70 0.1174821
1020.80 0.1174429
1020.90 0.1174038
1021.00 0.1173646
1021.10 0.1173255
1021.20 0.1172866
1021.30 0.1172476
1021.40 0.1172087
1021.50 0.1171698
1021.60 0.1171309
1021.70 0.117092
1021.80 0.1170531
1021.90 0.1170142
1022.00 0.1169754
1022.10 0.1169365
1022.20 0.1168977
1022.30 0.1168589
1022.40 0.1168201
1022.50 0.1167813
1022.60 0.1167425
1022.70 0.1167037
1022.80 0.116665
1022.90 0.1166262
1023.00 0.1165875
1023.10 0.1165488
1023.20 0.1165101
1023.30 0.1164714
1023.40 0.1164327
1023.50 0.1163941
1023.60 0.1163554
1023.70 0.1163168
1023.80 0.1162782
1023.90 0.1162396
1024.00 0.116201
1024.10 0.1161624
1024.20 0.1161238
1024.30 0.1160853
1024.40 0.1160467
1024.50 0.1160082
1024.60 0.1159697
1024.70 0.1159312
1024.80 0.1158927
1024.90 0.1158542
1025.00 0.1158157
1025.10 0.1157773
1025.20 0.1157388
1025.30 0.1157004
1025.40 0.115662
1025.50 0.1156236
1025.60 0.1155852
1025.70 0.1155468
1025.80 0.1155084
1025.90 0.1154701
1026.00 0.1154317
1026.10 0.1153934
1026.20 0.1153551
1026.30 0.1153168
1026.40 0.1152785
1026.50 0.1152402
1026.60 0.115202
1026.70 0.1151637
1026.80 0.1151255
1026.90 0.1150872
1027.00 0.115049
1027.10 0.1150108
1027.20 0.1149726
1027.30 0.1149344
1027.40 0.1148963
1027.50 0.1148581
1027.60 0.11482
1027.70 0.1147819
1027.80 0.1147437
1027.90 0.1147056
1028.00 0.1146676
1028.10 0.1146295
1028.20 0.1145914
1028.30 0.1145534
1028.40 0.1145153
1028.50 0.1144773
1028.60 0.1144393
1028.70 0.1144013
1028.80 0.1143633
1028.90 0.1143253
1029.00 0.1142874
1029.10 0.1142494
1029.20 0.1142115
1029.30 0.1141735
1029.40 0.1141356
1029.50 0.1140977
1029.60 0.1140598
1029.70 0.114022
1029.80 0.1139841
1029.90 0.1139463
1030.00 0.1139084
1030.10 0.1138706
1030.20 0.1138328
1030.30 0.113795
1030.40 0.1137572
1030.50 0.1137194
1030.60 0.1136817
1030.70 0.1136439
1030.80 0.1136062
1030.90 0.1135684
1031.00 0.1135307
1031.10 0.113493
1031.20 0.1134553
1031.30 0.1134177
1031.40 0.1133808
1031.50 0.1133439
1031.60 0.1133071
1031.70 0.1132703
1031.80 0.1132335
1031.90 0.1131967
1032.00 0.1131599
1032.10 0.1131231
1032.20 0.1130864
1032.30 0.1130496
1032.40 0.1130129
1032.50 0.1129762
1032.60 0.1129394
1032.70 0.1129027
1032.80 0.112866
1032.90 0.1128294
1033.00 0.1127927
1033.10 0.1127561
1033.20 0.1127194
1033.30 0.1126828
1033.40 0.1126462
1033.50 0.1126096
1033.60 0.112573
1033.70 0.1125364
1033.80 0.1124998
1033.90 0.1124633
1034.00 0.1124267
1034.10 0.1123902
1034.20 0.1123537
1034.30 0.1123172
1034.40 0.1122807
1034.50 0.1122442
1034.60 0.1122077
1034.70 0.1121713
1034.80 0.1121348
1034.90 0.1120984
1035.00 0.112062
1035.10 0.1120256
1035.20 0.1119892
1035.30 0.1119528
1035.40 0.1119164
1035.50 0.11188
1035.60 0.1118437
1035.70 0.1118073
1035.80 0.111771
1035.90 0.1117347
1036.00 0.1116984
1036.10 0.1116621
1036.20 0.1116258
1036.30 0.1115896
1036.40 0.1115533
1036.50 0.1115168
1036.60 0.1114799
1036.70 0.1114431
1036.80 0.1114062
1036.90 0.1113694
1037.00 0.1113325
1037.10 0.1112957
1037.20 0.1112589
1037.30 0.1112221
1037.40 0.1111854
1037.50 0.1111486
1037.60 0.1111118
1037.70 0.1110751
1037.80 0.1110384
1037.90 0.1110017
1038.00 0.110965
1038.10 0.1109283
1038.20 0.1108916
1038.30 0.1108549
1038.40 0.1108183
1038.50 0.1107816
1038.60 0.110745
1038.70 0.1107084
1038.80 0.1106717
1038.90 0.1106352
1039.00 0.1105986
1039.10 0.110562
1039.20 0.1105254
1039.30 0.1104889
1039.40 0.1104523
1039.50 0.1104158
1039.60 0.1103793
1039.70 0.1103428
1039.80 0.1103063
1039.90 0.1102698
1040.00 0.1102334
1040.10 0.1101969
1040.20 0.1101605
1040.30 0.1101241
1040.40 0.1100876
1040.50 0.1100512
1040.60 0.1100148
1040.70 0.1099785
1040.80 0.1099421
1040.90 0.1099057
1041.00 0.1098694
1041.10 0.1098331
1041.20 0.1097967
1041.30 0.1097604
1041.40 0.1097241
1041.50 0.1096879
1041.60 0.1096516
1041.70 0.1096154
1041.80 0.1095793
1041.90 0.1095433
1042.00 0.1095072
1042.10 0.1094711
1042.20 0.1094351
1042.30 0.109399
1042.40 0.109363
1042.50 0.109327
1042.60 0.109291
1042.70 0.109255
1042.80 0.109219
1042.90 0.1091831
1043.00 0.1091471
1043.10 0.1091112
1043.20 0.1090752
1043.30 0.1090393
1043.40 0.1090034
1043.50 0.1089675
1043.60 0.1089316
1043.70 0.1088957
1043.80 0.1088599
1043.90 0.108824
1044.00 0.1087882
1044.10 0.1087524
1044.20 0.1087165
1044.30 0.1086807
1044.40 0.1086449
1044.50 0.1086092
1044.60 0.1085734
1044.70 0.1085376
1044.80 0.1085019
1044.90 0.1084662
1045.00 0.1084304
1045.10 0.1083947
1045.20 0.108359
1045.30 0.1083234
1045.40 0.1082877
1045.50 0.108252
1045.60 0.1082164
1045.70 0.1081807
1045.80 0.1081451
1045.90 0.1081095
1046.00 0.1080739
1046.10 0.1080383
1046.20 0.1080027
1046.30 0.1079671
1046.40 0.1079316
1046.50 0.107896
1046.60 0.1078605
1046.70 0.107825
1046.80 0.1077895
1046.90 0.1077544
1047.00 0.1077196
1047.10 0.1076847
1047.20 0.1076499
1047.30 0.107615
1047.40 0.1075802
1047.50 0.1075454
1047.60 0.1075106
1047.70 0.1074758
1047.80 0.107441
1047.90 0.1074063
1048.00 0.1073715
1048.10 0.1073368
1048.20 0.107302
1048.30 0.1072673
1048.40 0.1072326
1048.50 0.1071979
1048.60 0.1071632
1048.70 0.1071285
1048.80 0.1070939
1048.90 0.1070592
1049.00 0.1070246
1049.10 0.10699
1049.20 0.1069553
1049.30 0.1069207
1049.40 0.1068861
1049.50 0.1068515
1049.60 0.106817
1049.70 0.1067824
1049.80 0.1067479
1049.90 0.1067133
1050.00 0.1066788
1050.10 0.1066443
1050.20 0.1066098
1050.30 0.1065753
1050.40 0.1065408
1050.50 0.1065063
1050.60 0.1064719
1050.70 0.1064374
1050.80 0.106403
1050.90 0.1063685
1051.00 0.1063341
1051.10 0.1062997
1051.20 0.1062653
1051.30 0.1062309
1051.40 0.1061966
1051.50 0.1061622
1051.60 0.1061279
1051.70 0.1060935
1051.80 0.1060592
1051.90 0.1060249
1052.00 0.1059906
1052.10 0.1059564
1052.20 0.1059222
1052.30 0.1058881
1052.40 0.105854
1052.50 0.1058199
1052.60 0.1057858
1052.70 0.1057517
1052.80 0.1057176
1052.90 0.1056835
1053.00 0.1056495
1053.10 0.1056154
1053.20 0.1055814
1053.30 0.1055474
1053.40 0.1055134
1053.50 0.1054794
1053.60 0.1054454
1053.70 0.1054114
1053.80 0.1053775
1053.90 0.1053435
1054.00 0.1053096
1054.10 0.1052756
1054.20 0.1052417
1054.30 0.1052078
1054.40 0.1051739
1054.50 0.10514
1054.60 0.1051061
1054.70 0.1050723
1054.80 0.1050384
1054.90 0.1050046
1055.00 0.1049707
1055.10 0.1049369
1055.20 0.1049031
1055.30 0.1048693
1055.40 0.1048355
1055.50 0.1048017
1055.60 0.104768
1055.70 0.1047342
1055.80 0.1047005
1055.90 0.1046667
1056.00 0.104633
1056.10 0.1045993
1056.20 0.1045656
1056.30 0.1045319
1056.40 0.1044982
1056.50 0.1044645
1056.60 0.1044309
1056.70 0.1043972
1056.80 0.1043636
1056.90 0.10433
1057.00 0.1042963
1057.10 0.1042627
1057.20 0.1042291
1057.30 0.1041956
1057.40 0.104162
1057.50 0.1041284
1057.60 0.1040949
1057.70 0.1040613
1057.80 0.1040278
1057.90 0.1039943
1058.00 0.1039608
1058.10 0.1039273
1058.20 0.1038938
1058.30 0.1038603
1058.40 0.1038269
1058.50 0.1037934
1058.60 0.10376
1058.70 0.1037265
1058.80 0.1036931
1058.90 0.1036597
1059.00 0.1036263
1059.10 0.1035929
1059.20 0.1035595
1059.30 0.1035262
1059.40 0.1034928
1059.50 0.1034595
1059.60 0.1034261
1059.70 0.1033928
1059.80 0.1033595
1059.90 0.1033262
1060.00 0.1032929
1060.10 0.1032596
1060.20 0.1032263
1060.30 0.1031931
1060.40 0.1031598
1060.50 0.1031266
1060.60 0.1030934
1060.70 0.1030601
1060.80 0.1030269
1060.90 0.1029937
1061.00 0.1029606
1061.10 0.1029274
1061.20 0.1028942
1061.30 0.1028611
1061.40 0.1028279
1061.50 0.1027948
1061.60 0.1027617
1061.70 0.1027286
1061.80 0.1026955
1061.90 0.1026624
1062.00 0.1026293
1062.10 0.1025962
1062.20 0.1025632
1062.30 0.1025301
1062.40 0.1024971
1062.50 0.1024641
1062.60 0.1024311
1062.70 0.1023982
1062.80 0.1023654
1062.90 0.1023325
1063.00 0.1022997
1063.10 0.1022669
1063.20 0.1022341
1063.30 0.1022013
1063.40 0.1021685
1063.50 0.1021357
1063.60 0.1021029
1063.70 0.1020701
1063.80 0.1020374
1063.90 0.1020046
1064.00 0.1019719
1064.10 0.1019392
1064.20 0.1019065
1064.30 0.1018738
1064.40 0.1018411
1064.50 0.1018084
1064.60 0.1017757
1064.70 0.1017431
1064.80 0.1017104
1064.90 0.1016778
1065.00 0.1016452
1065.10 0.1016126
1065.20 0.1015799
1065.30 0.1015474
1065.40 0.1015148
1065.50 0.1014822
1065.60 0.1014496
1065.70 0.1014171
1065.80 0.1013845
1065.90 0.101352
1066.00 0.1013195
1066.10 0.101287
1066.20 0.1012545
1066.30 0.101222
1066.40 0.1011895
1066.50 0.101157
1066.60 0.1011246
1066.70 0.1010921
1066.80 0.1010597
1066.90 0.1010272
1067.00 0.1009948
1067.10 0.1009624
1067.20 0.10093
1067.30 0.1008976
1067.40 0.1008653
1067.50 0.1008329
1067.60 0.1008005
1067.70 0.1007682
1067.80 0.1007359
1067.90 0.1007035
1068.00 0.1006712
1068.10 0.1006389
1068.20 0.1006066
1068.30 0.1005743
1068.40 0.100542
1068.50 0.1005098
1068.60 0.1004775
1068.70 0.1004453
1068.80 0.100413
1068.90 0.1003808
1069.00 0.1003486
1069.10 0.1003164
1069.20 0.1002842
1069.30 0.100252
1069.40 0.1002198
1069.50 0.1001877
1069.60 0.1001555
1069.70 0.1001234
1069.80 0.1000913
1069.90 0.1000591
1070.00 0.100027
1070.10 0.09999493
1070.20 0.09996284
1070.30 0.09993075
1070.40 0.09989868
1070.50 0.09986662
1070.60 0.09983457
1070.70 0.09980253
1070.80 0.09977051
1070.90 0.09973849
1071.00 0.09970648
1071.10 0.09967448
1071.20 0.09964249
1071.30 0.09961051
1071.40 0.09957854
1071.50 0.09954658
1071.60 0.09951464
1071.70 0.0994827
1071.80 0.09945077
1071.90 0.09941885
1072.00 0.09938695
1072.10 0.09935505
1072.20 0.09932316
1072.30 0.09929129
1072.40 0.09925942
1072.50 0.09922757
1072.60 0.09919572
1072.70 0.09916388
1072.80 0.09913206
1072.90 0.09910024
1073.00 0.09906844
1073.10 0.09903664
1073.20 0.09900488
1073.30 0.09897324
1073.40 0.09894161
1073.50 0.09890999
1073.60 0.09887838
1073.70 0.09884678
1073.80 0.09881519
1073.90 0.09878361
1074.00 0.09875204
1074.10 0.09872048
1074.20 0.09868893
1074.30 0.09865739
1074.40 0.09862586
1074.50 0.09859434
1074.60 0.09856282
1074.70 0.09853132
1074.80 0.09849983
1074.90 0.09846835
1075.00 0.09843688
1075.10 0.09840542
1075.20 0.09837397
1075.30 0.09834253
1075.40 0.0983111
1075.50 0.09827968
1075.60 0.09824827
1075.70 0.09821687
1075.80 0.09818548
1075.90 0.0981541
1076.00 0.09812273
1076.10 0.09809137
1076.20 0.09806002
1076.30 0.09802868
1076.40 0.09799735
1076.50 0.09796603
1076.60 0.09793472
1076.70 0.09790342
1076.80 0.09787212
1076.90 0.09784084
1077.00 0.09780957
1077.10 0.09777831
1077.20 0.09774706
1077.30 0.09771582
1077.40 0.09768459
1077.50 0.09765337
1077.60 0.09762216
1077.70 0.09759095
1077.80 0.09755976
1077.90 0.09752858
1078.00 0.09749741
1078.10 0.09746625
1078.20 0.09743509
1078.30 0.09740395
1078.40 0.09737282
1078.50 0.0973417
1078.60 0.09731058
1078.70 0.09727948
1078.80 0.09724839
1078.90 0.09721731
1079.00 0.09718623
1079.10 0.09715517
1079.20 0.09712412
1079.30 0.09709307
1079.40 0.09706204
1079.50 0.09703101
1079.60 0.097
1079.70 0.096969
1079.80 0.096938
1079.90 0.09690702
1080.00 0.09687604
1080.10 0.09684508
1080.20 0.09681412
1080.30 0.09678318
1080.40 0.09675224
1080.50 0.09672131
1080.60 0.0966904
1080.70 0.09665949
1080.80 0.0966286
1080.90 0.09659771
1081.00 0.09656683
1081.10 0.09653596
1081.20 0.09650511
1081.30 0.09647426
1081.40 0.09644342
1081.50 0.09641259
1081.60 0.09638178
1081.70 0.09635097
1081.80 0.09632017
1081.90 0.09628938
1082.00 0.0962586
1082.10 0.09622783
1082.20 0.09619707
1082.30 0.09616632
1082.40 0.09613558
1082.50 0.09610485
1082.60 0.09607413
1082.70 0.09604342
1082.80 0.09601271
1082.90 0.09598202
1083.00 0.09595134
1083.10 0.09592067
1083.20 0.09589
1083.30 0.09585935
1083.40 0.09582871
1083.50 0.09579807
1083.60 0.09576745
1083.70 0.09573683
1083.80 0.09570623
1083.90 0.09567563
1084.00 0.09564566
1084.10 0.09561577
1084.20 0.09558589
1084.30 0.09555602
1084.40 0.09552615
1084.50 0.0954963
1084.60 0.09546646
1084.70 0.09543662
1084.80 0.0954068
1084.90 0.09537698
1085.00 0.09534718
1085.10 0.09531738
1085.20 0.09528759
1085.30 0.09525781
1085.40 0.09522805
1085.50 0.09519829
1085.60 0.09516854
1085.70 0.0951388
1085.80 0.09510907
1085.90 0.09507934
1086.00 0.09504963
1086.10 0.09501993
1086.20 0.09499023
1086.30 0.09496055
1086.40 0.09493087
1086.50 0.09490121
1086.60 0.09487155
1086.70 0.0948419
1086.80 0.09481227
1086.90 0.09478264
1087.00 0.09475302
1087.10 0.09472341
1087.20 0.09469381
1087.30 0.09466422
1087.40 0.09463463
1087.50 0.09460506
1087.60 0.0945755
1087.70 0.09454594
1087.80 0.0945164
1087.90 0.09448686
1088.00 0.09445734
1088.10 0.09442782
1088.20 0.09439831
1088.30 0.09436881
1088.40 0.09433932
1088.50 0.09430984
1088.60 0.09428037
1088.70 0.09425091
1088.80 0.09422146
1088.90 0.09419201
1089.00 0.09416258
1089.10 0.09413315
1089.20 0.09410374
1089.30 0.09407433
1089.40 0.09404455
1089.50 0.09401461
1089.60 0.09398468
1089.70 0.09395476
1089.80 0.09392484
1089.90 0.09389494
1090.00 0.09386504
1090.10 0.09383516
1090.20 0.09380528
1090.30 0.09377542
1090.40 0.09374556
1090.50 0.09371571
1090.60 0.09368587
1090.70 0.09365604
1090.80 0.09362622
1090.90 0.09359641
1091.00 0.09356661
1091.10 0.09353682
1091.20 0.09350704
1091.30 0.09347727
1091.40 0.0934475
1091.50 0.09341775
1091.60 0.09338801
1091.70 0.09335827
1091.80 0.09332854
1091.90 0.09329883
1092.00 0.09326912
1092.10 0.09323942
1092.20 0.09320973
1092.30 0.09318005
1092.40 0.09315038
1092.50 0.09312072
1092.60 0.09309107
1092.70 0.09306143
1092.80 0.0930318
1092.90 0.09300217
1093.00 0.09297256
1093.10 0.09294295
1093.20 0.09291336
1093.30 0.09288377
1093.40 0.09285419
1093.50 0.09282462
1093.60 0.09279507
1093.70 0.09276552
1093.80 0.09273598
1093.90 0.09270644
1094.00 0.09267692
1094.10 0.09264741
1094.20 0.09261791
1094.30 0.09258841
1094.40 0.09255893
1094.50 0.09252945
1094.60 0.09249999
1094.70 0.09247053
1094.80 0.09244141
1094.90 0.09241264
1095.00 0.09238388
1095.10 0.09235512
1095.20 0.09232638
1095.30 0.09229764
1095.40 0.09226891
1095.50 0.0922402
1095.60 0.09221149
1095.70 0.09218279
1095.80 0.09215409
1095.90 0.09212541
1096.00 0.09209674
1096.10 0.09206807
1096.20 0.09203942
1096.30 0.09201077
1096.40 0.09198213
1096.50 0.0919535
1096.60 0.09192488
1096.70 0.09189627
1096.80 0.09186767
1096.90 0.09183907
1097.00 0.09181049
1097.10 0.09178191
1097.20 0.09175335
1097.30 0.09172479
1097.40 0.09169624
1097.50 0.0916677
1097.60 0.09163917
1097.70 0.09161064
1097.80 0.09158213
1097.90 0.09155363
1098.00 0.09152513
1098.10 0.09149664
1098.20 0.09146816
1098.30 0.09143969
1098.40 0.09141123
1098.50 0.09138278
1098.60 0.09135434
1098.70 0.09132591
1098.80 0.09129748
1098.90 0.09126906
1099.00 0.09124066
1099.10 0.09121226
1099.20 0.09118387
1099.30 0.09115549
1099.40 0.09112712
1099.50 0.09109875
1099.60 0.0910704
1099.70 0.09104205
1099.80 0.09101371
1099.90 0.09098539
1100.00 0.09095707
1100.10 0.09092876
1100.20 0.09090045
1100.30 0.09087216
1100.40 0.09084388
1100.50 0.0908156
1100.60 0.09078734
1100.70 0.09075908
1100.80 0.09073083
1100.90 0.09070259
1101.00 0.09067436
1101.10 0.09064613
1101.20 0.09061792
1101.30 0.09058971
1101.40 0.09056152
1101.50 0.09053333
1101.60 0.09050515
1101.70 0.09047698
1101.80 0.09044882
1101.90 0.09042067
1102.00 0.09039252
1102.10 0.09036439
1102.20 0.09033626
1102.30 0.09030814
1102.40 0.09028003
1102.50 0.09025193
1102.60 0.09022384
1102.70 0.09019576
1102.80 0.09016768
1102.90 0.09013962
1103.00 0.09011156
1103.10 0.09008351
1103.20 0.09005547
1103.30 0.09002744
1103.40 0.08999942
1103.50 0.0899714
1103.60 0.0899434
1103.70 0.0899154
1103.80 0.08988742
1103.90 0.08985944
1104.00 0.08983147
1104.10 0.0898035
1104.20 0.08977555
1104.30 0.08974761
1104.40 0.08971967
1104.50 0.08969174
1104.60 0.08966383
1104.70 0.08963592
1104.80 0.08960802
1104.90 0.08958012
1105.00 0.08955224
1105.10 0.08952436
1105.20 0.0894965
1105.30 0.08946864
1105.40 0.08944079
1105.50 0.08941295
1105.60 0.08938512
1105.70 0.08935729
1105.80 0.08932933
1105.90 0.08930137
1106.00 0.08927343
1106.10 0.08924549
1106.20 0.08921757
1106.30 0.08918965
1106.40 0.08916174
1106.50 0.08913383
1106.60 0.08910594
1106.70 0.08907806
1106.80 0.08905018
1106.90 0.08902231
1107.00 0.08899445
1107.10 0.0889666
1107.20 0.08893876
1107.30 0.08891093
1107.40 0.08888311
1107.50 0.08885529
1107.60 0.08882748
1107.70 0.08879968
1107.80 0.0887719
1107.90 0.08874411
1108.00 0.08871634
1108.10 0.08868858
1108.20 0.08866082
1108.30 0.08863307
1108.40 0.08860534
1108.50 0.08857761
1108.60 0.08854988
1108.70 0.08852217
1108.80 0.08849447
1108.90 0.08846677
1109.00 0.08843909
1109.10 0.08841141
1109.20 0.08838374
1109.30 0.08835608
1109.40 0.08832842
1109.50 0.08830078
1109.60 0.08827314
1109.70 0.08824551
1109.80 0.0882179
1109.90 0.08819029
1110.00 0.08816268
1110.10 0.08813509
1110.20 0.08810751
1110.30 0.08807993
1110.40 0.08805236
1110.50 0.0880248
1110.60 0.08799725
1110.70 0.08796971
1110.80 0.08794218
1110.90 0.08791465
1111.00 0.08788713
1111.10 0.08785963
1111.20 0.08783213
1111.30 0.08780463
1111.40 0.08777715
1111.50 0.08774968
1111.60 0.08772221
1111.70 0.08769475
1111.80 0.08766731
1111.90 0.08763986
1112.00 0.08761243
1112.10 0.08758501
1112.20 0.08755759
1112.30 0.08753019
1112.40 0.08750279
1112.50 0.0874754
1112.60 0.08744802
1112.70 0.08742064
1112.80 0.08739328
1112.90 0.08736592
1113.00 0.08733858
1113.10 0.08731124
1113.20 0.08728391
1113.30 0.08725658
1113.40 0.08722927
1113.50 0.08720196
1113.60 0.08717467
1113.70 0.08714738
1113.80 0.0871201
1113.90 0.08709282
1114.00 0.08706556
1114.10 0.08703831
1114.20 0.08701106
1114.30 0.08698382
1114.40 0.08695659
1114.50 0.08692937
1114.60 0.08690215
1114.70 0.08687495
1114.80 0.08684775
1114.90 0.08682056
1115.00 0.08679338
1115.10 0.08676621
1115.20 0.08673905
1115.30 0.08671189
1115.40 0.08668475
1115.50 0.08665761
1115.60 0.08663048
1115.70 0.08660336
1115.80 0.08657624
1115.90 0.08654914
1116.00 0.08652204
1116.10 0.08649495
1116.20 0.08646787
1116.30 0.0864408
1116.40 0.08641374
1116.50 0.08638668
1116.60 0.08635964
1116.70 0.0863326
1116.80 0.08630574
1116.90 0.08627908
1117.00 0.08625244
1117.10 0.0862258
1117.20 0.08619917
1117.30 0.08617255
1117.40 0.08614594
1117.50 0.08611934
1117.60 0.08609274
1117.70 0.08606616
1117.80 0.08603958
1117.90 0.08601301
1118.00 0.08598644
1118.10 0.08595989
1118.20 0.08593334
1118.30 0.0859068
1118.40 0.08588027
1118.50 0.08585375
1118.60 0.08582724
1118.70 0.08580073
1118.80 0.08577423
1118.90 0.08574774
1119.00 0.08572126
1119.10 0.08569479
1119.20 0.08566832
1119.30 0.08564187
1119.40 0.08561542
1119.50 0.08558898
1119.60 0.08556254
1119.70 0.08553612
1119.80 0.0855097
1119.90 0.08548329
1120.00 0.08545689
1120.10 0.0854305
1120.20 0.08540411
1120.30 0.08537774
1120.40 0.08535137
1120.50 0.08532501
1120.60 0.08529865
1120.70 0.08527231
1120.80 0.08524597
1120.90 0.08521965
1121.00 0.08519333
1121.10 0.08516701
1121.20 0.08514071
1121.30 0.08511441
1121.40 0.08508812
1121.50 0.08506184
1121.60 0.08503557
1121.70 0.08500931
1121.80 0.08498305
1121.90 0.0849568
1122.00 0.08493056
1122.10 0.08490433
1122.20 0.08487811
1122.30 0.08485189
1122.40 0.08482568
1122.50 0.08479948
1122.60 0.08477328
1122.70 0.0847471
1122.80 0.08472092
1122.90 0.08469475
1123.00 0.08466859
1123.10 0.08464243
1123.20 0.08461629
1123.30 0.08459015
1123.40 0.08456402
1123.50 0.0845379
1123.60 0.08451178
1123.70 0.08448568
1123.80 0.08445958
1123.90 0.08443349
1124.00 0.0844074
1124.10 0.08438133
1124.20 0.08435526
1124.30 0.0843292
1124.40 0.08430315
1124.50 0.08427711
1124.60 0.08425108
1124.70 0.08422505
1124.80 0.08419903
1124.90 0.08417302
1125.00 0.08414701
1125.10 0.08412102
1125.20 0.08409503
1125.30 0.08406905
1125.40 0.08404308
1125.50 0.08401712
1125.60 0.08399116
1125.70 0.08396521
1125.80 0.08393927
1125.90 0.08391334
1126.00 0.08388742
1126.10 0.0838615
1126.20 0.08383559
1126.30 0.08380969
1126.40 0.0837838
1126.50 0.08375791
1126.60 0.08373204
1126.70 0.08370617
1126.80 0.08368031
1126.90 0.08365445
1127.00 0.08362861
1127.10 0.08360277
1127.20 0.08357694
1127.30 0.08355112
1127.40 0.0835253
1127.50 0.0834995
1127.60 0.0834737
1127.70 0.08344791
1127.80 0.08342212
1127.90 0.08339635
1128.00 0.08337086
1128.10 0.08334546
1128.20 0.08332007
1128.30 0.08329468
1128.40 0.0832693
1128.50 0.08324393
1128.60 0.08321857
1128.70 0.08319321
1128.80 0.08316787
1128.90 0.08314253
1129.00 0.08311719
1129.10 0.08309187
1129.20 0.08306655
1129.30 0.08304124
1129.40 0.08301594
1129.50 0.08299065
1129.60 0.08296536
1129.70 0.08294008
1129.80 0.08291481
1129.90 0.08288955
1130.00 0.08286429
1130.10 0.08283904
1130.20 0.0828138
1130.30 0.08278857
1130.40 0.08276335
1130.50 0.08273813
1130.60 0.08271292
1130.70 0.08268772
1130.80 0.08266252
1130.90 0.08263733
1131.00 0.08261216
1131.10 0.08258698
1131.20 0.08256182
1131.30 0.08253666
1131.40 0.08251151
1131.50 0.08248637
1131.60 0.08246124
1131.70 0.08243611
1131.80 0.08241099
1131.90 0.08238588
1132.00 0.08236078
1132.10 0.08233568
1132.20 0.0823106
1132.30 0.08228551
1132.40 0.08226044
1132.50 0.08223538
1132.60 0.08221032
1132.70 0.08218527
1132.80 0.08216022
1132.90 0.08213519
1133.00 0.08211016
1133.10 0.08208514
1133.20 0.08206013
1133.30 0.08203512
1133.40 0.08201013
1133.50 0.08198514
1133.60 0.08196015
1133.70 0.08193518
1133.80 0.08191021
1133.90 0.08188525
1134.00 0.0818603
1134.10 0.08183535
1134.20 0.08181042
1134.30 0.08178549
1134.40 0.08176057
1134.50 0.08173565
1134.60 0.08171074
1134.70 0.08168584
1134.80 0.08166095
1134.90 0.08163607
1135.00 0.08161119
1135.10 0.08158632
1135.20 0.08156146
1135.30 0.0815366
1135.40 0.08151176
1135.50 0.08148692
1135.60 0.08146208
1135.70 0.08143726
1135.80 0.08141244
1135.90 0.08138763
1136.00 0.08136283
1136.10 0.08133804
1136.20 0.08131325
1136.30 0.08128847
1136.40 0.0812637
1136.50 0.08123893
1136.60 0.08121417
1136.70 0.08118942
1136.80 0.08116468
1136.90 0.08113995
1137.00 0.08111522
1137.10 0.0810905
1137.20 0.08106579
1137.30 0.08104108
1137.40 0.08101638
1137.50 0.08099169
1137.60 0.08096701
1137.70 0.08094233
1137.80 0.08091766
1137.90 0.080893
1138.00 0.08086835
1138.10 0.0808437
1138.20 0.08081907
1138.30 0.08079443
1138.40 0.08076981
1138.50 0.08074519
1138.60 0.08072059
1138.70 0.08069598
1138.80 0.08067139
1138.90 0.0806468
1139.00 0.08062222
1139.10 0.08059765
1139.20 0.08057309
1139.30 0.08054863
1139.40 0.08052418
1139.50 0.08049974
1139.60 0.08047531
1139.70 0.08045088
1139.80 0.08042647
1139.90 0.08040206
1140.00 0.08037765
1140.10 0.08035326
1140.20 0.08032887
1140.30 0.08030449
1140.40 0.08028011
1140.50 0.08025574
1140.60 0.08023138
1140.70 0.08020703
1140.80 0.08018269
1140.90 0.08015835
1141.00 0.08013402
1141.10 0.0801097
1141.20 0.08008538
1141.30 0.08006107
1141.40 0.08003677
1141.50 0.08001248
1141.60 0.07998819
1141.70 0.07996391
1141.80 0.07993964
1141.90 0.07991537
1142.00 0.07989112
1142.10 0.07986687
1142.20 0.07984262
1142.30 0.07981839
1142.40 0.07979416
1142.50 0.07976994
1142.60 0.07974572
1142.70 0.07972152
1142.80 0.07969732
1142.90 0.07967313
1143.00 0.07964894
1143.10 0.07962476
1143.20 0.07960059
1143.30 0.07957643
1143.40 0.07955227
1143.50 0.07952813
1143.60 0.07950398
1143.70 0.07947985
1143.80 0.07945572
1143.90 0.0794316
1144.00 0.07940749
1144.10 0.07938338
1144.20 0.07935929
1144.30 0.0793352
1144.40 0.07931111
1144.50 0.07928704
1144.60 0.07926297
1144.70 0.0792389
1144.80 0.07921485
1144.90 0.0791908
1145.00 0.07916676
1145.10 0.07914273
1145.20 0.0791187
1145.30 0.07909468
1145.40 0.07907067
1145.50 0.07904667
1145.60 0.07902267
1145.70 0.07899868
1145.80 0.07897469
1145.90 0.07895072
1146.00 0.07892675
1146.10 0.07890279
1146.20 0.07887883
1146.30 0.07885489
1146.40 0.07883095
1146.50 0.07880701
1146.60 0.07878309
1146.70 0.07875917
1146.80 0.07873526
1146.90 0.07871135
1147.00 0.07868745
1147.10 0.07866356
1147.20 0.07863968
1147.30 0.07861581
1147.40 0.07859194
1147.50 0.07856808
1147.60 0.07854422
1147.70 0.07852037
1147.80 0.07849653
1147.90 0.0784727
1148.00 0.07844887
1148.10 0.07842506
1148.20 0.07840124
1148.30 0.07837744
1148.40 0.07835364
1148.50 0.07832985
1148.60 0.07830607
1148.70 0.07828229
1148.80 0.07825852
1148.90 0.07823476
1149.00 0.078211
1149.10 0.07818726
1149.20 0.07816352
1149.30 0.07813978
1149.40 0.07811605
1149.50 0.07809234
1149.60 0.07806862
1149.70 0.07804492
1149.80 0.07802122
1149.90 0.07799753
1150.00 0.07797384
1150.10 0.07795017
1150.20 0.0779265
1150.30 0.07790283
1150.40 0.07787918
1150.50 0.07785553
1150.60 0.07783188
1150.70 0.07780811
1150.80 0.07778435
1150.90 0.07776059
1151.00 0.07773684
1151.10 0.0777131
1151.20 0.07768937
1151.30 0.07766564
1151.40 0.07764192
1151.50 0.07761821
1151.60 0.0775945
1151.70 0.0775708
1151.80 0.07754711
1151.90 0.07752343
1152.00 0.07749975
1152.10 0.07747608
1152.20 0.07745242
1152.30 0.07742876
1152.40 0.07740511
1152.50 0.07738147
1152.60 0.07735783
1152.70 0.0773342
1152.80 0.07731058
1152.90 0.07728697
1153.00 0.07726336
1153.10 0.07723976
1153.20 0.07721617
1153.30 0.07719258
1153.40 0.077169
1153.50 0.07714543
1153.60 0.07712187
1153.70 0.07709831
1153.80 0.07707476
1153.90 0.07705121
1154.00 0.07702768
1154.10 0.07700415
1154.20 0.07698063
1154.30 0.07695711
1154.40 0.0769336
1154.50 0.0769101
1154.60 0.0768866
1154.70 0.07686312
1154.80 0.07683963
1154.90 0.07681616
1155.00 0.07679269
1155.10 0.07676923
1155.20 0.07674578
1155.30 0.07672233
1155.40 0.0766989
1155.50 0.07667546
1155.60 0.07665204
1155.70 0.07662862
1155.80 0.07660521
1155.90 0.0765818
1156.00 0.07655841
1156.10 0.07653502
1156.20 0.07651163
1156.30 0.07648826
1156.40 0.07646514
1156.50 0.07644224
1156.60 0.07641935
1156.70 0.07639646
1156.80 0.07637358
1156.90 0.07635071
1157.00 0.07632785
1157.10 0.07630499
1157.20 0.07628214
1157.30 0.0762593
1157.40 0.07623646
1157.50 0.07621363
1157.60 0.0761908
1157.70 0.07616799
1157.80 0.07614517
1157.90 0.07612237
1158.00 0.07609957
1158.10 0.07607678
1158.20 0.076054
1158.30 0.07603122
1158.40 0.07600845
1158.50 0.07598569
1158.60 0.07596293
1158.70 0.07594018
1158.80 0.07591744
1158.90 0.0758947
1159.00 0.07587197
1159.10 0.07584925
1159.20 0.07582653
1159.30 0.07580382
1159.40 0.07578112
1159.50 0.07575843
1159.60 0.07573574
1159.70 0.07571305
1159.80 0.07569038
1159.90 0.07566771
1160.00 0.07564504
1160.10 0.07562239
1160.20 0.07559974
1160.30 0.0755771
1160.40 0.07555446
1160.50 0.07553183
1160.60 0.07550921
1160.70 0.07548659
1160.80 0.07546398
1160.90 0.07544138
1161.00 0.07541878
1161.10 0.07539619
1161.20 0.07537361
1161.30 0.07535104
1161.40 0.07532847
1161.50 0.0753059
1161.60 0.07528335
1161.70 0.0752608
1161.80 0.07523826
1161.90 0.07521572
1162.00 0.07519319
1162.10 0.07517067
1162.20 0.07514824
1162.30 0.07512583
1162.40 0.07510342
1162.50 0.07508101
1162.60 0.07505861
1162.70 0.07503622
1162.80 0.07501384
1162.90 0.07499146
1163.00 0.07496909
1163.10 0.07494673
1163.20 0.07492437
1163.30 0.07490202
1163.40 0.07487967
1163.50 0.07485733
1163.60 0.074835
1163.70 0.07481268
1163.80 0.07479036
1163.90 0.07476805
1164.00 0.07474574
1164.10 0.07472344
1164.20 0.07470115
1164.30 0.07467887
1164.40 0.07465659
1164.50 0.07463431
1164.60 0.07461205
1164.70 0.07458979
1164.80 0.07456754
1164.90 0.07454529
1165.00 0.07452305
1165.10 0.07450082
1165.20 0.07447859
1165.30 0.07445637
1165.40 0.07443416
1165.50 0.07441195
1165.60 0.07438975
1165.70 0.07436755
1165.80 0.07434537
1165.90 0.07432318
1166.00 0.07430101
1166.10 0.07427884
1166.20 0.07425668
1166.30 0.07423453
1166.40 0.07421238
1166.50 0.07419023
1166.60 0.0741681
1166.70 0.07414597
1166.80 0.07412385
1166.90 0.07410173
1167.00 0.07407962
1167.10 0.07405752
1167.20 0.07403542
1167.30 0.07401333
1167.40 0.07399125
1167.50 0.07396917
1167.60 0.0739471
1167.70 0.07392504
1167.80 0.07390298
1167.90 0.07388093
1168.00 0.07385888
1168.10 0.07383685
1168.20 0.07381482
1168.30 0.07379279
1168.40 0.07377078
1168.50 0.07374877
1168.60 0.07372676
1168.70 0.07370476
1168.80 0.07368277
1168.90 0.07366079
1169.00 0.07363881
1169.10 0.07361684
1169.20 0.07359487
1169.30 0.07357291
1169.40 0.07355096
1169.50 0.07352901
1169.60 0.07350707
1169.70 0.07348514
1169.80 0.07346321
1169.90 0.07344129
1170.00 0.07341938
1170.10 0.07339747
1170.20 0.07337557
1170.30 0.07335367
1170.40 0.07333178
1170.50 0.0733099
1170.60 0.07328803
1170.70 0.07326616
1170.80 0.07324429
1170.90 0.07322244
1171.00 0.07320059
1171.10 0.07317874
1171.20 0.07315691
1171.30 0.07313507
1171.40 0.07311325
1171.50 0.07309143
1171.60 0.07306962
1171.70 0.07304781
1171.80 0.07302601
1171.90 0.07300422
1172.00 0.07298244
1172.10 0.07296066
1172.20 0.07293888
1172.30 0.07291711
1172.40 0.07289535
1172.50 0.0728736
1172.60 0.07285185
1172.70 0.07283011
1172.80 0.07280837
1172.90 0.07278664
1173.00 0.07276492
1173.10 0.07274321
1173.20 0.0727215
1173.30 0.07269979
1173.40 0.07267809
1173.50 0.0726564
1173.60 0.07263472
1173.70 0.07261304
1173.80 0.07259144
1173.90 0.07256986
1174.00 0.0725483
1174.10 0.07252673
1174.20 0.07250518
1174.30 0.07248363
1174.40 0.07246208
1174.50 0.07244054
1174.60 0.07241901
1174.70 0.07239749
1174.80 0.07237597
1174.90 0.07235446
1175.00 0.07233295
1175.10 0.07231145
1175.20 0.07228996
1175.30 0.07226847
1175.40 0.07224699
1175.50 0.07222551
1175.60 0.07220404
1175.70 0.07218258
1175.80 0.07216113
1175.90 0.07213968
1176.00 0.07211823
1176.10 0.0720968
1176.20 0.07207536
1176.30 0.07205394
1176.40 0.07203252
1176.50 0.07201111
1176.60 0.0719897
1176.70 0.0719683
1176.80 0.07194691
1176.90 0.07192552
1177.00 0.07190414
1177.10 0.07188277
1177.20 0.0718614
1177.30 0.07184003
1177.40 0.07181868
1177.50 0.07179733
1177.60 0.07177598
1177.70 0.07175465
1177.80 0.07173331
1177.90 0.07171199
1178.00 0.07169067
1178.10 0.07166936
1178.20 0.07164805
1178.30 0.07162675
1178.40 0.07160546
1178.50 0.07158417
1178.60 0.07156289
1178.70 0.07154161
1178.80 0.07152034
1178.90 0.07149908
1179.00 0.07147782
1179.10 0.07145657
1179.20 0.07143532
1179.30 0.07141409
1179.40 0.07139285
1179.50 0.07137163
1179.60 0.07135046
1179.70 0.07132968
1179.80 0.07130891
1179.90 0.07128814
1180.00 0.07126738
1180.10 0.07124662
1180.20 0.07122588
1180.30 0.07120513
1180.40 0.0711844
1180.50 0.07116367
1180.60 0.07114294
1180.70 0.07112223
1180.80 0.07110151
1180.90 0.07108081
1181.00 0.07106011
1181.10 0.07103941
1181.20 0.07101873
1181.30 0.07099804
1181.40 0.07097737
1181.50 0.0709567
1181.60 0.07093603
1181.70 0.07091537
1181.80 0.07089472
1181.90 0.07087408
1182.00 0.07085344
1182.10 0.0708328
1182.20 0.07081217
1182.30 0.07079155
1182.40 0.07077093
1182.50 0.07075032
1182.60 0.07072972
1182.70 0.07070912
1182.80 0.07068853
1182.90 0.07066794
1183.00 0.07064736
1183.10 0.07062679
1183.20 0.07060622
1183.30 0.07058565
1183.40 0.0705651
1183.50 0.07054455
1183.60 0.070524
1183.70 0.07050346
1183.80 0.07048293
1183.90 0.0704624
1184.00 0.07044188
1184.10 0.07042137
1184.20 0.07040086
1184.30 0.07038035
1184.40 0.07035985
1184.50 0.07033936
1184.60 0.07031888
1184.70 0.0702984
1184.80 0.07027792
1184.90 0.07025746
1185.00 0.07023699
1185.10 0.07021654
1185.20 0.07019609
1185.30 0.07017564
1185.40 0.0701552
1185.50 0.07013463
1185.60 0.07011386
1185.70 0.0700931
1185.80 0.07007234
1185.90 0.07005159
1186.00 0.07003085
1186.10 0.07001011
1186.20 0.06998938
1186.30 0.06996865
1186.40 0.06994793
1186.50 0.06992722
1186.60 0.06990651
1186.70 0.0698858
1186.80 0.06986511
1186.90 0.06984442
1187.00 0.06982373
1187.10 0.06980306
1187.20 0.06978238
1187.30 0.06976172
1187.40 0.06974106
1187.50 0.0697204
1187.60 0.06969975
1187.70 0.06967911
1187.80 0.06965847
1187.90 0.06963784
1188.00 0.06961722
1188.10 0.0695966
1188.20 0.06957599
1188.30 0.06955538
1188.40 0.06953478
1188.50 0.06951419
1188.60 0.0694936
1188.70 0.06947301
1188.80 0.06945244
1188.90 0.06943187
1189.00 0.0694113
1189.10 0.06939074
1189.20 0.06937019
1189.30 0.06934964
1189.40 0.0693291
1189.50 0.06930856
1189.60 0.06928803
1189.70 0.06926751
1189.80 0.06924699
1189.90 0.06922648
1190.00 0.06920598
1190.10 0.06918548
1190.20 0.06916498
1190.30 0.06914449
1190.40 0.06912401
1190.50 0.06910354
1190.60 0.06908306
1190.70 0.0690626
1190.80 0.06904214
1190.90 0.06902169
1191.00 0.06900124
1191.10 0.0689808
1191.20 0.06896037
1191.30 0.06893994
1191.40 0.06891951
1191.50 0.0688991
1191.60 0.06887868
1191.70 0.06885828
1191.80 0.06883788
1191.90 0.06881749
1192.00 0.0687971
1192.10 0.06877672
1192.20 0.06875634
1192.30 0.06873597
1192.40 0.0687156
1192.50 0.06869525
1192.60 0.06867489
1192.70 0.06865455
1192.80 0.06863421
1192.90 0.06861387
1193.00 0.06859354
1193.10 0.06857322
1193.20 0.0685529
1193.30 0.06853259
1193.40 0.06851228
1193.50 0.06849198
1193.60 0.06847169
1193.70 0.0684514
1193.80 0.06843112
1193.90 0.06841084
1194.00 0.06839057
1194.10 0.0683703
1194.20 0.06835004
1194.30 0.06832979
1194.40 0.06830954
1194.50 0.0682893
1194.60 0.06826907
1194.70 0.06824884
1194.80 0.06822861
1194.90 0.06820839
1195.00 0.06818818
1195.10 0.06816797
1195.20 0.06814777
1195.30 0.06812758
1195.40 0.06810739
1195.50 0.0680872
1195.60 0.06806703
1195.70 0.06804685
1195.80 0.06802669
1195.90 0.06800653
1196.00 0.06798637
1196.10 0.06796622
1196.20 0.06794608
1196.30 0.06792594
1196.40 0.06790581
1196.50 0.06788568
1196.60 0.06786556
1196.70 0.06784545
1196.80 0.06782534
1196.90 0.06780524
1197.00 0.06778514
1197.10 0.06776505
1197.20 0.06774497
1197.30 0.06772489
1197.40 0.06770525
1197.50 0.06768569
1197.60 0.06766612
1197.70 0.06764657
1197.80 0.06762702
1197.90 0.06760747
1198.00 0.06758793
1198.10 0.0675684
1198.20 0.06754887
1198.30 0.06752935
1198.40 0.06750983
1198.50 0.06749032
1198.60 0.06747081
1198.70 0.06745131
1198.80 0.06743182
1198.90 0.06741233
1199.00 0.06739285
1199.10 0.06737337
1199.20 0.06735389
1199.30 0.06733443
1199.40 0.06731497
1199.50 0.06729551
1199.60 0.06727606
1199.70 0.06725661
1199.80 0.06723718
1199.90 0.06721774
1200.00 0.06719831
