# Version 2.1 - nm, norm@500 to 1, cut digits, bergeron_He_20000_85.dat_20000
# Wavelength(nm)  Flambda(ergs/cm^s/s/nm)
300.00 4.217934
300.10 4.215161
300.20 4.212354
300.30 4.209516
300.40 4.206466
300.50 4.20342
300.60 4.200376
300.70 4.197335
300.80 4.194298
300.90 4.191263
301.00 4.188232
301.10 4.185204
301.20 4.182179
301.30 4.179157
301.40 4.176138
301.50 4.173122
301.60 4.170109
301.70 4.167099
301.80 4.164093
301.90 4.161089
302.00 4.158089
302.10 4.154718
302.20 4.151309
302.30 4.147904
302.40 4.144503
302.50 4.141105
302.60 4.137711
302.70 4.13432
302.80 4.130933
302.90 4.12755
303.00 4.12417
303.10 4.120794
303.20 4.117421
303.30 4.114037
303.40 4.110525
303.50 4.107016
303.60 4.103511
303.70 4.10001
303.80 4.096513
303.90 4.093019
304.00 4.089529
304.10 4.086043
304.20 4.082561
304.30 4.079082
304.40 4.075607
304.50 4.072135
304.60 4.068626
304.70 4.065117
304.80 4.061611
304.90 4.058108
305.00 4.05461
305.10 4.051115
305.20 4.047624
305.30 4.044137
305.40 4.040653
305.50 4.037173
305.60 4.033697
305.70 4.030224
305.80 4.026755
305.90 4.02329
306.00 4.019828
306.10 4.01637
306.20 4.012916
306.30 4.009466
306.40 4.00597
306.50 4.002464
306.60 3.998961
306.70 3.995462
306.80 3.991967
306.90 3.988476
307.00 3.984988
307.10 3.981504
307.20 3.978024
307.30 3.974547
307.40 3.971074
307.50 3.967605
307.60 3.964139
307.70 3.960677
307.80 3.957219
307.90 3.953764
308.00 3.950313
308.10 3.946866
308.20 3.943422
308.30 3.939982
308.40 3.936546
308.50 3.933113
308.60 3.929684
308.70 3.926258
308.80 3.922787
308.90 3.919179
309.00 3.915535
309.10 3.911896
309.20 3.90826
309.30 3.904628
309.40 3.900999
309.50 3.897368
309.60 3.89374
309.70 3.890117
309.80 3.886498
309.90 3.882882
310.00 3.87927
310.10 3.875662
310.20 3.872058
310.30 3.868458
310.40 3.864808
310.50 3.861103
310.60 3.857402
310.70 3.853705
310.80 3.850012
310.90 3.846323
311.00 3.842785
311.10 3.83925
311.20 3.835719
311.30 3.832088
311.40 3.828165
311.50 3.824246
311.60 3.820331
311.70 3.816421
311.80 3.812515
311.90 3.808613
312.00 3.804715
312.10 3.800822
312.20 3.796565
312.30 3.792304
312.40 3.788414
312.50 3.784392
312.60 3.780557
312.70 3.776727
312.80 3.772901
312.90 3.76886
313.00 3.764588
313.10 3.760321
313.20 3.756058
313.30 3.751674
313.40 3.746938
313.50 3.742208
313.60 3.737482
313.70 3.732762
313.80 3.728047
313.90 3.723338
314.00 3.718634
314.10 3.713406
314.20 3.708185
314.30 3.702969
314.40 3.697759
314.50 3.692556
314.60 3.687358
314.70 3.682165
314.80 3.676855
314.90 3.670692
315.00 3.663988
315.10 3.657566
315.20 3.65115
315.30 3.644743
315.40 3.638342
315.50 3.63195
315.60 3.625564
315.70 3.619723
315.80 3.613888
315.90 3.608061
316.00 3.602239
316.10 3.596104
316.20 3.589975
316.30 3.585779
316.40 3.577096
316.50 3.557523
316.60 3.525798
316.70 3.495394
316.80 3.465027
316.90 3.459962
317.00 3.454903
317.10 3.44985
317.20 3.444802
317.30 3.456565
317.40 3.464302
317.50 3.460624
317.60 3.456951
317.70 3.453281
317.80 3.449615
317.90 3.424865
318.00 3.391248
318.10 3.337698
318.20 3.284214
318.30 3.230798
318.40 3.156361
318.50 3.022041
318.60 2.863045
318.70 2.4973
318.80 1.86695
318.90 2.383384
319.00 2.640537
319.10 2.797218
319.20 2.93164
319.30 3.003141
319.40 3.074551
319.50 3.145872
319.60 3.201199
319.70 3.234443
319.80 3.267645
319.90 3.300805
320.00 3.328177
320.10 3.349292
320.20 3.368068
320.30 3.384079
320.40 3.398861
320.50 3.410248
320.60 3.420969
320.70 3.429453
320.80 3.436278
320.90 3.44131
321.00 3.446335
321.10 3.451353
321.20 3.455125
321.30 3.456635
321.40 3.458142
321.50 3.459647
321.60 3.461149
321.70 3.462648
321.80 3.463601
321.90 3.463962
322.00 3.462613
322.10 3.462003
322.20 3.461393
322.30 3.460784
322.40 3.460175
322.50 3.459566
322.60 3.458956
322.70 3.458347
322.80 3.458321
322.90 3.456507
323.00 3.454695
323.10 3.452885
323.20 3.451076
323.30 3.449269
323.40 3.447464
323.50 3.44566
323.60 3.443857
323.70 3.442057
323.80 3.440257
323.90 3.43846
324.00 3.436337
324.10 3.434217
324.20 3.432099
324.30 3.429983
324.40 3.427653
324.50 3.425092
324.60 3.422534
324.70 3.419978
324.80 3.417425
324.90 3.414874
325.00 3.412326
325.10 3.40978
325.20 3.407244
325.30 3.404727
325.40 3.402212
325.50 3.399614
325.60 3.396916
325.70 3.39422
325.80 3.391527
325.90 3.388854
326.00 3.386202
326.10 3.383553
326.20 3.380907
326.30 3.378412
326.40 3.376342
326.50 3.373527
326.60 3.370715
326.70 3.367906
326.80 3.3651
326.90 3.362296
327.00 3.359495
327.10 3.356697
327.20 3.353902
327.30 3.351109
327.40 3.34832
327.50 3.345533
327.60 3.342749
327.70 3.339968
327.80 3.337189
327.90 3.334212
328.00 3.330731
328.10 3.326901
328.20 3.323074
328.30 3.319252
328.40 3.315434
328.50 3.312531
328.60 3.309845
328.70 3.307161
328.80 3.304576
328.90 3.302265
329.00 3.299957
329.10 3.29765
329.20 3.295346
329.30 3.293044
329.40 3.290744
329.50 3.288446
329.60 3.286151
329.70 3.283858
329.80 3.281566
329.90 3.279277
330.00 3.276858
330.10 3.274279
330.20 3.271703
330.30 3.269129
330.40 3.266534
330.50 3.263918
330.60 3.261305
330.70 3.258694
330.80 3.256085
330.90 3.253479
331.00 3.250876
331.10 3.248275
331.20 3.245677
331.30 3.243081
331.40 3.240488
331.50 3.237972
331.60 3.23555
331.70 3.233131
331.80 3.230417
331.90 3.227694
332.00 3.224973
332.10 3.222255
332.20 3.21954
332.30 3.216828
332.40 3.214118
332.50 3.211411
332.60 3.208707
332.70 3.206005
332.80 3.203306
332.90 3.200609
333.00 3.197915
333.10 3.195103
333.20 3.192144
333.30 3.189188
333.40 3.186235
333.50 3.183285
333.60 3.180338
333.70 3.177393
333.80 3.174452
333.90 3.171514
334.00 3.168579
334.10 3.165422
334.20 3.161994
334.30 3.15857
334.40 3.15515
334.50 3.151733
334.60 3.148319
334.70 3.145101
334.80 3.141496
334.90 3.136997
335.00 3.132503
335.10 3.128167
335.20 3.124586
335.30 3.120637
335.40 3.117635
335.50 3.117061
335.60 3.116201
335.70 3.114858
335.80 3.114142
335.90 3.113171
336.00 3.111887
336.10 3.110604
336.20 3.109322
336.30 3.107701
336.40 3.105664
336.50 3.103629
336.60 3.101597
336.70 3.099566
336.80 3.097537
336.90 3.095468
337.00 3.093351
337.10 3.091237
337.20 3.089124
337.30 3.086972
337.40 3.084764
337.50 3.082558
337.60 3.080353
337.70 3.078151
337.80 3.075951
337.90 3.073727
338.00 3.071473
338.10 3.06922
338.20 3.06697
338.30 3.064722
338.40 3.062456
338.50 3.060142
338.60 3.05783
338.70 3.05552
338.80 3.053213
338.90 3.050907
339.00 3.048604
339.10 3.046303
339.20 3.044004
339.30 3.041447
339.40 3.038517
339.50 3.035755
339.60 3.033199
339.70 3.030645
339.80 3.028093
339.90 3.025545
340.00 3.022998
340.10 3.020454
340.20 3.017912
340.30 3.015373
340.40 3.012837
340.50 3.010303
340.60 3.007771
340.70 3.005242
340.80 3.002797
340.90 3.000471
341.00 2.997967
341.10 2.995243
341.20 2.992522
341.30 2.989804
341.40 2.987088
341.50 2.984375
341.60 2.981665
341.70 2.978957
341.80 2.976103
341.90 2.973069
342.00 2.970039
342.10 2.967011
342.20 2.963696
342.30 2.960155
342.40 2.956817
342.50 2.953437
342.60 2.95006
342.70 2.946687
342.80 2.943317
342.90 2.939951
343.00 2.936479
343.10 2.932876
343.20 2.929278
343.30 2.925683
343.40 2.921823
343.50 2.917582
343.60 2.913345
343.70 2.909112
343.80 2.904884
343.90 2.90066
344.00 2.895811
344.10 2.890059
344.20 2.884314
344.30 2.878575
344.40 2.872064
344.50 2.864444
344.60 2.857026
344.70 2.849476
344.80 2.853821
344.90 2.856567
345.00 2.860891
345.10 2.863548
345.20 2.865329
345.30 2.865854
345.40 2.866377
345.50 2.866849
345.60 2.866778
345.70 2.866016
345.80 2.865254
345.90 2.864492
346.00 2.863731
346.10 2.86297
346.20 2.861843
346.30 2.860191
346.40 2.85854
346.50 2.85689
346.60 2.855242
346.70 2.853595
346.80 2.851949
346.90 2.850305
347.00 2.848663
347.10 2.847022
347.20 2.845262
347.30 2.843333
347.40 2.841406
347.50 2.83948
347.60 2.837557
347.70 2.835635
347.80 2.833714
347.90 2.831796
348.00 2.829879
348.10 2.827964
348.20 2.82605
348.30 2.824139
348.40 2.822229
348.50 2.82032
348.60 2.818414
348.70 2.816728
348.80 2.814911
348.90 2.812806
349.00 2.810702
349.10 2.8086
349.20 2.8065
349.30 2.804402
349.40 2.802306
349.50 2.800211
349.60 2.798119
349.70 2.796029
349.80 2.793941
349.90 2.791854
350.00 2.78977
350.10 2.787687
350.20 2.785606
350.30 2.783534
350.40 2.781472
350.50 2.779412
350.60 2.777353
350.70 2.775297
350.80 2.773243
350.90 2.77119
351.00 2.76914
351.10 2.767091
351.20 2.765044
351.30 2.762999
351.40 2.760925
351.50 2.758796
351.60 2.75667
351.70 2.754546
351.80 2.752423
351.90 2.750303
352.00 2.748185
352.10 2.746068
352.20 2.743828
352.30 2.741641
352.40 2.739551
352.50 2.737463
352.60 2.735376
352.70 2.733291
352.80 2.731209
352.90 2.729128
353.00 2.727049
353.10 2.724972
353.20 2.722897
353.30 2.720824
353.40 2.718753
353.50 2.716738
353.60 2.714739
353.70 2.712742
353.80 2.710746
353.90 2.708713
354.00 2.70661
354.10 2.704509
354.20 2.70241
354.30 2.700313
354.40 2.698218
354.50 2.696125
354.60 2.694033
354.70 2.691944
354.80 2.689901
354.90 2.687923
355.00 2.685946
355.10 2.683972
355.20 2.681999
355.30 2.679781
355.40 2.677565
355.50 2.675351
355.60 2.67314
355.70 2.671117
355.80 2.66918
355.90 2.667402
356.00 2.665342
356.10 2.663144
356.20 2.660948
356.30 2.658753
356.40 2.656561
356.50 2.654371
356.60 2.652183
356.70 2.649997
356.80 2.647813
356.90 2.645631
357.00 2.643451
357.10 2.641273
357.20 2.639097
357.30 2.636923
357.40 2.634678
357.50 2.632307
357.60 2.629938
357.70 2.627572
357.80 2.625191
357.90 2.622812
358.00 2.620166
358.10 2.617456
358.20 2.614748
358.30 2.612042
358.40 2.60934
358.50 2.60664
358.60 2.603942
358.70 2.601247
358.80 2.598555
358.90 2.595865
359.00 2.59282
359.10 2.589142
359.20 2.585425
359.30 2.581424
359.40 2.577427
359.50 2.573209
359.60 2.56894
359.70 2.564674
359.80 2.559866
359.90 2.555063
360.00 2.54962
360.10 2.543038
360.20 2.536464
360.30 2.529896
360.40 2.523335
360.50 2.516781
360.60 2.507826
360.70 2.496561
360.80 2.485309
360.90 2.474069
361.00 2.46132
361.10 2.441816
361.20 2.419348
361.30 2.392225
361.40 2.42636
361.50 2.456622
361.60 2.469726
361.70 2.470324
361.80 2.471733
361.90 2.474582
362.00 2.477428
362.10 2.479623
362.20 2.480662
362.30 2.479937
362.40 2.479212
362.50 2.478487
362.60 2.477763
362.70 2.475983
362.80 2.474185
362.90 2.471851
363.00 2.469519
363.10 2.467268
363.20 2.46502
363.30 2.464459
363.40 2.463833
363.50 2.465637
363.60 2.46914
363.70 2.47199
363.80 2.474191
363.90 2.475834
364.00 2.477475
364.10 2.479113
364.20 2.48075
364.30 2.482569
364.40 2.484431
364.50 2.485992
364.60 2.486876
364.70 2.487758
364.80 2.488639
364.90 2.488723
365.00 2.488806
365.10 2.488406
365.20 2.486562
365.30 2.485201
365.40 2.485284
365.50 2.485367
365.60 2.485449
365.70 2.485836
365.80 2.486223
365.90 2.486066
366.00 2.485773
366.10 2.485122
366.20 2.484471
366.30 2.483821
366.40 2.48317
366.50 2.481865
366.60 2.480511
366.70 2.479158
366.80 2.477807
366.90 2.476147
367.00 2.47394
367.10 2.471735
367.20 2.469533
367.30 2.467332
367.40 2.465133
367.50 2.462775
367.60 2.460379
367.70 2.45704
367.80 2.453705
367.90 2.450373
368.00 2.44697
368.10 2.443294
368.20 2.438501
368.30 2.433701
368.40 2.428906
368.50 2.424117
368.60 2.419332
368.70 2.414551
368.80 2.409776
368.90 2.405039
369.00 2.399309
369.10 2.39332
369.20 2.387264
369.30 2.380006
369.40 2.372755
369.50 2.365512
369.60 2.356278
369.70 2.347054
369.80 2.337913
369.90 2.328783
370.00 2.319662
370.10 2.31011
370.20 2.299952
370.30 2.28981
370.40 2.280151
370.50 2.277341
370.60 2.28681
370.70 2.298805
370.80 2.307792
370.90 2.316769
371.00 2.321194
371.10 2.325568
371.20 2.329418
371.30 2.333263
371.40 2.337718
371.50 2.341833
371.60 2.345944
371.70 2.350049
371.80 2.35415
371.90 2.358246
372.00 2.361674
372.10 2.365044
372.20 2.367173
372.30 2.3693
372.40 2.371425
372.50 2.373546
372.60 2.375665
372.70 2.377782
372.80 2.378346
372.90 2.378909
373.00 2.379489
373.10 2.380069
373.20 2.378794
373.30 2.377519
373.40 2.371179
373.50 2.366686
373.60 2.36818
373.70 2.370593
373.80 2.373088
373.90 2.375409
374.00 2.376894
374.10 2.378377
374.20 2.379858
374.30 2.381338
374.40 2.381784
374.50 2.381543
374.60 2.381407
374.70 2.381283
374.80 2.381159
374.90 2.381034
375.00 2.380373
375.10 2.379713
375.20 2.379053
375.30 2.377655
375.40 2.376258
375.50 2.374862
375.60 2.373468
375.70 2.372075
375.80 2.370682
375.90 2.369291
376.00 2.368031
376.10 2.365989
376.20 2.36394
376.30 2.361893
376.40 2.359848
376.50 2.357621
376.60 2.35512
376.70 2.352621
376.80 2.349799
376.90 2.346655
377.00 2.343514
377.10 2.340376
377.20 2.337166
377.30 2.333678
377.40 2.330194
377.50 2.326713
377.60 2.322739
377.70 2.318768
377.80 2.314801
377.90 2.310839
378.00 2.307097
378.10 2.301839
378.20 2.296568
378.30 2.291302
378.40 2.286041
378.50 2.280786
378.60 2.275536
378.70 2.270291
378.80 2.265051
378.90 2.259374
379.00 2.252882
379.10 2.24633
379.20 2.239785
379.30 2.232613
379.40 2.224815
379.50 2.217024
379.60 2.209191
379.70 2.2007
379.80 2.190007
379.90 2.179325
380.00 2.168654
380.10 2.157993
380.20 2.147344
380.30 2.136706
380.40 2.126078
380.50 2.115462
380.60 2.101114
380.70 2.087117
380.80 2.073135
380.90 2.059167
381.00 2.045214
381.10 2.03419
381.20 2.020476
381.30 2.002235
381.40 1.982413
381.50 1.960552
381.60 1.937845
381.70 1.91434
381.80 1.894765
381.90 1.889369
382.00 1.873413
382.10 1.90279
382.20 1.936708
382.30 1.966899
382.40 1.992618
382.50 2.011655
382.60 2.030672
382.70 2.046191
382.80 2.054719
382.90 2.060182
383.00 2.065638
383.10 2.071089
383.20 2.076889
383.30 2.084018
383.40 2.091103
383.50 2.098123
383.60 2.104593
383.70 2.109935
383.80 2.11527
383.90 2.120599
384.00 2.125923
384.10 2.131241
384.20 2.136553
384.30 2.141859
384.40 2.146384
384.50 2.150129
384.60 2.15387
384.70 2.157606
384.80 2.161379
384.90 2.164705
385.00 2.166928
385.10 2.169145
385.20 2.170927
385.30 2.172436
385.40 2.173533
385.50 2.174219
385.60 2.174904
385.70 2.175588
385.80 2.176103
385.90 2.175984
386.00 2.175667
386.10 2.174976
386.20 2.17252
386.30 2.170066
386.40 2.166788
386.50 2.161592
386.60 2.152927
386.70 2.136995
386.80 2.097036
386.90 2.100672
387.00 2.107157
387.10 2.111641
387.20 2.114919
387.30 2.115391
387.40 2.112777
387.50 2.108265
387.60 2.102222
387.70 2.090668
387.80 2.079126
387.90 2.067595
388.00 2.054312
388.10 2.032823
388.20 1.999198
388.30 1.957595
388.40 1.916036
388.50 1.861527
388.60 1.775841
388.70 1.643615
388.80 1.380881
388.90 1.231525
389.00 1.484006
389.10 1.640704
389.20 1.739658
389.30 1.811268
389.40 1.865516
389.50 1.913018
389.60 1.94899
389.70 1.975146
389.80 1.993257
389.90 2.011349
390.00 2.029422
390.10 2.047476
390.20 2.065512
390.30 2.07879
390.40 2.086714
390.50 2.094629
390.60 2.102536
390.70 2.110435
390.80 2.116691
390.90 2.121308
391.00 2.125384
391.10 2.128374
391.20 2.13122
391.30 2.132919
391.40 2.133926
391.50 2.134932
391.60 2.135936
391.70 2.136938
391.80 2.13794
391.90 2.138325
392.00 2.137847
392.10 2.137119
392.20 2.136358
392.30 2.134985
392.40 2.133347
392.50 2.13226
392.60 2.13034
392.70 2.128422
392.80 2.126777
392.90 2.125269
393.00 2.123745
393.10 2.121864
393.20 2.119614
393.30 2.117706
393.40 2.115667
393.50 2.112625
393.60 2.109713
393.70 2.106849
393.80 2.10307
393.90 2.099519
394.00 2.095954
394.10 2.091897
394.20 2.087479
394.30 2.082587
394.40 2.077495
394.50 2.071898
394.60 2.064856
394.70 2.05757
394.80 2.049344
394.90 2.041105
395.00 2.032181
395.10 2.022313
395.20 2.010752
395.30 1.999023
395.40 1.987306
395.50 1.972688
395.60 1.957009
395.70 1.939247
395.80 1.915832
395.90 1.89244
396.00 1.868122
396.10 1.829528
396.20 1.778273
396.30 1.718568
396.40 1.608617
396.50 1.701605
396.60 1.834988
396.70 1.864492
396.80 1.857913
396.90 1.85087
397.00 1.877977
397.10 1.917086
397.20 1.938975
397.30 1.945287
397.40 1.94789
397.50 1.950489
397.60 1.952868
397.70 1.953038
397.80 1.953207
397.90 1.95291
398.00 1.951349
398.10 1.94979
398.20 1.947568
398.30 1.944598
398.40 1.941598
398.50 1.937513
398.60 1.933797
398.70 1.928875
398.80 1.923622
398.90 1.917989
399.00 1.911648
399.10 1.905235
399.20 1.89744
399.30 1.889652
399.40 1.881871
399.50 1.874099
399.60 1.865819
399.70 1.857358
399.80 1.848905
399.90 1.84046
400.00 1.832008
400.10 1.823067
400.20 1.813645
400.30 1.803459
400.40 1.793056
400.50 1.782825
400.60 1.770844
400.70 1.759159
400.80 1.74595
400.90 1.73189
401.00 1.717281
401.10 1.703813
401.20 1.689169
401.30 1.673654
401.40 1.655861
401.50 1.637327
401.60 1.618681
401.70 1.595828
401.80 1.570971
401.90 1.541109
402.00 1.509388
402.10 1.473888
402.20 1.436279
402.30 1.394575
402.40 1.347183
402.50 1.285405
402.60 1.232032
402.70 1.295219
402.80 1.354752
402.90 1.407736
403.00 1.459244
403.10 1.506115
403.20 1.545937
403.30 1.580408
403.40 1.611443
403.50 1.637056
403.60 1.661216
403.70 1.681365
403.80 1.698296
403.90 1.711773
404.00 1.724537
404.10 1.733894
404.20 1.73972
404.30 1.74554
404.40 1.747819
404.50 1.743029
404.60 1.739813
404.70 1.74366
404.80 1.75006
404.90 1.756042
405.00 1.763058
405.10 1.769518
405.20 1.77591
405.30 1.782296
405.40 1.788191
405.50 1.794081
405.60 1.799964
405.70 1.805841
405.80 1.811712
405.90 1.817577
406.00 1.822327
406.10 1.827072
406.20 1.831813
406.30 1.836548
406.40 1.841265
406.50 1.846241
406.60 1.850177
406.70 1.853928
406.80 1.857868
406.90 1.862314
407.00 1.865431
407.10 1.868546
407.20 1.871657
407.30 1.874765
407.40 1.877869
407.50 1.880971
407.60 1.884069
407.70 1.887164
407.80 1.890255
407.90 1.893324
408.00 1.89577
408.10 1.897924
408.20 1.89959
408.30 1.901421
408.40 1.903249
408.50 1.905372
408.60 1.90657
408.70 1.907766
408.80 1.908921
408.90 1.909719
409.00 1.910407
409.10 1.911093
409.20 1.911779
409.30 1.912464
409.40 1.913132
409.50 1.913281
409.60 1.913429
409.70 1.913502
409.80 1.913273
409.90 1.913045
410.00 1.912854
410.10 1.912558
410.20 1.911753
410.30 1.910821
410.40 1.909649
410.50 1.907716
410.60 1.905784
410.70 1.903623
410.80 1.900538
410.90 1.897457
411.00 1.893593
411.10 1.889442
411.20 1.885294
411.30 1.880758
411.40 1.874592
411.50 1.866443
411.60 1.858301
411.70 1.848582
411.80 1.832533
411.90 1.814228
412.00 1.77475
412.10 1.632999
412.20 1.642225
412.30 1.688309
412.40 1.717496
412.50 1.734858
412.60 1.74857
412.70 1.758615
412.80 1.767737
412.90 1.776235
413.00 1.780476
413.10 1.782751
413.20 1.785023
413.30 1.787293
413.40 1.78956
413.50 1.791512
413.60 1.792061
413.70 1.792133
413.80 1.792204
413.90 1.792276
414.00 1.791852
414.10 1.789863
414.20 1.787696
414.30 1.78354
414.40 1.780286
414.50 1.779634
414.60 1.783142
414.70 1.788258
414.80 1.793414
414.90 1.798707
415.00 1.803994
415.10 1.809276
415.20 1.814302
415.30 1.818533
415.40 1.82276
415.50 1.826958
415.60 1.830344
415.70 1.833727
415.80 1.836964
415.90 1.839745
416.00 1.842524
416.10 1.845101
416.20 1.846882
416.30 1.848661
416.40 1.850438
416.50 1.852178
416.60 1.85277
416.70 1.853316
416.80 1.853166
416.90 1.850346
417.00 1.849173
417.10 1.851317
417.20 1.853013
417.30 1.8547
417.40 1.856157
417.50 1.857611
417.60 1.858974
417.70 1.859963
417.80 1.860667
417.90 1.861371
418.00 1.862073
418.10 1.862775
418.20 1.863476
418.30 1.864156
418.40 1.864219
418.50 1.864364
418.60 1.864508
418.70 1.864652
418.80 1.864795
418.90 1.864938
419.00 1.865081
419.10 1.865224
419.20 1.865366
419.30 1.865492
419.40 1.865119
419.50 1.864746
419.60 1.864368
419.70 1.863972
419.80 1.863577
419.90 1.863149
420.00 1.862619
420.10 1.862089
420.20 1.861559
420.30 1.861029
420.40 1.8605
420.50 1.859971
420.60 1.859442
420.70 1.858914
420.80 1.858386
420.90 1.857855
421.00 1.857233
421.10 1.856612
421.20 1.855952
421.30 1.855174
421.40 1.854397
421.50 1.85362
421.60 1.852844
421.70 1.852068
421.80 1.851293
421.90 1.850494
422.00 1.849617
422.10 1.848695
422.20 1.847592
422.30 1.84649
422.40 1.84539
422.50 1.844335
422.60 1.84328
422.70 1.842227
422.80 1.841174
422.90 1.840122
423.00 1.83907
423.10 1.83802
423.20 1.83697
423.30 1.835921
423.40 1.834873
423.50 1.833826
423.60 1.832779
423.70 1.831733
423.80 1.830688
423.90 1.829644
424.00 1.8286
424.10 1.827558
424.20 1.826516
424.30 1.825475
424.40 1.824467
424.50 1.823247
424.60 1.822029
424.70 1.820811
424.80 1.819594
424.90 1.818378
425.00 1.817164
425.10 1.81595
425.20 1.814737
425.30 1.813525
425.40 1.812305
425.50 1.811031
425.60 1.809757
425.70 1.808484
425.80 1.807213
425.90 1.805942
426.00 1.804672
426.10 1.803404
426.20 1.802136
426.30 1.800869
426.40 1.799604
426.50 1.798339
426.60 1.797075
426.70 1.795812
426.80 1.794551
426.90 1.793283
427.00 1.791812
427.10 1.790341
427.20 1.788872
427.30 1.787404
427.40 1.785937
427.50 1.784472
427.60 1.783007
427.70 1.781544
427.80 1.780081
427.90 1.77862
428.00 1.777161
428.10 1.775702
428.20 1.774244
428.30 1.772788
428.40 1.771333
428.50 1.769879
428.60 1.768426
428.70 1.766974
428.80 1.765499
428.90 1.763698
429.00 1.761899
429.10 1.760101
429.20 1.758305
429.30 1.75651
429.40 1.754716
429.50 1.752924
429.60 1.751134
429.70 1.749345
429.80 1.747557
429.90 1.745771
430.00 1.743987
430.10 1.742204
430.20 1.740422
430.30 1.738642
430.40 1.736863
430.50 1.735086
430.60 1.73331
430.70 1.731536
430.80 1.729763
430.90 1.727991
431.00 1.726221
431.10 1.724453
431.20 1.722686
431.30 1.720874
431.40 1.718454
431.50 1.716037
431.60 1.713621
431.70 1.711207
431.80 1.708796
431.90 1.706386
432.00 1.703978
432.10 1.701573
432.20 1.699169
432.30 1.696768
432.40 1.694368
432.50 1.691971
432.60 1.689576
432.70 1.687183
432.80 1.684791
432.90 1.682402
433.00 1.680015
433.10 1.67763
433.20 1.675246
433.30 1.672833
433.40 1.669988
433.50 1.667146
433.60 1.664307
433.70 1.66147
433.80 1.658559
433.90 1.655557
434.00 1.652362
434.10 1.649049
434.20 1.64574
434.30 1.642433
434.40 1.639129
434.50 1.635827
434.60 1.632529
434.70 1.629234
434.80 1.625888
434.90 1.621842
435.00 1.617799
435.10 1.61376
435.20 1.609725
435.30 1.605693
435.40 1.601664
435.50 1.597639
435.60 1.593618
435.70 1.5896
435.80 1.585586
435.90 1.581575
436.00 1.577568
436.10 1.573564
436.20 1.569564
436.30 1.565281
436.40 1.560608
436.50 1.555339
436.60 1.550074
436.70 1.544813
436.80 1.539558
436.90 1.534307
437.00 1.529061
437.10 1.523819
437.20 1.51809
437.30 1.511912
437.40 1.505653
437.50 1.498253
437.60 1.49086
437.70 1.483473
437.80 1.476093
437.90 1.468719
438.00 1.461266
438.10 1.45268
438.20 1.444101
438.30 1.435631
438.40 1.425092
438.50 1.405735
438.60 1.385952
438.70 1.349525
438.80 1.313557
438.90 1.326288
439.00 1.343635
439.10 1.359014
439.20 1.374017
439.30 1.384209
439.40 1.394392
439.50 1.404565
439.60 1.41448
439.70 1.420868
439.80 1.426229
439.90 1.430582
440.00 1.434932
440.10 1.439277
440.20 1.443389
440.30 1.444456
440.40 1.445523
440.50 1.446588
440.60 1.447652
440.70 1.448715
440.80 1.449776
440.90 1.450837
441.00 1.451897
441.10 1.452955
441.20 1.453892
441.30 1.453233
441.40 1.452372
441.50 1.451265
441.60 1.450158
441.70 1.448627
441.80 1.446464
441.90 1.444303
442.00 1.442144
442.10 1.439986
442.20 1.43783
442.30 1.435676
442.40 1.432942
442.50 1.429498
442.60 1.426057
442.70 1.422356
442.80 1.418224
442.90 1.413541
443.00 1.408696
443.10 1.403653
443.20 1.398112
443.30 1.392113
443.40 1.385446
443.50 1.377963
443.60 1.369818
443.70 1.357536
443.80 1.335645
443.90 1.334554
444.00 1.332422
444.10 1.329868
444.20 1.326242
444.30 1.321323
444.40 1.314769
444.50 1.308222
444.60 1.301025
444.70 1.293035
444.80 1.283841
444.90 1.273536
445.00 1.263241
445.10 1.252955
445.20 1.241638
445.30 1.229063
445.40 1.216499
445.50 1.203946
445.60 1.191404
445.70 1.178874
445.80 1.163257
445.90 1.144796
446.00 1.126352
446.10 1.107924
446.20 1.087895
446.30 1.063755
446.40 1.035373
446.50 1.003978
446.60 0.9726122
446.70 0.941274
446.80 0.9136447
446.90 0.8894362
447.00 0.8990297
447.10 0.8794121
447.20 0.8470288
447.30 0.8634727
447.40 0.8955488
447.50 0.9313938
447.60 0.9672331
447.70 1.003065
447.80 1.03355
447.90 1.061955
448.00 1.086092
448.10 1.106294
448.20 1.126478
448.30 1.146644
448.40 1.166791
448.50 1.186921
448.60 1.204022
448.70 1.218331
448.80 1.23238
448.90 1.243146
449.00 1.253903
449.10 1.264649
449.20 1.275386
449.30 1.284849
449.40 1.292742
449.50 1.300627
449.60 1.307272
449.70 1.312773
449.80 1.318268
449.90 1.323759
450.00 1.329245
450.10 1.334726
450.20 1.340202
450.30 1.345672
450.40 1.348347
450.50 1.351019
450.60 1.353688
450.70 1.356355
450.80 1.35902
450.90 1.361681
451.00 1.362351
451.10 1.36302
451.20 1.36272
451.30 1.361161
451.40 1.35646
451.50 1.351763
451.60 1.34329
451.70 1.324751
451.80 1.307487
451.90 1.307223
452.00 1.311046
452.10 1.314866
452.20 1.319153
452.30 1.323437
452.40 1.327716
452.50 1.331992
452.60 1.336064
452.70 1.339874
452.80 1.343441
452.90 1.347005
453.00 1.350565
453.10 1.354122
453.20 1.356962
453.30 1.3598
453.40 1.362635
453.50 1.365467
453.60 1.368297
453.70 1.371124
453.80 1.373789
453.90 1.376256
454.00 1.378721
454.10 1.381184
454.20 1.383075
454.30 1.384966
454.40 1.386854
454.50 1.38874
454.60 1.390625
454.70 1.392163
454.80 1.393381
454.90 1.394598
455.00 1.395813
455.10 1.397028
455.20 1.398241
455.30 1.399453
455.40 1.400664
455.50 1.401873
455.60 1.403082
455.70 1.404289
455.80 1.404999
455.90 1.405709
456.00 1.406417
456.10 1.407062
456.20 1.407536
456.30 1.40801
456.40 1.408483
456.50 1.408956
456.60 1.409428
456.70 1.409899
456.80 1.41037
456.90 1.41084
457.00 1.41131
457.10 1.411779
457.20 1.412298
457.30 1.412454
457.40 1.41261
457.50 1.412766
457.60 1.412921
457.70 1.413076
457.80 1.413231
457.90 1.413386
458.00 1.41354
458.10 1.413694
458.20 1.413848
458.30 1.414001
458.40 1.414154
458.50 1.414307
458.60 1.41446
458.70 1.414522
458.80 1.414547
458.90 1.414571
459.00 1.414596
459.10 1.41462
459.20 1.414644
459.30 1.414538
459.40 1.414432
459.50 1.414326
459.60 1.41422
459.70 1.414114
459.80 1.414008
459.90 1.413901
460.00 1.413795
460.10 1.413689
460.20 1.413582
460.30 1.413476
460.40 1.41337
460.50 1.413263
460.60 1.413157
460.70 1.412956
460.80 1.412708
460.90 1.412461
461.00 1.412214
461.10 1.411967
461.20 1.411461
461.30 1.410849
461.40 1.410365
461.50 1.409912
461.60 1.40946
461.70 1.409008
461.80 1.408398
461.90 1.407788
462.00 1.407179
462.10 1.40657
462.20 1.405961
462.30 1.405353
462.40 1.404745
462.50 1.404138
462.60 1.403531
462.70 1.402924
462.80 1.402318
462.90 1.401712
463.00 1.401107
463.10 1.400502
463.20 1.399774
463.30 1.398997
463.40 1.39822
463.50 1.397443
463.60 1.396668
463.70 1.395892
463.80 1.395118
463.90 1.394305
464.00 1.393482
464.10 1.392661
464.20 1.39184
464.30 1.391019
464.40 1.390199
464.50 1.38938
464.60 1.388561
464.70 1.387692
464.80 1.386803
464.90 1.385915
465.00 1.385027
465.10 1.38414
465.20 1.383254
465.30 1.382297
465.40 1.381294
465.50 1.380292
465.60 1.37929
465.70 1.378289
465.80 1.377289
465.90 1.376269
466.00 1.375245
466.10 1.374221
466.20 1.373198
466.30 1.372106
466.40 1.370986
466.50 1.369867
466.60 1.368749
466.70 1.367632
466.80 1.366515
466.90 1.365399
467.00 1.364285
467.10 1.363171
467.20 1.362057
467.30 1.360862
467.40 1.359503
467.50 1.358114
467.60 1.356725
467.70 1.355337
467.80 1.35395
467.90 1.352408
468.00 1.350804
468.10 1.349201
468.20 1.347599
468.30 1.345895
468.40 1.344149
468.50 1.342197
468.60 1.340759
468.70 1.338712
468.80 1.336691
468.90 1.334319
469.00 1.332079
469.10 1.329594
469.20 1.326985
469.30 1.324378
469.40 1.321773
469.50 1.318384
469.60 1.314677
469.70 1.310974
469.80 1.307273
469.90 1.303494
470.00 1.298694
470.10 1.292197
470.20 1.28502
470.30 1.277849
470.40 1.270684
470.50 1.263525
470.60 1.250064
470.70 1.235037
470.80 1.220023
470.90 1.205021
471.00 1.179938
471.10 1.142679
471.20 1.081981
471.30 0.9281138
471.40 0.8457731
471.50 0.9468295
471.60 0.9989335
471.70 1.046432
471.80 1.073114
471.90 1.09458
472.00 1.116029
472.10 1.137459
472.20 1.151046
472.30 1.162665
472.40 1.174274
472.50 1.185873
472.60 1.197463
472.70 1.206292
472.80 1.211562
472.90 1.21622
473.00 1.220873
473.10 1.225523
473.20 1.230168
473.30 1.23481
473.40 1.239447
473.50 1.244081
473.60 1.24871
473.70 1.253336
473.80 1.255963
473.90 1.258091
474.00 1.260216
474.10 1.26234
474.20 1.263806
474.30 1.265004
474.40 1.2662
474.50 1.267396
474.60 1.26854
474.70 1.269179
474.80 1.269817
474.90 1.270454
475.00 1.271091
475.10 1.271727
475.20 1.272362
475.30 1.272997
475.40 1.273201
475.50 1.273298
475.60 1.273394
475.70 1.273491
475.80 1.273587
475.90 1.273682
476.00 1.273778
476.10 1.273874
476.20 1.273754
476.30 1.273547
476.40 1.27334
476.50 1.273133
476.60 1.272927
476.70 1.27272
476.80 1.272513
476.90 1.271945
477.00 1.271287
477.10 1.270629
477.20 1.269972
477.30 1.269315
477.40 1.268659
477.50 1.268003
477.60 1.267348
477.70 1.266693
477.80 1.266038
477.90 1.265384
478.00 1.26473
478.10 1.264077
478.20 1.263424
478.30 1.262772
478.40 1.26212
478.50 1.261468
478.60 1.260817
478.70 1.260046
478.80 1.259226
478.90 1.258382
479.00 1.257531
479.10 1.256682
479.20 1.255833
479.30 1.254984
479.40 1.254081
479.50 1.253146
479.60 1.252212
479.70 1.251278
479.80 1.250345
479.90 1.249413
480.00 1.248481
480.10 1.24755
480.20 1.24662
480.30 1.24569
480.40 1.244761
480.50 1.243832
480.60 1.242905
480.70 1.241978
480.80 1.241051
480.90 1.240126
481.00 1.239201
481.10 1.238276
481.20 1.237153
481.30 1.23603
481.40 1.234908
481.50 1.233786
481.60 1.232666
481.70 1.231546
481.80 1.230428
481.90 1.22931
482.00 1.228193
482.10 1.227076
482.20 1.225945
482.30 1.224613
482.40 1.223281
482.50 1.221951
482.60 1.220621
482.70 1.219292
482.80 1.217965
482.90 1.216638
483.00 1.215313
483.10 1.213988
483.20 1.212664
483.30 1.211342
483.40 1.21002
483.50 1.208699
483.60 1.20738
483.70 1.205844
483.80 1.20431
483.90 1.202778
484.00 1.201246
484.10 1.199715
484.20 1.198092
484.30 1.19643
484.40 1.194769
484.50 1.193109
484.60 1.191451
484.70 1.189779
484.80 1.187902
484.90 1.186026
485.00 1.184152
485.10 1.18228
485.20 1.180409
485.30 1.178539
485.40 1.176671
485.50 1.174804
485.60 1.172939
485.70 1.170662
485.80 1.168388
485.90 1.166114
486.00 1.163843
486.10 1.161574
486.20 1.159306
486.30 1.15704
486.40 1.154776
486.50 1.152513
486.60 1.150253
486.70 1.14797
486.80 1.145367
486.90 1.142766
487.00 1.140168
487.10 1.137571
487.20 1.134529
487.30 1.13149
487.40 1.128453
487.50 1.125418
487.60 1.122386
487.70 1.119356
487.80 1.116329
487.90 1.113304
488.00 1.110281
488.10 1.107261
488.20 1.104199
488.30 1.100559
488.40 1.096921
488.50 1.093287
488.60 1.089655
488.70 1.086026
488.80 1.081826
488.90 1.077629
489.00 1.073309
489.10 1.068665
489.20 1.064025
489.30 1.059389
489.40 1.054757
489.50 1.050128
489.60 1.045503
489.70 1.040882
489.80 1.035245
489.90 1.029227
490.00 1.023214
490.10 1.017205
490.20 1.011202
490.30 1.005203
490.40 0.9983828
490.50 0.9915682
490.60 0.9847591
490.70 0.9779554
490.80 0.9707037
490.90 0.9638314
491.00 0.9594423
491.10 0.9595843
491.20 0.9565314
491.30 0.9473603
491.40 0.9346889
491.50 0.9184045
491.60 0.8955937
491.70 0.8666541
491.80 0.8377569
491.90 0.8091332
492.00 0.8011356
492.10 0.8450799
492.20 0.763418
492.30 0.7347362
492.40 0.7606858
492.50 0.7880961
492.60 0.8139745
492.70 0.8324309
492.80 0.8508722
492.90 0.8692985
493.00 0.8871918
493.10 0.8981909
493.20 0.909181
493.30 0.9201621
493.40 0.9311343
493.50 0.9420975
493.60 0.9501483
493.70 0.9572367
493.80 0.9643193
493.90 0.9710636
494.00 0.9772826
494.10 0.9830814
494.20 0.9879936
494.30 0.9929018
494.40 0.997806
494.50 1.002706
494.60 1.007536
494.70 1.011479
494.80 1.01525
494.90 1.018541
495.00 1.021828
495.10 1.025113
495.20 1.027351
495.30 1.029587
495.40 1.031821
495.50 1.034053
495.60 1.036283
495.70 1.038512
495.80 1.040738
495.90 1.042963
496.00 1.045186
496.10 1.047229
496.20 1.048865
496.30 1.050108
496.40 1.05135
496.50 1.052591
496.60 1.053831
496.70 1.054489
496.80 1.055145
496.90 1.055802
497.00 1.056457
497.10 1.057112
497.20 1.057766
497.30 1.058231
497.40 1.058159
497.50 1.058087
497.60 1.058034
497.70 1.057963
497.80 1.057081
497.90 1.056199
498.00 1.055318
498.10 1.054438
498.20 1.053558
498.30 1.052679
498.40 1.0518
498.50 1.050922
498.60 1.050045
498.70 1.048074
498.80 1.046105
498.90 1.043722
499.00 1.041341
499.10 1.038962
499.20 1.036278
499.30 1.032841
499.40 1.029109
499.50 1.025379
499.60 1.021652
499.70 1.017773
499.80 1.011844
499.90 1.00592
500.00 1
500.10 0.994085
500.20 0.9867349
500.30 0.9763321
500.40 0.9659376
500.50 0.9555513
500.60 0.9451732
500.70 0.9348034
500.80 0.9217135
500.90 0.9028387
501.00 0.883979
501.10 0.8651343
501.20 0.8332864
501.30 0.7920578
501.40 0.7435036
501.50 0.6639317
501.60 0.677555
501.70 0.7952867
501.80 0.8551511
501.90 0.893314
502.00 0.9255828
502.10 0.9453707
502.20 0.9646288
502.30 0.9770468
502.40 0.9874499
502.50 0.993586
502.60 0.9997173
502.70 1.005843
502.80 1.011965
502.90 1.018081
503.00 1.022908
503.10 1.025001
503.20 1.027093
503.30 1.029183
503.40 1.030654
503.50 1.030368
503.60 1.030081
503.70 1.029794
503.80 1.029122
503.90 1.025621
504.00 1.018768
504.10 1.004791
504.20 0.9908259
504.30 0.9768714
504.40 0.9660586
504.50 0.9641614
504.60 0.9610195
504.70 0.9458112
504.80 0.8776676
504.90 0.9010681
505.00 0.9267143
505.10 0.9412019
505.20 0.9539098
505.30 0.9615774
505.40 0.9692389
505.50 0.9768943
505.60 0.9832989
505.70 0.9870549
505.80 0.9908077
505.90 0.9945576
506.00 0.9983044
506.10 1.002048
506.20 1.005297
506.30 1.007142
506.40 1.008985
506.50 1.010828
506.60 1.012668
506.70 1.014507
506.80 1.016345
506.90 1.018181
507.00 1.020015
507.10 1.021586
507.20 1.02244
507.30 1.022848
507.40 1.023256
507.50 1.023663
507.60 1.02407
507.70 1.024476
507.80 1.024882
507.90 1.025288
508.00 1.025693
508.10 1.026098
508.20 1.026503
508.30 1.026907
508.40 1.027311
508.50 1.027714
508.60 1.028117
508.70 1.02852
508.80 1.02896
508.90 1.029107
509.00 1.029113
509.10 1.029066
509.20 1.028908
509.30 1.028751
509.40 1.028593
509.50 1.028436
509.60 1.028278
509.70 1.028121
509.80 1.027963
509.90 1.027806
510.00 1.027649
510.10 1.027491
510.20 1.027334
510.30 1.027123
510.40 1.026759
510.50 1.026395
510.60 1.026031
510.70 1.025667
510.80 1.025304
510.90 1.02494
511.00 1.024577
511.10 1.024214
511.20 1.023852
511.30 1.023489
511.40 1.023127
511.50 1.022765
511.60 1.022369
511.70 1.021899
511.80 1.021431
511.90 1.020962
512.00 1.020494
512.10 1.020026
512.20 1.019559
512.30 1.019109
512.40 1.018711
512.50 1.018314
512.60 1.017917
512.70 1.01752
512.80 1.017123
512.90 1.016726
513.00 1.01633
513.10 1.015934
513.20 1.015538
513.30 1.015142
513.40 1.014747
513.50 1.014352
513.60 1.013957
513.70 1.013562
513.80 1.013167
513.90 1.012773
514.00 1.012216
514.10 1.011634
514.20 1.011051
514.30 1.010469
514.40 1.009887
514.50 1.009306
514.60 1.008725
514.70 1.008144
514.80 1.007564
514.90 1.006984
515.00 1.006405
515.10 1.005826
515.20 1.005247
515.30 1.004668
515.40 1.00409
515.50 1.003513
515.60 1.002936
515.70 1.002359
515.80 1.001782
515.90 1.001206
516.00 1.00063
516.10 1.000055
516.20 0.9994798
516.30 0.9989052
516.40 0.9983309
516.50 0.9977539
516.60 0.9971616
516.70 0.9965696
516.80 0.995978
516.90 0.9953868
517.00 0.994796
517.10 0.9942056
517.20 0.9936155
517.30 0.9930258
517.40 0.9924366
517.50 0.9918476
517.60 0.9912591
517.70 0.990671
517.80 0.9900832
517.90 0.9894958
518.00 0.9889088
518.10 0.9883222
518.20 0.9877359
518.30 0.98715
518.40 0.9865645
518.50 0.9859794
518.60 0.9853947
518.70 0.9848103
518.80 0.9842263
518.90 0.9836427
519.00 0.9830595
519.10 0.982469
519.20 0.9818703
519.30 0.9812719
519.40 0.9806739
519.50 0.9800763
519.60 0.9794791
519.70 0.9788823
519.80 0.9782859
519.90 0.9776898
520.00 0.9770942
520.10 0.9764989
520.20 0.975904
520.30 0.9753095
520.40 0.9747154
520.50 0.9741217
520.60 0.9735284
520.70 0.9729354
520.80 0.9723428
520.90 0.9717506
521.00 0.9711588
521.10 0.9705674
521.20 0.9699763
521.30 0.9693857
521.40 0.9687954
521.50 0.9682055
521.60 0.967616
521.70 0.9670268
521.80 0.9664381
521.90 0.9658497
522.00 0.9652617
522.10 0.9646741
522.20 0.9640869
522.30 0.9635
522.40 0.9629135
522.50 0.9623274
522.60 0.9617417
522.70 0.9611563
522.80 0.9605714
522.90 0.9599868
523.00 0.9594026
523.10 0.9588187
523.20 0.9582353
523.30 0.9576522
523.40 0.9570695
523.50 0.9564871
523.60 0.9559052
523.70 0.9553236
523.80 0.9547424
523.90 0.9541615
524.00 0.9535811
524.10 0.953001
524.20 0.9524213
524.30 0.9518331
524.40 0.9512384
524.50 0.9506441
524.60 0.9500502
524.70 0.9494566
524.80 0.9488635
524.90 0.9482707
525.00 0.9476783
525.10 0.9470863
525.20 0.9464947
525.30 0.9459035
525.40 0.9453126
525.50 0.9447221
525.60 0.944132
525.70 0.9435423
525.80 0.942953
525.90 0.942364
526.00 0.9417754
526.10 0.9411872
526.20 0.9405994
526.30 0.940012
526.40 0.9394249
526.50 0.9388382
526.60 0.9382519
526.70 0.937666
526.80 0.9370804
526.90 0.9364952
527.00 0.9359104
527.10 0.935326
527.20 0.934742
527.30 0.9341583
527.40 0.933575
527.50 0.9329921
527.60 0.9324095
527.70 0.9318274
527.80 0.9312456
527.90 0.9306642
528.00 0.9300831
528.10 0.9295024
528.20 0.9289221
528.30 0.9283422
528.40 0.9277626
528.50 0.9271834
528.60 0.9266046
528.70 0.9260262
528.80 0.9254481
528.90 0.9248704
529.00 0.9242931
529.10 0.9237161
529.20 0.9231395
529.30 0.9225633
529.40 0.9219875
529.50 0.9214123
529.60 0.9208395
529.70 0.9202671
529.80 0.919695
529.90 0.9191233
530.00 0.918552
530.10 0.917981
530.20 0.9174104
530.30 0.9168402
530.40 0.9162703
530.50 0.9157008
530.60 0.9151317
530.70 0.9145629
530.80 0.9139945
530.90 0.9134265
531.00 0.9128588
531.10 0.9122914
531.20 0.9117245
531.30 0.9111579
531.40 0.9105916
531.50 0.9100258
531.60 0.9094603
531.70 0.9088951
531.80 0.9083303
531.90 0.9077659
532.00 0.9072018
532.10 0.9066381
532.20 0.9060747
532.30 0.9055116
532.40 0.9049489
532.50 0.9043865
532.60 0.9038245
532.70 0.9032629
532.80 0.9027016
532.90 0.9021407
533.00 0.9015801
533.10 0.9010199
533.20 0.90046
533.30 0.8999005
533.40 0.8993414
533.50 0.8987826
533.60 0.8982242
533.70 0.8976661
533.80 0.8971084
533.90 0.896551
534.00 0.895994
534.10 0.8954373
534.20 0.894881
534.30 0.8943251
534.40 0.8937695
534.50 0.8932142
534.60 0.8926594
534.70 0.8921048
534.80 0.8915463
534.90 0.8909695
535.00 0.8903931
535.10 0.889817
535.20 0.8892413
535.30 0.888666
535.40 0.888091
535.50 0.8875165
535.60 0.8869422
535.70 0.8863684
535.80 0.8857949
535.90 0.8852218
536.00 0.884649
536.10 0.8840767
536.20 0.8835046
536.30 0.882933
536.40 0.8823617
536.50 0.8817908
536.60 0.8812202
536.70 0.88065
536.80 0.8800802
536.90 0.8795107
537.00 0.8789416
537.10 0.8783729
537.20 0.8778045
537.30 0.8772365
537.40 0.8766688
537.50 0.8761015
537.60 0.8755346
537.70 0.874968
537.80 0.8744018
537.90 0.873836
538.00 0.8732705
538.10 0.8727053
538.20 0.8721406
538.30 0.8715761
538.40 0.8710121
538.50 0.8704484
538.60 0.8698851
538.70 0.8693221
538.80 0.8687595
538.90 0.8681972
539.00 0.8676353
539.10 0.8670738
539.20 0.8665126
539.30 0.8659517
539.40 0.8653913
539.50 0.8648311
539.60 0.8642714
539.70 0.863712
539.80 0.8631529
539.90 0.8625942
540.00 0.8620359
540.10 0.8614779
540.20 0.8609335
540.30 0.8603948
540.40 0.8598565
540.50 0.8593185
540.60 0.8587809
540.70 0.8582436
540.80 0.8577067
540.90 0.85717
541.00 0.8566338
541.10 0.8560978
541.20 0.8555622
541.30 0.855027
541.40 0.854492
541.50 0.8539574
541.60 0.8534232
541.70 0.8528893
541.80 0.8523557
541.90 0.8518224
542.00 0.8512895
542.10 0.8507569
542.20 0.8502247
542.30 0.8496928
542.40 0.8491612
542.50 0.84863
542.60 0.8480991
542.70 0.8475685
542.80 0.8470383
542.90 0.8465084
543.00 0.8459788
543.10 0.8454496
543.20 0.8449207
543.30 0.8443921
543.40 0.8438638
543.50 0.8433359
543.60 0.8428083
543.70 0.8422811
543.80 0.8417542
543.90 0.8412276
544.00 0.8407013
544.10 0.8401754
544.20 0.8396498
544.30 0.8391245
544.40 0.8385996
544.50 0.838075
544.60 0.8375507
544.70 0.8370268
544.80 0.8365031
544.90 0.8359798
545.00 0.8354569
545.10 0.8349342
545.20 0.8344119
545.30 0.8338899
545.40 0.8333683
545.50 0.8328469
545.60 0.832333
545.70 0.8318224
545.80 0.8313121
545.90 0.8308021
546.00 0.8302925
546.10 0.8297832
546.20 0.8292741
546.30 0.8287655
546.40 0.8282571
546.50 0.827749
546.60 0.8272413
546.70 0.8267338
546.80 0.8262267
546.90 0.8257199
547.00 0.8252134
547.10 0.8247073
547.20 0.8242014
547.30 0.8236959
547.40 0.8231906
547.50 0.8226857
547.60 0.8221811
547.70 0.8216768
547.80 0.8211729
547.90 0.8206692
548.00 0.8201659
548.10 0.8196628
548.20 0.8191601
548.30 0.8186511
548.40 0.8181333
548.50 0.8176158
548.60 0.8170986
548.70 0.8165817
548.80 0.8160652
548.90 0.815549
549.00 0.8150331
549.10 0.8145175
549.20 0.8140022
549.30 0.8134873
549.40 0.8129727
549.50 0.8124584
549.60 0.8119444
549.70 0.8114308
549.80 0.8109174
549.90 0.8104044
550.00 0.8098917
550.10 0.8093794
550.20 0.8088673
550.30 0.8083556
550.40 0.8078442
550.50 0.8073331
550.60 0.8068223
550.70 0.8063118
550.80 0.8058017
550.90 0.8052919
551.00 0.8047873
551.10 0.804311
551.20 0.803835
551.30 0.8033593
551.40 0.8028839
551.50 0.8024088
551.60 0.801934
551.70 0.8014595
551.80 0.8009852
551.90 0.8005113
552.00 0.8000376
552.10 0.7995643
552.20 0.7990912
552.30 0.7986184
552.40 0.7981459
552.50 0.7976737
552.60 0.7972018
552.70 0.7967302
552.80 0.7962588
552.90 0.7957878
553.00 0.795317
553.10 0.7948466
553.20 0.7943764
553.30 0.7939065
553.40 0.7934369
553.50 0.7929675
553.60 0.7924985
553.70 0.7920298
553.80 0.7915431
553.90 0.7910445
554.00 0.7905463
554.10 0.7900483
554.20 0.7895507
554.30 0.7890533
554.40 0.7885563
554.50 0.7880596
554.60 0.7875632
554.70 0.7870671
554.80 0.7865713
554.90 0.7860758
555.00 0.7855806
555.10 0.7850857
555.20 0.7845912
555.30 0.7840969
555.40 0.7836029
555.50 0.7831093
555.60 0.7826159
555.70 0.7821229
555.80 0.7816301
555.90 0.7811377
556.00 0.7806456
556.10 0.7801537
556.20 0.7796622
556.30 0.779171
556.40 0.7786801
556.50 0.7781884
556.60 0.7776778
556.70 0.7771676
556.80 0.7766576
556.90 0.776148
557.00 0.7756386
557.10 0.7751296
557.20 0.7746209
557.30 0.7741126
557.40 0.7736045
557.50 0.7730967
557.60 0.7725893
557.70 0.7720822
557.80 0.7715754
557.90 0.7710689
558.00 0.7705627
558.10 0.7700568
558.20 0.7695513
558.30 0.769046
558.40 0.7685411
558.50 0.7680365
558.60 0.7675322
558.70 0.7670282
558.80 0.7665245
558.90 0.7660212
559.00 0.7655181
559.10 0.7650154
559.20 0.7645129
559.30 0.7640108
559.40 0.763509
559.50 0.7630075
559.60 0.7625063
559.70 0.7620054
559.80 0.7615048
559.90 0.7610045
560.00 0.7605046
560.10 0.7600049
560.20 0.7595056
560.30 0.7590066
560.40 0.7585078
560.50 0.7580094
560.60 0.7575113
560.70 0.7570135
560.80 0.756516
560.90 0.7560188
561.00 0.7555219
561.10 0.7550253
561.20 0.7545291
561.30 0.7540331
561.40 0.7535374
561.50 0.7530421
561.60 0.752547
561.70 0.7520523
561.80 0.7515578
561.90 0.7510637
562.00 0.7505699
562.10 0.7500801
562.20 0.7495964
562.30 0.749113
562.40 0.7486299
562.50 0.7481471
562.60 0.7476646
562.70 0.7471824
562.80 0.7467004
562.90 0.7462188
563.00 0.7457375
563.10 0.7452564
563.20 0.7447757
563.30 0.7442952
563.40 0.7438151
563.50 0.7433352
563.60 0.7428556
563.70 0.7423764
563.80 0.7418974
563.90 0.7414187
564.00 0.7409403
564.10 0.7404622
564.20 0.7399844
564.30 0.7395069
564.40 0.7390296
564.50 0.7385527
564.60 0.738076
564.70 0.7375997
564.80 0.7371236
564.90 0.7366395
565.00 0.7361353
565.10 0.7356314
565.20 0.7351279
565.30 0.7346246
565.40 0.7341216
565.50 0.733619
565.60 0.7331167
565.70 0.7326146
565.80 0.7321129
565.90 0.7316115
566.00 0.7311104
566.10 0.7306096
566.20 0.7301091
566.30 0.7296089
566.40 0.7291091
566.50 0.7286095
566.60 0.7281103
566.70 0.7276113
566.80 0.7271127
566.90 0.7266143
567.00 0.7261163
567.10 0.7256186
567.20 0.7251212
567.30 0.7246241
567.40 0.7241273
567.50 0.7236308
567.60 0.7231346
567.70 0.7226245
567.80 0.7220541
567.90 0.7214841
568.00 0.7209144
568.10 0.7203451
568.20 0.7197762
568.30 0.7192076
568.40 0.7186393
568.50 0.7180715
568.60 0.7175039
568.70 0.7169368
568.80 0.71637
568.90 0.7158035
569.00 0.7152374
569.10 0.7146716
569.20 0.7141062
569.30 0.7135412
569.40 0.7129765
569.50 0.7124122
569.60 0.7118482
569.70 0.7112845
569.80 0.7107213
569.90 0.7101583
570.00 0.7095958
570.10 0.7090335
570.20 0.7084716
570.30 0.7079101
570.40 0.7073489
570.50 0.7067881
570.60 0.7062276
570.70 0.7056675
570.80 0.7051077
570.90 0.7045483
571.00 0.7039892
571.10 0.7034305
571.20 0.7028721
571.30 0.702314
571.40 0.7017564
571.50 0.701199
571.60 0.700642
571.70 0.7000854
571.80 0.6995291
571.90 0.6989731
572.00 0.6984175
572.10 0.6978622
572.20 0.6973073
572.30 0.6967527
572.40 0.6961985
572.50 0.6956446
572.60 0.6950911
572.70 0.6945379
572.80 0.693985
572.90 0.6934325
573.00 0.6928804
573.10 0.6923285
573.20 0.6917771
573.30 0.6912259
573.40 0.6906295
573.50 0.6899706
573.60 0.6893121
573.70 0.688654
573.80 0.6879964
573.90 0.6873391
574.00 0.6866823
574.10 0.6860259
574.20 0.6853699
574.30 0.6847143
574.40 0.6840591
574.50 0.6834044
574.60 0.68275
574.70 0.6820961
574.80 0.6814426
574.90 0.6807895
575.00 0.6801368
575.10 0.6794845
575.20 0.6788326
575.30 0.6781812
575.40 0.6775301
575.50 0.6768795
575.60 0.6762293
575.70 0.6755795
575.80 0.6749301
575.90 0.6742811
576.00 0.6736325
576.10 0.6729844
576.20 0.6723366
576.30 0.6716893
576.40 0.6710423
576.50 0.6703958
576.60 0.6697497
576.70 0.669104
576.80 0.6684586
576.90 0.6678138
577.00 0.6671693
577.10 0.6665252
577.20 0.6658815
577.30 0.6652382
577.40 0.6645953
577.50 0.6639529
577.60 0.6632569
577.70 0.6624735
577.80 0.6616905
577.90 0.660908
578.00 0.6601261
578.10 0.6593446
578.20 0.6585637
578.30 0.6577832
578.40 0.6570033
578.50 0.6562238
578.60 0.6554449
578.70 0.6546664
578.80 0.6538885
578.90 0.653111
579.00 0.6523341
579.10 0.6515433
579.20 0.6506085
579.30 0.6496743
579.40 0.6487406
579.50 0.6478076
579.60 0.6468752
579.70 0.6459434
579.80 0.6450122
579.90 0.6440816
580.00 0.6431516
580.10 0.6421429
580.20 0.6410057
580.30 0.6398692
580.40 0.6387335
580.50 0.6375985
580.60 0.6364642
580.70 0.6353307
580.80 0.634198
580.90 0.633066
581.00 0.6319347
581.10 0.6308041
581.20 0.6296744
581.30 0.6285453
581.40 0.627417
581.50 0.6262894
581.60 0.6251626
581.70 0.6240365
581.80 0.6229111
581.90 0.6217865
582.00 0.6206626
582.10 0.619405
582.20 0.6179289
582.30 0.6164537
582.40 0.6149796
582.50 0.6135064
582.60 0.6120342
582.70 0.610563
582.80 0.6090927
582.90 0.6076234
583.00 0.6061551
583.10 0.6046878
583.20 0.6032214
583.30 0.601756
583.40 0.6002916
583.50 0.5988281
583.60 0.5970941
583.70 0.5949186
583.80 0.5927445
583.90 0.5905718
584.00 0.5884006
584.10 0.5862309
584.20 0.5840626
584.30 0.5818957
584.40 0.5797303
584.50 0.5775664
584.60 0.5754039
584.70 0.5732428
584.80 0.5710832
584.90 0.5688197
585.00 0.566078
585.10 0.5633381
585.20 0.5602417
585.30 0.5565628
585.40 0.5528863
585.50 0.5492124
585.60 0.5455409
585.70 0.5418719
585.80 0.5382053
585.90 0.5345412
586.00 0.5308797
586.10 0.5272205
586.20 0.522541
586.30 0.5161964
586.40 0.509856
586.50 0.5035199
586.60 0.4971882
586.70 0.4908607
586.80 0.4828362
586.90 0.4720424
587.00 0.4612559
587.10 0.4504767
587.20 0.4387845
587.30 0.4255993
587.40 0.4131305
587.50 0.4043177
587.60 0.4054916
587.70 0.409287
587.80 0.4221576
587.90 0.4370675
588.00 0.4505199
588.10 0.4616027
588.20 0.472678
588.30 0.4837457
588.40 0.4928435
588.50 0.4987346
588.60 0.5046217
588.70 0.5105047
588.80 0.5163837
588.90 0.5222587
589.00 0.5270696
589.10 0.5301483
589.20 0.5332248
589.30 0.5362992
589.40 0.5393715
589.50 0.5424417
589.60 0.5455097
589.70 0.5485757
589.80 0.5516395
589.90 0.5547012
590.00 0.5572744
590.10 0.5590525
590.20 0.5608294
590.30 0.562605
590.40 0.5643794
590.50 0.5661526
590.60 0.5679245
590.70 0.5696952
590.80 0.5710886
590.90 0.5723121
591.00 0.5735348
591.10 0.5747566
591.20 0.5759775
591.30 0.5771976
591.40 0.5784168
591.50 0.5796352
591.60 0.5806504
591.70 0.5813348
591.80 0.5820186
591.90 0.582702
592.00 0.5833849
592.10 0.5840674
592.20 0.5847493
592.30 0.5854307
592.40 0.5861116
592.50 0.586792
592.60 0.587472
592.70 0.5881514
592.80 0.5888304
592.90 0.5895089
593.00 0.5901868
593.10 0.5907047
593.20 0.5909619
593.30 0.5912189
593.40 0.5914757
593.50 0.5917323
593.60 0.5919887
593.70 0.5922449
593.80 0.5925008
593.90 0.5927566
594.00 0.5930121
594.10 0.5932675
594.20 0.5935226
594.30 0.5937776
594.40 0.5940323
594.50 0.5942868
594.60 0.5945412
594.70 0.5947953
594.80 0.5950492
594.90 0.5953029
595.00 0.5955564
595.10 0.5957161
595.20 0.5957231
595.30 0.5957299
595.40 0.5957368
595.50 0.5957436
595.60 0.5957504
595.70 0.5957571
595.80 0.5957638
595.90 0.5957705
596.00 0.5957771
596.10 0.5957837
596.20 0.5957902
596.30 0.5957968
596.40 0.5958032
596.50 0.5958097
596.60 0.5958161
596.70 0.5957915
596.80 0.595748
596.90 0.5957045
597.00 0.595661
597.10 0.5956175
597.20 0.5955739
597.30 0.5955304
597.40 0.5954869
597.50 0.5954434
597.60 0.5953642
597.70 0.5952271
597.80 0.59509
597.90 0.594953
598.00 0.5948161
598.10 0.5946792
598.20 0.5945423
598.30 0.5944056
598.40 0.5942688
598.50 0.5941322
598.60 0.5939956
598.70 0.593859
598.80 0.5937225
598.90 0.5935861
599.00 0.5934497
599.10 0.5933134
599.20 0.5931772
599.30 0.593041
599.40 0.5928431
599.50 0.5926453
599.60 0.5924477
599.70 0.5922501
599.80 0.5920526
599.90 0.5918553
600.00 0.591658
600.10 0.5914608
600.20 0.5912638
600.30 0.5910668
600.40 0.5908699
600.50 0.5906731
600.60 0.5904765
600.70 0.5902799
600.80 0.5900834
600.90 0.589887
601.00 0.5896907
601.10 0.5894945
601.20 0.5892984
601.30 0.5891025
601.40 0.5888521
601.50 0.5886019
601.60 0.5883519
601.70 0.5881019
601.80 0.5878521
601.90 0.5876025
602.00 0.587353
602.10 0.5871036
602.20 0.5868543
602.30 0.5866052
602.40 0.5863562
602.50 0.5861073
602.60 0.5858586
602.70 0.5854892
602.80 0.5851136
602.90 0.5848091
603.00 0.5845048
603.10 0.5842006
603.20 0.5838965
603.30 0.5835927
603.40 0.583289
603.50 0.5829855
603.60 0.5826822
603.70 0.582379
603.80 0.582076
603.90 0.5817731
604.00 0.5814705
604.10 0.581168
604.20 0.5808656
604.30 0.5805635
604.40 0.5802615
604.50 0.5797883
604.60 0.5793153
604.70 0.5788427
604.80 0.5783703
604.90 0.5778982
605.00 0.5774264
605.10 0.5769549
605.20 0.5764837
605.30 0.5760127
605.40 0.575542
605.50 0.5746511
605.60 0.5737608
605.70 0.572871
605.80 0.5719818
605.90 0.5710932
606.00 0.5702051
606.10 0.5680061
606.20 0.5658086
606.30 0.5636125
606.40 0.5614178
606.50 0.5558195
606.60 0.5502247
606.70 0.5369554
606.80 0.5303239
606.90 0.5338113
607.00 0.5372965
607.10 0.5399079
607.20 0.5425176
607.30 0.5440805
607.40 0.5456424
607.50 0.5472033
607.60 0.5487631
607.70 0.5495101
607.80 0.5502567
607.90 0.5510027
608.00 0.5517481
608.10 0.5524931
608.20 0.5532376
608.30 0.5536195
608.40 0.5540012
608.50 0.5543827
608.60 0.5547638
608.70 0.5550084
608.80 0.5551916
608.90 0.5553746
609.00 0.5555575
609.10 0.5557402
609.20 0.5559228
609.30 0.5558917
609.40 0.5558606
609.50 0.5558295
609.60 0.5557984
609.70 0.5557673
609.80 0.5557362
609.90 0.5557051
610.00 0.5556739
610.10 0.5556428
610.20 0.5556116
610.30 0.5555805
610.40 0.5555493
610.50 0.5555181
610.60 0.5554869
610.70 0.5554557
610.80 0.5554245
610.90 0.5552886
611.00 0.5551527
611.10 0.5550169
611.20 0.5548811
611.30 0.5547455
611.40 0.5546098
611.50 0.5544743
611.60 0.5543387
611.70 0.5542033
611.80 0.5540679
611.90 0.5539326
612.00 0.5537973
612.10 0.5536621
612.20 0.5535269
612.30 0.5533918
612.40 0.5531768
612.50 0.552962
612.60 0.5527472
612.70 0.5525326
612.80 0.5523181
612.90 0.5521037
613.00 0.5518894
613.10 0.5516752
613.20 0.5514611
613.30 0.5512471
613.40 0.5510332
613.50 0.5508195
613.60 0.5506058
613.70 0.5503923
613.80 0.5501789
613.90 0.5499656
614.00 0.5497524
614.10 0.5495393
614.20 0.5493263
614.30 0.5491134
614.40 0.5489347
614.50 0.548756
614.60 0.5485775
614.70 0.548399
614.80 0.5481664
614.90 0.5479229
615.00 0.5476795
615.10 0.5474363
615.20 0.5471931
615.30 0.5469501
615.40 0.5467072
615.50 0.5464645
615.60 0.5462219
615.70 0.5459794
615.80 0.545737
615.90 0.5454948
616.00 0.5452527
616.10 0.5450107
616.20 0.5447688
616.30 0.5445271
616.40 0.5442855
616.50 0.5440441
616.60 0.5438027
616.70 0.5435615
616.80 0.5433204
616.90 0.5430446
617.00 0.542769
617.10 0.5424935
617.20 0.5422181
617.30 0.5419429
617.40 0.5416678
617.50 0.5413929
617.60 0.5411182
617.70 0.5408436
617.80 0.5405691
617.90 0.5402948
618.00 0.5400206
618.10 0.5397466
618.20 0.5394728
618.30 0.5391991
618.40 0.5389255
618.50 0.5386521
618.60 0.5383788
618.70 0.5381057
618.80 0.5378327
618.90 0.5375599
619.00 0.5372872
619.10 0.5370147
619.20 0.5367423
619.30 0.5364701
619.40 0.536198
619.50 0.5359261
619.60 0.5356543
619.70 0.5353827
619.80 0.5351112
619.90 0.5348398
620.00 0.5345686
620.10 0.5342976
620.20 0.5340267
620.30 0.5337559
620.40 0.5334853
620.50 0.5332149
620.60 0.5329446
620.70 0.5326744
620.80 0.5324044
620.90 0.5321313
621.00 0.5318526
621.10 0.5315741
621.20 0.5312957
621.30 0.5310175
621.40 0.5307394
621.50 0.5304615
621.60 0.5301838
621.70 0.5299062
621.80 0.5296287
621.90 0.5293514
622.00 0.5290742
622.10 0.5287972
622.20 0.5285204
622.30 0.5282437
622.40 0.5279671
622.50 0.5276907
622.60 0.5274145
622.70 0.5271384
622.80 0.5268624
622.90 0.5265866
623.00 0.526311
623.10 0.5260355
623.20 0.5257601
623.30 0.5254849
623.40 0.5252099
623.50 0.524935
623.60 0.5246602
623.70 0.5243856
623.80 0.5241112
623.90 0.5238369
624.00 0.5235627
624.10 0.5232887
624.20 0.5230148
624.30 0.5227411
624.40 0.5224676
624.50 0.5221941
624.60 0.5219209
624.70 0.5216478
624.80 0.5213748
624.90 0.521102
625.00 0.5208293
625.10 0.5205568
625.20 0.5202844
625.30 0.5200122
625.40 0.5197401
625.50 0.5194681
625.60 0.5191963
625.70 0.5189247
625.80 0.5186532
625.90 0.5183819
626.00 0.5181107
626.10 0.5178396
626.20 0.5175687
626.30 0.5172979
626.40 0.5170273
626.50 0.5167569
626.60 0.5164865
626.70 0.5162164
626.80 0.5159463
626.90 0.5156765
627.00 0.5154067
627.10 0.5151346
627.20 0.5148558
627.30 0.5145771
627.40 0.5142985
627.50 0.5140202
627.60 0.5137419
627.70 0.5134638
627.80 0.5131859
627.90 0.5129081
628.00 0.5126305
628.10 0.512353
628.20 0.5120757
628.30 0.5117985
628.40 0.5115215
628.50 0.5112446
628.60 0.5109679
628.70 0.5106913
628.80 0.5104149
628.90 0.5101386
629.00 0.5098625
629.10 0.5095865
629.20 0.5093107
629.30 0.509035
629.40 0.5087595
629.50 0.5084841
629.60 0.5082089
629.70 0.5079338
629.80 0.5076589
629.90 0.5073841
630.00 0.5071095
630.10 0.506835
630.20 0.5065607
630.30 0.5062865
630.40 0.5060125
630.50 0.5057387
630.60 0.505465
630.70 0.5051914
630.80 0.504918
630.90 0.5046447
631.00 0.5043716
631.10 0.5040987
631.20 0.5038258
631.30 0.5035532
631.40 0.5032806
631.50 0.5030083
631.60 0.502736
631.70 0.502464
631.80 0.502192
631.90 0.5019202
632.00 0.5016486
632.10 0.5013771
632.20 0.5011058
632.30 0.5008346
632.40 0.5005635
632.50 0.5002926
632.60 0.5000218
632.70 0.4997512
632.80 0.4994808
632.90 0.4992104
633.00 0.4989403
633.10 0.4986702
633.20 0.4984004
633.30 0.4981306
633.40 0.4978616
633.50 0.4975932
633.60 0.497325
633.70 0.4970569
633.80 0.4967889
633.90 0.4965211
634.00 0.4962535
634.10 0.495986
634.20 0.4957186
634.30 0.4954514
634.40 0.4951843
634.50 0.4949173
634.60 0.4946505
634.70 0.4943839
634.80 0.4941174
634.90 0.493851
635.00 0.4935848
635.10 0.4933187
635.20 0.4930528
635.30 0.492787
635.40 0.4925213
635.50 0.4922558
635.60 0.4919904
635.70 0.4917252
635.80 0.4914601
635.90 0.4911952
636.00 0.4909304
636.10 0.4906657
636.20 0.4904012
636.30 0.4901368
636.40 0.4898726
636.50 0.4896085
636.60 0.4893626
636.70 0.4891189
636.80 0.4888752
636.90 0.4886317
637.00 0.4883883
637.10 0.4881451
637.20 0.487902
637.30 0.487659
637.40 0.4874161
637.50 0.4871734
637.60 0.4869308
637.70 0.4866883
637.80 0.486446
637.90 0.4862037
638.00 0.4859617
638.10 0.4857197
638.20 0.4854779
638.30 0.4852361
638.40 0.4849946
638.50 0.4847531
638.60 0.4845118
638.70 0.4842706
638.80 0.4840295
638.90 0.4837886
639.00 0.4835477
639.10 0.4833071
639.20 0.4830665
639.30 0.4828261
639.40 0.4825857
639.50 0.4823456
639.60 0.4821055
639.70 0.4818568
639.80 0.4815786
639.90 0.4813006
640.00 0.4810228
640.10 0.4807451
640.20 0.4804675
640.30 0.4801901
640.40 0.4799129
640.50 0.4796358
640.60 0.4793588
640.70 0.479082
640.80 0.4788053
640.90 0.4785288
641.00 0.4782525
641.10 0.4779763
641.20 0.4777002
641.30 0.4774243
641.40 0.4771486
641.50 0.476873
641.60 0.4765975
641.70 0.4763222
641.80 0.476047
641.90 0.475772
642.00 0.4754971
642.10 0.4752224
642.20 0.4749479
642.30 0.4746734
642.40 0.4743992
642.50 0.474125
642.60 0.4738511
642.70 0.4735772
642.80 0.4733035
642.90 0.47303
643.00 0.4727566
643.10 0.4724833
643.20 0.4722101
643.30 0.4719372
643.40 0.4716643
643.50 0.4713916
643.60 0.4711191
643.70 0.4708467
643.80 0.4705744
643.90 0.4703023
644.00 0.4700304
644.10 0.4697585
644.20 0.4694869
644.30 0.4692153
644.40 0.468944
644.50 0.4686727
644.60 0.4684016
644.70 0.4681307
644.80 0.4678599
644.90 0.4675893
645.00 0.4673188
645.10 0.4670484
645.20 0.4667782
645.30 0.4665081
645.40 0.4662382
645.50 0.4659684
645.60 0.4656988
645.70 0.4654293
645.80 0.46516
645.90 0.4648908
646.00 0.4646217
646.10 0.4643482
646.20 0.4640616
646.30 0.4637752
646.40 0.4634889
646.50 0.4632028
646.60 0.4629168
646.70 0.462631
646.80 0.4623454
646.90 0.4620599
647.00 0.4617745
647.10 0.4614894
647.20 0.4612043
647.30 0.4609195
647.40 0.4606347
647.50 0.4603502
647.60 0.4600657
647.70 0.4597815
647.80 0.4594974
647.90 0.4592134
648.00 0.4589296
648.10 0.458646
648.20 0.4583625
648.30 0.4580791
648.40 0.457796
648.50 0.4575129
648.60 0.45723
648.70 0.4569473
648.80 0.4566647
648.90 0.4563823
649.00 0.4561
649.10 0.4558179
649.20 0.455536
649.30 0.4552541
649.40 0.4549454
649.50 0.4546356
649.60 0.4543261
649.70 0.4540167
649.80 0.4537074
649.90 0.4533984
650.00 0.4530895
650.10 0.4527808
650.20 0.4524722
650.30 0.4521638
650.40 0.4518556
650.50 0.4515476
650.60 0.4512397
650.70 0.450932
650.80 0.4506244
650.90 0.4503171
651.00 0.4500098
651.10 0.4497028
651.20 0.4493959
651.30 0.4490892
651.40 0.4487827
651.50 0.4484763
651.60 0.4481701
651.70 0.4478641
651.80 0.4475582
651.90 0.4472525
652.00 0.4469469
652.10 0.4466416
652.20 0.4463364
652.30 0.4460313
652.40 0.4457264
652.50 0.4454217
652.60 0.4450901
652.70 0.4447442
652.80 0.4443984
652.90 0.4440528
653.00 0.4437074
653.10 0.4433621
653.20 0.4430171
653.30 0.4426723
653.40 0.4423276
653.50 0.4419832
653.60 0.4416389
653.70 0.4412948
653.80 0.4409509
653.90 0.4406072
654.00 0.4402637
654.10 0.4399204
654.20 0.4395773
654.30 0.4392343
654.40 0.4388916
654.50 0.438549
654.60 0.4382066
654.70 0.4378645
654.80 0.4375225
654.90 0.4371807
655.00 0.436839
655.10 0.4364976
655.20 0.4361564
655.30 0.4358153
655.40 0.4354744
655.50 0.4351338
655.60 0.4347933
655.70 0.434453
655.80 0.4340367
655.90 0.4336207
656.00 0.4332049
656.10 0.4327893
656.20 0.432374
656.30 0.4319589
656.40 0.4315441
656.50 0.4311294
656.60 0.430715
656.70 0.4303009
656.80 0.4298869
656.90 0.4294733
657.00 0.4290598
657.10 0.4286466
657.20 0.4282336
657.30 0.4278208
657.40 0.4274082
657.50 0.4269959
657.60 0.4265839
657.70 0.426172
657.80 0.4255261
657.90 0.4249749
658.00 0.4244405
658.10 0.4239065
658.20 0.4233728
658.30 0.4228394
658.40 0.4223063
658.50 0.4217736
658.60 0.4212411
658.70 0.4207089
658.80 0.420177
658.90 0.4196454
659.00 0.4191142
659.10 0.4185757
659.20 0.4180264
659.30 0.417343
659.40 0.41666
659.50 0.4159773
659.60 0.4152951
659.70 0.4146132
659.80 0.4139318
659.90 0.4132507
660.00 0.41257
660.10 0.4118898
660.20 0.4112099
660.30 0.4105304
660.40 0.4097034
660.50 0.4088507
660.60 0.4079986
660.70 0.4071469
660.80 0.4062958
660.90 0.4052317
661.00 0.4041682
661.10 0.4031053
661.20 0.4020431
661.30 0.4009815
661.40 0.3999205
661.50 0.3988601
661.60 0.3978004
661.70 0.3967413
661.80 0.3956828
661.90 0.3941967
662.00 0.3927116
662.10 0.3912273
662.20 0.3897439
662.30 0.3882613
662.40 0.3867683
662.50 0.3846759
662.60 0.3825847
662.70 0.3804947
662.80 0.378406
662.90 0.3760993
663.00 0.3737939
663.10 0.371636
663.20 0.3780957
663.30 0.3886394
663.40 0.3929007
663.50 0.3945332
663.60 0.3961647
663.70 0.3967235
663.80 0.397282
663.90 0.3973979
664.00 0.3974357
664.10 0.3968791
664.20 0.3963228
664.30 0.3957669
664.40 0.3952112
664.50 0.3946558
664.60 0.3941008
664.70 0.3929833
664.80 0.3918665
664.90 0.3907503
665.00 0.3896347
665.10 0.3885198
665.20 0.3874056
665.30 0.386292
665.40 0.3851791
665.50 0.3837144
665.60 0.3821884
665.70 0.3801999
665.80 0.3780374
665.90 0.3758761
666.00 0.3737162
666.10 0.3715575
666.20 0.3694001
666.30 0.3672439
666.40 0.3650891
666.50 0.3615183
666.60 0.3576996
666.70 0.3538832
666.80 0.3500691
666.90 0.3462573
667.00 0.3424477
667.10 0.3367493
667.20 0.3307206
667.30 0.3225703
667.40 0.3144249
667.50 0.3034431
667.60 0.2919667
667.70 0.2806917
667.80 0.2748264
667.90 0.2757035
668.00 0.2810694
668.10 0.2884374
668.20 0.296062
668.30 0.3026308
668.40 0.3090102
668.50 0.3153857
668.60 0.3217574
668.70 0.3266529
668.80 0.3300129
668.90 0.3333708
669.00 0.3367268
669.10 0.3400807
669.20 0.3434325
669.30 0.3455054
669.40 0.3473517
669.50 0.3491968
669.60 0.3510409
669.70 0.3528838
669.80 0.3547257
669.90 0.3565664
670.00 0.358406
670.10 0.3602444
670.20 0.3620818
670.30 0.3633679
670.40 0.364556
670.50 0.3657435
670.60 0.3669303
670.70 0.3681163
670.80 0.3688771
670.90 0.3696375
671.00 0.3703974
671.10 0.3711568
671.20 0.3719157
671.30 0.3726742
671.40 0.3734322
671.50 0.3741898
671.60 0.3749469
671.70 0.3757035
671.80 0.3764596
671.90 0.3770185
672.00 0.3775423
672.10 0.3780658
672.20 0.378589
672.30 0.3791119
672.40 0.379517
672.50 0.3799131
672.60 0.380309
672.70 0.3807045
672.80 0.3810999
672.90 0.381495
673.00 0.3818898
673.10 0.3822844
673.20 0.3826787
673.30 0.3828114
673.40 0.3829755
673.50 0.383145
673.60 0.3833144
673.70 0.3834836
673.80 0.3836528
673.90 0.3838218
674.00 0.3839907
674.10 0.3841595
674.20 0.3843282
674.30 0.3844967
674.40 0.3846652
674.50 0.3848335
674.60 0.3850017
674.70 0.3851698
674.80 0.3853378
674.90 0.3855056
675.00 0.3856734
675.10 0.385841
675.20 0.3860085
675.30 0.3861759
675.40 0.3862091
675.50 0.3862186
675.60 0.3862282
675.70 0.3862377
675.80 0.3862471
675.90 0.3862566
676.00 0.386266
676.10 0.3862754
676.20 0.3862848
676.30 0.3862941
676.40 0.3863035
676.50 0.3863128
676.60 0.3863221
676.70 0.3863313
676.80 0.3863406
676.90 0.3863498
677.00 0.386359
677.10 0.3863682
677.20 0.3863774
677.30 0.3863865
677.40 0.3863956
677.50 0.3864047
677.60 0.3864138
677.70 0.3864228
677.80 0.3864318
677.90 0.3863754
678.00 0.3863074
678.10 0.3862395
678.20 0.3861716
678.30 0.3861037
678.40 0.3860358
678.50 0.385968
678.60 0.3859001
678.70 0.3858323
678.80 0.3857646
678.90 0.3856968
679.00 0.3856291
679.10 0.3855063
679.20 0.38536
679.30 0.3852137
679.40 0.3850675
679.50 0.3849214
679.60 0.3847754
679.70 0.3846294
679.80 0.3844835
679.90 0.3843377
680.00 0.3841919
680.10 0.3840462
680.20 0.3839006
680.30 0.383755
680.40 0.3836095
680.50 0.3834641
680.60 0.3833188
680.70 0.3831735
680.80 0.3830283
680.90 0.3828831
681.00 0.382738
681.10 0.382593
681.20 0.3824481
681.30 0.3823032
681.40 0.3821584
681.50 0.3820137
681.60 0.381869
681.70 0.3817244
681.80 0.3815799
681.90 0.3814354
682.00 0.381291
682.10 0.3811467
682.20 0.3810025
682.30 0.3808583
682.40 0.3807142
682.50 0.3805701
682.60 0.3804261
682.70 0.3802822
682.80 0.3801384
682.90 0.3799946
683.00 0.3798509
683.10 0.3797072
683.20 0.3795637
683.30 0.3794202
683.40 0.3792767
683.50 0.3791333
683.60 0.37899
683.70 0.3788468
683.80 0.3787036
683.90 0.3785605
684.00 0.3784175
684.10 0.3782745
684.20 0.3781316
684.30 0.3779888
684.40 0.377846
684.50 0.3777033
684.60 0.3775607
684.70 0.3774182
684.80 0.3772757
684.90 0.3771332
685.00 0.3769909
685.10 0.3768486
685.20 0.3767063
685.30 0.3765642
685.40 0.3764221
685.50 0.3762801
685.60 0.3761381
685.70 0.3759962
685.80 0.3758544
685.90 0.375681
686.00 0.3754999
686.10 0.3753188
686.20 0.3751378
686.30 0.3749569
686.40 0.3747761
686.50 0.3745954
686.60 0.3744148
686.70 0.3742343
686.80 0.3740538
686.90 0.3738735
687.00 0.3736932
687.10 0.373513
687.20 0.3733329
687.30 0.3731529
687.40 0.372973
687.50 0.3727932
687.60 0.3726135
687.70 0.3724338
687.80 0.3722543
687.90 0.3720748
688.00 0.3718954
688.10 0.3717162
688.20 0.371537
688.30 0.3713578
688.40 0.3711788
688.50 0.3709999
688.60 0.370821
688.70 0.3706423
688.80 0.3704636
688.90 0.370285
689.00 0.3701065
689.10 0.3699281
689.20 0.3697498
689.30 0.3695716
689.40 0.3693934
689.50 0.3692154
689.60 0.3690374
689.70 0.3688595
689.80 0.3686817
689.90 0.368504
690.00 0.3683264
690.10 0.3681489
690.20 0.3679715
690.30 0.3677941
690.40 0.3676168
690.50 0.3674397
690.60 0.3672626
690.70 0.3670856
690.80 0.3669086
690.90 0.3667318
691.00 0.3665551
691.10 0.3663784
691.20 0.3662018
691.30 0.3660254
691.40 0.365849
691.50 0.3656726
691.60 0.3654964
691.70 0.3653203
691.80 0.3651442
691.90 0.3649683
692.00 0.3647924
692.10 0.3646166
692.20 0.3644409
692.30 0.3642653
692.40 0.3640898
692.50 0.3639143
692.60 0.3637389
692.70 0.3635609
692.80 0.3633723
692.90 0.3631838
693.00 0.3629954
693.10 0.3628071
693.20 0.3626189
693.30 0.3624307
693.40 0.3622427
693.50 0.3620548
693.60 0.3618669
693.70 0.3616792
693.80 0.3614915
693.90 0.361304
694.00 0.3611165
694.10 0.3609291
694.20 0.3607419
694.30 0.3605547
694.40 0.3603676
694.50 0.3601806
694.60 0.3599937
694.70 0.3598068
694.80 0.3596201
694.90 0.3594335
695.00 0.3592469
695.10 0.3590605
695.20 0.3588741
695.30 0.3586879
695.40 0.3585017
695.50 0.3583156
695.60 0.3581296
695.70 0.3579437
695.80 0.3577579
695.90 0.3575722
696.00 0.3573866
696.10 0.3572011
696.20 0.3570157
696.30 0.3568303
696.40 0.3566451
696.50 0.3564599
696.60 0.3562561
696.70 0.3560479
696.80 0.3558399
696.90 0.355632
697.00 0.3554242
697.10 0.3552165
697.20 0.3550089
697.30 0.3548014
697.40 0.354594
697.50 0.3543867
697.60 0.3541795
697.70 0.3539724
697.80 0.3537654
697.90 0.3535586
698.00 0.3533518
698.10 0.3531451
698.20 0.3529386
698.30 0.3527321
698.40 0.3525257
698.50 0.3523195
698.60 0.3521133
698.70 0.3519073
698.80 0.3517014
698.90 0.3514955
699.00 0.3512898
699.10 0.3510603
699.20 0.3508254
699.30 0.3505906
699.40 0.3503559
699.50 0.3501213
699.60 0.3498868
699.70 0.3496391
699.80 0.3493907
699.90 0.3491425
700.00 0.3488945
700.10 0.3486465
700.20 0.3483987
700.30 0.348151
700.40 0.3479034
700.50 0.347656
700.60 0.3474087
700.70 0.3471615
700.80 0.3469144
700.90 0.3466675
701.00 0.3464207
701.10 0.3461103
701.20 0.3457851
701.30 0.3454601
701.40 0.3451353
701.50 0.3448107
701.60 0.3444862
701.70 0.3441619
701.80 0.3438378
701.90 0.3435138
702.00 0.3431901
702.10 0.3428664
702.20 0.342543
702.30 0.3422197
702.40 0.3418966
702.50 0.3415737
702.60 0.3410779
702.70 0.3405418
702.80 0.340006
702.90 0.3394705
703.00 0.3389352
703.10 0.3384003
703.20 0.3378657
703.30 0.3373313
703.40 0.3367973
703.50 0.3362635
703.60 0.33573
703.70 0.3351968
703.80 0.3346639
703.90 0.3341313
704.00 0.333599
704.10 0.3330669
704.20 0.3320499
704.30 0.3309197
704.40 0.3297901
704.50 0.3286611
704.60 0.3275328
704.70 0.3264051
704.80 0.325278
704.90 0.3241516
705.00 0.3230257
705.10 0.3219005
705.20 0.3197297
705.30 0.3173148
705.40 0.3149013
705.50 0.3124891
705.60 0.3100782
705.70 0.3076687
705.80 0.3030673
705.90 0.2979541
706.00 0.2928438
706.10 0.2877364
706.20 0.2782502
706.30 0.2677418
706.40 0.2518067
706.50 0.2341983
706.60 0.2312094
706.70 0.2447082
706.80 0.257011
706.90 0.2687255
707.00 0.2753643
707.10 0.2808106
707.20 0.2862537
707.30 0.2916938
707.40 0.2948088
707.50 0.2973775
707.60 0.2999447
707.70 0.3025105
707.80 0.3050748
707.90 0.3076376
708.00 0.3090088
708.10 0.3101001
708.20 0.3111908
708.30 0.3122808
708.40 0.3133702
708.50 0.314459
708.60 0.3155472
708.70 0.3166347
708.80 0.3177216
708.90 0.3188079
709.00 0.3193036
709.10 0.3196607
709.20 0.3200175
709.30 0.3203741
709.40 0.3207305
709.50 0.3210867
709.60 0.3214427
709.70 0.3217985
709.80 0.3221541
709.90 0.3225094
710.00 0.3228645
710.10 0.3232195
710.20 0.3235742
710.30 0.3239287
710.40 0.3242829
710.50 0.324637
710.60 0.3247676
710.70 0.3248458
710.80 0.3249239
710.90 0.325002
711.00 0.32508
711.10 0.3251579
711.20 0.3252358
711.30 0.3253137
711.40 0.3253914
711.50 0.3254691
711.60 0.3255468
711.70 0.3256244
711.80 0.325702
711.90 0.3257795
712.00 0.3258569
712.10 0.3258224
712.20 0.3257616
712.30 0.3257009
712.40 0.3256402
712.50 0.3255795
712.60 0.3255188
712.70 0.3254582
712.80 0.3253975
712.90 0.3253369
713.00 0.3252764
713.10 0.3252158
713.20 0.3251552
713.30 0.3250947
713.40 0.3250342
713.50 0.3249737
713.60 0.3249133
713.70 0.3248664
713.80 0.324847
713.90 0.3248276
714.00 0.3248082
714.10 0.3247145
714.20 0.3246035
714.30 0.3244924
714.40 0.3243815
714.50 0.3242705
714.60 0.3241597
714.70 0.3240488
714.80 0.3239381
714.90 0.3238273
715.00 0.3237167
715.10 0.323606
715.20 0.3234955
715.30 0.3233849
715.40 0.3232744
715.50 0.323164
715.60 0.3230536
715.70 0.3229433
715.80 0.322833
715.90 0.3227228
716.00 0.3226126
716.10 0.3225024
716.20 0.3223924
716.30 0.3222823
716.40 0.3221723
716.50 0.3220624
716.60 0.3219436
716.70 0.3218228
716.80 0.3217021
716.90 0.3215814
717.00 0.3214608
717.10 0.3213402
717.20 0.3212197
717.30 0.3210993
717.40 0.3209789
717.50 0.3208585
717.60 0.3207382
717.70 0.320618
717.80 0.3204978
717.90 0.3203777
718.00 0.3202576
718.10 0.3201376
718.20 0.3199923
718.30 0.3198335
718.40 0.3196748
718.50 0.3195161
718.60 0.3193575
718.70 0.319199
718.80 0.3190406
718.90 0.3188822
719.00 0.318724
719.10 0.3185658
719.20 0.3184076
719.30 0.3182496
719.40 0.3180916
719.50 0.3179337
719.60 0.3177759
719.70 0.3176182
719.80 0.3174605
719.90 0.3173029
720.00 0.3171454
720.10 0.3169879
720.20 0.3168305
720.30 0.3166732
720.40 0.316516
720.50 0.3163589
720.60 0.3162018
720.70 0.3160898
720.80 0.3160021
720.90 0.3158367
721.00 0.3156681
721.10 0.3154996
721.20 0.3153312
721.30 0.3151629
721.40 0.3149946
721.50 0.3148264
721.60 0.3146583
721.70 0.3144903
721.80 0.3143224
721.90 0.3141545
722.00 0.3139867
722.10 0.313819
722.20 0.3136514
722.30 0.3134839
722.40 0.3133164
722.50 0.3131491
722.60 0.3129818
722.70 0.312803
722.80 0.3126181
722.90 0.3124333
723.00 0.3122486
723.10 0.3120639
723.20 0.3118794
723.30 0.3116949
723.40 0.3115106
723.50 0.3113263
723.60 0.3111421
723.70 0.310958
723.80 0.310774
723.90 0.3105901
724.00 0.3104063
724.10 0.3102225
724.20 0.3099732
724.30 0.3096887
724.40 0.3094043
724.50 0.30912
724.60 0.3088359
724.70 0.3085519
724.80 0.3082681
724.90 0.3079844
725.00 0.3077009
725.10 0.3074175
725.20 0.3071342
725.30 0.3068511
725.40 0.3065682
725.50 0.3062854
725.60 0.3060027
725.70 0.3057202
725.80 0.3052813
725.90 0.3047583
726.00 0.3042356
726.10 0.3037132
726.20 0.3031911
726.30 0.3026693
726.40 0.3021477
726.50 0.3016264
726.60 0.3011054
726.70 0.3005847
726.80 0.2995847
726.90 0.2983272
727.00 0.2970703
727.10 0.2958141
727.20 0.2945586
727.30 0.2933037
727.40 0.2908791
727.50 0.2878257
727.60 0.284774
727.70 0.2817239
727.80 0.2757985
727.90 0.2683276
728.00 0.2563177
728.10 0.2289546
728.20 0.2156354
728.30 0.2345826
728.40 0.2463547
728.50 0.256248
728.60 0.2624944
728.70 0.2667771
728.80 0.2710575
728.90 0.2753355
729.00 0.2780398
729.10 0.2798969
729.20 0.2817529
729.30 0.2836079
729.40 0.2854619
729.50 0.2873148
729.60 0.2883981
729.70 0.289067
729.80 0.2897355
729.90 0.2904037
730.00 0.2910714
730.10 0.2917388
730.20 0.2924058
730.30 0.2930724
730.40 0.2937387
730.50 0.2944046
730.60 0.294722
730.70 0.2948519
730.80 0.2949817
730.90 0.2951114
731.00 0.295241
731.10 0.2953705
731.20 0.2955
731.30 0.2956294
731.40 0.2957587
731.50 0.2958879
731.60 0.296017
731.70 0.2961461
731.80 0.296275
731.90 0.2964039
732.00 0.2965327
732.10 0.2966614
732.20 0.2966849
732.30 0.2966518
732.40 0.2966187
732.50 0.2965856
732.60 0.2965525
732.70 0.2965195
732.80 0.2964864
732.90 0.2964533
733.00 0.2964203
733.10 0.2963872
733.20 0.2963542
733.30 0.2963211
733.40 0.2962881
733.50 0.2962551
733.60 0.296222
733.70 0.2961393
733.80 0.2960298
733.90 0.2959203
734.00 0.2958109
734.10 0.2957015
734.20 0.2955922
734.30 0.295483
734.40 0.2953738
734.50 0.2952646
734.60 0.2951555
734.70 0.2950464
734.80 0.2949374
734.90 0.2948284
735.00 0.2947195
735.10 0.2946106
735.20 0.2945018
735.30 0.2943953
735.40 0.2943153
735.50 0.2942352
735.60 0.2941552
735.70 0.2940444
735.80 0.293917
735.90 0.2937897
736.00 0.2936625
736.10 0.2935353
736.20 0.2934081
736.30 0.293281
736.40 0.293154
736.50 0.293027
736.60 0.2929001
736.70 0.2927733
736.80 0.2926465
736.90 0.2925197
737.00 0.2923931
737.10 0.2922664
737.20 0.2921399
737.30 0.2920134
737.40 0.2918869
737.50 0.2917605
737.60 0.2916342
737.70 0.2915079
737.80 0.2913817
737.90 0.2912556
738.00 0.2911295
738.10 0.2910034
738.20 0.2908741
738.30 0.2907431
738.40 0.2906121
738.50 0.2904811
738.60 0.2903503
738.70 0.2902195
738.80 0.2900887
738.90 0.289958
739.00 0.2898274
739.10 0.2896969
739.20 0.2895663
739.30 0.2894359
739.40 0.2893055
739.50 0.2891752
739.60 0.2890449
739.70 0.2889147
739.80 0.2887846
739.90 0.2886545
740.00 0.2885245
740.10 0.2883945
740.20 0.2882646
740.30 0.2881347
740.40 0.2880049
740.50 0.2878752
740.60 0.2877455
740.70 0.2876159
740.80 0.2874864
740.90 0.2873569
741.00 0.2872275
741.10 0.2870981
741.20 0.2869688
741.30 0.2868395
741.40 0.2867103
741.50 0.2865812
741.60 0.2864521
741.70 0.2863231
741.80 0.2861942
741.90 0.2860653
742.00 0.2859364
742.10 0.2858076
742.20 0.2856789
742.30 0.2855503
742.40 0.2854217
742.50 0.2852931
742.60 0.2851646
742.70 0.2850275
742.80 0.2848832
742.90 0.2847391
743.00 0.284595
743.10 0.284451
743.20 0.284307
743.30 0.2841631
743.40 0.2840193
743.50 0.2838755
743.60 0.2837318
743.70 0.2835908
743.80 0.28346
743.90 0.2833294
744.00 0.2831987
744.10 0.2830682
744.20 0.2829377
744.30 0.2828072
744.40 0.2826769
744.50 0.2825465
744.60 0.2824163
744.70 0.2822861
744.80 0.2821559
744.90 0.2820259
745.00 0.2818958
745.10 0.2817659
745.20 0.281636
745.30 0.2815061
745.40 0.2813763
745.50 0.2812466
745.60 0.2811169
745.70 0.2809873
745.80 0.2808578
745.90 0.2807283
746.00 0.2805989
746.10 0.2804695
746.20 0.2803402
746.30 0.2802109
746.40 0.2800818
746.50 0.2799526
746.60 0.2798235
746.70 0.2796945
746.80 0.2795656
746.90 0.2794367
747.00 0.2793078
747.10 0.2791791
747.20 0.2790504
747.30 0.2789217
747.40 0.2787931
747.50 0.2786645
747.60 0.2785361
747.70 0.2784076
747.80 0.2782793
747.90 0.278151
748.00 0.2780227
748.10 0.2778945
748.20 0.2777664
748.30 0.2776383
748.40 0.2775103
748.50 0.2773824
748.60 0.2772545
748.70 0.2771266
748.80 0.2769988
748.90 0.2768711
749.00 0.2767435
749.10 0.2766158
749.20 0.2764883
749.30 0.2763608
749.40 0.2762334
749.50 0.276106
749.60 0.2759787
749.70 0.2758514
749.80 0.2757242
749.90 0.2755971
750.00 0.27547
750.10 0.2753409
750.20 0.2752067
750.30 0.2750725
750.40 0.2749383
750.50 0.2748042
750.60 0.2746702
750.70 0.2745363
750.80 0.2744024
750.90 0.2742685
751.00 0.2741347
751.10 0.274001
751.20 0.2738674
751.30 0.2737338
751.40 0.2736003
751.50 0.2734668
751.60 0.2733334
751.70 0.2732
751.80 0.2730667
751.90 0.2729335
752.00 0.2728004
752.10 0.2726673
752.20 0.2725342
752.30 0.2724012
752.40 0.2722683
752.50 0.2721355
752.60 0.2720027
752.70 0.2718699
752.80 0.2717373
752.90 0.2716046
753.00 0.2714721
753.10 0.2713396
753.20 0.2712072
753.30 0.2710748
753.40 0.2709425
753.50 0.2708102
753.60 0.270678
753.70 0.2705459
753.80 0.2704139
753.90 0.2702865
754.00 0.2701606
754.10 0.2700348
754.20 0.269909
754.30 0.2697832
754.40 0.2696575
754.50 0.2695319
754.60 0.2694063
754.70 0.2692808
754.80 0.2691553
754.90 0.2690299
755.00 0.2689046
755.10 0.2687793
755.20 0.268654
755.30 0.2685288
755.40 0.2684037
755.50 0.2682787
755.60 0.2681536
755.70 0.2680287
755.80 0.2679038
755.90 0.267779
756.00 0.2676542
756.10 0.2675295
756.20 0.2674048
756.30 0.2672802
756.40 0.2671556
756.50 0.2670311
756.60 0.2669067
756.70 0.2667823
756.80 0.266658
756.90 0.2665337
757.00 0.2664095
757.10 0.2662853
757.20 0.2661612
757.30 0.2660372
757.40 0.2659132
757.50 0.2657892
757.60 0.2656655
757.70 0.2655422
757.80 0.265419
757.90 0.2652958
758.00 0.2651727
758.10 0.2650496
758.20 0.2649266
758.30 0.2648037
758.40 0.2646808
758.50 0.2645579
758.60 0.2644352
758.70 0.2643124
758.80 0.2641898
758.90 0.2640671
759.00 0.2639446
759.10 0.2638221
759.20 0.2636996
759.30 0.2635772
759.40 0.2634549
759.50 0.2633326
759.60 0.2632104
759.70 0.2630882
759.80 0.2629661
759.90 0.262844
760.00 0.262722
760.10 0.2626001
760.20 0.2624782
760.30 0.2623563
760.40 0.2622345
760.50 0.2621128
760.60 0.2619911
760.70 0.2618695
760.80 0.2617479
760.90 0.2616264
761.00 0.261505
761.10 0.2613835
761.20 0.2612622
761.30 0.2611409
761.40 0.2610197
761.50 0.2608985
761.60 0.2607773
761.70 0.2606563
761.80 0.2605352
761.90 0.2604143
762.00 0.2602934
762.10 0.2601725
762.20 0.2600517
762.30 0.259931
762.40 0.2598103
762.50 0.2596896
762.60 0.259569
762.70 0.2594485
762.80 0.259328
762.90 0.2592076
763.00 0.2590872
763.10 0.2589669
763.20 0.2588467
763.30 0.2587265
763.40 0.2586063
763.50 0.2584862
763.60 0.2583662
763.70 0.2582462
763.80 0.2581262
763.90 0.2580063
764.00 0.2578865
764.10 0.2577667
764.20 0.257647
764.30 0.2575274
764.40 0.2574077
764.50 0.2572882
764.60 0.2571687
764.70 0.2570492
764.80 0.2569298
764.90 0.2568105
765.00 0.2566912
765.10 0.256572
765.20 0.256453
765.30 0.2563344
765.40 0.2562159
765.50 0.2560974
765.60 0.2559789
765.70 0.2558605
765.80 0.2557422
765.90 0.2556239
766.00 0.2555056
766.10 0.2553874
766.20 0.2552693
766.30 0.2551512
766.40 0.2550332
766.50 0.2549152
766.60 0.2547973
766.70 0.2546794
766.80 0.2545616
766.90 0.2544438
767.00 0.2543261
767.10 0.2542085
767.20 0.2540909
767.30 0.2539733
767.40 0.2538558
767.50 0.2537384
767.60 0.253621
767.70 0.2535036
767.80 0.2533863
767.90 0.2532691
768.00 0.2531519
768.10 0.2530348
768.20 0.2529177
768.30 0.2528007
768.40 0.2526837
768.50 0.2525668
768.60 0.2524499
768.70 0.2523331
768.80 0.2522163
768.90 0.2520996
769.00 0.2519829
769.10 0.2518663
769.20 0.2517498
769.30 0.2516333
769.40 0.2515168
769.50 0.2514004
769.60 0.2512841
769.70 0.2511678
769.80 0.2510515
769.90 0.2509353
770.00 0.2508192
770.10 0.2507031
770.20 0.250587
770.30 0.2504711
770.40 0.2503551
770.50 0.2502392
770.60 0.2501234
770.70 0.2500076
770.80 0.2498919
770.90 0.2497762
771.00 0.2496606
771.10 0.249545
771.20 0.2494295
771.30 0.249314
771.40 0.2491986
771.50 0.2490832
771.60 0.2489679
771.70 0.2488527
771.80 0.2487374
771.90 0.2486223
772.00 0.2485072
772.10 0.2483921
772.20 0.2482771
772.30 0.2481621
772.40 0.2480472
772.50 0.2479324
772.60 0.2478176
772.70 0.2477028
772.80 0.2475881
772.90 0.247474
773.00 0.2473599
773.10 0.2472458
773.20 0.2471318
773.30 0.2470179
773.40 0.246904
773.50 0.2467901
773.60 0.2466763
773.70 0.2465626
773.80 0.2464489
773.90 0.2463352
774.00 0.2462216
774.10 0.2461081
774.20 0.2459946
774.30 0.2458812
774.40 0.2457678
774.50 0.2456544
774.60 0.2455411
774.70 0.2454279
774.80 0.2453147
774.90 0.2452015
775.00 0.2450885
775.10 0.2449754
775.20 0.2448624
775.30 0.2447495
775.40 0.2446366
775.50 0.2445237
775.60 0.244411
775.70 0.2442982
775.80 0.2441855
775.90 0.2440729
776.00 0.2439603
776.10 0.2438477
776.20 0.2437353
776.30 0.2436228
776.40 0.2435104
776.50 0.2433981
776.60 0.2432858
776.70 0.2431735
776.80 0.2430613
776.90 0.2429492
777.00 0.2428371
777.10 0.2427251
777.20 0.2426131
777.30 0.2425011
777.40 0.2423892
777.50 0.2422774
777.60 0.2421656
777.70 0.2420538
777.80 0.2419421
777.90 0.2418305
778.00 0.2417189
778.10 0.2416074
778.20 0.2414959
778.30 0.2413844
778.40 0.241273
778.50 0.2411617
778.60 0.2410503
778.70 0.2409391
778.80 0.2408279
778.90 0.2407167
779.00 0.2406056
779.10 0.2404946
779.20 0.2403836
779.30 0.2402726
779.40 0.2401617
779.50 0.2400508
779.60 0.23994
779.70 0.2398293
779.80 0.2397186
779.90 0.2396079
780.00 0.2394973
780.10 0.2393867
780.20 0.2392762
780.30 0.2391657
780.40 0.2390553
780.50 0.2389449
780.60 0.2388324
780.70 0.2387191
780.80 0.2386058
780.90 0.2384926
781.00 0.2383794
781.10 0.2382663
781.20 0.2381532
781.30 0.2380402
781.40 0.2379272
781.50 0.2378143
781.60 0.2377014
781.70 0.2375886
781.80 0.2374758
781.90 0.2373631
782.00 0.2372504
782.10 0.2371378
782.20 0.2370252
782.30 0.2369127
782.40 0.2368002
782.50 0.2366878
782.60 0.2365754
782.70 0.2364631
782.80 0.2363508
782.90 0.2362385
783.00 0.2361264
783.10 0.2360142
783.20 0.2359022
783.30 0.2357901
783.40 0.2356781
783.50 0.2355662
783.60 0.2354543
783.70 0.2353425
783.80 0.2352307
783.90 0.235119
784.00 0.2350073
784.10 0.2348957
784.20 0.2347841
784.30 0.2346726
784.40 0.2345611
784.50 0.2344496
784.60 0.2343404
784.70 0.2342363
784.80 0.2341323
784.90 0.2340283
785.00 0.2339244
785.10 0.2338205
785.20 0.2337166
785.30 0.2336128
785.40 0.2335091
785.50 0.2334053
785.60 0.2333017
785.70 0.2331981
785.80 0.2330945
785.90 0.2329909
786.00 0.2328875
786.10 0.232784
786.20 0.2326806
786.30 0.2325773
786.40 0.2324739
786.50 0.2323707
786.60 0.2322675
786.70 0.2321643
786.80 0.2320612
786.90 0.2319581
787.00 0.231855
787.10 0.231752
787.20 0.2316491
787.30 0.2315462
787.40 0.2314433
787.50 0.2313405
787.60 0.2312377
787.70 0.231135
787.80 0.2310323
787.90 0.2309297
788.00 0.2308271
788.10 0.2307246
788.20 0.2306221
788.30 0.2305196
788.40 0.230415
788.50 0.2303094
788.60 0.2302038
788.70 0.2300983
788.80 0.2299928
788.90 0.2298874
789.00 0.229782
789.10 0.2296767
789.20 0.2295714
789.30 0.2294661
789.40 0.2293609
789.50 0.2292558
789.60 0.2291507
789.70 0.2290456
789.80 0.2289406
789.90 0.2288356
790.00 0.2287307
790.10 0.2286258
790.20 0.228521
790.30 0.2284162
790.40 0.2283114
790.50 0.2282068
790.60 0.2281021
790.70 0.2279975
790.80 0.2278929
790.90 0.2277884
791.00 0.227684
791.10 0.2275795
791.20 0.2274752
791.30 0.2273708
791.40 0.2272665
791.50 0.2271623
791.60 0.2270581
791.70 0.2269539
791.80 0.2268498
791.90 0.2267458
792.00 0.2266418
792.10 0.2265378
792.20 0.2264339
792.30 0.22633
792.40 0.2262261
792.50 0.2261223
792.60 0.2260186
792.70 0.2259149
792.80 0.2258112
792.90 0.2257076
793.00 0.225604
793.10 0.2255005
793.20 0.225397
793.30 0.2252936
793.40 0.2251902
793.50 0.2250868
793.60 0.2249835
793.70 0.2248803
793.80 0.2247771
793.90 0.2246739
794.00 0.2245708
794.10 0.2244677
794.20 0.2243646
794.30 0.2242617
794.40 0.2241587
794.50 0.2240558
794.60 0.2239529
794.70 0.2238501
794.80 0.2237474
794.90 0.2236446
795.00 0.223542
795.10 0.2234393
795.20 0.2233367
795.30 0.2232342
795.40 0.2231317
795.50 0.2230293
795.60 0.2229268
795.70 0.2228245
795.80 0.2227222
795.90 0.2226199
796.00 0.2225176
796.10 0.2224155
796.20 0.2223133
796.30 0.2222137
796.40 0.2221147
796.50 0.2220157
796.60 0.2219167
796.70 0.2218178
796.80 0.2217189
796.90 0.2216201
797.00 0.2215213
797.10 0.2214225
797.20 0.2213238
797.30 0.2212252
797.40 0.2211266
797.50 0.221028
797.60 0.2209294
797.70 0.2208309
797.80 0.2207325
797.90 0.2206341
798.00 0.2205357
798.10 0.2204374
798.20 0.2203391
798.30 0.2202409
798.40 0.2201427
798.50 0.2200445
798.60 0.2199464
798.70 0.2198483
798.80 0.2197503
798.90 0.2196523
799.00 0.2195544
799.10 0.2194565
799.20 0.2193586
799.30 0.2192608
799.40 0.219163
799.50 0.2190653
799.60 0.2189676
799.70 0.21887
799.80 0.2187723
799.90 0.2186748
800.00 0.2185773
800.10 0.2184798
800.20 0.2183823
800.30 0.2182849
800.40 0.2181876
800.50 0.2180903
800.60 0.217993
800.70 0.2178958
800.80 0.2177986
800.90 0.2177014
801.00 0.2176043
801.10 0.2175073
801.20 0.2174102
801.30 0.2173133
801.40 0.2172163
801.50 0.2171194
801.60 0.2170226
801.70 0.2169257
801.80 0.216829
801.90 0.2167322
802.00 0.2166356
802.10 0.2165389
802.20 0.2164423
802.30 0.2163457
802.40 0.2162492
802.50 0.2161527
802.60 0.2160563
802.70 0.2159599
802.80 0.2158635
802.90 0.2157672
803.00 0.2156709
803.10 0.2155747
803.20 0.2154785
803.30 0.2153824
803.40 0.2152862
803.50 0.2151902
803.60 0.2150941
803.70 0.2149982
803.80 0.2149022
803.90 0.2148063
804.00 0.2147104
804.10 0.2146146
804.20 0.2145184
804.30 0.2144206
804.40 0.2143229
804.50 0.2142252
804.60 0.2141275
804.70 0.2140299
804.80 0.2139323
804.90 0.2138348
805.00 0.2137373
805.10 0.2136398
805.20 0.2135424
805.30 0.213445
805.40 0.2133477
805.50 0.2132504
805.60 0.2131532
805.70 0.213056
805.80 0.2129588
805.90 0.2128617
806.00 0.2127646
806.10 0.2126676
806.20 0.2125706
806.30 0.2124736
806.40 0.2123767
806.50 0.2122798
806.60 0.212183
806.70 0.2120862
806.80 0.2119895
806.90 0.2118928
807.00 0.2117961
807.10 0.2116995
807.20 0.2116029
807.30 0.2115064
807.40 0.2114099
807.50 0.2113134
807.60 0.211217
807.70 0.2111206
807.80 0.2110243
807.90 0.210928
808.00 0.2108318
808.10 0.2107356
808.20 0.2106394
808.30 0.2105433
808.40 0.2104472
808.50 0.2103511
808.60 0.2102551
808.70 0.2101592
808.80 0.2100632
808.90 0.2099674
809.00 0.2098715
809.10 0.2097757
809.20 0.20968
809.30 0.2095843
809.40 0.2094886
809.50 0.209393
809.60 0.2092974
809.70 0.2092018
809.80 0.2091063
809.90 0.2090108
810.00 0.2089154
810.10 0.20882
810.20 0.2087247
810.30 0.2086293
810.40 0.2085341
810.50 0.2084389
810.60 0.2083437
810.70 0.2082485
810.80 0.2081534
810.90 0.2080584
811.00 0.2079633
811.10 0.2078684
811.20 0.2077734
811.30 0.2076785
811.40 0.2075836
811.50 0.2074888
811.60 0.207394
811.70 0.2072993
811.80 0.2072046
811.90 0.2071099
812.00 0.2070153
812.10 0.2069207
812.20 0.2068262
812.30 0.2067355
812.40 0.2066458
812.50 0.2065561
812.60 0.2064665
812.70 0.2063769
812.80 0.2062873
812.90 0.2061978
813.00 0.2061083
813.10 0.2060189
813.20 0.2059295
813.30 0.2058401
813.40 0.2057508
813.50 0.2056615
813.60 0.2055722
813.70 0.205483
813.80 0.2053938
813.90 0.2053047
814.00 0.2052156
814.10 0.2051265
814.20 0.2050375
814.30 0.2049485
814.40 0.2048595
814.50 0.2047706
814.60 0.2046817
814.70 0.2045929
814.80 0.2045041
814.90 0.2044153
815.00 0.2043266
815.10 0.2042379
815.20 0.2041492
815.30 0.2040606
815.40 0.203972
815.50 0.2038835
815.60 0.203795
815.70 0.2037065
815.80 0.2036181
815.90 0.2035297
816.00 0.2034413
816.10 0.203353
816.20 0.2032647
816.30 0.2031765
816.40 0.2030882
816.50 0.2030001
816.60 0.2029119
816.70 0.2028238
816.80 0.2027358
816.90 0.2026478
817.00 0.2025598
817.10 0.2024718
817.20 0.2023839
817.30 0.202296
817.40 0.2022082
817.50 0.2021204
817.60 0.2020326
817.70 0.2019449
817.80 0.2018572
817.90 0.2017695
818.00 0.2016819
818.10 0.2015943
818.20 0.2015068
818.30 0.2014193
818.40 0.2013318
818.50 0.2012444
818.60 0.201157
818.70 0.2010696
818.80 0.2009823
818.90 0.200895
819.00 0.2008078
819.10 0.2007205
819.20 0.2006334
819.30 0.2005421
819.40 0.2004482
819.50 0.2003544
819.60 0.2002605
819.70 0.2001667
819.80 0.200073
819.90 0.1999793
820.00 0.1998856
820.10 0.199796
820.20 0.1996737
820.30 0.1995424
820.40 0.1994365
820.50 0.1993491
820.60 0.1992617
820.70 0.1991743
820.80 0.199087
820.90 0.1989997
821.00 0.1989124
821.10 0.1988252
821.20 0.1987381
821.30 0.1986509
821.40 0.1985638
821.50 0.1984767
821.60 0.1983897
821.70 0.1983027
821.80 0.1982157
821.90 0.1981288
822.00 0.1980419
822.10 0.1979551
822.20 0.1978683
822.30 0.1977815
822.40 0.1976948
822.50 0.197608
822.60 0.1975214
822.70 0.1974347
822.80 0.1973482
822.90 0.1972616
823.00 0.1971751
823.10 0.1970886
823.20 0.1970021
823.30 0.1969157
823.40 0.1968293
823.50 0.196743
823.60 0.1966567
823.70 0.1965704
823.80 0.1964842
823.90 0.196398
824.00 0.1963118
824.10 0.1962257
824.20 0.1961396
824.30 0.1960536
824.40 0.1959675
824.50 0.1958816
824.60 0.1957956
824.70 0.1957097
824.80 0.1956238
824.90 0.195538
825.00 0.1954522
825.10 0.1953664
825.20 0.1952807
825.30 0.195195
825.40 0.1951093
825.50 0.1950237
825.60 0.1949381
825.70 0.1948526
825.80 0.194767
825.90 0.1946816
826.00 0.1945961
826.10 0.1945107
826.20 0.1944253
826.30 0.1943434
826.40 0.1942637
826.50 0.1941841
826.60 0.1941045
826.70 0.1940249
826.80 0.1939454
826.90 0.1938659
827.00 0.1937865
827.10 0.193707
827.20 0.1936276
827.30 0.1935483
827.40 0.1934689
827.50 0.1933896
827.60 0.1933104
827.70 0.1932311
827.80 0.1931519
827.90 0.1930728
828.00 0.1929936
828.10 0.1929145
828.20 0.1928354
828.30 0.1927564
828.40 0.1926774
828.50 0.1925984
828.60 0.1925163
828.70 0.1924314
828.80 0.1923466
828.90 0.1922619
829.00 0.1921771
829.10 0.1920924
829.20 0.1920078
829.30 0.1919231
829.40 0.1918385
829.50 0.191754
829.60 0.1916694
829.70 0.1915849
829.80 0.1915005
829.90 0.1914161
830.00 0.1913317
830.10 0.1912473
830.20 0.191163
830.30 0.1910787
830.40 0.1909945
830.50 0.1909103
830.60 0.1908261
830.70 0.190742
830.80 0.1906579
830.90 0.1905738
831.00 0.1904898
831.10 0.1904058
831.20 0.1903218
831.30 0.1902379
831.40 0.190154
831.50 0.1900701
831.60 0.1899863
831.70 0.1899025
831.80 0.1898187
831.90 0.189735
832.00 0.1896513
832.10 0.1895677
832.20 0.1894841
832.30 0.1894005
832.40 0.1893169
832.50 0.1892334
832.60 0.1891499
832.70 0.1890665
832.80 0.1889831
832.90 0.1888997
833.00 0.1888164
833.10 0.1887331
833.20 0.1886498
833.30 0.1885665
833.40 0.1884833
833.50 0.1884002
833.60 0.188317
833.70 0.1882339
833.80 0.1881509
833.90 0.1880679
834.00 0.1879849
834.10 0.1879019
834.20 0.187819
834.30 0.1877361
834.40 0.1876532
834.50 0.1875704
834.60 0.1874876
834.70 0.1874049
834.80 0.1873221
834.90 0.1872394
835.00 0.1871568
835.10 0.1870742
835.20 0.1869916
835.30 0.186909
835.40 0.1868265
835.50 0.186744
835.60 0.1866616
835.70 0.1865792
835.80 0.1864968
835.90 0.1864145
836.00 0.1863322
836.10 0.1862499
836.20 0.1861676
836.30 0.1860854
836.40 0.1860033
836.50 0.1859211
836.60 0.185839
836.70 0.1857569
836.80 0.1856749
836.90 0.1855947
837.00 0.1855153
837.10 0.1854359
837.20 0.1853565
837.30 0.1852772
837.40 0.1851979
837.50 0.1851187
837.60 0.1850395
837.70 0.1849603
837.80 0.1848812
837.90 0.1848021
838.00 0.184723
838.10 0.1846439
838.20 0.1845649
838.30 0.1844859
838.40 0.184407
838.50 0.1843281
838.60 0.1842492
838.70 0.1841703
838.80 0.1840915
838.90 0.1840127
839.00 0.1839339
839.10 0.1838552
839.20 0.1837765
839.30 0.1836979
839.40 0.1836192
839.50 0.1835406
839.60 0.1834621
839.70 0.1833836
839.80 0.1833051
839.90 0.1832266
840.00 0.1831481
840.10 0.1830697
840.20 0.1829914
840.30 0.182913
840.40 0.1828347
840.50 0.1827565
840.60 0.1826782
840.70 0.1826
840.80 0.1825218
840.90 0.1824437
841.00 0.1823656
841.10 0.1822875
841.20 0.1822095
841.30 0.1821314
841.40 0.1820535
841.50 0.1819755
841.60 0.1818976
841.70 0.1818197
841.80 0.1817419
841.90 0.1816641
842.00 0.1815863
842.10 0.1815085
842.20 0.1814308
842.30 0.1813531
842.40 0.1812754
842.50 0.1811978
842.60 0.1811202
842.70 0.1810427
842.80 0.1809651
842.90 0.1808876
843.00 0.1808101
843.10 0.1807327
843.20 0.1806553
843.30 0.1805779
843.40 0.1805006
843.50 0.1804233
843.60 0.180346
843.70 0.1802688
843.80 0.1801915
843.90 0.1801144
844.00 0.1800372
844.10 0.1799601
844.20 0.179883
844.30 0.1798059
844.40 0.1797289
844.50 0.1796519
844.60 0.1795749
844.70 0.179498
844.80 0.1794211
844.90 0.1793442
845.00 0.1792674
845.10 0.1791906
845.20 0.1791138
845.30 0.1790376
845.40 0.1789614
845.50 0.1788853
845.60 0.1788092
845.70 0.1787331
845.80 0.1786571
845.90 0.1785811
846.00 0.1785051
846.10 0.1784291
846.20 0.1783532
846.30 0.1782773
846.40 0.1782015
846.50 0.1781256
846.60 0.1780498
846.70 0.1779741
846.80 0.1778983
846.90 0.1778226
847.00 0.177747
847.10 0.1776713
847.20 0.1775957
847.30 0.1775201
847.40 0.1774446
847.50 0.1773691
847.60 0.1772936
847.70 0.1772181
847.80 0.1771427
847.90 0.1770673
848.00 0.1769919
848.10 0.1769166
848.20 0.1768413
848.30 0.176766
848.40 0.1766908
848.50 0.1766156
848.60 0.1765404
848.70 0.1764652
848.80 0.1763901
848.90 0.176315
849.00 0.17624
849.10 0.1761649
849.20 0.1760899
849.30 0.176015
849.40 0.17594
849.50 0.1758651
849.60 0.1757902
849.70 0.1757154
849.80 0.1756406
849.90 0.1755658
850.00 0.175491
850.10 0.1754163
850.20 0.1753416
850.30 0.1752669
850.40 0.1751923
850.50 0.1751177
850.60 0.1750431
850.70 0.1749686
850.80 0.1748941
850.90 0.1748196
851.00 0.1747451
851.10 0.1746707
851.20 0.1745963
851.30 0.1745219
851.40 0.1744476
851.50 0.1743733
851.60 0.174299
851.70 0.1742248
851.80 0.1741506
851.90 0.1740764
852.00 0.1740022
852.10 0.1739281
852.20 0.173854
852.30 0.17378
852.40 0.1737059
852.50 0.1736319
852.60 0.1735579
852.70 0.173484
852.80 0.1734101
852.90 0.1733362
853.00 0.1732624
853.10 0.1731885
853.20 0.1731147
853.30 0.173041
853.40 0.1729672
853.50 0.1728935
853.60 0.1728199
853.70 0.1727465
853.80 0.1726734
853.90 0.1726003
854.00 0.1725273
854.10 0.1724543
854.20 0.1723813
854.30 0.1723084
854.40 0.1722355
854.50 0.1721626
854.60 0.1720898
854.70 0.172017
854.80 0.1719442
854.90 0.1718714
855.00 0.1717987
855.10 0.171726
855.20 0.1716533
855.30 0.1715807
855.40 0.1715081
855.50 0.1714355
855.60 0.1713629
855.70 0.1712904
855.80 0.1712179
855.90 0.1711454
856.00 0.171073
856.10 0.1710006
856.20 0.1709282
856.30 0.1708559
856.40 0.1707835
856.50 0.1707113
856.60 0.170639
856.70 0.1705668
856.80 0.1704946
856.90 0.1704224
857.00 0.1703502
857.10 0.1702781
857.20 0.170206
857.30 0.170134
857.40 0.1700619
857.50 0.1699899
857.60 0.169918
857.70 0.169846
857.80 0.1697741
857.90 0.1697022
858.00 0.1696307
858.10 0.1695593
858.20 0.1694879
858.30 0.1694165
858.40 0.1693452
858.50 0.1692739
858.60 0.1692026
858.70 0.1691314
858.80 0.1690601
858.90 0.168989
859.00 0.1689178
859.10 0.1688467
859.20 0.1687756
859.30 0.1687045
859.40 0.1686334
859.50 0.1685624
859.60 0.1684914
859.70 0.1684205
859.80 0.1683495
859.90 0.1682786
860.00 0.1682078
860.10 0.1681369
860.20 0.1680661
860.30 0.1679953
860.40 0.1679245
860.50 0.1678538
860.60 0.1677831
860.70 0.1677124
860.80 0.1676418
860.90 0.1675711
861.00 0.1675005
861.10 0.16743
861.20 0.1673594
861.30 0.1672889
861.40 0.1672185
861.50 0.167148
861.60 0.1670776
861.70 0.1670072
861.80 0.1669368
861.90 0.1668665
862.00 0.1667962
862.10 0.1667259
862.20 0.1666557
862.30 0.1665864
862.40 0.1665172
862.50 0.1664479
862.60 0.1663787
862.70 0.1663095
862.80 0.1662403
862.90 0.1661712
863.00 0.166102
863.10 0.1660329
863.20 0.1659639
863.30 0.1658949
863.40 0.1658258
863.50 0.1657569
863.60 0.1656879
863.70 0.165619
863.80 0.1655501
863.90 0.1654812
864.00 0.1654124
864.10 0.1653436
864.20 0.1652748
864.30 0.165206
864.40 0.1651373
864.50 0.1650686
864.60 0.1649999
864.70 0.1649313
864.80 0.1648626
864.90 0.164794
865.00 0.1647255
865.10 0.1646569
865.20 0.1645884
865.30 0.1645199
865.40 0.1644515
865.50 0.164383
865.60 0.1643146
865.70 0.1642463
865.80 0.1641779
865.90 0.1641096
866.00 0.1640413
866.10 0.163973
866.20 0.1639048
866.30 0.1638366
866.40 0.1637684
866.50 0.1637002
866.60 0.1636321
866.70 0.163564
866.80 0.1634959
866.90 0.1634278
867.00 0.1633598
867.10 0.1632918
867.20 0.1632239
867.30 0.1631559
867.40 0.163088
867.50 0.1630201
867.60 0.1629522
867.70 0.1628844
867.80 0.1628166
867.90 0.1627488
868.00 0.1626811
868.10 0.1626133
868.20 0.1625456
868.30 0.162478
868.40 0.1624103
868.50 0.1623427
868.60 0.1622751
868.70 0.1622075
868.80 0.16214
868.90 0.1620725
869.00 0.162005
869.10 0.1619375
869.20 0.1618701
869.30 0.1618027
869.40 0.1617353
869.50 0.161668
869.60 0.1616006
869.70 0.1615333
869.80 0.1614661
869.90 0.1613988
870.00 0.1613316
870.10 0.1612644
870.20 0.1611972
870.30 0.1611301
870.40 0.161063
870.50 0.1609959
870.60 0.1609288
870.70 0.1608618
870.80 0.1607948
870.90 0.1607283
871.00 0.1606618
871.10 0.1605954
871.20 0.1605289
871.30 0.1604626
871.40 0.1603962
871.50 0.1603299
871.60 0.1602636
871.70 0.1601973
871.80 0.160131
871.90 0.1600648
872.00 0.1599986
872.10 0.1599324
872.20 0.1598663
872.30 0.1598002
872.40 0.1597341
872.50 0.159668
872.60 0.159602
872.70 0.1595359
872.80 0.1594699
872.90 0.159404
873.00 0.159338
873.10 0.1592721
873.20 0.1592062
873.30 0.1591404
873.40 0.1590745
873.50 0.1590087
873.60 0.1589429
873.70 0.1588772
873.80 0.1588115
873.90 0.1587458
874.00 0.1586801
874.10 0.1586144
874.20 0.1585488
874.30 0.1584832
874.40 0.1584176
874.50 0.1583521
874.60 0.1582865
874.70 0.158221
874.80 0.1581556
874.90 0.1580901
875.00 0.1580247
875.10 0.1579593
875.20 0.1578942
875.30 0.1578296
875.40 0.1577651
875.50 0.1577006
875.60 0.1576361
875.70 0.1575716
875.80 0.1575071
875.90 0.1574427
876.00 0.1573783
876.10 0.157314
876.20 0.1572496
876.30 0.1571853
876.40 0.157121
876.50 0.1570567
876.60 0.1569925
876.70 0.1569283
876.80 0.1568641
876.90 0.1567999
877.00 0.1567358
877.10 0.1566716
877.20 0.1566075
877.30 0.1565435
877.40 0.1564794
877.50 0.1564154
877.60 0.1563514
877.70 0.1562874
877.80 0.1562235
877.90 0.1561596
878.00 0.1560957
878.10 0.1560318
878.20 0.155968
878.30 0.1559042
878.40 0.1558404
878.50 0.1557766
878.60 0.1557129
878.70 0.1556491
878.80 0.1555855
878.90 0.1555218
879.00 0.1554581
879.10 0.1553945
879.20 0.1553309
879.30 0.1552674
879.40 0.1552038
879.50 0.1551403
879.60 0.155077
879.70 0.1550139
879.80 0.1549507
879.90 0.1548876
880.00 0.1548244
880.10 0.1547614
880.20 0.1546983
880.30 0.1546353
880.40 0.1545722
880.50 0.1545092
880.60 0.1544463
880.70 0.1543833
880.80 0.1543204
880.90 0.1542575
881.00 0.1541947
881.10 0.1541318
881.20 0.154069
881.30 0.1540062
881.40 0.1539435
881.50 0.1538807
881.60 0.153818
881.70 0.1537553
881.80 0.1536926
881.90 0.15363
882.00 0.1535674
882.10 0.1535048
882.20 0.1534422
882.30 0.1533796
882.40 0.1533171
882.50 0.1532546
882.60 0.1531921
882.70 0.1531297
882.80 0.1530673
882.90 0.1530049
883.00 0.1529425
883.10 0.1528801
883.20 0.1528178
883.30 0.1527555
883.40 0.1526932
883.50 0.152631
883.60 0.1525687
883.70 0.1525065
883.80 0.1524444
883.90 0.1523822
884.00 0.1523204
884.10 0.1522586
884.20 0.1521969
884.30 0.1521352
884.40 0.1520735
884.50 0.1520119
884.60 0.1519503
884.70 0.1518887
884.80 0.1518271
884.90 0.1517656
885.00 0.151704
885.10 0.1516425
885.20 0.151581
885.30 0.1515196
885.40 0.1514582
885.50 0.1513968
885.60 0.1513354
885.70 0.151274
885.80 0.1512127
885.90 0.1511514
886.00 0.1510901
886.10 0.1510288
886.20 0.1509676
886.30 0.1509064
886.40 0.1508452
886.50 0.150784
886.60 0.1507228
886.70 0.1506617
886.80 0.1506006
886.90 0.1505396
887.00 0.1504785
887.10 0.1504175
887.20 0.1503565
887.30 0.1502955
887.40 0.1502345
887.50 0.1501736
887.60 0.1501127
887.70 0.1500518
887.80 0.149991
887.90 0.1499301
888.00 0.1498693
888.10 0.1498085
888.20 0.1497477
888.30 0.149687
888.40 0.1496268
888.50 0.1495668
888.60 0.1495067
888.70 0.1494467
888.80 0.1493867
888.90 0.1493268
889.00 0.1492668
889.10 0.1492069
889.20 0.149147
889.30 0.1490871
889.40 0.1490273
889.50 0.1489675
889.60 0.1489077
889.70 0.1488479
889.80 0.1487881
889.90 0.1487284
890.00 0.1486687
890.10 0.148609
890.20 0.1485493
890.30 0.1484897
890.40 0.1484301
890.50 0.1483705
890.60 0.1483109
890.70 0.1482513
890.80 0.1481918
890.90 0.1481323
891.00 0.1480728
891.10 0.1480134
891.20 0.1479539
891.30 0.1478945
891.40 0.1478351
891.50 0.1477758
891.60 0.1477164
891.70 0.1476571
891.80 0.1475978
891.90 0.1475385
892.00 0.1474793
892.10 0.14742
892.20 0.1473608
892.30 0.1473017
892.40 0.1472425
892.50 0.1471834
892.60 0.1471242
892.70 0.1470652
892.80 0.1470061
892.90 0.146947
893.00 0.146888
893.10 0.146829
893.20 0.14677
893.30 0.1467111
893.40 0.1466521
893.50 0.1465932
893.60 0.1465343
893.70 0.1464755
893.80 0.1464166
893.90 0.1463578
894.00 0.146299
894.10 0.1462402
894.20 0.1461815
894.30 0.1461228
894.40 0.1460641
894.50 0.1460054
894.60 0.1459467
894.70 0.1458881
894.80 0.1458295
894.90 0.1457709
895.00 0.1457123
895.10 0.1456537
895.20 0.1455952
895.30 0.1455367
895.40 0.1454782
895.50 0.1454198
895.60 0.1453613
895.70 0.1453029
895.80 0.1452445
895.90 0.1451862
896.00 0.1451278
896.10 0.1450695
896.20 0.1450112
896.30 0.1449529
896.40 0.1448947
896.50 0.1448364
896.60 0.1447782
896.70 0.14472
896.80 0.1446619
896.90 0.1446037
897.00 0.1445456
897.10 0.1444875
897.20 0.1444294
897.30 0.144372
897.40 0.1443146
897.50 0.1442572
897.60 0.1441998
897.70 0.1441424
897.80 0.1440851
897.90 0.1440278
898.00 0.1439705
898.10 0.1439132
898.20 0.143856
898.30 0.1437988
898.40 0.1437416
898.50 0.1436844
898.60 0.1436272
898.70 0.1435701
898.80 0.143513
898.90 0.1434559
899.00 0.1433988
899.10 0.1433418
899.20 0.1432847
899.30 0.1432277
899.40 0.1431708
899.50 0.1431138
899.60 0.1430569
899.70 0.1429999
899.80 0.142943
899.90 0.1428862
900.00 0.1428293
900.10 0.1427725
900.20 0.1427157
900.30 0.1426589
900.40 0.1426021
900.50 0.1425454
900.60 0.1424887
900.70 0.142432
900.80 0.1423753
900.90 0.1423186
901.00 0.142262
901.10 0.1422054
901.20 0.1421488
901.30 0.1420922
901.40 0.1420357
901.50 0.1419791
901.60 0.1419226
901.70 0.1418663
901.80 0.1418105
901.90 0.1417548
902.00 0.1416991
902.10 0.1416434
902.20 0.1415877
902.30 0.141532
902.40 0.1414764
902.50 0.1414208
902.60 0.1413652
902.70 0.1413096
902.80 0.1412541
902.90 0.1411986
903.00 0.1411431
903.10 0.1410876
903.20 0.1410321
903.30 0.1409767
903.40 0.1409213
903.50 0.1408659
903.60 0.1408105
903.70 0.1407551
903.80 0.1406998
903.90 0.1406445
904.00 0.1405892
904.10 0.1405339
904.20 0.1404787
904.30 0.1404234
904.40 0.1403682
904.50 0.140313
904.60 0.1402579
904.70 0.1402027
904.80 0.1401476
904.90 0.1400925
905.00 0.1400374
905.10 0.1399823
905.20 0.1399273
905.30 0.1398723
905.40 0.1398173
905.50 0.1397623
905.60 0.1397073
905.70 0.1396524
905.80 0.1395975
905.90 0.1395426
906.00 0.1394877
906.10 0.1394329
906.20 0.139378
906.30 0.1393231
906.40 0.1392682
906.50 0.1392133
906.60 0.1391584
906.70 0.1391036
906.80 0.1390488
906.90 0.138994
907.00 0.1389392
907.10 0.1388845
907.20 0.1388297
907.30 0.138775
907.40 0.1387203
907.50 0.1386657
907.60 0.138611
907.70 0.1385564
907.80 0.1385018
907.90 0.1384472
908.00 0.1383926
908.10 0.1383381
908.20 0.1382836
908.30 0.1382291
908.40 0.1381746
908.50 0.1381201
908.60 0.1380657
908.70 0.1380113
908.80 0.1379569
908.90 0.1379025
909.00 0.1378481
909.10 0.1377938
909.20 0.1377395
909.30 0.1376852
909.40 0.1376309
909.50 0.1375766
909.60 0.1375224
909.70 0.1374682
909.80 0.137414
909.90 0.1373598
910.00 0.1373056
910.10 0.1372515
910.20 0.1371974
910.30 0.1371433
910.40 0.1370892
910.50 0.1370352
910.60 0.1369812
910.70 0.1369272
910.80 0.1368738
910.90 0.1368206
911.00 0.1367673
911.10 0.136714
911.20 0.1366608
911.30 0.1366076
911.40 0.1365544
911.50 0.1365013
911.60 0.1364481
911.70 0.136395
911.80 0.1363419
911.90 0.1362888
912.00 0.1362357
912.10 0.1361827
912.20 0.1361297
912.30 0.1360766
912.40 0.1360237
912.50 0.1359707
912.60 0.1359177
912.70 0.1358648
912.80 0.1358119
912.90 0.135759
913.00 0.1357062
913.10 0.1356533
913.20 0.1356005
913.30 0.1355477
913.40 0.1354949
913.50 0.1354421
913.60 0.1353894
913.70 0.1353367
913.80 0.1352839
913.90 0.1352313
914.00 0.1351786
914.10 0.1351259
914.20 0.1350733
914.30 0.1350207
914.40 0.1349681
914.50 0.1349155
914.60 0.134863
914.70 0.1348105
914.80 0.134758
914.90 0.1347055
915.00 0.134653
915.10 0.1346005
915.20 0.1345481
915.30 0.1344959
915.40 0.1344437
915.50 0.1343915
915.60 0.1343394
915.70 0.1342873
915.80 0.1342352
915.90 0.1341832
916.00 0.1341311
916.10 0.1340791
916.20 0.1340271
916.30 0.1339751
916.40 0.1339231
916.50 0.1338712
916.60 0.1338192
916.70 0.1337673
916.80 0.1337154
916.90 0.1336636
917.00 0.1336117
917.10 0.1335599
917.20 0.1335081
917.30 0.1334563
917.40 0.1334045
917.50 0.1333527
917.60 0.133301
917.70 0.1332493
917.80 0.1331976
917.90 0.1331459
918.00 0.1330942
918.10 0.1330426
918.20 0.132991
918.30 0.1329394
918.40 0.1328878
918.50 0.1328362
918.60 0.1327847
918.70 0.1327332
918.80 0.1326817
918.90 0.1326302
919.00 0.1325787
919.10 0.1325273
919.20 0.1324758
919.30 0.1324244
919.40 0.132373
919.50 0.1323217
919.60 0.1322703
919.70 0.132219
919.80 0.1321677
919.90 0.1321167
920.00 0.1320657
920.10 0.1320148
920.20 0.1319639
920.30 0.131913
920.40 0.1318622
920.50 0.1318113
920.60 0.1317605
920.70 0.1317097
920.80 0.1316589
920.90 0.1316081
921.00 0.1315574
921.10 0.1315066
921.20 0.1314559
921.30 0.1314052
921.40 0.1313545
921.50 0.1313039
921.60 0.1312532
921.70 0.1312026
921.80 0.131152
921.90 0.1311014
922.00 0.1310509
922.10 0.1310003
922.20 0.1309498
922.30 0.1308993
922.40 0.1308488
922.50 0.1307983
922.60 0.1307479
922.70 0.1306975
922.80 0.1306471
922.90 0.1305967
923.00 0.1305463
923.10 0.1304959
923.20 0.1304456
923.30 0.1303953
923.40 0.130345
923.50 0.1302947
923.60 0.1302444
923.70 0.1301942
923.80 0.130144
923.90 0.1300937
924.00 0.1300436
924.10 0.1299934
924.20 0.1299432
924.30 0.1298931
924.40 0.129843
924.50 0.1297932
924.60 0.1297433
924.70 0.1296935
924.80 0.1296436
924.90 0.1295938
925.00 0.1295441
925.10 0.1294943
925.20 0.1294445
925.30 0.1293948
925.40 0.1293451
925.50 0.1292954
925.60 0.1292457
925.70 0.1291961
925.80 0.1291465
925.90 0.1290968
926.00 0.1290472
926.10 0.1289977
926.20 0.1289481
926.30 0.1288985
926.40 0.128849
926.50 0.1287995
926.60 0.12875
926.70 0.1287006
926.80 0.1286511
926.90 0.1286017
927.00 0.1285523
927.10 0.1285029
927.20 0.1284535
927.30 0.1284041
927.40 0.1283548
927.50 0.1283055
927.60 0.1282562
927.70 0.1282069
927.80 0.1281576
927.90 0.1281083
928.00 0.1280591
928.10 0.1280099
928.20 0.1279607
928.30 0.1279115
928.40 0.1278624
928.50 0.1278132
928.60 0.1277641
928.70 0.127715
928.80 0.1276659
928.90 0.1276168
929.00 0.1275678
929.10 0.1275191
929.20 0.1274704
929.30 0.1274217
929.40 0.1273731
929.50 0.1273244
929.60 0.1272758
929.70 0.1272272
929.80 0.1271786
929.90 0.12713
930.00 0.1270815
930.10 0.127033
930.20 0.1269844
930.30 0.126936
930.40 0.1268875
930.50 0.126839
930.60 0.1267906
930.70 0.1267422
930.80 0.1266938
930.90 0.1266454
931.00 0.126597
931.10 0.1265486
931.20 0.1265003
931.30 0.126452
931.40 0.1264037
931.50 0.1263554
931.60 0.1263072
931.70 0.1262589
931.80 0.1262107
931.90 0.1261625
932.00 0.1261143
932.10 0.1260661
932.20 0.126018
932.30 0.1259698
932.40 0.1259217
932.50 0.1258736
932.60 0.1258255
932.70 0.1257774
932.80 0.1257294
932.90 0.1256814
933.00 0.1256334
933.10 0.1255854
933.20 0.1255374
933.30 0.1254894
933.40 0.1254415
933.50 0.1253936
933.60 0.1253456
933.70 0.1252981
933.80 0.1252508
933.90 0.1252035
934.00 0.1251561
934.10 0.1251088
934.20 0.1250616
934.30 0.1250143
934.40 0.1249671
934.50 0.1249198
934.60 0.1248726
934.70 0.1248254
934.80 0.1247783
934.90 0.1247311
935.00 0.124684
935.10 0.1246368
935.20 0.1245897
935.30 0.1245426
935.40 0.1244956
935.50 0.1244485
935.60 0.1244015
935.70 0.1243545
935.80 0.1243074
935.90 0.1242605
936.00 0.1242135
936.10 0.1241665
936.20 0.1241196
936.30 0.1240727
936.40 0.1240258
936.50 0.1239789
936.60 0.123932
936.70 0.1238852
936.80 0.1238384
936.90 0.1237916
937.00 0.1237448
937.10 0.123698
937.20 0.1236512
937.30 0.1236045
937.40 0.1235577
937.50 0.123511
937.60 0.1234643
937.70 0.1234177
937.80 0.123371
937.90 0.1233244
938.00 0.1232777
938.10 0.1232311
938.20 0.1231845
938.30 0.123138
938.40 0.1230914
938.50 0.1230449
938.60 0.1229983
938.70 0.1229518
938.80 0.1229054
938.90 0.1228589
939.00 0.1228124
939.10 0.122766
939.20 0.1227196
939.30 0.1226732
939.40 0.1226268
939.50 0.1225804
939.60 0.1225341
939.70 0.1224877
939.80 0.1224414
939.90 0.1223951
940.00 0.1223488
940.10 0.1223025
940.20 0.1222563
940.30 0.1222101
940.40 0.1221638
940.50 0.1221176
940.60 0.1220715
940.70 0.1220253
940.80 0.1219791
940.90 0.121933
941.00 0.1218869
941.10 0.1218408
941.20 0.1217947
941.30 0.1217486
941.40 0.1217026
941.50 0.1216566
941.60 0.1216105
941.70 0.1215645
941.80 0.1215186
941.90 0.1214726
942.00 0.1214267
942.10 0.1213807
942.20 0.1213348
942.30 0.1212889
942.40 0.121243
942.50 0.1211972
942.60 0.1211513
942.70 0.1211055
942.80 0.1210597
942.90 0.1210139
943.00 0.1209683
943.10 0.120923
943.20 0.1208778
943.30 0.1208326
943.40 0.1207874
943.50 0.1207422
943.60 0.120697
943.70 0.1206518
943.80 0.1206067
943.90 0.1205616
944.00 0.1205165
944.10 0.1204714
944.20 0.1204263
944.30 0.1203812
944.40 0.1203362
944.50 0.1202912
944.60 0.1202461
944.70 0.1202012
944.80 0.1201562
944.90 0.1201112
945.00 0.1200663
945.10 0.1200213
945.20 0.1199764
945.30 0.1199315
945.40 0.1198866
945.50 0.1198418
945.60 0.1197969
945.70 0.1197521
945.80 0.1197073
945.90 0.1196625
946.00 0.1196177
946.10 0.1195729
946.20 0.1195282
946.30 0.1194835
946.40 0.1194387
946.50 0.119394
946.60 0.1193494
946.70 0.1193047
946.80 0.11926
946.90 0.1192154
947.00 0.1191708
947.10 0.1191262
947.20 0.1190816
947.30 0.119037
947.40 0.1189925
947.50 0.1189479
947.60 0.1189034
947.70 0.1188589
947.80 0.1188144
947.90 0.1187699
948.00 0.1187255
948.10 0.118681
948.20 0.1186366
948.30 0.1185922
948.40 0.1185478
948.50 0.1185034
948.60 0.118459
948.70 0.1184147
948.80 0.1183704
948.90 0.1183261
949.00 0.1182818
949.10 0.1182375
949.20 0.1181932
949.30 0.118149
949.40 0.1181047
949.50 0.1180605
949.60 0.1180163
949.70 0.1179721
949.80 0.117928
949.90 0.1178838
950.00 0.1178397
950.10 0.1177955
950.20 0.1177514
950.30 0.1177073
950.40 0.1176633
950.50 0.1176192
950.60 0.1175752
950.70 0.1175311
950.80 0.1174871
950.90 0.1174431
951.00 0.1173992
951.10 0.1173552
951.20 0.1173113
951.30 0.1172673
951.40 0.1172234
951.50 0.1171795
951.60 0.1171356
951.70 0.1170918
951.80 0.1170479
951.90 0.1170041
952.00 0.1169603
952.10 0.1169164
952.20 0.1168727
952.30 0.1168289
952.40 0.1167851
952.50 0.1167416
952.60 0.1166981
952.70 0.1166545
952.80 0.116611
952.90 0.1165675
953.00 0.1165241
953.10 0.1164806
953.20 0.1164372
953.30 0.1163938
953.40 0.1163503
953.50 0.1163069
953.60 0.1162636
953.70 0.1162202
953.80 0.1161769
953.90 0.1161335
954.00 0.1160902
954.10 0.1160469
954.20 0.1160036
954.30 0.1159604
954.40 0.1159171
954.50 0.1158739
954.60 0.1158306
954.70 0.1157874
954.80 0.1157442
954.90 0.1157011
955.00 0.1156579
955.10 0.1156148
955.20 0.1155716
955.30 0.1155285
955.40 0.1154854
955.50 0.1154423
955.60 0.1153993
955.70 0.1153562
955.80 0.1153132
955.90 0.1152702
956.00 0.1152272
956.10 0.1151842
956.20 0.1151412
956.30 0.1150982
956.40 0.1150553
956.50 0.1150124
956.60 0.1149695
956.70 0.1149266
956.80 0.1148837
956.90 0.1148408
957.00 0.114798
957.10 0.1147551
957.20 0.1147124
957.30 0.1146699
957.40 0.1146274
957.50 0.114585
957.60 0.1145425
957.70 0.1145
957.80 0.1144576
957.90 0.1144152
958.00 0.1143728
958.10 0.1143304
958.20 0.114288
958.30 0.1142457
958.40 0.1142033
958.50 0.114161
958.60 0.1141187
958.70 0.1140764
958.80 0.1140341
958.90 0.1139918
959.00 0.1139496
959.10 0.1139073
959.20 0.1138651
959.30 0.1138229
959.40 0.1137807
959.50 0.1137385
959.60 0.1136964
959.70 0.1136542
959.80 0.1136121
959.90 0.11357
960.00 0.1135279
960.10 0.1134858
960.20 0.1134437
960.30 0.1134017
960.40 0.1133596
960.50 0.1133176
960.60 0.1132756
960.70 0.1132336
960.80 0.1131916
960.90 0.1131497
961.00 0.1131077
961.10 0.1130658
961.20 0.1130239
961.30 0.112982
961.40 0.1129401
961.50 0.1128982
961.60 0.1128563
961.70 0.1128145
961.80 0.1127727
961.90 0.1127308
962.00 0.1126893
962.10 0.1126478
962.20 0.1126064
962.30 0.112565
962.40 0.1125236
962.50 0.1124822
962.60 0.1124408
962.70 0.1123994
962.80 0.112358
962.90 0.1123167
963.00 0.1122754
963.10 0.1122341
963.20 0.1121928
963.30 0.1121515
963.40 0.1121102
963.50 0.112069
963.60 0.1120277
963.70 0.1119865
963.80 0.1119453
963.90 0.1119041
964.00 0.1118629
964.10 0.1118217
964.20 0.1117806
964.30 0.1117395
964.40 0.1116983
964.50 0.1116572
964.60 0.1116161
964.70 0.1115751
964.80 0.111534
964.90 0.111493
965.00 0.1114519
965.10 0.1114109
965.20 0.1113699
965.30 0.1113289
965.40 0.1112879
965.50 0.111247
965.60 0.111206
965.70 0.1111651
965.80 0.1111242
965.90 0.1110833
966.00 0.1110424
966.10 0.1110015
966.20 0.1109607
966.30 0.1109198
966.40 0.110879
966.50 0.1108382
966.60 0.1107974
966.70 0.1107566
966.80 0.1107158
966.90 0.1106751
967.00 0.1106343
967.10 0.1105936
967.20 0.1105529
967.30 0.1105122
967.40 0.1104715
967.50 0.1104308
967.60 0.1103902
967.70 0.1103495
967.80 0.1103089
967.90 0.1102683
968.00 0.1102277
968.10 0.1101871
968.20 0.1101465
968.30 0.110106
968.40 0.1100654
968.50 0.1100249
968.60 0.1099844
968.70 0.1099439
968.80 0.1099034
968.90 0.109863
969.00 0.1098225
969.10 0.1097821
969.20 0.1097416
969.30 0.1097012
969.40 0.1096608
969.50 0.1096204
969.60 0.1095801
969.70 0.1095397
969.80 0.1094994
969.90 0.1094591
970.00 0.1094187
970.10 0.1093785
970.20 0.1093382
970.30 0.1092979
970.40 0.1092576
970.50 0.1092174
970.60 0.1091772
970.70 0.109137
970.80 0.1090968
970.90 0.1090566
971.00 0.1090164
971.10 0.1089763
971.20 0.1089361
971.30 0.108896
971.40 0.1088559
971.50 0.1088158
971.60 0.108776
971.70 0.1087364
971.80 0.1086968
971.90 0.1086572
972.00 0.1086176
972.10 0.1085781
972.20 0.1085385
972.30 0.108499
972.40 0.1084595
972.50 0.10842
972.60 0.1083805
972.70 0.108341
972.80 0.1083016
972.90 0.1082621
973.00 0.1082227
973.10 0.1081833
973.20 0.1081439
973.30 0.1081045
973.40 0.1080651
973.50 0.1080257
973.60 0.1079864
973.70 0.1079471
973.80 0.1079077
973.90 0.1078684
974.00 0.1078291
974.10 0.1077899
974.20 0.1077506
974.30 0.1077113
974.40 0.1076721
974.50 0.1076329
974.60 0.1075937
974.70 0.1075545
974.80 0.1075153
974.90 0.1074761
975.00 0.107437
975.10 0.1073978
975.20 0.1073587
975.30 0.1073196
975.40 0.1072805
975.50 0.1072414
975.60 0.1072023
975.70 0.1071633
975.80 0.1071242
975.90 0.1070852
976.00 0.1070462
976.10 0.1070072
976.20 0.1069682
976.30 0.1069292
976.40 0.1068902
976.50 0.1068513
976.60 0.1068124
976.70 0.1067734
976.80 0.1067345
976.90 0.1066956
977.00 0.1066568
977.10 0.1066179
977.20 0.106579
977.30 0.1065402
977.40 0.1065014
977.50 0.1064626
977.60 0.1064238
977.70 0.106385
977.80 0.1063462
977.90 0.1063074
978.00 0.1062687
978.10 0.10623
978.20 0.1061913
978.30 0.1061526
978.40 0.1061139
978.50 0.1060752
978.60 0.1060365
978.70 0.1059979
978.80 0.1059592
978.90 0.1059206
979.00 0.105882
979.10 0.1058434
979.20 0.1058048
979.30 0.1057663
979.40 0.1057277
979.50 0.1056892
979.60 0.1056507
979.70 0.1056121
979.80 0.1055736
979.90 0.1055352
980.00 0.1054967
980.10 0.1054582
980.20 0.1054198
980.30 0.1053814
980.40 0.1053429
980.50 0.1053045
980.60 0.1052661
980.70 0.1052278
980.80 0.1051894
980.90 0.105151
981.00 0.1051127
981.10 0.1050744
981.20 0.1050361
981.30 0.1049979
981.40 0.1049597
981.50 0.1049216
981.60 0.1048836
981.70 0.1048455
981.80 0.1048074
981.90 0.1047694
982.00 0.1047313
982.10 0.1046933
982.20 0.1046553
982.30 0.1046173
982.40 0.1045793
982.50 0.1045414
982.60 0.1045034
982.70 0.1044655
982.80 0.1044275
982.90 0.1043896
983.00 0.1043517
983.10 0.1043138
983.20 0.104276
983.30 0.1042381
983.40 0.1042002
983.50 0.1041624
983.60 0.1041246
983.70 0.1040868
983.80 0.104049
983.90 0.1040112
984.00 0.1039734
984.10 0.1039357
984.20 0.1038979
984.30 0.1038602
984.40 0.1038225
984.50 0.1037848
984.60 0.1037471
984.70 0.1037094
984.80 0.1036717
984.90 0.1036341
985.00 0.1035965
985.10 0.1035588
985.20 0.1035212
985.30 0.1034836
985.40 0.103446
985.50 0.1034085
985.60 0.1033709
985.70 0.1033334
985.80 0.1032958
985.90 0.1032583
986.00 0.1032208
986.10 0.1031833
986.20 0.1031458
986.30 0.1031084
986.40 0.1030709
986.50 0.1030335
986.60 0.102996
986.70 0.1029586
986.80 0.1029212
986.90 0.1028838
987.00 0.1028464
987.10 0.1028091
987.20 0.1027717
987.30 0.1027344
987.40 0.1026971
987.50 0.1026598
987.60 0.1026225
987.70 0.1025852
987.80 0.1025479
987.90 0.1025106
988.00 0.1024734
988.10 0.1024362
988.20 0.1023989
988.30 0.1023617
988.40 0.1023245
988.50 0.1022874
988.60 0.1022502
988.70 0.102213
988.80 0.1021759
988.90 0.1021388
989.00 0.1021017
989.10 0.1020645
989.20 0.1020275
989.30 0.1019904
989.40 0.1019533
989.50 0.1019163
989.60 0.1018792
989.70 0.1018422
989.80 0.1018052
989.90 0.1017682
990.00 0.1017312
990.10 0.1016942
990.20 0.1016573
990.30 0.1016203
990.40 0.1015834
990.50 0.1015464
990.60 0.1015095
990.70 0.1014726
990.80 0.1014358
990.90 0.1013989
991.00 0.101362
991.10 0.1013254
991.20 0.1012891
991.30 0.1012528
991.40 0.1012166
991.50 0.1011804
991.60 0.1011441
991.70 0.1011079
991.80 0.1010717
991.90 0.1010355
992.00 0.1009993
992.10 0.1009632
992.20 0.100927
992.30 0.1008909
992.40 0.1008548
992.50 0.1008186
992.60 0.1007825
992.70 0.1007465
992.80 0.1007104
992.90 0.1006743
993.00 0.1006383
993.10 0.1006022
993.20 0.1005662
993.30 0.1005302
993.40 0.1004942
993.50 0.1004582
993.60 0.1004222
993.70 0.1003862
993.80 0.1003503
993.90 0.1003144
994.00 0.1002784
994.10 0.1002425
994.20 0.1002066
994.30 0.1001707
994.40 0.1001348
994.50 0.100099
994.60 0.1000631
994.70 0.1000273
994.80 0.09999146
994.90 0.09995564
995.00 0.09991984
995.10 0.09988405
995.20 0.09984827
995.30 0.0998125
995.40 0.09977675
995.50 0.09974101
995.60 0.09970528
995.70 0.09966956
995.80 0.09963386
995.90 0.09959816
996.00 0.09956248
996.10 0.09952661
996.20 0.09949069
996.30 0.09945479
996.40 0.0994189
996.50 0.09938303
996.60 0.09934716
996.70 0.09931131
996.80 0.09927547
996.90 0.09923965
997.00 0.09920383
997.10 0.09916803
997.20 0.09913224
997.30 0.09909647
997.40 0.0990607
997.50 0.09902495
997.60 0.09898921
997.70 0.09895348
997.80 0.09891777
997.90 0.09888206
998.00 0.09884637
998.10 0.0988107
998.20 0.09877503
998.30 0.09873938
998.40 0.09870373
998.50 0.09866811
998.60 0.09863249
998.70 0.09859688
998.80 0.09856129
998.90 0.09852571
999.00 0.09849015
999.10 0.09845459
999.20 0.09841905
999.30 0.09838352
999.40 0.098348
999.50 0.09831249
999.60 0.098277
999.70 0.09824152
999.80 0.09820605
999.90 0.09817059
1000.00 0.09813514
1000.10 0.09809971
1000.20 0.09806429
1000.30 0.09802888
1000.40 0.09799348
1000.50 0.0979581
1000.60 0.09792273
1000.70 0.09788737
1000.80 0.09785202
1000.90 0.09781669
1001.00 0.09778147
1001.10 0.09774657
1001.20 0.09771168
1001.30 0.0976768
1001.40 0.09764194
1001.50 0.09760709
1001.60 0.09757225
1001.70 0.09753742
1001.80 0.0975026
1001.90 0.0974678
1002.00 0.097433
1002.10 0.09739822
1002.20 0.09736345
1002.30 0.0973287
1002.40 0.09729395
1002.50 0.09725922
1002.60 0.0972245
1002.70 0.09718979
1002.80 0.09715509
1002.90 0.0971204
1003.00 0.09708573
1003.10 0.09705107
1003.20 0.09701642
1003.30 0.09698178
1003.40 0.09694716
1003.50 0.09691254
1003.60 0.09687794
1003.70 0.09684335
1003.80 0.09680877
1003.90 0.0967742
1004.00 0.09673965
1004.10 0.09670511
1004.20 0.09667057
1004.30 0.09663606
1004.40 0.09660155
1004.50 0.09656705
1004.60 0.09653257
1004.70 0.0964981
1004.80 0.09646364
1004.90 0.09642919
1005.00 0.09639475
1005.10 0.09636033
1005.20 0.09632591
1005.30 0.09629151
1005.40 0.09625712
1005.50 0.09622274
1005.60 0.09618838
1005.70 0.09615402
1005.80 0.09611968
1005.90 0.09608535
1006.00 0.09605103
1006.10 0.09601672
1006.20 0.09598242
1006.30 0.09594814
1006.40 0.09591386
1006.50 0.0958796
1006.60 0.09584535
1006.70 0.09581111
1006.80 0.09577688
1006.90 0.09574266
1007.00 0.09570846
1007.10 0.09567427
1007.20 0.09564008
1007.30 0.09560591
1007.40 0.09557176
1007.50 0.09553761
1007.60 0.09550348
1007.70 0.09546935
1007.80 0.09543524
1007.90 0.09540114
1008.00 0.09536705
1008.10 0.09533298
1008.20 0.09529891
1008.30 0.09526486
1008.40 0.09523082
1008.50 0.09519679
1008.60 0.09516277
1008.70 0.09512876
1008.80 0.09509477
1008.90 0.09506079
1009.00 0.09502681
1009.10 0.09499285
1009.20 0.09495891
1009.30 0.09492497
1009.40 0.09489104
1009.50 0.09485713
1009.60 0.09482323
1009.70 0.09478934
1009.80 0.09475546
1009.90 0.09472159
1010.00 0.09468773
1010.10 0.09465389
1010.20 0.09462006
1010.30 0.09458624
1010.40 0.09455243
1010.50 0.09451863
1010.60 0.09448484
1010.70 0.09445107
1010.80 0.0944173
1010.90 0.09438355
1011.00 0.09434984
1011.10 0.09431626
1011.20 0.09428269
1011.30 0.09424914
1011.40 0.0942156
1011.50 0.09418206
1011.60 0.09414854
1011.70 0.09411504
1011.80 0.09408154
1011.90 0.09404805
1012.00 0.09401458
1012.10 0.09398112
1012.20 0.09394766
1012.30 0.09391422
1012.40 0.09388079
1012.50 0.09384738
1012.60 0.09381397
1012.70 0.09378058
1012.80 0.09374719
1012.90 0.09371382
1013.00 0.09368046
1013.10 0.09364711
1013.20 0.09361377
1013.30 0.09358045
1013.40 0.09354713
1013.50 0.09351383
1013.60 0.09348053
1013.70 0.09344725
1013.80 0.09341398
1013.90 0.09338072
1014.00 0.09334748
1014.10 0.09331424
1014.20 0.09328102
1014.30 0.0932478
1014.40 0.0932146
1014.50 0.09318141
1014.60 0.09314823
1014.70 0.09311506
1014.80 0.0930819
1014.90 0.09304876
1015.00 0.09301562
1015.10 0.0929825
1015.20 0.09294939
1015.30 0.09291629
1015.40 0.0928832
1015.50 0.09285012
1015.60 0.09281705
1015.70 0.09278399
1015.80 0.09275095
1015.90 0.09271792
1016.00 0.09268489
1016.10 0.09265204
1016.20 0.09261928
1016.30 0.09258654
1016.40 0.09255381
1016.50 0.09252109
1016.60 0.09248838
1016.70 0.09245568
1016.80 0.09242299
1016.90 0.09239031
1017.00 0.09235765
1017.10 0.09232499
1017.20 0.09229235
1017.30 0.09225972
1017.40 0.0922271
1017.50 0.09219449
1017.60 0.09216189
1017.70 0.0921293
1017.80 0.09209672
1017.90 0.09206416
1018.00 0.0920316
1018.10 0.09199906
1018.20 0.09196653
1018.30 0.09193401
1018.40 0.09190149
1018.50 0.09186899
1018.60 0.09183651
1018.70 0.09180403
1018.80 0.09177156
1018.90 0.0917391
1019.00 0.09170666
1019.10 0.09167423
1019.20 0.0916418
1019.30 0.09160939
1019.40 0.09157699
1019.50 0.0915446
1019.60 0.09151222
1019.70 0.09147985
1019.80 0.09144749
1019.90 0.09141515
1020.00 0.09138281
1020.10 0.09135049
1020.20 0.09131817
1020.30 0.09128587
1020.40 0.09125358
1020.50 0.0912213
1020.60 0.09118903
1020.70 0.09115677
1020.80 0.09112452
1020.90 0.09109228
1021.00 0.09106006
1021.10 0.09102785
1021.20 0.09099579
1021.30 0.09096374
1021.40 0.0909317
1021.50 0.09089967
1021.60 0.09086765
1021.70 0.09083565
1021.80 0.09080365
1021.90 0.09077167
1022.00 0.09073969
1022.10 0.09070773
1022.20 0.09067577
1022.30 0.09064383
1022.40 0.0906119
1022.50 0.09057998
1022.60 0.09054807
1022.70 0.09051617
1022.80 0.09048428
1022.90 0.0904524
1023.00 0.09042054
1023.10 0.09038868
1023.20 0.09035683
1023.30 0.090325
1023.40 0.09029317
1023.50 0.09026136
1023.60 0.09022956
1023.70 0.09019776
1023.80 0.09016598
1023.90 0.09013421
1024.00 0.09010245
1024.10 0.0900707
1024.20 0.09003896
1024.30 0.09000724
1024.40 0.08997552
1024.50 0.08994381
1024.60 0.08991212
1024.70 0.08988043
1024.80 0.08984876
1024.90 0.08981709
1025.00 0.08978544
1025.10 0.0897538
1025.20 0.08972216
1025.30 0.08969054
1025.40 0.08965893
1025.50 0.08962733
1025.60 0.08959574
1025.70 0.08956416
1025.80 0.08953259
1025.90 0.08950104
1026.00 0.08946949
1026.10 0.08943795
1026.20 0.08940643
1026.30 0.08937491
1026.40 0.0893434
1026.50 0.0893119
1026.60 0.08928042
1026.70 0.08924894
1026.80 0.08921747
1026.90 0.08918602
1027.00 0.08915458
1027.10 0.08912314
1027.20 0.08909172
1027.30 0.08906031
1027.40 0.0890289
1027.50 0.08899751
1027.60 0.08896613
1027.70 0.08893476
1027.80 0.0889034
1027.90 0.08887205
1028.00 0.08884071
1028.10 0.08880939
1028.20 0.08877807
1028.30 0.08874676
1028.40 0.08871546
1028.50 0.08868418
1028.60 0.0886529
1028.70 0.08862164
1028.80 0.08859038
1028.90 0.08855914
1029.00 0.0885279
1029.10 0.08849668
1029.20 0.08846547
1029.30 0.08843426
1029.40 0.08840307
1029.50 0.08837189
1029.60 0.08834072
1029.70 0.08830956
1029.80 0.08827841
1029.90 0.08824727
1030.00 0.08821614
1030.10 0.08818502
1030.20 0.08815391
1030.30 0.08812281
1030.40 0.08809172
1030.50 0.08806065
1030.60 0.08802958
1030.70 0.08799852
1030.80 0.08796748
1030.90 0.08793644
1031.00 0.08790542
1031.10 0.0878744
1031.20 0.0878434
1031.30 0.0878124
1031.40 0.08778155
1031.50 0.08775072
1031.60 0.0877199
1031.70 0.08768908
1031.80 0.08765828
1031.90 0.08762749
1032.00 0.08759671
1032.10 0.08756594
1032.20 0.08753518
1032.30 0.08750443
1032.40 0.08747369
1032.50 0.08744296
1032.60 0.08741224
1032.70 0.08738153
1032.80 0.08735083
1032.90 0.08732014
1033.00 0.08728946
1033.10 0.08725879
1033.20 0.08722813
1033.30 0.08719749
1033.40 0.08716685
1033.50 0.08713622
1033.60 0.0871056
1033.70 0.087075
1033.80 0.0870444
1033.90 0.08701381
1034.00 0.08698324
1034.10 0.08695267
1034.20 0.08692211
1034.30 0.08689157
1034.40 0.08686103
1034.50 0.08683051
1034.60 0.08679999
1034.70 0.08676948
1034.80 0.08673899
1034.90 0.0867085
1035.00 0.08667803
1035.10 0.08664757
1035.20 0.08661711
1035.30 0.08658667
1035.40 0.08655623
1035.50 0.08652581
1035.60 0.08649539
1035.70 0.08646499
1035.80 0.0864346
1035.90 0.08640421
1036.00 0.08637384
1036.10 0.08634348
1036.20 0.08631312
1036.30 0.08628278
1036.40 0.08625245
1036.50 0.08622222
1036.60 0.08619213
1036.70 0.08616206
1036.80 0.08613199
1036.90 0.08610194
1037.00 0.0860719
1037.10 0.08604186
1037.20 0.08601184
1037.30 0.08598183
1037.40 0.08595182
1037.50 0.08592183
1037.60 0.08589185
1037.70 0.08586187
1037.80 0.08583191
1037.90 0.08580195
1038.00 0.08577201
1038.10 0.08574208
1038.20 0.08571215
1038.30 0.08568224
1038.40 0.08565233
1038.50 0.08562244
1038.60 0.08559256
1038.70 0.08556268
1038.80 0.08553282
1038.90 0.08550296
1039.00 0.08547312
1039.10 0.08544328
1039.20 0.08541346
1039.30 0.08538364
1039.40 0.08535384
1039.50 0.08532404
1039.60 0.08529426
1039.70 0.08526448
1039.80 0.08523472
1039.90 0.08520496
1040.00 0.08517522
1040.10 0.08514548
1040.20 0.08511575
1040.30 0.08508604
1040.40 0.08505633
1040.50 0.08502664
1040.60 0.08499695
1040.70 0.08496727
1040.80 0.08493761
1040.90 0.08490795
1041.00 0.0848783
1041.10 0.08484866
1041.20 0.08481904
1041.30 0.08478942
1041.40 0.08475981
1041.50 0.08473021
1041.60 0.08470062
1041.70 0.08467116
1041.80 0.08464172
1041.90 0.08461229
1042.00 0.08458288
1042.10 0.08455347
1042.20 0.08452407
1042.30 0.08449469
1042.40 0.08446531
1042.50 0.08443594
1042.60 0.08440658
1042.70 0.08437723
1042.80 0.0843479
1042.90 0.08431857
1043.00 0.08428925
1043.10 0.08425994
1043.20 0.08423064
1043.30 0.08420135
1043.40 0.08417207
1043.50 0.0841428
1043.60 0.08411354
1043.70 0.08408428
1043.80 0.08405504
1043.90 0.08402581
1044.00 0.08399659
1044.10 0.08396737
1044.20 0.08393817
1044.30 0.08390898
1044.40 0.08387979
1044.50 0.08385062
1044.60 0.08382146
1044.70 0.0837923
1044.80 0.08376316
1044.90 0.08373402
1045.00 0.08370489
1045.10 0.08367578
1045.20 0.08364667
1045.30 0.08361757
1045.40 0.08358848
1045.50 0.08355941
1045.60 0.08353034
1045.70 0.08350128
1045.80 0.08347223
1045.90 0.08344319
1046.00 0.08341416
1046.10 0.08338514
1046.20 0.08335613
1046.30 0.08332713
1046.40 0.08329813
1046.50 0.08326915
1046.60 0.08324018
1046.70 0.08321122
1046.80 0.08318226
1046.90 0.08315332
1047.00 0.08312438
1047.10 0.08309546
1047.20 0.08306654
1047.30 0.08303764
1047.40 0.08300874
1047.50 0.08297985
1047.60 0.08295098
1047.70 0.08292211
1047.80 0.08289325
1047.90 0.0828644
1048.00 0.08283556
1048.10 0.08280673
1048.20 0.08277791
1048.30 0.0827491
1048.40 0.0827203
1048.50 0.08269151
1048.60 0.08266272
1048.70 0.08263395
1048.80 0.08260519
1048.90 0.08257643
1049.00 0.08254769
1049.10 0.08251895
1049.20 0.08249023
1049.30 0.08246151
1049.40 0.08243281
1049.50 0.08240411
1049.60 0.08237542
1049.70 0.08234674
1049.80 0.08231807
1049.90 0.08228941
1050.00 0.08226076
1050.10 0.08223212
1050.20 0.08220349
1050.30 0.08217487
1050.40 0.08214626
1050.50 0.08211765
1050.60 0.08208906
1050.70 0.08206047
1050.80 0.0820319
1050.90 0.08200333
1051.00 0.08197478
1051.10 0.08194623
1051.20 0.08191769
1051.30 0.08188917
1051.40 0.08186065
1051.50 0.08183214
1051.60 0.08180364
1051.70 0.08177515
1051.80 0.08174667
1051.90 0.08171819
1052.00 0.08168973
1052.10 0.08166144
1052.20 0.08163323
1052.30 0.08160504
1052.40 0.08157685
1052.50 0.08154868
1052.60 0.08152051
1052.70 0.08149235
1052.80 0.0814642
1052.90 0.08143606
1053.00 0.08140793
1053.10 0.08137981
1053.20 0.0813517
1053.30 0.08132359
1053.40 0.0812955
1053.50 0.08126741
1053.60 0.08123934
1053.70 0.08121127
1053.80 0.08118321
1053.90 0.08115517
1054.00 0.08112713
1054.10 0.0810991
1054.20 0.08107108
1054.30 0.08104307
1054.40 0.08101506
1054.50 0.08098707
1054.60 0.08095909
1054.70 0.08093111
1054.80 0.08090315
1054.90 0.08087519
1055.00 0.08084724
1055.10 0.08081931
1055.20 0.08079138
1055.30 0.08076346
1055.40 0.08073555
1055.50 0.08070765
1055.60 0.08067975
1055.70 0.08065187
1055.80 0.080624
1055.90 0.08059613
1056.00 0.08056828
1056.10 0.08054043
1056.20 0.08051259
1056.30 0.08048476
1056.40 0.08045694
1056.50 0.08042913
1056.60 0.08040133
1056.70 0.08037354
1056.80 0.08034576
1056.90 0.08031798
1057.00 0.08029022
1057.10 0.08026246
1057.20 0.08023471
1057.30 0.08020698
1057.40 0.08017925
1057.50 0.08015153
1057.60 0.08012382
1057.70 0.08009612
1057.80 0.08006842
1057.90 0.08004074
1058.00 0.08001306
1058.10 0.0799854
1058.20 0.07995774
1058.30 0.0799301
1058.40 0.07990246
1058.50 0.07987483
1058.60 0.07984721
1058.70 0.0798196
1058.80 0.07979199
1058.90 0.0797644
1059.00 0.07973682
1059.10 0.07970924
1059.20 0.07968167
1059.30 0.07965412
1059.40 0.07962657
1059.50 0.07959903
1059.60 0.0795715
1059.70 0.07954398
1059.80 0.07951646
1059.90 0.07948896
1060.00 0.07946147
1060.10 0.07943398
1060.20 0.0794065
1060.30 0.07937904
1060.40 0.07935158
1060.50 0.07932413
1060.60 0.07929669
1060.70 0.07926926
1060.80 0.07924183
1060.90 0.07921442
1061.00 0.07918701
1061.10 0.07915962
1061.20 0.07913223
1061.30 0.07910485
1061.40 0.07907748
1061.50 0.07905012
1061.60 0.07902277
1061.70 0.07899543
1061.80 0.07896809
1061.90 0.07894077
1062.00 0.07891345
1062.10 0.07888614
1062.20 0.07885885
1062.30 0.07883156
1062.40 0.07880428
1062.50 0.078777
1062.60 0.07874985
1062.70 0.07872282
1062.80 0.07869581
1062.90 0.0786688
1063.00 0.0786418
1063.10 0.07861482
1063.20 0.07858784
1063.30 0.07856086
1063.40 0.0785339
1063.50 0.07850695
1063.60 0.07848
1063.70 0.07845307
1063.80 0.07842614
1063.90 0.07839922
1064.00 0.07837231
1064.10 0.07834541
1064.20 0.07831851
1064.30 0.07829163
1064.40 0.07826476
1064.50 0.07823789
1064.60 0.07821103
1064.70 0.07818418
1064.80 0.07815734
1064.90 0.07813051
1065.00 0.07810369
1065.10 0.07807687
1065.20 0.07805007
1065.30 0.07802327
1065.40 0.07799648
1065.50 0.0779697
1065.60 0.07794293
1065.70 0.07791617
1065.80 0.07788941
1065.90 0.07786267
1066.00 0.07783593
1066.10 0.07780921
1066.20 0.07778249
1066.30 0.07775578
1066.40 0.07772908
1066.50 0.07770238
1066.60 0.0776757
1066.70 0.07764902
1066.80 0.07762235
1066.90 0.0775957
1067.00 0.07756905
1067.10 0.07754241
1067.20 0.07751577
1067.30 0.07748915
1067.40 0.07746253
1067.50 0.07743593
1067.60 0.07740933
1067.70 0.07738274
1067.80 0.07735616
1067.90 0.07732959
1068.00 0.07730302
1068.10 0.07727646
1068.20 0.07724991
1068.30 0.07722337
1068.40 0.07719684
1068.50 0.07717032
1068.60 0.0771438
1068.70 0.0771173
1068.80 0.0770908
1068.90 0.07706431
1069.00 0.07703783
1069.10 0.07701136
1069.20 0.0769849
1069.30 0.07695844
1069.40 0.076932
1069.50 0.07690556
1069.60 0.07687913
1069.70 0.07685271
1069.80 0.0768263
1069.90 0.07679989
1070.00 0.0767735
1070.10 0.07674711
1070.20 0.07672074
1070.30 0.07669437
1070.40 0.07666801
1070.50 0.07664165
1070.60 0.07661531
1070.70 0.07658898
1070.80 0.07656265
1070.90 0.07653633
1071.00 0.07651002
1071.10 0.07648372
1071.20 0.07645743
1071.30 0.07643114
1071.40 0.07640487
1071.50 0.0763786
1071.60 0.07635234
1071.70 0.07632609
1071.80 0.07629985
1071.90 0.07627362
1072.00 0.07624739
1072.10 0.07622117
1072.20 0.07619497
1072.30 0.07616877
1072.40 0.07614258
1072.50 0.07611639
1072.60 0.07609022
1072.70 0.07606405
1072.80 0.0760379
1072.90 0.07601175
1073.00 0.07598561
1073.10 0.07595947
1073.20 0.07593338
1073.30 0.07590738
1073.40 0.07588139
1073.50 0.07585542
1073.60 0.07582945
1073.70 0.07580348
1073.80 0.07577753
1073.90 0.07575159
1074.00 0.07572565
1074.10 0.07569972
1074.20 0.0756738
1074.30 0.07564789
1074.40 0.07562199
1074.50 0.07559609
1074.60 0.07557021
1074.70 0.07554433
1074.80 0.07551846
1074.90 0.0754926
1075.00 0.07546675
1075.10 0.0754409
1075.20 0.07541506
1075.30 0.07538924
1075.40 0.07536342
1075.50 0.07533761
1075.60 0.0753118
1075.70 0.07528601
1075.80 0.07526022
1075.90 0.07523444
1076.00 0.07520867
1076.10 0.07518291
1076.20 0.07515716
1076.30 0.07513141
1076.40 0.07510568
1076.50 0.07507995
1076.60 0.07505423
1076.70 0.07502851
1076.80 0.07500281
1076.90 0.07497711
1077.00 0.07495143
1077.10 0.07492575
1077.20 0.07490008
1077.30 0.07487441
1077.40 0.07484876
1077.50 0.07482311
1077.60 0.07479748
1077.70 0.07477185
1077.80 0.07474622
1077.90 0.07472061
1078.00 0.07469501
1078.10 0.07466941
1078.20 0.07464382
1078.30 0.07461824
1078.40 0.07459267
1078.50 0.0745671
1078.60 0.07454166
1078.70 0.07451632
1078.80 0.07449099
1078.90 0.07446566
1079.00 0.07444034
1079.10 0.07441503
1079.20 0.07438973
1079.30 0.07436444
1079.40 0.07433915
1079.50 0.07431388
1079.60 0.07428861
1079.70 0.07426335
1079.80 0.07423809
1079.90 0.07421285
1080.00 0.07418761
1080.10 0.07416238
1080.20 0.07413716
1080.30 0.07411195
1080.40 0.07408675
1080.50 0.07406155
1080.60 0.07403636
1080.70 0.07401118
1080.80 0.07398601
1080.90 0.07396084
1081.00 0.07393569
1081.10 0.07391054
1081.20 0.0738854
1081.30 0.07386027
1081.40 0.07383514
1081.50 0.07381003
1081.60 0.07378492
1081.70 0.07375982
1081.80 0.07373473
1081.90 0.07370964
1082.00 0.07368457
1082.10 0.0736595
1082.20 0.07363444
1082.30 0.07360939
1082.40 0.07358435
1082.50 0.07355931
1082.60 0.07353428
1082.70 0.07350926
1082.80 0.07348425
1082.90 0.07345925
1083.00 0.07343425
1083.10 0.07340926
1083.20 0.07338428
1083.30 0.07335931
1083.40 0.07333435
1083.50 0.07330939
1083.60 0.07328444
1083.70 0.0732595
1083.80 0.07323457
1083.90 0.07320965
1084.00 0.07318483
1084.10 0.07316004
1084.20 0.07313525
1084.30 0.07311047
1084.40 0.0730857
1084.50 0.07306094
1084.60 0.07303618
1084.70 0.07301144
1084.80 0.0729867
1084.90 0.07296196
1085.00 0.07293724
1085.10 0.07291252
1085.20 0.07288782
1085.30 0.07286312
1085.40 0.07283842
1085.50 0.07281374
1085.60 0.07278906
1085.70 0.0727644
1085.80 0.07273973
1085.90 0.07271508
1086.00 0.07269044
1086.10 0.0726658
1086.20 0.07264117
1086.30 0.07261655
1086.40 0.07259194
1086.50 0.07256733
1086.60 0.07254273
1086.70 0.07251814
1086.80 0.07249356
1086.90 0.07246898
1087.00 0.07244442
1087.10 0.07241986
1087.20 0.07239531
1087.30 0.07237076
1087.40 0.07234623
1087.50 0.0723217
1087.60 0.07229718
1087.70 0.07227267
1087.80 0.07224816
1087.90 0.07222367
1088.00 0.07219918
1088.10 0.0721747
1088.20 0.07215023
1088.30 0.07212576
1088.40 0.0721013
1088.50 0.07207685
1088.60 0.07205241
1088.70 0.07202798
1088.80 0.07200355
1088.90 0.07197913
1089.00 0.07195472
1089.10 0.07193032
1089.20 0.07190592
1089.30 0.07188153
1089.40 0.07185715
1089.50 0.07183278
1089.60 0.07180841
1089.70 0.07178405
1089.80 0.0717597
1089.90 0.07173536
1090.00 0.07171102
1090.10 0.07168669
1090.20 0.07166237
1090.30 0.07163806
1090.40 0.07161376
1090.50 0.07158946
1090.60 0.07156517
1090.70 0.07154089
1090.80 0.07151661
1090.90 0.07149235
1091.00 0.07146809
1091.10 0.07144384
1091.20 0.07141959
1091.30 0.07139536
1091.40 0.07137113
1091.50 0.07134691
1091.60 0.0713227
1091.70 0.07129849
1091.80 0.0712743
1091.90 0.07125011
1092.00 0.07122592
1092.10 0.07120175
1092.20 0.07117758
1092.30 0.07115342
1092.40 0.07112927
1092.50 0.07110513
1092.60 0.07108099
1092.70 0.07105686
1092.80 0.07103274
1092.90 0.07100863
1093.00 0.07098453
1093.10 0.07096043
1093.20 0.07093634
1093.30 0.07091226
1093.40 0.07088818
1093.50 0.07086411
1093.60 0.07084005
1093.70 0.070816
1093.80 0.07079196
1093.90 0.07076792
1094.00 0.07074389
1094.10 0.07071987
1094.20 0.07069586
1094.30 0.07067185
1094.40 0.07064785
1094.50 0.07062386
1094.60 0.07059988
1094.70 0.0705759
1094.80 0.07055208
1094.90 0.07052843
1095.00 0.07050478
1095.10 0.07048115
1095.20 0.07045751
1095.30 0.07043389
1095.40 0.07041027
1095.50 0.07038666
1095.60 0.07036306
1095.70 0.07033947
1095.80 0.07031588
1095.90 0.0702923
1096.00 0.07026873
1096.10 0.07024517
1096.20 0.07022161
1096.30 0.07019806
1096.40 0.07017452
1096.50 0.07015098
1096.60 0.07012745
1096.70 0.07010393
1096.80 0.07008042
1096.90 0.07005692
1097.00 0.07003342
1097.10 0.07000993
1097.20 0.06998645
1097.30 0.06996297
1097.40 0.0699395
1097.50 0.06991604
1097.60 0.06989259
1097.70 0.06986914
1097.80 0.0698457
1097.90 0.06982227
1098.00 0.06979885
1098.10 0.06977543
1098.20 0.06975202
1098.30 0.06972862
1098.40 0.06970523
1098.50 0.06968184
1098.60 0.06965846
1098.70 0.06963509
1098.80 0.06961172
1098.90 0.06958836
1099.00 0.06956501
1099.10 0.06954167
1099.20 0.06951834
1099.30 0.06949501
1099.40 0.06947169
1099.50 0.06944837
1099.60 0.06942507
1099.70 0.06940177
1099.80 0.06937848
1099.90 0.06935519
1100.00 0.06933191
1100.10 0.06930865
1100.20 0.06928538
1100.30 0.06926213
1100.40 0.06923888
1100.50 0.06921564
1100.60 0.06919241
1100.70 0.06916918
1100.80 0.06914596
1100.90 0.06912275
1101.00 0.06909955
1101.10 0.06907635
1101.20 0.06905316
1101.30 0.06902998
1101.40 0.06900681
1101.50 0.06898364
1101.60 0.06896048
1101.70 0.06893732
1101.80 0.06891418
1101.90 0.06889104
1102.00 0.06886791
1102.10 0.06884479
1102.20 0.06882167
1102.30 0.06879856
1102.40 0.06877546
1102.50 0.06875236
1102.60 0.06872927
1102.70 0.06870619
1102.80 0.06868312
1102.90 0.06866006
1103.00 0.068637
1103.10 0.06861395
1103.20 0.0685909
1103.30 0.06856786
1103.40 0.06854483
1103.50 0.06852181
1103.60 0.0684988
1103.70 0.06847579
1103.80 0.06845279
1103.90 0.06842979
1104.00 0.06840681
1104.10 0.06838383
1104.20 0.06836086
1104.30 0.06833789
1104.40 0.06831493
1104.50 0.06829198
1104.60 0.06826904
1104.70 0.0682461
1104.80 0.06822318
1104.90 0.06820025
1105.00 0.06817734
1105.10 0.06815443
1105.20 0.06813153
1105.30 0.06810864
1105.40 0.06808575
1105.50 0.06806287
1105.60 0.06804
1105.70 0.06801714
1105.80 0.06799448
1105.90 0.06797183
1106.00 0.06794919
1106.10 0.06792655
1106.20 0.06790392
1106.30 0.0678813
1106.40 0.06785868
1106.50 0.06783608
1106.60 0.06781347
1106.70 0.06779088
1106.80 0.06776829
1106.90 0.06774571
1107.00 0.06772314
1107.10 0.06770057
1107.20 0.06767801
1107.30 0.06765546
1107.40 0.06763292
1107.50 0.06761038
1107.60 0.06758785
1107.70 0.06756532
1107.80 0.06754281
1107.90 0.0675203
1108.00 0.06749779
1108.10 0.0674753
1108.20 0.06745281
1108.30 0.06743033
1108.40 0.06740785
1108.50 0.06738538
1108.60 0.06736292
1108.70 0.06734047
1108.80 0.06731802
1108.90 0.06729558
1109.00 0.06727315
1109.10 0.06725072
1109.20 0.0672283
1109.30 0.06720589
1109.40 0.06718349
1109.50 0.06716109
1109.60 0.0671387
1109.70 0.06711632
1109.80 0.06709394
1109.90 0.06707157
1110.00 0.06704921
1110.10 0.06702685
1110.20 0.0670045
1110.30 0.06698216
1110.40 0.06695982
1110.50 0.0669375
1110.60 0.06691517
1110.70 0.06689286
1110.80 0.06687055
1110.90 0.06684825
1111.00 0.06682596
1111.10 0.06680367
1111.20 0.06678139
1111.30 0.06675912
1111.40 0.06673685
1111.50 0.0667146
1111.60 0.06669234
1111.70 0.0666701
1111.80 0.06664786
1111.90 0.06662563
1112.00 0.06660341
1112.10 0.06658119
1112.20 0.06655898
1112.30 0.06653678
1112.40 0.06651458
1112.50 0.06649239
1112.60 0.06647021
1112.70 0.06644803
1112.80 0.06642586
1112.90 0.0664037
1113.00 0.06638154
1113.10 0.0663594
1113.20 0.06633726
1113.30 0.06631512
1113.40 0.06629299
1113.50 0.06627087
1113.60 0.06624876
1113.70 0.06622665
1113.80 0.06620455
1113.90 0.06618246
1114.00 0.06616037
1114.10 0.06613829
1114.20 0.06611622
1114.30 0.06609416
1114.40 0.0660721
1114.50 0.06605004
1114.60 0.066028
1114.70 0.06600596
1114.80 0.06598393
1114.90 0.0659619
1115.00 0.06593989
1115.10 0.06591788
1115.20 0.06589587
1115.30 0.06587387
1115.40 0.06585188
1115.50 0.0658299
1115.60 0.06580792
1115.70 0.06578595
1115.80 0.06576399
1115.90 0.06574203
1116.00 0.06572008
1116.10 0.06569814
1116.20 0.06567621
1116.30 0.06565428
1116.40 0.06563235
1116.50 0.06561044
1116.60 0.06558853
1116.70 0.06556663
1116.80 0.06554482
1116.90 0.06552313
1117.00 0.06550144
1117.10 0.06547975
1117.20 0.06545808
1117.30 0.06543641
1117.40 0.06541475
1117.50 0.06539309
1117.60 0.06537145
1117.70 0.06534981
1117.80 0.06532817
1117.90 0.06530654
1118.00 0.06528492
1118.10 0.06526331
1118.20 0.0652417
1118.30 0.0652201
1118.40 0.0651985
1118.50 0.06517691
1118.60 0.06515533
1118.70 0.06513376
1118.80 0.06511219
1118.90 0.06509063
1119.00 0.06506907
1119.10 0.06504753
1119.20 0.06502598
1119.30 0.06500445
1119.40 0.06498292
1119.50 0.0649614
1119.60 0.06493989
1119.70 0.06491838
1119.80 0.06489688
1119.90 0.06487538
1120.00 0.06485389
1120.10 0.06483241
1120.20 0.06481094
1120.30 0.06478947
1120.40 0.06476801
1120.50 0.06474655
1120.60 0.0647251
1120.70 0.06470366
1120.80 0.06468223
1120.90 0.0646608
1121.00 0.06463938
1121.10 0.06461796
1121.20 0.06459655
1121.30 0.06457515
1121.40 0.06455375
1121.50 0.06453237
1121.60 0.06451098
1121.70 0.06448961
1121.80 0.06446824
1121.90 0.06444688
1122.00 0.06442552
1122.10 0.06440417
1122.20 0.06438283
1122.30 0.06436149
1122.40 0.06434016
1122.50 0.06431884
1122.60 0.06429752
1122.70 0.06427621
1122.80 0.0642549
1122.90 0.0642336
1123.00 0.06421231
1123.10 0.06419103
1123.20 0.06416975
1123.30 0.06414848
1123.40 0.06412721
1123.50 0.06410595
1123.60 0.0640847
1123.70 0.06406345
1123.80 0.06404221
1123.90 0.06402098
1124.00 0.06399975
1124.10 0.06397853
1124.20 0.06395732
1124.30 0.06393611
1124.40 0.06391491
1124.50 0.06389372
1124.60 0.06387253
1124.70 0.06385135
1124.80 0.06383018
1124.90 0.06380901
1125.00 0.06378785
1125.10 0.0637667
1125.20 0.06374555
1125.30 0.06372441
1125.40 0.06370327
1125.50 0.06368214
1125.60 0.06366102
1125.70 0.06363991
1125.80 0.0636188
1125.90 0.06359769
1126.00 0.0635766
1126.10 0.06355551
1126.20 0.06353443
1126.30 0.06351335
1126.40 0.06349228
1126.50 0.06347122
1126.60 0.06345016
1126.70 0.06342911
1126.80 0.06340806
1126.90 0.06338703
1127.00 0.063366
1127.10 0.06334497
1127.20 0.06332395
1127.30 0.06330294
1127.40 0.06328194
1127.50 0.06326094
1127.60 0.06323994
1127.70 0.06321896
1127.80 0.06319798
1127.90 0.06317701
1128.00 0.06315619
1128.10 0.06313541
1128.20 0.06311465
1128.30 0.06309389
1128.40 0.06307314
1128.50 0.06305239
1128.60 0.06303165
1128.70 0.06301091
1128.80 0.06299019
1128.90 0.06296947
1129.00 0.06294875
1129.10 0.06292804
1129.20 0.06290734
1129.30 0.06288664
1129.40 0.06286596
1129.50 0.06284527
1129.60 0.0628246
1129.70 0.06280393
1129.80 0.06278326
1129.90 0.0627626
1130.00 0.06274195
1130.10 0.06272131
1130.20 0.06270067
1130.30 0.06268004
1130.40 0.06265941
1130.50 0.06263879
1130.60 0.06261818
1130.70 0.06259757
1130.80 0.06257697
1130.90 0.06255637
1131.00 0.06253579
1131.10 0.0625152
1131.20 0.06249463
1131.30 0.06247406
1131.40 0.0624535
1131.50 0.06243294
1131.60 0.06241239
1131.70 0.06239184
1131.80 0.06237131
1131.90 0.06235077
1132.00 0.06233025
1132.10 0.06230973
1132.20 0.06228922
1132.30 0.06226871
1132.40 0.06224821
1132.50 0.06222772
1132.60 0.06220723
1132.70 0.06218675
1132.80 0.06216627
1132.90 0.0621458
1133.00 0.06212534
1133.10 0.06210488
1133.20 0.06208443
1133.30 0.06206399
1133.40 0.06204355
1133.50 0.06202312
1133.60 0.0620027
1133.70 0.06198228
1133.80 0.06196186
1133.90 0.06194146
1134.00 0.06192106
1134.10 0.06190066
1134.20 0.06188028
1134.30 0.06185989
1134.40 0.06183952
1134.50 0.06181915
1134.60 0.06179879
1134.70 0.06177843
1134.80 0.06175808
1134.90 0.06173774
1135.00 0.0617174
1135.10 0.06169707
1135.20 0.06167674
1135.30 0.06165642
1135.40 0.06163611
1135.50 0.0616158
1135.60 0.0615955
1135.70 0.06157521
1135.80 0.06155492
1135.90 0.06153464
1136.00 0.06151436
1136.10 0.06149409
1136.20 0.06147383
1136.30 0.06145357
1136.40 0.06143332
1136.50 0.06141307
1136.60 0.06139283
1136.70 0.0613726
1136.80 0.06135237
1136.90 0.06133215
1137.00 0.06131194
1137.10 0.06129173
1137.20 0.06127153
1137.30 0.06125133
1137.40 0.06123114
1137.50 0.06121096
1137.60 0.06119078
1137.70 0.06117061
1137.80 0.06115045
1137.90 0.06113029
1138.00 0.06111013
1138.10 0.06108999
1138.20 0.06106985
1138.30 0.06104971
1138.40 0.06102959
1138.50 0.06100946
1138.60 0.06098935
1138.70 0.06096924
1138.80 0.06094913
1138.90 0.06092904
1139.00 0.06090894
1139.10 0.06088886
1139.20 0.06086878
1139.30 0.06084897
1139.40 0.06082917
1139.50 0.06080937
1139.60 0.06078958
1139.70 0.0607698
1139.80 0.06075002
1139.90 0.06073025
1140.00 0.06071049
1140.10 0.06069073
1140.20 0.06067097
1140.30 0.06065123
1140.40 0.06063149
1140.50 0.06061175
1140.60 0.06059202
1140.70 0.0605723
1140.80 0.06055258
1140.90 0.06053287
1141.00 0.06051317
1141.10 0.06049347
1141.20 0.06047377
1141.30 0.06045409
1141.40 0.06043441
1141.50 0.06041473
1141.60 0.06039506
1141.70 0.0603754
1141.80 0.06035574
1141.90 0.06033609
1142.00 0.06031644
1142.10 0.0602968
1142.20 0.06027717
1142.30 0.06025754
1142.40 0.06023792
1142.50 0.06021831
1142.60 0.0601987
1142.70 0.06017909
1142.80 0.06015949
1142.90 0.0601399
1143.00 0.06012032
1143.10 0.06010074
1143.20 0.06008116
1143.30 0.06006159
1143.40 0.06004203
1143.50 0.06002247
1143.60 0.06000292
1143.70 0.05998338
1143.80 0.05996384
1143.90 0.05994431
1144.00 0.05992478
1144.10 0.05990526
1144.20 0.05988575
1144.30 0.05986624
1144.40 0.05984673
1144.50 0.05982724
1144.60 0.05980775
1144.70 0.05978826
1144.80 0.05976878
1144.90 0.05974931
1145.00 0.05972984
1145.10 0.05971038
1145.20 0.05969092
1145.30 0.05967147
1145.40 0.05965203
1145.50 0.05963259
1145.60 0.05961316
1145.70 0.05959373
1145.80 0.05957431
1145.90 0.05955489
1146.00 0.05953548
1146.10 0.05951608
1146.20 0.05949668
1146.30 0.05947729
1146.40 0.05945791
1146.50 0.05943853
1146.60 0.05941915
1146.70 0.05939979
1146.80 0.05938042
1146.90 0.05936107
1147.00 0.05934172
1147.10 0.05932237
1147.20 0.05930303
1147.30 0.0592837
1147.40 0.05926437
1147.50 0.05924505
1147.60 0.05922574
1147.70 0.05920643
1147.80 0.05918712
1147.90 0.05916783
1148.00 0.05914853
1148.10 0.05912925
1148.20 0.05910997
1148.30 0.05909069
1148.40 0.05907142
1148.50 0.05905216
1148.60 0.0590329
1148.70 0.05901365
1148.80 0.05899441
1148.90 0.05897517
1149.00 0.05895593
1149.10 0.05893671
1149.20 0.05891748
1149.30 0.05889827
1149.40 0.05887906
1149.50 0.05885985
1149.60 0.05884065
1149.70 0.05882146
1149.80 0.05880227
1149.90 0.05878309
1150.00 0.05876391
1150.10 0.05874474
1150.20 0.05872558
1150.30 0.05870642
1150.40 0.05868727
1150.50 0.05866812
1150.60 0.05864899
1150.70 0.05863003
1150.80 0.05861107
1150.90 0.05859211
1151.00 0.05857317
1151.10 0.05855423
1151.20 0.05853529
1151.30 0.05851636
1151.40 0.05849744
1151.50 0.05847852
1151.60 0.0584596
1151.70 0.0584407
1151.80 0.0584218
1151.90 0.0584029
1152.00 0.05838401
1152.10 0.05836513
1152.20 0.05834625
1152.30 0.05832737
1152.40 0.05830851
1152.50 0.05828964
1152.60 0.05827079
1152.70 0.05825194
1152.80 0.05823309
1152.90 0.05821425
1153.00 0.05819542
1153.10 0.05817659
1153.20 0.05815777
1153.30 0.05813895
1153.40 0.05812014
1153.50 0.05810134
1153.60 0.05808254
1153.70 0.05806374
1153.80 0.05804496
1153.90 0.05802617
1154.00 0.0580074
1154.10 0.05798862
1154.20 0.05796986
1154.30 0.0579511
1154.40 0.05793234
1154.50 0.0579136
1154.60 0.05789485
1154.70 0.05787611
1154.80 0.05785738
1154.90 0.05783866
1155.00 0.05781994
1155.10 0.05780122
1155.20 0.05778251
1155.30 0.05776381
1155.40 0.05774511
1155.50 0.05772642
1155.60 0.05770773
1155.70 0.05768905
1155.80 0.05767037
1155.90 0.0576517
1156.00 0.05763304
1156.10 0.05761438
1156.20 0.05759572
1156.30 0.05757708
1156.40 0.05755844
1156.50 0.0575398
1156.60 0.05752117
1156.70 0.05750255
1156.80 0.05748393
1156.90 0.05746532
1157.00 0.05744672
1157.10 0.05742812
1157.20 0.05740952
1157.30 0.05739093
1157.40 0.05737235
1157.50 0.05735377
1157.60 0.0573352
1157.70 0.05731663
1157.80 0.05729807
1157.90 0.05727952
1158.00 0.05726097
1158.10 0.05724242
1158.20 0.05722388
1158.30 0.05720535
1158.40 0.05718682
1158.50 0.0571683
1158.60 0.05714978
1158.70 0.05713127
1158.80 0.05711276
1158.90 0.05709426
1159.00 0.05707577
1159.10 0.05705728
1159.20 0.0570388
1159.30 0.05702032
1159.40 0.05700185
1159.50 0.05698338
1159.60 0.05696492
1159.70 0.05694646
1159.80 0.05692801
1159.90 0.05690957
1160.00 0.05689113
1160.10 0.05687269
1160.20 0.05685426
1160.30 0.05683584
1160.40 0.05681742
1160.50 0.05679901
1160.60 0.0567806
1160.70 0.0567622
1160.80 0.05674381
1160.90 0.05672542
1161.00 0.05670703
1161.10 0.05668865
1161.20 0.05667028
1161.30 0.05665191
1161.40 0.05663355
1161.50 0.05661519
1161.60 0.05659684
1161.70 0.0565785
1161.80 0.05656016
1161.90 0.05654182
1162.00 0.05652349
1162.10 0.05650517
1162.20 0.05648709
1162.30 0.05646903
1162.40 0.05645097
1162.50 0.05643291
1162.60 0.05641486
1162.70 0.05639681
1162.80 0.05637877
1162.90 0.05636074
1163.00 0.05634271
1163.10 0.05632469
1163.20 0.05630667
1163.30 0.05628866
1163.40 0.05627065
1163.50 0.05625265
1163.60 0.05623465
1163.70 0.05621666
1163.80 0.05619867
1163.90 0.05618069
1164.00 0.05616271
1164.10 0.05614474
1164.20 0.05612678
1164.30 0.05610882
1164.40 0.05609087
1164.50 0.05607292
1164.60 0.05605497
1164.70 0.05603703
1164.80 0.0560191
1164.90 0.05600117
1165.00 0.05598325
1165.10 0.05596534
1165.20 0.05594742
1165.30 0.05592952
1165.40 0.05591162
1165.50 0.05589372
1165.60 0.05587583
1165.70 0.05585795
1165.80 0.05584007
1165.90 0.05582219
1166.00 0.05580432
1166.10 0.05578646
1166.20 0.0557686
1166.30 0.05575075
1166.40 0.0557329
1166.50 0.05571506
1166.60 0.05569722
1166.70 0.05567939
1166.80 0.05566156
1166.90 0.05564374
1167.00 0.05562592
1167.10 0.05560811
1167.20 0.05559031
1167.30 0.05557251
1167.40 0.05555471
1167.50 0.05553692
1167.60 0.05551914
1167.70 0.05550136
1167.80 0.05548359
1167.90 0.05546582
1168.00 0.05544806
1168.10 0.0554303
1168.20 0.05541255
1168.30 0.0553948
1168.40 0.05537706
1168.50 0.05535933
1168.60 0.0553416
1168.70 0.05532387
1168.80 0.05530615
1168.90 0.05528844
1169.00 0.05527073
1169.10 0.05525302
1169.20 0.05523533
1169.30 0.05521763
1169.40 0.05519994
1169.50 0.05518226
1169.60 0.05516458
1169.70 0.05514691
1169.80 0.05512924
1169.90 0.05511158
1170.00 0.05509393
1170.10 0.05507627
1170.20 0.05505863
1170.30 0.05504099
1170.40 0.05502335
1170.50 0.05500572
1170.60 0.05498809
1170.70 0.05497047
1170.80 0.05495286
1170.90 0.05493525
1171.00 0.05491764
1171.10 0.05490005
1171.20 0.05488245
1171.30 0.05486486
1171.40 0.05484728
1171.50 0.0548297
1171.60 0.05481213
1171.70 0.05479456
1171.80 0.054777
1171.90 0.05475944
1172.00 0.05474189
1172.10 0.05472434
1172.20 0.0547068
1172.30 0.05468926
1172.40 0.05467173
1172.50 0.0546542
1172.60 0.05463668
1172.70 0.05461916
1172.80 0.05460165
1172.90 0.05458415
1173.00 0.05456665
1173.10 0.05454915
1173.20 0.05453166
1173.30 0.05451418
1173.40 0.0544967
1173.50 0.05447922
1173.60 0.05446175
1173.70 0.05444429
1173.80 0.05442727
1173.90 0.05441037
1174.00 0.05439347
1174.10 0.05437659
1174.20 0.0543597
1174.30 0.05434283
1174.40 0.05432595
1174.50 0.05430908
1174.60 0.05429222
1174.70 0.05427536
1174.80 0.05425851
1174.90 0.05424166
1175.00 0.05422482
1175.10 0.05420798
1175.20 0.05419114
1175.30 0.05417431
1175.40 0.05415749
1175.50 0.05414067
1175.60 0.05412386
1175.70 0.05410705
1175.80 0.05409024
1175.90 0.05407345
1176.00 0.05405665
1176.10 0.05403986
1176.20 0.05402308
1176.30 0.0540063
1176.40 0.05398952
1176.50 0.05397275
1176.60 0.05395599
1176.70 0.05393923
1176.80 0.05392247
1176.90 0.05390572
1177.00 0.05388898
1177.10 0.05387224
1177.20 0.0538555
1177.30 0.05383877
1177.40 0.05382205
1177.50 0.05380533
1177.60 0.05378861
1177.70 0.0537719
1177.80 0.0537552
1177.90 0.0537385
1178.00 0.0537218
1178.10 0.05370511
1178.20 0.05368842
1178.30 0.05367174
1178.40 0.05365506
1178.50 0.05363839
1178.60 0.05362173
1178.70 0.05360506
1178.80 0.05358841
1178.90 0.05357176
1179.00 0.05355511
1179.10 0.05353847
1179.20 0.05352183
1179.30 0.0535052
1179.40 0.05348857
1179.50 0.05347195
1179.60 0.05345529
1179.70 0.05343837
1179.80 0.05342145
1179.90 0.05340453
1180.00 0.05338762
1180.10 0.05337071
1180.20 0.05335381
1180.30 0.05333691
1180.40 0.05332002
1180.50 0.05330314
1180.60 0.05328625
1180.70 0.05326938
1180.80 0.05325251
1180.90 0.05323564
1181.00 0.05321878
1181.10 0.05320192
1181.20 0.05318507
1181.30 0.05316822
1181.40 0.05315138
1181.50 0.05313454
1181.60 0.05311771
1181.70 0.05310088
1181.80 0.05308406
1181.90 0.05306724
1182.00 0.05305043
1182.10 0.05303362
1182.20 0.05301682
1182.30 0.05300002
1182.40 0.05298323
1182.50 0.05296644
1182.60 0.05294966
1182.70 0.05293288
1182.80 0.05291611
1182.90 0.05289934
1183.00 0.05288258
1183.10 0.05286582
1183.20 0.05284907
1183.30 0.05283232
1183.40 0.05281557
1183.50 0.05279884
1183.60 0.0527821
1183.70 0.05276537
1183.80 0.05274865
1183.90 0.05273193
1184.00 0.05271522
1184.10 0.05269851
1184.20 0.0526818
1184.30 0.0526651
1184.40 0.05264841
1184.50 0.05263172
1184.60 0.05261503
1184.70 0.05259835
1184.80 0.05258168
1184.90 0.05256501
1185.00 0.05254834
1185.10 0.05253168
1185.20 0.05251503
1185.30 0.05249838
1185.40 0.05248173
1185.50 0.05246506
1185.60 0.05244834
1185.70 0.05243163
1185.80 0.05241493
1185.90 0.05239823
1186.00 0.05238154
1186.10 0.05236485
1186.20 0.05234816
1186.30 0.05233148
1186.40 0.05231481
1186.50 0.05229814
1186.60 0.05228147
1186.70 0.05226481
1186.80 0.05224815
1186.90 0.0522315
1187.00 0.05221486
1187.10 0.05219822
1187.20 0.05218158
1187.30 0.05216495
1187.40 0.05214832
1187.50 0.0521317
1187.60 0.05211509
1187.70 0.05209847
1187.80 0.05208187
1187.90 0.05206527
1188.00 0.05204867
1188.10 0.05203208
1188.20 0.05201549
1188.30 0.05199891
1188.40 0.05198233
1188.50 0.05196576
1188.60 0.05194919
1188.70 0.05193262
1188.80 0.05191607
1188.90 0.05189951
1189.00 0.05188296
1189.10 0.05186642
1189.20 0.05184988
1189.30 0.05183335
1189.40 0.05181682
1189.50 0.05180029
1189.60 0.05178377
1189.70 0.05176726
1189.80 0.05175075
1189.90 0.05173424
1190.00 0.05171774
1190.10 0.05170125
1190.20 0.05168475
1190.30 0.05166827
1190.40 0.05165179
1190.50 0.05163531
1190.60 0.05161884
1190.70 0.05160237
1190.80 0.05158591
1190.90 0.05156945
1191.00 0.051553
1191.10 0.05153655
1191.20 0.05152011
1191.30 0.05150367
1191.40 0.05148728
1191.50 0.05147116
1191.60 0.05145504
1191.70 0.05143893
1191.80 0.05142282
1191.90 0.05140672
1192.00 0.05139062
1192.10 0.05137452
1192.20 0.05135843
1192.30 0.05134235
1192.40 0.05132626
1192.50 0.05131019
1192.60 0.05129412
1192.70 0.05127805
1192.80 0.05126199
1192.90 0.05124593
1193.00 0.05122988
1193.10 0.05121383
1193.20 0.05119778
1193.30 0.05118175
1193.40 0.05116571
1193.50 0.05114968
1193.60 0.05113366
1193.70 0.05111764
1193.80 0.05110162
1193.90 0.05108561
1194.00 0.0510696
1194.10 0.0510536
1194.20 0.0510376
1194.30 0.05102161
1194.40 0.05100562
1194.50 0.05098964
1194.60 0.05097366
1194.70 0.05095769
1194.80 0.05094172
1194.90 0.05092575
1195.00 0.05090979
1195.10 0.05089384
1195.20 0.05087789
1195.30 0.05086194
1195.40 0.050846
1195.50 0.05083006
1195.60 0.05081413
1195.70 0.0507982
1195.80 0.05078228
1195.90 0.05076636
1196.00 0.05075045
1196.10 0.05073454
1196.20 0.05071863
1196.30 0.05070273
1196.40 0.05068684
1196.50 0.05067095
1196.60 0.05065506
1196.70 0.05063918
1196.80 0.0506233
1196.90 0.05060743
1197.00 0.05059156
1197.10 0.0505757
1197.20 0.05055984
1197.30 0.05054399
1197.40 0.05052807
1197.50 0.05051215
1197.60 0.05049623
1197.70 0.05048032
1197.80 0.05046442
1197.90 0.05044852
1198.00 0.05043262
1198.10 0.05041673
1198.20 0.05040084
1198.30 0.05038495
1198.40 0.05036908
1198.50 0.0503532
1198.60 0.05033733
1198.70 0.05032147
1198.80 0.05030561
1198.90 0.05028975
1199.00 0.0502739
1199.10 0.05025805
1199.20 0.05024221
1199.30 0.05022637
1199.40 0.05021054
1199.50 0.05019471
1199.60 0.05017889
1199.70 0.05016307
1199.80 0.05014725
1199.90 0.05013144
1200.00 0.05011564
