# Version 2.1 - nm, norm@500 to 1, cut digits, bergeron_He_12000_85.dat_12000
# Wavelength(nm)  Flambda(ergs/cm^s/s/nm)
300.00 2.624013
300.10 2.622982
300.20 2.621948
300.30 2.620916
300.40 2.619903
300.50 2.618891
300.60 2.61788
300.70 2.61687
300.80 2.61586
300.90 2.614851
301.00 2.613843
301.10 2.612836
301.20 2.611829
301.30 2.610823
301.40 2.609818
301.50 2.608813
301.60 2.60781
301.70 2.606807
301.80 2.605805
301.90 2.604804
302.00 2.603803
302.10 2.602809
302.20 2.601817
302.30 2.600826
302.40 2.599835
302.50 2.598845
302.60 2.597856
302.70 2.596868
302.80 2.59588
302.90 2.594893
303.00 2.593907
303.10 2.592921
303.20 2.591936
303.30 2.590946
303.40 2.589904
303.50 2.588862
303.60 2.587821
303.70 2.586781
303.80 2.585741
303.90 2.584703
304.00 2.583665
304.10 2.582628
304.20 2.581592
304.30 2.580556
304.40 2.579522
304.50 2.578488
304.60 2.57747
304.70 2.576454
304.80 2.57544
304.90 2.574426
305.00 2.573413
305.10 2.5724
305.20 2.571389
305.30 2.570378
305.40 2.569368
305.50 2.568359
305.60 2.56735
305.70 2.566342
305.80 2.565335
305.90 2.564329
306.00 2.563324
306.10 2.562319
306.20 2.561315
306.30 2.560312
306.40 2.559283
306.50 2.558246
306.60 2.557211
306.70 2.556176
306.80 2.555142
306.90 2.554109
307.00 2.553076
307.10 2.552044
307.20 2.551014
307.30 2.549984
307.40 2.548954
307.50 2.547926
307.60 2.546898
307.70 2.545871
307.80 2.544845
307.90 2.54382
308.00 2.542795
308.10 2.541772
308.20 2.540749
308.30 2.539727
308.40 2.538705
308.50 2.537685
308.60 2.536665
308.70 2.535646
308.80 2.53462
308.90 2.533571
309.00 2.532544
309.10 2.531518
309.20 2.530494
309.30 2.529469
309.40 2.528441
309.50 2.527384
309.60 2.526328
309.70 2.525272
309.80 2.524218
309.90 2.523164
310.00 2.522111
310.10 2.521059
310.20 2.520008
310.30 2.518957
310.40 2.517923
310.50 2.516907
310.60 2.515892
310.70 2.514878
310.80 2.513865
310.90 2.512852
311.00 2.511728
311.10 2.510605
311.20 2.509482
311.30 2.508381
311.40 2.507337
311.50 2.506294
311.60 2.505251
311.70 2.504209
311.80 2.503169
311.90 2.502129
312.00 2.50109
312.10 2.500051
312.20 2.499083
312.30 2.498152
312.40 2.49716
312.50 2.496024
312.60 2.494916
312.70 2.49381
312.80 2.492704
312.90 2.491613
313.00 2.490537
313.10 2.489462
313.20 2.488388
313.30 2.487324
313.40 2.486285
313.50 2.485248
313.60 2.484211
313.70 2.483175
313.80 2.48214
313.90 2.481105
314.00 2.480072
314.10 2.478959
314.20 2.477846
314.30 2.476735
314.40 2.475624
314.50 2.474515
314.60 2.473406
314.70 2.472298
314.80 2.471191
314.90 2.470093
315.00 2.469009
315.10 2.467801
315.20 2.466593
315.30 2.465386
315.40 2.464181
315.50 2.462976
315.60 2.461773
315.70 2.46057
315.80 2.459369
315.90 2.458168
316.00 2.456969
316.10 2.455593
316.20 2.454217
316.30 2.453021
316.40 2.451471
316.50 2.450277
316.60 2.448729
316.70 2.447183
316.80 2.445639
316.90 2.444095
317.00 2.442554
317.10 2.441013
317.20 2.439474
317.30 2.437531
317.40 2.435437
317.50 2.432909
317.60 2.430384
317.70 2.427862
317.80 2.425342
317.90 2.42127
318.00 2.416121
318.10 2.408451
318.20 2.400791
318.30 2.393141
318.40 2.383903
318.50 2.370136
318.60 2.355703
318.70 2.341656
318.80 2.333871
318.90 2.339681
319.00 2.350428
319.10 2.362052
319.20 2.372395
319.30 2.379122
319.40 2.38584
319.50 2.392549
319.60 2.397641
319.70 2.399731
319.80 2.401818
319.90 2.403902
320.00 2.405264
320.10 2.405843
320.20 2.406428
320.30 2.406487
320.40 2.406578
320.50 2.406358
320.60 2.405888
320.70 2.405598
320.80 2.405142
320.90 2.404506
321.00 2.403871
321.10 2.403236
321.20 2.402374
321.30 2.401594
321.40 2.400815
321.50 2.400036
321.60 2.399258
321.70 2.39848
321.80 2.397583
321.90 2.396557
322.00 2.3957
322.10 2.394767
322.20 2.393835
322.30 2.392903
322.40 2.391972
322.50 2.391042
322.60 2.390112
322.70 2.389183
322.80 2.388116
322.90 2.387122
323.00 2.386128
323.10 2.385136
323.20 2.384144
323.30 2.383152
323.40 2.382162
323.50 2.381172
323.60 2.380183
323.70 2.379195
323.80 2.378208
323.90 2.377221
324.00 2.376207
324.10 2.375194
324.20 2.374181
324.30 2.373277
324.40 2.372463
324.50 2.371415
324.60 2.370368
324.70 2.369321
324.80 2.368276
324.90 2.367231
325.00 2.366187
325.10 2.365144
325.20 2.36412
325.30 2.363135
325.40 2.362151
325.50 2.361147
325.60 2.360119
325.70 2.359093
325.80 2.358067
325.90 2.357029
326.00 2.35598
326.10 2.354932
326.20 2.353884
326.30 2.352872
326.40 2.35196
326.50 2.350911
326.60 2.349861
326.70 2.348813
326.80 2.347766
326.90 2.346719
327.00 2.345674
327.10 2.344629
327.20 2.343585
327.30 2.342542
327.40 2.341499
327.50 2.340458
327.60 2.339417
327.70 2.338377
327.80 2.337338
327.90 2.336268
328.00 2.335213
328.10 2.334217
328.20 2.333221
328.30 2.332227
328.40 2.331233
328.50 2.330196
328.60 2.329149
328.70 2.328103
328.80 2.327062
328.90 2.326037
329.00 2.325013
329.10 2.323989
329.20 2.322967
329.30 2.321945
329.40 2.320924
329.50 2.319904
329.60 2.318884
329.70 2.317866
329.80 2.316848
329.90 2.315831
330.00 2.314788
330.10 2.313715
330.20 2.312642
330.30 2.311571
330.40 2.310527
330.50 2.309512
330.60 2.308499
330.70 2.307486
330.80 2.306474
330.90 2.305463
331.00 2.304453
331.10 2.303444
331.20 2.302435
331.30 2.301427
331.40 2.30042
331.50 2.299417
331.60 2.29842
331.70 2.297424
331.80 2.296377
331.90 2.295328
332.00 2.294279
332.10 2.293232
332.20 2.292186
332.30 2.29114
332.40 2.290095
332.50 2.289051
332.60 2.288008
332.70 2.286966
332.80 2.285924
332.90 2.284884
333.00 2.283844
333.10 2.282814
333.20 2.281797
333.30 2.28078
333.40 2.279764
333.50 2.278748
333.60 2.277734
333.70 2.27672
333.80 2.275707
333.90 2.274695
334.00 2.273684
334.10 2.272659
334.20 2.271618
334.30 2.270577
334.40 2.269538
334.50 2.268499
334.60 2.26746
334.70 2.266418
334.80 2.265393
334.90 2.264403
335.00 2.263414
335.10 2.262282
335.20 2.261249
335.30 2.260114
335.40 2.259241
335.50 2.258052
335.60 2.25718
335.70 2.256096
335.80 2.255068
335.90 2.254041
336.00 2.253014
336.10 2.251989
336.20 2.250964
336.30 2.24994
336.40 2.248917
336.50 2.247894
336.60 2.246873
336.70 2.245852
336.80 2.244832
336.90 2.243811
337.00 2.24279
337.10 2.241769
337.20 2.24075
337.30 2.239733
337.40 2.23872
337.50 2.237708
337.60 2.236696
337.70 2.235686
337.80 2.234676
337.90 2.233662
338.00 2.232642
338.10 2.231623
338.20 2.230605
338.30 2.229587
338.40 2.228564
338.50 2.227528
338.60 2.226491
338.70 2.225456
338.80 2.224422
338.90 2.223388
339.00 2.222355
339.10 2.221324
339.20 2.220292
339.30 2.219277
339.40 2.218285
339.50 2.217279
339.60 2.216257
339.70 2.215236
339.80 2.214216
339.90 2.213197
340.00 2.212178
340.10 2.21116
340.20 2.210143
340.30 2.209127
340.40 2.208112
340.50 2.207097
340.60 2.206083
340.70 2.205071
340.80 2.204071
340.90 2.20309
341.00 2.20209
341.10 2.201067
341.20 2.200044
341.30 2.199022
341.40 2.198001
341.50 2.196981
341.60 2.195962
341.70 2.194943
341.80 2.193934
341.90 2.192937
342.00 2.191941
342.10 2.190946
342.20 2.189894
342.30 2.18879
342.40 2.187744
342.50 2.186721
342.60 2.185699
342.70 2.184678
342.80 2.183657
342.90 2.182638
343.00 2.181639
343.10 2.180667
343.20 2.179695
343.30 2.178724
343.40 2.177714
343.50 2.176647
343.60 2.175581
343.70 2.174516
343.80 2.173452
343.90 2.172389
344.00 2.171336
344.10 2.1703
344.20 2.169264
344.30 2.168229
344.40 2.167226
344.50 2.166267
344.60 2.165187
344.70 2.16423
344.80 2.163274
344.90 2.162177
345.00 2.161188
345.10 2.160234
345.20 2.159283
345.30 2.158335
345.40 2.157387
345.50 2.156434
345.60 2.155457
345.70 2.154458
345.80 2.15346
345.90 2.152462
346.00 2.151466
346.10 2.15047
346.20 2.149471
346.30 2.148467
346.40 2.147464
346.50 2.146462
346.60 2.14546
346.70 2.144459
346.80 2.143459
346.90 2.14246
347.00 2.141462
347.10 2.140464
347.20 2.13947
347.30 2.138479
347.40 2.13749
347.50 2.136501
347.60 2.135513
347.70 2.134526
347.80 2.133539
347.90 2.132554
348.00 2.131569
348.10 2.130585
348.20 2.129601
348.30 2.128619
348.40 2.127637
348.50 2.126656
348.60 2.125676
348.70 2.124679
348.80 2.123676
348.90 2.122673
349.00 2.121671
349.10 2.12067
349.20 2.119669
349.30 2.11867
349.40 2.117671
349.50 2.116672
349.60 2.115675
349.70 2.114678
349.80 2.113683
349.90 2.112688
350.00 2.111694
350.10 2.1107
350.20 2.109708
350.30 2.108715
350.40 2.107721
350.50 2.106728
350.60 2.105736
350.70 2.104744
350.80 2.103754
350.90 2.102764
351.00 2.101775
351.10 2.100787
351.20 2.099799
351.30 2.098813
351.40 2.097821
351.50 2.096821
351.60 2.095821
351.70 2.094822
351.80 2.093824
351.90 2.092826
352.00 2.09183
352.10 2.090834
352.20 2.089839
352.30 2.088848
352.40 2.08786
352.50 2.086872
352.60 2.085886
352.70 2.0849
352.80 2.083915
352.90 2.082931
353.00 2.081948
353.10 2.080965
353.20 2.079984
353.30 2.079003
353.40 2.078022
353.50 2.07704
353.60 2.076058
353.70 2.075076
353.80 2.074095
353.90 2.073114
354.00 2.072133
354.10 2.071153
354.20 2.070174
354.30 2.069196
354.40 2.068218
354.50 2.067241
354.60 2.066265
354.70 2.065289
354.80 2.06429
354.90 2.063254
355.00 2.06222
355.10 2.061187
355.20 2.060154
355.30 2.059191
355.40 2.058228
355.50 2.057266
355.60 2.056305
355.70 2.055293
355.80 2.054258
355.90 2.053362
356.00 2.052433
356.10 2.051436
356.20 2.050439
356.30 2.049444
356.40 2.048449
356.50 2.047455
356.60 2.046462
356.70 2.045469
356.80 2.044477
356.90 2.043487
357.00 2.042497
357.10 2.041507
357.20 2.040519
357.30 2.039531
357.40 2.038548
357.50 2.037574
357.60 2.0366
357.70 2.035627
357.80 2.034615
357.90 2.033605
358.00 2.0326
358.10 2.031598
358.20 2.030597
358.30 2.029596
358.40 2.028596
358.50 2.027597
358.60 2.026599
358.70 2.025601
358.80 2.024605
358.90 2.023609
359.00 2.022611
359.10 2.021608
359.20 2.020606
359.30 2.019599
359.40 2.018594
359.50 2.017573
359.60 2.016549
359.70 2.015526
359.80 2.01451
359.90 2.013495
360.00 2.012443
360.10 2.011325
360.20 2.010209
360.30 2.009093
360.40 2.007978
360.50 2.006864
360.60 2.005727
360.70 2.004547
360.80 2.003367
360.90 2.002189
361.00 2.000861
361.10 1.999655
361.20 1.998548
361.30 1.997442
361.40 1.996596
361.50 1.995886
361.60 1.995092
361.70 1.994397
361.80 1.99367
361.90 1.992886
362.00 1.992103
362.10 1.991368
362.20 1.990595
362.30 1.989734
362.40 1.988874
362.50 1.988014
362.60 1.987155
362.70 1.986407
362.80 1.985552
362.90 1.984727
363.00 1.983902
363.10 1.982934
363.20 1.981966
363.30 1.980899
363.40 1.980146
363.50 1.979258
363.60 1.978439
363.70 1.9775
363.80 1.976533
363.90 1.975574
364.00 1.974617
364.10 1.97366
364.20 1.972704
364.30 1.971766
364.40 1.970833
364.50 1.97002
364.60 1.969028
364.70 1.968037
364.80 1.967047
364.90 1.966103
365.00 1.965159
365.10 1.96435
365.20 1.963274
365.30 1.962466
365.40 1.961392
365.50 1.960452
365.60 1.959513
365.70 1.958562
365.80 1.957612
365.90 1.956684
366.00 1.955763
366.10 1.954825
366.20 1.953888
366.30 1.952951
366.40 1.952016
366.50 1.95096
366.60 1.95016
366.70 1.949197
366.80 1.948234
366.90 1.947288
367.00 1.946369
367.10 1.945451
367.20 1.944534
367.30 1.943618
367.40 1.942702
367.50 1.941673
367.60 1.940617
367.70 1.9397
367.80 1.938784
367.90 1.937868
368.00 1.936926
368.10 1.935873
368.20 1.934958
368.30 1.934045
368.40 1.933133
368.50 1.932221
368.60 1.93131
368.70 1.930399
368.80 1.92949
368.90 1.928531
369.00 1.927486
369.10 1.926442
369.20 1.925659
369.30 1.924704
369.40 1.923749
369.50 1.922794
369.60 1.921884
369.70 1.920973
369.80 1.920005
369.90 1.919038
370.00 1.918071
370.10 1.917084
370.20 1.916177
370.30 1.915272
370.40 1.914239
370.50 1.913206
370.60 1.912433
370.70 1.911401
370.80 1.910499
370.90 1.909597
371.00 1.908698
371.10 1.907799
371.20 1.9069
371.30 1.906001
371.40 1.905028
371.50 1.904147
371.60 1.903266
371.70 1.902386
371.80 1.901506
371.90 1.900627
372.00 1.899607
372.10 1.898586
372.20 1.897652
372.30 1.896718
372.40 1.895785
372.50 1.894852
372.60 1.893921
372.70 1.89299
372.80 1.892102
372.90 1.891215
373.00 1.890329
373.10 1.889444
373.20 1.888559
373.30 1.887675
373.40 1.886664
373.50 1.885654
373.60 1.8849
373.70 1.883891
373.80 1.882939
373.90 1.882131
374.00 1.881188
374.10 1.880246
374.20 1.879305
374.30 1.878364
374.40 1.877519
374.50 1.876612
374.60 1.875673
374.70 1.874735
374.80 1.873798
374.90 1.872862
375.00 1.871948
375.10 1.871034
375.20 1.870121
375.30 1.869197
375.40 1.868273
375.50 1.86735
375.60 1.866428
375.70 1.865507
375.80 1.864586
375.90 1.863666
376.00 1.862924
376.10 1.86199
376.20 1.861055
376.30 1.860121
376.40 1.859187
376.50 1.858267
376.60 1.857367
376.70 1.856467
376.80 1.855554
376.90 1.854628
377.00 1.853703
377.10 1.852778
377.20 1.851858
377.30 1.850955
377.40 1.850052
377.50 1.849149
377.60 1.848224
377.70 1.8473
377.80 1.846376
377.90 1.845453
378.00 1.844509
378.10 1.843562
378.20 1.842616
378.30 1.841671
378.40 1.840727
378.50 1.839783
378.60 1.83884
378.70 1.837897
378.80 1.836956
378.90 1.836069
379.00 1.835284
379.10 1.834316
379.20 1.833348
379.30 1.832382
379.40 1.831416
379.50 1.830451
379.60 1.829487
379.70 1.828511
379.80 1.827488
379.90 1.826466
380.00 1.825445
380.10 1.824425
380.20 1.823405
380.30 1.822387
380.40 1.821369
380.50 1.820352
380.60 1.81935
380.70 1.818283
380.80 1.817217
380.90 1.816151
381.00 1.815086
381.10 1.814134
381.20 1.813182
381.30 1.812186
381.40 1.810993
381.50 1.809918
381.60 1.808895
381.70 1.807884
381.80 1.806756
381.90 1.805444
382.00 1.804621
382.10 1.804042
382.20 1.803561
382.30 1.80286
382.40 1.80213
382.50 1.801354
382.60 1.800578
382.70 1.799843
382.80 1.799112
382.90 1.798342
383.00 1.797573
383.10 1.796804
383.20 1.796028
383.30 1.795225
383.40 1.794438
383.50 1.793675
383.60 1.79299
383.70 1.792151
383.80 1.791313
383.90 1.790475
384.00 1.789638
384.10 1.788802
384.20 1.787966
384.30 1.787131
384.40 1.786248
384.50 1.785319
384.60 1.784391
384.70 1.783464
384.80 1.782537
384.90 1.781611
385.00 1.780685
385.10 1.779761
385.20 1.778837
385.30 1.777913
385.40 1.776963
385.50 1.775985
385.60 1.775009
385.70 1.774033
385.80 1.77304
385.90 1.771981
386.00 1.770909
386.10 1.769813
386.20 1.76862
386.30 1.767429
386.40 1.766318
386.50 1.765126
386.60 1.763835
386.70 1.762507
386.80 1.761239
386.90 1.759735
387.00 1.758167
387.10 1.756665
387.20 1.754945
387.30 1.752955
387.40 1.751038
387.50 1.748625
387.60 1.745852
387.70 1.742053
387.80 1.738258
387.90 1.734467
388.00 1.730248
388.10 1.724152
388.20 1.714483
388.30 1.702443
388.40 1.690416
388.50 1.675863
388.60 1.655932
388.70 1.632129
388.80 1.610836
388.90 1.603909
389.00 1.619304
389.10 1.640557
389.20 1.660291
389.30 1.676273
389.40 1.688642
389.50 1.699176
389.60 1.706577
389.70 1.711283
389.80 1.713709
389.90 1.716132
390.00 1.718552
390.10 1.72097
390.20 1.723385
390.30 1.7248
390.40 1.725091
390.50 1.72538
390.60 1.725669
390.70 1.725958
390.80 1.725989
390.90 1.725764
391.00 1.725444
391.10 1.725126
391.20 1.724755
391.30 1.724186
391.40 1.723615
391.50 1.723043
391.60 1.722473
391.70 1.721902
391.80 1.721333
391.90 1.720719
392.00 1.720052
392.10 1.719375
392.20 1.71868
392.30 1.717883
392.40 1.71716
392.50 1.716325
392.60 1.715641
392.70 1.714768
392.80 1.714125
392.90 1.713295
393.00 1.712546
393.10 1.71174
393.20 1.710869
393.30 1.709999
393.40 1.70913
393.50 1.708262
393.60 1.707394
393.70 1.706756
393.80 1.705879
393.90 1.704898
394.00 1.703929
394.10 1.703064
394.20 1.7022
394.30 1.701337
394.40 1.700455
394.50 1.699384
394.60 1.698395
394.70 1.69739
394.80 1.696321
394.90 1.695259
395.00 1.694367
395.10 1.693155
395.20 1.691874
395.30 1.690574
395.40 1.689274
395.50 1.687895
395.60 1.686488
395.70 1.684961
395.80 1.68311
395.90 1.681261
396.00 1.679429
396.10 1.677701
396.20 1.675834
396.30 1.673939
396.40 1.672455
396.50 1.671804
396.60 1.671792
396.70 1.672091
396.80 1.672386
396.90 1.672596
397.00 1.672633
397.10 1.67273
397.20 1.672678
397.30 1.672476
397.40 1.672059
397.50 1.671642
397.60 1.671217
397.70 1.670695
397.80 1.670174
397.90 1.669611
398.00 1.668932
398.10 1.668254
398.20 1.667544
398.30 1.666799
398.40 1.666051
398.50 1.665215
398.60 1.66438
398.70 1.663545
398.80 1.662711
398.90 1.661877
399.00 1.661044
399.10 1.660203
399.20 1.659269
399.30 1.658336
399.40 1.657403
399.50 1.656471
399.60 1.655476
399.70 1.654459
399.80 1.653442
399.90 1.652426
400.00 1.651406
400.10 1.650239
400.20 1.649166
400.30 1.647995
400.40 1.646821
400.50 1.645522
400.60 1.644155
400.70 1.642892
400.80 1.641548
400.90 1.639955
401.00 1.638519
401.10 1.636922
401.20 1.635287
401.30 1.633505
401.40 1.631636
401.50 1.629762
401.60 1.62788
401.70 1.625713
401.80 1.6235
401.90 1.621142
402.00 1.618913
402.10 1.616396
402.20 1.614025
402.30 1.611773
402.40 1.609654
402.50 1.607478
402.60 1.605179
402.70 1.605881
402.80 1.606509
402.90 1.607354
403.00 1.608199
403.10 1.609043
403.20 1.61004
403.30 1.610755
403.40 1.611566
403.50 1.612118
403.60 1.612589
403.70 1.612992
403.80 1.613309
403.90 1.613378
404.00 1.613462
404.10 1.613502
404.20 1.613357
404.30 1.613212
404.40 1.612849
404.50 1.612486
404.60 1.612232
404.70 1.611761
404.80 1.611405
404.90 1.61082
405.00 1.610412
405.10 1.609911
405.20 1.609426
405.30 1.608941
405.40 1.608364
405.50 1.607787
405.60 1.60721
405.70 1.606634
405.80 1.606059
405.90 1.605483
406.00 1.604823
406.10 1.604162
406.20 1.603503
406.30 1.602844
406.40 1.602181
406.50 1.601447
406.60 1.60082
406.70 1.6001
406.80 1.599398
406.90 1.598677
407.00 1.597956
407.10 1.597236
407.20 1.596516
407.30 1.595796
407.40 1.595077
407.50 1.594359
407.60 1.593641
407.70 1.592923
407.80 1.592206
407.90 1.591488
408.00 1.590708
408.10 1.589928
408.20 1.589205
408.30 1.588496
408.40 1.587788
408.50 1.587029
408.60 1.586252
408.70 1.585476
408.80 1.584701
408.90 1.583926
409.00 1.583151
409.10 1.582377
409.20 1.581604
409.30 1.580831
409.40 1.580059
409.50 1.579288
409.60 1.578517
409.70 1.577746
409.80 1.576976
409.90 1.576207
410.00 1.575438
410.10 1.574494
410.20 1.573691
410.30 1.572924
410.40 1.572141
410.50 1.571305
410.60 1.570471
410.70 1.569633
410.80 1.568784
410.90 1.567935
411.00 1.567062
411.10 1.566181
411.20 1.5653
411.30 1.564408
411.40 1.563469
411.50 1.56256
411.60 1.561653
411.70 1.560734
411.80 1.559766
411.90 1.558841
412.00 1.557875
412.10 1.556962
412.20 1.556154
412.30 1.555609
412.40 1.554854
412.50 1.554131
412.60 1.553527
412.70 1.552869
412.80 1.552197
412.90 1.551516
413.00 1.550975
413.10 1.550266
413.20 1.549557
413.30 1.548849
413.40 1.548141
413.50 1.547468
413.60 1.546885
413.70 1.546137
413.80 1.54539
413.90 1.544643
414.00 1.543897
414.10 1.543151
414.20 1.542406
414.30 1.541662
414.40 1.540918
414.50 1.540174
414.60 1.539432
414.70 1.538689
414.80 1.53796
414.90 1.53727
415.00 1.536581
415.10 1.535892
415.20 1.535192
415.30 1.534453
415.40 1.533714
415.50 1.532976
415.60 1.532238
415.70 1.531501
415.80 1.530764
415.90 1.530028
416.00 1.529293
416.10 1.528558
416.20 1.527824
416.30 1.52709
416.40 1.526356
416.50 1.525623
416.60 1.524891
416.70 1.524159
416.80 1.523428
416.90 1.522587
417.00 1.521762
417.10 1.521033
417.20 1.520304
417.30 1.519575
417.40 1.518847
417.50 1.51812
417.60 1.517393
417.70 1.516665
417.80 1.515905
417.90 1.515146
418.00 1.514387
418.10 1.513629
418.20 1.512871
418.30 1.512115
418.40 1.511387
418.50 1.510643
418.60 1.509899
418.70 1.509156
418.80 1.508413
418.90 1.507671
419.00 1.50693
419.10 1.506189
419.20 1.505448
419.30 1.504707
419.40 1.503918
419.50 1.50313
419.60 1.502356
419.70 1.50164
419.80 1.500925
419.90 1.500201
420.00 1.499447
420.10 1.498694
420.20 1.497941
420.30 1.497189
420.40 1.496437
420.50 1.495686
420.60 1.494936
420.70 1.494186
420.80 1.493436
420.90 1.492689
421.00 1.49198
421.10 1.491271
421.20 1.490549
421.30 1.489784
421.40 1.48902
421.50 1.488256
421.60 1.487493
421.70 1.486731
421.80 1.485969
421.90 1.485221
422.00 1.484518
422.10 1.483802
422.20 1.483036
422.30 1.482271
422.40 1.481507
422.50 1.480765
422.60 1.480024
422.70 1.479284
422.80 1.478544
422.90 1.477805
423.00 1.477066
423.10 1.476328
423.20 1.47559
423.30 1.474853
423.40 1.474116
423.50 1.47338
423.60 1.472644
423.70 1.471909
423.80 1.471174
423.90 1.47044
424.00 1.469707
424.10 1.468974
424.20 1.468242
424.30 1.46751
424.40 1.466787
424.50 1.466056
424.60 1.465325
424.70 1.464596
424.80 1.463866
424.90 1.463138
425.00 1.462409
425.10 1.461682
425.20 1.460954
425.30 1.460228
425.40 1.4595
425.50 1.458762
425.60 1.458025
425.70 1.457288
425.80 1.456551
425.90 1.455816
426.00 1.45508
426.10 1.454345
426.20 1.453611
426.30 1.452877
426.40 1.452144
426.50 1.451412
426.60 1.450679
426.70 1.449948
426.80 1.449217
426.90 1.448486
427.00 1.447756
427.10 1.447027
427.20 1.446298
427.30 1.44557
427.40 1.444842
427.50 1.444115
427.60 1.443389
427.70 1.442662
427.80 1.441937
427.90 1.441212
428.00 1.440487
428.10 1.439763
428.20 1.43904
428.30 1.438317
428.40 1.437594
428.50 1.436872
428.60 1.436151
428.70 1.43543
428.80 1.434708
428.90 1.433978
429.00 1.433247
429.10 1.432518
429.20 1.431788
429.30 1.43106
429.40 1.430331
429.50 1.429604
429.60 1.428877
429.70 1.42815
429.80 1.427424
429.90 1.426698
430.00 1.425973
430.10 1.425249
430.20 1.424525
430.30 1.423801
430.40 1.423078
430.50 1.422356
430.60 1.421634
430.70 1.420913
430.80 1.420192
430.90 1.419471
431.00 1.418751
431.10 1.418032
431.20 1.417313
431.30 1.416594
431.40 1.415871
431.50 1.415148
431.60 1.414425
431.70 1.413703
431.80 1.412982
431.90 1.412261
432.00 1.41154
432.10 1.410821
432.20 1.410101
432.30 1.409382
432.40 1.408664
432.50 1.407946
432.60 1.407229
432.70 1.406512
432.80 1.405795
432.90 1.40508
433.00 1.404364
433.10 1.40365
433.20 1.402935
433.30 1.40222
433.40 1.401491
433.50 1.400763
433.60 1.400035
433.70 1.399308
433.80 1.398571
433.90 1.397823
434.00 1.397085
434.10 1.396353
434.20 1.395622
434.30 1.394891
434.40 1.394161
434.50 1.393431
434.60 1.392702
434.70 1.391973
434.80 1.391244
434.90 1.390501
435.00 1.389759
435.10 1.389018
435.20 1.388277
435.30 1.387536
435.40 1.386796
435.50 1.386057
435.60 1.385318
435.70 1.38458
435.80 1.383842
435.90 1.383105
436.00 1.382368
436.10 1.381632
436.20 1.380896
436.30 1.380146
436.40 1.379375
436.50 1.37857
436.60 1.377766
436.70 1.376962
436.80 1.376159
436.90 1.375356
437.00 1.374554
437.10 1.373753
437.20 1.372923
437.30 1.372068
437.40 1.371211
437.50 1.370337
437.60 1.369463
437.70 1.36859
437.80 1.367717
437.90 1.366845
438.00 1.365972
438.10 1.365065
438.20 1.36416
438.30 1.363123
438.40 1.362185
438.50 1.361287
438.60 1.360376
438.70 1.359479
438.80 1.358614
438.90 1.357995
439.00 1.357383
439.10 1.356857
439.20 1.356335
439.30 1.355855
439.40 1.355377
439.50 1.354898
439.60 1.35441
439.70 1.353883
439.80 1.353381
439.90 1.352808
440.00 1.352235
440.10 1.351662
440.20 1.351086
440.30 1.350454
440.40 1.349822
440.50 1.349191
440.60 1.348561
440.70 1.34793
440.80 1.347301
440.90 1.346671
441.00 1.346042
441.10 1.345414
441.20 1.344779
441.30 1.344057
441.40 1.34333
441.50 1.342597
441.60 1.341865
441.70 1.341197
441.80 1.340423
441.90 1.33965
442.00 1.338877
442.10 1.338105
442.20 1.337333
442.30 1.336562
442.40 1.335759
442.50 1.334917
442.60 1.334076
442.70 1.333221
442.80 1.33235
442.90 1.331524
443.00 1.330674
443.10 1.329791
443.20 1.328874
443.30 1.327925
443.40 1.326931
443.50 1.32588
443.60 1.324989
443.70 1.323963
443.80 1.322892
443.90 1.321687
444.00 1.3206
444.10 1.319465
444.20 1.318393
444.30 1.317206
444.40 1.315857
444.50 1.31451
444.60 1.313084
444.70 1.311561
444.80 1.309905
444.90 1.308124
445.00 1.306345
445.10 1.304567
445.20 1.302441
445.30 1.299891
445.40 1.297342
445.50 1.294796
445.60 1.292251
445.70 1.289709
445.80 1.286429
445.90 1.282468
446.00 1.278511
446.10 1.274557
446.20 1.270162
446.30 1.264967
446.40 1.259072
446.50 1.252755
446.60 1.246444
446.70 1.240138
446.80 1.233769
446.90 1.227341
447.00 1.221605
447.10 1.215846
447.20 1.21516
447.30 1.219274
447.40 1.224347
447.50 1.229749
447.60 1.235333
447.70 1.241084
447.80 1.24638
447.90 1.251335
448.00 1.255324
448.10 1.258424
448.20 1.261522
448.30 1.264616
448.40 1.267707
448.50 1.270796
448.60 1.27307
448.70 1.274593
448.80 1.276068
448.90 1.276913
449.00 1.277757
449.10 1.2786
449.20 1.279442
449.30 1.280177
449.40 1.280459
449.50 1.280741
449.60 1.280836
449.70 1.280757
449.80 1.280679
449.90 1.2806
450.00 1.280521
450.10 1.280443
450.20 1.280364
450.30 1.280285
450.40 1.27995
450.50 1.279616
450.60 1.279281
450.70 1.278947
450.80 1.278613
450.90 1.278279
451.00 1.277853
451.10 1.277428
451.20 1.276929
451.30 1.276364
451.40 1.275885
451.50 1.275407
451.60 1.274843
451.70 1.274278
451.80 1.273801
451.90 1.273325
452.00 1.272761
452.10 1.272198
452.20 1.271679
452.30 1.27116
452.40 1.270642
452.50 1.270124
452.60 1.26968
452.70 1.269195
452.80 1.268673
452.90 1.268151
453.00 1.26763
453.10 1.267109
453.20 1.26655
453.30 1.265991
453.40 1.265432
453.50 1.264874
453.60 1.264317
453.70 1.26376
453.80 1.263203
453.90 1.262646
454.00 1.26209
454.10 1.261534
454.20 1.260947
454.30 1.260361
454.40 1.259775
454.50 1.259189
454.60 1.258604
454.70 1.258009
454.80 1.257407
454.90 1.256806
455.00 1.256204
455.10 1.255603
455.20 1.255003
455.30 1.254403
455.40 1.253803
455.50 1.253203
455.60 1.252605
455.70 1.252006
455.80 1.251411
455.90 1.250816
456.00 1.250222
456.10 1.249623
456.20 1.249011
456.30 1.2484
456.40 1.24779
456.50 1.24718
456.60 1.24657
456.70 1.245961
456.80 1.245352
456.90 1.244744
457.00 1.244135
457.10 1.243528
457.20 1.242954
457.30 1.242339
457.40 1.241724
457.50 1.24111
457.60 1.240496
457.70 1.239883
457.80 1.23927
457.90 1.238658
458.00 1.238046
458.10 1.237434
458.20 1.236823
458.30 1.236212
458.40 1.235602
458.50 1.234992
458.60 1.234382
458.70 1.233782
458.80 1.233185
458.90 1.232588
459.00 1.231992
459.10 1.231396
459.20 1.230801
459.30 1.230183
459.40 1.229565
459.50 1.228947
459.60 1.22833
459.70 1.227714
459.80 1.227098
459.90 1.226482
460.00 1.225867
460.10 1.225252
460.20 1.224637
460.30 1.224023
460.40 1.22341
460.50 1.222797
460.60 1.222184
460.70 1.221581
460.80 1.220983
460.90 1.220386
461.00 1.219789
461.10 1.219193
461.20 1.218582
461.30 1.217967
461.40 1.217351
461.50 1.216735
461.60 1.216121
461.70 1.215506
461.80 1.214898
461.90 1.21429
462.00 1.213683
462.10 1.213076
462.20 1.21247
462.30 1.211864
462.40 1.211258
462.50 1.210653
462.60 1.210048
462.70 1.209444
462.80 1.20884
462.90 1.208237
463.00 1.207633
463.10 1.207031
463.20 1.206435
463.30 1.205842
463.40 1.20525
463.50 1.204658
463.60 1.204067
463.70 1.203476
463.80 1.202885
463.90 1.20227
464.00 1.20165
464.10 1.20103
464.20 1.200411
464.30 1.199792
464.40 1.199173
464.50 1.198555
464.60 1.197937
464.70 1.197335
464.80 1.196739
464.90 1.196143
465.00 1.195548
465.10 1.194953
465.20 1.194359
465.30 1.193763
465.40 1.193165
465.50 1.192567
465.60 1.19197
465.70 1.191373
465.80 1.190777
465.90 1.190153
466.00 1.189522
466.10 1.188892
466.20 1.188262
466.30 1.187659
466.40 1.187068
466.50 1.186478
466.60 1.185888
466.70 1.185298
466.80 1.184708
466.90 1.184119
467.00 1.183531
467.10 1.182943
467.20 1.182355
467.30 1.181698
467.40 1.18108
467.50 1.180479
467.60 1.179878
467.70 1.179278
467.80 1.178678
467.90 1.17806
468.00 1.177435
468.10 1.17681
468.20 1.176186
468.30 1.175533
468.40 1.174869
468.50 1.174321
468.60 1.173637
468.70 1.172995
468.80 1.172333
468.90 1.171706
469.00 1.171053
469.10 1.170396
469.20 1.169735
469.30 1.169075
469.40 1.168416
469.50 1.167698
469.60 1.166957
469.70 1.166217
469.80 1.165477
469.90 1.164711
470.00 1.163864
470.10 1.162957
470.20 1.162004
470.30 1.161051
470.40 1.1601
470.50 1.159149
470.60 1.158051
470.70 1.156916
470.80 1.155783
470.90 1.154651
471.00 1.153327
471.10 1.152206
471.20 1.150971
471.30 1.149962
471.40 1.149514
471.50 1.149187
471.60 1.149019
471.70 1.148932
471.80 1.14894
471.90 1.148972
472.00 1.149004
472.10 1.149036
472.20 1.148904
472.30 1.14873
472.40 1.148557
472.50 1.148384
472.60 1.148211
472.70 1.14794
472.80 1.147528
472.90 1.14709
473.00 1.146653
473.10 1.146216
473.20 1.145779
473.30 1.145342
473.40 1.144906
473.50 1.14447
473.60 1.144035
473.70 1.143599
473.80 1.143126
473.90 1.142644
474.00 1.142161
474.10 1.14168
474.20 1.14115
474.30 1.1406
474.40 1.140051
474.50 1.139502
474.60 1.138954
474.70 1.138409
474.80 1.137865
474.90 1.137321
475.00 1.136777
475.10 1.136234
475.20 1.135691
475.30 1.135148
475.40 1.134595
475.50 1.13404
475.60 1.133486
475.70 1.132932
475.80 1.132378
475.90 1.131824
476.00 1.131271
476.10 1.130718
476.20 1.130173
476.30 1.12963
476.40 1.129088
476.50 1.128546
476.60 1.128005
476.70 1.127463
476.80 1.126923
476.90 1.12636
477.00 1.125793
477.10 1.125226
477.20 1.12466
477.30 1.124094
477.40 1.123528
477.50 1.122963
477.60 1.122398
477.70 1.121833
477.80 1.121269
477.90 1.120705
478.00 1.120141
478.10 1.119578
478.20 1.119015
478.30 1.118453
478.40 1.117891
478.50 1.117329
478.60 1.116768
478.70 1.116216
478.80 1.115669
478.90 1.115115
479.00 1.114559
479.10 1.114004
479.20 1.11345
479.30 1.112895
479.40 1.112337
479.50 1.111777
479.60 1.111216
479.70 1.110657
479.80 1.110097
479.90 1.109539
480.00 1.10898
480.10 1.108422
480.20 1.107864
480.30 1.107307
480.40 1.106749
480.50 1.106193
480.60 1.105636
480.70 1.10508
480.80 1.104525
480.90 1.103969
481.00 1.103415
481.10 1.10286
481.20 1.102303
481.30 1.101747
481.40 1.101191
481.50 1.100636
481.60 1.10008
481.70 1.099525
481.80 1.098971
481.90 1.098417
482.00 1.097863
482.10 1.09731
482.20 1.096757
482.30 1.096204
482.40 1.095652
482.50 1.0951
482.60 1.094549
482.70 1.093998
482.80 1.093447
482.90 1.092896
483.00 1.092346
483.10 1.091797
483.20 1.091248
483.30 1.090699
483.40 1.09015
483.50 1.089602
483.60 1.089054
483.70 1.088518
483.80 1.087982
483.90 1.087446
484.00 1.086911
484.10 1.086376
484.20 1.085826
484.30 1.08527
484.40 1.084714
484.50 1.084159
484.60 1.083604
484.70 1.08305
484.80 1.082503
484.90 1.081957
485.00 1.08141
485.10 1.080865
485.20 1.080319
485.30 1.079774
485.40 1.079229
485.50 1.078685
485.60 1.078141
485.70 1.077587
485.80 1.077033
485.90 1.076479
486.00 1.075926
486.10 1.075374
486.20 1.074821
486.30 1.074269
486.40 1.073717
486.50 1.073166
486.60 1.072615
486.70 1.072062
486.80 1.071474
486.90 1.070886
487.00 1.070299
487.10 1.069713
487.20 1.069136
487.30 1.068561
487.40 1.067985
487.50 1.06741
487.60 1.066836
487.70 1.066261
487.80 1.065688
487.90 1.065114
488.00 1.064541
488.10 1.063968
488.20 1.063393
488.30 1.062781
488.40 1.062169
488.50 1.061558
488.60 1.060948
488.70 1.060337
488.80 1.059739
488.90 1.059142
489.00 1.058522
489.10 1.057844
489.20 1.057167
489.30 1.05649
489.40 1.055813
489.50 1.055137
489.60 1.054462
489.70 1.053787
489.80 1.053035
489.90 1.052255
490.00 1.051475
490.10 1.050695
490.20 1.049916
490.30 1.049138
490.40 1.04823
490.50 1.047322
490.60 1.046415
490.70 1.045508
490.80 1.044591
490.90 1.043476
491.00 1.042461
491.10 1.041299
491.20 1.040065
491.30 1.038831
491.40 1.037447
491.50 1.035925
491.60 1.034391
491.70 1.032793
491.80 1.031193
491.90 1.029537
492.00 1.027892
492.10 1.026494
492.20 1.025321
492.30 1.025176
492.40 1.025442
492.50 1.025711
492.60 1.026094
492.70 1.02663
492.80 1.027165
492.90 1.0277
493.00 1.028218
493.10 1.028522
493.20 1.028826
493.30 1.029129
493.40 1.029433
493.50 1.029735
493.60 1.029783
493.70 1.029747
493.80 1.029711
493.90 1.029636
494.00 1.029501
494.10 1.029329
494.20 1.029079
494.30 1.028829
494.40 1.028579
494.50 1.028329
494.60 1.028073
494.70 1.027738
494.80 1.027394
494.90 1.027023
495.00 1.026653
495.10 1.026282
495.20 1.025853
495.30 1.025424
495.40 1.024995
495.50 1.024566
495.60 1.024138
495.70 1.02371
495.80 1.023282
495.90 1.022854
496.00 1.022427
496.10 1.022005
496.20 1.021588
496.30 1.021105
496.40 1.020623
496.50 1.020141
496.60 1.019659
496.70 1.019163
496.80 1.018667
496.90 1.018172
497.00 1.017677
497.10 1.017182
497.20 1.016688
497.30 1.01619
497.40 1.015684
497.50 1.015178
497.60 1.014667
497.70 1.014143
497.80 1.013609
497.90 1.013076
498.00 1.012542
498.10 1.012009
498.20 1.011477
498.30 1.010944
498.40 1.010413
498.50 1.009881
498.60 1.00935
498.70 1.008802
498.80 1.008255
498.90 1.007656
499.00 1.007059
499.10 1.006461
499.20 1.005883
499.30 1.005301
499.40 1.004592
499.50 1.003884
499.60 1.003176
499.70 1.00246
499.80 1.00164
499.90 1.00082
500.00 1
500.10 0.999181
500.20 0.9981859
500.30 0.996816
500.40 0.9954472
500.50 0.9940793
500.60 0.9927125
500.70 0.9913467
500.80 0.9896223
500.90 0.9871353
501.00 0.9846502
501.10 0.982167
501.20 0.979006
501.30 0.9757145
501.40 0.9726745
501.50 0.9702505
501.60 0.9697223
501.70 0.9716387
501.80 0.973836
501.90 0.9762715
502.00 0.9785042
502.10 0.9803087
502.20 0.9820541
502.30 0.9830324
502.40 0.9837822
502.50 0.9840479
502.60 0.9843133
502.70 0.9845785
502.80 0.9848433
502.90 0.9851079
503.00 0.9852176
503.10 0.9849991
503.20 0.9847806
503.30 0.9845622
503.40 0.9842989
503.50 0.983908
503.60 0.9835173
503.70 0.9831268
503.80 0.9827366
503.90 0.9823465
504.00 0.9819237
504.10 0.9814307
504.20 0.9809381
504.30 0.9804458
504.40 0.9799443
504.50 0.9794161
504.60 0.9789246
504.70 0.9783971
504.80 0.9778944
504.90 0.9774826
505.00 0.9770956
505.10 0.9767087
505.20 0.9763313
505.30 0.9759802
505.40 0.9756294
505.50 0.9752787
505.60 0.9749096
505.70 0.9745012
505.80 0.9740929
505.90 0.9736849
506.00 0.9732772
506.10 0.9728697
506.20 0.9724563
506.30 0.9720257
506.40 0.9715953
506.50 0.9711651
506.60 0.9707353
506.70 0.9703057
506.80 0.9698763
506.90 0.9694473
507.00 0.9690184
507.10 0.968563
507.20 0.9680644
507.30 0.967605
507.40 0.967146
507.50 0.9666872
507.60 0.9662287
507.70 0.9657705
507.80 0.9653126
507.90 0.964855
508.00 0.9643976
508.10 0.9639406
508.20 0.9634838
508.30 0.9630273
508.40 0.9625711
508.50 0.9621152
508.60 0.9616596
508.70 0.9612042
508.80 0.9607006
508.90 0.9602124
509.00 0.9597784
509.10 0.9593337
509.20 0.958866
509.30 0.9583985
509.40 0.9579314
509.50 0.9574645
509.60 0.9569979
509.70 0.9565317
509.80 0.9560657
509.90 0.9556
510.00 0.9551346
510.10 0.9546695
510.20 0.9542046
510.30 0.953739
510.40 0.9532703
510.50 0.952802
510.60 0.9523339
510.70 0.9518662
510.80 0.9513987
510.90 0.9509316
511.00 0.9504647
511.10 0.9499981
511.20 0.9495318
511.30 0.9490658
511.40 0.9486001
511.50 0.9481347
511.60 0.9476691
511.70 0.9472025
511.80 0.9467363
511.90 0.9462703
512.00 0.9458046
512.10 0.9453392
512.20 0.9448741
512.30 0.9444128
512.40 0.9439616
512.50 0.9435107
512.60 0.9430601
512.70 0.9426098
512.80 0.9421597
512.90 0.9417099
513.00 0.9412604
513.10 0.9408112
513.20 0.9403623
513.30 0.9399136
513.40 0.9394652
513.50 0.9390171
513.60 0.9385693
513.70 0.9381217
513.80 0.9376745
513.90 0.9372275
514.00 0.9367703
514.10 0.9363116
514.20 0.9358533
514.30 0.9353952
514.40 0.9349374
514.50 0.9344799
514.60 0.9340227
514.70 0.9335658
514.80 0.9331092
514.90 0.9326528
515.00 0.9321967
515.10 0.931741
515.20 0.9312854
515.30 0.9308302
515.40 0.9303753
515.50 0.9299206
515.60 0.9294663
515.70 0.9290122
515.80 0.9285584
515.90 0.9281049
516.00 0.9276516
516.10 0.9271986
516.20 0.926746
516.30 0.9262936
516.40 0.9258415
516.50 0.9253888
516.60 0.924932
516.70 0.9244755
516.80 0.9240193
516.90 0.9235634
517.00 0.9231077
517.10 0.9226524
517.20 0.9221973
517.30 0.9217425
517.40 0.921288
517.50 0.9208338
517.60 0.9203798
517.70 0.9199261
517.80 0.9194728
517.90 0.9190197
518.00 0.9185668
518.10 0.9181143
518.20 0.917662
518.30 0.9172101
518.40 0.9167584
518.50 0.9163069
518.60 0.9158558
518.70 0.915405
518.80 0.9149544
518.90 0.9145041
519.00 0.9140541
519.10 0.9136036
519.20 0.9131526
519.30 0.9127019
519.40 0.9122514
519.50 0.9118012
519.60 0.9113513
519.70 0.9109017
519.80 0.9104524
519.90 0.9100034
520.00 0.9095546
520.10 0.9091061
520.20 0.9086579
520.30 0.9082099
520.40 0.9077622
520.50 0.9073149
520.60 0.9068677
520.70 0.9064209
520.80 0.9059743
520.90 0.9055281
521.00 0.9050821
521.10 0.9046363
521.20 0.9041909
521.30 0.9037457
521.40 0.9033008
521.50 0.9028561
521.60 0.9024118
521.70 0.9019677
521.80 0.9015239
521.90 0.9010804
522.00 0.9006371
522.10 0.9001941
522.20 0.8997514
522.30 0.899309
522.40 0.8988668
522.50 0.8984249
522.60 0.8979833
522.70 0.8975419
522.80 0.8971008
522.90 0.89666
523.00 0.8962195
523.10 0.8957792
523.20 0.8953392
523.30 0.8948995
523.40 0.8944601
523.50 0.8940209
523.60 0.893582
523.70 0.8931433
523.80 0.892705
523.90 0.8922668
524.00 0.891829
524.10 0.8913915
524.20 0.8909542
524.30 0.8905163
524.40 0.890078
524.50 0.88964
524.60 0.8892022
524.70 0.8887648
524.80 0.8883276
524.90 0.8878906
525.00 0.887454
525.10 0.8870176
525.20 0.8865814
525.30 0.8861456
525.40 0.88571
525.50 0.8852747
525.60 0.8848396
525.70 0.8844048
525.80 0.8839703
525.90 0.883536
526.00 0.883102
526.10 0.8826683
526.20 0.8822348
526.30 0.8818017
526.40 0.8813687
526.50 0.8809361
526.60 0.8805037
526.70 0.8800715
526.80 0.8796397
526.90 0.879208
527.00 0.8787767
527.10 0.8783456
527.20 0.8779148
527.30 0.8774843
527.40 0.877054
527.50 0.876624
527.60 0.8761942
527.70 0.8757647
527.80 0.8753355
527.90 0.8749065
528.00 0.8744778
528.10 0.8740493
528.20 0.8736211
528.30 0.8731932
528.40 0.8727656
528.50 0.8723381
528.60 0.871911
528.70 0.8714841
528.80 0.8710575
528.90 0.8706311
529.00 0.870205
529.10 0.8697792
529.20 0.8693536
529.30 0.8689283
529.40 0.8685032
529.50 0.8680786
529.60 0.867655
529.70 0.8672317
529.80 0.8668087
529.90 0.8663859
530.00 0.8659634
530.10 0.8655411
530.20 0.8651191
530.30 0.8646973
530.40 0.8642758
530.50 0.8638546
530.60 0.8634336
530.70 0.8630129
530.80 0.8625924
530.90 0.8621722
531.00 0.8617522
531.10 0.8613325
531.20 0.860913
531.30 0.8604938
531.40 0.8600749
531.50 0.8596562
531.60 0.8592378
531.70 0.8588196
531.80 0.8584017
531.90 0.857984
532.00 0.8575666
532.10 0.8571494
532.20 0.8567324
532.30 0.8563157
532.40 0.8558993
532.50 0.8554831
532.60 0.8550672
532.70 0.8546515
532.80 0.854236
532.90 0.8538208
533.00 0.8534059
533.10 0.8529912
533.20 0.8525768
533.30 0.8521626
533.40 0.8517487
533.50 0.851335
533.60 0.8509216
533.70 0.8505084
533.80 0.8500955
533.90 0.8496828
534.00 0.8492703
534.10 0.8488582
534.20 0.8484462
534.30 0.8480345
534.40 0.8476231
534.50 0.8472119
534.60 0.846801
534.70 0.8463903
534.80 0.8459787
534.90 0.8455625
535.00 0.8451465
535.10 0.8447308
535.20 0.8443153
535.30 0.8439001
535.40 0.8434852
535.50 0.8430705
535.60 0.842656
535.70 0.8422418
535.80 0.8418278
535.90 0.8414141
536.00 0.8410007
536.10 0.8405875
536.20 0.8401745
536.30 0.8397618
536.40 0.8393493
536.50 0.8389371
536.60 0.8385252
536.70 0.8381135
536.80 0.837702
536.90 0.8372908
537.00 0.8368798
537.10 0.8364691
537.20 0.8360586
537.30 0.8356484
537.40 0.8352384
537.50 0.8348287
537.60 0.8344192
537.70 0.83401
537.80 0.833601
537.90 0.8331923
538.00 0.8327838
538.10 0.8323755
538.20 0.8319675
538.30 0.8315598
538.40 0.8311522
538.50 0.830745
538.60 0.830338
538.70 0.8299312
538.80 0.8295246
538.90 0.8291184
539.00 0.8287123
539.10 0.8283065
539.20 0.827901
539.30 0.8274956
539.40 0.8270906
539.50 0.8266858
539.60 0.8262812
539.70 0.8258768
539.80 0.8254727
539.90 0.8250689
540.00 0.8246653
540.10 0.8242619
540.20 0.8238611
540.30 0.8234614
540.40 0.823062
540.50 0.8226628
540.60 0.8222638
540.70 0.8218651
540.80 0.8214667
540.90 0.8210684
541.00 0.8206704
541.10 0.8202727
541.20 0.8198752
541.30 0.8194779
541.40 0.8190808
541.50 0.818684
541.60 0.8182875
541.70 0.8178911
541.80 0.817495
541.90 0.8170992
542.00 0.8167035
542.10 0.8163082
542.20 0.815913
542.30 0.8155181
542.40 0.8151234
542.50 0.814729
542.60 0.8143348
542.70 0.8139408
542.80 0.8135471
542.90 0.8131535
543.00 0.8127603
543.10 0.8123672
543.20 0.8119744
543.30 0.8115819
543.40 0.8111896
543.50 0.8107975
543.60 0.8104056
543.70 0.810014
543.80 0.8096226
543.90 0.8092314
544.00 0.8088405
544.10 0.8084498
544.20 0.8080593
544.30 0.8076691
544.40 0.8072791
544.50 0.8068893
544.60 0.8064998
544.70 0.8061105
544.80 0.8057214
544.90 0.8053325
545.00 0.8049439
545.10 0.8045555
545.20 0.8041674
545.30 0.8037795
545.40 0.8033918
545.50 0.8030043
545.60 0.8026147
545.70 0.8022242
545.80 0.801834
545.90 0.8014441
546.00 0.8010543
546.10 0.8006648
546.20 0.8002755
546.30 0.7998865
546.40 0.7994977
546.50 0.7991091
546.60 0.7987207
546.70 0.7983326
546.80 0.7979447
546.90 0.797557
547.00 0.7971696
547.10 0.7967824
547.20 0.7963954
547.30 0.7960087
547.40 0.7956222
547.50 0.7952359
547.60 0.7948498
547.70 0.794464
547.80 0.7940784
547.90 0.793693
548.00 0.7933079
548.10 0.792923
548.20 0.7925383
548.30 0.7921538
548.40 0.7917695
548.50 0.7913855
548.60 0.7910017
548.70 0.7906181
548.80 0.7902347
548.90 0.7898516
549.00 0.7894687
549.10 0.789086
549.20 0.7887036
549.30 0.7883214
549.40 0.7879394
549.50 0.7875576
549.60 0.787176
549.70 0.7867947
549.80 0.7864136
549.90 0.7860327
550.00 0.7856521
550.10 0.7852717
550.20 0.7848915
550.30 0.7845115
550.40 0.7841318
550.50 0.7837522
550.60 0.7833729
550.70 0.7829939
550.80 0.782615
550.90 0.7822364
551.00 0.7818581
551.10 0.7814809
551.20 0.7811039
551.30 0.7807271
551.40 0.7803506
551.50 0.7799742
551.60 0.7795981
551.70 0.7792222
551.80 0.7788466
551.90 0.7784711
552.00 0.7780959
552.10 0.7777209
552.20 0.7773461
552.30 0.7769715
552.40 0.7765972
552.50 0.7762231
552.60 0.7758491
552.70 0.7754755
552.80 0.775102
552.90 0.7747287
553.00 0.7743557
553.10 0.7739829
553.20 0.7736103
553.30 0.7732379
553.40 0.7728658
553.50 0.7724939
553.60 0.7721221
553.70 0.7717506
553.80 0.7713794
553.90 0.7710083
554.00 0.7706375
554.10 0.7702668
554.20 0.7698964
554.30 0.7695262
554.40 0.7691563
554.50 0.7687865
554.60 0.768417
554.70 0.7680476
554.80 0.7676785
554.90 0.7673096
555.00 0.7669409
555.10 0.7665725
555.20 0.7662042
555.30 0.7658362
555.40 0.7654684
555.50 0.7651008
555.60 0.7647334
555.70 0.7643662
555.80 0.7639993
555.90 0.7636325
556.00 0.763266
556.10 0.7628997
556.20 0.7625336
556.30 0.7621677
556.40 0.7618021
556.50 0.7614364
556.60 0.761068
556.70 0.7606997
556.80 0.7603317
556.90 0.7599639
557.00 0.7595963
557.10 0.7592289
557.20 0.7588617
557.30 0.7584948
557.40 0.758128
557.50 0.7577615
557.60 0.7573952
557.70 0.7570291
557.80 0.7566632
557.90 0.7562975
558.00 0.7559321
558.10 0.7555668
558.20 0.7552018
558.30 0.754837
558.40 0.7544724
558.50 0.754108
558.60 0.7537438
558.70 0.7533798
558.80 0.7530161
558.90 0.7526525
559.00 0.7522892
559.10 0.7519261
559.20 0.7515632
559.30 0.7512005
559.40 0.750838
559.50 0.7504757
559.60 0.7501136
559.70 0.7497518
559.80 0.7493901
559.90 0.7490287
560.00 0.7486675
560.10 0.7483065
560.20 0.7479457
560.30 0.7475851
560.40 0.7472247
560.50 0.7468645
560.60 0.7465046
560.70 0.7461448
560.80 0.7457853
560.90 0.7454259
561.00 0.7450668
561.10 0.7447079
561.20 0.7443492
561.30 0.7439907
561.40 0.7436324
561.50 0.7432743
561.60 0.7429164
561.70 0.7425587
561.80 0.7422013
561.90 0.741844
562.00 0.741487
562.10 0.7411289
562.20 0.7407692
562.30 0.7404097
562.40 0.7400505
562.50 0.7396914
562.60 0.7393325
562.70 0.7389739
562.80 0.7386155
562.90 0.7382572
563.00 0.7378992
563.10 0.7375414
563.20 0.7371838
563.30 0.7368264
563.40 0.7364692
563.50 0.7361122
563.60 0.7357554
563.70 0.7353988
563.80 0.7350425
563.90 0.7346863
564.00 0.7343303
564.10 0.7339746
564.20 0.733619
564.30 0.7332637
564.40 0.7329086
564.50 0.7325537
564.60 0.7321989
564.70 0.7318444
564.80 0.7314901
564.90 0.7311371
565.00 0.7307872
565.10 0.7304374
565.20 0.7300878
565.30 0.7297385
565.40 0.7293893
565.50 0.7290404
565.60 0.7286916
565.70 0.728343
565.80 0.7279947
565.90 0.7276465
566.00 0.7272986
566.10 0.7269508
566.20 0.7266033
566.30 0.7262559
566.40 0.7259087
566.50 0.7255618
566.60 0.725215
566.70 0.7248685
566.80 0.7245221
566.90 0.724176
567.00 0.72383
567.10 0.7234842
567.20 0.7231387
567.30 0.7227933
567.40 0.7224481
567.50 0.7221032
567.60 0.7217584
567.70 0.7214125
567.80 0.7210613
567.90 0.7207103
568.00 0.7203594
568.10 0.7200088
568.20 0.7196584
568.30 0.7193082
568.40 0.7189581
568.50 0.7186083
568.60 0.7182587
568.70 0.7179093
568.80 0.7175601
568.90 0.717211
569.00 0.7168622
569.10 0.7165136
569.20 0.7161652
569.30 0.715817
569.40 0.715469
569.50 0.7151212
569.60 0.7147735
569.70 0.7144261
569.80 0.7140789
569.90 0.7137319
570.00 0.7133851
570.10 0.7130385
570.20 0.7126921
570.30 0.7123459
570.40 0.7119998
570.50 0.711654
570.60 0.7113084
570.70 0.710963
570.80 0.7106178
570.90 0.7102727
571.00 0.7099279
571.10 0.7095833
571.20 0.7092389
571.30 0.7088946
571.40 0.7085506
571.50 0.7082067
571.60 0.7078631
571.70 0.7075197
571.80 0.7071764
571.90 0.7068334
572.00 0.7064905
572.10 0.7061479
572.20 0.7058054
572.30 0.7054631
572.40 0.7051211
572.50 0.7047792
572.60 0.7044375
572.70 0.704096
572.80 0.7037548
572.90 0.7034137
573.00 0.7030728
573.10 0.7027321
573.20 0.7023916
573.30 0.7020513
573.40 0.7017079
573.50 0.7013604
573.60 0.701013
573.70 0.7006658
573.80 0.7003189
573.90 0.6999721
574.00 0.6996255
574.10 0.6992792
574.20 0.698933
574.30 0.698587
574.40 0.6982412
574.50 0.6978957
574.60 0.6975503
574.70 0.6972051
574.80 0.6968601
574.90 0.6965153
575.00 0.6961708
575.10 0.6958264
575.20 0.6954822
575.30 0.6951382
575.40 0.6947944
575.50 0.6944508
575.60 0.6941074
575.70 0.6937642
575.80 0.6934212
575.90 0.6930784
576.00 0.6927357
576.10 0.6923933
576.20 0.6920511
576.30 0.6917091
576.40 0.6913672
576.50 0.6910256
576.60 0.6906841
576.70 0.6903429
576.80 0.6900018
576.90 0.689661
577.00 0.6893203
577.10 0.6889799
577.20 0.6886396
577.30 0.6882995
577.40 0.6879596
577.50 0.6876199
577.60 0.6872739
577.70 0.6869176
577.80 0.6865614
577.90 0.6862054
578.00 0.6858496
578.10 0.6854941
578.20 0.6851387
578.30 0.6847835
578.40 0.6844286
578.50 0.6840738
578.60 0.6837193
578.70 0.6833649
578.80 0.6830108
578.90 0.6826569
579.00 0.6823032
579.10 0.6819475
579.20 0.6815701
579.30 0.6811929
579.40 0.680816
579.50 0.6804393
579.60 0.6800627
579.70 0.6796865
579.80 0.6793104
579.90 0.6789346
580.00 0.6785589
580.10 0.678173
580.20 0.6777702
580.30 0.6773677
580.40 0.6769654
580.50 0.6765633
580.60 0.6761615
580.70 0.6757599
580.80 0.6753586
580.90 0.6749574
581.00 0.6745566
581.10 0.6741559
581.20 0.6737555
581.30 0.6733553
581.40 0.6729554
581.50 0.6725557
581.60 0.6721562
581.70 0.671757
581.80 0.671358
581.90 0.6709592
582.00 0.6705607
582.10 0.6701172
582.20 0.6696002
582.30 0.6690836
582.40 0.6685673
582.50 0.6680513
582.60 0.6675356
582.70 0.6670202
582.80 0.6665051
582.90 0.6659904
583.00 0.6654759
583.10 0.6649618
583.20 0.664448
583.30 0.6639345
583.40 0.6634213
583.50 0.6629085
583.60 0.6622909
583.70 0.6615026
583.80 0.6607148
583.90 0.6599274
584.00 0.6591406
584.10 0.6583543
584.20 0.6575684
584.30 0.6567831
584.40 0.6559983
584.50 0.6552139
584.60 0.6544301
584.70 0.6536468
584.80 0.6528639
584.90 0.6520151
585.00 0.6508644
585.10 0.6497145
585.20 0.6483099
585.30 0.6464898
585.40 0.6446708
585.50 0.6428531
585.60 0.6410365
585.70 0.6392212
585.80 0.6374071
585.90 0.6355941
586.00 0.6337824
586.10 0.6319719
586.20 0.6294966
586.30 0.6259369
586.40 0.6223795
586.50 0.6188246
586.60 0.615272
586.70 0.6117218
586.80 0.6074611
586.90 0.6020403
587.00 0.5966232
587.10 0.5912098
587.20 0.5855257
587.30 0.5793979
587.40 0.5733722
587.50 0.5647284
587.60 0.5592448
587.70 0.5692503
587.80 0.5756985
587.90 0.5812646
588.00 0.5865826
588.10 0.5914985
588.20 0.596411
588.30 0.6013202
588.40 0.6055007
588.50 0.6084951
588.60 0.6114876
588.70 0.6144779
588.80 0.6174662
588.90 0.6204525
589.00 0.622764
589.10 0.623977
589.20 0.6251891
589.30 0.6264004
589.40 0.6276107
589.50 0.6288203
589.60 0.6300289
589.70 0.6312368
589.80 0.6324437
589.90 0.6336498
590.00 0.6345427
590.10 0.6349252
590.20 0.6353075
590.30 0.6356895
590.40 0.6360712
590.50 0.6364526
590.60 0.6368337
590.70 0.6372145
590.80 0.6373866
590.90 0.6374651
591.00 0.6375434
591.10 0.6376217
591.20 0.6376998
591.30 0.6377779
591.40 0.6378559
591.50 0.6379338
591.60 0.6379413
591.70 0.637834
591.80 0.6377268
591.90 0.6376196
592.00 0.6375124
592.10 0.6374053
592.20 0.6372982
592.30 0.6371912
592.40 0.6370841
592.50 0.6369772
592.60 0.6368702
592.70 0.6367633
592.80 0.6366565
592.90 0.6365496
593.00 0.6364428
593.10 0.6362932
593.20 0.6360736
593.30 0.6358541
593.40 0.6356348
593.50 0.6354156
593.60 0.6351965
593.70 0.6349775
593.80 0.6347586
593.90 0.6345398
594.00 0.6343211
594.10 0.6341025
594.20 0.6338841
594.30 0.6336658
594.40 0.6334475
594.50 0.6332294
594.60 0.6330114
594.70 0.6327935
594.80 0.6325757
594.90 0.6323581
595.00 0.6321405
595.10 0.631908
595.20 0.6316511
595.30 0.6313943
595.40 0.6311377
595.50 0.6308812
595.60 0.6306249
595.70 0.6303686
595.80 0.6301126
595.90 0.6298566
596.00 0.6296008
596.10 0.6293451
596.20 0.6290896
596.30 0.6288342
596.40 0.6285789
596.50 0.6283238
596.60 0.6280688
596.70 0.6278079
596.80 0.6275435
596.90 0.6272793
597.00 0.6270151
597.10 0.6267512
597.20 0.6264873
597.30 0.6262236
597.40 0.6259601
597.50 0.6256967
597.60 0.6254299
597.70 0.6251577
597.80 0.6248855
597.90 0.6246136
598.00 0.6243418
598.10 0.6240701
598.20 0.6237985
598.30 0.6235272
598.40 0.6232559
598.50 0.6229848
598.60 0.6227139
598.70 0.6224431
598.80 0.6221724
598.90 0.6219019
599.00 0.6216316
599.10 0.6213614
599.20 0.6210913
599.30 0.6208214
599.40 0.62054
599.50 0.6202588
599.60 0.6199777
599.70 0.6196968
599.80 0.6194161
599.90 0.6191355
600.00 0.618855
600.10 0.6185747
600.20 0.6182946
600.30 0.6180146
600.40 0.6177347
600.50 0.6174551
600.60 0.6171755
600.70 0.6168961
600.80 0.6166169
600.90 0.6163378
601.00 0.6160589
601.10 0.6157801
601.20 0.6155015
601.30 0.615223
601.40 0.6149431
601.50 0.6146633
601.60 0.6143837
601.70 0.6141042
601.80 0.6138249
601.90 0.6135458
602.00 0.6132667
602.10 0.6129879
602.20 0.6127092
602.30 0.6124306
602.40 0.6121522
602.50 0.611874
602.60 0.6115958
602.70 0.6113415
602.80 0.6110885
602.90 0.6108063
603.00 0.6105242
603.10 0.6102423
603.20 0.6099606
603.30 0.609679
603.40 0.6093976
603.50 0.6091163
603.60 0.6088352
603.70 0.6085543
603.80 0.6082734
603.90 0.6079928
604.00 0.6077123
604.10 0.6074319
604.20 0.6071517
604.30 0.6068717
604.40 0.6065918
604.50 0.6063132
604.60 0.6060349
604.70 0.6057566
604.80 0.6054786
604.90 0.6052006
605.00 0.6049229
605.10 0.6046452
605.20 0.6043678
605.30 0.6040904
605.40 0.6038133
605.50 0.603533
605.60 0.6032529
605.70 0.6029729
605.80 0.6026931
605.90 0.6024135
606.00 0.602134
606.10 0.6018627
606.20 0.6015916
606.30 0.6013206
606.40 0.6010498
606.50 0.6007549
606.60 0.6004602
606.70 0.6001656
606.80 0.5998713
606.90 0.599577
607.00 0.599283
607.10 0.5990373
607.20 0.5987918
607.30 0.5985223
607.40 0.598253
607.50 0.5979838
607.60 0.5977147
607.70 0.5974377
607.80 0.597161
607.90 0.5968843
608.00 0.5966078
608.10 0.5963315
608.20 0.5960553
608.30 0.5957924
608.40 0.5955297
608.50 0.5952671
608.60 0.5950047
608.70 0.5947303
608.80 0.5944506
608.90 0.5941711
609.00 0.5938917
609.10 0.5936125
609.20 0.5933335
609.30 0.5930669
609.40 0.5928004
609.50 0.5925341
609.60 0.592268
609.70 0.5920019
609.80 0.5917361
609.90 0.5914703
610.00 0.5912048
610.10 0.5909393
610.20 0.590674
610.30 0.5904088
610.40 0.5901438
610.50 0.589879
610.60 0.5896142
610.70 0.5893496
610.80 0.5890852
610.90 0.5888097
611.00 0.5885345
611.10 0.5882593
611.20 0.5879844
611.30 0.5877095
611.40 0.5874348
611.50 0.5871603
611.60 0.5868859
611.70 0.5866117
611.80 0.5863376
611.90 0.5860636
612.00 0.5857898
612.10 0.5855162
612.20 0.5852427
612.30 0.5849693
612.40 0.5847025
612.50 0.5844357
612.60 0.5841691
612.70 0.5839027
612.80 0.5836363
612.90 0.5833702
613.00 0.5831041
613.10 0.5828383
613.20 0.5825725
613.30 0.5823069
613.40 0.5820415
613.50 0.5817761
613.60 0.581511
613.70 0.5812459
613.80 0.580981
613.90 0.5807163
614.00 0.5804517
614.10 0.5801872
614.20 0.5799229
614.30 0.5796587
614.40 0.5793797
614.50 0.5791008
614.60 0.578822
614.70 0.5785435
614.80 0.5782762
614.90 0.5780114
615.00 0.5777467
615.10 0.5774821
615.20 0.5772177
615.30 0.5769534
615.40 0.5766893
615.50 0.5764253
615.60 0.5761615
615.70 0.5758978
615.80 0.5756342
615.90 0.5753708
616.00 0.5751075
616.10 0.5748444
616.20 0.5745814
616.30 0.5743185
616.40 0.5740558
616.50 0.5737932
616.60 0.5735308
616.70 0.5732685
616.80 0.5730063
616.90 0.5727447
617.00 0.5724832
617.10 0.5722218
617.20 0.5719606
617.30 0.5716996
617.40 0.5714386
617.50 0.5711778
617.60 0.5709172
617.70 0.5706566
617.80 0.5703963
617.90 0.570136
618.00 0.5698759
618.10 0.569616
618.20 0.5693561
618.30 0.5690964
618.40 0.5688369
618.50 0.5685775
618.60 0.5683182
618.70 0.5680591
618.80 0.5678001
618.90 0.5675412
619.00 0.5672825
619.10 0.5670239
619.20 0.5667654
619.30 0.5665071
619.40 0.566249
619.50 0.5659909
619.60 0.565733
619.70 0.5654753
619.80 0.5652176
619.90 0.5649602
620.00 0.5647028
620.10 0.5644456
620.20 0.5641885
620.30 0.5639316
620.40 0.5636748
620.50 0.5634181
620.60 0.5631616
620.70 0.5629052
620.80 0.5626489
620.90 0.5623919
621.00 0.5621336
621.10 0.5618754
621.20 0.5616173
621.30 0.5613594
621.40 0.5611016
621.50 0.5608439
621.60 0.5605864
621.70 0.560329
621.80 0.5600718
621.90 0.5598147
622.00 0.5595577
622.10 0.5593009
622.20 0.5590442
622.30 0.5587876
622.40 0.5585312
622.50 0.5582749
622.60 0.5580187
622.70 0.5577627
622.80 0.5575068
622.90 0.5572511
623.00 0.5569955
623.10 0.55674
623.20 0.5564847
623.30 0.5562294
623.40 0.5559744
623.50 0.5557194
623.60 0.5554646
623.70 0.55521
623.80 0.5549554
623.90 0.554701
624.00 0.5544468
624.10 0.5541926
624.20 0.5539386
624.30 0.5536848
624.40 0.5534311
624.50 0.5531775
624.60 0.552924
624.70 0.5526707
624.80 0.5524175
624.90 0.5521644
625.00 0.5519115
625.10 0.5516587
625.20 0.5514061
625.30 0.5511535
625.40 0.5509012
625.50 0.5506489
625.60 0.5503968
625.70 0.5501448
625.80 0.5498929
625.90 0.5496412
626.00 0.5493896
626.10 0.5491382
626.20 0.5488868
626.30 0.5486356
626.40 0.5483846
626.50 0.5481336
626.60 0.5478828
626.70 0.5476322
626.80 0.5473816
626.90 0.5471312
627.00 0.546881
627.10 0.546631
627.20 0.5463818
627.30 0.5461326
627.40 0.5458836
627.50 0.5456348
627.60 0.545386
627.70 0.5451374
627.80 0.5448889
627.90 0.5446406
628.00 0.5443923
628.10 0.5441442
628.20 0.5438963
628.30 0.5436485
628.40 0.5434008
628.50 0.5431532
628.60 0.5429057
628.70 0.5426584
628.80 0.5424113
628.90 0.5421642
629.00 0.5419173
629.10 0.5416705
629.20 0.5414238
629.30 0.5411773
629.40 0.5409309
629.50 0.5406846
629.60 0.5404385
629.70 0.5401925
629.80 0.5399466
629.90 0.5397008
630.00 0.5394552
630.10 0.5392097
630.20 0.5389643
630.30 0.5387191
630.40 0.538474
630.50 0.538229
630.60 0.5379842
630.70 0.5377395
630.80 0.5374949
630.90 0.5372505
631.00 0.5370061
631.10 0.536762
631.20 0.5365179
631.30 0.5362739
631.40 0.5360301
631.50 0.5357865
631.60 0.5355429
631.70 0.5352995
631.80 0.5350562
631.90 0.534813
632.00 0.5345699
632.10 0.534327
632.20 0.5340842
632.30 0.5338416
632.40 0.533599
632.50 0.5333566
632.60 0.5331143
632.70 0.5328722
632.80 0.5326301
632.90 0.5323882
633.00 0.5321464
633.10 0.5319048
633.20 0.5316633
633.30 0.5314219
633.40 0.531181
633.50 0.5309405
633.60 0.5307002
633.70 0.53046
633.80 0.5302199
633.90 0.5299799
634.00 0.5297401
634.10 0.5295004
634.20 0.5292608
634.30 0.5290214
634.40 0.5287821
634.50 0.5285428
634.60 0.5283038
634.70 0.5280648
634.80 0.527826
634.90 0.5275873
635.00 0.5273487
635.10 0.5271102
635.20 0.5268719
635.30 0.5266337
635.40 0.5263956
635.50 0.5261576
635.60 0.5259198
635.70 0.5256821
635.80 0.5254445
635.90 0.525207
636.00 0.5249697
636.10 0.5247324
636.20 0.5244953
636.30 0.5242584
636.40 0.5240215
636.50 0.5237848
636.60 0.5235482
636.70 0.5233117
636.80 0.5230754
636.90 0.5228392
637.00 0.5226031
637.10 0.5223671
637.20 0.5221313
637.30 0.5218955
637.40 0.5216599
637.50 0.5214244
637.60 0.5211891
637.70 0.5209538
637.80 0.5207187
637.90 0.5204837
638.00 0.5202489
638.10 0.5200141
638.20 0.5197795
638.30 0.519545
638.40 0.5193106
638.50 0.5190763
638.60 0.5188422
638.70 0.5186081
638.80 0.5183742
638.90 0.5181405
639.00 0.5179068
639.10 0.5176733
639.20 0.5174398
639.30 0.5172065
639.40 0.5169734
639.50 0.5167403
639.60 0.5165074
639.70 0.5162741
639.80 0.5160394
639.90 0.5158048
640.00 0.5155704
640.10 0.515336
640.20 0.5151018
640.30 0.5148677
640.40 0.5146338
640.50 0.5143999
640.60 0.5141662
640.70 0.5139326
640.80 0.5136991
640.90 0.5134657
641.00 0.5132325
641.10 0.5129994
641.20 0.5127663
641.30 0.5125335
641.40 0.5123007
641.50 0.5120681
641.60 0.5118355
641.70 0.5116031
641.80 0.5113708
641.90 0.5111387
642.00 0.5109066
642.10 0.5106747
642.20 0.5104429
642.30 0.5102112
642.40 0.5099797
642.50 0.5097482
642.60 0.5095169
642.70 0.5092857
642.80 0.5090546
642.90 0.5088236
643.00 0.5085927
643.10 0.508362
643.20 0.5081314
643.30 0.5079008
643.40 0.5076704
643.50 0.5074402
643.60 0.50721
643.70 0.50698
643.80 0.50675
643.90 0.5065202
644.00 0.5062906
644.10 0.506061
644.20 0.5058315
644.30 0.5056022
644.40 0.505373
644.50 0.5051439
644.60 0.5049149
644.70 0.5046861
644.80 0.5044573
644.90 0.5042287
645.00 0.5040002
645.10 0.5037718
645.20 0.5035435
645.30 0.5033154
645.40 0.5030873
645.50 0.5028594
645.60 0.5026316
645.70 0.5024039
645.80 0.5021763
645.90 0.5019489
646.00 0.5017216
646.10 0.5014945
646.20 0.5012681
646.30 0.5010419
646.40 0.5008157
646.50 0.5005897
646.60 0.5003637
646.70 0.5001379
646.80 0.4999122
646.90 0.4996866
647.00 0.4994612
647.10 0.4992358
647.20 0.4990106
647.30 0.4987855
647.40 0.4985605
647.50 0.4983356
647.60 0.4981108
647.70 0.4978862
647.80 0.4976616
647.90 0.4974372
648.00 0.4972129
648.10 0.4969887
648.20 0.4967646
648.30 0.4965406
648.40 0.4963168
648.50 0.496093
648.60 0.4958694
648.70 0.4956459
648.80 0.4954225
648.90 0.4951992
649.00 0.4949761
649.10 0.494753
649.20 0.4945301
649.30 0.4943072
649.40 0.4940845
649.50 0.493862
649.60 0.4936395
649.70 0.4934171
649.80 0.4931949
649.90 0.4929728
650.00 0.4927508
650.10 0.4925289
650.20 0.4923071
650.30 0.4920854
650.40 0.4918639
650.50 0.4916424
650.60 0.4914211
650.70 0.4911999
650.80 0.4909788
650.90 0.4907578
651.00 0.4905369
651.10 0.4903161
651.20 0.4900955
651.30 0.4898749
651.40 0.4896545
651.50 0.4894342
651.60 0.489214
651.70 0.4889939
651.80 0.4887739
651.90 0.488554
652.00 0.4883343
652.10 0.4881146
652.20 0.4878951
652.30 0.4876757
652.40 0.4874564
652.50 0.4872372
652.60 0.4870171
652.70 0.4867967
652.80 0.4865764
652.90 0.4863562
653.00 0.4861361
653.10 0.4859161
653.20 0.4856962
653.30 0.4854764
653.40 0.4852568
653.50 0.4850373
653.60 0.4848178
653.70 0.4845985
653.80 0.4843793
653.90 0.4841602
654.00 0.4839413
654.10 0.4837224
654.20 0.4835036
654.30 0.483285
654.40 0.4830665
654.50 0.482848
654.60 0.4826297
654.70 0.4824115
654.80 0.4821934
654.90 0.4819754
655.00 0.4817576
655.10 0.4815398
655.20 0.4813222
655.30 0.4811046
655.40 0.4808872
655.50 0.4806699
655.60 0.4804527
655.70 0.4802356
655.80 0.4800147
655.90 0.479794
656.00 0.4795733
656.10 0.4793528
656.20 0.4791324
656.30 0.4789121
656.40 0.4786919
656.50 0.4784718
656.60 0.4782518
656.70 0.478032
656.80 0.4778122
656.90 0.4775926
657.00 0.4773731
657.10 0.4771537
657.20 0.4769344
657.30 0.4767152
657.40 0.4764961
657.50 0.4762771
657.60 0.4760583
657.70 0.4758395
657.80 0.4756234
657.90 0.4754008
658.00 0.4751771
658.10 0.4749536
658.20 0.4747302
658.30 0.4745068
658.40 0.4742836
658.50 0.4740606
658.60 0.4738376
658.70 0.4736147
658.80 0.473392
658.90 0.4731694
659.00 0.4729468
659.10 0.4727326
659.20 0.4725307
659.30 0.4723067
659.40 0.4720828
659.50 0.4718589
659.60 0.4716352
659.70 0.4714116
659.80 0.4711882
659.90 0.4709648
660.00 0.4707416
660.10 0.4705184
660.20 0.4702954
660.30 0.4700725
660.40 0.4698466
660.50 0.4696203
660.60 0.4693942
660.70 0.4691681
660.80 0.4689421
660.90 0.4687025
661.00 0.4684631
661.10 0.4682237
661.20 0.4679845
661.30 0.4677454
661.40 0.4675064
661.50 0.4672675
661.60 0.4670288
661.70 0.4667902
661.80 0.4665517
661.90 0.4663004
662.00 0.4660492
662.10 0.4657982
662.20 0.4655473
662.30 0.4652965
662.40 0.4650585
662.50 0.4647966
662.60 0.4645348
662.70 0.4642731
662.80 0.4640116
662.90 0.4637907
663.00 0.4635699
663.10 0.4632683
663.20 0.4630074
663.30 0.4627869
663.40 0.4625262
663.50 0.4622656
663.60 0.4620052
663.70 0.4617158
663.80 0.4614265
663.90 0.4611538
664.00 0.4608841
664.10 0.4605706
664.20 0.4602573
664.30 0.4599441
664.40 0.4596311
664.50 0.4593183
664.60 0.4590057
664.70 0.458591
664.80 0.4581766
664.90 0.4577625
665.00 0.4573485
665.10 0.4569348
665.20 0.4565213
665.30 0.4561081
665.40 0.4556951
665.50 0.4551847
665.60 0.4546574
665.70 0.4539713
665.80 0.4532049
665.90 0.452439
666.00 0.4516735
666.10 0.4509084
666.20 0.4501438
666.30 0.4493796
666.40 0.4486158
666.50 0.4473322
666.60 0.4459575
666.70 0.4445836
666.80 0.4432106
666.90 0.4418383
667.00 0.4404668
667.10 0.4386804
667.20 0.4368216
667.30 0.4348334
667.40 0.4328464
667.50 0.4309118
667.60 0.4289874
667.70 0.427144
667.80 0.4253016
667.90 0.4260113
668.00 0.4272983
668.10 0.4286921
668.20 0.4300373
668.30 0.431534
668.40 0.4330566
668.50 0.4345782
668.60 0.436099
668.70 0.437409
668.80 0.4383589
668.90 0.4393081
669.00 0.4402568
669.10 0.4412049
669.20 0.4421524
669.30 0.4425803
669.40 0.4429163
669.50 0.4432521
669.60 0.4435877
669.70 0.443923
669.80 0.4442582
669.90 0.4445931
670.00 0.4449278
670.10 0.4452623
670.20 0.4455965
670.30 0.4457001
670.40 0.4457629
670.50 0.4458257
670.60 0.4458884
670.70 0.445951
670.80 0.445896
670.90 0.4458411
671.00 0.4457861
671.10 0.4457312
671.20 0.4456762
671.30 0.4456213
671.40 0.4455664
671.50 0.4455115
671.60 0.4454566
671.70 0.4454018
671.80 0.4453469
671.90 0.445226
672.00 0.4450935
672.10 0.4449611
672.20 0.4448287
672.30 0.4446964
672.40 0.4445559
672.50 0.4444149
672.60 0.444274
672.70 0.4441331
672.80 0.4439923
672.90 0.4438516
673.00 0.4437109
673.10 0.4435702
673.20 0.4434297
673.30 0.443298
673.40 0.443133
673.50 0.4429622
673.60 0.4427915
673.70 0.4426209
673.80 0.4424504
673.90 0.4422799
674.00 0.4421095
674.10 0.4419393
674.20 0.441769
674.30 0.4415989
674.40 0.4414289
674.50 0.4412589
674.60 0.441089
674.70 0.4409192
674.80 0.4407495
674.90 0.4405799
675.00 0.4404103
675.10 0.4402408
675.20 0.4400714
675.30 0.4399021
675.40 0.439721
675.50 0.4395378
675.60 0.4393547
675.70 0.4391717
675.80 0.4389888
675.90 0.438806
676.00 0.4386232
676.10 0.4384406
676.20 0.438258
676.30 0.4380756
676.40 0.4378932
676.50 0.4377109
676.60 0.4375287
676.70 0.4373466
676.80 0.4371646
676.90 0.4369826
677.00 0.4368008
677.10 0.436619
677.20 0.4364373
677.30 0.4362558
677.40 0.4360743
677.50 0.4358929
677.60 0.4357116
677.70 0.4355303
677.80 0.4353492
677.90 0.4351641
678.00 0.4349785
678.10 0.4347929
678.20 0.4346074
678.30 0.434422
678.40 0.4342367
678.50 0.4340515
678.60 0.4338664
678.70 0.4336814
678.80 0.4334964
678.90 0.4333116
679.00 0.4331268
679.10 0.43294
679.20 0.4327524
679.30 0.4325648
679.40 0.4323773
679.50 0.43219
679.60 0.4320027
679.70 0.4318155
679.80 0.4316284
679.90 0.4314414
680.00 0.4312545
680.10 0.4310676
680.20 0.4308809
680.30 0.4306943
680.40 0.4305077
680.50 0.4303212
680.60 0.4301349
680.70 0.4299486
680.80 0.4297624
680.90 0.4295763
681.00 0.4293903
681.10 0.4292044
681.20 0.4290186
681.30 0.4288328
681.40 0.4286472
681.50 0.4284616
681.60 0.4282762
681.70 0.4280908
681.80 0.4279055
681.90 0.4277203
682.00 0.4275352
682.10 0.4273502
682.20 0.4271653
682.30 0.4269805
682.40 0.4267957
682.50 0.4266111
682.60 0.4264265
682.70 0.426242
682.80 0.4260577
682.90 0.4258734
683.00 0.4256892
683.10 0.425505
683.20 0.425321
683.30 0.4251371
683.40 0.4249532
683.50 0.4247695
683.60 0.4245858
683.70 0.4244023
683.80 0.4242188
683.90 0.4240354
684.00 0.4238521
684.10 0.4236688
684.20 0.4234857
684.30 0.4233027
684.40 0.4231197
684.50 0.4229368
684.60 0.4227541
684.70 0.4225714
684.80 0.4223888
684.90 0.4222063
685.00 0.4220239
685.10 0.4218415
685.20 0.4216593
685.30 0.4214771
685.40 0.4212951
685.50 0.4211131
685.60 0.4209312
685.70 0.4207494
685.80 0.4205677
685.90 0.4203856
686.00 0.4202036
686.10 0.4200216
686.20 0.4198398
686.30 0.419658
686.40 0.4194763
686.50 0.4192947
686.60 0.4191132
686.70 0.4189317
686.80 0.4187504
686.90 0.4185691
687.00 0.418388
687.10 0.4182069
687.20 0.4180259
687.30 0.417845
687.40 0.4176642
687.50 0.4174835
687.60 0.4173028
687.70 0.4171223
687.80 0.4169418
687.90 0.4167614
688.00 0.4165811
688.10 0.4164009
688.20 0.4162208
688.30 0.4160408
688.40 0.4158608
688.50 0.415681
688.60 0.4155012
688.70 0.4153215
688.80 0.4151419
688.90 0.4149624
689.00 0.414783
689.10 0.4146037
689.20 0.4144244
689.30 0.4142453
689.40 0.4140662
689.50 0.4138872
689.60 0.4137083
689.70 0.4135295
689.80 0.4133507
689.90 0.4131721
690.00 0.4129935
690.10 0.4128151
690.20 0.4126367
690.30 0.4124584
690.40 0.4122802
690.50 0.412102
690.60 0.411924
690.70 0.4117461
690.80 0.4115682
690.90 0.4113904
691.00 0.4112127
691.10 0.4110351
691.20 0.4108576
691.30 0.4106801
691.40 0.4105028
691.50 0.4103255
691.60 0.4101483
691.70 0.4099712
691.80 0.4097942
691.90 0.4096173
692.00 0.4094404
692.10 0.4092637
692.20 0.409087
692.30 0.4089104
692.40 0.4087339
692.50 0.4085575
692.60 0.4083811
692.70 0.4082046
692.80 0.4080269
692.90 0.4078494
693.00 0.4076719
693.10 0.4074945
693.20 0.4073172
693.30 0.40714
693.40 0.4069628
693.50 0.4067858
693.60 0.4066088
693.70 0.4064319
693.80 0.4062551
693.90 0.4060784
694.00 0.4059018
694.10 0.4057253
694.20 0.4055488
694.30 0.4053724
694.40 0.4051962
694.50 0.40502
694.60 0.4048438
694.70 0.4046678
694.80 0.4044919
694.90 0.404316
695.00 0.4041402
695.10 0.4039645
695.20 0.4037889
695.30 0.4036134
695.40 0.403438
695.50 0.4032626
695.60 0.4030873
695.70 0.4029122
695.80 0.402737
695.90 0.402562
696.00 0.4023871
696.10 0.4022122
696.20 0.4020375
696.30 0.4018628
696.40 0.4016882
696.50 0.4015137
696.60 0.4013373
696.70 0.4011606
696.80 0.4009839
696.90 0.4008073
697.00 0.4006308
697.10 0.4004544
697.20 0.4002781
697.30 0.4001019
697.40 0.3999257
697.50 0.3997496
697.60 0.3995737
697.70 0.3993978
697.80 0.3992219
697.90 0.3990462
698.00 0.3988706
698.10 0.398695
698.20 0.3985195
698.30 0.3983441
698.40 0.3981688
698.50 0.3979936
698.60 0.3978185
698.70 0.3976434
698.80 0.3974684
698.90 0.3972936
699.00 0.3971187
699.10 0.3969432
699.20 0.3967676
699.30 0.3965921
699.40 0.3964167
699.50 0.3962413
699.60 0.3960661
699.70 0.3958863
699.80 0.3957064
699.90 0.3955266
700.00 0.3953469
700.10 0.3951673
700.20 0.3949877
700.30 0.3948083
700.40 0.3946289
700.50 0.3944496
700.60 0.3942704
700.70 0.3940913
700.80 0.3939122
700.90 0.3937333
701.00 0.3935544
701.10 0.393367
701.20 0.3931777
701.30 0.3929884
701.40 0.3927993
701.50 0.3926102
701.60 0.3924212
701.70 0.3922324
701.80 0.3920436
701.90 0.3918549
702.00 0.3916663
702.10 0.3914777
702.20 0.3912893
702.30 0.391101
702.40 0.3909128
702.50 0.3907246
702.60 0.3905076
702.70 0.390284
702.80 0.3900604
702.90 0.389837
703.00 0.3896136
703.10 0.3893904
703.20 0.3891673
703.30 0.3889443
703.40 0.3887214
703.50 0.3884986
703.60 0.388276
703.70 0.3880534
703.80 0.387831
703.90 0.3876086
704.00 0.3873864
704.10 0.3871643
704.20 0.3868356
704.30 0.386482
704.40 0.3861285
704.50 0.3857753
704.60 0.3854223
704.70 0.3850694
704.80 0.3847168
704.90 0.3843643
705.00 0.384012
705.10 0.3836598
705.20 0.3831187
705.30 0.3825335
705.40 0.3819486
705.50 0.381364
705.60 0.3807797
705.70 0.3801957
705.80 0.3794483
705.90 0.3786628
706.00 0.3778777
706.10 0.3770931
706.20 0.3763377
706.30 0.3755896
706.40 0.3747859
706.50 0.3740217
706.60 0.3740147
706.70 0.3743717
706.80 0.3747708
706.90 0.3751629
707.00 0.3755981
707.10 0.3760431
707.20 0.3764878
707.30 0.3769322
707.40 0.3772469
707.50 0.377531
707.60 0.377815
707.70 0.3780987
707.80 0.3783823
707.90 0.3786657
708.00 0.3787478
708.10 0.3787827
708.20 0.3788176
708.30 0.3788524
708.40 0.3788872
708.50 0.3789219
708.60 0.3789566
708.70 0.3789913
708.80 0.3790259
708.90 0.3790605
709.00 0.3789877
709.10 0.3788896
709.20 0.3787916
709.30 0.3786936
709.40 0.3785957
709.50 0.3784978
709.60 0.3784
709.70 0.3783022
709.80 0.3782044
709.90 0.3781067
710.00 0.378009
710.10 0.3779114
710.20 0.3778138
710.30 0.3777162
710.40 0.3776187
710.50 0.3775212
710.60 0.37739
710.70 0.377251
710.80 0.377112
710.90 0.376973
711.00 0.3768342
711.10 0.3766954
711.20 0.3765566
711.30 0.376418
711.40 0.3762794
711.50 0.3761408
711.60 0.3760023
711.70 0.3758639
711.80 0.3757256
711.90 0.3755873
712.00 0.375449
712.10 0.3752995
712.20 0.3751473
712.30 0.3749952
712.40 0.3748431
712.50 0.3746912
712.60 0.3745393
712.70 0.3743874
712.80 0.3742357
712.90 0.374084
713.00 0.3739324
713.10 0.3737808
713.20 0.3736293
713.30 0.3734779
713.40 0.3733266
713.50 0.3731753
713.60 0.3730241
713.70 0.3728753
713.80 0.3727312
713.90 0.3725871
714.00 0.3724431
714.10 0.3722906
714.20 0.3721362
714.30 0.3719818
714.40 0.3718275
714.50 0.3716733
714.60 0.3715191
714.70 0.371365
714.80 0.371211
714.90 0.3710571
715.00 0.3709032
715.10 0.3707494
715.20 0.3705957
715.30 0.370442
715.40 0.3702884
715.50 0.3701349
715.60 0.3699815
715.70 0.3698281
715.80 0.3696748
715.90 0.3695216
716.00 0.3693684
716.10 0.3692153
716.20 0.3690623
716.30 0.3689094
716.40 0.3687565
716.50 0.3686037
716.60 0.3684497
716.70 0.3682955
716.80 0.3681413
716.90 0.3679873
717.00 0.3678333
717.10 0.3676793
717.20 0.3675255
717.30 0.3673717
717.40 0.367218
717.50 0.3670643
717.60 0.3669107
717.70 0.3667572
717.80 0.3666038
717.90 0.3664504
718.00 0.3662971
718.10 0.3661439
718.20 0.3659882
718.30 0.3658311
718.40 0.3656742
718.50 0.3655173
718.60 0.3653605
718.70 0.3652037
718.80 0.3650471
718.90 0.3648905
719.00 0.3647339
719.10 0.3645775
719.20 0.3644211
719.30 0.3642648
719.40 0.3641086
719.50 0.3639524
719.60 0.3637963
719.70 0.3636403
719.80 0.3634844
719.90 0.3633285
720.00 0.3631727
720.10 0.363017
720.20 0.3628613
720.30 0.3627057
720.40 0.3625502
720.50 0.3623948
720.60 0.3622394
720.70 0.3620934
720.80 0.3619524
720.90 0.3618002
721.00 0.3616475
721.10 0.3614949
721.20 0.3613424
721.30 0.36119
721.40 0.3610376
721.50 0.3608853
721.60 0.360733
721.70 0.3605809
721.80 0.3604288
721.90 0.3602768
722.00 0.3601248
722.10 0.3599729
722.20 0.3598211
722.30 0.3596694
722.40 0.3595177
722.50 0.3593661
722.60 0.3592146
722.70 0.3590615
722.80 0.3589077
722.90 0.358754
723.00 0.3586003
723.10 0.3584467
723.20 0.3582932
723.30 0.3581398
723.40 0.3579864
723.50 0.3578331
723.60 0.3576799
723.70 0.3575267
723.80 0.3573736
723.90 0.3572206
724.00 0.3570677
724.10 0.3569148
724.20 0.3567559
724.30 0.3565939
724.40 0.3564319
724.50 0.35627
724.60 0.3561081
724.70 0.3559464
724.80 0.3557847
724.90 0.3556231
725.00 0.3554616
725.10 0.3553001
725.20 0.3551388
725.30 0.3549775
725.40 0.3548163
725.50 0.3546551
725.60 0.354494
725.70 0.354333
725.80 0.3541606
725.90 0.353982
726.00 0.3538036
726.10 0.3536252
726.20 0.3534469
726.30 0.3532687
726.40 0.3530905
726.50 0.3529125
726.60 0.3527345
726.70 0.3525566
726.80 0.3523511
726.90 0.3521308
727.00 0.3519106
727.10 0.3516905
727.20 0.3514704
727.30 0.3512505
727.40 0.3510126
727.50 0.3507649
727.60 0.3505173
727.70 0.3502699
727.80 0.3500117
727.90 0.3497477
728.00 0.3495258
728.10 0.3492915
728.20 0.3491327
728.30 0.3491038
728.40 0.3490298
728.50 0.3489675
728.60 0.3489161
728.70 0.3488705
728.80 0.348825
728.90 0.3487795
729.00 0.3487159
729.10 0.3486425
729.20 0.3485692
729.30 0.3484959
729.40 0.3484227
729.50 0.3483494
729.60 0.348253
729.70 0.3481442
729.80 0.3480355
729.90 0.3479268
730.00 0.3478181
730.10 0.3477095
730.20 0.3476009
730.30 0.3474924
730.40 0.3473839
730.50 0.3472755
730.60 0.3471487
730.70 0.3470121
730.80 0.3468755
730.90 0.346739
731.00 0.3466025
731.10 0.3464661
731.20 0.3463298
731.30 0.3461935
731.40 0.3460573
731.50 0.3459212
731.60 0.3457851
731.70 0.3456491
731.80 0.3455131
731.90 0.3453772
732.00 0.3452414
732.10 0.3451056
732.20 0.3449681
732.30 0.3448296
732.40 0.3446913
732.50 0.344553
732.60 0.3444148
732.70 0.3442766
732.80 0.3441385
732.90 0.3440005
733.00 0.3438625
733.10 0.3437246
733.20 0.3435867
733.30 0.3434489
733.40 0.3433112
733.50 0.3431735
733.60 0.3430359
733.70 0.3428933
733.80 0.342748
733.90 0.3426028
734.00 0.3424577
734.10 0.3423126
734.20 0.3421676
734.30 0.3420227
734.40 0.3418778
734.50 0.341733
734.60 0.3415883
734.70 0.3414436
734.80 0.341299
734.90 0.3411545
735.00 0.34101
735.10 0.3408656
735.20 0.3407213
735.30 0.3405781
735.40 0.3404471
735.50 0.3403162
735.60 0.3401854
735.70 0.340047
735.80 0.3399047
735.90 0.3397624
736.00 0.3396202
736.10 0.339478
736.20 0.339336
736.30 0.3391939
736.40 0.339052
736.50 0.3389101
736.60 0.3387683
736.70 0.3386265
736.80 0.3384848
736.90 0.3383432
737.00 0.3382016
737.10 0.3380601
737.20 0.3379187
737.30 0.3377773
737.40 0.337636
737.50 0.3374947
737.60 0.3373535
737.70 0.3372124
737.80 0.3370714
737.90 0.3369304
738.00 0.3367894
738.10 0.3366486
738.20 0.336509
738.30 0.3363701
738.40 0.3362313
738.50 0.3360925
738.60 0.3359538
738.70 0.3358152
738.80 0.3356766
738.90 0.3355381
739.00 0.3353996
739.10 0.3352612
739.20 0.3351229
739.30 0.3349847
739.40 0.3348465
739.50 0.3347083
739.60 0.3345703
739.70 0.3344322
739.80 0.3342943
739.90 0.3341564
740.00 0.3340186
740.10 0.3338808
740.20 0.3337431
740.30 0.3336055
740.40 0.3334679
740.50 0.3333304
740.60 0.3331929
740.70 0.3330555
740.80 0.3329182
740.90 0.332781
741.00 0.3326437
741.10 0.3325066
741.20 0.3323695
741.30 0.3322325
741.40 0.3320956
741.50 0.3319587
741.60 0.3318218
741.70 0.3316851
741.80 0.3315483
741.90 0.3314117
742.00 0.3312751
742.10 0.3311386
742.20 0.3310021
742.30 0.3308657
742.40 0.3307294
742.50 0.3305931
742.60 0.3304569
742.70 0.3303193
742.80 0.3301805
742.90 0.3300418
743.00 0.3299032
743.10 0.3297646
743.20 0.3296261
743.30 0.3294877
743.40 0.3293493
743.50 0.329211
743.60 0.3290728
743.70 0.3289351
743.80 0.3287994
743.90 0.3286637
744.00 0.3285281
744.10 0.3283926
744.20 0.3282571
744.30 0.3281217
744.40 0.3279864
744.50 0.3278511
744.60 0.3277159
744.70 0.3275807
744.80 0.3274456
744.90 0.3273106
745.00 0.3271756
745.10 0.3270407
745.20 0.3269059
745.30 0.3267711
745.40 0.3266363
745.50 0.3265017
745.60 0.3263671
745.70 0.3262325
745.80 0.326098
745.90 0.3259636
746.00 0.3258292
746.10 0.3256949
746.20 0.3255607
746.30 0.3254265
746.40 0.3252923
746.50 0.3251583
746.60 0.3250243
746.70 0.3248903
746.80 0.3247564
746.90 0.3246226
747.00 0.3244888
747.10 0.3243551
747.20 0.3242215
747.30 0.3240879
747.40 0.3239544
747.50 0.3238209
747.60 0.3236875
747.70 0.3235541
747.80 0.3234208
747.90 0.3232876
748.00 0.3231544
748.10 0.3230213
748.20 0.3228883
748.30 0.3227553
748.40 0.3226224
748.50 0.3224895
748.60 0.3223567
748.70 0.3222239
748.80 0.3220912
748.90 0.3219586
749.00 0.321826
749.10 0.3216935
749.20 0.321561
749.30 0.3214286
749.40 0.3212963
749.50 0.321164
749.60 0.3210318
749.70 0.3208996
749.80 0.3207675
749.90 0.3206355
750.00 0.3205035
750.10 0.3203714
750.20 0.3202388
750.30 0.3201063
750.40 0.3199738
750.50 0.3198414
750.60 0.3197091
750.70 0.3195768
750.80 0.3194445
750.90 0.3193124
751.00 0.3191803
751.10 0.3190482
751.20 0.3189162
751.30 0.3187843
751.40 0.3186524
751.50 0.3185206
751.60 0.3183888
751.70 0.3182571
751.80 0.3181255
751.90 0.3179939
752.00 0.3178624
752.10 0.3177309
752.20 0.3175995
752.30 0.3174682
752.40 0.3173369
752.50 0.3172057
752.60 0.3170745
752.70 0.3169434
752.80 0.3168123
752.90 0.3166813
753.00 0.3165504
753.10 0.3164195
753.20 0.3162887
753.30 0.3161579
753.40 0.3160272
753.50 0.3158966
753.60 0.315766
753.70 0.3156355
753.80 0.315505
753.90 0.3153746
754.00 0.3152442
754.10 0.3151139
754.20 0.3149837
754.30 0.3148535
754.40 0.3147234
754.50 0.3145933
754.60 0.3144633
754.70 0.3143334
754.80 0.3142035
754.90 0.3140737
755.00 0.3139439
755.10 0.3138142
755.20 0.3136845
755.30 0.3135549
755.40 0.3134254
755.50 0.3132959
755.60 0.3131664
755.70 0.3130371
755.80 0.3129078
755.90 0.3127785
756.00 0.3126493
756.10 0.3125202
756.20 0.3123911
756.30 0.3122621
756.40 0.3121331
756.50 0.3120042
756.60 0.3118753
756.70 0.3117465
756.80 0.3116178
756.90 0.3114891
757.00 0.3113605
757.10 0.3112319
757.20 0.3111034
757.30 0.3109749
757.40 0.3108465
757.50 0.3107182
757.60 0.3105905
757.70 0.3104644
757.80 0.3103383
757.90 0.3102123
758.00 0.3100863
758.10 0.3099604
758.20 0.3098346
758.30 0.3097088
758.40 0.309583
758.50 0.3094573
758.60 0.3093317
758.70 0.3092061
758.80 0.3090806
758.90 0.3089552
759.00 0.3088298
759.10 0.3087044
759.20 0.3085791
759.30 0.3084539
759.40 0.3083287
759.50 0.3082036
759.60 0.3080785
759.70 0.3079535
759.80 0.3078285
759.90 0.3077036
760.00 0.3075787
760.10 0.3074539
760.20 0.3073292
760.30 0.3072045
760.40 0.3070799
760.50 0.3069553
760.60 0.3068308
760.70 0.3067063
760.80 0.3065819
760.90 0.3064575
761.00 0.3063332
761.10 0.306209
761.20 0.3060848
761.30 0.3059606
761.40 0.3058359
761.50 0.3057102
761.60 0.3055846
761.70 0.3054591
761.80 0.3053336
761.90 0.3052082
762.00 0.3050828
762.10 0.3049575
762.20 0.3048322
762.30 0.304707
762.40 0.3045819
762.50 0.3044568
762.60 0.3043317
762.70 0.3042068
762.80 0.3040818
762.90 0.3039569
763.00 0.3038321
763.10 0.3037074
763.20 0.3035826
763.30 0.303458
763.40 0.3033334
763.50 0.3032088
763.60 0.3030843
763.70 0.3029599
763.80 0.3028355
763.90 0.3027112
764.00 0.3025869
764.10 0.3024627
764.20 0.3023385
764.30 0.3022144
764.40 0.3020904
764.50 0.3019664
764.60 0.3018424
764.70 0.3017185
764.80 0.3015947
764.90 0.3014709
765.00 0.3013472
765.10 0.3012235
765.20 0.3011005
765.30 0.3009782
765.40 0.3008559
765.50 0.3007337
765.60 0.3006116
765.70 0.3004894
765.80 0.3003674
765.90 0.3002454
766.00 0.3001234
766.10 0.3000015
766.20 0.2998797
766.30 0.2997579
766.40 0.2996362
766.50 0.2995145
766.60 0.2993928
766.70 0.2992713
766.80 0.2991497
766.90 0.2990283
767.00 0.2989069
767.10 0.2987855
767.20 0.2986642
767.30 0.2985429
767.40 0.2984217
767.50 0.2983006
767.60 0.2981795
767.70 0.2980584
767.80 0.2979374
767.90 0.2978165
768.00 0.2976956
768.10 0.2975748
768.20 0.297454
768.30 0.2973333
768.40 0.2972126
768.50 0.297092
768.60 0.2969714
768.70 0.2968509
768.80 0.2967304
768.90 0.29661
769.00 0.2964896
769.10 0.2963693
769.20 0.2962491
769.30 0.2961289
769.40 0.2960087
769.50 0.2958886
769.60 0.2957686
769.70 0.2956486
769.80 0.2955286
769.90 0.2954087
770.00 0.2952889
770.10 0.2951691
770.20 0.2950494
770.30 0.2949297
770.40 0.2948101
770.50 0.2946905
770.60 0.294571
770.70 0.2944515
770.80 0.2943321
770.90 0.2942127
771.00 0.2940934
771.10 0.2939742
771.20 0.2938549
771.30 0.2937358
771.40 0.2936167
771.50 0.2934976
771.60 0.2933786
771.70 0.2932597
771.80 0.2931408
771.90 0.2930219
772.00 0.2929031
772.10 0.2927844
772.20 0.2926657
772.30 0.292547
772.40 0.2924285
772.50 0.2923099
772.60 0.2921914
772.70 0.292073
772.80 0.2919546
772.90 0.2918367
773.00 0.2917188
773.10 0.291601
773.20 0.2914833
773.30 0.2913656
773.40 0.2912479
773.50 0.2911303
773.60 0.2910128
773.70 0.2908953
773.80 0.2907778
773.90 0.2906604
774.00 0.2905431
774.10 0.2904258
774.20 0.2903085
774.30 0.2901913
774.40 0.2900742
774.50 0.2899571
774.60 0.28984
774.70 0.289723
774.80 0.2896061
774.90 0.2894892
775.00 0.2893724
775.10 0.2892556
775.20 0.2891388
775.30 0.2890221
775.40 0.2889055
775.50 0.2887889
775.60 0.2886724
775.70 0.2885559
775.80 0.2884395
775.90 0.2883231
776.00 0.2882067
776.10 0.2880905
776.20 0.2879742
776.30 0.287858
776.40 0.2877419
776.50 0.2876258
776.60 0.2875098
776.70 0.2873938
776.80 0.2872779
776.90 0.287162
777.00 0.2870462
777.10 0.2869304
777.20 0.2868146
777.30 0.286699
777.40 0.2865833
777.50 0.2864677
777.60 0.2863522
777.70 0.2862367
777.80 0.2861213
777.90 0.2860059
778.00 0.2858906
778.10 0.2857753
778.20 0.2856601
778.30 0.2855449
778.40 0.2854297
778.50 0.2853147
778.60 0.2851996
778.70 0.2850846
778.80 0.2849697
778.90 0.2848548
779.00 0.28474
779.10 0.2846252
779.20 0.2845105
779.30 0.2843958
779.40 0.2842811
779.50 0.2841666
779.60 0.284052
779.70 0.2839375
779.80 0.2838231
779.90 0.2837087
780.00 0.2835944
780.10 0.2834801
780.20 0.2833658
780.30 0.2832516
780.40 0.2831375
780.50 0.2830234
780.60 0.2829101
780.70 0.2827972
780.80 0.2826844
780.90 0.2825716
781.00 0.2824589
781.10 0.2823462
781.20 0.2822335
781.30 0.2821209
781.40 0.2820084
781.50 0.2818959
781.60 0.2817834
781.70 0.281671
781.80 0.2815587
781.90 0.2814463
782.00 0.2813341
782.10 0.2812219
782.20 0.2811097
782.30 0.2809976
782.40 0.2808855
782.50 0.2807735
782.60 0.2806615
782.70 0.2805496
782.80 0.2804377
782.90 0.2803259
783.00 0.2802141
783.10 0.2801024
783.20 0.2799907
783.30 0.2798791
783.40 0.2797675
783.50 0.2796559
783.60 0.2795445
783.70 0.279433
783.80 0.2793216
783.90 0.2792103
784.00 0.279099
784.10 0.2789877
784.20 0.2788765
784.30 0.2787653
784.40 0.2786542
784.50 0.2785432
784.60 0.2784317
784.70 0.2783193
784.80 0.278207
784.90 0.2780947
785.00 0.2779824
785.10 0.2778702
785.20 0.277758
785.30 0.2776459
785.40 0.2775339
785.50 0.2774219
785.60 0.2773099
785.70 0.277198
785.80 0.2770861
785.90 0.2769743
786.00 0.2768625
786.10 0.2767508
786.20 0.2766391
786.30 0.2765275
786.40 0.2764159
786.50 0.2763044
786.60 0.2761929
786.70 0.2760814
786.80 0.27597
786.90 0.2758587
787.00 0.2757474
787.10 0.2756361
787.20 0.2755249
787.30 0.2754138
787.40 0.2753027
787.50 0.2751916
787.60 0.2750806
787.70 0.2749696
787.80 0.2748587
787.90 0.2747479
788.00 0.274637
788.10 0.2745263
788.20 0.2744155
788.30 0.2743049
788.40 0.2741955
788.50 0.2740868
788.60 0.2739781
788.70 0.2738695
788.80 0.2737609
788.90 0.2736523
789.00 0.2735438
789.10 0.2734354
789.20 0.273327
789.30 0.2732187
789.40 0.2731103
789.50 0.2730021
789.60 0.2728939
789.70 0.2727857
789.80 0.2726776
789.90 0.2725695
790.00 0.2724615
790.10 0.2723535
790.20 0.2722456
790.30 0.2721377
790.40 0.2720298
790.50 0.271922
790.60 0.2718143
790.70 0.2717066
790.80 0.2715989
790.90 0.2714913
791.00 0.2713837
791.10 0.2712762
791.20 0.2711687
791.30 0.2710613
791.40 0.2709539
791.50 0.2708466
791.60 0.2707393
791.70 0.270632
791.80 0.2705248
791.90 0.2704176
792.00 0.2703105
792.10 0.2702035
792.20 0.2700964
792.30 0.2699894
792.40 0.2698825
792.50 0.2697756
792.60 0.2696688
792.70 0.269562
792.80 0.2694552
792.90 0.2693485
793.00 0.2692418
793.10 0.2691352
793.20 0.2690286
793.30 0.2689221
793.40 0.2688156
793.50 0.2687091
793.60 0.2686027
793.70 0.2684964
793.80 0.2683901
793.90 0.2682838
794.00 0.2681776
794.10 0.2680714
794.20 0.2679653
794.30 0.2678592
794.40 0.2677532
794.50 0.2676472
794.60 0.2675412
794.70 0.2674353
794.80 0.2673294
794.90 0.2672236
795.00 0.2671179
795.10 0.2670121
795.20 0.2669064
795.30 0.2668008
795.40 0.2666952
795.50 0.2665897
795.60 0.2664842
795.70 0.2663787
795.80 0.2662733
795.90 0.2661679
796.00 0.2660626
796.10 0.2659573
796.20 0.2658521
796.30 0.2657466
796.40 0.2656412
796.50 0.2655358
796.60 0.2654304
796.70 0.265325
796.80 0.2652198
796.90 0.2651145
797.00 0.2650093
797.10 0.2649042
797.20 0.2647991
797.30 0.264694
797.40 0.264589
797.50 0.264484
797.60 0.2643791
797.70 0.2642742
797.80 0.2641693
797.90 0.2640645
798.00 0.2639598
798.10 0.2638551
798.20 0.2637504
798.30 0.2636458
798.40 0.2635412
798.50 0.2634367
798.60 0.2633322
798.70 0.2632277
798.80 0.2631233
798.90 0.263019
799.00 0.2629147
799.10 0.2628104
799.20 0.2627062
799.30 0.262602
799.40 0.2624979
799.50 0.2623938
799.60 0.2622897
799.70 0.2621857
799.80 0.2620818
799.90 0.2619778
800.00 0.261874
800.10 0.2617701
800.20 0.2616663
800.30 0.2615626
800.40 0.2614589
800.50 0.2613552
800.60 0.2612516
800.70 0.2611481
800.80 0.2610445
800.90 0.2609411
801.00 0.2608376
801.10 0.2607342
801.20 0.2606309
801.30 0.2605276
801.40 0.2604243
801.50 0.2603211
801.60 0.2602179
801.70 0.2601148
801.80 0.2600117
801.90 0.2599086
802.00 0.2598056
802.10 0.2597027
802.20 0.2595998
802.30 0.2594969
802.40 0.2593941
802.50 0.2592913
802.60 0.2591885
802.70 0.2590858
802.80 0.2589832
802.90 0.2588805
803.00 0.258778
803.10 0.2586754
803.20 0.258573
803.30 0.2584705
803.40 0.2583681
803.50 0.2582658
803.60 0.2581634
803.70 0.2580612
803.80 0.2579589
803.90 0.2578568
804.00 0.2577546
804.10 0.2576525
804.20 0.2575507
804.30 0.2574497
804.40 0.2573488
804.50 0.257248
804.60 0.2571471
804.70 0.2570464
804.80 0.2569456
804.90 0.2568449
805.00 0.2567443
805.10 0.2566436
805.20 0.2565431
805.30 0.2564425
805.40 0.256342
805.50 0.2562416
805.60 0.2561412
805.70 0.2560408
805.80 0.2559405
805.90 0.2558402
806.00 0.25574
806.10 0.2556398
806.20 0.2555396
806.30 0.2554395
806.40 0.2553395
806.50 0.2552394
806.60 0.2551394
806.70 0.2550395
806.80 0.2549396
806.90 0.2548397
807.00 0.2547399
807.10 0.2546401
807.20 0.2545404
807.30 0.2544407
807.40 0.2543411
807.50 0.2542414
807.60 0.2541419
807.70 0.2540423
807.80 0.2539429
807.90 0.2538434
808.00 0.253744
808.10 0.2536446
808.20 0.2535453
808.30 0.2534447
808.40 0.2533441
808.50 0.2532435
808.60 0.253143
808.70 0.2530426
808.80 0.2529421
808.90 0.2528417
809.00 0.2527414
809.10 0.2526411
809.20 0.2525409
809.30 0.2524406
809.40 0.2523405
809.50 0.2522403
809.60 0.2521402
809.70 0.2520402
809.80 0.2519402
809.90 0.2518402
810.00 0.2517403
810.10 0.2516404
810.20 0.2515406
810.30 0.2514408
810.40 0.251341
810.50 0.2512413
810.60 0.2511416
810.70 0.251042
810.80 0.2509424
810.90 0.2508429
811.00 0.2507434
811.10 0.2506439
811.20 0.2505445
811.30 0.2504451
811.40 0.2503458
811.50 0.2502465
811.60 0.2501472
811.70 0.250048
811.80 0.2499488
811.90 0.2498497
812.00 0.2497506
812.10 0.2496515
812.20 0.2495525
812.30 0.2494553
812.40 0.2493586
812.50 0.2492619
812.60 0.2491653
812.70 0.2490687
812.80 0.2489721
812.90 0.2488756
813.00 0.2487791
813.10 0.2486827
813.20 0.2485863
813.30 0.24849
813.40 0.2483936
813.50 0.2482974
813.60 0.2482011
813.70 0.2481049
813.80 0.2480088
813.90 0.2479127
814.00 0.2478166
814.10 0.2477205
814.20 0.2476245
814.30 0.2475286
814.40 0.2474327
814.50 0.2473368
814.60 0.247241
814.70 0.2471452
814.80 0.2470494
814.90 0.2469537
815.00 0.246858
815.10 0.2467623
815.20 0.2466667
815.30 0.2465712
815.40 0.2464757
815.50 0.2463802
815.60 0.2462847
815.70 0.2461893
815.80 0.246094
815.90 0.2459986
816.00 0.2459033
816.10 0.2458081
816.20 0.2457129
816.30 0.2456177
816.40 0.2455226
816.50 0.2454275
816.60 0.2453325
816.70 0.2452374
816.80 0.2451425
816.90 0.2450475
817.00 0.2449526
817.10 0.2448578
817.20 0.244763
817.30 0.2446682
817.40 0.2445734
817.50 0.2444788
817.60 0.2443841
817.70 0.2442895
817.80 0.2441949
817.90 0.2441003
818.00 0.2440058
818.10 0.2439114
818.20 0.2438169
818.30 0.2437226
818.40 0.2436282
818.50 0.2435339
818.60 0.2434396
818.70 0.2433454
818.80 0.2432512
818.90 0.243157
819.00 0.2430629
819.10 0.2429689
819.20 0.2428748
819.30 0.2427792
819.40 0.2426826
819.50 0.2425861
819.60 0.2424896
819.70 0.2423931
819.80 0.2422966
819.90 0.2422002
820.00 0.2421039
820.10 0.2420109
820.20 0.2419112
820.30 0.2418064
820.40 0.241708
820.50 0.2416142
820.60 0.2415204
820.70 0.2414266
820.80 0.2413329
820.90 0.2412392
821.00 0.2411455
821.10 0.2410519
821.20 0.2409584
821.30 0.2408648
821.40 0.2407713
821.50 0.2406779
821.60 0.2405844
821.70 0.2404911
821.80 0.2403977
821.90 0.2403044
822.00 0.2402111
822.10 0.2401179
822.20 0.2400247
822.30 0.2399316
822.40 0.2398385
822.50 0.2397454
822.60 0.2396524
822.70 0.2395594
822.80 0.2394664
822.90 0.2393735
823.00 0.2392806
823.10 0.2391877
823.20 0.2390949
823.30 0.2390022
823.40 0.2389094
823.50 0.2388167
823.60 0.2387241
823.70 0.2386315
823.80 0.2385389
823.90 0.2384463
824.00 0.2383538
824.10 0.2382614
824.20 0.2381689
824.30 0.2380765
824.40 0.2379842
824.50 0.2378919
824.60 0.2377996
824.70 0.2377073
824.80 0.2376151
824.90 0.237523
825.00 0.2374309
825.10 0.2373388
825.20 0.2372467
825.30 0.2371547
825.40 0.2370627
825.50 0.2369708
825.60 0.2368789
825.70 0.236787
825.80 0.2366952
825.90 0.2366034
826.00 0.2365117
826.10 0.2364199
826.20 0.2363283
826.30 0.236237
826.40 0.2361459
826.50 0.2360549
826.60 0.2359639
826.70 0.235873
826.80 0.2357821
826.90 0.2356913
827.00 0.2356005
827.10 0.2355097
827.20 0.2354189
827.30 0.2353282
827.40 0.2352375
827.50 0.2351469
827.60 0.2350563
827.70 0.2349658
827.80 0.2348752
827.90 0.2347848
828.00 0.2346943
828.10 0.2346039
828.20 0.2345135
828.30 0.2344232
828.40 0.2343329
828.50 0.2342426
828.60 0.2341523
828.70 0.2340621
828.80 0.2339719
828.90 0.2338817
829.00 0.2337915
829.10 0.2337014
829.20 0.2336113
829.30 0.2335213
829.40 0.2334313
829.50 0.2333413
829.60 0.2332514
829.70 0.2331615
829.80 0.2330717
829.90 0.2329818
830.00 0.2328921
830.10 0.2328023
830.20 0.2327126
830.30 0.2326229
830.40 0.2325333
830.50 0.2324437
830.60 0.2323541
830.70 0.2322646
830.80 0.2321751
830.90 0.2320857
831.00 0.2319962
831.10 0.2319069
831.20 0.2318175
831.30 0.2317282
831.40 0.2316389
831.50 0.2315497
831.60 0.2314605
831.70 0.2313713
831.80 0.2312822
831.90 0.2311931
832.00 0.231104
832.10 0.231015
832.20 0.230926
832.30 0.2308371
832.40 0.2307482
832.50 0.2306593
832.60 0.2305705
832.70 0.2304817
832.80 0.2303929
832.90 0.2303042
833.00 0.2302155
833.10 0.2301268
833.20 0.2300382
833.30 0.2299496
833.40 0.229861
833.50 0.2297725
833.60 0.229684
833.70 0.2295956
833.80 0.2295072
833.90 0.2294188
834.00 0.2293305
834.10 0.2292422
834.20 0.2291539
834.30 0.2290657
834.40 0.2289775
834.50 0.2288893
834.60 0.2288012
834.70 0.2287131
834.80 0.2286251
834.90 0.2285371
835.00 0.2284491
835.10 0.2283611
835.20 0.2282732
835.30 0.2281853
835.40 0.2280975
835.50 0.2280097
835.60 0.2279219
835.70 0.2278342
835.80 0.2277465
835.90 0.2276588
836.00 0.2275712
836.10 0.2274836
836.20 0.2273961
836.30 0.2273086
836.40 0.2272211
836.50 0.2271336
836.60 0.2270462
836.70 0.2269588
836.80 0.2268715
836.90 0.2267844
837.00 0.2266975
837.10 0.2266106
837.20 0.2265237
837.30 0.2264368
837.40 0.22635
837.50 0.2262633
837.60 0.2261765
837.70 0.2260898
837.80 0.2260032
837.90 0.2259165
838.00 0.22583
838.10 0.2257434
838.20 0.2256569
838.30 0.2255704
838.40 0.2254839
838.50 0.2253975
838.60 0.2253111
838.70 0.2252248
838.80 0.2251385
838.90 0.2250522
839.00 0.2249659
839.10 0.2248797
839.20 0.2247935
839.30 0.2247074
839.40 0.2246213
839.50 0.2245352
839.60 0.2244492
839.70 0.2243632
839.80 0.2242772
839.90 0.2241913
840.00 0.2241054
840.10 0.2240195
840.20 0.2239337
840.30 0.2238479
840.40 0.2237621
840.50 0.2236764
840.60 0.2235907
840.70 0.223505
840.80 0.2234194
840.90 0.2233338
841.00 0.2232483
841.10 0.2231628
841.20 0.2230773
841.30 0.2229918
841.40 0.2229064
841.50 0.2228211
841.60 0.2227357
841.70 0.2226504
841.80 0.2225651
841.90 0.2224799
842.00 0.2223947
842.10 0.2223095
842.20 0.2222244
842.30 0.2221393
842.40 0.2220542
842.50 0.2219692
842.60 0.2218842
842.70 0.2217992
842.80 0.2217143
842.90 0.2216294
843.00 0.2215445
843.10 0.2214597
843.20 0.2213749
843.30 0.2212901
843.40 0.2212054
843.50 0.2211207
843.60 0.2210361
843.70 0.2209514
843.80 0.2208669
843.90 0.2207823
844.00 0.2206978
844.10 0.2206133
844.20 0.2205288
844.30 0.2204444
844.40 0.22036
844.50 0.2202757
844.60 0.2201913
844.70 0.2201071
844.80 0.2200228
844.90 0.2199386
845.00 0.2198544
845.10 0.2197702
845.20 0.2196861
845.30 0.2196029
845.40 0.2195198
845.50 0.2194367
845.60 0.2193536
845.70 0.2192705
845.80 0.2191875
845.90 0.2191045
846.00 0.2190216
846.10 0.2189387
846.20 0.2188558
846.30 0.2187729
846.40 0.2186901
846.50 0.2186073
846.60 0.2185246
846.70 0.2184418
846.80 0.2183591
846.90 0.2182765
847.00 0.2181939
847.10 0.2181113
847.20 0.2180287
847.30 0.2179462
847.40 0.2178637
847.50 0.2177813
847.60 0.2176988
847.70 0.2176164
847.80 0.2175341
847.90 0.2174518
848.00 0.2173695
848.10 0.2172872
848.20 0.217205
848.30 0.2171228
848.40 0.2170406
848.50 0.2169585
848.60 0.2168764
848.70 0.2167943
848.80 0.2167123
848.90 0.2166303
849.00 0.2165483
849.10 0.2164664
849.20 0.2163845
849.30 0.2163026
849.40 0.2162208
849.50 0.216139
849.60 0.2160572
849.70 0.2159755
849.80 0.2158938
849.90 0.2158121
850.00 0.2157304
850.10 0.2156488
850.20 0.2155673
850.30 0.2154857
850.40 0.2154042
850.50 0.2153227
850.60 0.2152413
850.70 0.2151599
850.80 0.2150785
850.90 0.2149971
851.00 0.2149158
851.10 0.2148345
851.20 0.2147533
851.30 0.2146721
851.40 0.2145909
851.50 0.2145097
851.60 0.2144286
851.70 0.2143475
851.80 0.2142664
851.90 0.2141854
852.00 0.2141044
852.10 0.2140234
852.20 0.2139425
852.30 0.2138616
852.40 0.2137808
852.50 0.2136999
852.60 0.2136191
852.70 0.2135383
852.80 0.2134576
852.90 0.2133769
853.00 0.2132962
853.10 0.2132156
853.20 0.213135
853.30 0.2130544
853.40 0.2129738
853.50 0.2128933
853.60 0.2128128
853.70 0.2127323
853.80 0.2126516
853.90 0.2125709
854.00 0.2124903
854.10 0.2124097
854.20 0.2123291
854.30 0.2122486
854.40 0.2121681
854.50 0.2120876
854.60 0.2120072
854.70 0.2119268
854.80 0.2118464
854.90 0.2117661
855.00 0.2116858
855.10 0.2116055
855.20 0.2115253
855.30 0.211445
855.40 0.2113649
855.50 0.2112847
855.60 0.2112046
855.70 0.2111245
855.80 0.2110445
855.90 0.2109644
856.00 0.2108844
856.10 0.2108045
856.20 0.2107246
856.30 0.2106447
856.40 0.2105648
856.50 0.210485
856.60 0.2104052
856.70 0.2103254
856.80 0.2102457
856.90 0.2101659
857.00 0.2100863
857.10 0.2100066
857.20 0.209927
857.30 0.2098474
857.40 0.2097679
857.50 0.2096884
857.60 0.2096089
857.70 0.2095294
857.80 0.20945
857.90 0.2093706
858.00 0.2092921
858.10 0.209214
858.20 0.2091358
858.30 0.2090576
858.40 0.2089795
858.50 0.2089015
858.60 0.2088234
858.70 0.2087454
858.80 0.2086674
858.90 0.2085895
859.00 0.2085115
859.10 0.2084337
859.20 0.2083558
859.30 0.208278
859.40 0.2082002
859.50 0.2081224
859.60 0.2080447
859.70 0.2079669
859.80 0.2078893
859.90 0.2078116
860.00 0.207734
860.10 0.2076564
860.20 0.2075789
860.30 0.2075013
860.40 0.2074238
860.50 0.2073464
860.60 0.2072689
860.70 0.2071915
860.80 0.2071142
860.90 0.2070368
861.00 0.2069595
861.10 0.2068822
861.20 0.206805
861.30 0.2067278
861.40 0.2066506
861.50 0.2065734
861.60 0.2064963
861.70 0.2064192
861.80 0.2063421
861.90 0.2062651
862.00 0.206188
862.10 0.2061111
862.20 0.206034
862.30 0.2059563
862.40 0.2058786
862.50 0.2058009
862.60 0.2057232
862.70 0.2056456
862.80 0.205568
862.90 0.2054905
863.00 0.205413
863.10 0.2053355
863.20 0.205258
863.30 0.2051806
863.40 0.2051032
863.50 0.2050258
863.60 0.2049485
863.70 0.2048711
863.80 0.2047939
863.90 0.2047166
864.00 0.2046394
864.10 0.2045622
864.20 0.204485
864.30 0.2044079
864.40 0.2043308
864.50 0.2042537
864.60 0.2041767
864.70 0.2040997
864.80 0.2040227
864.90 0.2039457
865.00 0.2038688
865.10 0.2037919
865.20 0.2037151
865.30 0.2036382
865.40 0.2035614
865.50 0.2034847
865.60 0.2034079
865.70 0.2033312
865.80 0.2032546
865.90 0.2031779
866.00 0.2031013
866.10 0.2030247
866.20 0.2029481
866.30 0.2028716
866.40 0.2027951
866.50 0.2027186
866.60 0.2026422
866.70 0.2025658
866.80 0.2024894
866.90 0.2024131
867.00 0.2023367
867.10 0.2022604
867.20 0.2021842
867.30 0.202108
867.40 0.2020318
867.50 0.2019556
867.60 0.2018794
867.70 0.2018033
867.80 0.2017272
867.90 0.2016512
868.00 0.2015752
868.10 0.2014992
868.20 0.2014232
868.30 0.2013473
868.40 0.2012714
868.50 0.2011955
868.60 0.2011197
868.70 0.2010438
868.80 0.2009681
868.90 0.2008923
869.00 0.2008166
869.10 0.2007409
869.20 0.2006652
869.30 0.2005896
869.40 0.200514
869.50 0.2004384
869.60 0.2003628
869.70 0.2002873
869.80 0.2002118
869.90 0.2001364
870.00 0.2000609
870.10 0.1999855
870.20 0.1999102
870.30 0.1998348
870.40 0.1997595
870.50 0.1996842
870.60 0.199609
870.70 0.1995337
870.80 0.1994585
870.90 0.1993846
871.00 0.1993108
871.10 0.1992371
871.20 0.1991634
871.30 0.1990897
871.40 0.199016
871.50 0.1989424
871.60 0.1988688
871.70 0.1987952
871.80 0.1987217
871.90 0.1986482
872.00 0.1985747
872.10 0.1985012
872.20 0.1984278
872.30 0.1983544
872.40 0.198281
872.50 0.1982077
872.60 0.1981343
872.70 0.1980611
872.80 0.1979878
872.90 0.1979146
873.00 0.1978414
873.10 0.1977682
873.20 0.197695
873.30 0.1976219
873.40 0.1975488
873.50 0.1974758
873.60 0.1974027
873.70 0.1973297
873.80 0.1972568
873.90 0.1971838
874.00 0.1971109
874.10 0.197038
874.20 0.1969651
874.30 0.1968923
874.40 0.1968195
874.50 0.1967467
874.60 0.196674
874.70 0.1966012
874.80 0.1965285
874.90 0.1964559
875.00 0.1963832
875.10 0.1963106
875.20 0.196238
875.30 0.1961655
875.40 0.196093
875.50 0.1960205
875.60 0.195948
875.70 0.1958756
875.80 0.1958031
875.90 0.1957308
876.00 0.1956584
876.10 0.1955861
876.20 0.1955138
876.30 0.1954415
876.40 0.1953692
876.50 0.195297
876.60 0.1952248
876.70 0.1951527
876.80 0.1950805
876.90 0.1950084
877.00 0.1949363
877.10 0.1948643
877.20 0.1947923
877.30 0.1947203
877.40 0.1946483
877.50 0.1945764
877.60 0.1945045
877.70 0.1944326
877.80 0.1943607
877.90 0.1942889
878.00 0.1942171
878.10 0.1941453
878.20 0.1940736
878.30 0.1940018
878.40 0.1939301
878.50 0.1938585
878.60 0.1937868
878.70 0.1937152
878.80 0.1936437
878.90 0.1935721
879.00 0.1935006
879.10 0.1934291
879.20 0.1933576
879.30 0.1932862
879.40 0.1932147
879.50 0.1931434
879.60 0.1930714
879.70 0.1929993
879.80 0.1929272
879.90 0.1928551
880.00 0.1927831
880.10 0.1927111
880.20 0.1926392
880.30 0.1925672
880.40 0.1924953
880.50 0.1924234
880.60 0.1923516
880.70 0.1922797
880.80 0.192208
880.90 0.1921362
881.00 0.1920644
881.10 0.1919927
881.20 0.191921
881.30 0.1918494
881.40 0.1917777
881.50 0.1917061
881.60 0.1916346
881.70 0.191563
881.80 0.1914915
881.90 0.19142
882.00 0.1913485
882.10 0.1912771
882.20 0.1912057
882.30 0.1911343
882.40 0.1910629
882.50 0.1909916
882.60 0.1909203
882.70 0.190849
882.80 0.1907778
882.90 0.1907065
883.00 0.1906353
883.10 0.1905642
883.20 0.190493
883.30 0.1904219
883.40 0.1903508
883.50 0.1902798
883.60 0.1902088
883.70 0.1901378
883.80 0.1900668
883.90 0.1899958
884.00 0.1899258
884.10 0.1898559
884.20 0.1897861
884.30 0.1897163
884.40 0.1896465
884.50 0.1895767
884.60 0.189507
884.70 0.1894373
884.80 0.1893676
884.90 0.1892979
885.00 0.1892283
885.10 0.1891587
885.20 0.1890892
885.30 0.1890196
885.40 0.1889501
885.50 0.1888806
885.60 0.1888111
885.70 0.1887417
885.80 0.1886723
885.90 0.1886029
886.00 0.1885335
886.10 0.1884642
886.20 0.1883949
886.30 0.1883256
886.40 0.1882564
886.50 0.1881871
886.60 0.1881179
886.70 0.1880488
886.80 0.1879796
886.90 0.1879105
887.00 0.1878414
887.10 0.1877723
887.20 0.1877033
887.30 0.1876343
887.40 0.1875653
887.50 0.1874963
887.60 0.1874274
887.70 0.1873585
887.80 0.1872896
887.90 0.1872207
888.00 0.1871519
888.10 0.1870831
888.20 0.1870143
888.30 0.1869456
888.40 0.1868771
888.50 0.1868086
888.60 0.1867402
888.70 0.1866718
888.80 0.1866035
888.90 0.1865352
889.00 0.1864669
889.10 0.1863986
889.20 0.1863303
889.30 0.1862621
889.40 0.1861939
889.50 0.1861257
889.60 0.1860576
889.70 0.1859895
889.80 0.1859214
889.90 0.1858533
890.00 0.1857852
890.10 0.1857172
890.20 0.1856492
890.30 0.1855813
890.40 0.1855133
890.50 0.1854454
890.60 0.1853775
890.70 0.1853097
890.80 0.1852418
890.90 0.185174
891.00 0.1851062
891.10 0.1850385
891.20 0.1849707
891.30 0.184903
891.40 0.1848353
891.50 0.1847677
891.60 0.1847001
891.70 0.1846324
891.80 0.1845649
891.90 0.1844973
892.00 0.1844298
892.10 0.1843623
892.20 0.1842948
892.30 0.1842274
892.40 0.1841599
892.50 0.1840925
892.60 0.1840251
892.70 0.1839578
892.80 0.1838905
892.90 0.1838232
893.00 0.1837559
893.10 0.1836887
893.20 0.1836214
893.30 0.1835542
893.40 0.1834871
893.50 0.1834199
893.60 0.1833528
893.70 0.1832857
893.80 0.1832186
893.90 0.1831516
894.00 0.1830846
894.10 0.1830176
894.20 0.1829506
894.30 0.1828837
894.40 0.1828168
894.50 0.1827499
894.60 0.182683
894.70 0.1826162
894.80 0.1825493
894.90 0.1824826
895.00 0.1824158
895.10 0.1823491
895.20 0.1822823
895.30 0.1822156
895.40 0.182149
895.50 0.1820823
895.60 0.1820157
895.70 0.1819491
895.80 0.1818826
895.90 0.181816
896.00 0.1817495
896.10 0.181683
896.20 0.1816166
896.30 0.1815501
896.40 0.1814837
896.50 0.1814173
896.60 0.181351
896.70 0.1812846
896.80 0.1812183
896.90 0.1811521
897.00 0.1810858
897.10 0.1810196
897.20 0.1809534
897.30 0.1808874
897.40 0.1808215
897.50 0.1807556
897.60 0.1806898
897.70 0.180624
897.80 0.1805581
897.90 0.1804924
898.00 0.1804266
898.10 0.1803609
898.20 0.1802952
898.30 0.1802295
898.40 0.1801638
898.50 0.1800982
898.60 0.1800326
898.70 0.179967
898.80 0.1799015
898.90 0.1798359
899.00 0.1797704
899.10 0.1797049
899.20 0.1796395
899.30 0.179574
899.40 0.1795086
899.50 0.1794432
899.60 0.1793779
899.70 0.1793125
899.80 0.1792472
899.90 0.179182
900.00 0.1791167
900.10 0.1790515
900.20 0.1789862
900.30 0.1789211
900.40 0.1788559
900.50 0.1787907
900.60 0.1787256
900.70 0.1786605
900.80 0.1785955
900.90 0.1785304
901.00 0.1784654
901.10 0.1784004
901.20 0.1783355
901.30 0.1782705
901.40 0.1782056
901.50 0.1781407
901.60 0.1780758
901.70 0.178011
901.80 0.1779462
901.90 0.1778814
902.00 0.1778166
902.10 0.1777519
902.20 0.1776871
902.30 0.1776224
902.40 0.1775578
902.50 0.1774931
902.60 0.1774285
902.70 0.1773639
902.80 0.1772993
902.90 0.1772347
903.00 0.1771702
903.10 0.1771057
903.20 0.1770412
903.30 0.1769768
903.40 0.1769123
903.50 0.1768479
903.60 0.1767835
903.70 0.1767192
903.80 0.1766548
903.90 0.1765905
904.00 0.1765262
904.10 0.176462
904.20 0.1763977
904.30 0.1763335
904.40 0.1762693
904.50 0.1762052
904.60 0.176141
904.70 0.1760769
904.80 0.1760128
904.90 0.1759487
905.00 0.1758847
905.10 0.1758207
905.20 0.1757567
905.30 0.1756927
905.40 0.1756287
905.50 0.1755648
905.60 0.1755009
905.70 0.175437
905.80 0.1753732
905.90 0.1753094
906.00 0.1752455
906.10 0.1751818
906.20 0.1751181
906.30 0.1750546
906.40 0.1749911
906.50 0.1749277
906.60 0.1748643
906.70 0.1748009
906.80 0.1747375
906.90 0.1746742
907.00 0.1746109
907.10 0.1745476
907.20 0.1744843
907.30 0.174421
907.40 0.1743578
907.50 0.1742946
907.60 0.1742314
907.70 0.1741683
907.80 0.1741051
907.90 0.174042
908.00 0.1739789
908.10 0.1739159
908.20 0.1738528
908.30 0.1737898
908.40 0.1737268
908.50 0.1736639
908.60 0.1736009
908.70 0.173538
908.80 0.1734751
908.90 0.1734122
909.00 0.1733494
909.10 0.1732866
909.20 0.1732238
909.30 0.173161
909.40 0.1730982
909.50 0.1730355
909.60 0.1729728
909.70 0.1729101
909.80 0.1728474
909.90 0.1727848
910.00 0.1727222
910.10 0.1726596
910.20 0.172597
910.30 0.1725345
910.40 0.172472
910.50 0.1724095
910.60 0.172347
910.70 0.1722845
910.80 0.1722221
910.90 0.1721597
911.00 0.1720973
911.10 0.172035
911.20 0.1719726
911.30 0.1719103
911.40 0.171848
911.50 0.1717858
911.60 0.1717235
911.70 0.1716613
911.80 0.1715991
911.90 0.1715369
912.00 0.1714748
912.10 0.1714127
912.20 0.1713506
912.30 0.1712885
912.40 0.1712264
912.50 0.1711644
912.60 0.1711024
912.70 0.1710404
912.80 0.1709784
912.90 0.1709165
913.00 0.1708546
913.10 0.1707927
913.20 0.1707308
913.30 0.1706689
913.40 0.1706071
913.50 0.1705453
913.60 0.1704835
913.70 0.1704218
913.80 0.17036
913.90 0.1702983
914.00 0.1702366
914.10 0.170175
914.20 0.1701133
914.30 0.1700517
914.40 0.1699901
914.50 0.1699285
914.60 0.169867
914.70 0.1698054
914.80 0.1697439
914.90 0.1696824
915.00 0.169621
915.10 0.1695595
915.20 0.1694981
915.30 0.1694369
915.40 0.1693758
915.50 0.1693147
915.60 0.1692536
915.70 0.1691925
915.80 0.1691315
915.90 0.1690705
916.00 0.1690095
916.10 0.1689485
916.20 0.1688875
916.30 0.1688266
916.40 0.1687657
916.50 0.1687048
916.60 0.168644
916.70 0.1685831
916.80 0.1685223
916.90 0.1684615
917.00 0.1684008
917.10 0.16834
917.20 0.1682793
917.30 0.1682186
917.40 0.1681579
917.50 0.1680973
917.60 0.1680366
917.70 0.167976
917.80 0.1679154
917.90 0.1678549
918.00 0.1677943
918.10 0.1677338
918.20 0.1676733
918.30 0.1676128
918.40 0.1675524
918.50 0.1674919
918.60 0.1674315
918.70 0.1673711
918.80 0.1673108
918.90 0.1672504
919.00 0.1671901
919.10 0.1671298
919.20 0.1670695
919.30 0.1670093
919.40 0.166949
919.50 0.1668888
919.60 0.1668286
919.70 0.1667685
919.80 0.1667083
919.90 0.1666491
920.00 0.1665899
920.10 0.1665307
920.20 0.1664716
920.30 0.1664125
920.40 0.1663534
920.50 0.1662943
920.60 0.1662353
920.70 0.1661762
920.80 0.1661172
920.90 0.1660582
921.00 0.1659993
921.10 0.1659403
921.20 0.1658814
921.30 0.1658225
921.40 0.1657637
921.50 0.1657048
921.60 0.165646
921.70 0.1655872
921.80 0.1655284
921.90 0.1654696
922.00 0.1654108
922.10 0.1653521
922.20 0.1652934
922.30 0.1652347
922.40 0.1651761
922.50 0.1651174
922.60 0.1650588
922.70 0.1650002
922.80 0.1649417
922.90 0.1648831
923.00 0.1648246
923.10 0.1647661
923.20 0.1647076
923.30 0.1646491
923.40 0.1645907
923.50 0.1645322
923.60 0.1644738
923.70 0.1644155
923.80 0.1643571
923.90 0.1642988
924.00 0.1642404
924.10 0.1641821
924.20 0.1641239
924.30 0.1640656
924.40 0.1640073
924.50 0.1639484
924.60 0.1638895
924.70 0.1638307
924.80 0.1637719
924.90 0.1637131
925.00 0.1636543
925.10 0.1635955
925.20 0.1635368
925.30 0.1634781
925.40 0.1634194
925.50 0.1633607
925.60 0.1633021
925.70 0.1632435
925.80 0.1631849
925.90 0.1631263
926.00 0.1630677
926.10 0.1630092
926.20 0.1629507
926.30 0.1628922
926.40 0.1628337
926.50 0.1627752
926.60 0.1627168
926.70 0.1626584
926.80 0.1626
926.90 0.1625416
927.00 0.1624833
927.10 0.162425
927.20 0.1623667
927.30 0.1623084
927.40 0.1622501
927.50 0.1621919
927.60 0.1621337
927.70 0.1620755
927.80 0.1620173
927.90 0.1619591
928.00 0.161901
928.10 0.1618429
928.20 0.1617848
928.30 0.1617267
928.40 0.1616687
928.50 0.1616107
928.60 0.1615527
928.70 0.1614947
928.80 0.1614367
928.90 0.1613788
929.00 0.1613209
929.10 0.161263
929.20 0.1612051
929.30 0.1611472
929.40 0.1610894
929.50 0.1610316
929.60 0.1609738
929.70 0.160916
929.80 0.1608583
929.90 0.1608005
930.00 0.1607428
930.10 0.1606851
930.20 0.1606275
930.30 0.1605698
930.40 0.1605122
930.50 0.1604546
930.60 0.160397
930.70 0.1603395
930.80 0.1602819
930.90 0.1602244
931.00 0.1601669
931.10 0.1601094
931.20 0.160052
931.30 0.1599945
931.40 0.1599371
931.50 0.1598797
931.60 0.1598223
931.70 0.159765
931.80 0.1597077
931.90 0.1596504
932.00 0.1595931
932.10 0.1595358
932.20 0.1594786
932.30 0.1594213
932.40 0.1593641
932.50 0.1593069
932.60 0.1592498
932.70 0.1591926
932.80 0.1591355
932.90 0.1590784
933.00 0.1590213
933.10 0.1589643
933.20 0.1589072
933.30 0.1588502
933.40 0.1587932
933.50 0.1587363
933.60 0.1586793
933.70 0.1586232
933.80 0.1585674
933.90 0.1585116
934.00 0.1584558
934.10 0.1584
934.20 0.1583443
934.30 0.1582886
934.40 0.1582329
934.50 0.1581772
934.60 0.1581216
934.70 0.1580659
934.80 0.1580103
934.90 0.1579547
935.00 0.1578992
935.10 0.1578436
935.20 0.1577881
935.30 0.1577326
935.40 0.1576771
935.50 0.1576216
935.60 0.1575662
935.70 0.1575107
935.80 0.1574553
935.90 0.1573999
936.00 0.1573446
936.10 0.1572892
936.20 0.1572339
936.30 0.1571786
936.40 0.1571233
936.50 0.157068
936.60 0.1570128
936.70 0.1569575
936.80 0.1569023
936.90 0.1568471
937.00 0.156792
937.10 0.1567368
937.20 0.1566817
937.30 0.1566266
937.40 0.1565715
937.50 0.1565164
937.60 0.1564614
937.70 0.1564063
937.80 0.1563513
937.90 0.1562963
938.00 0.1562414
938.10 0.1561864
938.20 0.1561315
938.30 0.1560766
938.40 0.1560217
938.50 0.1559668
938.60 0.155912
938.70 0.1558571
938.80 0.1558023
938.90 0.1557475
939.00 0.1556928
939.10 0.155638
939.20 0.1555833
939.30 0.1555286
939.40 0.1554739
939.50 0.1554192
939.60 0.1553645
939.70 0.1553099
939.80 0.1552553
939.90 0.1552007
940.00 0.1551461
940.10 0.1550916
940.20 0.155037
940.30 0.1549825
940.40 0.154928
940.50 0.1548736
940.60 0.1548191
940.70 0.1547647
940.80 0.1547102
940.90 0.1546558
941.00 0.1546015
941.10 0.1545471
941.20 0.1544928
941.30 0.1544385
941.40 0.1543842
941.50 0.1543299
941.60 0.1542756
941.70 0.1542214
941.80 0.1541672
941.90 0.154113
942.00 0.1540588
942.10 0.1540046
942.20 0.1539505
942.30 0.1538963
942.40 0.1538422
942.50 0.1537882
942.60 0.1537341
942.70 0.15368
942.80 0.153626
942.90 0.153572
943.00 0.1535179
943.10 0.1534638
943.20 0.1534096
943.30 0.1533555
943.40 0.1533014
943.50 0.1532473
943.60 0.1531932
943.70 0.1531391
943.80 0.1530851
943.90 0.153031
944.00 0.152977
944.10 0.1529231
944.20 0.1528691
944.30 0.1528152
944.40 0.1527612
944.50 0.1527073
944.60 0.1526534
944.70 0.1525996
944.80 0.1525457
944.90 0.1524919
945.00 0.1524381
945.10 0.1523843
945.20 0.1523305
945.30 0.1522768
945.40 0.152223
945.50 0.1521693
945.60 0.1521156
945.70 0.152062
945.80 0.1520083
945.90 0.1519547
946.00 0.1519011
946.10 0.1518475
946.20 0.1517939
946.30 0.1517403
946.40 0.1516868
946.50 0.1516333
946.60 0.1515798
946.70 0.1515263
946.80 0.1514728
946.90 0.1514194
947.00 0.151366
947.10 0.1513126
947.20 0.1512592
947.30 0.1512058
947.40 0.1511525
947.50 0.1510991
947.60 0.1510458
947.70 0.1509925
947.80 0.1509393
947.90 0.150886
948.00 0.1508328
948.10 0.1507796
948.20 0.1507264
948.30 0.1506732
948.40 0.1506201
948.50 0.1505669
948.60 0.1505138
948.70 0.1504607
948.80 0.1504076
948.90 0.1503546
949.00 0.1503015
949.10 0.1502485
949.20 0.1501955
949.30 0.1501425
949.40 0.1500895
949.50 0.1500366
949.60 0.1499837
949.70 0.1499308
949.80 0.1498779
949.90 0.149825
950.00 0.1497722
950.10 0.1497193
950.20 0.1496665
950.30 0.1496137
950.40 0.1495609
950.50 0.1495082
950.60 0.1494554
950.70 0.1494027
950.80 0.14935
950.90 0.1492973
951.00 0.1492447
951.10 0.149192
951.20 0.1491394
951.30 0.1490868
951.40 0.1490342
951.50 0.1489817
951.60 0.1489291
951.70 0.1488766
951.80 0.1488241
951.90 0.1487716
952.00 0.1487191
952.10 0.1486666
952.20 0.1486142
952.30 0.1485618
952.40 0.1485094
952.50 0.1484577
952.60 0.1484059
952.70 0.1483542
952.80 0.1483025
952.90 0.1482508
953.00 0.1481992
953.10 0.1481475
953.20 0.1480959
953.30 0.1480443
953.40 0.1479927
953.50 0.1479411
953.60 0.1478895
953.70 0.147838
953.80 0.1477865
953.90 0.147735
954.00 0.1476835
954.10 0.147632
954.20 0.1475806
954.30 0.1475292
954.40 0.1474777
954.50 0.1474264
954.60 0.147375
954.70 0.1473236
954.80 0.1472723
954.90 0.147221
955.00 0.1471697
955.10 0.1471184
955.20 0.1470671
955.30 0.1470159
955.40 0.1469646
955.50 0.1469134
955.60 0.1468622
955.70 0.1468111
955.80 0.1467599
955.90 0.1467088
956.00 0.1466577
956.10 0.1466066
956.20 0.1465555
956.30 0.1465044
956.40 0.1464534
956.50 0.1464023
956.60 0.1463513
956.70 0.1463003
956.80 0.1462494
956.90 0.1461984
957.00 0.1461475
957.10 0.1460966
957.20 0.1460457
957.30 0.1459948
957.40 0.1459439
957.50 0.1458931
957.60 0.1458422
957.70 0.1457914
957.80 0.1457406
957.90 0.1456899
958.00 0.1456391
958.10 0.1455884
958.20 0.1455376
958.30 0.1454869
958.40 0.1454363
958.50 0.1453856
958.60 0.1453349
958.70 0.1452843
958.80 0.1452337
958.90 0.1451831
959.00 0.1451325
959.10 0.145082
959.20 0.1450314
959.30 0.1449809
959.40 0.1449304
959.50 0.1448799
959.60 0.1448294
959.70 0.144779
959.80 0.1447286
959.90 0.1446781
960.00 0.1446277
960.10 0.1445774
960.20 0.144527
960.30 0.1444767
960.40 0.1444263
960.50 0.144376
960.60 0.1443257
960.70 0.1442755
960.80 0.1442252
960.90 0.144175
961.00 0.1441247
961.10 0.1440745
961.20 0.1440244
961.30 0.1439742
961.40 0.143924
961.50 0.1438739
961.60 0.1438238
961.70 0.1437737
961.80 0.1437236
961.90 0.1436736
962.00 0.1436237
962.10 0.1435739
962.20 0.1435241
962.30 0.1434743
962.40 0.1434245
962.50 0.1433747
962.60 0.143325
962.70 0.1432753
962.80 0.1432256
962.90 0.1431759
963.00 0.1431262
963.10 0.1430766
963.20 0.143027
963.30 0.1429773
963.40 0.1429277
963.50 0.1428782
963.60 0.1428286
963.70 0.1427791
963.80 0.1427295
963.90 0.14268
964.00 0.1426305
964.10 0.1425811
964.20 0.1425316
964.30 0.1424822
964.40 0.1424327
964.50 0.1423833
964.60 0.1423339
964.70 0.1422846
964.80 0.1422352
964.90 0.1421859
965.00 0.1421366
965.10 0.1420873
965.20 0.142038
965.30 0.1419887
965.40 0.1419395
965.50 0.1418902
965.60 0.141841
965.70 0.1417918
965.80 0.1417427
965.90 0.1416935
966.00 0.1416443
966.10 0.1415952
966.20 0.1415461
966.30 0.141497
966.40 0.1414479
966.50 0.1413989
966.60 0.1413498
966.70 0.1413008
966.80 0.1412518
966.90 0.1412028
967.00 0.1411539
967.10 0.1411049
967.20 0.141056
967.30 0.141007
967.40 0.1409581
967.50 0.1409093
967.60 0.1408604
967.70 0.1408115
967.80 0.1407627
967.90 0.1407139
968.00 0.1406651
968.10 0.1406163
968.20 0.1405675
968.30 0.1405188
968.40 0.1404701
968.50 0.1404214
968.60 0.1403727
968.70 0.140324
968.80 0.1402753
968.90 0.1402267
969.00 0.140178
969.10 0.1401294
969.20 0.1400808
969.30 0.1400323
969.40 0.1399837
969.50 0.1399352
969.60 0.1398866
969.70 0.1398381
969.80 0.1397896
969.90 0.1397412
970.00 0.1396927
970.10 0.1396443
970.20 0.1395958
970.30 0.1395474
970.40 0.139499
970.50 0.1394507
970.60 0.1394023
970.70 0.139354
970.80 0.1393056
970.90 0.1392573
971.00 0.1392091
971.10 0.1391608
971.20 0.1391125
971.30 0.1390643
971.40 0.1390161
971.50 0.1389679
971.60 0.1389201
971.70 0.1388725
971.80 0.1388249
971.90 0.1387773
972.00 0.1387298
972.10 0.1386823
972.20 0.1386348
972.30 0.1385873
972.40 0.1385398
972.50 0.1384924
972.60 0.1384449
972.70 0.1383975
972.80 0.1383501
972.90 0.1383027
973.00 0.1382553
973.10 0.138208
973.20 0.1381606
973.30 0.1381133
973.40 0.138066
973.50 0.1380187
973.60 0.1379714
973.70 0.1379242
973.80 0.137877
973.90 0.1378297
974.00 0.1377825
974.10 0.1377353
974.20 0.1376882
974.30 0.137641
974.40 0.1375939
974.50 0.1375467
974.60 0.1374996
974.70 0.1374525
974.80 0.1374055
974.90 0.1373584
975.00 0.1373114
975.10 0.1372643
975.20 0.1372173
975.30 0.1371703
975.40 0.1371233
975.50 0.1370764
975.60 0.1370294
975.70 0.1369825
975.80 0.1369356
975.90 0.1368887
976.00 0.1368418
976.10 0.136795
976.20 0.1367481
976.30 0.1367013
976.40 0.1366545
976.50 0.1366077
976.60 0.1365609
976.70 0.1365141
976.80 0.1364674
976.90 0.1364206
977.00 0.1363739
977.10 0.1363272
977.20 0.1362805
977.30 0.1362339
977.40 0.1361872
977.50 0.1361406
977.60 0.136094
977.70 0.1360474
977.80 0.1360008
977.90 0.1359542
978.00 0.1359077
978.10 0.1358611
978.20 0.1358146
978.30 0.1357681
978.40 0.1357216
978.50 0.1356751
978.60 0.1356287
978.70 0.1355822
978.80 0.1355358
978.90 0.1354894
979.00 0.135443
979.10 0.1353966
979.20 0.1353503
979.30 0.1353039
979.40 0.1352576
979.50 0.1352113
979.60 0.135165
979.70 0.1351187
979.80 0.1350725
979.90 0.1350262
980.00 0.13498
980.10 0.1349338
980.20 0.1348876
980.30 0.1348414
980.40 0.1347952
980.50 0.1347491
980.60 0.1347029
980.70 0.1346568
980.80 0.1346107
980.90 0.1345646
981.00 0.1345185
981.10 0.1344725
981.20 0.1344265
981.30 0.1343805
981.40 0.1343347
981.50 0.1342889
981.60 0.1342431
981.70 0.1341973
981.80 0.1341516
981.90 0.1341058
982.00 0.1340601
982.10 0.1340144
982.20 0.1339687
982.30 0.133923
982.40 0.1338774
982.50 0.1338317
982.60 0.1337861
982.70 0.1337405
982.80 0.1336949
982.90 0.1336493
983.00 0.1336037
983.10 0.1335582
983.20 0.1335126
983.30 0.1334671
983.40 0.1334216
983.50 0.1333761
983.60 0.1333306
983.70 0.1332852
983.80 0.1332397
983.90 0.1331943
984.00 0.1331489
984.10 0.1331035
984.20 0.1330581
984.30 0.1330128
984.40 0.1329674
984.50 0.1329221
984.60 0.1328768
984.70 0.1328315
984.80 0.1327862
984.90 0.1327409
985.00 0.1326957
985.10 0.1326504
985.20 0.1326052
985.30 0.13256
985.40 0.1325148
985.50 0.1324696
985.60 0.1324245
985.70 0.1323793
985.80 0.1323342
985.90 0.1322891
986.00 0.132244
986.10 0.1321989
986.20 0.1321538
986.30 0.1321088
986.40 0.1320638
986.50 0.1320187
986.60 0.1319737
986.70 0.1319287
986.80 0.1318838
986.90 0.1318388
987.00 0.1317939
987.10 0.1317489
987.20 0.131704
987.30 0.1316591
987.40 0.1316143
987.50 0.1315694
987.60 0.1315245
987.70 0.1314797
987.80 0.1314349
987.90 0.1313901
988.00 0.1313453
988.10 0.1313005
988.20 0.1312558
988.30 0.131211
988.40 0.1311663
988.50 0.1311216
988.60 0.1310769
988.70 0.1310322
988.80 0.1309876
988.90 0.1309429
989.00 0.1308983
989.10 0.1308537
989.20 0.1308091
989.30 0.1307645
989.40 0.1307199
989.50 0.1306753
989.60 0.1306308
989.70 0.1305863
989.80 0.1305418
989.90 0.1304973
990.00 0.1304528
990.10 0.1304083
990.20 0.1303639
990.30 0.1303194
990.40 0.130275
990.50 0.1302306
990.60 0.1301862
990.70 0.1301419
990.80 0.1300975
990.90 0.1300532
991.00 0.1300088
991.10 0.1299647
991.20 0.129921
991.30 0.1298772
991.40 0.1298335
991.50 0.1297898
991.60 0.1297461
991.70 0.1297024
991.80 0.1296588
991.90 0.1296151
992.00 0.1295715
992.10 0.1295279
992.20 0.1294843
992.30 0.1294407
992.40 0.1293971
992.50 0.1293535
992.60 0.12931
992.70 0.1292665
992.80 0.1292229
992.90 0.1291794
993.00 0.129136
993.10 0.1290925
993.20 0.129049
993.30 0.1290056
993.40 0.1289622
993.50 0.1289187
993.60 0.1288754
993.70 0.128832
993.80 0.1287886
993.90 0.1287453
994.00 0.1287019
994.10 0.1286586
994.20 0.1286153
994.30 0.128572
994.40 0.1285287
994.50 0.1284855
994.60 0.1284422
994.70 0.128399
994.80 0.1283558
994.90 0.1283126
995.00 0.1282694
995.10 0.1282262
995.20 0.128183
995.30 0.1281399
995.40 0.1280968
995.50 0.1280536
995.60 0.1280105
995.70 0.1279675
995.80 0.1279244
995.90 0.1278813
996.00 0.1278383
996.10 0.1277947
996.20 0.1277509
996.30 0.1277072
996.40 0.1276635
996.50 0.1276198
996.60 0.1275762
996.70 0.1275325
996.80 0.1274889
996.90 0.1274452
997.00 0.1274016
997.10 0.127358
997.20 0.1273145
997.30 0.1272709
997.40 0.1272273
997.50 0.1271838
997.60 0.1271403
997.70 0.1270968
997.80 0.1270533
997.90 0.1270098
998.00 0.1269663
998.10 0.1269229
998.20 0.1268795
998.30 0.126836
998.40 0.1267926
998.50 0.1267492
998.60 0.1267059
998.70 0.1266625
998.80 0.1266192
998.90 0.1265758
999.00 0.1265325
999.10 0.1264892
999.20 0.1264459
999.30 0.1264027
999.40 0.1263594
999.50 0.1263162
999.60 0.126273
999.70 0.1262297
999.80 0.1261865
999.90 0.1261434
1000.00 0.1261002
1000.10 0.126057
1000.20 0.1260139
1000.30 0.1259708
1000.40 0.1259277
1000.50 0.1258846
1000.60 0.1258415
1000.70 0.1257984
1000.80 0.1257554
1000.90 0.1257124
1001.00 0.1256696
1001.10 0.1256275
1001.20 0.1255854
1001.30 0.1255433
1001.40 0.1255012
1001.50 0.1254591
1001.60 0.1254171
1001.70 0.125375
1001.80 0.125333
1001.90 0.125291
1002.00 0.125249
1002.10 0.125207
1002.20 0.1251651
1002.30 0.1251231
1002.40 0.1250812
1002.50 0.1250393
1002.60 0.1249974
1002.70 0.1249555
1002.80 0.1249136
1002.90 0.1248717
1003.00 0.1248299
1003.10 0.124788
1003.20 0.1247462
1003.30 0.1247044
1003.40 0.1246626
1003.50 0.1246209
1003.60 0.1245791
1003.70 0.1245373
1003.80 0.1244956
1003.90 0.1244539
1004.00 0.1244122
1004.10 0.1243705
1004.20 0.1243288
1004.30 0.1242871
1004.40 0.1242455
1004.50 0.1242038
1004.60 0.1241622
1004.70 0.1241206
1004.80 0.124079
1004.90 0.1240374
1005.00 0.1239959
1005.10 0.1239543
1005.20 0.1239128
1005.30 0.1238713
1005.40 0.1238297
1005.50 0.1237883
1005.60 0.1237468
1005.70 0.1237053
1005.80 0.1236638
1005.90 0.1236224
1006.00 0.123581
1006.10 0.1235396
1006.20 0.1234982
1006.30 0.1234568
1006.40 0.1234154
1006.50 0.123374
1006.60 0.1233327
1006.70 0.1232914
1006.80 0.1232501
1006.90 0.1232088
1007.00 0.1231675
1007.10 0.1231262
1007.20 0.1230849
1007.30 0.1230437
1007.40 0.1230024
1007.50 0.1229612
1007.60 0.12292
1007.70 0.1228788
1007.80 0.1228377
1007.90 0.1227965
1008.00 0.1227553
1008.10 0.1227142
1008.20 0.1226731
1008.30 0.122632
1008.40 0.1225909
1008.50 0.1225498
1008.60 0.1225087
1008.70 0.1224677
1008.80 0.1224266
1008.90 0.1223856
1009.00 0.1223446
1009.10 0.1223036
1009.20 0.1222626
1009.30 0.1222217
1009.40 0.1221807
1009.50 0.1221398
1009.60 0.1220988
1009.70 0.1220579
1009.80 0.122017
1009.90 0.1219761
1010.00 0.1219353
1010.10 0.1218944
1010.20 0.1218536
1010.30 0.1218127
1010.40 0.1217719
1010.50 0.1217311
1010.60 0.1216903
1010.70 0.1216495
1010.80 0.1216088
1010.90 0.121568
1011.00 0.1215273
1011.10 0.1214868
1011.20 0.1214462
1011.30 0.1214057
1011.40 0.1213652
1011.50 0.1213247
1011.60 0.1212842
1011.70 0.1212437
1011.80 0.1212033
1011.90 0.1211628
1012.00 0.1211224
1012.10 0.121082
1012.20 0.1210416
1012.30 0.1210012
1012.40 0.1209608
1012.50 0.1209205
1012.60 0.1208801
1012.70 0.1208398
1012.80 0.1207995
1012.90 0.1207591
1013.00 0.1207189
1013.10 0.1206786
1013.20 0.1206383
1013.30 0.120598
1013.40 0.1205578
1013.50 0.1205176
1013.60 0.1204774
1013.70 0.1204372
1013.80 0.120397
1013.90 0.1203568
1014.00 0.1203167
1014.10 0.1202765
1014.20 0.1202364
1014.30 0.1201963
1014.40 0.1201562
1014.50 0.1201161
1014.60 0.120076
1014.70 0.1200359
1014.80 0.1199959
1014.90 0.1199558
1015.00 0.1199158
1015.10 0.1198758
1015.20 0.1198358
1015.30 0.1197958
1015.40 0.1197558
1015.50 0.1197159
1015.60 0.1196759
1015.70 0.119636
1015.80 0.1195961
1015.90 0.1195562
1016.00 0.1195163
1016.10 0.1194764
1016.20 0.1194366
1016.30 0.1193967
1016.40 0.1193569
1016.50 0.1193171
1016.60 0.1192772
1016.70 0.1192374
1016.80 0.1191977
1016.90 0.1191579
1017.00 0.1191181
1017.10 0.1190784
1017.20 0.1190387
1017.30 0.1189989
1017.40 0.1189592
1017.50 0.1189196
1017.60 0.1188799
1017.70 0.1188402
1017.80 0.1188006
1017.90 0.1187609
1018.00 0.1187213
1018.10 0.1186817
1018.20 0.1186421
1018.30 0.1186025
1018.40 0.1185629
1018.50 0.1185234
1018.60 0.1184838
1018.70 0.1184443
1018.80 0.1184048
1018.90 0.1183653
1019.00 0.1183258
1019.10 0.1182863
1019.20 0.1182469
1019.30 0.1182074
1019.40 0.118168
1019.50 0.1181285
1019.60 0.1180891
1019.70 0.1180497
1019.80 0.1180103
1019.90 0.117971
1020.00 0.1179316
1020.10 0.1178923
1020.20 0.1178529
1020.30 0.1178136
1020.40 0.1177743
1020.50 0.117735
1020.60 0.1176957
1020.70 0.1176565
1020.80 0.1176172
1020.90 0.117578
1021.00 0.1175388
1021.10 0.1174995
1021.20 0.1174605
1021.30 0.1174215
1021.40 0.1173825
1021.50 0.1173435
1021.60 0.1173045
1021.70 0.1172655
1021.80 0.1172265
1021.90 0.1171876
1022.00 0.1171487
1022.10 0.1171097
1022.20 0.1170708
1022.30 0.1170319
1022.40 0.1169931
1022.50 0.1169542
1022.60 0.1169153
1022.70 0.1168765
1022.80 0.1168376
1022.90 0.1167988
1023.00 0.11676
1023.10 0.1167212
1023.20 0.1166824
1023.30 0.1166437
1023.40 0.1166049
1023.50 0.1165662
1023.60 0.1165275
1023.70 0.1164887
1023.80 0.11645
1023.90 0.1164114
1024.00 0.1163727
1024.10 0.116334
1024.20 0.1162954
1024.30 0.1162567
1024.40 0.1162181
1024.50 0.1161795
1024.60 0.1161409
1024.70 0.1161023
1024.80 0.1160637
1024.90 0.1160252
1025.00 0.1159866
1025.10 0.1159481
1025.20 0.1159096
1025.30 0.1158711
1025.40 0.1158326
1025.50 0.1157941
1025.60 0.1157556
1025.70 0.1157171
1025.80 0.1156787
1025.90 0.1156403
1026.00 0.1156018
1026.10 0.1155634
1026.20 0.115525
1026.30 0.1154873
1026.40 0.1154496
1026.50 0.1154119
1026.60 0.1153742
1026.70 0.1153366
1026.80 0.1152989
1026.90 0.1152612
1027.00 0.1152236
1027.10 0.115186
1027.20 0.1151484
1027.30 0.1151108
1027.40 0.1150732
1027.50 0.1150356
1027.60 0.1149981
1027.70 0.1149605
1027.80 0.114923
1027.90 0.1148854
1028.00 0.1148479
1028.10 0.1148104
1028.20 0.114773
1028.30 0.1147355
1028.40 0.114698
1028.50 0.1146606
1028.60 0.1146231
1028.70 0.1145857
1028.80 0.1145483
1028.90 0.1145109
1029.00 0.1144735
1029.10 0.1144361
1029.20 0.1143988
1029.30 0.1143614
1029.40 0.1143241
1029.50 0.1142868
1029.60 0.1142494
1029.70 0.1142121
1029.80 0.1141749
1029.90 0.1141376
1030.00 0.1141003
1030.10 0.1140631
1030.20 0.1140258
1030.30 0.1139886
1030.40 0.1139514
1030.50 0.1139142
1030.60 0.113877
1030.70 0.1138398
1030.80 0.1138026
1030.90 0.1137655
1031.00 0.1137283
1031.10 0.1136912
1031.20 0.1136541
1031.30 0.113617
1031.40 0.1135794
1031.50 0.1135419
1031.60 0.1135043
1031.70 0.1134667
1031.80 0.1134292
1031.90 0.1133917
1032.00 0.1133542
1032.10 0.1133167
1032.20 0.1132792
1032.30 0.1132417
1032.40 0.1132042
1032.50 0.1131668
1032.60 0.1131293
1032.70 0.1130919
1032.80 0.1130545
1032.90 0.1130171
1033.00 0.1129797
1033.10 0.1129423
1033.20 0.112905
1033.30 0.1128676
1033.40 0.1128303
1033.50 0.1127929
1033.60 0.1127556
1033.70 0.1127183
1033.80 0.112681
1033.90 0.1126438
1034.00 0.1126065
1034.10 0.1125692
1034.20 0.112532
1034.30 0.1124948
1034.40 0.1124575
1034.50 0.1124203
1034.60 0.1123831
1034.70 0.112346
1034.80 0.1123088
1034.90 0.1122716
1035.00 0.1122345
1035.10 0.1121974
1035.20 0.1121602
1035.30 0.1121231
1035.40 0.112086
1035.50 0.112049
1035.60 0.1120119
1035.70 0.1119748
1035.80 0.1119378
1035.90 0.1119008
1036.00 0.1118637
1036.10 0.1118267
1036.20 0.1117897
1036.30 0.1117527
1036.40 0.1117158
1036.50 0.1116791
1036.60 0.1116427
1036.70 0.1116065
1036.80 0.1115702
1036.90 0.1115339
1037.00 0.1114976
1037.10 0.1114614
1037.20 0.1114251
1037.30 0.1113889
1037.40 0.1113527
1037.50 0.1113165
1037.60 0.1112803
1037.70 0.1112441
1037.80 0.111208
1037.90 0.1111718
1038.00 0.1111357
1038.10 0.1110995
1038.20 0.1110634
1038.30 0.1110273
1038.40 0.1109912
1038.50 0.1109551
1038.60 0.1109191
1038.70 0.110883
1038.80 0.110847
1038.90 0.1108109
1039.00 0.1107749
1039.10 0.1107389
1039.20 0.1107029
1039.30 0.1106669
1039.40 0.1106309
1039.50 0.1105949
1039.60 0.110559
1039.70 0.1105231
1039.80 0.1104871
1039.90 0.1104512
1040.00 0.1104153
1040.10 0.1103794
1040.20 0.1103435
1040.30 0.1103077
1040.40 0.1102718
1040.50 0.1102359
1040.60 0.1102001
1040.70 0.1101643
1040.80 0.1101285
1040.90 0.1100927
1041.00 0.1100569
1041.10 0.1100211
1041.20 0.1099853
1041.30 0.1099496
1041.40 0.1099138
1041.50 0.1098781
1041.60 0.1098424
1041.70 0.1098063
1041.80 0.1097701
1041.90 0.1097339
1042.00 0.1096978
1042.10 0.1096616
1042.20 0.1096255
1042.30 0.1095894
1042.40 0.1095533
1042.50 0.1095172
1042.60 0.1094811
1042.70 0.109445
1042.80 0.109409
1042.90 0.1093729
1043.00 0.1093369
1043.10 0.1093009
1043.20 0.1092649
1043.30 0.1092289
1043.40 0.1091929
1043.50 0.1091569
1043.60 0.1091209
1043.70 0.109085
1043.80 0.109049
1043.90 0.1090131
1044.00 0.1089772
1044.10 0.1089413
1044.20 0.1089054
1044.30 0.1088695
1044.40 0.1088336
1044.50 0.1087978
1044.60 0.1087619
1044.70 0.1087261
1044.80 0.1086902
1044.90 0.1086544
1045.00 0.1086186
1045.10 0.1085828
1045.20 0.1085471
1045.30 0.1085113
1045.40 0.1084755
1045.50 0.1084398
1045.60 0.1084041
1045.70 0.1083684
1045.80 0.1083326
1045.90 0.108297
1046.00 0.1082613
1046.10 0.1082256
1046.20 0.1081899
1046.30 0.1081543
1046.40 0.1081186
1046.50 0.108083
1046.60 0.1080474
1046.70 0.1080118
1046.80 0.1079762
1046.90 0.1079411
1047.00 0.1079062
1047.10 0.1078712
1047.20 0.1078363
1047.30 0.1078014
1047.40 0.1077665
1047.50 0.1077316
1047.60 0.1076967
1047.70 0.1076619
1047.80 0.107627
1047.90 0.1075922
1048.00 0.1075573
1048.10 0.1075225
1048.20 0.1074877
1048.30 0.1074529
1048.40 0.1074181
1048.50 0.1073833
1048.60 0.1073486
1048.70 0.1073138
1048.80 0.1072791
1048.90 0.1072444
1049.00 0.1072096
1049.10 0.1071749
1049.20 0.1071402
1049.30 0.1071056
1049.40 0.1070709
1049.50 0.1070362
1049.60 0.1070016
1049.70 0.1069669
1049.80 0.1069323
1049.90 0.1068977
1050.00 0.1068631
1050.10 0.1068285
1050.20 0.1067939
1050.30 0.1067593
1050.40 0.1067248
1050.50 0.1066902
1050.60 0.1066557
1050.70 0.1066212
1050.80 0.1065866
1050.90 0.1065521
1051.00 0.1065176
1051.10 0.1064832
1051.20 0.1064487
1051.30 0.1064142
1051.40 0.1063798
1051.50 0.1063453
1051.60 0.1063109
1051.70 0.1062765
1051.80 0.1062421
1051.90 0.1062077
1052.00 0.1061733
1052.10 0.106139
1052.20 0.1061048
1052.30 0.1060706
1052.40 0.1060364
1052.50 0.1060022
1052.60 0.1059681
1052.70 0.1059339
1052.80 0.1058998
1052.90 0.1058656
1053.00 0.1058315
1053.10 0.1057974
1053.20 0.1057633
1053.30 0.1057292
1053.40 0.1056951
1053.50 0.105661
1053.60 0.1056269
1053.70 0.1055929
1053.80 0.1055588
1053.90 0.1055248
1054.00 0.1054908
1054.10 0.1054568
1054.20 0.1054228
1054.30 0.1053888
1054.40 0.1053548
1054.50 0.1053209
1054.60 0.1052869
1054.70 0.105253
1054.80 0.105219
1054.90 0.1051851
1055.00 0.1051512
1055.10 0.1051173
1055.20 0.1050834
1055.30 0.1050496
1055.40 0.1050157
1055.50 0.1049818
1055.60 0.104948
1055.70 0.1049142
1055.80 0.1048803
1055.90 0.1048465
1056.00 0.1048127
1056.10 0.1047789
1056.20 0.1047452
1056.30 0.1047114
1056.40 0.1046776
1056.50 0.1046439
1056.60 0.1046102
1056.70 0.1045764
1056.80 0.1045427
1056.90 0.104509
1057.00 0.1044753
1057.10 0.1044417
1057.20 0.104408
1057.30 0.1043743
1057.40 0.1043407
1057.50 0.104307
1057.60 0.1042734
1057.70 0.1042398
1057.80 0.1042062
1057.90 0.1041726
1058.00 0.104139
1058.10 0.1041055
1058.20 0.1040719
1058.30 0.1040383
1058.40 0.1040048
1058.50 0.1039713
1058.60 0.1039378
1058.70 0.1039043
1058.80 0.1038708
1058.90 0.1038373
1059.00 0.1038038
1059.10 0.1037703
1059.20 0.1037369
1059.30 0.1037034
1059.40 0.10367
1059.50 0.1036366
1059.60 0.1036032
1059.70 0.1035698
1059.80 0.1035364
1059.90 0.103503
1060.00 0.1034697
1060.10 0.1034363
1060.20 0.103403
1060.30 0.1033696
1060.40 0.1033363
1060.50 0.103303
1060.60 0.1032697
1060.70 0.1032364
1060.80 0.1032031
1060.90 0.1031698
1061.00 0.1031366
1061.10 0.1031033
1061.20 0.1030701
1061.30 0.1030369
1061.40 0.1030037
1061.50 0.1029705
1061.60 0.1029373
1061.70 0.1029041
1061.80 0.1028709
1061.90 0.1028377
1062.00 0.1028046
1062.10 0.1027714
1062.20 0.1027383
1062.30 0.1027052
1062.40 0.1026721
1062.50 0.102639
1062.60 0.102606
1062.70 0.102573
1062.80 0.1025401
1062.90 0.1025072
1063.00 0.1024743
1063.10 0.1024414
1063.20 0.1024085
1063.30 0.1023756
1063.40 0.1023427
1063.50 0.1023099
1063.60 0.102277
1063.70 0.1022442
1063.80 0.1022114
1063.90 0.1021785
1064.00 0.1021457
1064.10 0.1021129
1064.20 0.1020802
1064.30 0.1020474
1064.40 0.1020146
1064.50 0.1019819
1064.60 0.1019491
1064.70 0.1019164
1064.80 0.1018837
1064.90 0.101851
1065.00 0.1018183
1065.10 0.1017856
1065.20 0.1017529
1065.30 0.1017202
1065.40 0.1016876
1065.50 0.1016549
1065.60 0.1016223
1065.70 0.1015897
1065.80 0.1015571
1065.90 0.1015245
1066.00 0.1014919
1066.10 0.1014593
1066.20 0.1014267
1066.30 0.1013941
1066.40 0.1013616
1066.50 0.101329
1066.60 0.1012965
1066.70 0.101264
1066.80 0.1012315
1066.90 0.101199
1067.00 0.1011665
1067.10 0.101134
1067.20 0.1011015
1067.30 0.1010691
1067.40 0.1010366
1067.50 0.1010042
1067.60 0.1009718
1067.70 0.1009394
1067.80 0.1009069
1067.90 0.1008745
1068.00 0.1008422
1068.10 0.1008098
1068.20 0.1007774
1068.30 0.1007451
1068.40 0.1007127
1068.50 0.1006804
1068.60 0.100648
1068.70 0.1006157
1068.80 0.1005834
1068.90 0.1005511
1069.00 0.1005188
1069.10 0.1004866
1069.20 0.1004543
1069.30 0.100422
1069.40 0.1003898
1069.50 0.1003576
1069.60 0.1003253
1069.70 0.1002931
1069.80 0.1002609
1069.90 0.1002287
1070.00 0.1001966
1070.10 0.1001644
1070.20 0.1001322
1070.30 0.1001001
1070.40 0.1000679
1070.50 0.1000358
1070.60 0.1000037
1070.70 0.09997156
1070.80 0.09993946
1070.90 0.09990737
1071.00 0.09987529
1071.10 0.09984322
1071.20 0.09981116
1071.30 0.09977911
1071.40 0.09974708
1071.50 0.09971505
1071.60 0.09968303
1071.70 0.09965102
1071.80 0.09961902
1071.90 0.09958703
1072.00 0.09955506
1072.10 0.09952309
1072.20 0.09949113
1072.30 0.09945918
1072.40 0.09942725
1072.50 0.09939532
1072.60 0.0993634
1072.70 0.0993315
1072.80 0.0992996
1072.90 0.09926772
1073.00 0.09923584
1073.10 0.09920397
1073.20 0.09917215
1073.30 0.09914044
1073.40 0.09910873
1073.50 0.09907704
1073.60 0.09904536
1073.70 0.09901369
1073.80 0.09898203
1073.90 0.09895038
1074.00 0.09891874
1074.10 0.09888711
1074.20 0.09885549
1074.30 0.09882388
1074.40 0.09879228
1074.50 0.09876069
1074.60 0.09872911
1074.70 0.09869754
1074.80 0.09866598
1074.90 0.09863443
1075.00 0.09860289
1075.10 0.09857136
1075.20 0.09853984
1075.30 0.09850833
1075.40 0.09847683
1075.50 0.09844534
1075.60 0.09841386
1075.70 0.09838239
1075.80 0.09835093
1075.90 0.09831948
1076.00 0.09828804
1076.10 0.09825661
1076.20 0.09822519
1076.30 0.09819378
1076.40 0.09816238
1076.50 0.09813099
1076.60 0.09809962
1076.70 0.09806825
1076.80 0.09803689
1076.90 0.09800554
1077.00 0.0979742
1077.10 0.09794287
1077.20 0.09791155
1077.30 0.09788023
1077.40 0.09784893
1077.50 0.09781764
1077.60 0.09778636
1077.70 0.09775509
1077.80 0.09772383
1077.90 0.09769258
1078.00 0.09766134
1078.10 0.09763011
1078.20 0.09759889
1078.30 0.09756768
1078.40 0.09753648
1078.50 0.09750529
1078.60 0.09747411
1078.70 0.09744293
1078.80 0.09741177
1078.90 0.09738062
1079.00 0.09734948
1079.10 0.09731835
1079.20 0.09728722
1079.30 0.09725611
1079.40 0.09722501
1079.50 0.09719392
1079.60 0.09716283
1079.70 0.09713176
1079.80 0.0971007
1079.90 0.09706965
1080.00 0.0970386
1080.10 0.09700757
1080.20 0.09697655
1080.30 0.09694553
1080.40 0.09691453
1080.50 0.09688353
1080.60 0.09685255
1080.70 0.09682157
1080.80 0.09679061
1080.90 0.09675966
1081.00 0.09672871
1081.10 0.09669777
1081.20 0.09666685
1081.30 0.09663593
1081.40 0.09660503
1081.50 0.09657413
1081.60 0.09654324
1081.70 0.09651237
1081.80 0.0964815
1081.90 0.09645064
1082.00 0.0964198
1082.10 0.09638896
1082.20 0.09635813
1082.30 0.09632731
1082.40 0.0962965
1082.50 0.09626571
1082.60 0.09623492
1082.70 0.09620414
1082.80 0.09617337
1082.90 0.09614261
1083.00 0.09611186
1083.10 0.09608112
1083.20 0.09605039
1083.30 0.09601967
1083.40 0.09598896
1083.50 0.09595825
1083.60 0.09592756
1083.70 0.09589688
1083.80 0.09586621
1083.90 0.09583555
1084.00 0.0958055
1084.10 0.09577555
1084.20 0.0957456
1084.30 0.09571567
1084.40 0.09568574
1084.50 0.09565582
1084.60 0.09562591
1084.70 0.09559601
1084.80 0.09556612
1084.90 0.09553624
1085.00 0.09550637
1085.10 0.09547651
1085.20 0.09544665
1085.30 0.09541681
1085.40 0.09538698
1085.50 0.09535715
1085.60 0.09532734
1085.70 0.09529753
1085.80 0.09526774
1085.90 0.09523795
1086.00 0.09520817
1086.10 0.0951784
1086.20 0.09514864
1086.30 0.0951189
1086.40 0.09508916
1086.50 0.09505942
1086.60 0.0950297
1086.70 0.09499999
1086.80 0.09497029
1086.90 0.09494059
1087.00 0.09491091
1087.10 0.09488124
1087.20 0.09485157
1087.30 0.09482191
1087.40 0.09479227
1087.50 0.09476263
1087.60 0.094733
1087.70 0.09470338
1087.80 0.09467377
1087.90 0.09464417
1088.00 0.09461458
1088.10 0.094585
1088.20 0.09455542
1088.30 0.09452586
1088.40 0.09449631
1088.50 0.09446676
1088.60 0.09443723
1088.70 0.0944077
1088.80 0.09437818
1088.90 0.09434868
1089.00 0.09431918
1089.10 0.09428969
1089.20 0.09426021
1089.30 0.09423074
1089.40 0.09420089
1089.50 0.09417088
1089.60 0.09414089
1089.70 0.0941109
1089.80 0.09408092
1089.90 0.09405095
1090.00 0.09402099
1090.10 0.09399104
1090.20 0.0939611
1090.30 0.09393116
1090.40 0.09390124
1090.50 0.09387133
1090.60 0.09384142
1090.70 0.09381153
1090.80 0.09378164
1090.90 0.09375177
1091.00 0.0937219
1091.10 0.09369204
1091.20 0.0936622
1091.30 0.09363236
1091.40 0.09360253
1091.50 0.09357271
1091.60 0.0935429
1091.70 0.0935131
1091.80 0.09348331
1091.90 0.09345353
1092.00 0.09342375
1092.10 0.09339399
1092.20 0.09336424
1092.30 0.09333449
1092.40 0.09330475
1092.50 0.09327503
1092.60 0.09324531
1092.70 0.0932156
1092.80 0.09318591
1092.90 0.09315622
1093.00 0.09312654
1093.10 0.09309687
1093.20 0.09306721
1093.30 0.09303755
1093.40 0.09300791
1093.50 0.09297828
1093.60 0.09294865
1093.70 0.09291904
1093.80 0.09288943
1093.90 0.09285984
1094.00 0.09283025
1094.10 0.09280067
1094.20 0.09277111
1094.30 0.09274155
1094.40 0.092712
1094.50 0.09268246
1094.60 0.09265293
1094.70 0.0926234
1094.80 0.09259423
1094.90 0.09256539
1095.00 0.09253656
1095.10 0.09250775
1095.20 0.09247894
1095.30 0.09245014
1095.40 0.09242135
1095.50 0.09239257
1095.60 0.0923638
1095.70 0.09233503
1095.80 0.09230628
1095.90 0.09227753
1096.00 0.0922488
1096.10 0.09222007
1096.20 0.09219135
1096.30 0.09216264
1096.40 0.09213394
1096.50 0.09210525
1096.60 0.09207656
1096.70 0.09204789
1096.80 0.09201923
1096.90 0.09199057
1097.00 0.09196192
1097.10 0.09193328
1097.20 0.09190466
1097.30 0.09187603
1097.40 0.09184742
1097.50 0.09181882
1097.60 0.09179023
1097.70 0.09176164
1097.80 0.09173307
1097.90 0.0917045
1098.00 0.09167594
1098.10 0.09164739
1098.20 0.09161885
1098.30 0.09159032
1098.40 0.0915618
1098.50 0.09153328
1098.60 0.09150478
1098.70 0.09147628
1098.80 0.0914478
1098.90 0.09141932
1099.00 0.09139085
1099.10 0.09136239
1099.20 0.09133394
1099.30 0.09130549
1099.40 0.09127706
1099.50 0.09124863
1099.60 0.09122022
1099.70 0.09119181
1099.80 0.09116341
1099.90 0.09113502
1100.00 0.09110664
1100.10 0.09107827
1100.20 0.0910499
1100.30 0.09102155
1100.40 0.0909932
1100.50 0.09096487
1100.60 0.09093654
1100.70 0.09090822
1100.80 0.09087991
1100.90 0.0908516
1101.00 0.09082331
1101.10 0.09079503
1101.20 0.09076675
1101.30 0.09073848
1101.40 0.09071023
1101.50 0.09068198
1101.60 0.09065374
1101.70 0.0906255
1101.80 0.09059728
1101.90 0.09056907
1102.00 0.09054086
1102.10 0.09051266
1102.20 0.09048448
1102.30 0.0904563
1102.40 0.09042813
1102.50 0.09039997
1102.60 0.09037181
1102.70 0.09034367
1102.80 0.09031553
1102.90 0.0902874
1103.00 0.09025929
1103.10 0.09023118
1103.20 0.09020308
1103.30 0.09017498
1103.40 0.0901469
1103.50 0.09011883
1103.60 0.09009076
1103.70 0.0900627
1103.80 0.09003465
1103.90 0.09000661
1104.00 0.08997858
1104.10 0.08995056
1104.20 0.08992255
1104.30 0.08989454
1104.40 0.08986654
1104.50 0.08983856
1104.60 0.08981058
1104.70 0.08978261
1104.80 0.08975464
1104.90 0.08972669
1105.00 0.08969875
1105.10 0.08967081
1105.20 0.08964288
1105.30 0.08961496
1105.40 0.08958705
1105.50 0.08955915
1105.60 0.08953126
1105.70 0.08950338
1105.80 0.08947562
1105.90 0.08944787
1106.00 0.08942012
1106.10 0.08939239
1106.20 0.08936466
1106.30 0.08933694
1106.40 0.08930924
1106.50 0.08928154
1106.60 0.08925384
1106.70 0.08922616
1106.80 0.08919849
1106.90 0.08917082
1107.00 0.08914316
1107.10 0.08911551
1107.20 0.08908787
1107.30 0.08906024
1107.40 0.08903262
1107.50 0.089005
1107.60 0.0889774
1107.70 0.0889498
1107.80 0.08892221
1107.90 0.08889463
1108.00 0.08886705
1108.10 0.08883949
1108.20 0.08881193
1108.30 0.08878439
1108.40 0.08875685
1108.50 0.08872932
1108.60 0.0887018
1108.70 0.08867429
1108.80 0.08864678
1108.90 0.08861928
1109.00 0.0885918
1109.10 0.08856432
1109.20 0.08853685
1109.30 0.08850939
1109.40 0.08848193
1109.50 0.08845449
1109.60 0.08842705
1109.70 0.08839962
1109.80 0.0883722
1109.90 0.08834479
1110.00 0.08831739
1110.10 0.08828999
1110.20 0.08826261
1110.30 0.08823523
1110.40 0.08820786
1110.50 0.0881805
1110.60 0.08815315
1110.70 0.0881258
1110.80 0.08809847
1110.90 0.08807114
1111.00 0.08804382
1111.10 0.08801651
1111.20 0.08798921
1111.30 0.08796192
1111.40 0.08793463
1111.50 0.08790735
1111.60 0.08788009
1111.70 0.08785283
1111.80 0.08782557
1111.90 0.08779833
1112.00 0.0877711
1112.10 0.08774387
1112.20 0.08771665
1112.30 0.08768944
1112.40 0.08766224
1112.50 0.08763505
1112.60 0.08760786
1112.70 0.08758069
1112.80 0.08755352
1112.90 0.08752636
1113.00 0.08749921
1113.10 0.08747207
1113.20 0.08744493
1113.30 0.08741781
1113.40 0.08739069
1113.50 0.08736358
1113.60 0.08733648
1113.70 0.08730938
1113.80 0.0872823
1113.90 0.08725522
1114.00 0.08722816
1114.10 0.0872011
1114.20 0.08717404
1114.30 0.087147
1114.40 0.08711997
1114.50 0.08709294
1114.60 0.08706592
1114.70 0.08703891
1114.80 0.08701191
1114.90 0.08698492
1115.00 0.08695793
1115.10 0.08693096
1115.20 0.08690399
1115.30 0.08687703
1115.40 0.08685008
1115.50 0.08682313
1115.60 0.0867962
1115.70 0.08676927
1115.80 0.08674235
1115.90 0.08671544
1116.00 0.08668854
1116.10 0.08666165
1116.20 0.08663476
1116.30 0.08660788
1116.40 0.08658101
1116.50 0.08655415
1116.60 0.0865273
1116.70 0.08650045
1116.80 0.08647367
1116.90 0.08644695
1117.00 0.08642025
1117.10 0.08639355
1117.20 0.08636686
1117.30 0.08634017
1117.40 0.0863135
1117.50 0.08628683
1117.60 0.08626018
1117.70 0.08623353
1117.80 0.08620688
1117.90 0.08618025
1118.00 0.08615362
1118.10 0.08612701
1118.20 0.0861004
1118.30 0.0860738
1118.40 0.0860472
1118.50 0.08602062
1118.60 0.08599404
1118.70 0.08596747
1118.80 0.08594091
1118.90 0.08591436
1119.00 0.08588782
1119.10 0.08586128
1119.20 0.08583475
1119.30 0.08580823
1119.40 0.08578172
1119.50 0.08575522
1119.60 0.08572872
1119.70 0.08570223
1119.80 0.08567575
1119.90 0.08564928
1120.00 0.08562282
1120.10 0.08559636
1120.20 0.08556992
1120.30 0.08554348
1120.40 0.08551705
1120.50 0.08549063
1120.60 0.08546421
1120.70 0.0854378
1120.80 0.08541141
1120.90 0.08538501
1121.00 0.08535863
1121.10 0.08533226
1121.20 0.08530589
1121.30 0.08527953
1121.40 0.08525318
1121.50 0.08522684
1121.60 0.08520051
1121.70 0.08517418
1121.80 0.08514786
1121.90 0.08512155
1122.00 0.08509525
1122.10 0.08506896
1122.20 0.08504267
1122.30 0.08501639
1122.40 0.08499012
1122.50 0.08496386
1122.60 0.0849376
1122.70 0.08491135
1122.80 0.08488511
1122.90 0.08485888
1123.00 0.08483266
1123.10 0.08480644
1123.20 0.08478023
1123.30 0.08475403
1123.40 0.08472784
1123.50 0.08470166
1123.60 0.08467548
1123.70 0.08464931
1123.80 0.08462315
1123.90 0.084597
1124.00 0.08457086
1124.10 0.08454472
1124.20 0.08451859
1124.30 0.08449247
1124.40 0.08446636
1124.50 0.08444025
1124.60 0.08441416
1124.70 0.08438807
1124.80 0.08436199
1124.90 0.08433592
1125.00 0.08430985
1125.10 0.08428379
1125.20 0.08425775
1125.30 0.0842317
1125.40 0.08420567
1125.50 0.08417965
1125.60 0.08415363
1125.70 0.08412762
1125.80 0.08410162
1125.90 0.08407563
1126.00 0.08404964
1126.10 0.08402366
1126.20 0.08399769
1126.30 0.08397173
1126.40 0.08394578
1126.50 0.08391983
1126.60 0.08389389
1126.70 0.08386796
1126.80 0.08384204
1126.90 0.08381613
1127.00 0.08379022
1127.10 0.08376432
1127.20 0.08373843
1127.30 0.08371255
1127.40 0.08368667
1127.50 0.0836608
1127.60 0.08363495
1127.70 0.08360909
1127.80 0.08358325
1127.90 0.08355741
1128.00 0.08353167
1128.10 0.08350596
1128.20 0.08348026
1128.30 0.08345457
1128.40 0.08342888
1128.50 0.08340321
1128.60 0.08337754
1128.70 0.08335188
1128.80 0.08332622
1128.90 0.08330057
1129.00 0.08327494
1129.10 0.0832493
1129.20 0.08322368
1129.30 0.08319807
1129.40 0.08317246
1129.50 0.08314686
1129.60 0.08312127
1129.70 0.08309568
1129.80 0.08307011
1129.90 0.08304454
1130.00 0.08301898
1130.10 0.08299342
1130.20 0.08296788
1130.30 0.08294234
1130.40 0.08291681
1130.50 0.08289129
1130.60 0.08286577
1130.70 0.08284026
1130.80 0.08281476
1130.90 0.08278927
1131.00 0.08276379
1131.10 0.08273831
1131.20 0.08271285
1131.30 0.08268738
1131.40 0.08266193
1131.50 0.08263649
1131.60 0.08261105
1131.70 0.08258562
1131.80 0.0825602
1131.90 0.08253478
1132.00 0.08250938
1132.10 0.08248398
1132.20 0.08245859
1132.30 0.0824332
1132.40 0.08240783
1132.50 0.08238246
1132.60 0.0823571
1132.70 0.08233174
1132.80 0.0823064
1132.90 0.08228106
1133.00 0.08225573
1133.10 0.08223041
1133.20 0.08220509
1133.30 0.08217979
1133.40 0.08215449
1133.50 0.0821292
1133.60 0.08210391
1133.70 0.08207864
1133.80 0.08205337
1133.90 0.08202811
1134.00 0.08200285
1134.10 0.08197761
1134.20 0.08195237
1134.30 0.08192714
1134.40 0.08190191
1134.50 0.0818767
1134.60 0.08185149
1134.70 0.08182629
1134.80 0.0818011
1134.90 0.08177591
1135.00 0.08175074
1135.10 0.08172557
1135.20 0.0817004
1135.30 0.08167525
1135.40 0.0816501
1135.50 0.08162496
1135.60 0.08159983
1135.70 0.08157471
1135.80 0.08154959
1135.90 0.08152448
1136.00 0.08149938
1136.10 0.08147429
1136.20 0.0814492
1136.30 0.08142412
1136.40 0.08139905
1136.50 0.08137399
1136.60 0.08134893
1136.70 0.08132388
1136.80 0.08129884
1136.90 0.08127381
1137.00 0.08124878
1137.10 0.08122376
1137.20 0.08119875
1137.30 0.08117375
1137.40 0.08114875
1137.50 0.08112377
1137.60 0.08109879
1137.70 0.08107381
1137.80 0.08104885
1137.90 0.08102389
1138.00 0.08099894
1138.10 0.080974
1138.20 0.08094906
1138.30 0.08092413
1138.40 0.08089921
1138.50 0.0808743
1138.60 0.08084939
1138.70 0.0808245
1138.80 0.08079961
1138.90 0.08077472
1139.00 0.08074985
1139.10 0.08072498
1139.20 0.08070012
1139.30 0.0806756
1139.40 0.0806511
1139.50 0.08062661
1139.60 0.08060213
1139.70 0.08057765
1139.80 0.08055318
1139.90 0.08052871
1140.00 0.08050426
1140.10 0.08047981
1140.20 0.08045537
1140.30 0.08043093
1140.40 0.08040651
1140.50 0.08038209
1140.60 0.08035768
1140.70 0.08033327
1140.80 0.08030887
1140.90 0.08028448
1141.00 0.0802601
1141.10 0.08023573
1141.20 0.08021136
1141.30 0.080187
1141.40 0.08016264
1141.50 0.0801383
1141.60 0.08011396
1141.70 0.08008963
1141.80 0.0800653
1141.90 0.08004099
1142.00 0.08001668
1142.10 0.07999237
1142.20 0.07996808
1142.30 0.07994379
1142.40 0.07991951
1142.50 0.07989524
1142.60 0.07987097
1142.70 0.07984671
1142.80 0.07982246
1142.90 0.07979822
1143.00 0.07977398
1143.10 0.07974975
1143.20 0.07972553
1143.30 0.07970131
1143.40 0.07967711
1143.50 0.07965291
1143.60 0.07962871
1143.70 0.07960453
1143.80 0.07958035
1143.90 0.07955618
1144.00 0.07953201
1144.10 0.07950785
1144.20 0.0794837
1144.30 0.07945956
1144.40 0.07943543
1144.50 0.0794113
1144.60 0.07938718
1144.70 0.07936306
1144.80 0.07933896
1144.90 0.07931486
1145.00 0.07929076
1145.10 0.07926668
1145.20 0.0792426
1145.30 0.07921853
1145.40 0.07919447
1145.50 0.07917041
1145.60 0.07914636
1145.70 0.07912232
1145.80 0.07909829
1145.90 0.07907426
1146.00 0.07905024
1146.10 0.07902622
1146.20 0.07900222
1146.30 0.07897822
1146.40 0.07895423
1146.50 0.07893024
1146.60 0.07890627
1146.70 0.0788823
1146.80 0.07885833
1146.90 0.07883438
1147.00 0.07881043
1147.10 0.07878649
1147.20 0.07876255
1147.30 0.07873863
1147.40 0.07871471
1147.50 0.07869079
1147.60 0.07866689
1147.70 0.07864299
1147.80 0.0786191
1147.90 0.07859521
1148.00 0.07857134
1148.10 0.07854747
1148.20 0.0785236
1148.30 0.07849975
1148.40 0.0784759
1148.50 0.07845206
1148.60 0.07842822
1148.70 0.07840439
1148.80 0.07838057
1148.90 0.07835676
1149.00 0.07833296
1149.10 0.07830916
1149.20 0.07828536
1149.30 0.07826158
1149.40 0.0782378
1149.50 0.07821403
1149.60 0.07819027
1149.70 0.07816651
1149.80 0.07814276
1149.90 0.07811902
1150.00 0.07809528
1150.10 0.07807156
1150.20 0.07804784
1150.30 0.07802412
1150.40 0.07800041
1150.50 0.07797671
1150.60 0.07795304
1150.70 0.07792969
1150.80 0.07790634
1150.90 0.077883
1151.00 0.07785967
1151.10 0.07783634
1151.20 0.07781302
1151.30 0.07778971
1151.40 0.07776641
1151.50 0.07774311
1151.60 0.07771982
1151.70 0.07769653
1151.80 0.07767326
1151.90 0.07764999
1152.00 0.07762672
1152.10 0.07760347
1152.20 0.07758022
1152.30 0.07755697
1152.40 0.07753374
1152.50 0.07751051
1152.60 0.07748729
1152.70 0.07746407
1152.80 0.07744086
1152.90 0.07741766
1153.00 0.07739447
1153.10 0.07737128
1153.20 0.0773481
1153.30 0.07732492
1153.40 0.07730176
1153.50 0.0772786
1153.60 0.07725544
1153.70 0.0772323
1153.80 0.07720916
1153.90 0.07718602
1154.00 0.0771629
1154.10 0.07713978
1154.20 0.07711667
1154.30 0.07709356
1154.40 0.07707046
1154.50 0.07704737
1154.60 0.07702429
1154.70 0.07700121
1154.80 0.07697814
1154.90 0.07695507
1155.00 0.07693202
1155.10 0.07690896
1155.20 0.07688592
1155.30 0.07686288
1155.40 0.07683985
1155.50 0.07681683
1155.60 0.07679381
1155.70 0.0767708
1155.80 0.0767478
1155.90 0.07672481
1156.00 0.07670182
1156.10 0.07667883
1156.20 0.07665586
1156.30 0.07663289
1156.40 0.07660993
1156.50 0.07658698
1156.60 0.07656403
1156.70 0.07654109
1156.80 0.07651816
1156.90 0.07649524
1157.00 0.07647232
1157.10 0.07644941
1157.20 0.0764265
1157.30 0.07640361
1157.40 0.07638071
1157.50 0.07635783
1157.60 0.07633495
1157.70 0.07631208
1157.80 0.07628922
1157.90 0.07626636
1158.00 0.07624351
1158.10 0.07622067
1158.20 0.07619783
1158.30 0.076175
1158.40 0.07615218
1158.50 0.07612936
1158.60 0.07610655
1158.70 0.07608375
1158.80 0.07606095
1158.90 0.07603816
1159.00 0.07601538
1159.10 0.0759926
1159.20 0.07596983
1159.30 0.07594707
1159.40 0.07592432
1159.50 0.07590157
1159.60 0.07587882
1159.70 0.07585609
1159.80 0.07583336
1159.90 0.07581064
1160.00 0.07578792
1160.10 0.07576521
1160.20 0.07574251
1160.30 0.07571981
1160.40 0.07569713
1160.50 0.07567444
1160.60 0.07565177
1160.70 0.0756291
1160.80 0.07560644
1160.90 0.07558378
1161.00 0.07556113
1161.10 0.07553849
1161.20 0.07551586
1161.30 0.07549323
1161.40 0.07547061
1161.50 0.07544799
1161.60 0.07542538
1161.70 0.07540278
1161.80 0.07538018
1161.90 0.0753576
1162.00 0.07533501
1162.10 0.07531244
1162.20 0.07528996
1162.30 0.07526749
1162.40 0.07524503
1162.50 0.07522257
1162.60 0.07520012
1162.70 0.07517768
1162.80 0.07515524
1162.90 0.07513281
1163.00 0.07511039
1163.10 0.07508797
1163.20 0.07506556
1163.30 0.07504316
1163.40 0.07502076
1163.50 0.07499837
1163.60 0.07497599
1163.70 0.07495361
1163.80 0.07493124
1163.90 0.07490888
1164.00 0.07488652
1164.10 0.07486417
1164.20 0.07484183
1164.30 0.07481949
1164.40 0.07479716
1164.50 0.07477483
1164.60 0.07475252
1164.70 0.0747302
1164.80 0.0747079
1164.90 0.0746856
1165.00 0.07466331
1165.10 0.07464103
1165.20 0.07461875
1165.30 0.07459647
1165.40 0.07457421
1165.50 0.07455195
1165.60 0.0745297
1165.70 0.07450745
1165.80 0.07448521
1165.90 0.07446298
1166.00 0.07444075
1166.10 0.07441853
1166.20 0.07439632
1166.30 0.07437411
1166.40 0.07435191
1166.50 0.07432972
1166.60 0.07430753
1166.70 0.07428535
1166.80 0.07426318
1166.90 0.07424101
1167.00 0.07421885
1167.10 0.0741967
1167.20 0.07417455
1167.30 0.07415241
1167.40 0.07413027
1167.50 0.07410814
1167.60 0.07408602
1167.70 0.0740639
1167.80 0.0740418
1167.90 0.07401969
1168.00 0.0739976
1168.10 0.07397551
1168.20 0.07395343
1168.30 0.07393135
1168.40 0.07390929
1168.50 0.07388722
1168.60 0.07386517
1168.70 0.07384312
1168.80 0.07382108
1168.90 0.07379904
1169.00 0.07377701
1169.10 0.07375499
1169.20 0.07373297
1169.30 0.07371096
1169.40 0.07368896
1169.50 0.07366696
1169.60 0.07364497
1169.70 0.07362298
1169.80 0.073601
1169.90 0.07357903
1170.00 0.07355707
1170.10 0.07353511
1170.20 0.07351316
1170.30 0.07349121
1170.40 0.07346927
1170.50 0.07344734
1170.60 0.07342541
1170.70 0.07340349
1170.80 0.07338158
1170.90 0.07335967
1171.00 0.07333777
1171.10 0.07331587
1171.20 0.07329398
1171.30 0.0732721
1171.40 0.07325023
1171.50 0.07322836
1171.60 0.07320649
1171.70 0.07318464
1171.80 0.07316279
1171.90 0.07314095
1172.00 0.07311911
1172.10 0.07309728
1172.20 0.07307545
1172.30 0.07305364
1172.40 0.07303182
1172.50 0.07301002
1172.60 0.07298822
1172.70 0.07296643
1172.80 0.07294464
1172.90 0.07292286
1173.00 0.07290109
1173.10 0.07287932
1173.20 0.07285756
1173.30 0.07283581
1173.40 0.07281406
1173.50 0.07279232
1173.60 0.07277058
1173.70 0.07274885
1173.80 0.0727272
1173.90 0.07270558
1174.00 0.07268396
1174.10 0.07266234
1174.20 0.07264074
1174.30 0.07261914
1174.40 0.07259754
1174.50 0.07257596
1174.60 0.07255437
1174.70 0.0725328
1174.80 0.07251123
1174.90 0.07248967
1175.00 0.07246811
1175.10 0.07244656
1175.20 0.07242502
1175.30 0.07240348
1175.40 0.07238195
1175.50 0.07236042
1175.60 0.07233891
1175.70 0.07231739
1175.80 0.07229589
1175.90 0.07227439
1176.00 0.07225289
1176.10 0.07223141
1176.20 0.07220993
1176.30 0.07218845
1176.40 0.07216698
1176.50 0.07214552
1176.60 0.07212407
1176.70 0.07210262
1176.80 0.07208117
1176.90 0.07205974
1177.00 0.0720383
1177.10 0.07201688
1177.20 0.07199546
1177.30 0.07197405
1177.40 0.07195264
1177.50 0.07193124
1177.60 0.07190985
1177.70 0.07188846
1177.80 0.07186708
1177.90 0.07184571
1178.00 0.07182434
1178.10 0.07180298
1178.20 0.07178162
1178.30 0.07176027
1178.40 0.07173893
1178.50 0.07171759
1178.60 0.07169626
1178.70 0.07167493
1178.80 0.07165361
1178.90 0.0716323
1179.00 0.07161099
1179.10 0.07158969
1179.20 0.0715684
1179.30 0.07154711
1179.40 0.07152583
1179.50 0.07150455
1179.60 0.07148328
1179.70 0.07146202
1179.80 0.07144077
1179.90 0.07141952
1180.00 0.07139828
1180.10 0.07137704
1180.20 0.07135581
1180.30 0.07133458
1180.40 0.07131337
1180.50 0.07129215
1180.60 0.07127095
1180.70 0.07124975
1180.80 0.07122855
1180.90 0.07120737
1181.00 0.07118618
1181.10 0.07116501
1181.20 0.07114384
1181.30 0.07112268
1181.40 0.07110152
1181.50 0.07108037
1181.60 0.07105922
1181.70 0.07103809
1181.80 0.07101695
1181.90 0.07099583
1182.00 0.07097471
1182.10 0.07095359
1182.20 0.07093249
1182.30 0.07091138
1182.40 0.07089029
1182.50 0.0708692
1182.60 0.07084812
1182.70 0.07082704
1182.80 0.07080597
1182.90 0.0707849
1183.00 0.07076384
1183.10 0.07074279
1183.20 0.07072175
1183.30 0.0707007
1183.40 0.07067967
1183.50 0.07065864
1183.60 0.07063762
1183.70 0.0706166
1183.80 0.07059559
1183.90 0.07057459
1184.00 0.07055359
1184.10 0.0705326
1184.20 0.07051161
1184.30 0.07049064
1184.40 0.07046966
1184.50 0.07044869
1184.60 0.07042773
1184.70 0.07040678
1184.80 0.07038583
1184.90 0.07036489
1185.00 0.07034395
1185.10 0.07032302
1185.20 0.07030209
1185.30 0.07028117
1185.40 0.07026026
1185.50 0.07023957
1185.60 0.07021919
1185.70 0.07019881
1185.80 0.07017843
1185.90 0.07015806
1186.00 0.0701377
1186.10 0.07011735
1186.20 0.070097
1186.30 0.07007665
1186.40 0.07005631
1186.50 0.07003598
1186.60 0.07001566
1186.70 0.06999533
1186.80 0.06997502
1186.90 0.06995471
1187.00 0.06993441
1187.10 0.06991411
1187.20 0.06989382
1187.30 0.06987353
1187.40 0.06985325
1187.50 0.06983298
1187.60 0.06981271
1187.70 0.06979245
1187.80 0.06977219
1187.90 0.06975194
1188.00 0.0697317
1188.10 0.06971146
1188.20 0.06969122
1188.30 0.069671
1188.40 0.06965078
1188.50 0.06963056
1188.60 0.06961035
1188.70 0.06959015
1188.80 0.06956995
1188.90 0.06954975
1189.00 0.06952957
1189.10 0.06950939
1189.20 0.06948921
1189.30 0.06946904
1189.40 0.06944888
1189.50 0.06942872
1189.60 0.06940857
1189.70 0.06938842
1189.80 0.06936828
1189.90 0.06934815
1190.00 0.06932802
1190.10 0.0693079
1190.20 0.06928778
1190.30 0.06926767
1190.40 0.06924756
1190.50 0.06922746
1190.60 0.06920737
1190.70 0.06918728
1190.80 0.0691672
1190.90 0.06914712
1191.00 0.06912705
1191.10 0.06910699
1191.20 0.06908693
1191.30 0.06906687
1191.40 0.06904676
1191.50 0.0690263
1191.60 0.06900584
1191.70 0.06898539
1191.80 0.06896494
1191.90 0.0689445
1192.00 0.06892406
1192.10 0.06890363
1192.20 0.06888321
1192.30 0.06886279
1192.40 0.06884238
1192.50 0.06882197
1192.60 0.06880157
1192.70 0.06878118
1192.80 0.06876079
1192.90 0.06874041
1193.00 0.06872003
1193.10 0.06869966
1193.20 0.0686793
1193.30 0.06865894
1193.40 0.06863859
1193.50 0.06861824
1193.60 0.0685979
1193.70 0.06857756
1193.80 0.06855723
1193.90 0.06853691
1194.00 0.06851659
1194.10 0.06849628
1194.20 0.06847597
1194.30 0.06845567
1194.40 0.06843538
1194.50 0.06841509
1194.60 0.06839481
1194.70 0.06837453
1194.80 0.06835426
1194.90 0.06833399
1195.00 0.06831373
1195.10 0.06829348
1195.20 0.06827323
1195.30 0.06825299
1195.40 0.06823275
1195.50 0.06821252
1195.60 0.0681923
1195.70 0.06817208
1195.80 0.06815187
1195.90 0.06813166
1196.00 0.06811146
1196.10 0.06809126
1196.20 0.06807107
1196.30 0.06805089
1196.40 0.06803071
1196.50 0.06801054
1196.60 0.06799037
1196.70 0.06797021
1196.80 0.06795005
1196.90 0.06792991
1197.00 0.06790976
1197.10 0.06788962
1197.20 0.06786949
1197.30 0.06784937
1197.40 0.06782969
1197.50 0.06781007
1197.60 0.06779047
1197.70 0.06777087
1197.80 0.06775127
1197.90 0.06773168
1198.00 0.0677121
1198.10 0.06769252
1198.20 0.06767294
1198.30 0.06765338
1198.40 0.06763382
1198.50 0.06761426
1198.60 0.06759471
1198.70 0.06757516
1198.80 0.06755562
1198.90 0.06753609
1199.00 0.06751656
1199.10 0.06749704
1199.20 0.06747752
1199.30 0.06745801
1199.40 0.0674385
1199.50 0.067419
1199.60 0.06739951
1199.70 0.06738002
1199.80 0.06736053
1199.90 0.06734105
1200.00 0.06732158
