# Version 2.1 - nm, norm@500 to 1, cut digits, bergeron_He_22000_70.dat_22000
# Wavelength(nm)  Flambda(ergs/cm^s/s/nm)
300.00 3.859886
300.10 3.856954
300.20 3.853894
300.30 3.850788
300.40 3.847357
300.50 3.84393
300.60 3.840507
300.70 3.837088
300.80 3.833672
300.90 3.83026
301.00 3.826851
301.10 3.823447
301.20 3.820046
301.30 3.816648
301.40 3.813255
301.50 3.809865
301.60 3.806478
301.70 3.803096
301.80 3.799717
301.90 3.796341
302.00 3.792969
302.10 3.789429
302.20 3.785872
302.30 3.78232
302.40 3.778772
302.50 3.775227
302.60 3.771687
302.70 3.76815
302.80 3.764617
302.90 3.761088
303.00 3.757563
303.10 3.754041
303.20 3.750523
303.30 3.747015
303.40 3.743564
303.50 3.740115
303.60 3.736671
303.70 3.73323
303.80 3.729793
303.90 3.726359
304.00 3.72293
304.10 3.719504
304.20 3.716082
304.30 3.712663
304.40 3.709248
304.50 3.705837
304.60 3.702323
304.70 3.698801
304.80 3.695283
304.90 3.691768
305.00 3.688257
305.10 3.684751
305.20 3.681247
305.30 3.677748
305.40 3.674253
305.50 3.670761
305.60 3.667273
305.70 3.663789
305.80 3.660309
305.90 3.656832
306.00 3.653359
306.10 3.64989
306.20 3.646425
306.30 3.642963
306.40 3.639558
306.50 3.636172
306.60 3.63279
306.70 3.629411
306.80 3.626036
306.90 3.622664
307.00 3.619296
307.10 3.615932
307.20 3.612571
307.30 3.609214
307.40 3.605861
307.50 3.602511
307.60 3.599165
307.70 3.595822
307.80 3.592483
307.90 3.589147
308.00 3.585816
308.10 3.582487
308.20 3.579162
308.30 3.575841
308.40 3.572523
308.50 3.569209
308.60 3.565899
308.70 3.562592
308.80 3.559282
308.90 3.555958
309.00 3.5526
309.10 3.549246
309.20 3.545895
309.30 3.542548
309.40 3.539204
309.50 3.535857
309.60 3.532515
309.70 3.529175
309.80 3.52584
309.90 3.522507
310.00 3.519179
310.10 3.515854
310.20 3.512532
310.30 3.509214
310.40 3.505849
310.50 3.502431
310.60 3.499016
310.70 3.495606
310.80 3.492199
310.90 3.488796
311.00 3.485197
311.10 3.481602
311.20 3.478011
311.30 3.474486
311.40 3.471138
311.50 3.467794
311.60 3.464454
311.70 3.461117
311.80 3.457784
311.90 3.454455
312.00 3.451129
312.10 3.447806
312.20 3.44471
312.30 3.441387
312.40 3.437788
312.50 3.434063
312.60 3.430518
312.70 3.426976
312.80 3.423438
312.90 3.41998
313.00 3.41661
313.10 3.413242
313.20 3.409878
313.30 3.406424
313.40 3.402703
313.50 3.398986
313.60 3.395274
313.70 3.391565
313.80 3.387861
313.90 3.38416
314.00 3.380464
314.10 3.376385
314.20 3.372311
314.30 3.368242
314.40 3.364177
314.50 3.360117
314.60 3.356061
314.70 3.352009
314.80 3.348048
314.90 3.343895
315.00 3.339268
315.10 3.333857
315.20 3.328452
315.30 3.323053
315.40 3.31766
315.50 3.312273
315.60 3.306892
315.70 3.300186
315.80 3.293487
315.90 3.286795
316.00 3.280112
316.10 3.271903
316.20 3.263704
316.30 3.267767
316.40 3.270599
316.50 3.252625
316.60 3.206544
316.70 3.192909
316.80 3.17929
316.90 3.177589
317.00 3.17589
317.10 3.174192
317.20 3.172495
317.30 3.183091
317.40 3.190029
317.50 3.186593
317.60 3.18316
317.70 3.179731
317.80 3.176306
317.90 3.155156
318.00 3.12463
318.10 3.074511
318.20 3.024455
318.30 2.974461
318.40 2.899929
318.50 2.755518
318.60 2.585541
318.70 2.253598
318.80 1.945468
318.90 2.297118
319.00 2.50964
319.10 2.657947
319.20 2.784501
319.30 2.849554
319.40 2.914525
319.50 2.979414
319.60 3.025693
319.70 3.047914
319.80 3.070107
319.90 3.092271
320.00 3.109463
320.10 3.121278
320.20 3.131549
320.30 3.138148
320.40 3.14407
320.50 3.147359
320.60 3.150501
320.70 3.152708
320.80 3.154054
320.90 3.154469
321.00 3.154883
321.10 3.155296
321.20 3.154835
321.30 3.153899
321.40 3.152963
321.50 3.152028
321.60 3.151093
321.70 3.150159
321.80 3.148734
321.90 3.146778
322.00 3.144824
322.10 3.142871
322.20 3.140921
322.30 3.138972
322.40 3.137025
322.50 3.13508
322.60 3.133136
322.70 3.131195
322.80 3.129201
322.90 3.127054
323.00 3.124909
323.10 3.122767
323.20 3.120626
323.30 3.118488
323.40 3.116351
323.50 3.114217
323.60 3.112085
323.70 3.109954
323.80 3.107826
323.90 3.1057
324.00 3.103471
324.10 3.101244
324.20 3.099019
324.30 3.096489
324.40 3.093598
324.50 3.091264
324.60 3.088932
324.70 3.086602
324.80 3.084274
324.90 3.081949
325.00 3.079626
325.10 3.077306
325.20 3.074865
325.30 3.072168
325.40 3.069473
325.50 3.067013
325.60 3.064838
325.70 3.062665
325.80 3.060494
325.90 3.058203
326.00 3.05578
326.10 3.05336
326.20 3.050942
326.30 3.048431
326.40 3.04565
326.50 3.043231
326.60 3.040813
326.70 3.038398
326.80 3.035986
326.90 3.033576
327.00 3.031168
327.10 3.028762
327.20 3.026359
327.30 3.023959
327.40 3.02156
327.50 3.019164
327.60 3.016771
327.70 3.01438
327.80 3.011991
327.90 3.009337
328.00 3.00612
328.10 3.00257
328.20 2.999024
328.30 2.995481
328.40 2.991943
328.50 2.989796
328.60 2.987976
328.70 2.986159
328.80 2.984218
328.90 2.981923
329.00 2.979632
329.10 2.977342
329.20 2.975054
329.30 2.972769
329.40 2.970486
329.50 2.968205
329.60 2.965927
329.70 2.963651
329.80 2.961377
329.90 2.959105
330.00 2.956794
330.10 2.954436
330.20 2.952081
330.30 2.949727
330.40 2.947355
330.50 2.944961
330.60 2.94257
330.70 2.940181
330.80 2.937794
330.90 2.935409
331.00 2.933027
331.10 2.930648
331.20 2.92827
331.30 2.925895
331.40 2.923523
331.50 2.921022
331.60 2.918365
331.70 2.915711
331.80 2.91289
331.90 2.910064
332.00 2.907241
332.10 2.904421
332.20 2.901604
332.30 2.898789
332.40 2.895978
332.50 2.893169
332.60 2.890364
332.70 2.887561
332.80 2.884761
332.90 2.881963
333.00 2.879169
333.10 2.875911
333.20 2.872087
333.30 2.868268
333.40 2.864452
333.50 2.86064
333.60 2.856833
333.70 2.853029
333.80 2.84923
333.90 2.845434
334.00 2.841643
334.10 2.836818
334.20 2.83073
334.30 2.82465
334.40 2.818576
334.50 2.812509
334.60 2.806448
334.70 2.79905
334.80 2.788243
334.90 2.774898
335.00 2.761568
335.10 2.747455
335.20 2.733269
335.30 2.718474
335.40 2.702959
335.50 2.718228
335.60 2.730213
335.70 2.740307
335.80 2.749003
335.90 2.755854
336.00 2.760457
336.10 2.765055
336.20 2.769646
336.30 2.772077
336.40 2.771873
336.50 2.77167
336.60 2.771466
336.70 2.771261
336.80 2.771057
336.90 2.770685
337.00 2.77011
337.10 2.769534
337.20 2.768959
337.30 2.768095
337.40 2.766816
337.50 2.765538
337.60 2.764261
337.70 2.762985
337.80 2.76171
337.90 2.760273
338.00 2.75864
338.10 2.757009
338.20 2.755378
338.30 2.75375
338.40 2.751983
338.50 2.749875
338.60 2.747769
338.70 2.745666
338.80 2.743564
338.90 2.741464
339.00 2.739367
339.10 2.737271
339.20 2.735178
339.30 2.73306
339.40 2.730907
339.50 2.728633
339.60 2.726211
339.70 2.723791
339.80 2.721374
339.90 2.71896
340.00 2.716547
340.10 2.714137
340.20 2.71173
340.30 2.709324
340.40 2.706921
340.50 2.704521
340.60 2.702123
340.70 2.699727
340.80 2.697224
340.90 2.694565
341.00 2.691919
341.10 2.689287
341.20 2.686658
341.30 2.684032
341.40 2.681408
341.50 2.678787
341.60 2.676168
341.70 2.673552
341.80 2.670744
341.90 2.667702
342.00 2.664662
342.10 2.661626
342.20 2.657841
342.30 2.654038
342.40 2.650666
342.50 2.646839
342.60 2.643016
342.70 2.639197
342.80 2.635382
342.90 2.631571
343.00 2.627162
343.10 2.622022
343.20 2.616888
343.30 2.61176
343.40 2.605201
343.50 2.596585
343.60 2.587979
343.70 2.579382
343.80 2.570795
343.90 2.562218
344.00 2.549438
344.10 2.530616
344.20 2.511815
344.30 2.493035
344.40 2.468027
344.50 2.434059
344.60 2.39648
344.70 2.347633
344.80 2.393443
344.90 2.42686
345.00 2.462658
345.10 2.481817
345.20 2.49779
345.30 2.509194
345.40 2.520585
345.50 2.529741
345.60 2.534759
345.70 2.537737
345.80 2.540712
345.90 2.543683
346.00 2.54665
346.10 2.549613
346.20 2.551006
346.30 2.550147
346.40 2.549287
346.50 2.548429
346.60 2.547571
346.70 2.546713
346.80 2.545856
346.90 2.545
347.00 2.544144
347.10 2.543289
347.20 2.542212
347.30 2.540818
347.40 2.539425
347.50 2.538033
347.60 2.536642
347.70 2.535252
347.80 2.533864
347.90 2.532476
348.00 2.53109
348.10 2.529705
348.20 2.528321
348.30 2.526939
348.40 2.525557
348.50 2.524177
348.60 2.522798
348.70 2.521368
348.80 2.51984
348.90 2.518194
349.00 2.51655
349.10 2.514907
349.20 2.513266
349.30 2.511626
349.40 2.509988
349.50 2.508351
349.60 2.506716
349.70 2.505082
349.80 2.503449
349.90 2.501818
350.00 2.500189
350.10 2.498561
350.20 2.496934
350.30 2.495391
350.40 2.493967
350.50 2.492544
350.60 2.491122
350.70 2.489702
350.80 2.488282
350.90 2.486864
351.00 2.485447
351.10 2.484032
351.20 2.482617
351.30 2.481204
351.40 2.479888
351.50 2.478743
351.60 2.477599
351.70 2.476456
351.80 2.475314
351.90 2.474173
352.00 2.473033
352.10 2.471893
352.20 2.470516
352.30 2.469323
352.40 2.468432
352.50 2.467541
352.60 2.466652
352.70 2.465762
352.80 2.464874
352.90 2.463986
353.00 2.463098
353.10 2.462211
353.20 2.461325
353.30 2.460439
353.40 2.459554
353.50 2.458972
353.60 2.458464
353.70 2.457957
353.80 2.45745
353.90 2.456941
354.00 2.456427
354.10 2.455914
354.20 2.455401
354.30 2.454888
354.40 2.454375
354.50 2.453862
354.60 2.45335
354.70 2.452837
354.80 2.452331
354.90 2.451832
355.00 2.451333
355.10 2.450834
355.20 2.450336
355.30 2.450083
355.40 2.44983
355.50 2.449577
355.60 2.449324
355.70 2.449157
355.80 2.449027
355.90 2.448448
356.00 2.447984
356.10 2.447747
356.20 2.44751
356.30 2.447274
356.40 2.447037
356.50 2.4468
356.60 2.446562
356.70 2.446325
356.80 2.446087
356.90 2.44585
357.00 2.445612
357.10 2.445374
357.20 2.445136
357.30 2.444898
357.40 2.444562
357.50 2.444051
357.60 2.44354
357.70 2.443029
357.80 2.442534
357.90 2.44204
358.00 2.441069
358.10 2.439981
358.20 2.438893
358.30 2.437806
358.40 2.436721
358.50 2.435635
358.60 2.434551
358.70 2.433468
358.80 2.432385
358.90 2.431303
359.00 2.42997
359.10 2.428191
359.20 2.426256
359.30 2.423276
359.40 2.420298
359.50 2.416458
359.60 2.412406
359.70 2.408358
359.80 2.402357
359.90 2.396362
360.00 2.388182
360.10 2.376117
360.20 2.364066
360.30 2.352027
360.40 2.340002
360.50 2.327989
360.60 2.302383
360.70 2.265303
360.80 2.228265
360.90 2.191267
361.00 2.146014
361.10 2.069356
361.20 1.978742
361.30 1.836601
361.40 1.964024
361.50 2.103217
361.60 2.162785
361.70 2.166743
361.80 2.175294
361.90 2.192007
362.00 2.208701
362.10 2.215734
362.20 2.215445
362.30 2.20644
362.40 2.197445
362.50 2.188459
362.60 2.179482
362.70 2.165339
362.80 2.149451
362.90 2.129281
363.00 2.109132
363.10 2.085925
363.20 2.062712
363.30 2.045092
363.40 2.03863
363.50 2.056758
363.60 2.090397
363.70 2.116277
363.80 2.135799
363.90 2.151375
364.00 2.166935
364.10 2.182477
364.20 2.198001
364.30 2.215737
364.40 2.234009
364.50 2.251375
364.60 2.263926
364.70 2.276463
364.80 2.288986
364.90 2.296938
365.00 2.30488
365.10 2.304078
365.20 2.293165
365.30 2.289614
365.40 2.302591
365.50 2.316013
365.60 2.32942
365.70 2.341061
365.80 2.35269
365.90 2.360903
366.00 2.368255
366.10 2.372355
366.20 2.376449
366.30 2.380539
366.40 2.384624
366.50 2.387312
366.60 2.387872
366.70 2.387951
366.80 2.38803
366.90 2.387081
367.00 2.384307
367.10 2.381536
367.20 2.378767
367.30 2.376001
367.40 2.373238
367.50 2.368426
367.60 2.363105
367.70 2.354663
367.80 2.346228
367.90 2.337803
368.00 2.329006
368.10 2.318783
368.20 2.303708
368.30 2.2886
368.40 2.273507
368.50 2.258431
368.60 2.243371
368.70 2.228327
368.80 2.213299
368.90 2.196889
369.00 2.177439
369.10 2.157866
369.20 2.13583
369.30 2.108907
369.40 2.082014
369.50 2.055149
369.60 2.021447
369.70 1.98778
369.80 1.951843
369.90 1.91592
370.00 1.880036
370.10 1.841315
370.20 1.796483
370.30 1.751709
370.40 1.707037
370.50 1.686146
370.60 1.734848
370.70 1.797448
370.80 1.846157
370.90 1.894813
371.00 1.916441
371.10 1.937773
371.20 1.956646
371.30 1.975499
371.40 1.99915
371.50 2.021726
371.60 2.044277
371.70 2.066804
371.80 2.089306
371.90 2.111784
372.00 2.131765
372.10 2.14959
372.20 2.162888
372.30 2.176171
372.40 2.18944
372.50 2.202694
372.60 2.215934
372.70 2.229158
372.80 2.235423
372.90 2.24168
373.00 2.246689
373.10 2.25168
373.20 2.242112
373.30 2.232554
373.40 2.163222
373.50 2.138778
373.60 2.167933
373.70 2.199689
373.80 2.223734
373.90 2.249946
374.00 2.26386
374.10 2.277759
374.20 2.291643
374.30 2.305512
374.40 2.314118
374.50 2.32134
374.60 2.326451
374.70 2.331555
374.80 2.336653
374.90 2.341746
375.00 2.344565
375.10 2.347381
375.20 2.350193
375.30 2.350557
375.40 2.350921
375.50 2.351283
375.60 2.351645
375.70 2.352006
375.80 2.352367
375.90 2.352726
376.00 2.352334
376.10 2.350904
376.20 2.349466
376.30 2.348029
376.40 2.346593
376.50 2.344757
376.60 2.342319
376.70 2.339884
376.80 2.33694
376.90 2.333488
377.00 2.330038
377.10 2.326593
377.20 2.322938
377.30 2.318487
377.40 2.314041
377.50 2.3096
377.60 2.303704
377.70 2.297815
377.80 2.291931
377.90 2.286053
378.00 2.280372
378.10 2.271461
378.20 2.262523
378.30 2.253594
378.40 2.244674
378.50 2.235764
378.60 2.226863
378.70 2.21797
378.80 2.209087
378.90 2.199369
379.00 2.188094
379.10 2.175681
379.20 2.163281
379.30 2.14992
379.40 2.135601
379.50 2.121297
379.60 2.106557
379.70 2.09001
379.80 2.069164
379.90 2.048339
380.00 2.027536
380.10 2.006754
380.20 1.985994
380.30 1.965256
380.40 1.944539
380.50 1.923844
380.60 1.894711
380.70 1.861998
380.80 1.82932
380.90 1.796676
381.00 1.764066
381.10 1.72516
381.20 1.685732
381.30 1.645994
381.40 1.605357
381.50 1.561324
381.60 1.515646
381.70 1.468267
381.80 1.425359
381.90 1.386371
382.00 1.359184
382.10 1.424381
382.20 1.490517
382.30 1.550964
382.40 1.605981
382.50 1.652896
382.60 1.699761
382.70 1.739567
382.80 1.760114
382.90 1.769329
383.00 1.778535
383.10 1.78773
383.20 1.799827
383.30 1.822859
383.40 1.845813
383.50 1.868664
383.60 1.891028
383.70 1.908692
383.80 1.926336
383.90 1.943962
384.00 1.961569
384.10 1.979158
384.20 1.996728
384.30 2.01428
384.40 2.029
384.50 2.040895
384.60 2.052776
384.70 2.064645
384.80 2.07601
384.90 2.084669
385.00 2.09175
385.10 2.09881
385.20 2.104263
385.30 2.10862
385.40 2.11198
385.50 2.114346
385.60 2.116708
385.70 2.119068
385.80 2.121205
385.90 2.122513
386.00 2.122324
386.10 2.120037
386.20 2.111641
386.30 2.103253
386.40 2.090204
386.50 2.06461
386.60 2.021919
386.70 1.91943
386.80 1.685751
386.90 1.780076
387.00 1.853596
387.10 1.904053
387.20 1.945658
387.30 1.978721
387.40 2.00106
387.50 2.018048
387.60 2.030961
387.70 2.034195
387.80 2.037425
387.90 2.040652
388.00 2.040393
388.10 2.025662
388.20 1.99487
388.30 1.952289
388.40 1.909752
388.50 1.850369
388.60 1.752507
388.70 1.612611
388.80 1.405919
388.90 1.324653
389.00 1.507588
389.10 1.647091
389.20 1.752792
389.30 1.833847
389.40 1.89592
389.50 1.95039
389.60 1.991534
389.70 2.019715
389.80 2.037613
389.90 2.055492
390.00 2.073353
390.10 2.091195
390.20 2.109019
390.30 2.121067
390.40 2.126616
390.50 2.132158
390.60 2.137695
390.70 2.143225
390.80 2.1468
390.90 2.148421
391.00 2.148963
391.10 2.148253
391.20 2.147235
391.30 2.143996
391.40 2.139567
391.50 2.135142
391.60 2.130721
391.70 2.126304
391.80 2.121891
391.90 2.117644
392.00 2.11284
392.10 2.10693
392.20 2.100732
392.30 2.092902
392.40 2.086454
392.50 2.080327
392.60 2.072766
392.70 2.066563
392.80 2.066723
392.90 2.070787
393.00 2.076066
393.10 2.081336
393.20 2.086528
393.30 2.091014
393.40 2.095195
393.50 2.096798
393.60 2.09634
393.70 2.097124
393.80 2.099722
393.90 2.101817
394.00 2.103853
394.10 2.104324
394.20 2.103657
394.30 2.101761
394.40 2.099034
394.50 2.094357
394.60 2.088018
394.70 2.081049
394.80 2.071698
394.90 2.062278
395.00 2.05032
395.10 2.037182
395.20 2.019462
395.30 2.000809
395.40 1.982174
395.50 1.953626
395.60 1.921435
395.70 1.884469
395.80 1.834551
395.90 1.784682
396.00 1.732831
396.10 1.653527
396.20 1.55547
396.30 1.450558
396.40 1.308586
396.50 1.347321
396.60 1.596651
396.70 1.709351
396.80 1.706948
396.90 1.682052
397.00 1.730515
397.10 1.857909
397.20 1.906337
397.30 1.895228
397.40 1.901352
397.50 1.907471
397.60 1.913911
397.70 1.923668
397.80 1.933414
397.90 1.941528
398.00 1.945251
398.10 1.948969
398.20 1.95018
398.30 1.948568
398.40 1.946887
398.50 1.942941
398.60 1.938137
398.70 1.931551
398.80 1.924606
398.90 1.916961
399.00 1.908015
399.10 1.897577
399.20 1.885335
399.30 1.873106
399.40 1.860888
399.50 1.848682
399.60 1.833626
399.70 1.817526
399.80 1.801442
399.90 1.785374
400.00 1.769246
400.10 1.75069
400.20 1.731864
400.30 1.711864
400.40 1.691667
400.50 1.67136
400.60 1.64936
400.70 1.627923
400.80 1.604207
400.90 1.572642
401.00 1.553381
401.10 1.545749
401.20 1.536944
401.30 1.526005
401.40 1.510023
401.50 1.492373
401.60 1.474527
401.70 1.449834
401.80 1.422979
401.90 1.393076
402.00 1.361338
402.10 1.32753
402.20 1.291683
402.30 1.254314
402.40 1.21821
402.50 1.188696
402.60 1.154627
402.70 1.163327
402.80 1.207325
402.90 1.251129
403.00 1.294662
403.10 1.336794
403.20 1.377312
403.30 1.417211
403.40 1.455841
403.50 1.492127
403.60 1.527609
403.70 1.559975
403.80 1.589304
403.90 1.61456
404.00 1.638372
404.10 1.655226
404.20 1.663786
404.30 1.672337
404.40 1.662038
404.50 1.61412
404.60 1.588986
404.70 1.606163
404.80 1.631523
404.90 1.654673
405.00 1.675087
405.10 1.692736
405.20 1.709765
405.30 1.726778
405.40 1.739973
405.50 1.753155
405.60 1.766324
405.70 1.77948
405.80 1.792622
405.90 1.805752
406.00 1.815486
406.10 1.825211
406.20 1.834925
406.30 1.84463
406.40 1.85423
406.50 1.862018
406.60 1.869608
406.70 1.876795
406.80 1.883685
406.90 1.890345
407.00 1.895114
407.10 1.899879
407.20 1.904638
407.30 1.909393
407.40 1.914142
407.50 1.918887
407.60 1.923627
407.70 1.928362
407.80 1.933092
407.90 1.937768
408.00 1.940842
408.10 1.943845
408.20 1.94612
408.30 1.948281
408.40 1.950439
408.50 1.951793
408.60 1.952871
408.70 1.953946
408.80 1.954983
408.90 1.955511
409.00 1.955398
409.10 1.955286
409.20 1.955174
409.30 1.955061
409.40 1.954931
409.50 1.954234
409.60 1.953539
409.70 1.952657
409.80 1.951031
409.90 1.949385
410.00 1.947018
410.10 1.944246
410.20 1.941113
410.30 1.937891
410.40 1.934242
410.50 1.929232
410.60 1.924226
410.70 1.918743
410.80 1.911339
410.90 1.903943
411.00 1.893618
411.10 1.882217
411.20 1.870828
411.30 1.858446
411.40 1.841794
411.50 1.816343
411.60 1.790915
411.70 1.759282
411.80 1.702767
411.90 1.637926
412.00 1.495588
412.10 1.219313
412.20 1.29718
412.30 1.406602
412.40 1.493869
412.50 1.552376
412.60 1.594313
412.70 1.619325
412.80 1.640093
412.90 1.658289
413.00 1.662716
413.10 1.657778
413.20 1.652845
413.30 1.647916
413.40 1.642991
413.50 1.636507
413.60 1.622469
413.70 1.604316
413.80 1.58618
413.90 1.568062
414.00 1.549231
414.10 1.52811
414.20 1.503322
414.30 1.460818
414.40 1.42535
414.50 1.432818
414.60 1.462313
414.70 1.49297
414.80 1.522572
414.90 1.548898
415.00 1.575198
415.10 1.601473
415.20 1.625916
415.30 1.644617
415.40 1.6633
415.50 1.681877
415.60 1.697602
415.70 1.713311
415.80 1.728176
415.90 1.7404
416.00 1.752611
416.10 1.763833
416.20 1.771131
416.30 1.778422
416.40 1.785706
416.50 1.792802
416.60 1.79406
416.70 1.795147
416.80 1.787267
416.90 1.752122
417.00 1.742444
417.10 1.764114
417.20 1.779466
417.30 1.794661
417.40 1.805238
417.50 1.815804
417.60 1.825637
417.70 1.832511
417.80 1.837486
417.90 1.842456
418.00 1.847421
418.10 1.852381
418.20 1.857336
418.30 1.862244
418.40 1.865489
418.50 1.867789
418.60 1.870087
418.70 1.872383
418.80 1.874676
418.90 1.876966
419.00 1.879255
419.10 1.881541
419.20 1.883824
419.30 1.886061
419.40 1.886886
419.50 1.887709
419.60 1.88847
419.70 1.888981
419.80 1.889491
419.90 1.889858
420.00 1.889775
420.10 1.889692
420.20 1.889608
420.30 1.889525
420.40 1.889441
420.50 1.889357
420.60 1.889274
420.70 1.889189
420.80 1.889105
420.90 1.889012
421.00 1.888612
421.10 1.888212
421.20 1.887738
421.30 1.887039
421.40 1.88634
421.50 1.885642
421.60 1.884945
421.70 1.884247
421.80 1.883551
421.90 1.882888
422.00 1.882333
422.10 1.881668
422.20 1.88056
422.30 1.879452
422.40 1.878345
422.50 1.877213
422.60 1.876082
422.70 1.874952
422.80 1.873822
422.90 1.872694
423.00 1.871566
423.10 1.87044
423.20 1.869314
423.30 1.868188
423.40 1.867064
423.50 1.865941
423.60 1.864818
423.70 1.863697
423.80 1.862576
423.90 1.861456
424.00 1.860337
424.10 1.859218
424.20 1.858101
424.30 1.856984
424.40 1.855914
424.50 1.854628
424.60 1.853342
424.70 1.852057
424.80 1.850774
424.90 1.849491
425.00 1.84821
425.10 1.846929
425.20 1.84565
425.30 1.844371
425.40 1.843083
425.50 1.841723
425.60 1.840365
425.70 1.839008
425.80 1.837651
425.90 1.836296
426.00 1.834942
426.10 1.833589
426.20 1.832237
426.30 1.830886
426.40 1.829537
426.50 1.828188
426.60 1.82684
426.70 1.825494
426.80 1.824148
426.90 1.822798
427.00 1.821271
427.10 1.819744
427.20 1.81822
427.30 1.816696
427.40 1.815173
427.50 1.813652
427.60 1.812132
427.70 1.810613
427.80 1.809096
427.90 1.807579
428.00 1.806064
428.10 1.80455
428.20 1.803037
428.30 1.801526
428.40 1.800016
428.50 1.798507
428.60 1.796999
428.70 1.795492
428.80 1.793962
428.90 1.792113
429.00 1.790265
429.10 1.788419
429.20 1.786574
429.30 1.784731
429.40 1.782889
429.50 1.781049
429.60 1.779211
429.70 1.777374
429.80 1.775538
429.90 1.773704
430.00 1.771871
430.10 1.77004
430.20 1.768211
430.30 1.766383
430.40 1.764556
430.50 1.762731
430.60 1.760907
430.70 1.759085
430.80 1.757265
430.90 1.755446
431.00 1.753628
431.10 1.751812
431.20 1.749998
431.30 1.748123
431.40 1.745436
431.50 1.74275
431.60 1.740068
431.70 1.737387
431.80 1.734709
431.90 1.732032
432.00 1.729359
432.10 1.726687
432.20 1.724018
432.30 1.721351
432.40 1.718687
432.50 1.716024
432.60 1.713364
432.70 1.710706
432.80 1.708051
432.90 1.705398
433.00 1.702747
433.10 1.700098
433.20 1.697451
433.30 1.69475
433.40 1.691284
433.50 1.687821
433.60 1.684361
433.70 1.680904
433.80 1.677375
433.90 1.673755
434.00 1.66959
434.10 1.665093
434.20 1.6606
434.30 1.656111
434.40 1.651626
434.50 1.647144
434.60 1.642667
434.70 1.638194
434.80 1.633556
434.90 1.626687
435.00 1.619824
435.10 1.612968
435.20 1.606118
435.30 1.599274
435.40 1.592435
435.50 1.585604
435.60 1.578778
435.70 1.571958
435.80 1.565144
435.90 1.558337
436.00 1.551535
436.10 1.54474
436.20 1.53795
436.30 1.529913
436.40 1.520158
436.50 1.507873
436.60 1.495598
436.70 1.483335
436.80 1.471083
436.90 1.458841
437.00 1.446611
437.10 1.434392
437.20 1.420024
437.30 1.403676
437.40 1.387074
437.50 1.366907
437.60 1.346758
437.70 1.326628
437.80 1.306515
437.90 1.286421
438.00 1.266276
438.10 1.245221
438.20 1.224186
438.30 1.20831
438.40 1.196053
438.50 1.152475
438.60 1.108603
438.70 1.050455
438.80 0.9879839
438.90 1.016599
439.00 1.056577
439.10 1.093606
439.20 1.130056
439.30 1.159237
439.40 1.188391
439.50 1.217518
439.60 1.246239
439.70 1.269309
439.80 1.28964
439.90 1.307277
440.00 1.324897
440.10 1.342502
440.20 1.359449
440.30 1.367874
440.40 1.37629
440.50 1.384699
440.60 1.393101
440.70 1.401494
440.80 1.40988
440.90 1.418258
441.00 1.426628
441.10 1.43499
441.20 1.443014
441.30 1.446634
441.40 1.449391
441.50 1.451096
441.60 1.452799
441.70 1.45453
441.80 1.45368
441.90 1.45283
442.00 1.451981
442.10 1.451133
442.20 1.450285
442.30 1.449438
442.40 1.447569
442.50 1.444452
442.60 1.441337
442.70 1.437704
442.80 1.433261
442.90 1.42837
443.00 1.422771
443.10 1.416306
443.20 1.408641
443.30 1.399869
443.40 1.388312
443.50 1.373352
443.60 1.353328
443.70 1.304073
443.80 1.185001
443.90 1.244033
444.00 1.273724
444.10 1.293039
444.20 1.307119
444.30 1.310728
444.40 1.308006
444.50 1.305286
444.60 1.300346
444.70 1.292696
444.80 1.283342
444.90 1.272418
445.00 1.261504
445.10 1.250599
445.20 1.238112
445.30 1.223691
445.40 1.209283
445.50 1.194888
445.60 1.180505
445.70 1.166136
445.80 1.149752
445.90 1.131513
446.00 1.113291
446.10 1.095084
446.20 1.076239
446.30 1.056578
446.40 1.035463
446.50 1.012863
446.60 0.9902845
446.70 0.9677256
446.80 0.9427921
446.90 0.9156712
447.00 0.9006727
447.10 0.897633
447.20 0.8880374
447.30 0.9083487
447.40 0.9334919
447.50 0.9581719
447.60 0.9819255
447.70 1.004823
447.80 1.027332
447.90 1.049352
448.00 1.070307
448.10 1.090281
448.20 1.110237
448.30 1.130175
448.40 1.150095
448.50 1.169997
448.60 1.18832
448.70 1.205186
448.80 1.221779
448.90 1.234928
449.00 1.248066
449.10 1.261191
449.20 1.274305
449.30 1.286721
449.40 1.297162
449.50 1.307594
449.60 1.315564
449.70 1.321267
449.80 1.326964
449.90 1.332655
450.00 1.338342
450.10 1.344023
450.20 1.3497
450.30 1.355371
450.40 1.356985
450.50 1.358597
450.60 1.360208
450.70 1.361817
450.80 1.363424
450.90 1.36503
451.00 1.372444
451.10 1.379852
451.20 1.385134
451.30 1.386686
451.40 1.378552
451.50 1.370425
451.60 1.343672
451.70 1.266476
451.80 1.210666
451.90 1.240744
452.00 1.262395
452.10 1.284027
452.20 1.295898
452.30 1.307758
452.40 1.319608
452.50 1.331447
452.60 1.33935
452.70 1.346066
452.80 1.351689
452.90 1.357306
453.00 1.362918
453.10 1.368525
453.20 1.372204
453.30 1.375879
453.40 1.379551
453.50 1.38322
453.60 1.386885
453.70 1.390547
453.80 1.393681
453.90 1.396171
454.00 1.398659
454.10 1.401145
454.20 1.40313
454.30 1.405114
454.40 1.407095
454.50 1.409075
454.60 1.411053
454.70 1.412529
454.80 1.413541
454.90 1.414553
455.00 1.415563
455.10 1.416573
455.20 1.417581
455.30 1.418589
455.40 1.419595
455.50 1.420601
455.60 1.421605
455.70 1.422608
455.80 1.422933
455.90 1.423258
456.00 1.423582
456.10 1.423857
456.20 1.424
456.30 1.424143
456.40 1.424285
456.50 1.424427
456.60 1.424569
456.70 1.424711
456.80 1.424852
456.90 1.424993
457.00 1.425134
457.10 1.425274
457.20 1.425604
457.30 1.425432
457.40 1.42526
457.50 1.425087
457.60 1.424915
457.70 1.424743
457.80 1.424571
457.90 1.424399
458.00 1.424227
458.10 1.424055
458.20 1.423883
458.30 1.423711
458.40 1.423538
458.50 1.423366
458.60 1.423194
458.70 1.422921
458.80 1.422607
458.90 1.422293
459.00 1.421979
459.10 1.421665
459.20 1.421351
459.30 1.420935
459.40 1.42052
459.50 1.420104
459.60 1.419688
459.70 1.419273
459.80 1.418858
459.90 1.418444
460.00 1.418029
460.10 1.417615
460.20 1.417201
460.30 1.416787
460.40 1.416373
460.50 1.41596
460.60 1.415547
460.70 1.414999
460.80 1.414385
460.90 1.413771
461.00 1.413158
461.10 1.412545
461.20 1.411932
461.30 1.41132
461.40 1.410709
461.50 1.410097
461.60 1.409486
461.70 1.408876
461.80 1.408024
461.90 1.407174
462.00 1.406323
462.10 1.405474
462.20 1.404625
462.30 1.403776
462.40 1.402928
462.50 1.402081
462.60 1.401235
462.70 1.400389
462.80 1.399543
462.90 1.398698
463.00 1.397854
463.10 1.39701
463.20 1.396103
463.30 1.39517
463.40 1.394237
463.50 1.393305
463.60 1.392374
463.70 1.391444
463.80 1.390514
463.90 1.389511
464.00 1.388489
464.10 1.387469
464.20 1.386449
464.30 1.385431
464.40 1.384412
464.50 1.383395
464.60 1.382378
464.70 1.381332
464.80 1.380273
464.90 1.379215
465.00 1.378158
465.10 1.377102
465.20 1.376046
465.30 1.374977
465.40 1.373898
465.50 1.37282
465.60 1.371743
465.70 1.370667
465.80 1.369591
465.90 1.368464
466.00 1.367325
466.10 1.366186
466.20 1.365049
466.30 1.363863
466.40 1.362658
466.50 1.361455
466.60 1.360252
466.70 1.35905
466.80 1.357849
466.90 1.356649
467.00 1.355449
467.10 1.354251
467.20 1.353054
467.30 1.351858
467.40 1.35045
467.50 1.348991
467.60 1.347533
467.70 1.346076
467.80 1.34462
467.90 1.343095
468.00 1.341541
468.10 1.339989
468.20 1.338438
468.30 1.336591
468.40 1.334624
468.50 1.332658
468.60 1.330705
468.70 1.328731
468.80 1.32678
468.90 1.324494
469.00 1.322335
469.10 1.319844
469.20 1.317193
469.30 1.314544
469.40 1.311898
469.50 1.308091
469.60 1.303812
469.70 1.299537
469.80 1.295265
469.90 1.290818
470.00 1.285007
470.10 1.276488
470.20 1.266798
470.30 1.257117
470.40 1.247443
470.50 1.237778
470.60 1.216717
470.70 1.192825
470.80 1.168952
470.90 1.1451
471.00 1.10385
471.10 1.043762
471.20 0.9567851
471.30 0.8334515
471.40 0.8445443
471.50 0.9244141
471.60 0.979524
471.70 1.030896
471.80 1.063721
471.90 1.091894
472.00 1.120043
472.10 1.148169
472.20 1.163941
472.30 1.17662
472.40 1.189288
472.50 1.201945
472.60 1.214591
472.70 1.223455
472.80 1.228057
472.90 1.231978
473.00 1.235895
473.10 1.239809
473.20 1.243719
473.30 1.247626
473.40 1.251529
473.50 1.25543
473.60 1.259326
473.70 1.263219
473.80 1.265173
473.90 1.266641
474.00 1.268108
474.10 1.269573
474.20 1.270371
474.30 1.270897
474.40 1.271422
474.50 1.271947
474.60 1.272416
474.70 1.272328
474.80 1.27224
474.90 1.272151
475.00 1.272063
475.10 1.271974
475.20 1.271886
475.30 1.271797
475.40 1.271459
475.50 1.271058
475.60 1.270658
475.70 1.270257
475.80 1.269857
475.90 1.269458
476.00 1.269058
476.10 1.268659
476.20 1.268053
476.30 1.267365
476.40 1.266676
476.50 1.265988
476.60 1.265301
476.70 1.264614
476.80 1.263928
476.90 1.263128
477.00 1.262301
477.10 1.261474
477.20 1.260648
477.30 1.259822
477.40 1.258997
477.50 1.258173
477.60 1.257349
477.70 1.256525
477.80 1.255703
477.90 1.254881
478.00 1.254059
478.10 1.253238
478.20 1.252418
478.30 1.251598
478.40 1.250778
478.50 1.24996
478.60 1.249142
478.70 1.248335
478.80 1.247534
478.90 1.246626
479.00 1.245692
479.10 1.244759
479.20 1.243827
479.30 1.242895
479.40 1.241957
479.50 1.241016
479.60 1.240075
479.70 1.239135
479.80 1.238196
479.90 1.237257
480.00 1.236319
480.10 1.235382
480.20 1.234445
480.30 1.233509
480.40 1.232574
480.50 1.231639
480.60 1.230705
480.70 1.229772
480.80 1.228839
480.90 1.227908
481.00 1.226976
481.10 1.226046
481.20 1.225003
481.30 1.223962
481.40 1.222921
481.50 1.221881
481.60 1.220842
481.70 1.219803
481.80 1.218766
481.90 1.217729
482.00 1.216692
482.10 1.215657
482.20 1.214612
482.30 1.213434
482.40 1.212257
482.50 1.211081
482.60 1.209906
482.70 1.208732
482.80 1.207558
482.90 1.206386
483.00 1.205214
483.10 1.204043
483.20 1.202873
483.30 1.201704
483.40 1.200536
483.50 1.199368
483.60 1.198202
483.70 1.196817
483.80 1.195433
483.90 1.19405
484.00 1.192668
484.10 1.191287
484.20 1.189879
484.30 1.188459
484.40 1.18704
484.50 1.185623
484.60 1.184206
484.70 1.182771
484.80 1.181076
484.90 1.179382
485.00 1.177689
485.10 1.175997
485.20 1.174307
485.30 1.172618
485.40 1.17093
485.50 1.169244
485.60 1.167559
485.70 1.165462
485.80 1.163366
485.90 1.161272
486.00 1.15918
486.10 1.157089
486.20 1.155
486.30 1.152913
486.40 1.150827
486.50 1.148743
486.60 1.146661
486.70 1.14455
486.80 1.142046
486.90 1.139545
487.00 1.137045
487.10 1.134547
487.20 1.131341
487.30 1.128137
487.40 1.124936
487.50 1.121738
487.60 1.118542
487.70 1.115348
487.80 1.112157
487.90 1.108969
488.00 1.105783
488.10 1.102599
488.20 1.099333
488.30 1.094928
488.40 1.090526
488.50 1.086129
488.60 1.081734
488.70 1.077343
488.80 1.072187
488.90 1.067035
489.00 1.061491
489.10 1.054933
489.20 1.04838
489.30 1.041833
489.40 1.035291
489.50 1.028754
489.60 1.022223
489.70 1.015697
489.80 1.007508
489.90 0.9982313
490.00 0.9889624
490.10 0.9797009
490.20 0.9704469
490.30 0.9612004
490.40 0.9483205
490.50 0.935451
490.60 0.9225919
490.70 0.9097432
490.80 0.8935829
490.90 0.8784816
491.00 0.8661748
491.10 0.8856442
491.20 0.9012874
491.30 0.8933028
491.40 0.8779378
491.50 0.8590853
491.60 0.8336337
491.70 0.8040001
491.80 0.7743847
491.90 0.744715
492.00 0.7154713
492.10 0.7377063
492.20 0.6976294
492.30 0.7032953
492.40 0.72659
492.50 0.748966
492.60 0.7686263
492.70 0.7864931
492.80 0.8043453
492.90 0.8221829
493.00 0.839703
493.10 0.8531842
493.20 0.8666544
493.30 0.8801136
493.40 0.8935618
493.50 0.9069991
493.60 0.91841
493.70 0.9281715
493.80 0.937925
493.90 0.9470353
494.00 0.9551451
494.10 0.9627351
494.20 0.9692288
494.30 0.9757172
494.40 0.9822002
494.50 0.9886779
494.60 0.9950568
494.70 1.000189
494.80 1.005117
494.90 1.00947
495.00 1.013819
495.10 1.018165
495.20 1.020801
495.30 1.023434
495.40 1.026066
495.50 1.028695
495.60 1.031321
495.70 1.033946
495.80 1.036568
495.90 1.039188
496.00 1.041806
496.10 1.044216
496.20 1.046129
496.30 1.047297
496.40 1.048464
496.50 1.04963
496.60 1.050795
496.70 1.051478
496.80 1.05216
496.90 1.052841
497.00 1.053522
497.10 1.054202
497.20 1.054882
497.30 1.055361
497.40 1.055274
497.50 1.055187
497.60 1.055119
497.70 1.05504
497.80 1.054289
497.90 1.053538
498.00 1.052788
498.10 1.052039
498.20 1.05129
498.30 1.050541
498.40 1.049793
498.50 1.049046
498.60 1.048299
498.70 1.046646
498.80 1.044995
498.90 1.042702
499.00 1.040412
499.10 1.038123
499.20 1.035692
499.30 1.032737
499.40 1.029156
499.50 1.025578
499.60 1.022003
499.70 1.018254
499.80 1.012165
499.90 1.00608
500.00 1
500.10 0.9939249
500.20 0.9861685
500.30 0.9748368
500.40 0.9635141
500.50 0.9522003
500.60 0.9408955
500.70 0.9295997
500.80 0.9151633
500.90 0.8940486
501.00 0.8729506
501.10 0.8518694
501.20 0.8208647
501.30 0.784197
501.40 0.74475
501.50 0.6907417
501.60 0.681453
501.70 0.7564245
501.80 0.8104712
501.90 0.8524844
502.00 0.8888777
502.10 0.9133757
502.20 0.9372038
502.30 0.9523778
502.40 0.9649495
502.50 0.9720092
502.60 0.9790632
502.70 0.9861116
502.80 0.9931542
502.90 1.000191
503.00 1.005647
503.10 1.007752
503.20 1.009856
503.30 1.011958
503.40 1.013316
503.50 1.012563
503.60 1.011811
503.70 1.011059
503.80 1.009867
503.90 1.005443
504.00 0.9958053
504.10 0.9750931
504.20 0.9543973
504.30 0.9337178
504.40 0.9166396
504.50 0.9097744
504.60 0.8964682
504.70 0.8313865
504.80 0.7070312
504.90 0.7696351
505.00 0.8272555
505.10 0.8658465
505.20 0.8986341
505.30 0.9149722
505.40 0.9312972
505.50 0.9476093
505.60 0.9604212
505.70 0.9658155
505.80 0.9712056
505.90 0.9765913
506.00 0.9819727
506.10 0.9873497
506.20 0.9918224
506.30 0.9937307
506.40 0.9956374
506.50 0.9975426
506.60 0.9994461
506.70 1.001348
506.80 1.003249
506.90 1.005147
507.00 1.007045
507.10 1.008638
507.20 1.009362
507.30 1.009441
507.40 1.009519
507.50 1.009597
507.60 1.009675
507.70 1.009753
507.80 1.009831
507.90 1.009909
508.00 1.009986
508.10 1.010063
508.20 1.01014
508.30 1.010217
508.40 1.010294
508.50 1.010371
508.60 1.010448
508.70 1.010524
508.80 1.010477
508.90 1.01008
509.00 1.009683
509.10 1.009287
509.20 1.00889
509.30 1.008494
509.40 1.008098
509.50 1.007703
509.60 1.007307
509.70 1.006912
509.80 1.006517
509.90 1.006122
510.00 1.005728
510.10 1.005333
510.20 1.004939
510.30 1.004508
510.40 1.003969
510.50 1.00343
510.60 1.002892
510.70 1.002354
510.80 1.001816
510.90 1.001279
511.00 1.000742
511.10 1.000205
511.20 0.9996689
511.30 0.999133
511.40 0.9985974
511.50 0.9980621
511.60 0.9975098
511.70 0.9969211
511.80 0.9963327
511.90 0.9957447
512.00 0.995157
512.10 0.9945698
512.20 0.9939829
512.30 0.9934036
512.40 0.9928451
512.50 0.992287
512.60 0.9917292
512.70 0.9911717
512.80 0.9906146
512.90 0.9900579
513.00 0.9895016
513.10 0.9889455
513.20 0.9883899
513.30 0.9878346
513.40 0.9872797
513.50 0.9867251
513.60 0.9861709
513.70 0.985617
513.80 0.9850635
513.90 0.9845104
514.00 0.9838862
514.10 0.9832508
514.20 0.9826159
514.30 0.9819814
514.40 0.9813472
514.50 0.9807135
514.60 0.9800802
514.70 0.9794474
514.80 0.9788149
514.90 0.9781829
515.00 0.9775513
515.10 0.9769201
515.20 0.9762893
515.30 0.975659
515.40 0.975029
515.50 0.9743995
515.60 0.9737704
515.70 0.9731417
515.80 0.9725134
515.90 0.9718855
516.00 0.971258
516.10 0.970631
516.20 0.9700044
516.30 0.9693781
516.40 0.9687523
516.50 0.9681269
516.60 0.9675018
516.70 0.9668772
516.80 0.9662529
516.90 0.9656291
517.00 0.9650056
517.10 0.9643826
517.20 0.96376
517.30 0.9631378
517.40 0.962516
517.50 0.9618946
517.60 0.9612736
517.70 0.960653
517.80 0.9600328
517.90 0.9594131
518.00 0.9587937
518.10 0.9581748
518.20 0.9575562
518.30 0.9569381
518.40 0.9563204
518.50 0.955703
518.60 0.9550861
518.70 0.9544696
518.80 0.9538535
518.90 0.9532378
519.00 0.9526225
519.10 0.9520047
519.20 0.9513839
519.30 0.9507636
519.40 0.9501437
519.50 0.9495242
519.60 0.9489051
519.70 0.9482864
519.80 0.9476681
519.90 0.9470502
520.00 0.9464328
520.10 0.9458157
520.20 0.945199
520.30 0.9445828
520.40 0.9439669
520.50 0.9433515
520.60 0.9427364
520.70 0.9421218
520.80 0.9415075
520.90 0.9408937
521.00 0.9402802
521.10 0.9396672
521.20 0.9390545
521.30 0.9384423
521.40 0.9378305
521.50 0.937219
521.60 0.936608
521.70 0.9359974
521.80 0.9353871
521.90 0.9347773
522.00 0.9341678
522.10 0.9335588
522.20 0.9329501
522.30 0.9323419
522.40 0.9317341
522.50 0.9311266
522.60 0.9305195
522.70 0.9299129
522.80 0.9293066
522.90 0.9287008
523.00 0.9280953
523.10 0.9274902
523.20 0.9268855
523.30 0.9262812
523.40 0.9256773
523.50 0.9250738
523.60 0.9244707
523.70 0.923868
523.80 0.9232657
523.90 0.9226638
524.00 0.9220622
524.10 0.9214611
524.20 0.9208603
524.30 0.9202566
524.40 0.9196505
524.50 0.9190449
524.60 0.9184396
524.70 0.9178347
524.80 0.9172303
524.90 0.9166262
525.00 0.9160225
525.10 0.9154192
525.20 0.9148163
525.30 0.9142138
525.40 0.9136117
525.50 0.91301
525.60 0.9124086
525.70 0.9118077
525.80 0.9112072
525.90 0.910607
526.00 0.9100072
526.10 0.9094079
526.20 0.9088089
526.30 0.9082103
526.40 0.9076121
526.50 0.9070143
526.60 0.9064168
526.70 0.9058198
526.80 0.9052231
526.90 0.9046269
527.00 0.904031
527.10 0.9034355
527.20 0.9028404
527.30 0.9022457
527.40 0.9016514
527.50 0.9010574
527.60 0.9004639
527.70 0.8998707
527.80 0.8992779
527.90 0.8986855
528.00 0.8980935
528.10 0.8975018
528.20 0.8969106
528.30 0.8963197
528.40 0.8957292
528.50 0.8951391
528.60 0.8945494
528.70 0.8939601
528.80 0.8933711
528.90 0.8927825
529.00 0.8921943
529.10 0.8916065
529.20 0.8910191
529.30 0.890432
529.40 0.8898454
529.50 0.8892594
529.60 0.8886761
529.70 0.8880931
529.80 0.8875105
529.90 0.8869282
530.00 0.8863464
530.10 0.8857649
530.20 0.8851838
530.30 0.884603
530.40 0.8840227
530.50 0.8834427
530.60 0.8828631
530.70 0.8822839
530.80 0.881705
530.90 0.8811265
531.00 0.8805484
531.10 0.8799707
531.20 0.8793933
531.30 0.8788163
531.40 0.8782397
531.50 0.8776634
531.60 0.8770875
531.70 0.876512
531.80 0.8759369
531.90 0.8753621
532.00 0.8747877
532.10 0.8742137
532.20 0.87364
532.30 0.8730666
532.40 0.8724936
532.50 0.871921
532.60 0.8713487
532.70 0.8707768
532.80 0.8702052
532.90 0.8696341
533.00 0.8690633
533.10 0.8684928
533.20 0.8679228
533.30 0.8673531
533.40 0.8667837
533.50 0.8662147
533.60 0.8656461
533.70 0.8650779
533.80 0.86451
533.90 0.8639425
534.00 0.8633754
534.10 0.8628086
534.20 0.8622422
534.30 0.8616761
534.40 0.8611104
534.50 0.8605451
534.60 0.8599801
534.70 0.8594155
534.80 0.8588502
534.90 0.8582808
535.00 0.8577117
535.10 0.857143
535.20 0.8565747
535.30 0.8560067
535.40 0.8554391
535.50 0.8548718
535.60 0.8543049
535.70 0.8537384
535.80 0.8531723
535.90 0.8526065
536.00 0.852041
536.10 0.851476
536.20 0.8509113
536.30 0.8503469
536.40 0.8497829
536.50 0.8492193
536.60 0.8486561
536.70 0.8480932
536.80 0.8475306
536.90 0.8469684
537.00 0.8464066
537.10 0.8458452
537.20 0.8452841
537.30 0.8447233
537.40 0.8441629
537.50 0.8436029
537.60 0.8430432
537.70 0.8424839
537.80 0.841925
537.90 0.8413664
538.00 0.8408082
538.10 0.8402503
538.20 0.8396928
538.30 0.8391356
538.40 0.8385788
538.50 0.8380223
538.60 0.8374662
538.70 0.8369105
538.80 0.8363551
538.90 0.8358001
539.00 0.8352454
539.10 0.8346911
539.20 0.8341371
539.30 0.8335835
539.40 0.8330302
539.50 0.8324773
539.60 0.8319247
539.70 0.8313725
539.80 0.8308207
539.90 0.8302692
540.00 0.829718
540.10 0.8291672
540.20 0.8286295
540.30 0.8280973
540.40 0.8275655
540.50 0.827034
540.60 0.8265029
540.70 0.825972
540.80 0.8254415
540.90 0.8249114
541.00 0.8243816
541.10 0.8238521
541.20 0.823323
541.30 0.8227942
541.40 0.8222657
541.50 0.8217375
541.60 0.8212097
541.70 0.8206823
541.80 0.8201551
541.90 0.8196283
542.00 0.8191019
542.10 0.8185757
542.20 0.8180499
542.30 0.8175244
542.40 0.8169993
542.50 0.8164745
542.60 0.81595
542.70 0.8154259
542.80 0.814902
542.90 0.8143786
543.00 0.8138554
543.10 0.8133326
543.20 0.8128101
543.30 0.8122879
543.40 0.8117661
543.50 0.8112446
543.60 0.8107234
543.70 0.8102025
543.80 0.809682
543.90 0.8091618
544.00 0.8086419
544.10 0.8081224
544.20 0.8076032
544.30 0.8070843
544.40 0.8065657
544.50 0.8060475
544.60 0.8055296
544.70 0.805012
544.80 0.8044948
544.90 0.8039778
545.00 0.8034612
545.10 0.802945
545.20 0.802429
545.30 0.8019134
545.40 0.8013981
545.50 0.8008831
545.60 0.8003647
545.70 0.7998451
545.80 0.7993257
545.90 0.7988067
546.00 0.7982881
546.10 0.7977697
546.20 0.7972517
546.30 0.796734
546.40 0.7962166
546.50 0.7956996
546.60 0.7951829
546.70 0.7946665
546.80 0.7941504
546.90 0.7936347
547.00 0.7931193
547.10 0.7926042
547.20 0.7920894
547.30 0.791575
547.40 0.7910608
547.50 0.790547
547.60 0.7900336
547.70 0.7895204
547.80 0.7890076
547.90 0.788495
548.00 0.7879829
548.10 0.787471
548.20 0.7869594
548.30 0.7864544
548.40 0.7859584
548.50 0.7854627
548.60 0.7849672
548.70 0.7844721
548.80 0.7839773
548.90 0.7834828
549.00 0.7829886
549.10 0.7824947
549.20 0.7820012
549.30 0.7815079
549.40 0.7810149
549.50 0.7805223
549.60 0.7800299
549.70 0.7795379
549.80 0.7790461
549.90 0.7785547
550.00 0.7780636
550.10 0.7775728
550.20 0.7770823
550.30 0.7765921
550.40 0.7761021
550.50 0.7756126
550.60 0.7751233
550.70 0.7746343
550.80 0.7741456
550.90 0.7736572
551.00 0.7731672
551.10 0.7726669
551.20 0.7721669
551.30 0.7716672
551.40 0.7711678
551.50 0.7706688
551.60 0.77017
551.70 0.7696716
551.80 0.7691734
551.90 0.7686756
552.00 0.7681781
552.10 0.7676809
552.20 0.767184
552.30 0.7666874
552.40 0.7661911
552.50 0.7656951
552.60 0.7651995
552.70 0.7647041
552.80 0.7642091
552.90 0.7637143
553.00 0.7632199
553.10 0.7627258
553.20 0.762232
553.30 0.7617385
553.40 0.7612453
553.50 0.7607524
553.60 0.7602598
553.70 0.7597675
553.80 0.7592842
553.90 0.7588071
554.00 0.7583302
554.10 0.7578536
554.20 0.7573773
554.30 0.7569013
554.40 0.7564256
554.50 0.7559502
554.60 0.7554751
554.70 0.7550003
554.80 0.7545258
554.90 0.7540516
555.00 0.7535776
555.10 0.753104
555.20 0.7526306
555.30 0.7521576
555.40 0.7516848
555.50 0.7512123
555.60 0.7507401
555.70 0.7502683
555.80 0.7497967
555.90 0.7493253
556.00 0.7488543
556.10 0.7483836
556.20 0.7479131
556.30 0.747443
556.40 0.7469731
556.50 0.7465026
556.60 0.746014
556.70 0.7455256
556.80 0.7450376
556.90 0.7445499
557.00 0.7440625
557.10 0.7435754
557.20 0.7430886
557.30 0.7426021
557.40 0.7421159
557.50 0.7416299
557.60 0.7411443
557.70 0.740659
557.80 0.740174
557.90 0.7396893
558.00 0.7392049
558.10 0.7387208
558.20 0.738237
558.30 0.7377535
558.40 0.7372703
558.50 0.7367874
558.60 0.7363048
558.70 0.7358225
558.80 0.7353404
558.90 0.7348587
559.00 0.7343773
559.10 0.7338962
559.20 0.7334154
559.30 0.7329348
559.40 0.7324546
559.50 0.7319747
559.60 0.731495
559.70 0.7310157
559.80 0.7305366
559.90 0.7300579
560.00 0.7295794
560.10 0.7291013
560.20 0.7286234
560.30 0.7281458
560.40 0.7276685
560.50 0.7271916
560.60 0.7267149
560.70 0.7262385
560.80 0.7257624
560.90 0.7252866
561.00 0.7248111
561.10 0.7243358
561.20 0.7238609
561.30 0.7233863
561.40 0.7229119
561.50 0.7224379
561.60 0.7219641
561.70 0.7214906
561.80 0.7210175
561.90 0.7205446
562.00 0.720072
562.10 0.7196033
562.20 0.7191404
562.30 0.7186777
562.40 0.7182154
562.50 0.7177533
562.60 0.7172915
562.70 0.71683
562.80 0.7163688
562.90 0.7159078
563.00 0.7154472
563.10 0.7149868
563.20 0.7145267
563.30 0.7140669
563.40 0.7136073
563.50 0.7131481
563.60 0.7126891
563.70 0.7122304
563.80 0.711772
563.90 0.7113139
564.00 0.710856
564.10 0.7103984
564.20 0.7099411
564.30 0.7094841
564.40 0.7090274
564.50 0.7085709
564.60 0.7081148
564.70 0.7076589
564.80 0.7072032
564.90 0.7067439
565.00 0.7062751
565.10 0.7058066
565.20 0.7053384
565.30 0.7048705
565.40 0.7044028
565.50 0.7039354
565.60 0.7034684
565.70 0.7030016
565.80 0.7025351
565.90 0.7020688
566.00 0.7016029
566.10 0.7011373
566.20 0.7006719
566.30 0.7002068
566.40 0.699742
566.50 0.6992775
566.60 0.6988133
566.70 0.6983493
566.80 0.6978857
566.90 0.6974223
567.00 0.6969592
567.10 0.6964964
567.20 0.6960339
567.30 0.6955717
567.40 0.6951097
567.50 0.694648
567.60 0.6941866
567.70 0.6937196
567.80 0.6932274
567.90 0.6927356
568.00 0.6922441
568.10 0.6917528
568.20 0.6912619
568.30 0.6907713
568.40 0.6902809
568.50 0.6897909
568.60 0.6893012
568.70 0.6888118
568.80 0.6883227
568.90 0.6878339
569.00 0.6873453
569.10 0.6868571
569.20 0.6863692
569.30 0.6858816
569.40 0.6853943
569.50 0.6849073
569.60 0.6844206
569.70 0.6839342
569.80 0.683448
569.90 0.6829622
570.00 0.6824767
570.10 0.6819915
570.20 0.6815066
570.30 0.681022
570.40 0.6805376
570.50 0.6800536
570.60 0.6795699
570.70 0.6790865
570.80 0.6786033
570.90 0.6781205
571.00 0.6776379
571.10 0.6771557
571.20 0.6766738
571.30 0.6761921
571.40 0.6757107
571.50 0.6752297
571.60 0.6747489
571.70 0.6742685
571.80 0.6737883
571.90 0.6733084
572.00 0.6728288
572.10 0.6723495
572.20 0.6718705
572.30 0.6713918
572.40 0.6709134
572.50 0.6704353
572.60 0.6699575
572.70 0.6694799
572.80 0.6690027
572.90 0.6685257
573.00 0.6680491
573.10 0.6675727
573.20 0.6670967
573.30 0.6666209
573.40 0.6661134
573.50 0.6655619
573.60 0.6650108
573.70 0.6644601
573.80 0.6639097
573.90 0.6633596
574.00 0.6628099
574.10 0.6622606
574.20 0.6617115
574.30 0.6611628
574.40 0.6606145
574.50 0.6600665
574.60 0.6595188
574.70 0.6589715
574.80 0.6584245
574.90 0.6578779
575.00 0.6573316
575.10 0.6567857
575.20 0.65624
575.30 0.6556948
575.40 0.6551498
575.50 0.6546052
575.60 0.654061
575.70 0.653517
575.80 0.6529735
575.90 0.6524302
576.00 0.6518873
576.10 0.6513447
576.20 0.6508025
576.30 0.6502606
576.40 0.649719
576.50 0.6491778
576.60 0.6486369
576.70 0.6480964
576.80 0.6475562
576.90 0.6470163
577.00 0.6464768
577.10 0.6459375
577.20 0.6453987
577.30 0.6448601
577.40 0.6443219
577.50 0.6437841
577.60 0.6432017
577.70 0.6425467
577.80 0.641892
577.90 0.6412378
578.00 0.640584
578.10 0.6399306
578.20 0.6392776
578.30 0.638625
578.40 0.6379728
578.50 0.6373211
578.60 0.6366698
578.70 0.6360188
578.80 0.6353683
578.90 0.6347182
579.00 0.6340685
579.10 0.6334106
579.20 0.632665
579.30 0.63192
579.40 0.6311754
579.50 0.6304313
579.60 0.6296876
579.70 0.6289445
579.80 0.6282018
579.90 0.6274596
580.00 0.6267178
580.10 0.6258993
580.20 0.6249553
580.30 0.6240119
580.40 0.6230691
580.50 0.6221269
580.60 0.6211854
580.70 0.6202444
580.80 0.6193041
580.90 0.6183643
581.00 0.6174252
581.10 0.6164867
581.20 0.6155488
581.30 0.6146115
581.40 0.6136748
581.50 0.6127387
581.60 0.6118032
581.70 0.6108684
581.80 0.6099341
581.90 0.6090005
582.00 0.6080674
582.10 0.60697
582.20 0.6056043
582.30 0.6042394
582.40 0.6028755
582.50 0.6015124
582.60 0.6001503
582.70 0.598789
582.80 0.5974287
582.90 0.5960692
583.00 0.5947107
583.10 0.593353
583.20 0.5919962
583.30 0.5906404
583.40 0.5892854
583.50 0.5879313
583.60 0.5862801
583.70 0.5841441
583.80 0.5820094
583.90 0.5798762
584.00 0.5777444
584.10 0.575614
584.20 0.573485
584.30 0.5713575
584.40 0.5692314
584.50 0.5671067
584.60 0.5649834
584.70 0.5628616
584.80 0.5607411
584.90 0.5584853
585.00 0.5556079
585.10 0.5527325
585.20 0.5495598
585.30 0.5459011
585.40 0.5422449
585.50 0.5385912
585.60 0.53494
585.70 0.5312911
585.80 0.5276448
585.90 0.5240009
586.00 0.5203595
586.10 0.5167205
586.20 0.5124333
586.30 0.5070878
586.40 0.5017458
586.50 0.4964075
586.60 0.4910728
586.70 0.4857417
586.80 0.479704
586.90 0.472512
587.00 0.4653249
587.10 0.4581426
587.20 0.4501884
587.30 0.4409727
587.40 0.4314931
587.50 0.4198394
587.60 0.4171581
587.70 0.4265099
587.80 0.4377464
587.90 0.4477054
588.00 0.4567146
588.10 0.4641794
588.20 0.4716392
588.30 0.4790938
588.40 0.4856688
588.50 0.4908129
588.60 0.4959535
588.70 0.5010905
588.80 0.5062241
588.90 0.5113541
589.00 0.5156884
589.10 0.5187277
589.20 0.5217649
589.30 0.5248
589.40 0.5278329
589.50 0.5308638
589.60 0.5338927
589.70 0.5369194
589.80 0.539944
589.90 0.5429666
590.00 0.5455002
590.10 0.547238
590.20 0.5489746
590.30 0.5507099
590.40 0.5524441
590.50 0.554177
590.60 0.5559087
590.70 0.5576393
590.80 0.5589491
590.90 0.5600696
591.00 0.5611893
591.10 0.5623082
591.20 0.5634263
591.30 0.5645436
591.40 0.5656602
591.50 0.566776
591.60 0.5676517
591.70 0.5681368
591.80 0.5686215
591.90 0.5691058
592.00 0.5695898
592.10 0.5700734
592.20 0.5705567
592.30 0.5710396
592.40 0.5715221
592.50 0.5720043
592.60 0.5724861
592.70 0.5729676
592.80 0.5734487
592.90 0.5739294
593.00 0.5744098
593.10 0.5747398
593.20 0.5748247
593.30 0.5749095
593.40 0.5749943
593.50 0.5750789
593.60 0.5751635
593.70 0.575248
593.80 0.5753324
593.90 0.5754167
594.00 0.5755009
594.10 0.575585
594.20 0.575669
594.30 0.575753
594.40 0.5758368
594.50 0.5759206
594.60 0.5760042
594.70 0.5760878
594.80 0.5761713
594.90 0.5762547
595.00 0.5763381
595.10 0.5763494
595.20 0.5762436
595.30 0.5761378
595.40 0.5760321
595.50 0.5759264
595.60 0.5758207
595.70 0.5757151
595.80 0.5756095
595.90 0.5755039
596.00 0.5753984
596.10 0.5752929
596.20 0.5751875
596.30 0.5750821
596.40 0.5749767
596.50 0.5748714
596.60 0.5747661
596.70 0.5746066
596.80 0.5744141
596.90 0.5742217
597.00 0.5740293
597.10 0.573837
597.20 0.5736449
597.30 0.5734528
597.40 0.5732609
597.50 0.573069
597.60 0.5728697
597.70 0.5726583
597.80 0.572447
597.90 0.5722358
598.00 0.5720247
598.10 0.5718137
598.20 0.5716028
598.30 0.5713921
598.40 0.5711814
598.50 0.5709709
598.60 0.5707604
598.70 0.5705501
598.80 0.5703399
598.90 0.5701298
599.00 0.5699198
599.10 0.5697099
599.20 0.5695001
599.30 0.5692904
599.40 0.5690322
599.50 0.5687742
599.60 0.5685163
599.70 0.5682586
599.80 0.568001
599.90 0.5677435
600.00 0.5674861
600.10 0.567229
600.20 0.5669719
600.30 0.566715
600.40 0.5664582
600.50 0.5662016
600.60 0.5659451
600.70 0.5656887
600.80 0.5654325
600.90 0.5651764
601.00 0.5649205
601.10 0.5646647
601.20 0.564409
601.30 0.5641535
601.40 0.563862
601.50 0.5635707
601.60 0.5632796
601.70 0.5629886
601.80 0.5626977
601.90 0.5624071
602.00 0.5621166
602.10 0.5618262
602.20 0.561536
602.30 0.561246
602.40 0.5609561
602.50 0.5606664
602.60 0.5603769
602.70 0.5600214
602.80 0.5596626
602.90 0.5593716
603.00 0.5590807
603.10 0.55879
603.20 0.5584995
603.30 0.5582091
603.40 0.5579189
603.50 0.5576288
603.60 0.5573389
603.70 0.5570492
603.80 0.5567596
603.90 0.5564702
604.00 0.5561809
604.10 0.5558919
604.20 0.5556029
604.30 0.5553142
604.40 0.5550256
604.50 0.5546742
604.60 0.5543231
604.70 0.5539721
604.80 0.5536214
604.90 0.5532709
605.00 0.5529205
605.10 0.5525704
605.20 0.5522205
605.30 0.5518707
605.40 0.5515212
605.50 0.5510604
605.60 0.5505999
605.70 0.5501397
605.80 0.5496797
605.90 0.54922
606.00 0.5487606
606.10 0.5475785
606.20 0.5463971
606.30 0.5452165
606.40 0.5440366
606.50 0.5390252
606.60 0.534017
606.70 0.5040351
606.80 0.4968778
606.90 0.5121896
607.00 0.5190075
607.10 0.5223287
607.20 0.5256477
607.30 0.5271364
607.40 0.5286241
607.50 0.5301109
607.60 0.5315966
607.70 0.5320302
607.80 0.5324635
607.90 0.5328965
608.00 0.5333291
608.10 0.5337615
608.20 0.5341935
608.30 0.5343253
608.40 0.534457
608.50 0.5345886
608.60 0.5347201
608.70 0.5347199
608.80 0.5346605
608.90 0.5346011
609.00 0.5345417
609.10 0.5344823
609.20 0.534423
609.30 0.5342682
609.40 0.5341135
609.50 0.5339589
609.60 0.5338043
609.70 0.5336498
609.80 0.5334954
609.90 0.5333411
610.00 0.5331868
610.10 0.5330326
610.20 0.5328785
610.30 0.5327245
610.40 0.5325705
610.50 0.5324166
610.60 0.5322628
610.70 0.532109
610.80 0.5319553
610.90 0.5317374
611.00 0.5315196
611.10 0.5313019
611.20 0.5310843
611.30 0.5308668
611.40 0.5306494
611.50 0.5304322
611.60 0.5302151
611.70 0.529998
611.80 0.5297811
611.90 0.5295643
612.00 0.5293476
612.10 0.5291311
612.20 0.5289146
612.30 0.5286983
612.40 0.5284439
612.50 0.5281897
612.60 0.5279356
612.70 0.5276816
612.80 0.5274278
612.90 0.5271741
613.00 0.5269206
613.10 0.5266672
613.20 0.5264139
613.30 0.5261608
613.40 0.5259078
613.50 0.525655
613.60 0.5254023
613.70 0.5251497
613.80 0.5248972
613.90 0.5246449
614.00 0.5243928
614.10 0.5241407
614.20 0.5238888
614.30 0.5236371
614.40 0.5233109
614.50 0.5229849
614.60 0.5226591
614.70 0.5223334
614.80 0.5220596
614.90 0.5217964
615.00 0.5215333
615.10 0.5212705
615.20 0.5210077
615.30 0.5207451
615.40 0.5204827
615.50 0.5202203
615.60 0.5199582
615.70 0.5196961
615.80 0.5194343
615.90 0.5191725
616.00 0.5189109
616.10 0.5186495
616.20 0.5183881
616.30 0.518127
616.40 0.5178659
616.50 0.517605
616.60 0.5173443
616.70 0.5170837
616.80 0.5168232
616.90 0.5165368
617.00 0.5162505
617.10 0.5159644
617.20 0.5156785
617.30 0.5153927
617.40 0.515107
617.50 0.5148215
617.60 0.5145362
617.70 0.5142511
617.80 0.5139661
617.90 0.5136812
618.00 0.5133965
618.10 0.513112
618.20 0.5128276
618.30 0.5125434
618.40 0.5122593
618.50 0.5119754
618.60 0.5116917
618.70 0.5114081
618.80 0.5111247
618.90 0.5108414
619.00 0.5105583
619.10 0.5102753
619.20 0.5099925
619.30 0.5097098
619.40 0.5094273
619.50 0.509145
619.60 0.5088628
619.70 0.5085808
619.80 0.5082989
619.90 0.5080172
620.00 0.5077356
620.10 0.5074542
620.20 0.5071729
620.30 0.5068918
620.40 0.5066109
620.50 0.5063301
620.60 0.5060495
620.70 0.505769
620.80 0.5054887
620.90 0.5052065
621.00 0.5049209
621.10 0.5046355
621.20 0.5043503
621.30 0.5040652
621.40 0.5037803
621.50 0.5034955
621.60 0.5032109
621.70 0.5029264
621.80 0.5026421
621.90 0.502358
622.00 0.502074
622.10 0.5017902
622.20 0.5015065
622.30 0.501223
622.40 0.5009396
622.50 0.5006564
622.60 0.5003733
622.70 0.5000904
622.80 0.4998077
622.90 0.4995251
623.00 0.4992427
623.10 0.4989604
623.20 0.4986783
623.30 0.4983964
623.40 0.4981145
623.50 0.4978329
623.60 0.4975514
623.70 0.4972701
623.80 0.4969889
623.90 0.4967078
624.00 0.496427
624.10 0.4961462
624.20 0.4958657
624.30 0.4955853
624.40 0.495305
624.50 0.4950249
624.60 0.494745
624.70 0.4944652
624.80 0.4941855
624.90 0.493906
625.00 0.4936267
625.10 0.4933475
625.20 0.4930685
625.30 0.4927896
625.40 0.4925109
625.50 0.4922323
625.60 0.4919539
625.70 0.4916756
625.80 0.4913975
625.90 0.4911196
626.00 0.4908418
626.10 0.4905641
626.20 0.4902866
626.30 0.4900092
626.40 0.489732
626.50 0.489455
626.60 0.4891781
626.70 0.4889014
626.80 0.4886248
626.90 0.4883483
627.00 0.4880721
627.10 0.4877989
627.20 0.487534
627.30 0.4872693
627.40 0.4870047
627.50 0.4867403
627.60 0.486476
627.70 0.4862118
627.80 0.4859478
627.90 0.485684
628.00 0.4854202
628.10 0.4851567
628.20 0.4848932
628.30 0.4846299
628.40 0.4843668
628.50 0.4841038
628.60 0.4838409
628.70 0.4835782
628.80 0.4833156
628.90 0.4830532
629.00 0.4827909
629.10 0.4825287
629.20 0.4822667
629.30 0.4820048
629.40 0.4817431
629.50 0.4814815
629.60 0.4812201
629.70 0.4809588
629.80 0.4806976
629.90 0.4804366
630.00 0.4801757
630.10 0.479915
630.20 0.4796544
630.30 0.4793849
630.40 0.4791148
630.50 0.4788449
630.60 0.4785751
630.70 0.4783054
630.80 0.4780359
630.90 0.4777665
631.00 0.4774973
631.10 0.4772282
631.20 0.4769593
631.30 0.4766905
631.40 0.4764218
631.50 0.4761533
631.60 0.475885
631.70 0.4756168
631.80 0.4753487
631.90 0.4750808
632.00 0.474813
632.10 0.4745454
632.20 0.474278
632.30 0.4740106
632.40 0.4737434
632.50 0.4734764
632.60 0.4732095
632.70 0.4729428
632.80 0.4726762
632.90 0.4724097
633.00 0.4721434
633.10 0.4718772
633.20 0.4716112
633.30 0.4713453
633.40 0.4710802
633.50 0.4708157
633.60 0.4705514
633.70 0.4702872
633.80 0.4700231
633.90 0.4697592
634.00 0.4694955
634.10 0.4692318
634.20 0.4689684
634.30 0.468705
634.40 0.4684418
634.50 0.4681788
634.60 0.4679159
634.70 0.4676531
634.80 0.4673905
634.90 0.467128
635.00 0.4668656
635.10 0.4666034
635.20 0.4663414
635.30 0.4660795
635.40 0.4658177
635.50 0.4655561
635.60 0.4652946
635.70 0.4650332
635.80 0.464772
635.90 0.464511
636.00 0.46425
636.10 0.4639892
636.20 0.4637286
636.30 0.4634681
636.40 0.4632077
636.50 0.4629475
636.60 0.4626961
636.70 0.4624457
636.80 0.4621955
636.90 0.4619454
637.00 0.4616954
637.10 0.4614456
637.20 0.4611959
637.30 0.4609464
637.40 0.460697
637.50 0.4604477
637.60 0.4601985
637.70 0.4599495
637.80 0.4597006
637.90 0.4594519
638.00 0.4592033
638.10 0.4589548
638.20 0.4587064
638.30 0.4584582
638.40 0.4582101
638.50 0.4579622
638.60 0.4577144
638.70 0.4574667
638.80 0.4572191
638.90 0.4569717
639.00 0.4567244
639.10 0.4564772
639.20 0.4562302
639.30 0.4559833
639.40 0.4557366
639.50 0.4554899
639.60 0.4552435
639.70 0.454993
639.80 0.4547291
639.90 0.4544653
640.00 0.4542017
640.10 0.4539382
640.20 0.4536749
640.30 0.4534117
640.40 0.4531486
640.50 0.4528857
640.60 0.4526229
640.70 0.4523603
640.80 0.4520978
640.90 0.4518355
641.00 0.4515733
641.10 0.4513112
641.20 0.4510493
641.30 0.4507875
641.40 0.4505259
641.50 0.4502644
641.60 0.450003
641.70 0.4497418
641.80 0.4494807
641.90 0.4492198
642.00 0.448959
642.10 0.4486983
642.20 0.4484378
642.30 0.4481774
642.40 0.4479172
642.50 0.4476571
642.60 0.4473972
642.70 0.4471374
642.80 0.4468777
642.90 0.4466182
643.00 0.4463587
643.10 0.4460994
643.20 0.4458403
643.30 0.4455813
643.40 0.4453224
643.50 0.4450637
643.60 0.4448051
643.70 0.4445466
643.80 0.4442883
643.90 0.4440301
644.00 0.4437721
644.10 0.4435142
644.20 0.4432564
644.30 0.4429988
644.40 0.4427413
644.50 0.442484
644.60 0.4422268
644.70 0.4419697
644.80 0.4417128
644.90 0.441456
645.00 0.4411994
645.10 0.4409429
645.20 0.4406865
645.30 0.4404302
645.40 0.4401741
645.50 0.4399182
645.60 0.4396624
645.70 0.4394067
645.80 0.4391511
645.90 0.4388957
646.00 0.4386404
646.10 0.4383856
646.20 0.4381318
646.30 0.4378781
646.40 0.4376245
646.50 0.4373711
646.60 0.4371178
646.70 0.4368647
646.80 0.4366117
646.90 0.4363588
647.00 0.4361061
647.10 0.4358535
647.20 0.435601
647.30 0.4353487
647.40 0.4350965
647.50 0.4348445
647.60 0.4345925
647.70 0.4343407
647.80 0.4340891
647.90 0.4338376
648.00 0.4335862
648.10 0.4333349
648.20 0.4330838
648.30 0.4328328
648.40 0.432582
648.50 0.4323313
648.60 0.4320807
648.70 0.4318303
648.80 0.4315799
648.90 0.4313298
649.00 0.4310797
649.10 0.4308298
649.20 0.43058
649.30 0.4303304
649.40 0.4300636
649.50 0.4297963
649.60 0.4295291
649.70 0.4292621
649.80 0.4289952
649.90 0.4287285
650.00 0.4284619
650.10 0.4281954
650.20 0.4279291
650.30 0.4276629
650.40 0.4273969
650.50 0.427131
650.60 0.4268653
650.70 0.4265997
650.80 0.4263342
650.90 0.4260689
651.00 0.4258037
651.10 0.4255387
651.20 0.4252738
651.30 0.4250091
651.40 0.4247445
651.50 0.42448
651.60 0.4242157
651.70 0.4239516
651.80 0.4236875
651.90 0.4234236
652.00 0.4231599
652.10 0.4228963
652.20 0.4226328
652.30 0.4223695
652.40 0.4221063
652.50 0.4218433
652.60 0.4215668
652.70 0.421283
652.80 0.4209995
652.90 0.4207161
653.00 0.4204328
653.10 0.4201497
653.20 0.4198668
653.30 0.419584
653.40 0.4193013
653.50 0.4190188
653.60 0.4187365
653.70 0.4184543
653.80 0.4181723
653.90 0.4178904
654.00 0.4176087
654.10 0.4173271
654.20 0.4170457
654.30 0.4167644
654.40 0.4164833
654.50 0.4162024
654.60 0.4159215
654.70 0.4156409
654.80 0.4153604
654.90 0.41508
655.00 0.4147998
655.10 0.4145198
655.20 0.4142399
655.30 0.4139601
655.40 0.4136805
655.50 0.4134011
655.60 0.4131218
655.70 0.4128427
655.80 0.4125173
655.90 0.412192
656.00 0.411867
656.10 0.4115421
656.20 0.4112174
656.30 0.4108929
656.40 0.4105685
656.50 0.4102444
656.60 0.4099204
656.70 0.4095966
656.80 0.409273
656.90 0.4089495
657.00 0.4086262
657.10 0.4083032
657.20 0.4079802
657.30 0.4076575
657.40 0.4073349
657.50 0.4070126
657.60 0.4066904
657.70 0.4063683
657.80 0.4059984
657.90 0.4055867
658.00 0.4051678
658.10 0.4047492
658.20 0.4043307
658.30 0.4039125
658.40 0.4034946
658.50 0.4030769
658.60 0.4026594
658.70 0.4022421
658.80 0.4018251
658.90 0.4014083
659.00 0.4009918
659.10 0.4006127
659.20 0.4002897
659.30 0.3997636
659.40 0.3992378
659.50 0.3987123
659.60 0.3981871
659.70 0.3976622
659.80 0.3971376
659.90 0.3966133
660.00 0.3960893
660.10 0.3955656
660.20 0.3950422
660.30 0.3945191
660.40 0.3938958
660.50 0.3932552
660.60 0.3926149
660.70 0.3919749
660.80 0.3913354
660.90 0.3904031
661.00 0.3894713
661.10 0.3885402
661.20 0.3876095
661.30 0.3866794
661.40 0.3857499
661.50 0.3848208
661.60 0.3838924
661.70 0.3829645
661.80 0.3820371
661.90 0.3806177
662.00 0.3791993
662.10 0.3777816
662.20 0.3763648
662.30 0.3749488
662.40 0.3729641
662.50 0.3701982
662.60 0.3674341
662.70 0.3646715
662.80 0.3619106
662.90 0.3567803
663.00 0.3516531
663.10 0.3426259
663.20 0.3476786
663.30 0.3701416
663.40 0.3774112
663.50 0.3796642
663.60 0.3819159
663.70 0.3823186
663.80 0.3827209
663.90 0.3826833
664.00 0.382568
664.10 0.3819432
664.20 0.3813188
664.30 0.3806948
664.40 0.3800711
664.50 0.3794477
664.60 0.3788248
664.70 0.3777917
664.80 0.3767591
664.90 0.3757272
665.00 0.3746959
665.10 0.3736652
665.20 0.3726351
665.30 0.3716056
665.40 0.3705768
665.50 0.3691833
665.60 0.3677263
665.70 0.3658458
665.80 0.3638176
665.90 0.3617906
666.00 0.3597648
666.10 0.3577401
666.20 0.3557167
666.30 0.3536945
666.40 0.3516735
666.50 0.3485444
666.60 0.3452214
666.70 0.3419004
666.80 0.3385814
666.90 0.3352643
667.00 0.3319492
667.10 0.3274444
667.20 0.3227319
667.30 0.3172575
667.40 0.3117864
667.50 0.3050405
667.60 0.2980731
667.70 0.2898727
667.80 0.2825704
667.90 0.2850276
668.00 0.2916383
668.10 0.2970298
668.20 0.3022946
668.30 0.306448
668.40 0.3104034
668.50 0.3143565
668.60 0.3183071
668.70 0.3215598
668.80 0.3242308
668.90 0.3269001
669.00 0.3295679
669.10 0.3322341
669.20 0.3348986
669.30 0.3367016
669.40 0.3383518
669.50 0.340001
669.60 0.3416492
669.70 0.3432964
669.80 0.3449426
669.90 0.3465878
670.00 0.348232
670.10 0.3498752
670.20 0.3515174
670.30 0.3526786
670.40 0.3537544
670.50 0.3548295
670.60 0.3559039
670.70 0.3569777
670.80 0.3575798
670.90 0.3581815
671.00 0.3587829
671.10 0.3593839
671.20 0.3599845
671.30 0.3605847
671.40 0.3611846
671.50 0.3617841
671.60 0.3623832
671.70 0.362982
671.80 0.3635804
671.90 0.3640003
672.00 0.3643885
672.10 0.3647765
672.20 0.3651642
672.30 0.3655517
672.40 0.3657883
672.50 0.3660134
672.60 0.3662383
672.70 0.3664631
672.80 0.3666878
672.90 0.3669123
673.00 0.3671366
673.10 0.3673608
673.20 0.3675849
673.30 0.367946
673.40 0.3680221
673.50 0.3680479
673.60 0.3680737
673.70 0.3680995
673.80 0.3681253
673.90 0.368151
674.00 0.3681767
674.10 0.3682023
674.20 0.3682279
674.30 0.3682535
674.40 0.3682791
674.50 0.3683046
674.60 0.3683301
674.70 0.3683556
674.80 0.368381
674.90 0.3684064
675.00 0.3684318
675.10 0.3684571
675.20 0.3684824
675.30 0.3685077
675.40 0.368437
675.50 0.3683494
675.60 0.3682619
675.70 0.3681744
675.80 0.3680869
675.90 0.3679995
676.00 0.367912
676.10 0.3678247
676.20 0.3677373
676.30 0.36765
676.40 0.3675628
676.50 0.3674755
676.60 0.3673883
676.70 0.3673012
676.80 0.3672141
676.90 0.367127
677.00 0.3670399
677.10 0.3669529
677.20 0.3668659
677.30 0.366779
677.40 0.3666921
677.50 0.3666052
677.60 0.3665183
677.70 0.3664315
677.80 0.3663448
677.90 0.3662212
678.00 0.3660913
678.10 0.3659614
678.20 0.3658315
678.30 0.3657017
678.40 0.365572
678.50 0.3654423
678.60 0.3653127
678.70 0.3651832
678.80 0.3650537
678.90 0.3649243
679.00 0.3647949
679.10 0.3646371
679.20 0.3644671
679.30 0.3642972
679.40 0.3641274
679.50 0.3639577
679.60 0.363788
679.70 0.3636185
679.80 0.363449
679.90 0.3632796
680.00 0.3631103
680.10 0.3629411
680.20 0.3627719
680.30 0.3626029
680.40 0.3624339
680.50 0.362265
680.60 0.3620962
680.70 0.3619275
680.80 0.3617588
680.90 0.3615903
681.00 0.3614218
681.10 0.3612534
681.20 0.3610851
681.30 0.3609169
681.40 0.3607488
681.50 0.3605807
681.60 0.3604127
681.70 0.3602448
681.80 0.360077
681.90 0.3599093
682.00 0.3597417
682.10 0.3595741
682.20 0.3594066
682.30 0.3592393
682.40 0.3590719
682.50 0.3589047
682.60 0.3587376
682.70 0.3585705
682.80 0.3584035
682.90 0.3582366
683.00 0.3580698
683.10 0.3579031
683.20 0.3577364
683.30 0.3575699
683.40 0.3574034
683.50 0.357237
683.60 0.3570707
683.70 0.3569044
683.80 0.3567383
683.90 0.3565722
684.00 0.3564062
684.10 0.3562403
684.20 0.3560745
684.30 0.3559087
684.40 0.3557431
684.50 0.3555775
684.60 0.355412
684.70 0.3552465
684.80 0.3550812
684.90 0.3549159
685.00 0.3547508
685.10 0.3545857
685.20 0.3544207
685.30 0.3542557
685.40 0.3540909
685.50 0.3539261
685.60 0.3537614
685.70 0.3535968
685.80 0.3534323
685.90 0.3532562
686.00 0.3530772
686.10 0.3528984
686.20 0.3527196
686.30 0.352541
686.40 0.3523624
686.50 0.3521839
686.60 0.3520055
686.70 0.3518272
686.80 0.351649
686.90 0.3514708
687.00 0.3512928
687.10 0.3511148
687.20 0.3509369
687.30 0.3507592
687.40 0.3505815
687.50 0.3504039
687.60 0.3502264
687.70 0.3500489
687.80 0.3498716
687.90 0.3496944
688.00 0.3495172
688.10 0.3493401
688.20 0.3491631
688.30 0.3489862
688.40 0.3488094
688.50 0.3486327
688.60 0.3484561
688.70 0.3482795
688.80 0.3481031
688.90 0.3479267
689.00 0.3477504
689.10 0.3475742
689.20 0.3473981
689.30 0.3472221
689.40 0.3470462
689.50 0.3468703
689.60 0.3466946
689.70 0.3465189
689.80 0.3463433
689.90 0.3461678
690.00 0.3459924
690.10 0.3458171
690.20 0.3456419
690.30 0.3454667
690.40 0.3452917
690.50 0.3451167
690.60 0.3449418
690.70 0.344767
690.80 0.3445923
690.90 0.3444177
691.00 0.3442432
691.10 0.3440687
691.20 0.3438943
691.30 0.3437201
691.40 0.3435459
691.50 0.3433718
691.60 0.3431977
691.70 0.3430238
691.80 0.34285
691.90 0.3426762
692.00 0.3425025
692.10 0.3423289
692.20 0.3421554
692.30 0.341982
692.40 0.3418087
692.50 0.3416354
692.60 0.3414623
692.70 0.3412867
692.80 0.3411017
692.90 0.3409168
693.00 0.340732
693.10 0.3405473
693.20 0.3403627
693.30 0.3401782
693.40 0.3399938
693.50 0.3398095
693.60 0.3396252
693.70 0.3394411
693.80 0.339257
693.90 0.3390731
694.00 0.3388892
694.10 0.3387054
694.20 0.3385217
694.30 0.3383381
694.40 0.3381546
694.50 0.3379712
694.60 0.3377879
694.70 0.3376047
694.80 0.3374215
694.90 0.3372385
695.00 0.3370555
695.10 0.3368726
695.20 0.3366899
695.30 0.3365072
695.40 0.3363246
695.50 0.3361421
695.60 0.3359597
695.70 0.3357774
695.80 0.3355952
695.90 0.335413
696.00 0.335231
696.10 0.335049
696.20 0.3348672
696.30 0.3346854
696.40 0.3345037
696.50 0.3343221
696.60 0.3341444
696.70 0.3339677
696.80 0.333791
696.90 0.3336145
697.00 0.333438
697.10 0.3332616
697.20 0.3330853
697.30 0.3329091
697.40 0.332733
697.50 0.332557
697.60 0.3323811
697.70 0.3322052
697.80 0.3320294
697.90 0.3318538
698.00 0.3316782
698.10 0.3315027
698.20 0.3313272
698.30 0.3311519
698.40 0.3309767
698.50 0.3308015
698.60 0.3306264
698.70 0.3304514
698.80 0.3302765
698.90 0.3301017
699.00 0.329927
699.10 0.3297134
699.20 0.3294907
699.30 0.3292681
699.40 0.3290457
699.50 0.3288234
699.60 0.3286012
699.70 0.3283999
699.80 0.3281998
699.90 0.3279999
700.00 0.3278
700.10 0.3276003
700.20 0.3274006
700.30 0.327201
700.40 0.3270016
700.50 0.3268022
700.60 0.326603
700.70 0.3264038
700.80 0.3262048
700.90 0.3260058
701.00 0.3258069
701.10 0.3255727
701.20 0.3253303
701.30 0.3250879
701.40 0.3248458
701.50 0.3246037
701.60 0.3243617
701.70 0.3241199
701.80 0.3238782
701.90 0.3236367
702.00 0.3233952
702.10 0.3231539
702.20 0.3229127
702.30 0.3226716
702.40 0.3224307
702.50 0.3221899
702.60 0.321831
702.70 0.3214446
702.80 0.3210584
702.90 0.3206725
703.00 0.3202867
703.10 0.3199011
703.20 0.3195158
703.30 0.3191306
703.40 0.3187457
703.50 0.318361
703.60 0.3179764
703.70 0.3175921
703.80 0.317208
703.90 0.3168241
704.00 0.3164404
704.10 0.3160569
704.20 0.3152706
704.30 0.3143903
704.40 0.3135105
704.50 0.3126311
704.60 0.3117523
704.70 0.3108739
704.80 0.309996
704.90 0.3091187
705.00 0.3082417
705.10 0.3073653
705.20 0.3054977
705.30 0.3033987
705.40 0.3013008
705.50 0.2992041
705.60 0.2971086
705.70 0.2950142
705.80 0.2910109
705.90 0.2865619
706.00 0.2821154
706.10 0.2776714
706.20 0.270592
706.30 0.2628979
706.40 0.2529015
706.50 0.2403701
706.60 0.2384257
706.70 0.2520425
706.80 0.2596822
706.90 0.2669679
707.00 0.2718658
707.10 0.276202
707.20 0.2805356
707.30 0.2848669
707.40 0.2873437
707.50 0.2893849
707.60 0.2914249
707.70 0.2934637
707.80 0.2955014
707.90 0.2975379
708.00 0.2985498
708.10 0.2993212
708.20 0.3000921
708.30 0.3008625
708.40 0.3016326
708.50 0.3024021
708.60 0.3031712
708.70 0.3039399
708.80 0.3047081
708.90 0.3054759
709.00 0.3057494
709.10 0.305907
709.20 0.3060644
709.30 0.3062218
709.40 0.306379
709.50 0.3065362
709.60 0.3066933
709.70 0.3068502
709.80 0.3070071
709.90 0.3071638
710.00 0.3073205
710.10 0.307477
710.20 0.3076335
710.30 0.3077898
710.40 0.3079461
710.50 0.3081022
710.60 0.308101
710.70 0.3080628
710.80 0.3080246
710.90 0.3079865
711.00 0.3079484
711.10 0.3079102
711.20 0.3078721
711.30 0.307834
711.40 0.3077959
711.50 0.3077579
711.60 0.3077198
711.70 0.3076817
711.80 0.3076437
711.90 0.3076056
712.00 0.3075676
712.10 0.3074666
712.20 0.3073509
712.30 0.3072353
712.40 0.3071198
712.50 0.3070043
712.60 0.3068888
712.70 0.3067734
712.80 0.3066581
712.90 0.3065428
713.00 0.3064275
713.10 0.3063123
713.20 0.3061972
713.30 0.3060821
713.40 0.3059671
713.50 0.3058521
713.60 0.3057372
713.70 0.3056094
713.80 0.3054554
713.90 0.3053015
714.00 0.3051477
714.10 0.3050103
714.20 0.3048768
714.30 0.3047434
714.40 0.3046101
714.50 0.3044768
714.60 0.3043436
714.70 0.3042104
714.80 0.3040773
714.90 0.3039443
715.00 0.3038113
715.10 0.3036784
715.20 0.3035456
715.30 0.3034128
715.40 0.3032801
715.50 0.3031474
715.60 0.3030148
715.70 0.3028823
715.80 0.3027498
715.90 0.3026174
716.00 0.302485
716.10 0.3023528
716.20 0.3022205
716.30 0.3020884
716.40 0.3019563
716.50 0.3018242
716.60 0.301695
716.70 0.3015666
716.80 0.3014381
716.90 0.3013098
717.00 0.3011815
717.10 0.3010532
717.20 0.300925
717.30 0.3007969
717.40 0.3006688
717.50 0.3005408
717.60 0.3004129
717.70 0.300285
717.80 0.3001572
717.90 0.3000294
718.00 0.2999017
718.10 0.299774
718.20 0.2996319
718.30 0.2994819
718.40 0.299332
718.50 0.2991822
718.60 0.2990325
718.70 0.2988828
718.80 0.2987333
718.90 0.2985837
719.00 0.2984343
719.10 0.2982849
719.20 0.2981356
719.30 0.2979864
719.40 0.2978372
719.50 0.2976882
719.60 0.2975391
719.70 0.2973902
719.80 0.2972413
719.90 0.2970925
720.00 0.2969438
720.10 0.2967951
720.20 0.2966466
720.30 0.296498
720.40 0.2963496
720.50 0.2962012
720.60 0.2960529
720.70 0.2958569
720.80 0.2956352
720.90 0.2954857
721.00 0.2953394
721.10 0.2951931
721.20 0.2950469
721.30 0.2949008
721.40 0.2947547
721.50 0.2946087
721.60 0.2944627
721.70 0.2943169
721.80 0.2941711
721.90 0.2940254
722.00 0.2938797
722.10 0.2937341
722.20 0.2935886
722.30 0.2934431
722.40 0.2932978
722.50 0.2931525
722.60 0.2930072
722.70 0.2928427
722.80 0.2926678
722.90 0.292493
723.00 0.2923183
723.10 0.2921437
723.20 0.2919691
723.30 0.2917947
723.40 0.2916203
723.50 0.2914461
723.60 0.2912719
723.70 0.2910977
723.80 0.2909237
723.90 0.2907498
724.00 0.2905759
724.10 0.2904022
724.20 0.2902038
724.30 0.2899922
724.40 0.2897808
724.50 0.2895694
724.60 0.2893582
724.70 0.289147
724.80 0.288936
724.90 0.2887251
725.00 0.2885142
725.10 0.2883035
725.20 0.2880929
725.30 0.2878824
725.40 0.287672
725.50 0.2874617
725.60 0.2872515
725.70 0.2870414
725.80 0.2867048
725.90 0.2863001
726.00 0.2858956
726.10 0.2854914
726.20 0.2850873
726.30 0.2846835
726.40 0.2842799
726.50 0.2838765
726.60 0.2834733
726.70 0.2830703
726.80 0.2821999
726.90 0.2810783
727.00 0.2799573
727.10 0.2788369
727.20 0.2777171
727.30 0.2765979
727.40 0.2741617
727.50 0.2710175
727.60 0.267875
727.70 0.2647342
727.80 0.2587747
727.90 0.2513001
728.00 0.2405766
728.10 0.2224029
728.20 0.222284
728.30 0.236274
728.40 0.2448558
728.50 0.2521798
728.60 0.2570233
728.70 0.2605309
728.80 0.2640366
728.90 0.2675404
729.00 0.2695679
729.10 0.2708007
729.20 0.2720328
729.30 0.2732642
729.40 0.2744949
729.50 0.2757249
729.60 0.2763455
729.70 0.2766381
729.80 0.2769306
729.90 0.2772229
730.00 0.277515
730.10 0.2778069
730.20 0.2780986
730.30 0.2783902
730.40 0.2786816
730.50 0.2789729
730.60 0.2790625
730.70 0.2790435
730.80 0.2790245
730.90 0.2790055
731.00 0.2789865
731.10 0.2789676
731.20 0.2789486
731.30 0.2789296
731.40 0.2789106
731.50 0.2788916
731.60 0.2788727
731.70 0.2788537
731.80 0.2788347
731.90 0.2788157
732.00 0.2787967
732.10 0.2787777
732.20 0.2787117
732.30 0.2786203
732.40 0.278529
732.50 0.2784378
732.60 0.2783465
732.70 0.2782553
732.80 0.2781642
732.90 0.2780731
733.00 0.277982
733.10 0.2778909
733.20 0.2777999
733.30 0.277709
733.40 0.2776181
733.50 0.2775272
733.60 0.2774363
733.70 0.2773197
733.80 0.2771891
733.90 0.2770587
734.00 0.2769283
734.10 0.2767979
734.20 0.2766676
734.30 0.2765374
734.40 0.2764072
734.50 0.2762771
734.60 0.2761471
734.70 0.2760171
734.80 0.2758871
734.90 0.2757573
735.00 0.2756275
735.10 0.2754977
735.20 0.275368
735.30 0.2752375
735.40 0.2750966
735.50 0.2749557
735.60 0.2748149
735.70 0.2746818
735.80 0.2745528
735.90 0.2744238
736.00 0.2742949
736.10 0.2741661
736.20 0.2740374
736.30 0.2739087
736.40 0.27378
736.50 0.2736515
736.60 0.2735229
736.70 0.2733945
736.80 0.2732661
736.90 0.2731377
737.00 0.2730095
737.10 0.2728812
737.20 0.2727531
737.30 0.272625
737.40 0.2724969
737.50 0.272369
737.60 0.272241
737.70 0.2721132
737.80 0.2719854
737.90 0.2718576
738.00 0.2717299
738.10 0.2716023
738.20 0.2714742
738.30 0.2713458
738.40 0.2712175
738.50 0.2710892
738.60 0.270961
738.70 0.2708328
738.80 0.2707048
738.90 0.2705767
739.00 0.2704488
739.10 0.2703209
739.20 0.270193
739.30 0.2700652
739.40 0.2699375
739.50 0.2698098
739.60 0.2696822
739.70 0.2695546
739.80 0.2694271
739.90 0.2692997
740.00 0.2691723
740.10 0.269045
740.20 0.2689178
740.30 0.2687906
740.40 0.2686634
740.50 0.2685363
740.60 0.2684093
740.70 0.2682823
740.80 0.2681554
740.90 0.2680286
741.00 0.2679018
741.10 0.2677751
741.20 0.2676484
741.30 0.2675218
741.40 0.2673952
741.50 0.2672687
741.60 0.2671423
741.70 0.2670159
741.80 0.2668896
741.90 0.2667633
742.00 0.2666371
742.10 0.266511
742.20 0.2663849
742.30 0.2662589
742.40 0.2661329
742.50 0.266007
742.60 0.2658811
742.70 0.2657497
742.80 0.2656138
742.90 0.2654779
743.00 0.2653421
743.10 0.2652063
743.20 0.2650706
743.30 0.264935
743.40 0.2647994
743.50 0.2646639
743.60 0.2645285
743.70 0.2643949
743.80 0.2642683
743.90 0.2641418
744.00 0.2640154
744.10 0.263889
744.20 0.2637627
744.30 0.2636365
744.40 0.2635103
744.50 0.2633841
744.60 0.263258
744.70 0.263132
744.80 0.263006
744.90 0.2628801
745.00 0.2627543
745.10 0.2626285
745.20 0.2625027
745.30 0.2623771
745.40 0.2622515
745.50 0.2621259
745.60 0.2620004
745.70 0.2618749
745.80 0.2617496
745.90 0.2616242
746.00 0.261499
746.10 0.2613737
746.20 0.2612486
746.30 0.2611235
746.40 0.2609984
746.50 0.2608735
746.60 0.2607485
746.70 0.2606237
746.80 0.2604989
746.90 0.2603741
747.00 0.2602494
747.10 0.2601248
747.20 0.2600002
747.30 0.2598757
747.40 0.2597512
747.50 0.2596268
747.60 0.2595024
747.70 0.2593782
747.80 0.2592539
747.90 0.2591297
748.00 0.2590056
748.10 0.2588815
748.20 0.2587575
748.30 0.2586336
748.40 0.2585097
748.50 0.2583859
748.60 0.2582621
748.70 0.2581384
748.80 0.2580147
748.90 0.2578911
749.00 0.2577675
749.10 0.257644
749.20 0.2575206
749.30 0.2573972
749.40 0.2572739
749.50 0.2571506
749.60 0.2570274
749.70 0.2569042
749.80 0.2567811
749.90 0.2566581
750.00 0.2565351
750.10 0.2564128
750.20 0.2562922
750.30 0.2561716
750.40 0.2560511
750.50 0.2559306
750.60 0.2558102
750.70 0.2556899
750.80 0.2555696
750.90 0.2554493
751.00 0.2553291
751.10 0.255209
751.20 0.2550889
751.30 0.2549689
751.40 0.2548489
751.50 0.254729
751.60 0.2546092
751.70 0.2544894
751.80 0.2543696
751.90 0.2542499
752.00 0.2541303
752.10 0.2540107
752.20 0.2538912
752.30 0.2537717
752.40 0.2536523
752.50 0.2535329
752.60 0.2534136
752.70 0.2532943
752.80 0.2531751
752.90 0.253056
753.00 0.2529369
753.10 0.2528179
753.20 0.2526989
753.30 0.2525799
753.40 0.2524611
753.50 0.2523422
753.60 0.2522235
753.70 0.2521048
753.80 0.2519861
753.90 0.251863
754.00 0.2517387
754.10 0.2516145
754.20 0.2514903
754.30 0.2513662
754.40 0.2512421
754.50 0.2511181
754.60 0.2509941
754.70 0.2508702
754.80 0.2507464
754.90 0.2506226
755.00 0.2504988
755.10 0.2503752
755.20 0.2502515
755.30 0.250128
755.40 0.2500045
755.50 0.249881
755.60 0.2497576
755.70 0.2496343
755.80 0.249511
755.90 0.2493878
756.00 0.2492646
756.10 0.2491415
756.20 0.2490185
756.30 0.2488955
756.40 0.2487725
756.50 0.2486497
756.60 0.2485268
756.70 0.2484041
756.80 0.2482813
756.90 0.2481587
757.00 0.2480361
757.10 0.2479135
757.20 0.247791
757.30 0.2476686
757.40 0.2475462
757.50 0.2474239
757.60 0.2473034
757.70 0.2471874
757.80 0.2470714
757.90 0.2469555
758.00 0.2468397
758.10 0.2467239
758.20 0.2466082
758.30 0.2464925
758.40 0.2463768
758.50 0.2462613
758.60 0.2461457
758.70 0.2460302
758.80 0.2459148
758.90 0.2457994
759.00 0.2456841
759.10 0.2455689
759.20 0.2454536
759.30 0.2453385
759.40 0.2452234
759.50 0.2451083
759.60 0.2449933
759.70 0.2448783
759.80 0.2447634
759.90 0.2446486
760.00 0.2445338
760.10 0.244419
760.20 0.2443043
760.30 0.2441897
760.40 0.2440751
760.50 0.2439606
760.60 0.2438461
760.70 0.2437316
760.80 0.2436172
760.90 0.2435029
761.00 0.2433886
761.10 0.2432744
761.20 0.2431602
761.30 0.2430461
761.40 0.242932
761.50 0.242818
761.60 0.242704
761.70 0.2425901
761.80 0.2424762
761.90 0.2423624
762.00 0.2422486
762.10 0.2421349
762.20 0.2420213
762.30 0.2419076
762.40 0.2417941
762.50 0.2416806
762.60 0.2415671
762.70 0.2414537
762.80 0.2413403
762.90 0.241227
763.00 0.2411138
763.10 0.2410006
763.20 0.2408874
763.30 0.2407743
763.40 0.2406613
763.50 0.2405483
763.60 0.2404353
763.70 0.2403224
763.80 0.2402096
763.90 0.2400968
764.00 0.239984
764.10 0.2398714
764.20 0.2397587
764.30 0.2396461
764.40 0.2395336
764.50 0.2394211
764.60 0.2393086
764.70 0.2391963
764.80 0.2390839
764.90 0.2389716
765.00 0.2388594
765.10 0.2387472
765.20 0.2386339
765.30 0.2385196
765.40 0.2384053
765.50 0.2382911
765.60 0.2381769
765.70 0.2380628
765.80 0.2379487
765.90 0.2378347
766.00 0.2377207
766.10 0.2376068
766.20 0.2374929
766.30 0.2373791
766.40 0.2372654
766.50 0.2371516
766.60 0.237038
766.70 0.2369244
766.80 0.2368108
766.90 0.2366973
767.00 0.2365839
767.10 0.2364705
767.20 0.2363571
767.30 0.2362438
767.40 0.2361305
767.50 0.2360173
767.60 0.2359042
767.70 0.2357911
767.80 0.2356781
767.90 0.2355651
768.00 0.2354521
768.10 0.2353392
768.20 0.2352264
768.30 0.2351136
768.40 0.2350008
768.50 0.2348882
768.60 0.2347755
768.70 0.2346629
768.80 0.2345504
768.90 0.2344379
769.00 0.2343255
769.10 0.2342131
769.20 0.2341007
769.30 0.2339884
769.40 0.2338762
769.50 0.233764
769.60 0.2336519
769.70 0.2335398
769.80 0.2334278
769.90 0.2333158
770.00 0.2332039
770.10 0.233092
770.20 0.2329801
770.30 0.2328684
770.40 0.2327566
770.50 0.2326449
770.60 0.2325333
770.70 0.2324217
770.80 0.2323102
770.90 0.2321987
771.00 0.2320873
771.10 0.2319759
771.20 0.2318646
771.30 0.2317533
771.40 0.231642
771.50 0.2315309
771.60 0.2314197
771.70 0.2313086
771.80 0.2311976
771.90 0.2310866
772.00 0.2309757
772.10 0.2308648
772.20 0.230754
772.30 0.2306432
772.40 0.2305325
772.50 0.2304218
772.60 0.2303111
772.70 0.2302006
772.80 0.23009
772.90 0.2299827
773.00 0.2298754
773.10 0.2297682
773.20 0.229661
773.30 0.2295538
773.40 0.2294467
773.50 0.2293397
773.60 0.2292327
773.70 0.2291258
773.80 0.2290189
773.90 0.228912
774.00 0.2288052
774.10 0.2286984
774.20 0.2285917
774.30 0.2284851
774.40 0.2283784
774.50 0.2282719
774.60 0.2281654
774.70 0.2280589
774.80 0.2279525
774.90 0.2278461
775.00 0.2277397
775.10 0.2276335
775.20 0.2275272
775.30 0.227421
775.40 0.2273149
775.50 0.2272088
775.60 0.2271027
775.70 0.2269967
775.80 0.2268908
775.90 0.2267849
776.00 0.226679
776.10 0.2265732
776.20 0.2264674
776.30 0.2263617
776.40 0.2262561
776.50 0.2261504
776.60 0.2260448
776.70 0.2259393
776.80 0.2258338
776.90 0.2257284
777.00 0.225623
777.10 0.2255177
777.20 0.2254124
777.30 0.2253071
777.40 0.2252019
777.50 0.2250968
777.60 0.2249916
777.70 0.2248866
777.80 0.2247816
777.90 0.2246766
778.00 0.2245717
778.10 0.2244668
778.20 0.224362
778.30 0.2242572
778.40 0.2241524
778.50 0.2240477
778.60 0.2239431
778.70 0.2238385
778.80 0.2237339
778.90 0.2236294
779.00 0.223525
779.10 0.2234206
779.20 0.2233162
779.30 0.2232119
779.40 0.2231076
779.50 0.2230034
779.60 0.2228992
779.70 0.222795
779.80 0.222691
779.90 0.2225869
780.00 0.2224829
780.10 0.222379
780.20 0.222275
780.30 0.2221712
780.40 0.2220674
780.50 0.2219636
780.60 0.2218578
780.70 0.2217512
780.80 0.2216446
780.90 0.2215382
781.00 0.2214317
781.10 0.2213253
781.20 0.2212189
781.30 0.2211126
781.40 0.2210064
781.50 0.2209002
781.60 0.220794
781.70 0.2206879
781.80 0.2205818
781.90 0.2204758
782.00 0.2203698
782.10 0.2202639
782.20 0.220158
782.30 0.2200522
782.40 0.2199464
782.50 0.2198406
782.60 0.2197349
782.70 0.2196293
782.80 0.2195237
782.90 0.2194181
783.00 0.2193126
783.10 0.2192072
783.20 0.2191018
783.30 0.2189964
783.40 0.2188911
783.50 0.2187858
783.60 0.2186806
783.70 0.2185754
783.80 0.2184702
783.90 0.2183652
784.00 0.2182601
784.10 0.2181551
784.20 0.2180502
784.30 0.2179453
784.40 0.2178404
784.50 0.2177356
784.60 0.2176329
784.70 0.2175351
784.80 0.2174374
784.90 0.2173397
785.00 0.217242
785.10 0.2171444
785.20 0.2170468
785.30 0.2169493
785.40 0.2168518
785.50 0.2167544
785.60 0.216657
785.70 0.2165596
785.80 0.2164623
785.90 0.216365
786.00 0.2162678
786.10 0.2161706
786.20 0.2160734
786.30 0.2159763
786.40 0.2158793
786.50 0.2157822
786.60 0.2156853
786.70 0.2155883
786.80 0.2154914
786.90 0.2153946
787.00 0.2152978
787.10 0.215201
787.20 0.2151043
787.30 0.2150076
787.40 0.2149109
787.50 0.2148143
787.60 0.2147178
787.70 0.2146213
787.80 0.2145248
787.90 0.2144284
788.00 0.214332
788.10 0.2142356
788.20 0.2141393
788.30 0.2140431
788.40 0.2139448
788.50 0.2138455
788.60 0.2137463
788.70 0.2136471
788.80 0.2135479
788.90 0.2134488
789.00 0.2133498
789.10 0.2132507
789.20 0.2131518
789.30 0.2130528
789.40 0.2129539
789.50 0.2128551
789.60 0.2127563
789.70 0.2126575
789.80 0.2125588
789.90 0.2124602
790.00 0.2123615
790.10 0.212263
790.20 0.2121644
790.30 0.2120659
790.40 0.2119675
790.50 0.211869
790.60 0.2117707
790.70 0.2116723
790.80 0.2115741
790.90 0.2114758
791.00 0.2113776
791.10 0.2112795
791.20 0.2111814
791.30 0.2110833
791.40 0.2109853
791.50 0.2108873
791.60 0.2107893
791.70 0.2106914
791.80 0.2105936
791.90 0.2104958
792.00 0.210398
792.10 0.2103003
792.20 0.2102026
792.30 0.210105
792.40 0.2100073
792.50 0.2099098
792.60 0.2098123
792.70 0.2097148
792.80 0.2096173
792.90 0.2095199
793.00 0.2094226
793.10 0.2093253
793.20 0.209228
793.30 0.2091308
793.40 0.2090336
793.50 0.2089364
793.60 0.2088393
793.70 0.2087423
793.80 0.2086453
793.90 0.2085483
794.00 0.2084514
794.10 0.2083545
794.20 0.2082576
794.30 0.2081608
794.40 0.2080641
794.50 0.2079673
794.60 0.2078707
794.70 0.207774
794.80 0.2076774
794.90 0.2075809
795.00 0.2074844
795.10 0.2073879
795.20 0.2072915
795.30 0.2071951
795.40 0.2070987
795.50 0.2070024
795.60 0.2069062
795.70 0.20681
795.80 0.2067138
795.90 0.2066177
796.00 0.2065216
796.10 0.2064255
796.20 0.2063295
796.30 0.2062339
796.40 0.2061384
796.50 0.206043
796.60 0.2059476
796.70 0.2058522
796.80 0.2057569
796.90 0.2056616
797.00 0.2055664
797.10 0.2054712
797.20 0.2053761
797.30 0.205281
797.40 0.2051859
797.50 0.2050909
797.60 0.2049959
797.70 0.2049009
797.80 0.204806
797.90 0.2047112
798.00 0.2046163
798.10 0.2045216
798.20 0.2044268
798.30 0.2043321
798.40 0.2042375
798.50 0.2041429
798.60 0.2040483
798.70 0.2039537
798.80 0.2038593
798.90 0.2037648
799.00 0.2036704
799.10 0.203576
799.20 0.2034817
799.30 0.2033874
799.40 0.2032932
799.50 0.2031989
799.60 0.2031048
799.70 0.2030107
799.80 0.2029166
799.90 0.2028225
800.00 0.2027285
800.10 0.2026346
800.20 0.2025406
800.30 0.2024468
800.40 0.2023529
800.50 0.2022591
800.60 0.2021654
800.70 0.2020716
800.80 0.201978
800.90 0.2018843
801.00 0.2017907
801.10 0.2016972
801.20 0.2016036
801.30 0.2015102
801.40 0.2014167
801.50 0.2013233
801.60 0.20123
801.70 0.2011367
801.80 0.2010434
801.90 0.2009502
802.00 0.200857
802.10 0.2007638
802.20 0.2006707
802.30 0.2005776
802.40 0.2004846
802.50 0.2003916
802.60 0.2002986
802.70 0.2002057
802.80 0.2001129
802.90 0.20002
803.00 0.1999272
803.10 0.1998345
803.20 0.1997418
803.30 0.1996491
803.40 0.1995565
803.50 0.1994639
803.60 0.1993713
803.70 0.1992788
803.80 0.1991863
803.90 0.1990939
804.00 0.1990015
804.10 0.1989091
804.20 0.198818
804.30 0.1987308
804.40 0.1986437
804.50 0.1985567
804.60 0.1984696
804.70 0.1983827
804.80 0.1982957
804.90 0.1982088
805.00 0.1981219
805.10 0.1980351
805.20 0.1979483
805.30 0.1978615
805.40 0.1977748
805.50 0.1976881
805.60 0.1976014
805.70 0.1975148
805.80 0.1974282
805.90 0.1973417
806.00 0.1972552
806.10 0.1971687
806.20 0.1970823
806.30 0.1969959
806.40 0.1969095
806.50 0.1968232
806.60 0.1967369
806.70 0.1966507
806.80 0.1965645
806.90 0.1964783
807.00 0.1963921
807.10 0.196306
807.20 0.19622
807.30 0.1961339
807.40 0.196048
807.50 0.195962
807.60 0.1958761
807.70 0.1957902
807.80 0.1957043
807.90 0.1956185
808.00 0.1955328
808.10 0.195447
808.20 0.1953613
808.30 0.1952709
808.40 0.1951807
808.50 0.1950904
808.60 0.1950002
808.70 0.19491
808.80 0.1948199
808.90 0.1947298
809.00 0.1946397
809.10 0.1945497
809.20 0.1944597
809.30 0.1943698
809.40 0.1942799
809.50 0.19419
809.60 0.1941002
809.70 0.1940104
809.80 0.1939206
809.90 0.1938309
810.00 0.1937412
810.10 0.1936516
810.20 0.193562
810.30 0.1934725
810.40 0.1933829
810.50 0.1932934
810.60 0.193204
810.70 0.1931146
810.80 0.1930252
810.90 0.1929359
811.00 0.1928466
811.10 0.1927574
811.20 0.1926681
811.30 0.192579
811.40 0.1924898
811.50 0.1924007
811.60 0.1923117
811.70 0.1922226
811.80 0.1921336
811.90 0.1920447
812.00 0.1919558
812.10 0.1918669
812.20 0.1917781
812.30 0.1916929
812.40 0.1916087
812.50 0.1915245
812.60 0.1914403
812.70 0.1913562
812.80 0.1912721
812.90 0.1911881
813.00 0.191104
813.10 0.1910201
813.20 0.1909361
813.30 0.1908522
813.40 0.1907683
813.50 0.1906845
813.60 0.1906007
813.70 0.1905169
813.80 0.1904332
813.90 0.1903495
814.00 0.1902658
814.10 0.1901822
814.20 0.1900986
814.30 0.1900151
814.40 0.1899315
814.50 0.1898481
814.60 0.1897646
814.70 0.1896812
814.80 0.1895978
814.90 0.1895145
815.00 0.1894312
815.10 0.1893479
815.20 0.1892647
815.30 0.1891815
815.40 0.1890983
815.50 0.1890152
815.60 0.1889321
815.70 0.188849
815.80 0.188766
815.90 0.188683
816.00 0.1886
816.10 0.1885171
816.20 0.1884342
816.30 0.1883514
816.40 0.1882685
816.50 0.1881858
816.60 0.188103
816.70 0.1880203
816.80 0.1879376
816.90 0.187855
817.00 0.1877724
817.10 0.1876898
817.20 0.1876073
817.30 0.1875247
817.40 0.1874423
817.50 0.1873598
817.60 0.1872774
817.70 0.1871951
817.80 0.1871127
817.90 0.1870305
818.00 0.1869482
818.10 0.186866
818.20 0.1867838
818.30 0.1867016
818.40 0.1866195
818.50 0.1865374
818.60 0.1864554
818.70 0.1863733
818.80 0.1862913
818.90 0.1862094
819.00 0.1861275
819.10 0.1860456
819.20 0.1859638
819.30 0.185878
819.40 0.1857898
819.50 0.1857015
819.60 0.1856133
819.70 0.1855252
819.80 0.185437
819.90 0.185349
820.00 0.1852609
820.10 0.1851768
820.20 0.1850614
820.30 0.1849374
820.40 0.1848377
820.50 0.1847556
820.60 0.1846736
820.70 0.1845915
820.80 0.1845095
820.90 0.1844276
821.00 0.1843457
821.10 0.1842638
821.20 0.1841819
821.30 0.1841001
821.40 0.1840183
821.50 0.1839365
821.60 0.1838548
821.70 0.1837731
821.80 0.1836915
821.90 0.1836099
822.00 0.1835283
822.10 0.1834467
822.20 0.1833652
822.30 0.1832837
822.40 0.1832023
822.50 0.1831209
822.60 0.1830395
822.70 0.1829582
822.80 0.1828769
822.90 0.1827956
823.00 0.1827143
823.10 0.1826331
823.20 0.182552
823.30 0.1824708
823.40 0.1823897
823.50 0.1823087
823.60 0.1822276
823.70 0.1821466
823.80 0.1820656
823.90 0.1819847
824.00 0.1819038
824.10 0.1818229
824.20 0.1817421
824.30 0.1816613
824.40 0.1815805
824.50 0.1814998
824.60 0.1814191
824.70 0.1813385
824.80 0.1812578
824.90 0.1811772
825.00 0.1810967
825.10 0.1810161
825.20 0.1809356
825.30 0.1808552
825.40 0.1807748
825.50 0.1806944
825.60 0.180614
825.70 0.1805337
825.80 0.1804534
825.90 0.1803731
826.00 0.1802929
826.10 0.1802127
826.20 0.1801325
826.30 0.1800547
826.40 0.1799784
826.50 0.1799022
826.60 0.179826
826.70 0.1797498
826.80 0.1796737
826.90 0.1795976
827.00 0.1795215
827.10 0.1794455
827.20 0.1793695
827.30 0.1792935
827.40 0.1792175
827.50 0.1791416
827.60 0.1790657
827.70 0.1789899
827.80 0.1789141
827.90 0.1788383
828.00 0.1787625
828.10 0.1786868
828.20 0.1786111
828.30 0.1785354
828.40 0.1784598
828.50 0.1783842
828.60 0.1783078
828.70 0.1782307
828.80 0.1781537
828.90 0.1780767
829.00 0.1779997
829.10 0.1779227
829.20 0.1778458
829.30 0.1777689
829.40 0.1776921
829.50 0.1776153
829.60 0.1775385
829.70 0.1774618
829.80 0.177385
829.90 0.1773083
830.00 0.1772317
830.10 0.1771551
830.20 0.1770785
830.30 0.1770019
830.40 0.1769254
830.50 0.1768489
830.60 0.1767724
830.70 0.176696
830.80 0.1766196
830.90 0.1765432
831.00 0.1764669
831.10 0.1763906
831.20 0.1763143
831.30 0.176238
831.40 0.1761618
831.50 0.1760856
831.60 0.1760095
831.70 0.1759334
831.80 0.1758573
831.90 0.1757812
832.00 0.1757052
832.10 0.1756292
832.20 0.1755533
832.30 0.1754773
832.40 0.1754014
832.50 0.1753256
832.60 0.1752497
832.70 0.1751739
832.80 0.1750982
832.90 0.1750224
833.00 0.1749467
833.10 0.174871
833.20 0.1747954
833.30 0.1747198
833.40 0.1746442
833.50 0.1745686
833.60 0.1744931
833.70 0.1744176
833.80 0.1743422
833.90 0.1742667
834.00 0.1741913
834.10 0.174116
834.20 0.1740406
834.30 0.1739653
834.40 0.1738901
834.50 0.1738148
834.60 0.1737396
834.70 0.1736644
834.80 0.1735893
834.90 0.1735142
835.00 0.1734391
835.10 0.173364
835.20 0.173289
835.30 0.173214
835.40 0.173139
835.50 0.1730641
835.60 0.1729892
835.70 0.1729143
835.80 0.1728395
835.90 0.1727647
836.00 0.1726899
836.10 0.1726152
836.20 0.1725404
836.30 0.1724658
836.40 0.1723911
836.50 0.1723165
836.60 0.1722419
836.70 0.1721673
836.80 0.1720928
836.90 0.1720188
837.00 0.1719451
837.10 0.1718714
837.20 0.1717977
837.30 0.1717241
837.40 0.1716505
837.50 0.1715769
837.60 0.1715034
837.70 0.1714299
837.80 0.1713564
837.90 0.171283
838.00 0.1712095
838.10 0.1711362
838.20 0.1710628
838.30 0.1709895
838.40 0.1709162
838.50 0.1708429
838.60 0.1707697
838.70 0.1706965
838.80 0.1706233
838.90 0.1705501
839.00 0.170477
839.10 0.1704039
839.20 0.1703309
839.30 0.1702578
839.40 0.1701848
839.50 0.1701119
839.60 0.1700389
839.70 0.169966
839.80 0.1698932
839.90 0.1698203
840.00 0.1697475
840.10 0.1696747
840.20 0.1696019
840.30 0.1695292
840.40 0.1694565
840.50 0.1693838
840.60 0.1693112
840.70 0.1692386
840.80 0.169166
840.90 0.1690935
841.00 0.169021
841.10 0.1689495
841.20 0.1688783
841.30 0.1688071
841.40 0.168736
841.50 0.1686649
841.60 0.1685938
841.70 0.1685227
841.80 0.1684517
841.90 0.1683806
842.00 0.1683097
842.10 0.1682387
842.20 0.1681678
842.30 0.1680969
842.40 0.168026
842.50 0.1679552
842.60 0.1678844
842.70 0.1678136
842.80 0.1677429
842.90 0.1676722
843.00 0.1676015
843.10 0.1675308
843.20 0.1674602
843.30 0.1673896
843.40 0.167319
843.50 0.1672484
843.60 0.1671779
843.70 0.1671074
843.80 0.167037
843.90 0.1669665
844.00 0.1668961
844.10 0.1668258
844.20 0.1667554
844.30 0.1666851
844.40 0.1666148
844.50 0.1665446
844.60 0.1664743
844.70 0.1664041
844.80 0.166334
844.90 0.1662638
845.00 0.1661937
845.10 0.1661236
845.20 0.1660535
845.30 0.1659842
845.40 0.1659149
845.50 0.1658456
845.60 0.1657764
845.70 0.1657072
845.80 0.165638
845.90 0.1655688
846.00 0.1654997
846.10 0.1654306
846.20 0.1653615
846.30 0.1652925
846.40 0.1652235
846.50 0.1651545
846.60 0.1650855
846.70 0.1650166
846.80 0.1649477
846.90 0.1648788
847.00 0.16481
847.10 0.1647411
847.20 0.1646723
847.30 0.1646036
847.40 0.1645348
847.50 0.1644661
847.60 0.1643974
847.70 0.1643288
847.80 0.1642602
847.90 0.1641916
848.00 0.164123
848.10 0.1640544
848.20 0.1639859
848.30 0.1639174
848.40 0.163849
848.50 0.1637805
848.60 0.1637121
848.70 0.1636438
848.80 0.1635754
848.90 0.1635071
849.00 0.1634388
849.10 0.1633705
849.20 0.1633023
849.30 0.1632341
849.40 0.1631659
849.50 0.1630977
849.60 0.1630296
849.70 0.1629615
849.80 0.1628934
849.90 0.1628254
850.00 0.1627574
850.10 0.1626894
850.20 0.1626214
850.30 0.1625535
850.40 0.1624856
850.50 0.1624177
850.60 0.1623498
850.70 0.162282
850.80 0.1622142
850.90 0.1621464
851.00 0.1620787
851.10 0.162011
851.20 0.1619433
851.30 0.1618756
851.40 0.161808
851.50 0.1617404
851.60 0.1616728
851.70 0.1616052
851.80 0.1615377
851.90 0.1614702
852.00 0.1614028
852.10 0.1613353
852.20 0.1612679
852.30 0.1612005
852.40 0.1611331
852.50 0.1610658
852.60 0.1609985
852.70 0.1609312
852.80 0.160864
852.90 0.1607967
853.00 0.1607295
853.10 0.1606624
853.20 0.1605952
853.30 0.1605281
853.40 0.160461
853.50 0.1603939
853.60 0.1603269
853.70 0.1602604
853.80 0.1601945
853.90 0.1601286
854.00 0.1600628
854.10 0.1599969
854.20 0.1599311
854.30 0.1598654
854.40 0.1597996
854.50 0.1597339
854.60 0.1596682
854.70 0.1596025
854.80 0.1595369
854.90 0.1594713
855.00 0.1594057
855.10 0.1593401
855.20 0.1592746
855.30 0.1592091
855.40 0.1591436
855.50 0.1590781
855.60 0.1590127
855.70 0.1589473
855.80 0.1588819
855.90 0.1588166
856.00 0.1587512
856.10 0.1586859
856.20 0.1586207
856.30 0.1585554
856.40 0.1584902
856.50 0.158425
856.60 0.1583598
856.70 0.1582947
856.80 0.1582296
856.90 0.1581645
857.00 0.1580994
857.10 0.1580344
857.20 0.1579694
857.30 0.1579044
857.40 0.1578394
857.50 0.1577745
857.60 0.1577096
857.70 0.1576447
857.80 0.1575798
857.90 0.157515
858.00 0.1574511
858.10 0.1573875
858.20 0.1573239
858.30 0.1572604
858.40 0.1571969
858.50 0.1571333
858.60 0.1570699
858.70 0.1570064
858.80 0.156943
858.90 0.1568796
859.00 0.1568162
859.10 0.1567528
859.20 0.1566895
859.30 0.1566262
859.40 0.1565629
859.50 0.1564997
859.60 0.1564364
859.70 0.1563732
859.80 0.15631
859.90 0.1562469
860.00 0.1561838
860.10 0.1561207
860.20 0.1560576
860.30 0.1559945
860.40 0.1559315
860.50 0.1558685
860.60 0.1558055
860.70 0.1557426
860.80 0.1556796
860.90 0.1556167
861.00 0.1555538
861.10 0.155491
861.20 0.1554282
861.30 0.1553654
861.40 0.1553026
861.50 0.1552398
861.60 0.1551771
861.70 0.1551144
861.80 0.1550517
861.90 0.1549891
862.00 0.1549264
862.10 0.1548638
862.20 0.1548013
862.30 0.1547394
862.40 0.1546775
862.50 0.1546157
862.60 0.1545538
862.70 0.154492
862.80 0.1544303
862.90 0.1543685
863.00 0.1543068
863.10 0.1542451
863.20 0.1541834
863.30 0.1541217
863.40 0.1540601
863.50 0.1539985
863.60 0.1539369
863.70 0.1538753
863.80 0.1538138
863.90 0.1537522
864.00 0.1536908
864.10 0.1536293
864.20 0.1535679
864.30 0.1535064
864.40 0.153445
864.50 0.1533837
864.60 0.1533223
864.70 0.153261
864.80 0.1531997
864.90 0.1531384
865.00 0.1530772
865.10 0.153016
865.20 0.1529548
865.30 0.1528936
865.40 0.1528324
865.50 0.1527713
865.60 0.1527102
865.70 0.1526491
865.80 0.1525881
865.90 0.1525271
866.00 0.152466
866.10 0.1524051
866.20 0.1523441
866.30 0.1522832
866.40 0.1522223
866.50 0.1521614
866.60 0.1521005
866.70 0.1520397
866.80 0.1519789
866.90 0.1519181
867.00 0.1518573
867.10 0.1517966
867.20 0.1517359
867.30 0.1516752
867.40 0.1516145
867.50 0.1515538
867.60 0.1514932
867.70 0.1514326
867.80 0.151372
867.90 0.1513115
868.00 0.151251
868.10 0.1511905
868.20 0.15113
868.30 0.1510695
868.40 0.1510091
868.50 0.1509487
868.60 0.1508883
868.70 0.150828
868.80 0.1507676
868.90 0.1507073
869.00 0.150647
869.10 0.1505868
869.20 0.1505265
869.30 0.1504663
869.40 0.1504061
869.50 0.1503459
869.60 0.1502858
869.70 0.1502257
869.80 0.1501656
869.90 0.1501055
870.00 0.1500455
870.10 0.1499854
870.20 0.1499254
870.30 0.1498654
870.40 0.1498055
870.50 0.1497456
870.60 0.1496856
870.70 0.1496258
870.80 0.1495659
870.90 0.149507
871.00 0.1494481
871.10 0.1493893
871.20 0.1493306
871.30 0.1492718
871.40 0.1492131
871.50 0.1491544
871.60 0.1490957
871.70 0.149037
871.80 0.1489784
871.90 0.1489198
872.00 0.1488612
872.10 0.1488026
872.20 0.1487441
872.30 0.1486855
872.40 0.1486271
872.50 0.1485686
872.60 0.1485101
872.70 0.1484517
872.80 0.1483933
872.90 0.1483349
873.00 0.1482765
873.10 0.1482182
873.20 0.1481599
873.30 0.1481016
873.40 0.1480433
873.50 0.1479851
873.60 0.1479268
873.70 0.1478686
873.80 0.1478105
873.90 0.1477523
874.00 0.1476942
874.10 0.1476361
874.20 0.147578
874.30 0.1475199
874.40 0.1474619
874.50 0.1474038
874.60 0.1473458
874.70 0.1472879
874.80 0.1472299
874.90 0.147172
875.00 0.1471141
875.10 0.1470562
875.20 0.1469987
875.30 0.146942
875.40 0.1468853
875.50 0.1468286
875.60 0.1467719
875.70 0.1467153
875.80 0.1466586
875.90 0.146602
876.00 0.1465455
876.10 0.1464889
876.20 0.1464324
876.30 0.1463758
876.40 0.1463193
876.50 0.1462629
876.60 0.1462064
876.70 0.14615
876.80 0.1460936
876.90 0.1460372
877.00 0.1459808
877.10 0.1459245
877.20 0.1458682
877.30 0.1458119
877.40 0.1457556
877.50 0.1456993
877.60 0.1456431
877.70 0.1455869
877.80 0.1455307
877.90 0.1454746
878.00 0.1454184
878.10 0.1453623
878.20 0.1453062
878.30 0.1452501
878.40 0.145194
878.50 0.145138
878.60 0.145082
878.70 0.145026
878.80 0.14497
878.90 0.1449141
879.00 0.1448582
879.10 0.1448023
879.20 0.1447464
879.30 0.1446905
879.40 0.1446347
879.50 0.1445789
879.60 0.1445232
879.70 0.1444677
879.80 0.1444122
879.90 0.1443567
880.00 0.1443012
880.10 0.1442457
880.20 0.1441903
880.30 0.1441349
880.40 0.1440795
880.50 0.1440241
880.60 0.1439688
880.70 0.1439134
880.80 0.1438581
880.90 0.1438028
881.00 0.1437476
881.10 0.1436923
881.20 0.1436371
881.30 0.1435819
881.40 0.1435267
881.50 0.1434715
881.60 0.1434164
881.70 0.1433613
881.80 0.1433062
881.90 0.1432511
882.00 0.1431961
882.10 0.143141
882.20 0.143086
882.30 0.143031
882.40 0.1429761
882.50 0.1429211
882.60 0.1428662
882.70 0.1428113
882.80 0.1427564
882.90 0.1427015
883.00 0.1426467
883.10 0.1425919
883.20 0.1425371
883.30 0.1424823
883.40 0.1424275
883.50 0.1423728
883.60 0.1423181
883.70 0.1422634
883.80 0.1422087
883.90 0.1421541
884.00 0.1421
884.10 0.1420461
884.20 0.1419923
884.30 0.1419384
884.40 0.1418846
884.50 0.1418307
884.60 0.1417769
884.70 0.1417232
884.80 0.1416694
884.90 0.1416157
885.00 0.141562
885.10 0.1415083
885.20 0.1414546
885.30 0.1414009
885.40 0.1413473
885.50 0.1412937
885.60 0.1412401
885.70 0.1411865
885.80 0.141133
885.90 0.1410795
886.00 0.141026
886.10 0.1409725
886.20 0.140919
886.30 0.1408656
886.40 0.1408121
886.50 0.1407587
886.60 0.1407053
886.70 0.140652
886.80 0.1405986
886.90 0.1405453
887.00 0.140492
887.10 0.1404387
887.20 0.1403855
887.30 0.1403322
887.40 0.140279
887.50 0.1402258
887.60 0.1401726
887.70 0.1401194
887.80 0.1400663
887.90 0.1400132
888.00 0.1399601
888.10 0.139907
888.20 0.139854
888.30 0.1398009
888.40 0.1397485
888.50 0.1396963
888.60 0.139644
888.70 0.1395918
888.80 0.1395396
888.90 0.1394875
889.00 0.1394353
889.10 0.1393832
889.20 0.139331
889.30 0.1392789
889.40 0.1392269
889.50 0.1391748
889.60 0.1391228
889.70 0.1390708
889.80 0.1390188
889.90 0.1389668
890.00 0.1389148
890.10 0.1388629
890.20 0.138811
890.30 0.1387591
890.40 0.1387072
890.50 0.1386553
890.60 0.1386035
890.70 0.1385517
890.80 0.1384999
890.90 0.1384481
891.00 0.1383963
891.10 0.1383446
891.20 0.1382929
891.30 0.1382412
891.40 0.1381895
891.50 0.1381378
891.60 0.1380862
891.70 0.1380346
891.80 0.137983
891.90 0.1379314
892.00 0.1378798
892.10 0.1378283
892.20 0.1377767
892.30 0.1377252
892.40 0.1376738
892.50 0.1376223
892.60 0.1375708
892.70 0.1375194
892.80 0.137468
892.90 0.1374166
893.00 0.1373653
893.10 0.1373139
893.20 0.1372626
893.30 0.1372113
893.40 0.13716
893.50 0.1371087
893.60 0.1370575
893.70 0.1370062
893.80 0.136955
893.90 0.1369038
894.00 0.1368527
894.10 0.1368015
894.20 0.1367504
894.30 0.1366993
894.40 0.1366482
894.50 0.1365971
894.60 0.136546
894.70 0.136495
894.80 0.136444
894.90 0.136393
895.00 0.136342
895.10 0.136291
895.20 0.1362401
895.30 0.1361892
895.40 0.1361383
895.50 0.1360874
895.60 0.1360365
895.70 0.1359857
895.80 0.1359349
895.90 0.1358841
896.00 0.1358333
896.10 0.1357825
896.20 0.1357318
896.30 0.1356811
896.40 0.1356303
896.50 0.1355797
896.60 0.135529
896.70 0.1354783
896.80 0.1354277
896.90 0.1353771
897.00 0.1353265
897.10 0.1352759
897.20 0.1352254
897.30 0.1351756
897.40 0.1351258
897.50 0.135076
897.60 0.1350262
897.70 0.1349765
897.80 0.1349267
897.90 0.134877
898.00 0.1348273
898.10 0.1347777
898.20 0.134728
898.30 0.1346784
898.40 0.1346288
898.50 0.1345792
898.60 0.1345296
898.70 0.13448
898.80 0.1344305
898.90 0.134381
899.00 0.1343315
899.10 0.134282
899.20 0.1342325
899.30 0.1341831
899.40 0.1341336
899.50 0.1340842
899.60 0.1340348
899.70 0.1339855
899.80 0.1339361
899.90 0.1338868
900.00 0.1338375
900.10 0.1337882
900.20 0.1337389
900.30 0.1336896
900.40 0.1336404
900.50 0.1335911
900.60 0.1335419
900.70 0.1334928
900.80 0.1334436
900.90 0.1333944
901.00 0.1333453
901.10 0.1332962
901.20 0.1332471
901.30 0.133198
901.40 0.133149
901.50 0.1330999
901.60 0.1330509
901.70 0.133002
901.80 0.1329533
901.90 0.1329047
902.00 0.1328561
902.10 0.1328075
902.20 0.1327589
902.30 0.1327103
902.40 0.1326618
902.50 0.1326133
902.60 0.1325648
902.70 0.1325163
902.80 0.1324678
902.90 0.1324194
903.00 0.132371
903.10 0.1323226
903.20 0.1322742
903.30 0.1322258
903.40 0.1321774
903.50 0.1321291
903.60 0.1320808
903.70 0.1320325
903.80 0.1319842
903.90 0.1319359
904.00 0.1318877
904.10 0.1318395
904.20 0.1317912
904.30 0.131743
904.40 0.1316949
904.50 0.1316467
904.60 0.1315986
904.70 0.1315505
904.80 0.1315024
904.90 0.1314543
905.00 0.1314062
905.10 0.1313582
905.20 0.1313101
905.30 0.1312621
905.40 0.1312141
905.50 0.1311661
905.60 0.1311182
905.70 0.1310702
905.80 0.1310223
905.90 0.1309744
906.00 0.1309265
906.10 0.1308787
906.20 0.1308309
906.30 0.1307832
906.40 0.1307356
906.50 0.130688
906.60 0.1306404
906.70 0.1305928
906.80 0.1305453
906.90 0.1304977
907.00 0.1304502
907.10 0.1304027
907.20 0.1303552
907.30 0.1303078
907.40 0.1302603
907.50 0.1302129
907.60 0.1301655
907.70 0.1301181
907.80 0.1300707
907.90 0.1300233
908.00 0.129976
908.10 0.1299287
908.20 0.1298814
908.30 0.1298341
908.40 0.1297868
908.50 0.1297396
908.60 0.1296923
908.70 0.1296451
908.80 0.1295979
908.90 0.1295507
909.00 0.1295036
909.10 0.1294564
909.20 0.1294093
909.30 0.1293622
909.40 0.1293151
909.50 0.129268
909.60 0.1292209
909.70 0.1291739
909.80 0.1291269
909.90 0.1290799
910.00 0.1290329
910.10 0.1289859
910.20 0.1289389
910.30 0.128892
910.40 0.1288451
910.50 0.1287982
910.60 0.1287513
910.70 0.1287044
910.80 0.1286576
910.90 0.1286108
911.00 0.1285639
911.10 0.1285171
911.20 0.1284704
911.30 0.1284236
911.40 0.1283769
911.50 0.1283301
911.60 0.1282834
911.70 0.1282367
911.80 0.12819
911.90 0.1281434
912.00 0.1280967
912.10 0.1280501
912.20 0.1280035
912.30 0.1279569
912.40 0.1279104
912.50 0.1278638
912.60 0.1278173
912.70 0.1277708
912.80 0.1277243
912.90 0.1276778
913.00 0.1276313
913.10 0.1275848
913.20 0.1275384
913.30 0.127492
913.40 0.1274456
913.50 0.1273992
913.60 0.1273529
913.70 0.1273065
913.80 0.1272602
913.90 0.1272139
914.00 0.1271676
914.10 0.1271213
914.20 0.127075
914.30 0.1270288
914.40 0.1269826
914.50 0.1269364
914.60 0.1268902
914.70 0.126844
914.80 0.1267978
914.90 0.1267517
915.00 0.1267056
915.10 0.1266595
915.20 0.1266134
915.30 0.1265674
915.40 0.1265216
915.50 0.1264757
915.60 0.1264299
915.70 0.126384
915.80 0.1263382
915.90 0.1262925
916.00 0.1262467
916.10 0.1262009
916.20 0.1261552
916.30 0.1261095
916.40 0.1260638
916.50 0.1260181
916.60 0.1259724
916.70 0.1259268
916.80 0.1258811
916.90 0.1258355
917.00 0.1257899
917.10 0.1257443
917.20 0.1256988
917.30 0.1256532
917.40 0.1256077
917.50 0.1255621
917.60 0.1255166
917.70 0.1254712
917.80 0.1254257
917.90 0.1253802
918.00 0.1253348
918.10 0.1252894
918.20 0.125244
918.30 0.1251986
918.40 0.1251532
918.50 0.1251079
918.60 0.1250626
918.70 0.1250173
918.80 0.124972
918.90 0.1249267
919.00 0.1248814
919.10 0.1248362
919.20 0.1247909
919.30 0.1247457
919.40 0.1247005
919.50 0.1246553
919.60 0.1246102
919.70 0.124565
919.80 0.1245199
919.90 0.1244748
920.00 0.1244297
920.10 0.1243846
920.20 0.1243395
920.30 0.1242945
920.40 0.1242494
920.50 0.1242044
920.60 0.1241594
920.70 0.1241144
920.80 0.1240695
920.90 0.1240245
921.00 0.1239796
921.10 0.1239347
921.20 0.1238898
921.30 0.1238449
921.40 0.1238
921.50 0.1237552
921.60 0.1237104
921.70 0.1236655
921.80 0.1236207
921.90 0.123576
922.00 0.1235312
922.10 0.1234864
922.20 0.1234417
922.30 0.123397
922.40 0.1233523
922.50 0.1233076
922.60 0.1232629
922.70 0.1232183
922.80 0.1231737
922.90 0.123129
923.00 0.1230844
923.10 0.1230398
923.20 0.1229953
923.30 0.1229507
923.40 0.1229062
923.50 0.1228617
923.60 0.1228172
923.70 0.1227727
923.80 0.1227282
923.90 0.1226838
924.00 0.1226393
924.10 0.1225949
924.20 0.1225505
924.30 0.1225061
924.40 0.1224618
924.50 0.1224176
924.60 0.1223734
924.70 0.1223293
924.80 0.1222851
924.90 0.122241
925.00 0.1221969
925.10 0.1221529
925.20 0.1221088
925.30 0.1220647
925.40 0.1220207
925.50 0.1219767
925.60 0.1219327
925.70 0.1218887
925.80 0.1218447
925.90 0.1218008
926.00 0.1217569
926.10 0.1217129
926.20 0.121669
926.30 0.1216251
926.40 0.1215813
926.50 0.1215374
926.60 0.1214936
926.70 0.1214498
926.80 0.121406
926.90 0.1213622
927.00 0.1213184
927.10 0.1212746
927.20 0.1212309
927.30 0.1211872
927.40 0.1211435
927.50 0.1210998
927.60 0.1210561
927.70 0.1210124
927.80 0.1209688
927.90 0.1209251
928.00 0.1208815
928.10 0.1208379
928.20 0.1207943
928.30 0.1207508
928.40 0.1207072
928.50 0.1206637
928.60 0.1206202
928.70 0.1205767
928.80 0.1205332
928.90 0.1204897
929.00 0.1204463
929.10 0.1204028
929.20 0.1203594
929.30 0.120316
929.40 0.1202726
929.50 0.1202292
929.60 0.1201859
929.70 0.1201425
929.80 0.1200992
929.90 0.1200559
930.00 0.1200126
930.10 0.1199693
930.20 0.1199261
930.30 0.1198828
930.40 0.1198396
930.50 0.1197964
930.60 0.1197532
930.70 0.11971
930.80 0.1196668
930.90 0.1196236
931.00 0.1195805
931.10 0.1195374
931.20 0.1194943
931.30 0.1194512
931.40 0.1194081
931.50 0.1193651
931.60 0.119322
931.70 0.119279
931.80 0.119236
931.90 0.119193
932.00 0.11915
932.10 0.119107
932.20 0.1190641
932.30 0.1190212
932.40 0.1189782
932.50 0.1189353
932.60 0.1188924
932.70 0.1188496
932.80 0.1188067
932.90 0.1187639
933.00 0.1187211
933.10 0.1186783
933.20 0.1186355
933.30 0.1185927
933.40 0.1185499
933.50 0.1185072
933.60 0.1184644
933.70 0.1184216
933.80 0.1183788
933.90 0.118336
934.00 0.1182932
934.10 0.1182504
934.20 0.1182076
934.30 0.1181649
934.40 0.1181222
934.50 0.1180794
934.60 0.1180367
934.70 0.117994
934.80 0.1179514
934.90 0.1179087
935.00 0.1178661
935.10 0.1178235
935.20 0.1177808
935.30 0.1177382
935.40 0.1176957
935.50 0.1176531
935.60 0.1176106
935.70 0.117568
935.80 0.1175255
935.90 0.117483
936.00 0.1174405
936.10 0.117398
936.20 0.1173556
936.30 0.1173131
936.40 0.1172707
936.50 0.1172283
936.60 0.1171859
936.70 0.1171435
936.80 0.1171012
936.90 0.1170588
937.00 0.1170165
937.10 0.1169742
937.20 0.1169319
937.30 0.1168896
937.40 0.1168473
937.50 0.1168051
937.60 0.1167628
937.70 0.1167206
937.80 0.1166784
937.90 0.1166362
938.00 0.116594
938.10 0.1165519
938.20 0.1165097
938.30 0.1164676
938.40 0.1164255
938.50 0.1163834
938.60 0.1163413
938.70 0.1162992
938.80 0.1162571
938.90 0.1162151
939.00 0.1161731
939.10 0.1161311
939.20 0.1160891
939.30 0.1160471
939.40 0.1160051
939.50 0.1159632
939.60 0.1159212
939.70 0.1158793
939.80 0.1158374
939.90 0.1157955
940.00 0.1157537
940.10 0.1157118
940.20 0.11567
940.30 0.1156281
940.40 0.1155863
940.50 0.1155445
940.60 0.1155027
940.70 0.115461
940.80 0.1154192
940.90 0.1153775
941.00 0.1153358
941.10 0.1152941
941.20 0.1152524
941.30 0.1152107
941.40 0.115169
941.50 0.1151274
941.60 0.1150857
941.70 0.1150441
941.80 0.1150025
941.90 0.1149609
942.00 0.1149194
942.10 0.1148778
942.20 0.1148363
942.30 0.1147948
942.40 0.1147532
942.50 0.1147117
942.60 0.1146703
942.70 0.1146288
942.80 0.1145873
942.90 0.1145459
943.00 0.1145044
943.10 0.1144629
943.20 0.1144214
943.30 0.1143799
943.40 0.1143384
943.50 0.114297
943.60 0.1142555
943.70 0.1142141
943.80 0.1141727
943.90 0.1141312
944.00 0.1140899
944.10 0.1140485
944.20 0.1140071
944.30 0.1139658
944.40 0.1139244
944.50 0.1138831
944.60 0.1138418
944.70 0.1138005
944.80 0.1137593
944.90 0.113718
945.00 0.1136768
945.10 0.1136355
945.20 0.1135943
945.30 0.1135531
945.40 0.1135119
945.50 0.1134708
945.60 0.1134296
945.70 0.1133885
945.80 0.1133474
945.90 0.1133062
946.00 0.1132651
946.10 0.1132241
946.20 0.113183
946.30 0.113142
946.40 0.1131009
946.50 0.1130599
946.60 0.1130189
946.70 0.1129779
946.80 0.1129369
946.90 0.112896
947.00 0.112855
947.10 0.1128141
947.20 0.1127732
947.30 0.1127323
947.40 0.1126914
947.50 0.1126505
947.60 0.1126097
947.70 0.1125688
947.80 0.112528
947.90 0.1124872
948.00 0.1124464
948.10 0.1124056
948.20 0.1123648
948.30 0.1123241
948.40 0.1122833
948.50 0.1122426
948.60 0.1122019
948.70 0.1121612
948.80 0.1121205
948.90 0.1120799
949.00 0.1120392
949.10 0.1119986
949.20 0.111958
949.30 0.1119173
949.40 0.1118768
949.50 0.1118362
949.60 0.1117956
949.70 0.1117551
949.80 0.1117145
949.90 0.111674
950.00 0.1116335
950.10 0.111593
950.20 0.1115525
950.30 0.1115121
950.40 0.1114716
950.50 0.1114312
950.60 0.1113908
950.70 0.1113504
950.80 0.11131
950.90 0.1112696
951.00 0.1112293
951.10 0.1111889
951.20 0.1111486
951.30 0.1111083
951.40 0.111068
951.50 0.1110277
951.60 0.1109874
951.70 0.1109471
951.80 0.1109069
951.90 0.1108667
952.00 0.1108265
952.10 0.1107863
952.20 0.1107461
952.30 0.1107059
952.40 0.1106657
952.50 0.1106258
952.60 0.1105858
952.70 0.1105459
952.80 0.1105059
952.90 0.110466
953.00 0.1104261
953.10 0.1103862
953.20 0.1103463
953.30 0.1103065
953.40 0.1102666
953.50 0.1102268
953.60 0.110187
953.70 0.1101472
953.80 0.1101074
953.90 0.1100676
954.00 0.1100279
954.10 0.1099881
954.20 0.1099484
954.30 0.1099087
954.40 0.109869
954.50 0.1098293
954.60 0.1097896
954.70 0.1097499
954.80 0.1097103
954.90 0.1096706
955.00 0.109631
955.10 0.1095914
955.20 0.1095518
955.30 0.1095123
955.40 0.1094727
955.50 0.1094331
955.60 0.1093936
955.70 0.1093541
955.80 0.1093146
955.90 0.1092751
956.00 0.1092356
956.10 0.1091961
956.20 0.1091567
956.30 0.1091173
956.40 0.1090778
956.50 0.1090384
956.60 0.108999
956.70 0.1089597
956.80 0.1089203
956.90 0.1088809
957.00 0.1088416
957.10 0.1088023
957.20 0.1087629
957.30 0.1087233
957.40 0.1086837
957.50 0.1086442
957.60 0.1086046
957.70 0.1085651
957.80 0.1085256
957.90 0.1084861
958.00 0.1084466
958.10 0.1084072
958.20 0.1083677
958.30 0.1083283
958.40 0.1082889
958.50 0.1082495
958.60 0.1082101
958.70 0.1081707
958.80 0.1081313
958.90 0.108092
959.00 0.1080527
959.10 0.1080133
959.20 0.107974
959.30 0.1079347
959.40 0.1078955
959.50 0.1078562
959.60 0.1078169
959.70 0.1077777
959.80 0.1077385
959.90 0.1076993
960.00 0.1076601
960.10 0.1076209
960.20 0.1075817
960.30 0.1075426
960.40 0.1075034
960.50 0.1074643
960.60 0.1074252
960.70 0.1073861
960.80 0.107347
960.90 0.107308
961.00 0.1072689
961.10 0.1072299
961.20 0.1071908
961.30 0.1071518
961.40 0.1071128
961.50 0.1070738
961.60 0.1070349
961.70 0.1069959
961.80 0.106957
961.90 0.106918
962.00 0.1068791
962.10 0.1068403
962.20 0.1068014
962.30 0.1067625
962.40 0.1067237
962.50 0.1066849
962.60 0.1066461
962.70 0.1066073
962.80 0.1065685
962.90 0.1065297
963.00 0.106491
963.10 0.1064523
963.20 0.1064135
963.30 0.1063748
963.40 0.1063361
963.50 0.1062974
963.60 0.1062588
963.70 0.1062201
963.80 0.1061815
963.90 0.1061429
964.00 0.1061042
964.10 0.1060656
964.20 0.1060271
964.30 0.1059885
964.40 0.1059499
964.50 0.1059114
964.60 0.1058729
964.70 0.1058343
964.80 0.1057958
964.90 0.1057573
965.00 0.1057189
965.10 0.1056804
965.20 0.105642
965.30 0.1056035
965.40 0.1055651
965.50 0.1055267
965.60 0.1054883
965.70 0.1054499
965.80 0.1054115
965.90 0.1053732
966.00 0.1053349
966.10 0.1052965
966.20 0.1052582
966.30 0.1052199
966.40 0.1051816
966.50 0.1051434
966.60 0.1051051
966.70 0.1050669
966.80 0.1050286
966.90 0.1049904
967.00 0.1049522
967.10 0.104914
967.20 0.1048758
967.30 0.1048377
967.40 0.1047995
967.50 0.1047614
967.60 0.1047233
967.70 0.1046852
967.80 0.1046471
967.90 0.104609
968.00 0.1045709
968.10 0.1045329
968.20 0.1044948
968.30 0.1044568
968.40 0.1044188
968.50 0.1043808
968.60 0.1043428
968.70 0.1043048
968.80 0.1042668
968.90 0.1042289
969.00 0.104191
969.10 0.104153
969.20 0.1041151
969.30 0.1040772
969.40 0.1040394
969.50 0.1040015
969.60 0.1039636
969.70 0.1039258
969.80 0.103888
969.90 0.1038502
970.00 0.1038124
970.10 0.1037746
970.20 0.1037368
970.30 0.103699
970.40 0.1036613
970.50 0.1036236
970.60 0.1035858
970.70 0.1035481
970.80 0.1035105
970.90 0.1034728
971.00 0.1034351
971.10 0.1033975
971.20 0.1033598
971.30 0.1033222
971.40 0.1032846
971.50 0.103247
971.60 0.1032095
971.70 0.1031721
971.80 0.1031347
971.90 0.1030973
972.00 0.1030599
972.10 0.1030226
972.20 0.1029852
972.30 0.1029479
972.40 0.1029106
972.50 0.1028733
972.60 0.102836
972.70 0.1027987
972.80 0.1027614
972.90 0.1027242
973.00 0.1026869
973.10 0.1026497
973.20 0.1026125
973.30 0.1025753
973.40 0.1025381
973.50 0.1025009
973.60 0.1024638
973.70 0.1024266
973.80 0.1023895
973.90 0.1023524
974.00 0.1023152
974.10 0.1022781
974.20 0.1022411
974.30 0.102204
974.40 0.1021669
974.50 0.1021299
974.60 0.1020929
974.70 0.1020558
974.80 0.1020188
974.90 0.1019818
975.00 0.1019449
975.10 0.1019079
975.20 0.1018709
975.30 0.101834
975.40 0.1017971
975.50 0.1017602
975.60 0.1017233
975.70 0.1016864
975.80 0.1016495
975.90 0.1016126
976.00 0.1015758
976.10 0.101539
976.20 0.1015021
976.30 0.1014653
976.40 0.1014285
976.50 0.1013917
976.60 0.101355
976.70 0.1013182
976.80 0.1012815
976.90 0.1012447
977.00 0.101208
977.10 0.1011713
977.20 0.1011346
977.30 0.1010979
977.40 0.1010613
977.50 0.1010246
977.60 0.100988
977.70 0.1009513
977.80 0.1009147
977.90 0.1008781
978.00 0.1008415
978.10 0.100805
978.20 0.1007684
978.30 0.1007318
978.40 0.1006953
978.50 0.1006588
978.60 0.1006223
978.70 0.1005858
978.80 0.1005493
978.90 0.1005128
979.00 0.1004763
979.10 0.1004399
979.20 0.1004034
979.30 0.100367
979.40 0.1003306
979.50 0.1002942
979.60 0.1002578
979.70 0.1002215
979.80 0.1001851
979.90 0.1001487
980.00 0.1001124
980.10 0.1000761
980.20 0.1000398
980.30 0.1000035
980.40 0.0999672
980.50 0.09993093
980.60 0.09989468
980.70 0.09985843
980.80 0.0998222
980.90 0.09978598
981.00 0.09974977
981.10 0.09971358
981.20 0.09967739
981.30 0.09964117
981.40 0.09960492
981.50 0.09956867
981.60 0.09953244
981.70 0.09949622
981.80 0.09946001
981.90 0.09942382
982.00 0.09938764
982.10 0.09935147
982.20 0.09931531
982.30 0.09927917
982.40 0.09924304
982.50 0.09920692
982.60 0.09917081
982.70 0.09913472
982.80 0.09909864
982.90 0.09906257
983.00 0.09902652
983.10 0.09899047
983.20 0.09895444
983.30 0.09891843
983.40 0.09888242
983.50 0.09884643
983.60 0.09881045
983.70 0.09877448
983.80 0.09873853
983.90 0.09870259
984.00 0.09866666
984.10 0.09863074
984.20 0.09859484
984.30 0.09855895
984.40 0.09852307
984.50 0.0984872
984.60 0.09845135
984.70 0.09841551
984.80 0.09837968
984.90 0.09834386
985.00 0.09830806
985.10 0.09827227
985.20 0.09823649
985.30 0.09820072
985.40 0.09816497
985.50 0.09812923
985.60 0.0980935
985.70 0.09805778
985.80 0.09802208
985.90 0.09798639
986.00 0.09795071
986.10 0.09791504
986.20 0.09787939
986.30 0.09784375
986.40 0.09780812
986.50 0.0977725
986.60 0.0977369
986.70 0.0977013
986.80 0.09766573
986.90 0.09763016
987.00 0.0975946
987.10 0.09755906
987.20 0.09752353
987.30 0.09748801
987.40 0.09745251
987.50 0.09741702
987.60 0.09738154
987.70 0.09734607
987.80 0.09731061
987.90 0.09727517
988.00 0.09723974
988.10 0.09720432
988.20 0.09716892
988.30 0.09713352
988.40 0.09709814
988.50 0.09706277
988.60 0.09702741
988.70 0.09699207
988.80 0.09695674
988.90 0.09692142
989.00 0.09688611
989.10 0.09685082
989.20 0.09681553
989.30 0.09678026
989.40 0.096745
989.50 0.09670976
989.60 0.09667452
989.70 0.0966393
989.80 0.09660409
989.90 0.0965689
990.00 0.09653371
990.10 0.09649854
990.20 0.09646338
990.30 0.09642823
990.40 0.0963931
990.50 0.09635797
990.60 0.09632286
990.70 0.09628776
990.80 0.09625267
990.90 0.0962176
991.00 0.09618254
991.10 0.09614759
991.20 0.09611283
991.30 0.09607808
991.40 0.09604335
991.50 0.09600863
991.60 0.09597391
991.70 0.09593922
991.80 0.09590453
991.90 0.09586985
992.00 0.09583519
992.10 0.09580054
992.20 0.0957659
992.30 0.09573127
992.40 0.09569666
992.50 0.09566206
992.60 0.09562747
992.70 0.09559289
992.80 0.09555832
992.90 0.09552377
993.00 0.09548922
993.10 0.09545469
993.20 0.09542017
993.30 0.09538567
993.40 0.09535117
993.50 0.09531669
993.60 0.09528222
993.70 0.09524776
993.80 0.09521331
993.90 0.09517888
994.00 0.09514445
994.10 0.09511004
994.20 0.09507564
994.30 0.09504125
994.40 0.09500688
994.50 0.09497252
994.60 0.09493816
994.70 0.09490382
994.80 0.0948695
994.90 0.09483518
995.00 0.09480088
995.10 0.09476658
995.20 0.0947323
995.30 0.09469803
995.40 0.09466378
995.50 0.09462953
995.60 0.0945953
995.70 0.09456108
995.80 0.09452687
995.90 0.09449267
996.00 0.09445849
996.10 0.09442411
996.20 0.0943897
996.30 0.0943553
996.40 0.09432092
996.50 0.09428655
996.60 0.09425219
996.70 0.09421784
996.80 0.0941835
996.90 0.09414918
997.00 0.09411486
997.10 0.09408056
997.20 0.09404627
997.30 0.094012
997.40 0.09397773
997.50 0.09394348
997.60 0.09390923
997.70 0.093875
997.80 0.09384079
997.90 0.09380658
998.00 0.09377239
998.10 0.0937382
998.20 0.09370403
998.30 0.09366987
998.40 0.09363572
998.50 0.09360159
998.60 0.09356747
998.70 0.09353335
998.80 0.09349925
998.90 0.09346516
999.00 0.09343109
999.10 0.09339702
999.20 0.09336297
999.30 0.09332893
999.40 0.0932949
999.50 0.09326088
999.60 0.09322688
999.70 0.09319288
999.80 0.0931589
999.90 0.09312493
1000.00 0.09309097
1000.10 0.09305702
1000.20 0.09302309
1000.30 0.09298916
1000.40 0.09295525
1000.50 0.09292135
1000.60 0.09288746
1000.70 0.09285358
1000.80 0.09281972
1000.90 0.09278586
1001.00 0.09275212
1001.10 0.09271869
1001.20 0.09268526
1001.30 0.09265185
1001.40 0.09261845
1001.50 0.09258506
1001.60 0.09255168
1001.70 0.09251831
1001.80 0.09248495
1001.90 0.09245161
1002.00 0.09241828
1002.10 0.09238496
1002.20 0.09235165
1002.30 0.09231835
1002.40 0.09228506
1002.50 0.09225178
1002.60 0.09221852
1002.70 0.09218527
1002.80 0.09215203
1002.90 0.0921188
1003.00 0.09208558
1003.10 0.09205237
1003.20 0.09201917
1003.30 0.09198599
1003.40 0.09195282
1003.50 0.09191966
1003.60 0.09188651
1003.70 0.09185337
1003.80 0.09182024
1003.90 0.09178712
1004.00 0.09175402
1004.10 0.09172093
1004.20 0.09168784
1004.30 0.09165477
1004.40 0.09162171
1004.50 0.09158867
1004.60 0.09155563
1004.70 0.0915226
1004.80 0.09148959
1004.90 0.09145659
1005.00 0.0914236
1005.10 0.09139062
1005.20 0.09135765
1005.30 0.09132469
1005.40 0.09129174
1005.50 0.09125881
1005.60 0.09122589
1005.70 0.09119297
1005.80 0.09116007
1005.90 0.09112718
1006.00 0.09109425
1006.10 0.09106114
1006.20 0.09102804
1006.30 0.09099495
1006.40 0.09096188
1006.50 0.09092881
1006.60 0.09089575
1006.70 0.09086271
1006.80 0.09082968
1006.90 0.09079666
1007.00 0.09076365
1007.10 0.09073065
1007.20 0.09069766
1007.30 0.09066469
1007.40 0.09063172
1007.50 0.09059877
1007.60 0.09056583
1007.70 0.0905329
1007.80 0.09049998
1007.90 0.09046707
1008.00 0.09043417
1008.10 0.09040129
1008.20 0.09036841
1008.30 0.09033555
1008.40 0.0903027
1008.50 0.09026986
1008.60 0.09023703
1008.70 0.09020421
1008.80 0.0901714
1008.90 0.09013861
1009.00 0.09010582
1009.10 0.09007305
1009.20 0.09004029
1009.30 0.09000754
1009.40 0.0899748
1009.50 0.08994207
1009.60 0.08990935
1009.70 0.08987665
1009.80 0.08984395
1009.90 0.08981127
1010.00 0.0897786
1010.10 0.08974593
1010.20 0.08971328
1010.30 0.08968065
1010.40 0.08964802
1010.50 0.0896154
1010.60 0.0895828
1010.70 0.0895502
1010.80 0.08951762
1010.90 0.08948505
1011.00 0.08945255
1011.10 0.08942039
1011.20 0.08938824
1011.30 0.0893561
1011.40 0.08932397
1011.50 0.08929185
1011.60 0.08925974
1011.70 0.08922765
1011.80 0.08919556
1011.90 0.08916348
1012.00 0.08913142
1012.10 0.08909937
1012.20 0.08906733
1012.30 0.08903529
1012.40 0.08900327
1012.50 0.08897126
1012.60 0.08893927
1012.70 0.08890728
1012.80 0.0888753
1012.90 0.08884334
1013.00 0.08881138
1013.10 0.08877944
1013.20 0.0887475
1013.30 0.08871558
1013.40 0.08868367
1013.50 0.08865177
1013.60 0.08861988
1013.70 0.088588
1013.80 0.08855613
1013.90 0.08852428
1014.00 0.08849243
1014.10 0.0884606
1014.20 0.08842877
1014.30 0.08839696
1014.40 0.08836516
1014.50 0.08833336
1014.60 0.08830158
1014.70 0.08826981
1014.80 0.08823805
1014.90 0.0882063
1015.00 0.08817457
1015.10 0.08814284
1015.20 0.08811112
1015.30 0.08807942
1015.40 0.08804772
1015.50 0.08801604
1015.60 0.08798436
1015.70 0.0879527
1015.80 0.08792105
1015.90 0.08788941
1016.00 0.08785778
1016.10 0.08782616
1016.20 0.08779455
1016.30 0.08776295
1016.40 0.08773136
1016.50 0.08769979
1016.60 0.08766822
1016.70 0.08763667
1016.80 0.08760512
1016.90 0.08757359
1017.00 0.08754207
1017.10 0.08751055
1017.20 0.08747905
1017.30 0.08744756
1017.40 0.08741608
1017.50 0.08738461
1017.60 0.08735315
1017.70 0.0873217
1017.80 0.08729027
1017.90 0.08725884
1018.00 0.08722742
1018.10 0.08719602
1018.20 0.08716462
1018.30 0.08713324
1018.40 0.08710187
1018.50 0.0870705
1018.60 0.08703915
1018.70 0.08700781
1018.80 0.08697648
1018.90 0.08694516
1019.00 0.08691385
1019.10 0.08688255
1019.20 0.08685126
1019.30 0.08681998
1019.40 0.08678872
1019.50 0.08675746
1019.60 0.08672621
1019.70 0.08669498
1019.80 0.08666375
1019.90 0.08663254
1020.00 0.08660133
1020.10 0.08657014
1020.20 0.08653896
1020.30 0.08650779
1020.40 0.08647662
1020.50 0.08644547
1020.60 0.08641433
1020.70 0.0863832
1020.80 0.08635208
1020.90 0.08632097
1021.00 0.08628988
1021.10 0.08625878
1021.20 0.08622762
1021.30 0.08619646
1021.40 0.08616532
1021.50 0.08613418
1021.60 0.08610306
1021.70 0.08607195
1021.80 0.08604084
1021.90 0.08600975
1022.00 0.08597867
1022.10 0.0859476
1022.20 0.08591654
1022.30 0.08588549
1022.40 0.08585445
1022.50 0.08582342
1022.60 0.0857924
1022.70 0.08576139
1022.80 0.0857304
1022.90 0.08569941
1023.00 0.08566843
1023.10 0.08563747
1023.20 0.08560651
1023.30 0.08557557
1023.40 0.08554463
1023.50 0.08551371
1023.60 0.08548279
1023.70 0.08545189
1023.80 0.085421
1023.90 0.08539011
1024.00 0.08535924
1024.10 0.08532838
1024.20 0.08529753
1024.30 0.08526669
1024.40 0.08523586
1024.50 0.08520504
1024.60 0.08517423
1024.70 0.08514343
1024.80 0.08511264
1024.90 0.08508186
1025.00 0.08505109
1025.10 0.08502034
1025.20 0.08498959
1025.30 0.08495885
1025.40 0.08492813
1025.50 0.08489741
1025.60 0.08486671
1025.70 0.08483601
1025.80 0.08480532
1025.90 0.08477465
1026.00 0.08474399
1026.10 0.08471333
1026.20 0.08468269
1026.30 0.08465251
1026.40 0.08462234
1026.50 0.08459218
1026.60 0.08456203
1026.70 0.08453189
1026.80 0.08450177
1026.90 0.08447165
1027.00 0.08444154
1027.10 0.08441144
1027.20 0.08438135
1027.30 0.08435127
1027.40 0.0843212
1027.50 0.08429114
1027.60 0.08426109
1027.70 0.08423106
1027.80 0.08420103
1027.90 0.08417101
1028.00 0.084141
1028.10 0.084111
1028.20 0.08408102
1028.30 0.08405104
1028.40 0.08402107
1028.50 0.08399111
1028.60 0.08396117
1028.70 0.08393123
1028.80 0.0839013
1028.90 0.08387138
1029.00 0.08384148
1029.10 0.08381158
1029.20 0.08378169
1029.30 0.08375181
1029.40 0.08372195
1029.50 0.08369209
1029.60 0.08366224
1029.70 0.0836324
1029.80 0.08360258
1029.90 0.08357276
1030.00 0.08354295
1030.10 0.08351316
1030.20 0.08348337
1030.30 0.08345359
1030.40 0.08342382
1030.50 0.08339407
1030.60 0.08336432
1030.70 0.08333458
1030.80 0.08330486
1030.90 0.08327514
1031.00 0.08324543
1031.10 0.08321573
1031.20 0.08318605
1031.30 0.08315637
1031.40 0.08312662
1031.50 0.08309687
1031.60 0.08306714
1031.70 0.08303741
1031.80 0.0830077
1031.90 0.08297799
1032.00 0.0829483
1032.10 0.08291862
1032.20 0.08288894
1032.30 0.08285928
1032.40 0.08282962
1032.50 0.08279998
1032.60 0.08277034
1032.70 0.08274072
1032.80 0.0827111
1032.90 0.0826815
1033.00 0.0826519
1033.10 0.08262231
1033.20 0.08259274
1033.30 0.08256317
1033.40 0.08253362
1033.50 0.08250407
1033.60 0.08247454
1033.70 0.08244501
1033.80 0.08241549
1033.90 0.08238599
1034.00 0.08235649
1034.10 0.082327
1034.20 0.08229753
1034.30 0.08226806
1034.40 0.0822386
1034.50 0.08220916
1034.60 0.08217972
1034.70 0.08215029
1034.80 0.08212087
1034.90 0.08209147
1035.00 0.08206207
1035.10 0.08203268
1035.20 0.0820033
1035.30 0.08197393
1035.40 0.08194458
1035.50 0.08191523
1035.60 0.08188589
1035.70 0.08185656
1035.80 0.08182724
1035.90 0.08179793
1036.00 0.08176863
1036.10 0.08173934
1036.20 0.08171006
1036.30 0.08168079
1036.40 0.08165153
1036.50 0.08162228
1036.60 0.08159303
1036.70 0.0815638
1036.80 0.08153457
1036.90 0.08150536
1037.00 0.08147615
1037.10 0.08144696
1037.20 0.08141777
1037.30 0.0813886
1037.40 0.08135943
1037.50 0.08133028
1037.60 0.08130113
1037.70 0.08127199
1037.80 0.08124287
1037.90 0.08121375
1038.00 0.08118464
1038.10 0.08115554
1038.20 0.08112646
1038.30 0.08109738
1038.40 0.08106831
1038.50 0.08103925
1038.60 0.0810102
1038.70 0.08098116
1038.80 0.08095213
1038.90 0.08092311
1039.00 0.0808941
1039.10 0.0808651
1039.20 0.08083611
1039.30 0.08080713
1039.40 0.08077815
1039.50 0.08074919
1039.60 0.08072024
1039.70 0.0806913
1039.80 0.08066236
1039.90 0.08063344
1040.00 0.08060453
1040.10 0.08057562
1040.20 0.08054673
1040.30 0.08051784
1040.40 0.08048897
1040.50 0.0804601
1040.60 0.08043124
1040.70 0.0804024
1040.80 0.08037356
1040.90 0.08034473
1041.00 0.08031591
1041.10 0.08028711
1041.20 0.08025831
1041.30 0.08022952
1041.40 0.08020074
1041.50 0.08017197
1041.60 0.08014321
1041.70 0.08011475
1041.80 0.08008636
1041.90 0.08005797
1042.00 0.0800296
1042.10 0.08000124
1042.20 0.07997289
1042.30 0.07994454
1042.40 0.07991621
1042.50 0.07988788
1042.60 0.07985957
1042.70 0.07983126
1042.80 0.07980296
1042.90 0.07977467
1043.00 0.0797464
1043.10 0.07971813
1043.20 0.07968987
1043.30 0.07966162
1043.40 0.07963338
1043.50 0.07960515
1043.60 0.07957692
1043.70 0.07954871
1043.80 0.07952051
1043.90 0.07949231
1044.00 0.07946413
1044.10 0.07943595
1044.20 0.07940779
1044.30 0.07937963
1044.40 0.07935148
1044.50 0.07932334
1044.60 0.07929522
1044.70 0.0792671
1044.80 0.07923899
1044.90 0.07921089
1045.00 0.07918279
1045.10 0.07915471
1045.20 0.07912664
1045.30 0.07909858
1045.40 0.07907052
1045.50 0.07904248
1045.60 0.07901444
1045.70 0.07898641
1045.80 0.0789584
1045.90 0.07893039
1046.00 0.07890239
1046.10 0.0788744
1046.20 0.07884642
1046.30 0.07881845
1046.40 0.07879049
1046.50 0.07876254
1046.60 0.07873459
1046.70 0.07870666
1046.80 0.07867873
1046.90 0.07865082
1047.00 0.07862291
1047.10 0.07859501
1047.20 0.07856713
1047.30 0.07853925
1047.40 0.07851138
1047.50 0.07848352
1047.60 0.07845567
1047.70 0.07842783
1047.80 0.07839999
1047.90 0.07837217
1048.00 0.07834436
1048.10 0.07831655
1048.20 0.07828876
1048.30 0.07826097
1048.40 0.07823319
1048.50 0.07820542
1048.60 0.07817766
1048.70 0.07814991
1048.80 0.07812217
1048.90 0.07809444
1049.00 0.07806672
1049.10 0.07803901
1049.20 0.0780113
1049.30 0.07798361
1049.40 0.07795592
1049.50 0.07792825
1049.60 0.07790058
1049.70 0.07787292
1049.80 0.07784527
1049.90 0.07781763
1050.00 0.07779
1050.10 0.07776238
1050.20 0.07773476
1050.30 0.07770716
1050.40 0.07767957
1050.50 0.07765198
1050.60 0.0776244
1050.70 0.07759684
1050.80 0.07756928
1050.90 0.07754173
1051.00 0.07751419
1051.10 0.07748666
1051.20 0.07745914
1051.30 0.07743162
1051.40 0.07740412
1051.50 0.07737662
1051.60 0.07734914
1051.70 0.07732166
1051.80 0.07729419
1051.90 0.07726674
1052.00 0.07723929
1052.10 0.077212
1052.20 0.0771848
1052.30 0.07715761
1052.40 0.07713043
1052.50 0.07710326
1052.60 0.0770761
1052.70 0.07704894
1052.80 0.0770218
1052.90 0.07699466
1053.00 0.07696753
1053.10 0.07694041
1053.20 0.0769133
1053.30 0.0768862
1053.40 0.07685911
1053.50 0.07683203
1053.60 0.07680495
1053.70 0.07677789
1053.80 0.07675083
1053.90 0.07672379
1054.00 0.07669675
1054.10 0.07666972
1054.20 0.0766427
1054.30 0.07661569
1054.40 0.07658868
1054.50 0.07656169
1054.60 0.0765347
1054.70 0.07650773
1054.80 0.07648076
1054.90 0.0764538
1055.00 0.07642685
1055.10 0.07639991
1055.20 0.07637298
1055.30 0.07634605
1055.40 0.07631914
1055.50 0.07629223
1055.60 0.07626534
1055.70 0.07623845
1055.80 0.07621157
1055.90 0.0761847
1056.00 0.07615784
1056.10 0.07613098
1056.20 0.07610414
1056.30 0.07607731
1056.40 0.07605048
1056.50 0.07602366
1056.60 0.07599685
1056.70 0.07597005
1056.80 0.07594326
1056.90 0.07591648
1057.00 0.07588971
1057.10 0.07586294
1057.20 0.07583618
1057.30 0.07580944
1057.40 0.0757827
1057.50 0.07575597
1057.60 0.07572925
1057.70 0.07570253
1057.80 0.07567583
1057.90 0.07564914
1058.00 0.07562245
1058.10 0.07559577
1058.20 0.0755691
1058.30 0.07554244
1058.40 0.07551579
1058.50 0.07548915
1058.60 0.07546252
1058.70 0.07543589
1058.80 0.07540928
1058.90 0.07538267
1059.00 0.07535607
1059.10 0.07532948
1059.20 0.0753029
1059.30 0.07527632
1059.40 0.07524976
1059.50 0.0752232
1059.60 0.07519666
1059.70 0.07517012
1059.80 0.07514359
1059.90 0.07511707
1060.00 0.07509056
1060.10 0.07506405
1060.20 0.07503756
1060.30 0.07501107
1060.40 0.0749846
1060.50 0.07495813
1060.60 0.07493167
1060.70 0.07490522
1060.80 0.07487877
1060.90 0.07485234
1061.00 0.07482591
1061.10 0.0747995
1061.20 0.07477309
1061.30 0.07474669
1061.40 0.0747203
1061.50 0.07469391
1061.60 0.07466754
1061.70 0.07464118
1061.80 0.07461482
1061.90 0.07458847
1062.00 0.07456213
1062.10 0.0745358
1062.20 0.07450948
1062.30 0.07448317
1062.40 0.07445686
1062.50 0.07443056
1062.60 0.07440438
1062.70 0.07437832
1062.80 0.07435228
1062.90 0.07432624
1063.00 0.07430021
1063.10 0.07427418
1063.20 0.07424817
1063.30 0.07422217
1063.40 0.07419617
1063.50 0.07417018
1063.60 0.0741442
1063.70 0.07411823
1063.80 0.07409227
1063.90 0.07406631
1064.00 0.07404037
1064.10 0.07401443
1064.20 0.0739885
1064.30 0.07396258
1064.40 0.07393667
1064.50 0.07391077
1064.60 0.07388487
1064.70 0.07385898
1064.80 0.07383311
1064.90 0.07380724
1065.00 0.07378137
1065.10 0.07375552
1065.20 0.07372968
1065.30 0.07370384
1065.40 0.07367801
1065.50 0.07365219
1065.60 0.07362638
1065.70 0.07360058
1065.80 0.07357478
1065.90 0.073549
1066.00 0.07352322
1066.10 0.07349745
1066.20 0.07347169
1066.30 0.07344594
1066.40 0.0734202
1066.50 0.07339446
1066.60 0.07336873
1066.70 0.07334301
1066.80 0.0733173
1066.90 0.0732916
1067.00 0.07326591
1067.10 0.07324022
1067.20 0.07321454
1067.30 0.07318887
1067.40 0.07316321
1067.50 0.07313756
1067.60 0.07311192
1067.70 0.07308628
1067.80 0.07306066
1067.90 0.07303504
1068.00 0.07300942
1068.10 0.07298382
1068.20 0.07295822
1068.30 0.07293263
1068.40 0.07290705
1068.50 0.07288148
1068.60 0.07285592
1068.70 0.07283037
1068.80 0.07280482
1068.90 0.07277928
1069.00 0.07275375
1069.10 0.07272823
1069.20 0.07270272
1069.30 0.07267721
1069.40 0.07265171
1069.50 0.07262623
1069.60 0.07260075
1069.70 0.07257527
1069.80 0.07254981
1069.90 0.07252435
1070.00 0.07249891
1070.10 0.07247347
1070.20 0.07244804
1070.30 0.07242261
1070.40 0.0723972
1070.50 0.07237179
1070.60 0.0723464
1070.70 0.07232101
1070.80 0.07229563
1070.90 0.07227025
1071.00 0.07224489
1071.10 0.07221953
1071.20 0.07219418
1071.30 0.07216884
1071.40 0.07214351
1071.50 0.07211819
1071.60 0.07209287
1071.70 0.07206756
1071.80 0.07204226
1071.90 0.07201697
1072.00 0.07199169
1072.10 0.07196641
1072.20 0.07194115
1072.30 0.07191589
1072.40 0.07189064
1072.50 0.0718654
1072.60 0.07184016
1072.70 0.07181494
1072.80 0.07178972
1072.90 0.07176451
1073.00 0.07173931
1073.10 0.07171411
1073.20 0.071689
1073.30 0.07166414
1073.40 0.07163929
1073.50 0.07161444
1073.60 0.07158961
1073.70 0.07156478
1073.80 0.07153996
1073.90 0.07151515
1074.00 0.07149034
1074.10 0.07146555
1074.20 0.07144076
1074.30 0.07141598
1074.40 0.07139121
1074.50 0.07136645
1074.60 0.07134169
1074.70 0.07131694
1074.80 0.0712922
1074.90 0.07126747
1075.00 0.07124275
1075.10 0.07121803
1075.20 0.07119332
1075.30 0.07116862
1075.40 0.07114393
1075.50 0.07111925
1075.60 0.07109457
1075.70 0.0710699
1075.80 0.07104524
1075.90 0.07102059
1076.00 0.07099595
1076.10 0.07097131
1076.20 0.07094668
1076.30 0.07092206
1076.40 0.07089745
1076.50 0.07087284
1076.60 0.07084825
1076.70 0.07082366
1076.80 0.07079908
1076.90 0.0707745
1077.00 0.07074994
1077.10 0.07072538
1077.20 0.07070083
1077.30 0.07067629
1077.40 0.07065176
1077.50 0.07062723
1077.60 0.07060271
1077.70 0.07057821
1077.80 0.0705537
1077.90 0.07052921
1078.00 0.07050472
1078.10 0.07048024
1078.20 0.07045577
1078.30 0.07043131
1078.40 0.07040686
1078.50 0.07038241
1078.60 0.07035797
1078.70 0.07033354
1078.80 0.07030912
1078.90 0.0702847
1079.00 0.07026029
1079.10 0.07023589
1079.20 0.0702115
1079.30 0.07018712
1079.40 0.07016274
1079.50 0.07013837
1079.60 0.07011401
1079.70 0.07008966
1079.80 0.07006531
1079.90 0.07004098
1080.00 0.07001665
1080.10 0.06999233
1080.20 0.06996801
1080.30 0.06994371
1080.40 0.06991941
1080.50 0.06989512
1080.60 0.06987084
1080.70 0.06984656
1080.80 0.06982229
1080.90 0.06979803
1081.00 0.06977378
1081.10 0.06974954
1081.20 0.0697253
1081.30 0.06970108
1081.40 0.06967685
1081.50 0.06965264
1081.60 0.06962844
1081.70 0.06960424
1081.80 0.06958005
1081.90 0.06955587
1082.00 0.0695317
1082.10 0.06950753
1082.20 0.06948337
1082.30 0.06945922
1082.40 0.06943508
1082.50 0.06941094
1082.60 0.06938682
1082.70 0.0693627
1082.80 0.06933858
1082.90 0.06931448
1083.00 0.06929038
1083.10 0.0692663
1083.20 0.06924221
1083.30 0.06921814
1083.40 0.06919408
1083.50 0.06917002
1083.60 0.06914597
1083.70 0.06912192
1083.80 0.06909789
1083.90 0.06907386
1084.00 0.06904994
1084.10 0.06902604
1084.20 0.06900215
1084.30 0.06897827
1084.40 0.06895439
1084.50 0.06893052
1084.60 0.06890666
1084.70 0.06888281
1084.80 0.06885896
1084.90 0.06883512
1085.00 0.06881129
1085.10 0.06878747
1085.20 0.06876365
1085.30 0.06873985
1085.40 0.06871605
1085.50 0.06869225
1085.60 0.06866847
1085.70 0.06864469
1085.80 0.06862092
1085.90 0.06859716
1086.00 0.0685734
1086.10 0.06854966
1086.20 0.06852592
1086.30 0.06850218
1086.40 0.06847846
1086.50 0.06845474
1086.60 0.06843103
1086.70 0.06840733
1086.80 0.06838364
1086.90 0.06835995
1087.00 0.06833627
1087.10 0.0683126
1087.20 0.06828894
1087.30 0.06826528
1087.40 0.06824163
1087.50 0.06821799
1087.60 0.06819436
1087.70 0.06817073
1087.80 0.06814711
1087.90 0.0681235
1088.00 0.0680999
1088.10 0.0680763
1088.20 0.06805271
1088.30 0.06802913
1088.40 0.06800556
1088.50 0.06798199
1088.60 0.06795843
1088.70 0.06793488
1088.80 0.06791134
1088.90 0.0678878
1089.00 0.06786428
1089.10 0.06784075
1089.20 0.06781724
1089.30 0.06779373
1089.40 0.06777037
1089.50 0.06774706
1089.60 0.06772377
1089.70 0.06770048
1089.80 0.0676772
1089.90 0.06765393
1090.00 0.06763066
1090.10 0.0676074
1090.20 0.06758415
1090.30 0.06756091
1090.40 0.06753767
1090.50 0.06751445
1090.60 0.06749122
1090.70 0.06746801
1090.80 0.0674448
1090.90 0.06742161
1091.00 0.06739841
1091.10 0.06737523
1091.20 0.06735205
1091.30 0.06732888
1091.40 0.06730572
1091.50 0.06728257
1091.60 0.06725942
1091.70 0.06723628
1091.80 0.06721315
1091.90 0.06719002
1092.00 0.0671669
1092.10 0.06714379
1092.20 0.06712069
1092.30 0.06709759
1092.40 0.0670745
1092.50 0.06705142
1092.60 0.06702835
1092.70 0.06700528
1092.80 0.06698222
1092.90 0.06695917
1093.00 0.06693613
1093.10 0.06691309
1093.20 0.06689006
1093.30 0.06686703
1093.40 0.06684402
1093.50 0.06682101
1093.60 0.06679801
1093.70 0.06677502
1093.80 0.06675203
1093.90 0.06672905
1094.00 0.06670608
1094.10 0.06668311
1094.20 0.06666016
1094.30 0.06663721
1094.40 0.06661426
1094.50 0.06659133
1094.60 0.0665684
1094.70 0.06654548
1094.80 0.06652267
1094.90 0.06649996
1095.00 0.06647726
1095.10 0.06645457
1095.20 0.06643189
1095.30 0.06640921
1095.40 0.06638655
1095.50 0.06636388
1095.60 0.06634123
1095.70 0.06631858
1095.80 0.06629594
1095.90 0.06627331
1096.00 0.06625068
1096.10 0.06622806
1096.20 0.06620545
1096.30 0.06618285
1096.40 0.06616025
1096.50 0.06613766
1096.60 0.06611508
1096.70 0.0660925
1096.80 0.06606993
1096.90 0.06604737
1097.00 0.06602481
1097.10 0.06600227
1097.20 0.06597973
1097.30 0.06595719
1097.40 0.06593467
1097.50 0.06591215
1097.60 0.06588964
1097.70 0.06586713
1097.80 0.06584463
1097.90 0.06582214
1098.00 0.06579966
1098.10 0.06577718
1098.20 0.06575471
1098.30 0.06573225
1098.40 0.0657098
1098.50 0.06568735
1098.60 0.06566491
1098.70 0.06564247
1098.80 0.06562005
1098.90 0.06559763
1099.00 0.06557521
1099.10 0.06555281
1099.20 0.06553041
1099.30 0.06550802
1099.40 0.06548563
1099.50 0.06546326
1099.60 0.06544089
1099.70 0.06541852
1099.80 0.06539617
1099.90 0.06537382
1100.00 0.06535148
1100.10 0.06532914
1100.20 0.06530681
1100.30 0.06528449
1100.40 0.06526218
1100.50 0.06523987
1100.60 0.06521757
1100.70 0.06519528
1100.80 0.06517299
1100.90 0.06515071
1101.00 0.06512844
1101.10 0.06510618
1101.20 0.06508392
1101.30 0.06506167
1101.40 0.06503943
1101.50 0.06501719
1101.60 0.06499496
1101.70 0.06497274
1101.80 0.06495052
1101.90 0.06492831
1102.00 0.06490611
1102.10 0.06488392
1102.20 0.06486173
1102.30 0.06483955
1102.40 0.06481737
1102.50 0.06479521
1102.60 0.06477305
1102.70 0.06475089
1102.80 0.06472875
1102.90 0.06470661
1103.00 0.06468448
1103.10 0.06466235
1103.20 0.06464023
1103.30 0.06461812
1103.40 0.06459602
1103.50 0.06457392
1103.60 0.06455183
1103.70 0.06452975
1103.80 0.06450767
1103.90 0.0644856
1104.00 0.06446354
1104.10 0.06444148
1104.20 0.06441944
1104.30 0.06439739
1104.40 0.06437536
1104.50 0.06435333
1104.60 0.06433131
1104.70 0.0643093
1104.80 0.06428729
1104.90 0.06426529
1105.00 0.0642433
1105.10 0.06422131
1105.20 0.06419933
1105.30 0.06417736
1105.40 0.06415539
1105.50 0.06413343
1105.60 0.06411148
1105.70 0.06408954
1105.80 0.06406779
1105.90 0.06404606
1106.00 0.06402432
1106.10 0.0640026
1106.20 0.06398088
1106.30 0.06395917
1106.40 0.06393747
1106.50 0.06391577
1106.60 0.06389408
1106.70 0.06387239
1106.80 0.06385072
1106.90 0.06382904
1107.00 0.06380738
1107.10 0.06378572
1107.20 0.06376407
1107.30 0.06374243
1107.40 0.06372079
1107.50 0.06369916
1107.60 0.06367754
1107.70 0.06365592
1107.80 0.06363432
1107.90 0.06361271
1108.00 0.06359112
1108.10 0.06356953
1108.20 0.06354794
1108.30 0.06352637
1108.40 0.0635048
1108.50 0.06348324
1108.60 0.06346168
1108.70 0.06344013
1108.80 0.06341859
1108.90 0.06339706
1109.00 0.06337553
1109.10 0.06335401
1109.20 0.06333249
1109.30 0.06331098
1109.40 0.06328948
1109.50 0.06326799
1109.60 0.0632465
1109.70 0.06322502
1109.80 0.06320354
1109.90 0.06318207
1110.00 0.06316061
1110.10 0.06313916
1110.20 0.06311771
1110.30 0.06309627
1110.40 0.06307483
1110.50 0.06305341
1110.60 0.06303198
1110.70 0.06301057
1110.80 0.06298916
1110.90 0.06296776
1111.00 0.06294637
1111.10 0.06292498
1111.20 0.0629036
1111.30 0.06288222
1111.40 0.06286086
1111.50 0.0628395
1111.60 0.06281814
1111.70 0.06279679
1111.80 0.06277545
1111.90 0.06275412
1112.00 0.06273279
1112.10 0.06271147
1112.20 0.06269015
1112.30 0.06266885
1112.40 0.06264755
1112.50 0.06262625
1112.60 0.06260496
1112.70 0.06258368
1112.80 0.06256241
1112.90 0.06254114
1113.00 0.06251988
1113.10 0.06249862
1113.20 0.06247738
1113.30 0.06245613
1113.40 0.0624349
1113.50 0.06241367
1113.60 0.06239245
1113.70 0.06237124
1113.80 0.06235003
1113.90 0.06232883
1114.00 0.06230763
1114.10 0.06228644
1114.20 0.06226526
1114.30 0.06224409
1114.40 0.06222292
1114.50 0.06220175
1114.60 0.0621806
1114.70 0.06215945
1114.80 0.06213831
1114.90 0.06211717
1115.00 0.06209604
1115.10 0.06207492
1115.20 0.0620538
1115.30 0.0620327
1115.40 0.06201159
1115.50 0.0619905
1115.60 0.06196941
1115.70 0.06194832
1115.80 0.06192725
1115.90 0.06190618
1116.00 0.06188511
1116.10 0.06186406
1116.20 0.06184301
1116.30 0.06182196
1116.40 0.06180093
1116.50 0.06177989
1116.60 0.06175887
1116.70 0.06173785
1116.80 0.06171689
1116.90 0.06169598
1117.00 0.06167508
1117.10 0.06165419
1117.20 0.0616333
1117.30 0.06161242
1117.40 0.06159155
1117.50 0.06157068
1117.60 0.06154982
1117.70 0.06152897
1117.80 0.06150812
1117.90 0.06148728
1118.00 0.06146645
1118.10 0.06144562
1118.20 0.0614248
1118.30 0.06140398
1118.40 0.06138318
1118.50 0.06136237
1118.60 0.06134158
1118.70 0.06132079
1118.80 0.06130001
1118.90 0.06127923
1119.00 0.06125846
1119.10 0.0612377
1119.20 0.06121694
1119.30 0.06119619
1119.40 0.06117545
1119.50 0.06115471
1119.60 0.06113398
1119.70 0.06111325
1119.80 0.06109253
1119.90 0.06107182
1120.00 0.06105112
1120.10 0.06103042
1120.20 0.06100973
1120.30 0.06098904
1120.40 0.06096836
1120.50 0.06094769
1120.60 0.06092702
1120.70 0.06090636
1120.80 0.06088571
1120.90 0.06086506
1121.00 0.06084442
1121.10 0.06082378
1121.20 0.06080315
1121.30 0.06078253
1121.40 0.06076192
1121.50 0.06074131
1121.60 0.0607207
1121.70 0.06070011
1121.80 0.06067952
1121.90 0.06065893
1122.00 0.06063836
1122.10 0.06061778
1122.20 0.06059722
1122.30 0.06057666
1122.40 0.06055632
1122.50 0.06053612
1122.60 0.06051593
1122.70 0.06049574
1122.80 0.06047556
1122.90 0.06045539
1123.00 0.06043522
1123.10 0.06041506
1123.20 0.0603949
1123.30 0.06037476
1123.40 0.06035461
1123.50 0.06033448
1123.60 0.06031435
1123.70 0.06029422
1123.80 0.0602741
1123.90 0.06025399
1124.00 0.06023389
1124.10 0.06021379
1124.20 0.06019369
1124.30 0.06017361
1124.40 0.06015353
1124.50 0.06013345
1124.60 0.06011338
1124.70 0.06009332
1124.80 0.06007326
1124.90 0.06005322
1125.00 0.06003317
1125.10 0.06001313
1125.20 0.0599931
1125.30 0.05997308
1125.40 0.05995306
1125.50 0.05993305
1125.60 0.05991304
1125.70 0.05989304
1125.80 0.05987304
1125.90 0.05985306
1126.00 0.05983307
1126.10 0.0598131
1126.20 0.05979313
1126.30 0.05977316
1126.40 0.05975321
1126.50 0.05973326
1126.60 0.05971331
1126.70 0.05969337
1126.80 0.05967344
1126.90 0.05965351
1127.00 0.05963359
1127.10 0.05961368
1127.20 0.05959377
1127.30 0.05957387
1127.40 0.05955397
1127.50 0.05953408
1127.60 0.0595142
1127.70 0.05949432
1127.80 0.05947445
1127.90 0.05945458
1128.00 0.05943473
1128.10 0.05941489
1128.20 0.05939505
1128.30 0.05937521
1128.40 0.05935539
1128.50 0.05933557
1128.60 0.05931575
1128.70 0.05929595
1128.80 0.05927614
1128.90 0.05925635
1129.00 0.05923656
1129.10 0.05921678
1129.20 0.059197
1129.30 0.05917723
1129.40 0.05915746
1129.50 0.0591377
1129.60 0.05911795
1129.70 0.0590982
1129.80 0.05907846
1129.90 0.05905873
1130.00 0.059039
1130.10 0.05901927
1130.20 0.05899956
1130.30 0.05897985
1130.40 0.05896014
1130.50 0.05894044
1130.60 0.05892075
1130.70 0.05890106
1130.80 0.05888138
1130.90 0.05886171
1131.00 0.05884204
1131.10 0.05882238
1131.20 0.05880272
1131.30 0.05878307
1131.40 0.05876343
1131.50 0.05874379
1131.60 0.05872416
1131.70 0.05870453
1131.80 0.05868491
1131.90 0.05866529
1132.00 0.05864569
1132.10 0.05862608
1132.20 0.05860649
1132.30 0.0585869
1132.40 0.05856731
1132.50 0.05854774
1132.60 0.05852816
1132.70 0.0585086
1132.80 0.05848904
1132.90 0.05846948
1133.00 0.05844993
1133.10 0.05843039
1133.20 0.05841086
1133.30 0.05839133
1133.40 0.0583718
1133.50 0.05835228
1133.60 0.05833277
1133.70 0.05831326
1133.80 0.05829376
1133.90 0.05827427
1134.00 0.05825478
1134.10 0.0582353
1134.20 0.05821582
1134.30 0.05819635
1134.40 0.05817689
1134.50 0.05815743
1134.60 0.05813798
1134.70 0.05811853
1134.80 0.05809909
1134.90 0.05807965
1135.00 0.05806022
1135.10 0.0580408
1135.20 0.05802138
1135.30 0.05800197
1135.40 0.05798257
1135.50 0.05796317
1135.60 0.05794378
1135.70 0.05792439
1135.80 0.05790501
1135.90 0.05788563
1136.00 0.05786626
1136.10 0.0578469
1136.20 0.05782754
1136.30 0.05780819
1136.40 0.05778884
1136.50 0.0577695
1136.60 0.05775017
1136.70 0.05773084
1136.80 0.05771152
1136.90 0.0576922
1137.00 0.05767289
1137.10 0.05765359
1137.20 0.05763429
1137.30 0.057615
1137.40 0.05759571
1137.50 0.05757643
1137.60 0.05755715
1137.70 0.05753789
1137.80 0.05751862
1137.90 0.05749936
1138.00 0.05748011
1138.10 0.05746087
1138.20 0.05744163
1138.30 0.05742239
1138.40 0.05740317
1138.50 0.05738394
1138.60 0.05736473
1138.70 0.05734552
1138.80 0.05732631
1138.90 0.05730711
1139.00 0.05728792
1139.10 0.05726873
1139.20 0.05724955
1139.30 0.05723063
1139.40 0.05721171
1139.50 0.05719281
1139.60 0.0571739
1139.70 0.05715501
1139.80 0.05713612
1139.90 0.05711723
1140.00 0.05709835
1140.10 0.05707948
1140.20 0.05706061
1140.30 0.05704175
1140.40 0.05702289
1140.50 0.05700404
1140.60 0.0569852
1140.70 0.05696636
1140.80 0.05694752
1140.90 0.05692869
1141.00 0.05690987
1141.10 0.05689106
1141.20 0.05687225
1141.30 0.05685344
1141.40 0.05683464
1141.50 0.05681585
1141.60 0.05679706
1141.70 0.05677828
1141.80 0.0567595
1141.90 0.05674073
1142.00 0.05672197
1142.10 0.05670321
1142.20 0.05668445
1142.30 0.05666571
1142.40 0.05664696
1142.50 0.05662823
1142.60 0.0566095
1142.70 0.05659077
1142.80 0.05657205
1142.90 0.05655334
1143.00 0.05653463
1143.10 0.05651593
1143.20 0.05649723
1143.30 0.05647854
1143.40 0.05645985
1143.50 0.05644117
1143.60 0.0564225
1143.70 0.05640383
1143.80 0.05638517
1143.90 0.05636651
1144.00 0.05634786
1144.10 0.05632922
1144.20 0.05631058
1144.30 0.05629194
1144.40 0.05627331
1144.50 0.05625469
1144.60 0.05623607
1144.70 0.05621746
1144.80 0.05619885
1144.90 0.05618025
1145.00 0.05616166
1145.10 0.05614307
1145.20 0.05612449
1145.30 0.05610591
1145.40 0.05608734
1145.50 0.05606877
1145.60 0.05605021
1145.70 0.05603165
1145.80 0.0560131
1145.90 0.05599456
1146.00 0.05597602
1146.10 0.05595749
1146.20 0.05593896
1146.30 0.05592044
1146.40 0.05590192
1146.50 0.05588341
1146.60 0.05586491
1146.70 0.05584641
1146.80 0.05582791
1146.90 0.05580943
1147.00 0.05579094
1147.10 0.05577247
1147.20 0.055754
1147.30 0.05573553
1147.40 0.05571707
1147.50 0.05569862
1147.60 0.05568017
1147.70 0.05566172
1147.80 0.05564329
1147.90 0.05562485
1148.00 0.05560643
1148.10 0.05558801
1148.20 0.05556959
1148.30 0.05555118
1148.40 0.05553278
1148.50 0.05551438
1148.60 0.05549598
1148.70 0.0554776
1148.80 0.05545921
1148.90 0.05544084
1149.00 0.05542247
1149.10 0.0554041
1149.20 0.05538574
1149.30 0.05536739
1149.40 0.05534904
1149.50 0.0553307
1149.60 0.05531236
1149.70 0.05529403
1149.80 0.0552757
1149.90 0.05525738
1150.00 0.05523906
1150.10 0.05522075
1150.20 0.05520245
1150.30 0.05518415
1150.40 0.05516586
1150.50 0.05514757
1150.60 0.05512931
1150.70 0.05511135
1150.80 0.05509341
1150.90 0.05507547
1151.00 0.05505753
1151.10 0.05503961
1151.20 0.05502168
1151.30 0.05500376
1151.40 0.05498585
1151.50 0.05496794
1151.60 0.05495004
1151.70 0.05493214
1151.80 0.05491425
1151.90 0.05489637
1152.00 0.05487849
1152.10 0.05486061
1152.20 0.05484274
1152.30 0.05482488
1152.40 0.05480702
1152.50 0.05478916
1152.60 0.05477132
1152.70 0.05475347
1152.80 0.05473564
1152.90 0.0547178
1153.00 0.05469998
1153.10 0.05468216
1153.20 0.05466434
1153.30 0.05464653
1153.40 0.05462872
1153.50 0.05461092
1153.60 0.05459313
1153.70 0.05457534
1153.80 0.05455755
1153.90 0.05453978
1154.00 0.054522
1154.10 0.05450423
1154.20 0.05448647
1154.30 0.05446871
1154.40 0.05445096
1154.50 0.05443322
1154.60 0.05441547
1154.70 0.05439774
1154.80 0.05438001
1154.90 0.05436228
1155.00 0.05434456
1155.10 0.05432685
1155.20 0.05430914
1155.30 0.05429143
1155.40 0.05427374
1155.50 0.05425604
1155.60 0.05423835
1155.70 0.05422067
1155.80 0.05420299
1155.90 0.05418532
1156.00 0.05416765
1156.10 0.05414999
1156.20 0.05413234
1156.30 0.05411469
1156.40 0.05409696
1156.50 0.05407916
1156.60 0.05406137
1156.70 0.05404358
1156.80 0.0540258
1156.90 0.05400802
1157.00 0.05399025
1157.10 0.05397249
1157.20 0.05395473
1157.30 0.05393698
1157.40 0.05391923
1157.50 0.05390148
1157.60 0.05388375
1157.70 0.05386601
1157.80 0.05384829
1157.90 0.05383056
1158.00 0.05381285
1158.10 0.05379514
1158.20 0.05377743
1158.30 0.05375973
1158.40 0.05374203
1158.50 0.05372434
1158.60 0.05370666
1158.70 0.05368898
1158.80 0.0536713
1158.90 0.05365363
1159.00 0.05363597
1159.10 0.05361831
1159.20 0.05360066
1159.30 0.05358301
1159.40 0.05356537
1159.50 0.05354773
1159.60 0.0535301
1159.70 0.05351247
1159.80 0.05349485
1159.90 0.05347724
1160.00 0.05345962
1160.10 0.05344202
1160.20 0.05342442
1160.30 0.05340682
1160.40 0.05338923
1160.50 0.05337165
1160.60 0.05335407
1160.70 0.0533365
1160.80 0.05331893
1160.90 0.05330136
1161.00 0.05328381
1161.10 0.05326625
1161.20 0.0532487
1161.30 0.05323116
1161.40 0.05321363
1161.50 0.05319609
1161.60 0.05317857
1161.70 0.05316105
1161.80 0.05314353
1161.90 0.05312602
1162.00 0.05310851
1162.10 0.05309101
1162.20 0.05307375
1162.30 0.0530565
1162.40 0.05303925
1162.50 0.05302201
1162.60 0.05300477
1162.70 0.05298754
1162.80 0.05297031
1162.90 0.05295309
1163.00 0.05293587
1163.10 0.05291866
1163.20 0.05290145
1163.30 0.05288425
1163.40 0.05286705
1163.50 0.05284986
1163.60 0.05283268
1163.70 0.05281549
1163.80 0.05279832
1163.90 0.05278115
1164.00 0.05276398
1164.10 0.05274682
1164.20 0.05272966
1164.30 0.05271251
1164.40 0.05269537
1164.50 0.05267823
1164.60 0.05266109
1164.70 0.05264396
1164.80 0.05262684
1164.90 0.05260972
1165.00 0.0525926
1165.10 0.05257549
1165.20 0.05255839
1165.30 0.05254129
1165.40 0.05252419
1165.50 0.0525071
1165.60 0.05249002
1165.70 0.05247294
1165.80 0.05245587
1165.90 0.0524388
1166.00 0.05242173
1166.10 0.05240468
1166.20 0.05238762
1166.30 0.05237057
1166.40 0.05235353
1166.50 0.05233649
1166.60 0.05231946
1166.70 0.05230243
1166.80 0.05228541
1166.90 0.05226839
1167.00 0.05225137
1167.10 0.05223437
1167.20 0.05221736
1167.30 0.05220036
1167.40 0.05218337
1167.50 0.05216638
1167.60 0.0521494
1167.70 0.05213242
1167.80 0.05211545
1167.90 0.05209848
1168.00 0.05208166
1168.10 0.05206486
1168.20 0.05204806
1168.30 0.05203127
1168.40 0.05201448
1168.50 0.0519977
1168.60 0.05198093
1168.70 0.05196415
1168.80 0.05194739
1168.90 0.05193062
1169.00 0.05191387
1169.10 0.05189712
1169.20 0.05188037
1169.30 0.05186363
1169.40 0.05184689
1169.50 0.05183016
1169.60 0.05181343
1169.70 0.05179671
1169.80 0.05177999
1169.90 0.05176328
1170.00 0.05174657
1170.10 0.05172987
1170.20 0.05171317
1170.30 0.05169648
1170.40 0.05167979
1170.50 0.05166311
1170.60 0.05164643
1170.70 0.05162976
1170.80 0.05161309
1170.90 0.05159643
1171.00 0.05157977
1171.10 0.05156312
1171.20 0.05154647
1171.30 0.05152983
1171.40 0.05151319
1171.50 0.05149656
1171.60 0.05147993
1171.70 0.05146331
1171.80 0.05144669
1171.90 0.05143008
1172.00 0.05141347
1172.10 0.05139686
1172.20 0.05138027
1172.30 0.05136367
1172.40 0.05134708
1172.50 0.0513305
1172.60 0.05131392
1172.70 0.05129735
1172.80 0.05128078
1172.90 0.05126421
1173.00 0.05124765
1173.10 0.0512311
1173.20 0.05121455
1173.30 0.05119801
1173.40 0.05118147
1173.50 0.05116493
1173.60 0.0511484
1173.70 0.05113188
1173.80 0.05111554
1173.90 0.05109925
1174.00 0.05108296
1174.10 0.05106669
1174.20 0.05105041
1174.30 0.05103414
1174.40 0.05101788
1174.50 0.05100162
1174.60 0.05098537
1174.70 0.05096912
1174.80 0.05095287
1174.90 0.05093663
1175.00 0.0509204
1175.10 0.05090417
1175.20 0.05088794
1175.30 0.05087172
1175.40 0.05085551
1175.50 0.05083929
1175.60 0.05082309
1175.70 0.05080689
1175.80 0.05079069
1175.90 0.0507745
1176.00 0.05075831
1176.10 0.05074213
1176.20 0.05072595
1176.30 0.05070978
1176.40 0.05069361
1176.50 0.05067745
1176.60 0.05066129
1176.70 0.05064513
1176.80 0.05062898
1176.90 0.05061284
1177.00 0.0505967
1177.10 0.05058057
1177.20 0.05056444
1177.30 0.05054831
1177.40 0.05053219
1177.50 0.05051607
1177.60 0.05049996
1177.70 0.05048386
1177.80 0.05046775
1177.90 0.05045166
1178.00 0.05043556
1178.10 0.05041948
1178.20 0.05040339
1178.30 0.05038732
1178.40 0.05037124
1178.50 0.05035518
1178.60 0.05033911
1178.70 0.05032305
1178.80 0.050307
1178.90 0.05029095
1179.00 0.0502749
1179.10 0.05025886
1179.20 0.05024283
1179.30 0.0502268
1179.40 0.05021077
1179.50 0.05019475
1179.60 0.05017872
1179.70 0.05016256
1179.80 0.0501464
1179.90 0.05013025
1180.00 0.0501141
1180.10 0.05009796
1180.20 0.05008182
1180.30 0.05006569
1180.40 0.05004956
1180.50 0.05003344
1180.60 0.05001732
1180.70 0.05000121
1180.80 0.0499851
1180.90 0.049969
1181.00 0.0499529
1181.10 0.04993681
1181.20 0.04992072
1181.30 0.04990463
1181.40 0.04988855
1181.50 0.04987248
1181.60 0.04985641
1181.70 0.04984034
1181.80 0.04982428
1181.90 0.04980822
1182.00 0.04979217
1182.10 0.04977612
1182.20 0.04976008
1182.30 0.04974404
1182.40 0.04972801
1182.50 0.04971198
1182.60 0.04969596
1182.70 0.04967994
1182.80 0.04966393
1182.90 0.04964792
1183.00 0.04963191
1183.10 0.04961591
1183.20 0.04959992
1183.30 0.04958393
1183.40 0.04956794
1183.50 0.04955196
1183.60 0.04953598
1183.70 0.04952001
1183.80 0.04950404
1183.90 0.04948808
1184.00 0.04947212
1184.10 0.04945617
1184.20 0.04944022
1184.30 0.04942428
1184.40 0.04940834
1184.50 0.04939241
1184.60 0.04937648
1184.70 0.04936055
1184.80 0.04934463
1184.90 0.04932872
1185.00 0.04931281
1185.10 0.0492969
1185.20 0.049281
1185.30 0.0492651
1185.40 0.04924921
1185.50 0.04923341
1185.60 0.04921775
1185.70 0.0492021
1185.80 0.04918644
1185.90 0.0491708
1186.00 0.04915515
1186.10 0.04913951
1186.20 0.04912388
1186.30 0.04910825
1186.40 0.04909262
1186.50 0.049077
1186.60 0.04906139
1186.70 0.04904578
1186.80 0.04903017
1186.90 0.04901457
1187.00 0.04899897
1187.10 0.04898338
1187.20 0.04896779
1187.30 0.04895221
1187.40 0.04893663
1187.50 0.04892105
1187.60 0.04890548
1187.70 0.04888991
1187.80 0.04887435
1187.90 0.0488588
1188.00 0.04884325
1188.10 0.0488277
1188.20 0.04881215
1188.30 0.04879662
1188.40 0.04878108
1188.50 0.04876555
1188.60 0.04875003
1188.70 0.04873451
1188.80 0.04871899
1188.90 0.04870348
1189.00 0.04868797
1189.10 0.04867247
1189.20 0.04865697
1189.30 0.04864148
1189.40 0.04862599
1189.50 0.04861051
1189.60 0.04859503
1189.70 0.04857955
1189.80 0.04856408
1189.90 0.04854862
1190.00 0.04853316
1190.10 0.0485177
1190.20 0.04850225
1190.30 0.0484868
1190.40 0.04847135
1190.50 0.04845592
1190.60 0.04844048
1190.70 0.04842505
1190.80 0.04840963
1190.90 0.0483942
1191.00 0.04837879
1191.10 0.04836338
1191.20 0.04834797
1191.30 0.04833257
1191.40 0.04831717
1191.50 0.04830177
1191.60 0.04828638
1191.70 0.048271
1191.80 0.04825562
1191.90 0.04824024
1192.00 0.04822487
1192.10 0.0482095
1192.20 0.04819414
1192.30 0.04817878
1192.40 0.04816343
1192.50 0.04814808
1192.60 0.04813273
1192.70 0.04811739
1192.80 0.04810206
1192.90 0.04808673
1193.00 0.0480714
1193.10 0.04805608
1193.20 0.04804076
1193.30 0.04802545
1193.40 0.04801014
1193.50 0.04799483
1193.60 0.04797953
1193.70 0.04796424
1193.80 0.04794895
1193.90 0.04793366
1194.00 0.04791838
1194.10 0.0479031
1194.20 0.04788783
1194.30 0.04787256
1194.40 0.04785729
1194.50 0.04784203
1194.60 0.04782678
1194.70 0.04781152
1194.80 0.04779628
1194.90 0.04778104
1195.00 0.0477658
1195.10 0.04775056
1195.20 0.04773533
1195.30 0.04772011
1195.40 0.04770489
1195.50 0.04768967
1195.60 0.04767446
1195.70 0.04765926
1195.80 0.04764405
1195.90 0.04762886
1196.00 0.04761366
1196.10 0.04759847
1196.20 0.04758329
1196.30 0.04756811
1196.40 0.04755293
1196.50 0.04753776
1196.60 0.04752259
1196.70 0.04750743
1196.80 0.04749227
1196.90 0.04747712
1197.00 0.04746197
1197.10 0.04744682
1197.20 0.04743168
1197.30 0.04741654
1197.40 0.04740148
1197.50 0.04738642
1197.60 0.04737137
1197.70 0.04735632
1197.80 0.04734128
1197.90 0.04732624
1198.00 0.04731121
1198.10 0.04729618
1198.20 0.04728116
1198.30 0.04726613
1198.40 0.04725112
1198.50 0.04723611
1198.60 0.0472211
1198.70 0.0472061
1198.80 0.0471911
1198.90 0.0471761
1199.00 0.04716111
1199.10 0.04714613
1199.20 0.04713115
1199.30 0.04711617
1199.40 0.0471012
1199.50 0.04708623
1199.60 0.04707126
1199.70 0.0470563
1199.80 0.04704135
1199.90 0.0470264
1200.00 0.04701145
