# Version 2.1 - nm, norm@500 to 1, cut digits, bergeron_He_18000_75.dat_18000
# Wavelength(nm)  Flambda(ergs/cm^s/s/nm)
300.00 3.732836
300.10 3.730427
300.20 3.727942
300.30 3.725409
300.40 3.722544
300.50 3.719682
300.60 3.716822
300.70 3.713966
300.80 3.711113
300.90 3.708263
301.00 3.705415
301.10 3.702571
301.20 3.699729
301.30 3.696891
301.40 3.694055
301.50 3.691223
301.60 3.688393
301.70 3.685567
301.80 3.682743
301.90 3.679922
302.00 3.677104
302.10 3.67417
302.20 3.671227
302.30 3.668286
302.40 3.665348
302.50 3.662414
302.60 3.659483
302.70 3.656554
302.80 3.653629
302.90 3.650707
303.00 3.647788
303.10 3.644872
303.20 3.641959
303.30 3.639046
303.40 3.636114
303.50 3.633185
303.60 3.630259
303.70 3.627337
303.80 3.624417
303.90 3.6215
304.00 3.618587
304.10 3.615676
304.20 3.612769
304.30 3.609864
304.40 3.606963
304.50 3.604065
304.60 3.601085
304.70 3.598098
304.80 3.595115
304.90 3.592136
305.00 3.589159
305.10 3.586185
305.20 3.583215
305.30 3.580247
305.40 3.577283
305.50 3.574322
305.60 3.571364
305.70 3.568409
305.80 3.565457
305.90 3.562508
306.00 3.559562
306.10 3.55662
306.20 3.55368
306.30 3.550744
306.40 3.547834
306.50 3.544934
306.60 3.542036
306.70 3.539142
306.80 3.536251
306.90 3.533363
307.00 3.530478
307.10 3.527596
307.20 3.524717
307.30 3.521841
307.40 3.518968
307.50 3.516098
307.60 3.513231
307.70 3.510367
307.80 3.507506
307.90 3.504648
308.00 3.501792
308.10 3.49894
308.20 3.496091
308.30 3.493245
308.40 3.490401
308.50 3.487561
308.60 3.484724
308.70 3.481889
308.80 3.478884
308.90 3.475386
309.00 3.472491
309.10 3.469599
309.20 3.466711
309.30 3.463825
309.40 3.460942
309.50 3.458059
309.60 3.455178
309.70 3.4523
309.80 3.449426
309.90 3.446554
310.00 3.443686
310.10 3.44082
310.20 3.437957
310.30 3.435098
310.40 3.432141
310.50 3.42908
310.60 3.426023
310.70 3.422968
310.80 3.419917
310.90 3.416869
311.00 3.413844
311.10 3.410822
311.20 3.407803
311.30 3.404781
311.40 3.401742
311.50 3.398706
311.60 3.395674
311.70 3.392645
311.80 3.389619
311.90 3.386596
312.00 3.383576
312.10 3.38056
312.20 3.377716
312.30 3.37487
312.40 3.371858
312.50 3.369453
312.60 3.366061
312.70 3.362673
312.80 3.359289
312.90 3.356152
313.00 3.353284
313.10 3.350418
313.20 3.347555
313.30 3.344555
313.40 3.341161
313.50 3.33777
313.60 3.334383
313.70 3.331
313.80 3.32762
313.90 3.324244
314.00 3.320872
314.10 3.316992
314.20 3.313117
314.30 3.309246
314.40 3.305379
314.50 3.301516
314.60 3.297658
314.70 3.293804
314.80 3.289908
314.90 3.285832
315.00 3.281706
315.10 3.276606
315.20 3.271512
315.30 3.266424
315.40 3.261342
315.50 3.256265
315.60 3.251194
315.70 3.245378
315.80 3.239568
315.90 3.233765
316.00 3.227969
316.10 3.222929
316.20 3.217894
316.30 3.218854
316.40 3.218316
316.50 3.203573
316.60 3.167928
316.70 3.148754
316.80 3.129603
316.90 3.127629
317.00 3.125656
317.10 3.123684
317.20 3.121715
317.30 3.132573
317.40 3.139721
317.50 3.136349
317.60 3.13298
317.70 3.129614
317.80 3.126252
317.90 3.104784
318.00 3.07622
318.10 3.028028
318.20 2.979897
318.30 2.931825
318.40 2.860092
318.50 2.720979
318.60 2.552499
318.70 2.143223
318.80 1.587232
318.90 2.166457
319.00 2.429144
319.10 2.587959
319.20 2.722204
319.30 2.78696
319.40 2.851634
319.50 2.916228
319.60 2.964454
319.70 2.988575
319.80 3.012665
319.90 3.036725
320.00 3.055681
320.10 3.069121
320.20 3.081377
320.30 3.089905
320.40 3.097606
320.50 3.102089
320.60 3.106391
320.70 3.109552
320.80 3.111834
320.90 3.113168
321.00 3.114499
321.10 3.115828
321.20 3.117365
321.30 3.11668
321.40 3.115995
321.50 3.115311
321.60 3.114626
321.70 3.113942
321.80 3.113127
321.90 3.11217
322.00 3.110517
322.10 3.109125
322.20 3.107734
322.30 3.106344
322.40 3.104955
322.50 3.103567
322.60 3.10218
322.70 3.100794
322.80 3.099152
322.90 3.097233
323.00 3.095316
323.10 3.0934
323.20 3.091486
323.30 3.089574
323.40 3.087663
323.50 3.085755
323.60 3.083848
323.70 3.081943
323.80 3.080039
323.90 3.078138
324.00 3.075857
324.10 3.073578
324.20 3.071301
324.30 3.069125
324.40 3.067066
324.50 3.064827
324.60 3.062591
324.70 3.060356
324.80 3.058124
324.90 3.055894
325.00 3.053666
325.10 3.051441
325.20 3.04917
325.30 3.046803
325.40 3.044437
325.50 3.042136
325.60 3.039912
325.70 3.03769
325.80 3.03547
325.90 3.033262
326.00 3.031067
326.10 3.028875
326.20 3.026685
326.30 3.024583
326.40 3.02273
326.50 3.020492
326.60 3.018256
326.70 3.016021
326.80 3.01379
326.90 3.01156
327.00 3.009332
327.10 3.007107
327.20 3.004884
327.30 3.002663
327.40 3.000444
327.50 2.998227
327.60 2.996012
327.70 2.9938
327.80 2.99159
327.90 2.988916
328.00 2.985676
328.10 2.982357
328.20 2.979041
328.30 2.975729
328.40 2.97242
328.50 2.970327
328.60 2.968519
328.70 2.966713
328.80 2.964878
328.90 2.962959
329.00 2.961041
329.10 2.959124
329.20 2.95721
329.30 2.955297
329.40 2.953386
329.50 2.951477
329.60 2.949569
329.70 2.947664
329.80 2.94576
329.90 2.943858
330.00 2.941698
330.10 2.939223
330.20 2.936751
330.30 2.934282
330.40 2.931967
330.50 2.92982
330.60 2.927675
330.70 2.925533
330.80 2.923392
330.90 2.921253
331.00 2.919116
331.10 2.916982
331.20 2.914849
331.30 2.912719
331.40 2.91059
331.50 2.908384
331.60 2.906083
331.70 2.903785
331.80 2.901336
331.90 2.898883
332.00 2.896433
332.10 2.893986
332.20 2.89154
332.30 2.889097
332.40 2.886657
332.50 2.884219
332.60 2.881783
332.70 2.87935
332.80 2.876919
332.90 2.874491
333.00 2.872065
333.10 2.869348
333.20 2.866277
333.30 2.863209
333.40 2.860144
333.50 2.857083
333.60 2.854024
333.70 2.850969
333.80 2.847917
333.90 2.844868
334.00 2.841822
334.10 2.838276
334.20 2.834119
334.30 2.829966
334.40 2.825818
334.50 2.821675
334.60 2.817536
334.70 2.812769
334.80 2.806305
334.90 2.798513
335.00 2.790729
335.10 2.781512
335.20 2.771854
335.30 2.761308
335.40 2.749176
335.50 2.759181
335.60 2.766514
335.70 2.772541
335.80 2.776868
335.90 2.779994
336.00 2.781656
336.10 2.783316
336.20 2.784973
336.30 2.785436
336.40 2.784442
336.50 2.783449
336.60 2.782456
336.70 2.781464
336.80 2.780473
336.90 2.77948
337.00 2.778483
337.10 2.777488
337.20 2.776493
337.30 2.775231
337.40 2.773586
337.50 2.771943
337.60 2.770301
337.70 2.76866
337.80 2.767021
337.90 2.765384
338.00 2.763748
338.10 2.762113
338.20 2.76048
338.30 2.758848
338.40 2.757133
338.50 2.755209
338.60 2.753288
338.70 2.751368
338.80 2.749451
338.90 2.747534
339.00 2.74562
339.10 2.743708
339.20 2.741797
339.30 2.739736
339.40 2.737458
339.50 2.735212
339.60 2.733004
339.70 2.730798
339.80 2.728594
339.90 2.726392
340.00 2.724193
340.10 2.721995
340.20 2.719799
340.30 2.717606
340.40 2.715415
340.50 2.713226
340.60 2.711039
340.70 2.708854
340.80 2.706644
340.90 2.704399
341.00 2.702089
341.10 2.699701
341.20 2.697314
341.30 2.69493
341.40 2.692549
341.50 2.690169
341.60 2.687792
341.70 2.685417
341.80 2.682863
341.90 2.680087
342.00 2.677315
342.10 2.674546
342.20 2.67138
342.30 2.667709
342.40 2.664363
342.50 2.661094
342.60 2.657827
342.70 2.654565
342.80 2.651305
342.90 2.648049
343.00 2.644289
343.10 2.639913
343.20 2.635542
343.30 2.631176
343.40 2.626238
343.50 2.620478
343.60 2.614724
343.70 2.608976
343.80 2.603235
343.90 2.597499
344.00 2.589608
344.10 2.578616
344.20 2.567635
344.30 2.556668
344.40 2.540794
344.50 2.517864
344.60 2.492021
344.70 2.450835
344.80 2.486012
344.90 2.509848
345.00 2.532052
345.10 2.543161
345.20 2.552238
345.30 2.558399
345.40 2.564553
345.50 2.568894
345.60 2.570656
345.70 2.571884
345.80 2.573111
345.90 2.574336
346.00 2.575559
346.10 2.57678
346.20 2.577094
346.30 2.576106
346.40 2.575118
346.50 2.574131
346.60 2.573144
346.70 2.572159
346.80 2.571174
346.90 2.570189
347.00 2.569206
347.10 2.568223
347.20 2.567037
347.30 2.565559
347.40 2.564082
347.50 2.562606
347.60 2.561132
347.70 2.559659
347.80 2.558188
347.90 2.556717
348.00 2.555248
348.10 2.55378
348.20 2.552313
348.30 2.550848
348.40 2.549384
348.50 2.547921
348.60 2.546459
348.70 2.544999
348.80 2.543506
348.90 2.541967
349.00 2.540428
349.10 2.538891
349.20 2.537355
349.30 2.535821
349.40 2.534288
349.50 2.532756
349.60 2.531225
349.70 2.529696
349.80 2.528168
349.90 2.526642
350.00 2.525117
350.10 2.523593
350.20 2.522071
350.30 2.520538
350.40 2.518989
350.50 2.517441
350.60 2.515895
350.70 2.51435
350.80 2.512807
350.90 2.511265
351.00 2.509724
351.10 2.508185
351.20 2.506647
351.30 2.50511
351.40 2.503614
351.50 2.50219
351.60 2.500767
351.70 2.499345
351.80 2.497924
351.90 2.496505
352.00 2.495086
352.10 2.493669
352.20 2.492253
352.30 2.490881
352.40 2.489572
352.50 2.488263
352.60 2.486956
352.70 2.48565
352.80 2.484344
352.90 2.48304
353.00 2.481737
353.10 2.480435
353.20 2.479134
353.30 2.477834
353.40 2.476535
353.50 2.475155
353.60 2.473755
353.70 2.472357
353.80 2.470959
353.90 2.469659
354.00 2.468531
354.10 2.467404
354.20 2.466278
354.30 2.465153
354.40 2.464028
354.50 2.462905
354.60 2.461782
354.70 2.46066
354.80 2.459541
354.90 2.458424
355.00 2.457309
355.10 2.456195
355.20 2.455081
355.30 2.453975
355.40 2.452869
355.50 2.451764
355.60 2.45066
355.70 2.449368
355.80 2.447991
355.90 2.446616
356.00 2.445438
356.10 2.44431
356.20 2.443183
356.30 2.442057
356.40 2.440931
356.50 2.439807
356.60 2.438684
356.70 2.437561
356.80 2.436439
356.90 2.435318
357.00 2.434199
357.10 2.433079
357.20 2.431961
357.30 2.430844
357.40 2.42964
357.50 2.428281
357.60 2.426923
357.70 2.425566
357.80 2.42421
357.90 2.422856
358.00 2.421144
358.10 2.419345
358.20 2.417547
358.30 2.41575
358.40 2.413956
358.50 2.412163
358.60 2.410371
358.70 2.408582
358.80 2.406793
358.90 2.405007
359.00 2.402819
359.10 2.399919
359.20 2.39703
359.30 2.394202
359.40 2.391377
359.50 2.387761
359.60 2.383951
359.70 2.380145
359.80 2.37444
359.90 2.36874
360.00 2.361833
360.10 2.352778
360.20 2.343733
360.30 2.334697
360.40 2.325671
360.50 2.316654
360.60 2.299765
360.70 2.277767
360.80 2.255794
360.90 2.233845
361.00 2.206806
361.10 2.157129
361.20 2.094067
361.30 1.960724
361.40 2.075351
361.50 2.182515
361.60 2.219797
361.70 2.224295
361.80 2.23075
361.90 2.240685
362.00 2.250609
362.10 2.25604
362.20 2.257445
362.30 2.253697
362.40 2.249952
362.50 2.246211
362.60 2.242474
362.70 2.235678
362.80 2.226986
362.90 2.212745
363.00 2.198519
363.10 2.180743
363.20 2.162952
363.30 2.147096
363.40 2.141662
363.50 2.15607
363.60 2.182642
363.70 2.201635
363.80 2.215892
363.90 2.225715
364.00 2.235528
364.10 2.24533
364.20 2.25512
364.30 2.265115
364.40 2.275152
364.50 2.282994
364.60 2.288854
364.70 2.294707
364.80 2.300554
364.90 2.30323
365.00 2.305904
365.10 2.304079
365.20 2.295517
365.30 2.291455
365.40 2.299736
365.50 2.306887
365.60 2.31403
365.70 2.318364
365.80 2.322694
365.90 2.325526
366.00 2.327983
366.10 2.328908
366.20 2.329832
366.30 2.330754
366.40 2.331675
366.50 2.331659
366.60 2.331514
366.70 2.330664
366.80 2.329815
366.90 2.328455
367.00 2.326186
367.10 2.323919
367.20 2.321655
367.30 2.319392
367.40 2.317132
367.50 2.3137
367.60 2.309978
367.70 2.304932
367.80 2.299891
367.90 2.294855
368.00 2.289475
368.10 2.283851
368.20 2.275402
368.30 2.26693
368.40 2.258467
368.50 2.250014
368.60 2.241569
368.70 2.233132
368.80 2.224705
368.90 2.215345
369.00 2.203915
369.10 2.192395
369.20 2.180115
369.30 2.164658
369.40 2.149216
369.50 2.133791
369.60 2.113544
369.70 2.093318
369.80 2.066499
369.90 2.039642
370.00 2.012813
370.10 1.982899
370.20 1.938725
370.30 1.894531
370.40 1.847197
370.50 1.824077
370.60 1.876203
370.70 1.937973
370.80 1.980287
370.90 2.022554
371.00 2.037597
371.10 2.052349
371.20 2.065845
371.30 2.079327
371.40 2.094235
371.50 2.107052
371.60 2.119856
371.70 2.132646
371.80 2.145421
371.90 2.158182
372.00 2.169067
372.10 2.17872
372.20 2.185117
372.30 2.191508
372.40 2.197892
372.50 2.204268
372.60 2.210637
372.70 2.216999
372.80 2.220099
372.90 2.223196
373.00 2.22526
373.10 2.227312
373.20 2.222892
373.30 2.218477
373.40 2.177004
373.50 2.166175
373.60 2.188624
373.70 2.207295
373.80 2.219279
373.90 2.230648
374.00 2.236148
374.10 2.241642
374.20 2.247129
374.30 2.25261
374.40 2.255414
374.50 2.258697
374.60 2.260721
374.70 2.262723
374.80 2.264723
374.90 2.26672
375.00 2.267286
375.10 2.267852
375.20 2.268416
375.30 2.267967
375.40 2.267518
375.50 2.267069
375.60 2.266621
375.70 2.266172
375.80 2.265724
375.90 2.265276
376.00 2.264071
376.10 2.262639
376.20 2.261206
376.30 2.259773
376.40 2.258343
376.50 2.256568
376.60 2.254277
376.70 2.251988
376.80 2.24951
376.90 2.246841
377.00 2.244176
377.10 2.241513
377.20 2.238679
377.30 2.235198
377.40 2.23172
377.50 2.228246
377.60 2.223641
377.70 2.219039
377.80 2.214443
377.90 2.209851
378.00 2.205608
378.10 2.199254
378.20 2.192879
378.30 2.186511
378.40 2.18015
378.50 2.173795
378.60 2.167446
378.70 2.161103
378.80 2.154767
378.90 2.147821
379.00 2.139736
379.10 2.131103
379.20 2.122479
379.30 2.113079
379.40 2.102902
379.50 2.092736
379.60 2.082358
379.70 2.070755
379.80 2.055769
379.90 2.040799
380.00 2.025844
380.10 2.010905
380.20 1.995981
380.30 1.981072
380.40 1.966179
380.50 1.951302
380.60 1.929458
380.70 1.905191
380.80 1.88095
380.90 1.856734
381.00 1.832543
381.10 1.802576
381.20 1.770493
381.30 1.73546
381.40 1.693471
381.50 1.644557
381.60 1.589655
381.70 1.525141
381.80 1.460103
381.90 1.397719
382.00 1.349771
382.10 1.463453
382.20 1.561021
382.30 1.638091
382.40 1.701422
382.50 1.744208
382.60 1.78695
382.70 1.821033
382.80 1.837492
382.90 1.846058
383.00 1.854614
383.10 1.863162
383.20 1.873135
383.30 1.888492
383.40 1.903417
383.50 1.917701
383.60 1.932001
383.70 1.942656
383.80 1.953299
383.90 1.963931
384.00 1.974552
384.10 1.985161
384.20 1.995759
384.30 2.006346
384.40 2.015246
384.50 2.022464
384.60 2.029674
384.70 2.036876
384.80 2.043819
384.90 2.049316
385.00 2.05389
385.10 2.058456
385.20 2.062232
385.30 2.065259
385.40 2.067528
385.50 2.06904
385.60 2.07055
385.70 2.072058
385.80 2.073517
385.90 2.074795
386.00 2.075252
386.10 2.074547
386.20 2.070371
386.30 2.066198
386.40 2.059614
386.50 2.047118
386.60 2.02637
386.70 1.969981
386.80 1.806029
386.90 1.89465
387.00 1.93895
387.10 1.961339
387.20 1.977106
387.30 1.988196
387.40 1.996607
387.50 2.001783
387.60 2.004541
387.70 2.001515
387.80 1.99849
387.90 1.995469
388.00 1.990196
388.10 1.975257
388.20 1.946673
388.30 1.909088
388.40 1.871542
388.50 1.819708
388.60 1.73339
388.70 1.596169
388.80 1.315975
388.90 1.167056
389.00 1.464192
389.10 1.624704
389.20 1.726215
389.30 1.797581
389.40 1.849847
389.50 1.895064
389.60 1.928285
389.70 1.951508
389.80 1.966434
389.90 1.981344
390.00 1.996238
390.10 2.011117
390.20 2.02598
390.30 2.036337
390.40 2.041622
390.50 2.0469
390.60 2.052174
390.70 2.057441
390.80 2.061208
390.90 2.063476
391.00 2.065791
391.10 2.066636
391.20 2.067358
391.30 2.066773
391.40 2.065228
391.50 2.063684
391.60 2.062142
391.70 2.060601
391.80 2.059062
391.90 2.057324
392.00 2.054884
392.10 2.051727
392.20 2.048466
392.30 2.044117
392.40 2.039814
392.50 2.036542
392.60 2.031618
392.70 2.027038
392.80 2.026977
392.90 2.02915
393.00 2.031728
393.10 2.033598
393.20 2.034655
393.30 2.035557
393.40 2.036525
393.50 2.036216
393.60 2.033997
393.70 2.032215
393.80 2.032149
393.90 2.031117
394.00 2.029946
394.10 2.027402
394.20 2.024905
394.30 2.021888
394.40 2.017949
394.50 2.013394
394.60 2.007
394.70 2.000258
394.80 1.992192
394.90 1.984069
395.00 1.973865
395.10 1.963233
395.20 1.949989
395.30 1.936201
395.40 1.922427
395.50 1.902374
395.60 1.880014
395.70 1.853949
395.80 1.817834
395.90 1.781756
396.00 1.744054
396.10 1.681267
396.20 1.595973
396.30 1.49686
396.40 1.291139
396.50 1.383916
396.60 1.663075
396.70 1.739719
396.80 1.735969
396.90 1.722508
397.00 1.762886
397.10 1.838778
397.20 1.872189
397.30 1.872455
397.40 1.875986
397.50 1.879514
397.60 1.883059
397.70 1.886814
397.80 1.890564
397.90 1.89359
398.00 1.894665
398.10 1.895738
398.20 1.895677
398.30 1.894339
398.40 1.892947
398.50 1.889821
398.60 1.886805
398.70 1.882069
398.80 1.876897
398.90 1.871501
399.00 1.865684
399.10 1.858447
399.20 1.850187
399.30 1.841934
399.40 1.83369
399.50 1.825454
399.60 1.815281
399.70 1.804398
399.80 1.793527
399.90 1.782666
400.00 1.771748
400.10 1.758626
400.20 1.745079
400.30 1.729595
400.40 1.71396
400.50 1.698591
400.60 1.680472
400.70 1.662375
400.80 1.642506
400.90 1.616839
401.00 1.598136
401.10 1.588029
401.20 1.577421
401.30 1.564899
401.40 1.547263
401.50 1.527909
401.60 1.508317
401.70 1.480434
401.80 1.449799
401.90 1.412833
402.00 1.37311
402.10 1.324735
402.20 1.270413
402.30 1.207642
402.40 1.141724
402.50 1.079872
402.60 1.019418
402.70 1.042778
402.80 1.123499
402.90 1.204325
403.00 1.283503
403.10 1.349512
403.20 1.403684
403.30 1.44974
403.40 1.49126
403.50 1.525748
403.60 1.558401
403.70 1.586297
403.80 1.610006
403.90 1.629554
404.00 1.64781
404.10 1.660206
404.20 1.667636
404.30 1.675058
404.40 1.672648
404.50 1.649143
404.60 1.636891
404.70 1.647057
404.80 1.660353
404.90 1.672838
405.00 1.684267
405.10 1.694918
405.20 1.705485
405.30 1.716041
405.40 1.724764
405.50 1.733478
405.60 1.742183
405.70 1.75088
405.80 1.759567
405.90 1.768246
406.00 1.774506
406.10 1.780759
406.20 1.787006
406.30 1.793246
406.40 1.799448
406.50 1.805421
406.60 1.810181
406.70 1.814441
406.80 1.818852
406.90 1.823916
407.00 1.826998
407.10 1.830077
407.20 1.833153
407.30 1.836226
407.40 1.839295
407.50 1.842362
407.60 1.845424
407.70 1.848484
407.80 1.851541
407.90 1.854549
408.00 1.856098
408.10 1.857604
408.20 1.859018
408.30 1.860449
408.40 1.861878
408.50 1.863393
408.60 1.864033
408.70 1.864672
408.80 1.865254
408.90 1.86533
409.00 1.865278
409.10 1.865225
409.20 1.865172
409.30 1.865118
409.40 1.865049
409.50 1.864454
409.60 1.863859
409.70 1.863201
409.80 1.862292
409.90 1.861358
410.00 1.859585
410.10 1.857936
410.20 1.856047
410.30 1.8541
410.40 1.851913
410.50 1.848964
410.60 1.846018
410.70 1.842692
410.80 1.837842
410.90 1.832997
411.00 1.826638
411.10 1.819724
411.20 1.812816
411.30 1.805454
411.40 1.796093
411.50 1.781468
411.60 1.766856
411.70 1.748821
411.80 1.717057
411.90 1.680028
412.00 1.589207
412.10 1.269823
412.20 1.387554
412.30 1.484121
412.40 1.545975
412.50 1.584351
412.60 1.613749
412.70 1.633232
412.80 1.650226
412.90 1.66605
413.00 1.673181
413.10 1.673764
413.20 1.674347
413.30 1.674928
413.40 1.675509
413.50 1.675081
413.60 1.669555
413.70 1.660653
413.80 1.651759
413.90 1.642873
414.00 1.633
414.10 1.619983
414.20 1.604149
414.30 1.569866
414.40 1.540325
414.50 1.55172
414.60 1.577703
414.70 1.600893
414.80 1.622076
414.90 1.636956
415.00 1.651822
415.10 1.666673
415.20 1.680095
415.30 1.689025
415.40 1.697947
415.50 1.70681
415.60 1.71407
415.70 1.721323
415.80 1.728204
415.90 1.733925
416.00 1.739639
416.10 1.744869
416.20 1.748178
416.30 1.751483
416.40 1.754786
416.50 1.758012
416.60 1.758894
416.70 1.759723
416.80 1.757007
416.90 1.738634
417.00 1.736612
417.10 1.748834
417.20 1.75574
417.30 1.762554
417.40 1.76657
417.50 1.770582
417.60 1.774206
417.70 1.776285
417.80 1.778152
417.90 1.780017
418.00 1.78188
418.10 1.783741
418.20 1.7856
418.30 1.787441
418.40 1.788635
418.50 1.789451
418.60 1.790267
418.70 1.791082
418.80 1.791896
418.90 1.792708
419.00 1.79352
419.10 1.794331
419.20 1.795141
419.30 1.795927
419.40 1.795973
419.50 1.796019
419.60 1.796
419.70 1.795719
419.80 1.795437
419.90 1.795138
420.00 1.794783
420.10 1.794427
420.20 1.794072
420.30 1.793716
420.40 1.793361
420.50 1.793006
420.60 1.792651
420.70 1.792296
420.80 1.791942
420.90 1.791581
421.00 1.791034
421.10 1.790488
421.20 1.789865
421.30 1.789016
421.40 1.788167
421.50 1.787318
421.60 1.786471
421.70 1.785623
421.80 1.784777
421.90 1.783931
422.00 1.783086
422.10 1.782241
422.20 1.781397
422.30 1.780553
422.40 1.779704
422.50 1.778649
422.60 1.777596
422.70 1.776543
422.80 1.775491
422.90 1.77444
423.00 1.773389
423.10 1.77234
423.20 1.771291
423.30 1.770243
423.40 1.769196
423.50 1.76815
423.60 1.767104
423.70 1.766059
423.80 1.765015
423.90 1.763972
424.00 1.762929
424.10 1.761888
424.20 1.760847
424.30 1.759807
424.40 1.75881
424.50 1.75773
424.60 1.75665
424.70 1.755571
424.80 1.754493
424.90 1.753416
425.00 1.75234
425.10 1.751264
425.20 1.75019
425.30 1.749116
425.40 1.748025
425.50 1.74682
425.60 1.745616
425.70 1.744413
425.80 1.743211
425.90 1.74201
426.00 1.740809
426.10 1.73961
426.20 1.738411
426.30 1.737214
426.40 1.736017
426.50 1.734821
426.60 1.733627
426.70 1.732433
426.80 1.73124
426.90 1.730044
427.00 1.728714
427.10 1.727384
427.20 1.726056
427.30 1.724729
427.40 1.723403
427.50 1.722079
427.60 1.720755
427.70 1.719432
427.80 1.71811
427.90 1.716789
428.00 1.71547
428.10 1.714151
428.20 1.712834
428.30 1.711517
428.40 1.710202
428.50 1.708887
428.60 1.707574
428.70 1.706262
428.80 1.704934
428.90 1.70339
429.00 1.701847
429.10 1.700305
429.20 1.698765
429.30 1.697226
429.40 1.695688
429.50 1.694152
429.60 1.692617
429.70 1.691083
429.80 1.68955
429.90 1.688018
430.00 1.686488
430.10 1.684959
430.20 1.683431
430.30 1.681905
430.40 1.680379
430.50 1.678855
430.60 1.677332
430.70 1.675811
430.80 1.67429
430.90 1.672771
431.00 1.671253
431.10 1.669736
431.20 1.668221
431.30 1.666665
431.40 1.664565
431.50 1.662466
431.60 1.660369
431.70 1.658274
431.80 1.65618
431.90 1.654089
432.00 1.651999
432.10 1.64991
432.20 1.647824
432.30 1.645739
432.40 1.643656
432.50 1.641575
432.60 1.639496
432.70 1.637418
432.80 1.635342
432.90 1.633268
433.00 1.631195
433.10 1.629125
433.20 1.627056
433.30 1.624947
433.40 1.622299
433.50 1.619653
433.60 1.617009
433.70 1.614368
433.80 1.611798
433.90 1.609316
434.00 1.606357
434.10 1.603107
434.20 1.59986
434.30 1.596616
434.40 1.593374
434.50 1.590135
434.60 1.586899
434.70 1.583666
434.80 1.58033
434.90 1.575595
435.00 1.570865
435.10 1.566138
435.20 1.561415
435.30 1.556697
435.40 1.551983
435.50 1.547273
435.60 1.542567
435.70 1.537866
435.80 1.533168
435.90 1.528475
436.00 1.523785
436.10 1.5191
436.20 1.514419
436.30 1.509226
436.40 1.503268
436.50 1.495499
436.60 1.487737
436.70 1.479982
436.80 1.472233
436.90 1.464492
437.00 1.456758
437.10 1.44903
437.20 1.440157
437.30 1.430227
437.40 1.420115
437.50 1.407467
437.60 1.39483
437.70 1.382205
437.80 1.369591
437.90 1.356988
438.00 1.344088
438.10 1.327092
438.20 1.310112
438.30 1.296009
438.40 1.283642
438.50 1.239824
438.60 1.194983
438.70 1.11955
438.80 1.021111
438.90 1.067794
439.00 1.127789
439.10 1.172721
439.20 1.216158
439.30 1.240247
439.40 1.264313
439.50 1.288358
439.60 1.311743
439.70 1.326491
439.80 1.339338
439.90 1.350039
440.00 1.36073
440.10 1.371412
440.20 1.381671
440.30 1.386452
440.40 1.391228
440.50 1.396
440.60 1.400768
440.70 1.40553
440.80 1.410289
440.90 1.415043
441.00 1.419792
441.10 1.424537
441.20 1.429034
441.30 1.430285
441.40 1.431272
441.50 1.431935
441.60 1.432597
441.70 1.433345
441.80 1.432228
441.90 1.431111
442.00 1.429995
442.10 1.42888
442.20 1.427767
442.30 1.426653
442.40 1.424848
442.50 1.422198
442.60 1.41955
442.70 1.416556
442.80 1.413015
442.90 1.409077
443.00 1.40467
443.10 1.399688
443.20 1.394097
443.30 1.387945
443.40 1.380511
443.50 1.371512
443.60 1.360105
443.70 1.332673
443.80 1.254598
443.90 1.298406
444.00 1.311099
444.10 1.316584
444.20 1.319331
444.30 1.318474
444.40 1.314117
444.50 1.309765
444.60 1.304104
444.70 1.296846
444.80 1.288226
444.90 1.278351
445.00 1.268484
445.10 1.258626
445.20 1.247278
445.30 1.234107
445.40 1.220948
445.50 1.2078
445.60 1.194665
445.70 1.181541
445.80 1.165149
445.90 1.145747
446.00 1.126362
446.10 1.106995
446.20 1.085596
446.30 1.060732
446.40 1.028348
446.50 0.9905101
446.60 0.9527057
446.70 0.914935
446.80 0.8737842
446.90 0.8295203
447.00 0.813422
447.10 0.8050408
447.20 0.7947196
447.30 0.8140531
447.40 0.8579431
447.50 0.9058027
447.60 0.9502844
447.70 0.9916489
447.80 1.024734
447.90 1.055611
448.00 1.081363
448.10 1.102389
448.20 1.123396
448.30 1.144384
448.40 1.165353
448.50 1.186303
448.60 1.203974
448.70 1.21862
448.80 1.23298
448.90 1.243692
449.00 1.254396
449.10 1.265089
449.20 1.275773
449.30 1.28584
449.40 1.293641
449.50 1.301435
449.60 1.30769
449.70 1.312526
449.80 1.317357
449.90 1.322183
450.00 1.327006
450.10 1.331824
450.20 1.336637
450.30 1.341446
450.40 1.343188
450.50 1.344929
450.60 1.346668
450.70 1.348406
450.80 1.350142
450.90 1.351876
451.00 1.354543
451.10 1.357207
451.20 1.358529
451.30 1.35757
451.40 1.351088
451.50 1.344611
451.60 1.32896
451.70 1.287996
451.80 1.255873
451.90 1.266686
452.00 1.278222
452.10 1.289748
452.20 1.297418
452.30 1.305081
452.40 1.312738
452.50 1.320387
452.60 1.325732
452.70 1.330261
452.80 1.334038
452.90 1.337811
453.00 1.34158
453.10 1.345346
453.20 1.347981
453.30 1.350614
453.40 1.353244
453.50 1.355872
453.60 1.358497
453.70 1.36112
453.80 1.363335
453.90 1.365052
454.00 1.366768
454.10 1.368482
454.20 1.369867
454.30 1.37125
454.40 1.372633
454.50 1.374013
454.60 1.375393
454.70 1.376384
454.80 1.377018
454.90 1.377651
455.00 1.378284
455.10 1.378915
455.20 1.379546
455.30 1.380177
455.40 1.380806
455.50 1.381435
455.60 1.382064
455.70 1.382691
455.80 1.383051
455.90 1.383411
456.00 1.383769
456.10 1.384012
456.20 1.383941
456.30 1.38387
456.40 1.383798
456.50 1.383727
456.60 1.383656
456.70 1.383584
456.80 1.383513
456.90 1.383441
457.00 1.38337
457.10 1.383298
457.20 1.383665
457.30 1.383411
457.40 1.383157
457.50 1.382903
457.60 1.382649
457.70 1.382395
457.80 1.382141
457.90 1.381888
458.00 1.381634
458.10 1.38138
458.20 1.381127
458.30 1.380874
458.40 1.38062
458.50 1.380367
458.60 1.380114
458.70 1.379791
458.80 1.379439
458.90 1.379087
459.00 1.378735
459.10 1.378383
459.20 1.378032
459.30 1.37758
459.40 1.377129
459.50 1.376678
459.60 1.376228
459.70 1.375777
459.80 1.375327
459.90 1.374878
460.00 1.374428
460.10 1.373979
460.20 1.37353
460.30 1.373081
460.40 1.372633
460.50 1.372184
460.60 1.371737
460.70 1.37119
460.80 1.370595
460.90 1.37
461.00 1.369406
461.10 1.368812
461.20 1.368218
461.30 1.367625
461.40 1.367032
461.50 1.36644
461.60 1.365848
461.70 1.365257
461.80 1.364518
461.90 1.36378
462.00 1.363042
462.10 1.362305
462.20 1.361568
462.30 1.360832
462.40 1.360097
462.50 1.359362
462.60 1.358627
462.70 1.357893
462.80 1.357159
462.90 1.356426
463.00 1.355694
463.10 1.354962
463.20 1.354119
463.30 1.353232
463.40 1.352345
463.50 1.351459
463.60 1.350573
463.70 1.349688
463.80 1.348804
463.90 1.347887
464.00 1.346962
464.10 1.346038
464.20 1.345114
464.30 1.344191
464.40 1.343269
464.50 1.342347
464.60 1.341426
464.70 1.340508
464.80 1.339591
464.90 1.338674
465.00 1.337758
465.10 1.336843
465.20 1.335929
465.30 1.335004
465.40 1.334073
465.50 1.333142
465.60 1.332212
465.70 1.331283
465.80 1.330354
465.90 1.329442
466.00 1.328534
466.10 1.327627
466.20 1.32672
466.30 1.325711
466.40 1.324661
466.50 1.323611
466.60 1.322562
466.70 1.321514
466.80 1.320467
466.90 1.31942
467.00 1.318375
467.10 1.31733
467.20 1.316286
467.30 1.315048
467.40 1.313796
467.50 1.312561
467.60 1.311326
467.70 1.310093
467.80 1.308861
467.90 1.30762
468.00 1.306378
468.10 1.305136
468.20 1.303895
468.30 1.302413
468.40 1.300833
468.50 1.299452
468.60 1.297889
468.70 1.296145
468.80 1.294229
468.90 1.292614
469.00 1.290763
469.10 1.288764
469.20 1.286684
469.30 1.284605
469.40 1.282528
469.50 1.279559
469.60 1.276227
469.70 1.272897
469.80 1.269571
469.90 1.266275
470.00 1.262266
470.10 1.256041
470.20 1.249022
470.30 1.242009
470.40 1.235001
470.50 1.227999
470.60 1.212791
470.70 1.195544
470.80 1.178311
470.90 1.161093
471.00 1.130003
471.10 1.081735
471.20 1.001116
471.30 0.8172764
471.40 0.8068192
471.50 0.9324679
471.60 0.9910679
471.70 1.042482
471.80 1.071917
471.90 1.095845
472.00 1.119752
472.10 1.143639
472.20 1.156471
472.30 1.166535
472.40 1.17659
472.50 1.186637
472.60 1.196675
472.70 1.204454
472.80 1.208312
472.90 1.211418
473.00 1.214521
473.10 1.217621
473.20 1.220719
473.30 1.223813
473.40 1.226906
473.50 1.229995
473.60 1.233082
473.70 1.236166
473.80 1.23767
473.90 1.238778
474.00 1.239885
474.10 1.240992
474.20 1.241555
474.30 1.241896
474.40 1.242237
474.50 1.242577
474.60 1.242872
474.70 1.242713
474.80 1.242555
474.90 1.242396
475.00 1.242237
475.10 1.242078
475.20 1.241919
475.30 1.241761
475.40 1.241442
475.50 1.241084
475.60 1.240726
475.70 1.240368
475.80 1.24001
475.90 1.239652
476.00 1.239295
476.10 1.238938
476.20 1.238465
476.30 1.237945
476.40 1.237425
476.50 1.236906
476.60 1.236387
476.70 1.235868
476.80 1.23535
476.90 1.234657
477.00 1.233921
477.10 1.233186
477.20 1.232451
477.30 1.231716
477.40 1.230982
477.50 1.230249
477.60 1.229516
477.70 1.228784
477.80 1.228052
477.90 1.22732
478.00 1.226589
478.10 1.225859
478.20 1.225129
478.30 1.2244
478.40 1.223671
478.50 1.222943
478.60 1.222215
478.70 1.221398
478.80 1.220546
478.90 1.219665
479.00 1.218777
479.10 1.217889
479.20 1.217003
479.30 1.216117
479.40 1.21526
479.50 1.21442
479.60 1.213581
479.70 1.212743
479.80 1.211906
479.90 1.211069
480.00 1.210232
480.10 1.209396
480.20 1.208561
480.30 1.207726
480.40 1.206892
480.50 1.206059
480.60 1.205226
480.70 1.204394
480.80 1.203562
480.90 1.202731
481.00 1.2019
481.10 1.20107
481.20 1.200098
481.30 1.199126
481.40 1.198155
481.50 1.197184
481.60 1.196214
481.70 1.195245
481.80 1.194277
481.90 1.193309
482.00 1.192342
482.10 1.191376
482.20 1.190405
482.30 1.189362
482.40 1.18832
482.50 1.187279
482.60 1.186238
482.70 1.185199
482.80 1.18416
482.90 1.183122
483.00 1.182084
483.10 1.181047
483.20 1.180012
483.30 1.178976
483.40 1.177942
483.50 1.176908
483.60 1.175875
483.70 1.174785
483.80 1.173696
483.90 1.172607
484.00 1.17152
484.10 1.170433
484.20 1.169213
484.30 1.167936
484.40 1.16666
484.50 1.165385
484.60 1.164111
484.70 1.162825
484.80 1.161361
484.90 1.159899
485.00 1.158438
485.10 1.156978
485.20 1.155519
485.30 1.154061
485.40 1.152605
485.50 1.151149
485.60 1.149694
485.70 1.147943
485.80 1.146193
485.90 1.144444
486.00 1.142697
486.10 1.140951
486.20 1.139206
486.30 1.137463
486.40 1.135721
486.50 1.133981
486.60 1.132241
486.70 1.130473
486.80 1.1283
486.90 1.126129
487.00 1.12396
487.10 1.121792
487.20 1.119196
487.30 1.116601
487.40 1.114008
487.50 1.111418
487.60 1.10883
487.70 1.106243
487.80 1.103659
487.90 1.101076
488.00 1.098496
488.10 1.095918
488.20 1.093282
488.30 1.089861
488.40 1.086442
488.50 1.083026
488.60 1.079613
488.70 1.076202
488.80 1.072074
488.90 1.067949
489.00 1.063559
489.10 1.05848
489.20 1.053404
489.30 1.048333
489.40 1.043266
489.50 1.038203
489.60 1.033144
489.70 1.028089
489.80 1.021576
489.90 1.014389
490.00 1.007208
490.10 1.000032
490.20 0.9928622
490.30 0.9856981
490.40 0.976421
490.50 0.9671514
490.60 0.9578892
490.70 0.9486346
490.80 0.9369452
490.90 0.9261075
491.00 0.9170322
491.10 0.926906
491.20 0.9339781
491.30 0.9246001
491.40 0.9092791
491.50 0.8903661
491.60 0.8610175
491.70 0.8223942
491.80 0.7830772
491.90 0.7341626
492.00 0.6869922
492.10 0.7378956
492.20 0.6524601
492.30 0.6496611
492.40 0.6931179
492.50 0.7366975
492.60 0.7720548
492.70 0.7961135
492.80 0.8201527
492.90 0.8441723
493.00 0.8674043
493.10 0.8804177
493.20 0.8934205
493.30 0.9064127
493.40 0.9193943
493.50 0.9323653
493.60 0.9418192
493.70 0.9501511
493.80 0.9584761
493.90 0.9660596
494.00 0.9724882
494.10 0.9785251
494.20 0.9837362
494.30 0.988943
494.40 0.9941456
494.50 0.9993438
494.60 1.004454
494.70 1.008444
494.80 1.012215
494.90 1.01537
495.00 1.018522
495.10 1.021672
495.20 1.023658
495.30 1.025641
495.40 1.027623
495.50 1.029603
495.60 1.031581
495.70 1.033558
495.80 1.035533
495.90 1.037507
496.00 1.039478
496.10 1.041151
496.20 1.042184
496.30 1.043108
496.40 1.044032
496.50 1.044956
496.60 1.045878
496.70 1.046267
496.80 1.046657
496.90 1.047045
497.00 1.047434
497.10 1.047822
497.20 1.048209
497.30 1.048493
497.40 1.048484
497.50 1.048474
497.60 1.048332
497.70 1.047888
497.80 1.047134
497.90 1.04638
498.00 1.045627
498.10 1.044874
498.20 1.044122
498.30 1.043371
498.40 1.04262
498.50 1.041869
498.60 1.041119
498.70 1.039497
498.80 1.037876
498.90 1.035825
499.00 1.033775
499.10 1.031727
499.20 1.029659
499.30 1.027317
499.40 1.024326
499.50 1.021337
499.60 1.01835
499.70 1.015219
499.80 1.010142
499.90 1.005069
500.00 1
500.10 0.9949351
500.20 0.9884609
500.30 0.9789899
500.40 0.9695263
500.50 0.9600703
500.60 0.9506217
500.70 0.9411806
500.80 0.9287165
500.90 0.909825
501.00 0.8909485
501.10 0.8720869
501.20 0.8391114
501.30 0.7964587
501.40 0.7454513
501.50 0.6484961
501.60 0.6386529
501.70 0.7700294
501.80 0.8353928
501.90 0.8766821
502.00 0.9112182
502.10 0.9314517
502.20 0.9511069
502.30 0.9632798
502.40 0.973327
502.50 0.9788715
502.60 0.9844114
502.70 0.9899469
502.80 0.995478
502.90 1.001005
503.00 1.005239
503.10 1.006734
503.20 1.008228
503.30 1.009721
503.40 1.010683
503.50 1.010139
503.60 1.009595
503.70 1.009052
503.80 1.008172
503.90 1.004822
504.00 0.997585
504.10 0.9820907
504.20 0.9666086
504.30 0.9511388
504.40 0.9390663
504.50 0.9366343
504.60 0.9305335
504.70 0.8890326
504.80 0.7445395
504.90 0.8235208
505.00 0.8711321
505.10 0.8983806
505.20 0.9216115
505.30 0.9334558
505.40 0.9452906
505.50 0.957116
505.60 0.966453
505.70 0.9705167
505.80 0.9745771
505.90 0.9786343
506.00 0.9826881
506.10 0.9867387
506.20 0.9900914
506.30 0.991465
506.40 0.9928375
506.50 0.9942088
506.60 0.9955789
506.70 0.9969479
506.80 0.9983158
506.90 0.9996824
507.00 1.001048
507.10 1.002201
507.20 1.002732
507.30 1.002774
507.40 1.002815
507.50 1.002856
507.60 1.002897
507.70 1.002937
507.80 1.002978
507.90 1.003019
508.00 1.003059
508.10 1.003099
508.20 1.00314
508.30 1.00318
508.40 1.00322
508.50 1.00326
508.60 1.0033
508.70 1.003339
508.80 1.003266
508.90 1.002872
509.00 1.002478
509.10 1.002084
509.20 1.00169
509.30 1.001297
509.40 1.000904
509.50 1.000511
509.60 1.000119
509.70 0.9997261
509.80 0.999334
509.90 0.998942
510.00 0.9985503
510.10 0.9981588
510.20 0.9977676
510.30 0.9973535
510.40 0.9968738
510.50 0.9963945
510.60 0.9959154
510.70 0.9954367
510.80 0.9949583
510.90 0.9944801
511.00 0.9940023
511.10 0.9935247
511.20 0.9930475
511.30 0.9925705
511.40 0.9920938
511.50 0.9916175
511.60 0.9911178
511.70 0.9905685
511.80 0.9900194
511.90 0.9894707
512.00 0.9889224
512.10 0.9883744
512.20 0.9878268
512.30 0.9872853
512.40 0.9867609
512.50 0.9862367
512.60 0.9857129
512.70 0.9851895
512.80 0.9846664
512.90 0.9841436
513.00 0.9836211
513.10 0.983099
513.20 0.9825772
513.30 0.9820557
513.40 0.9815346
513.50 0.9810138
513.60 0.9804933
513.70 0.9799732
513.80 0.9794534
513.90 0.9789339
514.00 0.9783629
514.10 0.9777839
514.20 0.9772052
514.30 0.9766269
514.40 0.976049
514.50 0.9754715
514.60 0.9748943
514.70 0.9743175
514.80 0.9737411
514.90 0.9731651
515.00 0.9725894
515.10 0.9720142
515.20 0.9714393
515.30 0.9708647
515.40 0.9702905
515.50 0.9697167
515.60 0.9691433
515.70 0.9685703
515.80 0.9679976
515.90 0.9674253
516.00 0.9668534
516.10 0.9662818
516.20 0.9657106
516.30 0.9651398
516.40 0.9645693
516.50 0.9639957
516.60 0.9634041
516.70 0.9628128
516.80 0.9622219
516.90 0.9616315
517.00 0.9610414
517.10 0.9604517
517.20 0.9598623
517.30 0.9592734
517.40 0.9586848
517.50 0.9580966
517.60 0.9575088
517.70 0.9569214
517.80 0.9563344
517.90 0.9557477
518.00 0.9551615
518.10 0.9545756
518.20 0.9539901
518.30 0.953405
518.40 0.9528202
518.50 0.9522358
518.60 0.9516519
518.70 0.9510683
518.80 0.950485
518.90 0.9499022
519.00 0.9493197
519.10 0.9487387
519.20 0.9481592
519.30 0.94758
519.40 0.9470013
519.50 0.9464229
519.60 0.9458449
519.70 0.9452673
519.80 0.94469
519.90 0.9441131
520.00 0.9435366
520.10 0.9429605
520.20 0.9423848
520.30 0.9418094
520.40 0.9412344
520.50 0.9406597
520.60 0.9400854
520.70 0.9395116
520.80 0.938938
520.90 0.9383649
521.00 0.9377921
521.10 0.9372197
521.20 0.9366476
521.30 0.936076
521.40 0.9355047
521.50 0.9349337
521.60 0.9343632
521.70 0.933793
521.80 0.9332231
521.90 0.9326537
522.00 0.9320846
522.10 0.9315159
522.20 0.9309475
522.30 0.9303795
522.40 0.9298119
522.50 0.9292446
522.60 0.9286777
522.70 0.9281112
522.80 0.9275451
522.90 0.9269793
523.00 0.9264138
523.10 0.9258488
523.20 0.9252841
523.30 0.9247197
523.40 0.9241558
523.50 0.9235922
523.60 0.9230289
523.70 0.922466
523.80 0.9219035
523.90 0.9213413
524.00 0.9207796
524.10 0.9202181
524.20 0.919657
524.30 0.9190917
524.40 0.918523
524.50 0.9179546
524.60 0.9173867
524.70 0.9168191
524.80 0.9162518
524.90 0.915685
525.00 0.9151185
525.10 0.9145523
525.20 0.9139865
525.30 0.9134211
525.40 0.9128561
525.50 0.9122914
525.60 0.9117271
525.70 0.9111631
525.80 0.9105996
525.90 0.9100363
526.00 0.9094735
526.10 0.908911
526.20 0.9083488
526.30 0.907787
526.40 0.9072256
526.50 0.9066646
526.60 0.9061039
526.70 0.9055435
526.80 0.9049836
526.90 0.9044239
527.00 0.9038647
527.10 0.9033058
527.20 0.9027472
527.30 0.9021891
527.40 0.9016312
527.50 0.9010738
527.60 0.9005167
527.70 0.8999599
527.80 0.8994035
527.90 0.8988475
528.00 0.8982918
528.10 0.8977365
528.20 0.8971815
528.30 0.8966269
528.40 0.8960727
528.50 0.8955188
528.60 0.8949652
528.70 0.8944121
528.80 0.8938592
528.90 0.8933067
529.00 0.8927546
529.10 0.8922028
529.20 0.8916514
529.30 0.8911004
529.40 0.8905496
529.50 0.890001
529.60 0.8894633
529.70 0.8889259
529.80 0.8883888
529.90 0.8878521
530.00 0.8873157
530.10 0.8867797
530.20 0.886244
530.30 0.8857086
530.40 0.8851736
530.50 0.8846389
530.60 0.8841046
530.70 0.8835706
530.80 0.883037
530.90 0.8825037
531.00 0.8819707
531.10 0.8814381
531.20 0.8809058
531.30 0.8803738
531.40 0.8798422
531.50 0.8793109
531.60 0.87878
531.70 0.8782494
531.80 0.8777191
531.90 0.8771892
532.00 0.8766596
532.10 0.8761303
532.20 0.8755881
532.30 0.8750395
532.40 0.8744912
532.50 0.8739433
532.60 0.8733957
532.70 0.8728485
532.80 0.8723016
532.90 0.8717551
533.00 0.8712089
533.10 0.8706631
533.20 0.8701176
533.30 0.8695724
533.40 0.8690276
533.50 0.8684832
533.60 0.8679391
533.70 0.8673953
533.80 0.8668519
533.90 0.8663089
534.00 0.8657662
534.10 0.8652238
534.20 0.8646818
534.30 0.8641401
534.40 0.8635988
534.50 0.8630578
534.60 0.8625172
534.70 0.8619769
534.80 0.8614373
534.90 0.8608999
535.00 0.8603628
535.10 0.8598261
535.20 0.8592897
535.30 0.8587537
535.40 0.858218
535.50 0.8576826
535.60 0.8571476
535.70 0.8566129
535.80 0.8560785
535.90 0.8555445
536.00 0.8550108
536.10 0.8544775
536.20 0.8539445
536.30 0.8534119
536.40 0.8528795
536.50 0.8523476
536.60 0.8518159
536.70 0.8512846
536.80 0.8507536
536.90 0.850223
537.00 0.8496927
537.10 0.8491627
537.20 0.8486331
537.30 0.8481038
537.40 0.8475749
537.50 0.8470462
537.60 0.846518
537.70 0.84599
537.80 0.8454624
537.90 0.8449351
538.00 0.8444082
538.10 0.8438815
538.20 0.8433553
538.30 0.8428293
538.40 0.8423037
538.50 0.8417784
538.60 0.8412535
538.70 0.8407288
538.80 0.8402045
538.90 0.8396806
539.00 0.839157
539.10 0.8386337
539.20 0.8381107
539.30 0.8375881
539.40 0.8370657
539.50 0.8365438
539.60 0.8360221
539.70 0.8355008
539.80 0.8349798
539.90 0.8344591
540.00 0.8339388
540.10 0.8334188
540.20 0.8329141
540.30 0.8324158
540.40 0.8319178
540.50 0.8314202
540.60 0.8309228
540.70 0.8304258
540.80 0.8299291
540.90 0.8294326
541.00 0.8289365
541.10 0.8284407
541.20 0.8279453
541.30 0.8274501
541.40 0.8269552
541.50 0.8264607
541.60 0.8259664
541.70 0.8254725
541.80 0.8249788
541.90 0.8244855
542.00 0.8239925
542.10 0.8234998
542.20 0.8230074
542.30 0.8225153
542.40 0.8220235
542.50 0.821532
542.60 0.8210408
542.70 0.82055
542.80 0.8200594
542.90 0.8195691
543.00 0.8190792
543.10 0.8185895
543.20 0.8181002
543.30 0.8176112
543.40 0.8171224
543.50 0.816634
543.60 0.8161459
543.70 0.8156581
543.80 0.8151706
543.90 0.8146833
544.00 0.8141964
544.10 0.8137098
544.20 0.8132235
544.30 0.8127375
544.40 0.8122518
544.50 0.8117664
544.60 0.8112813
544.70 0.8107965
544.80 0.810312
544.90 0.8098278
545.00 0.8093439
545.10 0.8088604
545.20 0.8083771
545.30 0.8078941
545.40 0.8074114
545.50 0.806929
545.60 0.8064353
545.70 0.805937
545.80 0.8054389
545.90 0.8049412
546.00 0.8044438
546.10 0.8039467
546.20 0.8034499
546.30 0.8029534
546.40 0.8024572
546.50 0.8019613
546.60 0.8014658
546.70 0.8009705
546.80 0.8004756
546.90 0.799981
547.00 0.7994866
547.10 0.7989926
547.20 0.7984989
547.30 0.7980055
547.40 0.7975124
547.50 0.7970196
547.60 0.7965272
547.70 0.796035
547.80 0.7955431
547.90 0.7950516
548.00 0.7945603
548.10 0.7940694
548.20 0.7935787
548.30 0.793096
548.40 0.7926242
548.50 0.7921526
548.60 0.7916813
548.70 0.7912104
548.80 0.7907397
548.90 0.7902693
549.00 0.7897992
549.10 0.7893294
549.20 0.7888599
549.30 0.7883906
549.40 0.7879217
549.50 0.787453
549.60 0.7869847
549.70 0.7865166
549.80 0.7860488
549.90 0.7855813
550.00 0.7851141
550.10 0.7846472
550.20 0.7841805
550.30 0.7837142
550.40 0.7832481
550.50 0.7827823
550.60 0.7823168
550.70 0.7818516
550.80 0.7813867
550.90 0.7809221
551.00 0.780458
551.10 0.7799958
551.20 0.7795339
551.30 0.7790722
551.40 0.7786108
551.50 0.7781497
551.60 0.7776889
551.70 0.7772284
551.80 0.7767682
551.90 0.7763082
552.00 0.7758486
552.10 0.7753892
552.20 0.7749301
552.30 0.7744712
552.40 0.7740127
552.50 0.7735544
552.60 0.7730964
552.70 0.7726387
552.80 0.7721813
552.90 0.7717242
553.00 0.7712673
553.10 0.7708107
553.20 0.7703544
553.30 0.7698984
553.40 0.7694427
553.50 0.7689872
553.60 0.768532
553.70 0.7680771
553.80 0.7676118
553.90 0.7671398
554.00 0.766668
554.10 0.7661965
554.20 0.7657253
554.30 0.7652544
554.40 0.7647838
554.50 0.7643135
554.60 0.7638434
554.70 0.7633737
554.80 0.7629042
554.90 0.7624351
555.00 0.7619662
555.10 0.7614976
555.20 0.7610293
555.30 0.7605613
555.40 0.7600935
555.50 0.7596261
555.60 0.7591589
555.70 0.7586921
555.80 0.7582255
555.90 0.7577592
556.00 0.7572932
556.10 0.7568275
556.20 0.756362
556.30 0.7558969
556.40 0.755432
556.50 0.7549675
556.60 0.7545052
556.70 0.7540431
556.80 0.7535812
556.90 0.7531197
557.00 0.7526584
557.10 0.7521975
557.20 0.7517368
557.30 0.7512764
557.40 0.7508163
557.50 0.7503564
557.60 0.7498969
557.70 0.7494376
557.80 0.7489786
557.90 0.7485199
558.00 0.7480614
558.10 0.7476033
558.20 0.7471454
558.30 0.7466878
558.40 0.7462305
558.50 0.7457734
558.60 0.7453167
558.70 0.7448602
558.80 0.744404
558.90 0.7439481
559.00 0.7434925
559.10 0.7430371
559.20 0.742582
559.30 0.7421272
559.40 0.7416727
559.50 0.7412184
559.60 0.7407644
559.70 0.7403107
559.80 0.7398573
559.90 0.7394042
560.00 0.7389513
560.10 0.7384987
560.20 0.7380464
560.30 0.7375944
560.40 0.7371426
560.50 0.7366911
560.60 0.7362399
560.70 0.735789
560.80 0.7353383
560.90 0.7348879
561.00 0.7344378
561.10 0.733988
561.20 0.7335384
561.30 0.7330891
561.40 0.7326401
561.50 0.7321913
561.60 0.7317429
561.70 0.7312947
561.80 0.7308467
561.90 0.7303991
562.00 0.7299517
562.10 0.7295054
562.20 0.7290604
562.30 0.7286158
562.40 0.7281714
562.50 0.7277272
562.60 0.7272834
562.70 0.7268398
562.80 0.7263965
562.90 0.7259534
563.00 0.7255106
563.10 0.7250681
563.20 0.7246259
563.30 0.7241839
563.40 0.7237422
563.50 0.7233008
563.60 0.7228596
563.70 0.7224187
563.80 0.721978
563.90 0.7215377
564.00 0.7210976
564.10 0.7206577
564.20 0.7202182
564.30 0.7197789
564.40 0.7193398
564.50 0.718901
564.60 0.7184625
564.70 0.7180243
564.80 0.7175863
564.90 0.7171486
565.00 0.7167111
565.10 0.7162738
565.20 0.7158369
565.30 0.7154001
565.40 0.7149637
565.50 0.7145275
565.60 0.7140916
565.70 0.7136559
565.80 0.7132205
565.90 0.7127854
566.00 0.7123505
566.10 0.7119159
566.20 0.7114815
566.30 0.7110475
566.40 0.7106136
566.50 0.7101801
566.60 0.7097468
566.70 0.7093137
566.80 0.708881
566.90 0.7084485
567.00 0.7080162
567.10 0.7075842
567.20 0.7071525
567.30 0.706721
567.40 0.7062898
567.50 0.7058588
567.60 0.7054281
567.70 0.7049872
567.80 0.7045015
567.90 0.7040162
568.00 0.7035312
568.10 0.7030464
568.20 0.702562
568.30 0.7020779
568.40 0.701594
568.50 0.7011105
568.60 0.7006272
568.70 0.7001443
568.80 0.6996616
568.90 0.6991793
569.00 0.6986972
569.10 0.6982154
569.20 0.697734
569.30 0.6972528
569.40 0.6967719
569.50 0.6962913
569.60 0.695811
569.70 0.695331
569.80 0.6948513
569.90 0.6943719
570.00 0.6938928
570.10 0.693414
570.20 0.6929354
570.30 0.6924572
570.40 0.6919792
570.50 0.6915016
570.60 0.6910242
570.70 0.6905472
570.80 0.6900704
570.90 0.6895939
571.00 0.6891177
571.10 0.6886418
571.20 0.6881662
571.30 0.6876909
571.40 0.6872158
571.50 0.6867411
571.60 0.6862667
571.70 0.6857925
571.80 0.6853186
571.90 0.684845
572.00 0.6843718
572.10 0.6838988
572.20 0.683426
572.30 0.6829536
572.40 0.6824815
572.50 0.6820096
572.60 0.6815381
572.70 0.6810668
572.80 0.6805958
572.90 0.6801251
573.00 0.6796547
573.10 0.6791846
573.20 0.6787147
573.30 0.6782452
573.40 0.6777553
573.50 0.6772374
573.60 0.6767197
573.70 0.6762023
573.80 0.6756853
573.90 0.6751686
574.00 0.6746522
574.10 0.6741362
574.20 0.6736204
574.30 0.673105
574.40 0.6725899
574.50 0.6720751
574.60 0.6715606
574.70 0.6710464
574.80 0.6705326
574.90 0.6700191
575.00 0.6695059
575.10 0.668993
575.20 0.6684804
575.30 0.6679681
575.40 0.6674562
575.50 0.6669446
575.60 0.6664332
575.70 0.6659222
575.80 0.6654116
575.90 0.6649012
576.00 0.6643911
576.10 0.6638814
576.20 0.663372
576.30 0.6628628
576.40 0.662354
576.50 0.6618456
576.60 0.6613374
576.70 0.6608295
576.80 0.660322
576.90 0.6598147
577.00 0.6593078
577.10 0.6588012
577.20 0.6582949
577.30 0.6577889
577.40 0.6572832
577.50 0.6567778
577.60 0.6562332
577.70 0.6556245
577.80 0.6550161
577.90 0.6544081
578.00 0.6538005
578.10 0.6531933
578.20 0.6525864
578.30 0.65198
578.40 0.6513739
578.50 0.6507682
578.60 0.6501629
578.70 0.6495579
578.80 0.6489533
578.90 0.6483492
579.00 0.6477454
579.10 0.6471306
579.20 0.6464013
579.30 0.6456726
579.40 0.6449442
579.50 0.6442164
579.60 0.643489
579.70 0.6427621
579.80 0.6420357
579.90 0.6413097
580.00 0.6405841
580.10 0.639797
580.20 0.638909
580.30 0.6380217
580.40 0.6371349
580.50 0.6362487
580.60 0.635363
580.70 0.6344779
580.80 0.6335934
580.90 0.6327095
581.00 0.6318261
581.10 0.6309433
581.20 0.6300611
581.30 0.6291795
581.40 0.6282984
581.50 0.6274179
581.60 0.6265379
581.70 0.6256586
581.80 0.6247797
581.90 0.6239015
582.00 0.6230238
582.10 0.6220067
582.20 0.620762
582.30 0.6195181
582.40 0.618275
582.50 0.6170327
582.60 0.6157912
582.70 0.6145506
582.80 0.6133107
582.90 0.6120717
583.00 0.6108335
583.10 0.6095961
583.20 0.6083595
583.30 0.6071237
583.40 0.6058888
583.50 0.6046546
583.60 0.6031402
583.70 0.6011684
583.80 0.5991979
583.90 0.5972288
584.00 0.5952609
584.10 0.5932944
584.20 0.5913291
584.30 0.5893652
584.40 0.5874026
584.50 0.5854413
584.60 0.5834813
584.70 0.5815226
584.80 0.5795652
584.90 0.5775034
585.00 0.5749613
585.10 0.5724209
585.20 0.5694928
585.30 0.5659316
585.40 0.5623728
585.50 0.5588164
585.60 0.5552624
585.70 0.5517107
585.80 0.5481615
585.90 0.5446147
586.00 0.5410702
586.10 0.5375282
586.20 0.5329174
586.30 0.5265627
586.40 0.5202124
586.50 0.5138663
586.60 0.5075245
586.70 0.501187
586.80 0.4928978
586.90 0.4814239
587.00 0.4699579
587.10 0.4584995
587.20 0.444738
587.30 0.4272165
587.40 0.4095832
587.50 0.394635
587.60 0.3953347
587.70 0.402786
587.80 0.4218393
587.90 0.4409372
588.00 0.45724
588.10 0.468994
588.20 0.4807399
588.30 0.4924778
588.40 0.5019884
588.50 0.5078725
588.60 0.5137527
588.70 0.5196288
588.80 0.5255009
588.90 0.531369
589.00 0.536101
589.10 0.5389834
589.20 0.5418638
589.30 0.5447422
589.40 0.5476186
589.50 0.550493
589.60 0.5533655
589.70 0.556236
589.80 0.5591045
589.90 0.561971
590.00 0.5643338
590.10 0.5658765
590.20 0.5674182
590.30 0.5689587
590.40 0.5704982
590.50 0.5720367
590.60 0.573574
590.70 0.5751103
590.80 0.5762714
590.90 0.5772637
591.00 0.5782552
591.10 0.5792461
591.20 0.5802362
591.30 0.5812257
591.40 0.5822144
591.50 0.5832025
591.60 0.5839782
591.70 0.5844083
591.80 0.5848381
591.90 0.5852675
592.00 0.5856967
592.10 0.5861255
592.20 0.5865539
592.30 0.5869821
592.40 0.5874099
592.50 0.5878374
592.60 0.5882646
592.70 0.5886915
592.80 0.589118
592.90 0.5895442
593.00 0.5899701
593.10 0.5902474
593.20 0.5902825
593.30 0.5903176
593.40 0.5903526
593.50 0.5903875
593.60 0.5904224
593.70 0.5904573
593.80 0.5904921
593.90 0.5905268
594.00 0.5905614
594.10 0.5905961
594.20 0.5906306
594.30 0.5906651
594.40 0.5906995
594.50 0.5907339
594.60 0.5907683
594.70 0.5908025
594.80 0.5908367
594.90 0.5908709
595.00 0.590905
595.10 0.5908914
595.20 0.5908002
595.30 0.590709
595.40 0.5906178
595.50 0.5905267
595.60 0.5904356
595.70 0.5903445
595.80 0.5902534
595.90 0.5901624
596.00 0.5900714
596.10 0.5899804
596.20 0.5898895
596.30 0.5897986
596.40 0.5897077
596.50 0.5896168
596.60 0.589526
596.70 0.589369
596.80 0.5891715
596.90 0.5889741
597.00 0.5887768
597.10 0.5885796
597.20 0.5883825
597.30 0.5881855
597.40 0.5879886
597.50 0.5877918
597.60 0.5875859
597.70 0.5873652
597.80 0.5871446
597.90 0.5869241
598.00 0.5867037
598.10 0.5864835
598.20 0.5862633
598.30 0.5860433
598.40 0.5858234
598.50 0.5856036
598.60 0.5853839
598.70 0.5851643
598.80 0.5849448
598.90 0.5847255
599.00 0.5845062
599.10 0.5842871
599.20 0.5840681
599.30 0.5838492
599.40 0.5835919
599.50 0.5833347
599.60 0.5830776
599.70 0.5828207
599.80 0.5825639
599.90 0.5823073
600.00 0.5820508
600.10 0.5817945
600.20 0.5815382
600.30 0.5812822
600.40 0.5810262
600.50 0.5807704
600.60 0.5805148
600.70 0.5802592
600.80 0.5800038
600.90 0.5797486
601.00 0.5794935
601.10 0.5792385
601.20 0.5789837
601.30 0.578729
601.40 0.5784413
601.50 0.5781538
601.60 0.5778665
601.70 0.5775793
601.80 0.5772923
601.90 0.5770055
602.00 0.5767188
602.10 0.5764322
602.20 0.5761459
602.30 0.5758596
602.40 0.5755736
602.50 0.5752877
602.60 0.5750019
602.70 0.5748064
602.80 0.5746157
602.90 0.5743221
603.00 0.5740286
603.10 0.5737353
603.20 0.5734422
603.30 0.5731493
603.40 0.5728564
603.50 0.5725638
603.60 0.5722713
603.70 0.571979
603.80 0.5716869
603.90 0.5713949
604.00 0.571103
604.10 0.5708114
604.20 0.5705199
604.30 0.5702285
604.40 0.5699373
604.50 0.5695848
604.60 0.5692325
604.70 0.5688804
604.80 0.5685285
604.90 0.5681768
605.00 0.5678253
605.10 0.567474
605.20 0.5671229
605.30 0.566772
605.40 0.5664213
605.50 0.5658938
605.60 0.5653666
605.70 0.5648397
605.80 0.5643131
605.90 0.5637869
606.00 0.5632609
606.10 0.5619538
606.20 0.5606476
606.30 0.5593421
606.40 0.5580375
606.50 0.553578
606.60 0.5491214
606.70 0.5290011
606.80 0.5225215
606.90 0.5317024
607.00 0.5370153
607.10 0.5398863
607.20 0.5427554
607.30 0.5439981
607.40 0.5452399
607.50 0.5464809
607.60 0.5477211
607.70 0.5480816
607.80 0.5484419
607.90 0.5488019
608.00 0.5491616
608.10 0.5495211
608.20 0.5498803
608.30 0.5499813
608.40 0.5500821
608.50 0.5501829
608.60 0.5502836
608.70 0.5502881
608.80 0.5502494
608.90 0.5502107
609.00 0.5501719
609.10 0.5501332
609.20 0.5500945
609.30 0.5499391
609.40 0.5497839
609.50 0.5496287
609.60 0.5494736
609.70 0.5493185
609.80 0.5491635
609.90 0.5490086
610.00 0.5488538
610.10 0.5486991
610.20 0.5485444
610.30 0.5483898
610.40 0.5482352
610.50 0.5480807
610.60 0.5479263
610.70 0.547772
610.80 0.5476178
610.90 0.5474117
611.00 0.5472058
611.10 0.547
611.20 0.5467943
611.30 0.5465887
611.40 0.5463832
611.50 0.5461778
611.60 0.5459725
611.70 0.5457673
611.80 0.5455623
611.90 0.5453573
612.00 0.5451524
612.10 0.5449477
612.20 0.544743
612.30 0.5445384
612.40 0.5442807
612.50 0.5440232
612.60 0.5437658
612.70 0.5435085
612.80 0.5432513
612.90 0.5429943
613.00 0.5427375
613.10 0.5424807
613.20 0.5422242
613.30 0.5419677
613.40 0.5417114
613.50 0.5414552
613.60 0.5411992
613.70 0.5409433
613.80 0.5406875
613.90 0.5404319
614.00 0.5401764
614.10 0.5399211
614.20 0.5396659
614.30 0.5394108
614.40 0.5391401
614.50 0.5388695
614.60 0.5385991
614.70 0.5383288
614.80 0.5380586
614.90 0.5377885
615.00 0.5375185
615.10 0.5372488
615.20 0.5369791
615.30 0.5367096
615.40 0.5364403
615.50 0.5361711
615.60 0.535902
615.70 0.5356331
615.80 0.5353643
615.90 0.5350957
616.00 0.5348273
616.10 0.5345589
616.20 0.5342908
616.30 0.5340227
616.40 0.5337549
616.50 0.5334871
616.60 0.5332195
616.70 0.5329521
616.80 0.5326848
616.90 0.5324056
617.00 0.5321265
617.10 0.5318476
617.20 0.5315688
617.30 0.5312902
617.40 0.5310118
617.50 0.5307335
617.60 0.5304553
617.70 0.5301774
617.80 0.5298995
617.90 0.5296218
618.00 0.5293443
618.10 0.5290669
618.20 0.5287897
618.30 0.5285126
618.40 0.5282357
618.50 0.5279589
618.60 0.5276823
618.70 0.5274058
618.80 0.5271295
618.90 0.5268533
619.00 0.5265773
619.10 0.5263014
619.20 0.5260257
619.30 0.5257501
619.40 0.5254747
619.50 0.5251994
619.60 0.5249243
619.70 0.5246493
619.80 0.5243745
619.90 0.5240998
620.00 0.5238253
620.10 0.523551
620.20 0.5232767
620.30 0.5230027
620.40 0.5227288
620.50 0.522455
620.60 0.5221814
620.70 0.5219079
620.80 0.5216346
620.90 0.5213587
621.00 0.5210782
621.10 0.5207979
621.20 0.5205177
621.30 0.5202377
621.40 0.5199578
621.50 0.5196781
621.60 0.5193985
621.70 0.5191191
621.80 0.5188398
621.90 0.5185607
622.00 0.5182817
622.10 0.5180029
622.20 0.5177242
622.30 0.5174457
622.40 0.5171674
622.50 0.5168892
622.60 0.5166111
622.70 0.5163332
622.80 0.5160555
622.90 0.5157779
623.00 0.5155005
623.10 0.5152232
623.20 0.514946
623.30 0.514669
623.40 0.5143922
623.50 0.5141155
623.60 0.513839
623.70 0.5135626
623.80 0.5132864
623.90 0.5130103
624.00 0.5127344
624.10 0.5124586
624.20 0.512183
624.30 0.5119075
624.40 0.5116321
624.50 0.511357
624.60 0.5110819
624.70 0.5108071
624.80 0.5105323
624.90 0.5102578
625.00 0.5099833
625.10 0.509709
625.20 0.5094349
625.30 0.5091609
625.40 0.5088871
625.50 0.5086134
625.60 0.5083399
625.70 0.5080665
625.80 0.5077933
625.90 0.5075202
626.00 0.5072472
626.10 0.5069744
626.20 0.5067018
626.30 0.5064293
626.40 0.5061569
626.50 0.5058847
626.60 0.5056127
626.70 0.5053408
626.80 0.505069
626.90 0.5047974
627.00 0.504526
627.10 0.5042549
627.20 0.5039849
627.30 0.5037149
627.40 0.5034451
627.50 0.5031755
627.60 0.502906
627.70 0.5026366
627.80 0.5023674
627.90 0.5020983
628.00 0.5018294
628.10 0.5015606
628.20 0.501292
628.30 0.5010235
628.40 0.5007552
628.50 0.500487
628.60 0.5002189
628.70 0.499951
628.80 0.4996833
628.90 0.4994157
629.00 0.4991482
629.10 0.4988809
629.20 0.4986137
629.30 0.4983466
629.40 0.4980798
629.50 0.497813
629.60 0.4975464
629.70 0.49728
629.80 0.4970136
629.90 0.4967475
630.00 0.4964815
630.10 0.4962156
630.20 0.4959498
630.30 0.4956843
630.40 0.4954189
630.50 0.4951536
630.60 0.4948885
630.70 0.4946235
630.80 0.4943586
630.90 0.4940939
631.00 0.4938294
631.10 0.493565
631.20 0.4933007
631.30 0.4930366
631.40 0.4927726
631.50 0.4925087
631.60 0.492245
631.70 0.4919815
631.80 0.4917181
631.90 0.4914548
632.00 0.4911917
632.10 0.4909287
632.20 0.4906658
632.30 0.4904031
632.40 0.4901406
632.50 0.4898781
632.60 0.4896159
632.70 0.4893537
632.80 0.4890917
632.90 0.4888299
633.00 0.4885681
633.10 0.4883066
633.20 0.4880451
633.30 0.4877838
633.40 0.4875232
633.50 0.4872633
633.60 0.4870034
633.70 0.4867437
633.80 0.4864841
633.90 0.4862247
634.00 0.4859654
634.10 0.4857062
634.20 0.4854472
634.30 0.4851883
634.40 0.4849295
634.50 0.4846709
634.60 0.4844125
634.70 0.4841542
634.80 0.483896
634.90 0.4836379
635.00 0.48338
635.10 0.4831222
635.20 0.4828646
635.30 0.4826071
635.40 0.4823497
635.50 0.4820925
635.60 0.4818354
635.70 0.4815785
635.80 0.4813217
635.90 0.481065
636.00 0.4808085
636.10 0.4805521
636.20 0.4802959
636.30 0.4800397
636.40 0.4797838
636.50 0.4795279
636.60 0.4792827
636.70 0.4790389
636.80 0.4787951
636.90 0.4785515
637.00 0.478308
637.10 0.4780647
637.20 0.4778214
637.30 0.4775783
637.40 0.4773354
637.50 0.4770925
637.60 0.4768498
637.70 0.4766072
637.80 0.4763648
637.90 0.4761225
638.00 0.4758803
638.10 0.4756382
638.20 0.4753963
638.30 0.4751545
638.40 0.4749128
638.50 0.4746712
638.60 0.4744298
638.70 0.4741885
638.80 0.4739473
638.90 0.4737063
639.00 0.4734654
639.10 0.4732246
639.20 0.4729839
639.30 0.4727434
639.40 0.472503
639.50 0.4722627
639.60 0.4720226
639.70 0.4717775
639.80 0.4715156
639.90 0.4712539
640.00 0.4709924
640.10 0.4707309
640.20 0.4704696
640.30 0.4702085
640.40 0.4699475
640.50 0.4696866
640.60 0.4694259
640.70 0.4691653
640.80 0.4689049
640.90 0.4686446
641.00 0.4683844
641.10 0.4681244
641.20 0.4678645
641.30 0.4676047
641.40 0.4673451
641.50 0.4670857
641.60 0.4668263
641.70 0.4665671
641.80 0.4663081
641.90 0.4660492
642.00 0.4657904
642.10 0.4655318
642.20 0.4652733
642.30 0.4650149
642.40 0.4647567
642.50 0.4644986
642.60 0.4642407
642.70 0.4639829
642.80 0.4637252
642.90 0.4634676
643.00 0.4632102
643.10 0.4629529
643.20 0.4626958
643.30 0.4624388
643.40 0.4621819
643.50 0.4619251
643.60 0.4616685
643.70 0.4614121
643.80 0.4611557
643.90 0.4608995
644.00 0.4606435
644.10 0.4603876
644.20 0.4601318
644.30 0.4598761
644.40 0.4596206
644.50 0.4593653
644.60 0.45911
644.70 0.4588549
644.80 0.4586
644.90 0.4583451
645.00 0.4580904
645.10 0.4578359
645.20 0.4575815
645.30 0.4573272
645.40 0.457073
645.50 0.456819
645.60 0.4565651
645.70 0.4563114
645.80 0.4560578
645.90 0.4558043
646.00 0.455551
646.10 0.4552981
646.20 0.4550461
646.30 0.4547943
646.40 0.4545426
646.50 0.454291
646.60 0.4540396
646.70 0.4537883
646.80 0.4535372
646.90 0.4532862
647.00 0.4530353
647.10 0.4527845
647.20 0.4525339
647.30 0.4522834
647.40 0.4520331
647.50 0.4517828
647.60 0.4515328
647.70 0.4512828
647.80 0.451033
647.90 0.4507833
648.00 0.4505337
648.10 0.4502843
648.20 0.450035
648.30 0.4497859
648.40 0.4495368
648.50 0.449288
648.60 0.4490392
648.70 0.4487906
648.80 0.4485421
648.90 0.4482937
649.00 0.4480455
649.10 0.4477974
649.20 0.4475494
649.30 0.4473016
649.40 0.4470328
649.50 0.4467633
649.60 0.4464939
649.70 0.4462247
649.80 0.4459556
649.90 0.4456867
650.00 0.4454179
650.10 0.4451492
650.20 0.4448807
650.30 0.4446124
650.40 0.4443441
650.50 0.4440761
650.60 0.4438081
650.70 0.4435404
650.80 0.4432727
650.90 0.4430052
651.00 0.4427379
651.10 0.4424707
651.20 0.4422036
651.30 0.4419367
651.40 0.4416699
651.50 0.4414032
651.60 0.4411368
651.70 0.4408704
651.80 0.4406042
651.90 0.4403381
652.00 0.4400722
652.10 0.4398064
652.20 0.4395408
652.30 0.4392753
652.40 0.4390099
652.50 0.4387447
652.60 0.4384707
652.70 0.4381919
652.80 0.4379133
652.90 0.4376348
653.00 0.4373565
653.10 0.4370784
653.20 0.4368004
653.30 0.4365225
653.40 0.4362448
653.50 0.4359672
653.60 0.4356898
653.70 0.4354126
653.80 0.4351355
653.90 0.4348585
654.00 0.4345817
654.10 0.434305
654.20 0.4340285
654.30 0.4337521
654.40 0.4334759
654.50 0.4331998
654.60 0.4329239
654.70 0.4326482
654.80 0.4323725
654.90 0.4320971
655.00 0.4318217
655.10 0.4315466
655.20 0.4312715
655.30 0.4309966
655.40 0.4307219
655.50 0.4304473
655.60 0.4301729
655.70 0.4298986
655.80 0.4295585
655.90 0.4292186
656.00 0.428879
656.10 0.4285395
656.20 0.4282001
656.30 0.427861
656.40 0.4275221
656.50 0.4271833
656.60 0.4268448
656.70 0.4265064
656.80 0.4261682
656.90 0.4258302
657.00 0.4254924
657.10 0.4251547
657.20 0.4248173
657.30 0.42448
657.40 0.424143
657.50 0.4238061
657.60 0.4234694
657.70 0.4231328
657.80 0.4230042
657.90 0.4226394
658.00 0.422233
658.10 0.4218269
658.20 0.4214211
658.30 0.4210154
658.40 0.42061
658.50 0.4202048
658.60 0.4197999
658.70 0.4193951
658.80 0.4189906
658.90 0.4185864
659.00 0.4181823
659.10 0.4176922
659.20 0.4170731
659.30 0.4165757
659.40 0.4160787
659.50 0.4155819
659.60 0.4150853
659.70 0.4145891
659.80 0.4140932
659.90 0.4135975
660.00 0.4131021
660.10 0.412607
660.20 0.4121122
660.30 0.4116176
660.40 0.4110162
660.50 0.4103962
660.60 0.4097766
660.70 0.4091573
660.80 0.4085384
660.90 0.4076947
661.00 0.4068514
661.10 0.4060086
661.20 0.4051664
661.30 0.4043246
661.40 0.4034833
661.50 0.4026425
661.60 0.4018022
661.70 0.4009624
661.80 0.400123
661.90 0.3987408
662.00 0.3973594
662.10 0.3959789
662.20 0.3945991
662.30 0.3932202
662.40 0.3915471
662.50 0.38904
662.60 0.3865345
662.70 0.3840305
662.80 0.3815279
662.90 0.3773226
663.00 0.3731198
663.10 0.366535
663.20 0.372384
663.30 0.3898044
663.40 0.3951323
663.50 0.3970546
663.60 0.3989757
663.70 0.39933
663.80 0.399684
663.90 0.3996347
664.00 0.3995143
664.10 0.3989978
664.20 0.3984816
664.30 0.3979656
664.40 0.39745
664.50 0.3969346
664.60 0.3964195
664.70 0.3954268
664.80 0.3944345
664.90 0.3934429
665.00 0.3924519
665.10 0.3914614
665.20 0.3904715
665.30 0.3894822
665.40 0.3884934
665.50 0.3871583
665.60 0.3857627
665.70 0.3840604
665.80 0.3820875
665.90 0.3801158
666.00 0.3781453
666.10 0.3761759
666.20 0.3742077
666.30 0.3722407
666.40 0.3702748
666.50 0.3668764
666.60 0.363227
666.70 0.3595798
666.80 0.3559347
666.90 0.3522919
667.00 0.3486511
667.10 0.3429134
667.20 0.3368086
667.30 0.3283845
667.40 0.3199653
667.50 0.3075063
667.60 0.2943411
667.70 0.2795593
667.80 0.2712049
667.90 0.2730123
668.00 0.2825223
668.10 0.2932077
668.20 0.303922
668.30 0.3112803
668.40 0.3180434
668.50 0.3248023
668.60 0.3315573
668.70 0.3363042
668.80 0.3395198
668.90 0.3427334
669.00 0.3459451
669.10 0.3491548
669.20 0.3523627
669.30 0.3542888
669.40 0.355988
669.50 0.3576861
669.60 0.3593832
669.70 0.3610793
669.80 0.3627744
669.90 0.3644684
670.00 0.3661614
670.10 0.3678534
670.20 0.3695444
670.30 0.3706389
670.40 0.3716278
670.50 0.3726161
670.60 0.3736038
670.70 0.3745908
670.80 0.3751359
670.90 0.3756807
671.00 0.3762251
671.10 0.3767692
671.20 0.3773129
671.30 0.3778563
671.40 0.3783994
671.50 0.3789421
671.60 0.3794845
671.70 0.3800265
671.80 0.3805683
671.90 0.3809544
672.00 0.3813129
672.10 0.3816713
672.20 0.3820293
672.30 0.3823872
672.40 0.382617
672.50 0.382837
672.60 0.3830568
672.70 0.3832765
672.80 0.3834961
672.90 0.3837155
673.00 0.3839348
673.10 0.3841539
673.20 0.3843729
673.30 0.384546
673.40 0.3846012
673.50 0.3846356
673.60 0.38467
673.70 0.3847043
673.80 0.3847386
673.90 0.3847728
674.00 0.384807
674.10 0.3848412
674.20 0.3848753
674.30 0.3849094
674.40 0.3849435
674.50 0.3849775
674.60 0.3850115
674.70 0.3850454
674.80 0.3850793
674.90 0.3851132
675.00 0.385147
675.10 0.3851808
675.20 0.3852146
675.30 0.3852483
675.40 0.3851787
675.50 0.3850909
675.60 0.3850032
675.70 0.3849155
675.80 0.3848278
675.90 0.3847402
676.00 0.3846526
676.10 0.384565
676.20 0.3844775
676.30 0.38439
676.40 0.3843026
676.50 0.3842151
676.60 0.3841277
676.70 0.3840404
676.80 0.3839531
676.90 0.3838658
677.00 0.3837785
677.10 0.3836913
677.20 0.3836041
677.30 0.383517
677.40 0.3834299
677.50 0.3833428
677.60 0.3832558
677.70 0.3831688
677.80 0.3830818
677.90 0.3829499
678.00 0.3828101
678.10 0.3826704
678.20 0.3825308
678.30 0.3823912
678.40 0.3822517
678.50 0.3821122
678.60 0.3819729
678.70 0.3818335
678.80 0.3816943
678.90 0.3815551
679.00 0.381416
679.10 0.3812555
679.20 0.3810858
679.30 0.3809163
679.40 0.3807468
679.50 0.3805774
679.60 0.3804081
679.70 0.3802389
679.80 0.3800697
679.90 0.3799007
680.00 0.3797317
680.10 0.3795628
680.20 0.379394
680.30 0.3792253
680.40 0.3790566
680.50 0.3788881
680.60 0.3787196
680.70 0.3785512
680.80 0.3783829
680.90 0.3782147
681.00 0.3780465
681.10 0.3778784
681.20 0.3777105
681.30 0.3775426
681.40 0.3773747
681.50 0.377207
681.60 0.3770394
681.70 0.3768718
681.80 0.3767043
681.90 0.3765369
682.00 0.3763696
682.10 0.3762023
682.20 0.3760352
682.30 0.3758681
682.40 0.3757011
682.50 0.3755342
682.60 0.3753673
682.70 0.3752006
682.80 0.3750339
682.90 0.3748673
683.00 0.3747008
683.10 0.3745344
683.20 0.374368
683.30 0.3742018
683.40 0.3740356
683.50 0.3738695
683.60 0.3737035
683.70 0.3735375
683.80 0.3733717
683.90 0.3732059
684.00 0.3730402
684.10 0.3728746
684.20 0.372709
684.30 0.3725436
684.40 0.3723782
684.50 0.3722129
684.60 0.3720477
684.70 0.3718826
684.80 0.3717175
684.90 0.3715526
685.00 0.3713877
685.10 0.3712229
685.20 0.3710581
685.30 0.3708935
685.40 0.3707289
685.50 0.3705644
685.60 0.3704
685.70 0.3702357
685.80 0.3700715
685.90 0.3698929
686.00 0.3697108
686.10 0.3695288
686.20 0.3693469
686.30 0.3691651
686.40 0.3689834
686.50 0.3688018
686.60 0.3686202
686.70 0.3684388
686.80 0.3682574
686.90 0.3680762
687.00 0.367895
687.10 0.3677139
687.20 0.3675329
687.30 0.367352
687.40 0.3671712
687.50 0.3669905
687.60 0.3668098
687.70 0.3666293
687.80 0.3664488
687.90 0.3662684
688.00 0.3660882
688.10 0.365908
688.20 0.3657279
688.30 0.3655479
688.40 0.3653679
688.50 0.3651881
688.60 0.3650083
688.70 0.3648287
688.80 0.3646491
688.90 0.3644696
689.00 0.3642903
689.10 0.364111
689.20 0.3639317
689.30 0.3637526
689.40 0.3635736
689.50 0.3633946
689.60 0.3632158
689.70 0.363037
689.80 0.3628583
689.90 0.3626797
690.00 0.3625012
690.10 0.3623228
690.20 0.3621445
690.30 0.3619662
690.40 0.3617881
690.50 0.36161
690.60 0.3614321
690.70 0.3612542
690.80 0.3610764
690.90 0.3608987
691.00 0.360721
691.10 0.3605435
691.20 0.360366
691.30 0.3601887
691.40 0.3600114
691.50 0.3598342
691.60 0.3596571
691.70 0.3594801
691.80 0.3593032
691.90 0.3591263
692.00 0.3589496
692.10 0.3587729
692.20 0.3585964
692.30 0.3584199
692.40 0.3582435
692.50 0.3580672
692.60 0.3578909
692.70 0.357713
692.80 0.3575285
692.90 0.357344
693.00 0.3571597
693.10 0.3569755
693.20 0.3567913
693.30 0.3566072
693.40 0.3564232
693.50 0.3562394
693.60 0.3560556
693.70 0.3558719
693.80 0.3556883
693.90 0.3555047
694.00 0.3553213
694.10 0.355138
694.20 0.3549547
694.30 0.3547716
694.40 0.3545885
694.50 0.3544055
694.60 0.3542226
694.70 0.3540398
694.80 0.3538571
694.90 0.3536745
695.00 0.353492
695.10 0.3533096
695.20 0.3531272
695.30 0.352945
695.40 0.3527628
695.50 0.3525807
695.60 0.3523988
695.70 0.3522169
695.80 0.3520351
695.90 0.3518534
696.00 0.3516717
696.10 0.3514902
696.20 0.3513088
696.30 0.3511274
696.40 0.3509461
696.50 0.350765
696.60 0.350579
696.70 0.350392
696.80 0.350205
696.90 0.3500182
697.00 0.3498314
697.10 0.3496447
697.20 0.3494582
697.30 0.3492717
697.40 0.3490853
697.50 0.348899
697.60 0.3487128
697.70 0.3485267
697.80 0.3483407
697.90 0.3481548
698.00 0.3479689
698.10 0.3477832
698.20 0.3475975
698.30 0.347412
698.40 0.3472265
698.50 0.3470412
698.60 0.3468559
698.70 0.3466707
698.80 0.3464856
698.90 0.3463006
699.00 0.3461157
699.10 0.345958
699.20 0.3458068
699.30 0.3456556
699.40 0.3455045
699.50 0.3453535
699.60 0.3452026
699.70 0.3449779
699.80 0.3447496
699.90 0.3445213
700.00 0.3442932
700.10 0.3440652
700.20 0.3438373
700.30 0.3436095
700.40 0.3433818
700.50 0.3431543
700.60 0.3429268
700.70 0.3426995
700.80 0.3424723
700.90 0.3422452
701.00 0.3420182
701.10 0.3417809
701.20 0.3415413
701.30 0.3413017
701.40 0.3410624
701.50 0.3408231
701.60 0.3405839
701.70 0.3403449
701.80 0.340106
701.90 0.3398672
702.00 0.3396286
702.10 0.33939
702.20 0.3391516
702.30 0.3389133
702.40 0.3386751
702.50 0.3384371
702.60 0.3380681
702.70 0.3376685
702.80 0.3372692
702.90 0.3368701
703.00 0.3364712
703.10 0.3360725
703.20 0.335674
703.30 0.3352757
703.40 0.3348777
703.50 0.3344798
703.60 0.3340822
703.70 0.3336848
703.80 0.3332876
703.90 0.3328906
704.00 0.3324938
704.10 0.3320973
704.20 0.3313095
704.30 0.3304303
704.40 0.3295516
704.50 0.3286734
704.60 0.3277957
704.70 0.3269185
704.80 0.3260417
704.90 0.3251655
705.00 0.3242897
705.10 0.3234144
705.20 0.3215475
705.30 0.319449
705.40 0.3173517
705.50 0.3152555
705.60 0.3131605
705.70 0.3110667
705.80 0.3067009
705.90 0.3018046
706.00 0.296911
706.10 0.2920202
706.20 0.2822911
706.30 0.2714322
706.40 0.253938
706.50 0.2330203
706.60 0.2300871
706.70 0.2518037
706.80 0.2653783
706.90 0.2775926
707.00 0.2841627
707.10 0.2894072
707.20 0.2946488
707.30 0.2998873
707.40 0.3026317
707.50 0.3047904
707.60 0.3069479
707.70 0.3091041
707.80 0.3112591
707.90 0.3134129
708.00 0.3144521
708.10 0.3152296
708.20 0.3160066
708.30 0.3167832
708.40 0.3175594
708.50 0.318335
708.60 0.3191103
708.70 0.3198851
708.80 0.3206594
708.90 0.3214333
709.00 0.3217029
709.10 0.3218542
709.20 0.3220054
709.30 0.3221565
709.40 0.3223075
709.50 0.3224584
709.60 0.3226093
709.70 0.32276
709.80 0.3229106
709.90 0.3230611
710.00 0.3232115
710.10 0.3233618
710.20 0.3235121
710.30 0.3236622
710.40 0.3238122
710.50 0.3239622
710.60 0.3239488
710.70 0.3238972
710.80 0.3238456
710.90 0.323794
711.00 0.3237424
711.10 0.3236909
711.20 0.3236394
711.30 0.3235878
711.40 0.3235363
711.50 0.3234848
711.60 0.3234334
711.70 0.3233819
711.80 0.3233305
711.90 0.323279
712.00 0.3232276
712.10 0.3231443
712.20 0.3230536
712.30 0.3229629
712.40 0.3228722
712.50 0.3227816
712.60 0.322691
712.70 0.3226005
712.80 0.32251
712.90 0.3224195
713.00 0.3223291
713.10 0.3222387
713.20 0.3221483
713.30 0.322058
713.40 0.3219677
713.50 0.3218775
713.60 0.3217873
713.70 0.3216695
713.80 0.3214959
713.90 0.3213223
714.00 0.3211489
714.10 0.321005
714.20 0.3208681
714.30 0.3207313
714.40 0.3205946
714.50 0.3204579
714.60 0.3203213
714.70 0.3201848
714.80 0.3200483
714.90 0.3199118
715.00 0.3197755
715.10 0.3196392
715.20 0.319503
715.30 0.3193668
715.40 0.3192307
715.50 0.3190947
715.60 0.3189587
715.70 0.3188228
715.80 0.3186869
715.90 0.3185511
716.00 0.3184154
716.10 0.3182798
716.20 0.3181442
716.30 0.3180086
716.40 0.3178732
716.50 0.3177378
716.60 0.3175964
716.70 0.3174536
716.80 0.3173109
716.90 0.3171683
717.00 0.3170257
717.10 0.3168833
717.20 0.3167408
717.30 0.3165985
717.40 0.3164562
717.50 0.316314
717.60 0.3161718
717.70 0.3160297
717.80 0.3158877
717.90 0.3157458
718.00 0.3156039
718.10 0.3154621
718.20 0.3153176
718.30 0.3151718
718.40 0.315026
718.50 0.3148803
718.60 0.3147346
718.70 0.3145891
718.80 0.3144436
718.90 0.3142981
719.00 0.3141528
719.10 0.3140075
719.20 0.3138622
719.30 0.3137171
719.40 0.313572
719.50 0.3134269
719.60 0.313282
719.70 0.3131371
719.80 0.3129923
719.90 0.3128475
720.00 0.3127028
720.10 0.3125582
720.20 0.3124137
720.30 0.3122692
720.40 0.3121248
720.50 0.3119805
720.60 0.3118362
720.70 0.3116186
720.80 0.3113615
720.90 0.3112079
721.00 0.3110586
721.10 0.3109094
721.20 0.3107603
721.30 0.3106112
721.40 0.3104623
721.50 0.3103133
721.60 0.3101645
721.70 0.3100157
721.80 0.309867
721.90 0.3097184
722.00 0.3095698
722.10 0.3094213
722.20 0.3092729
722.30 0.3091246
722.40 0.3089763
722.50 0.3088281
722.60 0.30868
722.70 0.3085105
722.80 0.3083295
722.90 0.3081487
723.00 0.307968
723.10 0.3077873
723.20 0.3076067
723.30 0.3074262
723.40 0.3072458
723.50 0.3070655
723.60 0.3068853
723.70 0.3067052
723.80 0.3065251
723.90 0.3063452
724.00 0.3061653
724.10 0.3059855
724.20 0.3057865
724.30 0.3055772
724.40 0.3053679
724.50 0.3051588
724.60 0.3049498
724.70 0.3047408
724.80 0.304532
724.90 0.3043233
725.00 0.3041147
725.10 0.3039062
725.20 0.3036978
725.30 0.3034894
725.40 0.3032812
725.50 0.3030731
725.60 0.3028651
725.70 0.3026573
725.80 0.302327
725.90 0.3019311
726.00 0.3015353
726.10 0.3011397
726.20 0.3007444
726.30 0.3003492
726.40 0.2999543
726.50 0.2995596
726.60 0.299165
726.70 0.2987707
726.80 0.297965
726.90 0.2969381
727.00 0.2959118
727.10 0.294886
727.20 0.2938607
727.30 0.2928361
727.40 0.2905255
727.50 0.2875236
727.60 0.2845233
727.70 0.2815247
727.80 0.2751963
727.90 0.267078
728.00 0.2534808
728.10 0.2214227
728.20 0.2181135
728.30 0.2439448
728.40 0.2560283
728.50 0.2652998
728.60 0.2709899
728.70 0.2747517
728.80 0.2785115
728.90 0.2822692
729.00 0.2844188
729.10 0.2857026
729.20 0.2869858
729.30 0.2882682
729.40 0.2895499
729.50 0.2908309
729.60 0.2914832
729.70 0.2917972
729.80 0.2921109
729.90 0.2924245
730.00 0.2927379
730.10 0.2930511
730.20 0.2933641
730.30 0.293677
730.40 0.2939896
730.50 0.2943021
730.60 0.2943932
730.70 0.2943653
730.80 0.2943373
730.90 0.2943093
731.00 0.2942814
731.10 0.2942534
731.20 0.2942255
731.30 0.2941975
731.40 0.2941696
731.50 0.2941416
731.60 0.2941137
731.70 0.2940858
731.80 0.2940578
731.90 0.2940299
732.00 0.294002
732.10 0.2939741
732.20 0.2939
732.30 0.2938011
732.40 0.2937023
732.50 0.2936035
732.60 0.2935047
732.70 0.293406
732.80 0.2933074
732.90 0.2932087
733.00 0.2931102
733.10 0.2930116
733.20 0.2929131
733.30 0.2928147
733.40 0.2927163
733.50 0.2926179
733.60 0.2925196
733.70 0.2924115
733.80 0.2922982
733.90 0.292185
734.00 0.2920719
734.10 0.2919588
734.20 0.2918457
734.30 0.2917327
734.40 0.2916197
734.50 0.2915068
734.60 0.2913939
734.70 0.2912811
734.80 0.2911684
734.90 0.2910557
735.00 0.290943
735.10 0.2908304
735.20 0.2907178
735.30 0.2906015
735.40 0.2904418
735.50 0.2902821
735.60 0.2901225
735.70 0.2899794
735.80 0.2898452
735.90 0.2897111
736.00 0.2895771
736.10 0.2894432
736.20 0.2893093
736.30 0.2891754
736.40 0.2890417
736.50 0.2889079
736.60 0.2887743
736.70 0.2886407
736.80 0.2885072
736.90 0.2883737
737.00 0.2882403
737.10 0.288107
737.20 0.2879737
737.30 0.2878405
737.40 0.2877073
737.50 0.2875742
737.60 0.2874412
737.70 0.2873082
737.80 0.2871753
737.90 0.2870425
738.00 0.2869097
738.10 0.286777
738.20 0.2866444
738.30 0.2865119
738.40 0.2863795
738.50 0.2862471
738.60 0.2861148
738.70 0.2859826
738.80 0.2858504
738.90 0.2857183
739.00 0.2855862
739.10 0.2854543
739.20 0.2853223
739.30 0.2851905
739.40 0.2850586
739.50 0.2849269
739.60 0.2847952
739.70 0.2846636
739.80 0.284532
739.90 0.2844005
740.00 0.2842691
740.10 0.2841377
740.20 0.2840064
740.30 0.2838751
740.40 0.2837439
740.50 0.2836128
740.60 0.2834817
740.70 0.2833507
740.80 0.2832197
740.90 0.2830888
741.00 0.282958
741.10 0.2828272
741.20 0.2826965
741.30 0.2825658
741.40 0.2824352
741.50 0.2823047
741.60 0.2821742
741.70 0.2820438
741.80 0.2819134
741.90 0.2817831
742.00 0.2816529
742.10 0.2815227
742.20 0.2813926
742.30 0.2812625
742.40 0.2811325
742.50 0.2810026
742.60 0.2808727
742.70 0.2807439
742.80 0.2806158
742.90 0.2804878
743.00 0.2803599
743.10 0.280232
743.20 0.2801042
743.30 0.2799765
743.40 0.2798488
743.50 0.2797212
743.60 0.2795936
743.70 0.2794655
743.80 0.2793353
743.90 0.2792052
744.00 0.2790751
744.10 0.2789451
744.20 0.2788151
744.30 0.2786852
744.40 0.2785554
744.50 0.2784256
744.60 0.2782958
744.70 0.2781662
744.80 0.2780366
744.90 0.277907
745.00 0.2777775
745.10 0.2776481
745.20 0.2775188
745.30 0.2773894
745.40 0.2772602
745.50 0.277131
745.60 0.2770019
745.70 0.2768728
745.80 0.2767438
745.90 0.2766148
746.00 0.276486
746.10 0.2763571
746.20 0.2762283
746.30 0.2760996
746.40 0.275971
746.50 0.2758424
746.60 0.2757138
746.70 0.2755854
746.80 0.2754569
746.90 0.2753286
747.00 0.2752003
747.10 0.275072
747.20 0.2749438
747.30 0.2748157
747.40 0.2746876
747.50 0.2745596
747.60 0.2744317
747.70 0.2743038
747.80 0.274176
747.90 0.2740482
748.00 0.2739205
748.10 0.2737928
748.20 0.2736652
748.30 0.2735377
748.40 0.2734102
748.50 0.2732828
748.60 0.2731554
748.70 0.2730281
748.80 0.2729009
748.90 0.2727737
749.00 0.2726465
749.10 0.2725195
749.20 0.2723924
749.30 0.2722655
749.40 0.2721386
749.50 0.2720117
749.60 0.271885
749.70 0.2717582
749.80 0.2716316
749.90 0.271505
750.00 0.2713784
750.10 0.2712512
750.20 0.2711221
750.30 0.270993
750.40 0.2708641
750.50 0.2707352
750.60 0.2706063
750.70 0.2704775
750.80 0.2703488
750.90 0.2702201
751.00 0.2700915
751.10 0.269963
751.20 0.2698345
751.30 0.269706
751.40 0.2695777
751.50 0.2694493
751.60 0.2693211
751.70 0.2691929
751.80 0.2690647
751.90 0.2689366
752.00 0.2688086
752.10 0.2686807
752.20 0.2685527
752.30 0.2684249
752.40 0.2682971
752.50 0.2681694
752.60 0.2680417
752.70 0.2679141
752.80 0.2677865
752.90 0.267659
753.00 0.2675316
753.10 0.2674042
753.20 0.2672769
753.30 0.2671496
753.40 0.2670224
753.50 0.2668952
753.60 0.2667682
753.70 0.2666411
753.80 0.2665141
753.90 0.2663927
754.00 0.2662729
754.10 0.2661531
754.20 0.2660334
754.30 0.2659137
754.40 0.2657941
754.50 0.2656745
754.60 0.265555
754.70 0.2654355
754.80 0.2653161
754.90 0.2651968
755.00 0.2650775
755.10 0.2649582
755.20 0.2648391
755.30 0.2647199
755.40 0.2646008
755.50 0.2644818
755.60 0.2643628
755.70 0.2642439
755.80 0.2641251
755.90 0.2640062
756.00 0.2638875
756.10 0.2637688
756.20 0.2636501
756.30 0.2635315
756.40 0.263413
756.50 0.2632945
756.60 0.2631761
756.70 0.2630577
756.80 0.2629394
756.90 0.2628211
757.00 0.2627028
757.10 0.2625847
757.20 0.2624666
757.30 0.2623485
757.40 0.2622305
757.50 0.2621125
757.60 0.2619928
757.70 0.2618686
757.80 0.2617444
757.90 0.2616203
758.00 0.2614962
758.10 0.2613722
758.20 0.2612482
758.30 0.2611243
758.40 0.2610004
758.50 0.2608766
758.60 0.2607529
758.70 0.2606292
758.80 0.2605056
758.90 0.260382
759.00 0.2602585
759.10 0.260135
759.20 0.2600116
759.30 0.2598882
759.40 0.259765
759.50 0.2596417
759.60 0.2595185
759.70 0.2593954
759.80 0.2592723
759.90 0.2591493
760.00 0.2590264
760.10 0.2589035
760.20 0.2587806
760.30 0.2586578
760.40 0.2585351
760.50 0.2584124
760.60 0.2582898
760.70 0.2581672
760.80 0.2580447
760.90 0.2579222
761.00 0.2577998
761.10 0.2576775
761.20 0.2575552
761.30 0.257433
761.40 0.2573121
761.50 0.2571934
761.60 0.2570748
761.70 0.2569561
761.80 0.2568376
761.90 0.2567191
762.00 0.2566006
762.10 0.2564822
762.20 0.2563639
762.30 0.2562456
762.40 0.2561274
762.50 0.2560092
762.60 0.2558911
762.70 0.255773
762.80 0.2556549
762.90 0.255537
763.00 0.2554191
763.10 0.2553012
763.20 0.2551834
763.30 0.2550656
763.40 0.2549479
763.50 0.2548303
763.60 0.2547127
763.70 0.2545951
763.80 0.2544776
763.90 0.2543602
764.00 0.2542428
764.10 0.2541255
764.20 0.2540082
764.30 0.2538909
764.40 0.2537738
764.50 0.2536566
764.60 0.2535396
764.70 0.2534225
764.80 0.2533056
764.90 0.2531887
765.00 0.2530718
765.10 0.252955
765.20 0.2528383
765.30 0.2527218
765.40 0.2526053
765.50 0.2524889
765.60 0.2523725
765.70 0.2522561
765.80 0.2521399
765.90 0.2520236
766.00 0.2519075
766.10 0.2517914
766.20 0.2516753
766.30 0.2515593
766.40 0.2514433
766.50 0.2513274
766.60 0.2512115
766.70 0.2510957
766.80 0.25098
766.90 0.2508643
767.00 0.2507486
767.10 0.250633
767.20 0.2505175
767.30 0.250402
767.40 0.2502865
767.50 0.2501711
767.60 0.2500558
767.70 0.2499405
767.80 0.2498252
767.90 0.2497101
768.00 0.2495949
768.10 0.2494798
768.20 0.2493648
768.30 0.2492498
768.40 0.2491349
768.50 0.24902
768.60 0.2489052
768.70 0.2487904
768.80 0.2486757
768.90 0.248561
769.00 0.2484464
769.10 0.2483318
769.20 0.2482173
769.30 0.2481028
769.40 0.2479884
769.50 0.247874
769.60 0.2477597
769.70 0.2476455
769.80 0.2475312
769.90 0.2474171
770.00 0.247303
770.10 0.2471889
770.20 0.2470749
770.30 0.2469609
770.40 0.246847
770.50 0.2467332
770.60 0.2466194
770.70 0.2465056
770.80 0.2463919
770.90 0.2462783
771.00 0.2461647
771.10 0.2460511
771.20 0.2459376
771.30 0.2458241
771.40 0.2457107
771.50 0.2455974
771.60 0.2454841
771.70 0.2453708
771.80 0.2452576
771.90 0.2451445
772.00 0.2450314
772.10 0.2449183
772.20 0.2448053
772.30 0.2446924
772.40 0.2445795
772.50 0.2444667
772.60 0.2443539
772.70 0.2442411
772.80 0.2441284
772.90 0.2440169
773.00 0.2439054
773.10 0.243794
773.20 0.2436827
773.30 0.2435714
773.40 0.2434601
773.50 0.2433489
773.60 0.2432377
773.70 0.2431266
773.80 0.2430155
773.90 0.2429045
774.00 0.2427935
774.10 0.2426826
774.20 0.2425718
774.30 0.2424609
774.40 0.2423502
774.50 0.2422394
774.60 0.2421288
774.70 0.2420181
774.80 0.2419076
774.90 0.241797
775.00 0.2416866
775.10 0.2415761
775.20 0.2414658
775.30 0.2413554
775.40 0.2412452
775.50 0.2411349
775.60 0.2410247
775.70 0.2409146
775.80 0.2408045
775.90 0.2406945
776.00 0.2405845
776.10 0.2404746
776.20 0.2403647
776.30 0.2402548
776.40 0.240145
776.50 0.2400353
776.60 0.2399256
776.70 0.2398159
776.80 0.2397063
776.90 0.2395968
777.00 0.2394873
777.10 0.2393778
777.20 0.2392684
777.30 0.2391591
777.40 0.2390498
777.50 0.2389405
777.60 0.2388313
777.70 0.2387221
777.80 0.238613
777.90 0.2385039
778.00 0.2383949
778.10 0.2382859
778.20 0.238177
778.30 0.2380681
778.40 0.2379593
778.50 0.2378505
778.60 0.2377418
778.70 0.2376331
778.80 0.2375245
778.90 0.2374159
779.00 0.2373074
779.10 0.2371989
779.20 0.2370904
779.30 0.236982
779.40 0.2368737
779.50 0.2367654
779.60 0.2366571
779.70 0.2365489
779.80 0.2364408
779.90 0.2363327
780.00 0.2362246
780.10 0.2361166
780.20 0.2360086
780.30 0.2359007
780.40 0.2357928
780.50 0.235685
780.60 0.2355776
780.70 0.2354705
780.80 0.2353634
780.90 0.2352563
781.00 0.2351493
781.10 0.2350423
781.20 0.2349354
781.30 0.2348285
781.40 0.2347217
781.50 0.2346149
781.60 0.2345082
781.70 0.2344015
781.80 0.2342948
781.90 0.2341882
782.00 0.2340817
782.10 0.2339752
782.20 0.2338687
782.30 0.2337623
782.40 0.2336559
782.50 0.2335496
782.60 0.2334433
782.70 0.2333371
782.80 0.2332309
782.90 0.2331248
783.00 0.2330187
783.10 0.2329127
783.20 0.2328067
783.30 0.2327008
783.40 0.2325949
783.50 0.232489
783.60 0.2323832
783.70 0.2322775
783.80 0.2321717
783.90 0.2320661
784.00 0.2319605
784.10 0.2318549
784.20 0.2317494
784.30 0.2316439
784.40 0.2315384
784.50 0.2314331
784.60 0.2313279
784.70 0.231223
784.80 0.2311182
784.90 0.2310134
785.00 0.2309087
785.10 0.230804
785.20 0.2306994
785.30 0.2305948
785.40 0.2304903
785.50 0.2303858
785.60 0.2302814
785.70 0.230177
785.80 0.2300727
785.90 0.2299683
786.00 0.2298641
786.10 0.2297599
786.20 0.2296557
786.30 0.2295516
786.40 0.2294475
786.50 0.2293435
786.60 0.2292395
786.70 0.2291356
786.80 0.2290317
786.90 0.2289278
787.00 0.228824
787.10 0.2287203
787.20 0.2286166
787.30 0.2285129
787.40 0.2284093
787.50 0.2283057
787.60 0.2282022
787.70 0.2280987
787.80 0.2279952
787.90 0.2278918
788.00 0.2277885
788.10 0.2276852
788.20 0.2275819
788.30 0.2274787
788.40 0.2273761
788.50 0.2272738
788.60 0.2271716
788.70 0.2270694
788.80 0.2269672
788.90 0.2268651
789.00 0.2267631
789.10 0.2266611
789.20 0.2265591
789.30 0.2264572
789.40 0.2263553
789.50 0.2262534
789.60 0.2261517
789.70 0.2260499
789.80 0.2259482
789.90 0.2258465
790.00 0.2257449
790.10 0.2256433
790.20 0.2255418
790.30 0.2254403
790.40 0.2253389
790.50 0.2252375
790.60 0.2251361
790.70 0.2250348
790.80 0.2249336
790.90 0.2248324
791.00 0.2247312
791.10 0.22463
791.20 0.224529
791.30 0.2244279
791.40 0.2243269
791.50 0.224226
791.60 0.224125
791.70 0.2240242
791.80 0.2239234
791.90 0.2238226
792.00 0.2237218
792.10 0.2236211
792.20 0.2235205
792.30 0.2234199
792.40 0.2233193
792.50 0.2232188
792.60 0.2231183
792.70 0.2230179
792.80 0.2229175
792.90 0.2228171
793.00 0.2227168
793.10 0.2226165
793.20 0.2225163
793.30 0.2224161
793.40 0.222316
793.50 0.2222159
793.60 0.2221158
793.70 0.2220158
793.80 0.2219159
793.90 0.2218159
794.00 0.2217161
794.10 0.2216162
794.20 0.2215164
794.30 0.2214167
794.40 0.221317
794.50 0.2212173
794.60 0.2211177
794.70 0.2210181
794.80 0.2209186
794.90 0.2208191
795.00 0.2207197
795.10 0.2206202
795.20 0.2205209
795.30 0.2204216
795.40 0.2203223
795.50 0.2202231
795.60 0.2201239
795.70 0.2200247
795.80 0.2199256
795.90 0.2198266
796.00 0.2197276
796.10 0.2196286
796.20 0.2195296
796.30 0.2194316
796.40 0.2193338
796.50 0.219236
796.60 0.2191383
796.70 0.2190406
796.80 0.218943
796.90 0.2188454
797.00 0.2187478
797.10 0.2186503
797.20 0.2185528
797.30 0.2184554
797.40 0.218358
797.50 0.2182606
797.60 0.2181633
797.70 0.2180661
797.80 0.2179688
797.90 0.2178717
798.00 0.2177745
798.10 0.2176774
798.20 0.2175804
798.30 0.2174834
798.40 0.2173864
798.50 0.2172894
798.60 0.2171926
798.70 0.2170957
798.80 0.2169989
798.90 0.2169021
799.00 0.2168054
799.10 0.2167087
799.20 0.2166121
799.30 0.2165155
799.40 0.2164189
799.50 0.2163224
799.60 0.2162259
799.70 0.2161295
799.80 0.2160331
799.90 0.2159368
800.00 0.2158405
800.10 0.2157442
800.20 0.215648
800.30 0.2155518
800.40 0.2154556
800.50 0.2153595
800.60 0.2152635
800.70 0.2151675
800.80 0.2150715
800.90 0.2149755
801.00 0.2148797
801.10 0.2147838
801.20 0.214688
801.30 0.2145922
801.40 0.2144965
801.50 0.2144008
801.60 0.2143051
801.70 0.2142095
801.80 0.214114
801.90 0.2140184
802.00 0.213923
802.10 0.2138275
802.20 0.2137321
802.30 0.2136368
802.40 0.2135414
802.50 0.2134462
802.60 0.2133509
802.70 0.2132557
802.80 0.2131606
802.90 0.2130654
803.00 0.2129704
803.10 0.2128753
803.20 0.2127803
803.30 0.2126854
803.40 0.2125905
803.50 0.2124956
803.60 0.2124008
803.70 0.212306
803.80 0.2122112
803.90 0.2121165
804.00 0.2120218
804.10 0.2119272
804.20 0.2118329
804.30 0.2117393
804.40 0.2116458
804.50 0.2115523
804.60 0.2114589
804.70 0.2113655
804.80 0.2112721
804.90 0.2111788
805.00 0.2110855
805.10 0.2109923
805.20 0.2108991
805.30 0.2108059
805.40 0.2107128
805.50 0.2106197
805.60 0.2105267
805.70 0.2104337
805.80 0.2103407
805.90 0.2102478
806.00 0.210155
806.10 0.2100621
806.20 0.2099693
806.30 0.2098766
806.40 0.2097838
806.50 0.2096912
806.60 0.2095985
806.70 0.2095059
806.80 0.2094133
806.90 0.2093208
807.00 0.2092283
807.10 0.2091359
807.20 0.2090435
807.30 0.2089511
807.40 0.2088588
807.50 0.2087665
807.60 0.2086743
807.70 0.2085821
807.80 0.2084899
807.90 0.2083978
808.00 0.2083057
808.10 0.2082136
808.20 0.2081216
808.30 0.2080296
808.40 0.2079377
808.50 0.2078458
808.60 0.2077539
808.70 0.2076621
808.80 0.2075704
808.90 0.2074786
809.00 0.2073869
809.10 0.2072953
809.20 0.2072036
809.30 0.207112
809.40 0.2070205
809.50 0.206929
809.60 0.2068375
809.70 0.2067461
809.80 0.2066547
809.90 0.2065634
810.00 0.2064721
810.10 0.2063808
810.20 0.2062896
810.30 0.2061984
810.40 0.2061072
810.50 0.2060161
810.60 0.205925
810.70 0.205834
810.80 0.205743
810.90 0.205652
811.00 0.2055611
811.10 0.2054702
811.20 0.2053794
811.30 0.2052885
811.40 0.2051978
811.50 0.205107
811.60 0.2050164
811.70 0.2049257
811.80 0.2048351
811.90 0.2047445
812.00 0.204654
812.10 0.2045635
812.20 0.204473
812.30 0.2043834
812.40 0.2042939
812.50 0.2042045
812.60 0.2041152
812.70 0.2040259
812.80 0.2039366
812.90 0.2038473
813.00 0.2037581
813.10 0.203669
813.20 0.2035798
813.30 0.2034907
813.40 0.2034017
813.50 0.2033127
813.60 0.2032237
813.70 0.2031348
813.80 0.2030459
813.90 0.202957
814.00 0.2028682
814.10 0.2027794
814.20 0.2026906
814.30 0.2026019
814.40 0.2025132
814.50 0.2024246
814.60 0.202336
814.70 0.2022474
814.80 0.2021589
814.90 0.2020704
815.00 0.201982
815.10 0.2018935
815.20 0.2018052
815.30 0.2017168
815.40 0.2016285
815.50 0.2015403
815.60 0.201452
815.70 0.2013638
815.80 0.2012757
815.90 0.2011876
816.00 0.2010995
816.10 0.2010114
816.20 0.2009234
816.30 0.2008355
816.40 0.2007475
816.50 0.2006596
816.60 0.2005718
816.70 0.200484
816.80 0.2003962
816.90 0.2003084
817.00 0.2002207
817.10 0.200133
817.20 0.2000454
817.30 0.1999578
817.40 0.1998702
817.50 0.1997827
817.60 0.1996952
817.70 0.1996078
817.80 0.1995204
817.90 0.199433
818.00 0.1993456
818.10 0.1992583
818.20 0.1991711
818.30 0.1990838
818.40 0.1989966
818.50 0.1989095
818.60 0.1988224
818.70 0.1987353
818.80 0.1986482
818.90 0.1985612
819.00 0.1984742
819.10 0.1983873
819.20 0.1983004
819.30 0.198213
819.40 0.1981253
819.50 0.1980376
819.60 0.19795
819.70 0.1978624
819.80 0.1977749
819.90 0.1976874
820.00 0.1975999
820.10 0.197516
820.20 0.1974335
820.30 0.1973468
820.40 0.1972609
820.50 0.1971754
820.60 0.1970901
820.70 0.1970047
820.80 0.1969194
820.90 0.1968341
821.00 0.1967489
821.10 0.1966636
821.20 0.1965785
821.30 0.1964933
821.40 0.1964082
821.50 0.1963232
821.60 0.1962381
821.70 0.1961531
821.80 0.1960682
821.90 0.1959832
822.00 0.1958984
822.10 0.1958135
822.20 0.1957287
822.30 0.1956439
822.40 0.1955591
822.50 0.1954744
822.60 0.1953898
822.70 0.1953051
822.80 0.1952205
822.90 0.1951359
823.00 0.1950514
823.10 0.1949669
823.20 0.1948824
823.30 0.194798
823.40 0.1947136
823.50 0.1946292
823.60 0.1945449
823.70 0.1944606
823.80 0.1943764
823.90 0.1942922
824.00 0.194208
824.10 0.1941238
824.20 0.1940397
824.30 0.1939556
824.40 0.1938716
824.50 0.1937876
824.60 0.1937036
824.70 0.1936197
824.80 0.1935358
824.90 0.1934519
825.00 0.1933681
825.10 0.1932843
825.20 0.1932005
825.30 0.1931168
825.40 0.1930331
825.50 0.1929494
825.60 0.1928658
825.70 0.1927822
825.80 0.1926986
825.90 0.1926151
826.00 0.1925316
826.10 0.1924482
826.20 0.1923648
826.30 0.1922812
826.40 0.1921976
826.50 0.192114
826.60 0.1920305
826.70 0.1919469
826.80 0.1918635
826.90 0.19178
827.00 0.1916966
827.10 0.1916132
827.20 0.1915299
827.30 0.1914466
827.40 0.1913633
827.50 0.19128
827.60 0.1911968
827.70 0.1911137
827.80 0.1910305
827.90 0.1909474
828.00 0.1908643
828.10 0.1907813
828.20 0.1906983
828.30 0.1906153
828.40 0.1905324
828.50 0.1904495
828.60 0.1903675
828.70 0.1902863
828.80 0.1902051
828.90 0.190124
829.00 0.1900429
829.10 0.1899618
829.20 0.1898807
829.30 0.1897997
829.40 0.1897187
829.50 0.1896378
829.60 0.1895569
829.70 0.189476
829.80 0.1893951
829.90 0.1893143
830.00 0.1892335
830.10 0.1891528
830.20 0.1890721
830.30 0.1889914
830.40 0.1889108
830.50 0.1888301
830.60 0.1887496
830.70 0.188669
830.80 0.1885885
830.90 0.188508
831.00 0.1884276
831.10 0.1883472
831.20 0.1882668
831.30 0.1881864
831.40 0.1881061
831.50 0.1880258
831.60 0.1879456
831.70 0.1878654
831.80 0.1877852
831.90 0.187705
832.00 0.1876249
832.10 0.1875448
832.20 0.1874648
832.30 0.1873848
832.40 0.1873048
832.50 0.1872248
832.60 0.1871449
832.70 0.187065
832.80 0.1869852
832.90 0.1869054
833.00 0.1868256
833.10 0.1867458
833.20 0.1866661
833.30 0.1865864
833.40 0.1865068
833.50 0.1864272
833.60 0.1863476
833.70 0.186268
833.80 0.1861885
833.90 0.186109
834.00 0.1860295
834.10 0.1859501
834.20 0.1858707
834.30 0.1857914
834.40 0.185712
834.50 0.1856328
834.60 0.1855535
834.70 0.1854743
834.80 0.1853951
834.90 0.1853159
835.00 0.1852368
835.10 0.1851577
835.20 0.1850786
835.30 0.1849996
835.40 0.1849206
835.50 0.1848416
835.60 0.1847627
835.70 0.1846838
835.80 0.1846049
835.90 0.1845261
836.00 0.1844473
836.10 0.1843685
836.20 0.1842898
836.30 0.184211
836.40 0.1841324
836.50 0.1840537
836.60 0.1839751
836.70 0.1838965
836.80 0.183818
836.90 0.1837397
837.00 0.1836616
837.10 0.1835835
837.20 0.1835054
837.30 0.1834274
837.40 0.1833493
837.50 0.1832714
837.60 0.1831934
837.70 0.1831155
837.80 0.1830376
837.90 0.1829598
838.00 0.182882
838.10 0.1828042
838.20 0.1827264
838.30 0.1826487
838.40 0.182571
838.50 0.1824933
838.60 0.1824157
838.70 0.1823381
838.80 0.1822606
838.90 0.182183
839.00 0.1821055
839.10 0.1820281
839.20 0.1819506
839.30 0.1818732
839.40 0.1817958
839.50 0.1817185
839.60 0.1816412
839.70 0.1815639
839.80 0.1814867
839.90 0.1814095
840.00 0.1813323
840.10 0.1812551
840.20 0.181178
840.30 0.1811009
840.40 0.1810239
840.50 0.1809468
840.60 0.1808698
840.70 0.1807929
840.80 0.1807159
840.90 0.180639
841.00 0.1805622
841.10 0.1804862
841.20 0.1804104
841.30 0.1803347
841.40 0.1802589
841.50 0.1801833
841.60 0.1801076
841.70 0.180032
841.80 0.1799564
841.90 0.1798808
842.00 0.1798053
842.10 0.1797297
842.20 0.1796543
842.30 0.1795788
842.40 0.1795034
842.50 0.179428
842.60 0.1793527
842.70 0.1792773
842.80 0.1792021
842.90 0.1791268
843.00 0.1790516
843.10 0.1789764
843.20 0.1789012
843.30 0.1788261
843.40 0.1787509
843.50 0.1786759
843.60 0.1786008
843.70 0.1785258
843.80 0.1784508
843.90 0.1783759
844.00 0.1783009
844.10 0.178226
844.20 0.1781512
844.30 0.1780763
844.40 0.1780015
844.50 0.1779268
844.60 0.177852
844.70 0.1777773
844.80 0.1777026
844.90 0.177628
845.00 0.1775534
845.10 0.1774788
845.20 0.1774042
845.30 0.1773302
845.40 0.1772563
845.50 0.1771824
845.60 0.1771085
845.70 0.1770347
845.80 0.1769609
845.90 0.1768871
846.00 0.1768133
846.10 0.1767396
846.20 0.1766659
846.30 0.1765922
846.40 0.1765186
846.50 0.176445
846.60 0.1763714
846.70 0.1762979
846.80 0.1762244
846.90 0.1761509
847.00 0.1760774
847.10 0.176004
847.20 0.1759306
847.30 0.1758572
847.40 0.1757839
847.50 0.1757106
847.60 0.1756373
847.70 0.175564
847.80 0.1754908
847.90 0.1754176
848.00 0.1753445
848.10 0.1752713
848.20 0.1751982
848.30 0.1751252
848.40 0.1750521
848.50 0.1749791
848.60 0.1749061
848.70 0.1748332
848.80 0.1747603
848.90 0.1746874
849.00 0.1746145
849.10 0.1745417
849.20 0.1744689
849.30 0.1743961
849.40 0.1743233
849.50 0.1742506
849.60 0.1741779
849.70 0.1741053
849.80 0.1740326
849.90 0.17396
850.00 0.1738875
850.10 0.1738149
850.20 0.1737424
850.30 0.1736699
850.40 0.1735975
850.50 0.1735251
850.60 0.1734527
850.70 0.1733803
850.80 0.173308
850.90 0.1732356
851.00 0.1731634
851.10 0.1730911
851.20 0.1730189
851.30 0.1729467
851.40 0.1728746
851.50 0.1728024
851.60 0.1727303
851.70 0.1726582
851.80 0.1725862
851.90 0.1725142
852.00 0.1724422
852.10 0.1723702
852.20 0.1722983
852.30 0.1722264
852.40 0.1721545
852.50 0.1720827
852.60 0.1720109
852.70 0.1719391
852.80 0.1718673
852.90 0.1717956
853.00 0.1717239
853.10 0.1716523
853.20 0.1715806
853.30 0.171509
853.40 0.1714374
853.50 0.1713659
853.60 0.1712943
853.70 0.1712233
853.80 0.1711529
853.90 0.1710825
854.00 0.1710121
854.10 0.1709418
854.20 0.1708714
854.30 0.1708012
854.40 0.1707309
854.50 0.1706607
854.60 0.1705904
854.70 0.1705203
854.80 0.1704501
854.90 0.17038
855.00 0.1703099
855.10 0.1702398
855.20 0.1701698
855.30 0.1700998
855.40 0.1700298
855.50 0.1699598
855.60 0.1698899
855.70 0.16982
855.80 0.1697501
855.90 0.1696803
856.00 0.1696105
856.10 0.1695407
856.20 0.1694709
856.30 0.1694012
856.40 0.1693315
856.50 0.1692618
856.60 0.1691921
856.70 0.1691225
856.80 0.1690529
856.90 0.1689834
857.00 0.1689138
857.10 0.1688443
857.20 0.1687748
857.30 0.1687054
857.40 0.168636
857.50 0.1685666
857.60 0.1684972
857.70 0.1684279
857.80 0.1683585
857.90 0.1682892
858.00 0.16822
858.10 0.1681508
858.20 0.1680816
858.30 0.1680124
858.40 0.1679432
858.50 0.1678741
858.60 0.167805
858.70 0.167736
858.80 0.1676669
858.90 0.1675979
859.00 0.1675289
859.10 0.16746
859.20 0.167391
859.30 0.1673221
859.40 0.1672533
859.50 0.1671844
859.60 0.1671156
859.70 0.1670468
859.80 0.166978
859.90 0.1669093
860.00 0.1668406
860.10 0.1667719
860.20 0.1667033
860.30 0.1666346
860.40 0.1665661
860.50 0.1664975
860.60 0.1664289
860.70 0.1663604
860.80 0.1662919
860.90 0.1662235
861.00 0.166155
861.10 0.1660866
861.20 0.1660183
861.30 0.1659499
861.40 0.1658816
861.50 0.1658133
861.60 0.165745
861.70 0.1656768
861.80 0.1656085
861.90 0.1655404
862.00 0.1654722
862.10 0.1654041
862.20 0.1653361
862.30 0.1652693
862.40 0.1652024
862.50 0.1651356
862.60 0.1650689
862.70 0.1650021
862.80 0.1649354
862.90 0.1648687
863.00 0.1648021
863.10 0.1647354
863.20 0.1646688
863.30 0.1646022
863.40 0.1645357
863.50 0.1644691
863.60 0.1644026
863.70 0.1643362
863.80 0.1642697
863.90 0.1642033
864.00 0.1641369
864.10 0.1640705
864.20 0.1640042
864.30 0.1639378
864.40 0.1638715
864.50 0.1638053
864.60 0.163739
864.70 0.1636728
864.80 0.1636066
864.90 0.1635405
865.00 0.1634743
865.10 0.1634082
865.20 0.1633421
865.30 0.1632761
865.40 0.16321
865.50 0.163144
865.60 0.1630781
865.70 0.1630121
865.80 0.1629462
865.90 0.1628803
866.00 0.1628144
866.10 0.1627486
866.20 0.1626827
866.30 0.1626169
866.40 0.1625512
866.50 0.1624854
866.60 0.1624197
866.70 0.162354
866.80 0.1622883
866.90 0.1622227
867.00 0.1621571
867.10 0.1620915
867.20 0.1620259
867.30 0.1619604
867.40 0.1618949
867.50 0.1618294
867.60 0.1617639
867.70 0.1616985
867.80 0.1616331
867.90 0.1615677
868.00 0.1615024
868.10 0.161437
868.20 0.1613717
868.30 0.1613065
868.40 0.1612412
868.50 0.161176
868.60 0.1611108
868.70 0.1610456
868.80 0.1609805
868.90 0.1609153
869.00 0.1608502
869.10 0.1607852
869.20 0.1607201
869.30 0.1606551
869.40 0.1605901
869.50 0.1605251
869.60 0.1604602
869.70 0.1603953
869.80 0.1603304
869.90 0.1602655
870.00 0.1602007
870.10 0.1601358
870.20 0.1600711
870.30 0.1600063
870.40 0.1599416
870.50 0.1598768
870.60 0.1598122
870.70 0.1597475
870.80 0.1596829
870.90 0.1596185
871.00 0.1595542
871.10 0.1594899
871.20 0.1594256
871.30 0.1593614
871.40 0.1592972
871.50 0.159233
871.60 0.1591688
871.70 0.1591047
871.80 0.1590406
871.90 0.1589765
872.00 0.1589125
872.10 0.1588484
872.20 0.1587844
872.30 0.1587204
872.40 0.1586565
872.50 0.1585926
872.60 0.1585286
872.70 0.1584648
872.80 0.1584009
872.90 0.1583371
873.00 0.1582733
873.10 0.1582095
873.20 0.1581457
873.30 0.158082
873.40 0.1580183
873.50 0.1579546
873.60 0.157891
873.70 0.1578273
873.80 0.1577637
873.90 0.1577001
874.00 0.1576366
874.10 0.157573
874.20 0.1575095
874.30 0.1574461
874.40 0.1573826
874.50 0.1573192
874.60 0.1572558
874.70 0.1571924
874.80 0.157129
874.90 0.1570657
875.00 0.1570024
875.10 0.1569391
875.20 0.1568763
875.30 0.1568144
875.40 0.1567526
875.50 0.1566907
875.60 0.1566289
875.70 0.1565671
875.80 0.1565054
875.90 0.1564436
876.00 0.1563819
876.10 0.1563202
876.20 0.1562586
876.30 0.1561969
876.40 0.1561353
876.50 0.1560737
876.60 0.1560121
876.70 0.1559506
876.80 0.1558891
876.90 0.1558276
877.00 0.1557661
877.10 0.1557046
877.20 0.1556432
877.30 0.1555818
877.40 0.1555204
877.50 0.1554591
877.60 0.1553977
877.70 0.1553364
877.80 0.1552751
877.90 0.1552139
878.00 0.1551526
878.10 0.1550914
878.20 0.1550302
878.30 0.1549691
878.40 0.1549079
878.50 0.1548468
878.60 0.1547857
878.70 0.1547246
878.80 0.1546636
878.90 0.1546026
879.00 0.1545416
879.10 0.1544806
879.20 0.1544196
879.30 0.1543587
879.40 0.1542978
879.50 0.1542369
879.60 0.1541759
879.70 0.1541149
879.80 0.1540539
879.90 0.153993
880.00 0.153932
880.10 0.1538711
880.20 0.1538102
880.30 0.1537493
880.40 0.1536885
880.50 0.1536276
880.60 0.1535668
880.70 0.1535061
880.80 0.1534453
880.90 0.1533846
881.00 0.1533239
881.10 0.1532632
881.20 0.1532025
881.30 0.1531419
881.40 0.1530813
881.50 0.1530207
881.60 0.1529601
881.70 0.1528996
881.80 0.1528391
881.90 0.1527786
882.00 0.1527181
882.10 0.1526577
882.20 0.1525972
882.30 0.1525368
882.40 0.1524764
882.50 0.1524161
882.60 0.1523558
882.70 0.1522955
882.80 0.1522352
882.90 0.1521749
883.00 0.1521147
883.10 0.1520545
883.20 0.1519943
883.30 0.1519341
883.40 0.151874
883.50 0.1518138
883.60 0.1517537
883.70 0.1516937
883.80 0.1516336
883.90 0.1515736
884.00 0.1515143
884.10 0.1514552
884.20 0.1513961
884.30 0.151337
884.40 0.151278
884.50 0.151219
884.60 0.15116
884.70 0.151101
884.80 0.151042
884.90 0.1509831
885.00 0.1509242
885.10 0.1508653
885.20 0.1508064
885.30 0.1507476
885.40 0.1506888
885.50 0.15063
885.60 0.1505712
885.70 0.1505125
885.80 0.1504537
885.90 0.150395
886.00 0.1503364
886.10 0.1502777
886.20 0.1502191
886.30 0.1501604
886.40 0.1501018
886.50 0.1500433
886.60 0.1499847
886.70 0.1499262
886.80 0.1498677
886.90 0.1498092
887.00 0.1497508
887.10 0.1496923
887.20 0.1496339
887.30 0.1495755
887.40 0.1495172
887.50 0.1494588
887.60 0.1494005
887.70 0.1493422
887.80 0.1492839
887.90 0.1492257
888.00 0.1491674
888.10 0.1491092
888.20 0.1490511
888.30 0.1489929
888.40 0.1489351
888.50 0.1488775
888.60 0.1488199
888.70 0.1487622
888.80 0.1487046
888.90 0.1486471
889.00 0.1485895
889.10 0.148532
889.20 0.1484745
889.30 0.148417
889.40 0.1483596
889.50 0.1483021
889.60 0.1482447
889.70 0.1481873
889.80 0.1481299
889.90 0.1480726
890.00 0.1480153
890.10 0.147958
890.20 0.1479007
890.30 0.1478434
890.40 0.1477862
890.50 0.1477289
890.60 0.1476718
890.70 0.1476146
890.80 0.1475574
890.90 0.1475003
891.00 0.1474432
891.10 0.1473861
891.20 0.147329
891.30 0.147272
891.40 0.147215
891.50 0.147158
891.60 0.147101
891.70 0.147044
891.80 0.1469871
891.90 0.1469302
892.00 0.1468733
892.10 0.1468164
892.20 0.1467596
892.30 0.1467028
892.40 0.146646
892.50 0.1465892
892.60 0.1465324
892.70 0.1464757
892.80 0.146419
892.90 0.1463623
893.00 0.1463056
893.10 0.146249
893.20 0.1461923
893.30 0.1461357
893.40 0.1460792
893.50 0.1460226
893.60 0.1459661
893.70 0.1459095
893.80 0.145853
893.90 0.1457966
894.00 0.1457401
894.10 0.1456837
894.20 0.1456273
894.30 0.1455709
894.40 0.1455145
894.50 0.1454582
894.60 0.1454018
894.70 0.1453455
894.80 0.1452892
894.90 0.145233
895.00 0.1451767
895.10 0.1451205
895.20 0.1450643
895.30 0.1450082
895.40 0.144952
895.50 0.1448959
895.60 0.1448398
895.70 0.1447837
895.80 0.1447276
895.90 0.1446716
896.00 0.1446155
896.10 0.1445595
896.20 0.1445035
896.30 0.1444476
896.40 0.1443916
896.50 0.1443357
896.60 0.1442798
896.70 0.144224
896.80 0.1441681
896.90 0.1441123
897.00 0.1440565
897.10 0.1440007
897.20 0.1439449
897.30 0.1438892
897.40 0.1438335
897.50 0.1437778
897.60 0.1437222
897.70 0.1436665
897.80 0.1436109
897.90 0.1435553
898.00 0.1434997
898.10 0.1434442
898.20 0.1433887
898.30 0.1433332
898.40 0.1432777
898.50 0.1432222
898.60 0.1431668
898.70 0.1431113
898.80 0.1430559
898.90 0.1430006
899.00 0.1429452
899.10 0.1428899
899.20 0.1428345
899.30 0.1427792
899.40 0.142724
899.50 0.1426687
899.60 0.1426135
899.70 0.1425583
899.80 0.1425031
899.90 0.1424479
900.00 0.1423928
900.10 0.1423376
900.20 0.1422825
900.30 0.1422274
900.40 0.1421724
900.50 0.1421173
900.60 0.1420623
900.70 0.1420073
900.80 0.1419523
900.90 0.1418974
901.00 0.1418424
901.10 0.1417875
901.20 0.1417326
901.30 0.1416777
901.40 0.1416229
901.50 0.141568
901.60 0.1415132
901.70 0.1414586
901.80 0.1414046
901.90 0.1413507
902.00 0.1412968
902.10 0.1412429
902.20 0.141189
902.30 0.1411352
902.40 0.1410813
902.50 0.1410275
902.60 0.1409737
902.70 0.14092
902.80 0.1408662
902.90 0.1408125
903.00 0.1407588
903.10 0.1407051
903.20 0.1406514
903.30 0.1405978
903.40 0.1405442
903.50 0.1404906
903.60 0.140437
903.70 0.1403834
903.80 0.1403299
903.90 0.1402763
904.00 0.1402228
904.10 0.1401693
904.20 0.1401159
904.30 0.1400624
904.40 0.140009
904.50 0.1399556
904.60 0.1399022
904.70 0.1398489
904.80 0.1397955
904.90 0.1397422
905.00 0.1396889
905.10 0.1396356
905.20 0.1395824
905.30 0.1395291
905.40 0.1394759
905.50 0.1394227
905.60 0.1393695
905.70 0.1393164
905.80 0.1392632
905.90 0.1392101
906.00 0.139157
906.10 0.1391039
906.20 0.1390509
906.30 0.1389981
906.40 0.1389453
906.50 0.1388925
906.60 0.1388398
906.70 0.138787
906.80 0.1387343
906.90 0.1386816
907.00 0.1386289
907.10 0.1385763
907.20 0.1385236
907.30 0.138471
907.40 0.1384184
907.50 0.1383658
907.60 0.1383133
907.70 0.1382607
907.80 0.1382082
907.90 0.1381557
908.00 0.1381032
908.10 0.1380508
908.20 0.1379983
908.30 0.1379459
908.40 0.1378935
908.50 0.1378411
908.60 0.1377887
908.70 0.1377364
908.80 0.1376841
908.90 0.1376318
909.00 0.1375795
909.10 0.1375272
909.20 0.137475
909.30 0.1374227
909.40 0.1373705
909.50 0.1373184
909.60 0.1372662
909.70 0.137214
909.80 0.1371619
909.90 0.1371098
910.00 0.1370577
910.10 0.1370057
910.20 0.1369536
910.30 0.1369016
910.40 0.1368496
910.50 0.1367976
910.60 0.1367456
910.70 0.1366937
910.80 0.1366421
910.90 0.1365906
911.00 0.1365391
911.10 0.1364876
911.20 0.1364362
911.30 0.1363847
911.40 0.1363333
911.50 0.1362819
911.60 0.1362306
911.70 0.1361792
911.80 0.1361279
911.90 0.1360765
912.00 0.1360252
912.10 0.1359739
912.20 0.1359227
912.30 0.1358714
912.40 0.1358202
912.50 0.135769
912.60 0.1357178
912.70 0.1356667
912.80 0.1356155
912.90 0.1355644
913.00 0.1355133
913.10 0.1354622
913.20 0.1354111
913.30 0.1353601
913.40 0.135309
913.50 0.135258
913.60 0.135207
913.70 0.135156
913.80 0.1351051
913.90 0.1350541
914.00 0.1350032
914.10 0.1349523
914.20 0.1349014
914.30 0.1348506
914.40 0.1347997
914.50 0.1347489
914.60 0.1346981
914.70 0.1346473
914.80 0.1345966
914.90 0.1345458
915.00 0.1344951
915.10 0.1344444
915.20 0.1343937
915.30 0.1343429
915.40 0.134292
915.50 0.1342412
915.60 0.1341904
915.70 0.1341397
915.80 0.1340889
915.90 0.1340382
916.00 0.1339874
916.10 0.1339367
916.20 0.1338861
916.30 0.1338354
916.40 0.1337847
916.50 0.1337341
916.60 0.1336835
916.70 0.1336329
916.80 0.1335824
916.90 0.1335318
917.00 0.1334813
917.10 0.1334308
917.20 0.1333803
917.30 0.1333298
917.40 0.1332793
917.50 0.1332289
917.60 0.1331785
917.70 0.1331281
917.80 0.1330777
917.90 0.1330273
918.00 0.132977
918.10 0.1329267
918.20 0.1328764
918.30 0.1328261
918.40 0.1327758
918.50 0.1327256
918.60 0.1326753
918.70 0.1326251
918.80 0.1325749
918.90 0.1325248
919.00 0.1324746
919.10 0.1324245
919.20 0.1323743
919.30 0.1323242
919.40 0.1322742
919.50 0.1322241
919.60 0.1321741
919.70 0.132124
919.80 0.132074
919.90 0.1320244
920.00 0.1319748
920.10 0.1319253
920.20 0.1318757
920.30 0.1318262
920.40 0.1317767
920.50 0.1317272
920.60 0.1316777
920.70 0.1316283
920.80 0.1315788
920.90 0.1315294
921.00 0.13148
921.10 0.1314306
921.20 0.1313813
921.30 0.1313319
921.40 0.1312826
921.50 0.1312333
921.60 0.131184
921.70 0.1311347
921.80 0.1310855
921.90 0.1310362
922.00 0.130987
922.10 0.1309378
922.20 0.1308887
922.30 0.1308395
922.40 0.1307904
922.50 0.1307412
922.60 0.1306921
922.70 0.130643
922.80 0.130594
922.90 0.1305449
923.00 0.1304959
923.10 0.1304469
923.20 0.1303979
923.30 0.1303489
923.40 0.1302999
923.50 0.130251
923.60 0.1302021
923.70 0.1301532
923.80 0.1301043
923.90 0.1300554
924.00 0.1300066
924.10 0.1299577
924.20 0.1299089
924.30 0.1298601
924.40 0.1298114
924.50 0.1297628
924.60 0.1297143
924.70 0.1296658
924.80 0.1296173
924.90 0.1295688
925.00 0.1295203
925.10 0.1294719
925.20 0.1294234
925.30 0.129375
925.40 0.1293266
925.50 0.1292782
925.60 0.1292299
925.70 0.1291815
925.80 0.1291332
925.90 0.1290849
926.00 0.1290366
926.10 0.1289884
926.20 0.1289401
926.30 0.1288919
926.40 0.1288437
926.50 0.1287955
926.60 0.1287473
926.70 0.1286991
926.80 0.128651
926.90 0.1286029
927.00 0.1285547
927.10 0.1285067
927.20 0.1284586
927.30 0.1284105
927.40 0.1283625
927.50 0.1283145
927.60 0.1282665
927.70 0.1282185
927.80 0.1281705
927.90 0.1281226
928.00 0.1280746
928.10 0.1280267
928.20 0.1279788
928.30 0.1279309
928.40 0.1278831
928.50 0.1278352
928.60 0.1277874
928.70 0.1277396
928.80 0.1276918
928.90 0.127644
929.00 0.1275963
929.10 0.1275489
929.20 0.1275016
929.30 0.1274542
929.40 0.1274069
929.50 0.1273596
929.60 0.1273124
929.70 0.1272651
929.80 0.1272179
929.90 0.1271706
930.00 0.1271234
930.10 0.1270763
930.20 0.1270291
930.30 0.1269819
930.40 0.1269348
930.50 0.1268877
930.60 0.1268406
930.70 0.1267935
930.80 0.1267464
930.90 0.1266994
931.00 0.1266523
931.10 0.1266053
931.20 0.1265583
931.30 0.1265113
931.40 0.1264644
931.50 0.1264174
931.60 0.1263705
931.70 0.1263236
931.80 0.1262767
931.90 0.1262298
932.00 0.126183
932.10 0.1261361
932.20 0.1260893
932.30 0.1260425
932.40 0.1259957
932.50 0.1259489
932.60 0.1259022
932.70 0.1258554
932.80 0.1258087
932.90 0.125762
933.00 0.1257153
933.10 0.1256686
933.20 0.125622
933.30 0.1255754
933.40 0.1255287
933.50 0.1254821
933.60 0.1254355
933.70 0.125389
933.80 0.1253424
933.90 0.1252959
934.00 0.1252494
934.10 0.1252029
934.20 0.1251565
934.30 0.12511
934.40 0.1250636
934.50 0.1250171
934.60 0.1249707
934.70 0.1249243
934.80 0.124878
934.90 0.1248316
935.00 0.1247853
935.10 0.124739
935.20 0.1246927
935.30 0.1246464
935.40 0.1246001
935.50 0.1245539
935.60 0.1245076
935.70 0.1244614
935.80 0.1244152
935.90 0.124369
936.00 0.1243228
936.10 0.1242767
936.20 0.1242306
936.30 0.1241844
936.40 0.1241383
936.50 0.1240923
936.60 0.1240462
936.70 0.1240001
936.80 0.1239541
936.90 0.1239081
937.00 0.1238621
937.10 0.1238161
937.20 0.1237701
937.30 0.1237242
937.40 0.1236783
937.50 0.1236324
937.60 0.1235865
937.70 0.1235406
937.80 0.1234947
937.90 0.1234489
938.00 0.123403
938.10 0.1233572
938.20 0.1233114
938.30 0.1232656
938.40 0.1232199
938.50 0.1231741
938.60 0.1231284
938.70 0.1230827
938.80 0.123037
938.90 0.1229913
939.00 0.1229456
939.10 0.1229
939.20 0.1228544
939.30 0.1228087
939.40 0.1227631
939.50 0.1227176
939.60 0.122672
939.70 0.1226265
939.80 0.1225809
939.90 0.1225354
940.00 0.1224899
940.10 0.1224444
940.20 0.122399
940.30 0.1223535
940.40 0.1223081
940.50 0.1222627
940.60 0.1222173
940.70 0.1221719
940.80 0.1221265
940.90 0.1220812
941.00 0.1220358
941.10 0.1219905
941.20 0.1219452
941.30 0.1218999
941.40 0.1218547
941.50 0.1218094
941.60 0.1217642
941.70 0.121719
941.80 0.1216738
941.90 0.1216286
942.00 0.1215834
942.10 0.1215383
942.20 0.1214931
942.30 0.121448
942.40 0.1214029
942.50 0.1213578
942.60 0.1213128
942.70 0.1212677
942.80 0.1212227
942.90 0.1211777
943.00 0.1211328
943.10 0.1210882
943.20 0.1210436
943.30 0.120999
943.40 0.1209544
943.50 0.1209099
943.60 0.1208653
943.70 0.1208208
943.80 0.1207763
943.90 0.1207318
944.00 0.1206874
944.10 0.1206429
944.20 0.1205985
944.30 0.120554
944.40 0.1205096
944.50 0.1204652
944.60 0.1204209
944.70 0.1203765
944.80 0.1203322
944.90 0.1202878
945.00 0.1202435
945.10 0.1201992
945.20 0.120155
945.30 0.1201107
945.40 0.1200664
945.50 0.1200222
945.60 0.119978
945.70 0.1199338
945.80 0.1198896
945.90 0.1198455
946.00 0.1198013
946.10 0.1197572
946.20 0.1197131
946.30 0.119669
946.40 0.1196249
946.50 0.1195808
946.60 0.1195367
946.70 0.1194927
946.80 0.1194487
946.90 0.1194047
947.00 0.1193607
947.10 0.1193167
947.20 0.1192728
947.30 0.1192288
947.40 0.1191849
947.50 0.119141
947.60 0.1190971
947.70 0.1190532
947.80 0.1190093
947.90 0.1189655
948.00 0.1189217
948.10 0.1188779
948.20 0.1188341
948.30 0.1187903
948.40 0.1187465
948.50 0.1187027
948.60 0.118659
948.70 0.1186153
948.80 0.1185716
948.90 0.1185279
949.00 0.1184842
949.10 0.1184406
949.20 0.1183969
949.30 0.1183533
949.40 0.1183097
949.50 0.1182661
949.60 0.1182225
949.70 0.118179
949.80 0.1181354
949.90 0.1180919
950.00 0.1180484
950.10 0.1180049
950.20 0.1179614
950.30 0.1179179
950.40 0.1178745
950.50 0.117831
950.60 0.1177876
950.70 0.1177442
950.80 0.1177008
950.90 0.1176574
951.00 0.1176141
951.10 0.1175707
951.20 0.1175274
951.30 0.1174841
951.40 0.1174408
951.50 0.1173975
951.60 0.1173542
951.70 0.117311
951.80 0.1172678
951.90 0.1172245
952.00 0.1171813
952.10 0.1171381
952.20 0.117095
952.30 0.1170518
952.40 0.1170087
952.50 0.1169654
952.60 0.1169221
952.70 0.1168788
952.80 0.1168356
952.90 0.1167924
953.00 0.1167492
953.10 0.116706
953.20 0.1166628
953.30 0.1166196
953.40 0.1165765
953.50 0.1165333
953.60 0.1164902
953.70 0.1164471
953.80 0.116404
953.90 0.116361
954.00 0.1163179
954.10 0.1162749
954.20 0.1162318
954.30 0.1161888
954.40 0.1161458
954.50 0.1161029
954.60 0.1160599
954.70 0.116017
954.80 0.115974
954.90 0.1159311
955.00 0.1158882
955.10 0.1158453
955.20 0.1158025
955.30 0.1157596
955.40 0.1157168
955.50 0.1156739
955.60 0.1156311
955.70 0.1155883
955.80 0.1155456
955.90 0.1155028
956.00 0.11546
956.10 0.1154173
956.20 0.1153746
956.30 0.1153319
956.40 0.1152892
956.50 0.1152465
956.60 0.1152039
956.70 0.1151612
956.80 0.1151186
956.90 0.115076
957.00 0.1150334
957.10 0.1149908
957.20 0.1149486
957.30 0.1149067
957.40 0.1148649
957.50 0.1148231
957.60 0.1147812
957.70 0.1147394
957.80 0.1146977
957.90 0.1146559
958.00 0.1146141
958.10 0.1145724
958.20 0.1145307
958.30 0.1144889
958.40 0.1144472
958.50 0.1144056
958.60 0.1143639
958.70 0.1143222
958.80 0.1142806
958.90 0.114239
959.00 0.1141974
959.10 0.1141558
959.20 0.1141142
959.30 0.1140726
959.40 0.1140311
959.50 0.1139896
959.60 0.113948
959.70 0.1139065
959.80 0.113865
959.90 0.1138236
960.00 0.1137821
960.10 0.1137407
960.20 0.1136992
960.30 0.1136578
960.40 0.1136164
960.50 0.113575
960.60 0.1135337
960.70 0.1134923
960.80 0.113451
960.90 0.1134096
961.00 0.1133683
961.10 0.113327
961.20 0.1132858
961.30 0.1132445
961.40 0.1132032
961.50 0.113162
961.60 0.1131208
961.70 0.1130796
961.80 0.1130384
961.90 0.1129972
962.00 0.1129559
962.10 0.1129146
962.20 0.1128733
962.30 0.112832
962.40 0.1127907
962.50 0.1127495
962.60 0.1127082
962.70 0.112667
962.80 0.1126258
962.90 0.1125846
963.00 0.1125434
963.10 0.1125023
963.20 0.1124611
963.30 0.11242
963.40 0.1123789
963.50 0.1123378
963.60 0.1122967
963.70 0.1122556
963.80 0.1122145
963.90 0.1121735
964.00 0.1121324
964.10 0.1120914
964.20 0.1120504
964.30 0.1120094
964.40 0.1119685
964.50 0.1119275
964.60 0.1118866
964.70 0.1118456
964.80 0.1118047
964.90 0.1117638
965.00 0.1117229
965.10 0.111682
965.20 0.1116412
965.30 0.1116003
965.40 0.1115595
965.50 0.1115187
965.60 0.1114779
965.70 0.1114371
965.80 0.1113963
965.90 0.1113556
966.00 0.1113149
966.10 0.1112741
966.20 0.1112334
966.30 0.1111927
966.40 0.111152
966.50 0.1111114
966.60 0.1110707
966.70 0.1110301
966.80 0.1109894
966.90 0.1109488
967.00 0.1109082
967.10 0.1108676
967.20 0.1108271
967.30 0.1107865
967.40 0.110746
967.50 0.1107055
967.60 0.1106649
967.70 0.1106244
967.80 0.110584
967.90 0.1105435
968.00 0.110503
968.10 0.1104626
968.20 0.1104222
968.30 0.1103818
968.40 0.1103414
968.50 0.110301
968.60 0.1102606
968.70 0.1102203
968.80 0.1101799
968.90 0.1101396
969.00 0.1100993
969.10 0.110059
969.20 0.1100187
969.30 0.1099785
969.40 0.1099382
969.50 0.109898
969.60 0.1098577
969.70 0.1098175
969.80 0.1097773
969.90 0.1097371
970.00 0.109697
970.10 0.1096568
970.20 0.1096167
970.30 0.1095766
970.40 0.1095365
970.50 0.1094964
970.60 0.1094563
970.70 0.1094162
970.80 0.1093761
970.90 0.1093361
971.00 0.1092961
971.10 0.1092561
971.20 0.1092161
971.30 0.1091761
971.40 0.1091361
971.50 0.1090962
971.60 0.1090564
971.70 0.1090169
971.80 0.1089773
971.90 0.1089377
972.00 0.1088982
972.10 0.1088586
972.20 0.1088191
972.30 0.1087796
972.40 0.1087401
972.50 0.1087006
972.60 0.1086612
972.70 0.1086217
972.80 0.1085823
972.90 0.1085429
973.00 0.1085034
973.10 0.1084641
973.20 0.1084247
973.30 0.1083853
973.40 0.1083459
973.50 0.1083066
973.60 0.1082673
973.70 0.108228
973.80 0.1081887
973.90 0.1081494
974.00 0.1081101
974.10 0.1080709
974.20 0.1080316
974.30 0.1079924
974.40 0.1079532
974.50 0.107914
974.60 0.1078748
974.70 0.1078356
974.80 0.1077965
974.90 0.1077573
975.00 0.1077182
975.10 0.1076791
975.20 0.10764
975.30 0.1076009
975.40 0.1075618
975.50 0.1075227
975.60 0.1074837
975.70 0.1074446
975.80 0.1074056
975.90 0.1073666
976.00 0.1073276
976.10 0.1072886
976.20 0.1072497
976.30 0.1072107
976.40 0.1071718
976.50 0.1071328
976.60 0.1070939
976.70 0.107055
976.80 0.1070161
976.90 0.1069773
977.00 0.1069384
977.10 0.1068996
977.20 0.1068607
977.30 0.1068219
977.40 0.1067831
977.50 0.1067443
977.60 0.1067056
977.70 0.1066668
977.80 0.106628
977.90 0.1065893
978.00 0.1065506
978.10 0.1065119
978.20 0.1064732
978.30 0.1064345
978.40 0.1063958
978.50 0.1063572
978.60 0.1063185
978.70 0.1062799
978.80 0.1062413
978.90 0.1062027
979.00 0.1061641
979.10 0.1061256
979.20 0.106087
979.30 0.1060484
979.40 0.1060099
979.50 0.1059714
979.60 0.1059329
979.70 0.1058944
979.80 0.1058559
979.90 0.1058175
980.00 0.105779
980.10 0.1057406
980.20 0.1057022
980.30 0.1056637
980.40 0.1056253
980.50 0.105587
980.60 0.1055486
980.70 0.1055102
980.80 0.1054719
980.90 0.1054336
981.00 0.1053952
981.10 0.1053569
981.20 0.1053187
981.30 0.1052805
981.40 0.1052424
981.50 0.1052043
981.60 0.1051662
981.70 0.1051282
981.80 0.1050901
981.90 0.1050521
982.00 0.1050141
982.10 0.1049761
982.20 0.1049381
982.30 0.1049001
982.40 0.1048622
982.50 0.1048242
982.60 0.1047863
982.70 0.1047484
982.80 0.1047105
982.90 0.1046726
983.00 0.1046347
983.10 0.1045968
983.20 0.104559
983.30 0.1045211
983.40 0.1044833
983.50 0.1044455
983.60 0.1044077
983.70 0.1043699
983.80 0.1043321
983.90 0.1042943
984.00 0.1042566
984.10 0.1042189
984.20 0.1041811
984.30 0.1041434
984.40 0.1041057
984.50 0.104068
984.60 0.1040304
984.70 0.1039927
984.80 0.1039551
984.90 0.1039174
985.00 0.1038798
985.10 0.1038422
985.20 0.1038046
985.30 0.103767
985.40 0.1037295
985.50 0.1036919
985.60 0.1036544
985.70 0.1036169
985.80 0.1035794
985.90 0.1035419
986.00 0.1035044
986.10 0.1034669
986.20 0.1034294
986.30 0.103392
986.40 0.1033545
986.50 0.1033171
986.60 0.1032797
986.70 0.1032423
986.80 0.1032049
986.90 0.1031676
987.00 0.1031302
987.10 0.1030929
987.20 0.1030555
987.30 0.1030182
987.40 0.1029809
987.50 0.1029436
987.60 0.1029064
987.70 0.1028691
987.80 0.1028318
987.90 0.1027946
988.00 0.1027574
988.10 0.1027202
988.20 0.102683
988.30 0.1026458
988.40 0.1026086
988.50 0.1025714
988.60 0.1025343
988.70 0.1024972
988.80 0.10246
988.90 0.1024229
989.00 0.1023858
989.10 0.1023487
989.20 0.1023117
989.30 0.1022746
989.40 0.1022376
989.50 0.1022005
989.60 0.1021635
989.70 0.1021265
989.80 0.1020895
989.90 0.1020525
990.00 0.1020156
990.10 0.1019786
990.20 0.1019417
990.30 0.1019047
990.40 0.1018678
990.50 0.1018309
990.60 0.101794
990.70 0.1017571
990.80 0.1017203
990.90 0.1016834
991.00 0.1016466
991.10 0.1016098
991.20 0.101573
991.30 0.1015362
991.40 0.1014994
991.50 0.1014626
991.60 0.1014259
991.70 0.1013891
991.80 0.1013524
991.90 0.1013157
992.00 0.101279
992.10 0.1012423
992.20 0.1012056
992.30 0.1011689
992.40 0.1011323
992.50 0.1010956
992.60 0.101059
992.70 0.1010224
992.80 0.1009858
992.90 0.1009492
993.00 0.1009126
993.10 0.100876
993.20 0.1008395
993.30 0.1008029
993.40 0.1007664
993.50 0.1007299
993.60 0.1006934
993.70 0.1006569
993.80 0.1006204
993.90 0.100584
994.00 0.1005475
994.10 0.1005111
994.20 0.1004746
994.30 0.1004382
994.40 0.1004018
994.50 0.1003654
994.60 0.100329
994.70 0.1002927
994.80 0.1002563
994.90 0.10022
995.00 0.1001837
995.10 0.1001474
995.20 0.1001111
995.30 0.1000748
995.40 0.1000385
995.50 0.1000022
995.60 0.09996598
995.70 0.09992974
995.80 0.09989351
995.90 0.0998573
996.00 0.0998211
996.10 0.09978516
996.20 0.09974929
996.30 0.09971344
996.40 0.09967759
996.50 0.09964176
996.60 0.09960595
996.70 0.09957014
996.80 0.09953435
996.90 0.09949856
997.00 0.0994628
997.10 0.09942704
997.20 0.09939129
997.30 0.09935556
997.40 0.09931984
997.50 0.09928414
997.60 0.09924844
997.70 0.09921276
997.80 0.09917709
997.90 0.09914143
998.00 0.09910578
998.10 0.09907015
998.20 0.09903453
998.30 0.09899892
998.40 0.09896332
998.50 0.09892774
998.60 0.09889217
998.70 0.09885661
998.80 0.09882106
998.90 0.09878552
999.00 0.09875
999.10 0.09871449
999.20 0.09867899
999.30 0.09864351
999.40 0.09860803
999.50 0.09857257
999.60 0.09853712
999.70 0.09850168
999.80 0.09846626
999.90 0.09843084
1000.00 0.09839544
1000.10 0.09836005
1000.20 0.09832468
1000.30 0.09828931
1000.40 0.09825396
1000.50 0.09821862
1000.60 0.09818329
1000.70 0.09814798
1000.80 0.09811267
1000.90 0.09807738
1001.00 0.09804214
1001.10 0.09800703
1001.20 0.09797193
1001.30 0.09793684
1001.40 0.09790176
1001.50 0.0978667
1001.60 0.09783164
1001.70 0.0977966
1001.80 0.09776157
1001.90 0.09772656
1002.00 0.09769155
1002.10 0.09765656
1002.20 0.09762158
1002.30 0.09758661
1002.40 0.09755165
1002.50 0.09751671
1002.60 0.09748177
1002.70 0.09744685
1002.80 0.09741194
1002.90 0.09737705
1003.00 0.09734216
1003.10 0.09730729
1003.20 0.09727243
1003.30 0.09723758
1003.40 0.09720274
1003.50 0.09716792
1003.60 0.0971331
1003.70 0.0970983
1003.80 0.09706351
1003.90 0.09702873
1004.00 0.09699397
1004.10 0.09695921
1004.20 0.09692447
1004.30 0.09688974
1004.40 0.09685503
1004.50 0.09682032
1004.60 0.09678563
1004.70 0.09675094
1004.80 0.09671627
1004.90 0.09668161
1005.00 0.09664697
1005.10 0.09661233
1005.20 0.09657771
1005.30 0.0965431
1005.40 0.0965085
1005.50 0.09647391
1005.60 0.09643934
1005.70 0.09640477
1005.80 0.09637022
1005.90 0.09633568
1006.00 0.09630115
1006.10 0.09626663
1006.20 0.09623213
1006.30 0.09619763
1006.40 0.09616315
1006.50 0.09612868
1006.60 0.09609422
1006.70 0.09605977
1006.80 0.09602533
1006.90 0.09599091
1007.00 0.09595649
1007.10 0.09592209
1007.20 0.0958877
1007.30 0.09585332
1007.40 0.09581896
1007.50 0.0957846
1007.60 0.09575026
1007.70 0.09571593
1007.80 0.09568161
1007.90 0.0956473
1008.00 0.09561301
1008.10 0.09557873
1008.20 0.09554445
1008.30 0.09551019
1008.40 0.09547594
1008.50 0.09544171
1008.60 0.09540748
1008.70 0.09537327
1008.80 0.09533907
1008.90 0.09530488
1009.00 0.0952707
1009.10 0.09523653
1009.20 0.09520238
1009.30 0.09516823
1009.40 0.0951341
1009.50 0.09509998
1009.60 0.09506587
1009.70 0.09503177
1009.80 0.09499769
1009.90 0.09496362
1010.00 0.09492955
1010.10 0.0948955
1010.20 0.09486146
1010.30 0.09482744
1010.40 0.09479342
1010.50 0.09475942
1010.60 0.09472543
1010.70 0.09469144
1010.80 0.09465748
1010.90 0.09462352
1011.00 0.0945896
1011.10 0.09455582
1011.20 0.09452205
1011.30 0.09448829
1011.40 0.09445454
1011.50 0.09442081
1011.60 0.09438709
1011.70 0.09435337
1011.80 0.09431967
1011.90 0.09428599
1012.00 0.09425231
1012.10 0.09421864
1012.20 0.09418499
1012.30 0.09415135
1012.40 0.09411771
1012.50 0.09408409
1012.60 0.09405048
1012.70 0.09401689
1012.80 0.0939833
1012.90 0.09394973
1013.00 0.09391616
1013.10 0.09388261
1013.20 0.09384907
1013.30 0.09381554
1013.40 0.09378203
1013.50 0.09374852
1013.60 0.09371503
1013.70 0.09368154
1013.80 0.09364807
1013.90 0.09361461
1014.00 0.09358116
1014.10 0.09354773
1014.20 0.0935143
1014.30 0.09348089
1014.40 0.09344748
1014.50 0.09341409
1014.60 0.09338071
1014.70 0.09334734
1014.80 0.09331398
1014.90 0.09328063
1015.00 0.0932473
1015.10 0.09321398
1015.20 0.09318066
1015.30 0.09314736
1015.40 0.09311407
1015.50 0.09308079
1015.60 0.09304752
1015.70 0.09301427
1015.80 0.09298102
1015.90 0.09294779
1016.00 0.09291457
1016.10 0.09288153
1016.20 0.09284862
1016.30 0.09281572
1016.40 0.09278283
1016.50 0.09274995
1016.60 0.09271708
1016.70 0.09268422
1016.80 0.09265138
1016.90 0.09261854
1017.00 0.09258572
1017.10 0.09255291
1017.20 0.09252011
1017.30 0.09248732
1017.40 0.09245454
1017.50 0.09242177
1017.60 0.09238901
1017.70 0.09235626
1017.80 0.09232353
1017.90 0.09229081
1018.00 0.09225809
1018.10 0.09222539
1018.20 0.0921927
1018.30 0.09216002
1018.40 0.09212735
1018.50 0.09209469
1018.60 0.09206205
1018.70 0.09202941
1018.80 0.09199679
1018.90 0.09196417
1019.00 0.09193157
1019.10 0.09189898
1019.20 0.0918664
1019.30 0.09183383
1019.40 0.09180127
1019.50 0.09176873
1019.60 0.09173619
1019.70 0.09170366
1019.80 0.09167115
1019.90 0.09163865
1020.00 0.09160616
1020.10 0.09157367
1020.20 0.0915412
1020.30 0.09150874
1020.40 0.0914763
1020.50 0.09144386
1020.60 0.09141143
1020.70 0.09137902
1020.80 0.09134661
1020.90 0.09131422
1021.00 0.09128184
1021.10 0.09124945
1021.20 0.09121696
1021.30 0.09118447
1021.40 0.09115199
1021.50 0.09111953
1021.60 0.09108708
1021.70 0.09105463
1021.80 0.0910222
1021.90 0.09098978
1022.00 0.09095737
1022.10 0.09092497
1022.20 0.09089259
1022.30 0.09086021
1022.40 0.09082784
1022.50 0.09079549
1022.60 0.09076314
1022.70 0.09073081
1022.80 0.09069849
1022.90 0.09066618
1023.00 0.09063388
1023.10 0.09060159
1023.20 0.09056931
1023.30 0.09053704
1023.40 0.09050478
1023.50 0.09047254
1023.60 0.0904403
1023.70 0.09040808
1023.80 0.09037586
1023.90 0.09034366
1024.00 0.09031147
1024.10 0.09027929
1024.20 0.09024712
1024.30 0.09021496
1024.40 0.09018281
1024.50 0.09015067
1024.60 0.09011855
1024.70 0.09008643
1024.80 0.09005433
1024.90 0.09002223
1025.00 0.08999015
1025.10 0.08995808
1025.20 0.08992601
1025.30 0.08989396
1025.40 0.08986192
1025.50 0.08982989
1025.60 0.08979788
1025.70 0.08976587
1025.80 0.08973387
1025.90 0.08970188
1026.00 0.08966991
1026.10 0.08963794
1026.20 0.08960599
1026.30 0.08957432
1026.40 0.08954267
1026.50 0.08951102
1026.60 0.08947939
1026.70 0.08944776
1026.80 0.08941615
1026.90 0.08938454
1027.00 0.08935295
1027.10 0.08932137
1027.20 0.08928979
1027.30 0.08925823
1027.40 0.08922668
1027.50 0.08919514
1027.60 0.08916361
1027.70 0.08913209
1027.80 0.08910058
1027.90 0.08906909
1028.00 0.0890376
1028.10 0.08900612
1028.20 0.08897466
1028.30 0.0889432
1028.40 0.08891176
1028.50 0.08888032
1028.60 0.0888489
1028.70 0.08881748
1028.80 0.08878608
1028.90 0.08875469
1029.00 0.08872331
1029.10 0.08869194
1029.20 0.08866057
1029.30 0.08862922
1029.40 0.08859788
1029.50 0.08856656
1029.60 0.08853524
1029.70 0.08850393
1029.80 0.08847263
1029.90 0.08844134
1030.00 0.08841007
1030.10 0.0883788
1030.20 0.08834754
1030.30 0.0883163
1030.40 0.08828506
1030.50 0.08825384
1030.60 0.08822262
1030.70 0.08819142
1030.80 0.08816023
1030.90 0.08812905
1031.00 0.08809787
1031.10 0.08806671
1031.20 0.08803556
1031.30 0.08800442
1031.40 0.08797342
1031.50 0.08794245
1031.60 0.08791148
1031.70 0.08788052
1031.80 0.08784957
1031.90 0.08781864
1032.00 0.08778771
1032.10 0.08775679
1032.20 0.08772589
1032.30 0.08769499
1032.40 0.08766411
1032.50 0.08763323
1032.60 0.08760237
1032.70 0.08757151
1032.80 0.08754067
1032.90 0.08750983
1033.00 0.08747901
1033.10 0.0874482
1033.20 0.0874174
1033.30 0.0873866
1033.40 0.08735582
1033.50 0.08732505
1033.60 0.08729429
1033.70 0.08726353
1033.80 0.08723279
1033.90 0.08720206
1034.00 0.08717134
1034.10 0.08714063
1034.20 0.08710993
1034.30 0.08707924
1034.40 0.08704856
1034.50 0.08701789
1034.60 0.08698723
1034.70 0.08695658
1034.80 0.08692595
1034.90 0.08689532
1035.00 0.0868647
1035.10 0.08683409
1035.20 0.08680349
1035.30 0.0867729
1035.40 0.08674233
1035.50 0.08671176
1035.60 0.0866812
1035.70 0.08665066
1035.80 0.08662012
1035.90 0.08658959
1036.00 0.08655908
1036.10 0.08652857
1036.20 0.08649807
1036.30 0.08646759
1036.40 0.08643711
1036.50 0.08640664
1036.60 0.08637619
1036.70 0.08634574
1036.80 0.0863153
1036.90 0.08628487
1037.00 0.08625445
1037.10 0.08622405
1037.20 0.08619365
1037.30 0.08616326
1037.40 0.08613289
1037.50 0.08610252
1037.60 0.08607216
1037.70 0.08604181
1037.80 0.08601148
1037.90 0.08598115
1038.00 0.08595083
1038.10 0.08592053
1038.20 0.08589023
1038.30 0.08585995
1038.40 0.08582967
1038.50 0.0857994
1038.60 0.08576915
1038.70 0.0857389
1038.80 0.08570866
1038.90 0.08567844
1039.00 0.08564822
1039.10 0.08561802
1039.20 0.08558782
1039.30 0.08555764
1039.40 0.08552746
1039.50 0.08549729
1039.60 0.08546714
1039.70 0.08543699
1039.80 0.08540686
1039.90 0.08537673
1040.00 0.08534662
1040.10 0.08531651
1040.20 0.08528641
1040.30 0.08525633
1040.40 0.08522625
1040.50 0.08519619
1040.60 0.08516613
1040.70 0.08513609
1040.80 0.08510605
1040.90 0.08507602
1041.00 0.08504601
1041.10 0.085016
1041.20 0.08498601
1041.30 0.08495602
1041.40 0.08492605
1041.50 0.08489608
1041.60 0.08486612
1041.70 0.08483629
1041.80 0.08480649
1041.90 0.0847767
1042.00 0.08474692
1042.10 0.08471715
1042.20 0.08468739
1042.30 0.08465764
1042.40 0.0846279
1042.50 0.08459817
1042.60 0.08456845
1042.70 0.08453873
1042.80 0.08450903
1042.90 0.08447934
1043.00 0.08444966
1043.10 0.08441999
1043.20 0.08439033
1043.30 0.08436067
1043.40 0.08433103
1043.50 0.0843014
1043.60 0.08427178
1043.70 0.08424216
1043.80 0.08421256
1043.90 0.08418297
1044.00 0.08415338
1044.10 0.08412381
1044.20 0.08409425
1044.30 0.08406469
1044.40 0.08403515
1044.50 0.08400561
1044.60 0.08397609
1044.70 0.08394657
1044.80 0.08391707
1044.90 0.08388757
1045.00 0.08385809
1045.10 0.08382861
1045.20 0.08379914
1045.30 0.08376969
1045.40 0.08374024
1045.50 0.0837108
1045.60 0.08368137
1045.70 0.08365196
1045.80 0.08362255
1045.90 0.08359315
1046.00 0.08356376
1046.10 0.08353438
1046.20 0.08350501
1046.30 0.08347565
1046.40 0.0834463
1046.50 0.08341696
1046.60 0.08338763
1046.70 0.08335831
1046.80 0.083329
1046.90 0.0832999
1047.00 0.08327087
1047.10 0.08324185
1047.20 0.08321284
1047.30 0.08318384
1047.40 0.08315485
1047.50 0.08312587
1047.60 0.08309689
1047.70 0.08306793
1047.80 0.08303898
1047.90 0.08301003
1048.00 0.0829811
1048.10 0.08295218
1048.20 0.08292326
1048.30 0.08289436
1048.40 0.08286546
1048.50 0.08283657
1048.60 0.0828077
1048.70 0.08277883
1048.80 0.08274997
1048.90 0.08272113
1049.00 0.08269229
1049.10 0.08266346
1049.20 0.08263464
1049.30 0.08260583
1049.40 0.08257703
1049.50 0.08254824
1049.60 0.08251945
1049.70 0.08249068
1049.80 0.08246192
1049.90 0.08243317
1050.00 0.08240442
1050.10 0.08237569
1050.20 0.08234696
1050.30 0.08231825
1050.40 0.08228954
1050.50 0.08226084
1050.60 0.08223216
1050.70 0.08220348
1050.80 0.08217481
1050.90 0.08214615
1051.00 0.0821175
1051.10 0.08208886
1051.20 0.08206023
1051.30 0.08203161
1051.40 0.082003
1051.50 0.08197439
1051.60 0.0819458
1051.70 0.08191722
1051.80 0.08188864
1051.90 0.08186008
1052.00 0.08183152
1052.10 0.08180306
1052.20 0.08177466
1052.30 0.08174626
1052.40 0.08171787
1052.50 0.08168949
1052.60 0.08166112
1052.70 0.08163276
1052.80 0.08160441
1052.90 0.08157607
1053.00 0.08154773
1053.10 0.08151941
1053.20 0.0814911
1053.30 0.08146279
1053.40 0.0814345
1053.50 0.08140621
1053.60 0.08137793
1053.70 0.08134966
1053.80 0.08132141
1053.90 0.08129316
1054.00 0.08126492
1054.10 0.08123669
1054.20 0.08120846
1054.30 0.08118025
1054.40 0.08115205
1054.50 0.08112385
1054.60 0.08109567
1054.70 0.08106749
1054.80 0.08103933
1054.90 0.08101117
1055.00 0.08098302
1055.10 0.08095489
1055.20 0.08092676
1055.30 0.08089864
1055.40 0.08087053
1055.50 0.08084242
1055.60 0.08081433
1055.70 0.08078625
1055.80 0.08075817
1055.90 0.08073011
1056.00 0.08070205
1056.10 0.08067401
1056.20 0.08064597
1056.30 0.08061794
1056.40 0.08058992
1056.50 0.08056191
1056.60 0.08053391
1056.70 0.08050592
1056.80 0.08047794
1056.90 0.08044996
1057.00 0.080422
1057.10 0.08039405
1057.20 0.0803661
1057.30 0.08033816
1057.40 0.08031024
1057.50 0.08028232
1057.60 0.08025441
1057.70 0.08022651
1057.80 0.08019862
1057.90 0.08017073
1058.00 0.08014286
1058.10 0.080115
1058.20 0.08008714
1058.30 0.0800593
1058.40 0.08003146
1058.50 0.08000363
1058.60 0.07997582
1058.70 0.07994801
1058.80 0.07992021
1058.90 0.07989242
1059.00 0.07986463
1059.10 0.07983686
1059.20 0.0798091
1059.30 0.07978134
1059.40 0.0797536
1059.50 0.07972586
1059.60 0.07969813
1059.70 0.07967041
1059.80 0.0796427
1059.90 0.079615
1060.00 0.07958731
1060.10 0.07955963
1060.20 0.07953196
1060.30 0.07950429
1060.40 0.07947664
1060.50 0.07944899
1060.60 0.07942135
1060.70 0.07939372
1060.80 0.07936611
1060.90 0.07933849
1061.00 0.07931089
1061.10 0.0792833
1061.20 0.07925572
1061.30 0.07922814
1061.40 0.07920058
1061.50 0.07917302
1061.60 0.07914547
1061.70 0.07911794
1061.80 0.07909041
1061.90 0.07906289
1062.00 0.07903537
1062.10 0.07900787
1062.20 0.07898038
1062.30 0.07895289
1062.40 0.07892542
1062.50 0.07889795
1062.60 0.07887055
1062.70 0.07884323
1062.80 0.07881591
1062.90 0.0787886
1063.00 0.07876131
1063.10 0.07873402
1063.20 0.07870674
1063.30 0.07867947
1063.40 0.0786522
1063.50 0.07862495
1063.60 0.07859771
1063.70 0.07857047
1063.80 0.07854324
1063.90 0.07851603
1064.00 0.07848882
1064.10 0.07846162
1064.20 0.07843443
1064.30 0.07840724
1064.40 0.07838007
1064.50 0.0783529
1064.60 0.07832575
1064.70 0.0782986
1064.80 0.07827146
1064.90 0.07824433
1065.00 0.07821721
1065.10 0.0781901
1065.20 0.078163
1065.30 0.0781359
1065.40 0.07810882
1065.50 0.07808174
1065.60 0.07805467
1065.70 0.07802761
1065.80 0.07800056
1065.90 0.07797352
1066.00 0.07794649
1066.10 0.07791946
1066.20 0.07789245
1066.30 0.07786544
1066.40 0.07783844
1066.50 0.07781145
1066.60 0.07778447
1066.70 0.0777575
1066.80 0.07773054
1066.90 0.07770359
1067.00 0.07767664
1067.10 0.0776497
1067.20 0.07762278
1067.30 0.07759586
1067.40 0.07756895
1067.50 0.07754204
1067.60 0.07751515
1067.70 0.07748827
1067.80 0.07746139
1067.90 0.07743461
1068.00 0.07740799
1068.10 0.07738139
1068.20 0.07735479
1068.30 0.0773282
1068.40 0.07730163
1068.50 0.07727505
1068.60 0.07724849
1068.70 0.07722194
1068.80 0.0771954
1068.90 0.07716886
1069.00 0.07714233
1069.10 0.07711581
1069.20 0.0770893
1069.30 0.0770628
1069.40 0.07703631
1069.50 0.07700982
1069.60 0.07698335
1069.70 0.07695688
1069.80 0.07693042
1069.90 0.07690397
1070.00 0.07687753
1070.10 0.0768511
1070.20 0.07682467
1070.30 0.07679825
1070.40 0.07677185
1070.50 0.07674545
1070.60 0.07671906
1070.70 0.07669268
1070.80 0.0766663
1070.90 0.07663994
1071.00 0.07661358
1071.10 0.07658723
1071.20 0.07656089
1071.30 0.07653456
1071.40 0.07650824
1071.50 0.07648193
1071.60 0.07645562
1071.70 0.07642932
1071.80 0.07640303
1071.90 0.07637675
1072.00 0.07635048
1072.10 0.07632422
1072.20 0.07629796
1072.30 0.07627172
1072.40 0.07624548
1072.50 0.07621925
1072.60 0.07619303
1072.70 0.07616682
1072.80 0.07614061
1072.90 0.07611442
1073.00 0.07608823
1073.10 0.07606205
1073.20 0.07603591
1073.30 0.07600987
1073.40 0.07598383
1073.50 0.07595781
1073.60 0.07593179
1073.70 0.07590579
1073.80 0.07587979
1073.90 0.0758538
1074.00 0.07582781
1074.10 0.07580184
1074.20 0.07577587
1074.30 0.07574992
1074.40 0.07572397
1074.50 0.07569803
1074.60 0.07567209
1074.70 0.07564617
1074.80 0.07562025
1074.90 0.07559435
1075.00 0.07556845
1075.10 0.07554256
1075.20 0.07551668
1075.30 0.0754908
1075.40 0.07546494
1075.50 0.07543908
1075.60 0.07541323
1075.70 0.07538739
1075.80 0.07536156
1075.90 0.07533573
1076.00 0.07530992
1076.10 0.07528411
1076.20 0.07525831
1076.30 0.07523252
1076.40 0.07520674
1076.50 0.07518096
1076.60 0.07515519
1076.70 0.07512944
1076.80 0.07510369
1076.90 0.07507795
1077.00 0.07505221
1077.10 0.07502649
1077.20 0.07500077
1077.30 0.07497506
1077.40 0.07494936
1077.50 0.07492367
1077.60 0.07489799
1077.70 0.07487231
1077.80 0.07484665
1077.90 0.07482099
1078.00 0.07479534
1078.10 0.07476969
1078.20 0.07474406
1078.30 0.07471843
1078.40 0.07469282
1078.50 0.07466721
1078.60 0.07464161
1078.70 0.07461601
1078.80 0.07459043
1078.90 0.07456485
1079.00 0.07453928
1079.10 0.07451372
1079.20 0.07448817
1079.30 0.07446263
1079.40 0.07443709
1079.50 0.07441156
1079.60 0.07438604
1079.70 0.07436053
1079.80 0.07433503
1079.90 0.07430953
1080.00 0.07428405
1080.10 0.07425857
1080.20 0.0742331
1080.30 0.07420764
1080.40 0.07418218
1080.50 0.07415674
1080.60 0.0741313
1080.70 0.07410587
1080.80 0.07408045
1080.90 0.07405504
1081.00 0.07402963
1081.10 0.07400423
1081.20 0.07397884
1081.30 0.07395346
1081.40 0.07392809
1081.50 0.07390273
1081.60 0.07387737
1081.70 0.07385202
1081.80 0.07382668
1081.90 0.07380135
1082.00 0.07377603
1082.10 0.07375071
1082.20 0.0737254
1082.30 0.0737001
1082.40 0.07367481
1082.50 0.07364953
1082.60 0.07362425
1082.70 0.07359898
1082.80 0.07357372
1082.90 0.07354847
1083.00 0.07352323
1083.10 0.073498
1083.20 0.07347277
1083.30 0.07344755
1083.40 0.07342234
1083.50 0.07339714
1083.60 0.07337194
1083.70 0.07334675
1083.80 0.07332158
1083.90 0.07329641
1084.00 0.07327135
1084.10 0.07324631
1084.20 0.07322128
1084.30 0.07319625
1084.40 0.07317124
1084.50 0.07314623
1084.60 0.07312123
1084.70 0.07309624
1084.80 0.07307126
1084.90 0.07304629
1085.00 0.07302132
1085.10 0.07299636
1085.20 0.07297141
1085.30 0.07294647
1085.40 0.07292153
1085.50 0.0728966
1085.60 0.07287169
1085.70 0.07284677
1085.80 0.07282187
1085.90 0.07279698
1086.00 0.07277209
1086.10 0.07274721
1086.20 0.07272234
1086.30 0.07269747
1086.40 0.07267262
1086.50 0.07264777
1086.60 0.07262293
1086.70 0.0725981
1086.80 0.07257328
1086.90 0.07254846
1087.00 0.07252365
1087.10 0.07249885
1087.20 0.07247406
1087.30 0.07244927
1087.40 0.0724245
1087.50 0.07239973
1087.60 0.07237497
1087.70 0.07235022
1087.80 0.07232547
1087.90 0.07230073
1088.00 0.072276
1088.10 0.07225128
1088.20 0.07222657
1088.30 0.07220186
1088.40 0.07217717
1088.50 0.07215248
1088.60 0.07212779
1088.70 0.07210312
1088.80 0.07207845
1088.90 0.07205379
1089.00 0.07202914
1089.10 0.0720045
1089.20 0.07197987
1089.30 0.07195524
1089.40 0.07193078
1089.50 0.0719064
1089.60 0.07188202
1089.70 0.07185766
1089.80 0.0718333
1089.90 0.07180895
1090.00 0.07178461
1090.10 0.07176027
1090.20 0.07173595
1090.30 0.07171163
1090.40 0.07168732
1090.50 0.07166301
1090.60 0.07163872
1090.70 0.07161443
1090.80 0.07159015
1090.90 0.07156588
1091.00 0.07154161
1091.10 0.07151735
1091.20 0.0714931
1091.30 0.07146886
1091.40 0.07144463
1091.50 0.0714204
1091.60 0.07139618
1091.70 0.07137197
1091.80 0.07134777
1091.90 0.07132357
1092.00 0.07129938
1092.10 0.0712752
1092.20 0.07125103
1092.30 0.07122686
1092.40 0.07120271
1092.50 0.07117856
1092.60 0.07115441
1092.70 0.07113028
1092.80 0.07110615
1092.90 0.07108203
1093.00 0.07105792
1093.10 0.07103382
1093.20 0.07100972
1093.30 0.07098563
1093.40 0.07096155
1093.50 0.07093748
1093.60 0.07091341
1093.70 0.07088935
1093.80 0.0708653
1093.90 0.07084126
1094.00 0.07081722
1094.10 0.07079319
1094.20 0.07076917
1094.30 0.07074516
1094.40 0.07072116
1094.50 0.07069716
1094.60 0.07067317
1094.70 0.07064919
1094.80 0.07062532
1094.90 0.07060158
1095.00 0.07057785
1095.10 0.07055412
1095.20 0.0705304
1095.30 0.07050669
1095.40 0.07048298
1095.50 0.07045929
1095.60 0.0704356
1095.70 0.07041191
1095.80 0.07038824
1095.90 0.07036457
1096.00 0.07034091
1096.10 0.07031726
1096.20 0.07029362
1096.30 0.07026998
1096.40 0.07024635
1096.50 0.07022273
1096.60 0.07019911
1096.70 0.0701755
1096.80 0.0701519
1096.90 0.07012831
1097.00 0.07010473
1097.10 0.07008115
1097.20 0.07005758
1097.30 0.07003402
1097.40 0.07001046
1097.50 0.06998691
1097.60 0.06996337
1097.70 0.06993984
1097.80 0.06991631
1097.90 0.06989279
1098.00 0.06986928
1098.10 0.06984578
1098.20 0.06982228
1098.30 0.06979879
1098.40 0.06977531
1098.50 0.06975184
1098.60 0.06972837
1098.70 0.06970491
1098.80 0.06968146
1098.90 0.06965802
1099.00 0.06963458
1099.10 0.06961115
1099.20 0.06958773
1099.30 0.06956431
1099.40 0.0695409
1099.50 0.0695175
1099.60 0.06949411
1099.70 0.06947073
1099.80 0.06944735
1099.90 0.06942398
1100.00 0.06940061
1100.10 0.06937726
1100.20 0.06935391
1100.30 0.06933057
1100.40 0.06930723
1100.50 0.06928391
1100.60 0.06926059
1100.70 0.06923727
1100.80 0.06921397
1100.90 0.06919067
1101.00 0.06916738
1101.10 0.0691441
1101.20 0.06912082
1101.30 0.06909756
1101.40 0.0690743
1101.50 0.06905104
1101.60 0.0690278
1101.70 0.06900456
1101.80 0.06898132
1101.90 0.0689581
1102.00 0.06893488
1102.10 0.06891167
1102.20 0.06888847
1102.30 0.06886528
1102.40 0.06884209
1102.50 0.06881891
1102.60 0.06879573
1102.70 0.06877257
1102.80 0.06874941
1102.90 0.06872626
1103.00 0.06870311
1103.10 0.06867998
1103.20 0.06865685
1103.30 0.06863372
1103.40 0.06861061
1103.50 0.0685875
1103.60 0.0685644
1103.70 0.06854131
1103.80 0.06851822
1103.90 0.06849514
1104.00 0.06847207
1104.10 0.06844901
1104.20 0.06842595
1104.30 0.0684029
1104.40 0.06837985
1104.50 0.06835682
1104.60 0.06833379
1104.70 0.06831077
1104.80 0.06828776
1104.90 0.06826475
1105.00 0.06824175
1105.10 0.06821876
1105.20 0.06819577
1105.30 0.06817279
1105.40 0.06814982
1105.50 0.06812686
1105.60 0.0681039
1105.70 0.06808096
1105.80 0.06805823
1105.90 0.06803551
1106.00 0.0680128
1106.10 0.0679901
1106.20 0.0679674
1106.30 0.06794471
1106.40 0.06792202
1106.50 0.06789935
1106.60 0.06787668
1106.70 0.06785401
1106.80 0.06783136
1106.90 0.06780871
1107.00 0.06778607
1107.10 0.06776343
1107.20 0.06774081
1107.30 0.06771819
1107.40 0.06769557
1107.50 0.06767297
1107.60 0.06765037
1107.70 0.06762778
1107.80 0.06760519
1107.90 0.06758261
1108.00 0.06756004
1108.10 0.06753748
1108.20 0.06751492
1108.30 0.06749237
1108.40 0.06746983
1108.50 0.0674473
1108.60 0.06742477
1108.70 0.06740225
1108.80 0.06737973
1108.90 0.06735722
1109.00 0.06733472
1109.10 0.06731223
1109.20 0.06728974
1109.30 0.06726726
1109.40 0.06724479
1109.50 0.06722233
1109.60 0.06719987
1109.70 0.06717742
1109.80 0.06715497
1109.90 0.06713254
1110.00 0.06711011
1110.10 0.06708768
1110.20 0.06706527
1110.30 0.06704286
1110.40 0.06702045
1110.50 0.06699806
1110.60 0.06697567
1110.70 0.06695329
1110.80 0.06693091
1110.90 0.06690855
1111.00 0.06688619
1111.10 0.06686383
1111.20 0.06684149
1111.30 0.06681915
1111.40 0.06679681
1111.50 0.06677449
1111.60 0.06675217
1111.70 0.06672986
1111.80 0.06670755
1111.90 0.06668526
1112.00 0.06666296
1112.10 0.06664068
1112.20 0.0666184
1112.30 0.06659613
1112.40 0.06657387
1112.50 0.06655161
1112.60 0.06652936
1112.70 0.06650712
1112.80 0.06648489
1112.90 0.06646266
1113.00 0.06644044
1113.10 0.06641822
1113.20 0.06639601
1113.30 0.06637381
1113.40 0.06635162
1113.50 0.06632943
1113.60 0.06630725
1113.70 0.06628508
1113.80 0.06626291
1113.90 0.06624075
1114.00 0.0662186
1114.10 0.06619645
1114.20 0.06617431
1114.30 0.06615218
1114.40 0.06613006
1114.50 0.06610794
1114.60 0.06608583
1114.70 0.06606372
1114.80 0.06604163
1114.90 0.06601953
1115.00 0.06599745
1115.10 0.06597537
1115.20 0.0659533
1115.30 0.06593124
1115.40 0.06590918
1115.50 0.06588713
1115.60 0.06586509
1115.70 0.06584305
1115.80 0.06582103
1115.90 0.065799
1116.00 0.06577699
1116.10 0.06575498
1116.20 0.06573298
1116.30 0.06571098
1116.40 0.06568899
1116.50 0.06566701
1116.60 0.06564504
1116.70 0.06562307
1116.80 0.06560116
1116.90 0.0655793
1117.00 0.06555746
1117.10 0.06553562
1117.20 0.06551379
1117.30 0.06549196
1117.40 0.06547014
1117.50 0.06544833
1117.60 0.06542652
1117.70 0.06540473
1117.80 0.06538293
1117.90 0.06536115
1118.00 0.06533937
1118.10 0.0653176
1118.20 0.06529583
1118.30 0.06527408
1118.40 0.06525233
1118.50 0.06523058
1118.60 0.06520884
1118.70 0.06518711
1118.80 0.06516539
1118.90 0.06514367
1119.00 0.06512196
1119.10 0.06510025
1119.20 0.06507856
1119.30 0.06505687
1119.40 0.06503518
1119.50 0.06501351
1119.60 0.06499183
1119.70 0.06497017
1119.80 0.06494851
1119.90 0.06492686
1120.00 0.06490522
1120.10 0.06488358
1120.20 0.06486195
1120.30 0.06484033
1120.40 0.06481871
1120.50 0.0647971
1120.60 0.0647755
1120.70 0.0647539
1120.80 0.06473231
1120.90 0.06471073
1121.00 0.06468915
1121.10 0.06466758
1121.20 0.06464601
1121.30 0.06462446
1121.40 0.06460291
1121.50 0.06458136
1121.60 0.06455983
1121.70 0.0645383
1121.80 0.06451677
1121.90 0.06449526
1122.00 0.06447374
1122.10 0.06445224
1122.20 0.06443074
1122.30 0.06440925
1122.40 0.0643879
1122.50 0.06436663
1122.60 0.06434537
1122.70 0.06432412
1122.80 0.06430287
1122.90 0.06428163
1123.00 0.0642604
1123.10 0.06423917
1123.20 0.06421795
1123.30 0.06419674
1123.40 0.06417553
1123.50 0.06415433
1123.60 0.06413314
1123.70 0.06411195
1123.80 0.06409077
1123.90 0.06406959
1124.00 0.06404843
1124.10 0.06402726
1124.20 0.06400611
1124.30 0.06398496
1124.40 0.06396382
1124.50 0.06394268
1124.60 0.06392155
1124.70 0.06390043
1124.80 0.06387931
1124.90 0.06385821
1125.00 0.0638371
1125.10 0.06381601
1125.20 0.06379492
1125.30 0.06377383
1125.40 0.06375276
1125.50 0.06373168
1125.60 0.06371062
1125.70 0.06368956
1125.80 0.06366851
1125.90 0.06364747
1126.00 0.06362643
1126.10 0.0636054
1126.20 0.06358437
1126.30 0.06356335
1126.40 0.06354234
1126.50 0.06352134
1126.60 0.06350034
1126.70 0.06347934
1126.80 0.06345836
1126.90 0.06343738
1127.00 0.0634164
1127.10 0.06339544
1127.20 0.06337447
1127.30 0.06335352
1127.40 0.06333257
1127.50 0.06331163
1127.60 0.0632907
1127.70 0.06326977
1127.80 0.06324885
1127.90 0.06322793
1128.00 0.0632071
1128.10 0.06318629
1128.20 0.06316549
1128.30 0.0631447
1128.40 0.06312392
1128.50 0.06310314
1128.60 0.06308236
1128.70 0.0630616
1128.80 0.06304084
1128.90 0.06302008
1129.00 0.06299934
1129.10 0.06297859
1129.20 0.06295786
1129.30 0.06293713
1129.40 0.06291641
1129.50 0.06289569
1129.60 0.06287498
1129.70 0.06285428
1129.80 0.06283358
1129.90 0.06281289
1130.00 0.06279221
1130.10 0.06277153
1130.20 0.06275086
1130.30 0.0627302
1130.40 0.06270954
1130.50 0.06268889
1130.60 0.06266824
1130.70 0.0626476
1130.80 0.06262697
1130.90 0.06260634
1131.00 0.06258572
1131.10 0.0625651
1131.20 0.0625445
1131.30 0.06252389
1131.40 0.0625033
1131.50 0.06248271
1131.60 0.06246213
1131.70 0.06244155
1131.80 0.06242098
1131.90 0.06240042
1132.00 0.06237986
1132.10 0.06235931
1132.20 0.06233876
1132.30 0.06231822
1132.40 0.06229769
1132.50 0.06227716
1132.60 0.06225664
1132.70 0.06223613
1132.80 0.06221562
1132.90 0.06219512
1133.00 0.06217463
1133.10 0.06215414
1133.20 0.06213366
1133.30 0.06211318
1133.40 0.06209271
1133.50 0.06207225
1133.60 0.06205179
1133.70 0.06203134
1133.80 0.06201089
1133.90 0.06199045
1134.00 0.06197002
1134.10 0.0619496
1134.20 0.06192918
1134.30 0.06190876
1134.40 0.06188835
1134.50 0.06186795
1134.60 0.06184756
1134.70 0.06182717
1134.80 0.06180679
1134.90 0.06178641
1135.00 0.06176604
1135.10 0.06174568
1135.20 0.06172532
1135.30 0.06170497
1135.40 0.06168462
1135.50 0.06166428
1135.60 0.06164395
1135.70 0.06162362
1135.80 0.0616033
1135.90 0.06158299
1136.00 0.06156268
1136.10 0.06154238
1136.20 0.06152208
1136.30 0.0615018
1136.40 0.06148151
1136.50 0.06146123
1136.60 0.06144096
1136.70 0.0614207
1136.80 0.06140044
1136.90 0.06138019
1137.00 0.06135994
1137.10 0.0613397
1137.20 0.06131947
1137.30 0.06129924
1137.40 0.06127902
1137.50 0.0612588
1137.60 0.0612386
1137.70 0.06121839
1137.80 0.0611982
1137.90 0.061178
1138.00 0.06115782
1138.10 0.06113764
1138.20 0.06111747
1138.30 0.0610973
1138.40 0.06107714
1138.50 0.06105699
1138.60 0.06103684
1138.70 0.0610167
1138.80 0.06099657
1138.90 0.06097644
1139.00 0.06095631
1139.10 0.0609362
1139.20 0.06091609
1139.30 0.06089627
1139.40 0.06087647
1139.50 0.06085667
1139.60 0.06083688
1139.70 0.06081709
1139.80 0.06079731
1139.90 0.06077754
1140.00 0.06075777
1140.10 0.06073801
1140.20 0.06071825
1140.30 0.0606985
1140.40 0.06067876
1140.50 0.06065902
1140.60 0.06063929
1140.70 0.06061957
1140.80 0.06059985
1140.90 0.06058013
1141.00 0.06056043
1141.10 0.06054072
1141.20 0.06052103
1141.30 0.06050134
1141.40 0.06048165
1141.50 0.06046198
1141.60 0.0604423
1141.70 0.06042264
1141.80 0.06040298
1141.90 0.06038332
1142.00 0.06036368
1142.10 0.06034403
1142.20 0.0603244
1142.30 0.06030477
1142.40 0.06028514
1142.50 0.06026553
1142.60 0.06024591
1142.70 0.06022631
1142.80 0.06020671
1142.90 0.06018711
1143.00 0.06016752
1143.10 0.06014794
1143.20 0.06012837
1143.30 0.06010879
1143.40 0.06008923
1143.50 0.06006967
1143.60 0.06005012
1143.70 0.06003057
1143.80 0.06001103
1143.90 0.05999149
1144.00 0.05997196
1144.10 0.05995244
1144.20 0.05993292
1144.30 0.05991341
1144.40 0.05989391
1144.50 0.05987441
1144.60 0.05985491
1144.70 0.05983543
1144.80 0.05981594
1144.90 0.05979647
1145.00 0.059777
1145.10 0.05975753
1145.20 0.05973807
1145.30 0.05971862
1145.40 0.05969917
1145.50 0.05967973
1145.60 0.0596603
1145.70 0.05964087
1145.80 0.05962145
1145.90 0.05960203
1146.00 0.05958262
1146.10 0.05956321
1146.20 0.05954381
1146.30 0.05952442
1146.40 0.05950503
1146.50 0.05948565
1146.60 0.05946627
1146.70 0.0594469
1146.80 0.05942754
1146.90 0.05940818
1147.00 0.05938882
1147.10 0.05936948
1147.20 0.05935014
1147.30 0.0593308
1147.40 0.05931147
1147.50 0.05929215
1147.60 0.05927283
1147.70 0.05925352
1147.80 0.05923421
1147.90 0.05921491
1148.00 0.05919562
1148.10 0.05917633
1148.20 0.05915704
1148.30 0.05913777
1148.40 0.0591185
1148.50 0.05909923
1148.60 0.05907997
1148.70 0.05906072
1148.80 0.05904147
1148.90 0.05902223
1149.00 0.05900299
1149.10 0.05898376
1149.20 0.05896454
1149.30 0.05894532
1149.40 0.0589261
1149.50 0.0589069
1149.60 0.05888769
1149.70 0.0588685
1149.80 0.05884931
1149.90 0.05883012
1150.00 0.05881095
1150.10 0.05879177
1150.20 0.05877261
1150.30 0.05875344
1150.40 0.05873429
1150.50 0.05871514
1150.60 0.058696
1150.70 0.05867695
1150.80 0.0586579
1150.90 0.05863886
1151.00 0.05861983
1151.10 0.0586008
1151.20 0.05858178
1151.30 0.05856276
1151.40 0.05854375
1151.50 0.05852475
1151.60 0.05850575
1151.70 0.05848675
1151.80 0.05846777
1151.90 0.05844878
1152.00 0.05842981
1152.10 0.05841084
1152.20 0.05839187
1152.30 0.05837291
1152.40 0.05835396
1152.50 0.05833501
1152.60 0.05831607
1152.70 0.05829713
1152.80 0.0582782
1152.90 0.05825927
1153.00 0.05824035
1153.10 0.05822144
1153.20 0.05820253
1153.30 0.05818363
1153.40 0.05816473
1153.50 0.05814584
1153.60 0.05812695
1153.70 0.05810807
1153.80 0.0580892
1153.90 0.05807033
1154.00 0.05805147
1154.10 0.05803261
1154.20 0.05801376
1154.30 0.05799491
1154.40 0.05797607
1154.50 0.05795724
1154.60 0.05793841
1154.70 0.05791959
1154.80 0.05790077
1154.90 0.05788196
1155.00 0.05786315
1155.10 0.05784435
1155.20 0.05782555
1155.30 0.05780676
1155.40 0.05778798
1155.50 0.0577692
1155.60 0.05775043
1155.70 0.05773166
1155.80 0.0577129
1155.90 0.05769415
1156.00 0.0576754
1156.10 0.05765665
1156.20 0.05763791
1156.30 0.05761918
1156.40 0.05760056
1156.50 0.05758203
1156.60 0.05756352
1156.70 0.057545
1156.80 0.0575265
1156.90 0.05750799
1157.00 0.0574895
1157.10 0.05747101
1157.20 0.05745252
1157.30 0.05743404
1157.40 0.05741557
1157.50 0.0573971
1157.60 0.05737863
1157.70 0.05736018
1157.80 0.05734172
1157.90 0.05732328
1158.00 0.05730483
1158.10 0.0572864
1158.20 0.05726797
1158.30 0.05724954
1158.40 0.05723112
1158.50 0.05721271
1158.60 0.0571943
1158.70 0.0571759
1158.80 0.0571575
1158.90 0.05713911
1159.00 0.05712072
1159.10 0.05710234
1159.20 0.05708397
1159.30 0.0570656
1159.40 0.05704723
1159.50 0.05702888
1159.60 0.05701052
1159.70 0.05699217
1159.80 0.05697383
1159.90 0.0569555
1160.00 0.05693716
1160.10 0.05691884
1160.20 0.05690052
1160.30 0.0568822
1160.40 0.05686389
1160.50 0.05684559
1160.60 0.05682729
1160.70 0.056809
1160.80 0.05679071
1160.90 0.05677243
1161.00 0.05675415
1161.10 0.05673588
1161.20 0.05671761
1161.30 0.05669935
1161.40 0.0566811
1161.50 0.05666285
1161.60 0.0566446
1161.70 0.05662637
1161.80 0.05660813
1161.90 0.0565899
1162.00 0.05657168
1162.10 0.05655347
1162.20 0.05653514
1162.30 0.05651683
1162.40 0.05649852
1162.50 0.05648022
1162.60 0.05646192
1162.70 0.05644362
1162.80 0.05642534
1162.90 0.05640705
1163.00 0.05638878
1163.10 0.05637051
1163.20 0.05635224
1163.30 0.05633398
1163.40 0.05631572
1163.50 0.05629747
1163.60 0.05627923
1163.70 0.05626099
1163.80 0.05624276
1163.90 0.05622453
1164.00 0.05620631
1164.10 0.05618809
1164.20 0.05616988
1164.30 0.05615167
1164.40 0.05613347
1164.50 0.05611528
1164.60 0.05609709
1164.70 0.0560789
1164.80 0.05606072
1164.90 0.05604255
1165.00 0.05602438
1165.10 0.05600622
1165.20 0.05598806
1165.30 0.05596991
1165.40 0.05595176
1165.50 0.05593362
1165.60 0.05591548
1165.70 0.05589735
1165.80 0.05587923
1165.90 0.05586111
1166.00 0.055843
1166.10 0.05582489
1166.20 0.05580678
1166.30 0.05578869
1166.40 0.05577059
1166.50 0.05575251
1166.60 0.05573442
1166.70 0.05571635
1166.80 0.05569828
1166.90 0.05568021
1167.00 0.05566215
1167.10 0.05564409
1167.20 0.05562604
1167.30 0.055608
1167.40 0.05558996
1167.50 0.05557193
1167.60 0.0555539
1167.70 0.05553588
1167.80 0.05551786
1167.90 0.05549985
1168.00 0.05548218
1168.10 0.05546456
1168.20 0.05544694
1168.30 0.05542933
1168.40 0.05541172
1168.50 0.05539412
1168.60 0.05537653
1168.70 0.05535894
1168.80 0.05534135
1168.90 0.05532377
1169.00 0.05530619
1169.10 0.05528862
1169.20 0.05527106
1169.30 0.0552535
1169.40 0.05523595
1169.50 0.0552184
1169.60 0.05520085
1169.70 0.05518331
1169.80 0.05516578
1169.90 0.05514825
1170.00 0.05513073
1170.10 0.05511321
1170.20 0.0550957
1170.30 0.05507819
1170.40 0.05506069
1170.50 0.05504319
1170.60 0.0550257
1170.70 0.05500821
1170.80 0.05499073
1170.90 0.05497325
1171.00 0.05495578
1171.10 0.05493831
1171.20 0.05492085
1171.30 0.0549034
1171.40 0.05488594
1171.50 0.0548685
1171.60 0.05485106
1171.70 0.05483362
1171.80 0.05481619
1171.90 0.05479877
1172.00 0.05478135
1172.10 0.05476393
1172.20 0.05474652
1172.30 0.05472912
1172.40 0.05471172
1172.50 0.05469432
1172.60 0.05467694
1172.70 0.05465955
1172.80 0.05464217
1172.90 0.0546248
1173.00 0.05460743
1173.10 0.05459007
1173.20 0.05457271
1173.30 0.05455536
1173.40 0.05453801
1173.50 0.05452066
1173.60 0.05450333
1173.70 0.05448599
1173.80 0.05446873
1173.90 0.05445148
1174.00 0.05443424
1174.10 0.05441701
1174.20 0.05439978
1174.30 0.05438256
1174.40 0.05436534
1174.50 0.05434812
1174.60 0.05433091
1174.70 0.05431371
1174.80 0.05429651
1174.90 0.05427932
1175.00 0.05426213
1175.10 0.05424495
1175.20 0.05422777
1175.30 0.05421059
1175.40 0.05419343
1175.50 0.05417626
1175.60 0.0541591
1175.70 0.05414195
1175.80 0.0541248
1175.90 0.05410766
1176.00 0.05409052
1176.10 0.05407339
1176.20 0.05405626
1176.30 0.05403914
1176.40 0.05402202
1176.50 0.05400491
1176.60 0.0539878
1176.70 0.0539707
1176.80 0.0539536
1176.90 0.05393651
1177.00 0.05391942
1177.10 0.05390234
1177.20 0.05388526
1177.30 0.05386819
1177.40 0.05385112
1177.50 0.05383406
1177.60 0.053817
1177.70 0.05379995
1177.80 0.0537829
1177.90 0.05376586
1178.00 0.05374882
1178.10 0.05373179
1178.20 0.05371476
1178.30 0.05369774
1178.40 0.05368072
1178.50 0.05366371
1178.60 0.0536467
1178.70 0.0536297
1178.80 0.0536127
1178.90 0.05359571
1179.00 0.05357872
1179.10 0.05356174
1179.20 0.05354476
1179.30 0.05352779
1179.40 0.05351082
1179.50 0.05349386
1179.60 0.0534769
1179.70 0.05345995
1179.80 0.053443
1179.90 0.05342606
1180.00 0.05340913
1180.10 0.05339219
1180.20 0.05337527
1180.30 0.05335835
1180.40 0.05334143
1180.50 0.05332452
1180.60 0.05330761
1180.70 0.05329071
1180.80 0.05327381
1180.90 0.05325692
1181.00 0.05324004
1181.10 0.05322315
1181.20 0.05320628
1181.30 0.05318941
1181.40 0.05317254
1181.50 0.05315568
1181.60 0.05313882
1181.70 0.05312197
1181.80 0.05310512
1181.90 0.05308828
1182.00 0.05307144
1182.10 0.05305461
1182.20 0.05303778
1182.30 0.05302096
1182.40 0.05300414
1182.50 0.05298733
1182.60 0.05297052
1182.70 0.05295372
1182.80 0.05293692
1182.90 0.05292013
1183.00 0.05290334
1183.10 0.05288656
1183.20 0.05286978
1183.30 0.05285301
1183.40 0.05283624
1183.50 0.05281948
1183.60 0.05280272
1183.70 0.05278597
1183.80 0.05276922
1183.90 0.05275247
1184.00 0.05273573
1184.10 0.052719
1184.20 0.05270227
1184.30 0.05268555
1184.40 0.05266883
1184.50 0.05265211
1184.60 0.0526354
1184.70 0.0526187
1184.80 0.052602
1184.90 0.05258531
1185.00 0.05256862
1185.10 0.05255193
1185.20 0.05253525
1185.30 0.05251858
1185.40 0.05250191
1185.50 0.05248527
1185.60 0.05246869
1185.70 0.05245211
1185.80 0.05243554
1185.90 0.05241897
1186.00 0.0524024
1186.10 0.05238584
1186.20 0.05236929
1186.30 0.05235274
1186.40 0.05233619
1186.50 0.05231965
1186.60 0.05230311
1186.70 0.05228658
1186.80 0.05227006
1186.90 0.05225354
1187.00 0.05223702
1187.10 0.05222051
1187.20 0.052204
1187.30 0.0521875
1187.40 0.052171
1187.50 0.05215451
1187.60 0.05213802
1187.70 0.05212154
1187.80 0.05210506
1187.90 0.05208859
1188.00 0.05207212
1188.10 0.05205566
1188.20 0.0520392
1188.30 0.05202274
1188.40 0.0520063
1188.50 0.05198985
1188.60 0.05197341
1188.70 0.05195698
1188.80 0.05194055
1188.90 0.05192412
1189.00 0.0519077
1189.10 0.05189129
1189.20 0.05187488
1189.30 0.05185847
1189.40 0.05184207
1189.50 0.05182567
1189.60 0.05180928
1189.70 0.05179289
1189.80 0.05177651
1189.90 0.05176014
1190.00 0.05174376
1190.10 0.0517274
1190.20 0.05171103
1190.30 0.05169467
1190.40 0.05167832
1190.50 0.05166197
1190.60 0.05164563
1190.70 0.05162929
1190.80 0.05161295
1190.90 0.05159663
1191.00 0.0515803
1191.10 0.05156398
1191.20 0.05154767
1191.30 0.05153135
1191.40 0.05151508
1191.50 0.05149895
1191.60 0.05148283
1191.70 0.05146672
1191.80 0.05145061
1191.90 0.05143451
1192.00 0.05141841
1192.10 0.05140231
1192.20 0.05138622
1192.30 0.05137014
1192.40 0.05135406
1192.50 0.05133798
1192.60 0.05132191
1192.70 0.05130584
1192.80 0.05128978
1192.90 0.05127372
1193.00 0.05125767
1193.10 0.05124162
1193.20 0.05122558
1193.30 0.05120954
1193.40 0.0511935
1193.50 0.05117747
1193.60 0.05116145
1193.70 0.05114543
1193.80 0.05112941
1193.90 0.0511134
1194.00 0.05109739
1194.10 0.05108139
1194.20 0.0510654
1194.30 0.0510494
1194.40 0.05103342
1194.50 0.05101743
1194.60 0.05100145
1194.70 0.05098548
1194.80 0.05096951
1194.90 0.05095355
1195.00 0.05093759
1195.10 0.05092163
1195.20 0.05090568
1195.30 0.05088973
1195.40 0.05087379
1195.50 0.05085786
1195.60 0.05084192
1195.70 0.050826
1195.80 0.05081007
1195.90 0.05079415
1196.00 0.05077824
1196.10 0.05076233
1196.20 0.05074643
1196.30 0.05073053
1196.40 0.05071463
1196.50 0.05069874
1196.60 0.05068285
1196.70 0.05066697
1196.80 0.0506511
1196.90 0.05063522
1197.00 0.05061936
1197.10 0.05060349
1197.20 0.05058763
1197.30 0.05057178
1197.40 0.050556
1197.50 0.05054023
1197.60 0.05052446
1197.70 0.0505087
1197.80 0.05049294
1197.90 0.05047719
1198.00 0.05046144
1198.10 0.0504457
1198.20 0.05042996
1198.30 0.05041422
1198.40 0.05039849
1198.50 0.05038277
1198.60 0.05036705
1198.70 0.05035133
1198.80 0.05033562
1198.90 0.05031991
1199.00 0.05030421
1199.10 0.05028851
1199.20 0.05027282
1199.30 0.05025713
1199.40 0.05024145
1199.50 0.05022577
1199.60 0.05021009
1199.70 0.05019442
1199.80 0.05017876
1199.90 0.05016309
1200.00 0.05014744
