# Version 2.1 - nm, norm@500 to 1, cut digits, bergeron_He_6500_75.dat_6500
# Wavelength(nm)  Flambda(ergs/cm^s/s/nm)
300.00 0.7270718
300.10 0.7276798
300.20 0.7282917
300.30 0.7288974
300.40 0.7294685
300.50 0.7300387
300.60 0.730608
300.70 0.7311763
300.80 0.7317437
300.90 0.7323102
301.00 0.7328758
301.10 0.7334405
301.20 0.7340042
301.30 0.7345671
301.40 0.735129
301.50 0.7356901
301.60 0.7362502
301.70 0.7368094
301.80 0.7373677
301.90 0.7379252
302.00 0.7384817
302.10 0.7390559
302.20 0.7396312
302.30 0.7402057
302.40 0.7407792
302.50 0.7413517
302.60 0.7419234
302.70 0.7424941
302.80 0.743064
302.90 0.7436329
303.00 0.7442009
303.10 0.744768
303.20 0.7453342
303.30 0.7459002
303.40 0.7464722
303.50 0.7470433
303.60 0.7476134
303.70 0.7481827
303.80 0.748751
303.90 0.7493184
304.00 0.7498849
304.10 0.7504505
304.20 0.7510152
304.30 0.751579
304.40 0.7521419
304.50 0.7527039
304.60 0.7532739
304.70 0.753844
304.80 0.7544131
304.90 0.7549814
305.00 0.7555487
305.10 0.7561152
305.20 0.7566807
305.30 0.7572453
305.40 0.7578091
305.50 0.7583719
305.60 0.7589338
305.70 0.7594949
305.80 0.760055
305.90 0.7606143
306.00 0.7611726
306.10 0.7617301
306.20 0.7622866
306.30 0.7628423
306.40 0.7633943
306.50 0.7639446
306.60 0.764494
306.70 0.7650425
306.80 0.7655901
306.90 0.7661368
307.00 0.7666827
307.10 0.7672277
307.20 0.7677719
307.30 0.7683151
307.40 0.7688575
307.50 0.769399
307.60 0.7699397
307.70 0.7704795
307.80 0.7710184
307.90 0.7715565
308.00 0.7720937
308.10 0.77263
308.20 0.7731655
308.30 0.7737002
308.40 0.7742339
308.50 0.7747669
308.60 0.7752989
308.70 0.7758301
308.80 0.7763612
308.90 0.7768935
309.00 0.7774096
309.10 0.7779249
309.20 0.7784394
309.30 0.7789531
309.40 0.7794705
309.50 0.7800157
309.60 0.78056
309.70 0.7811035
309.80 0.7816461
309.90 0.7821878
310.00 0.7827287
310.10 0.7832687
310.20 0.7838078
310.30 0.7843461
310.40 0.7848807
310.50 0.7854114
310.60 0.7859413
310.70 0.7864704
310.80 0.7869985
310.90 0.7875259
311.00 0.7880514
311.10 0.7885761
311.20 0.7890999
311.30 0.7896278
311.40 0.7901687
311.50 0.7907088
311.60 0.791248
311.70 0.7917864
311.80 0.7923239
311.90 0.7928606
312.00 0.7933964
312.10 0.7939314
312.20 0.7943846
312.30 0.7947973
312.40 0.7952801
312.50 0.795996
312.60 0.7965136
312.70 0.7970304
312.80 0.7975464
312.90 0.7980611
313.00 0.7985745
313.10 0.7990871
313.20 0.7995988
313.30 0.8001075
313.40 0.800609
313.50 0.8011097
313.60 0.8016096
313.70 0.8021087
313.80 0.802607
313.90 0.8031045
314.00 0.8036012
314.10 0.8041324
314.20 0.8046627
314.30 0.8051923
314.40 0.8057209
314.50 0.8062488
314.60 0.8067758
314.70 0.807302
314.80 0.8078085
314.90 0.8082858
315.00 0.8087894
315.10 0.8092786
315.20 0.809767
315.30 0.8102547
315.40 0.8107416
315.50 0.8112277
315.60 0.8117131
315.70 0.81226
315.80 0.8128062
315.90 0.8133514
316.00 0.8138958
316.10 0.8143771
316.20 0.8148577
316.30 0.8153374
316.40 0.8158164
316.50 0.8162946
316.60 0.8167721
316.70 0.8172488
316.80 0.8177247
316.90 0.8182618
317.00 0.8187981
317.10 0.8193335
317.20 0.8198681
317.30 0.8203457
317.40 0.8208205
317.50 0.8212887
317.60 0.821756
317.70 0.8222227
317.80 0.8226885
317.90 0.823305
318.00 0.8236485
318.10 0.8241759
318.20 0.8247025
318.30 0.8252282
318.40 0.8257372
318.50 0.8262
318.60 0.8267258
318.70 0.827187
318.80 0.8275741
318.90 0.8281073
319.00 0.8287473
319.10 0.8292055
319.20 0.829661
319.30 0.8301099
319.40 0.8305582
319.50 0.8310057
319.60 0.8315002
319.70 0.8320106
319.80 0.8325203
319.90 0.8330292
320.00 0.8335101
320.10 0.8339608
320.20 0.8344051
320.30 0.8349765
320.40 0.8353281
320.50 0.8358728
320.60 0.8364457
320.70 0.836892
320.80 0.8373375
320.90 0.8377823
321.00 0.8382264
321.10 0.8386698
321.20 0.839151
321.30 0.8396296
321.40 0.8401075
321.50 0.8405846
321.60 0.8410609
321.70 0.8415366
321.80 0.8420001
321.90 0.8424506
322.00 0.8429352
322.10 0.8434262
322.20 0.8439164
322.30 0.8444058
322.40 0.8448945
322.50 0.8453824
322.60 0.8458696
322.70 0.8463559
322.80 0.8468492
322.90 0.8472998
323.00 0.8477497
323.10 0.8481988
323.20 0.8486472
323.30 0.8490949
323.40 0.8495419
323.50 0.8499881
323.60 0.8504337
323.70 0.8508785
323.80 0.8513226
323.90 0.851766
324.00 0.8522545
324.10 0.8527421
324.20 0.853229
324.30 0.8536885
324.40 0.8541081
324.50 0.8545665
324.60 0.8550241
324.70 0.8554809
324.80 0.8559371
324.90 0.8563925
325.00 0.8568472
325.10 0.8573012
325.20 0.8577556
325.30 0.8582115
325.40 0.8586667
325.50 0.8591319
325.60 0.8596094
325.70 0.8600861
325.80 0.8605621
325.90 0.8610088
326.00 0.8614239
326.10 0.8618384
326.20 0.8622521
326.30 0.8627098
326.40 0.8632935
326.50 0.8637294
326.60 0.8641645
326.70 0.864599
326.80 0.8650328
326.90 0.8654659
327.00 0.8658983
327.10 0.86633
327.20 0.866761
327.30 0.8671913
327.40 0.8676209
327.50 0.8680499
327.60 0.8684781
327.70 0.8689057
327.80 0.8693326
327.90 0.8698391
328.00 0.8703525
328.10 0.8707686
328.20 0.871184
328.30 0.8715988
328.40 0.8720129
328.50 0.8724507
328.60 0.8728936
328.70 0.8733357
328.80 0.8737776
328.90 0.8742203
329.00 0.8746623
329.10 0.8751035
329.20 0.8755441
329.30 0.8759839
329.40 0.8764231
329.50 0.8768616
329.60 0.8772994
329.70 0.8777365
329.80 0.8781729
329.90 0.8786086
330.00 0.8790227
330.10 0.8794105
330.20 0.8797978
330.30 0.8801844
330.40 0.8805957
330.50 0.8810336
330.60 0.8814708
330.70 0.8819074
330.80 0.8823433
330.90 0.8827785
331.00 0.883213
331.10 0.8836468
331.20 0.8840799
331.30 0.8845123
331.40 0.8849441
331.50 0.8853502
331.60 0.8857252
331.70 0.8860995
331.80 0.8865173
331.90 0.8869363
332.00 0.8873545
332.10 0.8877722
332.20 0.8881891
332.30 0.8886054
332.40 0.8890211
332.50 0.8894361
332.60 0.8898504
332.70 0.890264
332.80 0.890677
332.90 0.8910894
333.00 0.8915011
333.10 0.8919203
333.20 0.8923488
333.30 0.8927766
333.40 0.8932038
333.50 0.8936303
333.60 0.8940561
333.70 0.8944812
333.80 0.8949057
333.90 0.8953295
334.00 0.8957527
334.10 0.8961618
334.20 0.8965539
334.30 0.8969454
334.40 0.8973362
334.50 0.8977264
334.60 0.898116
334.70 0.898473
334.80 0.8988222
334.90 0.899217
335.00 0.8996112
335.10 0.9001119
335.20 0.9004608
335.30 0.9009087
335.40 0.9012564
335.50 0.9016035
335.60 0.902171
335.70 0.9024672
335.80 0.9029228
335.90 0.903353
336.00 0.9037521
336.10 0.9041506
336.20 0.9045485
336.30 0.9049375
336.40 0.9053158
336.50 0.9056935
336.60 0.9060706
336.70 0.906447
336.80 0.9068229
336.90 0.9072022
337.00 0.9075859
337.10 0.907969
337.20 0.9083514
337.30 0.9087471
337.40 0.9091621
337.50 0.9095765
337.60 0.9099902
337.70 0.9104032
337.80 0.9108156
337.90 0.9111987
338.00 0.9115461
338.10 0.9118929
338.20 0.9122391
338.30 0.9125848
338.40 0.9129431
338.50 0.9133331
338.60 0.9137225
338.70 0.9141113
338.80 0.9144995
338.90 0.914887
339.00 0.915274
339.10 0.9156603
339.20 0.916046
339.30 0.9164588
339.40 0.9169107
339.50 0.9173257
339.60 0.9176956
339.70 0.9180649
339.80 0.9184337
339.90 0.9188018
340.00 0.9191693
340.10 0.9195363
340.20 0.9199026
340.30 0.9202684
340.40 0.9206336
340.50 0.9209982
340.60 0.9213622
340.70 0.9217256
340.80 0.9220765
340.90 0.9224096
341.00 0.9227584
341.10 0.9231264
341.20 0.9234938
341.30 0.9238606
341.40 0.9242269
341.50 0.9245925
341.60 0.9249576
341.70 0.9253221
341.80 0.9256845
341.90 0.9260447
342.00 0.9264043
342.10 0.9267634
342.20 0.9271543
342.30 0.9275584
342.40 0.9279223
342.50 0.9282704
342.60 0.9286178
342.70 0.9289647
342.80 0.9293111
342.90 0.9296569
343.00 0.9300269
343.10 0.9304267
343.20 0.9308259
343.30 0.9312244
343.40 0.9315974
343.50 0.9319338
343.60 0.9322696
343.70 0.9326049
343.80 0.9329397
343.90 0.9332739
344.00 0.9336148
344.10 0.9339654
344.20 0.9343155
344.30 0.934665
344.40 0.9350354
344.50 0.9354362
344.60 0.9356698
344.70 0.9361741
344.80 0.9364684
344.90 0.9367622
345.00 0.9371789
345.10 0.9374716
345.20 0.9377974
345.30 0.9381709
345.40 0.9385438
345.50 0.938865
345.60 0.9391646
345.70 0.9395237
345.80 0.9398821
345.90 0.94024
346.00 0.9405974
346.10 0.9409541
346.20 0.9413075
346.30 0.9416562
346.40 0.9420043
346.50 0.9423519
346.60 0.9426989
346.70 0.9430454
346.80 0.9433913
346.90 0.9437366
347.00 0.9440814
347.10 0.9444257
347.20 0.9447636
347.30 0.9450928
347.40 0.9454213
347.50 0.9457494
347.60 0.9460769
347.70 0.9464039
347.80 0.9467304
347.90 0.9470563
348.00 0.9473817
348.10 0.9477066
348.20 0.9480309
348.30 0.9483547
348.40 0.948678
348.50 0.9490008
348.60 0.949323
348.70 0.9496777
348.80 0.9500274
348.90 0.9503551
349.00 0.9506823
349.10 0.9510089
349.20 0.951335
349.30 0.9516606
349.40 0.9519856
349.50 0.9523101
349.60 0.9526341
349.70 0.9529575
349.80 0.9532805
349.90 0.9536029
350.00 0.9539248
350.10 0.9542461
350.20 0.954567
350.30 0.9548862
350.40 0.9552033
350.50 0.9555199
350.60 0.9558359
350.70 0.9561515
350.80 0.9564665
350.90 0.9567811
351.00 0.9570951
351.10 0.9574086
351.20 0.9577216
351.30 0.958034
351.40 0.9583486
351.50 0.9586674
351.60 0.9589856
351.70 0.9593033
351.80 0.9596205
351.90 0.9599371
352.00 0.9602533
352.10 0.9605689
352.20 0.9608366
352.30 0.9611216
352.40 0.9614392
352.50 0.9617562
352.60 0.9620728
352.70 0.9623888
352.80 0.9627043
352.90 0.9630193
353.00 0.9633338
353.10 0.9636478
353.20 0.9639612
353.30 0.9642742
353.40 0.9645866
353.50 0.9648942
353.60 0.9652002
353.70 0.9655057
353.80 0.9658107
353.90 0.9661128
354.00 0.9664102
354.10 0.966707
354.20 0.9670034
354.30 0.9672993
354.40 0.9675947
354.50 0.9678896
354.60 0.968184
354.70 0.968478
354.80 0.9687581
354.90 0.9690187
355.00 0.9692788
355.10 0.9695384
355.20 0.9697976
355.30 0.9701208
355.40 0.9704434
355.50 0.9707655
355.60 0.9710871
355.70 0.9713924
355.80 0.9716901
355.90 0.9719364
356.00 0.9722051
356.10 0.9725017
356.20 0.9727978
356.30 0.9730935
356.40 0.9733887
356.50 0.9736833
356.60 0.9739775
356.70 0.9742712
356.80 0.9745645
356.90 0.9748572
357.00 0.9751495
357.10 0.9754413
357.20 0.9757326
357.30 0.9760234
357.40 0.9763049
357.50 0.97657
357.60 0.9768347
357.70 0.977099
357.80 0.9773481
357.90 0.9775967
358.00 0.977879
358.10 0.9781694
358.20 0.9784593
358.30 0.9787487
358.40 0.9790376
358.50 0.9793261
358.60 0.9796141
358.70 0.9799016
358.80 0.9801886
358.90 0.9804752
359.00 0.9807422
359.10 0.9809748
359.20 0.9812135
359.30 0.9814947
359.40 0.9817754
359.50 0.9820547
359.60 0.9823333
359.70 0.9826115
359.80 0.9828663
359.90 0.9831207
360.00 0.9833826
360.10 0.9836585
360.20 0.9839339
360.30 0.9842088
360.40 0.9844832
360.50 0.9847572
360.60 0.9850862
360.70 0.985353
360.80 0.9856193
360.90 0.9858851
361.00 0.9861039
361.10 0.9863302
361.20 0.9866743
361.30 0.9868526
361.40 0.9870781
361.50 0.9873985
361.60 0.9876556
361.70 0.9879655
361.80 0.9882343
361.90 0.9884304
362.00 0.9886261
362.10 0.9889665
362.20 0.9892951
362.30 0.989539
362.40 0.9897824
362.50 0.9900255
362.60 0.9902681
362.70 0.9905103
362.80 0.9908466
362.90 0.9910526
363.00 0.9912583
363.10 0.9914878
363.20 0.9917171
363.30 0.9920804
363.40 0.9922882
363.50 0.9924956
363.60 0.9927968
363.70 0.992972
363.80 0.9933037
363.90 0.9935632
364.00 0.9938222
364.10 0.9940809
364.20 0.9943391
364.30 0.9945373
364.40 0.9947203
364.50 0.9951186
364.60 0.995319
364.70 0.9955192
364.80 0.9957189
364.90 0.9960143
365.00 0.9963091
365.10 0.9965101
365.20 0.9968041
365.30 0.9970043
365.40 0.9972974
365.50 0.9974968
365.60 0.9976959
365.70 0.9979116
365.80 0.9981268
365.90 0.9983942
366.00 0.9986744
366.10 0.9989044
366.20 0.999134
366.30 0.9993632
366.40 0.999592
366.50 0.9998339
366.60 1.000037
366.70 1.000333
366.80 1.000628
366.90 1.000896
367.00 1.001115
367.10 1.001333
367.20 1.001551
367.30 1.001769
367.40 1.001986
367.50 1.002249
367.60 1.002522
367.70 1.002752
367.80 1.002981
367.90 1.00321
368.00 1.003376
368.10 1.003648
368.20 1.003874
368.30 1.004098
368.40 1.004322
368.50 1.004546
368.60 1.004769
368.70 1.004992
368.80 1.005214
368.90 1.005395
369.00 1.005627
369.10 1.00589
369.20 1.006083
369.30 1.006329
369.40 1.006574
369.50 1.006819
369.60 1.007
369.70 1.00718
369.80 1.007421
369.90 1.007663
370.00 1.007905
370.10 1.008093
370.20 1.008364
370.30 1.008636
370.40 1.008816
370.50 1.008997
370.60 1.009177
370.70 1.009366
370.80 1.009632
370.90 1.009897
371.00 1.010081
371.10 1.010263
371.20 1.010527
371.30 1.010791
371.40 1.010894
371.50 1.011122
371.60 1.01135
371.70 1.011577
371.80 1.011804
371.90 1.012031
372.00 1.012162
372.10 1.012389
372.20 1.012593
372.30 1.012797
372.40 1.013001
372.50 1.013204
372.60 1.013407
372.70 1.01361
372.80 1.013868
372.90 1.014126
373.00 1.014302
373.10 1.014477
373.20 1.014648
373.30 1.014819
373.40 1.015078
373.50 1.015248
373.60 1.015507
373.70 1.015677
373.80 1.015901
373.90 1.016192
374.00 1.016361
374.10 1.016529
374.20 1.016696
374.30 1.016863
374.40 1.017097
374.50 1.017366
374.60 1.017535
374.70 1.017703
374.80 1.01787
374.90 1.018038
375.00 1.018261
375.10 1.018485
375.20 1.018708
375.30 1.018897
375.40 1.019086
375.50 1.019274
375.60 1.019463
375.70 1.01965
375.80 1.019838
375.90 1.020025
376.00 1.020179
376.10 1.020365
376.20 1.02055
376.30 1.020735
376.40 1.02092
376.50 1.021129
376.60 1.021373
376.70 1.021617
376.80 1.021815
376.90 1.021967
377.00 1.022119
377.10 1.02227
377.20 1.022436
377.30 1.022656
377.40 1.022876
377.50 1.023096
377.60 1.023275
377.70 1.023454
377.80 1.023632
377.90 1.02381
378.00 1.02404
378.10 1.024225
378.20 1.024408
378.30 1.024591
378.40 1.024774
378.50 1.024956
378.60 1.025138
378.70 1.02532
378.80 1.025501
378.90 1.025654
379.00 1.025755
379.10 1.025975
379.20 1.026196
379.30 1.02637
379.40 1.026498
379.50 1.026626
379.60 1.026777
379.70 1.026959
379.80 1.027132
379.90 1.027304
380.00 1.027476
380.10 1.027648
380.20 1.02782
380.30 1.027991
380.40 1.028162
380.50 1.028332
380.60 1.028596
380.70 1.028758
380.80 1.028919
380.90 1.029081
381.00 1.029242
381.10 1.029452
381.20 1.029589
381.30 1.029773
381.40 1.029896
381.50 1.030058
381.60 1.030226
381.70 1.030386
381.80 1.030567
381.90 1.03071
382.00 1.030852
382.10 1.03108
382.20 1.031239
382.30 1.03138
382.40 1.031528
382.50 1.031685
382.60 1.031842
382.70 1.032001
382.80 1.032169
382.90 1.032342
383.00 1.032514
383.10 1.032687
383.20 1.032847
383.30 1.032964
383.40 1.033108
383.50 1.033294
383.60 1.033494
383.70 1.033646
383.80 1.033797
383.90 1.033948
384.00 1.034099
384.10 1.03425
384.20 1.0344
384.30 1.03455
384.40 1.034709
384.50 1.034877
384.60 1.035045
384.70 1.035212
384.80 1.035354
384.90 1.03545
385.00 1.035632
385.10 1.035813
385.20 1.035918
385.30 1.036061
385.40 1.036215
385.50 1.03638
385.60 1.036545
385.70 1.036709
385.80 1.03687
385.90 1.037017
386.00 1.037177
386.10 1.037344
386.20 1.037451
386.30 1.037558
386.40 1.037672
386.50 1.037844
386.60 1.038018
386.70 1.038147
386.80 1.038275
386.90 1.038445
387.00 1.038623
387.10 1.038751
387.20 1.038899
387.30 1.039005
387.40 1.03913
387.50 1.039306
387.60 1.039359
387.70 1.039526
387.80 1.039694
387.90 1.039861
388.00 1.040001
388.10 1.04008
388.20 1.040305
388.30 1.04045
388.40 1.040595
388.50 1.040705
388.60 1.040766
388.70 1.040882
388.80 1.041099
388.90 1.041283
389.00 1.041289
389.10 1.041511
389.20 1.041648
389.30 1.04172
389.40 1.041858
389.50 1.042003
389.60 1.042132
389.70 1.042203
389.80 1.042337
389.90 1.04247
390.00 1.042604
390.10 1.042737
390.20 1.042869
390.30 1.042997
390.40 1.04312
390.50 1.043243
390.60 1.043365
390.70 1.043487
390.80 1.043649
390.90 1.043851
391.00 1.044012
391.10 1.04411
391.20 1.044214
391.30 1.044335
391.40 1.044451
391.50 1.044567
391.60 1.044683
391.70 1.044798
391.80 1.044913
391.90 1.045008
392.00 1.045119
392.10 1.045286
392.20 1.04544
392.30 1.045511
392.40 1.045635
392.50 1.045788
392.60 1.045901
392.70 1.046014
392.80 1.046127
392.90 1.046261
393.00 1.046415
393.10 1.04652
393.20 1.046576
393.30 1.046687
393.40 1.046821
393.50 1.046951
393.60 1.047097
393.70 1.047145
393.80 1.04724
393.90 1.04735
394.00 1.047472
394.10 1.047657
394.20 1.047776
394.30 1.047848
394.40 1.047904
394.50 1.048107
394.60 1.048201
394.70 1.048301
394.80 1.04843
394.90 1.048558
395.00 1.048691
395.10 1.048768
395.20 1.048878
395.30 1.04897
395.40 1.049062
395.50 1.049172
395.60 1.049288
395.70 1.049404
395.80 1.049523
395.90 1.049642
396.00 1.049755
396.10 1.04982
396.20 1.049924
396.30 1.049964
396.40 1.050147
396.50 1.050145
396.60 1.050354
396.70 1.050437
396.80 1.050537
396.90 1.05065
397.00 1.050737
397.10 1.050865
397.20 1.050924
397.30 1.051059
397.40 1.051174
397.50 1.051289
397.60 1.051401
397.70 1.051486
397.80 1.051571
397.90 1.051656
398.00 1.051745
398.10 1.051834
398.20 1.051935
398.30 1.052049
398.40 1.052163
398.50 1.052237
398.60 1.052241
398.70 1.052325
398.80 1.052436
398.90 1.052567
399.00 1.052734
399.10 1.05273
399.20 1.052811
399.30 1.052893
399.40 1.052974
399.50 1.053055
399.60 1.053152
399.70 1.053254
399.80 1.053357
399.90 1.053459
400.00 1.05356
400.10 1.053632
400.20 1.053749
400.30 1.053853
400.40 1.05394
400.50 1.054016
400.60 1.054098
400.70 1.054192
400.80 1.054271
400.90 1.054312
401.00 1.054503
401.10 1.054523
401.20 1.05457
401.30 1.054722
401.40 1.054809
401.50 1.054856
401.60 1.054902
401.70 1.05497
401.80 1.055089
401.90 1.05518
402.00 1.055267
402.10 1.055341
402.20 1.055452
402.30 1.055545
402.40 1.055619
402.50 1.055702
402.60 1.055808
402.70 1.055881
402.80 1.055894
402.90 1.055937
403.00 1.056026
403.10 1.056084
403.20 1.05619
403.30 1.056255
403.40 1.05637
403.50 1.056479
403.60 1.056575
403.70 1.056612
403.80 1.056717
403.90 1.056801
404.00 1.056895
404.10 1.056959
404.20 1.056969
404.30 1.056979
404.40 1.057079
404.50 1.057227
404.60 1.057237
404.70 1.057322
404.80 1.057425
404.90 1.057492
405.00 1.057598
405.10 1.057683
405.20 1.057756
405.30 1.057829
405.40 1.057888
405.50 1.057946
405.60 1.058005
405.70 1.058063
405.80 1.058121
405.90 1.058178
406.00 1.058234
406.10 1.05829
406.20 1.058345
406.30 1.058401
406.40 1.058454
406.50 1.058522
406.60 1.058602
406.70 1.058702
406.80 1.058769
406.90 1.058862
407.00 1.058913
407.10 1.058963
407.20 1.059013
407.30 1.059064
407.40 1.059113
407.50 1.059163
407.60 1.059213
407.70 1.059262
407.80 1.059311
407.90 1.059363
408.00 1.059497
408.10 1.059575
408.20 1.059598
408.30 1.059662
408.40 1.059726
408.50 1.059812
408.60 1.059861
408.70 1.05991
408.80 1.059952
408.90 1.059961
409.00 1.060013
409.10 1.060066
409.20 1.060119
409.30 1.060171
409.40 1.060223
409.50 1.060282
409.60 1.060341
409.70 1.060407
409.80 1.060505
409.90 1.0606
410.00 1.060658
410.10 1.060634
410.20 1.060677
410.30 1.060738
410.40 1.0608
410.50 1.060866
410.60 1.060932
410.70 1.060989
410.80 1.061009
410.90 1.06103
411.00 1.061085
411.10 1.061153
411.20 1.061221
411.30 1.061272
411.40 1.061261
411.50 1.061316
411.60 1.061372
411.70 1.06143
411.80 1.061502
411.90 1.061529
412.00 1.061527
412.10 1.061634
412.20 1.061669
412.30 1.061693
412.40 1.061684
412.50 1.061838
412.60 1.061845
412.70 1.06189
412.80 1.061944
412.90 1.062029
413.00 1.062068
413.10 1.062104
413.20 1.062139
413.30 1.062174
413.40 1.06221
413.50 1.062226
413.60 1.062197
413.70 1.062265
413.80 1.062333
413.90 1.062401
414.00 1.062451
414.10 1.062446
414.20 1.062493
414.30 1.062546
414.40 1.062511
414.50 1.062542
414.60 1.062581
414.70 1.062647
414.80 1.062705
414.90 1.062734
415.00 1.062764
415.10 1.062794
415.20 1.062823
415.30 1.06285
415.40 1.062878
415.50 1.062906
415.60 1.062963
415.70 1.063019
415.80 1.063064
415.90 1.063073
416.00 1.063083
416.10 1.063098
416.20 1.063138
416.30 1.063179
416.40 1.063219
416.50 1.063257
416.60 1.063249
416.70 1.063247
416.80 1.063312
416.90 1.063295
417.00 1.063387
417.10 1.063349
417.20 1.063412
417.30 1.063473
417.40 1.063519
417.50 1.063564
417.60 1.063596
417.70 1.063576
417.80 1.063589
417.90 1.063603
418.00 1.063616
418.10 1.063629
418.20 1.063643
418.30 1.063656
418.40 1.063688
418.50 1.063719
418.60 1.063751
418.70 1.063782
418.80 1.063813
418.90 1.063844
419.00 1.063875
419.10 1.063906
419.20 1.063937
419.30 1.063966
419.40 1.063959
419.50 1.063951
419.60 1.063949
419.70 1.063967
419.80 1.063985
419.90 1.064003
420.00 1.064021
420.10 1.064039
420.20 1.064057
420.30 1.064075
420.40 1.064093
420.50 1.064111
420.60 1.064129
420.70 1.064146
420.80 1.064163
420.90 1.064182
421.00 1.064232
421.10 1.064281
421.20 1.064318
421.30 1.064312
421.40 1.064307
421.50 1.064302
421.60 1.064296
421.70 1.06429
421.80 1.064285
421.90 1.064291
422.00 1.064334
422.10 1.064374
422.20 1.064398
422.30 1.064422
422.40 1.064446
422.50 1.064449
422.60 1.064452
422.70 1.064456
422.80 1.064459
422.90 1.064461
423.00 1.064464
423.10 1.064467
423.20 1.064469
423.30 1.064472
423.40 1.064474
423.50 1.064476
423.60 1.064478
423.70 1.06448
423.80 1.064482
423.90 1.064483
424.00 1.064485
424.10 1.064486
424.20 1.064488
424.30 1.064489
424.40 1.064523
424.50 1.064523
424.60 1.064524
424.70 1.064524
424.80 1.064525
424.90 1.064525
425.00 1.064525
425.10 1.064525
425.20 1.064525
425.30 1.064524
425.40 1.064524
425.50 1.064524
425.60 1.064525
425.70 1.064525
425.80 1.064525
425.90 1.064524
426.00 1.064524
426.10 1.064524
426.20 1.064523
426.30 1.064523
426.40 1.064522
426.50 1.064521
426.60 1.06452
426.70 1.064519
426.80 1.064518
426.90 1.064517
427.00 1.064515
427.10 1.064513
427.20 1.064511
427.30 1.064508
427.40 1.064506
427.50 1.064504
427.60 1.064501
427.70 1.064498
427.80 1.064496
427.90 1.064493
428.00 1.06449
428.10 1.064487
428.20 1.064483
428.30 1.06448
428.40 1.064477
428.50 1.064473
428.60 1.064469
428.70 1.064466
428.80 1.064461
428.90 1.064446
429.00 1.064431
429.10 1.064416
429.20 1.064401
429.30 1.064386
429.40 1.064371
429.50 1.064356
429.60 1.06434
429.70 1.064325
429.80 1.064309
429.90 1.064293
430.00 1.064277
430.10 1.064262
430.20 1.064245
430.30 1.064229
430.40 1.064213
430.50 1.064197
430.60 1.06418
430.70 1.064164
430.80 1.064147
430.90 1.06413
431.00 1.064114
431.10 1.064097
431.20 1.06408
431.30 1.064062
431.40 1.064044
431.50 1.064025
431.60 1.064006
431.70 1.063987
431.80 1.063968
431.90 1.063949
432.00 1.06393
432.10 1.063911
432.20 1.063892
432.30 1.063872
432.40 1.063853
432.50 1.063833
432.60 1.063813
432.70 1.063793
432.80 1.063774
432.90 1.063754
433.00 1.063733
433.10 1.063713
433.20 1.063693
433.30 1.063674
433.40 1.06367
433.50 1.063667
433.60 1.063663
433.70 1.06366
433.80 1.063632
433.90 1.063575
434.00 1.063537
434.10 1.063511
434.20 1.063484
434.30 1.063457
434.40 1.06343
434.50 1.063403
434.60 1.063376
434.70 1.063349
434.80 1.063322
434.90 1.063292
435.00 1.063262
435.10 1.063232
435.20 1.063201
435.30 1.063171
435.40 1.063141
435.50 1.06311
435.60 1.06308
435.70 1.063049
435.80 1.063018
435.90 1.062987
436.00 1.062956
436.10 1.062925
436.20 1.062894
436.30 1.062871
436.40 1.062857
436.50 1.062837
436.60 1.062817
436.70 1.062797
436.80 1.062777
436.90 1.062757
437.00 1.062736
437.10 1.062716
437.20 1.062674
437.30 1.062613
437.40 1.062554
437.50 1.062524
437.60 1.062493
437.70 1.062462
437.80 1.062431
437.90 1.0624
438.00 1.062369
438.10 1.062329
438.20 1.062289
438.30 1.062282
438.40 1.062244
438.50 1.062213
438.60 1.062172
438.70 1.062098
438.80 1.062055
438.90 1.062035
439.00 1.06205
439.10 1.061953
439.20 1.061861
439.30 1.061829
439.40 1.061797
439.50 1.061765
439.60 1.061733
439.70 1.061725
439.80 1.061705
439.90 1.061663
440.00 1.061621
440.10 1.061578
440.20 1.061536
440.30 1.06149
440.40 1.061444
440.50 1.061398
440.60 1.061353
440.70 1.061307
440.80 1.061261
440.90 1.061214
441.00 1.061168
441.10 1.061122
441.20 1.061078
441.30 1.061071
441.40 1.061046
441.50 1.061002
441.60 1.060957
441.70 1.060813
441.80 1.06078
441.90 1.060748
442.00 1.060715
442.10 1.060682
442.20 1.060649
442.30 1.060617
442.40 1.06057
442.50 1.060508
442.60 1.060445
442.70 1.060407
442.80 1.060399
442.90 1.060312
443.00 1.060255
443.10 1.060236
443.20 1.060201
443.30 1.060151
443.40 1.060108
443.50 1.060073
443.60 1.05998
443.70 1.059945
443.80 1.05991
443.90 1.059827
444.00 1.059769
444.10 1.059734
444.20 1.059625
444.30 1.05968
444.40 1.059588
444.50 1.059495
444.60 1.059436
444.70 1.059416
444.80 1.059383
444.90 1.05934
445.00 1.059296
445.10 1.059252
445.20 1.059195
445.30 1.059121
445.40 1.059048
445.50 1.058974
445.60 1.0589
445.70 1.058826
445.80 1.058768
445.90 1.058724
446.00 1.058679
446.10 1.058635
446.20 1.058647
446.30 1.058579
446.40 1.058534
446.50 1.058465
446.60 1.058397
446.70 1.058328
446.80 1.058276
446.90 1.058239
447.00 1.058136
447.10 1.058099
447.20 1.058061
447.30 1.057998
447.40 1.057926
447.50 1.057888
447.60 1.057836
447.70 1.057772
447.80 1.057722
447.90 1.057635
448.00 1.057563
448.10 1.057504
448.20 1.057445
448.30 1.057386
448.40 1.057327
448.50 1.057268
448.60 1.057205
448.70 1.057137
448.80 1.057069
448.90 1.056999
449.00 1.056929
449.10 1.056859
449.20 1.056789
449.30 1.056785
449.40 1.056713
449.50 1.05664
449.60 1.056573
449.70 1.056512
449.80 1.056452
449.90 1.056391
450.00 1.05633
450.10 1.056269
450.20 1.056208
450.30 1.056147
450.40 1.056066
450.50 1.055986
450.60 1.055905
450.70 1.055825
450.80 1.055744
450.90 1.055663
451.00 1.05559
451.10 1.055516
451.20 1.055475
451.30 1.055381
451.40 1.055341
451.50 1.055301
451.60 1.055261
451.70 1.055159
451.80 1.055058
451.90 1.055018
452.00 1.054977
452.10 1.054937
452.20 1.054866
452.30 1.054795
452.40 1.054723
452.50 1.054652
452.60 1.054515
452.70 1.054416
452.80 1.054353
452.90 1.05429
453.00 1.054227
453.10 1.054164
453.20 1.054087
453.30 1.05401
453.40 1.053934
453.50 1.053857
453.60 1.05378
453.70 1.053703
453.80 1.053625
453.90 1.053546
454.00 1.053467
454.10 1.053388
454.20 1.05332
454.30 1.053253
454.40 1.053185
454.50 1.053117
454.60 1.05305
454.70 1.052978
454.80 1.052904
454.90 1.05283
455.00 1.052756
455.10 1.052681
455.20 1.052607
455.30 1.052533
455.40 1.052458
455.50 1.052384
455.60 1.052309
455.70 1.052235
455.80 1.052159
455.90 1.052082
456.00 1.052006
456.10 1.051928
456.20 1.051845
456.30 1.051762
456.40 1.051679
456.50 1.051596
456.60 1.051513
456.70 1.05143
456.80 1.051347
456.90 1.051263
457.00 1.05118
457.10 1.051097
457.20 1.051056
457.30 1.050971
457.40 1.050886
457.50 1.050801
457.60 1.050716
457.70 1.050631
457.80 1.050546
457.90 1.050461
458.00 1.050376
458.10 1.050291
458.20 1.050206
458.30 1.050121
458.40 1.050035
458.50 1.04995
458.60 1.049865
458.70 1.04978
458.80 1.049695
458.90 1.04961
459.00 1.049525
459.10 1.04944
459.20 1.049355
459.30 1.049269
459.40 1.049182
459.50 1.049096
459.60 1.049009
459.70 1.048923
459.80 1.048836
459.90 1.048749
460.00 1.048663
460.10 1.048576
460.20 1.048489
460.30 1.048403
460.40 1.048316
460.50 1.048229
460.60 1.048143
460.70 1.048062
460.80 1.047986
460.90 1.047909
461.00 1.047832
461.10 1.047755
461.20 1.047671
461.30 1.047584
461.40 1.047499
461.50 1.047414
461.60 1.047329
461.70 1.047244
461.80 1.04715
461.90 1.047056
462.00 1.046961
462.10 1.046867
462.20 1.046773
462.30 1.046679
462.40 1.046584
462.50 1.04649
462.60 1.046396
462.70 1.046301
462.80 1.046207
462.90 1.046112
463.00 1.046018
463.10 1.045924
463.20 1.045826
463.30 1.045727
463.40 1.045628
463.50 1.045529
463.60 1.045429
463.70 1.04533
463.80 1.045231
463.90 1.045137
464.00 1.045043
464.10 1.04495
464.20 1.044857
464.30 1.044764
464.40 1.04467
464.50 1.044577
464.60 1.044483
464.70 1.044392
464.80 1.044301
464.90 1.044209
465.00 1.044118
465.10 1.044027
465.20 1.043936
465.30 1.043832
465.40 1.04372
465.50 1.043609
465.60 1.043497
465.70 1.043385
465.80 1.043273
465.90 1.043184
466.00 1.043101
466.10 1.043017
466.20 1.042934
466.30 1.042836
466.40 1.042732
466.50 1.042628
466.60 1.042524
466.70 1.04242
466.80 1.042316
466.90 1.042212
467.00 1.042108
467.10 1.042004
467.20 1.0419
467.30 1.04182
467.40 1.041718
467.50 1.041608
467.60 1.041498
467.70 1.041388
467.80 1.041278
467.90 1.041172
468.00 1.041068
468.10 1.040964
468.20 1.04086
468.30 1.040755
468.40 1.040651
468.50 1.04062
468.60 1.040472
468.70 1.040412
468.80 1.040249
468.90 1.040155
469.00 1.040118
469.10 1.040016
469.20 1.039883
469.30 1.039751
469.40 1.039618
469.50 1.039508
469.60 1.039407
469.70 1.039305
469.80 1.039204
469.90 1.039107
470.00 1.038993
470.10 1.038886
470.20 1.038788
470.30 1.03869
470.40 1.038592
470.50 1.038494
470.60 1.038391
470.70 1.038286
470.80 1.038182
470.90 1.038078
471.00 1.037951
471.10 1.037863
471.20 1.03772
471.30 1.037672
471.40 1.037512
471.50 1.037464
471.60 1.037348
471.70 1.037244
471.80 1.037117
471.90 1.036985
472.00 1.036853
472.10 1.036721
472.20 1.036606
472.30 1.036496
472.40 1.036386
472.50 1.036276
472.60 1.036165
472.70 1.036083
472.80 1.035976
472.90 1.035861
473.00 1.035746
473.10 1.03563
473.20 1.035515
473.30 1.035399
473.40 1.035284
473.50 1.035169
473.60 1.035053
473.70 1.034938
473.80 1.034826
473.90 1.034714
474.00 1.034602
474.10 1.034491
474.20 1.034387
474.30 1.034286
474.40 1.034185
474.50 1.034084
474.60 1.033982
474.70 1.033864
474.80 1.033747
474.90 1.033629
475.00 1.033512
475.10 1.033394
475.20 1.033277
475.30 1.033159
475.40 1.03305
475.50 1.032942
475.60 1.032834
475.70 1.032726
475.80 1.032618
475.90 1.03251
476.00 1.032402
476.10 1.032294
476.20 1.032169
476.30 1.032037
476.40 1.031905
476.50 1.031774
476.60 1.031642
476.70 1.03151
476.80 1.031379
476.90 1.031258
477.00 1.03114
477.10 1.031022
477.20 1.030904
477.30 1.030786
477.40 1.030668
477.50 1.03055
477.60 1.030432
477.70 1.030314
477.80 1.030197
477.90 1.030079
478.00 1.029961
478.10 1.029843
478.20 1.029725
478.30 1.029607
478.40 1.029489
478.50 1.029372
478.60 1.029254
478.70 1.029156
478.80 1.029068
478.90 1.028941
479.00 1.028805
479.10 1.028669
479.20 1.028534
479.30 1.028398
479.40 1.028271
479.50 1.028149
479.60 1.028027
479.70 1.027905
479.80 1.027783
479.90 1.027661
480.00 1.027539
480.10 1.027418
480.20 1.027296
480.30 1.027174
480.40 1.027052
480.50 1.02693
480.60 1.026809
480.70 1.026687
480.80 1.026565
480.90 1.026443
481.00 1.026322
481.10 1.0262
481.20 1.026078
481.30 1.025957
481.40 1.025835
481.50 1.025713
481.60 1.025592
481.70 1.02547
481.80 1.025349
481.90 1.025227
482.00 1.025105
482.10 1.024984
482.20 1.024862
482.30 1.024733
482.40 1.024605
482.50 1.024477
482.60 1.024348
482.70 1.02422
482.80 1.024092
482.90 1.023963
483.00 1.023835
483.10 1.023707
483.20 1.023579
483.30 1.02345
483.40 1.023322
483.50 1.023194
483.60 1.023066
483.70 1.022944
483.80 1.022822
483.90 1.0227
484.00 1.022578
484.10 1.022456
484.20 1.022322
484.30 1.022182
484.40 1.022043
484.50 1.021903
484.60 1.021764
484.70 1.021625
484.80 1.021496
484.90 1.021366
485.00 1.021237
485.10 1.021107
485.20 1.020978
485.30 1.020848
485.40 1.020719
485.50 1.020589
485.60 1.02046
485.70 1.020329
485.80 1.020199
485.90 1.020068
486.00 1.019937
486.10 1.019807
486.20 1.019676
486.30 1.019546
486.40 1.019415
486.50 1.019285
486.60 1.019155
486.70 1.019024
486.80 1.018889
486.90 1.018754
487.00 1.018619
487.10 1.018485
487.20 1.018354
487.30 1.018224
487.40 1.018094
487.50 1.017964
487.60 1.017833
487.70 1.017703
487.80 1.017573
487.90 1.017443
488.00 1.017313
488.10 1.017183
488.20 1.017051
488.30 1.016902
488.40 1.016753
488.50 1.016605
488.60 1.016456
488.70 1.016307
488.80 1.016197
488.90 1.016088
489.00 1.015969
489.10 1.015825
489.20 1.015681
489.30 1.015537
489.40 1.015393
489.50 1.01525
489.60 1.015106
489.70 1.014962
489.80 1.014878
489.90 1.014729
490.00 1.014581
490.10 1.014432
490.20 1.014284
490.30 1.014136
490.40 1.014007
490.50 1.013878
490.60 1.013749
490.70 1.01362
490.80 1.013434
490.90 1.013311
491.00 1.013156
491.10 1.013104
491.20 1.01295
491.30 1.012795
491.40 1.012609
491.50 1.012486
491.60 1.012368
491.70 1.012231
491.80 1.012095
491.90 1.011971
492.00 1.011784
492.10 1.011629
492.20 1.011536
492.30 1.011424
492.40 1.011272
492.50 1.011149
492.60 1.010963
492.70 1.010835
492.80 1.010706
492.90 1.010578
493.00 1.010448
493.10 1.010301
493.20 1.010153
493.30 1.010006
493.40 1.009859
493.50 1.009712
493.60 1.009525
493.70 1.009383
493.80 1.009241
493.90 1.00911
494.00 1.008997
494.10 1.008871
494.20 1.008715
494.30 1.008559
494.40 1.008403
494.50 1.008247
494.60 1.008093
494.70 1.007967
494.80 1.00784
494.90 1.007713
495.00 1.007586
495.10 1.00746
495.20 1.007315
495.30 1.00717
495.40 1.007026
495.50 1.006881
495.60 1.006736
495.70 1.006592
495.80 1.006447
495.90 1.006303
496.00 1.006158
496.10 1.006008
496.20 1.005845
496.30 1.005688
496.40 1.005531
496.50 1.005374
496.60 1.005217
496.70 1.005082
496.80 1.004947
496.90 1.004811
497.00 1.004676
497.10 1.004541
497.20 1.004406
497.30 1.004263
497.40 1.004099
497.50 1.003934
497.60 1.003771
497.70 1.003607
497.80 1.003425
497.90 1.003244
498.00 1.003062
498.10 1.002881
498.20 1.002699
498.30 1.002518
498.40 1.002336
498.50 1.002155
498.60 1.001974
498.70 1.002072
498.80 1.002171
498.90 1.002041
499.00 1.001911
499.10 1.001781
499.20 1.001564
499.30 1.001225
499.40 1.001062
499.50 1.000899
499.60 1.000736
499.70 1.000572
499.80 1.000381
499.90 1.00019
500.00 1
500.10 0.9998096
500.20 0.9996583
500.30 0.9995901
500.40 0.9995219
500.50 0.9994537
500.60 0.9993854
500.70 0.9993171
500.80 0.9992386
500.90 0.9991384
501.00 0.9990382
501.10 0.998938
501.20 0.9985394
501.30 0.9981411
501.40 0.997743
501.50 0.9983346
501.60 0.9979365
501.70 0.9975388
501.80 0.9972993
501.90 0.9973959
502.00 0.9973343
502.10 0.9969371
502.20 0.9965795
502.30 0.9967464
502.40 0.9967853
502.50 0.9965528
502.60 0.9963205
502.70 0.9960883
502.80 0.9958562
502.90 0.9956241
503.00 0.9954173
503.10 0.9952638
503.20 0.9951103
503.30 0.9949569
503.40 0.9948023
503.50 0.9946442
503.60 0.9944863
503.70 0.9943283
503.80 0.9942074
503.90 0.9943573
504.00 0.9944101
504.10 0.9942568
504.20 0.9941035
504.30 0.9939503
504.40 0.9937345
504.50 0.9933406
504.60 0.9929469
504.70 0.9935304
504.80 0.9931368
504.90 0.9927434
505.00 0.9924772
505.10 0.9925719
505.20 0.9926041
505.30 0.9924586
505.40 0.9923132
505.50 0.9921678
505.60 0.9919947
505.70 0.991763
505.80 0.9915314
505.90 0.9912999
506.00 0.9910685
506.10 0.9908372
506.20 0.9906209
506.30 0.9904468
506.40 0.9902727
506.50 0.9900987
506.60 0.9899248
506.70 0.9897509
506.80 0.9895771
506.90 0.9894034
507.00 0.9892297
507.10 0.9892789
507.20 0.9896113
507.30 0.9894025
507.40 0.9891938
507.50 0.9889851
507.60 0.9887766
507.70 0.9885681
507.80 0.9883598
507.90 0.9881515
508.00 0.9879433
508.10 0.9877352
508.20 0.9875272
508.30 0.9873192
508.40 0.9871114
508.50 0.9869036
508.60 0.9866959
508.70 0.9864884
508.80 0.9867146
508.90 0.9868073
509.00 0.9864196
509.10 0.9861085
509.20 0.98596
509.30 0.9858115
509.40 0.985663
509.50 0.9855146
509.60 0.9853663
509.70 0.9852179
509.80 0.9850696
509.90 0.9849214
510.00 0.9847732
510.10 0.984625
510.20 0.9844768
510.30 0.9843245
510.40 0.9841603
510.50 0.9839962
510.60 0.9838321
510.70 0.983668
510.80 0.983504
510.90 0.9833401
511.00 0.9831762
511.10 0.9830123
511.20 0.9828486
511.30 0.9826848
511.40 0.9825211
511.50 0.9823575
511.60 0.9822096
511.70 0.982095
511.80 0.9819803
511.90 0.9818657
512.00 0.9817511
512.10 0.9816366
512.20 0.981522
512.30 0.9813827
512.40 0.9811731
512.50 0.9809635
512.60 0.9807541
512.70 0.9805447
512.80 0.9803354
512.90 0.9801262
513.00 0.9799171
513.10 0.9797081
513.20 0.9794991
513.30 0.9792903
513.40 0.9790815
513.50 0.9788729
513.60 0.9786643
513.70 0.9784558
513.80 0.9782474
513.90 0.9780391
514.00 0.9778718
514.10 0.9777112
514.20 0.9775507
514.30 0.9773902
514.40 0.9772298
514.50 0.9770695
514.60 0.9769091
514.70 0.9767489
514.80 0.9765886
514.90 0.9764285
515.00 0.9762684
515.10 0.9761083
515.20 0.9759483
515.30 0.9757883
515.40 0.9756284
515.50 0.9754686
515.60 0.9753087
515.70 0.975149
515.80 0.9749893
515.90 0.9748296
516.00 0.97467
516.10 0.9745104
516.20 0.9743509
516.30 0.9741915
516.40 0.9740321
516.50 0.9738727
516.60 0.9737135
516.70 0.9735543
516.80 0.9733952
516.90 0.9732361
517.00 0.9730771
517.10 0.9729182
517.20 0.9727592
517.30 0.9726004
517.40 0.9724415
517.50 0.9722828
517.60 0.9721241
517.70 0.9719654
517.80 0.9718068
517.90 0.9716482
518.00 0.9714897
518.10 0.9713312
518.20 0.9711728
518.30 0.9710144
518.40 0.9708561
518.50 0.9706978
518.60 0.9705396
518.70 0.9703814
518.80 0.9702233
518.90 0.9700652
519.00 0.9699072
519.10 0.9697399
519.20 0.969562
519.30 0.9693841
519.40 0.9692063
519.50 0.9690286
519.60 0.968851
519.70 0.9686734
519.80 0.9684959
519.90 0.9683185
520.00 0.9681411
520.10 0.9679638
520.20 0.9677865
520.30 0.9676093
520.40 0.9674322
520.50 0.9672551
520.60 0.9670781
520.70 0.9669012
520.80 0.9667244
520.90 0.9665476
521.00 0.9663708
521.10 0.9661941
521.20 0.9660175
521.30 0.965841
521.40 0.9656645
521.50 0.9654881
521.60 0.9653118
521.70 0.9651355
521.80 0.9649593
521.90 0.9647831
522.00 0.964607
522.10 0.964431
522.20 0.964255
522.30 0.9640791
522.40 0.9639033
522.50 0.9637275
522.60 0.9635518
522.70 0.9633761
522.80 0.9632006
522.90 0.963025
523.00 0.9628496
523.10 0.9626742
523.20 0.9624989
523.30 0.9623236
523.40 0.9621484
523.50 0.9619733
523.60 0.9617982
523.70 0.9616232
523.80 0.9614483
523.90 0.9612734
524.00 0.9610986
524.10 0.9609238
524.20 0.9607491
524.30 0.9605831
524.40 0.960424
524.50 0.9602648
524.60 0.9601058
524.70 0.9599468
524.80 0.9597878
524.90 0.9596289
525.00 0.95947
525.10 0.9593112
525.20 0.9591524
525.30 0.9589937
525.40 0.9588351
525.50 0.9586765
525.60 0.9585179
525.70 0.9583594
525.80 0.958201
525.90 0.9580426
526.00 0.9578842
526.10 0.9577259
526.20 0.9575677
526.30 0.9574095
526.40 0.9572513
526.50 0.9570933
526.60 0.9569352
526.70 0.9567772
526.80 0.9566193
526.90 0.9564614
527.00 0.9563036
527.10 0.9561458
527.20 0.955988
527.30 0.9558303
527.40 0.9556727
527.50 0.9555151
527.60 0.9553576
527.70 0.9552001
527.80 0.9550427
527.90 0.9548853
528.00 0.954728
528.10 0.9545707
528.20 0.9544135
528.30 0.9542563
528.40 0.9540992
528.50 0.9539421
528.60 0.9537851
528.70 0.9536281
528.80 0.9534712
528.90 0.9533143
529.00 0.9531575
529.10 0.9530007
529.20 0.952844
529.30 0.9526873
529.40 0.9525307
529.50 0.9523691
529.60 0.952177
529.70 0.951985
529.80 0.9517931
529.90 0.9516012
530.00 0.9514094
530.10 0.9512177
530.20 0.9510261
530.30 0.9508345
530.40 0.950643
530.50 0.9504516
530.60 0.9502603
530.70 0.9500691
530.80 0.9498779
530.90 0.9496868
531.00 0.9494958
531.10 0.9493048
531.20 0.949114
531.30 0.9489232
531.40 0.9487324
531.50 0.9485418
531.60 0.9483513
531.70 0.9481608
531.80 0.9479704
531.90 0.94778
532.00 0.9475898
532.10 0.9473996
532.20 0.9472095
532.30 0.9470196
532.40 0.9468297
532.50 0.9466399
532.60 0.9464501
532.70 0.9462605
532.80 0.9460709
532.90 0.9458814
533.00 0.9456919
533.10 0.9455026
533.20 0.9453133
533.30 0.9451241
533.40 0.9449349
533.50 0.9447459
533.60 0.9445569
533.70 0.944368
533.80 0.9441791
533.90 0.9439904
534.00 0.9438017
534.10 0.9436131
534.20 0.9434246
534.30 0.9432361
534.40 0.9430477
534.50 0.9428594
534.60 0.9426712
534.70 0.942483
534.80 0.9422977
534.90 0.9421243
535.00 0.941951
535.10 0.9417777
535.20 0.9416045
535.30 0.9414313
535.40 0.9412583
535.50 0.9410852
535.60 0.9409123
535.70 0.9407394
535.80 0.9405665
535.90 0.9403938
536.00 0.9402211
536.10 0.9400484
536.20 0.9398758
536.30 0.9397033
536.40 0.9395309
536.50 0.9393585
536.60 0.9391862
536.70 0.9390139
536.80 0.9388417
536.90 0.9386696
537.00 0.9384975
537.10 0.9383255
537.20 0.9381535
537.30 0.9379817
537.40 0.9378098
537.50 0.9376381
537.60 0.9374664
537.70 0.9372948
537.80 0.9371232
537.90 0.9369517
538.00 0.9367802
538.10 0.9366089
538.20 0.9364375
538.30 0.9362663
538.40 0.9360951
538.50 0.935924
538.60 0.9357529
538.70 0.9355819
538.80 0.9354109
538.90 0.9352401
539.00 0.9350692
539.10 0.9348985
539.20 0.9347278
539.30 0.9345572
539.40 0.9343866
539.50 0.9342161
539.60 0.9340456
539.70 0.9338753
539.80 0.9337049
539.90 0.9335347
540.00 0.9333645
540.10 0.9331943
540.20 0.9330118
540.30 0.9328243
540.40 0.9326369
540.50 0.9324495
540.60 0.9322623
540.70 0.9320751
540.80 0.9318879
540.90 0.9317009
541.00 0.9315139
541.10 0.931327
541.20 0.9311401
541.30 0.9309534
541.40 0.9307667
541.50 0.9305801
541.60 0.9303935
541.70 0.9302071
541.80 0.9300207
541.90 0.9298344
542.00 0.9296481
542.10 0.9294619
542.20 0.9292759
542.30 0.9290898
542.40 0.9289039
542.50 0.928718
542.60 0.9285322
542.70 0.9283465
542.80 0.9281608
542.90 0.9279753
543.00 0.9277898
543.10 0.9276043
543.20 0.927419
543.30 0.9272337
543.40 0.9270485
543.50 0.9268634
543.60 0.9266783
543.70 0.9264933
543.80 0.9263084
543.90 0.9261236
544.00 0.9259388
544.10 0.9257541
544.20 0.9255695
544.30 0.9253849
544.40 0.9252004
544.50 0.925016
544.60 0.9248317
544.70 0.9246475
544.80 0.9244633
544.90 0.9242792
545.00 0.9240951
545.10 0.9239112
545.20 0.9237273
545.30 0.9235435
545.40 0.9233597
545.50 0.923176
545.60 0.9229913
545.70 0.9228063
545.80 0.9226212
545.90 0.9224363
546.00 0.9222514
546.10 0.9220666
546.20 0.9218819
546.30 0.9216973
546.40 0.9215127
546.50 0.9213282
546.60 0.9211438
546.70 0.9209594
546.80 0.9207752
546.90 0.9205909
547.00 0.9204068
547.10 0.9202228
547.20 0.9200388
547.30 0.9198549
547.40 0.919671
547.50 0.9194872
547.60 0.9193036
547.70 0.9191199
547.80 0.9189364
547.90 0.9187529
548.00 0.9185695
548.10 0.9183862
548.20 0.9182029
548.30 0.9180197
548.40 0.9178367
548.50 0.9176537
548.60 0.9174708
548.70 0.9172879
548.80 0.9171052
548.90 0.9169225
549.00 0.9167399
549.10 0.9165573
549.20 0.9163748
549.30 0.9161924
549.40 0.9160101
549.50 0.9158278
549.60 0.9156456
549.70 0.9154635
549.80 0.9152815
549.90 0.9150995
550.00 0.9149176
550.10 0.9147358
550.20 0.914554
550.30 0.9143723
550.40 0.9141907
550.50 0.9140091
550.60 0.9138277
550.70 0.9136463
550.80 0.9134649
550.90 0.9132837
551.00 0.9131023
551.10 0.9129196
551.20 0.912737
551.30 0.9125545
551.40 0.9123721
551.50 0.9121898
551.60 0.9120075
551.70 0.9118253
551.80 0.9116431
551.90 0.9114611
552.00 0.9112791
552.10 0.9110972
552.20 0.9109153
552.30 0.9107335
552.40 0.9105518
552.50 0.9103702
552.60 0.9101886
552.70 0.9100071
552.80 0.9098257
552.90 0.9096444
553.00 0.9094631
553.10 0.9092819
553.20 0.9091008
553.30 0.9089197
553.40 0.9087387
553.50 0.9085578
553.60 0.908377
553.70 0.9081962
553.80 0.9079978
553.90 0.9077878
554.00 0.9075778
554.10 0.9073679
554.20 0.9071581
554.30 0.9069484
554.40 0.9067388
554.50 0.9065293
554.60 0.9063199
554.70 0.9061106
554.80 0.9059013
554.90 0.9056922
555.00 0.9054831
555.10 0.9052742
555.20 0.9050653
555.30 0.9048565
555.40 0.9046478
555.50 0.9044392
555.60 0.9042307
555.70 0.9040223
555.80 0.903814
555.90 0.9036058
556.00 0.9033977
556.10 0.9031896
556.20 0.9029817
556.30 0.9027738
556.40 0.902566
556.50 0.9023597
556.60 0.9021799
556.70 0.9020001
556.80 0.9018203
556.90 0.9016407
557.00 0.9014611
557.10 0.9012815
557.20 0.9011021
557.30 0.9009227
557.40 0.9007434
557.50 0.9005642
557.60 0.900385
557.70 0.9002059
557.80 0.9000269
557.90 0.8998479
558.00 0.899669
558.10 0.8994902
558.20 0.8993115
558.30 0.8991328
558.40 0.8989542
558.50 0.8987757
558.60 0.8985972
558.70 0.8984188
558.80 0.8982405
558.90 0.8980623
559.00 0.8978841
559.10 0.897706
559.20 0.8975279
559.30 0.8973499
559.40 0.897172
559.50 0.8969942
559.60 0.8968164
559.70 0.8966388
559.80 0.8964611
559.90 0.8962836
560.00 0.8961061
560.10 0.8959287
560.20 0.8957513
560.30 0.8955741
560.40 0.8953969
560.50 0.8952197
560.60 0.8950427
560.70 0.8948657
560.80 0.8946887
560.90 0.8945119
561.00 0.8943351
561.10 0.8941584
561.20 0.8939817
561.30 0.8938051
561.40 0.8936286
561.50 0.8934522
561.60 0.8932758
561.70 0.8930995
561.80 0.8929232
561.90 0.8927471
562.00 0.892571
562.10 0.8923832
562.20 0.8921778
562.30 0.8919725
562.40 0.8917672
562.50 0.8915621
562.60 0.8913571
562.70 0.8911521
562.80 0.8909472
562.90 0.8907425
563.00 0.8905378
563.10 0.8903332
563.20 0.8901287
563.30 0.8899243
563.40 0.8897199
563.50 0.8895157
563.60 0.8893115
563.70 0.8891075
563.80 0.8889035
563.90 0.8886996
564.00 0.8884958
564.10 0.8882921
564.20 0.8880885
564.30 0.887885
564.40 0.8876815
564.50 0.8874782
564.60 0.8872749
564.70 0.8870717
564.80 0.8868687
564.90 0.8866737
565.00 0.8864986
565.10 0.8863235
565.20 0.8861485
565.30 0.8859736
565.40 0.8857987
565.50 0.8856239
565.60 0.8854492
565.70 0.8852746
565.80 0.8851
565.90 0.8849255
566.00 0.884751
566.10 0.8845766
566.20 0.8844023
566.30 0.8842281
566.40 0.8840539
566.50 0.8838798
566.60 0.8837057
566.70 0.8835318
566.80 0.8833578
566.90 0.883184
567.00 0.8830102
567.10 0.8828365
567.20 0.8826629
567.30 0.8824893
567.40 0.8823158
567.50 0.8821424
567.60 0.881969
567.70 0.8817903
567.80 0.8815885
567.90 0.8813868
568.00 0.8811851
568.10 0.8809836
568.20 0.8807821
568.30 0.8805808
568.40 0.8803795
568.50 0.8801783
568.60 0.8799772
568.70 0.8797762
568.80 0.8795753
568.90 0.8793744
569.00 0.8791737
569.10 0.878973
569.20 0.8787724
569.30 0.8785719
569.40 0.8783715
569.50 0.8781712
569.60 0.8779709
569.70 0.8777708
569.80 0.8775707
569.90 0.8773708
570.00 0.8771709
570.10 0.8769711
570.20 0.8767713
570.30 0.8765717
570.40 0.8763722
570.50 0.8761727
570.60 0.8759733
570.70 0.875774
570.80 0.8755748
570.90 0.8753757
571.00 0.8751767
571.10 0.8749777
571.20 0.8747789
571.30 0.8745801
571.40 0.8743814
571.50 0.8741828
571.60 0.8739843
571.70 0.8737859
571.80 0.8735875
571.90 0.8733893
572.00 0.8731911
572.10 0.872993
572.20 0.872795
572.30 0.8725971
572.40 0.8723992
572.50 0.8722015
572.60 0.8720038
572.70 0.8718062
572.80 0.8716087
572.90 0.8714113
573.00 0.871214
573.10 0.8710168
573.20 0.8708196
573.30 0.8706225
573.40 0.8704261
573.50 0.8702306
573.60 0.8700351
573.70 0.8698397
573.80 0.8696445
573.90 0.8694492
574.00 0.8692541
574.10 0.8690591
574.20 0.8688641
574.30 0.8686692
574.40 0.8684745
574.50 0.8682797
574.60 0.8680851
574.70 0.8678906
574.80 0.8676961
574.90 0.8675017
575.00 0.8673074
575.10 0.8671132
575.20 0.8669191
575.30 0.8667251
575.40 0.8665311
575.50 0.8663372
575.60 0.8661434
575.70 0.8659497
575.80 0.8657561
575.90 0.8655625
576.00 0.865369
576.10 0.8651756
576.20 0.8649823
576.30 0.8647891
576.40 0.864596
576.50 0.8644029
576.60 0.8642099
576.70 0.864017
576.80 0.8638242
576.90 0.8636315
577.00 0.8634388
577.10 0.8632463
577.20 0.8630538
577.30 0.8628614
577.40 0.862669
577.50 0.8624768
577.60 0.8622813
577.70 0.8620803
577.80 0.8618794
577.90 0.8616786
578.00 0.8614779
578.10 0.8612773
578.20 0.8610768
578.30 0.8608763
578.40 0.860676
578.50 0.8604757
578.60 0.8602755
578.70 0.8600755
578.80 0.8598754
578.90 0.8596755
579.00 0.8594757
579.10 0.859281
579.20 0.8591371
579.30 0.8589932
579.40 0.8588494
579.50 0.8587057
579.60 0.8585619
579.70 0.8584183
579.80 0.8582747
579.90 0.8581311
580.00 0.8579876
580.10 0.8578284
580.20 0.8576436
580.30 0.8574589
580.40 0.8572742
580.50 0.8570897
580.60 0.8569052
580.70 0.8567208
580.80 0.8565364
580.90 0.8563522
581.00 0.856168
581.10 0.8559839
581.20 0.8557999
581.30 0.8556159
581.40 0.855432
581.50 0.8552482
581.60 0.8550645
581.70 0.8548808
581.80 0.8546973
581.90 0.8545138
582.00 0.8543303
582.10 0.8541423
582.20 0.8539468
582.30 0.8537514
582.40 0.8535561
582.50 0.8533608
582.60 0.8531656
582.70 0.8529705
582.80 0.8527755
582.90 0.8525806
583.00 0.8523858
583.10 0.852191
583.20 0.8519964
583.30 0.8518018
583.40 0.8516073
583.50 0.8514128
583.60 0.8512025
583.70 0.8509662
583.80 0.85073
583.90 0.850494
584.00 0.850258
584.10 0.8500221
584.20 0.8497864
584.30 0.8495508
584.40 0.8493152
584.50 0.8490798
584.60 0.8488445
584.70 0.8486094
584.80 0.8483743
584.90 0.8481762
585.00 0.8481459
585.10 0.8481156
585.20 0.8480143
585.30 0.8477972
585.40 0.8475802
585.50 0.8473633
585.60 0.8471465
585.70 0.8469298
585.80 0.8467131
585.90 0.8464966
586.00 0.8462802
586.10 0.8460639
586.20 0.845866
586.30 0.8456981
586.40 0.8455303
586.50 0.8453626
586.60 0.8451949
586.70 0.8450273
586.80 0.844814
586.90 0.8445262
587.00 0.8442384
587.10 0.8439509
587.20 0.8438006
587.30 0.843874
587.40 0.8438102
587.50 0.843523
587.60 0.8432359
587.70 0.842949
587.80 0.8426622
587.90 0.8423756
588.00 0.8421574
588.10 0.8420509
588.20 0.8419444
588.30 0.841838
588.40 0.8417088
588.50 0.8415425
588.60 0.8413763
588.70 0.8412102
588.80 0.8410441
588.90 0.8408781
589.00 0.8406939
589.10 0.8404803
589.20 0.8402667
589.30 0.8400532
589.40 0.8398398
589.50 0.8396265
589.60 0.8394133
589.70 0.8392002
589.80 0.8389871
589.90 0.8387742
590.00 0.8385696
590.10 0.8383783
590.20 0.8381871
590.30 0.837996
590.40 0.837805
590.50 0.8376141
590.60 0.8374232
590.70 0.8372325
590.80 0.837037
590.90 0.8368395
591.00 0.836642
591.10 0.8364447
591.20 0.8362474
591.30 0.8360502
591.40 0.8358531
591.50 0.8356561
591.60 0.8354627
591.70 0.8352751
591.80 0.8350876
591.90 0.8349002
592.00 0.8347128
592.10 0.8345255
592.20 0.8343383
592.30 0.8341512
592.40 0.8339641
592.50 0.8337771
592.60 0.8335903
592.70 0.8334034
592.80 0.8332167
592.90 0.83303
593.00 0.8328435
593.10 0.832648
593.20 0.832438
593.30 0.8322281
593.40 0.8320183
593.50 0.8318086
593.60 0.831599
593.70 0.8313895
593.80 0.8311801
593.90 0.8309707
594.00 0.8307615
594.10 0.8305523
594.20 0.8303433
594.30 0.8301343
594.40 0.8299255
594.50 0.8297167
594.60 0.829508
594.70 0.8292994
594.80 0.829091
594.90 0.8288826
595.00 0.8286743
595.10 0.8284732
595.20 0.828284
595.30 0.8280949
595.40 0.8279058
595.50 0.8277168
595.60 0.8275279
595.70 0.8273391
595.80 0.8271504
595.90 0.8269617
596.00 0.8267731
596.10 0.8265846
596.20 0.8263962
596.30 0.8262079
596.40 0.8260196
596.50 0.8258314
596.60 0.8256433
596.70 0.8254472
596.80 0.8252462
596.90 0.8250453
597.00 0.8248445
597.10 0.8246438
597.20 0.8244432
597.30 0.8242426
597.40 0.8240422
597.50 0.8238418
597.60 0.8236433
597.70 0.8234479
597.80 0.8232526
597.90 0.8230573
598.00 0.8228621
598.10 0.822667
598.20 0.822472
598.30 0.8222771
598.40 0.8220823
598.50 0.8218875
598.60 0.8216929
598.70 0.8214983
598.80 0.8213038
598.90 0.8211094
599.00 0.8209151
599.10 0.8207208
599.20 0.8205267
599.30 0.8203326
599.40 0.8201628
599.50 0.819993
599.60 0.8198234
599.70 0.8196538
599.80 0.8194842
599.90 0.8193148
600.00 0.8191454
600.10 0.8189761
600.20 0.8188068
600.30 0.8186376
600.40 0.8184685
600.50 0.8182994
600.60 0.8181304
600.70 0.8179615
600.80 0.8177926
600.90 0.8176238
601.00 0.8174551
601.10 0.8172865
601.20 0.8171179
601.30 0.8169493
601.40 0.8167304
601.50 0.8165116
601.60 0.8162928
601.70 0.8160742
601.80 0.8158556
601.90 0.8156372
602.00 0.8154189
602.10 0.8152006
602.20 0.8149825
602.30 0.8147645
602.40 0.8145465
602.50 0.8143287
602.60 0.814111
602.70 0.8138434
602.80 0.8135734
602.90 0.8133892
603.00 0.8132049
603.10 0.8130208
603.20 0.8128368
603.30 0.8126528
603.40 0.8124689
603.50 0.812285
603.60 0.8121013
603.70 0.8119176
603.80 0.811734
603.90 0.8115505
604.00 0.8113671
604.10 0.8111837
604.20 0.8110004
604.30 0.8108172
604.40 0.8106341
604.50 0.810434
604.60 0.810234
604.70 0.8100341
604.80 0.8098343
604.90 0.8096346
605.00 0.8094349
605.10 0.8092354
605.20 0.8090359
605.30 0.8088365
605.40 0.8086372
605.50 0.8084833
605.60 0.8083294
605.70 0.8081756
605.80 0.8080218
605.90 0.8078681
606.00 0.8077144
606.10 0.8074479
606.20 0.8071815
606.30 0.8069153
606.40 0.8066492
606.50 0.8063832
606.60 0.8061173
606.70 0.8065277
606.80 0.8062619
606.90 0.8059962
607.00 0.8057306
607.10 0.8054652
607.20 0.8051999
607.30 0.8051035
607.40 0.805007
607.50 0.8049106
607.60 0.8048142
607.70 0.8045493
607.80 0.8042846
607.90 0.80402
608.00 0.8037555
608.10 0.8034912
608.20 0.803227
608.30 0.803119
608.40 0.803011
608.50 0.802903
608.60 0.802795
608.70 0.8025796
608.80 0.802316
608.90 0.8020525
609.00 0.8017891
609.10 0.8015258
609.20 0.8012627
609.30 0.8010835
609.40 0.8009044
609.50 0.8007253
609.60 0.8005463
609.70 0.8003674
609.80 0.8001886
609.90 0.8000098
610.00 0.7998312
610.10 0.7996526
610.20 0.799474
610.30 0.7992956
610.40 0.7991172
610.50 0.7989389
610.60 0.7987606
610.70 0.7985825
610.80 0.7984044
610.90 0.7981875
611.00 0.7979706
611.10 0.7977539
611.20 0.7975373
611.30 0.7973208
611.40 0.7971044
611.50 0.7968881
611.60 0.7966718
611.70 0.7964557
611.80 0.7962397
611.90 0.7960238
612.00 0.795808
612.10 0.7955922
612.20 0.7953766
612.30 0.7951611
612.40 0.7949678
612.50 0.7947745
612.60 0.7945814
612.70 0.7943883
612.80 0.7941953
612.90 0.7940025
613.00 0.7938096
613.10 0.7936169
613.20 0.7934243
613.30 0.7932317
613.40 0.7930392
613.50 0.7928468
613.60 0.7926545
613.70 0.7924623
613.80 0.7922702
613.90 0.7920781
614.00 0.7918861
614.10 0.7916942
614.20 0.7915024
614.30 0.7913107
614.40 0.7912112
614.50 0.7911117
614.60 0.7910123
614.70 0.7909129
614.80 0.7907349
614.90 0.7905409
615.00 0.790347
615.10 0.7901532
615.20 0.7899595
615.30 0.7897659
615.40 0.7895723
615.50 0.7893788
615.60 0.7891854
615.70 0.7889921
615.80 0.7887989
615.90 0.7886058
616.00 0.7884127
616.10 0.7882198
616.20 0.7880269
616.30 0.7878341
616.40 0.7876414
616.50 0.7874487
616.60 0.7872562
616.70 0.7870637
616.80 0.7868713
616.90 0.7866806
617.00 0.7864899
617.10 0.7862994
617.20 0.7861089
617.30 0.7859185
617.40 0.7857282
617.50 0.785538
617.60 0.7853478
617.70 0.7851577
617.80 0.7849677
617.90 0.7847778
618.00 0.784588
618.10 0.7843983
618.20 0.7842086
618.30 0.784019
618.40 0.7838295
618.50 0.7836401
618.60 0.7834508
618.70 0.7832615
618.80 0.7830724
618.90 0.7828833
619.00 0.7826943
619.10 0.7825053
619.20 0.7823165
619.30 0.7821277
619.40 0.781939
619.50 0.7817504
619.60 0.7815619
619.70 0.7813735
619.80 0.7811851
619.90 0.7809968
620.00 0.7808086
620.10 0.7806205
620.20 0.7804325
620.30 0.7802445
620.40 0.7800567
620.50 0.7798689
620.60 0.7796812
620.70 0.7794935
620.80 0.779306
620.90 0.7791143
621.00 0.7789154
621.10 0.7787165
621.20 0.7785178
621.30 0.7783191
621.40 0.7781205
621.50 0.777922
621.60 0.7777236
621.70 0.7775253
621.80 0.777327
621.90 0.7771289
622.00 0.7769308
622.10 0.7767328
622.20 0.7765349
622.30 0.7763371
622.40 0.7761394
622.50 0.7759418
622.60 0.7757443
622.70 0.7755468
622.80 0.7753494
622.90 0.7751521
623.00 0.774955
623.10 0.7747578
623.20 0.7745608
623.30 0.7743639
623.40 0.774167
623.50 0.7739703
623.60 0.7737736
623.70 0.773577
623.80 0.7733805
623.90 0.7731841
624.00 0.7729878
624.10 0.7727915
624.20 0.7725954
624.30 0.7723993
624.40 0.7722033
624.50 0.7720074
624.60 0.7718116
624.70 0.7716158
624.80 0.7714202
624.90 0.7712246
625.00 0.7710292
625.10 0.7708338
625.20 0.7706385
625.30 0.7704433
625.40 0.7702481
625.50 0.7700531
625.60 0.7698581
625.70 0.7696633
625.80 0.7694685
625.90 0.7692738
626.00 0.7690791
626.10 0.7688846
626.20 0.7686902
626.30 0.7684958
626.40 0.7683015
626.50 0.7681073
626.60 0.7679132
626.70 0.7677192
626.80 0.7675253
626.90 0.7673314
627.00 0.7671376
627.10 0.7669465
627.20 0.7667625
627.30 0.7665786
627.40 0.7663947
627.50 0.766211
627.60 0.7660273
627.70 0.7658437
627.80 0.7656601
627.90 0.7654767
628.00 0.7652933
628.10 0.76511
628.20 0.7649267
628.30 0.7647436
628.40 0.7645605
628.50 0.7643775
628.60 0.7641946
628.70 0.7640118
628.80 0.763829
628.90 0.7636463
629.00 0.7634637
629.10 0.7632812
629.20 0.7630987
629.30 0.7629164
629.40 0.7627341
629.50 0.7625519
629.60 0.7623697
629.70 0.7621876
629.80 0.7620057
629.90 0.7618238
630.00 0.7616419
630.10 0.7614602
630.20 0.7612785
630.30 0.7610969
630.40 0.7609153
630.50 0.7607339
630.60 0.7605525
630.70 0.7603712
630.80 0.7601899
630.90 0.7600088
631.00 0.7598277
631.10 0.7596467
631.20 0.7594657
631.30 0.7592849
631.40 0.7591041
631.50 0.7589234
631.60 0.7587428
631.70 0.7585622
631.80 0.7583818
631.90 0.7582014
632.00 0.758021
632.10 0.7578408
632.20 0.7576606
632.30 0.7574805
632.40 0.7573005
632.50 0.7571206
632.60 0.7569407
632.70 0.7567609
632.80 0.7565812
632.90 0.7564016
633.00 0.756222
633.10 0.7560425
633.20 0.7558631
633.30 0.7556838
633.40 0.7554933
633.50 0.7552939
633.60 0.7550947
633.70 0.7548956
633.80 0.7546965
633.90 0.7544975
634.00 0.7542986
634.10 0.7540998
634.20 0.7539011
634.30 0.7537025
634.40 0.753504
634.50 0.7533055
634.60 0.7531072
634.70 0.7529089
634.80 0.7527107
634.90 0.7525126
635.00 0.7523146
635.10 0.7521167
635.20 0.7519189
635.30 0.7517211
635.40 0.7515235
635.50 0.7513259
635.60 0.7511284
635.70 0.750931
635.80 0.7507337
635.90 0.7505365
636.00 0.7503393
636.10 0.7501423
636.20 0.7499453
636.30 0.7497484
636.40 0.7495516
636.50 0.7493549
636.60 0.7491583
636.70 0.7489618
636.80 0.7487653
636.90 0.748569
637.00 0.7483727
637.10 0.7481765
637.20 0.7479804
637.30 0.7477843
637.40 0.7475884
637.50 0.7473926
637.60 0.7471968
637.70 0.7470011
637.80 0.7468055
637.90 0.74661
638.00 0.7464146
638.10 0.7462192
638.20 0.746024
638.30 0.7458288
638.40 0.7456338
638.50 0.7454388
638.60 0.7452439
638.70 0.745049
638.80 0.7448543
638.90 0.7446596
639.00 0.7444651
639.10 0.7442706
639.20 0.7440762
639.30 0.7438819
639.40 0.7436877
639.50 0.7434935
639.60 0.7432995
639.70 0.7431098
639.80 0.7429345
639.90 0.7427593
640.00 0.7425842
640.10 0.7424092
640.20 0.7422342
640.30 0.7420593
640.40 0.7418845
640.50 0.7417097
640.60 0.741535
640.70 0.7413604
640.80 0.7411859
640.90 0.7410114
641.00 0.740837
641.10 0.7406627
641.20 0.7404885
641.30 0.7403143
641.40 0.7401402
641.50 0.7399662
641.60 0.7397922
641.70 0.7396183
641.80 0.7394445
641.90 0.7392708
642.00 0.7390971
642.10 0.7389235
642.20 0.73875
642.30 0.7385765
642.40 0.7384032
642.50 0.7382299
642.60 0.7380566
642.70 0.7378835
642.80 0.7377104
642.90 0.7375329
643.00 0.7373411
643.10 0.7371494
643.20 0.7369579
643.30 0.7367664
643.40 0.736575
643.50 0.7363836
643.60 0.7361924
643.70 0.7360012
643.80 0.7358102
643.90 0.7356192
644.00 0.7354282
644.10 0.7352374
644.20 0.7350467
644.30 0.734856
644.40 0.7346654
644.50 0.7344749
644.60 0.7342845
644.70 0.7340942
644.80 0.7339039
644.90 0.7337138
645.00 0.7335237
645.10 0.7333337
645.20 0.7331438
645.30 0.7329539
645.40 0.7327642
645.50 0.7325745
645.60 0.7323849
645.70 0.7321954
645.80 0.732006
645.90 0.7318167
646.00 0.7316274
646.10 0.7314381
646.20 0.7312487
646.30 0.7310593
646.40 0.73087
646.50 0.7306808
646.60 0.7304916
646.70 0.7303026
646.80 0.7301136
646.90 0.7299247
647.00 0.7297359
647.10 0.7295472
647.20 0.7293585
647.30 0.72917
647.40 0.7289815
647.50 0.7287931
647.60 0.7286048
647.70 0.7284165
647.80 0.7282284
647.90 0.7280403
648.00 0.7278523
648.10 0.7276644
648.20 0.7274766
648.30 0.7272888
648.40 0.7271012
648.50 0.7269136
648.60 0.7267261
648.70 0.7265386
648.80 0.7263513
648.90 0.726164
649.00 0.7259769
649.10 0.7257898
649.20 0.7256027
649.30 0.7254158
649.40 0.7252289
649.50 0.7250422
649.60 0.7248554
649.70 0.7246688
649.80 0.7244823
649.90 0.7242958
650.00 0.7241094
650.10 0.7239231
650.20 0.7237369
650.30 0.7235507
650.40 0.7233647
650.50 0.7231787
650.60 0.7229928
650.70 0.722807
650.80 0.7226212
650.90 0.7224356
651.00 0.72225
651.10 0.7220645
651.20 0.7218791
651.30 0.7216937
651.40 0.7215084
651.50 0.7213233
651.60 0.7211382
651.70 0.7209531
651.80 0.7207682
651.90 0.7205833
652.00 0.7203985
652.10 0.7202138
652.20 0.7200292
652.30 0.7198447
652.40 0.7196602
652.50 0.7194758
652.60 0.719292
652.70 0.7191085
652.80 0.7189251
652.90 0.7187418
653.00 0.7185585
653.10 0.7183754
653.20 0.7181923
653.30 0.7180093
653.40 0.7178264
653.50 0.7176435
653.60 0.7174607
653.70 0.717278
653.80 0.7170954
653.90 0.7169129
654.00 0.7167304
654.10 0.7165481
654.20 0.7163658
654.30 0.7161835
654.40 0.7160014
654.50 0.7158193
654.60 0.7156373
654.70 0.7154554
654.80 0.7152736
654.90 0.7150918
655.00 0.7149101
655.10 0.7147285
655.20 0.714547
655.30 0.7143656
655.40 0.7141842
655.50 0.7140029
655.60 0.7138217
655.70 0.7136406
655.80 0.7134519
655.90 0.7132633
656.00 0.7130747
656.10 0.7128863
656.20 0.7126979
656.30 0.7125096
656.40 0.7123214
656.50 0.7121333
656.60 0.7119453
656.70 0.7117573
656.80 0.7115694
656.90 0.7113816
657.00 0.7111939
657.10 0.7110063
657.20 0.7108187
657.30 0.7106313
657.40 0.7104439
657.50 0.7102566
657.60 0.7100693
657.70 0.7098822
657.80 0.7096664
657.90 0.7094899
658.00 0.7093204
658.10 0.709151
658.20 0.7089817
658.30 0.7088125
658.40 0.7086433
658.50 0.7084741
658.60 0.7083051
658.70 0.7081361
658.80 0.7079672
658.90 0.7077984
659.00 0.7076296
659.10 0.7074425
659.20 0.7072279
659.30 0.7070647
659.40 0.7069016
659.50 0.7067385
659.60 0.7065756
659.70 0.7064126
659.80 0.7062498
659.90 0.706087
660.00 0.7059243
660.10 0.7057617
660.20 0.7055991
660.30 0.7054366
660.40 0.7052306
660.50 0.7050171
660.60 0.7048037
660.70 0.7045903
660.80 0.7043771
660.90 0.7041639
661.00 0.7039509
661.10 0.7037379
661.20 0.7035251
661.30 0.7033123
661.40 0.7030997
661.50 0.7028871
661.60 0.7026747
661.70 0.7024623
661.80 0.70225
661.90 0.7021481
662.00 0.7020463
662.10 0.7019444
662.20 0.7018426
662.30 0.7017409
662.40 0.7015455
662.50 0.7013338
662.60 0.7011221
662.70 0.7009105
662.80 0.700699
662.90 0.7004876
663.00 0.7002763
663.10 0.7000651
663.20 0.699854
663.30 0.699643
663.40 0.6994321
663.50 0.6992213
663.60 0.6990106
663.70 0.6988
663.80 0.6985894
663.90 0.6986384
664.00 0.6987331
664.10 0.6985227
664.20 0.6983123
664.30 0.6981021
664.40 0.697892
664.50 0.6976819
664.60 0.697472
664.70 0.6972622
664.80 0.6970524
664.90 0.6968428
665.00 0.6966332
665.10 0.6964237
665.20 0.6962144
665.30 0.6960051
665.40 0.6957959
665.50 0.6955868
665.60 0.6953778
665.70 0.6952049
665.80 0.6950696
665.90 0.6949343
666.00 0.6947991
666.10 0.6946639
666.20 0.6945287
666.30 0.6943936
666.40 0.6942586
666.50 0.6940613
666.60 0.693853
666.70 0.6936449
666.80 0.6934369
666.90 0.6932289
667.00 0.6930211
667.10 0.6928133
667.20 0.6926057
667.30 0.6923981
667.40 0.6921906
667.50 0.6919832
667.60 0.691776
667.70 0.6915688
667.80 0.6913617
667.90 0.6912244
668.00 0.6915054
668.10 0.6912984
668.20 0.6910915
668.30 0.6908847
668.40 0.690678
668.50 0.6904714
668.60 0.6902648
668.70 0.6900584
668.80 0.6898521
668.90 0.6896458
669.00 0.6894397
669.10 0.6892336
669.20 0.6890276
669.30 0.688869
669.40 0.6887187
669.50 0.6885685
669.60 0.6884183
669.70 0.6882682
669.80 0.6881182
669.90 0.6879682
670.00 0.6878183
670.10 0.6876685
670.20 0.6875187
670.30 0.6873219
670.40 0.6871168
670.50 0.6869119
670.60 0.686707
670.70 0.6865023
670.80 0.6862976
670.90 0.686093
671.00 0.6858886
671.10 0.6856842
671.20 0.6854799
671.30 0.6852756
671.40 0.6850715
671.50 0.6848675
671.60 0.6846636
671.70 0.6844597
671.80 0.684256
671.90 0.6841475
672.00 0.6840559
672.10 0.6839644
672.20 0.6838728
672.30 0.6837813
672.40 0.6835857
672.50 0.6833825
672.60 0.6831793
672.70 0.6829762
672.80 0.6827732
672.90 0.6825702
673.00 0.6823674
673.10 0.6821647
673.20 0.681962
673.30 0.6817595
673.40 0.6815803
673.50 0.6814054
673.60 0.6812305
673.70 0.6810557
673.80 0.6808809
673.90 0.6807063
674.00 0.6805317
674.10 0.6803572
674.20 0.6801828
674.30 0.6800084
674.40 0.6798341
674.50 0.6796599
674.60 0.6794857
674.70 0.6793117
674.80 0.6791377
674.90 0.6789637
675.00 0.6787899
675.10 0.6786161
675.20 0.6784424
675.30 0.6782688
675.40 0.6780906
675.50 0.6779116
675.60 0.6777328
675.70 0.677554
675.80 0.6773753
675.90 0.6771966
676.00 0.6770181
676.10 0.6768396
676.20 0.6766612
676.30 0.6764829
676.40 0.6763046
676.50 0.6761264
676.60 0.6759483
676.70 0.6757703
676.80 0.6755924
676.90 0.6754145
677.00 0.6752367
677.10 0.675059
677.20 0.6748813
677.30 0.6747037
677.40 0.6745262
677.50 0.6743488
677.60 0.6741715
677.70 0.6739942
677.80 0.673817
677.90 0.6736215
678.00 0.6734228
678.10 0.6732242
678.20 0.6730257
678.30 0.6728272
678.40 0.6726289
678.50 0.6724306
678.60 0.6722325
678.70 0.6720344
678.80 0.6718364
678.90 0.6716385
679.00 0.6714407
679.10 0.6712596
679.20 0.6710858
679.30 0.6709121
679.40 0.6707384
679.50 0.6705648
679.60 0.6703913
679.70 0.6702178
679.80 0.6700445
679.90 0.6698712
680.00 0.6696979
680.10 0.6695248
680.20 0.6693517
680.30 0.6691787
680.40 0.6690057
680.50 0.6688329
680.60 0.6686601
680.70 0.6684874
680.80 0.6683147
680.90 0.6681421
681.00 0.6679696
681.10 0.6677972
681.20 0.6676249
681.30 0.6674526
681.40 0.6672804
681.50 0.6671082
681.60 0.6669362
681.70 0.6667642
681.80 0.6665922
681.90 0.6664204
682.00 0.6662486
682.10 0.6660769
682.20 0.6659053
682.30 0.6657337
682.40 0.6655622
682.50 0.6653908
682.60 0.6652194
682.70 0.6650482
682.80 0.664877
682.90 0.6647058
683.00 0.6645348
683.10 0.6643638
683.20 0.6641929
683.30 0.664022
683.40 0.6638513
683.50 0.6636806
683.60 0.6635099
683.70 0.6633394
683.80 0.6631689
683.90 0.6629985
684.00 0.6628281
684.10 0.6626578
684.20 0.6624876
684.30 0.6623175
684.40 0.6621474
684.50 0.6619775
684.60 0.6618075
684.70 0.6616377
684.80 0.6614679
684.90 0.6612982
685.00 0.6611286
685.10 0.660959
685.20 0.6607895
685.30 0.6606201
685.40 0.6604507
685.50 0.6602815
685.60 0.6601123
685.70 0.6599431
685.80 0.659774
685.90 0.6595987
686.00 0.6594218
686.10 0.659245
686.20 0.6590683
686.30 0.6588917
686.40 0.6587151
686.50 0.6585386
686.60 0.6583622
686.70 0.6581858
686.80 0.6580096
686.90 0.6578334
687.00 0.6576572
687.10 0.6574812
687.20 0.6573052
687.30 0.6571293
687.40 0.6569535
687.50 0.6567778
687.60 0.6566021
687.70 0.6564265
687.80 0.656251
687.90 0.6560755
688.00 0.6559001
688.10 0.6557248
688.20 0.6555496
688.30 0.6553744
688.40 0.6551994
688.50 0.6550244
688.60 0.6548494
688.70 0.6546746
688.80 0.6544998
688.90 0.6543251
689.00 0.6541504
689.10 0.6539759
689.20 0.6538014
689.30 0.653627
689.40 0.6534526
689.50 0.6532784
689.60 0.6531042
689.70 0.65293
689.80 0.652756
689.90 0.652582
690.00 0.6524081
690.10 0.6522343
690.20 0.6520605
690.30 0.6518869
690.40 0.6517133
690.50 0.6515397
690.60 0.6513663
690.70 0.6511929
690.80 0.6510196
690.90 0.6508463
691.00 0.6506732
691.10 0.6505001
691.20 0.650327
691.30 0.6501541
691.40 0.6499812
691.50 0.6498084
691.60 0.6496357
691.70 0.649463
691.80 0.6492904
691.90 0.6491179
692.00 0.6489455
692.10 0.6487731
692.20 0.6486008
692.30 0.6484286
692.40 0.6482564
692.50 0.6480844
692.60 0.6479124
692.70 0.6477401
692.80 0.6475666
692.90 0.6473932
693.00 0.6472199
693.10 0.6470466
693.20 0.6468734
693.30 0.6467003
693.40 0.6465273
693.50 0.6463543
693.60 0.6461814
693.70 0.6460086
693.80 0.6458359
693.90 0.6456632
694.00 0.6454906
694.10 0.6453181
694.20 0.6451456
694.30 0.6449732
694.40 0.6448009
694.50 0.6446287
694.60 0.6444565
694.70 0.6442844
694.80 0.6441124
694.90 0.6439404
695.00 0.6437686
695.10 0.6435967
695.20 0.643425
695.30 0.6432534
695.40 0.6430818
695.50 0.6429103
695.60 0.6427388
695.70 0.6425674
695.80 0.6423961
695.90 0.6422249
696.00 0.6420537
696.10 0.6418827
696.20 0.6417117
696.30 0.6415407
696.40 0.6413698
696.50 0.641199
696.60 0.6410341
696.70 0.6408706
696.80 0.6407072
696.90 0.6405438
697.00 0.6403805
697.10 0.6402173
697.20 0.6400541
697.30 0.639891
697.40 0.639728
697.50 0.639565
697.60 0.6394021
697.70 0.6392393
697.80 0.6390766
697.90 0.6389139
698.00 0.6387512
698.10 0.6385887
698.20 0.6384262
698.30 0.6382638
698.40 0.6381014
698.50 0.6379391
698.60 0.6377769
698.70 0.6376147
698.80 0.6374526
698.90 0.6372906
699.00 0.6371286
699.10 0.6369503
699.20 0.6367681
699.30 0.636586
699.40 0.6364039
699.50 0.636222
699.60 0.6360401
699.70 0.6358583
699.80 0.6356766
699.90 0.635495
700.00 0.6353134
700.10 0.635132
700.20 0.6349506
700.30 0.6347692
700.40 0.634588
700.50 0.6344068
700.60 0.6342257
700.70 0.6340447
700.80 0.6338638
700.90 0.6336829
701.00 0.6335021
701.10 0.6333488
701.20 0.6332019
701.30 0.633055
701.40 0.6329083
701.50 0.6327615
701.60 0.6326149
701.70 0.6324683
701.80 0.6323217
701.90 0.6321752
702.00 0.6320288
702.10 0.6318824
702.20 0.6317361
702.30 0.6315899
702.40 0.6314437
702.50 0.6312975
702.60 0.6311242
702.70 0.6309446
702.80 0.6307651
702.90 0.6305856
703.00 0.6304062
703.10 0.6302269
703.20 0.6300477
703.30 0.6298685
703.40 0.6296894
703.50 0.6295104
703.60 0.6293315
703.70 0.6291527
703.80 0.6289739
703.90 0.6287952
704.00 0.6286166
704.10 0.628438
704.20 0.6282596
704.30 0.6280812
704.40 0.6279028
704.50 0.6277246
704.60 0.6275464
704.70 0.6273683
704.80 0.6271903
704.90 0.6270124
705.00 0.6268345
705.10 0.6266567
705.20 0.626479
705.30 0.6263014
705.40 0.6261238
705.50 0.6259463
705.60 0.6257689
705.70 0.6255916
705.80 0.6254143
705.90 0.6252372
706.00 0.62506
706.10 0.624883
706.20 0.6247061
706.30 0.6245292
706.40 0.6243524
706.50 0.6241756
706.60 0.623999
706.70 0.6238224
706.80 0.6236459
706.90 0.6234695
707.00 0.6232931
707.10 0.6231168
707.20 0.6229406
707.30 0.6227645
707.40 0.6226555
707.50 0.6225624
707.60 0.6224693
707.70 0.6223762
707.80 0.6222831
707.90 0.6221901
708.00 0.6220301
708.10 0.6218544
708.20 0.6216788
708.30 0.6215032
708.40 0.6213278
708.50 0.6211524
708.60 0.6209771
708.70 0.6208019
708.80 0.6206267
708.90 0.6204516
709.00 0.6202766
709.10 0.6201017
709.20 0.6199268
709.30 0.619752
709.40 0.6195773
709.50 0.6194027
709.60 0.6192281
709.70 0.6190536
709.80 0.6188792
709.90 0.6187049
710.00 0.6185306
710.10 0.6183564
710.20 0.6181823
710.30 0.6180082
710.40 0.6178342
710.50 0.6176603
710.60 0.6174865
710.70 0.6173128
710.80 0.6171391
710.90 0.6169655
711.00 0.6167919
711.10 0.6166185
711.20 0.6164451
711.30 0.6162718
711.40 0.6160985
711.50 0.6159253
711.60 0.6157522
711.70 0.6155792
711.80 0.6154063
711.90 0.6152334
712.00 0.6150606
712.10 0.614912
712.20 0.6147691
712.30 0.6146262
712.40 0.6144834
712.50 0.6143407
712.60 0.614198
712.70 0.6140554
712.80 0.6139129
712.90 0.6137704
713.00 0.6136279
713.10 0.6134855
713.20 0.6133432
713.30 0.6132009
713.40 0.6130587
713.50 0.6129165
713.60 0.6127744
713.70 0.6126225
713.80 0.6124509
713.90 0.6122793
714.00 0.6121078
714.10 0.6119364
714.20 0.611765
714.30 0.6115938
714.40 0.6114226
714.50 0.6112514
714.60 0.6110804
714.70 0.6109094
714.80 0.6107384
714.90 0.6105676
715.00 0.6103968
715.10 0.6102261
715.20 0.6100555
715.30 0.6098849
715.40 0.6097144
715.50 0.609544
715.60 0.6093737
715.70 0.6092034
715.80 0.6090332
715.90 0.6088631
716.00 0.608693
716.10 0.608523
716.20 0.6083531
716.30 0.6081832
716.40 0.6080135
716.50 0.6078438
716.60 0.6076741
716.70 0.6075046
716.80 0.6073351
716.90 0.6071656
717.00 0.6069963
717.10 0.606827
717.20 0.6066578
717.30 0.6064887
717.40 0.6063196
717.50 0.6061506
717.60 0.6059817
717.70 0.6058128
717.80 0.605644
717.90 0.6054753
718.00 0.6053067
718.10 0.6051381
718.20 0.6049696
718.30 0.6048012
718.40 0.6046328
718.50 0.6044645
718.60 0.6042963
718.70 0.6041281
718.80 0.60396
718.90 0.603792
719.00 0.6036241
719.10 0.6034562
719.20 0.6032884
719.30 0.6031207
719.40 0.602953
719.50 0.6027854
719.60 0.6026179
719.70 0.6024505
719.80 0.6022831
719.90 0.6021158
720.00 0.6019485
720.10 0.6017814
720.20 0.6016143
720.30 0.6014472
720.40 0.6012803
720.50 0.6011134
720.60 0.6009465
720.70 0.6007798
720.80 0.6006131
720.90 0.6004716
721.00 0.6003312
721.10 0.6001908
721.20 0.6000505
721.30 0.5999103
721.40 0.5997701
721.50 0.5996299
721.60 0.5994899
721.70 0.5993498
721.80 0.5992098
721.90 0.5990699
722.00 0.5989301
722.10 0.5987903
722.20 0.5986505
722.30 0.5985108
722.40 0.5983712
722.50 0.5982316
722.60 0.598092
722.70 0.5979356
722.80 0.5977702
722.90 0.5976048
723.00 0.5974395
723.10 0.5972743
723.20 0.5971091
723.30 0.596944
723.40 0.596779
723.50 0.596614
723.60 0.5964491
723.70 0.5962843
723.80 0.5961196
723.90 0.5959549
724.00 0.5957903
724.10 0.5956257
724.20 0.5954612
724.30 0.5952968
724.40 0.5951325
724.50 0.5949682
724.60 0.594804
724.70 0.5946399
724.80 0.5944758
724.90 0.5943118
725.00 0.5941478
725.10 0.593984
725.20 0.5938202
725.30 0.5936564
725.40 0.5934928
725.50 0.5933292
725.60 0.5931656
725.70 0.5930022
725.80 0.5928388
725.90 0.5926755
726.00 0.5925122
726.10 0.592349
726.20 0.5921859
726.30 0.5920228
726.40 0.5918598
726.50 0.5916969
726.60 0.5915341
726.70 0.5913713
726.80 0.5912085
726.90 0.5910459
727.00 0.5908833
727.10 0.5907208
727.20 0.5905583
727.30 0.5903959
727.40 0.5902336
727.50 0.5900714
727.60 0.5899092
727.70 0.5897471
727.80 0.589585
727.90 0.589423
728.00 0.5892611
728.10 0.5890993
728.20 0.5889375
728.30 0.5887758
728.40 0.5886141
728.50 0.5884525
728.60 0.588291
728.70 0.5881295
728.80 0.5879682
728.90 0.5878068
729.00 0.5876456
729.10 0.5874844
729.20 0.5873233
729.30 0.5871622
729.40 0.5870012
729.50 0.5868403
729.60 0.5866795
729.70 0.5865187
729.80 0.586358
729.90 0.5861973
730.00 0.5860367
730.10 0.5858762
730.20 0.5857157
730.30 0.5855553
730.40 0.585395
730.50 0.5852347
730.60 0.5850745
730.70 0.5849144
730.80 0.5847543
730.90 0.5845944
731.00 0.5844344
731.10 0.5842746
731.20 0.5841147
731.30 0.583955
731.40 0.5837953
731.50 0.5836357
731.60 0.5834762
731.70 0.5833167
731.80 0.5831573
731.90 0.582998
732.00 0.5828387
732.10 0.5826795
732.20 0.5825203
732.30 0.5823613
732.40 0.5822022
732.50 0.5820433
732.60 0.5818844
732.70 0.5817256
732.80 0.5815668
732.90 0.5814081
733.00 0.5812495
733.10 0.5810909
733.20 0.5809324
733.30 0.580774
733.40 0.5806156
733.50 0.5804573
733.60 0.5802991
733.70 0.5801409
733.80 0.5799828
733.90 0.5798248
734.00 0.5796668
734.10 0.5795089
734.20 0.579351
734.30 0.5791932
734.40 0.5790355
734.50 0.5788779
734.60 0.5787203
734.70 0.5785627
734.80 0.5784053
734.90 0.5782479
735.00 0.5780905
735.10 0.5779333
735.20 0.5777761
735.30 0.5776189
735.40 0.5774618
735.50 0.5773048
735.60 0.5771479
735.70 0.576991
735.80 0.5768342
735.90 0.5766774
736.00 0.5765207
736.10 0.5763641
736.20 0.5762075
736.30 0.576051
736.40 0.5758946
736.50 0.5757382
736.60 0.5755819
736.70 0.5754256
736.80 0.5752694
736.90 0.5751133
737.00 0.5749573
737.10 0.5748013
737.20 0.5746453
737.30 0.5744895
737.40 0.5743337
737.50 0.5741779
737.60 0.5740222
737.70 0.5738666
737.80 0.5737111
737.90 0.5735556
738.00 0.5734002
738.10 0.5732448
738.20 0.5730895
738.30 0.5729343
738.40 0.5727791
738.50 0.572624
738.60 0.5724689
738.70 0.572314
738.80 0.572159
738.90 0.5720042
739.00 0.5718494
739.10 0.5716947
739.20 0.57154
739.30 0.5713854
739.40 0.5712308
739.50 0.5710764
739.60 0.5709219
739.70 0.5707676
739.80 0.5706133
739.90 0.5704591
740.00 0.5703049
740.10 0.5701508
740.20 0.5699967
740.30 0.5698428
740.40 0.5696888
740.50 0.569535
740.60 0.5693812
740.70 0.5692275
740.80 0.5690738
740.90 0.5689202
741.00 0.5687666
741.10 0.5686132
741.20 0.5684597
741.30 0.5683064
741.40 0.5681531
741.50 0.5679999
741.60 0.5678467
741.70 0.5676936
741.80 0.5675405
741.90 0.5673875
742.00 0.5672346
742.10 0.5670818
742.20 0.566929
742.30 0.5667762
742.40 0.5666235
742.50 0.5664709
742.60 0.5663184
742.70 0.5661659
742.80 0.5660134
742.90 0.5658611
743.00 0.5657088
743.10 0.5655565
743.20 0.5654043
743.30 0.5652522
743.40 0.5651002
743.50 0.5649482
743.60 0.5647962
743.70 0.5646443
743.80 0.5644925
743.90 0.5643408
744.00 0.5641891
744.10 0.5640374
744.20 0.5638859
744.30 0.5637344
744.40 0.5635829
744.50 0.5634315
744.60 0.5632802
744.70 0.5631289
744.80 0.5629777
744.90 0.5628266
745.00 0.5626755
745.10 0.5625245
745.20 0.5623735
745.30 0.5622226
745.40 0.5620718
745.50 0.561921
745.60 0.5617703
745.70 0.5616196
745.80 0.561469
745.90 0.5613185
746.00 0.561168
746.10 0.5610176
746.20 0.5608672
746.30 0.5607169
746.40 0.5605667
746.50 0.5604165
746.60 0.5602664
746.70 0.5601163
746.80 0.5599663
746.90 0.5598164
747.00 0.5596665
747.10 0.5595167
747.20 0.559367
747.30 0.5592173
747.40 0.5590676
747.50 0.5589181
747.60 0.5587685
747.70 0.5586191
747.80 0.5584697
747.90 0.5583204
748.00 0.5581711
748.10 0.5580219
748.20 0.5578727
748.30 0.5577236
748.40 0.5575746
748.50 0.5574256
748.60 0.5572767
748.70 0.5571279
748.80 0.5569791
748.90 0.5568303
749.00 0.5566816
749.10 0.556533
749.20 0.5563845
749.30 0.556236
749.40 0.5560875
749.50 0.5559392
749.60 0.5557908
749.70 0.5556426
749.80 0.5554944
749.90 0.5553462
750.00 0.5551982
750.10 0.5550468
750.20 0.5548871
750.30 0.5547274
750.40 0.5545678
750.50 0.5544082
750.60 0.5542487
750.70 0.5540893
750.80 0.5539299
750.90 0.5537706
751.00 0.5536114
751.10 0.5534522
751.20 0.5532931
751.30 0.5531341
751.40 0.5529751
751.50 0.5528162
751.60 0.5526574
751.70 0.5524986
751.80 0.5523399
751.90 0.5521812
752.00 0.5520227
752.10 0.5518641
752.20 0.5517057
752.30 0.5515473
752.40 0.551389
752.50 0.5512307
752.60 0.5510725
752.70 0.5509144
752.80 0.5507563
752.90 0.5505983
753.00 0.5504404
753.10 0.5502825
753.20 0.5501247
753.30 0.549967
753.40 0.5498093
753.50 0.5496517
753.60 0.5494941
753.70 0.5493367
753.80 0.5491792
753.90 0.549031
754.00 0.5488854
754.10 0.5487398
754.20 0.5485943
754.30 0.5484489
754.40 0.5483035
754.50 0.5481581
754.60 0.5480129
754.70 0.5478676
754.80 0.5477225
754.90 0.5475774
755.00 0.5474323
755.10 0.5472873
755.20 0.5471424
755.30 0.5469975
755.40 0.5468527
755.50 0.546708
755.60 0.5465633
755.70 0.5464186
755.80 0.5462741
755.90 0.5461295
756.00 0.5459851
756.10 0.5458406
756.20 0.5456963
756.30 0.545552
756.40 0.5454078
756.50 0.5452636
756.60 0.5451194
756.70 0.5449754
756.80 0.5448314
756.90 0.5446874
757.00 0.5445435
757.10 0.5443997
757.20 0.5442559
757.30 0.5441122
757.40 0.5439685
757.50 0.5438249
757.60 0.5436813
757.70 0.5435378
757.80 0.5433944
757.90 0.543251
758.00 0.5431077
758.10 0.5429644
758.20 0.5428212
758.30 0.542678
758.40 0.5425349
758.50 0.5423919
758.60 0.5422489
758.70 0.542106
758.80 0.5419631
758.90 0.5418203
759.00 0.5416775
759.10 0.5415348
759.20 0.5413921
759.30 0.5412496
759.40 0.541107
759.50 0.5409645
759.60 0.5408221
759.70 0.5406797
759.80 0.5405374
759.90 0.5403952
760.00 0.540253
760.10 0.5401108
760.20 0.5399687
760.30 0.5398267
760.40 0.5396847
760.50 0.5395428
760.60 0.539401
760.70 0.5392591
760.80 0.5391174
760.90 0.5389757
761.00 0.5388341
761.10 0.5386925
761.20 0.5385509
761.30 0.5384095
761.40 0.5382635
761.50 0.5381108
761.60 0.5379582
761.70 0.5378056
761.80 0.5376531
761.90 0.5375007
762.00 0.5373483
762.10 0.537196
762.20 0.5370437
762.30 0.5368915
762.40 0.5367394
762.50 0.5365873
762.60 0.5364353
762.70 0.5362834
762.80 0.5361315
762.90 0.5359796
763.00 0.5358279
763.10 0.5356762
763.20 0.5355245
763.30 0.5353729
763.40 0.5352214
763.50 0.53507
763.60 0.5349186
763.70 0.5347672
763.80 0.5346159
763.90 0.5344647
764.00 0.5343136
764.10 0.5341625
764.20 0.5340114
764.30 0.5338605
764.40 0.5337095
764.50 0.5335587
764.60 0.5334079
764.70 0.5332572
764.80 0.5331065
764.90 0.5329559
765.00 0.5328053
765.10 0.5326548
765.20 0.5325073
765.30 0.5323626
765.40 0.532218
765.50 0.5320734
765.60 0.5319289
765.70 0.5317844
765.80 0.53164
765.90 0.5314956
766.00 0.5313513
766.10 0.5312071
766.20 0.5310629
766.30 0.5309187
766.40 0.5307747
766.50 0.5306306
766.60 0.5304867
766.70 0.5303428
766.80 0.5301989
766.90 0.5300551
767.00 0.5299114
767.10 0.5297677
767.20 0.5296241
767.30 0.5294805
767.40 0.529337
767.50 0.5291936
767.60 0.5290502
767.70 0.5289069
767.80 0.5287636
767.90 0.5286203
768.00 0.5284772
768.10 0.5283341
768.20 0.528191
768.30 0.528048
768.40 0.5279051
768.50 0.5277622
768.60 0.5276194
768.70 0.5274766
768.80 0.5273339
768.90 0.5271912
769.00 0.5270486
769.10 0.5269061
769.20 0.5267636
769.30 0.5266212
769.40 0.5264788
769.50 0.5263365
769.60 0.5261942
769.70 0.526052
769.80 0.5259098
769.90 0.5257678
770.00 0.5256257
770.10 0.5254837
770.20 0.5253418
770.30 0.5251999
770.40 0.5250581
770.50 0.5249164
770.60 0.5247747
770.70 0.524633
770.80 0.5244914
770.90 0.5243499
771.00 0.5242084
771.10 0.524067
771.20 0.5239256
771.30 0.5237843
771.40 0.523643
771.50 0.5235018
771.60 0.5233607
771.70 0.5232196
771.80 0.5230786
771.90 0.5229376
772.00 0.5227967
772.10 0.5226558
772.20 0.522515
772.30 0.5223742
772.40 0.5222335
772.50 0.5220929
772.60 0.5219523
772.70 0.5218117
772.80 0.5216713
772.90 0.5215255
773.00 0.5213798
773.10 0.5212342
773.20 0.5210886
773.30 0.520943
773.40 0.5207976
773.50 0.5206521
773.60 0.5205068
773.70 0.5203615
773.80 0.5202162
773.90 0.5200711
774.00 0.5199259
774.10 0.5197809
774.20 0.5196359
774.30 0.5194909
774.40 0.519346
774.50 0.5192012
774.60 0.5190564
774.70 0.5189117
774.80 0.518767
774.90 0.5186224
775.00 0.5184778
775.10 0.5183333
775.20 0.5181889
775.30 0.5180445
775.40 0.5179002
775.50 0.5177559
775.60 0.5176117
775.70 0.5174676
775.80 0.5173235
775.90 0.5171794
776.00 0.5170355
776.10 0.5168915
776.20 0.5167477
776.30 0.5166039
776.40 0.5164601
776.50 0.5163164
776.60 0.5161728
776.70 0.5160292
776.80 0.5158857
776.90 0.5157422
777.00 0.5155988
777.10 0.5154554
777.20 0.5153121
777.30 0.5151689
777.40 0.5150257
777.50 0.5148826
777.60 0.5147395
777.70 0.5145965
777.80 0.5144536
777.90 0.5143107
778.00 0.5141678
778.10 0.514025
778.20 0.5138823
778.30 0.5137396
778.40 0.513597
778.50 0.5134544
778.60 0.5133119
778.70 0.5131695
778.80 0.5130271
778.90 0.5128847
779.00 0.5127425
779.10 0.5126002
779.20 0.5124581
779.30 0.5123159
779.40 0.5121739
779.50 0.5120319
779.60 0.5118899
779.70 0.5117481
779.80 0.5116062
779.90 0.5114644
780.00 0.5113227
780.10 0.5111811
780.20 0.5110394
780.30 0.5108979
780.40 0.5107564
780.50 0.510615
780.60 0.5104739
780.70 0.510333
780.80 0.5101922
780.90 0.5100515
781.00 0.5099108
781.10 0.5097701
781.20 0.5096295
781.30 0.509489
781.40 0.5093485
781.50 0.5092081
781.60 0.5090677
781.70 0.5089274
781.80 0.5087872
781.90 0.508647
782.00 0.5085068
782.10 0.5083667
782.20 0.5082267
782.30 0.5080867
782.40 0.5079468
782.50 0.5078069
782.60 0.5076671
782.70 0.5075273
782.80 0.5073876
782.90 0.507248
783.00 0.5071084
783.10 0.5069688
783.20 0.5068293
783.30 0.5066899
783.40 0.5065505
783.50 0.5064112
783.60 0.5062719
783.70 0.5061327
783.80 0.5059935
783.90 0.5058544
784.00 0.5057154
784.10 0.5055764
784.20 0.5054374
784.30 0.5052985
784.40 0.5051597
784.50 0.5050209
784.60 0.504882
784.70 0.5047426
784.80 0.5046032
784.90 0.5044639
785.00 0.5043247
785.10 0.5041855
785.20 0.5040463
785.30 0.5039072
785.40 0.5037682
785.50 0.5036292
785.60 0.5034903
785.70 0.5033514
785.80 0.5032126
785.90 0.5030739
786.00 0.5029352
786.10 0.5027965
786.20 0.5026579
786.30 0.5025194
786.40 0.5023809
786.50 0.5022425
786.60 0.5021041
786.70 0.5019658
786.80 0.5018275
786.90 0.5016893
787.00 0.5015511
787.10 0.501413
787.20 0.5012749
787.30 0.5011369
787.40 0.500999
787.50 0.5008611
787.60 0.5007233
787.70 0.5005855
787.80 0.5004477
787.90 0.5003101
788.00 0.5001724
788.10 0.5000349
788.20 0.4998974
788.30 0.4997599
788.40 0.4996228
788.50 0.4994859
788.60 0.4993491
788.70 0.4992123
788.80 0.4990756
788.90 0.498939
789.00 0.4988024
789.10 0.4986658
789.20 0.4985293
789.30 0.4983929
789.40 0.4982565
789.50 0.4981201
789.60 0.4979838
789.70 0.4978476
789.80 0.4977114
789.90 0.4975753
790.00 0.4974392
790.10 0.4973032
790.20 0.4971672
790.30 0.4970313
790.40 0.4968955
790.50 0.4967596
790.60 0.4966239
790.70 0.4964882
790.80 0.4963525
790.90 0.4962169
791.00 0.4960814
791.10 0.4959459
791.20 0.4958104
791.30 0.4956751
791.40 0.4955397
791.50 0.4954044
791.60 0.4952692
791.70 0.495134
791.80 0.4949989
791.90 0.4948638
792.00 0.4947288
792.10 0.4945938
792.20 0.4944589
792.30 0.4943241
792.40 0.4941892
792.50 0.4940545
792.60 0.4939198
792.70 0.4937851
792.80 0.4936505
792.90 0.493516
793.00 0.4933815
793.10 0.493247
793.20 0.4931126
793.30 0.4929783
793.40 0.492844
793.50 0.4927097
793.60 0.4925755
793.70 0.4924414
793.80 0.4923073
793.90 0.4921733
794.00 0.4920393
794.10 0.4919054
794.20 0.4917715
794.30 0.4916377
794.40 0.4915039
794.50 0.4913702
794.60 0.4912365
794.70 0.4911029
794.80 0.4909693
794.90 0.4908358
795.00 0.4907023
795.10 0.4905689
795.20 0.4904356
795.30 0.4903023
795.40 0.490169
795.50 0.4900358
795.60 0.4899026
795.70 0.4897695
795.80 0.4896365
795.90 0.4895035
796.00 0.4893705
796.10 0.4892376
796.20 0.4891048
796.30 0.4889721
796.40 0.4888394
796.50 0.4887069
796.60 0.4885743
796.70 0.4884418
796.80 0.4883094
796.90 0.488177
797.00 0.4880447
797.10 0.4879124
797.20 0.4877801
797.30 0.487648
797.40 0.4875158
797.50 0.4873837
797.60 0.4872517
797.70 0.4871197
797.80 0.4869878
797.90 0.4868559
798.00 0.4867241
798.10 0.4865923
798.20 0.4864606
798.30 0.4863289
798.40 0.4861973
798.50 0.4860657
798.60 0.4859342
798.70 0.4858027
798.80 0.4856713
798.90 0.4855399
799.00 0.4854086
799.10 0.4852773
799.20 0.4851461
799.30 0.485015
799.40 0.4848838
799.50 0.4847528
799.60 0.4846218
799.70 0.4844908
799.80 0.4843599
799.90 0.484229
800.00 0.4840982
800.10 0.4839674
800.20 0.4838367
800.30 0.483706
800.40 0.4835754
800.50 0.4834449
800.60 0.4833143
800.70 0.4831839
800.80 0.4830535
800.90 0.4829231
801.00 0.4827928
801.10 0.4826625
801.20 0.4825323
801.30 0.4824021
801.40 0.482272
801.50 0.482142
801.60 0.4820119
801.70 0.481882
801.80 0.4817521
801.90 0.4816222
802.00 0.4814924
802.10 0.4813626
802.20 0.4812329
802.30 0.4811032
802.40 0.4809736
802.50 0.480844
802.60 0.4807145
802.70 0.4805851
802.80 0.4804556
802.90 0.4803263
803.00 0.4801969
803.10 0.4800677
803.20 0.4799385
803.30 0.4798093
803.40 0.4796802
803.50 0.4795511
803.60 0.4794221
803.70 0.4792931
803.80 0.4791642
803.90 0.4790353
804.00 0.4789065
804.10 0.4787777
804.20 0.478649
804.30 0.4785204
804.40 0.4783919
804.50 0.4782634
804.60 0.478135
804.70 0.4780066
804.80 0.4778782
804.90 0.4777499
805.00 0.4776217
805.10 0.4774935
805.20 0.4773654
805.30 0.4772373
805.40 0.4771092
805.50 0.4769813
805.60 0.4768533
805.70 0.4767254
805.80 0.4765976
805.90 0.4764698
806.00 0.476342
806.10 0.4762143
806.20 0.4760867
806.30 0.4759591
806.40 0.4758315
806.50 0.475704
806.60 0.4755765
806.70 0.4754491
806.80 0.4753218
806.90 0.4751945
807.00 0.4750672
807.10 0.47494
807.20 0.4748128
807.30 0.4746857
807.40 0.4745586
807.50 0.4744316
807.60 0.4743046
807.70 0.4741777
807.80 0.4740508
807.90 0.473924
808.00 0.4737972
808.10 0.4736705
808.20 0.4735437
808.30 0.4734076
808.40 0.4732716
808.50 0.4731355
808.60 0.4729996
808.70 0.4728637
808.80 0.4727279
808.90 0.4725921
809.00 0.4724563
809.10 0.4723206
809.20 0.472185
809.30 0.4720494
809.40 0.4719139
809.50 0.4717784
809.60 0.471643
809.70 0.4715076
809.80 0.4713723
809.90 0.4712371
810.00 0.4711018
810.10 0.4709667
810.20 0.4708316
810.30 0.4706965
810.40 0.4705615
810.50 0.4704266
810.60 0.4702917
810.70 0.4701568
810.80 0.470022
810.90 0.4698873
811.00 0.4697526
811.10 0.469618
811.20 0.4694834
811.30 0.4693488
811.40 0.4692144
811.50 0.4690799
811.60 0.4689456
811.70 0.4688112
811.80 0.468677
811.90 0.4685427
812.00 0.4684086
812.10 0.4682744
812.20 0.4681404
812.30 0.4680128
812.40 0.4678868
812.50 0.4677609
812.60 0.4676351
812.70 0.4675093
812.80 0.4673835
812.90 0.4672578
813.00 0.4671321
813.10 0.4670065
813.20 0.4668809
813.30 0.4667554
813.40 0.4666299
813.50 0.4665045
813.60 0.4663791
813.70 0.4662538
813.80 0.4661285
813.90 0.4660033
814.00 0.4658781
814.10 0.4657529
814.20 0.4656278
814.30 0.4655028
814.40 0.4653778
814.50 0.4652528
814.60 0.4651279
814.70 0.4650031
814.80 0.4648783
814.90 0.4647535
815.00 0.4646288
815.10 0.4645041
815.20 0.4643795
815.30 0.4642549
815.40 0.4641304
815.50 0.4640059
815.60 0.4638815
815.70 0.4637571
815.80 0.4636328
815.90 0.4635085
816.00 0.4633842
816.10 0.46326
816.20 0.4631359
816.30 0.4630118
816.40 0.4628877
816.50 0.4627637
816.60 0.4626397
816.70 0.4625158
816.80 0.4623919
816.90 0.4622681
817.00 0.4621443
817.10 0.4620206
817.20 0.4618969
817.30 0.4617733
817.40 0.4616497
817.50 0.4615262
817.60 0.4614027
817.70 0.4612792
817.80 0.4611558
817.90 0.4610325
818.00 0.4609091
818.10 0.4607859
818.20 0.4606627
818.30 0.4605395
818.40 0.4604164
818.50 0.4602933
818.60 0.4601703
818.70 0.4600473
818.80 0.4599243
818.90 0.4598014
819.00 0.4596786
819.10 0.4595558
819.20 0.459433
819.30 0.4593167
819.40 0.4592046
819.50 0.4590925
819.60 0.4589805
819.70 0.4588685
819.80 0.4587566
819.90 0.4586447
820.00 0.4585328
820.10 0.458421
820.20 0.4581667
820.30 0.4578949
820.40 0.4577088
820.50 0.4575847
820.60 0.4574606
820.70 0.4573366
820.80 0.4572127
820.90 0.4570888
821.00 0.4569649
821.10 0.4568411
821.20 0.4567173
821.30 0.4565936
821.40 0.4564699
821.50 0.4563463
821.60 0.4562227
821.70 0.4560992
821.80 0.4559757
821.90 0.4558523
822.00 0.4557289
822.10 0.4556055
822.20 0.4554822
822.30 0.455359
822.40 0.4552358
822.50 0.4551126
822.60 0.4549895
822.70 0.4548664
822.80 0.4547434
822.90 0.4546204
823.00 0.4544975
823.10 0.4543746
823.20 0.4542518
823.30 0.454129
823.40 0.4540062
823.50 0.4538835
823.60 0.4537609
823.70 0.4536383
823.80 0.4535157
823.90 0.4533932
824.00 0.4532707
824.10 0.4531483
824.20 0.4530259
824.30 0.4529036
824.40 0.4527813
824.50 0.4526591
824.60 0.4525369
824.70 0.4524147
824.80 0.4522926
824.90 0.4521706
825.00 0.4520486
825.10 0.4519266
825.20 0.4518047
825.30 0.4516828
825.40 0.451561
825.50 0.4514392
825.60 0.4513175
825.70 0.4511958
825.80 0.4510742
825.90 0.4509526
826.00 0.450831
826.10 0.4507095
826.20 0.450588
826.30 0.4504646
826.40 0.4503398
826.50 0.450215
826.60 0.4500903
826.70 0.4499656
826.80 0.449841
826.90 0.4497164
827.00 0.4495919
827.10 0.4494674
827.20 0.4493429
827.30 0.4492186
827.40 0.4490942
827.50 0.4489699
827.60 0.4488457
827.70 0.4487215
827.80 0.4485973
827.90 0.4484732
828.00 0.4483492
828.10 0.4482251
828.20 0.4481012
828.30 0.4479773
828.40 0.4478534
828.50 0.4477296
828.60 0.4476072
828.70 0.447486
828.80 0.4473649
828.90 0.4472439
829.00 0.4471229
829.10 0.4470019
829.20 0.446881
829.30 0.4467601
829.40 0.4466393
829.50 0.4465185
829.60 0.4463978
829.70 0.4462771
829.80 0.4461565
829.90 0.4460359
830.00 0.4459153
830.10 0.4457948
830.20 0.4456744
830.30 0.4455539
830.40 0.4454336
830.50 0.4453132
830.60 0.445193
830.70 0.4450727
830.80 0.4449525
830.90 0.4448324
831.00 0.4447123
831.10 0.4445922
831.20 0.4444722
831.30 0.4443523
831.40 0.4442323
831.50 0.4441125
831.60 0.4439926
831.70 0.4438728
831.80 0.4437531
831.90 0.4436334
832.00 0.4435137
832.10 0.4433941
832.20 0.4432746
832.30 0.4431551
832.40 0.4430356
832.50 0.4429161
832.60 0.4427968
832.70 0.4426774
832.80 0.4425581
832.90 0.4424389
833.00 0.4423197
833.10 0.4422005
833.20 0.4420814
833.30 0.4419623
833.40 0.4418433
833.50 0.4417243
833.60 0.4416054
833.70 0.4414865
833.80 0.4413676
833.90 0.4412488
834.00 0.44113
834.10 0.4410113
834.20 0.4408926
834.30 0.440774
834.40 0.4406554
834.50 0.4405369
834.60 0.4404184
834.70 0.4402999
834.80 0.4401815
834.90 0.4400632
835.00 0.4399448
835.10 0.4398266
835.20 0.4397083
835.30 0.4395901
835.40 0.439472
835.50 0.4393539
835.60 0.4392358
835.70 0.4391178
835.80 0.4389998
835.90 0.4388819
836.00 0.438764
836.10 0.4386462
836.20 0.4385284
836.30 0.4384107
836.40 0.4382929
836.50 0.4381753
836.60 0.4380577
836.70 0.4379401
836.80 0.4378226
836.90 0.4377022
837.00 0.4375807
837.10 0.4374592
837.20 0.4373377
837.30 0.4372163
837.40 0.4370949
837.50 0.4369735
837.60 0.4368523
837.70 0.436731
837.80 0.4366098
837.90 0.4364887
838.00 0.4363676
838.10 0.4362465
838.20 0.4361255
838.30 0.4360045
838.40 0.4358836
838.50 0.4357627
838.60 0.4356419
838.70 0.4355211
838.80 0.4354003
838.90 0.4352796
839.00 0.435159
839.10 0.4350384
839.20 0.4349178
839.30 0.4347973
839.40 0.4346768
839.50 0.4345564
839.60 0.434436
839.70 0.4343157
839.80 0.4341954
839.90 0.4340751
840.00 0.4339549
840.10 0.4338348
840.20 0.4337147
840.30 0.4335946
840.40 0.4334746
840.50 0.4333546
840.60 0.4332347
840.70 0.4331148
840.80 0.4329949
840.90 0.4328751
841.00 0.4327554
841.10 0.4326357
841.20 0.432516
841.30 0.4323964
841.40 0.4322768
841.50 0.4321573
841.60 0.4320378
841.70 0.4319184
841.80 0.431799
841.90 0.4316796
842.00 0.4315603
842.10 0.4314411
842.20 0.4313218
842.30 0.4312027
842.40 0.4310835
842.50 0.4309645
842.60 0.4308454
842.70 0.4307264
842.80 0.4306075
842.90 0.4304886
843.00 0.4303697
843.10 0.4302509
843.20 0.4301321
843.30 0.4300134
843.40 0.4298947
843.50 0.4297761
843.60 0.4296575
843.70 0.4295389
843.80 0.4294204
843.90 0.429302
844.00 0.4291835
844.10 0.4290652
844.20 0.4289468
844.30 0.4288285
844.40 0.4287103
844.50 0.4285921
844.60 0.4284739
844.70 0.4283558
844.80 0.4282378
844.90 0.4281197
845.00 0.4280018
845.10 0.4278838
845.20 0.4277659
845.30 0.4276483
845.40 0.4275306
845.50 0.427413
845.60 0.4272955
845.70 0.4271779
845.80 0.4270605
845.90 0.4269431
846.00 0.4268257
846.10 0.4267083
846.20 0.426591
846.30 0.4264738
846.40 0.4263566
846.50 0.4262394
846.60 0.4261223
846.70 0.4260052
846.80 0.4258882
846.90 0.4257712
847.00 0.4256543
847.10 0.4255374
847.20 0.4254205
847.30 0.4253037
847.40 0.4251869
847.50 0.4250702
847.60 0.4249535
847.70 0.4248368
847.80 0.4247202
847.90 0.4246037
848.00 0.4244872
848.10 0.4243707
848.20 0.4242543
848.30 0.4241379
848.40 0.4240216
848.50 0.4239053
848.60 0.423789
848.70 0.4236728
848.80 0.4235566
848.90 0.4234405
849.00 0.4233244
849.10 0.4232084
849.20 0.4230924
849.30 0.4229764
849.40 0.4228605
849.50 0.4227446
849.60 0.4226288
849.70 0.422513
849.80 0.4223973
849.90 0.4222816
850.00 0.4221659
850.10 0.4220503
850.20 0.4219348
850.30 0.4218192
850.40 0.4217037
850.50 0.4215883
850.60 0.4214729
850.70 0.4213576
850.80 0.4212422
850.90 0.421127
851.00 0.4210117
851.10 0.4208966
851.20 0.4207814
851.30 0.4206663
851.40 0.4205513
851.50 0.4204362
851.60 0.4203213
851.70 0.4202063
851.80 0.4200914
851.90 0.4199766
852.00 0.4198618
852.10 0.419747
852.20 0.4196323
852.30 0.4195176
852.40 0.419403
852.50 0.4192884
852.60 0.4191739
852.70 0.4190594
852.80 0.4189449
852.90 0.4188305
853.00 0.4187161
853.10 0.4186017
853.20 0.4184874
853.30 0.4183732
853.40 0.418259
853.50 0.4181448
853.60 0.4180307
853.70 0.4179167
853.80 0.4178028
853.90 0.4176889
854.00 0.4175751
854.10 0.4174614
854.20 0.4173476
854.30 0.417234
854.40 0.4171203
854.50 0.4170067
854.60 0.4168932
854.70 0.4167797
854.80 0.4166662
854.90 0.4165528
855.00 0.4164394
855.10 0.4163261
855.20 0.4162128
855.30 0.4160995
855.40 0.4159863
855.50 0.4158731
855.60 0.41576
855.70 0.4156469
855.80 0.4155338
855.90 0.4154208
856.00 0.4153078
856.10 0.4151949
856.20 0.415082
856.30 0.4149692
856.40 0.4148564
856.50 0.4147436
856.60 0.4146309
856.70 0.4145182
856.80 0.4144056
856.90 0.414293
857.00 0.4141804
857.10 0.4140679
857.20 0.4139554
857.30 0.413843
857.40 0.4137306
857.50 0.4136183
857.60 0.413506
857.70 0.4133937
857.80 0.4132815
857.90 0.4131693
858.00 0.4130571
858.10 0.412945
858.20 0.412833
858.30 0.4127209
858.40 0.412609
858.50 0.412497
858.60 0.4123851
858.70 0.4122733
858.80 0.4121614
858.90 0.4120497
859.00 0.4119379
859.10 0.4118262
859.20 0.4117146
859.30 0.411603
859.40 0.4114914
859.50 0.4113799
859.60 0.4112684
859.70 0.4111569
859.80 0.4110455
859.90 0.4109342
860.00 0.4108228
860.10 0.4107115
860.20 0.4106003
860.30 0.4104891
860.40 0.4103779
860.50 0.4102668
860.60 0.4101557
860.70 0.4100447
860.80 0.4099337
860.90 0.4098227
861.00 0.4097118
861.10 0.4096009
861.20 0.4094901
861.30 0.4093793
861.40 0.4092685
861.50 0.4091578
861.60 0.4090471
861.70 0.4089365
861.80 0.4088259
861.90 0.4087153
862.00 0.4086048
862.10 0.4084943
862.20 0.4083839
862.30 0.4082737
862.40 0.4081635
862.50 0.4080533
862.60 0.4079432
862.70 0.4078331
862.80 0.4077231
862.90 0.4076131
863.00 0.4075031
863.10 0.4073932
863.20 0.4072833
863.30 0.4071735
863.40 0.4070637
863.50 0.4069539
863.60 0.4068442
863.70 0.4067345
863.80 0.4066249
863.90 0.4065153
864.00 0.4064057
864.10 0.4062962
864.20 0.4061867
864.30 0.4060773
864.40 0.4059679
864.50 0.4058585
864.60 0.4057492
864.70 0.4056399
864.80 0.4055307
864.90 0.4054215
865.00 0.4053123
865.10 0.4052032
865.20 0.4050941
865.30 0.404985
865.40 0.404876
865.50 0.4047671
865.60 0.4046582
865.70 0.4045493
865.80 0.4044404
865.90 0.4043316
866.00 0.4042228
866.10 0.4041141
866.20 0.4040054
866.30 0.4038968
866.40 0.4037882
866.50 0.4036796
866.60 0.4035711
866.70 0.4034626
866.80 0.4033541
866.90 0.4032457
867.00 0.4031373
867.10 0.403029
867.20 0.4029207
867.30 0.4028125
867.40 0.4027042
867.50 0.4025961
867.60 0.4024879
867.70 0.4023798
867.80 0.4022718
867.90 0.4021637
868.00 0.4020558
868.10 0.4019478
868.20 0.4018399
868.30 0.401732
868.40 0.4016242
868.50 0.4015164
868.60 0.4014087
868.70 0.401301
868.80 0.4011933
868.90 0.4010857
869.00 0.4009781
869.10 0.4008705
869.20 0.400763
869.30 0.4006555
869.40 0.4005481
869.50 0.4004407
869.60 0.4003333
869.70 0.400226
869.80 0.4001187
869.90 0.4000115
870.00 0.3999043
870.10 0.3997971
870.20 0.39969
870.30 0.3995829
870.40 0.3994759
870.50 0.3993689
870.60 0.3992619
870.70 0.399155
870.80 0.3990481
870.90 0.3989346
871.00 0.3988204
871.10 0.3987062
871.20 0.3985921
871.30 0.398478
871.40 0.398364
871.50 0.39825
871.60 0.398136
871.70 0.3980221
871.80 0.3979083
871.90 0.3977944
872.00 0.3976807
872.10 0.3975669
872.20 0.3974532
872.30 0.3973396
872.40 0.397226
872.50 0.3971124
872.60 0.3969989
872.70 0.3968854
872.80 0.3967719
872.90 0.3966585
873.00 0.3965451
873.10 0.3964318
873.20 0.3963185
873.30 0.3962053
873.40 0.3960921
873.50 0.3959789
873.60 0.3958658
873.70 0.3957528
873.80 0.3956397
873.90 0.3955267
874.00 0.3954138
874.10 0.3953009
874.20 0.395188
874.30 0.3950752
874.40 0.3949624
874.50 0.3948497
874.60 0.3947369
874.70 0.3946243
874.80 0.3945117
874.90 0.3943991
875.00 0.3942866
875.10 0.3941741
875.20 0.3940643
875.30 0.3939593
875.40 0.3938544
875.50 0.3937495
875.60 0.3936447
875.70 0.3935399
875.80 0.3934351
875.90 0.3933304
876.00 0.3932257
876.10 0.393121
876.20 0.3930164
876.30 0.3929118
876.40 0.3928073
876.50 0.3927028
876.60 0.3925983
876.70 0.3924939
876.80 0.3923895
876.90 0.3922852
877.00 0.3921808
877.10 0.3920766
877.20 0.3919723
877.30 0.3918681
877.40 0.3917639
877.50 0.3916598
877.60 0.3915557
877.70 0.3914517
877.80 0.3913476
877.90 0.3912437
878.00 0.3911397
878.10 0.3910358
878.20 0.3909319
878.30 0.3908281
878.40 0.3907243
878.50 0.3906206
878.60 0.3905168
878.70 0.3904131
878.80 0.3903095
878.90 0.3902059
879.00 0.3901023
879.10 0.3899988
879.20 0.3898953
879.30 0.3897918
879.40 0.3896884
879.50 0.389585
879.60 0.3894818
879.70 0.3893786
879.80 0.3892755
879.90 0.3891724
880.00 0.3890693
880.10 0.3889663
880.20 0.3888633
880.30 0.3887604
880.40 0.3886575
880.50 0.3885546
880.60 0.3884518
880.70 0.388349
880.80 0.3882462
880.90 0.3881435
881.00 0.3880408
881.10 0.3879381
881.20 0.3878355
881.30 0.3877329
881.40 0.3876304
881.50 0.3875279
881.60 0.3874254
881.70 0.387323
881.80 0.3872206
881.90 0.3871182
882.00 0.3870159
882.10 0.3869136
882.20 0.3868114
882.30 0.3867092
882.40 0.386607
882.50 0.3865048
882.60 0.3864027
882.70 0.3863007
882.80 0.3861986
882.90 0.3860966
883.00 0.3859947
883.10 0.3858928
883.20 0.3857909
883.30 0.385689
883.40 0.3855872
883.50 0.3854854
883.60 0.3853837
883.70 0.385282
883.80 0.3851803
883.90 0.3850787
884.00 0.384971
884.10 0.3848622
884.20 0.3847534
884.30 0.3846447
884.40 0.384536
884.50 0.3844274
884.60 0.3843187
884.70 0.3842102
884.80 0.3841017
884.90 0.3839932
885.00 0.3838847
885.10 0.3837763
885.20 0.3836679
885.30 0.3835596
885.40 0.3834513
885.50 0.383343
885.60 0.3832348
885.70 0.3831267
885.80 0.3830185
885.90 0.3829104
886.00 0.3828024
886.10 0.3826943
886.20 0.3825864
886.30 0.3824784
886.40 0.3823705
886.50 0.3822626
886.60 0.3821548
886.70 0.382047
886.80 0.3819393
886.90 0.3818316
887.00 0.3817239
887.10 0.3816163
887.20 0.3815087
887.30 0.3814011
887.40 0.3812936
887.50 0.3811861
887.60 0.3810787
887.70 0.3809713
887.80 0.3808639
887.90 0.3807566
888.00 0.3806493
888.10 0.3805421
888.20 0.3804349
888.30 0.3803277
888.40 0.3802239
888.50 0.3801206
888.60 0.3800173
888.70 0.379914
888.80 0.3798108
888.90 0.3797076
889.00 0.3796045
889.10 0.3795014
889.20 0.3793983
889.30 0.3792953
889.40 0.3791923
889.50 0.3790893
889.60 0.3789864
889.70 0.3788835
889.80 0.3787807
889.90 0.3786779
890.00 0.3785751
890.10 0.3784723
890.20 0.3783696
890.30 0.378267
890.40 0.3781643
890.50 0.3780618
890.60 0.3779592
890.70 0.3778567
890.80 0.3777542
890.90 0.3776518
891.00 0.3775493
891.10 0.377447
891.20 0.3773446
891.30 0.3772423
891.40 0.3771401
891.50 0.3770378
891.60 0.3769357
891.70 0.3768335
891.80 0.3767314
891.90 0.3766293
892.00 0.3765273
892.10 0.3764253
892.20 0.3763233
892.30 0.3762213
892.40 0.3761194
892.50 0.3760176
892.60 0.3759158
892.70 0.375814
892.80 0.3757122
892.90 0.3756105
893.00 0.3755088
893.10 0.3754072
893.20 0.3753055
893.30 0.375204
893.40 0.3751024
893.50 0.3750009
893.60 0.3748995
893.70 0.374798
893.80 0.3746966
893.90 0.3745953
894.00 0.374494
894.10 0.3743927
894.20 0.3742914
894.30 0.3741902
894.40 0.374089
894.50 0.3739879
894.60 0.3738868
894.70 0.3737857
894.80 0.3736847
894.90 0.3735837
895.00 0.3734827
895.10 0.3733818
895.20 0.3732809
895.30 0.37318
895.40 0.3730792
895.50 0.3729784
895.60 0.3728777
895.70 0.372777
895.80 0.3726763
895.90 0.3725756
896.00 0.372475
896.10 0.3723745
896.20 0.3722739
896.30 0.3721734
896.40 0.372073
896.50 0.3719725
896.60 0.3718721
896.70 0.3717718
896.80 0.3716715
896.90 0.3715712
897.00 0.3714709
897.10 0.3713707
897.20 0.3712707
897.30 0.3711741
897.40 0.3710777
897.50 0.3709812
897.60 0.3708848
897.70 0.3707884
897.80 0.370692
897.90 0.3705957
898.00 0.3704994
898.10 0.3704031
898.20 0.3703069
898.30 0.3702107
898.40 0.3701146
898.50 0.3700184
898.60 0.3699224
898.70 0.3698263
898.80 0.3697303
898.90 0.3696343
899.00 0.3695383
899.10 0.3694424
899.20 0.3693465
899.30 0.3692507
899.40 0.3691549
899.50 0.3690591
899.60 0.3689633
899.70 0.3688676
899.80 0.3687719
899.90 0.3686763
900.00 0.3685806
900.10 0.368485
900.20 0.3683895
900.30 0.368294
900.40 0.3681985
900.50 0.368103
900.60 0.3680076
900.70 0.3679122
900.80 0.3678169
900.90 0.3677216
901.00 0.3676263
901.10 0.367531
901.20 0.3674358
901.30 0.3673406
901.40 0.3672455
901.50 0.3671503
901.60 0.3670552
901.70 0.366959
901.80 0.3668571
901.90 0.3667553
902.00 0.3666535
902.10 0.3665518
902.20 0.3664501
902.30 0.3663484
902.40 0.3662468
902.50 0.3661452
902.60 0.3660437
902.70 0.3659422
902.80 0.3658407
902.90 0.3657392
903.00 0.3656378
903.10 0.3655365
903.20 0.3654351
903.30 0.3653338
903.40 0.3652325
903.50 0.3651313
903.60 0.3650301
903.70 0.364929
903.80 0.3648278
903.90 0.3647268
904.00 0.3646257
904.10 0.3645247
904.20 0.3644237
904.30 0.3643228
904.40 0.3642219
904.50 0.364121
904.60 0.3640202
904.70 0.3639194
904.80 0.3638186
904.90 0.3637179
905.00 0.3636172
905.10 0.3635165
905.20 0.3634159
905.30 0.3633153
905.40 0.3632147
905.50 0.3631142
905.60 0.3630137
905.70 0.3629133
905.80 0.3628129
905.90 0.3627125
906.00 0.3626122
906.10 0.3625119
906.20 0.3624117
906.30 0.3623116
906.40 0.3622117
906.50 0.3621117
906.60 0.3620118
906.70 0.3619119
906.80 0.361812
906.90 0.3617122
907.00 0.3616124
907.10 0.3615127
907.20 0.361413
907.30 0.3613133
907.40 0.3612136
907.50 0.361114
907.60 0.3610145
907.70 0.3609149
907.80 0.3608154
907.90 0.3607159
908.00 0.3606165
908.10 0.3605171
908.20 0.3604178
908.30 0.3603184
908.40 0.3602191
908.50 0.3601199
908.60 0.3600207
908.70 0.3599215
908.80 0.3598223
908.90 0.3597232
909.00 0.3596241
909.10 0.3595251
909.20 0.3594261
909.30 0.3593271
909.40 0.3592281
909.50 0.3591292
909.60 0.3590304
909.70 0.3589315
909.80 0.3588327
909.90 0.3587339
910.00 0.3586352
910.10 0.3585365
910.20 0.3584378
910.30 0.3583392
910.40 0.3582406
910.50 0.3581421
910.60 0.3580435
910.70 0.3579451
910.80 0.3578533
910.90 0.3577615
911.00 0.3576697
911.10 0.3575779
911.20 0.3574862
911.30 0.3573946
911.40 0.3573029
911.50 0.3572113
911.60 0.3571197
911.70 0.3570282
911.80 0.3569366
911.90 0.3568451
912.00 0.3567537
912.10 0.3566623
912.20 0.3565709
912.30 0.3564795
912.40 0.3563882
912.50 0.3562969
912.60 0.3562056
912.70 0.3561144
912.80 0.3560232
912.90 0.355932
913.00 0.3558409
913.10 0.3557497
913.20 0.3556587
913.30 0.3555676
913.40 0.3554766
913.50 0.3553856
913.60 0.3552947
913.70 0.3552037
913.80 0.3551128
913.90 0.355022
914.00 0.3549311
914.10 0.3548404
914.20 0.3547496
914.30 0.3546588
914.40 0.3545681
914.50 0.3544775
914.60 0.3543868
914.70 0.3542962
914.80 0.3542056
914.90 0.3541151
915.00 0.3540246
915.10 0.3539341
915.20 0.3538436
915.30 0.3537488
915.40 0.353652
915.50 0.3535553
915.60 0.3534586
915.70 0.3533619
915.80 0.3532653
915.90 0.3531687
916.00 0.3530722
916.10 0.3529757
916.20 0.3528792
916.30 0.3527827
916.40 0.3526863
916.50 0.3525899
916.60 0.3524936
916.70 0.3523973
916.80 0.352301
916.90 0.3522048
917.00 0.3521085
917.10 0.3520124
917.20 0.3519162
917.30 0.3518201
917.40 0.351724
917.50 0.351628
917.60 0.351532
917.70 0.351436
917.80 0.35134
917.90 0.3512441
918.00 0.3511483
918.10 0.3510524
918.20 0.3509566
918.30 0.3508608
918.40 0.3507651
918.50 0.3506694
918.60 0.3505737
918.70 0.350478
918.80 0.3503824
918.90 0.3502868
919.00 0.3501913
919.10 0.3500958
919.20 0.3500003
919.30 0.3499049
919.40 0.3498095
919.50 0.3497141
919.60 0.3496187
919.70 0.3495234
919.80 0.3494281
919.90 0.3493329
920.00 0.3492377
920.10 0.3491425
920.20 0.3490474
920.30 0.3489522
920.40 0.3488572
920.50 0.3487621
920.60 0.3486671
920.70 0.3485721
920.80 0.3484772
920.90 0.3483823
921.00 0.3482874
921.10 0.3481925
921.20 0.3480977
921.30 0.3480029
921.40 0.3479082
921.50 0.3478135
921.60 0.3477188
921.70 0.3476241
921.80 0.3475295
921.90 0.3474349
922.00 0.3473404
922.10 0.3472459
922.20 0.3471514
922.30 0.3470569
922.40 0.3469625
922.50 0.3468681
922.60 0.3467737
922.70 0.3466794
922.80 0.3465851
922.90 0.3464909
923.00 0.3463967
923.10 0.3463025
923.20 0.3462083
923.30 0.3461142
923.40 0.3460201
923.50 0.345926
923.60 0.345832
923.70 0.345738
923.80 0.345644
923.90 0.3455501
924.00 0.3454562
924.10 0.3453623
924.20 0.3452685
924.30 0.3451747
924.40 0.345081
924.50 0.3449874
924.60 0.3448939
924.70 0.3448004
924.80 0.344707
924.90 0.3446136
925.00 0.3445202
925.10 0.3444268
925.20 0.3443335
925.30 0.3442402
925.40 0.344147
925.50 0.3440537
925.60 0.3439606
925.70 0.3438674
925.80 0.3437743
925.90 0.3436812
926.00 0.3435881
926.10 0.3434951
926.20 0.3434021
926.30 0.3433091
926.40 0.3432162
926.50 0.3431233
926.60 0.3430304
926.70 0.3429376
926.80 0.3428448
926.90 0.342752
927.00 0.3426593
927.10 0.3425666
927.20 0.3424739
927.30 0.3423812
927.40 0.3422886
927.50 0.342196
927.60 0.3421035
927.70 0.342011
927.80 0.3419185
927.90 0.341826
928.00 0.3417336
928.10 0.3416412
928.20 0.3415489
928.30 0.3414566
928.40 0.3413643
928.50 0.341272
928.60 0.3411798
928.70 0.3410876
928.80 0.3409954
928.90 0.3409033
929.00 0.3408112
929.10 0.3407191
929.20 0.3406271
929.30 0.340535
929.40 0.3404431
929.50 0.3403511
929.60 0.3402592
929.70 0.3401673
929.80 0.3400755
929.90 0.3399837
930.00 0.3398919
930.10 0.3398001
930.20 0.3397084
930.30 0.3396167
930.40 0.3395251
930.50 0.3394334
930.60 0.3393418
930.70 0.3392503
930.80 0.3391587
930.90 0.3390672
931.00 0.3389758
931.10 0.3388843
931.20 0.3387929
931.30 0.3387015
931.40 0.3386102
931.50 0.3385189
931.60 0.3384276
931.70 0.3383364
931.80 0.3382451
931.90 0.338154
932.00 0.3380628
932.10 0.3379717
932.20 0.3378806
932.30 0.3377895
932.40 0.3376985
932.50 0.3376075
932.60 0.3375165
932.70 0.3374256
932.80 0.3373347
932.90 0.3372438
933.00 0.337153
933.10 0.3370621
933.20 0.3369714
933.30 0.3368806
933.40 0.3367899
933.50 0.3366992
933.60 0.3366086
933.70 0.3365181
933.80 0.3364277
933.90 0.3363373
934.00 0.3362469
934.10 0.3361566
934.20 0.3360663
934.30 0.3359761
934.40 0.3358858
934.50 0.3357956
934.60 0.3357055
934.70 0.3356153
934.80 0.3355252
934.90 0.3354352
935.00 0.3353451
935.10 0.3352551
935.20 0.3351651
935.30 0.3350752
935.40 0.3349853
935.50 0.3348954
935.60 0.3348055
935.70 0.3347157
935.80 0.3346259
935.90 0.3345362
936.00 0.3344464
936.10 0.3343567
936.20 0.334267
936.30 0.3341774
936.40 0.3340878
936.50 0.3339982
936.60 0.3339087
936.70 0.3338191
936.80 0.3337297
936.90 0.3336402
937.00 0.3335508
937.10 0.3334614
937.20 0.333372
937.30 0.3332827
937.40 0.3331934
937.50 0.3331041
937.60 0.3330149
937.70 0.3329257
937.80 0.3328365
937.90 0.3327473
938.00 0.3326582
938.10 0.3325691
938.20 0.33248
938.30 0.332391
938.40 0.332302
938.50 0.332213
938.60 0.3321241
938.70 0.3320352
938.80 0.3319463
938.90 0.3318575
939.00 0.3317687
939.10 0.3316799
939.20 0.3315911
939.30 0.3315024
939.40 0.3314137
939.50 0.331325
939.60 0.3312364
939.70 0.3311478
939.80 0.3310592
939.90 0.3309707
940.00 0.3308822
940.10 0.3307937
940.20 0.3307052
940.30 0.3306168
940.40 0.3305284
940.50 0.33044
940.60 0.3303517
940.70 0.3302634
940.80 0.3301751
940.90 0.3300869
941.00 0.3299987
941.10 0.3299105
941.20 0.3298223
941.30 0.3297342
941.40 0.3296461
941.50 0.329558
941.60 0.32947
941.70 0.329382
941.80 0.329294
941.90 0.3292061
942.00 0.3291182
942.10 0.3290303
942.20 0.3289424
942.30 0.3288546
942.40 0.3287668
942.50 0.3286791
942.60 0.3285913
942.70 0.3285036
942.80 0.3284159
942.90 0.3283283
943.00 0.3282407
943.10 0.3281533
943.20 0.328066
943.30 0.3279786
943.40 0.3278913
943.50 0.327804
943.60 0.3277167
943.70 0.3276295
943.80 0.3275423
943.90 0.3274552
944.00 0.327368
944.10 0.3272809
944.20 0.3271938
944.30 0.3271068
944.40 0.3270197
944.50 0.3269328
944.60 0.3268458
944.70 0.3267589
944.80 0.326672
944.90 0.3265851
945.00 0.3264982
945.10 0.3264114
945.20 0.3263246
945.30 0.3262379
945.40 0.3261512
945.50 0.3260645
945.60 0.3259778
945.70 0.3258912
945.80 0.3258045
945.90 0.325718
946.00 0.3256314
946.10 0.3255449
946.20 0.3254584
946.30 0.3253719
946.40 0.3252855
946.50 0.3251991
946.60 0.3251127
946.70 0.3250264
946.80 0.3249401
946.90 0.3248538
947.00 0.3247675
947.10 0.3246813
947.20 0.3245951
947.30 0.3245089
947.40 0.3244228
947.50 0.3243367
947.60 0.3242506
947.70 0.3241645
947.80 0.3240785
947.90 0.3239925
948.00 0.3239065
948.10 0.3238206
948.20 0.3237347
948.30 0.3236488
948.40 0.323563
948.50 0.3234771
948.60 0.3233913
948.70 0.3233056
948.80 0.3232198
948.90 0.3231341
949.00 0.3230485
949.10 0.3229628
949.20 0.3228772
949.30 0.3227916
949.40 0.322706
949.50 0.3226205
949.60 0.322535
949.70 0.3224495
949.80 0.3223641
949.90 0.3222787
950.00 0.3221933
950.10 0.3221079
950.20 0.3220226
950.30 0.3219373
950.40 0.321852
950.50 0.3217668
950.60 0.3216816
950.70 0.3215964
950.80 0.3215112
950.90 0.3214261
951.00 0.321341
951.10 0.3212559
951.20 0.3211709
951.30 0.3210858
951.40 0.3210009
951.50 0.3209159
951.60 0.320831
951.70 0.3207461
951.80 0.3206612
951.90 0.3205764
952.00 0.3204915
952.10 0.3204068
952.20 0.320322
952.30 0.3202373
952.40 0.3201526
952.50 0.3200681
952.60 0.3199836
952.70 0.3198992
952.80 0.3198148
952.90 0.3197304
953.00 0.319646
953.10 0.3195617
953.20 0.3194774
953.30 0.3193931
953.40 0.3193089
953.50 0.3192247
953.60 0.3191405
953.70 0.3190563
953.80 0.3189722
953.90 0.3188881
954.00 0.318804
954.10 0.31872
954.20 0.3186359
954.30 0.3185519
954.40 0.318468
954.50 0.3183841
954.60 0.3183001
954.70 0.3182163
954.80 0.3181324
954.90 0.3180486
955.00 0.3179648
955.10 0.317881
955.20 0.3177973
955.30 0.3177136
955.40 0.3176299
955.50 0.3175463
955.60 0.3174626
955.70 0.317379
955.80 0.3172955
955.90 0.3172119
956.00 0.3171284
956.10 0.3170449
956.20 0.3169615
956.30 0.3168781
956.40 0.3167947
956.50 0.3167113
956.60 0.3166279
956.70 0.3165446
956.80 0.3164613
956.90 0.3163781
957.00 0.3162948
957.10 0.3162116
957.20 0.3161285
957.30 0.3160453
957.40 0.3159622
957.50 0.3158791
957.60 0.315796
957.70 0.315713
957.80 0.31563
957.90 0.315547
958.00 0.3154641
958.10 0.3153811
958.20 0.3152982
958.30 0.3152154
958.40 0.3151325
958.50 0.3150497
958.60 0.3149669
958.70 0.3148841
958.80 0.3148014
958.90 0.3147187
959.00 0.314636
959.10 0.3145534
959.20 0.3144708
959.30 0.3143882
959.40 0.3143056
959.50 0.3142231
959.60 0.3141405
959.70 0.3140581
959.80 0.3139756
959.90 0.3138932
960.00 0.3138108
960.10 0.3137284
960.20 0.3136461
960.30 0.3135637
960.40 0.3134814
960.50 0.3133992
960.60 0.3133169
960.70 0.3132347
960.80 0.3131526
960.90 0.3130704
961.00 0.3129883
961.10 0.3129062
961.20 0.3128241
961.30 0.3127421
961.40 0.31266
961.50 0.3125781
961.60 0.3124961
961.70 0.3124142
961.80 0.3123322
961.90 0.3122504
962.00 0.3121663
962.10 0.3120818
962.20 0.3119974
962.30 0.311913
962.40 0.3118287
962.50 0.3117443
962.60 0.31166
962.70 0.3115757
962.80 0.3114915
962.90 0.3114072
963.00 0.311323
963.10 0.3112389
963.20 0.3111547
963.30 0.3110706
963.40 0.3109865
963.50 0.3109025
963.60 0.3108184
963.70 0.3107344
963.80 0.3106505
963.90 0.3105665
964.00 0.3104826
964.10 0.3103987
964.20 0.3103149
964.30 0.310231
964.40 0.3101472
964.50 0.3100635
964.60 0.3099797
964.70 0.309896
964.80 0.3098123
964.90 0.3097286
965.00 0.309645
965.10 0.3095614
965.20 0.3094778
965.30 0.3093943
965.40 0.3093107
965.50 0.3092272
965.60 0.3091438
965.70 0.3090603
965.80 0.3089769
965.90 0.3088935
966.00 0.3088102
966.10 0.3087269
966.20 0.3086436
966.30 0.3085603
966.40 0.308477
966.50 0.3083938
966.60 0.3083106
966.70 0.3082275
966.80 0.3081443
966.90 0.3080612
967.00 0.3079782
967.10 0.3078951
967.20 0.3078121
967.30 0.3077291
967.40 0.3076461
967.50 0.3075632
967.60 0.3074803
967.70 0.3073974
967.80 0.3073145
967.90 0.3072317
968.00 0.3071489
968.10 0.3070661
968.20 0.3069834
968.30 0.3069007
968.40 0.306818
968.50 0.3067353
968.60 0.3066527
968.70 0.3065701
968.80 0.3064875
968.90 0.3064049
969.00 0.3063224
969.10 0.3062399
969.20 0.3061574
969.30 0.306075
969.40 0.3059926
969.50 0.3059102
969.60 0.3058278
969.70 0.3057455
969.80 0.3056632
969.90 0.3055809
970.00 0.3054987
970.10 0.3054165
970.20 0.3053343
970.30 0.3052521
970.40 0.30517
970.50 0.3050878
970.60 0.3050058
970.70 0.3049237
970.80 0.3048417
970.90 0.3047597
971.00 0.3046777
971.10 0.3045957
971.20 0.3045138
971.30 0.3044319
971.40 0.3043501
971.50 0.3042682
971.60 0.3041865
971.70 0.3041049
971.80 0.3040234
971.90 0.3039418
972.00 0.3038603
972.10 0.3037788
972.20 0.3036974
972.30 0.3036159
972.40 0.3035345
972.50 0.3034531
972.60 0.3033718
972.70 0.3032905
972.80 0.3032092
972.90 0.3031279
973.00 0.3030467
973.10 0.3029654
973.20 0.3028843
973.30 0.3028031
973.40 0.302722
973.50 0.3026408
973.60 0.3025598
973.70 0.3024787
973.80 0.3023977
973.90 0.3023167
974.00 0.3022357
974.10 0.3021548
974.20 0.3020738
974.30 0.3019929
974.40 0.3019121
974.50 0.3018312
974.60 0.3017504
974.70 0.3016696
974.80 0.3015889
974.90 0.3015081
975.00 0.3014274
975.10 0.3013468
975.20 0.3012661
975.30 0.3011855
975.40 0.3011049
975.50 0.3010243
975.60 0.3009438
975.70 0.3008632
975.80 0.3007828
975.90 0.3007023
976.00 0.3006219
976.10 0.3005414
976.20 0.3004611
976.30 0.3003807
976.40 0.3003004
976.50 0.3002201
976.60 0.3001398
976.70 0.3000595
976.80 0.2999793
976.90 0.2998991
977.00 0.2998189
977.10 0.2997388
977.20 0.2996587
977.30 0.2995786
977.40 0.2994985
977.50 0.2994185
977.60 0.2993384
977.70 0.2992585
977.80 0.2991785
977.90 0.2990986
978.00 0.2990187
978.10 0.2989388
978.20 0.2988589
978.30 0.2987791
978.40 0.2986993
978.50 0.2986195
978.60 0.2985398
978.70 0.29846
978.80 0.2983803
978.90 0.2983007
979.00 0.298221
979.10 0.2981414
979.20 0.2980618
979.30 0.2979822
979.40 0.2979027
979.50 0.2978232
979.60 0.2977437
979.70 0.2976643
979.80 0.2975848
979.90 0.2975054
980.00 0.297426
980.10 0.2973467
980.20 0.2972673
980.30 0.297188
980.40 0.2971088
980.50 0.2970295
980.60 0.2969503
980.70 0.2968711
980.80 0.2967919
980.90 0.2967128
981.00 0.2966336
981.10 0.2965546
981.20 0.2964755
981.30 0.2963979
981.40 0.2963217
981.50 0.2962455
981.60 0.2961693
981.70 0.2960932
981.80 0.2960171
981.90 0.295941
982.00 0.295865
982.10 0.295789
982.20 0.295713
982.30 0.295637
982.40 0.2955611
982.50 0.2954851
982.60 0.2954092
982.70 0.2953334
982.80 0.2952575
982.90 0.2951817
983.00 0.2951059
983.10 0.2950301
983.20 0.2949544
983.30 0.2948786
983.40 0.2948029
983.50 0.2947272
983.60 0.2946516
983.70 0.294576
983.80 0.2945004
983.90 0.2944248
984.00 0.2943492
984.10 0.2942737
984.20 0.2941982
984.30 0.2941227
984.40 0.2940473
984.50 0.2939718
984.60 0.2938964
984.70 0.2938211
984.80 0.2937457
984.90 0.2936704
985.00 0.2935951
985.10 0.2935198
985.20 0.2934445
985.30 0.2933693
985.40 0.2932941
985.50 0.2932189
985.60 0.2931437
985.70 0.2930686
985.80 0.2929935
985.90 0.2929184
986.00 0.2928433
986.10 0.2927683
986.20 0.2926933
986.30 0.2926183
986.40 0.2925433
986.50 0.2924684
986.60 0.2923935
986.70 0.2923186
986.80 0.2922437
986.90 0.2921689
987.00 0.292094
987.10 0.2920192
987.20 0.2919445
987.30 0.2918697
987.40 0.291795
987.50 0.2917203
987.60 0.2916456
987.70 0.291571
987.80 0.2914964
987.90 0.2914218
988.00 0.2913472
988.10 0.2912726
988.20 0.2911981
988.30 0.2911236
988.40 0.2910491
988.50 0.2909747
988.60 0.2909002
988.70 0.2908258
988.80 0.2907514
988.90 0.2906771
989.00 0.2906028
989.10 0.2905284
989.20 0.2904542
989.30 0.2903799
989.40 0.2903057
989.50 0.2902314
989.60 0.2901573
989.70 0.2900831
989.80 0.2900089
989.90 0.2899348
990.00 0.2898607
990.10 0.2897867
990.20 0.2897126
990.30 0.2896386
990.40 0.2895646
990.50 0.2894906
990.60 0.2894167
990.70 0.2893427
990.80 0.2892688
990.90 0.289195
991.00 0.2891211
991.10 0.2890454
991.20 0.2889667
991.30 0.2888879
991.40 0.2888092
991.50 0.2887305
991.60 0.2886519
991.70 0.2885732
991.80 0.2884946
991.90 0.288416
992.00 0.2883375
992.10 0.288259
992.20 0.2881804
992.30 0.288102
992.40 0.2880235
992.50 0.2879451
992.60 0.2878667
992.70 0.2877883
992.80 0.2877099
992.90 0.2876316
993.00 0.2875533
993.10 0.287475
993.20 0.2873968
993.30 0.2873186
993.40 0.2872404
993.50 0.2871622
993.60 0.287084
993.70 0.2870059
993.80 0.2869278
993.90 0.2868498
994.00 0.2867717
994.10 0.2866937
994.20 0.2866157
994.30 0.2865377
994.40 0.2864598
994.50 0.2863819
994.60 0.286304
994.70 0.2862261
994.80 0.2861483
994.90 0.2860705
995.00 0.2859927
995.10 0.2859149
995.20 0.2858372
995.30 0.2857595
995.40 0.2856818
995.50 0.2856041
995.60 0.2855265
995.70 0.2854489
995.80 0.2853713
995.90 0.2852937
996.00 0.2852162
996.10 0.2851428
996.20 0.2850704
996.30 0.284998
996.40 0.2849256
996.50 0.2848533
996.60 0.2847809
996.70 0.2847086
996.80 0.2846364
996.90 0.2845641
997.00 0.2844919
997.10 0.2844197
997.20 0.2843475
997.30 0.2842753
997.40 0.2842032
997.50 0.284131
997.60 0.2840589
997.70 0.2839869
997.80 0.2839148
997.90 0.2838428
998.00 0.2837708
998.10 0.2836988
998.20 0.2836269
998.30 0.2835549
998.40 0.283483
998.50 0.2834111
998.60 0.2833393
998.70 0.2832674
998.80 0.2831956
998.90 0.2831238
999.00 0.283052
999.10 0.2829803
999.20 0.2829086
999.30 0.2828369
999.40 0.2827652
999.50 0.2826935
999.60 0.2826219
999.70 0.2825503
999.80 0.2824787
999.90 0.2824071
1000.00 0.2823356
1000.10 0.2822641
1000.20 0.2821926
1000.30 0.2821211
1000.40 0.2820496
1000.50 0.2819782
1000.60 0.2819068
1000.70 0.2818354
1000.80 0.2817641
1000.90 0.2816927
1001.00 0.2816202
1001.10 0.2815441
1001.20 0.281468
1001.30 0.2813919
1001.40 0.2813159
1001.50 0.2812399
1001.60 0.2811639
1001.70 0.281088
1001.80 0.281012
1001.90 0.2809361
1002.00 0.2808603
1002.10 0.2807844
1002.20 0.2807086
1002.30 0.2806328
1002.40 0.280557
1002.50 0.2804812
1002.60 0.2804055
1002.70 0.2803298
1002.80 0.2802541
1002.90 0.2801784
1003.00 0.2801028
1003.10 0.2800272
1003.20 0.2799516
1003.30 0.279876
1003.40 0.2798005
1003.50 0.279725
1003.60 0.2796495
1003.70 0.279574
1003.80 0.2794986
1003.90 0.2794232
1004.00 0.2793478
1004.10 0.2792724
1004.20 0.2791971
1004.30 0.2791218
1004.40 0.2790465
1004.50 0.2789712
1004.60 0.278896
1004.70 0.2788208
1004.80 0.2787456
1004.90 0.2786704
1005.00 0.2785953
1005.10 0.2785201
1005.20 0.2784451
1005.30 0.27837
1005.40 0.2782949
1005.50 0.2782199
1005.60 0.2781449
1005.70 0.2780699
1005.80 0.277995
1005.90 0.2779201
1006.00 0.2778462
1006.10 0.2777762
1006.20 0.2777063
1006.30 0.2776364
1006.40 0.2775665
1006.50 0.2774966
1006.60 0.2774267
1006.70 0.2773569
1006.80 0.2772871
1006.90 0.2772173
1007.00 0.2771475
1007.10 0.2770778
1007.20 0.2770081
1007.30 0.2769384
1007.40 0.2768687
1007.50 0.276799
1007.60 0.2767294
1007.70 0.2766598
1007.80 0.2765902
1007.90 0.2765206
1008.00 0.2764511
1008.10 0.2763815
1008.20 0.276312
1008.30 0.2762426
1008.40 0.2761731
1008.50 0.2761037
1008.60 0.2760343
1008.70 0.2759649
1008.80 0.2758955
1008.90 0.2758262
1009.00 0.2757568
1009.10 0.2756875
1009.20 0.2756183
1009.30 0.275549
1009.40 0.2754798
1009.50 0.2754105
1009.60 0.2753414
1009.70 0.2752722
1009.80 0.275203
1009.90 0.2751339
1010.00 0.2750648
1010.10 0.2749957
1010.20 0.2749267
1010.30 0.2748576
1010.40 0.2747886
1010.50 0.2747196
1010.60 0.2746506
1010.70 0.2745817
1010.80 0.2745128
1010.90 0.2744439
1011.00 0.2743742
1011.10 0.2743006
1011.20 0.2742271
1011.30 0.2741537
1011.40 0.2740802
1011.50 0.2740068
1011.60 0.2739333
1011.70 0.27386
1011.80 0.2737866
1011.90 0.2737133
1012.00 0.2736399
1012.10 0.2735666
1012.20 0.2734934
1012.30 0.2734201
1012.40 0.2733469
1012.50 0.2732737
1012.60 0.2732005
1012.70 0.2731274
1012.80 0.2730542
1012.90 0.2729811
1013.00 0.2729081
1013.10 0.272835
1013.20 0.272762
1013.30 0.272689
1013.40 0.272616
1013.50 0.272543
1013.60 0.2724701
1013.70 0.2723971
1013.80 0.2723243
1013.90 0.2722514
1014.00 0.2721785
1014.10 0.2721057
1014.20 0.2720329
1014.30 0.2719601
1014.40 0.2718874
1014.50 0.2718147
1014.60 0.2717419
1014.70 0.2716693
1014.80 0.2715966
1014.90 0.271524
1015.00 0.2714514
1015.10 0.2713788
1015.20 0.2713062
1015.30 0.2712337
1015.40 0.2711611
1015.50 0.2710886
1015.60 0.2710162
1015.70 0.2709437
1015.80 0.2708713
1015.90 0.2707989
1016.00 0.2707265
1016.10 0.2706542
1016.20 0.2705818
1016.30 0.2705095
1016.40 0.2704372
1016.50 0.270365
1016.60 0.2702927
1016.70 0.2702205
1016.80 0.2701483
1016.90 0.2700761
1017.00 0.270004
1017.10 0.2699319
1017.20 0.2698598
1017.30 0.2697877
1017.40 0.2697156
1017.50 0.2696436
1017.60 0.2695716
1017.70 0.2694996
1017.80 0.2694276
1017.90 0.2693557
1018.00 0.2692838
1018.10 0.2692119
1018.20 0.26914
1018.30 0.2690682
1018.40 0.2689963
1018.50 0.2689245
1018.60 0.2688528
1018.70 0.268781
1018.80 0.2687093
1018.90 0.2686376
1019.00 0.2685659
1019.10 0.2684942
1019.20 0.2684226
1019.30 0.268351
1019.40 0.2682794
1019.50 0.2682078
1019.60 0.2681362
1019.70 0.2680647
1019.80 0.2679932
1019.90 0.2679217
1020.00 0.2678503
1020.10 0.2677788
1020.20 0.2677074
1020.30 0.267636
1020.40 0.2675647
1020.50 0.2674933
1020.60 0.267422
1020.70 0.2673507
1020.80 0.2672794
1020.90 0.2672082
1021.00 0.267137
1021.10 0.2670661
1021.20 0.2669998
1021.30 0.2669335
1021.40 0.2668672
1021.50 0.2668009
1021.60 0.2667347
1021.70 0.2666685
1021.80 0.2666023
1021.90 0.2665361
1022.00 0.2664699
1022.10 0.2664038
1022.20 0.2663377
1022.30 0.2662716
1022.40 0.2662055
1022.50 0.2661395
1022.60 0.2660735
1022.70 0.2660074
1022.80 0.2659415
1022.90 0.2658755
1023.00 0.2658095
1023.10 0.2657436
1023.20 0.2656777
1023.30 0.2656118
1023.40 0.265546
1023.50 0.2654801
1023.60 0.2654143
1023.70 0.2653485
1023.80 0.2652827
1023.90 0.2652169
1024.00 0.2651512
1024.10 0.2650855
1024.20 0.2650198
1024.30 0.2649541
1024.40 0.2648884
1024.50 0.2648228
1024.60 0.2647572
1024.70 0.2646916
1024.80 0.264626
1024.90 0.2645605
1025.00 0.2644949
1025.10 0.2644294
1025.20 0.2643639
1025.30 0.2642984
1025.40 0.264233
1025.50 0.2641676
1025.60 0.2641021
1025.70 0.2640367
1025.80 0.2639714
1025.90 0.263906
1026.00 0.2638407
1026.10 0.2637754
1026.20 0.2637101
1026.30 0.2636402
1026.40 0.2635703
1026.50 0.2635004
1026.60 0.2634306
1026.70 0.2633608
1026.80 0.263291
1026.90 0.2632212
1027.00 0.2631515
1027.10 0.2630818
1027.20 0.2630121
1027.30 0.2629424
1027.40 0.2628727
1027.50 0.2628031
1027.60 0.2627335
1027.70 0.2626639
1027.80 0.2625943
1027.90 0.2625248
1028.00 0.2624553
1028.10 0.2623858
1028.20 0.2623163
1028.30 0.2622468
1028.40 0.2621774
1028.50 0.262108
1028.60 0.2620386
1028.70 0.2619692
1028.80 0.2618999
1028.90 0.2618305
1029.00 0.2617612
1029.10 0.261692
1029.20 0.2616227
1029.30 0.2615535
1029.40 0.2614843
1029.50 0.2614151
1029.60 0.2613459
1029.70 0.2612767
1029.80 0.2612076
1029.90 0.2611385
1030.00 0.2610694
1030.10 0.2610004
1030.20 0.2609313
1030.30 0.2608623
1030.40 0.2607933
1030.50 0.2607243
1030.60 0.2606554
1030.70 0.2605865
1030.80 0.2605175
1030.90 0.2604487
1031.00 0.2603798
1031.10 0.260311
1031.20 0.2602421
1031.30 0.2601733
1031.40 0.2601047
1031.50 0.2600362
1031.60 0.2599676
1031.70 0.2598991
1031.80 0.2598306
1031.90 0.2597621
1032.00 0.2596936
1032.10 0.2596252
1032.20 0.2595568
1032.30 0.2594884
1032.40 0.25942
1032.50 0.2593517
1032.60 0.2592833
1032.70 0.259215
1032.80 0.2591467
1032.90 0.2590785
1033.00 0.2590102
1033.10 0.258942
1033.20 0.2588738
1033.30 0.2588056
1033.40 0.2587374
1033.50 0.2586693
1033.60 0.2586012
1033.70 0.2585331
1033.80 0.258465
1033.90 0.258397
1034.00 0.2583289
1034.10 0.2582609
1034.20 0.2581929
1034.30 0.258125
1034.40 0.258057
1034.50 0.2579891
1034.60 0.2579212
1034.70 0.2578533
1034.80 0.2577855
1034.90 0.2577176
1035.00 0.2576498
1035.10 0.257582
1035.20 0.2575142
1035.30 0.2574465
1035.40 0.2573788
1035.50 0.257311
1035.60 0.2572434
1035.70 0.2571757
1035.80 0.257108
1035.90 0.2570404
1036.00 0.2569728
1036.10 0.2569052
1036.20 0.2568377
1036.30 0.2567701
1036.40 0.2567026
1036.50 0.2566351
1036.60 0.2565676
1036.70 0.2565002
1036.80 0.2564328
1036.90 0.2563653
1037.00 0.2562979
1037.10 0.2562306
1037.20 0.2561632
1037.30 0.2560959
1037.40 0.2560286
1037.50 0.2559613
1037.60 0.255894
1037.70 0.2558268
1037.80 0.2557596
1037.90 0.2556924
1038.00 0.2556252
1038.10 0.255558
1038.20 0.2554909
1038.30 0.2554238
1038.40 0.2553567
1038.50 0.2552896
1038.60 0.2552225
1038.70 0.2551555
1038.80 0.2550885
1038.90 0.2550215
1039.00 0.2549545
1039.10 0.2548876
1039.20 0.2548206
1039.30 0.2547537
1039.40 0.2546869
1039.50 0.25462
1039.60 0.2545531
1039.70 0.2544863
1039.80 0.2544195
1039.90 0.2543527
1040.00 0.254286
1040.10 0.2542192
1040.20 0.2541525
1040.30 0.2540858
1040.40 0.2540191
1040.50 0.2539525
1040.60 0.2538859
1040.70 0.2538192
1040.80 0.2537526
1040.90 0.2536861
1041.00 0.2536195
1041.10 0.253553
1041.20 0.2534865
1041.30 0.25342
1041.40 0.2533535
1041.50 0.2532871
1041.60 0.2532207
1041.70 0.2531581
1041.80 0.2530962
1041.90 0.2530345
1042.00 0.2529727
1042.10 0.2529109
1042.20 0.2528492
1042.30 0.2527875
1042.40 0.2527258
1042.50 0.2526641
1042.60 0.2526025
1042.70 0.2525409
1042.80 0.2524792
1042.90 0.2524177
1043.00 0.2523561
1043.10 0.2522945
1043.20 0.252233
1043.30 0.2521715
1043.40 0.25211
1043.50 0.2520485
1043.60 0.251987
1043.70 0.2519256
1043.80 0.2518641
1043.90 0.2518027
1044.00 0.2517414
1044.10 0.25168
1044.20 0.2516186
1044.30 0.2515573
1044.40 0.251496
1044.50 0.2514347
1044.60 0.2513734
1044.70 0.2513122
1044.80 0.2512509
1044.90 0.2511897
1045.00 0.2511285
1045.10 0.2510673
1045.20 0.2510062
1045.30 0.250945
1045.40 0.2508839
1045.50 0.2508228
1045.60 0.2507617
1045.70 0.2507007
1045.80 0.2506396
1045.90 0.2505786
1046.00 0.2505176
1046.10 0.2504566
1046.20 0.2503956
1046.30 0.2503346
1046.40 0.2502737
1046.50 0.2502128
1046.60 0.2501519
1046.70 0.250091
1046.80 0.2500302
1046.90 0.249966
1047.00 0.2499009
1047.10 0.2498357
1047.20 0.2497706
1047.30 0.2497054
1047.40 0.2496403
1047.50 0.2495753
1047.60 0.2495102
1047.70 0.2494452
1047.80 0.2493801
1047.90 0.2493151
1048.00 0.2492502
1048.10 0.2491852
1048.20 0.2491203
1048.30 0.2490553
1048.40 0.2489904
1048.50 0.2489256
1048.60 0.2488607
1048.70 0.2487959
1048.80 0.2487311
1048.90 0.2486663
1049.00 0.2486015
1049.10 0.2485367
1049.20 0.248472
1049.30 0.2484073
1049.40 0.2483426
1049.50 0.2482779
1049.60 0.2482132
1049.70 0.2481486
1049.80 0.248084
1049.90 0.2480194
1050.00 0.2479548
1050.10 0.2478903
1050.20 0.2478257
1050.30 0.2477612
1050.40 0.2476967
1050.50 0.2476323
1050.60 0.2475678
1050.70 0.2475034
1050.80 0.2474389
1050.90 0.2473746
1051.00 0.2473102
1051.10 0.2472458
1051.20 0.2471815
1051.30 0.2471172
1051.40 0.2470529
1051.50 0.2469886
1051.60 0.2469244
1051.70 0.2468601
1051.80 0.2467959
1051.90 0.2467317
1052.00 0.2466675
1052.10 0.2466035
1052.20 0.2465395
1052.30 0.2464756
1052.40 0.2464117
1052.50 0.2463478
1052.60 0.2462839
1052.70 0.24622
1052.80 0.2461562
1052.90 0.2460924
1053.00 0.2460285
1053.10 0.2459648
1053.20 0.245901
1053.30 0.2458373
1053.40 0.2457735
1053.50 0.2457098
1053.60 0.2456461
1053.70 0.2455825
1053.80 0.2455188
1053.90 0.2454552
1054.00 0.2453916
1054.10 0.245328
1054.20 0.2452644
1054.30 0.2452009
1054.40 0.2451374
1054.50 0.2450739
1054.60 0.2450104
1054.70 0.2449469
1054.80 0.2448835
1054.90 0.24482
1055.00 0.2447566
1055.10 0.2446932
1055.20 0.2446299
1055.30 0.2445665
1055.40 0.2445032
1055.50 0.2444399
1055.60 0.2443766
1055.70 0.2443133
1055.80 0.24425
1055.90 0.2441868
1056.00 0.2441236
1056.10 0.2440604
1056.20 0.2439972
1056.30 0.2439341
1056.40 0.2438709
1056.50 0.2438078
1056.60 0.2437447
1056.70 0.2436817
1056.80 0.2436186
1056.90 0.2435556
1057.00 0.2434925
1057.10 0.2434295
1057.20 0.2433666
1057.30 0.2433036
1057.40 0.2432407
1057.50 0.2431777
1057.60 0.2431148
1057.70 0.243052
1057.80 0.2429891
1057.90 0.2429263
1058.00 0.2428634
1058.10 0.2428006
1058.20 0.2427378
1058.30 0.2426751
1058.40 0.2426123
1058.50 0.2425496
1058.60 0.2424869
1058.70 0.2424242
1058.80 0.2423615
1058.90 0.2422989
1059.00 0.2422363
1059.10 0.2421737
1059.20 0.2421111
1059.30 0.2420485
1059.40 0.2419859
1059.50 0.2419234
1059.60 0.2418609
1059.70 0.2417984
1059.80 0.2417359
1059.90 0.2416735
1060.00 0.241611
1060.10 0.2415486
1060.20 0.2414862
1060.30 0.2414238
1060.40 0.2413615
1060.50 0.2412991
1060.60 0.2412368
1060.70 0.2411745
1060.80 0.2411122
1060.90 0.24105
1061.00 0.2409877
1061.10 0.2409255
1061.20 0.2408633
1061.30 0.2408011
1061.40 0.2407389
1061.50 0.2406768
1061.60 0.2406147
1061.70 0.2405525
1061.80 0.2404904
1061.90 0.2404284
1062.00 0.2403663
1062.10 0.2403043
1062.20 0.2402423
1062.30 0.2401803
1062.40 0.2401183
1062.50 0.2400563
1062.60 0.2399945
1062.70 0.2399327
1062.80 0.239871
1062.90 0.2398093
1063.00 0.2397476
1063.10 0.2396859
1063.20 0.2396242
1063.30 0.2395626
1063.40 0.239501
1063.50 0.2394394
1063.60 0.2393778
1063.70 0.2393162
1063.80 0.2392547
1063.90 0.2391932
1064.00 0.2391317
1064.10 0.2390702
1064.20 0.2390087
1064.30 0.2389472
1064.40 0.2388858
1064.50 0.2388244
1064.60 0.238763
1064.70 0.2387016
1064.80 0.2386403
1064.90 0.2385789
1065.00 0.2385176
1065.10 0.2384563
1065.20 0.238395
1065.30 0.2383338
1065.40 0.2382725
1065.50 0.2382113
1065.60 0.2381501
1065.70 0.2380889
1065.80 0.2380277
1065.90 0.2379666
1066.00 0.2379055
1066.10 0.2378443
1066.20 0.2377833
1066.30 0.2377222
1066.40 0.2376611
1066.50 0.2376001
1066.60 0.2375391
1066.70 0.2374781
1066.80 0.2374171
1066.90 0.2373561
1067.00 0.2372952
1067.10 0.2372342
1067.20 0.2371733
1067.30 0.2371125
1067.40 0.2370516
1067.50 0.2369907
1067.60 0.2369299
1067.70 0.2368691
1067.80 0.2368083
1067.90 0.2367475
1068.00 0.2366868
1068.10 0.236626
1068.20 0.2365653
1068.30 0.2365046
1068.40 0.2364439
1068.50 0.2363832
1068.60 0.2363226
1068.70 0.236262
1068.80 0.2362013
1068.90 0.2361407
1069.00 0.2360802
1069.10 0.2360196
1069.20 0.2359591
1069.30 0.2358986
1069.40 0.2358381
1069.50 0.2357776
1069.60 0.2357171
1069.70 0.2356567
1069.80 0.2355962
1069.90 0.2355358
1070.00 0.2354754
1070.10 0.2354151
1070.20 0.2353547
1070.30 0.2352944
1070.40 0.2352341
1070.50 0.2351738
1070.60 0.2351135
1070.70 0.2350532
1070.80 0.234993
1070.90 0.2349328
1071.00 0.2348726
1071.10 0.2348124
1071.20 0.2347522
1071.30 0.234692
1071.40 0.2346319
1071.50 0.2345718
1071.60 0.2345117
1071.70 0.2344516
1071.80 0.2343916
1071.90 0.2343315
1072.00 0.2342715
1072.10 0.2342115
1072.20 0.2341515
1072.30 0.2340915
1072.40 0.2340316
1072.50 0.2339717
1072.60 0.2339118
1072.70 0.2338519
1072.80 0.233792
1072.90 0.2337321
1073.00 0.2336723
1073.10 0.2336125
1073.20 0.2335527
1073.30 0.2334931
1073.40 0.2334335
1073.50 0.2333739
1073.60 0.2333143
1073.70 0.2332548
1073.80 0.2331952
1073.90 0.2331357
1074.00 0.2330762
1074.10 0.2330168
1074.20 0.2329573
1074.30 0.2328979
1074.40 0.2328384
1074.50 0.232779
1074.60 0.2327197
1074.70 0.2326603
1074.80 0.2326009
1074.90 0.2325416
1075.00 0.2324823
1075.10 0.232423
1075.20 0.2323637
1075.30 0.2323045
1075.40 0.2322452
1075.50 0.232186
1075.60 0.2321268
1075.70 0.2320676
1075.80 0.2320084
1075.90 0.2319493
1076.00 0.2318902
1076.10 0.231831
1076.20 0.2317719
1076.30 0.2317129
1076.40 0.2316538
1076.50 0.2315948
1076.60 0.2315357
1076.70 0.2314767
1076.80 0.2314177
1076.90 0.2313588
1077.00 0.2312998
1077.10 0.2312409
1077.20 0.231182
1077.30 0.2311231
1077.40 0.2310642
1077.50 0.2310053
1077.60 0.2309465
1077.70 0.2308876
1077.80 0.2308288
1077.90 0.23077
1078.00 0.2307113
1078.10 0.2306525
1078.20 0.2305938
1078.30 0.230535
1078.40 0.2304763
1078.50 0.2304177
1078.60 0.230359
1078.70 0.2303003
1078.80 0.2302417
1078.90 0.2301831
1079.00 0.2301245
1079.10 0.2300659
1079.20 0.2300073
1079.30 0.2299488
1079.40 0.2298903
1079.50 0.2298318
1079.60 0.2297733
1079.70 0.2297148
1079.80 0.2296564
1079.90 0.2295979
1080.00 0.2295395
1080.10 0.2294811
1080.20 0.2294227
1080.30 0.2293643
1080.40 0.229306
1080.50 0.2292477
1080.60 0.2291893
1080.70 0.2291311
1080.80 0.2290728
1080.90 0.2290145
1081.00 0.2289563
1081.10 0.228898
1081.20 0.2288398
1081.30 0.2287816
1081.40 0.2287235
1081.50 0.2286653
1081.60 0.2286072
1081.70 0.2285491
1081.80 0.228491
1081.90 0.2284329
1082.00 0.2283748
1082.10 0.2283168
1082.20 0.2282587
1082.30 0.2282007
1082.40 0.2281427
1082.50 0.2280847
1082.60 0.2280268
1082.70 0.2279688
1082.80 0.2279109
1082.90 0.227853
1083.00 0.2277951
1083.10 0.2277372
1083.20 0.2276794
1083.30 0.2276215
1083.40 0.2275637
1083.50 0.2275059
1083.60 0.2274481
1083.70 0.2273904
1083.80 0.2273326
1083.90 0.2272749
1084.00 0.2272173
1084.10 0.2271598
1084.20 0.2271022
1084.30 0.2270447
1084.40 0.2269872
1084.50 0.2269298
1084.60 0.2268723
1084.70 0.2268149
1084.80 0.2267574
1084.90 0.2267
1085.00 0.2266427
1085.10 0.2265853
1085.20 0.2265279
1085.30 0.2264706
1085.40 0.2264133
1085.50 0.226356
1085.60 0.2262987
1085.70 0.2262414
1085.80 0.2261842
1085.90 0.226127
1086.00 0.2260697
1086.10 0.2260125
1086.20 0.2259554
1086.30 0.2258982
1086.40 0.2258411
1086.50 0.2257839
1086.60 0.2257268
1086.70 0.2256697
1086.80 0.2256127
1086.90 0.2255556
1087.00 0.2254986
1087.10 0.2254415
1087.20 0.2253845
1087.30 0.2253275
1087.40 0.2252706
1087.50 0.2252136
1087.60 0.2251567
1087.70 0.2250997
1087.80 0.2250428
1087.90 0.224986
1088.00 0.2249291
1088.10 0.2248722
1088.20 0.2248154
1088.30 0.2247586
1088.40 0.2247018
1088.50 0.224645
1088.60 0.2245882
1088.70 0.2245315
1088.80 0.2244747
1088.90 0.224418
1089.00 0.2243613
1089.10 0.2243046
1089.20 0.224248
1089.30 0.2241913
1089.40 0.2241347
1089.50 0.2240781
1089.60 0.2240215
1089.70 0.2239649
1089.80 0.2239083
1089.90 0.2238518
1090.00 0.2237952
1090.10 0.2237387
1090.20 0.2236822
1090.30 0.2236258
1090.40 0.2235693
1090.50 0.2235128
1090.60 0.2234564
1090.70 0.2234
1090.80 0.2233436
1090.90 0.2232872
1091.00 0.2232309
1091.10 0.2231745
1091.20 0.2231182
1091.30 0.2230619
1091.40 0.2230056
1091.50 0.2229493
1091.60 0.222893
1091.70 0.2228368
1091.80 0.2227806
1091.90 0.2227244
1092.00 0.2226682
1092.10 0.222612
1092.20 0.2225558
1092.30 0.2224997
1092.40 0.2224436
1092.50 0.2223874
1092.60 0.2223314
1092.70 0.2222753
1092.80 0.2222192
1092.90 0.2221632
1093.00 0.2221071
1093.10 0.2220511
1093.20 0.2219951
1093.30 0.2219392
1093.40 0.2218832
1093.50 0.2218273
1093.60 0.2217713
1093.70 0.2217154
1093.80 0.2216595
1093.90 0.2216037
1094.00 0.2215478
1094.10 0.221492
1094.20 0.2214361
1094.30 0.2213803
1094.40 0.2213246
1094.50 0.2212688
1094.60 0.221213
1094.70 0.2211573
1094.80 0.2211016
1094.90 0.2210461
1095.00 0.2209905
1095.10 0.220935
1095.20 0.2208795
1095.30 0.220824
1095.40 0.2207686
1095.50 0.2207131
1095.60 0.2206577
1095.70 0.2206022
1095.80 0.2205468
1095.90 0.2204914
1096.00 0.2204361
1096.10 0.2203807
1096.20 0.2203254
1096.30 0.2202701
1096.40 0.2202148
1096.50 0.2201595
1096.60 0.2201042
1096.70 0.2200489
1096.80 0.2199937
1096.90 0.2199385
1097.00 0.2198833
1097.10 0.2198281
1097.20 0.2197729
1097.30 0.2197177
1097.40 0.2196626
1097.50 0.2196075
1097.60 0.2195524
1097.70 0.2194973
1097.80 0.2194422
1097.90 0.2193872
1098.00 0.2193321
1098.10 0.2192771
1098.20 0.2192221
1098.30 0.2191671
1098.40 0.2191121
1098.50 0.2190571
1098.60 0.2190022
1098.70 0.2189473
1098.80 0.2188924
1098.90 0.2188375
1099.00 0.2187826
1099.10 0.2187277
1099.20 0.2186729
1099.30 0.2186181
1099.40 0.2185632
1099.50 0.2185084
1099.60 0.2184537
1099.70 0.2183989
1099.80 0.2183442
1099.90 0.2182894
1100.00 0.2182347
1100.10 0.21818
1100.20 0.2181253
1100.30 0.2180707
1100.40 0.218016
1100.50 0.2179614
1100.60 0.2179068
1100.70 0.2178522
1100.80 0.2177976
1100.90 0.217743
1101.00 0.2176885
1101.10 0.2176339
1101.20 0.2175794
1101.30 0.2175249
1101.40 0.2174704
1101.50 0.2174159
1101.60 0.2173615
1101.70 0.217307
1101.80 0.2172526
1101.90 0.2171982
1102.00 0.2171438
1102.10 0.2170894
1102.20 0.2170351
1102.30 0.2169807
1102.40 0.2169264
1102.50 0.2168721
1102.60 0.2168178
1102.70 0.2167635
1102.80 0.2167093
1102.90 0.216655
1103.00 0.2166008
1103.10 0.2165466
1103.20 0.2164924
1103.30 0.2164382
1103.40 0.216384
1103.50 0.2163299
1103.60 0.2162758
1103.70 0.2162216
1103.80 0.2161675
1103.90 0.2161135
1104.00 0.2160594
1104.10 0.2160053
1104.20 0.2159513
1104.30 0.2158973
1104.40 0.2158433
1104.50 0.2157893
1104.60 0.2157353
1104.70 0.2156814
1104.80 0.2156274
1104.90 0.2155735
1105.00 0.2155196
1105.10 0.2154657
1105.20 0.2154118
1105.30 0.215358
1105.40 0.2153041
1105.50 0.2152503
1105.60 0.2151965
1105.70 0.2151427
1105.80 0.2150891
1105.90 0.2150354
1106.00 0.2149818
1106.10 0.2149282
1106.20 0.2148747
1106.30 0.2148211
1106.40 0.2147676
1106.50 0.2147141
1106.60 0.2146606
1106.70 0.2146071
1106.80 0.2145536
1106.90 0.2145001
1107.00 0.2144467
1107.10 0.2143933
1107.20 0.2143398
1107.30 0.2142864
1107.40 0.2142331
1107.50 0.2141797
1107.60 0.2141264
1107.70 0.214073
1107.80 0.2140197
1107.90 0.2139664
1108.00 0.2139131
1108.10 0.2138598
1108.20 0.2138066
1108.30 0.2137533
1108.40 0.2137001
1108.50 0.2136469
1108.60 0.2135937
1108.70 0.2135406
1108.80 0.2134874
1108.90 0.2134342
1109.00 0.2133811
1109.10 0.213328
1109.20 0.2132749
1109.30 0.2132218
1109.40 0.2131688
1109.50 0.2131157
1109.60 0.2130627
1109.70 0.2130097
1109.80 0.2129567
1109.90 0.2129037
1110.00 0.2128507
1110.10 0.2127977
1110.20 0.2127448
1110.30 0.2126919
1110.40 0.212639
1110.50 0.2125861
1110.60 0.2125332
1110.70 0.2124803
1110.80 0.2124275
1110.90 0.2123746
1111.00 0.2123218
1111.10 0.212269
1111.20 0.2122162
1111.30 0.2121635
1111.40 0.2121107
1111.50 0.212058
1111.60 0.2120053
1111.70 0.2119526
1111.80 0.2118999
1111.90 0.2118472
1112.00 0.2117945
1112.10 0.2117419
1112.20 0.2116893
1112.30 0.2116366
1112.40 0.211584
1112.50 0.2115315
1112.60 0.2114789
1112.70 0.2114263
1112.80 0.2113738
1112.90 0.2113213
1113.00 0.2112688
1113.10 0.2112163
1113.20 0.2111638
1113.30 0.2111113
1113.40 0.2110589
1113.50 0.2110065
1113.60 0.2109541
1113.70 0.2109017
1113.80 0.2108493
1113.90 0.2107969
1114.00 0.2107446
1114.10 0.2106922
1114.20 0.2106399
1114.30 0.2105876
1114.40 0.2105353
1114.50 0.210483
1114.60 0.2104308
1114.70 0.2103785
1114.80 0.2103263
1114.90 0.2102741
1115.00 0.2102219
1115.10 0.2101697
1115.20 0.2101175
1115.30 0.2100654
1115.40 0.2100133
1115.50 0.2099611
1115.60 0.209909
1115.70 0.2098569
1115.80 0.2098049
1115.90 0.2097528
1116.00 0.2097008
1116.10 0.2096487
1116.20 0.2095967
1116.30 0.2095447
1116.40 0.2094927
1116.50 0.2094408
1116.60 0.2093888
1116.70 0.2093369
1116.80 0.2092834
1116.90 0.2092281
1117.00 0.2091728
1117.10 0.2091175
1117.20 0.2090622
1117.30 0.2090069
1117.40 0.2089516
1117.50 0.2088964
1117.60 0.2088412
1117.70 0.208786
1117.80 0.2087308
1117.90 0.2086756
1118.00 0.2086205
1118.10 0.2085653
1118.20 0.2085102
1118.30 0.2084551
1118.40 0.2084
1118.50 0.2083449
1118.60 0.2082899
1118.70 0.2082348
1118.80 0.2081798
1118.90 0.2081248
1119.00 0.2080698
1119.10 0.2080148
1119.20 0.2079599
1119.30 0.2079049
1119.40 0.20785
1119.50 0.2077951
1119.60 0.2077402
1119.70 0.2076853
1119.80 0.2076305
1119.90 0.2075756
1120.00 0.2075208
1120.10 0.207466
1120.20 0.2074112
1120.30 0.2073564
1120.40 0.2073017
1120.50 0.2072469
1120.60 0.2071922
1120.70 0.2071375
1120.80 0.2070828
1120.90 0.2070281
1121.00 0.2069734
1121.10 0.2069188
1121.20 0.2068641
1121.30 0.2068095
1121.40 0.2067549
1121.50 0.2067003
1121.60 0.2066458
1121.70 0.2065912
1121.80 0.2065367
1121.90 0.2064821
1122.00 0.2064276
1122.10 0.2063732
1122.20 0.2063187
1122.30 0.2062642
1122.40 0.2062119
1122.50 0.2061611
1122.60 0.2061102
1122.70 0.2060593
1122.80 0.2060085
1122.90 0.2059576
1123.00 0.2059068
1123.10 0.205856
1123.20 0.2058052
1123.30 0.2057545
1123.40 0.2057037
1123.50 0.205653
1123.60 0.2056022
1123.70 0.2055515
1123.80 0.2055008
1123.90 0.2054502
1124.00 0.2053995
1124.10 0.2053488
1124.20 0.2052982
1124.30 0.2052476
1124.40 0.205197
1124.50 0.2051464
1124.60 0.2050958
1124.70 0.2050452
1124.80 0.2049947
1124.90 0.2049441
1125.00 0.2048936
1125.10 0.2048431
1125.20 0.2047926
1125.30 0.2047422
1125.40 0.2046917
1125.50 0.2046413
1125.60 0.2045908
1125.70 0.2045404
1125.80 0.20449
1125.90 0.2044396
1126.00 0.2043892
1126.10 0.2043389
1126.20 0.2042885
1126.30 0.2042382
1126.40 0.2041879
1126.50 0.2041376
1126.60 0.2040873
1126.70 0.204037
1126.80 0.2039868
1126.90 0.2039365
1127.00 0.2038863
1127.10 0.2038361
1127.20 0.2037859
1127.30 0.2037357
1127.40 0.2036856
1127.50 0.2036354
1127.60 0.2035853
1127.70 0.2035351
1127.80 0.203485
1127.90 0.2034349
1128.00 0.203385
1128.10 0.203335
1128.20 0.2032851
1128.30 0.2032352
1128.40 0.2031854
1128.50 0.2031355
1128.60 0.2030856
1128.70 0.2030358
1128.80 0.202986
1128.90 0.2029362
1129.00 0.2028864
1129.10 0.2028366
1129.20 0.2027868
1129.30 0.2027371
1129.40 0.2026873
1129.50 0.2026376
1129.60 0.2025879
1129.70 0.2025382
1129.80 0.2024885
1129.90 0.2024389
1130.00 0.2023892
1130.10 0.2023396
1130.20 0.20229
1130.30 0.2022404
1130.40 0.2021908
1130.50 0.2021412
1130.60 0.2020916
1130.70 0.2020421
1130.80 0.2019926
1130.90 0.201943
1131.00 0.2018935
1131.10 0.201844
1131.20 0.2017946
1131.30 0.2017451
1131.40 0.2016956
1131.50 0.2016462
1131.60 0.2015968
1131.70 0.2015474
1131.80 0.201498
1131.90 0.2014486
1132.00 0.2013993
1132.10 0.2013499
1132.20 0.2013006
1132.30 0.2012513
1132.40 0.2012019
1132.50 0.2011527
1132.60 0.2011034
1132.70 0.2010541
1132.80 0.2010049
1132.90 0.2009556
1133.00 0.2009064
1133.10 0.2008572
1133.20 0.200808
1133.30 0.2007588
1133.40 0.2007097
1133.50 0.2006605
1133.60 0.2006114
1133.70 0.2005623
1133.80 0.2005132
1133.90 0.2004641
1134.00 0.200415
1134.10 0.2003659
1134.20 0.2003169
1134.30 0.2002679
1134.40 0.2002188
1134.50 0.2001698
1134.60 0.2001208
1134.70 0.2000719
1134.80 0.2000229
1134.90 0.1999739
1135.00 0.199925
1135.10 0.1998761
1135.20 0.1998272
1135.30 0.1997783
1135.40 0.1997294
1135.50 0.1996805
1135.60 0.1996317
1135.70 0.1995828
1135.80 0.199534
1135.90 0.1994852
1136.00 0.1994364
1136.10 0.1993876
1136.20 0.1993389
1136.30 0.1992901
1136.40 0.1992414
1136.50 0.1991927
1136.60 0.1991439
1136.70 0.1990952
1136.80 0.1990466
1136.90 0.1989979
1137.00 0.1989492
1137.10 0.1989006
1137.20 0.198852
1137.30 0.1988034
1137.40 0.1987548
1137.50 0.1987062
1137.60 0.1986576
1137.70 0.1986091
1137.80 0.1985605
1137.90 0.198512
1138.00 0.1984635
1138.10 0.198415
1138.20 0.1983665
1138.30 0.198318
1138.40 0.1982696
1138.50 0.1982211
1138.60 0.1981727
1138.70 0.1981243
1138.80 0.1980759
1138.90 0.1980275
1139.00 0.1979791
1139.10 0.1979307
1139.20 0.1978824
1139.30 0.1978325
1139.40 0.1977827
1139.50 0.1977328
1139.60 0.197683
1139.70 0.1976332
1139.80 0.1975834
1139.90 0.1975336
1140.00 0.1974838
1140.10 0.197434
1140.20 0.1973843
1140.30 0.1973345
1140.40 0.1972848
1140.50 0.1972351
1140.60 0.1971854
1140.70 0.1971357
1140.80 0.197086
1140.90 0.1970364
1141.00 0.1969868
1141.10 0.1969371
1141.20 0.1968875
1141.30 0.1968379
1141.40 0.1967884
1141.50 0.1967388
1141.60 0.1966892
1141.70 0.1966397
1141.80 0.1965902
1141.90 0.1965407
1142.00 0.1964912
1142.10 0.1964417
1142.20 0.1963922
1142.30 0.1963428
1142.40 0.1962934
1142.50 0.1962439
1142.60 0.1961945
1142.70 0.1961451
1142.80 0.1960958
1142.90 0.1960464
1143.00 0.195997
1143.10 0.1959477
1143.20 0.1958984
1143.30 0.1958491
1143.40 0.1957998
1143.50 0.1957505
1143.60 0.1957012
1143.70 0.195652
1143.80 0.1956027
1143.90 0.1955535
1144.00 0.1955043
1144.10 0.1954551
1144.20 0.1954059
1144.30 0.1953568
1144.40 0.1953076
1144.50 0.1952585
1144.60 0.1952094
1144.70 0.1951603
1144.80 0.1951112
1144.90 0.1950621
1145.00 0.195013
1145.10 0.194964
1145.20 0.1949149
1145.30 0.1948659
1145.40 0.1948169
1145.50 0.1947679
1145.60 0.1947189
1145.70 0.19467
1145.80 0.194621
1145.90 0.1945721
1146.00 0.1945231
1146.10 0.1944742
1146.20 0.1944253
1146.30 0.1943765
1146.40 0.1943276
1146.50 0.1942787
1146.60 0.1942299
1146.70 0.1941811
1146.80 0.1941323
1146.90 0.1940835
1147.00 0.1940347
1147.10 0.1939859
1147.20 0.1939371
1147.30 0.1938884
1147.40 0.1938397
1147.50 0.193791
1147.60 0.1937423
1147.70 0.1936936
1147.80 0.1936449
1147.90 0.1935962
1148.00 0.1935476
1148.10 0.193499
1148.20 0.1934504
1148.30 0.1934018
1148.40 0.1933532
1148.50 0.1933046
1148.60 0.193256
1148.70 0.1932075
1148.80 0.193159
1148.90 0.1931104
1149.00 0.1930619
1149.10 0.1930135
1149.20 0.192965
1149.30 0.1929165
1149.40 0.1928681
1149.50 0.1928196
1149.60 0.1927712
1149.70 0.1927228
1149.80 0.1926744
1149.90 0.192626
1150.00 0.1925777
1150.10 0.1925293
1150.20 0.192481
1150.30 0.1924327
1150.40 0.1923844
1150.50 0.1923361
1150.60 0.1922879
1150.70 0.1922414
1150.80 0.1921949
1150.90 0.1921485
1151.00 0.192102
1151.10 0.1920556
1151.20 0.1920092
1151.30 0.1919627
1151.40 0.1919164
1151.50 0.19187
1151.60 0.1918236
1151.70 0.1917772
1151.80 0.1917309
1151.90 0.1916846
1152.00 0.1916383
1152.10 0.191592
1152.20 0.1915457
1152.30 0.1914994
1152.40 0.1914531
1152.50 0.1914069
1152.60 0.1913606
1152.70 0.1913144
1152.80 0.1912682
1152.90 0.191222
1153.00 0.1911758
1153.10 0.1911296
1153.20 0.1910835
1153.30 0.1910373
1153.40 0.1909912
1153.50 0.1909451
1153.60 0.190899
1153.70 0.1908529
1153.80 0.1908068
1153.90 0.1907607
1154.00 0.1907147
1154.10 0.1906686
1154.20 0.1906226
1154.30 0.1905766
1154.40 0.1905306
1154.50 0.1904846
1154.60 0.1904386
1154.70 0.1903927
1154.80 0.1903467
1154.90 0.1903008
1155.00 0.1902549
1155.10 0.190209
1155.20 0.1901631
1155.30 0.1901172
1155.40 0.1900713
1155.50 0.1900254
1155.60 0.1899796
1155.70 0.1899338
1155.80 0.189888
1155.90 0.1898421
1156.00 0.1897964
1156.10 0.1897506
1156.20 0.1897048
1156.30 0.1896591
1156.40 0.1896133
1156.50 0.1895676
1156.60 0.1895219
1156.70 0.1894762
1156.80 0.1894305
1156.90 0.1893848
1157.00 0.1893392
1157.10 0.1892935
1157.20 0.1892479
1157.30 0.1892023
1157.40 0.1891567
1157.50 0.1891111
1157.60 0.1890655
1157.70 0.1890199
1157.80 0.1889744
1157.90 0.1889288
1158.00 0.1888833
1158.10 0.1888378
1158.20 0.1887923
1158.30 0.1887468
1158.40 0.1887013
1158.50 0.1886558
1158.60 0.1886104
1158.70 0.188565
1158.80 0.1885195
1158.90 0.1884741
1159.00 0.1884287
1159.10 0.1883833
1159.20 0.188338
1159.30 0.1882926
1159.40 0.1882472
1159.50 0.1882019
1159.60 0.1881566
1159.70 0.1881113
1159.80 0.188066
1159.90 0.1880207
1160.00 0.1879754
1160.10 0.1879302
1160.20 0.1878849
1160.30 0.1878397
1160.40 0.1877945
1160.50 0.1877493
1160.60 0.1877041
1160.70 0.1876589
1160.80 0.1876137
1160.90 0.1875686
1161.00 0.1875234
1161.10 0.1874783
1161.20 0.1874332
1161.30 0.1873881
1161.40 0.187343
1161.50 0.1872979
1161.60 0.1872528
1161.70 0.1872078
1161.80 0.1871627
1161.90 0.1871177
1162.00 0.1870727
1162.10 0.1870277
1162.20 0.1869796
1162.30 0.1869316
1162.40 0.1868836
1162.50 0.1868356
1162.60 0.1867876
1162.70 0.1867396
1162.80 0.1866917
1162.90 0.1866437
1163.00 0.1865958
1163.10 0.1865479
1163.20 0.1865
1163.30 0.1864521
1163.40 0.1864042
1163.50 0.1863564
1163.60 0.1863085
1163.70 0.1862607
1163.80 0.1862129
1163.90 0.1861651
1164.00 0.1861173
1164.10 0.1860695
1164.20 0.1860217
1164.30 0.185974
1164.40 0.1859263
1164.50 0.1858785
1164.60 0.1858308
1164.70 0.1857831
1164.80 0.1857354
1164.90 0.1856878
1165.00 0.1856401
1165.10 0.1855925
1165.20 0.1855449
1165.30 0.1854972
1165.40 0.1854496
1165.50 0.185402
1165.60 0.1853545
1165.70 0.1853069
1165.80 0.1852594
1165.90 0.1852118
1166.00 0.1851643
1166.10 0.1851168
1166.20 0.1850693
1166.30 0.1850218
1166.40 0.1849744
1166.50 0.1849269
1166.60 0.1848795
1166.70 0.1848321
1166.80 0.1847847
1166.90 0.1847373
1167.00 0.1846899
1167.10 0.1846425
1167.20 0.1845951
1167.30 0.1845478
1167.40 0.1845005
1167.50 0.1844532
1167.60 0.1844059
1167.70 0.1843586
1167.80 0.1843113
1167.90 0.184264
1168.00 0.1842196
1168.10 0.1841755
1168.20 0.1841314
1168.30 0.1840874
1168.40 0.1840433
1168.50 0.1839993
1168.60 0.1839552
1168.70 0.1839112
1168.80 0.1838672
1168.90 0.1838232
1169.00 0.1837792
1169.10 0.1837353
1169.20 0.1836913
1169.30 0.1836474
1169.40 0.1836034
1169.50 0.1835595
1169.60 0.1835156
1169.70 0.1834717
1169.80 0.1834278
1169.90 0.1833839
1170.00 0.1833401
1170.10 0.1832962
1170.20 0.1832524
1170.30 0.1832086
1170.40 0.1831648
1170.50 0.183121
1170.60 0.1830772
1170.70 0.1830334
1170.80 0.1829896
1170.90 0.1829459
1171.00 0.1829022
1171.10 0.1828584
1171.20 0.1828147
1171.30 0.182771
1171.40 0.1827273
1171.50 0.1826837
1171.60 0.18264
1171.70 0.1825963
1171.80 0.1825527
1171.90 0.1825091
1172.00 0.1824655
1172.10 0.1824219
1172.20 0.1823783
1172.30 0.1823347
1172.40 0.1822911
1172.50 0.1822476
1172.60 0.182204
1172.70 0.1821605
1172.80 0.182117
1172.90 0.1820735
1173.00 0.18203
1173.10 0.1819865
1173.20 0.1819431
1173.30 0.1818996
1173.40 0.1818562
1173.50 0.1818127
1173.60 0.1817693
1173.70 0.1817259
1173.80 0.1816826
1173.90 0.1816393
1174.00 0.1815961
1174.10 0.1815529
1174.20 0.1815096
1174.30 0.1814664
1174.40 0.1814232
1174.50 0.18138
1174.60 0.1813368
1174.70 0.1812937
1174.80 0.1812505
1174.90 0.1812074
1175.00 0.1811643
1175.10 0.1811211
1175.20 0.181078
1175.30 0.1810349
1175.40 0.1809919
1175.50 0.1809488
1175.60 0.1809057
1175.70 0.1808627
1175.80 0.1808197
1175.90 0.1807766
1176.00 0.1807336
1176.10 0.1806906
1176.20 0.1806477
1176.30 0.1806047
1176.40 0.1805617
1176.50 0.1805188
1176.60 0.1804758
1176.70 0.1804329
1176.80 0.18039
1176.90 0.1803471
1177.00 0.1803042
1177.10 0.1802613
1177.20 0.1802185
1177.30 0.1801756
1177.40 0.1801328
1177.50 0.1800899
1177.60 0.1800471
1177.70 0.1800043
1177.80 0.1799615
1177.90 0.1799187
1178.00 0.179876
1178.10 0.1798332
1178.20 0.1797905
1178.30 0.1797477
1178.40 0.179705
1178.50 0.1796623
1178.60 0.1796196
1178.70 0.1795769
1178.80 0.1795343
1178.90 0.1794916
1179.00 0.1794489
1179.10 0.1794063
1179.20 0.1793637
1179.30 0.1793211
1179.40 0.1792785
1179.50 0.1792359
1179.60 0.1791931
1179.70 0.1791484
1179.80 0.1791037
1179.90 0.179059
1180.00 0.1790143
1180.10 0.1789697
1180.20 0.1789251
1180.30 0.1788804
1180.40 0.1788358
1180.50 0.1787912
1180.60 0.1787467
1180.70 0.1787021
1180.80 0.1786575
1180.90 0.178613
1181.00 0.1785684
1181.10 0.1785239
1181.20 0.1784794
1181.30 0.1784349
1181.40 0.1783904
1181.50 0.178346
1181.60 0.1783015
1181.70 0.1782571
1181.80 0.1782126
1181.90 0.1781682
1182.00 0.1781238
1182.10 0.1780794
1182.20 0.178035
1182.30 0.1779906
1182.40 0.1779463
1182.50 0.1779019
1182.60 0.1778576
1182.70 0.1778133
1182.80 0.177769
1182.90 0.1777247
1183.00 0.1776804
1183.10 0.1776361
1183.20 0.1775919
1183.30 0.1775476
1183.40 0.1775034
1183.50 0.1774591
1183.60 0.1774149
1183.70 0.1773707
1183.80 0.1773266
1183.90 0.1772824
1184.00 0.1772382
1184.10 0.1771941
1184.20 0.1771499
1184.30 0.1771058
1184.40 0.1770617
1184.50 0.1770176
1184.60 0.1769735
1184.70 0.1769294
1184.80 0.1768854
1184.90 0.1768413
1185.00 0.1767973
1185.10 0.1767533
1185.20 0.1767093
1185.30 0.1766653
1185.40 0.1766213
1185.50 0.1765777
1185.60 0.1765348
1185.70 0.1764919
1185.80 0.176449
1185.90 0.1764061
1186.00 0.1763632
1186.10 0.1763203
1186.20 0.1762775
1186.30 0.1762346
1186.40 0.1761918
1186.50 0.176149
1186.60 0.1761062
1186.70 0.1760634
1186.80 0.1760206
1186.90 0.1759778
1187.00 0.1759351
1187.10 0.1758923
1187.20 0.1758496
1187.30 0.1758069
1187.40 0.1757641
1187.50 0.1757214
1187.60 0.1756788
1187.70 0.1756361
1187.80 0.1755934
1187.90 0.1755508
1188.00 0.1755081
1188.10 0.1754655
1188.20 0.1754229
1188.30 0.1753803
1188.40 0.1753377
1188.50 0.1752951
1188.60 0.1752525
1188.70 0.17521
1188.80 0.1751674
1188.90 0.1751249
1189.00 0.1750823
1189.10 0.1750398
1189.20 0.1749973
1189.30 0.1749548
1189.40 0.1749124
1189.50 0.1748699
1189.60 0.1748275
1189.70 0.174785
1189.80 0.1747426
1189.90 0.1747002
1190.00 0.1746578
1190.10 0.1746154
1190.20 0.174573
1190.30 0.1745306
1190.40 0.1744883
1190.50 0.1744459
1190.60 0.1744036
1190.70 0.1743613
1190.80 0.1743189
1190.90 0.1742766
1191.00 0.1742344
1191.10 0.1741921
1191.20 0.1741498
1191.30 0.1741076
1191.40 0.1740653
1191.50 0.1740231
1191.60 0.1739809
1191.70 0.1739387
1191.80 0.1738965
1191.90 0.1738543
1192.00 0.1738121
1192.10 0.17377
1192.20 0.1737278
1192.30 0.1736857
1192.40 0.1736436
1192.50 0.1736014
1192.60 0.1735593
1192.70 0.1735173
1192.80 0.1734752
1192.90 0.1734331
1193.00 0.1733911
1193.10 0.173349
1193.20 0.173307
1193.30 0.173265
1193.40 0.173223
1193.50 0.173181
1193.60 0.173139
1193.70 0.173097
1193.80 0.1730551
1193.90 0.1730131
1194.00 0.1729712
1194.10 0.1729292
1194.20 0.1728873
1194.30 0.1728454
1194.40 0.1728035
1194.50 0.1727617
1194.60 0.1727198
1194.70 0.1726779
1194.80 0.1726361
1194.90 0.1725943
1195.00 0.1725524
1195.10 0.1725106
1195.20 0.1724688
1195.30 0.172427
1195.40 0.1723853
1195.50 0.1723435
1195.60 0.1723018
1195.70 0.17226
1195.80 0.1722183
1195.90 0.1721766
1196.00 0.1721349
1196.10 0.1720932
1196.20 0.1720515
1196.30 0.1720098
1196.40 0.1719682
1196.50 0.1719265
1196.60 0.1718849
1196.70 0.1718432
1196.80 0.1718016
1196.90 0.17176
1197.00 0.1717184
1197.10 0.1716769
1197.20 0.1716353
1197.30 0.1715937
1197.40 0.1715523
1197.50 0.1715109
1197.60 0.1714695
1197.70 0.1714281
1197.80 0.1713868
1197.90 0.1713454
1198.00 0.1713041
1198.10 0.1712627
1198.20 0.1712214
1198.30 0.1711801
1198.40 0.1711388
1198.50 0.1710975
1198.60 0.1710562
1198.70 0.1710149
1198.80 0.1709737
1198.90 0.1709325
1199.00 0.1708912
1199.10 0.17085
1199.20 0.1708088
1199.30 0.1707676
1199.40 0.1707264
1199.50 0.1706852
1199.60 0.1706441
1199.70 0.1706029
1199.80 0.1705618
1199.90 0.1705206
1200.00 0.1704795
