# Version 2.1 - nm, norm@500 to 1, cut digits
# Wavelength(nm)  Flambda(ergs/cm^s/s/nm)
300.00 4.204596e-95
300.10 4.204596e-95
300.20 4.204596e-95
300.30 4.204596e-95
300.40 4.204596e-95
300.50 4.204596e-95
300.60 4.204596e-95
300.70 4.204596e-95
300.80 4.204596e-95
300.90 4.204596e-95
301.00 4.204596e-95
301.10 4.204596e-95
301.20 4.204596e-95
301.30 4.204596e-95
301.40 4.204596e-95
301.50 4.204596e-95
301.60 4.204596e-95
301.70 4.204596e-95
301.80 4.204596e-95
301.90 4.204596e-95
302.00 4.204596e-95
302.10 4.204596e-95
302.20 4.204596e-95
302.30 4.204596e-95
302.40 4.204596e-95
302.50 4.204596e-95
302.60 4.204596e-95
302.70 4.204596e-95
302.80 4.204596e-95
302.90 4.204596e-95
303.00 4.204596e-95
303.10 4.204596e-95
303.20 4.204596e-95
303.30 4.204596e-95
303.40 4.204596e-95
303.50 4.204596e-95
303.60 4.204596e-95
303.70 4.204596e-95
303.80 4.204596e-95
303.90 4.204596e-95
304.00 4.204596e-95
304.10 4.204596e-95
304.20 4.204596e-95
304.30 4.204596e-95
304.40 4.204596e-95
304.50 4.204596e-95
304.60 4.204596e-95
304.70 4.204596e-95
304.80 4.204596e-95
304.90 4.204596e-95
305.00 4.204596e-95
305.10 4.204596e-95
305.20 4.204596e-95
305.30 4.204596e-95
305.40 4.204596e-95
305.50 4.204596e-95
305.60 4.204596e-95
305.70 4.204596e-95
305.80 4.204596e-95
305.90 4.204596e-95
306.00 4.204596e-95
306.10 4.204596e-95
306.20 4.204596e-95
306.30 4.204596e-95
306.40 4.204596e-95
306.50 4.204596e-95
306.60 4.204596e-95
306.70 4.204596e-95
306.80 4.204596e-95
306.90 4.204596e-95
307.00 4.204596e-95
307.10 4.204596e-95
307.20 4.204596e-95
307.30 4.204596e-95
307.40 4.204596e-95
307.50 4.204596e-95
307.60 4.204596e-95
307.70 4.204596e-95
307.80 4.204596e-95
307.90 4.204596e-95
308.00 4.204596e-95
308.10 4.204596e-95
308.20 4.204596e-95
308.30 4.204596e-95
308.40 4.204596e-95
308.50 4.204596e-95
308.60 4.204596e-95
308.70 4.204596e-95
308.80 4.204596e-95
308.90 4.204596e-95
309.00 4.204596e-95
309.10 4.204596e-95
309.20 4.204596e-95
309.30 4.204596e-95
309.40 4.204596e-95
309.50 4.204596e-95
309.60 4.204596e-95
309.70 4.204596e-95
309.80 4.204596e-95
309.90 4.204596e-95
310.00 4.204596e-95
310.10 4.204596e-95
310.20 4.204596e-95
310.30 4.204596e-95
310.40 4.204596e-95
310.50 4.204596e-95
310.60 4.204596e-95
310.70 4.204596e-95
310.80 4.204596e-95
310.90 4.204596e-95
311.00 4.204596e-95
311.10 4.204596e-95
311.20 4.204596e-95
311.30 4.204596e-95
311.40 4.204596e-95
311.50 4.204596e-95
311.60 4.204596e-95
311.70 4.204596e-95
311.80 4.204596e-95
311.90 4.204596e-95
312.00 4.204596e-95
312.10 4.204596e-95
312.20 4.204596e-95
312.30 4.204596e-95
312.40 4.204596e-95
312.50 4.204596e-95
312.60 4.204596e-95
312.70 4.204596e-95
312.80 4.204596e-95
312.90 4.204596e-95
313.00 4.204596e-95
313.10 4.204596e-95
313.20 4.204596e-95
313.30 4.204596e-95
313.40 4.204596e-95
313.50 4.204596e-95
313.60 4.204596e-95
313.70 4.204596e-95
313.80 4.204596e-95
313.90 4.204596e-95
314.00 4.204596e-95
314.10 4.204596e-95
314.20 4.204596e-95
314.30 4.204596e-95
314.40 4.204596e-95
314.50 4.204596e-95
314.60 4.204596e-95
314.70 4.204596e-95
314.80 4.204596e-95
314.90 4.204596e-95
315.00 4.204596e-95
315.10 4.204596e-95
315.20 4.204596e-95
315.30 4.204596e-95
315.40 4.204596e-95
315.50 4.204596e-95
315.60 4.204596e-95
315.70 4.204596e-95
315.80 4.204596e-95
315.90 4.204596e-95
316.00 4.204596e-95
316.10 4.204596e-95
316.20 4.204596e-95
316.30 4.204596e-95
316.40 4.204596e-95
316.50 4.204596e-95
316.60 4.204596e-95
316.70 4.204596e-95
316.80 4.204596e-95
316.90 4.204596e-95
317.00 4.204596e-95
317.10 4.204596e-95
317.20 4.204596e-95
317.30 4.204596e-95
317.40 4.204596e-95
317.50 4.204596e-95
317.60 4.204596e-95
317.70 4.204596e-95
317.80 4.204596e-95
317.90 4.204596e-95
318.00 4.204596e-95
318.10 4.204596e-95
318.20 4.204596e-95
318.30 4.204596e-95
318.40 4.204596e-95
318.50 4.204596e-95
318.60 4.204596e-95
318.70 4.204596e-95
318.80 4.204596e-95
318.90 4.204596e-95
319.00 4.204596e-95
319.10 4.204596e-95
319.20 4.204596e-95
319.30 4.204596e-95
319.40 4.204596e-95
319.50 4.204596e-95
319.60 4.204596e-95
319.70 4.204596e-95
319.80 4.204596e-95
319.90 4.204596e-95
320.00 4.204596e-95
320.10 4.204596e-95
320.20 4.204596e-95
320.30 4.204596e-95
320.40 4.204596e-95
320.50 4.204596e-95
320.60 4.204596e-95
320.70 4.204596e-95
320.80 4.204596e-95
320.90 4.204596e-95
321.00 4.204596e-95
321.10 4.204596e-95
321.20 4.204596e-95
321.30 4.204596e-95
321.40 4.204596e-95
321.50 4.204596e-95
321.60 4.204596e-95
321.70 4.204596e-95
321.80 4.204596e-95
321.90 4.204596e-95
322.00 4.204596e-95
322.10 4.204596e-95
322.20 4.204596e-95
322.30 4.204596e-95
322.40 4.204596e-95
322.50 4.204596e-95
322.60 4.204596e-95
322.70 4.204596e-95
322.80 4.204596e-95
322.90 4.204596e-95
323.00 4.204596e-95
323.10 4.204596e-95
323.20 4.204596e-95
323.30 4.204596e-95
323.40 4.204596e-95
323.50 4.204596e-95
323.60 4.204596e-95
323.70 4.204596e-95
323.80 4.204596e-95
323.90 4.204596e-95
324.00 4.204596e-95
324.10 4.204596e-95
324.20 4.204596e-95
324.30 4.204596e-95
324.40 4.204596e-95
324.50 4.204596e-95
324.60 4.204596e-95
324.70 4.204596e-95
324.80 4.204596e-95
324.90 4.204596e-95
325.00 4.204596e-95
325.10 4.204596e-95
325.20 4.204596e-95
325.30 4.204596e-95
325.40 4.204596e-95
325.50 4.204596e-95
325.60 4.204596e-95
325.70 4.204596e-95
325.80 4.204596e-95
325.90 4.204596e-95
326.00 4.204596e-95
326.10 4.204596e-95
326.20 4.204596e-95
326.30 4.204596e-95
326.40 4.204596e-95
326.50 4.204596e-95
326.60 4.204596e-95
326.70 4.204596e-95
326.80 4.204596e-95
326.90 4.204596e-95
327.00 4.204596e-95
327.10 4.204596e-95
327.20 4.204596e-95
327.30 4.204596e-95
327.40 4.204596e-95
327.50 4.204596e-95
327.60 4.204596e-95
327.70 4.204596e-95
327.80 4.204596e-95
327.90 4.204596e-95
328.00 4.204596e-95
328.10 4.204596e-95
328.20 4.204596e-95
328.30 4.204596e-95
328.40 4.204596e-95
328.50 4.204596e-95
328.60 4.204596e-95
328.70 4.204596e-95
328.80 4.204596e-95
328.90 4.204596e-95
329.00 4.204596e-95
329.10 4.204596e-95
329.20 4.204596e-95
329.30 4.204596e-95
329.40 4.204596e-95
329.50 4.204596e-95
329.60 4.204596e-95
329.70 4.204596e-95
329.80 4.204596e-95
329.90 4.204596e-95
330.00 4.204596e-95
330.10 4.204596e-95
330.20 4.204596e-95
330.30 4.204596e-95
330.40 4.204596e-95
330.50 4.204596e-95
330.60 4.204596e-95
330.70 4.204596e-95
330.80 4.204596e-95
330.90 4.204596e-95
331.00 4.204596e-95
331.10 4.204596e-95
331.20 4.204596e-95
331.30 4.204596e-95
331.40 4.204596e-95
331.50 4.204596e-95
331.60 4.204596e-95
331.70 4.204596e-95
331.80 4.204596e-95
331.90 4.204596e-95
332.00 4.204596e-95
332.10 4.204596e-95
332.20 4.204596e-95
332.30 4.204596e-95
332.40 4.204596e-95
332.50 4.204596e-95
332.60 4.204596e-95
332.70 4.204596e-95
332.80 4.204596e-95
332.90 4.204596e-95
333.00 4.204596e-95
333.10 4.204596e-95
333.20 4.204596e-95
333.30 4.204596e-95
333.40 4.204596e-95
333.50 4.204596e-95
333.60 4.204596e-95
333.70 4.204596e-95
333.80 4.204596e-95
333.90 4.204596e-95
334.00 4.204596e-95
334.10 4.204596e-95
334.20 4.204596e-95
334.30 4.204596e-95
334.40 4.204596e-95
334.50 4.204596e-95
334.60 4.204596e-95
334.70 4.204596e-95
334.80 4.204596e-95
334.90 4.204596e-95
335.00 4.204596e-95
335.10 4.204596e-95
335.20 4.204596e-95
335.30 4.204596e-95
335.40 4.204596e-95
335.50 4.204596e-95
335.60 4.204596e-95
335.70 4.204596e-95
335.80 4.204596e-95
335.90 4.204596e-95
336.00 4.204596e-95
336.10 4.204596e-95
336.20 4.204596e-95
336.30 4.204596e-95
336.40 4.204596e-95
336.50 4.204596e-95
336.60 4.204596e-95
336.70 4.204596e-95
336.80 4.204596e-95
336.90 4.204596e-95
337.00 4.204596e-95
337.10 4.204596e-95
337.20 4.204596e-95
337.30 4.204596e-95
337.40 4.204596e-95
337.50 4.204596e-95
337.60 4.204596e-95
337.70 4.204596e-95
337.80 4.204596e-95
337.90 4.204596e-95
338.00 4.204596e-95
338.10 4.204596e-95
338.20 4.204596e-95
338.30 4.204596e-95
338.40 4.204596e-95
338.50 4.204596e-95
338.60 4.204596e-95
338.70 4.204596e-95
338.80 4.204596e-95
338.90 4.204596e-95
339.00 4.204596e-95
339.10 4.204596e-95
339.20 4.204596e-95
339.30 4.204596e-95
339.40 4.204596e-95
339.50 4.204596e-95
339.60 4.204596e-95
339.70 4.204596e-95
339.80 4.204596e-95
339.90 4.204596e-95
340.00 4.204596e-95
340.10 4.204596e-95
340.20 4.204596e-95
340.30 4.204596e-95
340.40 4.204596e-95
340.50 4.204596e-95
340.60 4.204596e-95
340.70 4.204596e-95
340.80 4.204596e-95
340.90 4.204596e-95
341.00 4.204596e-95
341.10 4.204596e-95
341.20 4.204596e-95
341.30 4.204596e-95
341.40 4.204596e-95
341.50 4.204596e-95
341.60 4.204596e-95
341.70 4.204596e-95
341.80 4.204596e-95
341.90 4.204596e-95
342.00 4.204596e-95
342.10 4.204596e-95
342.20 4.204596e-95
342.30 4.204596e-95
342.40 4.204596e-95
342.50 4.204596e-95
342.60 4.204596e-95
342.70 4.204596e-95
342.80 4.204596e-95
342.90 4.204596e-95
343.00 4.204596e-95
343.10 4.204596e-95
343.20 4.204596e-95
343.30 4.204596e-95
343.40 4.204596e-95
343.50 4.204596e-95
343.60 4.204596e-95
343.70 4.204596e-95
343.80 4.204596e-95
343.90 4.204596e-95
344.00 4.204596e-95
344.10 4.204596e-95
344.20 4.204596e-95
344.30 4.204596e-95
344.40 4.204596e-95
344.50 4.204596e-95
344.60 4.204596e-95
344.70 4.204596e-95
344.80 4.204596e-95
344.90 4.204596e-95
345.00 4.204596e-95
345.10 4.204596e-95
345.20 4.204596e-95
345.30 4.204596e-95
345.40 4.204596e-95
345.50 4.204596e-95
345.60 4.204596e-95
345.70 4.204596e-95
345.80 4.204596e-95
345.90 4.204596e-95
346.00 4.204596e-95
346.10 4.204596e-95
346.20 4.204596e-95
346.30 4.204596e-95
346.40 4.204596e-95
346.50 4.204596e-95
346.60 4.204596e-95
346.70 4.204596e-95
346.80 4.204596e-95
346.90 4.204596e-95
347.00 4.204596e-95
347.10 4.204596e-95
347.20 4.204596e-95
347.30 4.204596e-95
347.40 4.204596e-95
347.50 4.204596e-95
347.60 4.204596e-95
347.70 4.204596e-95
347.80 4.204596e-95
347.90 4.204596e-95
348.00 4.204596e-95
348.10 4.204596e-95
348.20 4.204596e-95
348.30 4.204596e-95
348.40 4.204596e-95
348.50 4.204596e-95
348.60 4.204596e-95
348.70 4.204596e-95
348.80 4.204596e-95
348.90 4.204596e-95
349.00 4.204596e-95
349.10 4.204596e-95
349.20 4.204596e-95
349.30 4.204596e-95
349.40 4.204596e-95
349.50 4.204596e-95
349.60 4.204596e-95
349.70 4.204596e-95
349.80 4.204596e-95
349.90 4.204596e-95
350.00 4.204596e-95
350.10 4.204596e-95
350.20 4.204596e-95
350.30 4.204596e-95
350.40 4.204596e-95
350.50 4.204596e-95
350.60 4.204596e-95
350.70 4.204596e-95
350.80 4.204596e-95
350.90 4.204596e-95
351.00 4.204596e-95
351.10 4.204596e-95
351.20 4.204596e-95
351.30 4.204596e-95
351.40 4.204596e-95
351.50 4.204596e-95
351.60 4.204596e-95
351.70 4.204596e-95
351.80 4.204596e-95
351.90 4.204596e-95
352.00 4.204596e-95
352.10 4.204596e-95
352.20 4.204596e-95
352.30 4.204596e-95
352.40 4.204596e-95
352.50 4.204596e-95
352.60 4.204596e-95
352.70 4.204596e-95
352.80 4.204596e-95
352.90 4.204596e-95
353.00 4.204596e-95
353.10 4.204596e-95
353.20 4.204596e-95
353.30 4.204596e-95
353.40 4.204596e-95
353.50 4.204596e-95
353.60 4.204596e-95
353.70 4.204596e-95
353.80 4.204596e-95
353.90 4.204596e-95
354.00 4.204596e-95
354.10 4.204596e-95
354.20 4.204596e-95
354.30 4.204596e-95
354.40 4.204596e-95
354.50 4.204596e-95
354.60 4.204596e-95
354.70 4.204596e-95
354.80 4.204596e-95
354.90 4.204596e-95
355.00 4.204596e-95
355.10 4.204596e-95
355.20 4.204596e-95
355.30 4.204596e-95
355.40 4.204596e-95
355.50 4.204596e-95
355.60 4.204596e-95
355.70 4.204596e-95
355.80 4.204596e-95
355.90 4.204596e-95
356.00 4.204596e-95
356.10 4.204596e-95
356.20 4.204596e-95
356.30 4.204596e-95
356.40 4.204596e-95
356.50 4.204596e-95
356.60 4.204596e-95
356.70 4.204596e-95
356.80 4.204596e-95
356.90 4.204596e-95
357.00 4.204596e-95
357.10 4.204596e-95
357.20 4.204596e-95
357.30 4.204596e-95
357.40 4.204596e-95
357.50 4.204596e-95
357.60 4.204596e-95
357.70 4.204596e-95
357.80 4.204596e-95
357.90 4.204596e-95
358.00 4.204596e-95
358.10 4.204596e-95
358.20 4.204596e-95
358.30 4.204596e-95
358.40 4.204596e-95
358.50 4.204596e-95
358.60 4.204596e-95
358.70 4.204596e-95
358.80 4.204596e-95
358.90 4.204596e-95
359.00 4.204596e-95
359.10 4.204596e-95
359.20 4.204596e-95
359.30 4.204596e-95
359.40 4.204596e-95
359.50 4.204596e-95
359.60 4.204596e-95
359.70 4.204596e-95
359.80 4.204596e-95
359.90 4.204596e-95
360.00 4.204596e-95
360.10 4.204596e-95
360.20 4.204596e-95
360.30 4.204596e-95
360.40 4.204596e-95
360.50 4.204596e-95
360.60 4.204596e-95
360.70 4.204596e-95
360.80 4.204596e-95
360.90 4.204596e-95
361.00 4.204596e-95
361.10 4.204596e-95
361.20 4.204596e-95
361.30 4.204596e-95
361.40 4.204596e-95
361.50 4.204596e-95
361.60 4.204596e-95
361.70 4.204596e-95
361.80 4.204596e-95
361.90 4.204596e-95
362.00 4.204596e-95
362.10 4.204596e-95
362.20 4.204596e-95
362.30 4.204596e-95
362.40 4.204596e-95
362.50 4.204596e-95
362.60 4.204596e-95
362.70 4.204596e-95
362.80 4.204596e-95
362.90 4.204596e-95
363.00 4.204596e-95
363.10 4.204596e-95
363.20 4.204596e-95
363.30 4.204596e-95
363.40 4.204596e-95
363.50 4.204596e-95
363.60 4.204596e-95
363.70 4.204596e-95
363.80 4.204596e-95
363.90 4.204596e-95
364.00 4.204596e-95
364.10 4.204596e-95
364.20 4.204596e-95
364.30 4.204596e-95
364.40 4.204596e-95
364.50 4.204596e-95
364.60 4.204596e-95
364.70 4.204596e-95
364.80 4.204596e-95
364.90 4.204596e-95
365.00 4.204596e-95
365.10 4.204596e-95
365.20 4.204596e-95
365.30 4.204596e-95
365.40 4.204596e-95
365.50 4.204596e-95
365.60 4.204596e-95
365.70 4.204596e-95
365.80 4.204596e-95
365.90 4.204596e-95
366.00 4.204596e-95
366.10 4.204596e-95
366.20 4.204596e-95
366.30 4.204596e-95
366.40 4.204596e-95
366.50 4.204596e-95
366.60 4.204596e-95
366.70 4.204596e-95
366.80 4.204596e-95
366.90 4.204596e-95
367.00 4.204596e-95
367.10 4.204596e-95
367.20 4.204596e-95
367.30 4.204596e-95
367.40 4.204596e-95
367.50 4.204596e-95
367.60 4.204596e-95
367.70 4.204596e-95
367.80 4.204596e-95
367.90 4.204596e-95
368.00 4.204596e-95
368.10 4.204596e-95
368.20 4.204596e-95
368.30 4.204596e-95
368.40 4.204596e-95
368.50 4.204596e-95
368.60 4.204596e-95
368.70 4.204596e-95
368.80 4.204596e-95
368.90 4.204596e-95
369.00 4.204596e-95
369.10 4.204596e-95
369.20 4.204596e-95
369.30 4.204596e-95
369.40 4.204596e-95
369.50 4.204596e-95
369.60 4.204596e-95
369.70 4.204596e-95
369.80 4.204596e-95
369.90 4.204596e-95
370.00 4.204596e-95
370.10 4.204596e-95
370.20 4.204596e-95
370.30 4.204596e-95
370.40 4.204596e-95
370.50 4.204596e-95
370.60 4.204596e-95
370.70 4.204596e-95
370.80 4.204596e-95
370.90 4.204596e-95
371.00 4.204596e-95
371.10 4.204596e-95
371.20 4.204596e-95
371.30 4.204596e-95
371.40 4.204596e-95
371.50 4.204596e-95
371.60 4.204596e-95
371.70 4.204596e-95
371.80 4.204596e-95
371.90 4.204596e-95
372.00 4.204596e-95
372.10 4.204596e-95
372.20 4.204596e-95
372.30 4.204596e-95
372.40 4.204596e-95
372.50 4.204596e-95
372.60 4.204596e-95
372.70 4.204596e-95
372.80 4.204596e-95
372.90 4.204596e-95
373.00 4.204596e-95
373.10 4.204596e-95
373.20 4.204596e-95
373.30 4.204596e-95
373.40 4.204596e-95
373.50 4.204596e-95
373.60 4.204596e-95
373.70 4.204596e-95
373.80 4.204596e-95
373.90 4.204596e-95
374.00 4.204596e-95
374.10 4.204596e-95
374.20 4.204596e-95
374.30 4.204596e-95
374.40 4.204596e-95
374.50 4.204596e-95
374.60 4.204596e-95
374.70 4.204596e-95
374.80 4.204596e-95
374.90 4.204596e-95
375.00 4.204596e-95
375.10 4.204596e-95
375.20 4.204596e-95
375.30 4.204596e-95
375.40 4.204596e-95
375.50 4.204596e-95
375.60 4.204596e-95
375.70 4.204596e-95
375.80 4.204596e-95
375.90 4.204596e-95
376.00 4.204596e-95
376.10 4.204596e-95
376.20 4.204596e-95
376.30 4.204596e-95
376.40 4.204596e-95
376.50 4.204596e-95
376.60 4.204596e-95
376.70 4.204596e-95
376.80 4.204596e-95
376.90 4.204596e-95
377.00 4.204596e-95
377.10 4.204596e-95
377.20 4.204596e-95
377.30 4.204596e-95
377.40 4.204596e-95
377.50 4.204596e-95
377.60 4.204596e-95
377.70 4.204596e-95
377.80 4.204596e-95
377.90 4.204596e-95
378.00 4.204596e-95
378.10 4.204596e-95
378.20 4.204596e-95
378.30 4.204596e-95
378.40 4.204596e-95
378.50 4.204596e-95
378.60 4.204596e-95
378.70 4.204596e-95
378.80 4.204596e-95
378.90 4.204596e-95
379.00 4.204596e-95
379.10 4.204596e-95
379.20 4.204596e-95
379.30 4.204596e-95
379.40 4.204596e-95
379.50 4.204596e-95
379.60 4.204596e-95
379.70 4.204596e-95
379.80 4.204596e-95
379.90 4.204596e-95
380.00 4.204596e-95
380.10 4.204596e-95
380.20 4.204596e-95
380.30 4.204596e-95
380.40 4.204596e-95
380.50 4.204596e-95
380.60 4.204596e-95
380.70 4.204596e-95
380.80 4.204596e-95
380.90 4.204596e-95
381.00 4.204596e-95
381.10 4.204596e-95
381.20 4.204596e-95
381.30 4.204596e-95
381.40 4.204596e-95
381.50 4.204596e-95
381.60 4.204596e-95
381.70 4.204596e-95
381.80 4.204596e-95
381.90 4.204596e-95
382.00 4.204596e-95
382.10 4.204596e-95
382.20 4.204596e-95
382.30 4.204596e-95
382.40 4.204596e-95
382.50 4.204596e-95
382.60 4.204596e-95
382.70 4.204596e-95
382.80 4.204596e-95
382.90 4.204596e-95
383.00 4.204596e-95
383.10 4.204596e-95
383.20 4.204596e-95
383.30 4.204596e-95
383.40 4.204596e-95
383.50 4.204596e-95
383.60 4.204596e-95
383.70 4.204596e-95
383.80 4.204596e-95
383.90 4.204596e-95
384.00 4.204596e-95
384.10 4.204596e-95
384.20 4.204596e-95
384.30 4.204596e-95
384.40 4.204596e-95
384.50 4.204596e-95
384.60 4.204596e-95
384.70 4.204596e-95
384.80 4.204596e-95
384.90 4.204596e-95
385.00 4.204596e-95
385.10 4.204596e-95
385.20 4.204596e-95
385.30 4.204596e-95
385.40 4.204596e-95
385.50 4.204596e-95
385.60 4.204596e-95
385.70 4.204596e-95
385.80 4.204596e-95
385.90 4.204596e-95
386.00 4.204596e-95
386.10 4.204596e-95
386.20 4.204596e-95
386.30 4.204596e-95
386.40 4.204596e-95
386.50 4.204596e-95
386.60 4.204596e-95
386.70 4.204596e-95
386.80 4.204596e-95
386.90 4.204596e-95
387.00 4.204596e-95
387.10 4.204596e-95
387.20 4.204596e-95
387.30 4.204596e-95
387.40 4.204596e-95
387.50 4.204596e-95
387.60 4.204596e-95
387.70 4.204596e-95
387.80 4.204596e-95
387.90 4.204596e-95
388.00 4.204596e-95
388.10 4.204596e-95
388.20 4.204596e-95
388.30 4.204596e-95
388.40 4.204596e-95
388.50 4.204596e-95
388.60 4.204596e-95
388.70 4.204596e-95
388.80 4.204596e-95
388.90 4.204596e-95
389.00 4.204596e-95
389.10 4.204596e-95
389.20 4.204596e-95
389.30 4.204596e-95
389.40 4.204596e-95
389.50 4.204596e-95
389.60 4.204596e-95
389.70 4.204596e-95
389.80 4.204596e-95
389.90 4.204596e-95
390.00 4.204596e-95
390.10 4.204596e-95
390.20 4.204596e-95
390.30 4.204596e-95
390.40 4.204596e-95
390.50 4.204596e-95
390.60 4.204596e-95
390.70 4.204596e-95
390.80 4.204596e-95
390.90 4.204596e-95
391.00 4.204596e-95
391.10 4.204596e-95
391.20 4.204596e-95
391.30 4.204596e-95
391.40 4.204596e-95
391.50 4.204596e-95
391.60 4.204596e-95
391.70 4.204596e-95
391.80 4.204596e-95
391.90 4.204596e-95
392.00 4.204596e-95
392.10 4.204596e-95
392.20 4.204596e-95
392.30 4.204596e-95
392.40 4.204596e-95
392.50 4.204596e-95
392.60 4.204596e-95
392.70 4.204596e-95
392.80 4.204596e-95
392.90 4.204596e-95
393.00 4.204596e-95
393.10 4.204596e-95
393.20 4.204596e-95
393.30 4.204596e-95
393.40 4.204596e-95
393.50 4.204596e-95
393.60 4.204596e-95
393.70 4.204596e-95
393.80 4.204596e-95
393.90 4.204596e-95
394.00 4.204596e-95
394.10 4.204596e-95
394.20 4.204596e-95
394.30 4.204596e-95
394.40 4.204596e-95
394.50 4.204596e-95
394.60 4.204596e-95
394.70 4.204596e-95
394.80 4.204596e-95
394.90 4.204596e-95
395.00 0.1062491
395.10 0.1779307
395.20 0.2093864
395.30 0.2093864
395.40 0.2093864
395.50 0.2093864
395.60 0.2093864
395.70 0.2093864
395.80 0.2093864
395.90 0.2126263
396.00 0.2536939
396.10 0.3257996
396.20 0.4186817
396.30 0.5185797
396.40 0.6107739
396.50 0.6835373
396.60 0.7288444
396.70 0.7463816
396.80 0.7463816
396.90 0.7463816
397.00 0.7463816
397.10 0.7463816
397.20 0.7463816
397.30 0.7463816
397.40 0.7463816
397.50 0.7646993
397.60 0.8088815
397.70 0.8855298
397.80 1.003642
397.90 1.168291
398.00 1.376174
398.10 1.614563
398.20 1.866065
398.30 2.112465
398.40 2.336019
398.50 2.523935
398.60 2.671717
398.70 2.786559
398.80 2.883531
398.90 2.977523
399.00 3.080259
399.10 3.195499
399.20 3.316911
399.30 3.432448
399.40 3.530319
399.50 3.606619
399.60 3.664038
399.70 3.706167
399.80 3.736255
399.90 3.759688
400.00 3.786548
400.10 3.824662
400.20 3.875151
400.30 3.934375
400.40 3.996275
400.50 4.056902
400.60 4.116929
400.70 4.181939
400.80 4.256267
400.90 4.333287
401.00 4.400207
401.10 4.448872
401.20 4.477874
401.30 4.489593
401.40 4.489593
401.50 4.489593
401.60 4.489593
401.70 4.489593
401.80 4.489593
401.90 4.497862
402.00 4.509044
402.10 4.513079
402.20 4.513079
402.30 4.513079
402.40 4.513079
402.50 4.513079
402.60 4.522453
402.70 4.571671
402.80 4.660742
402.90 4.781549
403.00 4.916679
403.10 5.043369
403.20 5.143327
403.30 5.204541
403.40 5.221165
403.50 5.221165
403.60 5.221165
403.70 5.221165
403.80 5.221165
403.90 5.221165
404.00 5.221165
404.10 5.221165
404.20 5.221165
404.30 5.221165
404.40 5.221165
404.50 5.221165
404.60 5.221165
404.70 5.221165
404.80 5.221165
404.90 5.221165
405.00 5.114916
405.10 5.043235
405.20 5.011779
405.30 5.011779
405.40 5.011779
405.50 5.011779
405.60 5.011779
405.70 5.011779
405.80 5.011779
405.90 5.008539
406.00 4.967472
406.10 4.908169
406.20 4.851868
406.30 4.812313
406.40 4.801935
406.50 4.826301
406.60 4.883645
406.70 4.963192
406.80 5.046471
406.90 5.112746
407.00 5.162608
407.10 5.199714
407.20 5.230349
407.30 5.258642
407.40 5.285274
407.50 5.292646
407.60 5.273673
407.70 5.220809
407.80 5.124271
407.90 4.980393
408.00 4.794568
408.10 4.580839
408.20 4.355555
408.30 4.132201
408.40 3.925
408.50 3.747207
408.60 3.604701
408.70 3.492695
408.80 3.400067
408.90 3.314699
409.00 3.226041
409.10 3.131389
409.20 3.037687
409.30 2.952151
409.40 2.877548
409.50 2.812846
409.60 2.755428
409.70 2.713299
409.80 2.68321
409.90 2.659777
410.00 2.632918
410.10 2.601851
410.20 2.580458
410.30 2.576116
410.40 2.594945
410.50 2.635429
410.60 2.687218
410.70 2.735084
410.80 2.767641
410.90 2.784446
411.00 2.791983
411.10 2.796303
411.20 2.800934
411.30 2.806635
411.40 2.812298
411.50 2.813735
411.60 2.81922
411.70 2.832512
411.80 2.852863
411.90 2.868606
412.00 2.878869
412.10 2.887971
412.20 2.888895
412.30 2.888895
412.40 2.888895
412.50 2.888895
412.60 2.87952
412.70 2.830302
412.80 2.741231
412.90 2.620425
413.00 2.490528
413.10 2.378544
413.20 2.301946
413.30 2.270361
413.40 2.286204
413.50 2.318616
413.60 2.348921
413.70 2.375973
413.80 2.398888
413.90 2.417345
414.00 2.432283
414.10 2.444481
414.20 2.454717
414.30 2.465138
414.40 2.478186
414.50 2.49405
414.60 2.510309
414.70 2.52434
414.80 2.535486
414.90 2.545575
415.00 2.557059
415.10 2.571155
415.20 2.588203
415.30 2.6075
415.40 2.628557
415.50 2.6518
415.60 2.676705
415.70 2.701526
415.80 2.724418
415.90 2.743971
416.00 2.758936
416.10 2.756351
416.20 2.725005
416.30 2.664662
416.40 2.582846
416.50 2.485717
416.60 2.383065
416.70 2.293484
416.80 2.227297
416.90 2.185279
417.00 2.164429
417.10 2.158046
417.20 2.157143
417.30 2.156672
417.40 2.156251
417.50 2.155753
417.60 2.154115
417.70 2.151096
417.80 2.145085
417.90 2.131269
418.00 2.109211
418.10 2.084552
418.20 2.058334
418.30 2.035288
418.40 2.024178
418.50 2.044345
418.60 2.095842
418.70 2.172012
418.80 2.261467
418.90 2.35183
419.00 2.433406
419.10 2.499425
419.20 2.546154
419.30 2.578513
419.40 2.611068
419.50 2.657907
419.60 2.723076
419.70 2.791296
419.80 2.856798
419.90 2.914911
420.00 2.960084
420.10 2.979066
420.20 2.953318
420.30 2.898435
420.40 2.817707
420.50 2.716596
420.60 2.60478
420.70 2.491903
420.80 2.385019
420.90 2.291194
421.00 2.216737
421.10 2.163752
421.20 2.130118
421.30 2.112699
421.40 2.107035
421.50 2.105598
421.60 2.100113
421.70 2.086821
421.80 2.06647
421.90 2.046018
422.00 2.048056
422.10 2.075638
422.20 2.126266
422.30 2.18076
422.40 2.229444
422.50 2.264518
422.60 2.283555
422.70 2.291106
422.80 2.29517
422.90 2.302875
423.00 2.313368
423.10 2.32325
423.20 2.331683
423.30 2.338297
423.40 2.343187
423.50 2.346544
423.60 2.34904
423.70 2.352362
423.80 2.360867
423.90 2.380096
424.00 2.410872
424.10 2.449727
424.20 2.492291
424.30 2.533938
424.40 2.570468
424.50 2.599409
424.60 2.620328
424.70 2.633303
424.80 2.63806
424.90 2.633784
425.00 2.6223
425.10 2.608267
425.20 2.594452
425.30 2.580684
425.40 2.56642
425.50 2.549978
425.60 2.528946
425.70 2.504125
425.80 2.481233
425.90 2.461681
426.00 2.446716
426.10 2.442508
426.20 2.462674
426.30 2.510819
426.40 2.579108
426.50 2.658859
426.60 2.741074
426.70 2.810579
426.80 2.85858
426.90 2.88382
427.00 2.888466
427.10 2.878791
427.20 2.860539
427.30 2.836689
427.40 2.81053
427.50 2.785532
427.60 2.765299
427.70 2.751765
427.80 2.746627
427.90 2.7542
428.00 2.774722
428.10 2.803094
428.20 2.841014
428.30 2.888702
428.40 2.940722
428.50 2.976824
428.60 2.993361
428.70 2.990915
428.80 2.97241
428.90 2.941749
429.00 2.902895
429.10 2.860441
429.20 2.819486
429.30 2.781942
429.40 2.743637
429.50 2.696756
429.60 2.638003
429.70 2.572382
429.80 2.50688
429.90 2.448767
430.00 2.403593
430.10 2.377564
430.20 2.374216
430.30 2.374216
430.40 2.374216
430.50 2.374216
430.60 2.374216
430.70 2.374216
430.80 2.374216
430.90 2.374216
431.00 2.374216
431.10 2.374216
431.20 2.374216
431.30 2.374216
431.40 2.374216
431.50 2.374216
431.60 2.374216
431.70 2.374216
431.80 2.374216
431.90 2.380247
432.00 2.381028
432.10 2.376204
432.20 2.366406
432.30 2.351845
432.40 2.332855
432.50 2.311836
432.60 2.2928
432.70 2.285249
432.80 2.281185
432.90 2.273479
433.00 2.257754
433.10 2.233166
433.20 2.203592
433.30 2.187957
433.40 2.190279
433.50 2.212265
433.60 2.251501
433.70 2.300739
433.80 2.347596
433.90 2.378273
434.00 2.386884
434.10 2.376764
434.20 2.353742
434.30 2.324264
434.40 2.296591
434.50 2.280031
434.60 2.281164
434.70 2.302024
434.80 2.340643
434.90 2.392491
435.00 2.450819
435.10 2.509152
435.20 2.564767
435.30 2.617575
435.40 2.664511
435.50 2.700371
435.60 2.722771
435.70 2.730026
435.80 2.730026
435.90 2.730026
436.00 2.730026
436.10 2.724015
436.20 2.698614
436.30 2.650469
436.40 2.58218
436.50 2.502429
436.60 2.420214
436.70 2.343206
436.80 2.278112
436.90 2.228616
437.00 2.194958
437.10 2.17391
437.20 2.16243
437.30 2.158459
437.40 2.158406
437.50 2.162563
437.60 2.176631
437.70 2.200167
437.80 2.233014
437.90 2.272042
438.00 2.311954
438.10 2.346411
438.20 2.366601
438.30 2.363212
438.40 2.327178
438.50 2.260785
438.60 2.187475
438.70 2.110917
438.80 2.035621
438.90 1.967295
439.00 1.910496
439.10 1.866343
439.20 1.832858
439.30 1.808042
439.40 1.794163
439.50 1.792416
439.60 1.786216
439.70 1.783617
439.80 1.783617
439.90 1.783617
440.00 1.783617
440.10 1.783617
440.20 1.783617
440.30 1.783617
440.40 1.783617
440.50 1.783617
440.60 1.783617
440.70 1.783617
440.80 1.783617
440.90 1.783617
441.00 1.783617
441.10 1.783617
441.20 1.783617
441.30 1.787419
441.40 1.791222
441.50 1.791222
441.60 1.791222
441.70 1.791222
441.80 1.791222
441.90 1.781634
442.00 1.757368
442.10 1.721474
442.20 1.67972
442.30 1.639786
442.40 1.610093
442.50 1.596037
442.60 1.596037
442.70 1.597327
442.80 1.611568
442.90 1.639354
443.00 1.678263
443.10 1.721727
443.20 1.757578
443.30 1.759544
443.40 1.719864
443.50 1.662107
443.60 1.590071
443.70 1.510459
443.80 1.432181
443.90 1.363819
444.00 1.309494
444.10 1.268561
444.20 1.238783
444.30 1.216193
444.40 1.194289
444.50 1.166043
444.60 1.127732
444.70 1.079866
444.80 1.025345
444.90 0.9676838
445.00 0.9093557
445.10 0.8509592
445.20 0.7940481
445.30 0.7357121
445.40 0.6819831
445.50 0.6393219
445.60 0.6130482
445.70 0.6057938
445.80 0.6057938
445.90 0.6057938
446.00 0.6057938
446.10 0.6057938
446.20 0.6057938
446.30 0.6057938
446.40 0.6057938
446.50 0.6057938
446.60 0.6059993
446.70 0.6111152
446.80 0.622538
446.90 0.6396486
447.00 0.6626182
447.10 0.6929086
447.20 0.7304798
447.30 0.7735481
447.40 0.8197639
447.50 0.8630104
447.60 0.8933936
447.70 0.9105846
447.80 0.916558
447.90 0.9138724
448.00 0.9046316
448.10 0.891239
448.20 0.8789019
448.30 0.8755229
448.40 0.8880694
448.50 0.9126903
448.60 0.9291034
448.70 0.9410489
448.80 0.9534631
448.90 0.9678657
449.00 0.9805715
449.10 0.9862649
449.20 0.9862649
449.30 0.9862649
449.40 0.9826257
449.50 0.9728167
449.60 0.9726016
449.70 0.9726016
449.80 0.9726016
449.90 0.9726016
450.00 0.9726016
450.10 0.9747636
450.20 0.9968207
450.30 1.038969
450.40 1.105435
450.50 1.196325
450.60 1.306071
450.70 1.426149
450.80 1.545763
450.90 1.65487
451.00 1.744087
451.10 1.806436
451.20 1.841173
451.30 1.849639
451.40 1.845835
451.50 1.845835
451.60 1.845835
451.70 1.845835
451.80 1.845835
451.90 1.845835
452.00 1.845835
452.10 1.845835
452.20 1.845835
452.30 1.845835
452.40 1.845835
452.50 1.845835
452.60 1.866042
452.70 1.901299
452.80 1.932881
452.90 1.953235
453.00 1.958884
453.10 1.953267
453.20 1.946037
453.30 1.947686
453.40 1.966
453.50 1.978762
453.60 1.983906
453.70 1.983906
453.80 1.983906
453.90 1.983906
454.00 1.983906
454.10 1.983906
454.20 1.983906
454.30 1.996716
454.40 2.02716
454.50 2.071214
454.60 2.121616
454.70 2.169512
454.80 2.206763
454.90 2.228559
455.00 2.235024
455.10 2.235024
455.20 2.233086
455.30 2.233086
455.40 2.233086
455.50 2.237513
455.60 2.254813
455.70 2.281638
455.80 2.310022
455.90 2.330326
456.00 2.333539
456.10 2.333539
456.20 2.333539
456.30 2.333539
456.40 2.333539
456.50 2.333539
456.60 2.333333
456.70 2.328217
456.80 2.316795
456.90 2.299684
457.00 2.276714
457.10 2.246424
457.20 2.208853
457.30 2.165784
457.40 2.119569
457.50 2.071971
457.60 2.024182
457.70 1.976223
457.80 1.926978
457.90 1.876106
458.00 1.824914
458.10 1.775478
458.20 1.729705
458.30 1.688785
458.40 1.65501
458.50 1.630389
458.60 1.613976
458.70 1.60203
458.80 1.589616
458.90 1.575213
459.00 1.562507
459.10 1.556814
459.20 1.556814
459.30 1.556814
459.40 1.556814
459.50 1.556814
459.60 1.556814
459.70 1.556814
459.80 1.556814
459.90 1.556814
460.00 1.556814
460.10 1.554652
460.20 1.532595
460.30 1.490447
460.40 1.42398
460.50 1.335436
460.60 1.245579
460.70 1.15569
460.80 1.068262
460.90 0.9854191
461.00 0.9092492
461.10 0.8469003
461.20 0.8121638
461.30 0.7998956
461.40 0.7998956
461.50 0.7998956
461.60 0.7998956
461.70 0.7998956
461.80 0.7998956
461.90 0.7998956
462.00 0.7998956
462.10 0.7998956
462.20 0.7998956
462.30 0.7998956
462.40 0.7998956
462.50 0.7998956
462.60 0.7796887
462.70 0.7431417
462.80 0.7026507
462.90 0.6718135
463.00 0.662387
463.10 0.6806668
463.20 0.725822
463.30 0.7931271
463.40 0.8741646
463.50 0.9578637
463.60 1.036545
463.70 1.101662
463.80 1.1452
463.90 1.168669
464.00 1.178644
464.10 1.184936
464.20 1.19465
464.30 1.197879
464.40 1.191618
464.50 1.180163
464.60 1.169304
464.70 1.164587
464.80 1.169902
464.90 1.187054
465.00 1.2147
465.10 1.243868
465.20 1.269364
465.30 1.292849
465.40 1.314908
465.50 1.330393
465.60 1.32755
465.70 1.302901
465.80 1.274518
465.90 1.254214
466.00 1.251001
466.10 1.251001
466.20 1.251001
466.30 1.251001
466.40 1.251001
466.50 1.251001
466.60 1.25157
466.70 1.268581
466.80 1.29397
466.90 1.317179
467.00 1.329636
467.10 1.329636
467.20 1.329636
467.30 1.329636
467.40 1.329636
467.50 1.329636
467.60 1.329636
467.70 1.329636
467.80 1.329636
467.90 1.329636
468.00 1.329636
468.10 1.329636
468.20 1.329636
468.30 1.329636
468.40 1.329636
468.50 1.329636
468.60 1.329636
468.70 1.329636
468.80 1.329636
468.90 1.329636
469.00 1.329636
469.10 1.329636
469.20 1.329636
469.30 1.329636
469.40 1.329636
469.50 1.329636
469.60 1.329636
469.70 1.329636
469.80 1.329636
469.90 1.329636
470.00 1.329636
470.10 1.329636
470.20 1.329636
470.30 1.333147
470.40 1.342367
470.50 1.352127
470.60 1.344024
470.70 1.324679
470.80 1.302771
470.90 1.286344
471.00 1.282267
471.10 1.289829
471.20 1.294126
471.30 1.294126
471.40 1.294126
471.50 1.294126
471.60 1.294126
471.70 1.294126
471.80 1.294126
471.90 1.294126
472.00 1.294126
472.10 1.294126
472.20 1.294126
472.30 1.294126
472.40 1.294126
472.50 1.294126
472.60 1.294126
472.70 1.308442
472.80 1.333001
472.90 1.358071
473.00 1.372145
473.10 1.367181
473.20 1.340165
473.30 1.292435
473.40 1.232631
473.50 1.175826
473.60 1.134691
473.70 1.114852
473.80 1.116029
473.90 1.131738
474.00 1.150595
474.10 1.156664
474.20 1.14695
474.30 1.130911
474.40 1.106727
474.50 1.074129
474.60 1.034586
474.70 0.9914067
474.80 0.9488408
474.90 0.9098937
475.00 0.8757818
475.10 0.8466142
475.20 0.8211176
475.30 0.8057173
475.40 0.8019359
475.50 0.8052182
475.60 0.8153856
475.70 0.8360241
475.80 0.8538829
475.90 0.8639745
476.00 0.8642846
476.10 0.8642846
476.20 0.8642846
476.30 0.8642846
476.40 0.8642846
476.50 0.8642846
476.60 0.8637157
476.70 0.8467048
476.80 0.8213158
476.90 0.7981065
477.00 0.7856492
477.10 0.7856492
477.20 0.7856492
477.30 0.7856492
477.40 0.7856492
477.50 0.7856492
477.60 0.7866729
477.70 0.7974151
477.80 0.8136356
477.90 0.8328635
478.00 0.8535669
478.10 0.8734025
478.20 0.8903707
478.30 0.9045099
478.40 0.9173195
478.50 0.930156
478.60 0.9441413
478.70 0.9599235
478.80 0.9777266
478.90 0.9971261
479.00 1.01628
479.10 1.032764
479.20 1.044771
479.30 1.051174
479.40 1.052524
479.50 1.052524
479.60 1.052524
479.70 1.056134
479.80 1.064941
479.90 1.079977
480.00 1.101832
480.10 1.129121
480.20 1.157925
480.30 1.178963
480.40 1.185516
480.50 1.17982
480.60 1.168033
480.70 1.157189
480.80 1.148302
480.90 1.15442
481.00 1.185063
481.10 1.245804
481.20 1.33839
481.30 1.457624
481.40 1.588115
481.50 1.717278
481.60 1.83336
481.70 1.927402
481.80 1.992221
481.90 2.022486
482.00 2.022486
482.10 2.022486
482.20 2.022486
482.30 2.022486
482.40 2.022486
482.50 2.022486
482.60 2.022486
482.70 2.008169
482.80 1.978277
482.90 1.93914
483.00 1.900082
483.10 1.860355
483.20 1.821419
483.30 1.787001
483.40 1.757514
483.50 1.731183
483.60 1.708481
483.70 1.692223
483.80 1.685872
483.90 1.691382
484.00 1.708578
484.10 1.737763
484.20 1.768911
484.30 1.785456
484.40 1.785906
484.50 1.785906
484.60 1.785906
484.70 1.785906
484.80 1.785906
484.90 1.785906
485.00 1.785906
485.10 1.785906
485.20 1.785906
485.30 1.777821
485.40 1.759543
485.50 1.73635
485.60 1.7146
485.70 1.696584
485.80 1.68403
485.90 1.678604
486.00 1.6823
486.10 1.687079
486.20 1.695156
486.30 1.70917
486.40 1.730275
486.50 1.757052
486.60 1.78644
486.70 1.815289
486.80 1.84086
486.90 1.861609
487.00 1.876971
487.10 1.886209
487.20 1.889206
487.30 1.889206
487.40 1.889206
487.50 1.889206
487.60 1.888183
487.70 1.87744
487.80 1.86122
487.90 1.841992
488.00 1.821289
488.10 1.801453
488.20 1.787766
488.30 1.781147
488.40 1.77696
488.50 1.771725
488.60 1.763635
488.70 1.752192
488.80 1.73611
488.90 1.71671
489.00 1.697557
489.10 1.681072
489.20 1.669066
489.30 1.662662
489.40 1.661312
489.50 1.661312
489.60 1.662375
489.70 1.6732
489.80 1.692571
489.90 1.716309
490.00 1.738199
490.10 1.753797
490.20 1.763176
490.30 1.769507
490.40 1.77536
490.50 1.781205
490.60 1.785228
490.70 1.785228
490.80 1.783837
490.90 1.767882
491.00 1.728268
491.10 1.659965
491.20 1.566037
491.30 1.465604
491.40 1.372066
491.50 1.29482
491.60 1.239172
491.70 1.208261
491.80 1.203532
491.90 1.22483
492.00 1.264803
492.10 1.293066
492.20 1.312269
492.30 1.327212
492.40 1.343062
492.50 1.36194
492.60 1.383471
492.70 1.406982
492.80 1.431457
492.90 1.453671
493.00 1.46985
493.10 1.483162
493.20 1.493797
493.30 1.499886
493.40 1.499299
493.50 1.490354
493.60 1.473239
493.70 1.449449
493.80 1.420061
493.90 1.387921
494.00 1.356896
494.10 1.330342
494.20 1.311497
494.30 1.302444
494.40 1.30292
494.50 1.30292
494.60 1.30292
494.70 1.30292
494.80 1.30292
494.90 1.30292
495.00 1.30292
495.10 1.30292
495.20 1.30292
495.30 1.30292
495.40 1.30292
495.50 1.30292
495.60 1.300047
495.70 1.295247
495.80 1.289942
495.90 1.285276
496.00 1.28127
496.10 1.276491
496.20 1.27268
496.30 1.267448
496.40 1.255868
496.50 1.235565
496.60 1.206358
496.70 1.177509
496.80 1.151938
496.90 1.131189
497.00 1.115827
497.10 1.106589
497.20 1.103591
497.30 1.103591
497.40 1.103591
497.50 1.103591
497.60 1.103591
497.70 1.103591
497.80 1.103591
497.90 1.103591
498.00 1.103591
498.10 1.103591
498.20 1.10031
498.30 1.092791
498.40 1.084167
498.50 1.07669
498.60 1.073758
498.70 1.073944
498.80 1.075605
498.90 1.075605
499.00 1.075605
499.10 1.075605
499.20 1.075605
499.30 1.075605
499.40 1.075605
499.50 1.075605
499.60 1.074542
499.70 1.065091
499.80 1.048898
499.90 1.026628
500.00 1
500.10 0.97125
500.20 0.9421101
500.30 0.9147698
500.40 0.8931435
500.50 0.8808896
500.60 0.8768672
500.70 0.8768672
500.80 0.8768672
500.90 0.8768672
501.00 0.8779096
501.10 0.8832411
501.20 0.8884378
501.30 0.8789156
501.40 0.8505549
501.50 0.804152
501.60 0.7437186
501.70 0.6805869
501.80 0.6204969
501.90 0.5689344
502.00 0.5289618
502.10 0.5006986
502.20 0.4814953
502.30 0.4665524
502.40 0.4507027
502.50 0.431824
502.60 0.4145983
502.70 0.4034297
502.80 0.3973144
502.90 0.3938224
503.00 0.3916987
503.10 0.3917814
503.20 0.3940781
503.30 0.3977323
503.40 0.4043677
503.50 0.4160482
503.60 0.4309935
503.70 0.4444952
503.80 0.4523458
503.90 0.4519639
504.00 0.442306
504.10 0.4273144
504.20 0.4150109
504.30 0.4075185
504.40 0.4065933
504.50 0.4065933
504.60 0.4065933
504.70 0.4065933
504.80 0.4065933
504.90 0.4065933
505.00 0.4065933
505.10 0.4065933
505.20 0.410437
505.30 0.4232262
505.40 0.4408939
505.50 0.4580209
505.60 0.4703848
505.70 0.4765265
505.80 0.4780071
505.90 0.4810772
506.00 0.4939232
506.10 0.5222622
506.20 0.5646238
506.30 0.6197024
506.40 0.6857273
506.50 0.7592058
506.60 0.8357293
506.70 0.9021649
506.80 0.9538254
506.90 0.9892749
507.00 1.009532
507.10 1.018221
507.20 1.019921
507.30 1.019921
507.40 1.019921
507.50 1.019921
507.60 1.019921
507.70 1.021577
507.80 1.02576
507.90 1.030234
508.00 1.03195
508.10 1.03195
508.20 1.03195
508.30 1.03195
508.40 1.03195
508.50 1.031825
508.60 1.028863
508.70 1.024338
508.80 1.020955
508.90 1.024889
509.00 1.034402
509.10 1.046603
509.20 1.057606
509.30 1.065379
509.40 1.067524
509.50 1.067524
509.60 1.067524
509.70 1.062541
509.80 1.050556
509.90 1.034051
510.00 1.016934
510.10 1.002797
510.20 0.9937541
510.30 0.9902151
510.40 0.9902151
510.50 0.9902151
510.60 0.9902151
510.70 0.9902151
510.80 0.9902151
510.90 0.9902151
511.00 0.9891728
511.10 0.9838413
511.20 0.9756897
511.30 0.9664114
511.40 0.9578188
511.50 0.9523052
511.60 0.9523052
511.70 0.9523052
511.80 0.9523052
511.90 0.9523052
512.00 0.9523052
512.10 0.9523052
512.20 0.9523052
512.30 0.9523052
512.40 0.9523052
512.50 0.9532177
512.60 0.9563994
512.70 0.9562449
512.80 0.9523535
512.90 0.9452727
513.00 0.9353472
513.10 0.9236594
513.20 0.9114621
513.30 0.8982561
513.40 0.8821466
513.50 0.8660862
513.60 0.8482665
513.70 0.8295356
513.80 0.8225357
513.90 0.8339831
514.00 0.8659143
514.10 0.9144571
514.20 0.9707473
514.30 1.030048
514.40 1.086842
514.50 1.136088
514.60 1.176253
514.70 1.210525
514.80 1.244076
514.90 1.280663
515.00 1.320906
515.10 1.362605
515.20 1.398786
515.30 1.421782
515.40 1.433095
515.50 1.436054
515.60 1.434103
515.70 1.429587
515.80 1.428106
515.90 1.425036
516.00 1.41219
516.10 1.383851
516.20 1.338435
516.30 1.278778
516.40 1.210517
516.50 1.141854
516.60 1.080487
516.70 1.032438
516.80 1.001108
516.90 0.9864466
517.00 0.9852647
517.10 0.9922424
517.20 1.002407
517.30 1.010589
517.40 1.0142
517.50 1.0142
517.60 1.0142
517.70 1.012544
517.80 1.008361
517.90 1.003887
518.00 1.002171
518.10 1.002171
518.20 1.002171
518.30 1.002171
518.40 1.002171
518.50 1.002171
518.60 1.002171
518.70 1.002171
518.80 1.002171
518.90 0.9982378
519.00 0.9887241
519.10 0.9839327
519.20 0.9869414
519.30 0.9935064
519.40 1.002913
519.50 1.012511
519.60 1.021767
519.70 1.032597
519.80 1.047844
519.90 1.0699
520.00 1.100158
520.10 1.139559
520.20 1.187222
520.30 1.23978
520.40 1.2921
520.50 1.33901
520.60 1.377277
520.70 1.406063
520.80 1.425976
520.90 1.438447
521.00 1.446089
521.10 1.452512
521.20 1.460381
521.30 1.470622
521.40 1.482045
521.50 1.491641
521.60 1.496277
521.70 1.496277
521.80 1.496277
521.90 1.496277
522.00 1.496277
522.10 1.49808
522.20 1.505031
522.30 1.516982
522.40 1.531596
522.50 1.544229
522.60 1.546395
522.70 1.53835
522.80 1.523882
522.90 1.509006
523.00 1.494728
523.10 1.481585
523.20 1.470807
523.30 1.464892
523.40 1.464993
523.50 1.470139
523.60 1.482144
523.70 1.501856
523.80 1.519551
523.90 1.529953
524.00 1.528862
524.10 1.511114
524.20 1.472577
524.30 1.413276
524.40 1.356483
524.50 1.307237
524.60 1.267071
524.70 1.2328
524.80 1.199249
524.90 1.162661
525.00 1.122418
525.10 1.080719
525.20 1.041977
525.30 1.012415
525.40 0.9893177
525.50 0.9713685
525.60 0.960956
525.70 0.9593306
525.80 0.9593306
525.90 0.9593306
526.00 0.9597655
526.10 0.9638723
526.20 0.9693164
526.30 0.9728883
526.40 0.974008
526.50 0.9728421
526.60 0.9711298
526.70 0.9719628
526.80 0.9789678
526.90 0.9956323
527.00 1.024218
527.10 1.061789
527.20 1.09951
527.30 1.128075
527.40 1.142048
527.50 1.142048
527.60 1.142048
527.70 1.142048
527.80 1.142048
527.90 1.142048
528.00 1.142048
528.10 1.142048
528.20 1.142048
528.30 1.142048
528.40 1.142048
528.50 1.142048
528.60 1.142048
528.70 1.142215
528.80 1.153654
528.90 1.172133
529.00 1.193207
529.10 1.206103
529.20 1.209198
529.30 1.206704
529.40 1.200635
529.50 1.191037
529.60 1.181781
529.70 1.170951
529.80 1.155704
529.90 1.133648
530.00 1.10339
530.10 1.063989
530.20 1.016326
530.30 0.9637678
530.40 0.9114477
530.50 0.8645374
530.60 0.827698
530.70 0.8019721
530.80 0.7868466
530.90 0.7814694
531.00 0.7827917
531.10 0.784864
531.20 0.7827745
531.30 0.7744741
531.40 0.7630511
531.50 0.7534544
531.60 0.748819
531.70 0.748819
531.80 0.748819
531.90 0.7490906
532.00 0.7575889
532.10 0.7710851
532.20 0.7824912
532.30 0.7863707
532.40 0.780508
532.50 0.7679588
532.60 0.7583058
532.70 0.754163
532.80 0.754163
532.90 0.754163
533.00 0.7597598
533.10 0.7725704
533.20 0.7889096
533.30 0.8026925
533.40 0.8083893
533.50 0.8032429
533.60 0.7912382
533.70 0.7715258
533.80 0.7440053
533.90 0.7099895
534.00 0.6738035
534.10 0.6430083
534.20 0.6252554
534.30 0.626895
534.40 0.630172
534.50 0.6325795
534.60 0.6332585
534.70 0.6333176
534.80 0.6340907
534.90 0.6358868
535.00 0.637857
535.10 0.6382626
535.20 0.6369797
535.30 0.6307569
535.40 0.6248732
535.50 0.6227363
535.60 0.6227363
535.70 0.6227363
535.80 0.6227363
535.90 0.6227363
536.00 0.6223015
536.10 0.6181946
536.20 0.6115395
536.30 0.603764
536.40 0.5953539
536.50 0.5852323
536.60 0.5716065
536.70 0.5523861
536.80 0.5292921
536.90 0.4989064
537.00 0.4588153
537.10 0.4124084
537.20 0.3682057
537.30 0.3345949
537.40 0.3170108
537.50 0.3170108
537.60 0.3170108
537.70 0.3170108
537.80 0.3170108
537.90 0.3170108
538.00 0.3170108
538.10 0.3170108
538.20 0.3210518
538.30 0.3380161
538.40 0.3668052
538.50 0.4034325
538.60 0.4428452
538.70 0.4795215
538.80 0.4981194
538.90 0.5016589
539.00 0.496001
539.10 0.4871933
539.20 0.4808466
539.30 0.4812746
539.40 0.4904852
539.50 0.5073479
539.60 0.5249218
539.70 0.5409715
539.80 0.5531222
539.90 0.5598888
540.00 0.5613129
540.10 0.5613129
540.20 0.5613129
540.30 0.5633305
540.40 0.5741284
540.50 0.5948608
540.60 0.622569
540.70 0.6518932
540.80 0.6753389
540.90 0.6846084
541.00 0.6756441
541.10 0.6671494
541.20 0.6613694
541.30 0.6594294
541.40 0.6594294
541.50 0.6594294
541.60 0.6594294
541.70 0.6594294
541.80 0.6594294
541.90 0.6658039
542.00 0.6728777
542.10 0.6756957
542.20 0.6717621
542.30 0.6597439
542.40 0.6509927
542.50 0.6499966
542.60 0.6499966
542.70 0.6499966
542.80 0.6499966
542.90 0.6499966
543.00 0.6443997
543.10 0.6315892
543.20 0.6152499
543.30 0.6014671
543.40 0.5956698
543.50 0.5956698
543.60 0.5956698
543.70 0.5956698
543.80 0.5956698
543.90 0.5956698
544.00 0.5956698
544.10 0.5956698
544.20 0.5956698
544.30 0.5940302
544.40 0.5907532
544.50 0.5883456
544.60 0.5876667
544.70 0.5972025
544.80 0.6180692
544.90 0.649124
545.00 0.6878864
545.10 0.7302262
545.20 0.767709
545.30 0.794209
545.40 0.8079007
545.50 0.8108904
545.60 0.8108904
545.70 0.8108904
545.80 0.8115216
545.90 0.8167628
546.00 0.824806
546.10 0.8310945
546.20 0.8310945
546.30 0.8310945
546.40 0.8310945
546.50 0.8310945
546.60 0.8310945
546.70 0.8310945
546.80 0.8268538
546.90 0.8212952
547.00 0.8301385
547.10 0.8533873
547.20 0.8878337
547.30 0.9276106
547.40 0.9667952
547.50 0.9980293
547.60 1.01972
547.70 1.032431
547.80 1.039364
547.90 1.044967
548.00 1.053145
548.10 1.065559
548.20 1.076775
548.30 1.074362
548.40 1.054826
548.50 1.018199
548.60 0.9787865
548.70 0.9419422
548.80 0.9119055
548.90 0.8898871
549.00 0.874471
549.10 0.8629725
549.20 0.8522141
549.30 0.844866
549.40 0.8409329
549.50 0.8347031
549.60 0.8238241
549.70 0.8102141
549.80 0.7980634
549.90 0.7912968
550.00 0.665886
550.10 0.7410834
550.20 0.8406548
550.30 0.9479379
550.40 1.045899
550.50 1.123985
550.60 1.178211
550.70 1.209988
550.80 1.227323
550.90 1.241328
551.00 1.261774
551.10 1.292809
551.20 1.33095
551.30 1.367329
551.40 1.390463
551.50 1.390463
551.60 1.390463
551.70 1.366476
551.80 1.312377
551.90 1.23025
552.00 1.128418
552.10 1.021554
552.20 0.9278476
552.30 0.8739085
552.40 0.8665781
552.50 0.8856859
552.60 0.9024232
552.70 0.9085224
552.80 0.9069445
552.90 0.8938414
553.00 0.8800117
553.10 0.8860701
553.20 0.9245693
553.30 0.9750638
553.40 1.029325
553.50 1.077994
553.60 1.11069
553.70 1.116728
553.80 1.116728
553.90 1.112957
554.00 1.071922
554.10 0.9967247
554.20 0.8971532
554.30 0.808819
554.40 0.7515732
554.50 0.7307319
554.60 0.7432585
554.70 0.7794356
554.80 0.8246541
554.90 0.8642464
555.00 0.8906915
555.10 0.9057599
555.20 0.9197396
555.30 0.9228678
555.40 0.8997333
555.50 0.8997333
555.60 0.8997333
555.70 0.8997333
555.80 0.8997333
555.90 0.8997333
556.00 0.8997333
556.10 0.8997333
556.20 0.8997333
556.30 0.8874224
556.40 0.8605235
556.50 0.9132175
556.60 1.018267
556.70 1.129959
556.80 1.235597
556.90 1.332252
557.00 1.415207
557.10 1.477326
557.20 1.517818
557.30 1.541109
557.40 1.554498
557.50 1.567054
557.60 1.590904
557.70 1.641989
557.80 1.710086
557.90 1.800364
558.00 1.920179
558.10 2.072226
558.20 2.253002
558.30 2.433869
558.40 2.598581
558.50 2.737669
558.60 2.843239
558.70 2.910923
558.80 2.942764
558.90 2.946581
559.00 2.927465
559.10 2.885399
559.20 2.833278
559.30 2.793771
559.40 2.793771
559.50 2.793771
559.60 2.793771
559.70 2.804016
559.80 2.831487
559.90 2.873164
560.00 2.933644
560.10 3.023998
560.20 3.150438
560.30 3.312181
560.40 3.504009
560.50 3.637238
560.60 3.73409
560.70 3.8222
560.80 3.889996
560.90 3.918487
561.00 3.898543
561.10 3.832439
561.20 3.753447
561.30 3.679662
561.40 3.612012
561.50 3.550787
561.60 3.494242
561.70 3.437117
561.80 3.369021
561.90 3.278743
562.00 3.158928
562.10 3.006881
562.20 2.866771
562.30 2.771418
562.40 2.72573
562.50 2.722555
562.60 2.746517
562.70 2.779777
562.80 2.803502
562.90 2.803935
563.00 2.779696
563.10 2.775659
563.20 2.775659
563.30 2.775659
563.40 2.778322
563.50 2.806274
563.60 2.85671
563.70 2.912044
563.80 2.954164
563.90 2.977377
564.00 2.974023
564.10 2.934111
564.20 2.85328
564.30 2.731044
564.40 2.569352
564.50 2.374916
564.60 2.160155
564.70 1.954254
564.80 1.780819
564.90 1.655674
565.00 1.586384
565.10 1.56859
565.20 1.56859
565.30 1.56859
565.40 1.56859
565.50 1.56859
565.60 1.56859
565.70 1.56859
565.80 1.56859
565.90 1.582224
566.00 1.628129
566.10 1.701308
566.20 1.755251
566.30 1.754506
566.40 1.692127
566.50 1.577935
566.60 1.438741
566.70 1.311426
566.80 1.235331
566.90 1.241151
567.00 1.337773
567.10 1.477925
567.20 1.65372
567.30 1.854169
567.40 2.058198
567.50 2.220409
567.60 2.323989
567.70 2.365566
567.80 2.35582
567.90 2.308508
568.00 2.251382
568.10 2.200939
568.20 2.155331
568.30 2.115824
568.40 2.085688
568.50 2.067619
568.60 2.063741
568.70 2.063741
568.80 2.063741
568.90 2.063741
569.00 2.063741
569.10 2.07503
569.20 2.091386
569.30 2.096895
569.40 2.096895
569.50 2.096895
569.60 2.096895
569.70 2.096895
569.80 2.096895
569.90 2.083261
570.00 2.037356
570.10 1.964177
570.20 1.869568
570.30 1.76585
570.40 1.668489
570.50 1.589525
570.60 1.532433
570.70 1.49085
570.80 1.448826
570.90 1.393059
571.00 1.315391
571.10 1.208372
571.20 1.073599
571.30 0.9213001
571.40 0.7691533
571.50 0.6397909
571.60 0.5512314
571.70 0.5093454
571.80 0.5092144
571.90 0.5396934
572.00 0.5689873
572.10 0.5747923
572.20 0.5747923
572.30 0.5747923
572.40 0.5747923
572.50 0.5747923
572.60 0.5747923
572.70 0.5747923
572.80 0.5747923
572.90 0.5747923
573.00 0.5747923
573.10 0.5635036
573.20 0.5471472
573.30 0.5416381
573.40 0.5416381
573.50 0.5416381
573.60 0.5416381
573.70 0.5416381
573.80 0.5424328
573.90 0.5754601
574.00 0.627583
574.10 0.6831707
574.20 0.7315706
574.30 0.7710966
574.40 0.8037471
574.50 0.8310773
574.60 0.8536058
574.70 0.8702361
574.80 0.8764253
574.90 0.868524
575.00 0.846034
575.10 0.8129015
575.20 0.7718793
575.30 0.7237291
575.40 0.6691844
575.50 0.6083832
575.60 0.5429264
575.70 0.4776569
575.80 0.4179431
575.90 0.3827298
576.00 0.3951829
576.10 0.4501356
576.20 0.5160703
576.30 0.5729615
576.40 0.6096191
576.50 0.618204
576.60 0.618204
576.70 0.618204
576.80 0.618204
576.90 0.618204
577.00 0.618204
577.10 0.618204
577.20 0.618204
577.30 0.6420107
577.40 0.7052901
577.50 0.8049737
577.60 0.9341563
577.70 1.082878
577.80 1.239079
577.90 1.362735
578.00 1.460776
578.10 1.543469
578.20 1.618345
578.30 1.684973
578.40 1.740525
578.50 1.78447
578.60 1.817822
578.70 1.841129
578.80 1.851091
578.90 1.851091
579.00 1.851091
579.10 1.851091
579.20 1.851091
579.30 1.851091
579.40 1.851091
579.50 1.851091
579.60 1.851091
579.70 1.851091
579.80 1.851091
579.90 1.865181
580.00 1.861307
580.10 1.818745
580.20 1.75281
580.30 1.695919
580.40 1.659261
580.50 1.650677
580.60 1.650677
580.70 1.650677
580.80 1.650677
580.90 1.650677
581.00 1.655966
581.10 1.683757
581.20 1.721437
581.30 1.734048
581.40 1.697311
581.50 1.606163
581.60 1.47698
581.70 1.328259
581.80 1.171262
581.90 1.014579
582.00 0.8644159
582.10 0.726135
582.20 0.6028586
582.30 0.5008042
582.40 0.4366979
582.50 0.3964336
582.60 0.3638784
582.70 0.3245068
582.80 0.3083552
582.90 0.3083552
583.00 0.3083552
583.10 0.3083552
583.20 0.3083552
583.30 0.3083552
583.40 0.3083552
583.50 0.3083552
583.60 0.3083552
583.70 0.3083552
583.80 0.3108269
583.90 0.3146864
584.00 0.3253278
584.10 0.3639782
584.20 0.4258124
584.30 0.4922699
584.40 0.5644152
584.50 0.6470031
584.60 0.7438217
584.70 0.851638
584.80 0.9638891
584.90 1.073687
585.00 1.167729
585.10 1.220776
585.20 1.240417
585.30 1.235432
585.40 1.214264
585.50 1.205729
585.60 1.205729
585.70 1.205729
585.80 1.205729
585.90 1.205729
586.00 1.205729
586.10 1.222677
586.20 1.289456
586.30 1.395826
586.40 1.50638
586.50 1.605392
586.60 1.677106
586.70 1.709538
586.80 1.709538
586.90 1.709538
587.00 1.709538
587.10 1.709538
587.20 1.709538
587.30 1.709538
587.40 1.709538
587.50 1.709538
587.60 1.709538
587.70 1.709538
587.80 1.707066
587.90 1.676273
588.00 1.627759
588.10 1.570913
588.20 1.509078
588.30 1.488504
588.40 1.547139
588.50 1.641952
588.60 1.737272
588.70 1.802734
588.80 1.802961
588.90 1.708707
589.00 1.609376
589.10 1.528538
589.20 1.471217
589.30 1.439785
589.40 1.43441
589.50 1.43441
589.60 1.43441
589.70 1.43441
589.80 1.43441
589.90 1.43441
590.00 1.43441
590.10 1.417462
590.20 1.350683
590.30 1.240213
590.40 1.105564
590.50 0.9951761
590.60 0.9433516
590.70 0.9665098
590.80 1.019564
590.90 1.044916
591.00 1.044916
591.10 1.044916
591.20 1.044916
591.30 1.044916
591.40 1.044916
591.50 1.044916
591.60 1.044916
591.70 1.044916
591.80 1.044916
591.90 1.044916
592.00 1.084495
592.10 1.140978
592.20 1.186949
592.30 1.160131
592.40 1.029351
592.50 0.8519499
592.60 0.6598116
592.70 0.4865328
592.80 0.3740551
592.90 0.3585103
593.00 0.3585103
593.10 0.3585103
593.20 0.3585103
593.30 0.3585103
593.40 0.3585103
593.50 0.3585103
593.60 0.3585103
593.70 0.3585103
593.80 0.3860319
593.90 0.4463771
594.00 0.5313161
594.10 0.6232333
594.20 0.6979142
594.30 0.7341462
594.40 0.7341462
594.50 0.7145107
594.60 0.671296
594.70 0.6151402
594.80 0.5620862
594.90 0.5367341
595.00 0.5367341
595.10 0.5367341
595.20 0.5367341
595.30 0.5367341
595.40 0.5367341
595.50 0.5367341
595.60 0.5367341
595.70 0.5367341
595.80 0.5367341
595.90 0.5367341
596.00 0.4971549
596.10 0.4406721
596.20 0.3947005
596.30 0.3756359
596.40 0.3756359
596.50 0.3756359
596.60 0.3756359
596.70 0.3756359
596.80 0.3756359
596.90 0.3756359
597.00 0.3756359
597.10 0.3756359
597.20 0.3756359
597.30 0.3756359
597.40 0.3756359
597.50 0.3756359
597.60 0.3756359
597.70 0.3756359
597.80 0.3481143
597.90 0.2877691
598.00 0.2028301
598.10 0.110913
598.20 0.03623203
598.30 0
598.40 0
598.50 0
598.60 0
598.70 0.01382638
598.80 0.0745816
598.90 0.1621829
599.00 0.2509276
599.10 0.3167574
599.20 0.3436809
599.30 0.3436809
599.40 0.3436809
599.50 0.3436809
599.60 0.3436809
599.70 0.3436809
599.80 0.3436809
599.90 0.3472111
600.00 0
600.10 0
600.20 0
600.30 0
600.40 0
600.50 0
600.60 0
600.70 0.5530553
600.80 2.430209
600.90 3.504051
601.00 3.549789
601.10 2.633193
601.20 1.076938
601.30 0
601.40 0
601.50 0
601.60 0
601.70 0
601.80 0
601.90 0.1412083
602.00 1.307672
602.10 1.35784
602.20 0
602.30 0
602.40 0
602.50 0
602.60 0
602.70 0
602.80 0
602.90 0
603.00 0
603.10 0
603.20 0
603.30 0
603.40 0
603.50 0
603.60 1.211964
603.70 2.178758
603.80 2.705214
603.90 3.053734
604.00 3.227976
604.10 3.280767
604.20 3.242997
604.30 3.020042
604.40 2.530307
604.50 1.673664
604.60 0.2615016
604.70 0
604.80 0
604.90 0
605.00 0
605.10 0
605.20 0
605.30 0
605.40 0
605.50 0
605.60 0
605.70 0
605.80 0
605.90 0
606.00 0
606.10 0.7939461
606.20 2.847987
606.30 4.524505
606.40 5.661153
606.50 6.046127
606.60 5.907356
606.70 5.717423
606.80 5.650966
606.90 5.592297
607.00 5.463368
607.10 5.290654
607.20 5.087735
607.30 4.875612
607.40 4.706323
607.50 4.405041
607.60 3.719307
607.70 2.609484
607.80 1.249727
607.90 0
608.00 0
608.10 0
608.20 0
608.30 0
608.40 0
608.50 0
608.60 0
608.70 0.3182044
608.80 0.8372394
608.90 1.082544
609.00 1.208902
609.10 1.050438
609.20 0.2298648
609.30 0
609.40 0
609.50 0
609.60 0
609.70 0
609.80 0
609.90 0
610.00 0
610.10 0
610.20 0
610.30 0
610.40 0
610.50 0
610.60 0
610.70 0
610.80 0
610.90 0
611.00 0
611.10 0
611.20 0
611.30 0
611.40 0
611.50 0
611.60 0
611.70 0
611.80 0
611.90 0
612.00 0.1548343
612.10 1.330653
612.20 2.168927
612.30 2.52029
612.40 2.413872
612.50 1.848286
612.60 0.862588
612.70 0
612.80 0
612.90 0
613.00 0
613.10 0
613.20 0
613.30 0
613.40 2.005717
613.50 3.983042
613.60 5.439542
613.70 6.149675
613.80 6.074955
613.90 5.427995
614.00 4.511569
614.10 3.566361
614.20 2.797111
614.30 2.32236
614.40 2.071833
614.50 1.847011
614.60 1.428847
614.70 0.681935
614.80 0
614.90 0
615.00 0
615.10 0
615.20 0
615.30 0.8011753
615.40 2.680706
615.50 4.364777
615.60 5.724855
615.70 6.51941
615.80 6.518262
615.90 5.783145
616.00 4.681318
616.10 3.683418
616.20 3.138279
616.30 3.173093
616.40 3.533408
616.50 3.823709
616.60 3.883761
616.70 3.931063
616.80 4.088953
616.90 4.149247
617.00 3.937357
617.10 3.4254
617.20 2.747464
617.30 2.130271
617.40 1.859362
617.50 2.124637
617.60 2.935996
617.70 4.075265
617.80 5.204989
617.90 6.048658
618.00 6.38678
618.10 6.258936
618.20 5.993338
618.30 5.797573
618.40 5.645291
618.50 5.533597
618.60 5.516482
618.70 5.468253
618.80 5.12653
618.90 4.370403
619.00 3.298404
619.10 2.149869
619.20 1.195133
619.30 0.612707
619.40 0.4466112
619.50 0.5024298
619.60 0.4704462
619.70 0.256306
619.80 0
619.90 0
620.00 0
620.10 0
620.20 0
620.30 0
620.40 0
620.50 0
620.60 0
620.70 0
620.80 0.08062608
620.90 3.097634
621.00 5.44828
621.10 6.566824
621.20 6.292715
621.30 5.000408
621.40 3.402192
621.50 2.053545
621.60 1.160643
621.70 0.7309328
621.80 0.5679758
621.90 0.5145463
622.00 0.4850862
622.10 0.3245158
622.20 0
622.30 0
622.40 0
622.50 0
622.60 0
622.70 0.5494385
622.80 1.230791
622.90 1.791543
623.00 2.297566
623.10 2.828717
623.20 3.344971
623.30 3.772352
623.40 4.271653
623.50 5.037382
623.60 5.955293
623.70 6.800265
623.80 7.347581
623.90 7.454861
624.00 7.117454
624.10 6.531896
624.20 5.946101
624.30 5.506325
624.40 5.212346
624.50 5.103279
624.60 5.206454
624.70 5.467896
624.80 5.628877
624.90 5.380246
625.00 4.726273
625.10 3.854073
625.20 3.035018
625.30 2.428256
625.40 1.995906
625.50 1.565851
625.60 1.131004
625.70 0.8822892
625.80 0.9522555
625.90 1.291428
626.00 1.860843
626.10 2.604508
626.20 3.379277
626.30 4.150479
626.40 4.913528
626.50 5.605554
626.60 6.097781
626.70 6.30557
626.80 6.328144
626.90 6.171246
627.00 5.573777
627.10 4.335671
627.20 2.571432
627.30 0.6216513
627.40 0
627.50 0
627.60 0
627.70 0
627.80 0
627.90 0.7170056
628.00 2.868683
628.10 4.443879
628.20 4.958956
628.30 4.396165
628.40 3.060908
628.50 1.375894
628.60 0
628.70 0
628.80 0
628.90 0
629.00 0
629.10 0
629.20 0
629.30 0.5791715
629.40 2.187825
629.50 3.198601
629.60 2.674784
629.70 0
629.80 0
629.90 0
630.00 0
630.10 0
630.20 0
630.30 0
630.40 0
630.50 0
630.60 0.6973088
630.70 6.280829
630.80 9.421027
630.90 10.07536
631.00 9.050565
631.10 7.593757
631.20 6.611286
631.30 6.392596
631.40 6.714789
631.50 7.211959
631.60 7.652734
631.70 7.844658
631.80 7.731053
631.90 7.529627
632.00 7.527022
632.10 7.815392
632.20 8.360718
632.30 9.105959
632.40 10.00333
632.50 10.80297
632.60 10.93478
632.70 10.09258
632.80 8.523634
632.90 6.615676
633.00 4.645957
633.10 2.953307
633.20 1.840328
633.30 1.426301
633.40 1.527141
633.50 1.930627
633.60 2.589184
633.70 3.465713
633.80 4.391015
633.90 5.230434
634.00 5.965248
634.10 6.496705
634.20 6.75026
634.30 6.671528
634.40 6.357527
634.50 6.041174
634.60 5.94786
634.70 6.334203
634.80 7.459132
634.90 9.219205
635.00 11.14103
635.10 12.63221
635.20 13.23206
635.30 12.8049
635.40 11.56796
635.50 9.883797
635.60 8.187637
635.70 6.964976
635.80 6.432013
635.90 6.585339
636.00 7.135662
636.10 7.422431
636.20 6.992191
636.30 5.91628
636.40 4.499274
636.50 3.10511
636.60 2.066672
636.70 1.615514
636.80 1.707316
636.90 2.155044
637.00 2.685392
637.10 3.011254
637.20 3.030157
637.30 2.68863
637.40 2.236993
637.50 2.121332
637.60 2.504189
637.70 3.285457
637.80 4.393488
637.90 5.721149
638.00 6.985677
638.10 7.892495
638.20 8.453439
638.30 8.755738
638.40 8.6512
638.50 8.035461
638.60 7.01415
638.70 5.87257
638.80 4.870246
638.90 4.279848
639.00 4.281374
639.10 4.852781
639.20 5.74979
639.30 6.666607
639.40 7.551644
639.50 8.448704
639.60 9.36159
639.70 10.26309
639.80 11.09813
639.90 11.80764
640.00 12.32631
640.10 12.61163
640.20 12.65639
640.30 12.45655
640.40 12.01469
640.50 11.40121
640.60 10.75208
640.70 10.13388
640.80 9.493632
640.90 8.731364
641.00 7.765219
641.10 6.730279
641.20 5.929881
641.30 5.595184
641.40 5.871537
641.50 6.686852
641.60 7.851251
641.70 9.255414
641.80 10.79646
641.90 12.14839
642.00 12.94655
642.10 13.19468
642.20 13.06106
642.30 12.71685
642.40 12.3245
642.50 11.99568
642.60 11.85353
642.70 11.94306
642.80 12.15174
642.90 12.42921
643.00 12.72251
643.10 12.84648
643.20 12.66414
643.30 12.24844
643.40 11.70873
643.50 11.01792
643.60 10.17104
643.70 9.283066
643.80 8.540468
643.90 8.0647
644.00 7.885491
644.10 8.032016
644.20 8.561439
644.30 9.441633
644.40 10.57451
644.50 11.78645
644.60 12.80202
644.70 13.44499
644.80 13.77459
644.90 13.73942
645.00 13.25853
645.10 12.51592
645.20 11.73251
645.30 11.07134
645.40 10.66549
645.50 10.61871
645.60 10.9128
645.70 11.42116
645.80 11.98962
645.90 12.63618
646.00 13.49129
646.10 14.29156
646.20 14.4965
646.30 13.97917
646.40 13.02257
646.50 11.9697
646.60 11.15746
646.70 10.81353
646.80 10.97759
646.90 11.423
647.00 11.73241
647.10 11.6928
647.20 11.31023
647.30 10.40118
647.40 8.867135
647.50 7.166459
647.60 5.9426
647.70 5.573275
647.80 6.10507
647.90 7.2801
648.00 8.687884
648.10 9.982636
648.20 10.98778
648.30 11.66184
648.40 12.15567
648.50 12.56761
648.60 12.98283
648.70 13.6363
648.80 14.56814
648.90 15.64258
649.00 16.70771
649.10 17.60454
649.20 18.24631
649.30 18.65368
649.40 18.8203
649.50 18.77826
649.60 18.647
649.70 18.57144
649.80 18.60491
649.90 18.69949
650.00 18.65197
650.10 18.29172
650.20 17.65982
650.30 16.81227
650.40 15.85809
650.50 15.00763
650.60 14.45967
650.70 14.23834
650.80 14.33098
650.90 14.68109
651.00 15.06729
651.10 15.29636
651.20 15.3856
651.30 15.41797
651.40 15.49291
651.50 15.72721
651.60 16.20339
651.70 16.98989
651.80 18.00499
651.90 19.01265
652.00 19.77248
652.10 20.1538
652.20 20.12457
652.30 19.7069
652.40 19.05413
652.50 18.346
652.60 17.69036
652.70 17.10205
652.80 16.47035
652.90 15.6031
653.00 14.3558
653.10 12.71099
653.20 10.92104
653.30 9.429181
653.40 8.550478
653.50 8.399862
653.60 8.943006
653.70 10.02444
653.80 11.33208
653.90 12.53564
654.00 13.28481
654.10 13.45168
654.20 13.25313
654.30 12.97442
654.40 12.84431
654.50 13.13221
654.60 13.96716
654.70 15.22924
654.80 16.78594
654.90 18.51934
655.00 20.1674
655.10 21.31846
655.20 21.71331
655.30 21.35612
655.40 20.46979
655.50 19.23803
655.60 17.8089
655.70 16.52946
655.80 15.82296
655.90 15.85868
656.00 16.57816
656.10 17.79776
656.20 19.11403
656.30 20.24719
656.40 21.16433
656.50 21.88455
656.60 22.39111
656.70 22.58204
656.80 22.37347
656.90 21.7186
657.00 20.63674
657.10 19.21332
657.20 17.60329
657.30 16.09135
657.40 14.84701
657.50 14.03282
657.60 13.98762
657.70 14.75186
657.80 16.07738
657.90 17.7435
658.00 19.56719
658.10 21.32282
658.20 22.72389
658.30 23.64035
658.40 24.0883
658.50 24.1382
658.60 23.91583
658.70 23.42316
658.80 22.73146
658.90 22.0483
659.00 21.46855
659.10 21.01842
659.20 20.69572
659.30 20.50355
659.40 20.43873
659.50 20.51961
659.60 20.81864
659.70 21.37932
659.80 22.14851
659.90 22.89158
660.00 23.34744
660.10 23.59985
660.20 23.86426
660.30 24.12818
660.40 24.21513
660.50 23.9978
660.60 23.57384
660.70 23.14033
660.80 22.84941
660.90 22.77471
661.00 22.92408
661.10 23.29871
661.20 23.81729
661.30 24.35931
661.40 24.80591
661.50 24.95917
661.60 24.72496
661.70 24.19311
661.80 23.59172
661.90 23.15094
662.00 22.96821
662.10 23.11562
662.20 23.64098
662.30 24.57798
662.40 25.91415
662.50 27.45239
662.60 28.89298
662.70 30.01815
662.80 30.62373
662.90 30.518
663.00 29.60488
663.10 27.97308
663.20 25.95369
663.30 23.97305
663.40 22.48955
663.50 21.81624
663.60 21.90104
663.70 22.43238
663.80 23.12158
663.90 23.82606
664.00 24.42622
664.10 24.78712
664.20 24.94535
664.30 25.03678
664.40 25.20128
664.50 25.47011
664.60 25.73103
664.70 25.92055
664.80 25.8637
664.90 25.23204
665.00 23.9709
665.10 22.45328
665.20 21.10269
665.30 20.17693
665.40 19.80333
665.50 20.02134
665.60 20.70214
665.70 21.5478
665.80 22.28608
665.90 22.8475
666.00 23.29639
666.10 23.64926
666.20 23.97033
666.30 24.49
666.40 25.41838
666.50 26.61494
666.60 27.72536
666.70 28.46912
666.80 28.77715
666.90 28.75091
667.00 28.57139
667.10 28.48369
667.20 28.66189
667.30 29.02849
667.40 29.42374
667.50 29.84295
667.60 30.29012
667.70 30.65711
667.80 30.79196
667.90 30.72206
668.00 30.57904
668.10 30.51599
668.20 30.67718
668.30 31.04909
668.40 31.43824
668.50 31.65222
668.60 31.59882
668.70 31.3509
668.80 30.88699
668.90 30.03424
669.00 28.87412
669.10 27.72643
669.20 26.90315
669.30 26.41043
669.40 26.12514
669.50 25.99138
669.60 25.93301
669.70 25.89897
669.80 25.89597
669.90 25.91444
670.00 25.95564
670.10 26.02774
670.20 26.19309
670.30 26.40731
670.40 26.42482
670.50 26.04855
670.60 25.26269
670.70 24.30081
670.80 23.37943
670.90 22.59477
671.00 22.13608
671.10 22.2311
671.20 23.00105
671.30 24.39086
671.40 26.19648
671.50 28.13091
671.60 29.90733
671.70 31.37511
671.80 32.44302
671.90 33.04994
672.00 33.18604
672.10 32.93121
672.20 32.53201
672.30 32.22602
672.40 32.07874
672.50 32.05544
672.60 32.10208
672.70 32.18691
672.80 32.28055
672.90 32.36628
673.00 32.41194
673.10 32.40564
673.20 32.42098
673.30 32.45276
673.40 32.4264
673.50 32.30775
673.60 32.10957
673.70 31.85724
673.80 31.49208
673.90 31.00043
674.00 30.55493
674.10 30.41132
674.20 30.80975
674.30 31.81509
674.40 33.13781
674.50 34.34551
674.60 35.14909
674.70 35.45021
674.80 35.28543
674.90 34.71548
675.00 33.90034
675.10 33.1694
675.20 32.98497
675.30 33.60681
675.40 34.91744
675.50 36.62236
675.60 38.30962
675.70 39.56049
675.80 40.22886
675.90 40.3766
676.00 40.0563
676.10 39.37317
676.20 38.56829
676.30 37.9914
676.40 37.83589
676.50 38.02339
676.60 38.32519
676.70 38.60198
676.80 38.8882
676.90 39.17379
677.00 39.35822
677.10 39.39655
677.20 39.37956
677.30 39.49258
677.40 39.87547
677.50 40.50418
677.60 41.20012
677.70 41.58922
677.80 41.37704
677.90 40.60132
678.00 39.48486
678.10 38.27439
678.20 37.14758
678.30 36.28805
678.40 35.89731
678.50 36.06569
678.60 36.59562
678.70 37.10472
678.80 37.27058
678.90 36.95698
679.00 36.19968
679.10 35.2417
679.20 34.39989
679.30 33.77973
679.40 33.37006
679.50 33.14021
679.60 33.06394
679.70 33.07395
679.80 33.05024
679.90 32.92394
680.00 32.81267
680.10 32.86667
680.20 33.13881
680.30 33.58723
680.40 34.05638
680.50 34.41651
680.60 34.59118
680.70 34.64119
680.80 34.7309
680.90 35.07149
681.00 35.86449
681.10 37.10741
681.20 38.60525
681.30 40.06916
681.40 41.20553
681.50 41.81466
681.60 41.88036
681.70 41.51115
681.80 40.84658
681.90 40.0737
682.00 39.39016
682.10 38.94457
682.20 38.82566
682.30 38.89056
682.40 38.8214
682.50 38.43281
682.60 37.73648
682.70 36.93738
682.80 36.18718
682.90 35.43118
683.00 34.51444
683.10 33.45955
683.20 32.54425
683.30 31.92336
683.40 31.59412
683.50 31.55412
683.60 31.72199
683.70 31.96483
683.80 32.1375
683.90 32.21187
684.00 32.2708
684.10 32.31661
684.20 32.37539
684.30 32.54537
684.40 32.93665
684.50 33.49473
684.60 34.05401
684.70 34.51691
684.80 34.79808
684.90 34.77097
685.00 34.30155
685.10 33.46819
685.20 32.54931
685.30 31.74199
685.40 31.07281
685.50 30.48404
685.60 29.97618
685.70 29.63049
685.80 29.48626
685.90 29.46138
686.00 29.18017
686.10 28.2103
686.20 26.52234
686.30 24.46492
686.40 22.55597
686.50 21.21057
686.60 20.72252
686.70 21.26352
686.80 22.8466
686.90 25.29415
687.00 28.14979
687.10 30.83483
687.20 32.78999
687.30 33.65691
687.40 33.51143
687.50 32.6529
687.60 31.32647
687.70 29.67644
687.80 27.90572
687.90 26.39358
688.00 25.38923
688.10 24.985
688.20 25.14254
688.30 25.76099
688.40 26.72374
688.50 27.76264
688.60 28.59424
688.70 29.05973
688.80 29.26306
688.90 29.5936
689.00 30.33203
689.10 31.51558
689.20 32.94915
689.30 34.18324
689.40 34.87171
689.50 34.93405
689.60 34.42798
689.70 33.46466
689.80 32.32403
689.90 31.47992
690.00 31.31303
690.10 31.91601
690.20 32.99338
690.30 33.97876
690.40 34.44017
690.50 34.20019
690.60 33.25092
690.70 31.83161
690.80 30.2729
690.90 28.71971
691.00 27.29741
691.10 26.19407
691.20 25.47764
691.30 25.0932
691.40 24.95181
691.50 25.04036
691.60 25.47841
691.70 26.45486
691.80 27.9213
691.90 29.5179
692.00 30.87526
692.10 31.70299
692.20 31.83578
692.30 31.36707
692.40 30.56479
692.50 29.6543
692.60 28.82627
692.70 28.25328
692.80 28.08915
692.90 28.43114
693.00 29.18731
693.10 30.034
693.20 30.64289
693.30 30.93802
693.40 31.01397
693.50 30.95554
693.60 30.71891
693.70 30.26148
693.80 29.74601
693.90 29.43008
694.00 29.49624
694.10 30.08176
694.20 31.14333
694.30 32.36255
694.40 33.35361
694.50 33.80014
694.60 33.52692
694.70 32.5526
694.80 31.17238
694.90 29.8793
695.00 29.13844
695.10 29.17824
695.20 29.8904
695.30 31.04557
695.40 32.42803
695.50 33.71159
695.60 34.60118
695.70 35.01973
695.80 34.98345
695.90 34.62284
696.00 34.21262
696.10 34.02472
696.20 34.13816
696.30 34.40004
696.40 34.67499
696.50 34.8921
696.60 35.00261
696.70 35.01074
696.80 34.87561
696.90 34.58693
697.00 34.19155
697.10 33.653
697.20 32.92757
697.30 32.05803
697.40 31.13404
697.50 30.28602
697.60 29.57636
697.70 29.06613
697.80 28.86739
697.90 29.07599
698.00 29.69747
698.10 30.55323
698.20 31.41862
698.30 32.09093
698.40 32.51525
698.50 32.80964
698.60 33.11937
698.70 33.5142
698.80 33.97733
698.90 34.41665
699.00 34.76605
699.10 34.9926
699.20 35.04031
699.30 34.91254
699.40 34.65198
699.50 34.33969
699.60 34.19491
699.70 34.50291
699.80 35.33336
699.90 36.52803
700.00 37.82051
700.10 38.91739
700.20 39.58645
700.30 39.65775
700.40 39.07699
700.50 37.95153
700.60 36.52764
700.70 35.18165
700.80 34.23245
700.90 33.84766
701.00 33.98256
701.10 34.42997
701.20 35.03479
701.30 35.70985
701.40 36.40731
701.50 37.07656
701.60 37.66285
701.70 38.22445
701.80 38.80023
701.90 39.3086
702.00 39.64743
702.10 39.60345
702.20 39.04567
702.30 38.17255
702.40 37.33506
702.50 36.82207
702.60 36.83253
702.70 37.47483
702.80 38.70647
702.90 40.42715
703.00 42.4947
703.10 44.52209
703.20 46.10742
703.30 47.07651
703.40 47.43453
703.50 47.3598
703.60 47.04806
703.70 46.52688
703.80 45.81482
703.90 45.05981
704.00 44.37378
704.10 43.70227
704.20 43.02774
704.30 42.46916
704.40 42.15866
704.50 42.21377
704.60 42.65169
704.70 43.37185
704.80 44.17798
704.90 44.78684
705.00 45.00351
705.10 44.85128
705.20 44.45775
705.30 43.95956
705.40 43.52836
705.50 43.23247
705.60 42.88714
705.70 42.33963
705.80 41.62297
705.90 40.83823
706.00 40.14315
706.10 39.71856
706.20 39.641
706.30 39.9559
706.40 40.73873
706.50 41.99336
706.60 43.5479
706.70 45.06921
706.80 46.19021
706.90 46.80444
707.00 47.15662
707.10 47.36445
707.20 47.33219
707.30 47.05717
707.40 46.65195
707.50 46.24304
707.60 45.97984
707.70 45.99028
707.80 46.32069
707.90 46.90607
708.00 47.61463
708.10 48.34832
708.20 48.98518
708.30 49.44635
708.40 49.70697
708.50 49.72686
708.60 49.51635
708.70 49.12502
708.80 48.60946
708.90 48.06797
709.00 47.64495
709.10 47.44855
709.20 47.48747
709.30 47.68054
709.40 47.94427
709.50 48.20673
709.60 48.44308
709.70 48.59985
709.80 48.56911
709.90 48.31778
710.00 47.87965
710.10 47.34327
710.20 46.80843
710.30 46.40414
710.40 46.30434
710.50 46.66311
710.60 47.50378
710.70 48.67884
710.80 49.9417
710.90 51.00639
711.00 51.61359
711.10 51.62895
711.20 51.04641
711.30 49.97811
711.40 48.7141
711.50 47.60414
711.60 46.94169
711.70 46.93722
711.80 47.7409
711.90 49.3138
712.00 51.38556
712.10 53.55415
712.20 55.35676
712.30 56.4241
712.40 56.64394
712.50 56.10054
712.60 54.94633
712.70 53.46173
712.80 51.96783
712.90 50.75106
713.00 50.0524
713.10 49.82871
713.20 49.79287
713.30 49.69536
713.40 49.41328
713.50 49.01223
713.60 48.64399
713.70 48.49428
713.80 48.62468
713.90 48.99117
714.00 49.53527
714.10 50.07876
714.20 50.44825
714.30 50.54562
714.40 50.37863
714.50 50.12995
714.60 49.96483
714.70 49.91719
714.80 49.98643
714.90 50.15983
715.00 50.43105
715.10 50.71017
715.20 51.06975
715.30 51.67784
715.40 52.52961
715.50 53.57225
715.60 54.64582
715.70 55.54702
715.80 56.09381
715.90 56.14649
716.00 55.69546
716.10 54.91047
716.20 54.10751
716.30 53.57526
716.40 53.50831
716.50 53.99435
716.60 54.78989
716.70 55.47767
716.80 55.84936
716.90 55.8664
717.00 55.58972
717.10 55.0951
717.20 54.52366
717.30 54.08661
717.40 53.90301
717.50 54.02226
717.60 54.44853
717.70 55.10511
717.80 55.883
717.90 56.6096
718.00 56.97958
718.10 56.78392
718.20 56.07268
718.30 55.03171
718.40 53.91013
718.50 52.97414
718.60 52.29314
718.70 51.71843
718.80 51.18499
718.90 50.75464
719.00 50.55023
719.10 50.6543
719.20 51.01495
719.30 51.59707
719.40 52.45368
719.50 53.53125
719.60 54.55359
719.70 55.18016
719.80 55.11683
719.90 54.25768
720.00 52.77543
720.10 51.15393
720.20 49.94988
720.30 49.60619
720.40 50.28181
720.50 51.76092
720.60 53.66971
720.70 55.57366
720.80 57.14169
720.90 58.18905
721.00 58.63166
721.10 58.47762
721.20 57.83908
721.30 56.92755
721.40 56.01326
721.50 55.35205
721.60 55.07318
721.70 55.0944
721.80 55.25465
721.90 55.49694
722.00 55.8191
722.10 56.28948
722.20 57.07236
722.30 58.18919
722.40 59.43202
722.50 60.66459
722.60 61.8818
722.70 63.0384
722.80 63.97953
722.90 64.47185
723.00 64.39109
723.10 63.79098
723.20 62.86688
723.30 61.90095
723.40 61.2166
723.50 60.86695
723.60 60.39131
723.70 59.34537
723.80 57.82537
723.90 56.03011
724.00 53.8198
724.10 50.93287
724.20 47.41066
724.30 43.87081
724.40 41.17616
724.50 39.927
724.60 40.33235
724.70 42.34076
724.80 45.49958
724.90 49.22834
725.00 53.16993
725.10 57.04599
725.20 60.3519
725.30 62.5027
725.40 63.42971
725.50 63.70864
725.60 63.94072
725.70 64.10024
725.80 63.83522
725.90 62.97349
726.00 61.63454
726.10 60.10639
726.20 58.85331
726.30 58.27518
726.40 58.46785
726.50 59.32779
726.60 60.63334
726.70 62.11201
726.80 63.38277
726.90 63.9612
727.00 63.58171
727.10 62.23826
727.20 60.06494
727.30 57.28421
727.40 54.24745
727.50 51.61915
727.60 50.06929
727.70 49.94973
727.80 51.31047
727.90 53.84873
728.00 56.79907
728.10 59.20185
728.20 60.47425
728.30 60.48837
728.40 59.38739
728.50 57.63241
728.60 55.83738
728.70 54.71481
728.80 54.7817
728.90 55.95814
729.00 57.81342
729.10 59.94295
729.20 62.0409
729.30 63.73448
729.40 64.88361
729.50 65.67701
729.60 66.16792
729.70 66.20894
729.80 65.67748
729.90 64.80362
730.00 63.97997
730.10 63.41562
730.20 63.16124
730.30 63.17432
730.40 63.39528
730.50 63.67555
730.60 63.81282
730.70 63.7499
730.80 63.59171
730.90 63.36758
731.00 63.00035
731.10 62.3337
731.20 61.06156
731.30 58.96336
731.40 56.33707
731.50 53.81943
731.60 52.02472
731.70 51.38194
731.80 51.94827
731.90 53.51961
732.00 55.81105
732.10 58.50183
732.20 61.01784
732.30 62.64533
732.40 62.83763
732.50 61.57152
732.60 59.53155
732.70 57.50202
732.80 55.90524
732.90 54.95907
733.00 54.79365
733.10 55.42431
733.20 56.75606
733.30 58.49808
733.40 60.16076
733.50 61.26705
733.60 61.58715
733.70 61.2484
733.80 60.61994
733.90 60.09267
734.00 59.90893
734.10 59.98856
734.20 60.17948
734.30 60.45342
734.40 60.76074
734.50 61.06641
734.60 61.39089
734.70 61.85622
734.80 62.58999
734.90 63.50248
735.00 64.37214
735.10 65.06897
735.20 65.67532
735.30 66.25291
735.40 66.56946
735.50 66.34607
735.60 65.36965
735.70 63.56631
735.80 61.22552
735.90 58.77065
736.00 56.5824
736.10 55.04011
736.20 54.3852
736.30 54.67812
736.40 55.83499
736.50 57.31045
736.60 57.88584
736.70 56.62971
736.80 53.9293
736.90 51.04754
737.00 49.15612
737.10 48.89817
737.20 50.27357
737.30 52.83039
737.40 55.84865
737.50 58.44539
737.60 59.88693
737.70 59.82079
737.80 58.24017
737.90 55.68804
738.00 53.26474
738.10 51.83794
738.20 51.47647
738.30 51.86733
738.40 52.8219
738.50 54.22158
738.60 55.98935
738.70 57.99778
738.80 60.01745
738.90 61.7432
739.00 62.85369
739.10 63.11278
739.20 62.53524
739.30 61.19448
739.40 59.22783
739.50 57.03377
739.60 54.96518
739.70 53.16429
739.80 51.71876
739.90 50.75283
740.00 50.31761
740.10 50.41221
740.20 50.99429
740.30 51.88163
740.40 52.78617
740.50 53.45164
740.60 53.61884
740.70 53.35359
740.80 53.00633
740.90 52.71794
741.00 52.50859
741.10 52.44784
741.20 52.66049
741.30 53.26273
741.40 54.16572
741.50 55.11386
741.60 55.91215
741.70 56.54001
741.80 57.00639
741.90 57.21124
742.00 57.04543
742.10 56.38837
742.20 55.23662
742.30 53.74329
742.40 52.14639
742.50 50.78059
742.60 49.87509
742.70 49.48457
742.80 49.6129
742.90 50.22077
743.00 51.20592
743.10 52.33338
743.20 53.39598
743.30 54.36159
743.40 55.2969
743.50 56.22183
743.60 56.9868
743.70 57.49332
743.80 57.77983
743.90 57.79982
744.00 57.30132
744.10 55.95021
744.20 53.7042
744.30 50.90152
744.40 47.92879
744.50 45.14698
744.60 42.89585
744.70 41.40226
744.80 40.78701
744.90 41.09115
745.00 42.26084
745.10 44.06183
745.20 46.09509
745.30 47.97723
745.40 49.55026
745.50 50.84046
745.60 51.81858
745.70 52.31606
745.80 52.32122
745.90 52.06539
746.00 51.70691
746.10 51.23294
746.20 50.53914
746.30 49.47549
746.40 47.95501
746.50 46.05744
746.60 43.98623
746.70 41.87538
746.80 39.99169
746.90 39.06935
747.00 39.60936
747.10 41.57025
747.20 44.64047
747.30 48.18684
747.40 51.46659
747.50 53.76741
747.60 54.38736
747.70 53.07644
747.80 50.27944
747.90 46.74542
748.00 43.25711
748.10 40.69855
748.20 39.65175
748.30 39.8645
748.40 40.93603
748.50 42.53433
748.60 44.11167
748.70 45.18843
748.80 45.42114
748.90 44.76999
749.00 43.65629
749.10 42.52921
749.20 41.57252
749.30 40.85751
749.40 40.45789
749.50 40.43403
749.60 40.75778
749.70 41.26264
749.80 41.71474
749.90 41.96848
750.00 41.93312
750.10 41.59734
750.20 41.10313
750.30 40.61659
750.40 40.21625
750.50 40.01143
750.60 40.19894
750.70 40.96419
750.80 42.31108
750.90 43.98424
751.00 45.63768
751.10 47.02113
751.20 47.89105
751.30 48.00805
751.40 47.36133
751.50 46.10508
751.60 44.40682
751.70 42.41948
751.80 40.32565
751.90 38.13735
752.00 35.5877
752.10 32.34606
752.20 28.51001
752.30 24.65107
752.40 21.39483
752.50 19.25252
752.60 18.39162
752.70 18.8843
752.80 20.68775
752.90 23.28865
753.00 26.05246
753.10 28.53983
753.20 30.45197
753.30 31.65729
753.40 32.35128
753.50 32.96812
753.60 33.68756
753.70 34.35362
753.80 34.79347
753.90 34.89366
754.00 34.79388
754.10 34.64959
754.20 34.47382
754.30 34.47152
754.40 34.86196
754.50 35.66191
754.60 36.74397
754.70 37.93816
754.80 38.99603
754.90 39.61129
755.00 39.54146
755.10 38.67865
755.20 37.09325
755.30 34.88948
755.40 32.26173
755.50 29.60382
755.60 27.34437
755.70 25.79111
755.80 25.27032
755.90 25.9306
756.00 27.46618
756.10 29.32411
756.20 30.95776
756.30 32.01268
756.40 32.43627
756.50 32.29253
756.60 31.58574
756.70 30.29342
756.80 28.28929
756.90 25.65255
757.00 22.78593
757.10 20.36067
757.20 18.86188
757.30 18.39638
757.40 18.96774
757.50 20.37195
757.60 22.26687
757.70 24.19743
757.80 25.65288
757.90 26.24527
758.00 25.72076
758.10 24.14828
758.20 22.05361
758.30 19.95922
758.40 18.22102
758.50 16.99499
758.60 16.37619
758.70 16.44376
758.80 17.20354
758.90 18.74166
759.00 20.986
759.10 23.48668
759.20 25.43853
759.30 25.98964
759.40 24.71883
759.50 21.86506
759.60 18.24293
759.70 14.68986
759.80 11.71587
759.90 9.955614
760.00 9.841741
760.10 11.13404
760.20 13.37517
760.30 16.16971
760.40 19.09523
760.50 21.70903
760.60 23.7688
760.70 25.27368
760.80 26.28901
760.90 26.62914
761.00 25.76054
761.10 23.52069
761.20 20.49579
761.30 17.08515
761.40 13.59411
761.50 10.78315
761.60 9.253174
761.70 9.081
761.80 9.900664
761.90 11.08869
762.00 11.93811
762.10 11.99519
762.20 11.20229
762.30 9.759701
762.40 7.989721
762.50 6.03821
762.60 3.910064
762.70 1.9033
762.80 0.4884362
762.90 0
763.00 0.03548443
763.10 0.832198
763.20 1.960329
763.30 3.166004
763.40 4.29536
763.50 5.179474
763.60 5.604276
763.70 5.564773
763.80 5.36797
763.90 5.488561
764.00 6.246176
764.10 7.544928
764.20 8.93338
764.30 9.964149
764.40 10.27763
764.50 9.619717
764.60 8.028226
764.70 5.842642
764.80 3.646944
764.90 1.95114
765.00 1.056684
765.10 1.061243
765.20 1.725989
765.30 2.602169
765.40 3.147628
765.50 2.82259
765.60 1.32928
765.70 0
765.80 0
765.90 0
766.00 0
766.10 0
766.20 0
766.30 0
766.40 0
766.50 0
766.60 0
766.70 1.568455
766.80 3.399639
766.90 4.550118
767.00 5.152357
767.10 5.290196
767.20 4.94657
767.30 4.139322
767.40 2.886987
767.50 1.215628
767.60 0
767.70 0
767.80 0
767.90 0
768.00 0
768.10 0
768.20 0
768.30 0
768.40 0.6425776
768.50 2.071386
768.60 2.84411
768.70 2.908914
768.80 2.43192
768.90 1.769629
769.00 1.205017
769.10 0.8432412
769.20 0.7956892
769.30 1.071858
769.40 1.441342
769.50 1.568989
769.60 1.386141
769.70 1.06565
769.80 0.7509288
769.90 0.6039388
770.00 0.7703494
770.10 1.298517
770.20 2.080481
770.30 2.924015
770.40 3.700906
770.50 4.389931
770.60 4.850941
770.70 4.835118
770.80 4.142576
770.90 2.464006
771.00 0
771.10 0
771.20 0
771.30 0
771.40 0
771.50 0
771.60 0
771.70 0
771.80 0
771.90 0
772.00 0
772.10 0
772.20 0.8216785
772.30 5.224373
772.40 7.215769
772.50 7.519183
772.60 6.804066
772.70 5.631609
772.80 4.720114
772.90 4.458114
773.00 4.839238
773.10 5.600375
773.20 6.468099
773.30 7.444383
773.40 8.677939
773.50 10.41164
773.60 12.71652
773.70 15.18988
773.80 17.34089
773.90 18.84921
774.00 19.48127
774.10 19.10053
774.20 17.89886
774.30 16.34366
774.40 14.83817
774.50 13.38281
774.60 11.26311
774.70 7.503478
774.80 1.781963
774.90 0
775.00 0
775.10 0
775.20 0
775.30 0
775.40 0
775.50 0
775.60 6.467763
775.70 14.24516
775.80 19.84188
775.90 22.57434
776.00 23.05059
776.10 22.59929
776.20 22.28579
776.30 22.33143
776.40 22.36482
776.50 22.1635
776.60 21.70641
776.70 21.18355
776.80 20.86836
776.90 20.86785
777.00 21.00277
777.10 20.99301
777.20 20.88792
777.30 20.86145
777.40 20.93885
777.50 21.06181
777.60 21.20666
777.70 21.42274
777.80 21.78638
777.90 22.39362
778.00 23.34415
778.10 24.47736
778.20 25.50531
778.30 26.29309
778.40 26.94724
778.50 27.65341
778.60 28.30886
778.70 28.74502
778.80 28.86717
778.90 28.37929
779.00 26.53348
779.10 22.65567
779.20 16.98651
779.30 10.48285
779.40 4.200943
779.50 0
779.60 0
779.70 0
779.80 0
779.90 2.039375
780.00 7.003662
780.10 11.82959
780.20 15.52716
780.30 17.53222
780.40 18.04484
780.50 17.4666
780.60 16.09941
780.70 14.44623
780.80 13.24312
780.90 13.26663
781.00 14.85028
781.10 17.98443
781.20 22.59554
781.30 28.39015
781.40 34.81586
781.50 40.62983
781.60 44.07451
781.70 43.90852
781.80 40.01481
781.90 33.47535
782.00 26.05621
782.10 19.67173
782.20 15.84971
782.30 15.33926
782.40 18.17502
782.50 23.7232
782.60 30.68057
782.70 37.35207
782.80 42.19316
782.90 44.45068
783.00 44.55507
783.10 43.43558
783.20 41.93413
783.30 40.79532
783.40 40.34424
783.50 40.38619
783.60 40.62466
783.70 40.64283
783.80 39.9259
783.90 38.30655
784.00 36.05329
784.10 33.83115
784.20 32.27143
784.30 31.70554
784.40 32.21817
784.50 33.81969
784.60 36.65878
784.70 40.41026
784.80 44.02379
784.90 46.13494
785.00 45.1821
785.10 40.84581
785.20 34.71373
785.30 28.7049
785.40 24.27508
785.50 22.36143
785.60 23.32534
785.70 26.82744
785.80 32.03872
785.90 38.02483
786.00 43.63494
786.10 47.92942
786.20 50.65289
786.30 52.12354
786.40 53.33983
786.50 54.92646
786.60 56.12052
786.70 56.01552
786.80 54.54716
786.90 52.19664
787.00 49.78383
787.10 48.35029
787.20 48.57895
787.30 50.47646
787.40 53.62259
787.50 57.39851
787.60 61.13332
787.70 64.17269
787.80 66.06424
787.90 66.72063
788.00 66.65907
788.10 66.71769
788.20 67.39102
788.30 68.69557
788.40 70.33149
788.50 71.87245
788.60 72.78805
788.70 72.53691
788.80 70.82267
788.90 67.85245
789.00 64.28485
789.10 60.91095
789.20 58.40521
789.30 57.30217
789.40 57.91443
789.50 60.13235
789.60 63.43906
789.70 67.02254
789.80 70.01131
789.90 71.86872
790.00 72.52124
790.10 72.12887
790.20 71.01593
790.30 69.52266
790.40 67.86829
790.50 66.38327
790.60 65.61495
790.70 65.69451
790.80 65.74502
790.90 64.34796
791.00 60.32775
791.10 53.97958
791.20 47.0445
791.30 41.25294
791.40 37.96814
791.50 38.0566
791.60 41.51378
791.70 47.49762
791.80 54.73533
791.90 61.69866
792.00 66.86528
792.10 69.39433
792.20 69.62634
792.30 68.84543
792.40 68.6351
792.50 69.65816
792.60 71.50239
792.70 73.7487
792.80 75.94886
792.90 77.6386
793.00 78.54799
793.10 78.70678
793.20 78.38258
793.30 77.90544
793.40 77.46512
793.50 77.10509
793.60 76.89998
793.70 77.00455
793.80 77.51064
793.90 78.2551
794.00 78.81321
794.10 78.62367
794.20 77.22316
794.30 74.23082
794.40 69.58672
794.50 63.65251
794.60 57.06173
794.70 50.71029
794.80 45.58973
794.90 42.57483
795.00 42.20921
795.10 44.49921
795.20 49.00791
795.30 55.07675
795.40 61.93531
795.50 68.69748
795.60 74.57957
795.70 79.09852
795.80 82.03917
795.90 83.53367
796.00 83.73851
796.10 82.50175
796.20 79.98672
796.30 76.94307
796.40 74.24597
796.50 72.76409
796.60 72.96551
796.70 74.8153
796.80 78.09003
796.90 82.37206
797.00 87.05242
797.10 91.49068
797.20 95.04365
797.30 97.17112
797.40 97.86312
797.50 97.80544
797.60 97.62443
797.70 97.57951
797.80 97.89972
797.90 98.51962
798.00 99.44312
798.10 100.7566
798.20 102.1786
798.30 103.3767
798.40 104.1783
798.50 104.5739
798.60 104.4571
798.70 103.6059
798.80 101.9073
798.90 99.52421
799.00 96.66408
799.10 93.4437
799.20 90.20683
799.30 87.66243
799.40 86.42772
799.50 86.84399
799.60 89.06488
799.70 92.74697
799.80 97.11528
799.90 101.3479
800.00 104.9724
800.10 107.762
800.20 109.5668
800.30 110.1942
800.40 109.7517
800.50 108.8871
800.60 108.2898
800.70 108.2121
800.80 108.6585
800.90 109.633
801.00 110.9029
801.10 112.128
801.20 113.0425
801.30 113.5401
801.40 113.629
801.50 113.3584
801.60 112.9206
801.70 112.7134
801.80 113.161
801.90 114.3368
802.00 115.8955
802.10 117.3398
802.20 117.7015
802.30 115.7881
802.40 111.4175
802.50 105.6165
802.60 100.0095
802.70 95.97279
802.80 94.24977
802.90 95.01318
803.00 97.92682
803.10 102.4254
803.20 107.84
803.30 113.3201
803.40 117.9472
803.50 121.0821
803.60 122.7945
803.70 123.7046
803.80 124.2445
803.90 124.4491
804.00 124.1466
804.10 123.3654
804.20 122.5079
804.30 122.1518
804.40 122.7666
804.50 124.4771
804.60 127.0244
804.70 129.9559
804.80 132.8086
804.90 135.225
805.00 137.0872
805.10 138.4379
805.20 139.3134
805.30 139.7051
805.40 139.6111
805.50 139.0153
805.60 138.0275
805.70 136.7096
805.80 134.9903
805.90 132.8968
806.00 130.5625
806.10 128.3851
806.20 127.0188
806.30 127.018
806.40 128.623
806.50 131.71
806.60 135.7739
806.70 140.0921
806.80 143.9501
806.90 146.7165
807.00 147.8258
807.10 147.2516
807.20 145.5853
807.30 143.6205
807.40 142.2041
807.50 141.8809
807.60 142.6298
807.70 144.0231
807.80 145.3763
807.90 145.9075
808.00 145.1387
808.10 143.1522
808.20 140.4866
808.30 137.9383
808.40 136.3459
808.50 136.1912
808.60 137.3634
808.70 139.3112
808.80 141.4357
808.90 143.2741
809.00 144.5915
809.10 145.3189
809.20 145.4185
809.30 145.0029
809.40 144.381
809.50 143.7253
809.60 143.0081
809.70 142.1432
809.80 140.9366
809.90 139.3393
810.00 137.5993
810.10 136.0505
810.20 134.8481
810.30 134.0412
810.40 133.7587
810.50 134.2359
810.60 135.812
810.70 138.5722
810.80 142.1074
810.90 145.9423
811.00 149.6599
811.10 152.9153
811.20 155.6029
811.30 157.8603
811.40 159.9041
811.50 161.8515
811.60 163.7872
811.70 165.7457
811.80 167.5328
811.90 168.8052
812.00 169.2626
812.10 168.9171
812.20 168.1527
812.30 167.3377
812.40 166.7518
812.50 166.673
812.60 167.2128
812.70 168.1253
812.80 169.0635
812.90 169.6499
813.00 169.4556
813.10 168.2998
813.20 166.2617
813.30 163.7932
813.40 161.6814
813.50 160.5382
813.60 160.5754
813.70 161.659
813.80 163.3147
813.90 164.8348
814.00 165.6432
814.10 165.5117
814.20 164.5368
814.30 163.4469
814.40 163.1071
814.50 163.8591
814.60 165.7284
814.70 168.3006
814.80 170.8992
814.90 173.0366
815.00 174.3482
815.10 174.7087
815.20 174.3785
815.30 173.8651
815.40 173.6856
815.50 174.1765
815.60 175.4281
815.70 177.058
815.80 178.5444
815.90 179.6635
816.00 180.4589
816.10 181.153
816.20 181.9062
816.30 182.7592
816.40 183.7669
816.50 185.0628
816.60 186.7567
816.70 188.712
816.80 190.6256
816.90 192.2122
817.00 193.2486
817.10 193.6217
817.20 193.2859
817.30 192.0757
817.40 189.8597
817.50 186.8338
817.60 183.3383
817.70 179.7378
817.80 176.327
817.90 173.1502
818.00 170.1235
818.10 167.3172
818.20 165.0097
818.30 163.449
818.40 162.4893
818.50 161.6552
818.60 160.4999
818.70 158.9367
818.80 157.1658
818.90 155.1064
819.00 152.2702
819.10 148.3971
819.20 143.8654
819.30 139.5234
819.40 136.5154
819.50 135.6936
819.60 137.1144
819.70 140.3592
819.80 145.1374
819.90 151.2375
820.00 158.1441
820.10 165.1255
820.20 171.4695
820.30 176.8984
820.40 181.8082
820.50 186.5838
820.60 191.1758
820.70 195.2784
820.80 198.4751
820.90 200.6814
821.00 202.0813
821.10 202.7251
821.20 202.5975
821.30 201.9029
821.40 201.1249
821.50 200.6909
821.60 200.7146
821.70 200.9756
821.80 201.2041
821.90 201.3431
822.00 201.4687
822.10 201.7303
822.20 202.2516
822.30 203.013
822.40 204.0579
822.50 205.6693
822.60 208.0141
822.70 210.9138
822.80 214.157
822.90 217.4609
823.00 220.2868
823.10 222.0938
823.20 222.4932
823.30 221.3521
823.40 218.9548
823.50 215.8668
823.60 212.7232
823.70 210.1974
823.80 208.8528
823.90 208.7224
824.00 209.4272
824.10 210.4144
824.20 210.9895
824.30 210.7991
824.40 209.9804
824.50 208.972
824.60 208.3676
824.70 208.6889
824.80 210.2046
824.90 212.791
825.00 215.9194
825.10 218.7771
825.20 220.448
825.30 220.3293
825.40 218.3039
825.50 214.8695
825.60 211.1253
825.70 208.2356
825.80 207.1339
825.90 208.337
826.00 211.5416
826.10 215.9273
826.20 220.6757
826.30 225.0492
826.40 228.4359
826.50 230.3426
826.60 230.629
826.70 229.5869
826.80 227.7885
826.90 225.8955
827.00 224.4911
827.10 223.8981
827.20 224.0712
827.30 224.8985
827.40 226.3477
827.50 228.022
827.60 228.8621
827.70 227.5197
827.80 223.3247
827.90 216.84
828.00 209.3272
828.10 202.2948
828.20 197.0976
828.30 194.2976
828.40 193.2744
828.50 192.8106
828.60 192.1078
828.70 190.579
828.80 188.0989
828.90 185.3718
829.00 183.4193
829.10 183.4694
829.20 186.2488
829.30 191.2738
829.40 197.0965
829.50 201.8277
829.60 203.8385
829.70 202.4433
829.80 198.8369
829.90 195.3985
830.00 193.8929
830.10 195.3164
830.20 199.9579
830.30 207.1372
830.40 215.516
830.50 223.2685
830.60 228.4656
830.70 229.9456
830.80 227.9192
830.90 223.7345
831.00 219.2696
831.10 216.104
831.20 214.6067
831.30 214.3803
831.40 215.0674
831.50 216.6133
831.60 218.9642
831.70 221.7118
831.80 224.5011
831.90 227.3372
832.00 230.3795
832.10 233.6144
832.20 236.6941
832.30 239.0768
832.40 240.3122
832.50 240.5692
832.60 240.6151
832.70 241.2612
832.80 243.1049
832.90 246.15
833.00 249.7867
833.10 253.311
833.20 256.1676
833.30 258.0447
833.40 258.8909
833.50 258.8526
833.60 258.0747
833.70 256.8949
833.80 255.9019
833.90 255.2831
834.00 254.0167
834.10 250.1925
834.20 242.6504
834.30 232.0452
834.40 220.5205
834.50 210.7389
834.60 204.9676
834.70 204.2795
834.80 208.386
834.90 216.0032
835.00 225.5294
835.10 235.0694
835.20 242.5124
835.30 246.5753
835.40 247.8897
835.50 248.5332
835.60 250.2828
835.70 253.4329
835.80 256.9598
835.90 259.6972
836.00 261.0873
836.10 261.2484
836.20 260.8258
836.30 260.6293
836.40 261.2036
836.50 262.9107
836.60 265.8898
836.70 269.7318
836.80 273.3896
836.90 275.7486
837.00 276.1999
837.10 274.7789
837.20 272.1828
837.30 269.2919
837.40 266.5594
837.50 264.0008
837.60 261.5775
837.70 259.1883
837.80 256.7264
837.90 254.0077
838.00 250.944
838.10 247.9101
838.20 245.549
838.30 244.4212
838.40 244.6986
838.50 246.2467
838.60 248.8685
838.70 252.2278
838.80 255.8379
838.90 259.3998
839.00 262.6975
839.10 265.5155
839.20 267.818
839.30 269.9098
839.40 271.6597
839.50 272.0666
839.60 269.956
839.70 264.7313
839.80 257.0474
839.90 248.4812
840.00 240.7491
840.10 235.2837
840.20 232.9344
840.30 233.832
840.40 237.5581
840.50 243.2638
840.60 249.7646
840.70 255.7904
840.80 260.7352
840.90 264.8297
841.00 268.8604
841.10 273.6597
841.20 279.1582
841.30 284.6093
841.40 289.331
841.50 292.8268
841.60 294.8538
841.70 295.4788
841.80 295.0066
841.90 293.8751
842.00 292.4838
842.10 291.1481
842.20 290.0185
842.30 288.8572
842.40 287.0023
842.50 283.6572
842.60 278.8532
842.70 273.5661
842.80 268.7845
842.90 265.3032
843.00 263.7876
843.10 264.5131
843.20 267.213
843.30 271.2128
843.40 275.6294
843.50 279.3108
843.60 281.0179
843.70 280.1116
843.80 276.8967
843.90 272.4883
844.00 268.0404
844.10 264.2266
844.20 261.442
844.30 259.7545
844.40 259.0109
844.50 259.0904
844.60 259.9798
844.70 261.7816
844.80 264.1017
844.90 265.912
845.00 266.5025
845.10 265.789
845.20 263.9854
845.30 261.5153
845.40 258.9295
845.50 256.7348
845.60 255.3608
845.70 255.3073
845.80 256.7561
845.90 259.3874
846.00 262.4575
846.10 264.7942
846.20 264.8804
846.30 261.8031
846.40 256.2019
846.50 249.7469
846.60 244.1632
846.70 240.6732
846.80 239.9367
846.90 242.0649
847.00 246.4987
847.10 252.0755
847.20 257.5549
847.30 261.8935
847.40 264.3258
847.50 264.5106
847.60 263.1638
847.70 261.714
847.80 260.883
847.90 260.5357
848.00 260.4226
848.10 260.4763
848.20 260.7563
848.30 261.3931
848.40 262.4679
848.50 263.9494
848.60 265.7663
848.70 267.5773
848.80 268.7902
848.90 268.9358
849.00 267.8773
849.10 265.6767
849.20 262.5326
849.30 259.0444
849.40 256.072
849.50 254.2032
849.60 253.5144
849.70 253.8689
849.80 255.0734
849.90 256.8373
850.00 258.7927
850.10 260.667
850.20 262.2185
850.30 263.2476
850.40 263.8969
850.50 264.3603
850.60 264.3405
850.70 263.1178
850.80 260.1034
850.90 255.5651
851.00 250.5553
851.10 246.1185
851.20 242.9389
851.30 241.2708
851.40 240.6266
851.50 239.5932
851.60 236.4735
851.70 229.908
851.80 219.161
851.90 204.7516
852.00 188.6437
852.10 173.6723
852.20 162.7273
852.30 157.9128
852.40 159.9782
852.50 168.283
852.60 181.175
852.70 196.4208
852.80 211.8142
852.90 225.9154
853.00 238.1552
853.10 248.5609
853.20 257.3384
853.30 264.6849
853.40 270.907
853.50 276.3081
853.60 280.9367
853.70 284.5401
853.80 286.8724
853.90 287.9843
854.00 288.3885
854.10 288.7871
854.20 289.6448
854.30 291.0423
854.40 292.8368
854.50 294.7112
854.60 296.3838
854.70 297.6501
854.80 298.2245
854.90 297.8607
855.00 296.776
855.10 295.5852
855.20 294.8109
855.30 294.8092
855.40 295.5984
855.50 296.8913
855.60 298.3513
855.70 299.7448
855.80 300.9148
855.90 301.8999
856.00 302.869
856.10 303.9117
856.20 305.1932
856.30 306.8417
856.40 308.4275
856.50 309.1524
856.60 308.6916
856.70 307.3216
856.80 305.5328
856.90 303.899
857.00 303.0119
857.10 303.2248
857.20 304.4774
857.30 306.4569
857.40 308.7433
857.50 310.8931
857.60 312.4169
857.70 312.8955
857.80 312.3751
857.90 311.3959
858.00 310.6711
858.10 310.6388
858.20 311.3379
858.30 312.672
858.40 314.5601
858.50 317.0031
858.60 319.7984
858.70 322.4348
858.80 324.5519
858.90 326.0483
859.00 326.7865
859.10 326.7956
859.20 326.4362
859.30 326.0133
859.40 325.4066
859.50 324.5224
859.60 323.6723
859.70 323.1432
859.80 323.0254
859.90 323.2733
860.00 323.8776
860.10 324.9507
860.20 326.4561
860.30 327.8971
860.40 328.5679
860.50 327.7408
860.60 324.7036
860.70 319.0994
860.80 311.1128
860.90 301.1252
861.00 289.5729
861.10 277.0476
861.20 264.1654
861.30 251.2284
861.40 238.2957
861.50 225.6244
861.60 213.6046
861.70 202.5811
861.80 192.8552
861.90 184.6274
862.00 177.937
862.10 172.8333
862.20 169.4518
862.30 167.8916
862.40 168.0526
862.50 169.5116
862.60 171.4785
862.70 173.3081
862.80 174.5265
862.90 174.3822
863.00 172.0027
863.10 167.2416
863.20 161.0638
863.30 154.8928
863.40 150.0684
863.50 147.561
863.60 147.7545
863.70 150.3474
863.80 154.5261
863.90 159.2102
864.00 163.386
864.10 166.3984
864.20 168.0806
864.30 168.8278
864.40 169.5382
864.50 170.9825
864.60 173.2325
864.70 175.8106
864.80 178.0475
864.90 179.375
865.00 179.6984
865.10 179.4204
865.20 179.1172
865.30 179.5597
865.40 181.6551
865.50 185.9727
865.60 192.6729
865.70 200.9877
865.80 209.1956
865.90 215.7247
866.00 219.9514
866.10 222.3225
866.20 223.7765
866.30 225.0282
866.40 226.1801
866.50 227.1337
866.60 227.8712
866.70 228.1559
866.80 227.5509
866.90 225.7613
867.00 222.942
867.10 220.036
867.20 218.3997
867.30 218.9716
867.40 221.7098
867.50 225.6727
867.60 229.5331
867.70 232.0054
867.80 232.2794
867.90 230.147
868.00 225.8992
868.10 220.3307
868.20 214.7798
868.30 210.8238
868.40 209.5879
868.50 211.3478
868.60 215.5915
868.70 221.239
868.80 226.7413
868.90 230.3218
869.00 230.4745
869.10 226.6009
869.20 219.1789
869.30 209.3356
869.40 198.6502
869.50 189.0112
869.60 181.9584
869.70 178.2451
869.80 177.9226
869.90 180.418
870.00 184.695
870.10 189.3852
870.20 193.1914
870.30 195.3591
870.40 195.8955
870.50 195.1387
870.60 193.4278
870.70 191.0626
870.80 188.2443
870.90 185.1756
871.00 182.0503
871.10 179.0816
871.20 176.4817
871.30 174.4334
871.40 173.0294
871.50 172.2505
871.60 172.0177
871.70 172.2661
871.80 172.8927
871.90 173.7869
872.00 174.7732
872.10 175.7964
872.20 177.0617
872.30 178.8095
872.40 181.3265
872.50 184.6419
872.60 188.1829
872.70 191.28
872.80 193.548
872.90 194.8226
873.00 195.1896
873.10 194.8499
873.20 194.0482
873.30 193.1599
873.40 192.7634
873.50 193.3204
873.60 194.8866
873.70 197.2628
873.80 200.1412
873.90 203.2768
874.00 206.7189
874.10 210.462
874.20 214.2652
874.30 217.7297
874.40 220.3719
874.50 221.9036
874.60 222.3044
874.70 221.6302
874.80 220.0338
874.90 217.8839
875.00 215.5177
875.10 213.3617
875.20 211.9266
875.30 211.5389
875.40 212.3754
875.50 214.1409
875.60 215.6066
875.70 215.5379
875.80 213.4641
875.90 209.3136
876.00 203.6941
876.10 198.0748
876.20 193.8678
876.30 191.6795
876.40 190.4447
876.50 188.4141
876.60 185.0518
876.70 180.7208
876.80 176.6185
876.90 174.7056
877.00 177.308
877.10 186.0528
877.20 200.8377
877.30 220.0232
877.40 240.3194
877.50 257.333
877.60 266.9528
877.70 267.2404
877.80 260.3591
877.90 250.3556
878.00 240.0816
878.10 231.4485
878.20 225.1559
878.30 220.9511
878.40 218.4548
878.50 217.1541
878.60 216.686
878.70 217.0406
878.80 217.9147
878.90 218.6815
879.00 219.5971
879.10 221.182
879.20 223.6957
879.30 227.3592
879.40 232.1779
879.50 237.8756
879.60 243.804
879.70 249.0367
879.80 252.5245
879.90 253.3733
880.00 250.9872
880.10 245.1796
880.20 237.032
880.30 228.6968
880.40 221.7192
880.50 216.8176
880.60 214.0562
880.70 213.172
880.80 214.1118
880.90 216.8626
881.00 221.622
881.10 228.7365
881.20 238.2861
881.30 249.8793
881.40 262.6277
881.50 275.328
881.60 286.5968
881.70 295.045
881.80 299.8371
881.90 300.792
882.00 298.2003
882.10 292.9145
882.20 285.3506
882.30 274.7362
882.40 259.8309
882.50 240.8011
882.60 219.3279
882.70 197.9038
882.80 179.8525
882.90 168.2243
883.00 164.9024
883.10 170.4623
883.20 183.6053
883.30 201.3353
883.40 220.0157
883.50 235.8236
883.60 246.6006
883.70 253.1115
883.80 257.7383
883.90 262.0045
884.00 266.3551
884.10 270.7305
884.20 274.3783
884.30 276.4716
884.40 276.1434
884.50 272.2812
884.60 264.7249
884.70 255.2726
884.80 246.3538
884.90 240.0154
885.00 237.5462
885.10 239.2579
885.20 244.6086
885.30 252.4595
885.40 261.2832
885.50 269.4176
885.60 275.4352
885.70 278.416
885.80 278.6149
885.90 277.7543
886.00 277.7193
886.10 279.1433
886.20 281.7325
886.30 284.9761
886.40 288.1585
886.50 290.1611
886.60 289.8861
886.70 286.7764
886.80 281.0374
886.90 273.3993
887.00 264.7243
887.10 256.3663
887.20 250.0828
887.30 247.3389
887.40 249.2842
887.50 256.643
887.60 269.1915
887.70 285.5264
887.80 303.6378
887.90 321.1597
888.00 335.9223
888.10 346.3846
888.20 351.3549
888.30 350.7535
888.40 346.0936
888.50 339.5911
888.60 333.3235
888.70 328.9962
888.80 327.2693
888.90 327.7053
889.00 329.3802
889.10 331.0064
889.20 330.641
889.30 326.8668
889.40 319.4577
889.50 309.1505
889.60 297.972
889.70 288.5665
889.80 282.7467
889.90 280.7964
890.00 281.7999
890.10 284.1867
890.20 286.8164
890.30 289.0187
890.40 290.0697
890.50 289.5925
890.60 287.9708
890.70 286.0274
890.80 284.7108
890.90 284.8959
891.00 286.9244
891.10 290.6105
891.20 295.629
891.30 301.7173
891.40 308.8292
891.50 316.9393
891.60 325.2153
891.70 331.0853
891.80 332.4284
891.90 329.3496
892.00 322.8074
892.10 313.9292
892.20 303.9216
892.30 294.2302
892.40 286.3667
892.50 281.422
892.60 279.9484
892.70 282.2021
892.80 287.8062
892.90 295.7087
893.00 304.7749
893.10 314.932
893.20 325.6585
893.30 334.6145
893.40 339.5037
893.50 339.2341
893.60 333.6524
893.70 322.7799
893.80 307.0404
893.90 287.6835
894.00 266.6944
894.10 246.1582
894.20 227.9269
894.30 213.5882
894.40 204.3465
894.50 200.9481
894.60 203.523
894.70 211.6255
894.80 224.0887
894.90 239.0131
895.00 254.2974
895.10 268.4015
895.20 280.9046
895.30 292.3471
895.40 302.7357
895.50 311.7537
895.60 319.5426
895.70 326.2622
895.80 332.1081
895.90 336.8201
896.00 339.7236
896.10 340.2539
896.20 338.2413
896.30 333.9293
896.40 327.8309
896.50 320.7171
896.60 313.5184
896.70 306.9278
896.80 302.0593
896.90 300.2476
897.00 302.2203
897.10 307.8256
897.20 315.6891
897.30 324.1397
897.40 331.9101
897.50 338.008
897.60 341.9039
897.70 343.5625
897.80 343.2122
897.90 341.5398
898.00 339.5886
898.10 338.5528
898.20 339.7533
898.30 344.1325
898.40 351.7218
898.50 361.6049
898.60 372.254
898.70 381.2174
898.80 386.2037
898.90 386.5769
899.00 382.6966
899.10 375.4688
899.20 366.5211
899.30 357.4098
899.40 349.0403
899.50 342.0534
899.60 337.0149
899.70 334.1598
899.80 333.3359
899.90 334.6874
900.00 335.5396
900.10 336.3918
900.20 337.2441
900.30 338.0963
900.40 338.9485
900.50 339.8007
900.60 340.653
900.70 341.5052
900.80 342.3574
900.90 343.2096
901.00 344.0619
901.10 344.9141
901.20 345.7663
901.30 346.6185
901.40 347.4707
901.50 348.323
901.60 349.1752
901.70 350.0274
901.80 350.8796
901.90 351.7319
902.00 352.5841
902.10 353.4363
902.20 354.2885
902.30 355.1408
902.40 355.993
902.50 356.8452
902.60 357.8607
902.70 359.4904
902.80 361.1202
902.90 362.7499
903.00 364.3796
903.10 366.0093
903.20 367.639
903.30 369.179
903.40 370.5842
903.50 371.9894
903.60 373.3946
903.70 374.7998
903.80 376.205
903.90 377.6103
904.00 379.0155
904.10 380.4207
904.20 381.8259
904.30 383.2311
904.40 384.6363
904.50 386.0416
904.60 387.4468
904.70 388.852
904.80 390.2572
904.90 391.6624
905.00 393.0676
905.10 394.4728
905.20 395.8781
905.30 397.2833
905.40 398.6885
905.50 400.0937
905.60 401.4989
905.70 402.9041
905.80 404.3094
905.90 405.7146
906.00 407.1198
906.10 408.2714
906.20 409.4097
906.30 410.548
906.40 411.6863
906.50 412.8245
906.60 413.9628
906.70 415.0089
906.80 415.2254
906.90 415.4419
907.00 415.6583
907.10 415.8748
907.20 416.0913
907.30 416.3077
907.40 416.5242
907.50 416.7407
907.60 416.9571
907.70 417.1736
907.80 417.3901
907.90 417.6065
908.00 417.823
908.10 418.0395
908.20 418.2559
908.30 418.4724
908.40 418.6889
908.50 418.9053
908.60 419.1218
908.70 419.3383
908.80 419.5547
908.90 419.7712
909.00 419.9877
909.10 420.2041
909.20 420.4206
909.30 420.6371
909.40 420.8535
909.50 421.0383
909.60 421.1927
909.70 421.347
909.80 421.5013
909.90 421.6557
910.00 421.81
910.10 421.9644
910.20 422.5891
910.30 423.5022
910.40 424.4153
910.50 425.3284
910.60 426.2414
910.70 427.1545
910.80 428.0676
910.90 428.9807
911.00 429.8938
911.10 430.8069
911.20 431.7199
911.30 432.633
911.40 433.5461
911.50 434.4592
911.60 435.3723
911.70 436.2853
911.80 437.1984
911.90 438.1115
912.00 439.0246
912.10 439.9377
912.20 440.8507
912.30 441.7638
912.40 442.6769
912.50 443.59
912.60 444.5031
912.70 445.4162
912.80 446.3292
912.90 447.2423
913.00 447.9223
913.10 448.5705
913.20 449.2187
913.30 449.8669
913.40 450.5151
913.50 451.1633
913.60 451.8114
913.70 452.3962
913.80 452.9783
913.90 453.5605
914.00 454.1426
914.10 454.7247
914.20 455.3069
914.30 455.889
914.40 456.4711
914.50 457.0532
914.60 457.6354
914.70 458.2175
914.80 458.7996
914.90 459.3818
915.00 459.9639
915.10 460.546
915.20 461.1281
915.30 461.7103
915.40 462.2924
915.50 462.8745
915.60 463.4567
915.70 464.0388
915.80 464.6209
915.90 465.203
916.00 465.7852
916.10 466.3673
916.20 466.9494
916.30 467.5316
916.40 468.1249
916.50 468.847
916.60 469.5691
916.70 470.2913
916.80 471.0134
916.90 471.7355
917.00 472.4576
917.10 473.1255
917.20 473.3952
917.30 473.6648
917.40 473.9345
917.50 474.2042
917.60 474.4739
917.70 474.7436
917.80 475.0133
917.90 475.2829
918.00 475.5526
918.10 475.8223
918.20 476.092
918.30 476.3617
918.40 476.6313
918.50 476.901
918.60 477.1707
918.70 477.4404
918.80 477.7101
918.90 477.9798
919.00 478.2494
919.10 478.5191
919.20 478.7888
919.30 479.0585
919.40 479.3282
919.50 479.5979
919.60 479.8675
919.70 480.1372
919.80 480.4069
919.90 480.6538
920.00 480.6956
920.10 480.7374
920.20 480.7792
920.30 480.8211
920.40 480.8629
920.50 480.9047
920.60 480.9624
920.70 481.1487
920.80 481.335
920.90 481.5213
921.00 481.7076
921.10 481.894
921.20 482.0803
921.30 482.2666
921.40 482.4529
921.50 482.6392
921.60 482.8255
921.70 483.0118
921.80 483.1981
921.90 483.3845
922.00 483.5708
922.10 483.7571
922.20 483.9434
922.30 484.1297
922.40 484.316
922.50 484.5023
922.60 484.6887
922.70 484.875
922.80 485.0613
922.90 485.2476
923.00 485.4339
923.10 485.6202
923.20 485.8065
923.30 485.9929
923.40 486.1792
923.50 486.8297
923.60 487.51
923.70 488.1902
923.80 488.8704
923.90 489.5506
924.00 490.2308
924.10 490.911
924.20 491.4442
924.30 491.9646
924.40 492.485
924.50 493.0054
924.60 493.5258
924.70 494.0462
924.80 494.5666
924.90 495.087
925.00 495.6074
925.10 496.1279
925.20 496.6483
925.30 497.1687
925.40 497.6891
925.50 498.2095
925.60 498.7299
925.70 499.2503
925.80 499.7707
925.90 500.2911
926.00 500.8115
926.10 501.3319
926.20 501.8523
926.30 502.3727
926.40 502.8931
926.50 503.4135
926.60 503.934
926.70 504.4544
926.80 504.9748
926.90 505.4952
927.00 505.8021
927.10 505.9725
927.20 506.1428
927.30 506.3132
927.40 506.4836
927.50 506.654
927.60 506.8244
927.70 507.355
927.80 508.1803
927.90 509.0056
928.00 509.8309
928.10 510.6563
928.20 511.4816
928.30 512.3069
928.40 513.1322
928.50 513.9575
928.60 514.7828
928.70 515.6082
928.80 516.4335
928.90 517.2588
929.00 518.0841
929.10 518.9094
929.20 519.7348
929.30 520.5601
929.40 521.3854
929.50 522.2107
929.60 523.036
929.70 523.8613
929.80 524.6867
929.90 525.512
930.00 526.3373
930.10 527.1626
930.20 527.9879
930.30 528.8133
930.40 529.6386
930.50 530.4525
930.60 531.174
930.70 531.8956
930.80 532.6171
930.90 533.3386
931.00 534.0602
931.10 534.7817
931.20 535.4958
931.30 535.8445
931.40 536.1933
931.50 536.542
931.60 536.8908
931.70 537.2395
931.80 537.5883
931.90 537.9371
932.00 538.2858
932.10 538.6346
932.20 538.9833
932.30 539.3321
932.40 539.6808
932.50 540.0296
932.60 540.3784
932.70 540.7271
932.80 541.0759
932.90 541.4246
933.00 541.7734
933.10 542.1221
933.20 542.4709
933.30 542.8196
933.40 543.1684
933.50 543.5172
933.60 543.8659
933.70 544.2147
933.80 544.5634
933.90 544.9122
934.00 545.2609
934.10 545.7343
934.20 546.3662
934.30 546.9982
934.40 547.6301
934.50 548.2621
934.60 548.894
934.70 549.526
934.80 550.1779
934.90 550.8741
935.00 551.5703
935.10 552.2665
935.20 552.9627
935.30 553.6589
935.40 554.3551
935.50 555.0513
935.60 555.7475
935.70 556.4437
935.80 557.1399
935.90 557.8361
936.00 558.5323
936.10 559.2285
936.20 559.9247
936.30 560.621
936.40 561.3172
936.50 562.0134
936.60 562.7096
936.70 563.4058
936.80 564.102
936.90 564.7982
937.00 565.4944
937.10 566.1906
937.20 566.8868
937.30 567.583
937.40 568.2792
937.50 568.9754
937.60 569.6716
937.70 570.304
937.80 570.8937
937.90 571.4835
938.00 572.0732
938.10 572.663
938.20 573.2527
938.30 573.8424
938.40 574.4796
938.50 575.1797
938.60 575.8798
938.70 576.5799
938.80 577.28
938.90 577.9801
939.00 578.6802
939.10 579.3803
939.20 580.0804
939.30 580.7805
939.40 581.4806
939.50 582.1807
939.60 582.8808
939.70 583.5809
939.80 584.281
939.90 584.9811
940.00 585.6812
940.10 586.3813
940.20 587.0814
940.30 587.7815
940.40 588.4816
940.50 589.1817
940.60 589.8818
940.70 590.5819
940.80 591.282
940.90 591.9821
941.00 592.6822
941.10 593.3823
941.20 594.0824
941.30 594.9155
941.40 595.8409
941.50 596.7663
941.60 597.6917
941.70 598.6171
941.80 599.5425
941.90 600.4679
942.00 601.3673
942.10 602.226
942.20 603.0847
942.30 603.9434
942.40 604.8021
942.50 605.6609
942.60 606.5196
942.70 607.3783
942.80 608.237
942.90 609.0957
943.00 609.9544
943.10 610.8132
943.20 611.6719
943.30 612.5306
943.40 613.3893
943.50 614.248
943.60 615.1068
943.70 615.9655
943.80 616.8242
943.90 617.6829
944.00 618.5416
944.10 619.4003
944.20 620.2591
944.30 621.1178
944.40 621.9765
944.50 622.8352
944.60 623.6939
944.70 624.5526
944.80 625.4114
944.90 626.2201
945.00 626.9568
945.10 627.6935
945.20 628.4303
945.30 629.167
945.40 629.9037
945.50 630.6405
945.60 631.2905
945.70 631.5456
945.80 631.8007
945.90 632.0558
946.00 632.3109
946.10 632.566
946.20 632.8211
946.30 633.0762
946.40 633.3312
946.50 633.5863
946.60 633.8414
946.70 634.0965
946.80 634.3516
946.90 634.6067
947.00 634.8618
947.10 635.1169
947.20 635.372
947.30 635.627
947.40 635.8821
947.50 636.1372
947.60 636.3923
947.70 636.6474
947.80 636.9025
947.90 637.1576
948.00 637.4127
948.10 637.6678
948.20 637.9229
948.30 638.1779
948.40 638.433
948.50 638.6592
948.60 638.5008
948.70 638.3424
948.80 638.184
948.90 638.0256
949.00 637.8672
949.10 637.7088
949.20 637.5504
949.30 637.4897
949.40 637.452
949.50 637.4143
949.60 637.3766
949.70 637.339
949.80 637.3013
949.90 637.2636
950.00 637.2259
950.10 637.1882
950.20 637.1505
950.30 637.1128
950.40 637.0751
950.50 637.0374
950.60 636.9997
950.70 636.962
950.80 636.9243
950.90 636.8866
951.00 636.8489
951.10 636.8112
951.20 636.7735
951.30 636.7358
951.40 636.6981
951.50 636.6604
951.60 636.6227
951.70 636.585
951.80 636.5473
951.90 636.5096
952.00 636.4719
952.10 636.4342
952.20 636.5739
952.30 636.8529
952.40 637.132
952.50 637.411
952.60 637.69
952.70 637.9691
952.80 638.2481
952.90 638.5547
953.00 638.9361
953.10 639.3175
953.20 639.6988
953.30 640.0802
953.40 640.4616
953.50 640.8429
953.60 641.2243
953.70 641.6057
953.80 641.987
953.90 642.3684
954.00 642.7498
954.10 643.1311
954.20 643.5125
954.30 643.8939
954.40 644.2752
954.50 644.6566
954.60 645.038
954.70 645.4193
954.80 645.8007
954.90 646.1821
955.00 646.5634
955.10 646.9448
955.20 647.3262
955.30 647.7075
955.40 648.0889
955.50 648.4703
955.60 648.8516
955.70 649.233
955.80 649.6144
955.90 649.8087
956.00 649.9822
956.10 650.1557
956.20 650.3292
956.30 650.5027
956.40 650.6763
956.50 650.8498
956.60 651.0734
956.70 651.3349
956.80 651.5963
956.90 651.8578
957.00 652.1192
957.10 652.3807
957.20 652.6421
957.30 652.9036
957.40 653.1651
957.50 653.4265
957.60 653.688
957.70 653.9494
957.80 654.2109
957.90 654.4723
958.00 654.7338
958.10 654.9952
958.20 655.2567
958.30 655.5181
958.40 655.7796
958.50 656.0411
958.60 656.3025
958.70 656.564
958.80 656.8254
958.90 657.0869
959.00 657.3483
959.10 657.6098
959.20 657.8712
959.30 658.1327
959.40 658.3942
959.50 658.6535
959.60 658.885
959.70 659.1164
959.80 659.3479
959.90 659.5793
960.00 659.8108
960.10 660.0422
960.20 660.2737
960.30 660.7221
960.40 661.259
960.50 661.796
960.60 662.3329
960.70 662.8699
960.80 663.4069
960.90 663.9438
961.00 664.4808
961.10 665.0177
961.20 665.5547
961.30 666.0917
961.40 666.6286
961.50 667.1656
961.60 667.7025
961.70 668.2395
961.80 668.7765
961.90 669.3134
962.00 669.8504
962.10 670.3873
962.20 670.9243
962.30 671.4612
962.40 671.9982
962.50 672.5352
962.60 673.0721
962.70 673.6091
962.80 674.146
962.90 674.683
963.00 675.22
963.10 675.7569
963.20 676.3245
963.30 677.2021
963.40 678.0797
963.50 678.9573
963.60 679.8349
963.70 680.7125
963.80 681.5901
963.90 682.4677
964.00 683.121
964.10 683.6783
964.20 684.2355
964.30 684.7927
964.40 685.3499
964.50 685.9071
964.60 686.4643
964.70 687.0215
964.80 687.5787
964.90 688.1359
965.00 688.6931
965.10 689.2503
965.20 689.8075
965.30 690.3647
965.40 690.9219
965.50 691.4791
965.60 692.0363
965.70 692.5935
965.80 693.1507
965.90 693.7079
966.00 694.2651
966.10 694.8223
966.20 695.3795
966.30 695.9367
966.40 696.4939
966.50 697.0511
966.60 697.6083
966.70 698.1655
966.80 698.7227
966.90 699.28
967.00 699.7827
967.10 700.2827
967.20 700.7826
967.30 701.2825
967.40 701.7824
967.50 702.2823
967.60 702.7823
967.70 703.3752
967.80 704.0506
967.90 704.726
968.00 705.4014
968.10 706.0768
968.20 706.7522
968.30 707.4276
968.40 708.103
968.50 708.7785
968.60 709.4539
968.70 710.1293
968.80 710.8047
968.90 711.4801
969.00 712.1555
969.10 712.8309
969.20 713.5063
969.30 714.1817
969.40 714.8571
969.50 715.5325
969.60 716.2079
969.70 716.8834
969.80 717.5588
969.90 718.2342
970.00 718.9096
970.10 719.585
970.20 720.2604
970.30 720.9358
970.40 721.6112
970.50 722.2866
970.60 722.962
970.70 724.0003
970.80 725.234
970.90 726.4677
971.00 727.7014
971.10 728.9352
971.20 730.1689
971.30 731.4026
971.40 732.6062
971.50 733.6894
971.60 734.7726
971.70 735.8558
971.80 736.939
971.90 738.0222
972.00 739.1054
972.10 740.1886
972.20 741.2718
972.30 742.355
972.40 743.4382
972.50 744.5214
972.60 745.6046
972.70 746.6878
972.80 747.771
972.90 748.8542
973.00 749.9374
973.10 751.0206
973.20 752.1038
973.30 753.187
973.40 754.2702
973.50 755.3534
973.60 756.4366
973.70 757.5198
973.80 758.603
973.90 759.6862
974.00 760.7694
974.10 761.8526
974.20 762.9358
974.30 764.019
974.40 764.8836
974.50 764.926
974.60 764.9683
974.70 765.0107
974.80 765.0531
974.90 765.0954
975.00 765.1378
975.10 765.1802
975.20 765.0993
975.30 764.9704
975.40 764.8415
975.50 764.7127
975.60 764.5838
975.70 764.455
975.80 764.3261
975.90 764.1973
976.00 764.0684
976.10 763.9395
976.20 763.8107
976.30 763.6818
976.40 763.553
976.50 763.4241
976.60 763.2952
976.70 763.1664
976.80 763.0375
976.90 762.9087
977.00 762.7798
977.10 762.6509
977.20 762.5221
977.30 762.3932
977.40 762.2644
977.50 762.1355
977.60 762.0067
977.70 761.8778
977.80 761.7489
977.90 761.6201
978.00 761.4912
978.10 761.3624
978.20 761.2617
978.30 761.1791
978.40 761.0964
978.50 761.0138
978.60 760.9311
978.70 760.8485
978.80 760.7658
978.90 760.6535
979.00 760.2736
979.10 759.8937
979.20 759.5139
979.30 759.134
979.40 758.7541
979.50 758.3743
979.60 757.9944
979.70 757.6146
979.80 757.2347
979.90 756.8548
980.00 756.475
980.10 756.0951
980.20 755.7152
980.30 755.3354
980.40 754.9555
980.50 754.5756
980.60 754.1958
980.70 753.8159
980.80 753.4361
980.90 753.0562
981.00 752.6763
981.10 752.2965
981.20 751.9166
981.30 751.5367
981.40 751.1569
981.50 750.777
981.60 750.3971
981.70 750.0173
981.80 749.6374
981.90 749.2575
982.00 748.6973
982.10 748.1076
982.20 747.5179
982.30 746.9283
982.40 746.3386
982.50 745.749
982.60 745.1593
982.70 744.4629
982.80 743.5395
982.90 742.6161
983.00 741.6927
983.10 740.7694
983.20 739.846
983.30 738.9226
983.40 737.9993
983.50 737.0759
983.60 736.1525
983.70 735.2292
983.80 734.3058
983.90 733.3824
984.00 732.459
984.10 731.5357
984.20 730.6123
984.30 729.6889
984.40 728.7656
984.50 727.8422
984.60 726.9188
984.70 725.9954
984.80 725.0721
984.90 724.1487
985.00 723.2253
985.10 722.302
985.20 721.3786
985.30 720.4552
985.40 719.5318
985.50 718.6085
985.60 717.6851
985.70 716.7617
985.80 715.1861
985.90 713.5903
986.00 711.9945
986.10 710.3987
986.20 708.803
986.30 707.2072
986.40 705.6114
986.50 704.1134
986.60 702.7623
986.70 701.4111
986.80 700.0599
986.90 698.7088
987.00 697.3576
987.10 696.0064
987.20 694.6553
987.30 693.3041
987.40 691.9529
987.50 690.6018
987.60 689.2506
987.70 687.8994
987.80 686.5483
987.90 685.1971
988.00 683.8459
988.10 682.4948
988.20 681.1436
988.30 679.7924
988.40 678.4413
988.50 677.0901
988.60 675.7389
988.70 674.3878
988.80 673.0366
988.90 671.6854
989.00 670.3343
989.10 668.9831
989.20 667.6319
989.30 666.2808
989.40 664.9296
989.50 663.5784
989.60 662.4062
989.70 661.2475
989.80 660.0888
989.90 658.93
990.00 657.7713
990.10 656.6126
990.20 655.4538
990.30 654.2157
990.40 652.8162
990.50 651.4168
990.60 650.0174
990.70 648.6179
990.80 647.2185
990.90 645.8191
991.00 644.4196
991.10 643.0202
991.20 641.6208
991.30 640.2213
991.40 638.8219
991.50 637.4225
991.60 636.023
991.70 634.6236
991.80 633.2242
991.90 631.8248
992.00 630.4253
992.10 629.0259
992.20 627.6265
992.30 626.227
992.40 624.8276
992.50 623.4282
992.60 622.0287
992.70 620.6293
992.80 619.2299
992.90 617.8304
993.00 616.431
993.10 615.0316
993.20 613.6321
993.30 612.2327
993.40 610.9959
993.50 609.8134
993.60 608.6308
993.70 607.4483
993.80 606.2657
993.90 605.0831
994.00 603.9006
994.10 602.7699
994.20 602.0196
994.30 601.2693
994.40 600.519
994.50 599.7687
994.60 599.0184
994.70 598.2681
994.80 597.5178
994.90 596.7675
995.00 596.0172
995.10 595.2669
995.20 594.5166
995.30 593.7663
995.40 593.016
995.50 592.2657
995.60 591.5154
995.70 590.7651
995.80 590.0148
995.90 589.2645
996.00 588.5142
996.10 587.764
996.20 587.0137
996.30 586.2634
996.40 585.5131
996.50 584.7628
996.60 584.0125
996.70 583.2622
996.80 582.5119
996.90 581.7616
997.00 581.0113
997.10 580.261
997.20 579.9403
997.30 580.2128
997.40 580.4853
997.50 580.7578
997.60 581.0303
997.70 581.3028
997.80 581.5754
997.90 581.8479
998.00 582.1707
998.10 582.5085
998.20 582.8464
998.30 583.1842
998.40 583.5221
998.50 583.8599
998.60 584.1977
998.70 584.5356
998.80 584.8734
998.90 585.2113
999.00 585.5491
999.10 585.887
999.20 586.2248
999.30 586.5626
999.40 586.9005
999.50 587.2383
999.60 587.5762
999.70 587.914
999.80 588.2519
999.90 588.5897
1000.00 588.9275
1000.10 589.2654
1000.20 589.6032
1000.30 589.9411
1000.40 590.2789
1000.50 590.6167
1000.60 590.9546
1000.70 591.2924
1000.80 591.6303
1000.90 591.9681
1001.00 592.306
1001.10 592.5454
1001.20 592.7848
1001.30 593.0242
1001.40 593.2636
1001.50 593.503
1001.60 593.7424
1001.70 593.9818
1001.80 594.3858
1001.90 595.174
1002.00 595.9621
1002.10 596.7503
1002.20 597.5384
1002.30 598.3266
1002.40 599.1147
1002.50 599.9029
1002.60 600.6911
1002.70 601.4792
1002.80 602.2674
1002.90 603.0555
1003.00 603.8437
1003.10 604.6319
1003.20 605.42
1003.30 606.2082
1003.40 606.9963
1003.50 607.7845
1003.60 608.5726
1003.70 609.3608
1003.80 610.149
1003.90 610.9371
1004.00 611.7253
1004.10 612.5134
1004.20 613.3016
1004.30 614.0898
1004.40 614.8779
1004.50 615.6661
1004.60 616.4542
1004.70 617.2424
1004.80 618.0306
1004.90 618.879
1005.00 619.8179
1005.10 620.7568
1005.20 621.6956
1005.30 622.6345
1005.40 623.5734
1005.50 624.5123
1005.60 625.4512
1005.70 626.3074
1005.80 627.1282
1005.90 627.9491
1006.00 628.7699
1006.10 629.5907
1006.20 630.4115
1006.30 631.2324
1006.40 632.0532
1006.50 632.874
1006.60 633.6949
1006.70 634.5157
1006.80 635.3365
1006.90 636.1573
1007.00 636.9782
1007.10 637.799
1007.20 638.6198
1007.30 639.4406
1007.40 640.2615
1007.50 641.0823
1007.60 641.9031
1007.70 642.724
1007.80 643.5448
1007.90 644.3656
1008.00 645.1864
1008.10 646.0073
1008.20 646.8281
1008.30 647.6489
1008.40 648.4698
1008.50 649.2906
1008.60 650.1114
1008.70 650.9322
1008.80 651.7236
1008.90 652.4954
1009.00 653.2672
1009.10 654.0389
1009.20 654.8107
1009.30 655.5825
1009.40 656.3542
1009.50 657.126
1009.60 657.8579
1009.70 658.5853
1009.80 659.3127
1009.90 660.0402
1010.00 660.7676
1010.10 661.4951
1010.20 662.2225
1010.30 662.95
1010.40 663.6774
1010.50 664.4049
1010.60 665.1323
1010.70 665.8597
1010.80 666.5872
1010.90 667.3146
1011.00 668.0421
1011.10 668.7695
1011.20 669.497
1011.30 670.2244
1011.40 670.9519
1011.50 671.6793
1011.60 672.4067
1011.70 673.1342
1011.80 673.8616
1011.90 674.5891
1012.00 675.3165
1012.10 676.044
1012.20 676.7714
1012.30 677.4988
1012.40 678.2263
1012.50 678.9537
1012.60 679.6812
1012.70 680.2357
1012.80 680.747
1012.90 681.2583
1013.00 681.7696
1013.10 682.281
1013.20 682.7923
1013.30 683.3036
1013.40 683.8149
1013.50 683.9537
1013.60 684.0924
1013.70 684.2312
1013.80 684.37
1013.90 684.5088
1014.00 684.6475
1014.10 684.7863
1014.20 684.9251
1014.30 685.0639
1014.40 685.2026
1014.50 685.3414
1014.60 685.4802
1014.70 685.6189
1014.80 685.7577
1014.90 685.8965
1015.00 686.0353
1015.10 686.174
1015.20 686.3128
1015.30 686.4516
1015.40 686.5904
1015.50 686.7291
1015.60 686.8679
1015.70 687.0067
1015.80 687.1455
1015.90 687.2842
1016.00 687.423
1016.10 687.5618
1016.20 687.7005
1016.30 687.8393
1016.40 687.9781
1016.50 688.1169
1016.60 687.9653
1016.70 687.7413
1016.80 687.5172
1016.90 687.2931
1017.00 687.069
1017.10 686.8449
1017.20 686.6208
1017.30 686.3967
1017.40 686.6681
1017.50 686.9395
1017.60 687.2108
1017.70 687.4822
1017.80 687.7535
1017.90 688.0249
1018.00 688.2963
1018.10 688.5676
1018.20 688.839
1018.30 689.1104
1018.40 689.3817
1018.50 689.6531
1018.60 689.9244
1018.70 690.1958
1018.80 690.4672
1018.90 690.7385
1019.00 691.0099
1019.10 691.2812
1019.20 691.5526
1019.30 691.824
1019.40 692.0953
1019.50 692.3667
1019.60 692.6381
1019.70 692.9094
1019.80 693.1808
1019.90 693.4521
1020.00 693.7235
1020.10 693.9949
1020.20 694.2662
1020.30 694.5376
1020.40 694.809
1020.50 695.5065
1020.60 696.4883
1020.70 697.47
1020.80 698.4517
1020.90 699.4334
1021.00 700.4151
1021.10 701.3968
1021.20 702.3786
1021.30 703.3031
1021.40 704.2132
1021.50 705.1234
1021.60 706.0336
1021.70 706.9438
1021.80 707.854
1021.90 708.7642
1022.00 709.6744
1022.10 710.5846
1022.20 711.4948
1022.30 712.405
1022.40 713.3152
1022.50 714.2254
1022.60 715.1356
1022.70 716.0458
1022.80 716.956
1022.90 717.8662
1023.00 718.7764
1023.10 719.6866
1023.20 720.5968
1023.30 721.507
1023.40 722.4172
1023.50 723.3274
1023.60 724.2376
1023.70 725.1478
1023.80 726.0579
1023.90 726.9681
1024.00 727.8783
1024.10 728.7885
1024.20 729.6987
1024.30 730.6089
1024.40 731.3036
1024.50 731.6749
1024.60 732.0462
1024.70 732.4176
1024.80 732.7889
1024.90 733.1602
1025.00 733.5315
1025.10 733.9029
1025.20 734.2726
1025.30 734.6408
1025.40 735.009
1025.50 735.3771
1025.60 735.7453
1025.70 736.1135
1025.80 736.4817
1025.90 736.8499
1026.00 737.218
1026.10 737.5862
1026.20 737.9544
1026.30 738.3226
1026.40 738.6907
1026.50 739.0589
1026.60 739.4271
1026.70 739.7953
1026.80 740.1635
1026.90 740.5316
1027.00 740.8998
1027.10 741.268
1027.20 741.6362
1027.30 742.0043
1027.40 742.3725
1027.50 742.7407
1027.60 743.1089
1027.70 743.4771
1027.80 743.8452
1027.90 744.2134
1028.00 744.5816
1028.10 744.9498
1028.20 745.3179
1028.30 745.6861
1028.40 746.61
1028.50 747.5338
1028.60 748.4577
1028.70 749.3815
1028.80 750.3053
1028.90 751.2292
1029.00 752.153
1029.10 753.0323
1029.20 753.5099
1029.30 753.9875
1029.40 754.4652
1029.50 754.9428
1029.60 755.4205
1029.70 755.8981
1029.80 756.3757
1029.90 756.8534
1030.00 757.331
1030.10 757.8087
1030.20 758.2863
1030.30 758.764
1030.40 759.2416
1030.50 759.7192
1030.60 760.1969
1030.70 760.6745
1030.80 761.1522
1030.90 761.6298
1031.00 762.1074
1031.10 762.5851
1031.20 763.0627
1031.30 763.5404
1031.40 764.018
1031.50 764.4956
1031.60 764.9733
1031.70 765.4509
1031.80 765.9286
1031.90 766.4062
1032.00 766.8839
1032.10 767.3615
1032.20 767.8391
1032.30 768.148
1032.40 768.2881
1032.50 768.4282
1032.60 768.5683
1032.70 768.7084
1032.80 768.8485
1032.90 768.9885
1033.00 769.1286
1033.10 769.7992
1033.20 770.8234
1033.30 771.8476
1033.40 772.8718
1033.50 773.896
1033.60 774.9202
1033.70 775.9444
1033.80 776.9686
1033.90 777.9928
1034.00 779.017
1034.10 780.0413
1034.20 781.0655
1034.30 782.0897
1034.40 783.1139
1034.50 784.1381
1034.60 785.1623
1034.70 786.1865
1034.80 787.2107
1034.90 788.2349
1035.00 789.2591
1035.10 790.2833
1035.20 791.3075
1035.30 792.3317
1035.40 793.3559
1035.50 794.3801
1035.60 795.4043
1035.70 796.4285
1035.80 797.4527
1035.90 798.4769
1036.00 799.5012
1036.10 800.5254
1036.20 801.5496
1036.30 802.794
1036.40 804.0934
1036.50 805.3929
1036.60 806.6924
1036.70 807.9919
1036.80 809.2913
1036.90 810.5908
1037.00 811.8903
1037.10 812.7756
1037.20 813.615
1037.30 814.4544
1037.40 815.2938
1037.50 816.1331
1037.60 816.9725
1037.70 817.8119
1037.80 818.6512
1037.90 819.4906
1038.00 820.33
1038.10 821.1694
1038.20 822.0087
1038.30 822.8481
1038.40 823.6875
1038.50 824.5268
1038.60 825.3662
1038.70 826.2056
1038.80 827.045
1038.90 827.8843
1039.00 828.7237
1039.10 829.5631
1039.20 830.4024
1039.30 831.2418
1039.40 832.0812
1039.50 832.9206
1039.60 833.7599
1039.70 834.5993
1039.80 835.4387
1039.90 836.2781
1040.00 837.1174
1040.10 837.9568
1040.20 838.8068
1040.30 839.7519
1040.40 840.6971
1040.50 841.6423
1040.60 842.5875
1040.70 843.5327
1040.80 844.4779
1040.90 845.423
1041.00 846.306
1041.10 846.94
1041.20 847.574
1041.30 848.208
1041.40 848.8421
1041.50 849.4761
1041.60 850.1101
1041.70 850.7441
1041.80 851.3781
1041.90 852.0122
1042.00 852.6462
1042.10 853.2802
1042.20 853.9142
1042.30 854.5482
1042.40 855.1822
1042.50 855.8163
1042.60 856.4503
1042.70 857.0843
1042.80 857.7183
1042.90 858.3523
1043.00 858.9864
1043.10 859.6204
1043.20 860.2544
1043.30 860.8884
1043.40 861.5224
1043.50 862.1564
1043.60 862.7905
1043.70 863.4245
1043.80 864.0585
1043.90 864.6925
1044.00 865.3265
1044.10 865.9605
1044.20 866.4841
1044.30 866.5658
1044.40 866.6474
1044.50 866.7291
1044.60 866.8108
1044.70 866.8924
1044.80 866.9741
1044.90 867.0558
1045.00 867.2741
1045.10 867.8114
1045.20 868.3486
1045.30 868.8859
1045.40 869.4231
1045.50 869.9604
1045.60 870.4976
1045.70 871.0349
1045.80 871.5722
1045.90 872.1094
1046.00 872.6467
1046.10 873.1839
1046.20 873.7212
1046.30 874.2584
1046.40 874.7957
1046.50 875.3329
1046.60 875.8702
1046.70 876.4074
1046.80 876.9447
1046.90 877.4819
1047.00 878.0192
1047.10 878.5565
1047.20 879.0937
1047.30 879.631
1047.40 880.1682
1047.50 880.7055
1047.60 881.2427
1047.70 881.78
1047.80 882.3172
1047.90 882.8545
1048.00 883.3917
1048.10 883.929
1048.20 884.398
1048.30 884.7079
1048.40 885.0177
1048.50 885.3276
1048.60 885.6374
1048.70 885.9473
1048.80 886.2572
1048.90 886.567
1049.00 886.7775
1049.10 886.756
1049.20 886.7346
1049.30 886.7132
1049.40 886.6917
1049.50 886.6703
1049.60 886.6488
1049.70 886.6274
1049.80 886.606
1049.90 886.5845
1050.00 886.5631
1050.10 886.5416
1050.20 886.5202
1050.30 886.4987
1050.40 886.4773
1050.50 886.4559
1050.60 886.4344
1050.70 886.413
1050.80 886.3915
1050.90 886.3701
1051.00 886.3487
1051.10 886.3272
1051.20 886.3058
1051.30 886.2843
1051.40 886.2629
1051.50 886.2415
1051.60 886.22
1051.70 886.1986
1051.80 886.1771
1051.90 886.1557
1052.00 886.1343
1052.10 886.1128
1052.20 886.2716
1052.30 887.1511
1052.40 888.0307
1052.50 888.9103
1052.60 889.7898
1052.70 890.6694
1052.80 891.549
1052.90 892.4285
1053.00 893.3439
1053.10 894.4026
1053.20 895.4614
1053.30 896.5201
1053.40 897.5788
1053.50 898.6375
1053.60 899.6962
1053.70 900.7549
1053.80 901.8137
1053.90 902.8724
1054.00 903.9311
1054.10 904.9898
1054.20 906.0485
1054.30 907.1072
1054.40 908.166
1054.50 909.2247
1054.60 910.2834
1054.70 911.3421
1054.80 912.4008
1054.90 913.4595
1055.00 914.5183
1055.10 915.577
1055.20 916.6357
1055.30 917.6944
1055.40 918.7531
1055.50 919.8118
1055.60 920.8706
1055.70 921.9293
1055.80 922.988
1055.90 924.0467
1056.00 925.1054
1056.10 926.1641
1056.20 927.2229
1056.30 927.4866
1056.40 927.7504
1056.50 928.0142
1056.60 928.278
1056.70 928.5417
1056.80 928.8055
1056.90 929.0693
1057.00 929.333
1057.10 929.1606
1057.20 928.9398
1057.30 928.7189
1057.40 928.498
1057.50 928.2772
1057.60 928.0563
1057.70 927.8354
1057.80 927.6145
1057.90 927.3937
1058.00 927.1728
1058.10 926.9519
1058.20 926.731
1058.30 926.5102
1058.40 926.2893
1058.50 926.0684
1058.60 925.8476
1058.70 925.6267
1058.80 925.4058
1058.90 925.1849
1059.00 924.9641
1059.10 924.7432
1059.20 924.5223
1059.30 924.3015
1059.40 924.0806
1059.50 923.8597
1059.60 923.6388
1059.70 923.418
1059.80 923.1971
1059.90 922.9762
1060.00 922.7554
1060.10 922.5345
1060.20 922.3136
1060.30 922.3232
1060.40 922.4865
1060.50 922.6498
1060.60 922.8131
1060.70 922.9763
1060.80 923.1396
1060.90 923.3029
1061.00 923.4662
1061.10 923.9781
1061.20 924.7225
1061.30 925.467
1061.40 926.2114
1061.50 926.9558
1061.60 927.7002
1061.70 928.4446
1061.80 929.189
1061.90 929.9335
1062.00 930.6779
1062.10 931.4223
1062.20 932.1667
1062.30 932.9111
1062.40 933.6555
1062.50 934.4
1062.60 935.1444
1062.70 935.8888
1062.80 936.6332
1062.90 937.3776
1063.00 938.122
1063.10 938.8665
1063.20 939.6109
1063.30 940.3553
1063.40 941.0997
1063.50 941.8441
1063.60 942.5885
1063.70 943.333
1063.80 944.0774
1063.90 944.8218
1064.00 945.5662
1064.10 946.3106
1064.20 947.055
1064.30 947.7817
1064.40 948.4373
1064.50 949.0929
1064.60 949.7485
1064.70 950.4041
1064.80 951.0598
1064.90 951.7154
1065.00 952.371
1065.10 952.9842
1065.20 953.4276
1065.30 953.8711
1065.40 954.3146
1065.50 954.7581
1065.60 955.2016
1065.70 955.645
1065.80 956.0885
1065.90 956.532
1066.00 956.9755
1066.10 957.419
1066.20 957.8624
1066.30 958.3059
1066.40 958.7494
1066.50 959.1929
1066.60 959.6364
1066.70 960.0798
1066.80 960.5233
1066.90 960.9668
1067.00 961.4103
1067.10 961.8538
1067.20 962.2973
1067.30 962.7407
1067.40 963.1842
1067.50 963.6277
1067.60 964.0712
1067.70 964.5147
1067.80 964.9581
1067.90 965.4016
1068.00 965.8451
1068.10 966.2886
1068.20 966.7321
1068.30 967.1755
1068.40 967.8288
1068.50 968.572
1068.60 969.3152
1068.70 970.0584
1068.80 970.8015
1068.90 971.5447
1069.00 972.2879
1069.10 973.0311
1069.20 973.8131
1069.30 974.6211
1069.40 975.4291
1069.50 976.237
1069.60 977.045
1069.70 977.8529
1069.80 978.6609
1069.90 979.4689
1070.00 980.2768
1070.10 981.0848
1070.20 981.8928
1070.30 982.7007
1070.40 983.5087
1070.50 984.3167
1070.60 985.1246
1070.70 985.9326
1070.80 986.7406
1070.90 987.5485
1071.00 988.3565
1071.10 989.1644
1071.20 989.9724
1071.30 990.7804
1071.40 991.5883
1071.50 992.3963
1071.60 993.2043
1071.70 994.0122
1071.80 994.8202
1071.90 995.6282
1072.00 996.4361
1072.10 997.2441
1072.20 998.0521
1072.30 998.86
1072.40 999.6224
1072.50 999.9749
1072.60 1000.327
1072.70 1000.68
1072.80 1001.032
1072.90 1001.385
1073.00 1001.737
1073.10 1002.09
1073.20 1002.442
1073.30 1002.977
1073.40 1003.511
1073.50 1004.045
1073.60 1004.579
1073.70 1005.113
1073.80 1005.647
1073.90 1006.181
1074.00 1006.715
1074.10 1007.249
1074.20 1007.784
1074.30 1008.318
1074.40 1008.852
1074.50 1009.386
1074.60 1009.92
1074.70 1010.454
1074.80 1010.988
1074.90 1011.522
1075.00 1012.056
1075.10 1012.591
1075.20 1013.125
1075.30 1013.659
1075.40 1014.193
1075.50 1014.727
1075.60 1015.261
1075.70 1015.795
1075.80 1016.329
1075.90 1016.863
1076.00 1017.398
1076.10 1017.932
1076.20 1018.466
1076.30 1019
1076.40 1019.534
1076.50 1020.253
1076.60 1021.248
1076.70 1022.244
1076.80 1023.24
1076.90 1024.235
1077.00 1025.231
1077.10 1026.227
1077.20 1027.222
1077.30 1028.189
1077.40 1029.041
1077.50 1029.892
1077.60 1030.744
1077.70 1031.596
1077.80 1032.447
1077.90 1033.299
1078.00 1034.151
1078.10 1035.002
1078.20 1035.854
1078.30 1036.705
1078.40 1037.557
1078.50 1038.409
1078.60 1039.26
1078.70 1040.112
1078.80 1040.964
1078.90 1041.815
1079.00 1042.667
1079.10 1043.518
1079.20 1044.37
1079.30 1045.222
1079.40 1046.073
1079.50 1046.925
1079.60 1047.777
1079.70 1048.628
1079.80 1049.48
1079.90 1050.332
1080.00 1051.183
1080.10 1052.035
1080.20 1052.886
1080.30 1053.738
1080.40 1054.59
1080.50 1055.441
1080.60 1056.116
1080.70 1056.612
1080.80 1057.109
1080.90 1057.606
1081.00 1058.103
1081.10 1058.6
1081.20 1059.097
1081.30 1059.593
1081.40 1059.868
1081.50 1059.811
1081.60 1059.753
1081.70 1059.695
1081.80 1059.638
1081.90 1059.58
1082.00 1059.522
1082.10 1059.465
1082.20 1059.407
1082.30 1059.349
1082.40 1059.292
1082.50 1059.234
1082.60 1059.176
1082.70 1059.119
1082.80 1059.061
1082.90 1059.003
1083.00 1058.946
1083.10 1058.888
1083.20 1058.83
1083.30 1058.773
1083.40 1058.715
1083.50 1058.657
1083.60 1058.6
1083.70 1058.542
1083.80 1058.484
1083.90 1058.427
1084.00 1058.369
1084.10 1058.311
1084.20 1058.254
1084.30 1058.196
1084.40 1058.138
1084.50 1058.081
1084.60 1058.023
1084.70 1058.112
1084.80 1058.298
1084.90 1058.484
1085.00 1058.67
1085.10 1058.856
1085.20 1059.042
1085.30 1059.228
1085.40 1059.414
1085.50 1059.83
1085.60 1060.591
1085.70 1061.352
1085.80 1062.113
1085.90 1062.874
1086.00 1063.635
1086.10 1064.396
1086.20 1065.157
1086.30 1065.918
1086.40 1066.679
1086.50 1067.44
1086.60 1068.201
1086.70 1068.962
1086.80 1069.724
1086.90 1070.485
1087.00 1071.246
1087.10 1072.007
1087.20 1072.768
1087.30 1073.529
1087.40 1074.29
1087.50 1075.051
1087.60 1075.812
1087.70 1076.573
1087.80 1077.334
1087.90 1078.095
1088.00 1078.856
1088.10 1079.618
1088.20 1080.379
1088.30 1081.14
1088.40 1081.901
1088.50 1082.662
1088.60 1083.423
1088.70 1084.184
1088.80 1084.874
1088.90 1085.518
1089.00 1086.161
1089.10 1086.804
1089.20 1087.448
1089.30 1088.091
1089.40 1088.734
1089.50 1089.377
1089.60 1089.84
1089.70 1090.03
1089.80 1090.22
1089.90 1090.411
1090.00 1090.601
1090.10 1090.791
1090.20 1090.982
1090.30 1091.172
1090.40 1091.362
1090.50 1091.552
1090.60 1091.743
1090.70 1091.933
1090.80 1092.123
1090.90 1092.314
1091.00 1092.504
1091.10 1092.694
1091.20 1092.885
1091.30 1093.075
1091.40 1093.265
1091.50 1093.456
1091.60 1093.646
1091.70 1093.836
1091.80 1094.027
1091.90 1094.217
1092.00 1094.407
1092.10 1094.598
1092.20 1094.788
1092.30 1094.978
1092.40 1095.169
1092.50 1095.359
1092.60 1095.549
1092.70 1095.74
1092.80 1095.93
1092.90 1096.138
1093.00 1096.363
1093.10 1096.589
1093.20 1096.815
1093.30 1097.04
1093.40 1097.266
1093.50 1097.492
1093.60 1097.717
1093.70 1097.945
1093.80 1098.179
1093.90 1098.412
1094.00 1098.646
1094.10 1098.88
1094.20 1099.113
1094.30 1099.347
1094.40 1099.58
1094.50 1099.814
1094.60 1100.048
1094.70 1100.281
1094.80 1100.515
1094.90 1100.748
1095.00 1100.982
1095.10 1101.216
1095.20 1101.449
1095.30 1101.683
1095.40 1101.916
1095.50 1102.15
1095.60 1102.384
1095.70 1102.617
1095.80 1102.851
1095.90 1103.084
1096.00 1103.318
1096.10 1103.552
1096.20 1103.785
1096.30 1104.019
1096.40 1104.252
1096.50 1104.486
1096.60 1104.72
1096.70 1104.953
1096.80 1105.187
1096.90 1105.42
1097.00 1105.517
1097.10 1105.292
1097.20 1105.068
1097.30 1104.843
1097.40 1104.618
1097.50 1104.394
1097.60 1104.169
1097.70 1103.945
1097.80 1103.732
1097.90 1103.629
1098.00 1103.525
1098.10 1103.421
1098.20 1103.317
1098.30 1103.213
1098.40 1103.109
1098.50 1103.005
1098.60 1102.902
1098.70 1102.798
1098.80 1102.694
1098.90 1102.59
1099.00 1102.486
1099.10 1102.382
1099.20 1102.279
1099.30 1102.175
1099.40 1102.071
1099.50 1101.967
1099.60 1101.863
1099.70 1101.759
1099.80 1101.656
1099.90 1101.552
1100.00 1101.448
1100.10 1101.344
1100.20 1101.24
1100.30 1101.136
1100.40 1101.032
1100.50 1100.929
1100.60 1100.825
1100.70 1100.721
1100.80 1100.617
1100.90 1100.513
1101.00 1100.409
1101.10 1100.306
1101.20 1100.308
1101.30 1100.311
1101.40 1100.314
1101.50 1100.316
1101.60 1100.319
1101.70 1100.322
1101.80 1100.325
1101.90 1100.327
1102.00 1100.299
1102.10 1100.262
1102.20 1100.225
1102.30 1100.189
1102.40 1100.152
1102.50 1100.116
1102.60 1100.079
1102.70 1100.043
1102.80 1100.006
1102.90 1099.97
1103.00 1099.933
1103.10 1099.896
1103.20 1099.86
1103.30 1099.823
1103.40 1099.787
1103.50 1099.75
1103.60 1099.714
1103.70 1099.677
1103.80 1099.641
1103.90 1099.604
1104.00 1099.567
1104.10 1099.531
1104.20 1099.494
1104.30 1099.458
1104.40 1099.421
1104.50 1099.385
1104.60 1099.348
1104.70 1099.312
1104.80 1099.275
1104.90 1099.238
1105.00 1099.202
1105.10 1099.165
1105.20 1099.129
1105.30 1099.035
1105.40 1098.902
1105.50 1098.769
1105.60 1098.636
1105.70 1098.503
1105.80 1098.371
1105.90 1098.238
1106.00 1098.105
1106.10 1097.818
1106.20 1097.298
1106.30 1096.779
1106.40 1096.259
1106.50 1095.74
1106.60 1095.22
1106.70 1094.701
1106.80 1094.181
1106.90 1093.662
1107.00 1093.142
1107.10 1092.623
1107.20 1092.103
1107.30 1091.584
1107.40 1091.064
1107.50 1090.545
1107.60 1090.025
1107.70 1089.506
1107.80 1088.986
1107.90 1088.467
1108.00 1087.947
1108.10 1087.428
1108.20 1086.908
1108.30 1086.389
1108.40 1085.869
1108.50 1085.35
1108.60 1084.83
1108.70 1084.311
1108.80 1083.791
1108.90 1083.272
1109.00 1082.752
1109.10 1082.233
1109.20 1081.713
1109.30 1081.194
1109.40 1080.722
1109.50 1080.442
1109.60 1080.162
1109.70 1079.882
1109.80 1079.602
1109.90 1079.321
1110.00 1079.041
1110.10 1078.761
1110.20 1078.481
1110.30 1078.441
1110.40 1078.428
1110.50 1078.415
1110.60 1078.402
1110.70 1078.389
1110.80 1078.376
1110.90 1078.362
1111.00 1078.349
1111.10 1078.336
1111.20 1078.323
1111.30 1078.31
1111.40 1078.297
1111.50 1078.284
1111.60 1078.271
1111.70 1078.258
1111.80 1078.245
1111.90 1078.232
1112.00 1078.219
1112.10 1078.206
1112.20 1078.192
1112.30 1078.179
1112.40 1078.166
1112.50 1078.153
1112.60 1078.14
1112.70 1078.127
1112.80 1078.114
1112.90 1078.101
1113.00 1078.088
1113.10 1078.075
1113.20 1078.062
1113.30 1078.049
1113.40 1078.035
1113.50 1078.022
1113.60 1078.064
1113.70 1078.141
1113.80 1078.219
1113.90 1078.296
1114.00 1078.374
1114.10 1078.451
1114.20 1078.529
1114.30 1078.606
1114.40 1078.751
1114.50 1079.052
1114.60 1079.353
1114.70 1079.654
1114.80 1079.954
1114.90 1080.255
1115.00 1080.556
1115.10 1080.857
1115.20 1081.158
1115.30 1081.459
1115.40 1081.76
1115.50 1082.061
1115.60 1082.362
1115.70 1082.663
1115.80 1082.964
1115.90 1083.265
1116.00 1083.566
1116.10 1083.867
1116.20 1084.168
1116.30 1084.469
1116.40 1084.77
1116.50 1085.071
1116.60 1085.372
1116.70 1085.673
1116.80 1085.973
1116.90 1086.274
1117.00 1086.575
1117.10 1086.876
1117.20 1087.177
1117.30 1087.478
1117.40 1087.779
1117.50 1088.08
1117.60 1088.381
1117.70 1088.682
1117.80 1088.933
1117.90 1089.185
1118.00 1089.436
1118.10 1089.688
1118.20 1089.939
1118.30 1090.191
1118.40 1090.442
1118.50 1090.694
1118.60 1091.046
1118.70 1091.441
1118.80 1091.837
1118.90 1092.232
1119.00 1092.627
1119.10 1093.022
1119.20 1093.418
1119.30 1093.813
1119.40 1094.208
1119.50 1094.604
1119.60 1094.999
1119.70 1095.394
1119.80 1095.789
1119.90 1096.185
1120.00 1096.58
1120.10 1096.975
1120.20 1097.371
1120.30 1097.766
1120.40 1098.161
1120.50 1098.556
1120.60 1098.952
1120.70 1099.347
1120.80 1099.742
1120.90 1100.138
1121.00 1100.533
1121.10 1100.928
1121.20 1101.323
1121.30 1101.719
1121.40 1102.114
1121.50 1102.509
1121.60 1102.905
1121.70 1103.3
1121.80 1103.695
1121.90 1103.976
1122.00 1103.99
1122.10 1104.005
1122.20 1104.019
1122.30 1104.033
1122.40 1104.047
1122.50 1104.062
1122.60 1104.076
1122.70 1104.09
1122.80 1103.5
1122.90 1102.909
1123.00 1102.318
1123.10 1101.728
1123.20 1101.137
1123.30 1100.547
1123.40 1099.956
1123.50 1099.366
1123.60 1098.775
1123.70 1098.185
1123.80 1097.594
1123.90 1097.004
1124.00 1096.413
1124.10 1095.823
1124.20 1095.232
1124.30 1094.642
1124.40 1094.051
1124.50 1093.461
1124.60 1092.87
1124.70 1092.28
1124.80 1091.689
1124.90 1091.098
1125.00 1090.508
1125.10 1089.917
1125.20 1089.327
1125.30 1088.736
1125.40 1088.146
1125.50 1087.555
1125.60 1086.965
1125.70 1086.374
1125.80 1085.784
1125.90 1085.193
1126.00 1084.603
1126.10 1083.962
1126.20 1083.272
1126.30 1082.581
1126.40 1081.89
1126.50 1081.2
1126.60 1080.509
1126.70 1079.819
1126.80 1079.128
1126.90 1078.538
1127.00 1078.349
1127.10 1078.161
1127.20 1077.972
1127.30 1077.784
1127.40 1077.595
1127.50 1077.407
1127.60 1077.218
1127.70 1077.029
1127.80 1076.841
1127.90 1076.652
1128.00 1076.464
1128.10 1076.275
1128.20 1076.086
1128.30 1075.898
1128.40 1075.709
1128.50 1075.521
1128.60 1075.332
1128.70 1075.144
1128.80 1074.955
1128.90 1074.766
1129.00 1074.578
1129.10 1074.389
1129.20 1074.201
1129.30 1074.012
1129.40 1073.823
1129.50 1073.635
1129.60 1073.446
1129.70 1073.258
1129.80 1073.069
1129.90 1072.881
1130.00 1072.692
1130.10 1072.503
1130.20 1072.315
1130.30 1071.955
1130.40 1071.522
1130.50 1071.088
1130.60 1070.655
1130.70 1070.221
1130.80 1069.788
1130.90 1069.355
1131.00 1068.921
1131.10 1068.414
1131.20 1067.794
1131.30 1067.175
1131.40 1066.555
1131.50 1065.936
1131.60 1065.316
1131.70 1064.697
1131.80 1064.077
1131.90 1063.458
1132.00 1062.839
1132.10 1062.219
1132.20 1061.6
1132.30 1060.98
1132.40 1060.361
1132.50 1059.741
1132.60 1059.122
1132.70 1058.503
1132.80 1057.883
1132.90 1057.264
1133.00 1056.644
1133.10 1056.025
1133.20 1055.405
1133.30 1054.786
1133.40 1054.167
1133.50 1053.547
1133.60 1052.928
1133.70 1052.308
1133.80 1051.689
1133.90 1051.069
1134.00 1050.45
1134.10 1049.831
1134.20 1049.211
1134.30 1048.592
1134.40 1047.972
1134.50 1047.707
1134.60 1047.53
1134.70 1047.353
1134.80 1047.175
1134.90 1046.998
1135.00 1046.821
1135.10 1046.644
1135.20 1046.467
1135.30 1046.43
1135.40 1046.603
1135.50 1046.776
1135.60 1046.949
1135.70 1047.122
1135.80 1047.295
1135.90 1047.468
1136.00 1047.641
1136.10 1047.814
1136.20 1047.987
1136.30 1048.16
1136.40 1048.334
1136.50 1048.507
1136.60 1048.68
1136.70 1048.853
1136.80 1049.026
1136.90 1049.199
1137.00 1049.372
1137.10 1049.545
1137.20 1049.718
1137.30 1049.891
1137.40 1050.064
1137.50 1050.237
1137.60 1050.41
1137.70 1050.583
1137.80 1050.756
1137.90 1050.929
1138.00 1051.102
1138.10 1051.275
1138.20 1051.448
1138.30 1051.622
1138.40 1051.795
1138.50 1051.968
1138.60 1052.141
1138.70 1052.763
1138.80 1053.497
1138.90 1054.231
1139.00 1054.965
1139.10 1055.699
1139.20 1056.434
1139.30 1057.168
1139.40 1057.902
1139.50 1058.632
1139.60 1059.354
1139.70 1060.076
1139.80 1060.799
1139.90 1061.521
1140.00 1062.243
1140.10 1062.966
1140.20 1063.688
1140.30 1064.41
1140.40 1065.133
1140.50 1065.855
1140.60 1066.577
1140.70 1067.3
1140.80 1068.022
1140.90 1068.744
1141.00 1069.467
1141.10 1070.189
1141.20 1070.911
1141.30 1071.634
1141.40 1072.356
1141.50 1073.078
1141.60 1073.801
1141.70 1074.523
1141.80 1075.246
1141.90 1075.968
1142.00 1076.69
1142.10 1077.413
1142.20 1078.135
1142.30 1078.857
1142.40 1079.58
1142.50 1080.302
1142.60 1081.024
1142.70 1081.747
1142.80 1082.469
1142.90 1083.85
1143.00 1085.397
1143.10 1086.943
1143.20 1088.489
1143.30 1090.035
1143.40 1091.582
1143.50 1093.128
1143.60 1094.674
1143.70 1096.26
1143.80 1097.906
1143.90 1099.551
1144.00 1101.197
1144.10 1102.843
1144.20 1104.488
1144.30 1106.134
1144.40 1107.78
1144.50 1109.425
1144.60 1111.071
1144.70 1112.717
1144.80 1114.362
1144.90 1116.008
1145.00 1117.654
1145.10 1119.299
1145.20 1120.945
1145.30 1122.591
1145.40 1124.236
1145.50 1125.882
1145.60 1127.528
1145.70 1129.173
1145.80 1130.819
1145.90 1132.465
1146.00 1134.11
1146.10 1135.756
1146.20 1137.402
1146.30 1139.047
1146.40 1140.693
1146.50 1142.339
1146.60 1143.985
1146.70 1145.63
1146.80 1147.276
1146.90 1148.922
1147.00 1150.567
1147.10 1151.575
1147.20 1152.158
1147.30 1152.742
1147.40 1153.325
1147.50 1153.908
1147.60 1154.491
1147.70 1155.074
1147.80 1155.657
1147.90 1156.191
1148.00 1156.526
1148.10 1156.862
1148.20 1157.197
1148.30 1157.533
1148.40 1157.868
1148.50 1158.204
1148.60 1158.539
1148.70 1158.875
1148.80 1159.21
1148.90 1159.546
1149.00 1159.881
1149.10 1160.217
1149.20 1160.552
1149.30 1160.888
1149.40 1161.223
1149.50 1161.559
1149.60 1161.894
1149.70 1162.23
1149.80 1162.565
1149.90 1162.901
1150.00 1163.236
1150.10 1163.572
1150.20 1163.907
1150.30 1164.243
1150.40 1164.578
1150.50 1164.914
1150.60 1165.249
1150.70 1165.585
1150.80 1165.92
1150.90 1166.256
1151.00 1166.591
1151.10 1166.927
1151.20 1167.262
1151.30 1167.656
1151.40 1168.109
1151.50 1168.561
1151.60 1169.014
1151.70 1169.467
1151.80 1169.919
1151.90 1170.372
1152.00 1170.824
1152.10 1171.256
1152.20 1171.495
1152.30 1171.735
1152.40 1171.974
1152.50 1172.214
1152.60 1172.454
1152.70 1172.693
1152.80 1172.933
1152.90 1173.173
1153.00 1173.412
1153.10 1173.652
1153.20 1173.891
1153.30 1174.131
1153.40 1174.371
1153.50 1174.61
1153.60 1174.85
1153.70 1175.09
1153.80 1175.329
1153.90 1175.569
1154.00 1175.808
1154.10 1176.048
1154.20 1176.288
1154.30 1176.527
1154.40 1176.767
1154.50 1177.007
1154.60 1177.246
1154.70 1177.486
1154.80 1177.725
1154.90 1177.965
1155.00 1178.205
1155.10 1178.444
1155.20 1178.684
1155.30 1178.924
1155.40 1179.163
1155.50 1179.281
1155.60 1178.912
1155.70 1178.543
1155.80 1178.174
1155.90 1177.805
1156.00 1177.436
1156.10 1177.066
1156.20 1176.697
1156.30 1176.328
1156.40 1175.942
1156.50 1175.552
1156.60 1175.162
1156.70 1174.772
1156.80 1174.382
1156.90 1173.991
1157.00 1173.601
1157.10 1173.211
1157.20 1172.821
1157.30 1172.431
1157.40 1172.04
1157.50 1171.65
1157.60 1171.26
1157.70 1170.87
1157.80 1170.48
1157.90 1170.09
1158.00 1169.699
1158.10 1169.309
1158.20 1168.919
1158.30 1168.529
1158.40 1168.139
1158.50 1167.748
1158.60 1167.358
1158.70 1166.968
1158.80 1166.578
1158.90 1166.188
1159.00 1165.797
1159.10 1165.407
1159.20 1165.017
1159.30 1164.627
1159.40 1164.237
1159.50 1163.846
1159.60 1163.456
1159.70 1163.066
1159.80 1162.576
1159.90 1162.075
1160.00 1161.574
1160.10 1161.073
1160.20 1160.572
1160.30 1160.071
1160.40 1159.57
1160.50 1159.069
1160.60 1158.381
1160.70 1157.505
1160.80 1156.629
1160.90 1155.753
1161.00 1154.878
1161.10 1154.002
1161.20 1153.126
1161.30 1152.25
1161.40 1151.375
1161.50 1150.499
1161.60 1149.623
1161.70 1148.747
1161.80 1147.872
1161.90 1146.996
1162.00 1146.12
1162.10 1145.244
1162.20 1144.368
1162.30 1143.493
1162.40 1142.617
1162.50 1141.741
1162.60 1140.865
1162.70 1139.99
1162.80 1139.114
1162.90 1138.238
1163.00 1137.362
1163.10 1136.487
1163.20 1135.611
1163.30 1134.735
1163.40 1133.859
1163.50 1132.984
1163.60 1132.108
1163.70 1131.232
1163.80 1130.356
1163.90 1129.48
1164.00 1128.544
1164.10 1127.566
1164.20 1126.589
1164.30 1125.611
1164.40 1124.634
1164.50 1123.656
1164.60 1122.679
1164.70 1121.701
1164.80 1120.761
1164.90 1120.158
1165.00 1119.555
1165.10 1118.952
1165.20 1118.349
1165.30 1117.746
1165.40 1117.143
1165.50 1116.54
1165.60 1115.937
1165.70 1115.334
1165.80 1114.731
1165.90 1114.128
1166.00 1113.525
1166.10 1112.922
1166.20 1112.319
1166.30 1111.716
1166.40 1111.113
1166.50 1110.51
1166.60 1109.907
1166.70 1109.304
1166.80 1108.701
1166.90 1108.098
1167.00 1107.495
1167.10 1106.892
1167.20 1106.289
1167.30 1105.686
1167.40 1105.083
1167.50 1104.48
1167.60 1103.877
1167.70 1103.274
1167.80 1102.671
1167.90 1102.068
1168.00 1101.465
1168.10 1100.862
1168.20 1100.234
1168.30 1099.505
1168.40 1098.776
1168.50 1098.047
1168.60 1097.318
1168.70 1096.589
1168.80 1095.86
1168.90 1095.131
1169.00 1094.402
1169.10 1093.88
1169.20 1093.445
1169.30 1093.01
1169.40 1092.576
1169.50 1092.141
1169.60 1091.707
1169.70 1091.272
1169.80 1090.838
1169.90 1090.403
1170.00 1089.969
1170.10 1089.534
1170.20 1089.1
1170.30 1088.665
1170.40 1088.231
1170.50 1087.796
1170.60 1087.362
1170.70 1086.927
1170.80 1086.493
1170.90 1086.058
1171.00 1085.623
1171.10 1085.189
1171.20 1084.754
1171.30 1084.32
1171.40 1083.885
1171.50 1083.451
1171.60 1083.016
1171.70 1082.582
1171.80 1082.147
1171.90 1081.713
1172.00 1081.278
1172.10 1080.844
1172.20 1080.409
1172.30 1079.975
1172.40 1079.54
1172.50 1079.634
1172.60 1079.955
1172.70 1080.275
1172.80 1080.596
1172.90 1080.916
1173.00 1081.237
1173.10 1081.558
1173.20 1081.878
1173.30 1082.187
1173.40 1082.45
1173.50 1082.712
1173.60 1082.974
1173.70 1083.237
1173.80 1083.499
1173.90 1083.762
1174.00 1084.024
1174.10 1084.286
1174.20 1084.549
1174.30 1084.811
1174.40 1085.074
1174.50 1085.336
1174.60 1085.599
1174.70 1085.861
1174.80 1086.123
1174.90 1086.386
1175.00 1086.648
1175.10 1086.911
1175.20 1087.173
1175.30 1087.435
1175.40 1087.698
1175.50 1087.96
1175.60 1088.223
1175.70 1088.485
1175.80 1088.747
1175.90 1089.01
1176.00 1089.272
1176.10 1089.535
1176.20 1089.797
1176.30 1090.059
1176.40 1090.322
1176.50 1090.584
1176.60 1090.847
1176.70 1091.124
1176.80 1091.464
1176.90 1091.804
1177.00 1092.143
1177.10 1092.483
1177.20 1092.823
1177.30 1093.163
1177.40 1093.502
1177.50 1093.842
1177.60 1094.441
1177.70 1095.151
1177.80 1095.862
1177.90 1096.572
1178.00 1097.282
1178.10 1097.993
1178.20 1098.703
1178.30 1099.413
1178.40 1100.123
1178.50 1100.834
1178.60 1101.544
1178.70 1102.254
1178.80 1102.965
1178.90 1103.675
1179.00 1104.385
1179.10 1105.095
1179.20 1105.806
1179.30 1106.516
1179.40 1107.226
1179.50 1107.937
1179.60 1108.647
1179.70 1109.357
1179.80 1110.068
1179.90 1110.778
1180.00 1111.488
1180.10 1112.198
1180.20 1112.909
1180.30 1113.619
1180.40 1114.329
1180.50 1115.04
1180.60 1115.75
1180.70 1116.46
1180.80 1117.171
1180.90 1117.881
1181.00 1118.879
1181.10 1120.07
1181.20 1121.26
1181.30 1122.451
1181.40 1123.642
1181.50 1124.832
1181.60 1126.023
1181.70 1127.213
1181.80 1128.389
1181.90 1129.432
1182.00 1130.475
1182.10 1131.518
1182.20 1132.561
1182.30 1133.604
1182.40 1134.647
1182.50 1135.69
1182.60 1136.733
1182.70 1137.776
1182.80 1138.819
1182.90 1139.862
1183.00 1140.904
1183.10 1141.947
1183.20 1142.99
1183.30 1144.033
1183.40 1145.076
1183.50 1146.119
1183.60 1147.162
1183.70 1148.205
1183.80 1149.248
1183.90 1150.291
1184.00 1151.334
1184.10 1152.377
1184.20 1153.42
1184.30 1154.463
1184.40 1155.506
1184.50 1156.549
1184.60 1157.592
1184.70 1158.635
1184.80 1159.677
1184.90 1160.72
1185.00 1161.763
1185.10 1162.806
1185.20 1163.849
1185.30 1164.571
1185.40 1165.293
1185.50 1166.015
1185.60 1166.737
1185.70 1167.458
1185.80 1168.18
1185.90 1168.902
1186.00 1169.624
1186.10 1170.268
1186.20 1170.835
1186.30 1171.401
1186.40 1171.968
1186.50 1172.535
1186.60 1173.101
1186.70 1173.668
1186.80 1174.235
1186.90 1174.801
1187.00 1175.368
1187.10 1175.935
1187.20 1176.501
1187.30 1177.068
1187.40 1177.635
1187.50 1178.201
1187.60 1178.768
1187.70 1179.334
1187.80 1179.901
1187.90 1180.468
1188.00 1181.034
1188.10 1181.601
1188.20 1182.168
1188.30 1182.734
1188.40 1183.301
1188.50 1183.868
1188.60 1184.434
1188.70 1185.001
1188.80 1185.568
1188.90 1186.134
1189.00 1186.701
1189.10 1187.267
1189.20 1187.834
1189.30 1188.401
1189.40 1188.967
1189.50 1189.123
1189.60 1188.663
1189.70 1188.203
1189.80 1187.743
1189.90 1187.283
1190.00 1186.823
1190.10 1186.363
1190.20 1185.903
1190.30 1185.443
1190.40 1184.829
1190.50 1184.197
1190.60 1183.566
1190.70 1182.934
1190.80 1182.303
1190.90 1181.671
1191.00 1181.04
1191.10 1180.409
1191.20 1179.777
1191.30 1179.146
1191.40 1178.514
1191.50 1177.883
1191.60 1177.252
1191.70 1176.62
1191.80 1175.989
1191.90 1175.357
1192.00 1174.726
1192.10 1174.094
1192.20 1173.463
1192.30 1172.832
1192.40 1172.2
1192.50 1171.569
1192.60 1170.937
1192.70 1170.306
1192.80 1169.675
1192.90 1169.043
1193.00 1168.412
1193.10 1167.78
1193.20 1167.149
1193.30 1166.517
1193.40 1165.886
1193.50 1165.255
1193.60 1164.623
1193.70 1163.992
1193.80 1163.469
1193.90 1162.994
1194.00 1162.518
1194.10 1162.043
1194.20 1161.567
1194.30 1161.091
1194.40 1160.616
1194.50 1160.14
1194.60 1159.675
1194.70 1159.305
1194.80 1158.936
1194.90 1158.566
1195.00 1158.196
1195.10 1157.826
1195.20 1157.457
1195.30 1157.087
1195.40 1156.717
1195.50 1156.348
1195.60 1155.978
1195.70 1155.608
1195.80 1155.238
1195.90 1154.869
1196.00 1154.499
1196.10 1154.129
1196.20 1153.76
1196.30 1153.39
1196.40 1153.02
1196.50 1152.65
1196.60 1152.281
1196.70 1151.911
1196.80 1151.541
1196.90 1151.172
1197.00 1150.802
1197.10 1150.432
1197.20 1150.062
1197.30 1149.693
1197.40 1149.323
1197.50 1148.953
1197.60 1148.584
1197.70 1148.214
1197.80 1147.844
1197.90 1147.474
1198.00 1147.105
1198.10 1147.363
1198.20 1147.691
1198.30 1148.019
1198.40 1148.348
1198.50 1148.676
1198.60 1149.004
1198.70 1149.332
1198.80 1149.66
1198.90 1149.898
1199.00 1150.001
1199.10 1150.104
1199.20 1150.206
1199.30 1150.309
1199.40 1150.412
1199.50 1150.514
1199.60 1150.617
1199.70 1150.72
1199.80 1150.823
1199.90 1150.925
1200.00 1151.028
1200.10 1151.131
1200.20 1151.233
1200.30 1151.336
1200.40 1151.439
1200.50 1151.541
1200.60 1151.644
1200.70 1151.747
1200.80 1151.849
1200.90 1151.952
1201.00 1152.055
1201.10 1152.158
1201.20 1152.26
1201.30 1152.363
1201.40 1152.466
1201.50 1152.568
1201.60 1152.671
1201.70 1152.774
1201.80 1152.876
1201.90 1152.979
1202.00 1153.082
1202.10 1153.184
1202.20 1153.287
1202.30 1153.422
1202.40 1153.845
1202.50 1154.268
1202.60 1154.691
1202.70 1155.115
1202.80 1155.538
1202.90 1155.961
1203.00 1156.384
1203.10 1156.807
1203.20 1157.665
1203.30 1158.812
1203.40 1159.959
1203.50 1161.106
1203.60 1162.253
1203.70 1163.401
1203.80 1164.548
1203.90 1165.695
1204.00 1166.842
1204.10 1167.989
1204.20 1169.136
1204.30 1170.284
1204.40 1171.431
1204.50 1172.578
1204.60 1173.725
1204.70 1174.872
1204.80 1176.019
1204.90 1177.166
1205.00 1178.314
1205.10 1179.461
1205.20 1180.608
1205.30 1181.755
1205.40 1182.902
1205.50 1184.049
1205.60 1185.196
1205.70 1186.344
1205.80 1187.491
1205.90 1188.638
1206.00 1189.785
1206.10 1190.932
1206.20 1192.079
1206.30 1193.227
1206.40 1194.374
1206.50 1195.521
1206.60 1196.716
1206.70 1198.023
1206.80 1199.33
1206.90 1200.637
1207.00 1201.944
1207.10 1203.251
1207.20 1204.558
1207.30 1205.865
1207.40 1207.172
1207.50 1208.223
1207.60 1209.211
1207.70 1210.198
1207.80 1211.186
1207.90 1212.174
1208.00 1213.161
1208.10 1214.149
1208.20 1215.136
1208.30 1216.124
1208.40 1217.111
1208.50 1218.099
1208.60 1219.086
1208.70 1220.074
1208.80 1221.061
1208.90 1222.049
1209.00 1223.036
1209.10 1224.024
1209.20 1225.011
1209.30 1225.999
1209.40 1226.987
1209.50 1227.974
1209.60 1228.962
1209.70 1229.949
1209.80 1230.937
1209.90 1231.924
1210.00 1232.912
1210.10 1233.899
1210.20 1234.887
1210.30 1235.874
1210.40 1236.862
1210.50 1237.849
1210.60 1238.837
1210.70 1239.824
1210.80 1240.812
1210.90 1241.684
1211.00 1242.439
1211.10 1243.195
1211.20 1243.95
1211.30 1244.706
1211.40 1245.462
1211.50 1246.217
1211.60 1246.973
1211.70 1247.729
1211.80 1248.7
1211.90 1249.695
1212.00 1250.69
1212.10 1251.685
1212.20 1252.68
1212.30 1253.675
1212.40 1254.67
1212.50 1255.666
1212.60 1256.661
1212.70 1257.656
1212.80 1258.651
1212.90 1259.646
1213.00 1260.641
1213.10 1261.636
1213.20 1262.631
1213.30 1263.626
1213.40 1264.622
1213.50 1265.617
1213.60 1266.612
1213.70 1267.607
1213.80 1268.602
1213.90 1269.597
1214.00 1270.592
1214.10 1271.587
1214.20 1272.582
1214.30 1273.577
1214.40 1274.573
1214.50 1275.568
1214.60 1276.563
1214.70 1277.558
1214.80 1278.553
1214.90 1279.548
1215.00 1280.543
1215.10 1281.538
1215.20 1282.633
1215.30 1283.793
1215.40 1284.954
1215.50 1286.115
1215.60 1287.276
1215.70 1288.436
1215.80 1289.597
1215.90 1290.758
1216.00 1291.918
1216.10 1292.452
1216.20 1292.987
1216.30 1293.521
1216.40 1294.055
1216.50 1294.589
1216.60 1295.123
1216.70 1295.657
1216.80 1296.191
1216.90 1296.726
1217.00 1297.26
1217.10 1297.794
1217.20 1298.328
1217.30 1298.862
1217.40 1299.396
1217.50 1299.93
1217.60 1300.465
1217.70 1300.999
1217.80 1301.533
1217.90 1302.067
1218.00 1302.601
1218.10 1303.135
1218.20 1303.669
1218.30 1304.204
1218.40 1304.738
1218.50 1305.272
1218.60 1305.806
1218.70 1306.34
1218.80 1306.874
1218.90 1307.408
1219.00 1307.943
1219.10 1308.477
1219.20 1309.011
1219.30 1309.545
1219.40 1310.079
1219.50 1310.506
1219.60 1310.886
1219.70 1311.266
1219.80 1311.646
1219.90 1312.027
1220.00 1312.407
1220.10 1312.787
1220.20 1313.168
1220.30 1313.588
1220.40 1314.37
1220.50 1315.152
1220.60 1315.935
1220.70 1316.717
1220.80 1317.499
1220.90 1318.281
1221.00 1319.063
1221.10 1319.845
1221.20 1320.627
1221.30 1321.409
1221.40 1322.192
1221.50 1322.974
1221.60 1323.756
1221.70 1324.538
1221.80 1325.32
1221.90 1326.102
1222.00 1326.884
1222.10 1327.667
1222.20 1328.449
1222.30 1329.231
1222.40 1330.013
1222.50 1330.795
1222.60 1331.577
1222.70 1332.359
1222.80 1333.141
1222.90 1333.924
1223.00 1334.706
1223.10 1335.488
1223.20 1336.27
1223.30 1337.052
1223.40 1337.834
1223.50 1338.616
1223.60 1339.399
1223.70 1340.181
1223.80 1340.656
1223.90 1340.999
1224.00 1341.342
1224.10 1341.685
1224.20 1342.028
1224.30 1342.371
1224.40 1342.714
1224.50 1343.058
1224.60 1343.34
1224.70 1343.377
1224.80 1343.414
1224.90 1343.452
1225.00 1343.489
1225.10 1343.526
1225.20 1343.564
1225.30 1343.601
1225.40 1343.638
1225.50 1343.676
1225.60 1343.713
1225.70 1343.75
1225.80 1343.788
1225.90 1343.825
1226.00 1343.863
1226.10 1343.9
1226.20 1343.937
1226.30 1343.975
1226.40 1344.012
1226.50 1344.049
1226.60 1344.087
1226.70 1344.124
1226.80 1344.161
1226.90 1344.199
1227.00 1344.236
1227.10 1344.273
1227.20 1344.311
1227.30 1344.348
1227.40 1344.386
1227.50 1344.423
1227.60 1344.46
1227.70 1344.498
1227.80 1344.535
1227.90 1344.572
1228.00 1344.61
1228.10 1344.578
1228.20 1344.53
1228.30 1344.481
1228.40 1344.432
1228.50 1344.384
1228.60 1344.335
1228.70 1344.287
1228.80 1344.238
1228.90 1344.164
1229.00 1343.986
1229.10 1343.809
1229.20 1343.632
1229.30 1343.454
1229.40 1343.277
1229.50 1343.1
1229.60 1342.922
1229.70 1342.745
1229.80 1342.568
1229.90 1342.39
1230.00 1342.213
1230.10 1342.035
1230.20 1341.858
1230.30 1341.681
1230.40 1341.503
1230.50 1341.326
1230.60 1341.149
1230.70 1340.971
1230.80 1340.794
1230.90 1340.617
1231.00 1340.439
1231.10 1340.262
1231.20 1340.085
1231.30 1339.907
1231.40 1339.73
1231.50 1339.553
1231.60 1339.375
1231.70 1339.198
1231.80 1339.021
1231.90 1338.843
1232.00 1338.666
1232.10 1338.489
1232.20 1338.311
1232.30 1338.134
1232.40 1337.306
1232.50 1336.314
1232.60 1335.323
1232.70 1334.332
1232.80 1333.34
1232.90 1332.349
1233.00 1331.358
1233.10 1330.366
1233.20 1329.355
1233.30 1328.265
1233.40 1327.175
1233.50 1326.085
1233.60 1324.995
1233.70 1323.904
1233.80 1322.814
1233.90 1321.724
1234.00 1320.634
1234.10 1319.544
1234.20 1318.453
1234.30 1317.363
1234.40 1316.273
1234.50 1315.183
1234.60 1314.093
1234.70 1313.003
1234.80 1311.912
1234.90 1310.822
1235.00 1309.732
1235.10 1308.642
1235.20 1307.552
1235.30 1306.462
1235.40 1305.371
1235.50 1304.281
1235.60 1303.191
1235.70 1302.101
1235.80 1301.011
1235.90 1299.92
1236.00 1298.83
1236.10 1297.74
1236.20 1296.65
1236.30 1295.56
1236.40 1294.47
1236.50 1293.379
1236.60 1292.289
1236.70 1291.582
1236.80 1291.038
1236.90 1290.494
1237.00 1289.95
1237.10 1289.406
1237.20 1288.863
1237.30 1288.319
1237.40 1287.775
1237.50 1287.235
1237.60 1286.711
1237.70 1286.187
1237.80 1285.663
1237.90 1285.14
1238.00 1284.616
1238.10 1284.092
1238.20 1283.568
1238.30 1283.044
1238.40 1282.52
1238.50 1281.996
1238.60 1281.472
1238.70 1280.948
1238.80 1280.424
1238.90 1279.9
1239.00 1279.376
1239.10 1278.852
1239.20 1278.328
1239.30 1277.804
1239.40 1277.28
1239.50 1276.757
1239.60 1276.233
1239.70 1275.709
1239.80 1275.185
1239.90 1274.661
1240.00 1274.137
1240.10 1273.613
1240.20 1273.089
1240.30 1272.565
1240.40 1272.041
1240.50 1271.517
1240.60 1270.993
1240.70 1270.469
1240.80 1269.945
1240.90 1269.421
1241.00 1268.874
1241.10 1268.316
1241.20 1267.759
1241.30 1267.201
1241.40 1266.644
1241.50 1266.086
1241.60 1265.528
1241.70 1264.971
1241.80 1264.444
1241.90 1264.189
1242.00 1263.934
1242.10 1263.679
1242.20 1263.424
1242.30 1263.169
1242.40 1262.914
1242.50 1262.659
1242.60 1262.405
1242.70 1262.15
1242.80 1261.895
1242.90 1261.64
1243.00 1261.385
1243.10 1261.13
1243.20 1260.875
1243.30 1260.62
1243.40 1260.366
1243.50 1260.111
1243.60 1259.856
1243.70 1259.601
1243.80 1259.346
1243.90 1259.091
1244.00 1258.836
1244.10 1258.581
1244.20 1258.327
1244.30 1258.072
1244.40 1257.817
1244.50 1257.562
1244.60 1257.307
1244.70 1257.052
1244.80 1256.797
1244.90 1256.542
1245.00 1256.288
1245.10 1256.033
1245.20 1255.778
1245.30 1256.15
1245.40 1256.941
1245.50 1257.731
1245.60 1258.521
1245.70 1259.312
1245.80 1260.102
1245.90 1260.893
1246.00 1261.683
1246.10 1262.474
1246.20 1263.733
1246.30 1264.992
1246.40 1266.251
1246.50 1267.51
1246.60 1268.769
1246.70 1270.028
1246.80 1271.287
1246.90 1272.546
1247.00 1273.805
1247.10 1275.064
1247.20 1276.323
1247.30 1277.582
1247.40 1278.841
1247.50 1280.1
1247.60 1281.359
1247.70 1282.618
1247.80 1283.877
1247.90 1285.136
1248.00 1286.395
1248.10 1287.654
1248.20 1288.913
1248.30 1290.172
1248.40 1291.431
1248.50 1292.69
1248.60 1293.949
1248.70 1295.208
1248.80 1296.467
1248.90 1297.726
1249.00 1298.985
1249.10 1300.244
1249.20 1301.504
1249.30 1302.763
1249.40 1304.022
1249.50 1305.281
1249.60 1306.498
1249.70 1307.673
1249.80 1308.848
1249.90 1310.023
1250.00 1311.198
1250.10 1312.373
1250.20 1313.548
1250.30 1314.723
1250.40 1315.898
1250.50 1316.929
1250.60 1317.959
1250.70 1318.99
1250.80 1320.02
1250.90 1321.051
1251.00 1322.081
1251.10 1323.111
1251.20 1324.142
1251.30 1325.172
1251.40 1326.203
1251.50 1327.233
1251.60 1328.264
1251.70 1329.294
1251.80 1330.325
1251.90 1331.355
1252.00 1332.385
1252.10 1333.416
1252.20 1334.446
1252.30 1335.477
1252.40 1336.507
1252.50 1337.538
1252.60 1338.568
1252.70 1339.599
1252.80 1340.629
1252.90 1341.659
1253.00 1342.69
1253.10 1343.72
1253.20 1344.751
1253.30 1345.781
1253.40 1346.812
1253.50 1347.842
1253.60 1348.872
1253.70 1349.903
1253.80 1350.933
1253.90 1352.121
1254.00 1353.546
1254.10 1354.971
1254.20 1356.395
1254.30 1357.82
1254.40 1359.244
1254.50 1360.669
1254.60 1362.094
1254.70 1363.518
1254.80 1364.719
1254.90 1365.895
1255.00 1367.071
1255.10 1368.247
1255.20 1369.422
1255.30 1370.598
1255.40 1371.774
1255.50 1372.95
1255.60 1374.126
1255.70 1375.302
1255.80 1376.478
1255.90 1377.654
1256.00 1378.83
1256.10 1380.006
1256.20 1381.182
1256.30 1382.357
1256.40 1383.533
1256.50 1384.709
1256.60 1385.885
1256.70 1387.061
1256.80 1388.237
1256.90 1389.413
1257.00 1390.589
1257.10 1391.765
1257.20 1392.941
1257.30 1394.116
1257.40 1395.292
1257.50 1396.468
1257.60 1397.644
1257.70 1398.82
1257.80 1399.996
1257.90 1401.172
1258.00 1402.348
1258.10 1403.524
1258.20 1404.441
1258.30 1404.757
1258.40 1405.072
1258.50 1405.388
1258.60 1405.703
1258.70 1406.019
1258.80 1406.334
1258.90 1406.649
1259.00 1406.965
1259.10 1407.816
1259.20 1408.897
1259.30 1409.978
1259.40 1411.06
1259.50 1412.141
1259.60 1413.222
1259.70 1414.303
1259.80 1415.384
1259.90 1416.465
1260.00 1417.546
1260.10 1418.627
1260.20 1419.708
1260.30 1420.79
1260.40 1421.871
1260.50 1422.952
1260.60 1424.033
1260.70 1425.114
1260.80 1426.195
1260.90 1427.276
1261.00 1428.357
1261.10 1429.438
1261.20 1430.519
1261.30 1431.601
1261.40 1432.682
1261.50 1433.763
1261.60 1434.844
1261.70 1435.925
1261.80 1437.006
1261.90 1438.087
1262.00 1439.168
1262.10 1440.249
1262.20 1441.33
1262.30 1442.412
1262.40 1443.493
1262.50 1444.733
1262.60 1446.61
1262.70 1448.487
1262.80 1450.364
1262.90 1452.241
1263.00 1454.118
1263.10 1455.995
1263.20 1457.872
1263.30 1459.749
1263.40 1461.143
1263.50 1462.214
1263.60 1463.285
1263.70 1464.356
1263.80 1465.427
1263.90 1466.499
1264.00 1467.57
1264.10 1468.641
1264.20 1469.712
1264.30 1470.783
1264.40 1471.854
1264.50 1472.926
1264.60 1473.997
1264.70 1475.068
1264.80 1476.139
1264.90 1477.21
1265.00 1478.281
1265.10 1479.353
1265.20 1480.424
1265.30 1481.495
1265.40 1482.566
1265.50 1483.637
1265.60 1484.708
1265.70 1485.78
1265.80 1486.851
1265.90 1487.922
1266.00 1488.993
1266.10 1490.064
1266.20 1491.135
1266.30 1492.207
1266.40 1493.278
1266.50 1494.349
1266.60 1495.42
1266.70 1496.491
1266.80 1497.562
1266.90 1497.131
1267.00 1496.701
1267.10 1496.27
1267.20 1495.839
1267.30 1495.408
1267.40 1494.977
1267.50 1494.546
1267.60 1494.115
1267.70 1493.783
1267.80 1493.599
1267.90 1493.416
1268.00 1493.232
1268.10 1493.049
1268.20 1492.865
1268.30 1492.682
1268.40 1492.499
1268.50 1492.315
1268.60 1492.132
1268.70 1491.948
1268.80 1491.765
1268.90 1491.581
1269.00 1491.398
1269.10 1491.214
1269.20 1491.031
1269.30 1490.848
1269.40 1490.664
1269.50 1490.481
1269.60 1490.297
1269.70 1490.114
1269.80 1489.93
1269.90 1489.747
1270.00 1489.563
1270.10 1489.38
1270.20 1489.197
1270.30 1489.013
1270.40 1488.83
1270.50 1488.646
1270.60 1488.463
1270.70 1488.279
1270.80 1488.096
1270.90 1487.912
1271.00 1487.729
1271.10 1487.546
1271.20 1488.437
1271.30 1489.449
1271.40 1490.46
1271.50 1491.471
1271.60 1492.482
1271.70 1493.493
1271.80 1494.504
1271.90 1495.516
1272.00 1496.217
1272.10 1496.197
1272.20 1496.177
1272.30 1496.156
1272.40 1496.136
1272.50 1496.116
1272.60 1496.095
1272.70 1496.075
1272.80 1496.055
1272.90 1496.034
1273.00 1496.014
1273.10 1495.994
1273.20 1495.973
1273.30 1495.953
1273.40 1495.933
1273.50 1495.912
1273.60 1495.892
1273.70 1495.872
1273.80 1495.851
1273.90 1495.831
1274.00 1495.811
1274.10 1495.79
1274.20 1495.77
1274.30 1495.749
1274.40 1495.729
1274.50 1495.709
1274.60 1495.688
1274.70 1495.668
1274.80 1495.648
1274.90 1495.627
1275.00 1495.607
1275.10 1495.587
1275.20 1495.566
1275.30 1495.546
1275.40 1495.526
1275.50 1495.076
1275.60 1494.443
1275.70 1493.81
1275.80 1493.177
1275.90 1492.544
1276.00 1491.91
1276.10 1491.277
1276.20 1490.644
1276.30 1490.107
1276.40 1490.438
1276.50 1490.768
1276.60 1491.099
1276.70 1491.429
1276.80 1491.759
1276.90 1492.09
1277.00 1492.42
1277.10 1492.751
1277.20 1493.081
1277.30 1493.412
1277.40 1493.742
1277.50 1494.073
1277.60 1494.403
1277.70 1494.734
1277.80 1495.064
1277.90 1495.394
1278.00 1495.725
1278.10 1496.055
1278.20 1496.386
1278.30 1496.716
1278.40 1497.047
1278.50 1497.377
1278.60 1497.708
1278.70 1498.038
1278.80 1498.369
1278.90 1498.699
1279.00 1499.029
1279.10 1499.36
1279.20 1499.69
1279.30 1500.021
1279.40 1500.351
1279.50 1500.682
1279.60 1501.012
1279.70 1501.343
1279.80 1501.703
1279.90 1502.082
1280.00 1502.462
1280.10 1502.842
1280.20 1503.222
1280.30 1503.601
1280.40 1503.981
1280.50 1504.361
1280.60 1504.741
1280.70 1504.75
1280.80 1504.759
1280.90 1504.768
1281.00 1504.777
1281.10 1504.787
1281.20 1504.796
1281.30 1504.805
1281.40 1504.814
1281.50 1504.823
1281.60 1504.832
1281.70 1504.841
1281.80 1504.851
1281.90 1504.86
1282.00 1504.869
1282.10 1504.878
1282.20 1504.887
1282.30 1504.896
1282.40 1504.906
1282.50 1504.915
1282.60 1504.924
1282.70 1504.933
1282.80 1504.942
1282.90 1504.951
1283.00 1504.961
1283.10 1504.97
1283.20 1504.979
1283.30 1504.988
1283.40 1504.997
1283.50 1505.006
1283.60 1505.015
1283.70 1505.025
1283.80 1505.034
1283.90 1505.043
1284.00 1505.052
1284.10 1505.201
1284.20 1505.561
1284.30 1505.92
1284.40 1506.279
1284.50 1506.639
1284.60 1506.998
1284.70 1507.357
1284.80 1507.717
1284.90 1508.076
1285.00 1508.588
1285.10 1509.137
1285.20 1509.687
1285.30 1510.237
1285.40 1510.786
1285.50 1511.336
1285.60 1511.886
1285.70 1512.436
1285.80 1512.985
1285.90 1513.535
1286.00 1514.085
1286.10 1514.635
1286.20 1515.184
1286.30 1515.734
1286.40 1516.284
1286.50 1516.833
1286.60 1517.383
1286.70 1517.933
1286.80 1518.483
1286.90 1519.032
1287.00 1519.582
1287.10 1520.132
1287.20 1520.682
1287.30 1521.231
1287.40 1521.781
1287.50 1522.331
1287.60 1522.88
1287.70 1523.43
1287.80 1523.98
1287.90 1524.53
1288.00 1525.079
1288.10 1525.629
1288.20 1526.179
1288.30 1526.728
1288.40 1527.237
1288.50 1527.581
1288.60 1527.925
1288.70 1528.268
1288.80 1528.612
1288.90 1528.956
1289.00 1529.3
1289.10 1529.643
1289.20 1529.987
1289.30 1530.192
1289.40 1530.306
1289.50 1530.419
1289.60 1530.532
1289.70 1530.645
1289.80 1530.758
1289.90 1530.872
1290.00 1530.985
1290.10 1531.098
1290.20 1531.211
1290.30 1531.324
1290.40 1531.438
1290.50 1531.551
1290.60 1531.664
1290.70 1531.777
1290.80 1531.89
1290.90 1532.004
1291.00 1532.117
1291.10 1532.23
1291.20 1532.343
1291.30 1532.456
1291.40 1532.569
1291.50 1532.683
1291.60 1532.796
1291.70 1532.909
1291.80 1533.022
1291.90 1533.135
1292.00 1533.249
1292.10 1533.362
1292.20 1533.475
1292.30 1533.588
1292.40 1533.701
1292.50 1533.815
1292.60 1533.928
1292.70 1534.041
1292.80 1534.057
1292.90 1534.073
1293.00 1534.088
1293.10 1534.104
1293.20 1534.12
1293.30 1534.136
1293.40 1534.152
1293.50 1534.167
1293.60 1534.19
1293.70 1534.222
1293.80 1534.254
1293.90 1534.286
1294.00 1534.318
1294.10 1534.35
1294.20 1534.382
1294.30 1534.414
1294.40 1534.446
1294.50 1534.478
1294.60 1534.51
1294.70 1534.542
1294.80 1534.574
1294.90 1534.606
1295.00 1534.638
1295.10 1534.67
1295.20 1534.702
1295.30 1534.734
1295.40 1534.766
1295.50 1534.798
1295.60 1534.83
1295.70 1534.862
1295.80 1534.894
1295.90 1534.926
1296.00 1534.958
1296.10 1534.99
1296.20 1535.022
1296.30 1535.054
1296.40 1535.086
1296.50 1535.118
1296.60 1535.15
1296.70 1535.182
1296.80 1535.214
1296.90 1535.246
1297.00 1535.278
1297.10 1535.048
1297.20 1534.753
1297.30 1534.457
1297.40 1534.162
1297.50 1533.866
1297.60 1533.57
1297.70 1533.275
1297.80 1532.979
1297.90 1532.668
1298.00 1532.296
1298.10 1531.923
1298.20 1531.551
1298.30 1531.178
1298.40 1530.806
1298.50 1530.433
1298.60 1530.061
1298.70 1529.688
1298.80 1529.316
1298.90 1528.943
1299.00 1528.571
1299.10 1528.198
1299.20 1527.826
1299.30 1527.453
1299.40 1527.081
1299.50 1526.708
1299.60 1526.335
1299.70 1525.963
1299.80 1525.59
1299.90 1525.218
