# Version 2.1 - nm, norm@500 to 1, cut digits
# Wavelength(nm)  Flambda(ergs/cm^s/s/nm)
300.00 0.00794852
300.10 0.007984919
300.20 0.008055751
300.30 0.008089986
300.40 0.008123347
300.50 0.008155808
300.60 0.008187366
300.70 0.008218041
300.80 0.008247864
300.90 0.008276872
301.00 0.008305104
301.10 0.008332596
301.20 0.008359386
301.30 0.008385504
301.40 0.008410983
301.50 0.008435852
301.60 0.008460138
301.70 0.008483866
301.80 0.008507062
301.90 0.008529748
302.00 0.008551946
302.10 0.008573676
302.20 0.008594959
302.30 0.008615812
302.40 0.008636253
302.50 0.008656298
302.60 0.008675963
302.70 0.008695262
302.80 0.008714209
302.90 0.008732818
303.00 0.008751101
303.10 0.00876907
303.20 0.008786738
303.30 0.008804126
303.40 0.008821268
303.50 0.008838221
303.60 0.008855069
303.70 0.008871934
303.80 0.008888974
303.90 0.008906373
304.00 0.008924335
304.10 0.008943061
304.20 0.008962737
304.30 0.008983516
304.40 0.009005511
304.50 0.009028791
304.60 0.009053388
304.70 0.009079303
304.80 0.009106516
304.90 0.009134999
305.00 0.009217332
305.10 0.009293426
305.20 0.009364159
305.30 0.009430813
305.40 0.009494817
305.50 0.009557504
305.60 0.009619926
305.70 0.009682775
305.80 0.009746384
305.90 0.009810806
306.00 0.009875885
306.10 0.009941382
306.20 0.01000707
306.30 0.01007274
306.40 0.01013823
306.50 0.01020343
306.60 0.01026823
306.70 0.01033261
306.80 0.01039654
306.90 0.01046
307.00 0.01052299
307.10 0.01058552
307.20 0.01064759
307.30 0.01070919
307.40 0.01077037
307.50 0.01083116
307.60 0.01089164
307.70 0.01095192
307.80 0.01101217
307.90 0.01107256
308.00 0.01113333
308.10 0.01119469
308.20 0.01125685
308.30 0.01132003
308.40 0.01138436
308.50 0.01144996
308.60 0.01151691
308.70 0.01158526
308.80 0.01165503
308.90 0.01172622
309.00 0.01179884
309.10 0.01187289
309.20 0.01194838
309.30 0.0120253
309.40 0.01210369
309.50 0.01218361
309.60 0.01226512
309.70 0.01234838
309.80 0.01243355
309.90 0.01252085
310.00 0.01261054
310.10 0.01270285
310.20 0.01279805
310.30 0.01289635
310.40 0.01299793
310.50 0.01310291
310.60 0.01321139
310.70 0.01332342
310.80 0.01343902
310.90 0.0135582
311.00 0.01368097
311.10 0.01380733
311.20 0.01393726
311.30 0.01407075
311.40 0.01420772
311.50 0.01434805
311.60 0.01449153
311.70 0.01463781
311.80 0.01478646
311.90 0.01493692
312.00 0.01508858
312.10 0.0152408
312.20 0.01539294
312.30 0.01554447
312.40 0.01569494
312.50 0.01584402
312.60 0.01599149
312.70 0.01613722
312.80 0.01628115
312.90 0.01642324
313.00 0.0165635
313.10 0.01670193
313.20 0.01683852
313.30 0.01697328
313.40 0.01710626
313.50 0.0172375
313.60 0.0173671
313.70 0.01749522
313.80 0.01762205
313.90 0.01774785
314.00 0.01787288
314.10 0.01799744
314.20 0.01812181
314.30 0.01824624
314.40 0.01837093
314.50 0.01849602
314.60 0.01862162
314.70 0.01874778
314.80 0.01887453
314.90 0.01900188
315.00 0.01912984
315.10 0.01925841
315.20 0.01938759
315.30 0.01951737
315.40 0.01964776
315.50 0.01977877
315.60 0.0199104
315.70 0.02004266
315.80 0.02017557
315.90 0.02030914
316.00 0.0204434
316.10 0.02057837
316.20 0.02071407
316.30 0.02085051
316.40 0.02098771
316.50 0.02112569
316.60 0.02126445
316.70 0.02140399
316.80 0.02154431
316.90 0.02168543
317.00 0.02182733
317.10 0.02197002
317.20 0.0221135
317.30 0.02225778
317.40 0.02240292
317.50 0.02254899
317.60 0.02269613
317.70 0.02284456
317.80 0.02299457
317.90 0.02314649
318.00 0.02330074
318.10 0.02345773
318.20 0.02361786
318.30 0.02378147
318.40 0.02394886
318.50 0.02412024
318.60 0.02429574
318.70 0.02447546
318.80 0.02465943
318.90 0.02484767
319.00 0.02504019
319.10 0.02523698
319.20 0.02543804
319.30 0.02564336
319.40 0.02585291
319.50 0.02606664
319.60 0.02628444
319.70 0.02650618
319.80 0.02673166
319.90 0.02696063
320.00 0.02719283
320.10 0.02742796
320.20 0.02766576
320.30 0.02790599
320.40 0.02814845
320.50 0.02839299
320.60 0.02863953
320.70 0.02888799
320.80 0.02913836
320.90 0.02939062
321.00 0.02964477
321.10 0.0299008
321.20 0.03015874
321.30 0.03041861
321.40 0.03068049
321.50 0.03094458
321.60 0.03121116
321.70 0.03148069
321.80 0.03175377
321.90 0.03203115
322.00 0.03231367
322.10 0.0326022
322.20 0.03289761
322.30 0.03320062
322.40 0.03351185
322.50 0.03383174
322.60 0.03416059
322.70 0.03449859
322.80 0.03484581
322.90 0.0352023
323.00 0.03556806
323.10 0.03594309
323.20 0.03632737
323.30 0.03672084
323.40 0.03712329
323.50 0.03753436
323.60 0.03795342
323.70 0.03837951
323.80 0.03881134
323.90 0.03924733
324.00 0.0396857
324.10 0.04012458
324.20 0.04056217
324.30 0.0409969
324.40 0.04142747
324.50 0.04185294
324.60 0.04227268
324.70 0.0426863
324.80 0.04309363
324.90 0.04349458
325.00 0.04388914
325.10 0.0442773
325.20 0.04465909
325.30 0.04503454
325.40 0.04540378
325.50 0.04576706
325.60 0.04612476
325.70 0.04647752
325.80 0.04682616
325.90 0.04717168
326.00 0.04751526
326.10 0.04785808
326.20 0.0482013
326.30 0.04854593
326.40 0.04889281
326.50 0.04924254
326.60 0.04959554
326.70 0.04995204
326.80 0.05031216
326.90 0.05067596
327.00 0.05104344
327.10 0.05141461
327.20 0.05178944
327.30 0.0521679
327.40 0.05254985
327.50 0.05293501
327.60 0.05332296
327.70 0.05371301
327.80 0.05410427
327.90 0.05449562
328.00 0.05488581
328.10 0.05527352
328.20 0.05565749
328.30 0.05603661
328.40 0.05640997
328.50 0.05677692
328.60 0.05713699
328.70 0.05748993
328.80 0.05783561
328.90 0.05817397
329.00 0.05850501
329.10 0.05882871
329.20 0.05914508
329.30 0.05945408
329.40 0.05975562
329.50 0.06004954
329.60 0.06033557
329.70 0.06061327
329.80 0.06088209
329.90 0.06114132
330.00 0.06139017
330.10 0.06162781
330.20 0.06185345
330.30 0.0620664
330.40 0.06226608
330.50 0.06245208
330.60 0.0626241
330.70 0.062782
330.80 0.06292568
330.90 0.06305511
331.00 0.06317028
331.10 0.0632712
331.20 0.06335787
331.30 0.06343038
331.40 0.06348888
331.50 0.06353372
331.60 0.06356547
331.70 0.06358501
331.80 0.06359348
331.90 0.06359235
332.00 0.06358322
332.10 0.0635678
332.20 0.06354772
332.30 0.0635244
332.40 0.06349902
332.50 0.06347245
332.60 0.06344525
332.70 0.06341777
332.80 0.06339018
332.90 0.06336255
333.00 0.06333489
333.10 0.06330721
333.20 0.0632795
333.30 0.06325182
333.40 0.06322424
333.50 0.06319695
333.60 0.06317025
333.70 0.0631446
333.80 0.06312061
333.90 0.06309903
334.00 0.06308073
334.10 0.06306659
334.20 0.06305748
334.30 0.06305415
334.40 0.06305721
334.50 0.06306712
334.60 0.06308419
334.70 0.06310858
334.80 0.0631404
334.90 0.06317968
335.00 0.06322642
335.10 0.06328063
335.20 0.0633423
335.30 0.06341138
335.40 0.06348776
335.50 0.06357123
335.60 0.06366141
335.70 0.06375774
335.80 0.06385949
335.90 0.06396571
336.00 0.06407538
336.10 0.06418739
336.20 0.0643007
336.30 0.06441439
336.40 0.06452771
336.50 0.0646401
336.60 0.06475119
336.70 0.06486076
336.80 0.0649687
336.90 0.06507497
337.00 0.06517956
337.10 0.06528247
337.20 0.06538369
337.30 0.06548322
337.40 0.06558105
337.50 0.06567713
337.60 0.06577142
337.70 0.06586382
337.80 0.06595421
337.90 0.06604246
338.00 0.0661284
338.10 0.06621185
338.20 0.06629267
338.30 0.06637069
338.40 0.06644581
338.50 0.06651794
338.60 0.06658702
338.70 0.06665302
338.80 0.06671591
338.90 0.0667757
339.00 0.06683238
339.10 0.06688595
339.20 0.06693643
339.30 0.06698387
339.40 0.06702842
339.50 0.06707039
339.60 0.06711028
339.70 0.06714884
339.80 0.0671871
339.90 0.06722633
340.00 0.06726794
340.10 0.06731342
340.20 0.06736421
340.30 0.06742155
340.40 0.06748648
340.50 0.06755976
340.60 0.06764188
340.70 0.06773315
340.80 0.06783372
340.90 0.06794364
341.00 0.06806294
341.10 0.0681916
341.20 0.06832963
341.30 0.06847698
341.40 0.06863357
341.50 0.06879923
341.60 0.06897365
341.70 0.06915639
341.80 0.06934684
341.90 0.06954427
342.00 0.06974784
342.10 0.06995667
342.20 0.07016991
342.30 0.07038683
342.40 0.07060683
342.50 0.07082946
342.60 0.07105442
342.70 0.07128153
342.80 0.07151071
342.90 0.07174192
343.00 0.07197516
343.10 0.07221042
343.20 0.07244772
343.30 0.07268709
343.40 0.07292866
343.50 0.07317265
343.60 0.07341946
343.70 0.07366965
343.80 0.07392401
343.90 0.07418351
344.00 0.07444924
344.10 0.07472234
344.20 0.07500389
344.30 0.07529486
344.40 0.07559603
344.50 0.07590798
344.60 0.07623111
344.70 0.07656563
344.80 0.07691166
344.90 0.07726925
345.00 0.07763841
345.10 0.07801914
345.20 0.07841141
345.30 0.07881515
345.40 0.07923014
345.50 0.07965594
345.60 0.08009185
345.70 0.08053677
345.80 0.08098923
345.90 0.08144744
346.00 0.08190935
346.10 0.08237283
346.20 0.08283584
346.30 0.08329657
346.40 0.08375356
346.50 0.08420573
346.60 0.08465235
346.70 0.08509299
346.80 0.08552744
346.90 0.08595562
347.00 0.0863775
347.10 0.08679308
347.20 0.0872024
347.30 0.08760563
347.40 0.08800316
347.50 0.08839581
347.60 0.08878493
347.70 0.08917258
347.80 0.08956151
347.90 0.08995514
348.00 0.09035732
348.10 0.09077205
348.20 0.09120319
348.30 0.09165415
348.40 0.09212768
348.50 0.09262585
348.60 0.09315
348.70 0.09370094
348.80 0.09427909
348.90 0.0948846
349.00 0.09551751
349.10 0.09617782
349.20 0.09686546
349.30 0.0975801
349.40 0.09832097
349.50 0.09908647
349.60 0.09987394
349.70 0.1006794
349.80 0.1014974
349.90 0.1023212
350.00 0.1031434
350.10 0.1039561
350.20 0.1047517
350.30 0.1055236
350.40 0.1062664
350.50 0.106976
350.60 0.1076498
350.70 0.1082862
350.80 0.1088844
350.90 0.1094441
351.00 0.1099652
351.10 0.1104478
351.20 0.1108918
351.30 0.1112973
351.40 0.1116647
351.50 0.1119946
351.60 0.1122879
351.70 0.1125461
351.80 0.1127713
351.90 0.1129658
352.00 0.1131325
352.10 0.1132743
352.20 0.1133939
352.30 0.1134939
352.40 0.1135763
352.50 0.1136425
352.60 0.1136935
352.70 0.1137299
352.80 0.113752
352.90 0.1137599
353.00 0.1137537
353.10 0.1137333
353.20 0.1136988
353.30 0.1136502
353.40 0.1135878
353.50 0.113512
353.60 0.1134235
353.70 0.1133234
353.80 0.1132132
353.90 0.1130947
354.00 0.1129701
354.10 0.1128413
354.20 0.1127105
354.30 0.1125796
354.40 0.1124499
354.50 0.1123226
354.60 0.1121984
354.70 0.1120777
354.80 0.1119608
354.90 0.1118478
355.00 0.1117386
355.10 0.1116333
355.20 0.1115318
355.30 0.1114343
355.40 0.111341
355.50 0.1112521
355.60 0.1111685
355.70 0.1110909
355.80 0.1110207
355.90 0.1109595
356.00 0.110909
356.10 0.1108712
356.20 0.1108477
356.30 0.1108403
356.40 0.1108502
356.50 0.1108783
356.60 0.1109252
356.70 0.1109914
356.80 0.111077
356.90 0.1111822
357.00 0.1113068
357.10 0.111451
357.20 0.1116146
357.30 0.1117977
357.40 0.1119998
357.50 0.1122205
357.60 0.1124587
357.70 0.112713
357.80 0.1129814
357.90 0.1132615
358.00 0.1135506
358.10 0.1138457
358.20 0.1141442
358.30 0.1144436
358.40 0.1147419
358.50 0.1150376
358.60 0.1153296
358.70 0.1156171
358.80 0.1158995
358.90 0.1161765
359.00 0.1164476
359.10 0.1167125
359.20 0.116971
359.30 0.1172229
359.40 0.1174691
359.50 0.117711
359.60 0.1179517
359.70 0.1181956
359.80 0.1184488
359.90 0.118719
360.00 0.1190147
360.10 0.1193448
360.20 0.119718
360.30 0.1201418
360.40 0.1206225
360.50 0.1211645
360.60 0.121771
360.70 0.1224437
360.80 0.1231835
360.90 0.1239908
361.00 0.1248657
361.10 0.1258082
361.20 0.1268181
361.30 0.1278951
361.40 0.129038
361.50 0.1302447
361.60 0.1315115
361.70 0.132833
361.80 0.1342016
361.90 0.1356083
362.00 0.1370426
362.10 0.1384939
362.20 0.1399517
362.30 0.141407
362.40 0.1428522
362.50 0.1442819
362.60 0.1456924
362.70 0.1470815
362.80 0.1484482
362.90 0.149792
363.00 0.1511129
363.10 0.1524107
363.20 0.1536856
363.30 0.1549374
363.40 0.1561661
363.50 0.1573713
363.60 0.1585526
363.70 0.1597093
363.80 0.1608405
363.90 0.1619451
364.00 0.1630217
364.10 0.164069
364.20 0.1650858
364.30 0.1660709
364.40 0.1670233
364.50 0.1679424
364.60 0.1688278
364.70 0.1696791
364.80 0.1704963
364.90 0.1712792
365.00 0.1720279
365.10 0.1727423
365.20 0.1734225
365.30 0.1740683
365.40 0.1746796
365.50 0.175256
365.60 0.1757967
365.70 0.1763007
365.80 0.1767666
365.90 0.1771927
366.00 0.1775771
366.10 0.1779177
366.20 0.1782125
366.30 0.1784598
366.40 0.1786582
366.50 0.1788067
366.60 0.1789046
366.70 0.1789515
366.80 0.1789472
366.90 0.1788915
367.00 0.1787846
367.10 0.1786263
367.20 0.1784167
367.30 0.178156
367.40 0.1778448
367.50 0.1774841
367.60 0.1770755
367.70 0.1766218
367.80 0.1761263
367.90 0.1755935
368.00 0.1750282
368.10 0.1744355
368.20 0.1738203
368.30 0.1731869
368.40 0.172539
368.50 0.1718791
368.60 0.1712092
368.70 0.1705304
368.80 0.1698435
368.90 0.169149
369.00 0.1684474
369.10 0.1677389
369.20 0.1670241
369.30 0.1663034
369.40 0.1655773
369.50 0.164847
369.60 0.1641137
369.70 0.1633796
369.80 0.1626473
369.90 0.1619202
370.00 0.1612018
370.10 0.1604961
370.20 0.1598067
370.30 0.1591369
370.40 0.1584893
370.50 0.157866
370.60 0.1572681
370.70 0.1566965
370.80 0.1561516
370.90 0.1556335
371.00 0.1551422
371.10 0.1546778
371.20 0.1542403
371.30 0.1538297
371.40 0.1534461
371.50 0.1530899
371.60 0.1527614
371.70 0.1524614
371.80 0.1521907
371.90 0.1519505
372.00 0.151742
372.10 0.1515666
372.20 0.1514255
372.30 0.1513198
372.40 0.1512504
372.50 0.1512181
372.60 0.1512233
372.70 0.1512661
372.80 0.1513469
372.90 0.1514655
373.00 0.1516221
373.10 0.1518166
373.20 0.152049
373.30 0.1523192
373.40 0.1526267
373.50 0.1529709
373.60 0.1533506
373.70 0.1537639
373.80 0.1542083
373.90 0.1546809
374.00 0.1551782
374.10 0.1556966
374.20 0.1562326
374.30 0.1567833
374.40 0.1573461
374.50 0.1579193
374.60 0.1585016
374.70 0.1590924
374.80 0.1596911
374.90 0.1602978
375.00 0.1609123
375.10 0.1615347
375.20 0.162165
375.30 0.1628029
375.40 0.1634482
375.50 0.1641001
375.60 0.1647575
375.70 0.1654186
375.80 0.166081
375.90 0.1667419
376.00 0.1673977
376.10 0.1680452
376.20 0.1686809
376.30 0.169302
376.40 0.169906
376.50 0.1704911
376.60 0.1710563
376.70 0.1716008
376.80 0.1721242
376.90 0.1726264
377.00 0.1731074
377.10 0.1735672
377.20 0.1740059
377.30 0.1744236
377.40 0.1748209
377.50 0.1751989
377.60 0.1755595
377.70 0.1759056
377.80 0.176241
377.90 0.1765703
378.00 0.1768989
378.10 0.1772324
378.20 0.177576
378.30 0.1779346
378.40 0.1783118
378.50 0.1787105
378.60 0.1791327
378.70 0.1795794
378.80 0.1800512
378.90 0.1805483
379.00 0.1810707
379.10 0.1816185
379.20 0.1821916
379.30 0.1827895
379.40 0.1834113
379.50 0.1840546
379.60 0.184716
379.70 0.1853902
379.80 0.1860698
379.90 0.1867458
380.00 0.1874082
380.10 0.1880465
380.20 0.1886504
380.30 0.1892111
380.40 0.1897213
380.50 0.1901757
380.60 0.1905705
380.70 0.1909038
380.80 0.1911744
380.90 0.1913819
381.00 0.1915263
381.10 0.1916075
381.20 0.1916256
381.30 0.1915809
381.40 0.1914741
381.50 0.1913067
381.60 0.1910813
381.70 0.1908014
381.80 0.1904722
381.90 0.1901
382.00 0.1896917
382.10 0.1892546
382.20 0.1887958
382.30 0.1883216
382.40 0.1878369
382.50 0.1873456
382.60 0.1868501
382.70 0.1863518
382.80 0.1858515
382.90 0.1853496
383.00 0.184846
383.10 0.1843408
383.20 0.183834
383.30 0.1833259
383.40 0.182817
383.50 0.1823085
383.60 0.1818021
383.70 0.1813008
383.80 0.1808084
383.90 0.1803296
384.00 0.1798697
384.10 0.1794343
384.20 0.1790287
384.30 0.1786577
384.40 0.178325
384.50 0.1780335
384.60 0.1777851
384.70 0.1775809
384.80 0.1774214
384.90 0.177307
385.00 0.1772376
385.10 0.1772132
385.20 0.1772338
385.30 0.1772991
385.40 0.1774084
385.50 0.1775602
385.60 0.1777523
385.70 0.177981
385.80 0.1782416
385.90 0.178528
386.00 0.1788337
386.10 0.1791516
386.20 0.1794749
386.30 0.1797979
386.40 0.1801157
386.50 0.1804246
386.60 0.1807224
386.70 0.1810077
386.80 0.1812796
386.90 0.181538
387.00 0.1817828
387.10 0.182014
387.20 0.1822315
387.30 0.1824357
387.40 0.1826269
387.50 0.1828058
387.60 0.182974
387.70 0.1831335
387.80 0.1832871
387.90 0.1834382
388.00 0.1835908
388.10 0.183749
388.20 0.1839166
388.30 0.1840972
388.40 0.1842936
388.50 0.1845077
388.60 0.1847412
388.70 0.1849946
388.80 0.1852686
388.90 0.1855631
389.00 0.1858783
389.10 0.1862142
389.20 0.1865707
389.30 0.1869475
389.40 0.1873442
389.50 0.1877597
389.60 0.1881919
389.70 0.1886382
389.80 0.1890946
389.90 0.1895566
390.00 0.1900188
390.10 0.1904756
390.20 0.1909218
390.30 0.1913526
390.40 0.1917643
390.50 0.192154
390.60 0.1925198
390.70 0.1928607
390.80 0.193176
390.90 0.1934656
391.00 0.1937293
391.10 0.1939673
391.20 0.1941796
391.30 0.194367
391.40 0.1945315
391.50 0.1946766
391.60 0.1948089
391.70 0.1949377
391.80 0.195076
391.90 0.1952394
392.00 0.195446
392.10 0.1957143
392.20 0.1960623
392.30 0.1965057
392.40 0.1970574
392.50 0.1977268
392.60 0.1985204
392.70 0.1994418
392.80 0.200493
392.90 0.2016746
393.00 0.202987
393.10 0.20443
393.20 0.2060035
393.30 0.2077071
393.40 0.2095394
393.50 0.211498
393.60 0.2135786
393.70 0.2157747
393.80 0.2180778
393.90 0.2204772
394.00 0.2229607
394.10 0.2255159
394.20 0.2281308
394.30 0.2307945
394.40 0.2334986
394.50 0.2362366
394.60 0.2390041
394.70 0.2417988
394.80 0.2446193
394.90 0.2474652
395.00 0.2503362
395.10 0.2532325
395.20 0.2561539
395.30 0.2591006
395.40 0.2620722
395.50 0.2650687
395.60 0.2680896
395.70 0.2711344
395.80 0.2742024
395.90 0.2772925
396.00 0.2804037
396.10 0.2835349
396.20 0.2866851
396.30 0.2898532
396.40 0.2930386
396.50 0.2962407
396.60 0.2994591
396.70 0.3026936
396.80 0.305944
396.90 0.3092103
397.00 0.3124926
397.10 0.3157907
397.20 0.3191047
397.30 0.3224344
397.40 0.3257791
397.50 0.3291377
397.60 0.3325085
397.70 0.3358884
397.80 0.3392737
397.90 0.3426597
398.00 0.346041
398.10 0.3494121
398.20 0.3527675
398.30 0.3561027
398.40 0.3594136
398.50 0.3626976
398.60 0.3659527
398.70 0.3691777
398.80 0.3723722
398.90 0.3755359
399.00 0.3786688
399.10 0.3817708
399.20 0.384842
399.30 0.3878825
399.40 0.3908929
399.50 0.393874
399.60 0.3968273
399.70 0.399755
399.80 0.4026601
399.90 0.4055465
400.00 0.4084183
400.10 0.4112799
400.20 0.4141355
400.30 0.4169889
400.40 0.4198431
400.50 0.4227003
400.60 0.4255621
400.70 0.4284293
400.80 0.4313024
400.90 0.4341815
401.00 0.4370666
401.10 0.4399579
401.20 0.4428552
401.30 0.4457584
401.40 0.4486672
401.50 0.4515807
401.60 0.4544979
401.70 0.4574168
401.80 0.460335
401.90 0.4632493
402.00 0.4661565
402.10 0.4690528
402.20 0.4719347
402.30 0.4747993
402.40 0.4776441
402.50 0.4804671
402.60 0.4832672
402.70 0.4860437
402.80 0.4887962
402.90 0.4915246
403.00 0.4942287
403.10 0.4969087
403.20 0.4995643
403.30 0.5021949
403.40 0.5047989
403.50 0.5073729
403.60 0.5099114
403.70 0.5124059
403.80 0.5148451
403.90 0.5172152
404.00 0.5195002
404.10 0.5216838
404.20 0.5237502
404.30 0.5256854
404.40 0.5274781
404.50 0.5291199
404.60 0.5306052
404.70 0.5319308
404.80 0.5330949
404.90 0.5340969
405.00 0.5349366
405.10 0.5356141
405.20 0.5361296
405.30 0.5364843
405.40 0.5366811
405.50 0.536726
405.60 0.536629
405.70 0.5364049
405.80 0.5360739
405.90 0.5356611
406.00 0.5351944
406.10 0.5347033
406.20 0.5342159
406.30 0.5337571
406.40 0.5333472
406.50 0.5330009
406.60 0.5327284
406.70 0.5325355
406.80 0.5324252
406.90 0.5323986
407.00 0.5324561
407.10 0.5325975
407.20 0.5328229
407.30 0.5331317
407.40 0.5335224
407.50 0.5339923
407.60 0.5345368
407.70 0.5351489
407.80 0.5358192
407.90 0.5365361
408.00 0.5372864
408.10 0.5380564
408.20 0.5388331
408.30 0.5396048
408.40 0.5403622
408.50 0.5410981
408.60 0.541808
408.70 0.5424892
408.80 0.5431402
408.90 0.5437605
409.00 0.54435
409.10 0.5449087
409.20 0.5454366
409.30 0.5459341
409.40 0.546402
409.50 0.5468419
409.60 0.5472566
409.70 0.5476502
409.80 0.5480282
409.90 0.5483977
410.00 0.5487663
410.10 0.5491421
410.20 0.5495329
410.30 0.5499457
410.40 0.5503859
410.50 0.5508578
410.60 0.551364
410.70 0.5519062
410.80 0.5524852
410.90 0.5531013
411.00 0.5537547
411.10 0.5544453
411.20 0.5551729
411.30 0.5559369
411.40 0.5567356
411.50 0.5575655
411.60 0.5584209
411.70 0.5592932
411.80 0.5601706
411.90 0.5610389
412.00 0.5618816
412.10 0.5626819
412.20 0.5634235
412.30 0.5640921
412.40 0.5646758
412.50 0.5651661
412.60 0.5655573
412.70 0.5658459
412.80 0.5660302
412.90 0.5661095
413.00 0.5660837
413.10 0.5659527
413.20 0.5657168
413.30 0.5653765
413.40 0.5649334
413.50 0.5643908
413.60 0.5637537
413.70 0.5630304
413.80 0.5622315
413.90 0.5613703
414.00 0.5604618
414.10 0.5595217
414.20 0.558565
414.30 0.5576049
414.40 0.5566523
414.50 0.5557152
414.60 0.5547987
414.70 0.5539061
414.80 0.553039
414.90 0.552198
415.00 0.5513832
415.10 0.5505947
415.20 0.5498322
415.30 0.549095
415.40 0.548381
415.50 0.5476865
415.60 0.5470048
415.70 0.5463259
415.80 0.5456365
415.90 0.54492
416.00 0.5441578
416.10 0.5433304
416.20 0.5424191
416.30 0.5414075
416.40 0.5402821
416.50 0.5390329
416.60 0.5376535
416.70 0.5361399
416.80 0.53449
416.90 0.5327032
417.00 0.5307792
417.10 0.5287181
417.20 0.5265201
417.30 0.5241865
417.40 0.5217203
417.50 0.5191276
417.60 0.5164188
417.70 0.5136095
417.80 0.5107205
417.90 0.5077777
418.00 0.5048104
418.10 0.501849
418.20 0.4989226
418.30 0.4960572
418.40 0.4932737
418.50 0.4905876
418.60 0.4880093
418.70 0.4855448
418.80 0.4831974
418.90 0.4809681
419.00 0.4788572
419.10 0.4768649
419.20 0.4749908
419.30 0.4732347
419.40 0.4715952
419.50 0.4700698
419.60 0.4686545
419.70 0.467343
419.80 0.4661268
419.90 0.4649957
420.00 0.463938
420.10 0.4629413
420.20 0.461994
420.30 0.4610857
420.40 0.460208
420.50 0.4593547
420.60 0.4585216
420.70 0.4577064
420.80 0.4569076
420.90 0.456125
421.00 0.4553583
421.10 0.4546075
421.20 0.4538726
421.30 0.4531536
421.40 0.4524502
421.50 0.451762
421.60 0.4510881
421.70 0.4504275
421.80 0.4497787
421.90 0.4491396
422.00 0.4485082
422.10 0.4478822
422.20 0.4472595
422.30 0.4466381
422.40 0.4460166
422.50 0.4453938
422.60 0.4447689
422.70 0.4441415
422.80 0.4435113
422.90 0.4428783
423.00 0.4422424
423.10 0.4416037
423.20 0.4409622
423.30 0.4403185
423.40 0.4396736
423.50 0.4390301
423.60 0.438392
423.70 0.4377654
423.80 0.4371583
423.90 0.4365811
424.00 0.436045
424.10 0.4355621
424.20 0.4351437
424.30 0.4348
424.40 0.4345392
424.50 0.4343673
424.60 0.4342884
424.70 0.4343048
424.80 0.4344179
424.90 0.4346281
425.00 0.4349354
425.10 0.4353399
425.20 0.4358417
425.30 0.4364416
425.40 0.4371411
425.50 0.4379436
425.60 0.4388548
425.70 0.439883
425.80 0.4410398
425.90 0.4423392
426.00 0.443797
426.10 0.44543
426.20 0.4472539
426.30 0.4492829
426.40 0.4515284
426.50 0.4539988
426.60 0.4566998
426.70 0.4596346
426.80 0.4628051
426.90 0.4662118
427.00 0.4698549
427.10 0.4737344
427.20 0.47785
427.30 0.4822002
427.40 0.4867815
427.50 0.4915866
427.60 0.4966036
427.70 0.5018143
427.80 0.5071942
427.90 0.5127132
428.00 0.5183371
428.10 0.5240304
428.20 0.529759
428.30 0.5354927
428.40 0.541207
428.50 0.5468838
428.60 0.5525111
428.70 0.5580816
428.80 0.5635918
428.90 0.5690403
429.00 0.5744267
429.10 0.579751
429.20 0.5850134
429.30 0.590214
429.40 0.5953536
429.50 0.6004337
429.60 0.6054567
429.70 0.6104263
429.80 0.6153474
429.90 0.6202262
430.00 0.6250694
430.10 0.6298845
430.20 0.6346781
430.30 0.6394565
430.40 0.6442246
430.50 0.648986
430.60 0.6537433
430.70 0.6584978
430.80 0.6632503
430.90 0.6680011
431.00 0.6727502
431.10 0.6774976
431.20 0.6822433
431.30 0.6869868
431.40 0.691727
431.50 0.6964619
431.60 0.7011878
431.70 0.7058992
431.80 0.710589
431.90 0.7152482
432.00 0.7198665
432.10 0.7244333
432.20 0.7289386
432.30 0.7333733
432.40 0.7377301
432.50 0.7420036
432.60 0.7461902
432.70 0.7502878
432.80 0.7542953
432.90 0.7582124
433.00 0.7620388
433.10 0.7657746
433.20 0.7694199
433.30 0.772975
433.40 0.7764407
433.50 0.7798189
433.60 0.7831123
433.70 0.7863252
433.80 0.7894635
433.90 0.7925345
434.00 0.7955461
434.10 0.7985069
434.20 0.801425
434.30 0.8043075
434.40 0.8071604
434.50 0.8099879
434.60 0.8127929
434.70 0.8155772
434.80 0.8183415
434.90 0.8210862
435.00 0.8238113
435.10 0.826517
435.20 0.829203
435.30 0.831869
435.40 0.8345138
435.50 0.837135
435.60 0.839729
435.70 0.8422898
435.80 0.8448099
435.90 0.8472795
436.00 0.8496878
436.10 0.8520237
436.20 0.8542761
436.30 0.8564356
436.40 0.8584944
436.50 0.8604467
436.60 0.8622887
436.70 0.8640182
436.80 0.8656339
436.90 0.8671354
437.00 0.8685227
437.10 0.8697957
437.20 0.8709546
437.30 0.8719998
437.40 0.8729326
437.50 0.8737555
437.60 0.8744728
437.70 0.8750909
437.80 0.8756183
437.90 0.8760656
438.00 0.876445
438.10 0.8767688
438.20 0.8770491
438.30 0.8772964
438.40 0.8775195
438.50 0.8777246
438.60 0.8779161
438.70 0.8780963
438.80 0.8782667
438.90 0.8784276
439.00 0.8785793
439.10 0.8787217
439.20 0.8788548
439.30 0.8789789
439.40 0.8790946
439.50 0.8792031
439.60 0.8793063
439.70 0.8794072
439.80 0.8795098
439.90 0.879619
440.00 0.8797405
440.10 0.87988
440.20 0.8800431
440.30 0.8802347
440.40 0.8804589
440.50 0.8807186
440.60 0.8810158
440.70 0.8813516
440.80 0.8817268
440.90 0.8821413
441.00 0.8825955
441.10 0.8830891
441.20 0.8836224
441.30 0.8841957
441.40 0.8848098
441.50 0.8854667
441.60 0.8861693
441.70 0.8869223
441.80 0.8877319
441.90 0.8886057
442.00 0.8895523
442.10 0.8905808
442.20 0.8916999
442.30 0.8929171
442.40 0.8942388
442.50 0.8956694
442.60 0.8972121
442.70 0.8988686
442.80 0.9006399
442.90 0.9025263
443.00 0.904528
443.10 0.9066448
443.20 0.9088769
443.30 0.9112241
443.40 0.9136862
443.50 0.9162629
443.60 0.9189535
443.70 0.9217571
443.80 0.9246725
443.90 0.927698
444.00 0.9308319
444.10 0.9340724
444.20 0.9374177
444.30 0.9408662
444.40 0.9444166
444.50 0.9480681
444.60 0.9518199
444.70 0.9556717
444.80 0.9596234
444.90 0.9636749
445.00 0.9678261
445.10 0.972077
445.20 0.9764274
445.30 0.9808759
445.40 0.9854197
445.50 0.9900523
445.60 0.9947634
445.70 0.9995374
445.80 1.004353
445.90 1.009184
446.00 1.014001
446.10 1.018774
446.20 1.023472
446.30 1.028071
446.40 1.032547
446.50 1.036887
446.60 1.041079
446.70 1.045117
446.80 1.048999
446.90 1.052723
447.00 1.056288
447.10 1.059695
447.20 1.062943
447.30 1.066035
447.40 1.068971
447.50 1.071757
447.60 1.074401
447.70 1.076913
447.80 1.07931
447.90 1.081611
448.00 1.083837
448.10 1.086012
448.20 1.088156
448.30 1.09029
448.40 1.092428
448.50 1.094583
448.60 1.096762
448.70 1.098969
448.80 1.101208
448.90 1.103478
449.00 1.105781
449.10 1.108115
449.20 1.110482
449.30 1.11288
449.40 1.11531
449.50 1.117772
449.60 1.120264
449.70 1.122785
449.80 1.125335
449.90 1.127911
450.00 1.130511
450.10 1.133134
450.20 1.135776
450.30 1.138437
450.40 1.141115
450.50 1.143809
450.60 1.146517
450.70 1.14924
450.80 1.151978
450.90 1.15473
451.00 1.157497
451.10 1.160277
451.20 1.163072
451.30 1.165881
451.40 1.168702
451.50 1.171533
451.60 1.17437
451.70 1.177206
451.80 1.180033
451.90 1.182839
452.00 1.185614
452.10 1.188344
452.20 1.191017
452.30 1.193623
452.40 1.196153
452.50 1.1986
452.60 1.200961
452.70 1.203232
452.80 1.205413
452.90 1.207504
453.00 1.209503
453.10 1.211411
453.20 1.213228
453.30 1.214954
453.40 1.216589
453.50 1.218135
453.60 1.219592
453.70 1.220962
453.80 1.222246
453.90 1.223449
454.00 1.224573
454.10 1.225622
454.20 1.226598
454.30 1.227505
454.40 1.228344
454.50 1.229118
454.60 1.229827
454.70 1.230473
454.80 1.231055
454.90 1.231573
455.00 1.232029
455.10 1.232421
455.20 1.23275
455.30 1.233016
455.40 1.233223
455.50 1.233375
455.60 1.233478
455.70 1.233544
455.80 1.233589
455.90 1.233632
456.00 1.233692
456.10 1.233794
456.20 1.233957
456.30 1.2342
456.40 1.23454
456.50 1.234986
456.60 1.235547
456.70 1.236227
456.80 1.237028
456.90 1.237952
457.00 1.238997
457.10 1.240166
457.20 1.241456
457.30 1.242867
457.40 1.244397
457.50 1.246039
457.60 1.247786
457.70 1.249625
457.80 1.251536
457.90 1.253498
458.00 1.255485
458.10 1.257473
458.20 1.259435
458.30 1.261349
458.40 1.263198
458.50 1.264968
458.60 1.26665
458.70 1.26824
458.80 1.269734
458.90 1.271131
459.00 1.272431
459.10 1.273635
459.20 1.274741
459.30 1.275752
459.40 1.276667
459.50 1.277488
459.60 1.278219
459.70 1.278864
459.80 1.27943
459.90 1.279925
460.00 1.280358
460.10 1.280738
460.20 1.281074
460.30 1.281374
460.40 1.281645
460.50 1.281892
460.60 1.282117
460.70 1.282323
460.80 1.28251
460.90 1.282679
461.00 1.28283
461.10 1.282963
461.20 1.283078
461.30 1.283176
461.40 1.283256
461.50 1.28332
461.60 1.28337
461.70 1.28341
461.80 1.283443
461.90 1.283475
462.00 1.283512
462.10 1.283559
462.20 1.283623
462.30 1.283709
462.40 1.283822
462.50 1.283963
462.60 1.284135
462.70 1.284341
462.80 1.284579
462.90 1.28485
463.00 1.285156
463.10 1.285494
463.20 1.285866
463.30 1.286271
463.40 1.286707
463.50 1.287172
463.60 1.287662
463.70 1.288169
463.80 1.288685
463.90 1.289199
464.00 1.289698
464.10 1.290169
464.20 1.290599
464.30 1.290977
464.40 1.291295
464.50 1.291545
464.60 1.291724
464.70 1.291828
464.80 1.291856
464.90 1.291808
465.00 1.291684
465.10 1.291483
465.20 1.291206
465.30 1.290853
465.40 1.290425
465.50 1.289923
465.60 1.289352
465.70 1.288714
465.80 1.288017
465.90 1.287268
466.00 1.286475
466.10 1.285648
466.20 1.284795
466.30 1.283923
466.40 1.283039
466.50 1.282147
466.60 1.28125
466.70 1.280351
466.80 1.279449
466.90 1.278545
467.00 1.27764
467.10 1.276733
467.20 1.275824
467.30 1.274913
467.40 1.274001
467.50 1.273088
467.60 1.272173
467.70 1.271256
467.80 1.270338
467.90 1.269419
468.00 1.2685
468.10 1.26758
468.20 1.266659
468.30 1.265739
468.40 1.264819
468.50 1.263898
468.60 1.262978
468.70 1.262059
468.80 1.261139
468.90 1.260221
469.00 1.259302
469.10 1.258384
469.20 1.257466
469.30 1.256547
469.40 1.255625
469.50 1.254696
469.60 1.253752
469.70 1.252782
469.80 1.251771
469.90 1.2507
470.00 1.249547
470.10 1.248292
470.20 1.246912
470.30 1.245389
470.40 1.243708
470.50 1.241857
470.60 1.23983
470.70 1.237621
470.80 1.235229
470.90 1.232652
471.00 1.229891
471.10 1.226944
471.20 1.223814
471.30 1.2205
471.40 1.217007
471.50 1.21334
471.60 1.209509
471.70 1.205532
471.80 1.20143
471.90 1.197228
472.00 1.192958
472.10 1.18865
472.20 1.184335
472.30 1.180039
472.40 1.175784
472.50 1.171586
472.60 1.167455
472.70 1.163398
472.80 1.159418
472.90 1.155516
473.00 1.151692
473.10 1.147947
473.20 1.14428
473.30 1.140692
473.40 1.137183
473.50 1.133755
473.60 1.130408
473.70 1.127146
473.80 1.123971
473.90 1.120889
474.00 1.117904
474.10 1.11502
474.20 1.112244
474.30 1.109578
474.40 1.107026
474.50 1.104592
474.60 1.102276
474.70 1.10008
474.80 1.098004
474.90 1.096048
475.00 1.094213
475.10 1.092498
475.20 1.090903
475.30 1.089428
475.40 1.088073
475.50 1.086834
475.60 1.08571
475.70 1.084697
475.80 1.083787
475.90 1.082975
476.00 1.082251
476.10 1.081608
476.20 1.081037
476.30 1.080531
476.40 1.080083
476.50 1.079691
476.60 1.07935
476.70 1.079059
476.80 1.078817
476.90 1.078624
477.00 1.07848
477.10 1.078385
477.20 1.078338
477.30 1.07834
477.40 1.078392
477.50 1.078494
477.60 1.078647
477.70 1.078854
477.80 1.079118
477.90 1.079441
478.00 1.079829
478.10 1.080284
478.20 1.080812
478.30 1.081415
478.40 1.082096
478.50 1.082857
478.60 1.0837
478.70 1.084626
478.80 1.085635
478.90 1.086727
479.00 1.087902
479.10 1.089161
479.20 1.090502
479.30 1.091928
479.40 1.093437
479.50 1.095031
479.60 1.096712
479.70 1.098482
479.80 1.100346
479.90 1.102307
480.00 1.104372
480.10 1.106544
480.20 1.108829
480.30 1.111232
480.40 1.113756
480.50 1.116404
480.60 1.119178
480.70 1.122078
480.80 1.125106
480.90 1.128261
481.00 1.131544
481.10 1.134955
481.20 1.138493
481.30 1.142158
481.40 1.145947
481.50 1.149859
481.60 1.153886
481.70 1.15802
481.80 1.162249
481.90 1.166559
482.00 1.170934
482.10 1.175356
482.20 1.179809
482.30 1.184278
482.40 1.188752
482.50 1.193221
482.60 1.197681
482.70 1.202128
482.80 1.20656
482.90 1.210976
483.00 1.215376
483.10 1.21976
483.20 1.224128
483.30 1.22848
483.40 1.232815
483.50 1.237131
483.60 1.241426
483.70 1.245696
483.80 1.249936
483.90 1.254139
484.00 1.258297
484.10 1.262403
484.20 1.26645
484.30 1.270431
484.40 1.274341
484.50 1.278175
484.60 1.281932
484.70 1.28561
484.80 1.289207
484.90 1.292724
485.00 1.29616
485.10 1.299516
485.20 1.302791
485.30 1.305986
485.40 1.309101
485.50 1.312136
485.60 1.315092
485.70 1.31797
485.80 1.320772
485.90 1.3235
486.00 1.326156
486.10 1.328741
486.20 1.331259
486.30 1.33371
486.40 1.336098
486.50 1.338422
486.60 1.340683
486.70 1.342883
486.80 1.34502
486.90 1.347096
487.00 1.34911
487.10 1.351063
487.20 1.352954
487.30 1.354782
487.40 1.356548
487.50 1.358249
487.60 1.359883
487.70 1.361445
487.80 1.36293
487.90 1.364331
488.00 1.36564
488.10 1.366849
488.20 1.36795
488.30 1.368936
488.40 1.369802
488.50 1.370543
488.60 1.371156
488.70 1.371641
488.80 1.371995
488.90 1.37222
489.00 1.372314
489.10 1.372277
489.20 1.372111
489.30 1.371814
489.40 1.371388
489.50 1.370833
489.60 1.370151
489.70 1.369345
489.80 1.368418
489.90 1.367373
490.00 1.366216
490.10 1.364952
490.20 1.363584
490.30 1.362118
490.40 1.360556
490.50 1.358901
490.60 1.357155
490.70 1.355318
490.80 1.353392
490.90 1.351375
491.00 1.349269
491.10 1.347074
491.20 1.344788
491.30 1.342413
491.40 1.339949
491.50 1.337396
491.60 1.334757
491.70 1.332032
491.80 1.329225
491.90 1.326339
492.00 1.323377
492.10 1.320344
492.20 1.317242
492.30 1.314076
492.40 1.310848
492.50 1.307559
492.60 1.304212
492.70 1.300807
492.80 1.297344
492.90 1.293823
493.00 1.290245
493.10 1.28661
493.20 1.282917
493.30 1.279167
493.40 1.275359
493.50 1.271493
493.60 1.267569
493.70 1.263587
493.80 1.259547
493.90 1.255447
494.00 1.251287
494.10 1.247067
494.20 1.242785
494.30 1.238442
494.40 1.234037
494.50 1.229569
494.60 1.225039
494.70 1.220446
494.80 1.215789
494.90 1.21107
495.00 1.206288
495.10 1.201444
495.20 1.196536
495.30 1.191566
495.40 1.186536
495.50 1.181449
495.60 1.176311
495.70 1.171131
495.80 1.16592
495.90 1.160693
496.00 1.155467
496.10 1.150259
496.20 1.145085
496.30 1.13996
496.40 1.134896
496.50 1.129901
496.60 1.124981
496.70 1.12014
496.80 1.11538
496.90 1.110701
497.00 1.106103
497.10 1.101586
497.20 1.097151
497.30 1.092797
497.40 1.088524
497.50 1.084331
497.60 1.080216
497.70 1.07618
497.80 1.072218
497.90 1.068328
498.00 1.064508
498.10 1.060753
498.20 1.05706
498.30 1.053427
498.40 1.049852
498.50 1.046332
498.60 1.042866
498.70 1.039455
498.80 1.036096
498.90 1.032791
499.00 1.02954
499.10 1.026342
499.20 1.023197
499.30 1.020105
499.40 1.017067
499.50 1.014083
499.60 1.011153
499.70 1.008278
499.80 1.005461
499.90 1.002701
500.00 1
500.10 0.9973607
500.20 0.9947842
500.30 0.9922719
500.40 0.9898251
500.50 0.9874445
500.60 0.9851307
500.70 0.9828841
500.80 0.9807048
500.90 0.9785929
501.00 0.9765485
501.10 0.9745715
501.20 0.9726618
501.30 0.9708193
501.40 0.9690432
501.50 0.9673326
501.60 0.9656852
501.70 0.9640981
501.80 0.9625673
501.90 0.9610876
502.00 0.9596533
502.10 0.9582586
502.20 0.9568978
502.30 0.9555657
502.40 0.9542583
502.50 0.9529726
502.60 0.9517066
502.70 0.9504591
502.80 0.9492294
502.90 0.9480174
503.00 0.9468229
503.10 0.945646
503.20 0.9444868
503.30 0.9433455
503.40 0.9422228
503.50 0.9411202
503.60 0.94004
503.70 0.9389859
503.80 0.9379627
503.90 0.9369764
504.00 0.9360337
504.10 0.9351416
504.20 0.9343071
504.30 0.9335359
504.40 0.9328331
504.50 0.9322021
504.60 0.9316453
504.70 0.9311643
504.80 0.9307597
504.90 0.9304317
505.00 0.9301805
505.10 0.930006
505.20 0.9299082
505.30 0.9298862
505.40 0.9299385
505.50 0.9300616
505.60 0.93025
505.70 0.9304951
505.80 0.9307854
505.90 0.9311067
506.00 0.9314431
506.10 0.9317779
506.20 0.932095
506.30 0.9323802
506.40 0.9326222
506.50 0.9328124
506.60 0.932945
506.70 0.9330169
506.80 0.9330262
506.90 0.9329724
507.00 0.9328551
507.10 0.9326746
507.20 0.9324308
507.30 0.9321239
507.40 0.9317546
507.50 0.9313242
507.60 0.9308347
507.70 0.9302894
507.80 0.9296925
507.90 0.9290494
508.00 0.928366
508.10 0.9276486
508.20 0.9269032
508.30 0.9261351
508.40 0.9253485
508.50 0.9245466
508.60 0.9237316
508.70 0.9229048
508.80 0.9220667
508.90 0.9212176
509.00 0.9203576
509.10 0.9194866
509.20 0.9186047
509.30 0.9177118
509.40 0.9168079
509.50 0.9158929
509.60 0.9149664
509.70 0.9140283
509.80 0.913078
509.90 0.912115
510.00 0.9111387
510.10 0.9101485
510.20 0.9091438
510.30 0.9081239
510.40 0.9070886
510.50 0.9060374
510.60 0.9049701
510.70 0.9038866
510.80 0.9027869
510.90 0.9016708
511.00 0.9005385
511.10 0.8993899
511.20 0.8982251
511.30 0.8970445
511.40 0.8958489
511.50 0.8946402
511.60 0.8934215
511.70 0.8921974
511.80 0.8909741
511.90 0.8897593
512.00 0.8885619
512.10 0.8873907
512.20 0.8862545
512.30 0.885161
512.40 0.8841164
512.50 0.8831255
512.60 0.8821912
512.70 0.8813153
512.80 0.8804988
512.90 0.8797421
513.00 0.8790452
513.10 0.8784082
513.20 0.877831
513.30 0.8773136
513.40 0.876856
513.50 0.876458
513.60 0.8761197
513.70 0.8758407
513.80 0.8756208
513.90 0.8754597
514.00 0.8753569
514.10 0.8753122
514.20 0.875325
514.30 0.8753952
514.40 0.8755224
514.50 0.8757064
514.60 0.8759471
514.70 0.8762444
514.80 0.8765983
514.90 0.8770087
515.00 0.8774757
515.10 0.8779992
515.20 0.8785795
515.30 0.8792177
515.40 0.8799162
515.50 0.8806803
515.60 0.8815186
515.70 0.8824442
515.80 0.8834746
515.90 0.8846317
516.00 0.8859399
516.10 0.8874248
516.20 0.889111
516.30 0.8910202
516.40 0.8931699
516.50 0.8955733
516.60 0.898239
516.70 0.9011721
516.80 0.9043753
516.90 0.9078496
517.00 0.9115952
517.10 0.915612
517.20 0.9199
517.30 0.9244584
517.40 0.929285
517.50 0.934376
517.60 0.9397247
517.70 0.9453208
517.80 0.9511508
517.90 0.9571979
518.00 0.963443
518.10 0.9698664
518.20 0.9764491
518.30 0.9831741
518.40 0.990028
518.50 0.9970005
518.60 1.004085
518.70 1.011277
518.80 1.018576
518.90 1.025979
519.00 1.033488
519.10 1.041102
519.20 1.04882
519.30 1.056642
519.40 1.064565
519.50 1.072584
519.60 1.08069
519.70 1.088868
519.80 1.097103
519.90 1.105369
520.00 1.113644
520.10 1.121899
520.20 1.13011
520.30 1.138255
520.40 1.146315
520.50 1.154277
520.60 1.162131
520.70 1.169873
520.80 1.1775
520.90 1.185011
521.00 1.192405
521.10 1.199683
521.20 1.206845
521.30 1.213892
521.40 1.220828
521.50 1.227658
521.60 1.234395
521.70 1.241054
521.80 1.247658
521.90 1.254235
522.00 1.260815
522.10 1.267431
522.20 1.274114
522.30 1.280892
522.40 1.287787
522.50 1.294815
522.60 1.301988
522.70 1.309313
522.80 1.316792
522.90 1.324426
523.00 1.332216
523.10 1.340163
523.20 1.348265
523.30 1.356523
523.40 1.364934
523.50 1.373494
523.60 1.382197
523.70 1.391035
523.80 1.399993
523.90 1.409056
524.00 1.418208
524.10 1.427428
524.20 1.436699
524.30 1.446007
524.40 1.455337
524.50 1.46468
524.60 1.47403
524.70 1.483384
524.80 1.492739
524.90 1.502095
525.00 1.511452
525.10 1.520809
525.20 1.530167
525.30 1.539523
525.40 1.548872
525.50 1.558205
525.60 1.567506
525.70 1.576751
525.80 1.585908
525.90 1.594936
526.00 1.60379
526.10 1.612424
526.20 1.620791
526.30 1.628851
526.40 1.636573
526.50 1.643933
526.60 1.650913
526.70 1.657505
526.80 1.663704
526.90 1.669508
527.00 1.674917
527.10 1.67993
527.20 1.684549
527.30 1.688774
527.40 1.692611
527.50 1.69607
527.60 1.699166
527.70 1.701925
527.80 1.704378
527.90 1.706567
528.00 1.708537
528.10 1.710336
528.20 1.712011
528.30 1.713601
528.40 1.715139
528.50 1.716651
528.60 1.718152
528.70 1.719652
528.80 1.721155
528.90 1.722664
529.00 1.724179
529.10 1.7257
529.20 1.727227
529.30 1.728761
529.40 1.730303
529.50 1.731856
529.60 1.733426
529.70 1.735021
529.80 1.73665
529.90 1.738328
530.00 1.740068
530.10 1.741886
530.20 1.743797
530.30 1.745813
530.40 1.747946
530.50 1.750203
530.60 1.752589
530.70 1.755107
530.80 1.757759
530.90 1.760546
531.00 1.763468
531.10 1.766524
531.20 1.769714
531.30 1.773037
531.40 1.776488
531.50 1.78006
531.60 1.783737
531.70 1.787499
531.80 1.791317
531.90 1.795157
532.00 1.798977
532.10 1.802737
532.20 1.806397
532.30 1.809921
532.40 1.813281
532.50 1.816457
532.60 1.819432
532.70 1.822201
532.80 1.824757
532.90 1.8271
533.00 1.829229
533.10 1.831144
533.20 1.832845
533.30 1.834333
533.40 1.83561
533.50 1.836679
533.60 1.837545
533.70 1.838218
533.80 1.838707
533.90 1.839029
534.00 1.839197
534.10 1.839229
534.20 1.839142
534.30 1.838947
534.40 1.838659
534.50 1.838283
534.60 1.837827
534.70 1.837294
534.80 1.836685
534.90 1.836001
535.00 1.835242
535.10 1.834408
535.20 1.833499
535.30 1.832517
535.40 1.831463
535.50 1.830343
535.60 1.829165
535.70 1.827941
535.80 1.826688
535.90 1.825427
536.00 1.824181
536.10 1.822974
536.20 1.82183
536.30 1.82077
536.40 1.81981
536.50 1.818962
536.60 1.818235
536.70 1.817633
536.80 1.81716
536.90 1.816816
537.00 1.816601
537.10 1.816516
537.20 1.816559
537.30 1.81673
537.40 1.817025
537.50 1.817435
537.60 1.817947
537.70 1.818542
537.80 1.819193
537.90 1.819865
538.00 1.820523
538.10 1.821126
538.20 1.821637
538.30 1.822023
538.40 1.822258
538.50 1.822321
538.60 1.822198
538.70 1.821883
538.80 1.821371
538.90 1.82066
539.00 1.81975
539.10 1.818642
539.20 1.817335
539.30 1.815831
539.40 1.814133
539.50 1.812247
539.60 1.810185
539.70 1.807963
539.80 1.805602
539.90 1.803131
540.00 1.80058
540.10 1.797981
540.20 1.795365
540.30 1.79276
540.40 1.790187
540.50 1.787664
540.60 1.7852
540.70 1.782803
540.80 1.780476
540.90 1.778219
541.00 1.776034
541.10 1.77392
541.20 1.771877
541.30 1.769905
541.40 1.768004
541.50 1.766172
541.60 1.764409
541.70 1.762711
541.80 1.761075
541.90 1.759498
542.00 1.757975
542.10 1.756502
542.20 1.755073
542.30 1.753685
542.40 1.752335
542.50 1.751021
542.60 1.74974
542.70 1.748492
542.80 1.747277
542.90 1.746093
543.00 1.744942
543.10 1.743823
543.20 1.742736
543.30 1.741681
543.40 1.740657
543.50 1.739662
543.60 1.738693
543.70 1.737746
543.80 1.736815
543.90 1.735893
544.00 1.734971
544.10 1.734041
544.20 1.733095
544.30 1.732125
544.40 1.731126
544.50 1.730093
544.60 1.729023
544.70 1.727914
544.80 1.726767
544.90 1.725579
545.00 1.724352
545.10 1.723085
545.20 1.721779
545.30 1.720433
545.40 1.719052
545.50 1.717638
545.60 1.7162
545.70 1.714749
545.80 1.7133
545.90 1.711872
546.00 1.710486
546.10 1.709165
546.20 1.707929
546.30 1.706798
546.40 1.705787
546.50 1.704907
546.60 1.704165
546.70 1.703567
546.80 1.703114
546.90 1.702808
547.00 1.702648
547.10 1.702634
547.20 1.702767
547.30 1.703046
547.40 1.703472
547.50 1.704044
547.60 1.704762
547.70 1.705627
547.80 1.706637
547.90 1.707793
548.00 1.709094
548.10 1.71054
548.20 1.712131
548.30 1.713867
548.40 1.715746
548.50 1.71777
548.60 1.719938
548.70 1.722249
548.80 1.724705
548.90 1.727304
549.00 1.730047
549.10 1.732934
549.20 1.735964
549.30 1.739138
549.40 1.742451
549.50 1.745901
549.60 1.749479
549.70 1.753173
549.80 1.756968
549.90 1.760845
550.00 1.721276
550.10 1.723689
550.20 1.726358
550.30 1.729284
550.40 1.732466
550.50 1.735902
550.60 1.739588
550.70 1.743518
550.80 1.747687
550.90 1.752084
551.00 1.7567
551.10 1.761525
551.20 1.766549
551.30 1.771762
551.40 1.777158
551.50 1.782732
551.60 1.788479
551.70 1.794398
551.80 1.800488
551.90 1.806748
552.00 1.813178
552.10 1.819779
552.20 1.826549
552.30 1.833487
552.40 1.840586
552.50 1.847835
552.60 1.855215
552.70 1.862695
552.80 1.870236
552.90 1.877789
553.00 1.885298
553.10 1.892705
553.20 1.899956
553.30 1.907
553.40 1.913798
553.50 1.920321
553.60 1.926549
553.70 1.93247
553.80 1.938078
553.90 1.943371
554.00 1.948349
554.10 1.953012
554.20 1.957359
554.30 1.96139
554.40 1.965107
554.50 1.968511
554.60 1.971603
554.70 1.974387
554.80 1.976867
554.90 1.979047
555.00 1.980934
555.10 1.982533
555.20 1.98385
555.30 1.98489
555.40 1.985656
555.50 1.986153
555.60 1.986382
555.70 1.986345
555.80 1.986041
555.90 1.985471
556.00 1.984635
556.10 1.983534
556.20 1.982166
556.30 1.980534
556.40 1.97864
556.50 1.976488
556.60 1.974086
556.70 1.971447
556.80 1.968585
556.90 1.965521
557.00 1.962278
557.10 1.958878
557.20 1.955344
557.30 1.951696
557.40 1.947949
557.50 1.944116
557.60 1.940205
557.70 1.93622
557.80 1.932163
557.90 1.928036
558.00 1.923838
558.10 1.91957
558.20 1.915232
558.30 1.910827
558.40 1.90636
558.50 1.901843
558.60 1.897296
558.70 1.892747
558.80 1.888238
558.90 1.883816
559.00 1.879537
559.10 1.875458
559.20 1.871636
559.30 1.868119
559.40 1.864947
559.50 1.862149
559.60 1.859745
559.70 1.857747
559.80 1.856159
559.90 1.854985
560.00 1.854226
560.10 1.85388
560.20 1.853949
560.30 1.85443
560.40 1.855323
560.50 1.856624
560.60 1.858327
560.70 1.860423
560.80 1.862899
560.90 1.86574
561.00 1.868929
561.10 1.872449
561.20 1.876282
561.30 1.880414
561.40 1.884831
561.50 1.889525
561.60 1.89449
561.70 1.899722
561.80 1.905219
561.90 1.910981
562.00 1.917007
562.10 1.923298
562.20 1.929853
562.30 1.936669
562.40 1.94374
562.50 1.951053
562.60 1.958586
562.70 1.966306
562.80 1.97417
562.90 1.982122
563.00 1.990102
563.10 1.998045
563.20 2.005889
563.30 2.013581
563.40 2.021075
563.50 2.02834
563.60 2.035353
563.70 2.042101
563.80 2.048579
563.90 2.054783
564.00 2.060713
564.10 2.066369
564.20 2.071751
564.30 2.07686
564.40 2.081699
564.50 2.086273
564.60 2.09059
564.70 2.094663
564.80 2.09851
564.90 2.102152
565.00 2.105614
565.10 2.108921
565.20 2.112097
565.30 2.115163
565.40 2.118138
565.50 2.121034
565.60 2.123859
565.70 2.126619
565.80 2.129316
565.90 2.131952
566.00 2.134526
566.10 2.137039
566.20 2.13949
566.30 2.14188
566.40 2.144209
566.50 2.146477
566.60 2.148686
566.70 2.150838
566.80 2.152934
566.90 2.154978
567.00 2.156972
567.10 2.158919
567.20 2.160823
567.30 2.162686
567.40 2.164511
567.50 2.1663
567.60 2.168052
567.70 2.16977
567.80 2.171452
567.90 2.1731
568.00 2.174714
568.10 2.176292
568.20 2.177837
568.30 2.179348
568.40 2.180827
568.50 2.182279
568.60 2.18371
568.70 2.185131
568.80 2.186556
568.90 2.188002
569.00 2.189489
569.10 2.191036
569.20 2.192664
569.30 2.194389
569.40 2.196226
569.50 2.198184
569.60 2.200272
569.70 2.202492
569.80 2.204847
569.90 2.207338
570.00 2.209965
570.10 2.212728
570.20 2.215627
570.30 2.218662
570.40 2.221831
570.50 2.225133
570.60 2.228567
570.70 2.232127
570.80 2.235809
570.90 2.239606
571.00 2.243511
571.10 2.247516
571.20 2.251615
571.30 2.255801
571.40 2.260068
571.50 2.264413
571.60 2.268833
571.70 2.273327
571.80 2.277894
571.90 2.282533
572.00 2.287245
572.10 2.292029
572.20 2.296886
572.30 2.301812
572.40 2.306802
572.50 2.311846
572.60 2.316925
572.70 2.322011
572.80 2.327067
572.90 2.332046
573.00 2.336897
573.10 2.341564
573.20 2.345996
573.30 2.350146
573.40 2.353977
573.50 2.35746
573.60 2.360579
573.70 2.363321
573.80 2.365681
573.90 2.367658
574.00 2.369249
574.10 2.370456
574.20 2.371279
574.30 2.37172
574.40 2.371782
574.50 2.371476
574.60 2.370815
574.70 2.369822
574.80 2.368528
574.90 2.366969
575.00 2.365188
575.10 2.363228
575.20 2.361131
575.30 2.358935
575.40 2.35667
575.50 2.354359
575.60 2.352015
575.70 2.349648
575.80 2.347263
575.90 2.344861
576.00 2.342442
576.10 2.340007
576.20 2.337555
576.30 2.335088
576.40 2.332606
576.50 2.330114
576.60 2.327616
576.70 2.325121
576.80 2.322639
576.90 2.320185
577.00 2.317772
577.10 2.315418
577.20 2.313137
577.30 2.310943
577.40 2.308846
577.50 2.306855
577.60 2.304976
577.70 2.303211
577.80 2.301562
577.90 2.30003
578.00 2.298614
578.10 2.297315
578.20 2.296133
578.30 2.295068
578.40 2.294121
578.50 2.293291
578.60 2.292581
578.70 2.291992
578.80 2.291527
578.90 2.291189
579.00 2.290981
579.10 2.290907
579.20 2.290971
579.30 2.291175
579.40 2.291523
579.50 2.292015
579.60 2.292654
579.70 2.29344
579.80 2.294374
579.90 2.295455
580.00 2.296683
580.10 2.29806
580.20 2.299583
580.30 2.301253
580.40 2.303065
580.50 2.305012
580.60 2.307083
580.70 2.309261
580.80 2.311522
580.90 2.313836
581.00 2.316172
581.10 2.318494
581.20 2.320769
581.30 2.322969
581.40 2.32507
581.50 2.327055
581.60 2.328912
581.70 2.330633
581.80 2.332216
581.90 2.333659
582.00 2.334962
582.10 2.336125
582.20 2.337147
582.30 2.338028
582.40 2.338766
582.50 2.339355
582.60 2.339789
582.70 2.340055
582.80 2.340139
582.90 2.340021
583.00 2.339679
583.10 2.339092
583.20 2.338236
583.30 2.337094
583.40 2.33565
583.50 2.333892
583.60 2.331813
583.70 2.329407
583.80 2.326674
583.90 2.323611
584.00 2.320219
584.10 2.316498
584.20 2.312447
584.30 2.308062
584.40 2.303333
584.50 2.298241
584.60 2.292755
584.70 2.286825
584.80 2.280387
584.90 2.273361
585.00 2.265655
585.10 2.257174
585.20 2.247828
585.30 2.237536
585.40 2.226233
585.50 2.213871
585.60 2.200417
585.70 2.185853
585.80 2.170168
585.90 2.15336
586.00 2.135426
586.10 2.116368
586.20 2.096188
586.30 2.074896
586.40 2.052521
586.50 2.029119
586.60 2.004783
586.70 1.979654
586.80 1.953923
586.90 1.927824
587.00 1.901624
587.10 1.875598
587.20 1.850011
587.30 1.825099
587.40 1.801053
587.50 1.778012
587.60 1.756071
587.70 1.735286
587.80 1.715684
587.90 1.697277
588.00 1.680067
588.10 1.664055
588.20 1.649239
588.30 1.635624
588.40 1.623214
588.50 1.612018
588.60 1.602055
588.70 1.59335
588.80 1.585938
588.90 1.579863
589.00 1.575173
589.10 1.571918
589.20 1.570149
589.30 1.569908
589.40 1.571229
589.50 1.574139
589.60 1.578656
589.70 1.584789
589.80 1.592543
589.90 1.601921
590.00 1.612923
590.10 1.625549
590.20 1.639796
590.30 1.655652
590.40 1.673086
590.50 1.692037
590.60 1.712401
590.70 1.734023
590.80 1.756694
590.90 1.780154
591.00 1.804111
591.10 1.82826
591.20 1.85231
591.30 1.876001
591.40 1.899123
591.50 1.921521
591.60 1.943092
591.70 1.963774
591.80 1.983537
591.90 2.002368
592.00 2.020264
592.10 2.037226
592.20 2.053254
592.30 2.068352
592.40 2.082527
592.50 2.095795
592.60 2.108183
592.70 2.119733
592.80 2.130497
592.90 2.140545
593.00 2.149951
593.10 2.158795
593.20 2.167154
593.30 2.175094
593.40 2.182671
593.50 2.189924
593.60 2.196881
593.70 2.203558
593.80 2.209962
593.90 2.216097
594.00 2.221964
594.10 2.227562
594.20 2.232892
594.30 2.237955
594.40 2.242754
594.50 2.247294
594.60 2.251587
594.70 2.255647
594.80 2.259493
594.90 2.263152
595.00 2.266651
595.10 2.270019
595.20 2.273286
595.30 2.276475
595.40 2.279608
595.50 2.282698
595.60 2.285757
595.70 2.28879
595.80 2.291799
595.90 2.294787
596.00 2.297753
596.10 2.300698
596.20 2.303621
596.30 2.306522
596.40 2.3094
596.50 2.312254
596.60 2.315082
596.70 2.317881
596.80 2.320644
596.90 2.323368
597.00 2.326045
597.10 2.328668
597.20 2.33123
597.30 2.333727
597.40 2.336153
597.50 2.338505
597.60 2.340781
597.70 2.342979
597.80 2.345098
597.90 2.347138
598.00 2.349099
598.10 2.350982
598.20 2.352785
598.30 2.354511
598.40 2.356162
598.50 2.357741
598.60 2.359257
598.70 2.360721
598.80 2.362148
598.90 2.363556
599.00 2.364969
599.10 2.366407
599.20 2.367892
599.30 2.369443
599.40 2.371076
599.50 2.372801
599.60 2.374626
599.70 2.376556
599.80 2.378593
599.90 2.380738
600.00 2.375913
600.10 2.377187
600.20 2.378467
600.30 2.379766
600.40 2.381114
600.50 2.382561
600.60 2.384175
600.70 2.386039
600.80 2.38824
600.90 2.390858
601.00 2.393946
601.10 2.397524
601.20 2.401573
601.30 2.406039
601.40 2.410842
601.50 2.415895
601.60 2.421115
601.70 2.426433
601.80 2.4318
601.90 2.437188
602.00 2.44258
602.10 2.447972
602.20 2.453361
602.30 2.458738
602.40 2.464085
602.50 2.469371
602.60 2.474555
602.70 2.479587
602.80 2.484411
602.90 2.48898
603.00 2.49326
603.10 2.49724
603.20 2.500932
603.30 2.504369
603.40 2.507598
603.50 2.510675
603.60 2.513649
603.70 2.516563
603.80 2.519447
603.90 2.522318
604.00 2.525187
604.10 2.528055
604.20 2.530922
604.30 2.533779
604.40 2.536613
604.50 2.5394
604.60 2.542108
604.70 2.544697
604.80 2.547127
604.90 2.549359
605.00 2.551367
605.10 2.553144
605.20 2.554697
605.30 2.556053
605.40 2.557249
605.50 2.558326
605.60 2.559324
605.70 2.560276
605.80 2.561204
605.90 2.562123
606.00 2.563039
606.10 2.563956
606.20 2.564869
606.30 2.565771
606.40 2.566641
606.50 2.567448
606.60 2.568151
606.70 2.568696
606.80 2.569028
606.90 2.569098
607.00 2.56887
607.10 2.568334
607.20 2.5675
607.30 2.566404
607.40 2.565095
607.50 2.563628
607.60 2.562056
607.70 2.560422
607.80 2.558757
607.90 2.557079
608.00 2.555399
608.10 2.553718
608.20 2.552038
608.30 2.55036
608.40 2.548688
608.50 2.547026
608.60 2.545382
608.70 2.543765
608.80 2.542184
608.90 2.540648
609.00 2.539163
609.10 2.537731
609.20 2.53635
609.30 2.535014
609.40 2.533714
609.50 2.53244
609.60 2.531185
609.70 2.529941
609.80 2.528702
609.90 2.527465
610.00 2.526228
610.10 2.524992
610.20 2.523747
610.30 2.522466
610.40 2.521094
610.50 2.519541
610.60 2.517682
610.70 2.515364
610.80 2.512425
610.90 2.508722
611.00 2.504154
611.10 2.498686
611.20 2.492353
611.30 2.485256
611.40 2.477538
611.50 2.469361
611.60 2.460878
611.70 2.452214
611.80 2.443459
611.90 2.434668
612.00 2.425868
612.10 2.417069
612.20 2.408287
612.30 2.399583
612.40 2.391074
612.50 2.382954
612.60 2.37549
612.70 2.36901
612.80 2.363861
612.90 2.360353
613.00 2.358698
613.10 2.358975
613.20 2.361107
613.30 2.364878
613.40 2.36998
613.50 2.376067
613.60 2.38281
613.70 2.389941
613.80 2.397268
613.90 2.404672
614.00 2.412094
614.10 2.419516
614.20 2.426901
614.30 2.434122
614.40 2.440931
614.50 2.446922
614.60 2.45153
614.70 2.454063
614.80 2.453792
614.90 2.450064
615.00 2.442429
615.10 2.430724
615.20 2.415111
615.30 2.396042
615.40 2.374169
615.50 2.350221
615.60 2.324889
615.70 2.29874
615.80 2.272179
615.90 2.245454
616.00 2.218691
616.10 2.191929
616.20 2.165212
616.30 2.138697
616.40 2.112691
616.50 2.087691
616.60 2.064395
616.70 2.043654
616.80 2.026368
616.90 2.013339
617.00 2.005123
617.10 2.00192
617.20 2.00353
617.30 2.009397
617.40 2.018718
617.50 2.030595
617.60 2.044176
617.70 2.058764
617.80 2.07386
617.90 2.089157
618.00 2.1045
618.10 2.119844
618.20 2.135164
618.30 2.150384
618.40 2.165349
618.50 2.179813
618.60 2.193425
618.70 2.20576
618.80 2.216371
618.90 2.224855
619.00 2.230936
619.10 2.234513
619.20 2.235685
619.30 2.234732
619.40 2.232054
619.50 2.228099
619.60 2.223293
619.70 2.217985
619.80 2.212422
619.90 2.206759
620.00 2.201073
620.10 2.195387
620.20 2.189702
620.30 2.184019
620.40 2.178342
620.50 2.172678
620.60 2.167035
620.70 2.161423
620.80 2.155855
620.90 2.150339
621.00 2.144883
621.10 2.13949
621.20 2.134156
621.30 2.128875
621.40 2.123636
621.50 2.11843
621.60 2.113244
621.70 2.108072
621.80 2.102905
621.90 2.097741
622.00 2.092577
622.10 2.087414
622.20 2.082256
622.30 2.077126
622.40 2.072063
622.50 2.067134
622.60 2.062432
622.70 2.058069
622.80 2.054167
622.90 2.05083
623.00 2.048135
623.10 2.046106
623.20 2.044717
623.30 2.043895
623.40 2.043533
623.50 2.04351
623.60 2.043715
623.70 2.044053
623.80 2.044459
623.90 2.044891
624.00 2.04533
624.10 2.045769
624.20 2.046213
624.30 2.046682
624.40 2.047212
624.50 2.047863
624.60 2.048719
624.70 2.049884
624.80 2.051465
624.90 2.053559
625.00 2.056233
625.10 2.059512
625.20 2.06337
625.30 2.067742
625.40 2.07253
625.50 2.077626
625.60 2.082927
625.70 2.08835
625.80 2.093834
625.90 2.099342
626.00 2.104856
626.10 2.11037
626.20 2.115885
626.30 2.121408
626.40 2.12695
626.50 2.132528
626.60 2.138169
626.70 2.143904
626.80 2.149765
626.90 2.155783
627.00 2.161978
627.10 2.168356
627.20 2.174911
627.30 2.181622
627.40 2.18846
627.50 2.195392
627.60 2.202386
627.70 2.209417
627.80 2.216467
627.90 2.223524
628.00 2.230583
628.10 2.237642
628.20 2.244695
628.30 2.251722
628.40 2.258682
628.50 2.265511
628.60 2.272118
628.70 2.278391
628.80 2.284214
628.90 2.289481
629.00 2.29412
629.10 2.298106
629.20 2.301463
629.30 2.304265
629.40 2.306616
629.50 2.308634
629.60 2.31043
629.70 2.312095
629.80 2.313693
629.90 2.315264
630.00 2.31683
630.10 2.318396
630.20 2.319962
630.30 2.321526
630.40 2.323089
630.50 2.324648
630.60 2.326201
630.70 2.327743
630.80 2.329272
630.90 2.330785
631.00 2.332279
631.10 2.333753
631.20 2.335209
631.30 2.336649
631.40 2.338075
631.50 2.339491
631.60 2.340901
631.70 2.342307
631.80 2.343711
631.90 2.345114
632.00 2.346516
632.10 2.347919
632.20 2.349322
632.30 2.350727
632.40 2.352134
632.50 2.353547
632.60 2.354969
632.70 2.356407
632.80 2.357864
632.90 2.359346
633.00 2.360855
633.10 2.362393
633.20 2.363959
633.30 2.365549
633.40 2.367159
633.50 2.368784
633.60 2.370418
633.70 2.372058
633.80 2.373702
633.90 2.375346
634.00 2.37699
634.10 2.378635
634.20 2.380279
634.30 2.38192
634.40 2.383555
634.50 2.385176
634.60 2.386775
634.70 2.38834
634.80 2.38986
634.90 2.391324
635.00 2.392724
635.10 2.394346
635.20 2.396132
635.30 2.396567
635.40 2.392421
635.50 2.378469
635.60 2.34758
635.70 2.291766
635.80 2.204221
635.90 2.081432
636.00 1.924245
636.10 1.738302
636.20 1.533717
636.30 1.323399
636.40 1.120837
636.50 0.9386152
636.60 0.7879976
636.70 0.6787088
636.80 0.6187863
636.90 0.6140517
637.00 0.6665947
637.10 0.77229
637.20 0.9191847
637.30 1.087672
637.40 1.252131
637.50 1.386007
637.60 1.468313
637.70 1.488168
637.80 1.447351
637.90 1.360539
638.00 1.252118
638.10 1.149888
638.20 1.077904
638.30 1.051008
638.40 1.072801
638.50 1.136585
638.60 1.227787
638.70 1.328025
638.80 1.419759
638.90 1.489796
639.00 1.530751
639.10 1.540789
639.20 1.522433
639.30 1.480884
639.40 1.42316
639.50 1.356963
639.60 1.289604
639.70 1.228799
639.80 1.182803
639.90 1.158922
640.00 1.162075
640.10 1.193528
640.20 1.250011
640.30 1.3235
640.40 1.401268
640.50 1.467535
640.60 1.506701
640.70 1.506706
640.80 1.46164
640.90 1.372642
641.00 1.247794
641.10 1.101701
641.20 0.9535613
641.30 0.8233515
641.40 0.7275914
641.50 0.6764307
641.60 0.6725154
641.70 0.7113594
641.80 0.7831368
641.90 0.8755759
642.00 0.9771439
642.10 1.079385
642.20 1.177901
642.30 1.272256
642.40 1.364334
642.50 1.455384
642.60 1.544338
642.70 1.627508
642.80 1.698244
642.90 1.747995
643.00 1.768468
643.10 1.752637
643.20 1.695977
643.30 1.598777
643.40 1.467813
643.50 1.316566
643.60 1.163844
643.70 1.031063
643.80 0.9385397
643.90 0.9011409
644.00 0.9244208
644.10 1.002591
644.20 1.11879
644.30 1.249347
644.40 1.371445
644.50 1.469553
644.60 1.539096
644.70 1.587062
644.80 1.629197
644.90 1.684371
645.00 1.767176
645.10 1.881537
645.20 2.017794
645.30 2.154664
645.40 2.264771
645.50 2.322462
645.60 2.311498
645.70 2.228852
645.80 2.084808
645.90 1.899793
646.00 1.698168
646.10 1.501598
646.20 1.325746
646.30 1.179869
646.40 1.067644
646.50 0.991045
646.60 0.9532188
646.70 0.9576894
646.80 1.006678
646.90 1.097592
647.00 1.219047
647.10 1.350765
647.20 1.468018
647.30 1.547882
647.40 1.575126
647.50 1.545851
647.60 1.46761
647.70 1.356686
647.80 1.232863
647.90 1.113824
648.00 1.012625
648.10 0.9375291
648.20 0.8921716
648.30 0.8768773
648.40 0.8903619
648.50 0.9287081
648.60 0.9838171
648.70 1.044882
648.80 1.100331
648.90 1.139767
649.00 1.157846
649.10 1.157504
649.20 1.149322
649.30 1.148495
649.40 1.170804
649.50 1.227356
649.60 1.321331
649.70 1.447777
649.80 1.594751
649.90 1.745854
650.00 1.883094
650.10 1.990212
650.20 2.056751
650.30 2.079814
650.40 2.062751
650.50 2.013748
650.60 1.945045
650.70 1.869699
650.80 1.797182
650.90 1.731989
651.00 1.674852
651.10 1.624609
651.20 1.580718
651.30 1.545558
651.40 1.52504
651.50 1.528075
651.60 1.563954
651.70 1.637545
651.80 1.745562
651.90 1.876478
652.00 2.013728
652.10 2.139879
652.20 2.240174
652.30 2.305425
652.40 2.334283
652.50 2.333071
652.60 2.312467
652.70 2.284413
652.80 2.260661
652.90 2.251082
653.00 2.261951
653.10 2.295397
653.20 2.349267
653.30 2.416906
653.40 2.487949
653.50 2.550029
653.60 2.591125
653.70 2.603155
653.80 2.584905
653.90 2.541763
654.00 2.484028
654.10 2.425246
654.20 2.379142
654.30 2.356335
654.40 2.362665
654.50 2.399068
654.60 2.462109
654.70 2.544011
654.80 2.632461
654.90 2.711913
655.00 2.766703
655.10 2.784109
655.20 2.75725
655.30 2.688139
655.40 2.588961
655.50 2.479866
655.60 2.383618
655.70 2.319014
655.80 2.29594
655.90 2.313448
656.00 2.360244
656.10 2.418358
656.20 2.469524
656.30 2.500418
656.40 2.505373
656.50 2.48715
656.60 2.455503
656.70 2.424177
656.80 2.40812
656.90 2.421179
657.00 2.472969
657.10 2.566206
657.20 2.695991
657.30 2.849923
657.40 3.009428
657.50 3.15354
657.60 3.263278
657.70 3.325126
657.80 3.333468
657.90 3.290658
658.00 3.205308
658.10 3.089246
658.20 2.953855
658.30 2.808628
658.40 2.662003
658.50 2.522222
658.60 2.397308
658.70 2.294698
658.80 2.220394
658.90 2.177001
659.00 2.161766
659.10 2.166962
659.20 2.182087
659.30 2.197252
659.40 2.207154
659.50 2.212297
659.60 2.21826
659.70 2.234253
659.80 2.269624
659.90 2.329518
660.00 2.411068
660.10 2.503385
660.20 2.591196
660.30 2.658612
660.40 2.693296
660.50 2.690206
660.60 2.653479
660.70 2.595308
660.80 2.531433
660.90 2.476241
661.00 2.439183
661.10 2.422611
661.20 2.422327
661.30 2.430121
661.40 2.436238
661.50 2.432155
661.60 2.412273
661.70 2.372792
661.80 2.310161
661.90 2.220968
662.00 2.103279
662.10 1.957776
662.20 1.78959
662.30 1.610874
662.40 1.440148
662.50 1.299005
662.60 1.207698
662.70 1.180327
662.80 1.221534
662.90 1.325113
663.00 1.475042
663.10 1.649773
663.20 1.827775
663.30 1.991408
663.40 2.12895
663.50 2.23519
663.60 2.310289
663.70 2.357417
663.80 2.379928
663.90 2.380374
664.00 2.36132
664.10 2.326885
664.20 2.28422
664.30 2.243108
664.40 2.214995
664.50 2.211205
664.60 2.239923
664.70 2.304043
664.80 2.399964
664.90 2.518022
665.00 2.645698
665.10 2.771149
665.20 2.885002
665.30 2.981429
665.40 3.058473
665.50 3.116598
665.60 3.156828
665.70 3.179985
665.80 3.18689
665.90 3.178817
666.00 3.157847
666.10 3.126756
666.20 3.088483
666.30 3.045718
666.40 3.000005
666.50 2.95115
666.60 2.89832
666.70 2.841519
666.80 2.782947
666.90 2.728003
667.00 2.684054
667.10 2.657348
667.20 2.650031
667.30 2.658667
667.40 2.674608
667.50 2.68605
667.60 2.681673
667.70 2.654207
667.80 2.602588
667.90 2.532202
668.00 2.452919
668.10 2.376197
668.20 2.311844
668.30 2.265179
668.40 2.236668
668.50 2.223646
668.60 2.22199
668.70 2.227715
668.80 2.23845
668.90 2.254263
669.00 2.277926
669.10 2.314741
669.20 2.371797
669.30 2.456087
669.40 2.571915
669.50 2.718604
669.60 2.888648
669.70 3.067466
669.80 3.235091
669.90 3.369109
670.00 3.4486
670.10 3.45756
670.20 3.387741
670.30 3.240715
670.40 3.02753
670.50 2.766628
670.60 2.481354
670.70 2.197607
670.80 1.941604
670.90 1.737135
671.00 1.602708
671.10 1.548506
671.20 1.573727
671.30 1.666796
671.40 1.807611
671.50 1.971199
671.60 2.133141
671.70 2.274412
671.80 2.384913
671.90 2.464942
672.00 2.523517
672.10 2.574698
672.20 2.632213
672.30 2.704386
672.40 2.791851
672.50 2.888112
672.60 2.982154
672.70 3.061898
672.80 3.117294
672.90 3.142563
673.00 3.137253
673.10 3.1065
673.20 3.060261
673.30 3.010772
673.40 2.970139
673.50 2.948691
673.60 2.953195
673.70 2.986101
673.80 3.0456
673.90 3.126204
674.00 3.220469
674.10 3.320992
674.20 3.422
674.30 3.520554
674.40 3.616319
674.50 3.709866
674.60 3.800995
674.70 3.887854
674.80 3.967096
674.90 4.034901
675.00 4.088055
675.10 4.124032
675.20 4.140623
675.30 4.135367
675.40 4.104203
675.50 4.041962
675.60 3.944536
675.70 3.810663
675.80 3.64447
675.90 3.458076
676.00 3.271639
676.10 3.11
676.20 2.997645
676.30 2.953359
676.40 2.98566
676.50 3.090459
676.60 3.252501
676.70 3.450074
676.80 3.660244
676.90 3.863582
677.00 4.047162
677.10 4.205125
677.20 4.337362
677.30 4.446456
677.40 4.534419
677.50 4.599824
677.60 4.63747
677.70 4.64146
677.80 4.608353
677.90 4.53913
678.00 4.440259
678.10 4.323591
678.20 4.204174
678.30 4.096887
678.40 4.013902
678.50 3.962713
678.60 3.944254
678.70 3.952836
678.80 3.978127
678.90 4.00799
679.00 4.031639
679.10 4.041211
679.20 4.032179
679.30 4.004587
679.40 3.963636
679.50 3.918629
679.60 3.880695
679.70 3.860054
679.80 3.864187
679.90 3.896994
680.00 3.958282
680.10 4.043394
680.20 4.143332
680.30 4.244889
680.40 4.331619
680.50 4.387275
680.60 4.400123
680.70 4.366502
680.80 4.29323
680.90 4.197512
681.00 4.103278
681.10 4.03569
681.20 4.015244
681.30 4.051419
681.40 4.139294
681.50 4.261311
681.60 4.392002
681.70 4.504506
681.80 4.576561
681.90 4.593856
682.00 4.551938
682.10 4.456474
682.20 4.322072
682.30 4.170622
682.40 4.02781
682.50 3.917985
682.60 3.858738
682.70 3.856657
682.80 3.905481
682.90 3.987452
683.00 4.079021
683.10 4.158637
683.20 4.213637
683.30 4.24466
683.40 4.265107
683.50 4.295229
683.60 4.353888
683.70 4.450869
683.80 4.582943
683.90 4.735411
684.00 4.88671
684.10 5.014561
684.20 5.101876
684.30 5.140202
684.40 5.129916
684.50 5.077768
684.60 4.994188
684.70 4.890357
684.80 4.776644
684.90 4.662946
685.00 4.558562
685.10 4.472907
685.20 4.415337
685.30 4.392935
685.40 4.408225
685.50 4.457279
685.60 4.53033
685.70 4.61418
685.80 4.694192
685.90 4.75701
686.00 4.793841
686.10 4.802188
686.20 4.785073
686.30 4.747911
686.40 4.694816
686.50 4.626457
686.60 4.539731
686.70 4.429789
686.80 4.293542
686.90 4.1323
687.00 3.953488
687.10 3.770785
687.20 3.602066
687.30 3.465892
687.40 3.378137
687.50 3.349613
687.60 3.38396
687.70 3.477121
687.80 3.619334
687.90 3.797063
688.00 3.993775
688.10 4.190408
688.20 4.367454
688.30 4.509106
688.40 4.606305
688.50 4.658092
688.60 4.671833
688.70 4.660795
688.80 4.640312
688.90 4.623923
689.00 4.619504
689.10 4.627078
689.20 4.639964
689.30 4.648574
689.40 4.645069
689.50 4.62717
689.60 4.599445
689.70 4.571639
689.80 4.554301
689.90 4.554249
690.00 4.572754
690.10 4.60611
690.20 4.646969
690.30 4.686114
690.40 4.715643
690.50 4.731382
690.60 4.732856
690.70 4.722193
690.80 4.701946
690.90 4.673319
691.00 4.636439
691.10 4.591767
691.20 4.54161
691.30 4.491012
691.40 4.447418
691.50 4.418611
691.60 4.410048
691.70 4.423069
691.80 4.454236
691.90 4.495363
692.00 4.534975
692.10 4.562134
692.20 4.569956
692.30 4.557156
692.40 4.528314
692.50 4.492269
692.60 4.45881
692.70 4.435219
692.80 4.425321
692.90 4.430589
693.00 4.450287
693.10 4.481964
693.20 4.523026
693.30 4.571075
693.40 4.623229
693.50 4.675757
693.60 4.723687
693.70 4.760974
693.80 4.782191
693.90 4.784366
694.00 4.767268
694.10 4.733045
694.20 4.686214
694.30 4.632844
694.40 4.579137
694.50 4.530175
694.60 4.489382
694.70 4.45956
694.80 4.442493
694.90 4.437414
695.00 4.442206
695.10 4.454397
695.20 4.470681
695.30 4.486977
695.40 4.498356
695.50 4.498978
695.60 4.482767
695.70 4.444629
695.80 4.382015
695.90 4.29722
696.00 4.198937
696.10 4.100973
696.20 4.019541
696.30 3.970122
696.40 3.963287
696.50 4.00207
696.60 4.082006
696.70 4.192388
696.80 4.31909
696.90 4.448101
697.00 4.567826
697.10 4.670105
697.20 4.750665
697.30 4.80914
697.40 4.848974
697.50 4.877331
697.60 4.904176
697.70 4.939885
697.80 4.991795
697.90 5.060905
698.00 5.140604
698.10 5.217645
698.20 5.274393
698.30 5.293337
698.40 5.262608
698.50 5.179729
698.60 5.052914
698.70 4.899054
698.80 4.739534
698.90 4.595512
699.00 4.483476
699.10 4.407709
699.20 4.357361
699.30 4.309505
699.40 4.232009
699.50 4.090178
699.60 3.855661
699.70 3.514986
699.80 3.074998
699.90 2.562863
700.00 4.523865
700.10 4.360968
700.20 3.727314
700.30 3.544858
700.40 3.813601
700.50 4.294898
700.60 4.917898
700.70 5.021186
700.80 4.901741
700.90 4.809343
701.00 4.723707
701.10 4.867976
701.20 5.037791
701.30 5.212723
701.40 5.32059
701.50 4.824865
701.60 4.384437
701.70 4.1652
701.80 4.047716
701.90 4.167653
702.00 4.502689
702.10 5.160371
702.20 5.129376
702.30 4.409705
702.40 4.178585
702.50 4.273166
702.60 4.469902
702.70 4.710417
702.80 4.613091
702.90 4.431304
703.00 4.572688
703.10 4.749979
703.20 4.662931
703.30 4.558381
703.40 4.296317
703.50 4.125232
703.60 4.318062
703.70 4.464761
703.80 4.503817
703.90 4.741888
704.00 5.278481
704.10 5.456711
704.20 5.276577
704.30 5.452377
704.40 5.865466
704.50 5.818762
704.60 5.575005
704.70 5.277013
704.80 4.965462
704.90 4.902875
705.00 4.867952
705.10 4.999379
705.20 5.169248
705.30 5.685101
705.40 5.993673
705.50 5.47312
705.60 5.087194
705.70 5.015397
705.80 5.116292
705.90 5.476225
706.00 5.581067
706.10 5.430817
706.20 5.206325
706.30 4.907591
706.40 4.802715
706.50 4.827078
706.60 4.538983
706.70 4.116977
706.80 4.383377
706.90 4.821878
707.00 4.725326
707.10 4.569322
707.20 5.081488
707.30 5.526649
707.40 5.368779
707.50 5.150936
707.60 4.693199
707.70 4.475408
707.80 4.817489
707.90 5.138549
708.00 5.428078
708.10 5.517537
708.20 5.406925
708.30 5.392138
708.40 5.441235
708.50 5.276186
708.60 5.01936
708.70 5.148571
708.80 5.374291
708.90 5.326168
709.00 5.247619
709.10 4.875147
709.20 4.562645
709.30 4.789879
709.40 5.070922
709.50 5.567205
709.60 5.842808
709.70 5.60349
709.80 5.496952
709.90 5.589582
710.00 5.542129
710.10 5.354593
710.20 5.048137
710.30 4.662401
710.40 4.547858
710.50 4.549539
710.60 4.562447
710.70 4.578163
710.80 4.946048
710.90 5.353062
711.00 5.504867
711.10 5.648355
711.20 5.716994
711.30 5.677239
711.40 5.203908
711.50 5.030614
711.60 5.557408
711.70 5.629341
711.80 5.018982
711.90 4.643765
712.00 4.503691
712.10 4.927998
712.20 5.728559
712.30 5.788455
712.40 5.530924
712.50 5.294837
712.60 5.064111
712.70 5.352798
712.80 5.699198
712.90 5.812411
713.00 5.876075
713.10 5.493795
713.20 5.252527
713.30 5.575307
713.40 5.751995
713.50 5.5878
713.60 5.583416
713.70 5.818749
713.80 5.895032
713.90 5.812265
714.00 5.692066
714.10 5.546911
714.20 4.871915
714.30 3.969844
714.40 4.54763
714.50 5.49538
714.60 5.528781
714.70 5.460588
714.80 5.100469
714.90 4.835209
715.00 5.423676
715.10 5.859006
715.20 5.681789
715.30 5.611181
715.40 5.789327
715.50 6.044668
715.60 6.415803
715.70 6.499502
715.80 6.295768
715.90 6.242255
716.00 6.288891
716.10 6.195623
716.20 6.042397
716.30 5.660513
716.40 5.221463
716.50 5.093857
716.60 5.000855
716.70 5.695141
716.80 6.307024
716.90 6.177269
717.00 6.052223
717.10 5.946013
717.20 5.917832
717.30 6.071718
717.40 6.19681
717.50 6.278713
717.60 6.112381
717.70 5.697815
717.80 5.451963
717.90 5.318585
718.00 5.891947
718.10 6.768197
718.20 6.489422
718.30 5.92189
718.40 5.737156
718.50 5.594955
718.60 5.607615
718.70 5.619909
718.80 5.628909
718.90 5.63956
719.00 5.656818
719.10 5.669291
719.20 5.6706
719.30 5.689034
719.40 5.733152
719.50 5.967031
719.60 6.390672
719.70 6.107254
719.80 5.352465
719.90 5.238995
720.00 5.400376
720.10 5.762707
720.20 6.175276
720.30 6.045267
720.40 5.854972
720.50 5.874979
720.60 5.914127
720.70 6.125553
720.80 6.238615
720.90 5.958225
721.00 5.793211
721.10 5.897405
721.20 6.128426
721.30 6.549689
721.40 6.481287
721.50 5.923219
721.60 5.569576
721.70 5.352216
721.80 5.330575
721.90 5.392815
722.00 5.291079
722.10 5.148348
722.20 5.415792
722.30 5.728811
722.40 5.582207
722.50 5.417909
722.60 5.094357
722.70 4.911131
722.80 5.289203
722.90 5.652377
723.00 5.980786
723.10 6.14665
723.20 6.068695
723.30 5.782509
723.40 5.288093
723.50 5.428216
723.60 5.991364
723.70 6.610049
723.80 7.252535
723.90 8.698496
724.00 10.34533
724.10 9.203073
724.20 7.750923
724.30 6.611707
724.40 5.613918
724.50 5.888957
724.60 6.190511
724.70 6.59812
724.80 6.757633
724.90 6.338256
725.00 6.219368
725.10 6.551214
725.20 6.643965
725.30 6.497622
725.40 6.434865
725.50 6.427834
725.60 6.446153
725.70 6.475337
725.80 6.56415
725.90 6.66787
726.00 6.459879
726.10 6.217253
726.20 5.985379
726.30 5.7547
726.40 5.701237
726.50 5.653728
726.60 5.659803
726.70 5.633371
726.80 5.476913
726.90 5.437964
727.00 5.673204
727.10 5.758798
727.20 5.619922
727.30 6.067548
727.40 7.101678
727.50 7.556156
727.60 7.624201
727.70 6.883138
727.80 5.795314
727.90 5.242775
728.00 4.824057
728.10 5.759873
728.20 6.846192
728.30 6.553078
728.40 6.196224
728.50 5.265713
728.60 4.725065
728.70 5.743869
728.80 6.35103
728.90 5.997692
729.00 5.497887
729.10 4.778383
729.20 4.974571
729.30 6.086452
729.40 6.288539
729.50 5.884097
729.60 5.569125
729.70 5.292497
729.80 5.280617
729.90 5.334925
730.00 5.390921
730.10 5.447105
730.20 5.364459
730.30 5.27689
730.40 5.145008
730.50 5.015666
730.60 4.896481
730.70 4.831408
730.80 4.892598
730.90 5.234947
731.00 5.999034
731.10 6.661132
731.20 7.221243
731.30 7.879224
731.40 8.602452
731.50 7.724401
731.60 6.160088
731.70 5.11874
731.80 4.208133
731.90 4.996822
732.00 5.974322
732.10 5.781965
732.20 5.54006
732.30 4.852219
732.40 4.364875
732.50 4.679519
732.60 5.083892
732.70 5.697632
732.80 6.029341
732.90 5.938001
733.00 5.711125
733.10 5.348712
733.20 5.1547
733.30 5.072956
733.40 5.232488
733.50 5.495426
733.60 5.247509
733.70 4.871879
733.80 4.272094
733.90 3.647404
734.00 4.410153
734.10 5.155164
734.20 5.740529
734.30 6.234471
734.40 6.362721
734.50 6.470374
734.60 6.529966
734.70 6.356483
734.80 5.833386
734.90 5.449025
735.00 5.203401
735.10 5.197794
735.20 5.3522
735.30 5.321665
735.40 5.211871
735.50 4.960191
735.60 4.673039
735.70 4.310846
735.80 3.940316
735.90 4.093328
736.00 4.315543
736.10 5.160585
736.20 5.775609
736.30 5.470559
736.40 5.15279
736.50 4.80534
736.60 5.06735
736.70 6.243551
736.80 6.638412
736.90 6.251933
737.00 5.917288
737.10 5.617198
737.20 5.801698
737.30 6.19388
737.40 5.90814
737.50 5.45292
737.60 4.902923
737.70 4.342394
737.80 4.822571
737.90 5.24843
738.00 5.185419
738.10 5.113206
738.20 5.004182
738.30 4.859988
738.40 4.633729
738.50 4.415815
738.60 4.210418
738.70 4.589103
738.80 5.551872
738.90 5.615091
739.00 5.078609
739.10 4.661609
739.20 4.295815
739.30 4.509548
739.40 4.868162
739.50 4.575779
739.60 4.211062
739.70 4.332161
739.80 4.490469
739.90 4.983668
740.00 5.36183
740.10 5.279844
740.20 5.262277
740.30 5.395023
740.40 5.607115
740.50 5.938227
740.60 5.931749
740.70 5.58768
740.80 5.111244
740.90 4.546564
741.00 4.860202
741.10 5.550263
741.20 5.280809
741.30 4.771476
741.40 4.751264
741.50 4.785397
741.60 4.989968
741.70 5.10908
741.80 4.45906
741.90 4.0194
742.00 4.421176
742.10 4.774596
742.20 5.015186
742.30 5.246652
742.40 5.46443
742.50 5.389656
742.60 5.02233
742.70 4.777534
742.80 4.614426
742.90 4.685644
743.00 4.857288
743.10 4.575257
743.20 4.179806
743.30 4.272221
743.40 4.418843
743.50 4.627603
743.60 4.824036
743.70 4.909533
743.80 5.004523
743.90 5.137482
744.00 5.416269
744.10 6.035322
744.20 6.119666
744.30 5.401945
744.40 4.908835
744.50 4.640334
744.60 4.659031
744.70 4.869193
744.80 4.889981
744.90 4.829608
745.00 4.604033
745.10 4.337158
745.20 4.57658
745.30 4.872258
745.40 4.693415
745.50 4.480327
745.60 3.959022
745.70 3.617509
745.80 3.995164
745.90 4.353084
746.00 4.664958
746.10 4.697292
746.20 4.077366
746.30 4.082252
746.40 5.024355
746.50 5.359646
746.60 5.088127
746.70 5.398248
746.80 6.096129
746.90 6.110774
747.00 5.832605
747.10 5.622424
747.20 5.42924
747.30 4.820039
747.40 4.164614
747.50 4.604379
747.60 4.993574
747.70 4.927647
747.80 4.818212
747.90 4.534748
748.00 4.29888
748.10 4.174066
748.20 4.117234
748.30 4.162374
748.40 4.052616
748.50 3.787961
748.60 3.979645
748.70 4.475556
748.80 4.499393
748.90 4.320913
749.00 4.731291
749.10 5.288885
749.20 4.653522
749.30 3.885609
749.40 3.576389
749.50 3.30813
749.60 3.408525
749.70 3.477672
749.80 3.421822
749.90 3.602664
750.00 4.335784
750.10 4.857154
750.20 5.060898
750.30 4.800218
750.40 4.075113
750.50 3.848279
750.60 3.953625
750.70 3.922734
750.80 3.833457
750.90 3.590071
751.00 3.308158
751.10 3.897117
751.20 4.58284
751.30 5.483834
751.40 6.182796
751.50 5.063476
751.60 4.109106
751.70 3.814533
751.80 3.519766
751.90 3.224543
752.00 3.1147
752.10 3.282926
752.20 3.390297
752.30 3.436811
752.40 3.975154
752.50 4.841383
752.60 4.970931
752.70 4.78476
752.80 4.983838
752.90 5.279228
753.00 4.919374
753.10 4.486715
753.20 3.45579
753.30 2.600398
753.40 3.324806
753.50 3.955205
753.60 4.20957
753.70 4.393694
753.80 4.413923
753.90 4.290569
754.00 3.951841
754.10 3.373716
754.20 2.556195
754.30 2.429275
754.40 2.762755
754.50 2.986357
754.60 3.162869
754.70 3.351224
754.80 3.542541
754.90 3.755282
755.00 3.970404
755.10 3.849919
755.20 3.749848
755.30 3.833506
755.40 3.800162
755.50 3.298808
755.60 3.134125
755.70 3.755007
755.80 4.455634
755.90 5.275877
756.00 5.277939
756.10 4.46182
756.20 4.187507
756.30 4.274397
756.40 3.882452
756.50 3.285291
756.60 2.974367
756.70 2.735003
756.80 3.109756
756.90 3.552743
757.00 3.82782
757.10 4.113358
757.20 4.493047
757.30 4.47557
757.40 2.86943
757.50 1.823652
757.60 2.085383
757.70 2.303155
757.80 2.454988
757.90 2.609087
758.00 2.765453
758.10 2.878233
758.20 2.961956
758.30 3.473405
758.40 4.168165
758.50 3.971125
758.60 3.551135
758.70 2.795803
758.80 2.003211
758.90 1.80943
759.00 1.642895
759.10 1.721578
759.20 1.949045
759.30 2.771647
759.40 3.310994
759.50 3.189412
759.60 2.821098
759.70 2.082686
759.80 1.647402
759.90 1.515246
760.00 1.448329
760.10 1.424904
760.20 1.510143
760.30 1.641953
760.40 1.329724
760.50 0.9064861
760.60 0.8531213
760.70 0.8408536
760.80 1.070705
760.90 1.270899
761.00 1.204186
761.10 1.19885
761.20 1.439028
761.30 1.654061
761.40 1.810426
761.50 1.665944
761.60 1.070194
761.70 0.7247504
761.80 0.629615
761.90 0.6217118
762.00 0.6719633
762.10 1.300216
762.20 2.176184
762.30 1.792425
762.40 1.093733
762.50 1.446838
762.60 1.91681
762.70 1.919048
762.80 1.876053
762.90 1.425959
763.00 1.040565
763.10 0.9139765
763.20 0.8948119
763.30 1.126303
763.40 1.306884
763.50 1.4111
763.60 1.631344
763.70 1.967616
763.80 1.918148
763.90 1.61152
764.00 1.134769
764.10 0.5851098
764.20 0.3625673
764.30 0.2218041
764.40 0.309468
764.50 0.4225127
764.60 0.3348116
764.70 0.2491067
764.80 0.1813685
764.90 0.2243219
765.00 0.710042
765.10 1.064614
765.20 1.113172
765.30 0.9914366
765.40 0.6142611
765.50 0.2083881
765.60 9.474055e-11
765.70 9.474055e-11
765.80 0.2914726
765.90 0.2205354
766.00 9.474055e-11
766.10 0.1134168
766.20 0.4925683
766.30 0.8797504
766.40 1.26894
766.50 0.9923137
766.60 0.6417078
766.70 0.9811392
766.80 1.222536
766.90 0.5816191
767.00 0.1993113
767.10 0.8514387
767.20 1.236261
767.30 0.9973716
767.40 0.7838915
767.50 0.6085254
767.60 0.3553989
767.70 0.02451194
767.80 0.2228087
767.90 0.7738945
768.00 1.014571
768.10 1.122215
768.20 0.7794278
768.30 0.3240334
768.40 0.4599067
768.50 0.6614764
768.60 0.7465751
768.70 0.7895974
768.80 0.4539333
768.90 0.1372188
769.00 9.474055e-11
769.10 9.474055e-11
769.20 0.1646056
769.30 0.3912706
769.40 0.4537666
769.50 0.1760162
769.60 9.474055e-11
769.70 9.474055e-11
769.80 9.474055e-11
769.90 0.1812041
770.00 0.8593293
770.10 0.5823547
770.20 0.06660519
770.30 0.4853681
770.40 1.007966
770.50 1.109426
770.60 1.15696
770.70 0.7191518
770.80 0.3184755
770.90 0.06632725
771.00 0.1309576
771.10 0.9347382
771.20 1.381679
771.30 1.293359
771.40 0.8698315
771.50 0.1110965
771.60 0.2529946
771.70 0.9953147
771.80 1.378709
771.90 1.608279
772.00 1.801022
772.10 1.984558
772.20 1.824216
772.30 1.625666
772.40 1.399828
772.50 1.201566
772.60 1.251479
772.70 1.319709
772.80 1.461204
772.90 1.489752
773.00 1.254758
773.10 1.204371
773.20 1.430895
773.30 1.474199
773.40 1.334285
773.50 1.031695
773.60 0.6206551
773.70 0.7233285
773.80 1.046165
773.90 1.267903
774.00 1.464366
774.10 1.776042
774.20 2.100519
774.30 1.676608
774.40 1.335703
774.50 1.741855
774.60 2.291119
774.70 3.412826
774.80 4.420515
774.90 5.162162
775.00 5.423802
775.10 4.965434
775.20 4.971782
775.30 5.442847
775.40 4.998614
775.50 3.94418
775.60 3.635886
775.70 3.647367
775.80 3.795583
775.90 3.977983
776.00 3.33567
776.10 2.601724
776.20 3.111734
776.30 3.5062
776.40 2.860769
776.50 2.303653
776.60 2.099798
776.70 2.108695
776.80 2.614015
776.90 2.741004
777.00 2.300496
777.10 1.836959
777.20 1.350392
777.30 1.820636
777.40 2.928754
777.50 3.333346
777.60 3.436425
777.70 3.162251
777.80 2.793764
777.90 3.472973
778.00 4.268593
778.10 4.39767
778.20 4.504236
778.30 4.408206
778.40 4.231048
778.50 3.729379
778.60 3.554825
778.70 4.143543
778.80 4.382017
778.90 4.095126
779.00 3.483012
779.10 2.545674
779.20 2.340833
779.30 2.624325
779.40 2.243592
779.50 1.57819
779.60 1.833146
779.70 2.318191
779.80 3.038173
779.90 3.784259
780.00 2.807949
780.10 1.928097
780.20 1.916385
780.30 1.825045
780.40 1.415196
780.50 1.439118
780.60 2.475172
780.70 3.360271
780.80 4.018938
780.90 4.466801
781.00 4.703862
781.10 4.923847
781.20 5.132449
781.30 5.441137
781.40 5.79272
781.50 5.617296
781.60 5.310119
781.70 6.356122
781.80 7.552477
781.90 7.610621
782.00 7.653916
782.10 7.56357
782.20 7.348067
782.30 6.631935
782.40 5.890789
782.50 5.091277
782.60 4.681079
782.70 4.85485
782.80 5.168222
782.90 5.621194
783.00 5.86097
783.10 5.958616
783.20 5.586939
783.30 5.014122
783.40 4.989512
783.50 5.101954
783.60 4.970329
783.70 4.811586
783.80 4.898672
783.90 5.00667
784.00 5.302887
784.10 5.460294
784.20 5.062466
784.30 4.819474
784.40 4.937767
784.50 5.295872
784.60 6.013695
784.70 7.014889
784.80 8.299454
784.90 8.609168
785.00 8.268981
785.10 7.750187
785.20 7.154847
785.30 5.973493
785.40 4.645636
785.50 5.388329
785.60 6.361083
785.70 5.818657
785.80 5.314318
785.90 5.15277
786.00 5.041183
786.10 5.129437
786.20 5.219907
786.30 5.319234
786.40 5.37174
786.50 5.314999
786.60 5.054451
786.70 4.488192
786.80 3.975265
786.90 3.51567
787.00 4.05367
787.10 5.256731
787.20 6.495117
787.30 7.748641
787.40 7.913687
787.50 7.806613
787.60 8.204851
787.70 8.659235
787.80 7.648781
787.90 6.793024
788.00 7.329543
788.10 7.809217
788.20 8.06151
788.30 8.058579
788.40 7.460128
788.50 7.410202
788.60 8.183066
788.70 8.564408
788.80 8.554228
788.90 8.763831
789.00 9.119956
789.10 8.295792
789.20 6.96579
789.30 7.491939
789.40 8.482127
789.50 8.808753
789.60 9.061649
789.70 8.821988
789.80 8.608839
789.90 8.634298
790.00 8.706528
790.10 8.965842
790.20 8.999005
790.30 8.504478
790.40 8.290485
790.50 8.497294
790.60 9.263564
790.70 10.58929
790.80 11.45693
790.90 12.01918
791.00 11.52361
791.10 10.57469
791.20 11.41838
791.30 12.71023
791.40 12.51575
791.50 12.15612
791.60 10.99557
791.70 10.11655
791.80 11.77129
791.90 12.78014
792.00 11.20546
792.10 9.930786
792.20 9.35613
792.30 9.044462
792.40 9.127274
792.50 9.470215
792.60 10.07328
792.70 9.946411
792.80 9.332912
792.90 9.258423
793.00 9.414937
793.10 9.418658
793.20 9.38418
793.30 9.228401
793.40 9.059143
793.50 9.211691
793.60 9.320391
793.70 9.034456
793.80 8.831682
793.90 8.961549
794.00 8.982633
794.10 8.749891
794.20 8.247259
794.30 7.339792
794.40 6.334307
794.50 5.230804
794.60 4.844642
794.70 4.936706
794.80 5.25493
794.90 5.670081
795.00 5.628234
795.10 5.472138
795.20 6.407441
795.30 7.464011
795.40 7.925491
795.50 8.380111
795.60 8.772989
795.70 9.120355
795.80 9.285674
795.90 10.06558
796.00 12.27951
796.10 13.61611
796.20 13.6367
796.30 12.86995
796.40 11.31585
796.50 10.7198
796.60 10.76244
796.70 11.52305
796.80 12.59137
796.90 12.77772
797.00 12.74358
797.10 12.02064
797.20 11.22116
797.30 11.5846
797.40 11.94942
797.50 12.32669
797.60 12.56542
797.70 12.24998
797.80 11.92836
797.90 11.59235
798.00 11.85148
798.10 13.00335
798.20 13.27712
798.30 12.67279
798.40 12.06748
798.50 11.46152
798.60 12.33501
798.70 13.84255
798.80 14.9082
798.90 15.86338
799.00 14.30501
799.10 12.46735
799.20 13.9514
799.30 15.34636
799.40 15.93958
799.50 16.28512
799.60 15.64001
799.70 14.99542
799.80 14.35208
799.90 13.71766
800.00 13.09662
800.10 12.80837
800.20 12.85289
800.30 12.60806
800.40 12.17032
800.50 12.53197
800.60 13.23621
800.70 13.6974
800.80 14.09782
800.90 13.23476
801.00 12.23132
801.10 13.05037
801.20 13.81764
801.30 14.11886
801.40 14.30886
801.50 14.054
801.60 13.90235
801.70 13.99152
801.80 13.68058
801.90 12.76949
802.00 12.75592
802.10 13.63988
802.20 14.31689
802.30 14.85592
802.40 15.38315
802.50 15.90532
802.60 16.03523
802.70 16.06707
802.80 15.53097
802.90 14.93176
803.00 14.93104
803.10 14.9052
803.20 14.65339
803.30 14.47522
803.40 14.5917
803.50 14.58882
803.60 14.30748
803.70 14.16868
803.80 14.2437
803.90 14.24535
804.00 14.17364
804.10 14.33616
804.20 14.65485
804.30 15.10656
804.40 15.61528
804.50 15.52982
804.60 15.29583
804.70 14.86165
804.80 14.40523
804.90 14.90853
805.00 15.33647
805.10 15.08617
805.20 14.87945
805.30 14.84706
805.40 14.96967
805.50 15.45396
805.60 15.59949
805.70 15.23688
805.80 14.90173
805.90 14.59403
806.00 14.90627
806.10 15.6318
806.20 15.87096
806.30 15.78587
806.40 15.90366
806.50 16.1084
806.60 15.74543
806.70 15.24052
806.80 15.08765
806.90 14.97389
807.00 15.74295
807.10 16.41884
807.20 16.25612
807.30 16.16089
807.40 16.33563
807.50 16.42752
807.60 16.32609
807.70 16.20294
807.80 16.0472
807.90 16.21293
808.00 16.70014
808.10 17.06445
808.20 17.34682
808.30 17.54365
808.40 17.7038
808.50 17.96796
808.60 18.25812
808.70 17.43905
808.80 16.49674
808.90 16.1351
809.00 15.81157
809.10 15.83092
809.20 15.89005
809.30 16.10833
809.40 16.36345
809.50 16.70454
809.60 17.10429
809.70 17.59202
809.80 17.87866
809.90 17.96421
810.00 18.32656
810.10 18.87344
810.20 18.69662
810.30 18.20965
810.40 17.93734
810.50 17.7187
810.60 17.79681
810.70 17.90789
810.80 18.1061
810.90 18.25895
811.00 18.00352
811.10 17.8181
811.20 17.91265
811.30 17.97886
811.40 17.97896
811.50 18.33103
811.60 19.21108
811.70 19.51267
811.80 19.23579
811.90 19.50115
812.00 20.128
812.10 20.41391
812.20 20.5537
812.30 19.91402
812.40 19.07949
812.50 18.98809
812.60 18.97927
812.70 19.26386
812.80 19.46723
812.90 18.93966
813.00 18.59402
813.10 18.97604
813.20 19.18953
813.30 19.00981
813.40 19.20391
813.50 19.95876
813.60 20.13574
813.70 19.73487
813.80 19.92327
813.90 20.50452
814.00 20.44418
814.10 20.10888
814.20 20.6049
814.30 21.30876
814.40 21.81884
814.50 22.3074
814.60 21.14601
814.70 20.14726
814.80 20.61222
814.90 20.92519
815.00 20.6302
815.10 20.58987
815.20 21.14372
815.30 21.39964
815.40 21.20868
815.50 21.52498
815.60 22.34856
815.70 22.70023
815.80 22.73729
815.90 22.46545
816.00 22.06123
816.10 21.65939
816.20 21.25815
816.30 21.27419
816.40 21.33661
816.50 21.42318
816.60 21.53369
816.70 21.8597
816.80 22.17577
816.90 22.4521
817.00 22.66065
817.10 22.71108
817.20 22.74484
817.30 22.75357
817.40 22.91072
817.50 23.2163
817.60 23.19308
817.70 22.95066
817.80 22.62905
817.90 22.2735
818.00 22.04999
818.10 21.85949
818.20 21.78728
818.30 21.72821
818.40 20.69249
818.50 19.81555
818.60 20.36764
818.70 20.91842
818.80 21.46401
818.90 21.87097
819.00 21.95447
819.10 22.15656
819.20 22.53653
819.30 22.25037
819.40 21.29806
819.50 20.89261
819.60 20.85174
819.70 21.28452
819.80 21.92029
819.90 22.64025
820.00 23.38126
820.10 24.00114
820.20 24.60756
820.30 25.41832
820.40 26.12452
820.50 25.88972
820.60 25.612
820.70 25.16265
820.80 24.74658
820.90 24.40822
821.00 24.43391
821.10 25.00569
821.20 25.22066
821.30 25.07883
821.40 24.73253
821.50 24.24992
821.60 25.03098
821.70 26.3536
821.80 26.7015
821.90 26.80571
822.00 26.10509
822.10 25.31505
822.20 25.03166
822.30 24.80113
822.40 25.04625
822.50 25.21618
822.60 25.08541
822.70 24.88285
822.80 24.51281
822.90 24.18424
823.00 23.91785
823.10 24.12331
823.20 24.8006
823.30 25.74622
823.40 26.87073
823.50 27.00504
823.60 26.71497
823.70 26.40774
823.80 26.09621
823.90 26.40069
824.00 26.7736
824.10 27.74533
824.20 28.60097
824.30 28.41186
824.40 28.23635
824.50 28.11524
824.60 28.11165
824.70 28.38231
824.80 28.45119
824.90 28.2174
825.00 28.28349
825.10 28.64944
825.20 29.08366
825.30 29.56339
825.40 29.53944
825.50 29.29962
825.60 29.53721
825.70 29.89415
825.80 30.17569
825.90 30.44886
826.00 29.79255
826.10 29.13624
826.20 28.57849
826.30 28.08854
826.40 28.20882
826.50 28.43411
826.60 29.07945
826.70 29.42712
826.80 29.08021
826.90 28.85103
827.00 28.79846
827.10 29.17435
827.20 29.9787
827.30 30.06805
827.40 29.68074
827.50 29.93143
827.60 30.45556
827.70 30.03483
827.80 29.37788
827.90 29.1562
828.00 28.98288
828.10 29.89999
828.20 30.81535
828.30 31.7149
828.40 32.60398
828.50 33.45115
828.60 33.73858
828.70 32.71995
828.80 32.1661
828.90 32.30941
829.00 32.73695
829.10 33.44869
829.20 34.09959
829.30 34.70991
829.40 33.56621
829.50 31.67078
829.60 32.14628
829.70 33.2145
829.80 32.5557
829.90 31.705
830.00 32.19653
830.10 32.56347
830.20 31.80918
830.30 31.10942
830.40 30.62774
830.50 30.54385
830.60 31.38813
830.70 32.17432
830.80 32.87334
830.90 33.49787
831.00 34.04792
831.10 34.32428
831.20 34.41818
831.30 34.22705
831.40 33.91376
831.50 33.94829
831.60 34.06978
831.70 34.05083
831.80 34.01628
831.90 33.91959
832.00 33.85832
832.10 34.11578
832.20 34.25925
832.30 33.9467
832.40 33.85027
832.50 34.25812
832.60 34.48354
832.70 34.43533
832.80 34.48906
832.90 34.64473
833.00 34.27683
833.10 33.55988
833.20 33.4091
833.30 33.50096
833.40 33.53887
833.50 33.5633
833.60 32.83932
833.70 32.03218
833.80 35.52962
833.90 39.09255
834.00 43.2449
834.10 46.5153
834.20 46.25792
834.30 46.01849
834.40 45.82094
834.50 44.4228
834.60 41.22378
834.70 39.52959
834.80 39.3402
834.90 38.95677
835.00 38.44397
835.10 38.17557
835.20 38.01192
835.30 37.95169
835.40 37.91733
835.50 37.43248
835.60 36.89758
835.70 36.87983
835.80 36.85137
835.90 36.72635
836.00 36.65535
836.10 36.80043
836.20 36.77066
836.30 36.33291
836.40 36.12343
836.50 36.25634
836.60 36.60265
836.70 37.16235
836.80 37.44369
836.90 37.53945
837.00 37.15474
837.10 36.5641
837.20 36.11569
837.30 35.70284
837.40 36.01632
837.50 36.41051
837.60 37.98243
837.70 39.40214
837.80 39.45202
837.90 39.35258
838.00 38.65588
838.10 38.41139
838.20 39.22206
838.30 39.64229
838.40 39.47687
838.50 39.25558
838.60 38.97842
838.70 38.98921
838.80 39.19197
838.90 39.37295
839.00 39.5446
839.10 39.58881
839.20 39.60116
839.30 38.9329
839.40 38.18901
839.50 37.66656
839.60 37.36354
839.70 39.03549
839.80 40.64104
839.90 41.98094
840.00 42.86978
840.10 42.70612
840.20 42.47979
840.30 42.15944
840.40 41.93657
840.50 41.81118
840.60 41.58766
840.70 41.2987
840.80 41.47637
840.90 41.85403
841.00 42.71816
841.10 43.70391
841.20 44.38997
841.30 45.04274
841.40 43.2375
841.50 41.65703
841.60 42.09942
841.70 42.56871
841.80 43.1456
841.90 43.35191
842.00 42.69357
842.10 42.51721
842.20 43.06382
842.30 43.06725
842.40 42.52752
842.50 42.69192
842.60 43.32574
842.70 43.9608
842.80 44.59638
842.90 45.48877
843.00 46.44535
843.10 46.83851
843.20 47.16908
843.30 45.22313
843.40 43.5293
843.50 44.1046
843.60 44.56921
843.70 44.59104
843.80 44.49107
843.90 44.10692
844.00 43.90484
844.10 43.9759
844.20 44.17889
844.30 44.51382
844.40 44.22776
844.50 43.52772
844.60 44.91296
844.70 47.19189
844.80 47.67108
844.90 47.70034
845.00 47.37065
845.10 47.00108
845.20 46.49422
845.30 45.98411
845.40 45.44466
845.50 45.01452
845.60 45.02168
845.70 45.00612
845.80 44.93757
845.90 44.55133
846.00 43.68856
846.10 41.98193
846.20 39.43144
846.30 38.52516
846.40 39.2631
846.50 40.8557
846.60 43.01806
846.70 44.67161
846.80 46.10708
846.90 47.87701
847.00 49.73055
847.10 49.39068
847.20 48.80711
847.30 49.611
847.40 50.30098
847.50 49.96577
847.60 49.49369
847.70 48.47413
847.80 47.67944
847.90 47.40944
848.00 47.70222
848.10 48.83917
848.20 49.22342
848.30 48.85496
848.40 48.10549
848.50 47.102
848.60 46.75135
848.70 46.68048
848.80 46.82829
848.90 47.03077
849.00 48.96062
849.10 51.08239
849.20 50.21795
849.30 49.33585
849.40 48.29484
849.50 47.63178
849.60 48.48052
849.70 49.08412
849.80 49.1157
849.90 49.26502
850.00 49.59094
850.10 48.9749
850.20 47.41691
850.30 47.34242
850.40 48.25693
850.50 48.53466
850.60 48.53949
850.70 48.73952
850.80 48.98835
850.90 48.02032
851.00 46.91707
851.10 46.40223
851.20 45.84551
851.30 44.91187
851.40 43.75225
851.50 41.68871
851.60 39.14267
851.70 35.4708
851.80 31.69234
851.90 27.75399
852.00 24.57504
852.10 22.15549
852.20 21.52666
852.30 22.09166
852.40 25.19238
852.50 29.37983
852.60 33.96593
852.70 38.65169
852.80 41.43972
852.90 44.0169
853.00 45.95867
853.10 47.85518
853.20 49.34435
853.30 50.72261
853.40 51.65727
853.50 52.45286
853.60 52.92396
853.70 53.61425
853.80 54.63334
853.90 55.1316
854.00 55.10903
854.10 54.97344
854.20 54.76251
854.30 55.36533
854.40 56.3169
854.50 56.99361
854.60 57.60161
854.70 57.03346
854.80 56.33462
854.90 55.39689
855.00 54.57968
855.10 54.84718
855.20 55.06096
855.30 55.05984
855.40 54.9383
855.50 54.53575
855.60 54.54679
855.70 55.17819
855.80 55.37519
855.90 55.13779
856.00 55.09098
856.10 55.17123
856.20 55.09914
856.30 54.96177
856.40 54.70276
856.50 54.41334
856.60 55.16165
856.70 56.02526
856.80 56.8793
856.90 57.64976
857.00 57.66796
857.10 57.53331
857.20 56.78719
857.30 55.94219
857.40 54.86644
857.50 54.78752
857.60 56.20387
857.70 57.24576
857.80 57.91321
857.90 58.63421
858.00 59.39091
858.10 59.8945
858.20 60.28962
858.30 59.56756
858.40 58.56621
858.50 58.58645
858.60 58.7202
858.70 58.02192
858.80 57.47845
858.90 58.32831
859.00 58.92089
859.10 58.48435
859.20 58.1987
859.30 58.26511
859.40 58.16106
859.50 57.80133
859.60 57.61562
859.70 57.60391
859.80 57.64443
859.90 57.71975
860.00 57.50556
860.10 57.16729
860.20 57.242
860.30 57.41996
860.40 58.30061
860.50 59.25932
860.60 58.55538
860.70 57.93225
860.80 58.03646
860.90 57.54335
861.00 54.66097
861.10 51.76266
861.20 48.82715
861.30 46.75395
861.40 45.97421
861.50 45.21495
861.60 44.47618
861.70 44.34206
861.80 44.61104
861.90 45.40997
862.00 46.43603
862.10 46.9051
862.20 47.23492
862.30 47.99006
862.40 48.79246
862.50 48.3041
862.60 47.86425
862.70 47.86109
862.80 48.07867
862.90 49.17922
863.00 49.35147
863.10 47.35768
863.20 45.9022
863.30 45.25417
863.40 44.65258
863.50 44.09742
863.60 44.71692
863.70 46.11952
863.80 47.03267
863.90 47.73606
864.00 47.2106
864.10 46.37792
864.20 47.27879
864.30 48.37228
864.40 48.90087
864.50 49.37176
864.60 49.32347
864.70 49.22538
864.80 48.92816
864.90 49.29406
865.00 51.20723
865.10 52.46606
865.20 52.74341
865.30 52.71777
865.40 52.38916
865.50 52.62714
865.60 53.24285
865.70 52.83135
865.80 51.97963
865.90 53.28426
866.00 55.12798
866.10 55.89224
866.20 56.38665
866.30 55.71435
866.40 54.91241
866.50 55.36363
866.60 55.8006
866.70 56.10933
866.80 56.26833
866.90 55.82835
867.00 55.26875
867.10 54.43003
867.20 54.01913
867.30 54.24994
867.40 54.62434
867.50 55.14234
867.60 56.30172
867.70 57.88869
867.80 57.97403
867.90 57.41581
868.00 56.81375
868.10 56.20074
868.20 55.79545
868.30 55.41325
868.40 55.61127
868.50 55.90649
868.60 57.07652
868.70 58.15013
868.80 58.8381
868.90 59.29193
869.00 59.19942
869.10 58.46458
869.20 56.76625
869.30 55.27838
869.40 54.00099
869.50 52.85027
869.60 51.78399
869.70 51.31112
869.80 51.09257
869.90 51.67369
870.00 52.45473
870.10 53.11707
870.20 53.76621
870.30 53.26883
870.40 52.72214
870.50 51.73156
870.60 50.93958
870.70 50.94199
870.80 51.12595
870.90 51.73348
871.00 52.08916
871.10 52.06705
871.20 52.33116
871.30 52.88148
871.40 53.76785
871.50 54.87824
871.60 54.56444
871.70 53.64028
871.80 53.17397
871.90 52.82214
872.00 52.27938
872.10 51.71541
872.20 51.74132
872.30 51.95692
872.40 53.87965
872.50 55.35319
872.60 55.02996
872.70 54.76578
872.80 54.63937
872.90 54.81965
873.00 55.45998
873.10 55.46183
873.20 54.82523
873.30 54.85736
873.40 55.33533
873.50 55.9878
873.60 56.71506
873.70 57.3854
873.80 58.04151
873.90 58.03624
874.00 57.95747
874.10 57.76233
874.20 57.65738
874.30 58.36411
874.40 59.04352
874.50 59.61362
874.60 60.2017
874.70 60.83171
874.80 61.24954
874.90 61.34911
875.00 60.56752
875.10 58.90476
875.20 59.36549
875.30 61.24187
875.40 61.38445
875.50 60.78398
875.60 58.45249
875.70 55.68826
875.80 56.14745
875.90 56.96481
876.00 57.92919
876.10 58.8486
876.20 59.36326
876.30 59.94365
876.40 60.78702
876.50 60.39153
876.60 57.10539
876.70 53.8424
876.80 50.61413
876.90 51.02365
877.00 55.07094
877.10 59.56106
877.20 64.34639
877.30 64.4849
877.40 62.63192
877.50 60.40214
877.60 58.07816
877.70 57.52845
877.80 57.17587
877.90 59.00572
878.00 60.68416
878.10 60.99986
878.20 61.20541
878.30 60.97033
878.40 60.72683
878.50 60.4637
878.60 60.00221
878.70 59.24318
878.80 58.2827
878.90 57.12075
879.00 58.29373
879.10 61.02332
879.20 62.82356
879.30 64.22551
879.40 63.98644
879.50 63.3371
879.60 63.35969
879.70 63.45694
879.80 64.05379
879.90 64.55122
880.00 64.15378
880.10 63.3983
880.20 61.21067
880.30 59.73899
880.40 59.93785
880.50 59.91502
880.60 59.55966
880.70 59.8644
880.80 60.82925
880.90 61.59771
881.00 62.23525
881.10 63.31477
881.20 64.58371
881.30 65.73859
881.40 66.86496
881.50 68.0338
881.60 69.20735
881.70 70.60289
881.80 71.67678
881.90 69.85585
882.00 68.65853
882.10 69.95571
882.20 70.06788
882.30 67.415
882.40 66.21394
882.50 67.19059
882.60 68.03339
882.70 68.74235
882.80 68.73548
882.90 68.25138
883.00 67.65201
883.10 67.00323
883.20 67.48204
883.30 68.24273
883.40 67.93252
883.50 67.50332
883.60 68.29401
883.70 69.07096
883.80 69.7241
883.90 70.46532
884.00 71.55891
884.10 72.18406
884.20 71.71622
884.30 70.33963
884.40 67.59991
884.50 65.57873
884.60 64.27607
884.70 63.91561
884.80 64.1833
884.90 64.78855
885.00 65.53847
885.10 67.9951
885.20 70.87841
885.30 71.87127
885.40 72.65407
885.50 71.42246
885.60 70.12632
885.70 68.24928
885.80 67.09698
885.90 68.84364
886.00 70.49243
886.10 71.74976
886.20 73.08115
886.30 74.58536
886.40 75.68948
886.50 76.19345
886.60 76.47084
886.70 76.52165
886.80 75.42043
886.90 73.5512
887.00 71.43094
887.10 69.20309
887.20 68.61671
887.30 68.4407
887.40 70.62929
887.50 73.08061
887.60 75.87336
887.70 78.58967
887.80 80.618
887.90 82.48609
888.00 83.71314
888.10 83.83598
888.20 81.38234
888.30 78.51367
888.40 75.02245
888.50 73.56408
888.60 74.13855
888.70 76.19981
888.80 79.25225
888.90 80.43267
889.00 80.81079
889.10 79.68052
889.20 78.17315
889.30 75.56703
889.40 72.83884
889.50 70.77799
889.60 68.92174
889.70 68.90688
889.80 69.40342
889.90 71.94558
890.00 74.61346
890.10 77.5747
890.20 79.05285
890.30 78.30636
890.40 77.45849
890.50 76.50925
890.60 75.09779
890.70 73.37819
890.80 72.50439
890.90 71.99308
891.00 72.65155
891.10 73.60247
891.20 75.24052
891.30 76.95492
891.40 75.95236
891.50 75.1669
891.60 76.33535
891.70 77.36846
891.80 77.86027
891.90 78.56607
892.00 79.77121
892.10 79.79322
892.20 78.04055
892.30 75.78103
892.40 73.01466
892.50 71.44562
892.60 70.6748
892.70 71.47218
892.80 72.94166
892.90 73.88609
893.00 74.69926
893.10 74.95145
893.20 75.1413
893.30 75.89558
893.40 76.47088
893.50 75.43525
893.60 73.62615
893.70 68.72314
893.80 63.77368
893.90 58.71584
894.00 54.37181
894.10 51.09849
894.20 48.44042
894.30 46.39759
894.40 45.64494
894.50 45.7524
894.60 48.22732
894.70 51.71686
894.80 56.07526
894.90 60.65086
895.00 63.91456
895.10 67.03248
895.20 70.85529
895.30 74.22684
895.40 73.5372
895.50 73.43663
895.60 75.69234
895.70 78.16149
895.80 81.12867
895.90 82.39907
896.00 81.12427
896.10 80.90753
896.20 81.74885
896.30 80.59675
896.40 78.11571
896.50 75.80944
896.60 73.57806
896.70 73.15162
896.80 73.17642
896.90 74.06875
897.00 75.05747
897.10 76.10898
897.20 77.29973
897.30 79.74371
897.40 81.64194
897.50 81.35717
897.60 81.08212
897.70 80.82976
897.80 80.63005
897.90 80.50931
898.00 80.45102
898.10 80.4552
898.20 80.29682
898.30 80.03007
898.40 79.8362
898.50 79.67356
898.60 80.68138
898.70 81.98181
898.80 82.09078
898.90 82.06738
899.00 82.83755
899.10 83.46353
899.20 82.79181
899.30 81.9463
899.40 80.40559
899.50 79.15168
899.60 78.56699
899.70 78.17587
899.80 78.0751
899.90 77.90972
900.00 77.67975
900.10 77.80426
900.20 78.16511
900.30 80.56384
900.40 83.83595
900.50 84.90759
900.60 85.42912
900.70 84.54745
900.80 83.50988
900.90 82.83222
901.00 82.05594
901.10 80.39216
901.20 79.07045
901.30 79.11698
901.40 79.62709
901.50 81.21889
901.60 82.54051
901.70 83.45688
901.80 84.22821
901.90 84.85451
902.00 84.81853
902.10 84.34102
902.20 83.70014
902.30 82.98922
902.40 81.76746
902.50 80.41799
902.60 81.22731
902.70 82.2765
902.80 81.79147
902.90 81.4028
903.00 81.88133
903.10 82.72785
903.20 85.04635
903.30 86.86713
903.40 87.52659
903.50 88.35739
903.60 89.44522
903.70 90.25704
903.80 90.79287
903.90 90.2912
904.00 89.09787
904.10 88.0358
904.20 87.02999
904.30 86.85684
904.40 86.89186
904.50 87.476
904.60 88.12115
904.70 86.87877
904.80 85.88216
904.90 87.09751
905.00 88.38018
905.10 89.93214
905.20 91.05812
905.30 91.1902
905.40 90.49865
905.50 88.57164
905.60 87.40984
905.70 87.01323
905.80 86.47029
905.90 85.82978
906.00 84.94684
906.10 83.95999
906.20 84.5851
906.30 85.90104
906.40 85.59297
906.50 84.8789
906.60 84.73184
906.70 84.64778
906.80 86.02818
906.90 87.12569
907.00 85.67711
907.10 84.60751
907.20 85.0538
907.30 85.5427
907.40 86.13101
907.50 86.68495
907.60 87.18735
907.70 87.2813
907.80 86.9668
907.90 86.6941
908.00 86.44927
908.10 86.66345
908.20 87.07436
908.30 87.95554
908.40 88.95429
908.50 88.3132
908.60 87.4899
908.70 88.59667
908.80 89.65067
908.90 90.22969
909.00 90.6351
909.10 90.34605
909.20 90.16002
909.30 90.21435
909.40 90.81728
909.50 92.2431
909.60 92.9209
909.70 92.85068
909.80 92.46136
909.90 91.85931
910.00 91.18632
910.10 90.48293
910.20 89.85102
910.30 89.23699
910.40 89.13972
910.50 89.09987
910.60 90.04708
910.70 90.89295
910.80 90.82692
910.90 91.12178
911.00 92.86023
911.10 94.38739
911.20 95.42153
911.30 95.54856
911.40 94.31491
911.50 93.53081
911.60 93.19625
911.70 93.29782
911.80 93.69015
911.90 94.4036
912.00 95.25467
912.10 95.84159
912.20 96.36246
912.30 95.2929
912.40 94.04662
912.50 93.36116
912.60 92.67949
912.70 92.03192
912.80 91.52453
912.90 91.57784
913.00 91.85895
913.10 92.67156
913.20 93.05421
913.30 92.79192
913.40 92.50603
913.50 92.19655
913.60 91.40273
913.70 90.28602
913.80 91.11858
913.90 92.78654
914.00 93.36504
914.10 93.67118
914.20 93.8337
914.30 93.98027
914.40 94.19111
914.50 94.44341
914.60 95.06887
914.70 95.46174
914.80 94.92424
914.90 94.05908
915.00 92.42938
915.10 91.37767
915.20 91.19293
915.30 91.9547
915.40 93.66297
915.50 95.59967
915.60 97.68866
915.70 98.19976
915.80 98.03461
915.90 98.23639
916.00 98.52989
916.10 98.46495
916.20 98.36018
916.30 97.43146
916.40 96.62385
916.50 96.90621
916.60 97.25136
916.70 97.84765
916.80 97.96716
916.90 96.97417
917.00 95.93307
917.10 94.81979
917.20 93.38422
917.30 91.62635
917.40 90.52268
917.50 89.85515
917.60 90.76297
917.70 92.34594
917.80 94.1438
917.90 95.99539
918.00 97.57078
918.10 99.11549
918.20 100.3491
918.30 101.4866
918.40 101.758
918.50 101.7686
918.60 100.7365
918.70 100.217
918.80 100.8938
918.90 101.2834
919.00 101.242
919.10 100.9598
919.20 100.4367
919.30 100.2269
919.40 100.226
919.50 99.66219
919.60 98.85719
919.70 99.09491
919.80 99.59331
919.90 101.6698
920.00 103.9216
920.10 104.7519
920.20 105.4567
920.30 105.0327
920.40 104.4171
920.50 103.0353
920.60 101.5891
920.70 99.99271
920.80 98.89708
920.90 98.55268
921.00 98.06584
921.10 97.43657
921.20 97.07079
921.30 96.88066
921.40 97.65883
921.50 98.85198
921.60 100.9825
921.70 103.3473
921.80 103.6198
921.90 103.6597
922.00 104.102
922.10 104.4307
922.20 103.7366
922.30 103.339
922.40 104.1277
922.50 104.8129
922.60 105.2566
922.70 105.2991
922.80 104.7395
922.90 104.2358
923.00 103.788
923.10 103.6117
923.20 103.6165
923.30 103.1427
923.40 102.4638
923.50 101.6967
923.60 100.9074
923.70 100.7799
923.80 100.7258
923.90 102.2856
924.00 103.8526
924.10 105.4854
924.20 106.7733
924.30 106.6816
924.40 106.3174
924.50 105.3175
924.60 104.1116
924.70 102.5969
924.80 101.6154
924.90 101.1672
925.00 100.8077
925.10 100.5074
925.20 100.4301
925.30 100.4484
925.40 100.3299
925.50 100.1773
925.60 100.8644
925.70 101.6449
925.80 101.4888
925.90 101.2498
926.00 100.2653
926.10 99.39182
926.20 99.51684
926.30 99.5312
926.40 99.10292
926.50 98.59529
926.60 97.90249
926.70 97.48484
926.80 97.47992
926.90 97.41759
927.00 97.29787
927.10 95.51626
927.20 92.62673
927.30 90.04629
927.40 87.59831
927.50 85.49972
927.60 83.48847
927.70 81.3535
927.80 79.20479
927.90 78.15969
928.00 77.36037
928.10 78.77299
928.20 80.01749
928.30 80.58945
928.40 81.44226
928.50 82.95037
928.60 83.66119
928.70 83.17607
928.80 82.61637
928.90 81.98208
929.00 82.5964
929.10 84.04312
929.20 84.75365
929.30 85.14867
929.40 84.37094
929.50 83.30002
929.60 82.90529
929.70 82.58568
929.80 84.28987
929.90 85.76169
930.00 85.14226
930.10 84.69701
930.20 84.94844
930.30 85.29073
930.40 85.84505
930.50 86.05816
930.60 85.75945
930.70 87.60184
930.80 91.58533
930.90 91.95938
931.00 89.92714
931.10 90.13473
931.20 91.30224
931.30 89.60434
931.40 87.19008
931.50 85.57321
931.60 84.04495
931.70 84.33028
931.80 84.9422
931.90 88.49342
932.00 90.99825
932.10 89.31757
932.20 87.25439
932.30 84.29873
932.40 83.05286
932.50 84.37168
932.60 84.76721
932.70 84.23946
932.80 83.12154
932.90 81.61018
933.00 80.64034
933.10 79.90259
933.20 78.14262
933.30 76.1271
933.40 73.55318
933.50 70.91721
933.60 73.30667
933.70 75.59115
933.80 76.93077
933.90 77.74805
934.00 76.47595
934.10 74.83066
934.20 72.31461
934.30 70.85743
934.40 70.98858
934.50 73.39155
934.60 78.06636
934.70 83.77743
934.80 90.17936
934.90 92.13706
935.00 92.19009
935.10 88.53784
935.20 83.95926
935.30 78.86801
935.40 73.7198
935.50 72.76767
935.60 72.20647
935.70 75.16362
935.80 78.37272
935.90 82.58962
936.00 86.27556
936.10 88.72261
936.20 90.20473
936.30 90.23947
936.40 89.4811
936.50 87.92961
936.60 86.03049
936.70 83.89961
936.80 81.82666
936.90 79.77854
937.00 79.13604
937.10 78.84495
937.20 80.06823
937.30 81.45978
937.40 86.84698
937.50 91.65624
937.60 91.2641
937.70 90.46954
937.80 88.06531
937.90 86.48442
938.00 86.82464
938.10 87.50856
938.20 88.70803
938.30 89.80426
938.40 90.79725
938.50 91.98284
938.60 93.29683
938.70 95.73041
938.80 98.64381
938.90 100.2277
939.00 101.4792
939.10 102.8833
939.20 104.3044
939.30 105.8689
939.40 107.2029
939.50 106.4627
939.60 105.6966
939.70 104.8267
939.80 104.9481
939.90 107.3826
940.00 108.5252
940.10 107.7301
940.20 107.6669
940.30 108.3357
940.40 108.9686
940.50 109.5774
940.60 110.3373
940.70 111.1619
940.80 109.7657
940.90 107.8142
941.00 107.4029
941.10 107.1627
941.20 108.7509
941.30 110.1386
941.40 109.7226
941.50 108.8965
941.60 106.4296
941.70 105.3169
941.80 107.3636
941.90 109.279
942.00 110.9975
942.10 109.7114
942.20 105.4208
942.30 100.1646
942.40 94.26483
942.50 91.20677
942.60 89.36661
942.70 88.29543
942.80 87.4165
942.90 90.91884
943.00 94.90799
943.10 100.8905
943.20 106.3789
943.30 107.4214
943.40 106.9071
943.50 100.1653
943.60 94.53236
943.70 91.4867
943.80 89.05241
943.90 87.5352
944.00 86.57272
944.10 86.16497
944.20 88.62747
944.30 93.00347
944.40 95.30954
944.50 96.72848
944.60 98.18302
944.70 99.64645
944.80 101.5734
944.90 103.5519
945.00 104.8394
945.10 105.9284
945.20 105.2313
945.30 103.8872
945.40 99.95522
945.50 96.76269
945.60 95.29545
945.70 94.04595
945.80 93.12309
945.90 93.64144
946.00 95.60101
946.10 98.2599
946.20 101.6181
946.30 104.8879
946.40 108.0987
946.50 109.7921
946.60 110.8353
946.70 110.1916
946.80 109.1261
946.90 107.0118
947.00 104.7808
947.10 101.995
947.20 99.15094
947.30 95.78363
947.40 92.18034
947.50 87.63316
947.60 84.87495
947.70 86.29102
947.80 87.5918
947.90 88.71966
948.00 91.27983
948.10 95.27233
948.20 99.44561
948.30 103.7394
948.40 107.827
948.50 111.8263
948.60 112.6446
948.70 112.6676
948.80 111.2364
948.90 109.6436
949.00 110.1428
949.10 110.3425
949.20 107.846
949.30 105.0906
949.40 101.2992
949.50 99.03975
949.60 100.3549
949.70 101.6018
949.80 102.7461
949.90 102.3603
950.00 100.4444
950.10 99.7541
950.20 99.88079
950.30 103.4804
950.40 108.5683
950.50 109.5258
950.60 109.4506
950.70 111.022
950.80 112.7764
950.90 115.1266
951.00 116.8722
951.10 113.1751
951.20 108.7107
951.30 101.1767
951.40 93.92339
951.50 87.32483
951.60 82.34761
951.70 79.80239
951.80 78.83331
951.90 79.44038
952.00 82.44529
952.10 87.04876
952.20 93.11888
952.30 99.81756
952.40 104.415
952.50 108.4872
952.60 109.5563
952.70 110.2916
952.80 109.6312
952.90 109.3119
953.00 112.0617
953.10 114.4725
953.20 115.5274
953.30 115.773
953.40 114.1304
953.50 113.4982
953.60 114.3816
953.70 115.077
953.80 115.5845
953.90 114.5044
954.00 112.3659
954.10 110.6802
954.20 109.1886
954.30 109.1793
954.40 109.5406
954.50 110.583
954.60 111.7011
954.70 113.486
954.80 114.9556
954.90 113.5876
955.00 111.2917
955.10 105.2847
955.20 100.6143
955.30 99.06277
955.40 99.92952
955.50 104.4238
955.60 108.5459
955.70 112.2959
955.80 114.0369
955.90 114.4387
956.00 113.5083
956.10 112.007
956.20 109.2019
956.30 106.0709
956.40 101.9557
956.50 97.73123
956.60 98.54431
956.70 99.76504
956.80 104.6546
956.90 109.7564
957.00 115.7071
957.10 120.5266
957.20 122.7069
957.30 124.1513
957.40 124.4917
957.50 123.9563
957.60 122.5452
957.70 120.8889
957.80 119.0692
957.90 115.9368
958.00 112.2419
958.10 112.1013
958.20 112.8493
958.30 115.0253
958.40 117.3601
958.50 114.9044
958.60 112.4447
958.70 109.9484
958.80 107.3827
958.90 104.5396
959.00 102.8191
959.10 103.7184
959.20 104.9861
959.30 106.8065
959.40 108.7372
959.50 110.7784
959.60 113.2257
959.70 115.9438
959.80 116.2917
959.90 115.6239
960.00 116.2555
960.10 117.2119
960.20 116.329
960.30 115.2417
960.40 112.5485
960.50 110.1619
960.60 110.5348
960.70 110.7977
960.80 110.6214
960.90 110.6689
961.00 111.2388
961.10 112.49
961.20 114.7632
961.30 114.2433
961.40 110.9303
961.50 109.3164
961.60 108.8353
961.70 108.9737
961.80 109.3775
961.90 112.1759
962.00 115.573
962.10 119.2312
962.20 122.9185
962.30 122.229
962.40 122.2387
962.50 128.5404
962.60 133.7119
962.70 134.3622
962.80 134.6981
962.90 134.3003
963.00 133.9165
963.10 133.5537
963.20 130.844
963.30 125.7875
963.40 121.4806
963.50 117.6735
963.60 114.5265
963.70 111.6624
963.80 110.8462
963.90 110.5419
964.00 111.4268
964.10 112.4439
964.20 114.02
964.30 115.2785
964.40 113.6792
964.50 113.416
964.60 118.497
964.70 122.2281
964.80 122.8092
964.90 124.1425
965.00 126.6041
965.10 127.9752
965.20 128.2559
965.30 127.7893
965.40 126.8246
965.50 128.5389
965.60 131.4014
965.70 132.9868
965.80 134.253
965.90 132.5873
966.00 130.5958
966.10 127.7072
966.20 124.8186
966.30 125.8553
966.40 126.6047
966.50 124.7679
966.60 123.4908
966.70 124.4524
966.80 126.6235
966.90 131.6169
967.00 135.5365
967.10 137.8454
967.20 140.2215
967.30 142.6647
967.40 144.85
967.50 146.8633
967.60 148.4939
967.70 149.9605
967.80 146.3315
967.90 141.4286
968.00 140.2503
968.10 139.4859
968.20 142.9715
968.30 146.5276
968.40 150.7171
968.50 153.0298
968.60 147.8357
968.70 142.9845
968.80 138.9332
968.90 135.5844
969.00 133.2894
969.10 130.5248
969.20 127.2906
969.30 132.9981
969.40 144.6668
969.50 145.8752
969.60 142.6007
969.70 139.1873
969.80 135.7392
969.90 135.847
970.00 136.35
970.10 137.7673
970.20 138.9023
970.30 137.4958
970.40 136.0691
970.50 134.5613
970.60 133.4047
970.70 133.0673
970.80 131.7051
970.90 128.8054
971.00 126.7408
971.10 125.5113
971.20 126.9728
971.30 130.2284
971.40 129.1355
971.50 126.1791
971.60 128.014
971.70 131.0466
971.80 132.8438
971.90 134.5037
972.00 135.7449
972.10 136.662
972.20 134.6615
972.30 132.671
972.40 130.7212
972.50 129.9551
972.60 131.951
972.70 133.4179
972.80 134.0913
972.90 135.9377
973.00 138.9572
973.10 140.1485
973.20 140.1211
973.30 139.9763
973.40 139.7812
973.50 137.0522
973.60 133.6898
973.70 132.799
973.80 132.1829
973.90 136.0573
974.00 139.6783
974.10 141.018
974.20 141.8584
974.30 140.7018
974.40 139.8274
974.50 139.6115
974.60 139.5325
974.70 139.6587
974.80 138.911
974.90 137.2894
975.00 135.5469
975.10 133.7239
975.20 133.5247
975.30 134.0214
975.40 134.8412
975.50 135.7418
975.60 135.7193
975.70 135.5943
975.80 140.334
975.90 144.6244
976.00 144.8712
976.10 144.6534
976.20 142.5771
976.30 141.5986
976.40 143.1816
976.50 144.5328
976.60 145.5363
976.70 146.2829
976.80 146.7725
976.90 147.6829
977.00 148.8737
977.10 148.7335
977.20 148.0227
977.30 148.4723
977.40 149.2119
977.50 147.8111
977.60 146.1725
977.70 145.9851
977.80 145.942
977.90 147.1982
978.00 148.5314
978.10 150.1723
978.20 150.3852
978.30 147.2658
978.40 143.897
978.50 140.1539
978.60 137.6046
978.70 136.2492
978.80 139.1412
978.90 144.8648
979.00 147.6594
979.10 149.1986
979.20 149.7779
979.30 150.1172
979.40 149.9702
979.50 149.7692
979.60 153.6202
979.70 157.1798
979.80 158.1174
979.90 158.5175
980.00 156.7676
980.10 154.6161
980.20 151.5278
980.30 151.0084
980.40 154.3422
980.50 156.9017
980.60 158.6868
980.70 156.9254
980.80 152.7997
980.90 151.8648
981.00 152.2974
981.10 150.3406
981.20 147.7864
981.30 148.6876
981.40 149.9727
981.50 148.9865
981.60 147.3617
981.70 139.99
981.80 134.429
981.90 136.1108
982.00 138.4354
982.10 142.2598
982.20 144.8097
982.30 145.448
982.40 145.61
982.50 145.2957
982.60 146.3769
982.70 148.3885
982.80 147.9364
982.90 146.4282
983.00 146.8214
983.10 147.6898
983.20 152.3316
983.30 157.3926
983.40 157.4704
983.50 157.2647
983.60 154.5077
983.70 151.2666
983.80 146.0896
983.90 143.337
984.00 146.2413
984.10 149.8891
984.20 154.6524
984.30 155.606
984.40 152.75
984.50 149.1766
984.60 145.125
984.70 142.8244
984.80 141.2743
984.90 143.9137
985.00 147.6005
985.10 154.6964
985.20 162.1711
985.30 163.0372
985.40 163.7071
985.50 162.6109
985.60 162.1117
985.70 164.0002
985.80 165.5549
985.90 166.3308
986.00 166.4474
986.10 165.5752
986.20 166.2459
986.30 169.2309
986.40 173.9978
986.50 180.5466
986.60 186.4296
986.70 191.8687
986.80 189.0643
986.90 182.727
987.00 181.4663
987.10 181.4746
987.20 176.7792
987.30 171.5611
987.40 168.2294
987.50 165.0282
987.60 163.0019
987.70 161.5063
987.80 162.1337
987.90 163.1662
988.00 165.1444
988.10 166.2069
988.20 165.896
988.30 165.3804
988.40 164.6602
988.50 167.3947
988.60 172.4324
988.70 174.3162
988.80 174.8483
988.90 176.4542
989.00 178.3286
989.10 182.8294
989.20 187.6221
989.30 180.4119
989.40 173.3829
989.50 167.9848
989.60 164.6966
989.70 169.8477
989.80 172.482
989.90 169.2438
990.00 164.5734
990.10 157.7547
990.20 154.0471
990.30 153.4507
990.40 151.0965
990.50 147.5707
990.60 149.1024
990.70 152.8017
990.80 161.1062
990.90 170.5619
991.00 167.2703
991.10 162.5624
991.20 161.6034
991.30 159.8252
991.40 150.6745
991.50 139.8809
991.60 122.5159
991.70 111.9209
991.80 117.1223
991.90 125.367
992.00 138.1766
992.10 146.387
992.20 149.9982
992.30 144.9298
992.40 134.0748
992.50 132.909
992.60 135.8956
992.70 141.339
992.80 147.3966
992.90 148.427
993.00 148.8989
993.10 144.2682
993.20 140.3458
993.30 142.798
993.40 144.7468
993.50 144.6815
993.60 146.602
993.70 153.1559
993.80 159.051
993.90 163.9576
994.00 168.6976
994.10 173.271
994.20 177.0405
994.30 180.2742
994.40 179.9004
994.50 177.9805
994.60 173.6692
994.70 168.7601
994.80 177.0761
994.90 186.8615
995.00 183.4899
995.10 180.2099
995.20 177.755
995.30 176.9454
995.40 182.7171
995.50 183.912
995.60 174.4274
995.70 165.5933
995.80 157.7348
995.90 155.6403
996.00 159.3099
996.10 162.0617
996.20 164.2018
996.30 159.9313
996.40 152.9134
996.50 147.4657
996.60 142.4105
996.70 139.1112
996.80 136.0069
996.90 136.427
997.00 137.4796
997.10 144.2253
997.20 149.4648
997.30 148.6796
997.40 147.9357
997.50 147.2882
997.60 149.0763
997.70 154.5175
997.80 160.9275
997.90 168.3061
998.00 167.4448
998.10 161.0902
998.20 155.571
998.30 150.41
998.40 150.07
998.50 150.9353
998.60 154.815
998.70 159.0297
998.80 163.0034
998.90 166.1671
999.00 162.0397
999.10 158.4328
999.20 156.9076
999.30 156.3471
999.40 158.0376
999.50 159.8677
999.60 161.9071
999.70 163.7493
999.80 165.3945
999.90 165.8548
1000.00 165.5252
1000.10 166.6462
1000.20 168.3889
1000.30 174.4433
1000.40 181.5758
1000.50 184.4549
1000.60 186.8615
1000.70 183.8298
1000.80 182.1655
1000.90 192.8069
1001.00 198.9439
1001.10 187.0635
1001.20 178.1758
1001.30 176.2713
1001.40 174.8595
1001.50 174.1867
1001.60 169.2103
1001.70 159.93
1001.80 155.0627
1001.90 153.1374
1002.00 154.7771
1002.10 157.9446
1002.20 152.1436
1002.30 144.1005
1002.40 142.1191
1002.50 140.8112
1002.60 139.6556
1002.70 139.2408
1002.80 145.4936
1002.90 151.6059
1003.00 157.1565
1003.10 160.2598
1003.20 157.653
1003.30 154.9059
1003.40 151.9482
1003.50 150.9213
1003.60 151.8253
1003.70 152.5336
1003.80 153.1113
1003.90 155.1443
1004.00 157.8011
1004.10 163.0602
1004.20 168.9698
1004.30 166.6519
1004.40 163.4197
1004.50 166.9807
1004.60 169.1673
1004.70 158.9828
1004.80 151.9615
1004.90 157.5922
1005.00 161.2427
1005.10 160.2726
1005.20 156.9686
1005.30 150.1637
1005.40 147.7282
1005.50 149.6622
1005.60 154.6952
1005.70 161.7942
1005.80 160.8251
1005.90 156.3984
1006.00 159.1548
1006.10 164.9898
1006.20 165.6398
1006.30 164.9935
1006.40 162.6356
1006.50 160.0875
1006.60 160.6483
1006.70 161.7747
1006.80 167.9908
1006.90 172.7329
1007.00 171.5789
1007.10 172.5434
1007.20 178.4513
1007.30 179.2646
1007.40 172.4361
1007.50 167.6867
1007.60 165.0164
1007.70 169.7334
1007.80 179.3753
1007.90 179.3123
1008.00 175.0901
1008.10 171.7791
1008.20 168.6959
1008.30 170.939
1008.40 173.774
1008.50 174.2486
1008.60 175.3783
1008.70 182.4039
1008.80 188.8561
1008.90 193.0144
1009.00 195.4777
1009.10 193.986
1009.20 190.7838
1009.30 185.0159
1009.40 182.0623
1009.50 181.923
1009.60 183.5157
1009.70 186.2631
1009.80 188.7589
1009.90 191.1469
1010.00 190.2759
1010.10 188.5901
1010.20 184.735
1010.30 180.639
1010.40 182.23
1010.50 183.9921
1010.60 187.2931
1010.70 188.6408
1010.80 182.1753
1010.90 178.3299
1011.00 180.5981
1011.10 181.3742
1011.20 179.9123
1011.30 178.7694
1011.40 177.9455
1011.50 178.4012
1011.60 179.7099
1011.70 174.6938
1011.80 166.9671
1011.90 167.4926
1012.00 170.0811
1012.10 174.2312
1012.20 178.5548
1012.30 175.4601
1012.40 172.7257
1012.50 173.2341
1012.60 173.2322
1012.70 171.1887
1012.80 170.1214
1012.90 171.332
1013.00 171.1794
1013.10 168.9822
1013.20 171.7298
1013.30 179.4221
1013.40 179.5069
1013.50 174.5201
1013.60 173.6105
1013.70 174.4482
1013.80 173.7852
1013.90 172.7471
1014.00 171.87
1014.10 171.0109
1014.20 176.9728
1014.30 182.2975
1014.40 181.8879
1014.50 180.8546
1014.60 177.327
1014.70 174.569
1014.80 173.6068
1014.90 172.413
1015.00 170.872
1015.10 171.0497
1015.20 172.9461
1015.30 174.604
1015.40 176.1029
1015.50 177.6018
1015.60 179.1007
1015.70 180.5997
1015.80 182.0986
1015.90 183.5975
1016.00 185.0965
1016.10 186.5954
1016.20 188.0943
1016.30 189.5933
1016.40 191.0922
1016.50 192.5911
1016.60 194.09
1016.70 195.589
1016.80 197.0879
1016.90 198.5868
1017.00 200.4814
1017.10 202.6398
1017.20 204.7982
1017.30 206.9566
1017.40 209.115
1017.50 211.2734
1017.60 213.4318
1017.70 215.5902
1017.80 217.7486
1017.90 219.907
1018.00 222.0654
1018.10 224.2238
1018.20 225.9605
1018.30 226.0108
1018.40 226.0611
1018.50 226.1113
1018.60 226.1616
1018.70 226.2118
1018.80 226.2621
1018.90 226.3124
1019.00 226.3626
1019.10 226.4129
1019.20 226.4631
1019.30 226.5134
1019.40 226.5637
1019.50 222.4551
1019.60 216.5643
1019.70 210.6734
1019.80 204.7826
1019.90 198.8917
1020.00 193.0009
1020.10 187.11
1020.20 181.2192
1020.30 175.3283
1020.40 169.4375
1020.50 163.5466
1020.60 157.6558
1020.70 152.4399
1020.80 148.7989
1020.90 145.158
1021.00 141.517
1021.10 137.8761
1021.20 134.2351
1021.30 130.5941
1021.40 126.9532
1021.50 123.3122
1021.60 119.6713
1021.70 116.0303
1021.80 112.3894
1021.90 108.7484
1022.00 111.8109
1022.10 116.5492
1022.20 121.2876
1022.30 126.0259
1022.40 130.7643
1022.50 135.5026
1022.60 140.241
1022.70 144.9793
1022.80 149.7176
1022.90 154.456
1023.00 159.1943
1023.10 163.9327
1023.20 167.4858
1023.30 169.2611
1023.40 171.0364
1023.50 172.8117
1023.60 174.587
1023.70 176.3622
1023.80 178.1375
1023.90 179.9128
1024.00 181.6881
1024.10 183.4634
1024.20 185.2387
1024.30 187.014
1024.40 188.7893
1024.50 187.2756
1024.60 185.3964
1024.70 183.5173
1024.80 181.6382
1024.90 179.759
1025.00 177.8799
1025.10 176.0007
1025.20 174.1216
1025.30 172.2425
1025.40 170.3633
1025.50 168.4842
1025.60 166.6051
1025.70 165.6142
1025.80 165.5115
1025.90 165.4088
1026.00 165.3061
1026.10 165.2034
1026.20 165.1008
1026.30 164.9981
1026.40 164.8954
1026.50 164.7927
1026.60 164.69
1026.70 164.5874
1026.80 164.4847
1026.90 164.382
1027.00 163.1495
1027.10 161.9169
1027.20 160.6844
1027.30 159.4519
1027.40 158.2193
1027.50 156.9868
1027.60 155.7543
1027.70 154.5218
1027.80 153.2892
1027.90 152.0567
1028.00 150.8242
1028.10 149.5916
1028.20 150.1881
1028.30 152.0039
1028.40 153.8197
1028.50 155.6355
1028.60 157.4513
1028.70 159.2671
1028.80 161.0829
1028.90 162.8988
1029.00 164.7146
1029.10 166.5304
1029.20 168.3462
1029.30 170.162
1029.40 172.1725
1029.50 175.935
1029.60 179.6976
1029.70 183.4602
1029.80 187.2228
1029.90 190.9853
1030.00 194.7479
1030.10 198.5105
1030.20 202.273
1030.30 206.0356
1030.40 209.7982
1030.50 213.5608
1030.60 217.3233
1030.70 219.8308
1030.80 221.8004
1030.90 223.77
1031.00 225.7396
1031.10 227.7092
1031.20 229.6788
1031.30 231.6484
1031.40 233.618
1031.50 235.5876
1031.60 237.5571
1031.70 239.5267
1031.80 241.4963
1031.90 242.8666
1032.00 241.8393
1032.10 240.8121
1032.20 239.7848
1032.30 238.7576
1032.40 237.7303
1032.50 236.7031
1032.60 235.6758
1032.70 234.6486
1032.80 233.6213
1032.90 232.5941
1033.00 231.5668
1033.10 230.5396
1033.20 228.2718
1033.30 225.6938
1033.40 223.1159
1033.50 220.538
1033.60 217.96
1033.70 215.3821
1033.80 212.8041
1033.90 210.2262
1034.00 207.6483
1034.10 205.0703
1034.20 202.4924
1034.30 199.9145
1034.40 197.7681
1034.50 196.6288
1034.60 195.4895
1034.70 194.3502
1034.80 193.2109
1034.90 192.0715
1035.00 190.9322
1035.10 189.7929
1035.20 188.6536
1035.30 187.5143
1035.40 186.3749
1035.50 185.2356
1035.60 184.0963
1035.70 184.8281
1035.80 186.0277
1035.90 187.2273
1036.00 188.4269
1036.10 189.6265
1036.20 190.8261
1036.30 192.0257
1036.40 193.2253
1036.50 194.4249
1036.60 195.6245
1036.70 196.8241
1036.80 198.0237
1036.90 198.2726
1037.00 197.0954
1037.10 195.9183
1037.20 194.7411
1037.30 193.564
1037.40 192.3868
1037.50 191.2097
1037.60 190.0325
1037.70 188.8554
1037.80 187.6782
1037.90 186.5011
1038.00 185.3239
1038.10 184.1468
1038.20 182.6574
1038.30 181.1333
1038.40 179.6093
1038.50 178.0852
1038.60 176.5612
1038.70 175.0371
1038.80 173.5131
1038.90 171.989
1039.00 170.465
1039.10 168.9409
1039.20 167.4169
1039.30 165.8928
1039.40 165.4095
1039.50 165.9669
1039.60 166.5244
1039.70 167.0818
1039.80 167.6392
1039.90 168.1967
1040.00 168.7541
1040.10 169.3115
1040.20 169.869
1040.30 170.4264
1040.40 170.9838
1040.50 171.5412
1040.60 172.0987
1040.70 175.4536
1040.80 178.8085
1040.90 182.1634
1041.00 185.5183
1041.10 188.8733
1041.20 192.2282
1041.30 195.5831
1041.40 198.938
1041.50 202.2929
1041.60 205.6478
1041.70 209.0028
1041.80 212.3577
1041.90 214.0114
1042.00 214.5309
1042.10 215.0505
1042.20 215.57
1042.30 216.0895
1042.40 216.6091
1042.50 217.1286
1042.60 217.6482
1042.70 218.1677
1042.80 218.6872
1042.90 219.2068
1043.00 219.7263
1043.10 220.2233
1043.20 220.5169
1043.30 220.8105
1043.40 221.1041
1043.50 221.3977
1043.60 221.6913
1043.70 221.9849
1043.80 222.2785
1043.90 222.5721
1044.00 222.8657
1044.10 223.1593
1044.20 223.4529
1044.30 223.7465
1044.40 223.2082
1044.50 222.3134
1044.60 221.4186
1044.70 220.5238
1044.80 219.629
1044.90 218.7342
1045.00 217.8394
1045.10 216.9446
1045.20 216.0498
1045.30 215.1551
1045.40 214.2603
1045.50 213.3655
1045.60 211.749
1045.70 207.2459
1045.80 202.7428
1045.90 198.2396
1046.00 193.7365
1046.10 189.2334
1046.20 184.7303
1046.30 180.2271
1046.40 175.724
1046.50 171.2209
1046.60 166.7178
1046.70 162.2146
1046.80 157.7115
1046.90 156.9337
1047.00 157.0871
1047.10 157.2406
1047.20 157.3941
1047.30 157.5475
1047.40 157.701
1047.50 157.8544
1047.60 158.0079
1047.70 158.1614
1047.80 158.3148
1047.90 158.4683
1048.00 158.6218
1048.10 160.0915
1048.20 164.6324
1048.30 169.1734
1048.40 173.7144
1048.50 178.2554
1048.60 182.7964
1048.70 187.3373
1048.80 191.8783
1048.90 196.4193
1049.00 200.9603
1049.10 205.5013
1049.20 210.0422
1049.30 214.5832
1049.40 216.7267
1049.50 218.6039
1049.60 220.481
1049.70 222.3581
1049.80 224.2352
1049.90 226.1123
1050.00 227.9895
1050.10 229.8666
1050.20 231.7437
1050.30 233.6208
1050.40 235.4979
1050.50 237.3751
1050.60 237.9576
1050.70 236.5983
1050.80 235.2391
1050.90 233.8798
1051.00 232.5205
1051.10 231.1612
1051.20 229.8019
1051.30 228.4427
1051.40 227.0834
1051.50 225.7241
1051.60 224.3648
1051.70 223.0056
1051.80 221.6463
1051.90 218.7333
1052.00 215.8204
1052.10 212.9074
1052.20 209.9945
1052.30 207.0815
1052.40 204.1686
1052.50 201.2556
1052.60 198.3427
1052.70 195.4297
1052.80 192.5167
1052.90 189.6038
1053.00 186.6908
1053.10 184.4395
1053.20 182.8499
1053.30 181.2602
1053.40 179.6706
1053.50 178.0809
1053.60 176.4913
1053.70 174.9016
1053.80 173.312
1053.90 171.7223
1054.00 170.1327
1054.10 168.543
1054.20 166.9534
1054.30 165.3637
1054.40 166.2486
1054.50 167.1336
1054.60 168.0185
1054.70 168.9034
1054.80 169.7883
1054.90 170.6732
1055.00 171.5582
1055.10 172.4431
1055.20 173.328
1055.30 174.2129
1055.40 175.0978
1055.50 175.9827
1055.60 177.0286
1055.70 178.1817
1055.80 179.3349
1055.90 180.488
1056.00 181.6411
1056.10 182.7943
1056.20 183.9474
1056.30 185.1006
1056.40 186.2537
1056.50 187.4068
1056.60 188.56
1056.70 189.7131
1056.80 190.8064
1056.90 191.3609
1057.00 191.9153
1057.10 192.4698
1057.20 193.0243
1057.30 193.5787
1057.40 194.1332
1057.50 194.6877
1057.60 195.2422
1057.70 195.7966
1057.80 196.3511
1057.90 196.9056
1058.00 197.46
1058.10 198.4608
1058.20 199.6527
1058.30 200.8447
1058.40 202.0367
1058.50 203.2287
1058.60 204.4206
1058.70 205.6126
1058.80 206.8046
1058.90 207.9966
1059.00 209.1886
1059.10 210.3805
1059.20 211.5725
1059.30 212.3415
1059.40 211.4187
1059.50 210.496
1059.60 209.5732
1059.70 208.6504
1059.80 207.7276
1059.90 206.8048
1060.00 205.882
1060.10 204.9592
1060.20 204.0364
1060.30 203.1136
1060.40 202.1909
1060.50 201.2681
1060.60 200.0771
1060.70 198.819
1060.80 197.561
1060.90 196.3029
1061.00 195.0449
1061.10 193.7868
1061.20 192.5288
1061.30 191.2707
1061.40 190.0127
1061.50 188.7546
1061.60 187.4966
1061.70 186.2385
1061.80 186.1404
1061.90 188.7488
1062.00 191.3572
1062.10 193.9656
1062.20 196.574
1062.30 199.1824
1062.40 201.7908
1062.50 204.3992
1062.60 207.0076
1062.70 209.616
1062.80 212.2244
1062.90 214.8328
1063.00 217.4412
1063.10 219.2512
1063.20 220.9725
1063.30 222.6937
1063.40 224.415
1063.50 226.1362
1063.60 227.8575
1063.70 229.5788
1063.80 231.3
1063.90 233.0213
1064.00 234.7425
1064.10 236.4638
1064.20 238.1851
1064.30 239.8309
1064.40 241.3637
1064.50 242.8964
1064.60 244.4292
1064.70 245.962
1064.80 247.4947
1064.90 249.0275
1065.00 250.5603
1065.10 252.093
1065.20 253.6258
1065.30 255.1586
1065.40 256.6913
1065.50 258.2241
1065.60 257.9824
1065.70 257.7407
1065.80 257.499
1065.90 257.2573
1066.00 257.0156
1066.10 256.7739
1066.20 256.5322
1066.30 256.2905
1066.40 256.0488
1066.50 255.8071
1066.60 255.5654
1066.70 255.3237
1066.80 255.304
1066.90 255.5062
1067.00 255.7084
1067.10 255.9107
1067.20 256.1129
1067.30 256.3151
1067.40 256.5174
1067.50 256.7196
1067.60 256.9218
1067.70 257.1241
1067.80 257.3263
1067.90 257.5285
1068.00 257.5747
1068.10 256.2161
1068.20 254.8575
1068.30 253.499
1068.40 252.1404
1068.50 250.7818
1068.60 249.4233
1068.70 248.0647
1068.80 246.7061
1068.90 245.3476
1069.00 243.989
1069.10 242.6304
1069.20 241.2719
1069.30 239.7307
1069.40 238.0679
1069.50 236.405
1069.60 234.7422
1069.70 233.0794
1069.80 231.4165
1069.90 229.7537
1070.00 228.0908
1070.10 226.428
1070.20 224.7651
1070.30 223.1023
1070.40 221.4395
1070.50 220.0198
1070.60 219.573
1070.70 219.1262
1070.80 218.6793
1070.90 218.2325
1071.00 217.7857
1071.10 217.3388
1071.20 216.892
1071.30 216.4452
1071.40 215.9983
1071.50 215.5515
1071.60 215.1047
1071.70 214.6578
1071.80 214.0351
1071.90 213.3371
1072.00 212.639
1072.10 211.9409
1072.20 211.2429
1072.30 210.5448
1072.40 209.8467
1072.50 209.1486
1072.60 208.4506
1072.70 207.7525
1072.80 207.0544
1072.90 206.3564
1073.00 205.5048
1073.10 204.295
1073.20 203.0853
1073.30 201.8755
1073.40 200.6657
1073.50 199.456
1073.60 198.2462
1073.70 197.0364
1073.80 195.8267
1073.90 194.6169
1074.00 193.4071
1074.10 192.1974
1074.20 190.9876
1074.30 190.8421
1074.40 190.9627
1074.50 191.0832
1074.60 191.2038
1074.70 191.3244
1074.80 191.4449
1074.90 191.5655
1075.00 191.6861
1075.10 191.8066
1075.20 191.9272
1075.30 192.0478
1075.40 192.1683
1075.50 193.3406
1075.60 196.9669
1075.70 200.5931
1075.80 204.2194
1075.90 207.8457
1076.00 211.4719
1076.10 215.0982
1076.20 218.7244
1076.30 222.3507
1076.40 225.977
1076.50 229.6032
1076.60 233.2295
1076.70 236.8557
1076.80 238.0746
1076.90 239.026
1077.00 239.9774
1077.10 240.9289
1077.20 241.8803
1077.30 242.8317
1077.40 243.7831
1077.50 244.7345
1077.60 245.6859
1077.70 246.6373
1077.80 247.5887
1077.90 248.5401
1078.00 247.5905
1078.10 243.7895
1078.20 239.9885
1078.30 236.1875
1078.40 232.3864
1078.50 228.5854
1078.60 224.7844
1078.70 220.9834
1078.80 217.1823
1078.90 213.3813
1079.00 209.5803
1079.10 205.7793
1079.20 201.9782
1079.30 203.1554
1079.40 204.3325
1079.50 205.5097
1079.60 206.6868
1079.70 207.864
1079.80 209.0412
1079.90 210.2183
1080.00 211.3955
1080.10 212.5726
1080.20 213.7498
1080.30 214.9269
1080.40 216.1041
1080.50 218.8732
1080.60 223.2344
1080.70 227.5956
1080.80 231.9568
1080.90 236.318
1081.00 240.6792
1081.10 245.0404
1081.20 249.4016
1081.30 253.7628
1081.40 258.1239
1081.50 262.4851
1081.60 266.8463
1081.70 270.6516
1081.80 269.4535
1081.90 268.2555
1082.00 267.0574
1082.10 265.8594
1082.20 264.6614
1082.30 263.4633
1082.40 262.2653
1082.50 261.0672
1082.60 259.8692
1082.70 258.6711
1082.80 257.4731
1082.90 256.275
1083.00 254.3623
1083.10 251.973
1083.20 249.5838
1083.30 247.1946
1083.40 244.8053
1083.50 242.4161
1083.60 240.0269
1083.70 237.6376
1083.80 235.2484
1083.90 232.8592
1084.00 230.4699
1084.10 228.0807
1084.20 226.4837
1084.30 228.0554
1084.40 229.6272
1084.50 231.1989
1084.60 232.7707
1084.70 234.3424
1084.80 235.9142
1084.90 237.4859
1085.00 239.0577
1085.10 240.6294
1085.20 242.2012
1085.30 243.7729
1085.40 245.3447
1085.50 245.9958
1085.60 246.2524
1085.70 246.509
1085.80 246.7656
1085.90 247.0222
1086.00 247.2788
1086.10 247.5354
1086.20 247.792
1086.30 248.0486
1086.40 248.3052
1086.50 248.5618
1086.60 248.8184
1086.70 248.9939
1086.80 248.9804
1086.90 248.9668
1087.00 248.9533
1087.10 248.9397
1087.20 248.9262
1087.30 248.9126
1087.40 248.8991
1087.50 248.8855
1087.60 248.872
1087.70 248.8584
1087.80 248.8449
1087.90 248.8313
1088.00 249.1499
1088.10 249.5515
1088.20 249.9531
1088.30 250.3548
1088.40 250.7564
1088.50 251.158
1088.60 251.5596
1088.70 251.9612
1088.80 252.3629
1088.90 252.7645
1089.00 253.1661
1089.10 253.5677
1089.20 253.4646
1089.30 252.6044
1089.40 251.7442
1089.50 250.884
1089.60 250.0238
1089.70 249.1636
1089.80 248.3034
1089.90 247.4432
1090.00 246.583
1090.10 245.7228
1090.20 244.8626
1090.30 244.0024
1090.40 243.1421
1090.50 242.9196
1090.60 242.7679
1090.70 242.6162
1090.80 242.4645
1090.90 242.3127
1091.00 242.161
1091.10 242.0093
1091.20 241.8576
1091.30 241.7059
1091.40 241.5542
1091.50 241.4025
1091.60 241.2508
1091.70 239.8972
1091.80 237.3417
1091.90 234.7862
1092.00 232.2307
1092.10 229.6752
1092.20 227.1197
1092.30 224.5642
1092.40 222.0088
1092.50 219.4533
1092.60 216.8978
1092.70 214.3423
1092.80 211.7868
1092.90 209.2313
1093.00 209.063
1093.10 208.8946
1093.20 208.7262
1093.30 208.5579
1093.40 208.3895
1093.50 208.2211
1093.60 208.0528
1093.70 207.8844
1093.80 207.7161
1093.90 207.5477
1094.00 207.3793
1094.10 207.211
1094.20 206.8613
1094.30 206.3908
1094.40 205.9202
1094.50 205.4496
1094.60 204.9791
1094.70 204.5085
1094.80 204.038
1094.90 203.5674
1095.00 203.0969
1095.10 202.6263
1095.20 202.1558
1095.30 201.6852
1095.40 201.2638
1095.50 201.2841
1095.60 201.3045
1095.70 201.3248
1095.80 201.3452
1095.90 201.3655
1096.00 201.3859
1096.10 201.4062
1096.20 201.4266
1096.30 201.4469
1096.40 201.4673
1096.50 201.4876
1096.60 201.508
1096.70 202.1147
1096.80 202.9726
1096.90 203.8306
1097.00 204.6885
1097.10 205.5465
1097.20 206.4044
1097.30 207.2623
1097.40 208.1203
1097.50 208.9782
1097.60 209.8362
1097.70 210.6941
1097.80 211.5521
1097.90 211.7341
1098.00 209.2123
1098.10 206.6906
1098.20 204.1689
1098.30 201.6471
1098.40 199.1254
1098.50 196.6036
1098.60 194.0819
1098.70 191.5601
1098.80 189.0384
1098.90 186.5166
1099.00 183.9949
1099.10 181.4731
1099.20 180.3499
1099.30 179.8259
1099.40 179.302
1099.50 178.7781
1099.60 178.2542
1099.70 177.7302
1099.80 177.2063
1099.90 176.6824
1100.00 176.1584
1100.10 175.6345
1100.20 175.1106
1100.30 174.5867
1100.40 175.0788
1100.50 177.9418
1100.60 180.8049
1100.70 183.6679
1100.80 186.5309
1100.90 189.394
1101.00 192.257
1101.10 195.12
1101.20 197.9831
1101.30 200.8461
1101.40 203.7091
1101.50 206.5722
1101.60 209.4352
1101.70 208.6009
1101.80 206.8423
1101.90 205.0837
1102.00 203.325
1102.10 201.5664
1102.20 199.8078
1102.30 198.0492
1102.40 196.2906
1102.50 194.5319
1102.60 192.7733
1102.70 191.0147
1102.80 189.2561
1102.90 187.6341
1103.00 186.2172
1103.10 184.8002
1103.20 183.3833
1103.30 181.9663
1103.40 180.5494
1103.50 179.1324
1103.60 177.7155
1103.70 176.2985
1103.80 174.8816
1103.90 173.4646
1104.00 172.0477
1104.10 170.6308
1104.20 172.2421
1104.30 174.1899
1104.40 176.1378
1104.50 178.0856
1104.60 180.0334
1104.70 181.9813
1104.80 183.9291
1104.90 185.8769
1105.00 187.8248
1105.10 189.7726
1105.20 191.7204
1105.30 193.6683
1105.40 194.3242
1105.50 193.6882
1105.60 193.0522
1105.70 192.4162
1105.80 191.7801
1105.90 191.1441
1106.00 190.5081
1106.10 189.8721
1106.20 189.2361
1106.30 188.6001
1106.40 187.9641
1106.50 187.3281
1106.60 186.692
1106.70 184.6821
1106.80 182.6722
1106.90 180.6623
1107.00 178.6524
1107.10 176.6425
1107.20 174.6326
1107.30 172.6226
1107.40 170.6127
1107.50 168.6028
1107.60 166.5929
1107.70 164.583
1107.80 162.5731
1107.90 161.5731
1108.00 161.2465
1108.10 160.9198
1108.20 160.5931
1108.30 160.2665
1108.40 159.9398
1108.50 159.6132
1108.60 159.2865
1108.70 158.9598
1108.80 158.6332
1108.90 158.3065
1109.00 157.9799
1109.10 157.8742
1109.20 159.7576
1109.30 161.6409
1109.40 163.5243
1109.50 165.4077
1109.60 167.291
1109.70 169.1744
1109.80 171.0577
1109.90 172.9411
1110.00 174.8245
1110.10 176.7078
1110.20 178.5912
1110.30 180.4746
1110.40 181.8743
1110.50 183.0667
1110.60 184.2591
1110.70 185.4515
1110.80 186.6439
1110.90 187.8363
1111.00 189.0287
1111.10 190.2211
1111.20 191.4135
1111.30 192.6059
1111.40 193.7983
1111.50 194.9907
1111.60 195.8787
1111.70 195.5492
1111.80 195.2198
1111.90 194.8903
1112.00 194.5608
1112.10 194.2314
1112.20 193.9019
1112.30 193.5724
1112.40 193.243
1112.50 192.9135
1112.60 192.584
1112.70 192.2546
1112.80 191.9251
1112.90 191.8067
1113.00 191.741
1113.10 191.6754
1113.20 191.6097
1113.30 191.5441
1113.40 191.4784
1113.50 191.4128
1113.60 191.3471
1113.70 191.2815
1113.80 191.2158
1113.90 191.1502
1114.00 191.0846
1114.10 191.736
1114.20 194.0606
1114.30 196.3852
1114.40 198.7098
1114.50 201.0345
1114.60 203.3591
1114.70 205.6837
1114.80 208.0083
1114.90 210.3329
1115.00 212.6576
1115.10 214.9822
1115.20 217.3068
1115.30 219.6314
1115.40 218.5996
1115.50 217.1949
1115.60 215.7902
1115.70 214.3854
1115.80 212.9807
1115.90 211.576
1116.00 210.1712
1116.10 208.7665
1116.20 207.3618
1116.30 205.957
1116.40 204.5523
1116.50 203.1476
1116.60 201.4876
1116.70 199.4449
1116.80 197.4023
1116.90 195.3596
1117.00 193.3169
1117.10 191.2742
1117.20 189.2315
1117.30 187.1888
1117.40 185.1461
1117.50 183.1034
1117.60 181.0607
1117.70 179.0181
1117.80 176.9754
1117.90 177.7022
1118.00 178.429
1118.10 179.1557
1118.20 179.8825
1118.30 180.6093
1118.40 181.3361
1118.50 182.0629
1118.60 182.7897
1118.70 183.5165
1118.80 184.2433
1118.90 184.9701
1119.00 185.6969
1119.10 185.9228
1119.20 185.6477
1119.30 185.3727
1119.40 185.0977
1119.50 184.8227
1119.60 184.5477
1119.70 184.2726
1119.80 183.9976
1119.90 183.7226
1120.00 183.4476
1120.10 183.1726
1120.20 182.8976
1120.30 182.6225
1120.40 183.6448
1120.50 184.6671
1120.60 185.6894
1120.70 186.7116
1120.80 187.7339
1120.90 188.7562
1121.00 189.7784
1121.10 190.8007
1121.20 191.823
1121.30 192.8452
1121.40 193.8675
1121.50 194.8898
1121.60 195.7765
1121.70 196.5729
1121.80 197.3693
1121.90 198.1657
1122.00 198.9621
1122.10 199.7585
1122.20 200.5549
1122.30 201.3513
1122.40 202.1477
1122.50 202.9441
1122.60 203.7404
1122.70 204.5368
1122.80 205.4101
1122.90 206.9752
1123.00 208.5402
1123.10 210.1053
1123.20 211.6704
1123.30 213.2354
1123.40 214.8005
1123.50 216.3656
1123.60 217.9307
1123.70 219.4957
1123.80 221.0608
1123.90 222.6259
1124.00 224.1909
1124.10 224.6396
1124.20 224.6098
1124.30 224.58
1124.40 224.5502
1124.50 224.5205
1124.60 224.4907
1124.70 224.4609
1124.80 224.4311
1124.90 224.4013
1125.00 224.3715
1125.10 224.3417
1125.20 224.3119
1125.30 223.7972
1125.40 221.343
1125.50 218.8887
1125.60 216.4344
1125.70 213.9802
1125.80 211.5259
1125.90 209.0716
1126.00 206.6173
1126.10 204.1631
1126.20 201.7088
1126.30 199.2545
1126.40 196.8003
1126.50 194.346
1126.60 193.6627
1126.70 193.4221
1126.80 193.1815
1126.90 192.941
1127.00 192.7004
1127.10 192.4598
1127.20 192.2193
1127.30 191.9787
1127.40 191.7381
1127.50 191.4975
1127.60 191.257
1127.70 191.0164
1127.80 190.651
1127.90 189.9944
1128.00 189.3377
1128.10 188.681
1128.20 188.0244
1128.30 187.3677
1128.40 186.7111
1128.50 186.0544
1128.60 185.3978
1128.70 184.7411
1128.80 184.0845
1128.90 183.4278
1129.00 182.7712
1129.10 181.2044
1129.20 179.5366
1129.30 177.8688
1129.40 176.201
1129.50 174.5332
1129.60 172.8653
1129.70 171.1975
1129.80 169.5297
1129.90 167.8619
1130.00 166.194
1130.10 164.5262
1130.20 162.8584
1130.30 161.2387
1130.40 159.6912
1130.50 158.1437
1130.60 156.5962
1130.70 155.0487
1130.80 153.5012
1130.90 151.9538
1131.00 150.4063
1131.10 148.8588
1131.20 147.3113
1131.30 145.7638
1131.40 144.2163
1131.50 142.6688
1131.60 144.5583
1131.70 146.4477
1131.80 148.3372
1131.90 150.2267
1132.00 152.1162
1132.10 154.0056
1132.20 155.8951
1132.30 157.7846
1132.40 159.6741
1132.50 161.5635
1132.60 163.453
1132.70 165.3425
1132.80 166.0049
1132.90 165.4404
1133.00 164.8759
1133.10 164.3113
1133.20 163.7468
1133.30 163.1823
1133.40 162.6178
1133.50 162.0532
1133.60 161.4887
1133.70 160.9242
1133.80 160.3596
1133.90 159.7951
1134.00 158.8366
1134.10 154.332
1134.20 149.8275
1134.30 145.323
1134.40 140.8185
1134.50 136.3139
1134.60 131.8094
1134.70 127.3049
1134.80 122.8004
1134.90 118.2958
1135.00 113.7913
1135.10 109.2868
1135.20 104.7823
1135.30 103.5201
1135.40 104.4195
1135.50 105.3188
1135.60 106.2182
1135.70 107.1176
1135.80 108.017
1135.90 108.9163
1136.00 109.8157
1136.10 110.7151
1136.20 111.6145
1136.30 112.5139
1136.40 113.4132
1136.50 114.6672
1136.60 117.3396
1136.70 120.012
1136.80 122.6844
1136.90 125.3568
1137.00 128.0292
1137.10 130.7016
1137.20 133.374
1137.30 136.0464
1137.40 138.7188
1137.50 141.3912
1137.60 144.0636
1137.70 146.736
1137.80 147.2014
1137.90 146.7209
1138.00 146.2405
1138.10 145.76
1138.20 145.2796
1138.30 144.7991
1138.40 144.3187
1138.50 143.8382
1138.60 143.3578
1138.70 142.8773
1138.80 142.3969
1138.90 141.9164
1139.00 141.1891
1139.10 139.8856
1139.20 138.582
1139.30 137.2785
1139.40 135.975
1139.50 134.6715
1139.60 133.368
1139.70 132.0645
1139.80 130.761
1139.90 129.4575
1140.00 128.154
1140.10 126.8505
1140.20 125.547
1140.30 124.6358
1140.40 123.8227
1140.50 123.0096
1140.60 122.1965
1140.70 121.3834
1140.80 120.5703
1140.90 119.7572
1141.00 118.9442
1141.10 118.1311
1141.20 117.318
1141.30 116.5049
1141.40 115.6918
1141.50 116.6761
1141.60 120.3566
1141.70 124.0371
1141.80 127.7176
1141.90 131.3981
1142.00 135.0787
1142.10 138.7592
1142.20 142.4397
1142.30 146.1202
1142.40 149.8007
1142.50 153.4812
1142.60 157.1617
1142.70 160.8422
1142.80 164.0463
1142.90 167.1975
1143.00 170.3486
1143.10 173.4998
1143.20 176.651
1143.30 179.8022
1143.40 182.9534
1143.50 186.1045
1143.60 189.2557
1143.70 192.4069
1143.80 195.5581
1143.90 198.7093
1144.00 200.8999
1144.10 201.6498
1144.20 202.3997
1144.30 203.1495
1144.40 203.8994
1144.50 204.6493
1144.60 205.3992
1144.70 206.149
1144.80 206.8989
1144.90 207.6488
1145.00 208.3986
1145.10 209.1485
1145.20 209.8984
1145.30 207.6182
1145.40 205.338
1145.50 203.0578
1145.60 200.7776
1145.70 198.4975
1145.80 196.2173
1145.90 193.9371
1146.00 191.6569
1146.10 189.3767
1146.20 187.0965
1146.30 184.8163
1146.40 182.5361
1146.50 181.1508
1146.60 180.6602
1146.70 180.1696
1146.80 179.6791
1146.90 179.1885
1147.00 178.6979
1147.10 178.2073
1147.20 177.7168
1147.30 177.2262
1147.40 176.7356
1147.50 176.2451
1147.60 175.7545
1147.70 175.4559
1147.80 176.8855
1147.90 178.3151
1148.00 179.7447
1148.10 181.1743
1148.20 182.6039
1148.30 184.0334
1148.40 185.463
1148.50 186.8926
1148.60 188.3222
1148.70 189.7518
1148.80 191.1813
1148.90 192.6109
1149.00 192.4899
1149.10 191.3351
1149.20 190.1804
1149.30 189.0256
1149.40 187.8708
1149.50 186.7161
1149.60 185.5613
1149.70 184.4065
1149.80 183.2518
1149.90 182.097
1150.00 180.9422
1150.10 179.7875
1150.20 178.932
1150.30 179.274
1150.40 179.6159
1150.50 179.9578
1150.60 180.2998
1150.70 180.6417
1150.80 180.9836
1150.90 181.3256
1151.00 181.6675
1151.10 182.0095
1151.20 182.3514
1151.30 182.6933
1151.40 183.0353
1151.50 183.7632
1151.60 184.6565
1151.70 185.5498
1151.80 186.4432
1151.90 187.3365
1152.00 188.2298
1152.10 189.1232
1152.20 190.0165
1152.30 190.9098
1152.40 191.8031
1152.50 192.6965
1152.60 193.5898
1152.70 195.1415
1152.80 198.2292
1152.90 201.3169
1153.00 204.4047
1153.10 207.4924
1153.20 210.5801
1153.30 213.6679
1153.40 216.7556
1153.50 219.8433
1153.60 222.9311
1153.70 226.0188
1153.80 229.1065
1153.90 232.1943
1154.00 234.2919
1154.10 236.142
1154.20 237.9922
1154.30 239.8423
1154.40 241.6924
1154.50 243.5426
1154.60 245.3927
1154.70 247.2428
1154.80 249.093
1154.90 250.9431
1155.00 252.7932
1155.10 254.6434
1155.20 254.3765
1155.30 250.9341
1155.40 247.4917
1155.50 244.0494
1155.60 240.607
1155.70 237.1646
1155.80 233.7222
1155.90 230.2799
1156.00 226.8375
1156.10 223.3951
1156.20 219.9527
1156.30 216.5104
1156.40 213.068
1156.50 211.5167
1156.60 210.1755
1156.70 208.8343
1156.80 207.4931
1156.90 206.1518
1157.00 204.8106
1157.10 203.4694
1157.20 202.1282
1157.30 200.787
1157.40 199.4458
1157.50 198.1046
1157.60 196.7634
1157.70 195.1946
1157.80 193.3983
1157.90 191.6019
1158.00 189.8055
1158.10 188.0092
1158.20 186.2128
1158.30 184.4164
1158.40 182.6201
1158.50 180.8237
1158.60 179.0273
1158.70 177.231
1158.80 175.4346
1158.90 173.6382
1159.00 173.4147
1159.10 173.1913
1159.20 172.9678
1159.30 172.7443
1159.40 172.5208
1159.50 172.2973
1159.60 172.0738
1159.70 171.8503
1159.80 171.6268
1159.90 171.4033
1160.00 171.1798
1160.10 170.9563
1160.20 171.4292
1160.30 172.3664
1160.40 173.3036
1160.50 174.2408
1160.60 175.178
1160.70 176.1152
1160.80 177.0524
1160.90 177.9897
1161.00 178.9269
1161.10 179.8641
1161.20 180.8013
1161.30 181.7385
1161.40 182.6717
1161.50 183.5687
1161.60 184.4657
1161.70 185.3627
1161.80 186.2598
1161.90 187.1568
1162.00 188.0538
1162.10 188.9509
1162.20 189.8479
1162.30 190.7449
1162.40 191.642
1162.50 192.539
1162.60 193.436
1162.70 194.2563
1162.80 195.0436
1162.90 195.831
1163.00 196.6183
1163.10 197.4057
1163.20 198.1931
1163.30 198.9804
1163.40 199.7678
1163.50 200.5551
1163.60 201.3425
1163.70 202.1298
1163.80 202.9172
1163.90 203.8384
1164.00 205.295
1164.10 206.7517
1164.20 208.2083
1164.30 209.6649
1164.40 211.1215
1164.50 212.5782
1164.60 214.0348
1164.70 215.4914
1164.80 216.948
1164.90 218.4046
1165.00 219.8613
1165.10 221.3179
1165.20 221.506
1165.30 221.377
1165.40 221.2479
1165.50 221.1189
1165.60 220.9898
1165.70 220.8608
1165.80 220.7318
1165.90 220.6027
1166.00 220.4737
1166.10 220.3446
1166.20 220.2156
1166.30 220.0866
1166.40 219.0523
1166.50 215.906
1166.60 212.7597
1166.70 209.6134
1166.80 206.4671
1166.90 203.3207
1167.00 200.1744
1167.10 197.0281
1167.20 193.8818
1167.30 190.7354
1167.40 187.5891
1167.50 184.4428
1167.60 181.2965
1167.70 178.8204
1167.80 176.5119
1167.90 174.2034
1168.00 171.8949
1168.10 169.5864
1168.20 167.2779
1168.30 164.9693
1168.40 162.6608
1168.50 160.3523
1168.60 158.0438
1168.70 155.7353
1168.80 153.4268
1168.90 152.7372
1169.00 154.4759
1169.10 156.2146
1169.20 157.9533
1169.30 159.692
1169.40 161.4307
1169.50 163.1694
1169.60 164.9081
1169.70 166.6468
1169.80 168.3855
1169.90 170.1243
1170.00 171.863
1170.10 173.6017
1170.20 176.1119
1170.30 178.7078
1170.40 181.3037
1170.50 183.8996
1170.60 186.4955
1170.70 189.0914
1170.80 191.6873
1170.90 194.2832
1171.00 196.8791
1171.10 199.475
1171.20 202.0709
1171.30 204.6668
1171.40 206.2429
1171.50 206.7992
1171.60 207.3554
1171.70 207.9116
1171.80 208.4679
1171.90 209.0241
1172.00 209.5804
1172.10 210.1366
1172.20 210.6929
1172.30 211.2491
1172.40 211.8054
1172.50 212.3616
1172.60 212.9179
1172.70 212.8449
1172.80 212.7718
1172.90 212.6988
1173.00 212.6258
1173.10 212.5528
1173.20 212.4798
1173.30 212.4068
1173.40 212.3338
1173.50 212.2608
1173.60 212.1878
1173.70 212.1148
1173.80 212.0418
1173.90 211.4927
1174.00 210.6263
1174.10 209.7599
1174.20 208.8935
1174.30 208.027
1174.40 207.1606
1174.50 206.2942
1174.60 205.4278
1174.70 204.5614
1174.80 203.6949
1174.90 202.8285
1175.00 201.9621
1175.10 200.8874
1175.20 197.9375
1175.30 194.9877
1175.40 192.0379
1175.50 189.0881
1175.60 186.1382
1175.70 183.1884
1175.80 180.2386
1175.90 177.2888
1176.00 174.3389
1176.10 171.3891
1176.20 168.4393
1176.30 165.4895
1176.40 161.8425
1176.50 157.8967
1176.60 153.951
1176.70 150.0052
1176.80 146.0594
1176.90 142.1137
1177.00 138.1679
1177.10 134.2221
1177.20 130.2764
1177.30 126.3306
1177.40 122.3848
1177.50 118.4391
1177.60 115.7601
1177.70 118.1481
1177.80 120.5361
1177.90 122.9241
1178.00 125.3121
1178.10 127.7001
1178.20 130.0881
1178.30 132.4761
1178.40 134.8641
1178.50 137.2521
1178.60 139.6402
1178.70 142.0282
1178.80 144.4162
1178.90 148.4228
1179.00 152.8341
1179.10 157.2455
1179.20 161.6568
1179.30 166.0681
1179.40 170.4794
1179.50 174.8907
1179.60 179.3021
1179.70 183.7134
1179.80 188.1247
1179.90 192.536
1180.00 196.9473
1180.10 200.5728
1180.20 202.3646
1180.30 204.1564
1180.40 205.9481
1180.50 207.7399
1180.60 209.5317
1180.70 211.3235
1180.80 213.1153
1180.90 214.907
1181.00 216.6988
1181.10 218.4906
1181.20 220.2824
1181.30 222.0742
1181.40 221.7844
1181.50 221.2633
1181.60 220.7422
1181.70 220.2211
1181.80 219.7
1181.90 219.1789
1182.00 218.6578
1182.10 218.1367
1182.20 217.6156
1182.30 217.0945
1182.40 216.5734
1182.50 216.0523
1182.60 215.1254
1182.70 213.5898
1182.80 212.0542
1182.90 210.5186
1183.00 208.983
1183.10 207.4474
1183.20 205.9118
1183.30 204.3762
1183.40 202.8406
1183.50 201.305
1183.60 199.7693
1183.70 198.2337
1183.80 196.6981
1183.90 194.2566
1184.00 191.8152
1184.10 189.3737
1184.20 186.9322
1184.30 184.4907
1184.40 182.0492
1184.50 179.6077
1184.60 177.1662
1184.70 174.7248
1184.80 172.2833
1184.90 169.8418
1185.00 167.4003
1185.10 166.0869
1185.20 165.9017
1185.30 165.7165
1185.40 165.5313
1185.50 165.346
1185.60 165.1608
1185.70 164.9756
1185.80 164.7904
1185.90 164.6051
1186.00 164.4199
1186.10 164.2347
1186.20 164.0495
1186.30 164.1482
1186.40 166.8028
1186.50 169.4574
1186.60 172.112
1186.70 174.7666
1186.80 177.4212
1186.90 180.0758
1187.00 182.7304
1187.10 185.385
1187.20 188.0396
1187.30 190.6942
1187.40 193.3488
1187.50 196.0034
1187.60 196.8888
1187.70 196.5947
1187.80 196.3007
1187.90 196.0067
1188.00 195.7127
1188.10 195.4186
1188.20 195.1246
1188.30 194.8306
1188.40 194.5365
1188.50 194.2425
1188.60 193.9485
1188.70 193.6545
1188.80 194.3181
1188.90 198.8122
1189.00 203.3064
1189.10 207.8006
1189.20 212.2947
1189.30 216.7889
1189.40 221.283
1189.50 225.7772
1189.60 230.2714
1189.70 234.7655
1189.80 239.2597
1189.90 243.7539
1190.00 248.248
1190.10 251.3864
1190.20 253.9437
1190.30 256.501
1190.40 259.0584
1190.50 261.6157
1190.60 264.173
1190.70 266.7303
1190.80 269.2876
1190.90 271.845
1191.00 274.4023
1191.10 276.9596
1191.20 279.5169
1191.30 280.7873
1191.40 276.91
1191.50 273.0327
1191.60 269.1554
1191.70 265.2781
1191.80 261.4008
1191.90 257.5235
1192.00 253.6462
1192.10 249.7689
1192.20 245.8916
1192.30 242.0142
1192.40 238.1369
1192.50 234.2596
1192.60 233.0106
1192.70 232.4186
1192.80 231.8267
1192.90 231.2347
1193.00 230.6427
1193.10 230.0508
1193.20 229.4588
1193.30 228.8668
1193.40 228.2749
1193.50 227.6829
1193.60 227.0909
1193.70 226.499
1193.80 226.6194
1193.90 228.4019
1194.00 230.1844
1194.10 231.967
1194.20 233.7495
1194.30 235.532
1194.40 237.3146
1194.50 239.0971
1194.60 240.8796
1194.70 242.6621
1194.80 244.4447
1194.90 246.2272
1195.00 248.0097
1195.10 246.5159
1195.20 244.6579
1195.30 242.8
1195.40 240.9421
1195.50 239.0842
1195.60 237.2263
1195.70 235.3683
1195.80 233.5104
1195.90 231.6525
1196.00 229.7946
1196.10 227.9367
1196.20 226.0787
1196.30 225.0015
1196.40 225.0951
1196.50 225.1887
1196.60 225.2824
1196.70 225.376
1196.80 225.4697
1196.90 225.5633
1197.00 225.657
1197.10 225.7506
1197.20 225.8443
1197.30 225.9379
1197.40 226.0315
1197.50 226.1252
1197.60 227.9708
1197.70 229.8165
1197.80 231.6621
1197.90 233.5077
1198.00 235.3534
1198.10 237.199
1198.20 239.0447
1198.30 240.8903
1198.40 242.7359
1198.50 244.5816
1198.60 246.4272
1198.70 248.2728
1198.80 249.5175
1198.90 250.1612
1199.00 250.8049
1199.10 251.4486
1199.20 252.0923
1199.30 252.736
1199.40 253.3797
1199.50 254.0234
1199.60 254.6671
1199.70 255.3109
1199.80 255.9546
1199.90 256.5983
1200.00 257.0442
1200.10 255.7103
1200.20 254.3765
1200.30 253.0426
1200.40 251.7088
1200.50 250.3749
1200.60 249.041
1200.70 247.7072
1200.80 246.3733
1200.90 245.0394
1201.00 243.7056
1201.10 242.3717
1201.20 241.0379
1201.30 240.5596
1201.40 240.6519
1201.50 240.7441
1201.60 240.8363
1201.70 240.9285
1201.80 241.0208
1201.90 241.113
1202.00 241.2052
1202.10 241.2974
1202.20 241.3896
1202.30 241.4819
1202.40 241.5741
1202.50 241.7921
1202.60 242.5136
1202.70 243.235
1202.80 243.9564
1202.90 244.6779
1203.00 245.3993
1203.10 246.1207
1203.20 246.8421
1203.30 247.5636
1203.40 248.285
1203.50 249.0064
1203.60 249.7278
1203.70 250.4493
1203.80 250.6113
1203.90 250.5336
1204.00 250.4559
1204.10 250.3782
1204.20 250.3005
1204.30 250.2228
1204.40 250.1451
1204.50 250.0674
1204.60 249.9897
1204.70 249.912
1204.80 249.8342
1204.90 249.7565
1205.00 249.236
1205.10 247.682
1205.20 246.128
1205.30 244.5741
1205.40 243.0201
1205.50 241.4662
1205.60 239.9122
1205.70 238.3582
1205.80 236.8043
1205.90 235.2503
1206.00 233.6963
1206.10 232.1424
1206.20 230.5884
1206.30 229.7938
1206.40 229.1889
1206.50 228.584
1206.60 227.9792
1206.70 227.3743
1206.80 226.7695
1206.90 226.1646
1207.00 225.5598
1207.10 224.9549
1207.20 224.3501
1207.30 223.7452
1207.40 223.1404
1207.50 222.3772
1207.60 221.3763
1207.70 220.3755
1207.80 219.3747
1207.90 218.3739
1208.00 217.373
1208.10 216.3722
1208.20 215.3714
1208.30 214.3706
1208.40 213.3698
1208.50 212.3689
1208.60 211.3681
1208.70 210.3673
1208.80 208.9611
1208.90 207.5099
1209.00 206.0587
1209.10 204.6075
1209.20 203.1563
1209.30 201.7051
1209.40 200.2538
1209.50 198.8026
1209.60 197.3514
1209.70 195.9002
1209.80 194.449
1209.90 192.9978
1210.00 192.46
1210.10 192.8357
1210.20 193.2113
1210.30 193.587
1210.40 193.9627
1210.50 194.3384
1210.60 194.7141
1210.70 195.0897
1210.80 195.4654
1210.90 195.8411
1211.00 196.2168
1211.10 196.5925
1211.20 196.9681
1211.30 198.3152
1211.40 199.6622
1211.50 201.0092
1211.60 202.3563
1211.70 203.7033
1211.80 205.0504
1211.90 206.3974
1212.00 207.7444
1212.10 209.0915
1212.20 210.4385
1212.30 211.7856
1212.40 213.1326
1212.50 213.9703
1212.60 214.4683
1212.70 214.9664
1212.80 215.4645
1212.90 215.9626
1213.00 216.4607
1213.10 216.9587
1213.20 217.4568
1213.30 217.9549
1213.40 218.453
1213.50 218.9511
1213.60 219.4491
1213.70 219.7841
1213.80 218.6511
1213.90 217.5181
1214.00 216.3851
1214.10 215.2522
1214.20 214.1192
1214.30 212.9862
1214.40 211.8532
1214.50 210.7202
1214.60 209.5872
1214.70 208.4542
1214.80 207.3212
1214.90 206.1882
1215.00 206.6405
1215.10 207.7722
1215.20 208.9039
1215.30 210.0356
1215.40 211.1673
1215.50 212.299
1215.60 213.4307
1215.70 214.5624
1215.80 215.694
1215.90 216.8257
1216.00 217.9574
1216.10 219.0891
1216.20 220.4904
1216.30 222.9698
1216.40 225.4491
1216.50 227.9285
1216.60 230.4079
1216.70 232.8873
1216.80 235.3667
1216.90 237.8461
1217.00 240.3255
1217.10 242.8049
1217.20 245.2843
1217.30 247.7637
1217.40 250.2431
1217.50 248.954
1217.60 246.0498
1217.70 243.1457
1217.80 240.2416
1217.90 237.3374
1218.00 234.4333
1218.10 231.5291
1218.20 228.625
1218.30 225.7209
1218.40 222.8167
1218.50 219.9126
1218.60 217.0085
1218.70 215.223
1218.80 216.0478
1218.90 216.8725
1219.00 217.6973
1219.10 218.5221
1219.20 219.3468
1219.30 220.1716
1219.40 220.9964
1219.50 221.8211
1219.60 222.6459
1219.70 223.4707
1219.80 224.2955
1219.90 225.1202
1220.00 227.6258
1220.10 230.5516
1220.20 233.4773
1220.30 236.4031
1220.40 239.3289
1220.50 242.2547
1220.60 245.1804
1220.70 248.1062
1220.80 251.032
1220.90 253.9577
1221.00 256.8835
1221.10 259.8093
1221.20 261.4389
1221.30 261.1242
1221.40 260.8095
1221.50 260.4948
1221.60 260.1801
1221.70 259.8654
1221.80 259.5507
1221.90 259.236
1222.00 258.9214
1222.10 258.6067
1222.20 258.292
1222.30 257.9773
1222.40 257.6626
1222.50 255.915
1222.60 254.0083
1222.70 252.1015
1222.80 250.1947
1222.90 248.2879
1223.00 246.3812
1223.10 244.4744
1223.20 242.5676
1223.30 240.6608
1223.40 238.7541
1223.50 236.8473
1223.60 234.9405
1223.70 233.6368
1223.80 232.9361
1223.90 232.2354
1224.00 231.5348
1224.10 230.8341
1224.20 230.1334
1224.30 229.4327
1224.40 228.7321
1224.50 228.0314
1224.60 227.3307
1224.70 226.6301
1224.80 225.9294
1224.90 225.2287
1225.00 227.184
1225.10 229.1393
1225.20 231.0946
1225.30 233.0499
1225.40 235.0052
1225.50 236.9605
1225.60 238.9158
1225.70 240.8711
1225.80 242.8265
1225.90 244.7818
1226.00 246.7371
1226.10 248.6924
1226.20 249.5103
1226.30 249.57
1226.40 249.6298
1226.50 249.6895
1226.60 249.7492
1226.70 249.8089
1226.80 249.8686
1226.90 249.9284
1227.00 249.9881
1227.10 250.0478
1227.20 250.1075
1227.30 250.1672
1227.40 250.3013
1227.50 251.1041
1227.60 251.9069
1227.70 252.7097
1227.80 253.5125
1227.90 254.3153
1228.00 255.1182
1228.10 255.921
1228.20 256.7238
1228.30 257.5266
1228.40 258.3294
1228.50 259.1322
1228.60 259.935
1228.70 259.5818
1228.80 258.7332
1228.90 257.8846
1229.00 257.036
1229.10 256.1873
1229.20 255.3387
1229.30 254.4901
1229.40 253.6414
1229.50 252.7928
1229.60 251.9442
1229.70 251.0956
1229.80 250.2469
1229.90 249.5719
1230.00 249.5913
1230.10 249.6106
1230.20 249.63
1230.30 249.6493
1230.40 249.6687
1230.50 249.688
1230.60 249.7074
1230.70 249.7267
1230.80 249.7461
1230.90 249.7654
1231.00 249.7848
1231.10 249.8042
1231.20 250.5917
1231.30 251.5714
1231.40 252.551
1231.50 253.5307
1231.60 254.5103
1231.70 255.49
1231.80 256.4696
1231.90 257.4492
1232.00 258.4289
1232.10 259.4085
1232.20 260.3882
1232.30 261.3678
1232.40 262.0018
1232.50 261.8293
1232.60 261.6568
1232.70 261.4844
1232.80 261.3119
1232.90 261.1394
1233.00 260.9669
1233.10 260.7944
1233.20 260.6219
1233.30 260.4494
1233.40 260.2769
1233.50 260.1044
1233.60 259.932
1233.70 261.0205
1233.80 262.2492
1233.90 263.4779
1234.00 264.7066
1234.10 265.9353
1234.20 267.1639
1234.30 268.3926
1234.40 269.6213
1234.50 270.85
1234.60 272.0787
1234.70 273.3074
1234.80 274.536
1234.90 276.4957
1235.00 279.5516
1235.10 282.6076
1235.20 285.6636
1235.30 288.7196
1235.40 291.7756
1235.50 294.8316
1235.60 297.8876
1235.70 300.9436
1235.80 303.9996
1235.90 307.0556
1236.00 310.1116
1236.10 313.1676
1236.20 310.3304
1236.30 307.4933
1236.40 304.6561
1236.50 301.819
1236.60 298.9819
1236.70 296.1447
1236.80 293.3076
1236.90 290.4704
1237.00 287.6333
1237.10 284.7962
1237.20 281.959
1237.30 279.1219
1237.40 276.1037
1237.50 272.9043
1237.60 269.705
1237.70 266.5057
1237.80 263.3064
1237.90 260.1071
1238.00 256.9078
1238.10 253.7085
1238.20 250.5092
1238.30 247.3099
1238.40 244.1106
1238.50 240.9113
1238.60 238.0563
1238.70 238.2998
1238.80 238.5433
1238.90 238.7869
1239.00 239.0304
1239.10 239.2739
1239.20 239.5175
1239.30 239.761
1239.40 240.0045
1239.50 240.2481
1239.60 240.4916
1239.70 240.7351
1239.80 240.9787
1239.90 240.3942
1240.00 239.2578
1240.10 238.1214
1240.20 236.985
1240.30 235.8486
1240.40 234.7122
1240.50 233.5758
1240.60 232.4394
1240.70 231.303
1240.80 230.1666
1240.90 229.0302
1241.00 227.8938
1241.10 226.6656
1241.20 225.0706
1241.30 223.4755
1241.40 221.8805
1241.50 220.2854
1241.60 218.6904
1241.70 217.0953
1241.80 215.5003
1241.90 213.9053
1242.00 212.3102
1242.10 210.7152
1242.20 209.1201
1242.30 207.5251
1242.40 208.5575
1242.50 210.716
1242.60 212.8745
1242.70 215.033
1242.80 217.1915
1242.90 219.35
1243.00 221.5085
1243.10 223.667
1243.20 225.8254
1243.30 227.9839
1243.40 230.1424
1243.50 232.3009
1243.60 234.8432
1243.70 238.9208
1243.80 242.9983
1243.90 247.0759
1244.00 251.1534
1244.10 255.231
1244.20 259.3085
1244.30 263.3861
1244.40 267.4636
1244.50 271.5412
1244.60 275.6187
1244.70 279.6963
1244.80 283.7738
1244.90 285.129
1245.00 285.8035
1245.10 286.4781
1245.20 287.1526
1245.30 287.8272
1245.40 288.5017
1245.50 289.1763
1245.60 289.8509
1245.70 290.5254
1245.80 291.2
1245.90 291.8745
1246.00 292.5491
1246.10 292.4241
1246.20 290.4335
1246.30 288.4429
1246.40 286.4523
1246.50 284.4617
1246.60 282.4711
1246.70 280.4805
1246.80 278.4899
1246.90 276.4993
1247.00 274.5087
1247.10 272.5181
1247.20 270.5275
1247.30 268.5369
1247.40 267.4503
1247.50 266.4642
1247.60 265.478
1247.70 264.4919
1247.80 263.5057
1247.90 262.5196
1248.00 261.5335
1248.10 260.5473
1248.20 259.5612
1248.30 258.5751
1248.40 257.5889
1248.50 256.6028
1248.60 256.3237
1248.70 257.1054
1248.80 257.887
1248.90 258.6686
1249.00 259.4502
1249.10 260.2318
1249.20 261.0134
1249.30 261.795
1249.40 262.5766
1249.50 263.3582
1249.60 264.1398
1249.70 264.9214
1249.80 265.7031
1249.90 265.4539
1250.00 265.2047
1250.10 264.9555
1250.20 264.7063
1250.30 264.4572
1250.40 264.208
1250.50 263.9588
1250.60 263.7096
1250.70 263.4604
1250.80 263.2112
1250.90 262.9621
1251.00 262.7129
1251.10 262.0294
1251.20 260.9116
1251.30 259.7939
1251.40 258.6761
1251.50 257.5583
1251.60 256.4406
1251.70 255.3228
1251.80 254.2051
1251.90 253.0873
1252.00 251.9695
1252.10 250.8518
1252.20 249.734
1252.30 248.5799
1252.40 247.0983
1252.50 245.6168
1252.60 244.1352
1252.70 242.6537
1252.80 241.1722
1252.90 239.6906
1253.00 238.2091
1253.10 236.7276
1253.20 235.246
1253.30 233.7645
1253.40 232.283
1253.50 230.8014
1253.60 230.3849
1253.70 230.6783
1253.80 230.9718
1253.90 231.2653
1254.00 231.5587
1254.10 231.8522
1254.20 232.1456
1254.30 232.4391
1254.40 232.7326
1254.50 233.026
1254.60 233.3195
1254.70 233.6129
1254.80 234.081
1254.90 235.2478
1255.00 236.4145
1255.10 237.5812
1255.20 238.7479
1255.30 239.9146
1255.40 241.0813
1255.50 242.248
1255.60 243.4147
1255.70 244.5814
1255.80 245.7481
1255.90 246.9148
1256.00 248.0815
1256.10 250.2207
1256.20 252.7765
1256.30 255.3324
1256.40 257.8883
1256.50 260.4442
1256.60 263.0001
1256.70 265.556
1256.80 268.1119
1256.90 270.6677
1257.00 273.2236
1257.10 275.7795
1257.20 278.3354
1257.30 279.8116
1257.40 278.7686
1257.50 277.7256
1257.60 276.6825
1257.70 275.6395
1257.80 274.5965
1257.90 273.5534
1258.00 272.5104
1258.10 271.4674
1258.20 270.4243
1258.30 269.3813
1258.40 268.3383
1258.50 267.2952
1258.60 267.1632
1258.70 267.259
1258.80 267.3548
1258.90 267.4506
1259.00 267.5464
1259.10 267.6421
1259.20 267.7379
1259.30 267.8337
1259.40 267.9295
1259.50 268.0253
1259.60 268.121
1259.70 268.2168
1259.80 269.0327
1259.90 270.9287
1260.00 272.8248
1260.10 274.7208
1260.20 276.6169
1260.30 278.5129
1260.40 280.4089
1260.50 282.305
1260.60 284.201
1260.70 286.0971
1260.80 287.9931
1260.90 289.8891
1261.00 291.7852
1261.10 291.7545
1261.20 291.5097
1261.30 291.2649
1261.40 291.0201
1261.50 290.7753
1261.60 290.5305
1261.70 290.2857
1261.80 290.041
1261.90 289.7962
1262.00 289.5514
1262.10 289.3066
1262.20 289.0618
1262.30 288.4492
1262.40 287.4689
1262.50 286.4885
1262.60 285.5082
1262.70 284.5278
1262.80 283.5475
1262.90 282.5671
1263.00 281.5868
1263.10 280.6064
1263.20 279.6261
1263.30 278.6457
1263.40 277.6654
1263.50 276.685
1263.60 276.2404
1263.70 275.7958
1263.80 275.3512
1263.90 274.9066
1264.00 274.462
1264.10 274.0174
1264.20 273.5728
1264.30 273.1282
1264.40 272.6836
1264.50 272.239
1264.60 271.7944
1264.70 271.3498
1264.80 270.841
1264.90 270.2892
1265.00 269.7375
1265.10 269.1858
1265.20 268.634
1265.30 268.0823
1265.40 267.5306
1265.50 266.9789
1265.60 266.4271
1265.70 265.8754
1265.80 265.3237
1265.90 264.7719
1266.00 264.185
1266.10 263.281
1266.20 262.377
1266.30 261.473
1266.40 260.569
1266.50 259.665
1266.60 258.761
1266.70 257.857
1266.80 256.953
1266.90 256.049
1267.00 255.145
1267.10 254.2409
1267.20 253.3369
1267.30 254.0304
1267.40 255.4084
1267.50 256.7865
1267.60 258.1645
1267.70 259.5426
1267.80 260.9206
1267.90 262.2987
1268.00 263.6767
1268.10 265.0548
1268.20 266.4328
1268.30 267.8109
1268.40 269.1889
1268.50 270.7591
1268.60 273.0978
1268.70 275.4366
1268.80 277.7753
1268.90 280.114
1269.00 282.4527
1269.10 284.7914
1269.20 287.1301
1269.30 289.4688
1269.40 291.8075
1269.50 294.1462
1269.60 296.4849
1269.70 298.8236
1269.80 298.1812
1269.90 296.7934
1270.00 295.4056
1270.10 294.0178
1270.20 292.63
1270.30 291.2422
1270.40 289.8544
1270.50 288.4666
1270.60 287.0788
1270.70 285.691
1270.80 284.3032
1270.90 282.9154
1271.00 281.7089
1271.10 280.9252
1271.20 280.1415
1271.30 279.3578
1271.40 278.5741
1271.50 277.7904
1271.60 277.0068
1271.70 276.2231
1271.80 275.4394
1271.90 274.6557
1272.00 273.872
1272.10 273.0883
1272.20 272.3046
1272.30 271.978
1272.40 271.7657
1272.50 271.5533
1272.60 271.341
1272.70 271.1287
1272.80 270.9163
1272.90 270.704
1273.00 270.4917
1273.10 270.2793
1273.20 270.067
1273.30 269.8546
1273.40 269.6423
1273.50 269.8442
1273.60 270.6674
1273.70 271.4906
1273.80 272.3138
1273.90 273.1371
1274.00 273.9603
1274.10 274.7835
1274.20 275.6067
1274.30 276.4299
1274.40 277.2531
1274.50 278.0764
1274.60 278.8996
1274.70 279.7228
1274.80 281.2766
1274.90 282.9115
1275.00 284.5465
1275.10 286.1814
1275.20 287.8164
1275.30 289.4513
1275.40 291.0863
1275.50 292.7212
1275.60 294.3561
1275.70 295.9911
1275.80 297.626
1275.90 299.261
1276.00 300.1414
1276.10 300.2674
1276.20 300.3933
1276.30 300.5192
1276.40 300.6452
1276.50 300.7711
1276.60 300.897
1276.70 301.023
1276.80 301.1489
1276.90 301.2748
1277.00 301.4008
1277.10 301.5267
1277.20 301.6526
1277.30 300.2428
1277.40 298.833
1277.50 297.4232
1277.60 296.0134
1277.70 294.6036
1277.80 293.1938
1277.90 291.784
1278.00 290.3742
1278.10 288.9644
1278.20 287.5546
1278.30 286.1448
1278.40 284.735
1278.50 283.5582
1278.60 282.5368
1278.70 281.5154
1278.80 280.4939
1278.90 279.4725
1279.00 278.4511
1279.10 277.4296
1279.20 276.4082
1279.30 275.3868
1279.40 274.3653
1279.50 273.3439
1279.60 272.3225
1279.70 271.3811
1279.80 271.1604
1279.90 270.9396
1280.00 270.7189
1280.10 270.4982
1280.20 270.2774
1280.30 270.0567
1280.40 269.836
1280.50 269.6152
1280.60 269.3945
1280.70 269.1738
1280.80 268.953
1280.90 268.7323
1281.00 269.1926
1281.10 269.9448
1281.20 270.697
1281.30 271.4492
1281.40 272.2014
1281.50 272.9536
1281.60 273.7058
1281.70 274.458
1281.80 275.2102
1281.90 275.9624
1282.00 276.7146
1282.10 277.4668
1282.20 278.0571
1282.30 277.9994
1282.40 277.9418
1282.50 277.8842
1282.60 277.8265
1282.70 277.7689
1282.80 277.7112
1282.90 277.6536
1283.00 277.596
1283.10 277.5383
1283.20 277.4807
1283.30 277.4231
1283.40 277.3654
1283.50 278.5535
1283.60 280.0529
1283.70 281.5524
1283.80 283.0519
1283.90 284.5513
1284.00 286.0508
1284.10 287.5503
1284.20 289.0497
1284.30 290.5492
1284.40 292.0487
1284.50 293.5481
1284.60 295.0476
1284.70 296.2194
1284.80 296.6267
1284.90 297.034
1285.00 297.4413
1285.10 297.8487
1285.20 298.256
1285.30 298.6633
1285.40 299.0706
1285.50 299.4779
1285.60 299.8852
1285.70 300.2925
1285.80 300.6999
1285.90 301.1072
1286.00 299.8324
1286.10 298.3708
1286.20 296.9092
1286.30 295.4475
1286.40 293.9859
1286.50 292.5243
1286.60 291.0627
1286.70 289.601
1286.80 288.1394
1286.90 286.6778
1287.00 285.2161
1287.10 283.7545
1287.20 282.8478
1287.30 282.7733
1287.40 282.6989
1287.50 282.6245
1287.60 282.55
1287.70 282.4756
1287.80 282.4012
1287.90 282.3267
1288.00 282.2523
1288.10 282.1779
1288.20 282.1034
1288.30 282.029
1288.40 281.9546
1288.50 282.9329
1288.60 283.9113
1288.70 284.8897
1288.80 285.8681
1288.90 286.8464
1289.00 287.8248
1289.10 288.8032
1289.20 289.7816
1289.30 290.7599
1289.40 291.7383
1289.50 292.7167
1289.60 293.695
1289.70 293.5755
1289.80 292.3581
1289.90 291.1408
1290.00 289.9234
1290.10 288.706
1290.20 287.4886
1290.30 286.2712
1290.40 285.0538
1290.50 283.8364
1290.60 282.619
1290.70 281.4017
1290.80 280.1843
1290.90 278.9444
1291.00 277.5016
1291.10 276.0589
1291.20 274.6162
1291.30 273.1735
1291.40 271.7308
1291.50 270.2881
1291.60 268.8454
1291.70 267.4027
1291.80 265.9599
1291.90 264.5172
1292.00 263.0745
1292.10 261.6318
1292.20 261.2194
1292.30 261.494
1292.40 261.7685
1292.50 262.043
1292.60 262.3176
1292.70 262.5921
1292.80 262.8666
1292.90 263.1412
1293.00 263.4157
1293.10 263.6902
1293.20 263.9648
1293.30 264.2393
1293.40 264.5209
1293.50 264.8308
1293.60 265.1407
1293.70 265.4506
1293.80 265.7604
1293.90 266.0703
1294.00 266.3802
1294.10 266.6901
1294.20 267
1294.30 267.3099
1294.40 267.6198
1294.50 267.9297
1294.60 268.2396
1294.70 268.4579
1294.80 268.6369
1294.90 268.8159
1295.00 268.995
1295.10 269.174
1295.20 269.353
1295.30 269.5321
1295.40 269.7111
1295.50 269.8901
1295.60 270.0692
1295.70 270.2482
1295.80 270.4272
1295.90 270.206
1296.00 269.0507
1296.10 267.8954
1296.20 266.7402
1296.30 265.5849
1296.40 264.4296
1296.50 263.2744
1296.60 262.1191
1296.70 260.9638
1296.80 259.8086
1296.90 258.6533
1297.00 257.498
1297.10 256.3427
1297.20 255.2849
1297.30 254.2514
1297.40 253.2179
1297.50 252.1843
1297.60 251.1508
1297.70 250.1173
1297.80 249.0838
1297.90 248.0503
1298.00 247.0168
1298.10 245.9833
1298.20 244.9498
1298.30 243.9162
1298.40 243.4772
1298.50 243.93
1298.60 244.3828
1298.70 244.8355
1298.80 245.2883
1298.90 245.741
1299.00 246.1938
1299.10 246.6466
1299.20 247.0993
1299.30 247.5521
1299.40 248.0049
1299.50 248.4576
1299.60 248.9104
1299.70 250.5396
1299.80 252.2995
1299.90 254.0594
1300.00 255.8193
1300.10 257.5792
1300.20 259.3391
1300.30 261.099
1300.40 262.8589
1300.50 264.6188
1300.60 266.3787
1300.70 268.1386
1300.80 269.8985
1300.90 272.5103
1301.00 275.974
1301.10 279.4377
1301.20 282.9014
1301.30 286.3651
1301.40 289.8288
1301.50 293.2925
1301.60 296.7562
1301.70 300.2199
1301.80 303.6836
1301.90 307.1472
1302.00 310.6109
1302.10 314.0746
1302.20 313.9449
1302.30 313.8151
1302.40 313.6854
1302.50 313.5557
1302.60 313.4259
1302.70 313.2962
1302.80 313.1664
1302.90 313.0367
1303.00 312.9069
1303.10 312.7772
1303.20 312.6475
1303.30 312.5177
1303.40 312.0792
1303.50 311.3319
1303.60 310.5846
1303.70 309.8372
1303.80 309.0899
1303.90 308.3426
1304.00 307.5953
1304.10 306.848
1304.20 306.1007
1304.30 305.3534
1304.40 304.6061
1304.50 303.8588
1304.60 303.0554
1304.70 301.748
1304.80 300.4405
1304.90 299.133
1305.00 297.8256
1305.10 296.5181
1305.20 295.2107
1305.30 293.9032
1305.40 292.5957
1305.50 291.2883
1305.60 289.9808
1305.70 288.6733
1305.80 287.3659
1305.90 286.555
1306.00 286.0751
1306.10 285.5952
1306.20 285.1153
1306.30 284.6354
1306.40 284.1555
1306.50 283.6756
1306.60 283.1957
1306.70 282.7158
1306.80 282.2359
1306.90 281.756
1307.00 281.2761
1307.10 281.0576
1307.20 281.8848
1307.30 282.712
1307.40 283.5391
1307.50 284.3663
1307.60 285.1935
1307.70 286.0206
1307.80 286.8478
1307.90 287.675
1308.00 288.5022
1308.10 289.3293
1308.20 290.1565
1308.30 290.9837
1308.40 291.5208
1308.50 291.9337
1308.60 292.3465
1308.70 292.7594
1308.80 293.1723
1308.90 293.5851
1309.00 293.998
1309.10 294.4109
1309.20 294.8237
1309.30 295.2366
1309.40 295.6495
1309.50 296.0623
1309.60 296.3377
1309.70 296.2924
1309.80 296.2471
1309.90 296.2018
1310.00 296.1565
1310.10 296.1111
1310.20 296.0658
1310.30 296.0205
1310.40 295.9752
1310.50 295.9299
1310.60 295.8845
1310.70 295.8392
1310.80 295.7939
1310.90 294.5499
1311.00 293.0061
1311.10 291.4624
1311.20 289.9187
1311.30 288.375
1311.40 286.8313
1311.50 285.2875
1311.60 283.7438
1311.70 282.2001
1311.80 280.6564
1311.90 279.1126
1312.00 277.5689
1312.10 276.094
1312.20 274.7221
1312.30 273.3503
1312.40 271.9784
1312.50 270.6066
1312.60 269.2348
1312.70 267.8629
1312.80 266.4911
1312.90 265.1192
1313.00 263.7474
1313.10 262.3756
1313.20 261.0037
1313.30 259.6319
1313.40 261.1292
1313.50 262.9453
1313.60 264.7614
1313.70 266.5776
1313.80 268.3937
1313.90 270.2098
1314.00 272.0259
1314.10 273.842
1314.20 275.6582
1314.30 277.4743
1314.40 279.2904
1314.50 281.1065
1314.60 282.4223
1314.70 283.2377
1314.80 284.0532
1314.90 284.8687
1315.00 285.6841
1315.10 286.4996
1315.20 287.315
1315.30 288.1305
1315.40 288.9459
1315.50 289.7614
1315.60 290.5768
1315.70 291.3923
1315.80 292.2077
1315.90 291.9538
1316.00 291.6999
1316.10 291.446
1316.20 291.1921
1316.30 290.9382
1316.40 290.6843
1316.50 290.4305
1316.60 290.1766
1316.70 289.9227
1316.80 289.6688
1316.90 289.4149
1317.00 289.161
1317.10 288.4141
1317.20 287.3386
1317.30 286.2631
1317.40 285.1876
1317.50 284.1121
1317.60 283.0366
1317.70 281.9611
1317.80 280.8856
1317.90 279.8101
1318.00 278.7346
1318.10 277.6591
1318.20 276.5836
1318.30 275.5703
1318.40 275.1176
1318.50 274.6649
1318.60 274.2122
1318.70 273.7595
1318.80 273.3068
1318.90 272.8541
1319.00 272.4014
1319.10 271.9486
1319.20 271.4959
1319.30 271.0432
1319.40 270.5905
1319.50 270.1378
1319.60 270.1547
1319.70 270.3728
1319.80 270.5909
1319.90 270.809
1320.00 271.0271
1320.10 271.2453
1320.20 271.4634
1320.30 271.6815
1320.40 271.8996
1320.50 272.1178
1320.60 272.3359
1320.70 272.554
1320.80 272.7706
1320.90 272.9811
1321.00 273.1916
1321.10 273.4021
1321.20 273.6125
1321.30 273.823
1321.40 274.0335
1321.50 274.244
1321.60 274.4545
1321.70 274.665
1321.80 274.8755
1321.90 275.086
1322.00 275.2965
1322.10 275.7815
1322.20 276.3352
1322.30 276.8889
1322.40 277.4426
1322.50 277.9963
1322.60 278.55
1322.70 279.1037
1322.80 279.6575
1322.90 280.2112
1323.00 280.7649
1323.10 281.3186
1323.20 281.8723
1323.30 281.962
1323.40 280.969
1323.50 279.9761
1323.60 278.9831
1323.70 277.9901
1323.80 276.9972
1323.90 276.0042
1324.00 275.0112
1324.10 274.0183
1324.20 273.0253
1324.30 272.0324
1324.40 271.0394
1324.50 270.0464
1324.60 269.0535
1324.70 263.7597
1324.80 257.3907
1324.90 251.0217
1325.00 244.6528
1325.10 238.2838
1325.20 231.9148
1325.30 233.7676
1325.40 239.1441
1325.50 244.5206
1325.60 249.8971
1325.70 255.2736
1325.80 260.6501
1325.90 264.3407
1326.00 266.3453
1326.10 268.35
1326.20 270.3547
1326.30 272.3594
1326.40 274.3641
1326.50 275.7006
1326.60 275.4782
1326.70 275.2557
1326.80 275.0332
1326.90 274.8107
1327.00 274.5883
1327.10 274.5768
1327.20 275.4094
1327.30 276.2419
1327.40 277.0745
1327.50 277.907
1327.60 278.7396
1327.70 279.5722
1327.80 278.2249
1327.90 276.8776
1328.00 275.5303
1328.10 274.183
1328.20 272.8358
1328.30 271.4885
1328.40 270.181
1328.50 268.8779
1328.60 267.5749
1328.70 266.2718
1328.80 264.9688
1328.90 263.6657
1329.00 259.8641
1329.10 254.9917
1329.20 250.1193
1329.30 245.2469
1329.40 240.3745
1329.50 235.5021
1329.60 234.7732
1329.70 238.1879
1329.80 241.6025
1329.90 245.0171
1330.00 248.4318
1330.10 251.8464
1330.20 255.2191
1330.30 258.5288
1330.40 261.8386
1330.50 265.1483
1330.60 268.458
1330.70 271.7678
1330.80 273.1243
1330.90 266.668
1331.00 260.2116
1331.10 253.7553
1331.20 247.2989
1331.30 240.8426
1331.40 234.81
1331.50 232.5912
1331.60 230.3725
1331.70 228.1538
1331.80 225.935
1331.90 223.7163
1332.00 221.4976
1332.10 219.3329
1332.20 217.1742
1332.30 215.0155
1332.40 212.8568
1332.50 210.6982
1332.60 208.5395
1332.70 201.3691
1332.80 192.0507
1332.90 182.7324
1333.00 173.4141
1333.10 164.0957
1333.20 154.7774
1333.30 152.7309
1333.40 155.5322
1333.50 158.3336
1333.60 161.135
1333.70 163.9363
1333.80 166.7377
1333.90 170.5642
1334.00 175.9283
1334.10 181.2925
1334.20 186.6567
1334.30 192.0209
1334.40 197.3851
1334.50 198.9258
1334.60 191.5452
1334.70 184.1647
1334.80 176.7841
1334.90 169.4035
1335.00 162.0229
1335.10 155.9935
1335.20 162.1242
1335.30 168.255
1335.40 174.3857
1335.50 180.5164
1335.60 186.6472
1335.70 192.7779
1335.80 190.3078
1335.90 186.882
1336.00 183.4563
1336.10 180.0305
1336.20 176.6047
1336.30 173.179
1336.40 167.2289
1336.50 160.6477
1336.60 154.0666
1336.70 147.4854
1336.80 140.9043
1336.90 134.3231
1337.00 130.1816
1337.10 127.6665
1337.20 125.1514
1337.30 122.6363
1337.40 120.1212
1337.50 117.6061
1337.60 113.5954
1337.70 108.0893
1337.80 102.5831
1337.90 97.07687
1338.00 91.57067
1338.10 86.06448
1338.20 82.67429
1338.30 84.22142
1338.40 85.76856
1338.50 87.3157
1338.60 88.86284
1338.70 90.40998
1338.80 92.85337
1338.90 103.3631
1339.00 113.8728
1339.10 124.3826
1339.20 134.8923
1339.30 145.402
1339.40 155.9118
1339.50 157.6149
1339.60 159.3181
1339.70 161.0213
1339.80 162.7245
1339.90 164.4276
1340.00 166.1308
1340.10 162.601
1340.20 157.763
1340.30 152.925
1340.40 148.087
1340.50 143.2489
1340.60 138.4109
1340.70 134.5668
1340.80 131.1487
1340.90 127.7305
1341.00 124.3124
1341.10 120.8943
1341.20 117.4761
1341.30 117.0745
1341.40 119.6893
1341.50 122.3042
1341.60 124.919
1341.70 127.5338
1341.80 130.1487
1341.90 131.9315
1342.00 131.773
1342.10 131.6145
1342.20 131.4561
1342.30 131.2976
1342.40 131.1391
1342.50 130.3606
1342.60 127.1022
1342.70 123.8438
1342.80 120.5854
1342.90 117.3269
1343.00 114.0685
1343.10 110.8101
1343.20 110.649
1343.30 110.4879
1343.40 110.3267
1343.50 110.1656
1343.60 110.0045
1343.70 109.8434
1343.80 113.2838
1343.90 117.1244
1344.00 120.9649
1344.10 124.8055
1344.20 128.6461
1344.30 132.4866
1344.40 130.0337
1344.50 124.8837
1344.60 119.7336
1344.70 114.5836
1344.80 109.4335
1344.90 104.2835
1345.00 99.14488
1345.10 94.01778
1345.20 88.89069
1345.30 83.76359
1345.40 78.63649
1345.50 73.5094
1345.60 70.81847
1345.70 71.78179
1345.80 72.74511
1345.90 73.70843
1346.00 74.67175
1346.10 75.63508
1346.20 78.41112
1346.30 88.43803
1346.40 98.46495
1346.50 108.4919
1346.60 118.5188
1346.70 128.5457
1346.80 137.293
1346.90 134.5243
1347.00 131.7555
1347.10 128.9867
1347.20 126.218
1347.30 123.4492
1347.40 120.6804
1347.50 116.3673
1347.60 111.8825
1347.70 107.3978
1347.80 102.913
1347.90 98.4283
1348.00 93.94355
1348.10 94.49284
1348.20 97.19958
1348.30 99.90631
1348.40 102.6131
1348.50 105.3198
1348.60 108.0265
1348.70 109.1164
1348.80 109.1284
1348.90 109.1404
1349.00 109.1524
1349.10 109.1644
1349.20 109.1764
1349.30 109.1885
1349.40 109.2005
1349.50 109.2125
1349.60 109.2245
1349.70 109.2365
1349.80 109.2485
1349.90 109.2605
1350.00 109.2725
1350.10 109.2845
1350.20 109.2965
1350.30 109.3085
1350.40 109.3205
1350.50 109.3325
1350.60 109.3445
1350.70 109.3565
1350.80 109.3685
1350.90 109.3805
1351.00 109.3925
1351.10 109.4045
1351.20 109.4165
1351.30 109.4285
1351.40 109.4405
1351.50 109.4525
1351.60 109.4646
1351.70 109.4766
1351.80 109.4886
1351.90 109.5006
1352.00 109.5126
1352.10 109.5246
1352.20 109.5366
1352.30 109.5486
1352.40 109.5606
1352.50 109.5726
1352.60 109.5846
1352.70 109.5966
1352.80 109.6086
1352.90 109.6206
1353.00 109.6326
1353.10 109.6446
1353.20 109.6566
1353.30 109.6686
1353.40 109.6806
1353.50 109.6926
1353.60 109.7046
1353.70 109.7166
1353.80 109.7286
1353.90 109.7407
1354.00 109.7527
1354.10 109.7647
1354.20 109.7767
1354.30 109.7887
1354.40 109.8007
1354.50 109.8127
1354.60 109.8247
1354.70 109.8367
1354.80 109.8487
1354.90 109.8607
1355.00 109.8727
1355.10 109.8847
1355.20 109.8967
1355.30 109.9087
1355.40 109.9207
1355.50 109.9327
1355.60 109.9447
1355.70 109.9567
1355.80 109.9687
1355.90 109.9807
1356.00 109.9927
1356.10 110.0047
1356.20 110.0168
1356.30 110.0288
1356.40 110.0408
1356.50 110.0528
1356.60 110.0648
1356.70 110.0768
1356.80 110.0888
1356.90 110.1008
1357.00 110.1128
1357.10 110.1248
1357.20 110.1368
1357.30 110.1488
1357.40 110.1608
1357.50 110.1728
1357.60 110.1848
1357.70 110.1968
1357.80 110.2088
1357.90 110.2208
1358.00 110.2328
1358.10 110.2448
1358.20 110.2568
1358.30 110.2688
1358.40 110.2809
1358.50 110.2929
1358.60 110.3049
1358.70 110.3169
1358.80 110.3289
1358.90 110.3409
1359.00 110.3529
1359.10 110.3649
1359.20 110.3769
1359.30 110.3889
1359.40 110.4009
1359.50 110.4129
1359.60 110.4249
1359.70 110.4369
1359.80 110.4489
1359.90 110.4609
1360.00 110.4729
1360.10 110.4849
1360.20 110.4969
1360.30 110.5089
1360.40 110.5209
1360.50 110.5329
1360.60 110.5449
1360.70 110.557
1360.80 110.569
1360.90 110.581
1361.00 110.593
1361.10 110.605
1361.20 110.617
1361.30 110.629
1361.40 110.641
1361.50 110.653
1361.60 110.665
1361.70 110.677
1361.80 110.689
1361.90 110.701
1362.00 110.713
1362.10 110.725
1362.20 110.737
1362.30 110.749
1362.40 110.761
1362.50 110.773
1362.60 110.785
1362.70 110.797
1362.80 110.809
1362.90 110.821
1363.00 110.8331
1363.10 110.8451
1363.20 110.8571
1363.30 110.8691
1363.40 110.8811
1363.50 110.8931
1363.60 110.9051
1363.70 110.9171
1363.80 110.9291
1363.90 110.9411
1364.00 110.9531
1364.10 110.9651
1364.20 110.9771
1364.30 110.9891
1364.40 111.0011
1364.50 111.0131
1364.60 111.0251
1364.70 111.0371
1364.80 111.0491
1364.90 111.0611
1365.00 111.0731
1365.10 111.0851
1365.20 111.0971
1365.30 111.1092
1365.40 111.1212
1365.50 111.1332
1365.60 111.1452
1365.70 111.1572
1365.80 111.1692
1365.90 111.1812
1366.00 111.1932
1366.10 111.2052
1366.20 111.2172
1366.30 111.2292
1366.40 111.2412
1366.50 111.2532
1366.60 111.2652
1366.70 111.2772
1366.80 111.2892
1366.90 111.3012
1367.00 111.3132
1367.10 111.3252
1367.20 111.3372
1367.30 111.3492
1367.40 111.3612
1367.50 111.3732
1367.60 111.3853
1367.70 111.3973
1367.80 111.4093
1367.90 111.4213
1368.00 111.4333
1368.10 111.4453
1368.20 111.4573
1368.30 111.4693
1368.40 111.4813
1368.50 111.4933
1368.60 111.5053
1368.70 111.5173
1368.80 111.5293
1368.90 111.5413
1369.00 111.5533
1369.10 111.5653
1369.20 111.5773
1369.30 111.5893
1369.40 111.6013
1369.50 111.6133
1369.60 111.6253
1369.70 111.6373
1369.80 111.6494
1369.90 111.6614
1370.00 111.6734
1370.10 111.6854
1370.20 111.6974
1370.30 111.7094
1370.40 111.7214
1370.50 111.7334
1370.60 111.7454
1370.70 111.7574
1370.80 111.7694
1370.90 111.7814
1371.00 111.7934
1371.10 111.8054
1371.20 111.8174
1371.30 111.8294
1371.40 111.8414
1371.50 111.8534
1371.60 111.8654
1371.70 111.8774
1371.80 111.8894
1371.90 111.9014
1372.00 111.9134
1372.10 111.9255
1372.20 111.9375
1372.30 111.9495
1372.40 111.9615
1372.50 111.9735
1372.60 111.9855
1372.70 111.9975
1372.80 112.0095
1372.90 112.0215
1373.00 112.0335
1373.10 112.0455
1373.20 112.0575
1373.30 112.0695
1373.40 112.0815
1373.50 112.0935
1373.60 112.1055
1373.70 112.1175
1373.80 112.1295
1373.90 112.1415
1374.00 112.1535
1374.10 112.1655
1374.20 112.1775
1374.30 112.1895
1374.40 112.2016
1374.50 112.2136
1374.60 112.2256
1374.70 112.2376
1374.80 112.2496
1374.90 112.2616
1375.00 112.2736
1375.10 112.2856
1375.20 112.2976
1375.30 112.3096
1375.40 112.3216
1375.50 112.3336
1375.60 112.3456
1375.70 112.3576
1375.80 112.3696
1375.90 112.3816
1376.00 112.3936
1376.10 112.4056
1376.20 112.4176
1376.30 112.4296
1376.40 112.4416
1376.50 112.4536
1376.60 112.4656
1376.70 112.4777
1376.80 112.4897
1376.90 112.5017
1377.00 112.5137
1377.10 112.5257
1377.20 112.5377
1377.30 112.5497
1377.40 112.5617
1377.50 112.5737
1377.60 112.5857
1377.70 112.5977
1377.80 112.6097
1377.90 112.6217
1378.00 112.6337
1378.10 112.6457
1378.20 112.6577
1378.30 112.6697
1378.40 112.6817
1378.50 112.6937
1378.60 112.7057
1378.70 112.7177
1378.80 112.7297
1378.90 112.7417
1379.00 112.7538
1379.10 112.7658
1379.20 112.7778
1379.30 112.7898
1379.40 112.8018
1379.50 112.8138
1379.60 112.8258
1379.70 112.8378
1379.80 112.8498
1379.90 112.8618
1380.00 112.8738
1380.10 112.8858
1380.20 112.8978
1380.30 112.9098
1380.40 112.9218
1380.50 112.9338
1380.60 112.9458
1380.70 112.9578
1380.80 112.9698
1380.90 112.9818
1381.00 112.9938
1381.10 113.0058
1381.20 113.0178
1381.30 113.0299
1381.40 113.0419
1381.50 113.0539
1381.60 113.0659
1381.70 113.0779
1381.80 113.0899
1381.90 113.1019
1382.00 113.1139
1382.10 113.1259
1382.20 113.1379
1382.30 113.1499
1382.40 113.1619
1382.50 113.1739
1382.60 113.1859
1382.70 113.1979
1382.80 113.2099
1382.90 113.2219
1383.00 113.2339
1383.10 113.2459
1383.20 113.2579
1383.30 113.2699
1383.40 113.2819
1383.50 113.294
1383.60 113.306
1383.70 113.318
1383.80 113.33
1383.90 113.342
1384.00 113.354
1384.10 113.366
1384.20 113.378
1384.30 113.39
1384.40 113.402
1384.50 113.414
1384.60 113.426
1384.70 113.438
1384.80 113.45
1384.90 113.462
1385.00 113.474
1385.10 113.486
1385.20 113.498
1385.30 113.51
1385.40 113.522
1385.50 113.534
1385.60 113.546
1385.70 113.558
1385.80 113.5701
1385.90 113.5821
1386.00 113.5941
1386.10 113.6061
1386.20 113.6181
1386.30 113.6301
1386.40 113.6421
1386.50 113.6541
1386.60 113.6661
1386.70 113.6781
1386.80 113.6901
1386.90 113.7021
1387.00 113.7141
1387.10 113.7261
1387.20 113.7381
1387.30 113.7501
1387.40 113.7621
1387.50 113.7741
1387.60 113.7861
1387.70 113.7981
1387.80 113.8101
1387.90 113.8221
1388.00 113.8341
1388.10 113.8462
1388.20 113.8582
1388.30 113.8702
1388.40 113.8822
1388.50 113.8942
1388.60 113.9062
1388.70 113.9182
1388.80 113.9302
1388.90 113.9422
1389.00 113.9542
1389.10 113.9662
1389.20 113.9782
1389.30 113.9902
1389.40 114.0022
1389.50 114.0142
1389.60 114.0262
1389.70 114.0382
1389.80 114.0502
1389.90 114.0622
1390.00 114.0742
1390.10 114.0862
1390.20 114.0982
1390.30 114.1102
1390.40 114.1223
1390.50 114.1343
1390.60 114.1463
1390.70 114.1583
1390.80 114.1703
1390.90 114.1823
1391.00 114.1943
1391.10 114.2063
1391.20 114.2183
1391.30 114.2303
1391.40 114.2423
1391.50 114.2543
1391.60 114.2663
1391.70 114.2783
1391.80 114.2903
1391.90 114.3023
1392.00 114.3143
1392.10 114.3263
1392.20 114.3383
1392.30 114.3503
1392.40 114.3623
1392.50 114.3743
1392.60 114.3863
1392.70 114.3984
1392.80 114.4104
1392.90 114.4224
1393.00 114.4344
1393.10 114.4464
1393.20 114.4584
1393.30 114.4704
1393.40 114.4824
1393.50 114.4944
1393.60 114.5064
1393.70 114.5184
1393.80 114.5304
1393.90 114.5424
1394.00 114.5544
1394.10 114.5664
1394.20 114.5784
1394.30 114.5904
1394.40 114.6024
1394.50 114.6144
1394.60 114.6264
1394.70 114.6384
1394.80 114.6504
1394.90 114.6625
1395.00 114.6745
1395.10 114.6865
1395.20 114.6985
1395.30 114.7105
1395.40 114.7225
1395.50 114.7345
1395.60 114.7465
1395.70 114.7585
1395.80 114.7705
1395.90 114.7825
1396.00 114.7945
1396.10 114.8065
1396.20 114.8185
1396.30 114.8305
1396.40 114.8425
1396.50 114.8545
1396.60 114.8665
1396.70 114.8785
1396.80 114.8905
1396.90 114.9025
1397.00 114.9145
1397.10 114.9265
1397.20 114.9386
1397.30 114.9506
1397.40 114.9626
1397.50 114.9746
1397.60 114.9866
1397.70 114.9986
1397.80 115.0106
1397.90 115.0226
1398.00 115.0346
1398.10 115.0466
1398.20 115.0586
1398.30 115.0706
1398.40 115.0826
1398.50 115.0946
1398.60 115.1066
1398.70 115.1186
1398.80 115.1306
1398.90 115.1426
1399.00 115.1546
1399.10 115.1666
1399.20 115.1786
1399.30 115.1906
1399.40 115.2026
1399.50 115.2147
1399.60 115.2267
1399.70 115.2387
1399.80 115.2507
1399.90 115.2627
