# Version 2.1 - nm, norm@500 to 1, cut digits
# Wavelength(nm)  Flambda(ergs/cm^s/s/nm)
300.00 0.01116198
300.10 0.01483705
300.20 0.01707494
300.30 0.01800002
300.40 0.01824194
300.50 0.01831258
300.60 0.01838322
300.70 0.01845459
300.80 0.0185296
300.90 0.01861387
301.00 0.01871356
301.10 0.01883142
301.20 0.01896469
301.30 0.01910722
301.40 0.0192534
301.50 0.01940031
301.60 0.01954721
301.70 0.01969412
301.80 0.01984103
301.90 0.01998794
302.00 0.02013485
302.10 0.02028175
302.20 0.02042866
302.30 0.02057557
302.40 0.02072248
302.50 0.02086939
302.60 0.02101629
302.70 0.02116376
302.80 0.02131399
302.90 0.02147125
303.00 0.02164022
303.10 0.02182297
303.20 0.02201744
303.30 0.02221893
303.40 0.02242319
303.50 0.02262801
303.60 0.02283282
303.70 0.02303764
303.80 0.02324246
303.90 0.02344727
304.00 0.02365209
304.10 0.02385691
304.20 0.02406172
304.30 0.02426654
304.40 0.02447136
304.50 0.02467617
304.60 0.02488099
304.70 0.02508411
304.80 0.02527876
304.90 0.02545192
305.00 0.02558926
305.10 0.02568444
305.20 0.0257438
305.30 0.02578166
305.40 0.02581106
305.50 0.02583876
305.60 0.02586646
305.70 0.02589416
305.80 0.02592186
305.90 0.02594956
306.00 0.02597727
306.10 0.02600497
306.20 0.02603267
306.30 0.02606037
306.40 0.02608807
306.50 0.02611577
306.60 0.02614347
306.70 0.02617118
306.80 0.0261989
306.90 0.02622667
307.00 0.02625452
307.10 0.02628246
307.20 0.02631047
307.30 0.02633854
307.40 0.02636662
307.50 0.0263947
307.60 0.02642279
307.70 0.02645088
307.80 0.02647896
307.90 0.02650705
308.00 0.02653513
308.10 0.02656322
308.20 0.0265913
308.30 0.02661939
308.40 0.02664748
308.50 0.02667556
308.60 0.02670365
308.70 0.02673598
308.80 0.0267895
308.90 0.02689682
309.00 0.02709377
309.10 0.02739627
309.20 0.02778839
309.30 0.02823432
309.40 0.02870143
309.50 0.02917279
309.60 0.02964416
309.70 0.03011552
309.80 0.03058688
309.90 0.03105824
310.00 0.0315296
310.10 0.03200096
310.20 0.03247232
310.30 0.03294368
310.40 0.03341504
310.50 0.0338864
310.60 0.03435776
310.70 0.03482486
310.80 0.03527065
310.90 0.03566236
311.00 0.03596396
311.10 0.03615947
311.20 0.03626487
311.30 0.03631619
311.40 0.03634621
311.50 0.03637196
311.60 0.03639771
311.70 0.03642346
311.80 0.03644921
311.90 0.03647496
312.00 0.03650071
312.10 0.03652646
312.20 0.03655221
312.30 0.03657796
312.40 0.03660371
312.50 0.03662946
312.60 0.03665522
312.70 0.03668624
312.80 0.03674356
312.90 0.03686769
313.00 0.0371031
313.10 0.03746955
313.20 0.03794727
313.30 0.0384918
313.40 0.03906263
313.50 0.03963874
313.60 0.04021484
313.70 0.04079094
313.80 0.04136705
313.90 0.04194315
314.00 0.04251925
314.10 0.04309536
314.20 0.04367146
314.30 0.04424757
314.40 0.04482367
314.50 0.04539977
314.60 0.04597588
314.70 0.04655565
314.80 0.04715373
314.90 0.04779832
315.00 0.04852037
315.10 0.04933363
315.20 0.05022435
315.30 0.05116157
315.40 0.0521171
315.50 0.05307631
315.60 0.05403551
315.70 0.05499471
315.80 0.05595391
315.90 0.05691312
316.00 0.05787232
316.10 0.05883152
316.20 0.05979072
316.30 0.06074993
316.40 0.06170913
316.50 0.06266833
316.60 0.06362753
316.70 0.06457325
316.80 0.06545165
316.90 0.06615913
317.00 0.06658188
317.10 0.06666933
317.20 0.06647206
317.30 0.06610385
317.40 0.06566834
317.50 0.06521934
317.60 0.06477034
317.70 0.06432133
317.80 0.06387233
317.90 0.06342333
318.00 0.06297433
318.10 0.06252533
318.20 0.06207633
318.30 0.06162733
318.40 0.06117832
318.50 0.06072932
318.60 0.06028032
318.70 0.05984164
318.80 0.05945449
318.90 0.05919818
319.00 0.05915984
319.10 0.05937815
319.20 0.05981442
319.30 0.06038153
319.40 0.06100017
319.50 0.06162913
319.60 0.0622581
319.70 0.06288706
319.80 0.06351603
319.90 0.06414499
320.00 0.06477395
320.10 0.06540292
320.20 0.06603188
320.30 0.06666084
320.40 0.06728981
320.50 0.06791877
320.60 0.06854773
320.70 0.06917288
320.80 0.06977897
320.90 0.07033667
321.00 0.07081375
321.10 0.07119591
321.20 0.07149745
321.30 0.07175061
321.40 0.0719847
321.50 0.07221498
321.60 0.07244526
321.70 0.07267553
321.80 0.07290581
321.90 0.07313609
322.00 0.07336637
322.10 0.07359665
322.20 0.07382692
322.30 0.0740572
322.40 0.07428748
322.50 0.07451776
322.60 0.07474804
322.70 0.07499226
322.80 0.07530609
322.90 0.07579668
323.00 0.07658173
323.10 0.0777135
323.20 0.07913973
323.30 0.08074271
323.40 0.08241531
323.50 0.08410185
323.60 0.08578839
323.70 0.08747493
323.80 0.08916147
323.90 0.09084801
324.00 0.09253455
324.10 0.09422109
324.20 0.09590763
324.30 0.09759417
324.40 0.09928071
324.50 0.1009672
324.60 0.1026538
324.70 0.1043381
324.80 0.106011
324.90 0.1076553
325.00 0.1092517
325.10 0.1107918
325.20 0.1122841
325.30 0.1137476
325.40 0.1151999
325.50 0.1166499
325.60 0.1180998
325.70 0.1195498
325.80 0.1209998
325.90 0.1224498
326.00 0.1238998
326.10 0.1253498
326.20 0.1267998
326.30 0.1282497
326.40 0.1296997
326.50 0.1311497
326.60 0.1325997
326.70 0.1340546
326.80 0.1355338
326.90 0.1370749
327.00 0.1387191
327.10 0.1404847
327.20 0.1423534
327.30 0.144284
327.40 0.146239
327.50 0.1481988
327.60 0.1501587
327.70 0.1521185
327.80 0.1540783
327.90 0.1560382
328.00 0.157998
328.10 0.1599578
328.20 0.1619177
328.30 0.1638775
328.40 0.1658374
328.50 0.1677972
328.60 0.169757
328.70 0.1716882
328.80 0.1734764
328.90 0.1749015
329.00 0.1757217
329.10 0.1758297
329.20 0.1753328
329.30 0.1744727
329.40 0.1734697
329.50 0.1724381
329.60 0.1714064
329.70 0.1703747
329.80 0.1693431
329.90 0.1683114
330.00 0.1672797
330.10 0.1662481
330.20 0.1652164
330.30 0.1641847
330.40 0.1631531
330.50 0.1621214
330.60 0.1610897
330.70 0.1600793
330.80 0.159175
330.90 0.15854
331.00 0.1583537
331.10 0.1586958
331.20 0.1594866
331.30 0.1605467
331.40 0.1617129
331.50 0.1629004
331.60 0.1640878
331.70 0.1652753
331.80 0.1664627
331.90 0.1676502
332.00 0.1688376
332.10 0.1700251
332.20 0.1712125
332.30 0.1724
332.40 0.1735874
332.50 0.1747749
332.60 0.1759624
332.70 0.1771364
332.80 0.1782432
332.90 0.1791795
333.00 0.1798317
333.10 0.1801494
333.20 0.180183
333.30 0.180046
333.40 0.1798419
333.50 0.1796243
333.60 0.1794068
333.70 0.1791892
333.80 0.1789716
333.90 0.1787541
334.00 0.1785365
334.10 0.1783189
334.20 0.1781014
334.30 0.1778838
334.40 0.1776662
334.50 0.1774487
334.60 0.1774122
334.70 0.1779666
334.80 0.1792696
334.90 0.1805933
335.00 0.1805516
335.10 0.1787665
335.20 0.1774197
335.30 0.1805893
335.40 0.1911099
335.50 0.2073714
335.60 0.2231476
335.70 0.2312175
335.80 0.2280223
335.90 0.2154288
336.00 0.1987374
336.10 0.1834053
336.20 0.1732386
336.30 0.1698324
336.40 0.1718947
336.50 0.1754055
336.60 0.1760263
336.70 0.1726991
336.80 0.1689937
336.90 0.1703074
337.00 0.1792413
337.10 0.1930637
337.20 0.2052738
337.30 0.2100686
337.40 0.2064169
337.50 0.1987028
337.60 0.1933732
337.70 0.1941553
337.80 0.1998683
337.90 0.2065874
338.00 0.211312
338.10 0.2132163
338.20 0.2118654
338.30 0.2058331
338.40 0.1946342
338.50 0.1815782
338.60 0.1732565
338.70 0.1748061
338.80 0.1851156
338.90 0.19718
339.00 0.2037297
339.10 0.2031831
339.20 0.2006214
339.30 0.2027912
339.40 0.2118922
339.50 0.2241515
339.60 0.2339039
339.70 0.2383514
339.80 0.2382788
339.90 0.235248
340.00 0.2298807
340.10 0.2228195
340.20 0.2155491
340.30 0.2091971
340.40 0.2030043
340.50 0.1951202
340.60 0.1850991
340.70 0.1749311
340.80 0.1674655
340.90 0.1643228
341.00 0.1653947
341.10 0.1696917
341.20 0.1760735
341.30 0.1832006
341.40 0.1894945
341.50 0.1937485
341.60 0.1958436
341.70 0.196801
341.80 0.1980059
341.90 0.200184
342.00 0.2027581
342.10 0.203961
342.20 0.2019109
342.30 0.1961937
342.40 0.1887149
342.50 0.1827349
342.60 0.1806779
342.70 0.1826209
342.80 0.1866089
342.90 0.1901988
343.00 0.191962
343.10 0.1921262
343.20 0.1920436
343.30 0.1928762
343.40 0.1945828
343.50 0.1961593
343.60 0.196701
343.70 0.1959596
343.80 0.1941275
343.90 0.1916583
344.00 0.1893807
344.10 0.1882532
344.20 0.1885261
344.30 0.1893189
344.40 0.1893933
344.50 0.1883386
344.60 0.1869045
344.70 0.1863446
344.80 0.1876169
344.90 0.1910599
345.00 0.1964941
345.10 0.2033581
345.20 0.2107372
345.30 0.2173653
345.40 0.2218275
345.50 0.2232418
345.60 0.2219956
345.70 0.2196811
345.80 0.2180067
345.90 0.2176023
346.00 0.2177379
346.10 0.2169619
346.20 0.2141146
346.30 0.2092409
346.40 0.2038833
346.50 0.2001846
346.60 0.1991846
346.70 0.199916
346.80 0.2003041
346.90 0.1988556
347.00 0.1954283
347.10 0.1909455
347.20 0.1869387
347.30 0.1851158
347.40 0.1865628
347.50 0.1908878
347.60 0.1964038
347.70 0.2014251
347.80 0.2053953
347.90 0.2088696
348.00 0.2126393
348.10 0.2168459
348.20 0.2206969
348.30 0.2229892
348.40 0.2230844
348.50 0.2214678
348.60 0.2192483
348.70 0.2171471
348.80 0.2151583
348.90 0.2130496
349.00 0.2108327
349.10 0.2087046
349.20 0.2068417
349.30 0.2054976
349.40 0.2051271
349.50 0.2060201
349.60 0.2077343
349.70 0.2091615
349.80 0.2095085
349.90 0.2094123
350.00 0.2108636
350.10 0.2156385
350.20 0.2235964
350.30 0.2325005
350.40 0.2395446
350.50 0.2431265
350.60 0.2433761
350.70 0.241405
350.80 0.2383613
350.90 0.2348871
351.00 0.2308688
351.10 0.2254905
351.20 0.2178713
351.30 0.2081989
351.40 0.1983481
351.50 0.1909799
351.60 0.1876561
351.70 0.1877378
351.80 0.1891281
351.90 0.1900192
352.00 0.1899029
352.10 0.1891457
352.20 0.188174
352.30 0.1873572
352.40 0.187489
352.50 0.1900234
352.60 0.1962767
352.70 0.2060658
352.80 0.2171881
352.90 0.2266512
353.00 0.2328757
353.10 0.2367046
353.20 0.2401106
353.30 0.2441871
353.40 0.2486673
353.50 0.2530154
353.60 0.2573405
353.70 0.2620555
353.80 0.2671538
353.90 0.272182
354.00 0.276547
354.10 0.2794787
354.20 0.2800477
354.30 0.2778829
354.40 0.2739743
354.50 0.2703369
354.60 0.2685052
354.70 0.2684017
354.80 0.2687615
354.90 0.26846
355.00 0.2672872
355.10 0.2656948
355.20 0.264164
355.30 0.2629172
355.40 0.262062
355.50 0.2616453
355.60 0.2614036
355.70 0.2605997
355.80 0.2583657
355.90 0.2544248
356.00 0.2494204
356.10 0.2443929
356.20 0.2398884
356.30 0.2355222
356.40 0.2304004
356.50 0.2240922
356.60 0.217336
356.70 0.211776
356.80 0.2088158
356.90 0.2085816
357.00 0.2099326
357.10 0.2113433
357.20 0.2117011
357.30 0.2105317
357.40 0.2078604
357.50 0.2040621
357.60 0.199752
357.70 0.1955703
357.80 0.1919218
357.90 0.1888852
358.00 0.1864373
358.10 0.1848459
358.20 0.1847735
358.30 0.1868428
358.40 0.1910121
358.50 0.1963496
358.60 0.2013943
358.70 0.2047815
358.80 0.2058113
358.90 0.2047866
359.00 0.2030353
359.10 0.2024118
359.20 0.2042761
359.30 0.2085455
359.40 0.2135858
359.50 0.2172341
359.60 0.2182653
359.70 0.2171525
359.80 0.2155309
359.90 0.2148158
360.00 0.2150784
360.10 0.2150488
360.20 0.2131995
360.30 0.2089729
360.40 0.2032498
360.50 0.1979093
360.60 0.1949578
360.70 0.1957308
360.80 0.20029
360.90 0.2072841
361.00 0.214612
361.10 0.2206188
361.20 0.2248798
361.30 0.2278754
361.40 0.2300217
361.50 0.2312286
361.60 0.2314738
361.70 0.2314252
361.80 0.232078
361.90 0.2337445
362.00 0.2356807
362.10 0.2368661
362.20 0.236942
362.30 0.2363135
362.40 0.2356593
362.50 0.2355464
362.60 0.2361635
362.70 0.2369954
362.80 0.2369154
362.90 0.2350811
363.00 0.231916
363.10 0.2289842
363.20 0.2277299
363.30 0.2284009
363.40 0.2301539
363.50 0.2319374
363.60 0.2331684
363.70 0.2337895
363.80 0.2339187
363.90 0.2335077
364.00 0.2322557
364.10 0.2298189
364.20 0.2261587
364.30 0.2217348
364.40 0.217409
364.50 0.2141642
364.60 0.2127246
364.70 0.2131515
364.80 0.214756
364.90 0.2166202
365.00 0.2184349
365.10 0.2208127
365.20 0.2245322
365.30 0.2293794
365.40 0.2338648
365.50 0.2362547
365.60 0.2360013
365.70 0.2341574
365.80 0.232362
365.90 0.2315102
366.00 0.2314183
366.10 0.2315703
366.20 0.2319306
366.30 0.2328735
366.40 0.234496
366.50 0.2362411
366.60 0.2371904
366.70 0.236657
366.80 0.2345443
366.90 0.2312932
367.00 0.2276517
367.10 0.2244697
367.20 0.222519
367.30 0.2222956
367.40 0.2238047
367.50 0.2265171
367.60 0.2296282
367.70 0.2324755
367.80 0.2348145
367.90 0.2367742
368.00 0.2385836
368.10 0.240297
368.20 0.2416962
368.30 0.2423977
368.40 0.242101
368.50 0.2408717
368.60 0.2392586
368.70 0.238066
368.80 0.2378635
368.90 0.2386378
369.00 0.2399513
369.10 0.2414573
369.20 0.243138
369.30 0.2449768
369.40 0.2465429
369.50 0.2470987
369.60 0.2462381
369.70 0.2443852
369.80 0.242646
369.90 0.2421824
370.00 0.2436084
370.10 0.2467496
370.20 0.2508406
370.30 0.2549369
370.40 0.2582403
370.50 0.2602331
370.60 0.2607361
370.70 0.2600503
370.80 0.2589758
370.90 0.2584544
371.00 0.2589586
371.10 0.2600997
371.20 0.2607748
371.30 0.2597374
371.40 0.2562933
371.50 0.2507616
371.60 0.2444278
371.70 0.2389427
371.80 0.2355684
371.90 0.2347691
372.00 0.2362496
372.10 0.2390419
372.20 0.2414368
372.30 0.2412821
372.40 0.2369782
372.50 0.2287314
372.60 0.2189329
372.70 0.211088
372.80 0.2080299
372.90 0.2106796
373.00 0.2179761
373.10 0.2276476
373.20 0.2371533
373.30 0.2443714
373.40 0.2480233
373.50 0.2477656
373.60 0.2439548
373.70 0.2373076
373.80 0.2287487
373.90 0.2194956
374.00 0.2110745
374.10 0.2050557
374.20 0.2026535
374.30 0.2045124
374.40 0.2107568
374.50 0.2210368
374.60 0.2343981
374.70 0.2491003
374.80 0.2627262
374.90 0.2727953
375.00 0.2776147
375.10 0.276824
375.20 0.2713359
375.30 0.2628614
375.40 0.2533845
375.50 0.2447452
375.60 0.2382021
375.70 0.2340946
375.80 0.2318641
375.90 0.2305172
376.00 0.2293151
376.10 0.2283158
376.20 0.2284905
376.30 0.2313211
376.40 0.2380777
376.50 0.2492717
376.60 0.2646425
376.70 0.2833249
376.80 0.3037308
376.90 0.3232151
377.00 0.3382934
377.10 0.345835
377.20 0.3444958
377.30 0.3352389
377.40 0.3206269
377.50 0.3036095
377.60 0.2866805
377.70 0.2716347
377.80 0.2595042
377.90 0.250504
378.00 0.2441609
378.10 0.2397228
378.20 0.2365991
378.30 0.2344714
378.40 0.2331184
378.50 0.2323579
378.60 0.2322188
378.70 0.2330368
378.80 0.2353104
378.90 0.2395983
379.00 0.2466875
379.10 0.2576915
379.20 0.2735873
379.30 0.2943611
379.40 0.3184789
379.50 0.343108
379.60 0.3647703
379.70 0.3800353
379.80 0.3862966
379.90 0.3825834
380.00 0.3700583
380.10 0.3516779
380.20 0.331066
380.30 0.3112723
380.40 0.2941301
380.50 0.2803028
380.60 0.2696444
380.70 0.2615088
380.80 0.2549802
380.90 0.2492701
381.00 0.2441064
381.10 0.2397212
381.20 0.2363838
381.30 0.2339585
381.40 0.2320366
381.50 0.2305141
381.60 0.2298196
381.70 0.2303696
381.80 0.2318008
381.90 0.2328945
382.00 0.2324637
382.10 0.2304844
382.20 0.2278997
382.30 0.2251927
382.40 0.2211861
382.50 0.2139136
382.60 0.2033953
382.70 0.1929753
382.80 0.1874555
382.90 0.1890832
383.00 0.1952671
383.10 0.2004173
383.20 0.200593
383.30 0.196569
383.40 0.1925091
383.50 0.1917371
383.60 0.1934733
383.70 0.1938516
383.80 0.1899535
383.90 0.183445
384.00 0.1804224
384.10 0.1871663
384.20 0.2049951
384.30 0.2288293
384.40 0.2507189
384.50 0.2649625
384.60 0.2706607
384.70 0.2699268
384.80 0.2647056
384.90 0.2562013
385.00 0.2469467
385.10 0.241107
385.20 0.240961
385.30 0.2433893
385.40 0.241939
385.50 0.2327916
385.60 0.2176791
385.70 0.201526
385.80 0.1887115
385.90 0.1819955
386.00 0.1829357
386.10 0.1916057
386.20 0.2058823
386.30 0.2218596
386.40 0.2357559
386.50 0.2458219
386.60 0.252916
386.70 0.2591838
386.80 0.2656615
386.90 0.2704931
387.00 0.2698543
387.10 0.2615436
387.20 0.2479754
387.30 0.2351978
387.40 0.22797
387.50 0.2257304
387.60 0.2238747
387.70 0.2192144
387.80 0.2138442
387.90 0.2130802
388.00 0.2199645
388.10 0.2320082
388.20 0.2430222
388.30 0.2472639
388.40 0.24208
388.50 0.229095
388.60 0.2142136
388.70 0.2054233
388.80 0.2080759
388.90 0.2214397
389.00 0.2401107
389.10 0.2580382
389.20 0.2707619
389.30 0.2752303
389.40 0.2709499
389.50 0.2619247
389.60 0.2548445
389.70 0.2533489
389.80 0.254827
389.90 0.254249
390.00 0.2501043
390.10 0.2454448
390.20 0.2437658
390.30 0.245969
390.40 0.2511607
390.50 0.2583901
390.60 0.2669413
390.70 0.2757067
390.80 0.2835015
390.90 0.2899859
391.00 0.295687
391.10 0.3013542
391.20 0.3073252
391.30 0.3129966
391.40 0.3167169
391.50 0.3162228
391.60 0.3099617
391.70 0.2983423
391.80 0.2834834
391.90 0.2677028
392.00 0.2525873
392.10 0.239411
392.20 0.2299046
392.30 0.225748
392.40 0.2267792
392.50 0.2299645
392.60 0.2307144
392.70 0.2256448
392.80 0.2142042
392.90 0.1986339
393.00 0.1829761
393.10 0.1718456
393.20 0.1683594
393.30 0.1717477
393.40 0.1777988
393.50 0.1828632
393.60 0.1871835
393.70 0.1937262
393.80 0.2040934
393.90 0.2162065
394.00 0.225784
394.10 0.2289511
394.20 0.2243399
394.30 0.2147091
394.40 0.2065032
394.50 0.2061144
394.60 0.2152594
394.70 0.230274
394.80 0.2464087
394.90 0.261991
395.00 0.2781125
395.10 0.2950232
395.20 0.3101451
395.30 0.3198008
395.40 0.3217851
395.50 0.3158744
395.60 0.3029367
395.70 0.2846734
395.80 0.2635899
395.90 0.2418715
396.00 0.220488
396.10 0.200804
396.20 0.1862946
396.30 0.1805448
396.40 0.1831881
396.50 0.1893367
396.60 0.1941723
396.70 0.1967606
396.80 0.1987584
396.90 0.2010263
397.00 0.2030621
397.10 0.2056529
397.20 0.2122703
397.30 0.2264516
397.40 0.247974
397.50 0.2723316
397.60 0.294337
397.70 0.3121
397.80 0.3268537
397.90 0.3393365
398.00 0.3479861
398.10 0.3513478
398.20 0.3513394
398.30 0.3527158
398.40 0.3587883
398.50 0.3687855
398.60 0.3791407
398.70 0.3861004
398.80 0.3874716
398.90 0.3838368
399.00 0.379359
399.10 0.3797031
399.20 0.3872324
399.30 0.3984754
399.40 0.4070969
399.50 0.4087109
399.60 0.4028112
399.70 0.3921217
399.80 0.3818768
399.90 0.3786246
400.00 0.3865508
400.10 0.4034752
400.20 0.4210158
400.30 0.4297093
400.40 0.425336
400.50 0.4115633
400.60 0.3969346
400.70 0.3890216
400.80 0.390596
400.90 0.3999464
401.00 0.4135432
401.10 0.4279875
401.20 0.4404306
401.30 0.4488561
401.40 0.4527244
401.50 0.4528864
401.60 0.4508382
401.70 0.4480684
401.80 0.4457473
401.90 0.4447156
402.00 0.4452245
402.10 0.446483
402.20 0.4468769
402.30 0.445417
402.40 0.4432364
402.50 0.443366
402.60 0.4474759
402.70 0.4520773
402.80 0.448984
402.90 0.4309498
403.00 0.3980552
403.10 0.3589212
403.20 0.3259748
403.30 0.309268
403.40 0.3134227
403.50 0.337619
403.60 0.3763094
403.70 0.4201151
403.80 0.4580561
403.90 0.4814177
404.00 0.4873518
404.10 0.4790467
404.20 0.4615618
404.30 0.4375058
404.40 0.4077376
404.50 0.3767732
404.60 0.3553479
404.70 0.3543596
404.80 0.3756361
404.90 0.4099065
405.00 0.4439986
405.10 0.4692466
405.20 0.4837654
405.30 0.4894269
405.40 0.4887732
405.50 0.4840442
405.60 0.4772969
405.70 0.4707011
405.80 0.4662627
405.90 0.4645186
406.00 0.4626015
406.10 0.4545594
406.20 0.436176
406.30 0.4110194
406.40 0.3906072
406.50 0.3862232
406.60 0.399862
406.70 0.4229846
406.80 0.442992
406.90 0.4507672
407.00 0.4444955
407.10 0.4301467
407.20 0.4186376
407.30 0.4189159
407.40 0.4307132
407.50 0.4440652
407.60 0.4478369
407.70 0.4399297
407.80 0.4295352
407.90 0.4290761
408.00 0.4436224
408.10 0.4673311
408.20 0.489338
408.30 0.5028995
408.40 0.509467
408.50 0.515412
408.60 0.5257868
408.70 0.5407667
408.80 0.5561704
408.90 0.5663404
409.00 0.5676267
409.10 0.5609307
409.20 0.5509465
409.30 0.5415205
409.40 0.5315657
409.50 0.5168258
409.60 0.495798
409.70 0.4723129
409.80 0.4518796
409.90 0.4370247
410.00 0.427339
410.10 0.4227205
410.20 0.4246122
410.30 0.4340473
410.40 0.4493281
410.50 0.4660761
410.60 0.4795953
410.70 0.4873508
410.80 0.4895973
410.90 0.488161
411.00 0.4851426
411.10 0.482534
411.20 0.4821815
411.30 0.485141
411.40 0.4910613
411.50 0.4983423
411.60 0.5046882
411.70 0.5079277
411.80 0.5071936
411.90 0.5039633
412.00 0.5014464
412.10 0.5025517
412.20 0.508655
412.30 0.5198511
412.40 0.5349112
412.50 0.5501701
412.60 0.5598462
412.70 0.5593821
412.80 0.5487075
412.90 0.531215
413.00 0.5100515
413.10 0.4869414
413.20 0.4647522
413.30 0.4493352
413.40 0.4467827
413.50 0.4586397
413.60 0.4802808
413.70 0.503808
413.80 0.5221901
413.90 0.5308511
414.00 0.526441
414.10 0.5067285
414.20 0.4739968
414.30 0.4383752
414.40 0.4148668
414.50 0.4139139
414.60 0.4341665
414.70 0.4647339
414.80 0.493761
414.90 0.5145608
415.00 0.5257349
415.10 0.5287426
415.20 0.5265924
415.30 0.5232786
415.40 0.5223915
415.50 0.5255549
415.60 0.5322284
415.70 0.5409088
415.80 0.5503481
415.90 0.5599435
416.00 0.5695913
416.10 0.5789836
416.20 0.5864182
416.30 0.5884008
416.40 0.5816267
416.50 0.5664362
416.60 0.5478703
416.70 0.532498
416.80 0.5236419
416.90 0.5192164
417.00 0.5137001
417.10 0.5025658
417.20 0.486182
417.30 0.4702044
417.40 0.4618649
417.50 0.4652024
417.60 0.4794894
417.70 0.5012883
417.80 0.5264768
417.90 0.5498981
418.00 0.5651825
418.10 0.5680514
418.20 0.5605333
418.30 0.5500237
418.40 0.5426483
418.50 0.5381192
418.60 0.532347
418.70 0.5241739
418.80 0.5172747
418.90 0.5156278
419.00 0.5195947
419.10 0.5274511
419.20 0.5385031
419.30 0.5521718
419.40 0.5646199
419.50 0.5688576
419.60 0.5594574
419.70 0.5369772
419.80 0.5078081
419.90 0.4801803
420.00 0.4601396
420.10 0.4502461
420.20 0.4507969
420.30 0.4612666
420.40 0.4800513
420.50 0.5033496
420.60 0.5256533
420.70 0.5422205
420.80 0.551474
420.90 0.5551547
421.00 0.5562208
421.10 0.5563057
421.20 0.5541657
421.30 0.5461834
421.40 0.5291976
421.50 0.5040802
421.60 0.4767759
421.70 0.454827
421.80 0.4415847
421.90 0.4334495
422.00 0.4228994
422.10 0.4040442
422.20 0.3755053
422.30 0.3390959
422.40 0.2977732
422.50 0.2559003
422.60 0.2202638
422.70 0.1987799
422.80 0.1967777
422.90 0.2138024
423.00 0.2438075
423.10 0.2784535
423.20 0.3108736
423.30 0.337936
423.40 0.3601771
423.50 0.3800277
423.60 0.3997671
423.70 0.4197604
423.80 0.4380328
423.90 0.4521203
424.00 0.4619177
424.10 0.4705677
424.20 0.4820348
424.30 0.4974054
424.40 0.5136208
424.50 0.5256656
424.60 0.5296317
424.70 0.5243547
424.80 0.5108967
424.90 0.4913499
425.00 0.4680626
425.10 0.4431135
425.20 0.4180993
425.30 0.3951957
425.40 0.3791302
425.50 0.3766046
425.60 0.3911003
425.70 0.4172711
425.80 0.4425231
425.90 0.4564641
426.00 0.4595795
426.10 0.4621889
426.20 0.4747046
426.30 0.4989584
426.40 0.5278842
426.50 0.5519335
426.60 0.5652475
426.70 0.56679
426.80 0.5572523
426.90 0.5363557
427.00 0.5038301
427.10 0.4627563
427.20 0.4208078
427.30 0.3873679
427.40 0.3697333
427.50 0.3718731
427.60 0.394733
427.70 0.435017
427.80 0.4833263
427.90 0.5258057
428.00 0.550435
428.10 0.5537415
428.20 0.5423643
428.30 0.5278968
428.40 0.5188778
428.50 0.5157033
428.60 0.5112616
428.70 0.4965709
428.80 0.4681548
428.90 0.4326361
429.00 0.4047856
429.10 0.3985818
429.20 0.4175137
429.30 0.4525282
429.40 0.4889165
429.50 0.5150902
429.60 0.5259992
429.70 0.5213434
429.80 0.5036731
429.90 0.4785262
430.00 0.4541928
430.10 0.4391946
430.20 0.4385194
430.30 0.4507327
430.40 0.4675933
430.50 0.4773375
430.60 0.4717803
430.70 0.4534314
430.80 0.4359857
430.90 0.4359629
431.00 0.4611861
431.10 0.5052705
431.20 0.5524862
431.30 0.5886576
431.40 0.6094129
431.50 0.6198699
431.60 0.6275366
431.70 0.6359742
431.80 0.6445629
431.90 0.6520632
432.00 0.6582764
432.10 0.6618744
432.20 0.6581117
432.30 0.6407888
432.40 0.6084754
432.50 0.5702754
432.60 0.5441737
432.70 0.5462654
432.80 0.5787154
432.90 0.6277537
433.00 0.6741531
433.10 0.7063925
433.20 0.724889
433.30 0.7356971
433.40 0.7416863
433.50 0.7393869
433.60 0.7236381
433.70 0.6947942
433.80 0.6614332
433.90 0.6360152
434.00 0.6272158
434.10 0.6350791
434.20 0.6519065
434.30 0.6678226
434.40 0.6773586
434.50 0.6827554
434.60 0.6912176
434.70 0.707626
434.80 0.7282
434.90 0.7406388
435.00 0.7320952
435.10 0.7001381
435.20 0.6575885
435.30 0.6253973
435.40 0.6184918
435.50 0.6368449
435.60 0.6684307
435.70 0.6988539
435.80 0.7188634
435.90 0.726605
436.00 0.7262966
436.10 0.7248524
436.20 0.7277757
436.30 0.7367456
436.40 0.7497865
436.50 0.7625256
436.60 0.769895
436.70 0.7688521
436.80 0.760627
436.90 0.7497475
437.00 0.74024
437.10 0.7327561
437.20 0.7248482
437.30 0.7132824
437.40 0.6970012
437.50 0.6792907
437.60 0.6662867
437.70 0.6614639
437.80 0.6614478
437.90 0.6581906
438.00 0.6446424
438.10 0.6177186
438.20 0.5789361
438.30 0.5367194
438.40 0.5074832
438.50 0.5080909
438.60 0.5421591
438.70 0.594511
438.80 0.642142
438.90 0.6717739
439.00 0.6867212
439.10 0.6982757
439.20 0.7127629
439.30 0.7275108
439.40 0.737583
439.50 0.7435227
439.60 0.7508177
439.70 0.7624753
439.80 0.774266
439.90 0.7784671
440.00 0.7707902
440.10 0.7515468
440.20 0.721356
440.30 0.6799504
440.40 0.6313034
440.50 0.5874228
440.60 0.5635142
440.70 0.5685914
440.80 0.6011176
440.90 0.6517205
441.00 0.7074583
441.10 0.7543668
441.20 0.7802994
441.30 0.7795714
441.40 0.7570527
441.50 0.7280514
441.60 0.7119508
441.70 0.7215397
441.80 0.754566
441.90 0.7948975
442.00 0.8235146
442.10 0.8301969
442.20 0.8164522
442.30 0.7895713
442.40 0.7561547
442.50 0.7216489
442.60 0.6935237
442.70 0.6807974
442.80 0.6883358
442.90 0.7125682
443.00 0.7436092
443.10 0.7700586
443.20 0.7810686
443.30 0.7681882
443.40 0.7320428
443.50 0.6889266
443.60 0.6654696
443.70 0.6805316
443.80 0.7299288
443.90 0.7889784
444.00 0.8305894
444.10 0.8429025
444.20 0.8337928
444.30 0.8221217
444.40 0.8237691
444.50 0.8417786
444.60 0.8666645
444.70 0.885587
444.80 0.892019
444.90 0.8875955
445.00 0.8758821
445.10 0.8558021
445.20 0.8215126
445.30 0.7689295
445.40 0.7035416
445.50 0.6422039
445.60 0.6050113
445.70 0.6017945
445.80 0.6248177
445.90 0.6554788
446.00 0.6797219
446.10 0.6978779
446.20 0.7203672
446.30 0.7548252
446.40 0.7976871
446.50 0.837571
446.60 0.865274
446.70 0.8797366
446.80 0.8859665
446.90 0.8899649
447.00 0.8962207
447.10 0.9072338
447.20 0.9220954
447.30 0.9357503
447.40 0.9426884
447.50 0.9429451
447.60 0.9428918
447.70 0.9479389
447.80 0.9545847
447.90 0.9516567
448.00 0.93121
448.10 0.8984738
448.20 0.8706924
448.30 0.8653087
448.40 0.8873558
448.50 0.925881
448.60 0.9611714
448.70 0.9769087
448.80 0.9692972
448.90 0.9481849
449.00 0.9295832
449.10 0.9240922
449.20 0.9293986
449.30 0.9332337
449.40 0.9248344
449.50 0.9051415
449.60 0.8869149
449.70 0.884796
449.80 0.9038918
449.90 0.936321
450.00 0.9683654
450.10 0.9914811
450.20 1.00698
450.30 1.020746
450.40 1.034882
450.50 1.045517
450.60 1.048087
450.70 1.043016
450.80 1.035344
450.90 1.029358
451.00 1.02437
451.10 1.016295
451.20 1.003335
451.30 0.989515
451.40 0.9815121
451.50 0.9815068
451.60 0.9843635
451.70 0.9835215
451.80 0.9794001
451.90 0.9796026
452.00 0.989643
452.10 1.005201
452.20 1.015365
452.30 1.012122
452.40 0.9942108
452.50 0.9634262
452.60 0.9221967
452.70 0.8768158
452.80 0.8392611
452.90 0.8207377
453.00 0.8218101
453.10 0.8298139
453.20 0.8270494
453.30 0.8037461
453.40 0.7672097
453.50 0.7404296
453.60 0.748478
453.70 0.8001706
453.80 0.8795677
453.90 0.9566209
454.00 1.008494
454.10 1.031777
454.20 1.036192
454.30 1.030488
454.40 1.01686
454.50 0.9964436
454.60 0.9746497
454.70 0.9587881
454.80 0.9530425
454.90 0.957409
455.00 0.9692496
455.10 0.9833953
455.20 0.9923347
455.30 0.9907426
455.40 0.9817561
455.50 0.9771703
455.60 0.9892193
455.70 1.02101
455.80 1.064132
455.90 1.104937
456.00 1.133188
456.10 1.145998
456.20 1.146003
456.30 1.137857
456.40 1.127026
456.50 1.120086
456.60 1.122841
456.70 1.135578
456.80 1.150045
456.90 1.153771
457.00 1.140576
457.10 1.117774
457.20 1.101473
457.30 1.103032
457.40 1.119846
457.50 1.138676
457.60 1.146212
457.70 1.136309
457.80 1.1105
457.90 1.076136
458.00 1.04512
458.10 1.030257
458.20 1.037045
458.30 1.057065
458.40 1.072515
458.50 1.07158
458.60 1.06031
458.70 1.057
458.80 1.073576
458.90 1.103533
459.00 1.128406
459.10 1.134534
459.20 1.123154
459.30 1.106783
459.40 1.098553
459.50 1.104142
459.60 1.120146
459.70 1.137434
459.80 1.146326
459.90 1.141162
460.00 1.123002
460.10 1.099509
460.20 1.081405
460.30 1.076327
460.40 1.083884
460.50 1.096902
460.60 1.108894
460.70 1.120513
460.80 1.137523
460.90 1.162077
461.00 1.187488
461.10 1.203131
461.20 1.204029
461.30 1.194548
461.40 1.183135
461.50 1.174994
461.60 1.17033
461.70 1.167962
461.80 1.168593
461.90 1.173983
462.00 1.183708
462.10 1.193661
462.20 1.198067
462.30 1.193124
462.40 1.179447
462.50 1.162104
462.60 1.148441
462.70 1.144366
462.80 1.151005
462.90 1.164367
463.00 1.178325
463.10 1.188015
463.20 1.191239
463.30 1.188406
463.40 1.181814
463.50 1.173582
463.60 1.163038
463.70 1.147295
463.80 1.126169
463.90 1.106389
464.00 1.098974
464.10 1.110495
464.20 1.135746
464.30 1.158614
464.40 1.161762
464.50 1.139015
464.60 1.101194
464.70 1.069374
464.80 1.059439
464.90 1.070637
465.00 1.08849
465.10 1.09872
465.20 1.098021
465.30 1.092402
465.40 1.08858
465.50 1.089961
465.60 1.099673
465.70 1.12253
465.80 1.160505
465.90 1.20708
466.00 1.248479
466.10 1.271603
466.20 1.271275
466.30 1.251147
466.40 1.218705
466.50 1.179349
466.60 1.135254
466.70 1.090411
466.80 1.055488
466.90 1.044153
467.00 1.061867
467.10 1.098775
467.20 1.135793
467.30 1.158711
467.40 1.167011
467.50 1.170412
467.60 1.177812
467.70 1.188934
467.80 1.194949
467.90 1.186285
468.00 1.161061
468.10 1.12782
468.20 1.100488
468.30 1.089441
468.40 1.095443
468.50 1.110935
468.60 1.126919
468.70 1.138587
468.80 1.14531
468.90 1.147604
469.00 1.145878
469.10 1.141762
469.20 1.138925
469.30 1.141406
469.40 1.150808
469.50 1.164601
469.60 1.176595
469.70 1.18004
469.80 1.172368
469.90 1.15731
470.00 1.141272
470.10 1.127641
470.20 1.115926
470.30 1.106085
470.40 1.100722
470.50 1.101337
470.60 1.104593
470.70 1.105254
470.80 1.102661
470.90 1.102499
471.00 1.11157
471.10 1.130817
471.20 1.153006
471.30 1.16744
471.40 1.16825
471.50 1.159212
471.60 1.150291
471.70 1.149166
471.80 1.156254
471.90 1.166859
472.00 1.175678
472.10 1.179229
472.20 1.176885
472.30 1.171459
472.40 1.167257
472.50 1.165187
472.60 1.160457
472.70 1.147432
472.80 1.127014
472.90 1.107733
473.00 1.098774
473.10 1.102323
473.20 1.11278
473.30 1.122295
473.40 1.12624
473.50 1.124402
473.60 1.119178
473.70 1.113818
473.80 1.111119
473.90 1.111712
474.00 1.113482
474.10 1.113947
474.20 1.113474
474.30 1.115128
474.40 1.121161
474.50 1.130494
474.60 1.13988
474.70 1.146631
474.80 1.149875
474.90 1.149839
475.00 1.146441
475.10 1.138759
475.20 1.126284
475.30 1.111017
475.40 1.097524
475.50 1.089515
475.60 1.086063
475.70 1.082151
475.80 1.073466
475.90 1.060125
476.00 1.045238
476.10 1.030739
476.20 1.015855
476.30 0.9993884
476.40 0.9819918
476.50 0.9658118
476.60 0.9529138
476.70 0.9445279
476.80 0.940746
476.90 0.939883
477.00 0.9389114
477.10 0.9357396
477.20 0.9310696
477.30 0.9272618
477.40 0.9252789
477.50 0.9233336
477.60 0.918569
477.70 0.909644
477.80 0.8976207
477.90 0.8848309
478.00 0.8732067
478.10 0.8637707
478.20 0.8576557
478.30 0.8571847
478.40 0.8649604
478.50 0.881107
478.60 0.9017361
478.70 0.9211421
478.80 0.9360723
478.90 0.9475791
479.00 0.9587674
479.10 0.9715492
479.20 0.986014
479.30 1.001972
479.40 1.019636
479.50 1.038377
479.60 1.055564
479.70 1.067425
479.80 1.071387
479.90 1.06827
480.00 1.062847
480.10 1.06179
480.20 1.0694
480.30 1.083979
480.40 1.098395
480.50 1.105069
480.60 1.101348
480.70 1.090839
480.80 1.080097
480.90 1.073904
481.00 1.072883
481.10 1.074595
481.20 1.07645
481.30 1.077722
481.40 1.07948
481.50 1.083166
481.60 1.089171
481.70 1.096157
481.80 1.101398
481.90 1.101972
482.00 1.096042
482.10 1.083438
482.20 1.065752
482.30 1.046665
482.40 1.031667
482.50 1.025507
482.60 1.028396
482.70 1.035062
482.80 1.038613
482.90 1.035754
483.00 1.028577
483.10 1.022308
483.20 1.021769
483.30 1.028608
483.40 1.040103
483.50 1.050726
483.60 1.05628
483.70 1.057083
483.80 1.05672
483.90 1.057772
484.00 1.059184
484.10 1.057824
484.20 1.0524
484.30 1.046155
484.40 1.045859
484.50 1.057106
484.60 1.079327
484.70 1.105384
484.80 1.126619
484.90 1.13836
485.00 1.141149
485.10 1.138192
485.20 1.132526
485.30 1.125932
485.40 1.11933
485.50 1.113887
485.60 1.111283
485.70 1.111484
485.80 1.110213
485.90 1.100997
486.00 1.081781
486.10 1.05911
486.20 1.04422
486.30 1.044416
486.40 1.058279
486.50 1.078259
486.60 1.096657
486.70 1.109056
486.80 1.113139
486.90 1.106271
487.00 1.086835
487.10 1.059128
487.20 1.03495
487.30 1.026591
487.40 1.036613
487.50 1.055739
487.60 1.071689
487.70 1.079504
487.80 1.082985
487.90 1.087606
488.00 1.094177
488.10 1.09944
488.20 1.100823
488.30 1.098715
488.40 1.094439
488.50 1.088279
488.60 1.08053
488.70 1.072457
488.80 1.06409
488.90 1.052621
489.00 1.036401
489.10 1.0214
489.20 1.020613
489.30 1.043909
489.40 1.088223
489.50 1.138692
489.60 1.179046
489.70 1.200604
489.80 1.203685
489.90 1.194002
490.00 1.178808
490.10 1.164041
490.20 1.152775
490.30 1.146358
490.40 1.146969
490.50 1.157271
490.60 1.176386
490.70 1.19757
490.80 1.212125
490.90 1.216219
491.00 1.21303
491.10 1.208179
491.20 1.204195
491.30 1.200068
491.40 1.194904
491.50 1.189442
491.60 1.182427
491.70 1.166959
491.80 1.134378
491.90 1.08494
492.00 1.034304
492.10 1.005816
492.20 1.013039
492.30 1.049196
492.40 1.094604
492.50 1.134155
492.60 1.166528
492.70 1.197804
492.80 1.22985
492.90 1.256823
493.00 1.270587
493.10 1.26676
493.20 1.246865
493.30 1.217982
493.40 1.190503
493.50 1.172576
493.60 1.164081
493.70 1.157053
493.80 1.144237
493.90 1.127427
494.00 1.116495
494.10 1.120364
494.20 1.139235
494.30 1.164811
494.40 1.187075
494.50 1.201538
494.60 1.21163
494.70 1.224686
494.80 1.24464
494.90 1.26807
495.00 1.287224
495.10 1.295921
495.20 1.291665
495.30 1.272853
495.40 1.236192
495.50 1.179141
495.60 1.106353
495.70 1.033606
495.80 0.9830245
495.90 0.9700825
496.00 0.9920161
496.10 1.029032
496.20 1.058667
496.30 1.070612
496.40 1.069317
496.50 1.064652
496.60 1.061909
496.70 1.060431
496.80 1.059306
496.90 1.061779
497.00 1.073192
497.10 1.095161
497.20 1.122582
497.30 1.146676
497.40 1.160997
497.50 1.164648
497.60 1.160426
497.70 1.150945
497.80 1.136448
497.90 1.114773
498.00 1.08276
498.10 1.040014
498.20 0.9941304
498.30 0.9609286
498.40 0.955018
498.50 0.9776984
498.60 1.014865
498.70 1.047253
498.80 1.062478
498.90 1.059464
499.00 1.045855
499.10 1.032696
499.20 1.028482
499.30 1.035035
499.40 1.048431
499.50 1.063536
499.60 1.066661
499.70 1.024706
499.80 0.8977974
499.90 0.6782266
500.00 1
500.10 0.9195089
500.20 0.9189617
500.30 0.9789155
500.40 1.035698
500.50 1.065358
500.60 1.044188
500.70 0.9621052
500.80 0.8977218
500.90 0.9083348
501.00 0.9683497
501.10 1.032989
501.20 1.056855
501.30 1.010294
501.40 0.9172239
501.50 0.8427878
501.60 0.8398614
501.70 0.9052354
501.80 0.9867042
501.90 1.041544
502.00 1.070012
502.10 1.076802
502.20 1.027228
502.30 0.9516896
502.40 0.9354625
502.50 0.9886871
502.60 1.039666
502.70 1.048167
502.80 1.013417
502.90 0.9826315
503.00 0.9925554
503.10 1.050036
503.20 1.102014
503.30 1.109988
503.40 1.091639
503.50 1.059416
503.60 1.005151
503.70 0.9502843
503.80 0.9655211
503.90 0.9950864
504.00 0.951064
504.10 0.8648816
504.20 0.8336791
504.30 0.8749696
504.40 0.9404891
504.50 0.9957908
504.60 1.04453
504.70 1.096682
504.80 1.124501
504.90 1.101784
505.00 1.020092
505.10 0.9519021
505.20 0.966821
505.30 1.016612
505.40 1.036546
505.50 1.020766
505.60 0.9974875
505.70 1.00385
505.80 1.050135
505.90 1.07645
506.00 1.077413
506.10 1.076455
506.20 1.081669
506.30 1.073111
506.40 1.027662
506.50 0.9608415
506.60 0.9217797
506.70 0.939647
506.80 0.9676822
506.90 0.960619
507.00 0.9539416
507.10 0.9596046
507.20 0.9543416
507.30 0.9404972
507.40 0.9650145
507.50 1.022907
507.60 1.035638
507.70 0.9851729
507.80 0.964892
507.90 0.9791289
508.00 0.9772652
508.10 0.9477962
508.20 0.9215558
508.30 0.8973202
508.40 0.8885117
508.50 0.9169216
508.60 0.9780722
508.70 1.022464
508.80 1.030751
508.90 1.009304
509.00 0.9732053
509.10 0.9580459
509.20 0.979672
509.30 1.021439
509.40 1.07239
509.50 1.059963
509.60 0.9794264
509.70 0.947048
509.80 1.002564
509.90 1.043288
510.00 0.9877653
510.10 0.9106779
510.20 0.8854543
510.30 0.8976409
510.40 0.9161783
510.50 0.9153803
510.60 0.8964872
510.70 0.8834637
510.80 0.8938533
510.90 0.9161118
511.00 0.9370118
511.10 0.9485276
511.20 0.9439902
511.30 0.9283392
511.40 0.9412811
511.50 0.9899546
511.60 1.041599
511.70 1.060859
511.80 1.053419
511.90 1.048767
512.00 1.022632
512.10 0.9702703
512.20 0.953097
512.30 0.9689459
512.40 0.9463224
512.50 0.8927206
512.60 0.8664008
512.70 0.8786757
512.80 0.8949624
512.90 0.8883879
513.00 0.8580239
513.10 0.8560472
513.20 0.9186189
513.30 1.001824
513.40 1.023117
513.50 0.9939254
513.60 0.9827008
513.70 1.013168
513.80 1.022889
513.90 1.005049
514.00 0.9611028
514.10 0.9605545
514.20 0.9993092
514.30 1.015451
514.40 0.9960227
514.50 0.9826432
514.60 0.9606102
514.70 0.9178549
514.80 0.9127636
514.90 0.9469999
515.00 0.9638856
515.10 0.9554655
515.20 0.9260628
515.30 0.8657305
515.40 0.8088991
515.50 0.8042261
515.60 0.8668634
515.70 0.9648927
515.80 1.042867
515.90 1.092737
516.00 1.109583
516.10 1.123379
516.20 1.145186
516.30 1.121045
516.40 1.084683
516.50 1.071538
516.60 1.019217
516.70 0.8697414
516.80 0.7209632
516.90 0.6817685
517.00 0.7272939
517.10 0.7624236
517.20 0.7342421
517.30 0.6620572
517.40 0.6129756
517.50 0.6558519
517.60 0.7609392
517.70 0.8490308
517.80 0.8760636
517.90 0.8596508
518.00 0.8372331
518.10 0.809761
518.20 0.7449973
518.30 0.6625738
518.40 0.6118849
518.50 0.6291601
518.60 0.7384325
518.70 0.892523
518.80 1.001842
518.90 1.039338
519.00 1.054498
519.10 1.065721
519.20 1.034071
519.30 0.9615911
519.40 0.9319482
519.50 0.9693905
519.60 1.022569
519.70 1.076365
519.80 1.129121
519.90 1.156295
520.00 1.153711
520.10 1.133978
520.20 1.103607
520.30 1.05635
520.40 0.9762951
520.50 0.8567321
520.60 0.7420893
520.70 0.6762533
520.80 0.6674122
520.90 0.6589855
521.00 0.6523647
521.10 0.7115395
521.20 0.874201
521.30 1.079298
521.40 1.229363
521.50 1.268588
521.60 1.229008
521.70 1.20056
521.80 1.219105
521.90 1.266143
522.00 1.318092
522.10 1.365003
522.20 1.393054
522.30 1.380548
522.40 1.319203
522.50 1.236522
522.60 1.162246
522.70 1.098046
522.80 1.068772
522.90 1.122431
523.00 1.241309
523.10 1.329938
523.20 1.33738
523.30 1.277212
523.40 1.220713
523.50 1.235675
523.60 1.313781
523.70 1.394899
523.80 1.423736
523.90 1.417316
524.00 1.405244
524.10 1.386935
524.20 1.36125
524.30 1.350156
524.40 1.365679
524.50 1.39761
524.60 1.400704
524.70 1.329561
524.80 1.239993
524.90 1.228305
525.00 1.274493
525.10 1.283569
525.20 1.255097
525.30 1.261721
525.40 1.305177
525.50 1.322433
525.60 1.320362
525.70 1.337196
525.80 1.373962
525.90 1.418148
526.00 1.424848
526.10 1.373177
526.20 1.282355
526.30 1.185116
526.40 1.104585
526.50 1.045816
526.60 0.9961968
526.70 0.9940256
526.80 1.046638
526.90 1.047101
527.00 0.9383105
527.10 0.8475658
527.20 0.9295468
527.30 1.105084
527.40 1.231013
527.50 1.284709
527.60 1.305959
527.70 1.316378
527.80 1.365803
527.90 1.426729
528.00 1.440654
528.10 1.407002
528.20 1.342514
528.30 1.256638
528.40 1.225692
528.50 1.26387
528.60 1.353521
528.70 1.444369
528.80 1.48589
528.90 1.477257
529.00 1.461984
529.10 1.448225
529.20 1.438466
529.30 1.446136
529.40 1.457879
529.50 1.469448
529.60 1.435822
529.70 1.326463
529.80 1.192212
529.90 1.118169
530.00 1.155025
530.10 1.249712
530.20 1.317264
530.30 1.352034
530.40 1.399298
530.50 1.46701
530.60 1.504393
530.70 1.480706
530.80 1.441265
530.90 1.43952
531.00 1.4696
531.10 1.491864
531.20 1.501457
531.30 1.494778
531.40 1.480403
531.50 1.472213
531.60 1.481369
531.70 1.494649
531.80 1.506111
531.90 1.514304
532.00 1.488837
532.10 1.45176
532.20 1.440358
532.30 1.433819
532.40 1.389294
532.50 1.337736
532.60 1.328839
532.70 1.314832
532.80 1.206496
532.90 1.037774
533.00 0.9957934
533.10 1.127214
533.20 1.294159
533.30 1.374799
533.40 1.403582
533.50 1.427909
533.60 1.45061
533.70 1.458578
533.80 1.446297
533.90 1.426627
534.00 1.388021
534.10 1.322511
534.20 1.289959
534.30 1.319569
534.40 1.390342
534.50 1.412714
534.60 1.375131
534.70 1.327079
534.80 1.325338
534.90 1.326457
535.00 1.316474
535.10 1.360188
535.20 1.471674
535.30 1.547848
535.40 1.536009
535.50 1.50271
535.60 1.505577
535.70 1.543288
535.80 1.590447
535.90 1.610586
536.00 1.605033
536.10 1.585244
536.20 1.559021
536.30 1.544993
536.40 1.523557
536.50 1.496042
536.60 1.479659
536.70 1.474501
536.80 1.490721
536.90 1.501355
537.00 1.453191
537.10 1.317042
537.20 1.175634
537.30 1.156721
537.40 1.293714
537.50 1.467928
537.60 1.554173
537.70 1.561401
537.80 1.558586
537.90 1.589397
538.00 1.622197
538.10 1.641711
538.20 1.624621
538.30 1.575911
538.40 1.511611
538.50 1.486176
538.60 1.534761
538.70 1.598573
538.80 1.621838
538.90 1.607642
539.00 1.5698
539.10 1.542286
539.20 1.530334
539.30 1.506672
539.40 1.474621
539.50 1.451796
539.60 1.417114
539.70 1.343615
539.80 1.283268
539.90 1.316506
540.00 1.43139
540.10 1.517991
540.20 1.532592
540.30 1.529328
540.40 1.505327
540.50 1.419525
540.60 1.291172
540.70 1.234315
540.80 1.298553
540.90 1.382057
541.00 1.358475
541.10 1.297731
541.20 1.314381
541.30 1.418102
541.40 1.532294
541.50 1.595451
541.60 1.603248
541.70 1.59594
541.80 1.616654
541.90 1.656921
542.00 1.656978
542.10 1.604265
542.20 1.576878
542.30 1.597811
542.40 1.60894
542.50 1.582921
542.60 1.563346
542.70 1.598148
542.80 1.645527
542.90 1.601407
543.00 1.43827
543.10 1.314237
543.20 1.337041
543.30 1.426148
543.40 1.442219
543.50 1.381434
543.60 1.355681
543.70 1.424766
543.80 1.520347
543.90 1.568198
544.00 1.580595
544.10 1.616943
544.20 1.677093
544.30 1.711177
544.40 1.70313
544.50 1.65044
544.60 1.538695
544.70 1.376371
544.80 1.264967
544.90 1.27844
545.00 1.379746
545.10 1.451614
545.20 1.475921
545.30 1.484152
545.40 1.480383
545.50 1.418271
545.60 1.32119
545.70 1.28145
545.80 1.356759
545.90 1.484541
546.00 1.550331
546.10 1.539911
546.20 1.489253
546.30 1.445963
546.40 1.427253
546.50 1.445147
546.60 1.483316
546.70 1.524575
546.80 1.569453
546.90 1.59656
547.00 1.5708
547.10 1.524818
547.20 1.514472
547.30 1.539901
547.40 1.551678
547.50 1.517576
547.60 1.470987
547.70 1.437862
547.80 1.418014
547.90 1.437077
548.00 1.49788
548.10 1.542766
548.20 1.522364
548.30 1.484719
548.40 1.50364
548.50 1.569241
548.60 1.609069
548.70 1.597146
548.80 1.550991
548.90 1.52228
549.00 1.540072
549.10 1.581691
549.20 1.623083
549.30 1.650309
549.40 1.649562
549.50 1.619232
549.60 1.58696
549.70 1.553083
549.80 1.510352
549.90 1.491853
550.00 1.514164
550.10 1.529088
550.20 1.504116
550.30 1.482504
550.40 1.506492
550.50 1.524985
550.60 1.499664
550.70 1.44697
550.80 1.439439
550.90 1.511617
551.00 1.600327
551.10 1.599506
551.20 1.508325
551.30 1.400008
551.40 1.335416
551.50 1.333738
551.60 1.369976
551.70 1.433853
551.80 1.51966
551.90 1.592112
552.00 1.619702
552.10 1.620306
552.20 1.634198
552.30 1.667013
552.40 1.680085
552.50 1.657435
552.60 1.638268
552.70 1.627649
552.80 1.573642
552.90 1.493311
553.00 1.481186
553.10 1.567029
553.20 1.639102
553.30 1.640132
553.40 1.620017
553.50 1.608698
553.60 1.598418
553.70 1.598146
553.80 1.606749
553.90 1.606089
554.00 1.614044
554.10 1.641208
554.20 1.669267
554.30 1.6503
554.40 1.61859
554.50 1.608029
554.60 1.616117
554.70 1.621024
554.80 1.627313
554.90 1.652509
555.00 1.672857
555.10 1.670245
555.20 1.669605
555.30 1.684532
555.40 1.696474
555.50 1.683493
555.60 1.650729
555.70 1.61849
555.80 1.614361
555.90 1.644675
556.00 1.677269
556.10 1.690937
556.20 1.662489
556.30 1.618505
556.40 1.590942
556.50 1.586705
556.60 1.572172
556.70 1.536529
556.80 1.507759
556.90 1.523789
557.00 1.541305
557.10 1.533406
557.20 1.528499
557.30 1.528542
557.40 1.528678
557.50 1.528678
557.60 1.528678
557.70 1.528678
557.80 1.528678
557.90 1.528678
558.00 1.528678
558.10 1.528682
558.20 1.528671
558.30 1.528108
558.40 1.52638
558.50 1.552056
558.60 1.599911
558.70 1.557623
558.80 1.450482
558.90 1.349705
559.00 1.303371
559.10 1.342534
559.20 1.449406
559.30 1.53853
559.40 1.538597
559.50 1.486325
559.60 1.472654
559.70 1.520084
559.80 1.525479
559.90 1.44385
560.00 1.383496
560.10 1.402748
560.20 1.437369
560.30 1.436981
560.40 1.448359
560.50 1.505931
560.60 1.589571
560.70 1.646167
560.80 1.659721
560.90 1.662168
561.00 1.669734
561.10 1.676133
561.20 1.679218
561.30 1.684485
561.40 1.678595
561.50 1.614278
561.60 1.50607
561.70 1.441865
561.80 1.470371
561.90 1.540238
562.00 1.564616
562.10 1.545819
562.20 1.567416
562.30 1.620974
562.40 1.652233
562.50 1.618395
562.60 1.566538
562.70 1.568929
562.80 1.61063
562.90 1.633819
563.00 1.620443
563.10 1.608766
563.20 1.631667
563.30 1.667989
563.40 1.694636
563.50 1.71364
563.60 1.710971
563.70 1.687823
563.80 1.670044
563.90 1.662056
564.00 1.662843
564.10 1.671267
564.20 1.66867
564.30 1.660938
564.40 1.656847
564.50 1.655334
564.60 1.653403
564.70 1.666454
564.80 1.681596
564.90 1.683622
565.00 1.686463
565.10 1.700404
565.20 1.715632
565.30 1.742275
565.40 1.758513
565.50 1.760903
565.60 1.749582
565.70 1.741981
565.80 1.707964
565.90 1.641348
566.00 1.596424
566.10 1.618708
566.20 1.651038
566.30 1.632415
566.40 1.604288
566.50 1.638541
566.60 1.699313
566.70 1.738885
566.80 1.735246
566.90 1.707669
567.00 1.677487
567.10 1.664633
567.20 1.654589
567.30 1.654943
567.40 1.683949
567.50 1.710042
567.60 1.711745
567.70 1.72152
567.80 1.752363
567.90 1.773361
568.00 1.764903
568.10 1.743124
568.20 1.718072
568.30 1.674057
568.40 1.64427
568.50 1.67025
568.60 1.733699
568.70 1.748042
568.80 1.678258
568.90 1.595747
569.00 1.591673
569.10 1.662605
569.20 1.731307
569.30 1.773501
569.40 1.792098
569.50 1.792339
569.60 1.77128
569.70 1.762771
569.80 1.750037
569.90 1.71643
570.00 1.693697
570.10 1.696964
570.20 1.698411
570.30 1.680137
570.40 1.671947
570.50 1.698079
570.60 1.734036
570.70 1.744362
570.80 1.711793
570.90 1.678663
571.00 1.662875
571.10 1.649781
571.20 1.632851
571.30 1.64926
571.40 1.697573
571.50 1.741858
571.60 1.770773
571.70 1.774844
571.80 1.771272
571.90 1.780598
572.00 1.798384
572.10 1.810442
572.20 1.822607
572.30 1.842788
572.40 1.852931
572.50 1.834083
572.60 1.813942
572.70 1.773922
572.80 1.716571
572.90 1.70276
573.00 1.756461
573.10 1.791823
573.20 1.775172
573.30 1.76832
573.40 1.794305
573.50 1.827314
573.60 1.842034
573.70 1.833205
573.80 1.81741
573.90 1.814205
574.00 1.824163
574.10 1.8332
574.20 1.840867
574.30 1.840361
574.40 1.831885
574.50 1.831007
574.60 1.844088
574.70 1.859994
574.80 1.860212
574.90 1.860578
575.00 1.859968
575.10 1.868748
575.20 1.881057
575.30 1.87165
575.40 1.844765
575.50 1.828009
575.60 1.846102
575.70 1.878437
575.80 1.900419
575.90 1.90486
576.00 1.889521
576.10 1.865127
576.20 1.82824
576.30 1.783624
576.40 1.752093
576.50 1.763953
576.60 1.803065
576.70 1.838543
576.80 1.856515
576.90 1.865284
577.00 1.867402
577.10 1.867308
577.20 1.8653
577.30 1.861899
577.40 1.851867
577.50 1.840166
577.60 1.822602
577.70 1.818218
577.80 1.832351
577.90 1.8381
578.00 1.828125
578.10 1.803584
578.20 1.772074
578.30 1.751994
578.40 1.751263
578.50 1.756023
578.60 1.747238
578.70 1.747657
578.80 1.776848
578.90 1.815495
579.00 1.831822
579.10 1.813938
579.20 1.789121
579.30 1.799426
579.40 1.849948
579.50 1.905504
579.60 1.926948
579.70 1.91435
579.80 1.895703
579.90 1.88073
580.00 1.885849
580.10 1.906273
580.20 1.936442
580.30 1.945182
580.40 1.93476
580.50 1.919557
580.60 1.912839
580.70 1.914176
580.80 1.916554
580.90 1.918771
581.00 1.913358
581.10 1.904257
581.20 1.899365
581.30 1.902184
581.40 1.892313
581.50 1.872398
581.60 1.849124
581.70 1.840364
581.80 1.839431
581.90 1.850024
582.00 1.873189
582.10 1.877468
582.20 1.871257
582.30 1.866501
582.40 1.866261
582.50 1.867133
582.60 1.879032
582.70 1.889237
582.80 1.891001
582.90 1.883955
583.00 1.879626
583.10 1.887817
583.20 1.897044
583.30 1.905329
583.40 1.903962
583.50 1.89588
583.60 1.886259
583.70 1.883986
583.80 1.87511
583.90 1.872597
584.00 1.876945
584.10 1.888618
584.20 1.904462
584.30 1.918766
584.40 1.915252
584.50 1.896615
584.60 1.8864
584.70 1.886414
584.80 1.884801
584.90 1.872519
585.00 1.854861
585.10 1.84323
585.20 1.825196
585.30 1.802224
585.40 1.777866
585.50 1.775117
585.60 1.76923
585.70 1.718762
585.80 1.635052
585.90 1.589351
586.00 1.643219
586.10 1.74606
586.20 1.801266
586.30 1.792256
586.40 1.76825
586.50 1.764443
586.60 1.759433
586.70 1.739981
586.80 1.711161
586.90 1.719898
587.00 1.762762
587.10 1.796587
587.20 1.80089
587.30 1.789426
587.40 1.775163
587.50 1.762267
587.60 1.754814
587.70 1.740569
587.80 1.717426
587.90 1.69315
588.00 1.661777
588.10 1.630598
588.20 1.605392
588.30 1.581382
588.40 1.545084
588.50 1.49064
588.60 1.414031
588.70 1.317564
588.80 1.175777
588.90 0.9884733
589.00 0.7975953
589.10 0.6683583
589.20 0.6459255
589.30 0.7386832
589.40 0.8566036
589.50 0.9051977
589.60 0.8407834
589.70 0.7491173
589.80 0.7467028
589.90 0.8885271
590.00 1.078016
590.10 1.24199
590.20 1.363496
590.30 1.463742
590.40 1.535671
590.50 1.579616
590.60 1.609516
590.70 1.634963
590.80 1.65132
590.90 1.669409
591.00 1.689567
591.10 1.709764
591.20 1.72566
591.30 1.727013
591.40 1.713265
591.50 1.698317
591.60 1.697255
591.70 1.699248
591.80 1.713485
591.90 1.72234
592.00 1.724016
592.10 1.728066
592.20 1.728814
592.30 1.729516
592.40 1.729757
592.50 1.735907
592.60 1.74577
592.70 1.76052
592.80 1.774704
592.90 1.777741
593.00 1.770094
593.10 1.758179
593.20 1.757102
593.30 1.777322
593.40 1.796577
593.50 1.802414
593.60 1.807504
593.70 1.803903
593.80 1.803548
593.90 1.812047
594.00 1.81677
594.10 1.802686
594.20 1.780416
594.30 1.766641
594.40 1.781967
594.50 1.815784
594.60 1.843633
594.70 1.855029
594.80 1.849129
594.90 1.831834
595.00 1.802771
595.10 1.77688
595.20 1.774707
595.30 1.782277
595.40 1.784152
595.50 1.777156
595.60 1.778952
595.70 1.776914
595.80 1.763022
595.90 1.759206
596.00 1.781512
596.10 1.815956
596.20 1.839959
596.30 1.843234
596.40 1.833452
596.50 1.82736
596.60 1.813785
596.70 1.798268
596.80 1.799559
596.90 1.820621
597.00 1.840343
597.10 1.850253
597.20 1.8509
597.30 1.847934
597.40 1.842361
597.50 1.835431
597.60 1.826255
597.70 1.811979
597.80 1.794779
597.90 1.77903
598.00 1.777879
598.10 1.804963
598.20 1.836294
598.30 1.850137
598.40 1.844221
598.50 1.827233
598.60 1.821214
598.70 1.826135
598.80 1.835683
598.90 1.841228
599.00 1.842778
599.10 1.850243
599.20 1.866115
599.30 1.887502
599.40 1.905754
599.50 1.919446
599.60 1.926017
599.70 1.920419
599.80 1.903596
599.90 1.881368
600.00 1.869521
600.10 1.863967
600.20 1.854745
600.30 1.843804
600.40 1.841596
600.50 1.850302
600.60 1.859425
600.70 1.865514
600.80 1.848682
600.90 1.822839
601.00 1.819702
601.10 1.848488
601.20 1.881274
601.30 1.884269
601.40 1.861746
601.50 1.854742
601.60 1.86658
601.70 1.865335
601.80 1.853373
601.90 1.854069
602.00 1.862633
602.10 1.861753
602.20 1.843921
602.30 1.829887
602.40 1.841861
602.50 1.86475
602.60 1.886258
602.70 1.905172
602.80 1.92693
602.90 1.945787
603.00 1.957215
603.10 1.96064
603.20 1.961759
603.30 1.969521
603.40 1.9752
603.50 1.977193
603.60 1.976288
603.70 1.965804
603.80 1.947401
603.90 1.931669
604.00 1.919412
604.10 1.913038
604.20 1.913566
604.30 1.935076
604.40 1.962997
604.50 1.983091
604.60 1.999222
604.70 2.016663
604.80 2.021116
604.90 2.01172
605.00 2.006456
605.10 2.006499
605.20 2.00312
605.30 1.989276
605.40 1.976348
605.50 1.965709
605.60 1.957873
605.70 1.949598
605.80 1.941599
605.90 1.943036
606.00 1.95913
606.10 1.980079
606.20 1.99463
606.30 1.989544
606.40 1.961529
606.50 1.917107
606.60 1.873738
606.70 1.866959
606.80 1.902001
606.90 1.957112
607.00 2.001821
607.10 2.023608
607.20 2.030613
607.30 2.026113
607.40 2.015561
607.50 2.009671
607.60 2.014697
607.70 2.020641
607.80 2.020062
607.90 2.004007
608.00 1.981047
608.10 1.962257
608.20 1.94665
608.30 1.937912
608.40 1.942011
608.50 1.956579
608.60 1.966793
608.70 1.973566
608.80 1.987088
608.90 1.990532
609.00 1.977435
609.10 1.94972
609.20 1.930583
609.30 1.937503
609.40 1.967796
609.50 1.997524
609.60 2.016677
609.70 2.019042
609.80 2.009952
609.90 2.002857
610.00 2.000118
610.10 1.976902
610.20 1.887811
610.30 1.759457
610.40 1.66926
610.50 1.684921
610.60 1.8032
610.70 1.930731
610.80 1.999042
610.90 2.008746
611.00 1.997182
611.10 1.984325
611.20 1.975659
611.30 1.978641
611.40 1.995693
611.50 2.018509
611.60 2.032584
611.70 2.025771
611.80 2.003098
611.90 1.97223
612.00 1.919369
612.10 1.815764
612.20 1.664321
612.30 1.531099
612.40 1.497545
612.50 1.591286
612.60 1.750438
612.70 1.877541
612.80 1.937137
612.90 1.968605
613.00 2.00192
613.10 2.027037
613.20 2.03933
613.30 2.043938
613.40 2.034131
613.50 1.999002
613.60 1.942085
613.70 1.86586
613.80 1.807828
613.90 1.801988
614.00 1.858081
614.10 1.935067
614.20 1.978849
614.30 1.983027
614.40 1.985948
614.50 2.005881
614.60 2.026631
614.70 2.038712
614.80 2.034641
614.90 2.01401
615.00 1.976016
615.10 1.946011
615.20 1.941821
615.30 1.954935
615.40 1.968516
615.50 1.962265
615.60 1.945534
615.70 1.930066
615.80 1.919003
615.90 1.883936
616.00 1.796655
616.10 1.645556
616.20 1.456235
616.30 1.29563
616.40 1.239004
616.50 1.307399
616.60 1.445991
616.70 1.563328
616.80 1.612447
616.90 1.596905
617.00 1.552618
617.10 1.535392
617.20 1.581832
617.30 1.671937
617.40 1.743131
617.50 1.77813
617.60 1.787275
617.70 1.801243
617.80 1.824847
617.90 1.842729
618.00 1.856976
618.10 1.862057
618.20 1.862471
618.30 1.859574
618.40 1.861252
618.50 1.853011
618.60 1.830735
618.70 1.797995
618.80 1.769359
618.90 1.751162
619.00 1.730185
619.10 1.695507
619.20 1.648703
619.30 1.620629
619.40 1.638663
619.50 1.684798
619.60 1.733573
619.70 1.767825
619.80 1.776179
619.90 1.760391
620.00 1.737761
620.10 1.725675
620.20 1.735701
620.30 1.765062
620.40 1.799286
620.50 1.820213
620.60 1.829784
620.70 1.830997
620.80 1.834845
620.90 1.838343
621.00 1.832254
621.10 1.807681
621.20 1.774784
621.30 1.745993
621.40 1.710392
621.50 1.661945
621.60 1.614952
621.70 1.586074
621.80 1.587142
621.90 1.610249
622.00 1.635887
622.10 1.6435
622.20 1.641448
622.30 1.638129
622.40 1.627808
622.50 1.613475
622.60 1.607194
622.70 1.622847
622.80 1.639821
622.90 1.6367
623.00 1.60944
623.10 1.572646
623.20 1.542532
623.30 1.539707
623.40 1.576827
623.50 1.634253
623.60 1.691533
623.70 1.721076
623.80 1.716752
623.90 1.689532
624.00 1.658342
624.10 1.630435
624.20 1.607151
624.30 1.593972
624.40 1.593677
624.50 1.605918
624.60 1.623572
624.70 1.644768
624.80 1.673676
624.90 1.704058
625.00 1.722252
625.10 1.720632
625.20 1.703124
625.30 1.679171
625.40 1.654426
625.50 1.64727
625.60 1.657661
625.70 1.656957
625.80 1.622765
625.90 1.56649
626.00 1.530735
626.10 1.542594
626.20 1.599823
626.30 1.675906
626.40 1.739363
626.50 1.772807
626.60 1.781902
626.70 1.773025
626.80 1.757934
626.90 1.751587
627.00 1.746663
627.10 1.746039
627.20 1.761113
627.30 1.79193
627.40 1.812015
627.50 1.800054
627.60 1.765273
627.70 1.733738
627.80 1.718802
627.90 1.717864
628.00 1.719006
628.10 1.712718
628.20 1.711519
628.30 1.729057
628.40 1.75775
628.50 1.779324
628.60 1.789994
628.70 1.808595
628.80 1.839746
628.90 1.869322
629.00 1.884709
629.10 1.875248
629.20 1.850487
629.30 1.823304
629.40 1.803911
629.50 1.799799
629.60 1.794742
629.70 1.786616
629.80 1.780352
629.90 1.79372
630.00 1.826754
630.10 1.847418
630.20 1.823805
630.30 1.805045
630.40 1.79512
630.50 1.794794
630.60 1.811082
630.70 1.830044
630.80 1.86268
630.90 1.89361
631.00 1.912485
631.10 1.920951
631.20 1.916173
631.30 1.904706
631.40 1.904421
631.50 1.909498
631.60 1.908636
631.70 1.895595
631.80 1.877453
631.90 1.868102
632.00 1.877993
632.10 1.90245
632.20 1.927146
632.30 1.937628
632.40 1.935964
632.50 1.93614
632.60 1.941757
632.70 1.944319
632.80 1.943816
632.90 1.946298
633.00 1.948287
633.10 1.953178
633.20 1.965743
633.30 1.988353
633.40 2.002962
633.50 1.99131
633.60 1.952243
633.70 1.909461
633.80 1.894291
633.90 1.913778
634.00 1.954738
634.10 1.995669
634.20 2.018108
634.30 2.012895
634.40 1.984844
634.50 1.957121
634.60 1.952769
634.70 1.975636
634.80 2.009981
634.90 2.034556
635.00 2.044909
635.10 2.047463
635.20 2.048285
635.30 2.046608
635.40 2.027053
635.50 1.999692
635.60 1.979271
635.70 1.968783
635.80 1.950609
635.90 1.920055
636.00 1.896584
636.10 1.883445
636.20 1.869427
636.30 1.858803
636.40 1.86309
636.50 1.889048
636.60 1.906079
636.70 1.910572
636.80 1.926114
636.90 1.934622
637.00 1.933883
637.10 1.933803
637.20 1.947867
637.30 1.962484
637.40 1.967057
637.50 1.96036
637.60 1.949783
637.70 1.939798
637.80 1.926721
637.90 1.897836
638.00 1.849747
638.10 1.797497
638.20 1.7604
638.30 1.755516
638.40 1.786023
638.50 1.827256
638.60 1.854515
638.70 1.851959
638.80 1.827696
638.90 1.805375
639.00 1.80359
639.10 1.825806
639.20 1.852637
639.30 1.85607
639.40 1.834131
639.50 1.824135
639.60 1.852314
639.70 1.90411
639.80 1.948057
639.90 1.952846
640.00 1.918546
640.10 1.877233
640.20 1.866989
640.30 1.903857
640.40 1.964456
640.50 2.010986
640.60 2.026083
640.70 2.026314
640.80 2.017607
640.90 2.010911
641.00 2.011591
641.10 2.010527
641.20 1.999037
641.30 1.980158
641.40 1.974928
641.50 1.993285
641.60 2.021847
641.70 2.042852
641.80 2.045164
641.90 2.038597
642.00 2.01754
642.10 1.986189
642.20 1.964288
642.30 1.967617
642.40 2.001098
642.50 2.045731
642.60 2.078592
642.70 2.087962
642.80 2.081121
642.90 2.074273
643.00 2.059668
643.10 2.03095
643.20 2.002999
643.30 1.999079
643.40 2.019136
643.50 2.048458
643.60 2.072562
643.70 2.072921
643.80 2.020516
643.90 1.920276
644.00 1.825311
644.10 1.804406
644.20 1.872585
644.30 1.985671
644.40 2.086225
644.50 2.142558
644.60 2.16089
644.70 2.161243
644.80 2.135007
644.90 2.069807
645.00 1.985993
645.10 1.923286
645.20 1.920295
645.30 1.982208
645.40 2.06339
645.50 2.110577
645.60 2.114311
645.70 2.105317
645.80 2.10951
645.90 2.13175
646.00 2.151204
646.10 2.129128
646.20 2.042117
646.30 1.922056
646.40 1.837081
646.50 1.841253
646.60 1.927207
646.70 2.0393
646.80 2.119326
646.90 2.152024
647.00 2.151018
647.10 2.129486
647.20 2.095698
647.30 2.072411
647.40 2.074205
647.50 2.103377
647.60 2.135746
647.70 2.155589
647.80 2.167297
647.90 2.176552
648.00 2.181315
648.10 2.168594
648.20 2.141885
648.30 2.118846
648.40 2.105151
648.50 2.103295
648.60 2.111969
648.70 2.130367
648.80 2.149632
648.90 2.157121
649.00 2.157375
649.10 2.154819
649.20 2.138503
649.30 2.081224
649.40 1.973778
649.50 1.850645
649.60 1.779183
649.70 1.788969
649.80 1.855575
649.90 1.92028
650.00 1.954358
650.10 1.975957
650.20 2.014676
650.30 2.073482
650.40 2.123565
650.50 2.151806
650.60 2.166593
650.70 2.175905
650.80 2.176487
650.90 2.166892
651.00 2.16013
651.10 2.162983
651.20 2.173263
651.30 2.180862
651.40 2.175983
651.50 2.167145
651.60 2.162961
651.70 2.156073
651.80 2.145797
651.90 2.13813
652.00 2.146427
652.10 2.166786
652.20 2.184829
652.30 2.191039
652.40 2.191521
652.50 2.188421
652.60 2.189903
652.70 2.199703
652.80 2.214253
652.90 2.225664
653.00 2.227304
653.10 2.217277
653.20 2.200102
653.30 2.18619
653.40 2.186436
653.50 2.19969
653.60 2.214398
653.70 2.223933
653.80 2.231397
653.90 2.236684
654.00 2.24048
654.10 2.245049
654.20 2.252613
654.30 2.250776
654.40 2.227471
654.50 2.189292
654.60 2.152264
654.70 2.12384
654.80 2.1083
654.90 2.118239
655.00 2.146327
655.10 2.172262
655.20 2.183368
655.30 2.17291
655.40 2.149331
655.50 2.124594
655.60 2.100125
655.70 2.086391
655.80 2.092942
655.90 2.11969
656.00 2.158271
656.10 2.171481
656.20 2.121402
656.30 2.023002
656.40 1.934851
656.50 1.91485
656.60 1.976881
656.70 2.073868
656.80 2.141292
656.90 2.162967
657.00 2.151878
657.10 2.134445
657.20 2.113191
657.30 2.077185
657.40 2.042498
657.50 2.027604
657.60 2.04727
657.70 2.092563
657.80 2.139438
657.90 2.161006
658.00 2.155066
658.10 2.141432
658.20 2.134807
658.30 2.144159
658.40 2.163609
658.50 2.178481
658.60 2.182752
658.70 2.183185
658.80 2.183311
658.90 2.188911
659.00 2.200008
659.10 2.196406
659.20 2.17048
659.30 2.120632
659.40 2.065204
659.50 2.038148
659.60 2.05638
659.70 2.103082
659.80 2.146331
659.90 2.162817
660.00 2.155968
660.10 2.150015
660.20 2.163211
660.30 2.185861
660.40 2.198223
660.50 2.19081
660.60 2.170651
660.70 2.150932
660.80 2.137
660.90 2.124231
661.00 2.12168
661.10 2.130672
661.20 2.146553
661.30 2.163314
661.40 2.170822
661.50 2.174827
661.60 2.172368
661.70 2.168845
661.80 2.170597
661.90 2.17161
662.00 2.170154
662.10 2.166197
662.20 2.164974
662.30 2.165625
662.40 2.159681
662.50 2.145419
662.60 2.125298
662.70 2.113942
662.80 2.111408
662.90 2.115648
663.00 2.118008
663.10 2.117703
663.20 2.119335
663.30 2.120481
663.40 2.117247
663.50 2.11263
663.60 2.113535
663.70 2.11867
663.80 2.122316
663.90 2.126607
664.00 2.135134
664.10 2.144396
664.20 2.145403
664.30 2.138399
664.40 2.126934
664.50 2.116639
664.60 2.114842
664.70 2.125661
664.80 2.141006
664.90 2.145897
665.00 2.136191
665.10 2.113522
665.20 2.090934
665.30 2.074473
665.40 2.06867
665.50 2.071565
665.60 2.080226
665.70 2.086574
665.80 2.084396
665.90 2.079873
666.00 2.072014
666.10 2.067344
666.20 2.059272
666.30 2.046012
666.40 2.035583
666.50 2.029251
666.60 2.030627
666.70 2.039704
666.80 2.056814
666.90 2.077451
667.00 2.095252
667.10 2.108916
667.20 2.122533
667.30 2.130263
667.40 2.123851
667.50 2.110254
667.60 2.094781
667.70 2.073294
667.80 2.038255
667.90 1.998477
668.00 1.973032
668.10 1.970196
668.20 1.976487
668.30 1.983169
668.40 1.98801
668.50 1.993808
668.60 2.005362
668.70 2.015922
668.80 2.024569
668.90 2.028841
669.00 2.022652
669.10 2.008897
669.20 1.999762
669.30 2.000881
669.40 2.006438
669.50 2.010296
669.60 2.005447
669.70 1.99335
669.80 1.980949
669.90 1.97861
670.00 1.996155
670.10 2.017783
670.20 2.029489
670.30 2.03458
670.40 2.033561
670.50 2.028723
670.60 2.029082
670.70 2.030367
670.80 2.02837
670.90 2.027584
671.00 2.028618
671.10 2.03014
671.20 2.027031
671.30 2.016429
671.40 2.00064
671.50 1.975454
671.60 1.939387
671.70 1.885946
671.80 1.828574
671.90 1.789639
672.00 1.789404
672.10 1.82898
672.20 1.878334
672.30 1.91092
672.40 1.924041
672.50 1.92984
672.60 1.929755
672.70 1.926503
672.80 1.928926
672.90 1.935259
673.00 1.940276
673.10 1.941035
673.20 1.939497
673.30 1.939317
673.40 1.937243
673.50 1.935939
673.60 1.937816
673.70 1.944253
673.80 1.950837
673.90 1.953388
674.00 1.955545
674.10 1.955425
674.20 1.948889
674.30 1.936937
674.40 1.924265
674.50 1.91942
674.60 1.919551
674.70 1.917097
674.80 1.908759
674.90 1.891274
675.00 1.870775
675.10 1.856274
675.20 1.854968
675.30 1.865002
675.40 1.876363
675.50 1.885275
675.60 1.891028
675.70 1.901179
675.80 1.917356
675.90 1.933493
676.00 1.940729
676.10 1.936077
676.20 1.929972
676.30 1.928116
676.40 1.928915
676.50 1.930151
676.60 1.922785
676.70 1.912691
676.80 1.902589
676.90 1.889823
677.00 1.880056
677.10 1.881453
677.20 1.898889
677.30 1.916111
677.40 1.920374
677.50 1.922476
677.60 1.932882
677.70 1.945767
677.80 1.948434
677.90 1.939174
678.00 1.9296
678.10 1.922452
678.20 1.906143
678.30 1.879957
678.40 1.850202
678.50 1.830099
678.60 1.827107
678.70 1.830711
678.80 1.834593
678.90 1.838744
679.00 1.846828
679.10 1.853421
679.20 1.855337
679.30 1.855337
679.40 1.853656
679.50 1.85193
679.60 1.850117
679.70 1.845329
679.80 1.838406
679.90 1.834864
680.00 1.840393
680.10 1.854808
680.20 1.869565
680.30 1.879603
680.40 1.88346
680.50 1.877835
680.60 1.865969
680.70 1.849054
680.80 1.832633
680.90 1.828115
681.00 1.834296
681.10 1.839823
681.20 1.845017
681.30 1.853893
681.40 1.862975
681.50 1.865937
681.60 1.85523
681.70 1.83512
681.80 1.816126
681.90 1.80795
682.00 1.80754
682.10 1.815485
682.20 1.826784
682.30 1.829637
682.40 1.827339
682.50 1.826165
682.60 1.828001
682.70 1.832077
682.80 1.833891
682.90 1.833327
683.00 1.833239
683.10 1.832362
683.20 1.83056
683.30 1.823709
683.40 1.820634
683.50 1.829153
683.60 1.839662
683.70 1.834974
683.80 1.81761
683.90 1.808585
684.00 1.81185
684.10 1.817387
684.20 1.817904
684.30 1.817025
684.40 1.819729
684.50 1.818603
684.60 1.809214
684.70 1.798808
684.80 1.79407
684.90 1.796732
685.00 1.800102
685.10 1.8006
685.20 1.796095
685.30 1.783429
685.40 1.775154
685.50 1.776087
685.60 1.780073
685.70 1.77568
685.80 1.764844
685.90 1.761548
686.00 1.763124
686.10 1.758545
686.20 1.745581
686.30 1.739917
686.40 1.75281
686.50 1.779845
686.60 1.804626
686.70 1.813411
686.80 1.803793
686.90 1.784736
687.00 1.771249
687.10 1.767178
687.20 1.768479
687.30 1.7709
687.40 1.776092
687.50 1.785791
687.60 1.797558
687.70 1.814696
687.80 1.83794
687.90 1.856344
688.00 1.861682
688.10 1.845693
688.20 1.814052
688.30 1.783538
688.40 1.768028
688.50 1.763973
688.60 1.760668
688.70 1.764793
688.80 1.783237
688.90 1.811257
689.00 1.8422
689.10 1.857649
689.20 1.849538
689.30 1.839427
689.40 1.843195
689.50 1.854924
689.60 1.860351
689.70 1.855252
689.80 1.848673
689.90 1.846933
690.00 1.838187
690.10 1.810806
690.20 1.774265
690.30 1.761202
690.40 1.785801
690.50 1.830257
690.60 1.868618
690.70 1.892387
690.80 1.913202
690.90 1.929979
691.00 1.936767
691.10 1.932024
691.20 1.921161
691.30 1.915043
691.40 1.914901
691.50 1.911439
691.60 1.908659
691.70 1.900983
691.80 1.877054
691.90 1.832211
692.00 1.792706
692.10 1.791667
692.20 1.833332
692.30 1.894735
692.40 1.933285
692.50 1.944141
692.60 1.942314
692.70 1.949475
692.80 1.973762
692.90 2.001104
693.00 2.024869
693.10 2.041128
693.20 2.051026
693.30 2.056382
693.40 2.056648
693.50 2.049825
693.60 2.039753
693.70 2.03288
693.80 2.031591
693.90 2.034745
694.00 2.037319
694.10 2.044909
694.20 2.060858
694.30 2.081199
694.40 2.097703
694.50 2.103812
694.60 2.101535
694.70 2.103599
694.80 2.116951
694.90 2.133482
695.00 2.146873
695.10 2.146299
695.20 2.136964
695.30 2.130437
695.40 2.1187
695.50 2.105266
695.60 2.096837
695.70 2.089593
695.80 2.079529
695.90 2.068453
696.00 2.059768
696.10 2.054689
696.20 2.054981
696.30 2.060385
696.40 2.070295
696.50 2.082347
696.60 2.091459
696.70 2.093695
696.80 2.091233
696.90 2.094217
697.00 2.101479
697.10 2.103422
697.20 2.094881
697.30 2.082994
697.40 2.072736
697.50 2.070601
697.60 2.07418
697.70 2.07027
697.80 2.052561
697.90 2.024383
698.00 1.99497
698.10 1.987818
698.20 2.009995
698.30 2.043291
698.40 2.078749
698.50 2.107554
698.60 2.122662
698.70 2.123904
698.80 2.113814
698.90 2.1001
699.00 2.089843
699.10 2.082851
699.20 2.078994
699.30 2.076432
699.40 2.07401
699.50 2.074556
699.60 2.08333
699.70 2.099101
699.80 2.115116
699.90 2.12207
700.00 2.118938
700.10 2.112433
700.20 2.115542
700.30 2.132296
700.40 2.141051
700.50 2.133253
700.60 2.117873
700.70 2.11109
700.80 2.116548
700.90 2.126965
701.00 2.137898
701.10 2.141636
701.20 2.13767
701.30 2.142502
701.40 2.162717
701.50 2.172622
701.60 2.157544
701.70 2.125788
701.80 2.101926
701.90 2.108896
702.00 2.139954
702.10 2.173478
702.20 2.190901
702.30 2.18415
702.40 2.162701
702.50 2.143551
702.60 2.13179
702.70 2.129106
702.80 2.14212
702.90 2.17055
703.00 2.209524
703.10 2.24375
703.20 2.254944
703.30 2.246001
703.40 2.234817
703.50 2.239615
703.60 2.257278
703.70 2.26666
703.80 2.254179
703.90 2.227881
704.00 2.21258
704.10 2.227508
704.20 2.266636
704.30 2.309417
704.40 2.339815
704.50 2.353089
704.60 2.356219
704.70 2.358834
704.80 2.362399
704.90 2.362244
705.00 2.355458
705.10 2.344238
705.20 2.329313
705.30 2.305025
705.40 2.264241
705.50 2.205339
705.60 2.142488
705.70 2.103421
705.80 2.101135
705.90 2.125334
706.00 2.140796
706.10 2.124341
706.20 2.09497
706.30 2.077314
706.40 2.079966
706.50 2.096803
706.60 2.114223
706.70 2.123569
706.80 2.124861
706.90 2.121856
707.00 2.126107
707.10 2.139811
707.20 2.158012
707.30 2.17848
707.40 2.194664
707.50 2.199162
707.60 2.196084
707.70 2.193718
707.80 2.192033
707.90 2.189981
708.00 2.186405
708.10 2.185904
708.20 2.192703
708.30 2.195494
708.40 2.188158
708.50 2.167502
708.60 2.135674
708.70 2.096371
708.80 2.048873
708.90 1.999155
709.00 1.957316
709.10 1.945279
709.20 1.971408
709.30 2.01043
709.40 2.034531
709.50 2.034537
709.60 2.021676
709.70 2.00921
709.80 2.004695
709.90 2.010774
710.00 2.024621
710.10 2.04
710.20 2.04553
710.30 2.040374
710.40 2.035695
710.50 2.038019
710.60 2.047853
710.70 2.060494
710.80 2.072072
710.90 2.082333
711.00 2.08669
711.10 2.082613
711.20 2.077454
711.30 2.072861
711.40 2.071837
711.50 2.074608
711.60 2.080413
711.70 2.088932
711.80 2.097326
711.90 2.109461
712.00 2.123672
712.10 2.133302
712.20 2.138151
712.30 2.136207
712.40 2.124811
712.50 2.093943
712.60 2.032483
712.70 1.956457
712.80 1.895832
712.90 1.875708
713.00 1.891376
713.10 1.911579
713.20 1.911077
713.30 1.893252
713.40 1.884986
713.50 1.89319
713.60 1.907975
713.70 1.918738
713.80 1.920934
713.90 1.914138
714.00 1.905096
714.10 1.903811
714.20 1.913253
714.30 1.930032
714.40 1.946399
714.50 1.954417
714.60 1.949628
714.70 1.92004
714.80 1.860154
714.90 1.804
715.00 1.787997
715.10 1.825339
715.20 1.899338
715.30 1.968699
715.40 2.004523
715.50 2.014745
715.60 2.021008
715.70 2.033055
715.80 2.041341
715.90 2.034375
716.00 2.01426
716.10 1.995384
716.20 1.993076
716.30 2.003871
716.40 2.012749
716.50 2.013491
716.60 2.008997
716.70 2.010219
716.80 2.022243
716.90 2.034039
717.00 2.038803
717.10 2.040423
717.20 2.044362
717.30 2.051443
717.40 2.05528
717.50 2.056178
717.60 2.055628
717.70 2.050416
717.80 2.045282
717.90 2.042522
718.00 2.043919
718.10 2.05021
718.20 2.056504
718.30 2.06777
718.40 2.088582
718.50 2.111929
718.60 2.123448
718.70 2.101609
718.80 2.052602
718.90 2.010409
719.00 2.001735
719.10 2.026628
719.20 2.060378
719.30 2.085342
719.40 2.098044
719.50 2.106817
719.60 2.118665
719.70 2.122235
719.80 2.10681
719.90 2.078383
720.00 2.052423
720.10 2.031832
720.20 2.001754
720.30 1.969244
720.40 1.958551
720.50 1.980395
720.60 2.01987
720.70 2.038599
720.80 2.020417
720.90 1.984093
721.00 1.958156
721.10 1.957369
721.20 1.981306
721.30 2.022277
721.40 2.064439
721.50 2.092655
721.60 2.102134
721.70 2.097982
721.80 2.094616
721.90 2.101405
722.00 2.119637
722.10 2.139407
722.20 2.149785
722.30 2.14809
722.40 2.137971
722.50 2.13569
722.60 2.147052
722.70 2.158732
722.80 2.160566
722.90 2.151708
723.00 2.14032
723.10 2.136671
723.20 2.145036
723.30 2.157527
723.40 2.16578
723.50 2.164968
723.60 2.158047
723.70 2.162661
723.80 2.179325
723.90 2.191383
724.00 2.189305
724.10 2.173784
724.20 2.155444
724.30 2.142415
724.40 2.133303
724.50 2.12623
724.60 2.120177
724.70 2.118483
724.80 2.138081
724.90 2.177503
725.00 2.214177
725.10 2.225305
725.20 2.202009
725.30 2.166939
725.40 2.143314
725.50 2.144191
725.60 2.168615
725.70 2.199449
725.80 2.219116
725.90 2.222556
726.00 2.215493
726.10 2.205017
726.20 2.196837
726.30 2.195167
726.40 2.203512
726.50 2.217963
726.60 2.230885
726.70 2.238741
726.80 2.243189
726.90 2.250364
727.00 2.255714
727.10 2.246732
727.20 2.226219
727.30 2.211706
727.40 2.220318
727.50 2.252745
727.60 2.283932
727.70 2.288492
727.80 2.275566
727.90 2.257178
728.00 2.24787
728.10 2.252861
728.20 2.263469
728.30 2.273945
728.40 2.275784
728.50 2.275957
728.60 2.276779
728.70 2.277276
728.80 2.279095
728.90 2.281929
729.00 2.284325
729.10 2.281105
729.20 2.267725
729.30 2.252794
729.40 2.246367
729.50 2.254068
729.60 2.273829
729.70 2.296386
729.80 2.311396
729.90 2.31122
730.00 2.301329
730.10 2.290927
730.20 2.289686
730.30 2.295624
730.40 2.300429
730.50 2.293807
730.60 2.277996
730.70 2.273932
730.80 2.281827
730.90 2.290869
731.00 2.294562
731.10 2.290898
731.20 2.288706
731.30 2.291327
731.40 2.301546
731.50 2.319352
731.60 2.335259
731.70 2.33628
731.80 2.322064
731.90 2.310808
732.00 2.307607
732.10 2.311914
732.20 2.323268
732.30 2.33549
732.40 2.334671
732.50 2.304248
732.60 2.245746
732.70 2.185342
732.80 2.155503
732.90 2.178918
733.00 2.246613
733.10 2.314793
733.20 2.341829
733.30 2.334637
733.40 2.325418
733.50 2.328718
733.60 2.340755
733.70 2.347706
733.80 2.35135
733.90 2.363527
734.00 2.370029
734.10 2.365855
734.20 2.359977
734.30 2.340682
734.40 2.317061
734.50 2.295852
734.60 2.276513
734.70 2.279948
734.80 2.304195
734.90 2.329163
735.00 2.342261
735.10 2.339571
735.20 2.331507
735.30 2.331107
735.40 2.332512
735.50 2.318136
735.60 2.279865
735.70 2.230739
735.80 2.199264
735.90 2.202528
736.00 2.236655
736.10 2.277737
736.20 2.297365
736.30 2.290285
736.40 2.270796
736.50 2.262842
736.60 2.275167
736.70 2.296532
736.80 2.324861
736.90 2.349273
737.00 2.366145
737.10 2.379536
737.20 2.378893
737.30 2.378784
737.40 2.385882
737.50 2.387153
737.60 2.386649
737.70 2.381698
737.80 2.376631
737.90 2.382045
738.00 2.390971
738.10 2.397273
738.20 2.399427
738.30 2.392157
738.40 2.379331
738.50 2.368981
738.60 2.361843
738.70 2.356779
738.80 2.346556
738.90 2.332877
739.00 2.324895
739.10 2.322177
739.20 2.324254
739.30 2.328333
739.40 2.332503
739.50 2.339278
739.60 2.351143
739.70 2.368867
739.80 2.379856
739.90 2.369463
740.00 2.335892
740.10 2.296862
740.20 2.282277
740.30 2.300035
740.40 2.3382
740.50 2.376105
740.60 2.394799
740.70 2.396312
740.80 2.390465
740.90 2.38017
741.00 2.363204
741.10 2.342885
741.20 2.331045
741.30 2.331597
741.40 2.339939
741.50 2.350345
741.60 2.356796
741.70 2.357741
741.80 2.357242
741.90 2.3596
742.00 2.36444
742.10 2.369303
742.20 2.3652
742.30 2.349461
742.40 2.334679
742.50 2.328859
742.60 2.336899
742.70 2.359573
742.80 2.388865
742.90 2.412002
743.00 2.421263
743.10 2.419381
743.20 2.408803
743.30 2.395094
743.40 2.387416
743.50 2.388837
743.60 2.394013
743.70 2.40415
743.80 2.420512
743.90 2.428561
744.00 2.418065
744.10 2.393739
744.20 2.371209
744.30 2.365378
744.40 2.370076
744.50 2.371643
744.60 2.35775
744.70 2.330077
744.80 2.312258
744.90 2.31848
745.00 2.346311
745.10 2.378969
745.20 2.398608
745.30 2.40624
745.40 2.410705
745.50 2.414357
745.60 2.417221
745.70 2.420367
745.80 2.425612
745.90 2.43149
746.00 2.427039
746.10 2.402494
746.20 2.36175
746.30 2.315202
746.40 2.280599
746.50 2.283484
746.60 2.324771
746.70 2.379647
746.80 2.417716
746.90 2.425535
747.00 2.417698
747.10 2.410917
747.20 2.413875
747.30 2.421808
747.40 2.422986
747.50 2.419799
747.60 2.418709
747.70 2.416283
747.80 2.415445
747.90 2.421478
748.00 2.428774
748.10 2.430824
748.20 2.428087
748.30 2.422829
748.40 2.421326
748.50 2.425652
748.60 2.427774
748.70 2.425742
748.80 2.419674
748.90 2.410776
749.00 2.401009
749.10 2.387868
749.20 2.373791
749.30 2.366357
749.40 2.360215
749.50 2.344638
749.60 2.322212
749.70 2.312701
749.80 2.329999
749.90 2.365918
750.00 2.404941
750.10 2.429301
750.20 2.436219
750.30 2.437714
750.40 2.434572
750.50 2.422708
750.60 2.409111
750.70 2.400557
750.80 2.396625
750.90 2.395409
751.00 2.387774
751.10 2.36812
751.20 2.34619
751.30 2.338716
751.40 2.355253
751.50 2.391012
751.60 2.427837
751.70 2.451086
751.80 2.459626
751.90 2.458314
752.00 2.452907
752.10 2.443335
752.20 2.434553
752.30 2.429303
752.40 2.426434
752.50 2.426613
752.60 2.422055
752.70 2.4144
752.80 2.407825
752.90 2.403594
753.00 2.402085
753.10 2.402835
753.20 2.402141
753.30 2.397958
753.40 2.400022
753.50 2.411525
753.60 2.429833
753.70 2.448092
753.80 2.458291
753.90 2.462494
754.00 2.463468
754.10 2.460099
754.20 2.453727
754.30 2.451044
754.40 2.455544
754.50 2.458969
754.60 2.454382
754.70 2.446749
754.80 2.442874
754.90 2.443323
755.00 2.444999
755.10 2.448157
755.20 2.455886
755.30 2.461382
755.40 2.456683
755.50 2.44572
755.60 2.433779
755.70 2.425491
755.80 2.426601
755.90 2.434984
756.00 2.446724
756.10 2.458052
756.20 2.463659
756.30 2.463107
756.40 2.458975
756.50 2.454255
756.60 2.451229
756.70 2.4466
756.80 2.437794
756.90 2.427956
757.00 2.419006
757.10 2.415202
757.20 2.422231
757.30 2.436094
757.40 2.449377
757.50 2.454059
757.60 2.446132
757.70 2.439902
757.80 2.442943
757.90 2.446678
758.00 2.450139
758.10 2.452888
758.20 2.454041
758.30 2.447797
758.40 2.433131
758.50 2.416348
758.60 2.396146
758.70 2.38323
758.80 2.38423
758.90 2.387029
759.00 2.381315
759.10 2.369964
759.20 2.368755
759.30 2.384526
759.40 2.411346
759.50 2.420754
759.60 2.397852
759.70 2.371016
759.80 2.369733
759.90 2.407437
760.00 2.443888
760.10 2.436022
760.20 2.397499
760.30 2.354912
760.40 2.345295
760.50 2.371125
760.60 2.401496
760.70 2.413532
760.80 2.398079
760.90 2.374384
761.00 2.357223
761.10 2.355552
761.20 2.37336
761.30 2.397185
761.40 2.413123
761.50 2.409322
761.60 2.376082
761.70 2.331135
761.80 2.319401
761.90 2.349152
762.00 2.388583
762.10 2.405686
762.20 2.389605
762.30 2.368364
762.40 2.372376
762.50 2.402869
762.60 2.436565
762.70 2.441186
762.80 2.411575
762.90 2.373131
763.00 2.357569
763.10 2.363348
763.20 2.358966
763.30 2.35178
763.40 2.370925
763.50 2.389696
763.60 2.375469
763.70 2.355082
763.80 2.355847
763.90 2.373161
764.00 2.383089
764.10 2.363566
764.20 2.347858
764.30 2.37063
764.40 2.395254
764.50 2.389989
764.60 2.363426
764.70 2.342093
764.80 2.366616
764.90 2.406813
765.00 2.39385
765.10 2.344453
765.20 2.317303
765.30 2.346223
765.40 2.392255
765.50 2.374111
765.60 2.314869
765.70 2.295587
765.80 2.324503
765.90 2.362952
766.00 2.35783
766.10 2.308756
766.20 2.276663
766.30 2.269989
766.40 2.236144
766.50 2.123012
766.60 1.95569
766.70 1.859002
766.80 1.913147
766.90 2.082541
767.00 2.255445
767.10 2.332256
767.20 2.320152
767.30 2.280904
767.40 2.26787
767.50 2.293793
767.60 2.320157
767.70 2.324402
767.80 2.311911
767.90 2.298179
768.00 2.30377
768.10 2.320936
768.20 2.333256
768.30 2.330432
768.40 2.31382
768.50 2.302128
768.60 2.303182
768.70 2.316733
768.80 2.334284
768.90 2.342248
769.00 2.336688
769.10 2.32253
769.20 2.312836
769.30 2.312969
769.40 2.320108
769.50 2.331778
769.60 2.338573
769.70 2.318023
769.80 2.249197
769.90 2.137533
770.00 2.028079
770.10 1.98346
770.20 2.031466
770.30 2.142482
770.40 2.249448
770.50 2.304519
770.60 2.313247
770.70 2.308524
770.80 2.306962
770.90 2.301742
771.00 2.289698
771.10 2.284797
771.20 2.295353
771.30 2.303225
771.40 2.287538
771.50 2.256637
771.60 2.239667
771.70 2.253858
771.80 2.284129
771.90 2.30573
772.00 2.320471
772.10 2.333335
772.20 2.328174
772.30 2.311348
772.40 2.302356
772.50 2.301806
772.60 2.308427
772.70 2.314996
772.80 2.314345
772.90 2.312028
773.00 2.315002
773.10 2.324519
773.20 2.337583
773.30 2.348547
773.40 2.35281
773.50 2.351626
773.60 2.351831
773.70 2.357759
773.80 2.362838
773.90 2.363032
774.00 2.36207
774.10 2.359683
774.20 2.35469
774.30 2.346918
774.40 2.333924
774.50 2.321197
774.60 2.315172
774.70 2.30759
774.80 2.287482
774.90 2.25475
775.00 2.226239
775.10 2.226843
775.20 2.250407
775.30 2.275505
775.40 2.291011
775.50 2.297323
775.60 2.307286
775.70 2.316751
775.80 2.316255
775.90 2.314799
776.00 2.318883
776.10 2.322199
776.20 2.320259
776.30 2.317107
776.40 2.312275
776.50 2.307592
776.60 2.308996
776.70 2.31158
776.80 2.310362
776.90 2.307715
777.00 2.309824
777.10 2.318228
777.20 2.325766
777.30 2.330599
777.40 2.336765
777.50 2.341451
777.60 2.339534
777.70 2.33562
777.80 2.333959
777.90 2.330416
778.00 2.319818
778.10 2.302489
778.20 2.283733
778.30 2.270943
778.40 2.272781
778.50 2.285783
778.60 2.295863
778.70 2.298347
778.80 2.295435
778.90 2.287172
779.00 2.275745
779.10 2.270321
779.20 2.277348
779.30 2.299698
779.40 2.330899
779.50 2.349634
779.60 2.349004
779.70 2.338677
779.80 2.324003
779.90 2.309059
780.00 2.296686
780.10 2.289259
780.20 2.290594
780.30 2.300545
780.40 2.315983
780.50 2.331567
780.60 2.341714
780.70 2.347513
780.80 2.349303
780.90 2.347954
781.00 2.347705
781.10 2.342723
781.20 2.333758
781.30 2.334609
781.40 2.345269
781.50 2.353853
781.60 2.355104
781.70 2.35357
781.80 2.354513
781.90 2.356692
782.00 2.352962
782.10 2.345246
782.20 2.343491
782.30 2.343973
782.40 2.338709
782.50 2.331577
782.60 2.331076
782.70 2.335194
782.80 2.334138
782.90 2.327863
783.00 2.316584
783.10 2.299266
783.20 2.280143
783.30 2.263296
783.40 2.249467
783.50 2.239167
783.60 2.233326
783.70 2.235055
783.80 2.245998
783.90 2.263199
784.00 2.286411
784.10 2.311818
784.20 2.33043
784.30 2.338838
784.40 2.338386
784.50 2.335914
784.60 2.337656
784.70 2.340515
784.80 2.342755
784.90 2.342539
785.00 2.33918
785.10 2.338949
785.20 2.341982
785.30 2.345936
785.40 2.352539
785.50 2.358093
785.60 2.355164
785.70 2.346627
785.80 2.344107
785.90 2.34649
786.00 2.351814
786.10 2.360627
786.20 2.361054
786.30 2.353667
786.40 2.348925
786.50 2.348013
786.60 2.35345
786.70 2.361541
786.80 2.363745
786.90 2.36237
787.00 2.361569
787.10 2.355845
787.20 2.345215
787.30 2.337713
787.40 2.33767
787.50 2.343395
787.60 2.350261
787.70 2.355393
787.80 2.358395
787.90 2.360606
788.00 2.361124
788.10 2.360124
788.20 2.360537
788.30 2.364593
788.40 2.370019
788.50 2.367402
788.60 2.355279
788.70 2.346523
788.80 2.348447
788.90 2.362049
789.00 2.37874
789.10 2.381539
789.20 2.374514
789.30 2.369857
789.40 2.36407
789.50 2.35545
789.60 2.348017
789.70 2.346279
789.80 2.353217
789.90 2.363702
790.00 2.370336
790.10 2.37114
790.20 2.366692
790.30 2.35864
790.40 2.351806
790.50 2.350501
790.60 2.354165
790.70 2.356238
790.80 2.353373
790.90 2.345156
791.00 2.334386
791.10 2.32718
791.20 2.327317
791.30 2.341323
791.40 2.352696
791.50 2.343667
791.60 2.340103
791.70 2.352942
791.80 2.35884
791.90 2.352992
792.00 2.349464
792.10 2.355496
792.20 2.364002
792.30 2.36283
792.40 2.355175
792.50 2.348899
792.60 2.348449
792.70 2.351051
792.80 2.34741
792.90 2.342892
793.00 2.343724
793.10 2.34522
793.20 2.349465
793.30 2.359534
793.40 2.370511
793.50 2.381238
793.60 2.378982
793.70 2.351192
793.80 2.315693
793.90 2.292714
794.00 2.291987
794.10 2.313417
794.20 2.340534
794.30 2.355076
794.40 2.349688
794.50 2.330334
794.60 2.306384
794.70 2.28337
794.80 2.265918
794.90 2.2617
795.00 2.275897
795.10 2.305727
795.20 2.340995
795.30 2.367315
795.40 2.380893
795.50 2.388322
795.60 2.389389
795.70 2.385646
795.80 2.385227
795.90 2.382033
796.00 2.368931
796.10 2.353941
796.20 2.342728
796.30 2.340167
796.40 2.350611
796.50 2.370559
796.60 2.391712
796.70 2.403119
796.80 2.40559
796.90 2.401197
797.00 2.391346
797.10 2.390791
797.20 2.396025
797.30 2.394593
797.40 2.392465
797.50 2.392267
797.60 2.393753
797.70 2.398239
797.80 2.395153
797.90 2.380766
798.00 2.363695
798.10 2.351687
798.20 2.35608
798.30 2.373872
798.40 2.388374
798.50 2.397343
798.60 2.398522
798.70 2.387965
798.80 2.378502
798.90 2.375833
799.00 2.374604
799.10 2.382573
799.20 2.399111
799.30 2.413009
799.40 2.424776
799.50 2.424927
799.60 2.407948
799.70 2.382067
799.80 2.350791
799.90 2.317075
800.00 2.288811
800.10 2.280455
800.20 2.29952
800.30 2.3325
800.40 2.361491
800.50 2.380099
800.60 2.388736
800.70 2.391169
800.80 2.388378
800.90 2.381029
801.00 2.376002
801.10 2.376967
801.20 2.3817
801.30 2.38715
801.40 2.390717
801.50 2.391692
801.60 2.393552
801.70 2.399579
801.80 2.405713
801.90 2.405852
802.00 2.403064
802.10 2.399412
802.20 2.392836
802.30 2.386955
802.40 2.381189
802.50 2.374137
802.60 2.364986
802.70 2.349059
802.80 2.332178
802.90 2.324276
803.00 2.329544
803.10 2.349734
803.20 2.375695
803.30 2.393679
803.40 2.403052
803.50 2.405169
803.60 2.400961
803.70 2.397222
803.80 2.394717
803.90 2.392489
804.00 2.395101
804.10 2.399517
804.20 2.401273
804.30 2.402395
804.40 2.400563
804.50 2.387749
804.60 2.359964
804.70 2.322737
804.80 2.291887
804.90 2.289328
805.00 2.317795
805.10 2.358825
805.20 2.397499
805.30 2.422103
805.40 2.427446
805.50 2.419581
805.60 2.412028
805.70 2.415061
805.80 2.41995
805.90 2.420916
806.00 2.426021
806.10 2.432741
806.20 2.438839
806.30 2.443435
806.40 2.435588
806.50 2.418798
806.60 2.405885
806.70 2.399067
806.80 2.395489
806.90 2.38628
807.00 2.370465
807.10 2.358556
807.20 2.35803
807.30 2.372684
807.40 2.392151
807.50 2.400926
807.60 2.399446
807.70 2.39447
807.80 2.395866
807.90 2.40772
808.00 2.42026
808.10 2.425048
808.20 2.423315
808.30 2.420362
808.40 2.416787
808.50 2.407347
808.60 2.389554
808.70 2.374929
808.80 2.377493
808.90 2.395851
809.00 2.416747
809.10 2.429603
809.20 2.43394
809.30 2.428759
809.40 2.415944
809.50 2.40547
809.60 2.400464
809.70 2.39901
809.80 2.401355
809.90 2.40254
810.00 2.399508
810.10 2.401997
810.20 2.414265
810.30 2.428059
810.40 2.436771
810.50 2.43719
810.60 2.428524
810.70 2.415897
810.80 2.408387
810.90 2.408249
811.00 2.409952
811.10 2.410424
811.20 2.41164
811.30 2.415179
811.40 2.417324
811.50 2.411669
811.60 2.391098
811.70 2.359023
811.80 2.332055
811.90 2.324176
812.00 2.339585
812.10 2.369298
812.20 2.397968
812.30 2.415972
812.40 2.421256
812.50 2.418018
812.60 2.413016
812.70 2.410835
812.80 2.41318
812.90 2.415938
813.00 2.412512
813.10 2.406387
813.20 2.403915
813.30 2.405074
813.40 2.405292
813.50 2.39949
813.60 2.393156
813.70 2.394425
813.80 2.405462
813.90 2.424266
814.00 2.437942
814.10 2.434966
814.20 2.419329
814.30 2.401381
814.40 2.389957
814.50 2.390346
814.60 2.399626
814.70 2.406769
814.80 2.404385
814.90 2.395408
815.00 2.387285
815.10 2.38928
815.20 2.402504
815.30 2.413729
815.40 2.414121
815.50 2.407224
815.60 2.397396
815.70 2.393572
815.80 2.400823
815.90 2.408381
816.00 2.405965
816.10 2.392523
816.20 2.372247
816.30 2.35542
816.40 2.34974
816.50 2.355094
816.60 2.37427
816.70 2.401992
816.80 2.420808
816.90 2.424024
817.00 2.41227
817.10 2.390817
817.20 2.377628
817.30 2.382621
817.40 2.399109
817.50 2.414666
817.60 2.416503
817.70 2.404682
817.80 2.388738
817.90 2.379373
818.00 2.384085
818.10 2.381707
818.20 2.337529
818.30 2.238314
818.40 2.108422
818.50 2.016558
818.60 2.018214
818.70 2.10178
818.80 2.210576
818.90 2.29384
819.00 2.338794
819.10 2.362605
819.20 2.372949
819.30 2.341468
819.40 2.241839
819.50 2.093041
819.60 1.956349
819.70 1.899407
819.80 1.951165
819.90 2.07622
820.00 2.200455
820.10 2.278867
820.20 2.317272
820.30 2.337054
820.40 2.347891
820.50 2.348712
820.60 2.339297
820.70 2.326903
820.80 2.323372
820.90 2.332977
821.00 2.350477
821.10 2.363358
821.20 2.361929
821.30 2.350354
821.40 2.337139
821.50 2.330721
821.60 2.337798
821.70 2.354598
821.80 2.368419
821.90 2.364836
822.00 2.340513
822.10 2.305986
822.20 2.27606
822.30 2.267333
822.40 2.288338
822.50 2.330337
822.60 2.370843
822.70 2.389754
822.80 2.385457
822.90 2.368243
823.00 2.356256
823.10 2.363058
823.20 2.375145
823.30 2.37264
823.40 2.357578
823.50 2.342344
823.60 2.338263
823.70 2.352676
823.80 2.378645
823.90 2.400393
824.00 2.414026
824.10 2.422852
824.20 2.421963
824.30 2.410395
824.40 2.395895
824.50 2.388304
824.60 2.396844
824.70 2.419462
824.80 2.450197
824.90 2.479694
825.00 2.49385
825.10 2.494721
825.20 2.49325
825.30 2.487697
825.40 2.47246
825.50 2.446998
825.60 2.411035
825.70 2.370171
825.80 2.341186
825.90 2.33717
826.00 2.354067
826.10 2.382479
826.20 2.412655
826.30 2.431369
826.40 2.438809
826.50 2.444547
826.60 2.451904
826.70 2.463953
826.80 2.479512
826.90 2.489527
827.00 2.489686
827.10 2.481241
827.20 2.46169
827.30 2.430013
827.40 2.388403
827.50 2.343179
827.60 2.311582
827.70 2.30418
827.80 2.318088
827.90 2.345329
828.00 2.36826
828.10 2.37578
828.20 2.371316
828.30 2.362775
828.40 2.361678
828.50 2.375069
828.60 2.399774
828.70 2.413911
828.80 2.393326
828.90 2.348278
829.00 2.307407
829.10 2.295647
829.20 2.317232
829.30 2.337647
829.40 2.33347
829.50 2.317816
829.60 2.305888
829.70 2.319832
829.80 2.362375
829.90 2.399996
830.00 2.401526
830.10 2.399487
830.20 2.397448
830.30 2.387641
830.40 2.377835
830.50 2.353137
830.60 2.328439
830.70 2.315988
830.80 2.303537
830.90 2.317761
831.00 2.331985
831.10 2.348154
831.20 2.364324
831.30 2.365109
831.40 2.365894
831.50 2.36825
831.60 2.370607
831.70 2.369005
831.80 2.367404
831.90 2.363395
832.00 2.359386
832.10 2.350729
832.20 2.342072
832.30 2.336229
832.40 2.330386
832.50 2.324484
832.60 2.318583
832.70 2.268182
832.80 2.217782
832.90 2.20349
833.00 2.189198
833.10 2.222557
833.20 2.255917
833.30 2.266971
833.40 2.278025
833.50 2.279391
833.60 2.280757
833.70 2.296942
833.80 2.313127
833.90 2.313867
834.00 2.314608
834.10 2.312494
834.20 2.310379
834.30 2.343699
834.40 2.377019
834.50 2.387042
834.60 2.397066
834.70 2.376122
834.80 2.355178
834.90 2.344356
835.00 2.333534
835.10 2.332004
835.20 2.330474
835.30 2.341166
835.40 2.351859
835.50 2.350412
835.60 2.348964
835.70 2.355515
835.80 2.362065
835.90 2.361254
836.00 2.360442
836.10 2.355168
836.20 2.349893
836.30 2.328665
836.40 2.307437
836.50 2.281815
836.60 2.256194
836.70 2.268719
836.80 2.281244
836.90 2.31824
837.00 2.355236
837.10 2.366025
837.20 2.376813
837.30 2.372295
837.40 2.367777
837.50 2.358776
837.60 2.349775
837.70 2.326095
837.80 2.302414
837.90 2.290538
838.00 2.278662
838.10 2.278487
838.20 2.278311
838.30 2.252066
838.40 2.225821
838.50 2.214251
838.60 2.202682
838.70 2.184965
838.80 2.167248
838.90 2.143675
839.00 2.120102
839.10 2.166806
839.20 2.21351
839.30 2.273345
839.40 2.333181
839.50 2.335298
839.60 2.337415
839.70 2.319946
839.80 2.302477
839.90 2.299833
840.00 2.29719
840.10 2.322496
840.20 2.336427
840.30 2.347108
840.40 2.353917
840.50 2.359628
840.60 2.369175
840.70 2.378541
840.80 2.383327
840.90 2.385486
841.00 2.378482
841.10 2.363091
841.20 2.337612
841.30 2.30076
841.40 2.269939
841.50 2.269045
841.60 2.278713
841.70 2.294593
841.80 2.311524
841.90 2.324708
842.00 2.334534
842.10 2.340518
842.20 2.339283
842.30 2.335771
842.40 2.318663
842.50 2.291759
842.60 2.262138
842.70 2.236618
842.80 2.219442
842.90 2.234358
843.00 2.260091
843.10 2.291949
843.20 2.321316
843.30 2.322218
843.40 2.282597
843.50 2.214855
843.60 2.133484
843.70 2.0677
843.80 2.061294
843.90 2.095224
844.00 2.148838
844.10 2.208369
844.20 2.257852
844.30 2.287641
844.40 2.311136
844.50 2.327767
844.60 2.339134
844.70 2.350691
844.80 2.368179
844.90 2.384226
845.00 2.365528
845.10 2.343517
845.20 2.328159
845.30 2.316783
845.40 2.313909
845.50 2.321999
845.60 2.330816
845.70 2.328268
845.80 2.325187
845.90 2.325262
846.00 2.32733
846.10 2.331253
846.20 2.335074
846.30 2.336395
846.40 2.328045
846.50 2.31666
846.60 2.293401
846.70 2.2615
846.80 2.220097
846.90 2.174666
847.00 2.144345
847.10 2.158305
847.20 2.185284
847.30 2.221624
847.40 2.258207
847.50 2.2858
847.60 2.303691
847.70 2.31508
847.80 2.317166
847.90 2.318171
848.00 2.318534
848.10 2.3179
848.20 2.313722
848.30 2.306953
848.40 2.303251
848.50 2.308302
848.60 2.315814
848.70 2.321664
848.80 2.326044
848.90 2.328578
849.00 2.330154
849.10 2.330519
849.20 2.327479
849.30 2.32161
849.40 2.301637
849.50 2.272628
849.60 2.211406
849.70 2.125185
849.80 2.034592
849.90 1.95294
850.00 1.895088
850.10 1.947059
850.20 2.025552
850.30 2.107343
850.40 2.182773
850.50 2.238583
850.60 2.266956
850.70 2.285211
850.80 2.291291
850.90 2.298081
851.00 2.302928
851.10 2.305211
851.20 2.295527
851.30 2.266153
851.40 2.227979
851.50 2.186774
851.60 2.148638
851.70 2.138924
851.80 2.147371
851.90 2.163763
852.00 2.184098
852.10 2.208413
852.20 2.238348
852.30 2.267411
852.40 2.280738
852.50 2.284454
852.60 2.281396
852.70 2.273184
852.80 2.265044
852.90 2.266359
853.00 2.268759
853.10 2.269032
853.20 2.26806
853.30 2.263163
853.40 2.253379
853.50 2.24119
853.60 2.218508
853.70 2.1893
853.80 2.140372
853.90 2.078513
854.00 1.982605
854.10 1.852049
854.20 1.714563
854.30 1.608847
854.40 1.534284
854.50 1.571586
854.60 1.658187
854.70 1.770932
854.80 1.892885
854.90 1.997976
855.00 2.060665
855.10 2.11107
855.20 2.153648
855.30 2.192549
855.40 2.219335
855.50 2.234744
855.60 2.244724
855.70 2.248517
855.80 2.250876
855.90 2.257399
856.00 2.263006
856.10 2.267039
856.20 2.270551
856.30 2.273307
856.40 2.271124
856.50 2.271217
856.60 2.278121
856.70 2.283932
856.80 2.285785
856.90 2.285361
857.00 2.285403
857.10 2.286967
857.20 2.287374
857.30 2.289665
857.40 2.293613
857.50 2.296178
857.60 2.297292
857.70 2.298227
857.80 2.300668
857.90 2.305301
858.00 2.309076
858.10 2.309189
858.20 2.297975
858.30 2.280872
858.40 2.269364
858.50 2.269004
858.60 2.274238
858.70 2.289499
858.80 2.305197
858.90 2.315105
859.00 2.321431
859.10 2.322242
859.20 2.316203
859.30 2.308213
859.40 2.304372
859.50 2.302991
859.60 2.300361
859.70 2.295864
859.80 2.289093
859.90 2.281085
860.00 2.275534
860.10 2.277481
860.20 2.280951
860.30 2.287603
860.40 2.295407
860.50 2.301062
860.60 2.303687
860.70 2.304498
860.80 2.302107
860.90 2.298403
861.00 2.285627
861.10 2.268129
861.20 2.24722
861.30 2.225172
861.40 2.212
861.50 2.224024
861.60 2.242762
861.70 2.256444
861.80 2.268553
861.90 2.276278
862.00 2.279292
862.10 2.276714
862.20 2.267516
862.30 2.260886
862.40 2.264975
862.50 2.270536
862.60 2.276832
862.70 2.284441
862.80 2.290076
862.90 2.289133
863.00 2.286001
863.10 2.286846
863.20 2.286824
863.30 2.2823
863.40 2.275496
863.50 2.271535
863.60 2.272859
863.70 2.275871
863.80 2.288622
863.90 2.301575
864.00 2.308486
864.10 2.312116
864.20 2.314212
864.30 2.313855
864.40 2.313274
864.50 2.313875
864.60 2.313138
864.70 2.311388
864.80 2.308608
864.90 2.303549
865.00 2.296106
865.10 2.290075
865.20 2.286428
865.30 2.281328
865.40 2.269062
865.50 2.255103
865.60 2.240238
865.70 2.223216
865.80 2.196877
865.90 2.145988
866.00 2.078118
866.10 1.962952
866.20 1.828955
866.30 1.721118
866.40 1.652719
866.50 1.639691
866.60 1.738087
866.70 1.868641
866.80 1.987364
866.90 2.093449
867.00 2.163082
867.10 2.201003
867.20 2.222082
867.30 2.225359
867.40 2.219114
867.50 2.189891
867.60 2.155272
867.70 2.143851
867.80 2.156971
867.90 2.183722
868.00 2.218447
868.10 2.24877
868.20 2.256966
868.30 2.255498
868.40 2.248414
868.50 2.240189
868.60 2.225227
868.70 2.195322
868.80 2.1555
868.90 2.088052
869.00 2.02055
869.10 2.000767
869.20 2.01734
869.30 2.057299
869.40 2.117546
869.50 2.174919
869.60 2.206245
869.70 2.232399
869.80 2.239685
869.90 2.238479
870.00 2.236082
870.10 2.233603
870.20 2.232251
870.30 2.244157
870.40 2.257739
870.50 2.268005
870.60 2.276937
870.70 2.283286
870.80 2.285805
870.90 2.282569
871.00 2.264972
871.10 2.244598
871.20 2.228179
871.30 2.214561
871.40 2.208413
871.50 2.210136
871.60 2.214419
871.70 2.219231
871.80 2.224328
871.90 2.229227
872.00 2.232764
872.10 2.239894
872.20 2.25257
872.30 2.265842
872.40 2.274243
872.50 2.281765
872.60 2.288265
872.70 2.294446
872.80 2.296464
872.90 2.295481
873.00 2.294476
873.10 2.295026
873.20 2.293175
873.30 2.284359
873.40 2.271831
873.50 2.252338
873.60 2.230834
873.70 2.217558
873.80 2.218627
873.90 2.226004
874.00 2.244557
874.10 2.262237
874.20 2.273142
874.30 2.281494
874.40 2.288717
874.50 2.292329
874.60 2.291486
874.70 2.291329
874.80 2.291591
874.90 2.287006
875.00 2.279669
875.10 2.276526
875.20 2.281031
875.30 2.288834
875.40 2.28956
875.50 2.285425
875.60 2.27445
875.70 2.259836
875.80 2.248275
875.90 2.242298
876.00 2.242223
876.10 2.25522
876.20 2.271146
876.30 2.269101
876.40 2.25722
876.50 2.240442
876.60 2.222045
876.70 2.209077
876.80 2.213422
876.90 2.224539
877.00 2.241705
877.10 2.258899
877.20 2.253898
877.30 2.229779
877.40 2.204572
877.50 2.189062
877.60 2.181008
877.70 2.207915
877.80 2.241001
877.90 2.264811
878.00 2.27806
878.10 2.286078
878.20 2.291564
878.30 2.3005
878.40 2.305859
878.50 2.311105
878.60 2.31396
878.70 2.315282
878.80 2.316935
878.90 2.318826
879.00 2.318776
879.10 2.309147
879.20 2.297641
879.30 2.280869
879.40 2.261928
879.50 2.251028
879.60 2.253184
879.70 2.261015
879.80 2.276287
879.90 2.29009
880.00 2.294054
880.10 2.290537
880.20 2.276515
880.30 2.25173
880.40 2.220286
880.50 2.168182
880.60 2.110981
880.70 2.044509
880.80 1.982635
880.90 1.973599
881.00 2.018608
881.10 2.081833
881.20 2.160917
881.30 2.237696
881.40 2.275855
881.50 2.30106
881.60 2.314194
881.70 2.317784
881.80 2.317419
881.90 2.315051
882.00 2.311218
882.10 2.301221
882.20 2.284271
882.30 2.245289
882.40 2.189801
882.50 2.138999
882.60 2.107218
882.70 2.093182
882.80 2.135739
882.90 2.189609
883.00 2.233382
883.10 2.266364
883.20 2.289352
883.30 2.301824
883.40 2.31117
883.50 2.314671
883.60 2.313509
883.70 2.302023
883.80 2.285213
883.90 2.267575
884.00 2.251165
884.10 2.240607
884.20 2.252394
884.30 2.268081
884.40 2.281517
884.50 2.292054
884.60 2.296904
884.70 2.296248
884.80 2.294293
884.90 2.292468
885.00 2.291705
885.10 2.295717
885.20 2.303661
885.30 2.311689
885.40 2.318705
885.50 2.324444
885.60 2.326836
885.70 2.324603
885.80 2.323848
885.90 2.322224
886.00 2.316657
886.10 2.306836
886.20 2.294655
886.30 2.279905
886.40 2.268955
886.50 2.255605
886.60 2.242326
886.70 2.22846
886.80 2.213813
886.90 2.204022
887.00 2.206499
887.10 2.210467
887.20 2.232266
887.30 2.255484
887.40 2.264315
887.50 2.267618
887.60 2.271196
887.70 2.274226
887.80 2.277781
887.90 2.281604
888.00 2.283849
888.10 2.288301
888.20 2.292312
888.30 2.295864
888.40 2.30004
888.50 2.30355
888.60 2.301422
888.70 2.2979
888.80 2.296405
888.90 2.298327
889.00 2.30057
889.10 2.300872
889.20 2.298476
889.30 2.29437
889.40 2.289105
889.50 2.289666
889.60 2.290999
889.70 2.289851
889.80 2.287236
889.90 2.286152
890.00 2.286098
890.10 2.287719
890.20 2.2924
890.30 2.298139
890.40 2.303179
890.50 2.306755
890.60 2.309467
890.70 2.312758
890.80 2.315326
890.90 2.310229
891.00 2.302308
891.10 2.294753
891.20 2.288475
891.30 2.283641
891.40 2.280392
891.50 2.279098
891.60 2.280254
891.70 2.280288
891.80 2.27816
891.90 2.27421
892.00 2.267453
892.10 2.257929
892.20 2.249805
892.30 2.250082
892.40 2.251799
892.50 2.252307
892.60 2.252535
892.70 2.254338
892.80 2.257883
892.90 2.259875
893.00 2.256128
893.10 2.255015
893.20 2.254809
893.30 2.253722
893.40 2.258813
893.50 2.270332
893.60 2.281546
893.70 2.289475
893.80 2.295016
893.90 2.292862
894.00 2.286764
894.10 2.278277
894.20 2.269706
894.30 2.260535
894.40 2.247396
894.50 2.233483
894.60 2.219077
894.70 2.2047
894.80 2.201519
894.90 2.207919
895.00 2.221067
895.10 2.242106
895.20 2.263401
895.30 2.272762
895.40 2.27758
895.50 2.278777
895.60 2.278155
895.70 2.27673
895.80 2.275061
895.90 2.275398
896.00 2.279346
896.10 2.281264
896.20 2.283298
896.30 2.285332
896.40 2.284467
896.50 2.280273
896.60 2.27493
896.70 2.265187
896.80 2.255179
896.90 2.25459
897.00 2.257315
897.10 2.26049
897.20 2.263175
897.30 2.263783
897.40 2.259488
897.50 2.253864
897.60 2.241202
897.70 2.228095
897.80 2.221149
897.90 2.220613
898.00 2.225998
898.10 2.241176
898.20 2.256744
898.30 2.265733
898.40 2.27156
898.50 2.273198
898.60 2.272413
898.70 2.271206
898.80 2.270034
898.90 2.266841
899.00 2.255718
899.10 2.247285
899.20 2.247757
899.30 2.253531
899.40 2.262398
899.50 2.273492
899.60 2.282621
899.70 2.278525
899.80 2.26703
899.90 2.233739
900.00 2.192329
900.10 2.163993
900.20 2.154944
900.30 2.158988
900.40 2.195101
900.50 2.23768
900.60 2.257422
900.70 2.264153
900.80 2.254628
900.90 2.228635
901.00 2.193741
901.10 2.150241
901.20 2.111602
901.30 2.101788
901.40 2.105439
901.50 2.116164
901.60 2.127167
901.70 2.129152
901.80 2.116807
901.90 2.105806
902.00 2.108929
902.10 2.112541
902.20 2.122303
902.30 2.136639
902.40 2.149299
902.50 2.156536
902.60 2.164863
902.70 2.177266
902.80 2.189798
902.90 2.201036
903.00 2.211899
903.10 2.224257
903.20 2.238822
903.30 2.254024
903.40 2.261945
903.50 2.266835
903.60 2.267871
903.70 2.266552
903.80 2.266025
903.90 2.268246
904.00 2.272752
904.10 2.280145
904.20 2.286259
904.30 2.284429
904.40 2.279727
904.50 2.27729
904.60 2.276765
904.70 2.275361
904.80 2.275048
904.90 2.277607
905.00 2.281983
905.10 2.287073
905.20 2.287779
905.30 2.283883
905.40 2.280921
905.50 2.282511
905.60 2.28496
905.70 2.281474
905.80 2.276824
905.90 2.271565
906.00 2.265375
906.10 2.258004
906.20 2.248724
906.30 2.239555
906.40 2.23584
906.50 2.233385
906.60 2.236581
906.70 2.243273
906.80 2.250087
906.90 2.255005
907.00 2.258633
907.10 2.261135
907.20 2.262898
907.30 2.262496
907.40 2.263986
907.50 2.264736
907.60 2.262064
907.70 2.258573
907.80 2.256636
907.90 2.254717
908.00 2.24445
908.10 2.232057
908.20 2.226529
908.30 2.228435
908.40 2.231432
908.50 2.2363
908.60 2.237778
908.70 2.219061
908.80 2.192182
908.90 2.157095
909.00 2.119609
909.10 2.095028
909.20 2.098892
909.30 2.116355
909.40 2.158834
909.50 2.201978
909.60 2.230696
909.70 2.247265
909.80 2.251789
909.90 2.24175
910.00 2.230001
910.10 2.224417
910.20 2.221638
910.30 2.227321
910.40 2.234822
910.50 2.240063
910.60 2.242486
910.70 2.243398
910.80 2.236689
910.90 2.231241
911.00 2.233938
911.10 2.239959
911.20 2.243633
911.30 2.244264
911.40 2.243591
911.50 2.240028
911.60 2.235955
911.70 2.223012
911.80 2.205059
911.90 2.189093
912.00 2.175241
912.10 2.168919
912.20 2.182506
912.30 2.201958
912.40 2.220906
912.50 2.240384
912.60 2.251245
912.70 2.255088
912.80 2.258016
912.90 2.261198
913.00 2.263628
913.10 2.263601
913.20 2.261788
913.30 2.260892
913.40 2.261912
913.50 2.262496
913.60 2.260366
913.70 2.257056
913.80 2.253157
913.90 2.246288
914.00 2.235721
914.10 2.22544
914.20 2.218368
914.30 2.21617
914.40 2.217439
914.50 2.22072
914.60 2.22241
914.70 2.215936
914.80 2.206682
914.90 2.202166
915.00 2.203681
915.10 2.208689
915.20 2.221214
915.30 2.233584
915.40 2.235875
915.50 2.236729
915.60 2.235178
915.70 2.233305
915.80 2.233592
915.90 2.236823
916.00 2.238099
916.10 2.239984
916.20 2.241707
916.30 2.238971
916.40 2.232308
916.50 2.224404
916.60 2.218471
916.70 2.215511
916.80 2.216068
916.90 2.214986
917.00 2.21308
917.10 2.211408
917.20 2.20774
917.30 2.200326
917.40 2.192832
917.50 2.19206
917.60 2.196011
917.70 2.203688
917.80 2.212458
917.90 2.220822
918.00 2.227311
918.10 2.232711
918.20 2.236073
918.30 2.238937
918.40 2.23897
918.50 2.239322
918.60 2.238689
918.70 2.236891
918.80 2.235902
918.90 2.239143
919.00 2.243122
919.10 2.239069
919.20 2.235027
919.30 2.229814
919.40 2.222544
919.50 2.216375
919.60 2.215178
919.70 2.21575
919.80 2.221117
919.90 2.228041
920.00 2.23318
920.10 2.235588
920.20 2.236958
920.30 2.239168
920.40 2.242302
920.50 2.244862
920.60 2.247185
920.70 2.243308
920.80 2.234687
920.90 2.221738
921.00 2.203966
921.10 2.188253
921.20 2.183958
921.30 2.1866
921.40 2.198327
921.50 2.213076
921.60 2.222973
921.70 2.22606
921.80 2.22657
921.90 2.228516
922.00 2.231264
922.10 2.240293
922.20 2.250142
922.30 2.252405
922.40 2.248907
922.50 2.242742
922.60 2.233655
922.70 2.2257
922.80 2.223801
922.90 2.220546
923.00 2.214132
923.10 2.204914
923.20 2.193443
923.30 2.180074
923.40 2.170644
923.50 2.179672
923.60 2.194769
923.70 2.211066
923.80 2.224999
923.90 2.231546
924.00 2.230605
924.10 2.228985
924.20 2.226612
924.30 2.225347
924.40 2.226791
924.50 2.227999
924.60 2.224403
924.70 2.214795
924.80 2.204212
924.90 2.198641
925.00 2.196524
925.10 2.205557
925.20 2.21744
925.30 2.221083
925.40 2.217501
925.50 2.205663
925.60 2.176704
925.70 2.14482
925.80 2.12753
925.90 2.115358
926.00 2.126929
926.10 2.151597
926.20 2.177255
926.30 2.2017
926.40 2.22468
926.50 2.232094
926.60 2.236614
926.70 2.242946
926.80 2.251338
926.90 2.255866
927.00 2.253794
927.10 2.248973
927.20 2.242483
927.30 2.234013
927.40 2.227225
927.50 2.222168
927.60 2.220005
927.70 2.219179
927.80 2.216466
927.90 2.209679
928.00 2.205297
928.10 2.203186
928.20 2.202101
928.30 2.205323
928.40 2.211887
928.50 2.216396
928.60 2.215606
928.70 2.213875
928.80 2.203881
928.90 2.190312
929.00 2.173377
929.10 2.15547
929.20 2.14293
929.30 2.139753
929.40 2.139804
929.50 2.150598
929.60 2.165823
929.70 2.175314
929.80 2.180856
929.90 2.186611
930.00 2.193525
930.10 2.199069
930.20 2.200211
930.30 2.202709
930.40 2.205749
930.50 2.208597
930.60 2.207747
930.70 2.20239
930.80 2.19603
930.90 2.189484
931.00 2.184996
931.10 2.186065
931.20 2.187421
931.30 2.190301
931.40 2.195673
931.50 2.200563
931.60 2.203373
931.70 2.204037
931.80 2.194853
931.90 2.191983
932.00 2.189842
932.10 2.19183
932.20 2.195318
932.30 2.199354
932.40 2.199477
932.50 2.196916
932.60 2.192779
932.70 2.190612
932.80 2.188491
932.90 2.190259
933.00 2.198538
933.10 2.205351
933.20 2.205307
933.30 2.201544
933.40 2.196626
933.50 2.188758
933.60 2.182766
933.70 2.181175
933.80 2.185863
933.90 2.191614
934.00 2.196275
934.10 2.197766
934.20 2.196602
934.30 2.191476
934.40 2.186533
934.50 2.181734
934.60 2.177657
934.70 2.176316
934.80 2.178329
934.90 2.184482
935.00 2.185629
935.10 2.18196
935.20 2.173471
935.30 2.165675
935.40 2.161689
935.50 2.160581
935.60 2.158121
935.70 2.153999
935.80 2.147661
935.90 2.140085
936.00 2.130528
936.10 2.120646
936.20 2.12258
936.30 2.125995
936.40 2.131457
936.50 2.139639
936.60 2.149062
936.70 2.156718
936.80 2.163768
936.90 2.169124
937.00 2.167501
937.10 2.162806
937.20 2.155176
937.30 2.152022
937.40 2.150482
937.50 2.151467
937.60 2.156177
937.70 2.162698
937.80 2.168458
937.90 2.17102
938.00 2.172488
938.10 2.166308
938.20 2.160534
938.30 2.156625
938.40 2.162439
938.50 2.168119
938.60 2.174979
938.70 2.180618
938.80 2.185452
938.90 2.182131
939.00 2.17734
939.10 2.173727
939.20 2.177661
939.30 2.180764
939.40 2.180908
939.50 2.174707
939.60 2.168293
939.70 2.162911
939.80 2.159805
939.90 2.15617
940.00 2.153906
940.10 2.15184
940.20 2.15007
940.30 2.14636
940.40 2.143094
940.50 2.140173
940.60 2.137155
940.70 2.135142
940.80 2.134649
940.90 2.134327
941.00 2.133435
941.10 2.130497
941.20 2.125782
941.30 2.115708
941.40 2.098546
941.50 2.08002
941.60 2.068669
941.70 2.061105
941.80 2.059905
941.90 2.077837
942.00 2.099922
942.10 2.123227
942.20 2.140445
942.30 2.155502
942.40 2.165296
942.50 2.169441
942.60 2.170898
942.70 2.167707
942.80 2.162391
942.90 2.157815
943.00 2.151727
943.10 2.146612
943.20 2.142461
943.30 2.141793
943.40 2.140264
943.50 2.142344
943.60 2.143198
943.70 2.144405
943.80 2.137669
943.90 2.130154
944.00 2.121925
944.10 2.116729
944.20 2.114159
944.30 2.112898
944.40 2.113548
944.50 2.110526
944.60 2.1019
944.70 2.089797
944.80 2.076837
944.90 2.07875
945.00 2.084111
945.10 2.095421
945.20 2.112068
945.30 2.127294
945.40 2.134045
945.50 2.135041
945.60 2.134546
945.70 2.134935
945.80 2.135376
945.90 2.135781
946.00 2.141031
946.10 2.146476
946.20 2.148078
946.30 2.142914
946.40 2.136959
946.50 2.136418
946.60 2.139839
946.70 2.143308
946.80 2.146504
946.90 2.148731
947.00 2.150513
947.10 2.150338
947.20 2.148897
947.30 2.150221
947.40 2.154395
947.50 2.159517
947.60 2.159867
947.70 2.158605
947.80 2.157887
947.90 2.159443
948.00 2.160081
948.10 2.158382
948.20 2.15253
948.30 2.149736
948.40 2.150306
948.50 2.154326
948.60 2.156197
948.70 2.157384
948.80 2.157266
948.90 2.158196
949.00 2.160207
949.10 2.1633
949.20 2.16454
949.30 2.16612
949.40 2.165115
949.50 2.157443
949.60 2.148483
949.70 2.141303
949.80 2.143795
949.90 2.150201
950.00 2.156189
950.10 2.15851
950.20 2.158313
950.30 2.153814
950.40 2.14822
950.50 2.14098
950.60 2.140215
950.70 2.139107
950.80 2.137755
950.90 2.133882
951.00 2.131283
951.10 2.128706
951.20 2.128149
951.30 2.126774
951.40 2.127774
951.50 2.129225
951.60 2.131519
951.70 2.135682
951.80 2.139685
951.90 2.141028
952.00 2.139424
952.10 2.138569
952.20 2.142935
952.30 2.14914
952.40 2.156063
952.50 2.161432
952.60 2.165406
952.70 2.16629
952.80 2.163204
952.90 2.159224
953.00 2.155718
953.10 2.151456
953.20 2.148605
953.30 2.148085
953.40 2.148188
953.50 2.146406
953.60 2.140039
953.70 2.134599
953.80 2.13388
953.90 2.139194
954.00 2.145955
954.10 2.151458
954.20 2.155155
954.30 2.155946
954.40 2.138316
954.50 2.117962
954.60 2.09723
954.70 2.080506
954.80 2.068932
954.90 2.074574
955.00 2.088611
955.10 2.109732
955.20 2.123803
955.30 2.13506
955.40 2.142815
955.50 2.147031
955.60 2.14903
955.70 2.146897
955.80 2.142193
955.90 2.138758
956.00 2.14159
956.10 2.14665
956.20 2.152658
956.30 2.158094
956.40 2.161341
956.50 2.161486
956.60 2.156692
956.70 2.153499
956.80 2.148821
956.90 2.144933
957.00 2.138953
957.10 2.129068
957.20 2.117338
957.30 2.104976
957.40 2.094706
957.50 2.086305
957.60 2.085185
957.70 2.090701
957.80 2.101384
957.90 2.114163
958.00 2.126692
958.10 2.13747
958.20 2.140744
958.30 2.143766
958.40 2.146475
958.50 2.150111
958.60 2.153977
958.70 2.155391
958.80 2.153661
958.90 2.151076
959.00 2.147515
959.10 2.144583
959.20 2.142473
959.30 2.143155
959.40 2.144374
959.50 2.144575
959.60 2.144447
959.70 2.140196
959.80 2.122966
959.90 2.101489
960.00 2.078089
960.10 2.06095
960.20 2.048962
960.30 2.050793
960.40 2.068478
960.50 2.091193
960.60 2.104912
960.70 2.114066
960.80 2.118117
960.90 2.123488
961.00 2.129737
961.10 2.135229
961.20 2.138929
961.30 2.141754
961.40 2.142658
961.50 2.141795
961.60 2.140811
961.70 2.138819
961.80 2.136797
961.90 2.135417
962.00 2.134242
962.10 2.133043
962.20 2.131331
962.30 2.128905
962.40 2.125893
962.50 2.122242
962.60 2.118766
962.70 2.114417
962.80 2.11354
962.90 2.113593
963.00 2.117941
963.10 2.130614
963.20 2.142431
963.30 2.148493
963.40 2.150392
963.50 2.148573
963.60 2.127263
963.70 2.100592
963.80 2.064702
963.90 2.018464
964.00 1.981115
964.10 1.973423
964.20 1.992847
964.30 2.029493
964.40 2.060297
964.50 2.087509
964.60 2.102248
964.70 2.078652
964.80 2.05329
964.90 2.034907
965.00 2.035331
965.10 2.044193
965.20 2.056649
965.30 2.069424
965.40 2.081125
965.50 2.082629
965.60 2.082673
965.70 2.082726
965.80 2.087329
965.90 2.092196
966.00 2.093637
966.10 2.091613
966.20 2.087641
966.30 2.085752
966.40 2.084862
966.50 2.083948
966.60 2.085921
966.70 2.08858
966.80 2.090484
966.90 2.090156
967.00 2.087069
967.10 2.080356
967.20 2.07283
967.30 2.064929
967.40 2.046064
967.50 2.024354
967.60 2.000621
967.70 1.980474
967.80 1.96865
967.90 1.981322
968.00 2.013075
968.10 2.055508
968.20 2.081662
968.30 2.102628
968.40 2.115262
968.50 2.117117
968.60 2.11535
968.70 2.105303
968.80 2.085847
968.90 2.063097
969.00 2.047559
969.10 2.035293
969.20 2.030897
969.30 2.04973
969.40 2.070899
969.50 2.091197
969.60 2.104293
969.70 2.113131
969.80 2.117918
969.90 2.120031
970.00 2.119794
970.10 2.110424
970.20 2.098903
970.30 2.084185
970.40 2.063665
970.50 2.039892
970.60 2.016716
970.70 1.993733
970.80 1.982582
970.90 1.999918
971.00 2.027337
971.10 2.062253
971.20 2.08432
971.30 2.103424
971.40 2.114638
971.50 2.116997
971.60 2.114379
971.70 2.106098
971.80 2.094943
971.90 2.082084
972.00 2.074219
972.10 2.06874
972.20 2.068641
972.30 2.078635
972.40 2.09017
972.50 2.095863
972.60 2.096626
972.70 2.088244
972.80 2.064772
972.90 2.036144
973.00 2.008472
973.10 2.00506
973.20 2.007962
973.30 2.020027
973.40 2.040353
973.50 2.058571
973.60 2.063373
973.70 2.0605
973.80 2.053287
973.90 2.049451
974.00 2.047429
974.10 2.045681
974.20 2.044192
974.30 2.038885
974.40 2.027748
974.50 2.010001
974.60 1.996643
974.70 2.004146
974.80 2.017808
974.90 2.036671
975.00 2.056163
975.10 2.07339
975.20 2.084025
975.30 2.087653
975.40 2.088661
975.50 2.089912
975.60 2.091518
975.70 2.093602
975.80 2.100153
975.90 2.10635
976.00 2.110915
976.10 2.112096
976.20 2.111819
976.30 2.10601
976.40 2.095776
976.50 2.086112
976.60 2.083705
976.70 2.082989
976.80 2.080269
976.90 2.070147
977.00 2.055771
977.10 2.041579
977.20 2.027816
977.30 2.021699
977.40 2.034056
977.50 2.0536
977.60 2.077261
977.70 2.088975
977.80 2.098122
977.90 2.102083
978.00 2.101881
978.10 2.095827
978.20 2.072046
978.30 2.03774
978.40 1.996156
978.50 1.969288
978.60 1.947722
978.70 1.938129
978.80 1.947817
978.90 1.963842
979.00 1.984712
979.10 2.007955
979.20 2.03306
979.30 2.057042
979.40 2.080413
979.50 2.098916
979.60 2.102337
979.70 2.103612
979.80 2.102413
979.90 2.099695
980.00 2.096018
980.10 2.092287
980.20 2.088409
980.30 2.085121
980.40 2.088377
980.50 2.092456
980.60 2.096456
980.70 2.099464
980.80 2.101391
980.90 2.101648
981.00 2.10064
981.10 2.100118
981.20 2.09859
981.30 2.097094
981.40 2.095681
981.50 2.095957
981.60 2.096195
981.70 2.096174
981.80 2.095295
981.90 2.095338
982.00 2.096468
982.10 2.098051
982.20 2.098841
982.30 2.095483
982.40 2.091704
982.50 2.088581
982.60 2.087269
982.70 2.086974
982.80 2.087653
982.90 2.089219
983.00 2.08983
983.10 2.086185
983.20 2.081132
983.30 2.074754
983.40 2.067183
983.50 2.062467
983.60 2.064836
983.70 2.072696
983.80 2.081957
983.90 2.088768
984.00 2.094858
984.10 2.100084
984.20 2.101877
984.30 2.10247
984.40 2.10249
984.50 2.102569
984.60 2.102694
984.70 2.101131
984.80 2.099655
984.90 2.098773
985.00 2.0984
985.10 2.096672
985.20 2.094243
985.30 2.091792
985.40 2.090628
985.50 2.090167
985.60 2.090164
985.70 2.090323
985.80 2.091319
985.90 2.092048
986.00 2.09085
986.10 2.084389
986.20 2.078391
986.30 2.074647
986.40 2.073331
986.50 2.072722
986.60 2.077142
986.70 2.082927
986.80 2.088068
986.90 2.086618
987.00 2.085305
987.10 2.085215
987.20 2.086932
987.30 2.089417
987.40 2.092013
987.50 2.094647
987.60 2.096731
987.70 2.095933
987.80 2.094836
987.90 2.09295
988.00 2.090259
988.10 2.087476
988.20 2.086587
988.30 2.086659
988.40 2.088245
988.50 2.089442
988.60 2.091055
988.70 2.091517
988.80 2.0853
988.90 2.07725
989.00 2.070109
989.10 2.065547
989.20 2.062315
989.30 2.063219
989.40 2.065796
989.50 2.067246
989.60 2.063278
989.70 2.057712
989.80 2.050816
989.90 2.043398
990.00 2.03925
990.10 2.037772
990.20 2.037375
990.30 2.035865
990.40 2.028585
990.50 2.020187
990.60 2.010365
990.70 2.000093
990.80 1.991965
990.90 1.989019
991.00 1.990042
991.10 1.993864
991.20 1.995606
991.30 1.996834
991.40 1.99592
991.50 1.989827
991.60 1.983128
991.70 1.978643
991.80 1.97695
991.90 1.97944
992.00 1.985545
992.10 1.993666
992.20 2.000419
992.30 1.996288
992.40 1.990845
992.50 1.984923
992.60 1.980767
992.70 1.97859
992.80 1.97886
992.90 1.980438
993.00 1.9848
993.10 1.994362
993.20 2.005267
993.30 2.014042
993.40 2.014627
993.50 2.012181
993.60 2.011705
993.70 2.014139
993.80 2.020047
993.90 2.026055
994.00 2.032117
994.10 2.036743
994.20 2.033968
994.30 2.029888
994.40 2.025713
994.50 2.023115
994.60 2.020877
994.70 2.020892
994.80 2.021685
994.90 2.023505
995.00 2.025962
995.10 2.029691
995.20 2.033771
995.30 2.036123
995.40 2.037059
995.50 2.037143
995.60 2.037482
995.70 2.035895
995.80 2.033669
995.90 2.030702
996.00 2.0272
996.10 2.021374
996.20 2.016488
996.30 2.014829
996.40 2.016897
996.50 2.022359
996.60 2.030101
996.70 2.038619
996.80 2.045224
996.90 2.043786
997.00 2.039443
997.10 2.03216
997.20 2.022634
997.30 2.015541
997.40 2.012973
997.50 2.013247
997.60 2.015716
997.70 2.018895
997.80 2.022248
997.90 2.025155
998.00 2.025555
998.10 2.025147
998.20 2.023049
998.30 2.019891
998.40 2.01394
998.50 2.009531
998.60 2.005489
998.70 2.003332
998.80 2.006872
998.90 2.012088
999.00 2.016196
999.10 2.017383
999.20 2.017332
999.30 2.018017
999.40 2.019292
999.50 2.02105
999.60 2.018127
999.70 2.013633
999.80 2.008903
999.90 2.005933
1000.00 2.00618
1000.10 2.007411
1000.20 2.009174
1000.30 2.0103
1000.40 2.008443
1000.50 2.006372
1000.60 2.004508
1000.70 2.004823
1000.80 2.004955
1000.90 2.002505
1001.00 1.997481
1001.10 1.991485
1001.20 1.989442
1001.30 1.988792
1001.40 1.991499
1001.50 2.00203
1001.60 2.01312
1001.70 2.023331
1001.80 2.032467
1001.90 2.039165
1002.00 2.038548
1002.10 2.034694
1002.20 2.029165
1002.30 2.028625
1002.40 2.029238
1002.50 2.031099
1002.60 2.033372
1002.70 2.035082
1002.80 2.034472
1002.90 2.032065
1003.00 2.029257
1003.10 2.02911
1003.20 2.029325
1003.30 2.027444
1003.40 2.018722
1003.50 2.007474
1003.60 1.996835
1003.70 1.987023
1003.80 1.981803
1003.90 1.987737
1004.00 1.997385
1004.10 2.00957
1004.20 2.022235
1004.30 2.034076
1004.40 2.042208
1004.50 2.045516
1004.60 2.04637
1004.70 2.042264
1004.80 2.035617
1004.90 2.025404
1005.00 2.016208
1005.10 2.007565
1005.20 2.001796
1005.30 2.001171
1005.40 2.00235
1005.50 1.997948
1005.60 1.989576
1005.70 1.980192
1005.80 1.975168
1005.90 1.970901
1006.00 1.968469
1006.10 1.971866
1006.20 1.976615
1006.30 1.979217
1006.40 1.979089
1006.50 1.979774
1006.60 1.980431
1006.70 1.980857
1006.80 1.982746
1006.90 1.994054
1007.00 2.005881
1007.10 2.014872
1007.20 2.019397
1007.30 2.021878
1007.40 2.024332
1007.50 2.026927
1007.60 2.03114
1007.70 2.03583
1007.80 2.039553
1007.90 2.040023
1008.00 2.035017
1008.10 2.028313
1008.20 2.021394
1008.30 2.014611
1008.40 2.009718
1008.50 2.011235
1008.60 2.013568
1008.70 2.015943
1008.80 2.018767
1008.90 2.020296
1009.00 2.020849
1009.10 2.020559
1009.20 2.021858
1009.30 2.027639
1009.40 2.034523
1009.50 2.041607
1009.60 2.042799
1009.70 2.044492
1009.80 2.045123
1009.90 2.044021
1010.00 2.041782
1010.10 2.041665
1010.20 2.042716
1010.30 2.043436
1010.40 2.041855
1010.50 2.03945
1010.60 2.036647
1010.70 2.034762
1010.80 2.032881
1010.90 2.030761
1011.00 2.028302
1011.10 2.025232
1011.20 2.018897
1011.30 2.012097
1011.40 2.006511
1011.50 2.005239
1011.60 2.004596
1011.70 2.003863
1011.80 2.002648
1011.90 2.002629
1012.00 2.002932
1012.10 2.003412
1012.20 2.005259
1012.30 2.00886
1012.40 2.011815
1012.50 2.013183
1012.60 2.012866
1012.70 2.011149
1012.80 2.010678
1012.90 2.011056
1013.00 2.012318
1013.10 2.014696
1013.20 2.016998
1013.30 2.018658
1013.40 2.019735
1013.50 2.018174
1013.60 2.014194
1013.70 2.008681
1013.80 2.004558
1013.90 2.001312
1014.00 1.999106
1014.10 1.999317
1014.20 2.002238
1014.30 2.003552
1014.40 1.998073
1014.50 1.986678
1014.60 1.97183
1014.70 1.962299
1014.80 1.954681
1014.90 1.951752
1015.00 1.965054
1015.10 1.981381
1015.20 1.995672
1015.30 2.005021
1015.40 2.009041
1015.50 2.00586
1015.60 1.999339
1015.70 1.990913
1015.80 1.98831
1015.90 1.987926
1016.00 1.989873
1016.10 1.994623
1016.20 2.000064
1016.30 2.003254
1016.40 2.003909
1016.50 2.003142
1016.60 2.001769
1016.70 2.000837
1016.80 1.999466
1016.90 1.995557
1017.00 1.989946
1017.10 1.986409
1017.20 1.985043
1017.30 1.986207
1017.40 1.991992
1017.50 1.999465
1017.60 2.007386
1017.70 2.010271
1017.80 2.010844
1017.90 2.009557
1018.00 2.006293
1018.10 2.00252
1018.20 2.000253
1018.30 1.999213
1018.40 1.998406
1018.50 1.995361
1018.60 1.991614
1018.70 1.988473
1018.80 1.986638
1018.90 1.987802
1019.00 1.989506
1019.10 1.991486
1019.20 1.992444
1019.30 1.990645
1019.40 1.987985
1019.50 1.984843
1019.60 1.981505
1019.70 1.979289
1019.80 1.980588
1019.90 1.985155
1020.00 1.989498
1020.10 1.992063
1020.20 1.994268
1020.30 1.996328
1020.40 1.997027
1020.50 1.997859
1020.60 1.998817
1020.70 1.999846
1020.80 2.000575
1020.90 2.000595
1021.00 2.000209
1021.10 1.998812
1021.20 1.996252
1021.30 1.992832
1021.40 1.986784
1021.50 1.975353
1021.60 1.963472
1021.70 1.949489
1021.80 1.934161
1021.90 1.918954
1022.00 1.923518
1022.10 1.93301
1022.20 1.945185
1022.30 1.958905
1022.40 1.973618
1022.50 1.984107
1022.60 1.990318
1022.70 1.993786
1022.80 1.993292
1022.90 1.991278
1023.00 1.98841
1023.10 1.986148
1023.20 1.985351
1023.30 1.985976
1023.40 1.986614
1023.50 1.987102
1023.60 1.989034
1023.70 1.992316
1023.80 1.995516
1023.90 1.996542
1024.00 1.997854
1024.10 1.999335
1024.20 2.000986
1024.30 2.001464
1024.40 2.0003
1024.50 1.99837
1024.60 1.995455
1024.70 1.994853
1024.80 1.994454
1024.90 1.993554
1025.00 1.991119
1025.10 1.98779
1025.20 1.983644
1025.30 1.979003
1025.40 1.974943
1025.50 1.974401
1025.60 1.974486
1025.70 1.974984
1025.80 1.974534
1025.90 1.973422
1026.00 1.971671
1026.10 1.96899
1026.20 1.965521
1026.30 1.961312
1026.40 1.957609
1026.50 1.956203
1026.60 1.960396
1026.70 1.965793
1026.80 1.971553
1026.90 1.977734
1027.00 1.983346
1027.10 1.985577
1027.20 1.984856
1027.30 1.981013
1027.40 1.972513
1027.50 1.96559
1027.60 1.961561
1027.70 1.9623
1027.80 1.964311
1027.90 1.966943
1028.00 1.970095
1028.10 1.971919
1028.20 1.969446
1028.30 1.965962
1028.40 1.962647
1028.50 1.960618
1028.60 1.961917
1028.70 1.965203
1028.80 1.969702
1028.90 1.973409
1029.00 1.976731
1029.10 1.979611
1029.20 1.980615
1029.30 1.977147
1029.40 1.974015
1029.50 1.972537
1029.60 1.973542
1029.70 1.97449
1029.80 1.973954
1029.90 1.972817
1030.00 1.971654
1030.10 1.969421
1030.20 1.967283
1030.30 1.966643
1030.40 1.968715
1030.50 1.971893
1030.60 1.974663
1030.70 1.977432
1030.80 1.979173
1030.90 1.976694
1031.00 1.973215
1031.10 1.970904
1031.20 1.971528
1031.30 1.973054
1031.40 1.974581
1031.50 1.976308
1031.60 1.977569
1031.70 1.976089
1031.80 1.973758
1031.90 1.971009
1032.00 1.96925
1032.10 1.96856
1032.20 1.968153
1032.30 1.96775
1032.40 1.965885
1032.50 1.959138
1032.60 1.950555
1032.70 1.941551
1032.80 1.935535
1032.90 1.932339
1033.00 1.933092
1033.10 1.938498
1033.20 1.945778
1033.30 1.952903
1033.40 1.959328
1033.50 1.963272
1033.60 1.960837
1033.70 1.956935
1033.80 1.950833
1033.90 1.941977
1034.00 1.931685
1034.10 1.911147
1034.20 1.883299
1034.30 1.848122
1034.40 1.80504
1034.50 1.763319
1034.60 1.7367
1034.70 1.752262
1034.80 1.782911
1034.90 1.820708
1035.00 1.86507
1035.10 1.905962
1035.20 1.925236
1035.30 1.936467
1035.40 1.943752
1035.50 1.94906
1035.60 1.953605
1035.70 1.957442
1035.80 1.960174
1035.90 1.963433
1036.00 1.966246
1036.10 1.968921
1036.20 1.971375
1036.30 1.972967
1036.40 1.974162
1036.50 1.974436
1036.60 1.973909
1036.70 1.973211
1036.80 1.971401
1036.90 1.96829
1037.00 1.965068
1037.10 1.959089
1037.20 1.952927
1037.30 1.948003
1037.40 1.94816
1037.50 1.948756
1037.60 1.949835
1037.70 1.951468
1037.80 1.951423
1037.90 1.943976
1038.00 1.934944
1038.10 1.927547
1038.20 1.927613
1038.30 1.931236
1038.40 1.936899
1038.50 1.944516
1038.60 1.95325
1038.70 1.95833
1038.80 1.961507
1038.90 1.962472
1039.00 1.95984
1039.10 1.957008
1039.20 1.954692
1039.30 1.953583
1039.40 1.950366
1039.50 1.934004
1039.60 1.910661
1039.70 1.884183
1039.80 1.870598
1039.90 1.862355
1040.00 1.865456
1040.10 1.887203
1040.20 1.914658
1040.30 1.934698
1040.40 1.948735
1040.50 1.958116
1040.60 1.959882
1040.70 1.960527
1040.80 1.960769
1040.90 1.96235
1041.00 1.963209
1041.10 1.962515
1041.20 1.959757
1041.30 1.956584
1041.40 1.953895
1041.50 1.952332
1041.60 1.951755
1041.70 1.952522
1041.80 1.953406
1041.90 1.954345
1042.00 1.955709
1042.10 1.95547
1042.20 1.949748
1042.30 1.940456
1042.40 1.929627
1042.50 1.923129
1042.60 1.91842
1042.70 1.916639
1042.80 1.918091
1042.90 1.920688
1043.00 1.925828
1043.10 1.932727
1043.20 1.941424
1043.30 1.948006
1043.40 1.954171
1043.50 1.958797
1043.60 1.960953
1043.70 1.960889
1043.80 1.959863
1043.90 1.957335
1044.00 1.954089
1044.10 1.952764
1044.20 1.95353
1044.30 1.954712
1044.40 1.955156
1044.50 1.954593
1044.60 1.954085
1044.70 1.953514
1044.80 1.953327
1044.90 1.953946
1045.00 1.955183
1045.10 1.957126
1045.20 1.95698
1045.30 1.955572
1045.40 1.954019
1045.50 1.952664
1045.60 1.951157
1045.70 1.952303
1045.80 1.954565
1045.90 1.956132
1046.00 1.951069
1046.10 1.945982
1046.20 1.94169
1046.30 1.939773
1046.40 1.93914
1046.50 1.939774
1046.60 1.940745
1046.70 1.940792
1046.80 1.93313
1046.90 1.923404
1047.00 1.913255
1047.10 1.904959
1047.20 1.899299
1047.30 1.900663
1047.40 1.908083
1047.50 1.918124
1047.60 1.92507
1047.70 1.930091
1047.80 1.933917
1047.90 1.937345
1048.00 1.940478
1048.10 1.942467
1048.20 1.943065
1048.30 1.944255
1048.40 1.941132
1048.50 1.936334
1048.60 1.930779
1048.70 1.927191
1048.80 1.923504
1048.90 1.921942
1049.00 1.924006
1049.10 1.928676
1049.20 1.933639
1049.30 1.938568
1049.40 1.94166
1049.50 1.929896
1049.60 1.914975
1049.70 1.899499
1049.80 1.88523
1049.90 1.87725
1050.00 1.88224
1050.10 1.897537
1050.20 1.916912
1050.30 1.928987
1050.40 1.937115
1050.50 1.941269
1050.60 1.940331
1050.70 1.940653
1050.80 1.940038
1050.90 1.937597
1051.00 1.933138
1051.10 1.926697
1051.20 1.920039
1051.30 1.913854
1051.40 1.910287
1051.50 1.907997
1051.60 1.908313
1051.70 1.911642
1051.80 1.915665
1051.90 1.917552
1052.00 1.918219
1052.10 1.91907
1052.20 1.921908
1052.30 1.925732
1052.40 1.928868
1052.50 1.930423
1052.60 1.932086
1052.70 1.934625
1052.80 1.937619
1052.90 1.940241
1053.00 1.937911
1053.10 1.93365
1053.20 1.927014
1053.30 1.917018
1053.40 1.908798
1053.50 1.907403
1053.60 1.910967
1053.70 1.91582
1053.80 1.922262
1053.90 1.928216
1054.00 1.932522
1054.10 1.932347
1054.20 1.932854
1054.30 1.934456
1054.40 1.936863
1054.50 1.937995
1054.60 1.935591
1054.70 1.932854
1054.80 1.930341
1054.90 1.930756
1055.00 1.931525
1055.10 1.930883
1055.20 1.928289
1055.30 1.925359
1055.40 1.921336
1055.50 1.917448
1055.60 1.913588
1055.70 1.913076
1055.80 1.912309
1055.90 1.910797
1056.00 1.908412
1056.10 1.90701
1056.20 1.908303
1056.30 1.910722
1056.40 1.913491
1056.50 1.91292
1056.60 1.912393
1056.70 1.911959
1056.80 1.911618
1056.90 1.910984
1057.00 1.912255
1057.10 1.914978
1057.20 1.918114
1057.30 1.917654
1057.40 1.916219
1057.50 1.914772
1057.60 1.915273
1057.70 1.916434
1057.80 1.917439
1057.90 1.917834
1058.00 1.918255
1058.10 1.916705
1058.20 1.914209
1058.30 1.90814
1058.40 1.880747
1058.50 1.848523
1058.60 1.823425
1058.70 1.806404
1058.80 1.795992
1058.90 1.814821
1059.00 1.84361
1059.10 1.874297
1059.20 1.892468
1059.30 1.907028
1059.40 1.915676
1059.50 1.91695
1059.60 1.917675
1059.70 1.919097
1059.80 1.920587
1059.90 1.920871
1060.00 1.917296
1060.10 1.913434
1060.20 1.906874
1060.30 1.89447
1060.40 1.880668
1060.50 1.870372
1060.60 1.862317
1060.70 1.854739
1060.80 1.856896
1060.90 1.862335
1061.00 1.869519
1061.10 1.877653
1061.20 1.886089
1061.30 1.893728
1061.40 1.90065
1061.50 1.906306
1061.60 1.906333
1061.70 1.904599
1061.80 1.902729
1061.90 1.903261
1062.00 1.904195
1062.10 1.904792
1062.20 1.904864
1062.30 1.905211
1062.40 1.906062
1062.50 1.907213
1062.60 1.908381
1062.70 1.907912
1062.80 1.90719
1062.90 1.906797
1063.00 1.907287
1063.10 1.906555
1063.20 1.90582
1063.30 1.905085
1063.40 1.90478
1063.50 1.907736
1063.60 1.910651
1063.70 1.91305
1063.80 1.91419
1063.90 1.91565
1064.00 1.917024
1064.10 1.918142
1064.20 1.91921
1064.30 1.916375
1064.40 1.912669
1064.50 1.909312
1064.60 1.90821
1064.70 1.906718
1064.80 1.904259
1064.90 1.900718
1065.00 1.897249
1065.10 1.897482
1065.20 1.899251
1065.30 1.900998
1065.40 1.901646
1065.50 1.901729
1065.60 1.900221
1065.70 1.897402
1065.80 1.894797
1065.90 1.885833
1066.00 1.873961
1066.10 1.858394
1066.20 1.833589
1066.30 1.809555
1066.40 1.797926
1066.50 1.804472
1066.60 1.818229
1066.70 1.834668
1066.80 1.852094
1066.90 1.868104
1067.00 1.871406
1067.10 1.872842
1067.20 1.872664
1067.30 1.871517
1067.40 1.872674
1067.50 1.874048
1067.60 1.874697
1067.70 1.873756
1067.80 1.873743
1067.90 1.874067
1068.00 1.874885
1068.10 1.876254
1068.20 1.880644
1068.30 1.885896
1068.40 1.891636
1068.50 1.895451
1068.60 1.893466
1068.70 1.890476
1068.80 1.885762
1068.90 1.876252
1069.00 1.866258
1069.10 1.860463
1069.20 1.858662
1069.30 1.85678
1069.40 1.85873
1069.50 1.862005
1069.60 1.864817
1069.70 1.86493
1069.80 1.86688
1069.90 1.871574
1070.00 1.879861
1070.10 1.887511
1070.20 1.891473
1070.30 1.892645
1070.40 1.893047
1070.50 1.888295
1070.60 1.884864
1070.70 1.882954
1070.80 1.883619
1070.90 1.882989
1071.00 1.882218
1071.10 1.881808
1071.20 1.881862
1071.30 1.88376
1071.40 1.886092
1071.50 1.888769
1071.60 1.892012
1071.70 1.895035
1071.80 1.896414
1071.90 1.89611
1072.00 1.895284
1072.10 1.894006
1072.20 1.892479
1072.30 1.889538
1072.40 1.881998
1072.50 1.872158
1072.60 1.855033
1072.70 1.830563
1072.80 1.805976
1072.90 1.801589
1073.00 1.805379
1073.10 1.812824
1073.20 1.824692
1073.30 1.834154
1073.40 1.839558
1073.50 1.839192
1073.60 1.839527
1073.70 1.847625
1073.80 1.860515
1073.90 1.874769
1074.00 1.882744
1074.10 1.888198
1074.20 1.889696
1074.30 1.886595
1074.40 1.882811
1074.50 1.878865
1074.60 1.873556
1074.70 1.867139
1074.80 1.854261
1074.90 1.840987
1075.00 1.82878
1075.10 1.819684
1075.20 1.81443
1075.30 1.81806
1075.40 1.828032
1075.50 1.839654
1075.60 1.851091
1075.70 1.862177
1075.80 1.871878
1075.90 1.8769
1076.00 1.880106
1076.10 1.8819
1076.20 1.881977
1076.30 1.881343
1076.40 1.881279
1076.50 1.881563
1076.60 1.88195
1076.70 1.881256
1076.80 1.881347
1076.90 1.88158
1077.00 1.881611
1077.10 1.880386
1077.20 1.877981
1077.30 1.875156
1077.40 1.871023
1077.50 1.86209
1077.60 1.853669
1077.70 1.848159
1077.80 1.846451
1077.90 1.847415
1078.00 1.850229
1078.10 1.853231
1078.20 1.855108
1078.30 1.848235
1078.40 1.841465
1078.50 1.834278
1078.60 1.826234
1078.70 1.817573
1078.80 1.813531
1078.90 1.813032
1079.00 1.813457
1079.10 1.8242
1079.20 1.837021
1079.30 1.848401
1079.40 1.853088
1079.50 1.857138
1079.60 1.8606
1079.70 1.863811
1079.80 1.867072
1079.90 1.866883
1080.00 1.865341
1080.10 1.862509
1080.20 1.857791
1080.30 1.854235
1080.40 1.853574
1080.50 1.855407
1080.60 1.857531
1080.70 1.857514
1080.80 1.856841
1080.90 1.853436
1081.00 1.830313
1081.10 1.802261
1081.20 1.778183
1081.30 1.7621
1081.40 1.751391
1081.50 1.763142
1081.60 1.785798
1081.70 1.810413
1081.80 1.821363
1081.90 1.830024
1082.00 1.835478
1082.10 1.835189
1082.20 1.833585
1082.30 1.831653
1082.40 1.829521
1082.50 1.827208
1082.60 1.812379
1082.70 1.7959
1082.80 1.775785
1082.90 1.748943
1083.00 1.718954
1083.10 1.705254
1083.20 1.705528
1083.30 1.710895
1083.40 1.728646
1083.50 1.749762
1083.60 1.770417
1083.70 1.785647
1083.80 1.799578
1083.90 1.810983
1084.00 1.82007
1084.10 1.829621
1084.20 1.83415
1084.30 1.835934
1084.40 1.83634
1084.50 1.834701
1084.60 1.831575
1084.70 1.829066
1084.80 1.827698
1084.90 1.826981
1085.00 1.830706
1085.10 1.836334
1085.20 1.842553
1085.30 1.846563
1085.40 1.850038
1085.50 1.852526
1085.60 1.85367
1085.70 1.854821
1085.80 1.855625
1085.90 1.856617
1086.00 1.857811
1086.10 1.856363
1086.20 1.852656
1086.30 1.847667
1086.40 1.841074
1086.50 1.835003
1086.60 1.829778
1086.70 1.825067
1086.80 1.820286
1086.90 1.800674
1087.00 1.778339
1087.10 1.75883
1087.20 1.752319
1087.30 1.748232
1087.40 1.75737
1087.50 1.776484
1087.60 1.798297
1087.70 1.8127
1087.80 1.825004
1087.90 1.83435
1088.00 1.835202
1088.10 1.833472
1088.20 1.829639
1088.30 1.824097
1088.40 1.819365
1088.50 1.816223
1088.60 1.81358
1088.70 1.811827
1088.80 1.816713
1088.90 1.821944
1089.00 1.82495
1089.10 1.824173
1089.20 1.822428
1089.30 1.820949
1089.40 1.8197
1089.50 1.818341
1089.60 1.813388
1089.70 1.809069
1089.80 1.807788
1089.90 1.810952
1090.00 1.814836
1090.10 1.819757
1090.20 1.825009
1090.30 1.829967
1090.40 1.828821
1090.50 1.825836
1090.60 1.820877
1090.70 1.812457
1090.80 1.805193
1090.90 1.804897
1091.00 1.809652
1091.10 1.815456
1091.20 1.819343
1091.30 1.822479
1091.40 1.824318
1091.50 1.822445
1091.60 1.81968
1091.70 1.819897
1091.80 1.82359
1091.90 1.828987
1092.00 1.831654
1092.10 1.833258
1092.20 1.834198
1092.30 1.833485
1092.40 1.832475
1092.50 1.831276
1092.60 1.830004
1092.70 1.82826
1092.80 1.824344
1092.90 1.819697
1093.00 1.815676
1093.10 1.817488
1093.20 1.820579
1093.30 1.824854
1093.40 1.830081
1093.50 1.834055
1093.60 1.835493
1093.70 1.835637
1093.80 1.835265
1093.90 1.842059
1094.00 1.85084
1094.10 1.856776
1094.20 1.855084
1094.30 1.851442
1094.40 1.846395
1094.50 1.839899
1094.60 1.833301
1094.70 1.830916
1094.80 1.829009
1094.90 1.828117
1095.00 1.829061
1095.10 1.830226
1095.20 1.82829
1095.30 1.823674
1095.40 1.818168
1095.50 1.810983
1095.60 1.803541
1095.70 1.796075
1095.80 1.788778
1095.90 1.782611
1096.00 1.782628
1096.10 1.789389
1096.20 1.797519
1096.30 1.798955
1096.40 1.797418
1096.50 1.793327
1096.60 1.776405
1096.70 1.75814
1096.80 1.74858
1096.90 1.753172
1097.00 1.761054
1097.10 1.772597
1097.20 1.784853
1097.30 1.796224
1097.40 1.799978
1097.50 1.802893
1097.60 1.804499
1097.70 1.803676
1097.80 1.802562
1097.90 1.79503
1098.00 1.784594
1098.10 1.773585
1098.20 1.773897
1098.30 1.775797
1098.40 1.78005
1098.50 1.789192
1098.60 1.798498
1098.70 1.804413
1098.80 1.807451
1098.90 1.809635
1099.00 1.81155
1099.10 1.813909
1099.20 1.815814
1099.30 1.816129
1099.40 1.815224
1099.50 1.813273
1099.60 1.810898
1099.70 1.808502
1099.80 1.807003
1099.90 1.806203
1100.00 1.806147
1100.10 1.808159
1100.20 1.809946
1100.30 1.810739
1100.40 1.809956
1100.50 1.8087
1100.60 1.808762
1100.70 1.810047
1100.80 1.811588
1100.90 1.812123
1101.00 1.812324
1101.10 1.811435
1101.20 1.80854
1101.30 1.804822
1101.40 1.798102
1101.50 1.788893
1101.60 1.778299
1101.70 1.768042
1101.80 1.760778
1101.90 1.7578
1102.00 1.761074
1102.10 1.765707
1102.20 1.773275
1102.30 1.78103
1102.40 1.787798
1102.50 1.792329
1102.60 1.798945
1102.70 1.804551
1102.80 1.806544
1102.90 1.806853
1103.00 1.805428
1103.10 1.802448
1103.20 1.798719
1103.30 1.799629
1103.40 1.801013
1103.50 1.802315
1103.60 1.803201
1103.70 1.804879
1103.80 1.805241
1103.90 1.80508
1104.00 1.805123
1104.10 1.804146
1104.20 1.80291
1104.30 1.80213
1104.40 1.802825
1104.50 1.803382
1104.60 1.803533
1104.70 1.80317
1104.80 1.802549
1104.90 1.802579
1105.00 1.803017
1105.10 1.803827
1105.20 1.806947
1105.30 1.809699
1105.40 1.809919
1105.50 1.806174
1105.60 1.802503
1105.70 1.798996
1105.80 1.795477
1105.90 1.792494
1106.00 1.792884
1106.10 1.793399
1106.20 1.79507
1106.30 1.79857
1106.40 1.802924
1106.50 1.804686
1106.60 1.805174
1106.70 1.805322
1106.80 1.802795
1106.90 1.799633
1107.00 1.796477
1107.10 1.793834
1107.20 1.791014
1107.30 1.789763
1107.40 1.78998
1107.50 1.791309
1107.60 1.797069
1107.70 1.803439
1107.80 1.808015
1107.90 1.806256
1108.00 1.803669
1108.10 1.801521
1108.20 1.800045
1108.30 1.79875
1108.40 1.799979
1108.50 1.801759
1108.60 1.803486
1108.70 1.804189
1108.80 1.803788
1108.90 1.801779
1109.00 1.798064
1109.10 1.794106
1109.20 1.794582
1109.30 1.796628
1109.40 1.799168
1109.50 1.802208
1109.60 1.806085
1109.70 1.808136
1109.80 1.807429
1109.90 1.805776
1110.00 1.806154
1110.10 1.806709
1110.20 1.806874
1110.30 1.801346
1110.40 1.796692
1110.50 1.794587
1110.60 1.795963
1110.70 1.797672
1110.80 1.798492
1110.90 1.799107
1111.00 1.799661
1111.10 1.799588
1111.20 1.798331
1111.30 1.796174
1111.40 1.792114
1111.50 1.788158
1111.60 1.786909
1111.70 1.787871
1111.80 1.789172
1111.90 1.782071
1112.00 1.771265
1112.10 1.760122
1112.20 1.751932
1112.30 1.747731
1112.40 1.752503
1112.50 1.767261
1112.60 1.783508
1112.70 1.790412
1112.80 1.794883
1112.90 1.797783
1113.00 1.796416
1113.10 1.793346
1113.20 1.790713
1113.30 1.788984
1113.40 1.787986
1113.50 1.787417
1113.60 1.786179
1113.70 1.784904
1113.80 1.786926
1113.90 1.790041
1114.00 1.79276
1114.10 1.794874
1114.20 1.79641
1114.30 1.79741
1114.40 1.7974
1114.50 1.797384
1114.60 1.792725
1114.70 1.788171
1114.80 1.783713
1114.90 1.779078
1115.00 1.772989
1115.10 1.769202
1115.20 1.768484
1115.30 1.769929
1115.40 1.774661
1115.50 1.779958
1115.60 1.78237
1115.70 1.776734
1115.80 1.765251
1115.90 1.756364
1116.00 1.75138
1116.10 1.74942
1116.20 1.757689
1116.30 1.769454
1116.40 1.780626
1116.50 1.786171
1116.60 1.790744
1116.70 1.792851
1116.80 1.79332
1116.90 1.79257
1117.00 1.793064
1117.10 1.790663
1117.20 1.787256
1117.30 1.780966
1117.40 1.776861
1117.50 1.774789
1117.60 1.776181
1117.70 1.778639
1117.80 1.784317
1117.90 1.789035
1118.00 1.792592
1118.10 1.791615
1118.20 1.791363
1118.30 1.789809
1118.40 1.785582
1118.50 1.783251
1118.60 1.782148
1118.70 1.781048
1118.80 1.778358
1118.90 1.772265
1119.00 1.766986
1119.10 1.76264
1119.20 1.759267
1119.30 1.758079
1119.40 1.762894
1119.50 1.767739
1119.60 1.771695
1119.70 1.77061
1119.80 1.766044
1119.90 1.760424
1120.00 1.755903
1120.10 1.75262
1120.20 1.749265
1120.30 1.749953
1120.40 1.758911
1120.50 1.768776
1120.60 1.777706
1120.70 1.782274
1120.80 1.785041
1120.90 1.78671
1121.00 1.78673
1121.10 1.784998
1121.20 1.7837
1121.30 1.780514
1121.40 1.777605
1121.50 1.7758
1121.60 1.776208
1121.70 1.778183
1121.80 1.77926
1121.90 1.779832
1122.00 1.779793
1122.10 1.77974
1122.20 1.779092
1122.30 1.774204
1122.40 1.769329
1122.50 1.76619
1122.60 1.764116
1122.70 1.762792
1122.80 1.760245
1122.90 1.760879
1123.00 1.767173
1123.10 1.771305
1123.20 1.774726
1123.30 1.775544
1123.40 1.775183
1123.50 1.775297
1123.60 1.769059
1123.70 1.763698
1123.80 1.760832
1123.90 1.762932
1124.00 1.771078
1124.10 1.778007
1124.20 1.782654
1124.30 1.780785
1124.40 1.773753
1124.50 1.767039
1124.60 1.761672
1124.70 1.761136
1124.80 1.761228
1124.90 1.758413
1125.00 1.754214
1125.10 1.744774
1125.20 1.72623
1125.30 1.698061
1125.40 1.663996
1125.50 1.632938
1125.60 1.621546
1125.70 1.624876
1125.80 1.637568
1125.90 1.673236
1126.00 1.70189
1126.10 1.730412
1126.20 1.743609
1126.30 1.751791
1126.40 1.755541
1126.50 1.760037
1126.60 1.76621
1126.70 1.771656
1126.80 1.776198
1126.90 1.778345
1127.00 1.778673
1127.10 1.778786
1127.20 1.775682
1127.30 1.773005
1127.40 1.769664
1127.50 1.766028
1127.60 1.76331
1127.70 1.762561
1127.80 1.762444
1127.90 1.762753
1128.00 1.763041
1128.10 1.764049
1128.20 1.767365
1128.30 1.768578
1128.40 1.769819
1128.50 1.770372
1128.60 1.771295
1128.70 1.772204
1128.80 1.772525
1128.90 1.773236
1129.00 1.774045
1129.10 1.771835
1129.20 1.766802
1129.30 1.760989
1129.40 1.755255
1129.50 1.750497
1129.60 1.743769
1129.70 1.736755
1129.80 1.732851
1129.90 1.732482
1130.00 1.733446
1130.10 1.736015
1130.20 1.738452
1130.30 1.740335
1130.40 1.743992
1130.50 1.750155
1130.60 1.755688
1130.70 1.759821
1130.80 1.75853
1130.90 1.756524
1131.00 1.754328
1131.10 1.748995
1131.20 1.74408
1131.30 1.739563
1131.40 1.737676
1131.50 1.736589
1131.60 1.737926
1131.70 1.741032
1131.80 1.747005
1131.90 1.751957
1132.00 1.756022
1132.10 1.758061
1132.20 1.7593
1132.30 1.760643
1132.40 1.760109
1132.50 1.7605
1132.60 1.7608
1132.70 1.760318
1132.80 1.759282
1132.90 1.757353
1133.00 1.752842
1133.10 1.74385
1133.20 1.733572
1133.30 1.723588
1133.40 1.716125
1133.50 1.711061
1133.60 1.706865
1133.70 1.713492
1133.80 1.722249
1133.90 1.730852
1134.00 1.734877
1134.10 1.735563
1134.20 1.734373
1134.30 1.733717
1134.40 1.733262
1134.50 1.73348
1134.60 1.732863
1134.70 1.725734
1134.80 1.723054
1134.90 1.720725
1135.00 1.726649
1135.10 1.735391
1135.20 1.740494
1135.30 1.745383
1135.40 1.745486
1135.50 1.741213
1135.60 1.736084
1135.70 1.730352
1135.80 1.728267
1135.90 1.726716
1136.00 1.723524
1136.10 1.724404
1136.20 1.726614
1136.30 1.735462
1136.40 1.745877
1136.50 1.75377
1136.60 1.757399
1136.70 1.7553
1136.80 1.751232
1136.90 1.746898
1137.00 1.742997
1137.10 1.741258
1137.20 1.738453
1137.30 1.727662
1137.40 1.715605
1137.50 1.702521
1137.60 1.69089
1137.70 1.681659
1137.80 1.673047
1137.90 1.65899
1138.00 1.642895
1138.10 1.621958
1138.20 1.597957
1138.30 1.567066
1138.40 1.538116
1138.50 1.520093
1138.60 1.5598
1138.70 1.600849
1138.80 1.645011
1138.90 1.667422
1139.00 1.687176
1139.10 1.700022
1139.20 1.703354
1139.30 1.700902
1139.40 1.698922
1139.50 1.698882
1139.60 1.70238
1139.70 1.705721
1139.80 1.707352
1139.90 1.698761
1140.00 1.691608
1140.10 1.68027
1140.20 1.641878
1140.30 1.600729
1140.40 1.551622
1140.50 1.512806
1140.60 1.473523
1140.70 1.454336
1140.80 1.461232
1140.90 1.507532
1141.00 1.563547
1141.10 1.622241
1141.20 1.65952
1141.30 1.691947
1141.40 1.715298
1141.50 1.720552
1141.60 1.724023
1141.70 1.725113
1141.80 1.725848
1141.90 1.727022
1142.00 1.725955
1142.10 1.720076
1142.20 1.706963
1142.30 1.693525
1142.40 1.681151
1142.50 1.681068
1142.60 1.682426
1142.70 1.686654
1142.80 1.698485
1142.90 1.710529
1143.00 1.721853
1143.10 1.728549
1143.20 1.732868
1143.30 1.735991
1143.40 1.736724
1143.50 1.734064
1143.60 1.72976
1143.70 1.723914
1143.80 1.70809
1143.90 1.693597
1144.00 1.677457
1144.10 1.668236
1144.20 1.6592
1144.30 1.654329
1144.40 1.662376
1144.50 1.680008
1144.60 1.699035
1144.70 1.71242
1144.80 1.716929
1144.90 1.717484
1145.00 1.71745
1145.10 1.717257
1145.20 1.718823
1145.30 1.720846
1145.40 1.72187
1145.50 1.722679
1145.60 1.722797
1145.70 1.722571
1145.80 1.722217
1145.90 1.722345
1146.00 1.723659
1146.10 1.726357
1146.20 1.728372
1146.30 1.72991
1146.40 1.728186
1146.50 1.726178
1146.60 1.724425
1146.70 1.723966
1146.80 1.725518
1146.90 1.726996
1147.00 1.726928
1147.10 1.725139
1147.20 1.720994
1147.30 1.714249
1147.40 1.703522
1147.50 1.694016
1147.60 1.687191
1147.70 1.696697
1147.80 1.707032
1147.90 1.717409
1148.00 1.7214
1148.10 1.723214
1148.20 1.72362
1148.30 1.718263
1148.40 1.709453
1148.50 1.700052
1148.60 1.691328
1148.70 1.683614
1148.80 1.67829
1148.90 1.675819
1149.00 1.688058
1149.10 1.701344
1149.20 1.714319
1149.30 1.7205
1149.40 1.723133
1149.50 1.723213
1149.60 1.718721
1149.70 1.712054
1149.80 1.708943
1149.90 1.708035
1150.00 1.711256
1150.10 1.714835
1150.20 1.717826
1150.30 1.718953
1150.40 1.716653
1150.50 1.714222
1150.60 1.712339
1150.70 1.711156
1150.80 1.710161
1150.90 1.709901
1151.00 1.710513
1151.10 1.712536
1151.20 1.714531
1151.30 1.716525
1151.40 1.717841
1151.50 1.718708
1151.60 1.718747
1151.70 1.718218
1151.80 1.717707
1151.90 1.714264
1152.00 1.710176
1152.10 1.705877
1152.20 1.703884
1152.30 1.703937
1152.40 1.703933
1152.50 1.702612
1152.60 1.698924
1152.70 1.695318
1152.80 1.694024
1152.90 1.69958
1153.00 1.707583
1153.10 1.715136
1153.20 1.718661
1153.30 1.718201
1153.40 1.716232
1153.50 1.713336
1153.60 1.711307
1153.70 1.711024
1153.80 1.710885
1153.90 1.711032
1154.00 1.711491
1154.10 1.711574
1154.20 1.71021
1154.30 1.708751
1154.40 1.707175
1154.50 1.709466
1154.60 1.711753
1154.70 1.713141
1154.80 1.712988
1154.90 1.711788
1155.00 1.711736
1155.10 1.711298
1155.20 1.710396
1155.30 1.709122
1155.40 1.70749
1155.50 1.705795
1155.60 1.704209
1155.70 1.703348
1155.80 1.704483
1155.90 1.707039
1156.00 1.709566
1156.10 1.711992
1156.20 1.71353
1156.30 1.713381
1156.40 1.712526
1156.50 1.710731
1156.60 1.710027
1156.70 1.709254
1156.80 1.707706
1156.90 1.706174
1157.00 1.704232
1157.10 1.703922
1157.20 1.703299
1157.30 1.702939
1157.40 1.701773
1157.50 1.700551
1157.60 1.699694
1157.70 1.699605
1157.80 1.700178
1157.90 1.701221
1158.00 1.702745
1158.10 1.705393
1158.20 1.707826
1158.30 1.709657
1158.40 1.70951
1158.50 1.708419
1158.60 1.70661
1158.70 1.702967
1158.80 1.699024
1158.90 1.695862
1159.00 1.690279
1159.10 1.682634
1159.20 1.67465
1159.30 1.665195
1159.40 1.651738
1159.50 1.637172
1159.60 1.623592
1159.70 1.631902
1159.80 1.640118
1159.90 1.650666
1160.00 1.661275
1160.10 1.672253
1160.20 1.682589
1160.30 1.686364
1160.40 1.684057
1160.50 1.678866
1160.60 1.668687
1160.70 1.643561
1160.80 1.617224
1160.90 1.58847
1161.00 1.572926
1161.10 1.556991
1161.20 1.547618
1161.30 1.558552
1161.40 1.578454
1161.50 1.604159
1161.60 1.627517
1161.70 1.64911
1161.80 1.667715
1161.90 1.681297
1162.00 1.685862
1162.10 1.689081
1162.20 1.691157
1162.30 1.691046
1162.40 1.691089
1162.50 1.691015
1162.60 1.690943
1162.70 1.690766
1162.80 1.690477
1162.90 1.690264
1163.00 1.690002
1163.10 1.689375
1163.20 1.687893
1163.30 1.684576
1163.40 1.681999
1163.50 1.679019
1163.60 1.668609
1163.70 1.657643
1163.80 1.643161
1163.90 1.628156
1164.00 1.612456
1164.10 1.601096
1164.20 1.602541
1164.30 1.616085
1164.40 1.633443
1164.50 1.650378
1164.60 1.663116
1164.70 1.674716
1164.80 1.684261
1164.90 1.685764
1165.00 1.68726
1165.10 1.688108
1165.20 1.687426
1165.30 1.686361
1165.40 1.684927
1165.50 1.682294
1165.60 1.678657
1165.70 1.674798
1165.80 1.671686
1165.90 1.670078
1166.00 1.668463
1166.10 1.66736
1166.20 1.670477
1166.30 1.674048
1166.40 1.677866
1166.50 1.678621
1166.60 1.678378
1166.70 1.677333
1166.80 1.675142
1166.90 1.672412
1167.00 1.669709
1167.10 1.667671
1167.20 1.667095
1167.30 1.666712
1167.40 1.666703
1167.50 1.668272
1167.60 1.669878
1167.70 1.671356
1167.80 1.673593
1167.90 1.675866
1168.00 1.678262
1168.10 1.678278
1168.20 1.676809
1168.30 1.675423
1168.40 1.6743
1168.50 1.673714
1168.60 1.673169
1168.70 1.670674
1168.80 1.655396
1168.90 1.639428
1169.00 1.618118
1169.10 1.594475
1169.20 1.569435
1169.30 1.550845
1169.40 1.555789
1169.50 1.574843
1169.60 1.600607
1169.70 1.623759
1169.80 1.641211
1169.90 1.656649
1170.00 1.668893
1170.10 1.670843
1170.20 1.672805
1170.30 1.6735
1170.40 1.674875
1170.50 1.676366
1170.60 1.677329
1170.70 1.677518
1170.80 1.677253
1170.90 1.676317
1171.00 1.675292
1171.10 1.674143
1171.20 1.673515
1171.30 1.673487
1171.40 1.675182
1171.50 1.676987
1171.60 1.678781
1171.70 1.679337
1171.80 1.679511
1171.90 1.679484
1172.00 1.67787
1172.10 1.675578
1172.20 1.673056
1172.30 1.670913
1172.40 1.669282
1172.50 1.668023
1172.60 1.667494
1172.70 1.669236
1172.80 1.671136
1172.90 1.673072
1173.00 1.67403
1173.10 1.674946
1173.20 1.675982
1173.30 1.677555
1173.40 1.679439
1173.50 1.680619
1173.60 1.679928
1173.70 1.677245
1173.80 1.674342
1173.90 1.671835
1174.00 1.670881
1174.10 1.67023
1174.20 1.669829
1174.30 1.670963
1174.40 1.672224
1174.50 1.673764
1174.60 1.67453
1174.70 1.674963
1174.80 1.674683
1174.90 1.672586
1175.00 1.668597
1175.10 1.66451
1175.20 1.660071
1175.30 1.654655
1175.40 1.649309
1175.50 1.644196
1175.60 1.646317
1175.70 1.648719
1175.80 1.651268
1175.90 1.652144
1176.00 1.652577
1176.10 1.652378
1176.20 1.653707
1176.30 1.656552
1176.40 1.65964
1176.50 1.661259
1176.60 1.659328
1176.70 1.657073
1176.80 1.65307
1176.90 1.638923
1177.00 1.625169
1177.10 1.608281
1177.20 1.591097
1177.30 1.572797
1177.40 1.558073
1177.50 1.553529
1177.60 1.55711
1177.70 1.568057
1177.80 1.581382
1177.90 1.596527
1178.00 1.610753
1178.10 1.620256
1178.20 1.609356
1178.30 1.597103
1178.40 1.581298
1178.50 1.578238
1178.60 1.578376
1178.70 1.583581
1178.80 1.595798
1178.90 1.612974
1179.00 1.630616
1179.10 1.643158
1179.20 1.643775
1179.30 1.641919
1179.40 1.637476
1179.50 1.630499
1179.60 1.624072
1179.70 1.6181
1179.80 1.617957
1179.90 1.618943
1180.00 1.622408
1180.10 1.62792
1180.20 1.634495
1180.30 1.641027
1180.40 1.646418
1180.50 1.650239
1180.60 1.653429
1180.70 1.655823
1180.80 1.656528
1180.90 1.657171
1181.00 1.657592
1181.10 1.656363
1181.20 1.654853
1181.30 1.652887
1181.40 1.650903
1181.50 1.648713
1181.60 1.646836
1181.70 1.645103
1181.80 1.643662
1181.90 1.642433
1182.00 1.640391
1182.10 1.635579
1182.20 1.630645
1182.30 1.624992
1182.40 1.60746
1182.50 1.588409
1182.60 1.563626
1182.70 1.520898
1182.80 1.469932
1182.90 1.417768
1183.00 1.383996
1183.10 1.377368
1183.20 1.38054
1183.30 1.395607
1183.40 1.443962
1183.50 1.49417
1183.60 1.546018
1183.70 1.568952
1183.80 1.590767
1183.90 1.607118
1184.00 1.61528
1184.10 1.619764
1184.20 1.623544
1184.30 1.627185
1184.40 1.630981
1184.50 1.634248
1184.60 1.636786
1184.70 1.63841
1184.80 1.639783
1184.90 1.641092
1185.00 1.642168
1185.10 1.643357
1185.20 1.644841
1185.30 1.645589
1185.40 1.645852
1185.50 1.645913
1185.60 1.646252
1185.70 1.646926
1185.80 1.647483
1185.90 1.647864
1186.00 1.648023
1186.10 1.648235
1186.20 1.648427
1186.30 1.646717
1186.40 1.644905
1186.50 1.642656
1186.60 1.640633
1186.70 1.638811
1186.80 1.637677
1186.90 1.637855
1187.00 1.639275
1187.10 1.640395
1187.20 1.641238
1187.30 1.64124
1187.40 1.64124
1187.50 1.64108
1187.60 1.638733
1187.70 1.636798
1187.80 1.634367
1187.90 1.625738
1188.00 1.615974
1188.10 1.600118
1188.20 1.570276
1188.30 1.530904
1188.40 1.489669
1188.50 1.458776
1188.60 1.452506
1188.70 1.453076
1188.80 1.462473
1188.90 1.498345
1189.00 1.535381
1189.10 1.573237
1189.20 1.583173
1189.30 1.589606
1189.40 1.589894
1189.50 1.591198
1189.60 1.593052
1189.70 1.596217
1189.80 1.60124
1189.90 1.60879
1190.00 1.616472
1190.10 1.623676
1190.20 1.627371
1190.30 1.629964
1190.40 1.631202
1190.50 1.631035
1190.60 1.6309
1190.70 1.631326
1190.80 1.631771
1190.90 1.632243
1191.00 1.633144
1191.10 1.633997
1191.20 1.634729
1191.30 1.635367
1191.40 1.636091
1191.50 1.63707
1191.60 1.637655
1191.70 1.638042
1191.80 1.638398
1191.90 1.638975
1192.00 1.639812
1192.10 1.638872
1192.20 1.637298
1192.30 1.635012
1192.40 1.633356
1192.50 1.63218
1192.60 1.63108
1192.70 1.63049
1192.80 1.631455
1192.90 1.632768
1193.00 1.634232
1193.10 1.634591
1193.20 1.63485
1193.30 1.635001
1193.40 1.634404
1193.50 1.633801
1193.60 1.632662
1193.70 1.631006
1193.80 1.62878
1193.90 1.626558
1194.00 1.62501
1194.10 1.624761
1194.20 1.624694
1194.30 1.625051
1194.40 1.625711
1194.50 1.626098
1194.60 1.625612
1194.70 1.620296
1194.80 1.614124
1194.90 1.606334
1195.00 1.598514
1195.10 1.5902
1195.20 1.58342
1195.30 1.579671
1195.40 1.582143
1195.50 1.585503
1195.60 1.589526
1195.70 1.591157
1195.80 1.592779
1195.90 1.593415
1196.00 1.597331
1196.10 1.602119
1196.20 1.607479
1196.30 1.61136
1196.40 1.614287
1196.50 1.616653
1196.60 1.61774
1196.70 1.617023
1196.80 1.615817
1196.90 1.612547
1197.00 1.594599
1197.10 1.575436
1197.20 1.550891
1197.30 1.51184
1197.40 1.470543
1197.50 1.431337
1197.60 1.42086
1197.70 1.427757
1197.80 1.448344
1197.90 1.474232
1198.00 1.508397
1198.10 1.541391
1198.20 1.565756
1198.30 1.559721
1198.40 1.551628
1198.50 1.540528
1198.60 1.533865
1198.70 1.528293
1198.80 1.523523
1198.90 1.527284
1199.00 1.5349
1199.10 1.541372
1199.20 1.543727
1199.30 1.541856
1199.40 1.54045
1199.50 1.541821
1199.60 1.553382
1199.70 1.565952
1199.80 1.579808
1199.90 1.587982
1200.00 1.595861
