# Version 2.1 - nm, norm@500 to 1, cut digits
# Wavelength(nm)  Flambda(ergs/cm^s/s/nm)
300.00 0.01073664
300.10 0.01427166
300.20 0.01642426
300.30 0.0173141
300.40 0.01754681
300.50 0.01761476
300.60 0.01768271
300.70 0.01775136
300.80 0.01782351
300.90 0.01790457
301.00 0.01800046
301.10 0.01811383
301.20 0.01824202
301.30 0.01837912
301.40 0.01851973
301.50 0.01866104
301.60 0.01880235
301.70 0.01894366
301.80 0.01908497
301.90 0.01922628
302.00 0.01936759
302.10 0.0195089
302.20 0.01965021
302.30 0.01979152
302.40 0.01993283
302.50 0.02007414
302.60 0.02021545
302.70 0.02035729
302.80 0.0205018
302.90 0.02065306
303.00 0.02081559
303.10 0.02099138
303.20 0.02117844
303.30 0.02137226
303.40 0.02156873
303.50 0.02176575
303.60 0.02196276
303.70 0.02215977
303.80 0.02235678
303.90 0.02255379
304.00 0.0227508
304.10 0.02294782
304.20 0.02314483
304.30 0.02334184
304.40 0.02353885
304.50 0.02373586
304.60 0.02393287
304.70 0.02412825
304.80 0.02431549
304.90 0.02448205
305.00 0.02461416
305.10 0.02470571
305.20 0.0247628
305.30 0.02479923
305.40 0.0248275
305.50 0.02485415
305.60 0.02488079
305.70 0.02490744
305.80 0.02493408
305.90 0.02496073
306.00 0.02498738
306.10 0.02501402
306.20 0.02504067
306.30 0.02506731
306.40 0.02509396
306.50 0.0251206
306.60 0.02514725
306.70 0.0251739
306.80 0.02520056
306.90 0.02522728
307.00 0.02525406
307.10 0.02528094
307.20 0.02530789
307.30 0.02533488
307.40 0.02536189
307.50 0.02538891
307.60 0.02541592
307.70 0.02544294
307.80 0.02546995
307.90 0.02549697
308.00 0.02552398
308.10 0.025551
308.20 0.02557802
308.30 0.02560503
308.40 0.02563205
308.50 0.02565906
308.60 0.02568608
308.70 0.02571718
308.80 0.02576866
308.90 0.02587189
309.00 0.02606134
309.10 0.02635231
309.20 0.02672949
309.30 0.02715842
309.40 0.02760774
309.50 0.02806114
309.60 0.02851453
309.70 0.02896793
309.80 0.02942133
309.90 0.02987473
310.00 0.03032813
310.10 0.03078153
310.20 0.03123493
310.30 0.03168833
310.40 0.03214173
310.50 0.03259513
310.60 0.03304853
310.70 0.03349782
310.80 0.03392663
310.90 0.0343034
311.00 0.03459352
311.10 0.03478157
311.20 0.03488296
311.30 0.03493233
311.40 0.0349612
311.50 0.03498597
311.60 0.03501074
311.70 0.03503551
311.80 0.03506028
311.90 0.03508505
312.00 0.03510982
312.10 0.03513458
312.20 0.03515935
312.30 0.03518412
312.40 0.03520889
312.50 0.03523366
312.60 0.03525843
312.70 0.03528827
312.80 0.03534341
312.90 0.03546281
313.00 0.03568925
313.10 0.03604173
313.20 0.03650125
313.30 0.03702503
313.40 0.03757411
313.50 0.03812826
313.60 0.03868241
313.70 0.03923656
313.80 0.03979071
313.90 0.04034486
314.00 0.04089902
314.10 0.04145317
314.20 0.04200732
314.30 0.04256147
314.40 0.04311562
314.50 0.04366977
314.60 0.04422392
314.70 0.0447816
314.80 0.04535689
314.90 0.04597692
315.00 0.04667145
315.10 0.04745372
315.20 0.0483105
315.30 0.04921201
315.40 0.05013113
315.50 0.05105378
315.60 0.05197643
315.70 0.05289908
315.80 0.05382173
315.90 0.05474438
316.00 0.05566703
316.10 0.05658969
316.20 0.05751234
316.30 0.05843499
316.40 0.05935764
316.50 0.06028029
316.60 0.06120294
316.70 0.06211262
316.80 0.06295755
316.90 0.06363807
317.00 0.0640447
317.10 0.06412883
317.20 0.06393907
317.30 0.0635849
317.40 0.06316598
317.50 0.06273409
317.60 0.0623022
317.70 0.0618703
317.80 0.06143841
317.90 0.06100652
318.00 0.06057463
318.10 0.06014274
318.20 0.05971085
318.30 0.05927895
318.40 0.05884706
318.50 0.05841517
318.60 0.05798328
318.70 0.05756132
318.80 0.05718892
318.90 0.05694238
319.00 0.05690549
319.10 0.05711548
319.20 0.05753513
319.30 0.05808063
319.40 0.0586757
319.50 0.05928069
319.60 0.05988569
319.70 0.06049069
319.80 0.06109568
319.90 0.06170068
320.00 0.06230568
320.10 0.06291067
320.20 0.06351567
320.30 0.06412066
320.40 0.06472566
320.50 0.06533066
320.60 0.06593565
320.70 0.06653698
320.80 0.06711997
320.90 0.06765641
321.00 0.06811532
321.10 0.06848291
321.20 0.06877297
321.30 0.06901648
321.40 0.06924165
321.50 0.06946315
321.60 0.06968466
321.70 0.06990616
321.80 0.07012766
321.90 0.07034916
322.00 0.07057067
322.10 0.07079217
322.20 0.07101367
322.30 0.07123518
322.40 0.07145668
322.50 0.07167818
322.60 0.07189969
322.70 0.0721346
322.80 0.07243648
322.90 0.07290838
323.00 0.07366351
323.10 0.07475215
323.20 0.07612403
323.30 0.07766593
323.40 0.07927479
323.50 0.08089706
323.60 0.08251933
323.70 0.0841416
323.80 0.08576388
323.90 0.08738615
324.00 0.08900842
324.10 0.0906307
324.20 0.09225297
324.30 0.09387524
324.40 0.09549751
324.50 0.09711979
324.60 0.09874206
324.70 0.1003622
324.80 0.1019714
324.90 0.103553
325.00 0.1050886
325.10 0.10657
325.20 0.1080054
325.30 0.1094132
325.40 0.1108101
325.50 0.1122048
325.60 0.1135995
325.70 0.1149943
325.80 0.116389
325.90 0.1177837
326.00 0.1191785
326.10 0.1205732
326.20 0.1219679
326.30 0.1233626
326.40 0.1247574
326.50 0.1261521
326.60 0.1275468
326.70 0.1289463
326.80 0.1303691
326.90 0.1318515
327.00 0.1334331
327.10 0.1351314
327.20 0.1369289
327.30 0.1387859
327.40 0.1406664
327.50 0.1425515
327.60 0.1444367
327.70 0.1463219
327.80 0.148207
327.90 0.1500922
328.00 0.1519773
328.10 0.1538625
328.20 0.1557476
328.30 0.1576328
328.40 0.159518
328.50 0.1614031
328.60 0.1632883
328.70 0.1651459
328.80 0.1668659
328.90 0.1682367
329.00 0.1690257
329.10 0.1691295
329.20 0.1686515
329.30 0.1678243
329.40 0.1668595
329.50 0.1658671
329.60 0.1648748
329.70 0.1638824
329.80 0.1628901
329.90 0.1618977
330.00 0.1609054
330.10 0.159913
330.20 0.1589207
330.30 0.1579283
330.40 0.156936
330.50 0.1559436
330.60 0.1549513
330.70 0.1539793
330.80 0.1531095
330.90 0.1524987
331.00 0.1523195
331.10 0.1526485
331.20 0.1534092
331.30 0.1544289
331.40 0.1555507
331.50 0.1566929
331.60 0.1578351
331.70 0.1589773
331.80 0.1601195
331.90 0.1612617
332.00 0.1624039
332.10 0.1635461
332.20 0.1646883
332.30 0.1658305
332.40 0.1669727
332.50 0.1681149
332.60 0.1692571
332.70 0.1703864
332.80 0.1714511
332.90 0.1723517
333.00 0.172979
333.10 0.1732846
333.20 0.1733169
333.30 0.1731852
333.40 0.1729888
333.50 0.1727796
333.60 0.1725703
333.70 0.172361
333.80 0.1721517
333.90 0.1719425
334.00 0.1717332
334.10 0.1715239
334.20 0.1713146
334.30 0.1711054
334.40 0.1708961
334.50 0.1706868
334.60 0.1706517
334.70 0.171185
334.80 0.1724383
334.90 0.1737116
335.00 0.1736715
335.10 0.1719545
335.20 0.170659
335.30 0.1737079
335.40 0.1838275
335.50 0.1994692
335.60 0.2146443
335.70 0.2224066
335.80 0.2193332
335.90 0.2072196
336.00 0.1911643
336.10 0.1764165
336.20 0.1666372
336.30 0.1633608
336.40 0.1653445
336.50 0.1687215
336.60 0.1693186
336.70 0.1661182
336.80 0.1625541
336.90 0.1638177
337.00 0.1724111
337.10 0.1857068
337.20 0.1974516
337.30 0.2020636
337.40 0.1985511
337.50 0.1911311
337.60 0.1860046
337.70 0.1867568
337.80 0.1922521
337.90 0.1987152
338.00 0.2032597
338.10 0.2050915
338.20 0.203792
338.30 0.1979896
338.40 0.1872174
338.50 0.174659
338.60 0.1666545
338.70 0.168145
338.80 0.1780616
338.90 0.1896663
339.00 0.1959663
339.10 0.1954406
339.20 0.1929765
339.30 0.1950637
339.40 0.2038178
339.50 0.21561
339.60 0.2249907
339.70 0.2292687
339.80 0.2291989
339.90 0.2262836
340.00 0.2211209
340.10 0.2143287
340.20 0.2073353
340.30 0.2012254
340.40 0.1952686
340.50 0.1876849
340.60 0.1780457
340.70 0.1682652
340.80 0.1610841
340.90 0.1580612
341.00 0.1590922
341.10 0.1632254
341.20 0.1693641
341.30 0.1762195
341.40 0.1822736
341.50 0.1863655
341.60 0.1883807
341.70 0.1893017
341.80 0.1904607
341.90 0.1925558
342.00 0.1950317
342.10 0.1961888
342.20 0.1942168
342.30 0.1887175
342.40 0.1815237
342.50 0.1757716
342.60 0.173793
342.70 0.175662
342.80 0.179498
342.90 0.1829511
343.00 0.184647
343.10 0.184805
343.20 0.1847256
343.30 0.1855264
343.40 0.187168
343.50 0.1886845
343.60 0.1892055
343.70 0.1884923
343.80 0.1867301
343.90 0.184355
344.00 0.1821642
344.10 0.1810797
344.20 0.1813421
344.30 0.1821047
344.40 0.1821763
344.50 0.1811617
344.60 0.1797823
344.70 0.1792438
344.80 0.1804676
344.90 0.1837794
345.00 0.1890065
345.10 0.1956089
345.20 0.2027068
345.30 0.2090823
345.40 0.2133745
345.50 0.2147349
345.60 0.2135362
345.70 0.2113099
345.80 0.2096993
345.90 0.2093104
346.00 0.2094408
346.10 0.2086944
346.20 0.2059556
346.30 0.2012676
346.40 0.1961141
346.50 0.1925564
346.60 0.1915945
346.70 0.192298
346.80 0.1926713
346.90 0.191278
347.00 0.1879813
347.10 0.1836693
347.20 0.1798152
347.30 0.1780618
347.40 0.1794537
347.50 0.1836139
347.60 0.1889197
347.70 0.1937496
347.80 0.1975685
347.90 0.2009105
348.00 0.2045365
348.10 0.2085828
348.20 0.212287
348.30 0.214492
348.40 0.2145835
348.50 0.2130285
348.60 0.2108937
348.70 0.2088725
348.80 0.2069595
348.90 0.2049311
349.00 0.2027987
349.10 0.2007517
349.20 0.1989598
349.30 0.1976669
349.40 0.1973105
349.50 0.1981695
349.60 0.1998184
349.70 0.2011912
349.80 0.201525
349.90 0.2014325
350.00 0.2028284
350.10 0.2074214
350.20 0.2150761
350.30 0.2236409
350.40 0.2304165
350.50 0.2338619
350.60 0.234102
350.70 0.232206
350.80 0.2292783
350.90 0.2259365
351.00 0.2220713
351.10 0.2168979
351.20 0.2095691
351.30 0.2002653
351.40 0.1907899
351.50 0.1837025
351.60 0.1805053
351.70 0.1805839
351.80 0.1819212
351.90 0.1827783
352.00 0.1826665
352.10 0.1819381
352.20 0.1810034
352.30 0.1802178
352.40 0.1803446
352.50 0.1827824
352.60 0.1887974
352.70 0.1982134
352.80 0.208912
352.90 0.2180144
353.00 0.2240017
353.10 0.2276847
353.20 0.230961
353.30 0.2348821
353.40 0.2391916
353.50 0.243374
353.60 0.2475343
353.70 0.2520696
353.80 0.2569737
353.90 0.2618102
354.00 0.2660089
354.10 0.2688288
354.20 0.2693762
354.30 0.2672939
354.40 0.2635342
354.50 0.2600355
354.60 0.2582736
354.70 0.258174
354.80 0.25852
354.90 0.2582301
355.00 0.2571019
355.10 0.2555703
355.20 0.2540978
355.30 0.2528984
355.40 0.2520759
355.50 0.251675
355.60 0.2514425
355.70 0.2506692
355.80 0.2485204
355.90 0.2447297
356.00 0.2399159
356.10 0.2350801
356.20 0.2307473
356.30 0.2265474
356.40 0.2216208
356.50 0.2155529
356.60 0.2090542
356.70 0.2037061
356.80 0.2008587
356.90 0.2006334
357.00 0.2019329
357.10 0.2032898
357.20 0.203634
357.30 0.2025091
357.40 0.1999397
357.50 0.1962861
357.60 0.1921403
357.70 0.1881179
357.80 0.1846085
357.90 0.1816876
358.00 0.1793329
358.10 0.1778022
358.20 0.1777325
358.30 0.179723
358.40 0.1837334
358.50 0.1888675
358.60 0.19372
358.70 0.1969781
358.80 0.1979686
358.90 0.196983
359.00 0.1952985
359.10 0.1946987
359.20 0.1964919
359.30 0.2005987
359.40 0.2054469
359.50 0.2089561
359.60 0.209948
359.70 0.2088776
359.80 0.2073178
359.90 0.20663
360.00 0.2068826
360.10 0.2068541
360.20 0.2050753
360.30 0.2010098
360.40 0.1955047
360.50 0.1903678
360.60 0.1875288
360.70 0.1882723
360.80 0.1926578
360.90 0.1993854
361.00 0.206434
361.10 0.2122119
361.20 0.2163105
361.30 0.219192
361.40 0.2212565
361.50 0.2224174
361.60 0.2226532
361.70 0.2226065
361.80 0.2232345
361.90 0.2248374
362.00 0.2266998
362.10 0.2278401
362.20 0.2279131
362.30 0.2273085
362.40 0.2266793
362.50 0.2265707
362.60 0.2271642
362.70 0.2279645
362.80 0.2278875
362.90 0.2261231
363.00 0.2230786
363.10 0.2202585
363.20 0.219052
363.30 0.2196974
363.40 0.2213836
363.50 0.2230992
363.60 0.2242833
363.70 0.2248807
363.80 0.225005
363.90 0.2246097
364.00 0.2234054
364.10 0.2210615
364.20 0.2175407
364.30 0.2132854
364.40 0.2091244
364.50 0.2060033
364.60 0.2046185
364.70 0.2050291
364.80 0.2065726
364.90 0.2083656
365.00 0.2101112
365.10 0.2123984
365.20 0.2159762
365.30 0.2206387
365.40 0.2249531
365.50 0.227252
365.60 0.2270082
365.70 0.2252346
365.80 0.2235076
365.90 0.2226883
366.00 0.2225999
366.10 0.2227461
366.20 0.2230927
366.30 0.2239997
366.40 0.2255603
366.50 0.2272389
366.60 0.228152
366.70 0.2276389
366.80 0.2256068
366.90 0.2224795
367.00 0.2189768
367.10 0.2159161
367.20 0.2140397
367.30 0.2138248
367.40 0.2152764
367.50 0.2178855
367.60 0.2208779
367.70 0.2236168
367.80 0.2258667
367.90 0.2277516
368.00 0.2294921
368.10 0.2311402
368.20 0.2324861
368.30 0.2331609
368.40 0.2328755
368.50 0.2316931
368.60 0.2301414
368.70 0.2289943
368.80 0.2287995
368.90 0.2295443
369.00 0.2308077
369.10 0.2322564
369.20 0.233873
369.30 0.2356417
369.40 0.2371482
369.50 0.2376828
369.60 0.236855
369.70 0.2350726
369.80 0.2333998
369.90 0.2329539
370.00 0.2343255
370.10 0.237347
370.20 0.241282
370.30 0.2452222
370.40 0.2483998
370.50 0.2503167
370.60 0.2508005
370.70 0.2501408
370.80 0.2491073
370.90 0.2486058
371.00 0.2490907
371.10 0.2501883
371.20 0.2508377
371.30 0.2498399
371.40 0.246527
371.50 0.241206
371.60 0.2351136
371.70 0.2298376
371.80 0.2265919
371.90 0.225823
372.00 0.2272471
372.10 0.2299329
372.20 0.2322365
372.30 0.2320878
372.40 0.2279478
372.50 0.2200153
372.60 0.2105903
372.70 0.2030443
372.80 0.2001028
372.90 0.2026515
373.00 0.20967
373.10 0.2189729
373.20 0.2281164
373.30 0.2350593
373.40 0.2385721
373.50 0.2383242
373.60 0.2346587
373.70 0.2282648
373.80 0.220032
373.90 0.2111315
374.00 0.2030313
374.10 0.1972419
374.20 0.1949313
374.30 0.1967193
374.40 0.2027258
374.50 0.2126141
374.60 0.2254662
374.70 0.2396081
374.80 0.2527147
374.90 0.2624001
375.00 0.2670358
375.10 0.2662752
375.20 0.2609963
375.30 0.2528448
375.40 0.243729
375.50 0.235419
375.60 0.2291252
375.70 0.2251742
375.80 0.2230287
375.90 0.2217331
376.00 0.2205768
376.10 0.2196157
376.20 0.2197837
376.30 0.2225064
376.40 0.2290055
376.50 0.239773
376.60 0.254558
376.70 0.2725286
376.80 0.2921568
376.90 0.3108986
377.00 0.3254023
377.10 0.3326565
377.20 0.3313683
377.30 0.3224642
377.40 0.3084091
377.50 0.2920402
377.60 0.2757562
377.70 0.2612838
377.80 0.2496155
377.90 0.2409583
378.00 0.2348569
378.10 0.2305879
378.20 0.2275833
378.30 0.2255366
378.40 0.2242352
378.50 0.2235037
378.60 0.2233699
378.70 0.2241567
378.80 0.2263437
378.90 0.2304682
379.00 0.2372873
379.10 0.247872
379.20 0.263162
379.30 0.2831442
379.40 0.3063429
379.50 0.3300335
379.60 0.3508703
379.70 0.3655535
379.80 0.3715762
379.90 0.3680046
380.00 0.3559568
380.10 0.3382768
380.20 0.3184504
380.30 0.299411
380.40 0.282922
380.50 0.2696216
380.60 0.2593693
380.70 0.2515438
380.80 0.2452639
380.90 0.2397715
381.00 0.2348045
381.10 0.2305864
381.20 0.2273761
381.30 0.2250433
381.40 0.2231947
381.50 0.2217301
381.60 0.2210621
381.70 0.2215912
381.80 0.222968
381.90 0.2240203
382.00 0.2236062
382.10 0.2216627
382.20 0.219153
382.30 0.2170429
382.40 0.2145945
382.50 0.2090789
382.60 0.1986649
382.70 0.1857674
382.80 0.1772594
382.90 0.1792123
383.00 0.1907119
383.10 0.2036081
383.20 0.209318
383.30 0.2059372
383.40 0.1989054
383.50 0.1950395
383.60 0.1958406
383.70 0.1970613
383.80 0.1939441
383.90 0.1868546
384.00 0.1818876
384.10 0.186364
384.20 0.2030549
384.30 0.2278272
384.40 0.2518623
384.50 0.2669042
384.60 0.270425
384.70 0.265574
384.80 0.2564506
384.90 0.245062
385.00 0.2336116
385.10 0.2265961
385.20 0.2275466
385.30 0.2336344
385.40 0.2369813
385.50 0.231897
385.60 0.2190604
385.70 0.2037029
385.80 0.1914441
385.90 0.1860761
386.00 0.1886737
386.10 0.1977654
386.20 0.2106825
386.30 0.2249796
386.40 0.2388532
386.50 0.250738
386.60 0.2598402
386.70 0.266813
386.80 0.2727442
386.90 0.2765136
387.00 0.2742522
387.10 0.2629336
387.20 0.2445677
387.30 0.2259313
387.40 0.2129626
387.50 0.206156
387.60 0.201803
387.70 0.1969918
387.80 0.1930338
387.90 0.1940137
388.00 0.202736
388.10 0.217707
388.20 0.2334677
388.30 0.2434676
388.40 0.2432361
388.50 0.2333785
388.60 0.2202529
388.70 0.2127371
388.80 0.2158487
388.90 0.2275234
389.00 0.242327
389.10 0.2566012
389.20 0.2687826
389.30 0.2757976
389.40 0.2743371
389.50 0.2664833
389.60 0.2600534
389.70 0.2606233
389.80 0.264757
389.90 0.2641582
390.00 0.255279
390.10 0.2428181
390.20 0.2340908
390.30 0.2332285
390.40 0.2404551
390.50 0.2536194
390.60 0.2689847
390.70 0.2815629
390.80 0.2876963
390.90 0.2879395
391.00 0.2864541
391.10 0.2877454
391.20 0.2936595
391.30 0.3023803
391.40 0.3097011
391.50 0.3109576
391.60 0.3036908
391.70 0.2896395
391.80 0.2734994
391.90 0.2589004
392.00 0.2459985
392.10 0.2333626
392.20 0.2217891
392.30 0.2148706
392.40 0.2149868
392.50 0.2198491
392.60 0.224036
392.70 0.2234161
392.80 0.2169257
392.90 0.2057111
393.00 0.1922151
393.10 0.1806024
393.20 0.17562
393.30 0.1786025
393.40 0.1858735
393.50 0.1926941
393.60 0.1977065
393.70 0.2026695
393.80 0.2089995
393.90 0.2158873
394.00 0.2215928
394.10 0.2240882
394.20 0.221316
394.30 0.2136482
394.40 0.2057507
394.50 0.2038884
394.60 0.2105501
394.70 0.2227863
394.80 0.2363877
394.90 0.2501544
395.00 0.2656716
395.10 0.2833876
395.20 0.3002462
395.30 0.3117758
395.40 0.3154727
395.50 0.3113047
395.60 0.3000196
395.70 0.2828209
395.80 0.2623505
395.90 0.2417507
396.00 0.2222595
396.10 0.2042867
396.20 0.1903967
396.30 0.1842137
396.40 0.1857988
396.50 0.1904976
396.60 0.1942277
396.70 0.1973702
396.80 0.2018337
396.90 0.2063884
397.00 0.2073816
397.10 0.2045958
397.20 0.2043168
397.30 0.2143593
397.40 0.2361468
397.50 0.2627813
397.60 0.2855588
397.70 0.3018183
397.80 0.3148343
397.90 0.32696
398.00 0.3359641
398.10 0.3388954
398.20 0.337587
398.30 0.3382069
398.40 0.3450392
398.50 0.3569311
398.60 0.3692757
398.70 0.3773417
398.80 0.3782522
398.90 0.3724872
399.00 0.3653626
399.10 0.3645938
399.20 0.3736303
399.30 0.3880775
399.40 0.3997342
399.50 0.4030006
399.60 0.3969741
399.70 0.3841582
399.80 0.3700291
399.90 0.3627228
400.00 0.3687976
400.10 0.3873087
400.20 0.4090047
400.30 0.4220625
400.40 0.4197594
400.50 0.4041271
400.60 0.3836498
400.70 0.367971
400.80 0.363455
400.90 0.3712608
401.00 0.387968
401.10 0.407809
401.20 0.4251372
401.30 0.4363173
401.40 0.440582
401.50 0.4392749
401.60 0.4347087
401.70 0.4292656
401.80 0.4246451
401.90 0.4220413
402.00 0.4225349
402.10 0.4265008
402.20 0.4325574
402.30 0.4381498
402.40 0.4417125
402.50 0.4443618
402.60 0.4476692
402.70 0.4491924
402.80 0.4419578
402.90 0.419589
403.00 0.3829157
403.10 0.3414727
403.20 0.308417
403.30 0.2934443
403.40 0.2993026
403.50 0.3229634
403.60 0.3585173
403.70 0.3988439
403.80 0.4357838
403.90 0.4610847
404.00 0.469827
404.10 0.4633828
404.20 0.4473303
404.30 0.4259588
404.40 0.4003382
404.50 0.3733259
404.60 0.3539943
404.70 0.3526243
404.80 0.3709668
404.90 0.3999322
405.00 0.4273668
405.10 0.4466409
405.20 0.4578524
405.30 0.4634643
405.40 0.4651982
405.50 0.4639091
405.60 0.4605554
405.70 0.4569309
405.80 0.4548806
405.90 0.4545156
406.00 0.4525515
406.10 0.4432267
406.20 0.4231337
406.30 0.3966723
406.40 0.3758038
406.50 0.3718388
406.60 0.3864453
406.70 0.410408
406.80 0.4304638
406.90 0.4375009
407.00 0.4304413
407.10 0.4161397
407.20 0.4057683
407.30 0.407685
407.40 0.4205416
407.50 0.4332355
407.60 0.4339042
407.70 0.4205924
407.80 0.4038709
407.90 0.3982771
408.00 0.4106133
408.10 0.43548
408.20 0.461098
408.30 0.4788538
408.40 0.4880805
408.50 0.4937328
408.60 0.5008428
408.70 0.5111497
408.80 0.5227916
408.90 0.5318813
409.00 0.5349968
409.10 0.5318138
409.20 0.5254622
409.30 0.5187037
409.40 0.5098942
409.50 0.4947762
409.60 0.4725939
409.70 0.4482186
409.80 0.427689
409.90 0.4133254
410.00 0.4045081
410.10 0.4012833
410.20 0.4049924
410.30 0.4160181
410.40 0.4316987
410.50 0.4469132
410.60 0.4572044
410.70 0.4619056
410.80 0.4639843
410.90 0.4665135
411.00 0.4699581
411.10 0.4730269
411.20 0.4754249
411.30 0.4785426
411.40 0.4839124
411.50 0.4913906
411.60 0.4982442
411.70 0.5003933
411.80 0.4956783
411.90 0.4867877
412.00 0.4799017
412.10 0.479738
412.20 0.4865685
412.30 0.4979838
412.40 0.5118784
412.50 0.5261553
412.60 0.5368764
412.70 0.539409
412.80 0.5321996
412.90 0.5174929
413.00 0.4980903
413.10 0.4753415
413.20 0.4513394
413.30 0.4318092
413.40 0.4241504
413.50 0.4319537
413.60 0.4518853
413.70 0.4755836
413.80 0.4943786
413.90 0.5027833
414.00 0.4983469
414.10 0.4805983
414.20 0.4523607
414.30 0.4221011
414.40 0.4021269
414.50 0.4010708
414.60 0.4178864
414.70 0.444003
414.80 0.4703435
414.90 0.4912573
415.00 0.5038462
415.10 0.5074219
415.20 0.5049025
415.30 0.5023608
415.40 0.5047966
415.50 0.5125408
415.60 0.5224668
415.70 0.5319741
415.80 0.5407791
415.90 0.5494171
416.00 0.5576426
416.10 0.5642615
416.20 0.5674974
416.30 0.5653994
416.40 0.5570179
416.50 0.544108
416.60 0.5307556
416.70 0.5207245
416.80 0.5148666
416.90 0.5107095
417.00 0.5040526
417.10 0.4915999
417.20 0.4738241
417.30 0.4557694
417.40 0.444436
417.50 0.4445643
417.60 0.4567199
417.70 0.4784868
417.80 0.5057723
417.90 0.5322702
418.00 0.5498142
418.10 0.5528112
418.20 0.5434261
418.30 0.530666
418.40 0.522687
418.50 0.5202585
418.60 0.5187125
418.70 0.5150787
418.80 0.5107926
418.90 0.5081717
419.00 0.507515
419.10 0.5089682
419.20 0.5147379
419.30 0.5265025
419.40 0.5408919
419.50 0.5497114
419.60 0.5455645
419.70 0.5271708
419.80 0.4999177
419.90 0.4722529
420.00 0.4512545
420.10 0.4402672
420.20 0.4394653
420.30 0.4478603
420.40 0.4640788
420.50 0.4851649
420.60 0.5060704
420.70 0.52189
420.80 0.5312195
420.90 0.536546
421.00 0.5406266
421.10 0.5430871
421.20 0.5405255
421.30 0.5292878
421.40 0.5080734
421.50 0.4792786
421.60 0.4490068
421.70 0.4246086
421.80 0.4096898
421.90 0.4008908
422.00 0.3906381
422.10 0.3732145
422.20 0.3477787
422.30 0.3160676
422.40 0.2797547
422.50 0.2417025
422.60 0.2081797
422.70 0.1874057
422.80 0.1849133
422.90 0.1999068
423.00 0.2259794
423.10 0.2552429
423.20 0.2823566
423.30 0.3063104
423.40 0.3290082
423.50 0.3521209
423.60 0.3754302
423.70 0.3969379
423.80 0.4141248
423.90 0.425968
424.00 0.4343291
424.10 0.4430938
424.20 0.4552842
424.30 0.4705359
424.40 0.4855372
424.50 0.4965545
424.60 0.5008988
424.70 0.4974653
424.80 0.486758
424.90 0.4707102
425.00 0.451644
425.10 0.4307487
425.20 0.4080585
425.30 0.3848567
425.40 0.3664387
425.50 0.3609093
425.60 0.372999
425.70 0.397946
425.80 0.423074
425.90 0.4374617
426.00 0.4412334
426.10 0.4448988
426.20 0.4589427
426.30 0.4842225
426.40 0.5120087
426.50 0.5321842
426.60 0.5406649
426.70 0.5395169
426.80 0.5314364
426.90 0.5155608
427.00 0.4890316
427.10 0.4523937
427.20 0.4125465
427.30 0.3797922
427.40 0.3625056
427.50 0.3645661
427.60 0.3861537
427.70 0.4241448
427.80 0.4706241
427.90 0.5129805
428.00 0.5386426
428.10 0.5421803
428.20 0.5286526
428.30 0.5097467
428.40 0.4957949
428.50 0.4897983
428.60 0.4862363
428.70 0.4753048
428.80 0.4510888
428.90 0.4182881
429.00 0.3914163
429.10 0.3848938
429.20 0.4025002
429.30 0.4358795
429.40 0.4714864
429.50 0.4982743
429.60 0.5106753
429.70 0.5079173
429.80 0.4929266
429.90 0.4715
430.00 0.450751
430.10 0.4372113
430.20 0.4350902
430.30 0.444448
430.40 0.4598144
430.50 0.471053
430.60 0.4689653
430.70 0.4533313
430.80 0.4357338
430.90 0.432719
431.00 0.4535294
431.10 0.4929777
431.20 0.5358896
431.30 0.5684586
431.40 0.5864711
431.50 0.5945059
431.60 0.5993122
431.70 0.6048906
431.80 0.6123439
431.90 0.6213528
432.00 0.6304723
432.10 0.6363716
432.20 0.6339711
432.30 0.6186908
432.40 0.5903712
432.50 0.5572175
432.60 0.5346108
432.70 0.5363693
432.80 0.5645394
432.90 0.607445
433.00 0.6482601
433.10 0.67635
433.20 0.6916181
433.30 0.6996915
433.40 0.7040277
433.50 0.7021301
433.60 0.6893958
433.70 0.6660441
433.80 0.6394999
433.90 0.6198617
434.00 0.6132503
434.10 0.6189606
434.20 0.6309958
434.30 0.6420171
434.40 0.6477741
434.50 0.6501941
434.60 0.6561413
434.70 0.6710266
434.80 0.6917898
434.90 0.7060167
435.00 0.6999033
435.10 0.6701685
435.20 0.6295062
435.30 0.5990115
435.40 0.5932362
435.50 0.6112607
435.60 0.6405046
435.70 0.6670814
435.80 0.6831471
435.90 0.6881649
436.00 0.6867275
436.10 0.685084
436.20 0.6879131
436.30 0.6970011
436.40 0.7113763
436.50 0.727201
436.60 0.738571
436.70 0.7410535
436.80 0.7351315
436.90 0.7253186
437.00 0.7157584
437.10 0.7074115
437.20 0.6988046
437.30 0.6878345
437.40 0.6735729
437.50 0.6583433
437.60 0.6470862
437.70 0.6424154
437.80 0.6406072
437.90 0.6343043
438.00 0.6186583
438.10 0.5932552
438.20 0.5604485
438.30 0.526525
438.40 0.5043338
438.50 0.5083292
438.60 0.5420342
438.70 0.5916897
438.80 0.6357357
438.90 0.6615698
439.00 0.6724996
439.10 0.6798984
439.20 0.6908288
439.30 0.7034989
439.40 0.7128835
439.50 0.7180897
439.60 0.7229943
439.70 0.7306411
439.80 0.739066
439.90 0.7434654
440.00 0.7405402
440.10 0.728389
440.20 0.7038612
440.30 0.664617
440.40 0.6156663
440.50 0.5714198
440.60 0.5482045
440.70 0.5541746
440.80 0.5863048
440.90 0.6344326
441.00 0.6858951
441.10 0.728179
441.20 0.7515464
441.30 0.7523005
441.40 0.7348788
441.50 0.7113842
441.60 0.6976247
441.70 0.7052947
441.80 0.7337776
441.90 0.7693257
442.00 0.7945232
442.10 0.7998852
442.20 0.7870494
442.30 0.7625905
442.40 0.731692
442.50 0.6987105
442.60 0.6710047
442.70 0.6579052
442.80 0.6643139
442.90 0.6867644
443.00 0.7162516
443.10 0.7428125
443.20 0.7563973
443.30 0.747815
443.40 0.7156131
443.50 0.6738086
443.60 0.6479138
443.70 0.6575458
443.80 0.7007866
443.90 0.7555202
444.00 0.7964192
444.10 0.8118315
444.20 0.8078924
444.30 0.8006135
444.40 0.8040203
444.50 0.821668
444.60 0.8459419
444.70 0.8650562
444.80 0.8720068
444.90 0.8675874
445.00 0.8551305
445.10 0.8339986
445.20 0.7992796
445.30 0.7478754
445.40 0.6854418
445.50 0.6277011
445.60 0.5931712
445.70 0.5909689
445.80 0.6136675
445.90 0.6431928
446.00 0.6658992
446.10 0.6826687
446.20 0.7046241
446.30 0.7399324
446.40 0.7850685
446.50 0.828047
446.60 0.8584467
446.70 0.8738919
446.80 0.8789427
446.90 0.8804651
447.00 0.884301
447.10 0.8935606
447.20 0.9068215
447.30 0.9180739
447.40 0.9215094
447.50 0.9180007
447.60 0.9152792
447.70 0.9194689
447.80 0.9266382
447.90 0.924712
448.00 0.9054011
448.10 0.8742032
448.20 0.8484246
448.30 0.8449297
448.40 0.867797
448.50 0.9052265
448.60 0.9373216
448.70 0.9488955
448.80 0.9384412
448.90 0.9176024
449.00 0.9019499
449.10 0.8999081
449.20 0.9075645
449.30 0.9127655
449.40 0.9053348
449.50 0.8859718
449.60 0.8669451
449.70 0.8632609
449.80 0.8809458
449.90 0.9124826
450.00 0.9439266
450.10 0.966697
450.20 0.9823014
450.30 0.9962302
450.40 1.009497
450.50 1.017579
450.60 1.016626
450.70 1.00858
450.80 0.9994493
450.90 0.9936079
451.00 0.9901652
451.10 0.984736
451.20 0.9746049
451.30 0.9623231
451.40 0.9539201
451.50 0.9526399
451.60 0.9548587
451.70 0.9541646
451.80 0.9500232
451.90 0.9497484
452.00 0.9598974
452.10 0.9772135
452.20 0.9905023
452.30 0.9904621
452.40 0.9746624
452.50 0.9445949
452.60 0.9034069
452.70 0.8586659
452.80 0.8232761
452.90 0.8081897
453.00 0.8125317
453.10 0.8220067
453.20 0.818253
453.30 0.7921602
453.40 0.7524342
453.50 0.7230524
453.60 0.7290212
453.70 0.7787824
453.80 0.8567794
453.90 0.9340086
454.00 0.9880548
454.10 1.014394
454.20 1.020933
454.30 1.015522
454.40 1.000866
454.50 0.9790892
454.60 0.9560004
454.70 0.9384655
454.80 0.9302354
454.90 0.9317639
455.00 0.941721
455.10 0.9561442
455.20 0.9675383
455.30 0.9694702
455.40 0.9637959
455.50 0.961437
455.60 0.9739889
455.70 1.004289
455.80 1.044601
455.90 1.082794
456.00 1.109879
456.10 1.122982
456.20 1.123942
456.30 1.116746
456.40 1.10654
456.50 1.099684
456.60 1.10202
456.70 1.114415
456.80 1.12943
456.90 1.135016
457.00 1.124523
457.10 1.104026
457.20 1.088328
457.30 1.088258
457.40 1.102012
457.50 1.118028
457.60 1.124241
457.70 1.114582
457.80 1.089877
457.90 1.056755
458.00 1.026804
458.10 1.01281
458.20 1.020252
458.30 1.040557
458.40 1.05565
458.50 1.05346
458.60 1.039917
458.70 1.033455
458.80 1.046659
458.90 1.074284
459.00 1.098969
459.10 1.106981
459.20 1.09834
459.30 1.084352
459.40 1.077835
459.50 1.084851
459.60 1.102372
459.70 1.121261
459.80 1.131625
459.90 1.127575
460.00 1.110031
460.10 1.086586
460.20 1.067966
460.30 1.062032
460.40 1.068881
460.50 1.081695
460.60 1.093767
460.70 1.105162
460.80 1.121412
460.90 1.145241
461.00 1.170839
461.10 1.18785
461.20 1.190514
461.30 1.182066
461.40 1.170595
461.50 1.161963
461.60 1.157126
461.70 1.154844
461.80 1.155308
461.90 1.160422
462.00 1.17065
462.10 1.182392
462.20 1.18911
462.30 1.185361
462.40 1.170477
462.50 1.149585
462.60 1.131471
462.70 1.124034
462.80 1.129736
462.90 1.144507
463.00 1.161
463.10 1.172902
463.20 1.177171
463.30 1.174331
463.40 1.167476
463.50 1.159444
463.60 1.149518
463.70 1.134205
463.80 1.112933
463.90 1.092539
464.00 1.084272
464.10 1.094903
464.20 1.119628
464.30 1.142739
464.40 1.146623
464.50 1.124098
464.60 1.085375
464.70 1.052136
464.80 1.041455
464.90 1.053011
465.00 1.071433
465.10 1.08117
465.20 1.078698
465.30 1.071195
465.40 1.066804
465.50 1.069351
465.60 1.081254
465.70 1.106288
465.80 1.145563
465.90 1.192054
466.00 1.232265
466.10 1.254234
466.20 1.253909
466.30 1.235211
466.40 1.205313
466.50 1.169372
466.60 1.129072
466.70 1.086963
466.80 1.051867
466.90 1.036831
467.00 1.048745
467.10 1.080172
467.20 1.113845
467.30 1.135944
467.40 1.145132
467.50 1.14992
467.60 1.158294
467.70 1.169595
467.80 1.175009
467.90 1.165135
468.00 1.1385
468.10 1.104347
468.20 1.077087
468.30 1.066904
468.40 1.073976
468.50 1.090446
468.60 1.107545
468.70 1.120664
468.80 1.128765
468.90 1.131637
469.00 1.129367
469.10 1.123919
469.20 1.119486
469.30 1.120329
469.40 1.128145
469.50 1.141044
469.60 1.154003
469.70 1.160864
469.80 1.15823
469.90 1.148034
470.00 1.135308
470.10 1.123369
470.20 1.112477
470.30 1.103115
470.40 1.097835
470.50 1.098008
470.60 1.100709
470.70 1.101511
470.80 1.099999
470.90 1.100966
471.00 1.109954
471.10 1.127533
471.20 1.147176
471.30 1.159037
471.40 1.157499
471.50 1.146214
471.60 1.135199
471.70 1.132221
471.80 1.137544
471.90 1.146321
472.00 1.153337
472.10 1.15531
472.20 1.151653
472.30 1.145125
472.40 1.140388
472.50 1.139158
472.60 1.137049
472.70 1.127708
472.80 1.11063
472.90 1.093573
473.00 1.086157
473.10 1.091073
473.20 1.102226
473.30 1.111016
473.40 1.113355
473.50 1.110843
473.60 1.107092
473.70 1.104572
473.80 1.104107
473.90 1.105126
474.00 1.105987
474.10 1.105461
474.20 1.104522
474.30 1.105876
474.40 1.11131
474.50 1.119919
474.60 1.128833
474.70 1.135033
474.80 1.136827
474.90 1.134351
475.00 1.128699
475.10 1.120497
475.20 1.109804
475.30 1.097873
475.40 1.088019
475.50 1.083021
475.60 1.081532
475.70 1.078269
475.80 1.068638
475.90 1.052995
476.00 1.035505
476.10 1.019133
476.20 1.002929
476.30 0.9846072
476.40 0.9645021
476.50 0.9459665
476.60 0.9324442
476.70 0.9250259
476.80 0.9222773
476.90 0.9211828
477.00 0.9188606
477.10 0.9145718
477.20 0.9101866
477.30 0.9078883
477.40 0.9073216
477.50 0.9056616
477.60 0.9002789
477.70 0.8908489
477.80 0.8791068
477.90 0.8672626
478.00 0.8567283
478.10 0.8481735
478.20 0.8427903
478.30 0.8432736
478.40 0.8525044
478.50 0.8703924
478.60 0.8924816
478.70 0.912658
478.80 0.9277046
478.90 0.9388257
479.00 0.9489828
479.10 0.9598353
479.20 0.9717724
479.30 0.9855656
479.40 1.002209
479.50 1.020861
479.60 1.038034
479.70 1.049602
479.80 1.053455
479.90 1.050826
480.00 1.046156
480.10 1.045448
480.20 1.052751
480.30 1.066599
480.40 1.080053
480.50 1.085382
480.60 1.079736
480.70 1.066883
480.80 1.053823
480.90 1.045799
481.00 1.043769
481.10 1.045477
481.20 1.048234
481.30 1.050759
481.40 1.05343
481.50 1.05746
481.60 1.063572
481.70 1.070788
481.80 1.076324
481.90 1.076932
482.00 1.070833
482.10 1.058643
482.20 1.042904
482.30 1.027386
482.40 1.016404
482.50 1.013175
482.60 1.017236
482.70 1.023668
482.80 1.026205
482.90 1.021966
483.00 1.013561
483.10 1.00699
483.20 1.007513
483.30 1.016241
483.40 1.029183
483.50 1.039805
483.60 1.043902
483.70 1.04267
483.80 1.04071
483.90 1.041044
484.00 1.042215
484.10 1.040338
484.20 1.033854
484.30 1.026526
484.40 1.025877
484.50 1.037624
484.60 1.060422
484.70 1.086132
484.80 1.1058
484.90 1.115506
485.00 1.117015
485.10 1.114223
485.20 1.109851
485.30 1.104863
485.40 1.099597
485.50 1.095113
485.60 1.093231
485.70 1.094139
485.80 1.093958
485.90 1.08667
486.00 1.070144
486.10 1.049883
486.20 1.035533
486.30 1.033533
486.40 1.043284
486.50 1.059281
486.60 1.075724
486.70 1.089014
486.80 1.096685
486.90 1.095454
487.00 1.082547
487.10 1.060499
487.20 1.039284
487.30 1.030298
487.40 1.036679
487.50 1.050815
487.60 1.062166
487.70 1.06678
487.80 1.068635
487.90 1.0729
488.00 1.080102
488.10 1.086935
488.20 1.090755
488.30 1.091514
488.40 1.089803
488.50 1.085318
488.60 1.078251
488.70 1.070053
488.80 1.06103
488.90 1.049041
489.00 1.033417
489.10 1.020421
489.20 1.021764
489.30 1.045016
489.40 1.085652
489.50 1.129617
489.60 1.163381
489.70 1.181171
489.80 1.184485
489.90 1.17789
490.00 1.166497
490.10 1.154933
490.20 1.1463
490.30 1.142449
490.40 1.145723
490.50 1.158502
490.60 1.179477
490.70 1.201671
490.80 1.216692
490.90 1.221465
491.00 1.219549
491.10 1.216011
491.20 1.21245
491.30 1.207658
491.40 1.201464
491.50 1.195523
491.60 1.189008
491.70 1.174999
491.80 1.144733
491.90 1.098208
492.00 1.050282
492.10 1.023112
492.20 1.029552
492.30 1.063319
492.40 1.106166
492.50 1.144214
492.60 1.176239
492.70 1.207418
492.80 1.238639
492.90 1.263944
493.00 1.276109
493.10 1.27185
493.20 1.253054
493.30 1.2262
493.40 1.200597
493.50 1.183653
493.60 1.175421
493.70 1.168781
493.80 1.156949
493.90 1.141056
494.00 1.129773
494.10 1.131722
494.20 1.148101
494.30 1.17182
494.40 1.193392
494.50 1.208435
494.60 1.220479
494.70 1.236642
494.80 1.259817
494.90 1.285095
495.00 1.30395
495.10 1.31059
495.20 1.303417
495.30 1.2814
495.40 1.241286
495.50 1.180462
495.60 1.103815
495.70 1.027439
495.80 0.9735796
495.90 0.9577909
496.00 0.9774863
496.10 1.01286
496.20 1.041032
496.30 1.051504
496.40 1.049688
496.50 1.047006
496.60 1.048953
496.70 1.052879
496.80 1.055146
496.90 1.057738
497.00 1.066865
497.10 1.08611
497.20 1.111951
497.30 1.136008
497.40 1.151273
497.50 1.156219
497.60 1.153529
497.70 1.145994
497.80 1.133839
497.90 1.114596
498.00 1.084654
498.10 1.043194
498.20 0.9978878
498.30 0.9654601
498.40 0.961458
498.50 0.9867999
498.60 1.02565
498.70 1.057445
498.80 1.070423
498.90 1.065374
499.00 1.051153
499.10 1.038427
499.20 1.034464
499.30 1.040309
499.40 1.05229
499.50 1.066068
499.60 1.068494
499.70 1.026361
499.80 0.8993285
499.90 0.679411
500.00 1
500.10 0.9088995
500.20 0.9111611
500.30 0.9766337
500.40 1.033637
500.50 1.067537
500.60 1.044708
500.70 0.9664512
500.80 0.905159
500.90 0.9079443
501.00 0.9567225
501.10 1.023316
501.20 1.053917
501.30 1.011747
501.40 0.9144513
501.50 0.8368199
501.60 0.8354036
501.70 0.9019568
501.80 0.9883775
501.90 1.044932
502.00 1.068895
502.10 1.087729
502.20 1.043362
502.30 0.9580499
502.40 0.9366798
502.50 0.9888016
502.60 1.033541
502.70 1.048628
502.80 1.01931
502.90 0.992451
503.00 1.000694
503.10 1.059454
503.20 1.113071
503.30 1.117272
503.40 1.091969
503.50 1.051297
503.60 1.00288
503.70 0.9532205
503.80 0.9712563
503.90 0.9956745
504.00 0.9480745
504.10 0.8668683
504.20 0.8400608
504.30 0.881458
504.40 0.9445657
504.50 1.001229
504.60 1.049538
504.70 1.102287
504.80 1.130707
504.90 1.11125
505.00 1.027698
505.10 0.9626375
505.20 0.9856879
505.30 1.030322
505.40 1.040638
505.50 1.029409
505.60 1.002081
505.70 1.005715
505.80 1.059092
505.90 1.081589
506.00 1.082725
506.10 1.082568
506.20 1.081984
506.30 1.084099
506.40 1.046732
506.50 0.9789463
506.60 0.9408603
506.70 0.9556711
506.80 0.9805334
506.90 0.9691141
507.00 0.970958
507.10 0.970282
507.20 0.9648689
507.30 0.9570508
507.40 0.9835262
507.50 1.039406
507.60 1.053289
507.70 0.9997597
507.80 0.985059
507.90 0.9919128
508.00 0.9848565
508.10 0.9625523
508.20 0.9452136
508.30 0.9184731
508.40 0.9006813
508.50 0.9303276
508.60 1.000391
508.70 1.04135
508.80 1.049403
508.90 1.029607
509.00 0.983107
509.10 0.9599667
509.20 0.9914039
509.30 1.023219
509.40 1.066531
509.50 1.063255
509.60 0.9897022
509.70 0.9588187
509.80 1.011526
509.90 1.070213
510.00 1.017983
510.10 0.9295106
510.20 0.8993552
510.30 0.9139779
510.40 0.9367437
510.50 0.9303922
510.60 0.902421
510.70 0.889447
510.80 0.9161778
510.90 0.9397687
511.00 0.9498682
511.10 0.962544
511.20 0.9628265
511.30 0.9380498
511.40 0.9557177
511.50 1.006586
511.60 1.058006
511.70 1.081777
511.80 1.073906
511.90 1.06807
512.00 1.045141
512.10 0.9883357
512.20 0.9738933
512.30 0.9952323
512.40 0.9688197
512.50 0.9117638
512.60 0.8894446
512.70 0.9031519
512.80 0.9243902
512.90 0.9125202
513.00 0.8714094
513.10 0.8705758
513.20 0.9384688
513.30 1.028319
513.40 1.04645
513.50 1.012503
513.60 0.9887879
513.70 1.022572
513.80 1.029476
513.90 1.032076
514.00 0.9919475
514.10 0.9851403
514.20 1.014923
514.30 1.030563
514.40 1.009913
514.50 1.000338
514.60 0.9851011
514.70 0.9387418
514.80 0.9316663
514.90 0.9585969
515.00 0.9713877
515.10 0.9755081
515.20 0.9501352
515.30 0.8756321
515.40 0.8155214
515.50 0.8208784
515.60 0.8874485
515.70 0.9905702
515.80 1.058166
515.90 1.108266
516.00 1.125976
516.10 1.142741
516.20 1.175281
516.30 1.153875
516.40 1.111466
516.50 1.101987
516.60 1.062997
516.70 0.9095389
516.80 0.7554902
516.90 0.7115998
517.00 0.7458807
517.10 0.7692656
517.20 0.7476148
517.30 0.6889749
517.40 0.6360486
517.50 0.6707225
517.60 0.7730058
517.70 0.8580368
517.80 0.8829102
517.90 0.8645826
518.00 0.8478167
518.10 0.831678
518.20 0.7603327
518.30 0.6643126
518.40 0.622986
518.50 0.6497619
518.60 0.7659284
518.70 0.9244317
518.80 1.027225
518.90 1.055063
519.00 1.067706
519.10 1.075015
519.20 1.040889
519.30 0.9740122
519.40 0.9558052
519.50 0.9887988
519.60 1.030565
519.70 1.086049
519.80 1.138872
519.90 1.157445
520.00 1.158033
520.10 1.144851
520.20 1.117779
520.30 1.074965
520.40 0.9921636
520.50 0.8644603
520.60 0.7504942
520.70 0.6781273
520.80 0.6773782
520.90 0.6762232
521.00 0.6685748
521.10 0.7228219
521.20 0.8818095
521.30 1.081691
521.40 1.235156
521.50 1.276732
521.60 1.23489
521.70 1.218988
521.80 1.249316
521.90 1.284749
522.00 1.326547
522.10 1.376671
522.20 1.403586
522.30 1.391373
522.40 1.342322
522.50 1.26758
522.60 1.199358
522.70 1.134201
522.80 1.095063
522.90 1.142341
523.00 1.273749
523.10 1.361948
523.20 1.365502
523.30 1.30544
523.40 1.250848
523.50 1.264177
523.60 1.341285
523.70 1.42621
523.80 1.453021
523.90 1.440956
524.00 1.4297
524.10 1.406559
524.20 1.373789
524.30 1.35437
524.40 1.366242
524.50 1.404833
524.60 1.420686
524.70 1.346833
524.80 1.250117
524.90 1.23769
525.00 1.289912
525.10 1.302679
525.20 1.270807
525.30 1.272625
525.40 1.322373
525.50 1.344428
525.60 1.344347
525.70 1.357704
525.80 1.382177
525.90 1.432078
526.00 1.443325
526.10 1.382959
526.20 1.292399
526.30 1.206406
526.40 1.127775
526.50 1.068705
526.60 1.016472
526.70 1.020935
526.80 1.082599
526.90 1.077693
527.00 0.9625587
527.10 0.8653707
527.20 0.9591747
527.30 1.140833
527.40 1.262233
527.50 1.319186
527.60 1.341321
527.70 1.335461
527.80 1.384747
527.90 1.447426
528.00 1.447202
528.10 1.41862
528.20 1.365734
528.30 1.273425
528.40 1.25308
528.50 1.297099
528.60 1.379114
528.70 1.470269
528.80 1.511863
528.90 1.492529
529.00 1.486266
529.10 1.473378
529.20 1.454858
529.30 1.462015
529.40 1.475399
529.50 1.488671
529.60 1.456238
529.70 1.352062
529.80 1.231143
529.90 1.145759
530.00 1.170714
530.10 1.265632
530.20 1.338667
530.30 1.373956
530.40 1.420964
530.50 1.489478
530.60 1.522031
530.70 1.492603
530.80 1.459434
530.90 1.461962
531.00 1.496253
531.10 1.517599
531.20 1.526409
531.30 1.512734
531.40 1.499555
531.50 1.492061
531.60 1.499568
531.70 1.510688
531.80 1.530596
531.90 1.551066
532.00 1.52211
532.10 1.475852
532.20 1.464222
532.30 1.457832
532.40 1.417532
532.50 1.379243
532.60 1.369306
532.70 1.343412
532.80 1.243358
532.90 1.075255
533.00 1.030313
533.10 1.158479
533.20 1.318805
533.30 1.393574
533.40 1.424807
533.50 1.444063
533.60 1.460796
533.70 1.475089
533.80 1.478178
533.90 1.459466
534.00 1.419797
534.10 1.357906
534.20 1.329693
534.30 1.354522
534.40 1.428017
534.50 1.446632
534.60 1.407043
534.70 1.345559
534.80 1.343289
534.90 1.357375
535.00 1.355339
535.10 1.397002
535.20 1.512127
535.30 1.592845
535.40 1.572514
535.50 1.533292
535.60 1.531964
535.70 1.567804
535.80 1.618589
535.90 1.640255
536.00 1.626972
536.10 1.607594
536.20 1.587716
536.30 1.581919
536.40 1.558487
536.50 1.52428
536.60 1.51199
536.70 1.508968
536.80 1.528687
536.90 1.539364
537.00 1.494025
537.10 1.355001
537.20 1.213008
537.30 1.195074
537.40 1.339123
537.50 1.515019
537.60 1.590793
537.70 1.587723
537.80 1.583888
537.90 1.619216
538.00 1.653935
538.10 1.685128
538.20 1.666323
538.30 1.615759
538.40 1.552172
538.50 1.532277
538.60 1.582998
538.70 1.638309
538.80 1.648958
538.90 1.637048
539.00 1.607203
539.10 1.588909
539.20 1.580938
539.30 1.552014
539.40 1.525262
539.50 1.50373
539.60 1.457285
539.70 1.37263
539.80 1.322552
539.90 1.367053
540.00 1.478138
540.10 1.558186
540.20 1.574632
540.30 1.578167
540.40 1.549409
540.50 1.469789
540.60 1.352367
540.70 1.29079
540.80 1.340734
540.90 1.423015
541.00 1.39983
541.10 1.342279
541.20 1.359937
541.30 1.460746
541.40 1.567331
541.50 1.633554
541.60 1.65592
541.70 1.649095
541.80 1.661912
541.90 1.700373
542.00 1.701038
542.10 1.640432
542.20 1.613772
542.30 1.643656
542.40 1.658496
542.50 1.632742
542.60 1.61115
542.70 1.6465
542.80 1.690521
542.90 1.647132
543.00 1.480861
543.10 1.355138
543.20 1.379223
543.30 1.470694
543.40 1.492521
543.50 1.435068
543.60 1.40786
543.70 1.472128
543.80 1.564879
543.90 1.619204
544.00 1.630976
544.10 1.661189
544.20 1.726162
544.30 1.768677
544.40 1.757583
544.50 1.693369
544.60 1.587077
544.70 1.430125
544.80 1.316937
544.90 1.312804
545.00 1.392669
545.10 1.4507
545.20 1.477419
545.30 1.490156
545.40 1.49081
545.50 1.428467
545.60 1.336644
545.70 1.303625
545.80 1.380624
545.90 1.504734
546.00 1.566689
546.10 1.552813
546.20 1.497553
546.30 1.45725
546.40 1.447455
546.50 1.473623
546.60 1.513189
546.70 1.54622
546.80 1.585161
546.90 1.619823
547.00 1.594278
547.10 1.547282
547.20 1.534455
547.30 1.560807
547.40 1.585859
547.50 1.560171
547.60 1.50216
547.70 1.466169
547.80 1.453323
547.90 1.479257
548.00 1.533944
548.10 1.5769
548.20 1.553667
548.30 1.515164
548.40 1.537118
548.50 1.612989
548.60 1.646218
548.70 1.627526
548.80 1.57992
548.90 1.560544
549.00 1.580315
549.10 1.614717
549.20 1.653969
549.30 1.685192
549.40 1.69049
549.50 1.657727
549.60 1.617728
549.70 1.579523
549.80 1.537614
549.90 1.512897
550.00 1.530224
550.10 1.54881
550.20 1.525537
550.30 1.503651
550.40 1.533095
550.50 1.549524
550.60 1.512773
550.70 1.456074
550.80 1.461875
550.90 1.543938
551.00 1.633294
551.10 1.630703
551.20 1.54053
551.30 1.424554
551.40 1.355193
551.50 1.355206
551.60 1.390055
551.70 1.458369
551.80 1.554146
551.90 1.626477
552.00 1.646409
552.10 1.646232
552.20 1.66489
552.30 1.704866
552.40 1.718464
552.50 1.686873
552.60 1.666411
552.70 1.656416
552.80 1.604398
552.90 1.531773
553.00 1.523015
553.10 1.608255
553.20 1.67546
553.30 1.673958
553.40 1.651974
553.50 1.638754
553.60 1.624744
553.70 1.623338
553.80 1.634203
553.90 1.635558
554.00 1.64623
554.10 1.663536
554.20 1.694977
554.30 1.677679
554.40 1.651756
554.50 1.643439
554.60 1.644957
554.70 1.65117
554.80 1.656707
554.90 1.680837
555.00 1.7007
555.10 1.700953
555.20 1.697186
555.30 1.706548
555.40 1.718955
555.50 1.712164
555.60 1.674085
555.70 1.636779
555.80 1.641
555.90 1.682887
556.00 1.714953
556.10 1.728987
556.20 1.697336
556.30 1.651169
556.40 1.623965
556.50 1.621686
556.60 1.609289
556.70 1.576192
556.80 1.535957
556.90 1.561737
557.00 1.585793
557.10 1.573025
557.20 1.56655
557.30 1.566536
557.40 1.566744
557.50 1.566744
557.60 1.566744
557.70 1.566744
557.80 1.566744
557.90 1.566744
558.00 1.566744
558.10 1.566747
558.20 1.566733
558.30 1.566343
558.40 1.563096
558.50 1.589824
558.60 1.649206
558.70 1.609342
558.80 1.497021
558.90 1.393131
559.00 1.342074
559.10 1.377444
559.20 1.484183
559.30 1.576924
559.40 1.573814
559.50 1.521706
559.60 1.509861
559.70 1.55894
559.80 1.55579
559.90 1.458598
560.00 1.393985
560.10 1.418606
560.20 1.459042
560.30 1.462256
560.40 1.476083
560.50 1.530286
560.60 1.612549
560.70 1.666648
560.80 1.673426
560.90 1.675457
561.00 1.688869
561.10 1.703066
561.20 1.705897
561.30 1.704875
561.40 1.701645
561.50 1.640919
561.60 1.537588
561.70 1.481608
561.80 1.508819
561.90 1.570094
562.00 1.58586
562.10 1.566487
562.20 1.60048
562.30 1.653943
562.40 1.686472
562.50 1.653156
562.60 1.603038
562.70 1.60183
562.80 1.640094
562.90 1.656494
563.00 1.631607
563.10 1.60891
563.20 1.642008
563.30 1.68923
563.40 1.7171
563.50 1.743459
563.60 1.740868
563.70 1.711986
563.80 1.695432
563.90 1.69025
564.00 1.683993
564.10 1.689076
564.20 1.68241
564.30 1.678357
564.40 1.679899
564.50 1.683316
564.60 1.679539
564.70 1.694209
564.80 1.711808
564.90 1.715898
565.00 1.728466
565.10 1.746912
565.20 1.748373
565.30 1.772758
565.40 1.791594
565.50 1.801713
565.60 1.792661
565.70 1.789231
565.80 1.759235
565.90 1.694985
566.00 1.647981
566.10 1.663416
566.20 1.691477
566.30 1.667669
566.40 1.635786
566.50 1.675009
566.60 1.731571
566.70 1.768797
566.80 1.764746
566.90 1.738415
567.00 1.699552
567.10 1.68933
567.20 1.682786
567.30 1.679919
567.40 1.710523
567.50 1.739133
567.60 1.73711
567.70 1.749318
567.80 1.785202
567.90 1.812719
568.00 1.807729
568.10 1.789383
568.20 1.768633
568.30 1.723309
568.40 1.687355
568.50 1.704915
568.60 1.772729
568.70 1.798668
568.80 1.722999
568.90 1.623086
569.00 1.620804
569.10 1.702184
569.20 1.770883
569.30 1.811382
569.40 1.833267
569.50 1.838755
569.60 1.799481
569.70 1.791089
569.80 1.792136
569.90 1.760824
570.00 1.735325
570.10 1.743988
570.20 1.752649
570.30 1.734325
570.40 1.72005
570.50 1.744614
570.60 1.784784
570.70 1.8064
570.80 1.760935
570.90 1.728104
571.00 1.727639
571.10 1.7196
571.20 1.68994
571.30 1.701609
571.40 1.753668
571.50 1.792358
571.60 1.817432
571.70 1.820558
571.80 1.818531
571.90 1.833837
572.00 1.854197
572.10 1.865176
572.20 1.877644
572.30 1.903576
572.40 1.914867
572.50 1.879702
572.60 1.863125
572.70 1.824878
572.80 1.76033
572.90 1.743223
573.00 1.801018
573.10 1.837052
573.20 1.825036
573.30 1.831289
573.40 1.854662
573.50 1.878148
573.60 1.892841
573.70 1.887936
573.80 1.871876
573.90 1.865215
574.00 1.872252
574.10 1.886953
574.20 1.900145
574.30 1.90247
574.40 1.892054
574.50 1.889573
574.60 1.902866
574.70 1.915382
574.80 1.911852
574.90 1.9216
575.00 1.921372
575.10 1.928924
575.20 1.946047
575.30 1.937705
575.40 1.908742
575.50 1.890788
575.60 1.910395
575.70 1.938608
575.80 1.961059
575.90 1.961762
576.00 1.940092
576.10 1.913389
576.20 1.880622
576.30 1.837356
576.40 1.798177
576.50 1.804933
576.60 1.843483
576.70 1.890154
576.80 1.916958
576.90 1.92742
577.00 1.913704
577.10 1.905444
577.20 1.912314
577.30 1.916194
577.40 1.901431
577.50 1.893934
577.60 1.877973
577.70 1.87101
577.80 1.892293
577.90 1.902258
578.00 1.883946
578.10 1.853019
578.20 1.82594
578.30 1.813084
578.40 1.814538
578.50 1.825156
578.60 1.821963
578.70 1.822053
578.80 1.848431
578.90 1.884834
579.00 1.903119
579.10 1.884931
579.20 1.851793
579.30 1.856046
579.40 1.905307
579.50 1.973284
579.60 2.000278
579.70 1.977051
579.80 1.959444
579.90 1.948027
580.00 1.956106
580.10 1.974161
580.20 2.012911
580.30 2.019086
580.40 2.005323
580.50 1.993218
580.60 1.989488
580.70 1.990971
580.80 1.989018
580.90 1.991109
581.00 1.982022
581.10 1.970703
581.20 1.957565
581.30 1.954602
581.40 1.948049
581.50 1.930703
581.60 1.904773
581.70 1.893721
581.80 1.885135
581.90 1.887967
582.00 1.9199
582.10 1.919729
582.20 1.909683
582.30 1.906119
582.40 1.91686
582.50 1.92677
582.60 1.941139
582.70 1.942687
582.80 1.943933
582.90 1.942418
583.00 1.93881
583.10 1.945877
583.20 1.955108
583.30 1.964842
583.40 1.963871
583.50 1.957934
583.60 1.943844
583.70 1.94038
583.80 1.92508
583.90 1.922265
584.00 1.93152
584.10 1.949753
584.20 1.964305
584.30 1.983839
584.40 1.981735
584.50 1.957114
584.60 1.946723
584.70 1.949832
584.80 1.949007
584.90 1.930567
585.00 1.899558
585.10 1.884809
585.20 1.863283
585.30 1.842915
585.40 1.811279
585.50 1.809015
585.60 1.804085
585.70 1.755409
585.80 1.671382
585.90 1.624624
586.00 1.682243
586.10 1.789732
586.20 1.845038
586.30 1.833328
586.40 1.802894
586.50 1.795761
586.60 1.792495
586.70 1.781358
586.80 1.750783
586.90 1.752074
587.00 1.795168
587.10 1.825142
587.20 1.819365
587.30 1.803427
587.40 1.793046
587.50 1.782397
587.60 1.777428
587.70 1.760754
587.80 1.732288
587.90 1.704479
588.00 1.671543
588.10 1.64211
588.20 1.612537
588.30 1.577361
588.40 1.532705
588.50 1.486401
588.60 1.416087
588.70 1.320038
588.80 1.165942
588.90 0.9696929
589.00 0.7822108
589.10 0.6648358
589.20 0.6240671
589.30 0.7066307
589.40 0.8352963
589.50 0.9232957
589.60 0.8673841
589.70 0.7558529
589.80 0.7307413
589.90 0.8765327
590.00 1.066162
590.10 1.22486
590.20 1.34872
590.30 1.455641
590.40 1.531364
590.50 1.575877
590.60 1.609628
590.70 1.638647
590.80 1.648912
590.90 1.664424
591.00 1.679159
591.10 1.706843
591.20 1.735268
591.30 1.739155
591.40 1.723662
591.50 1.712003
591.60 1.720773
591.70 1.71358
591.80 1.726937
591.90 1.740629
592.00 1.74432
592.10 1.743238
592.20 1.737004
592.30 1.744308
592.40 1.749928
592.50 1.750888
592.60 1.752095
592.70 1.765157
592.80 1.78279
592.90 1.789589
593.00 1.7911
593.10 1.78254
593.20 1.778837
593.30 1.801953
593.40 1.82596
593.50 1.830516
593.60 1.841208
593.70 1.832291
593.80 1.82348
593.90 1.829389
594.00 1.838272
594.10 1.82615
594.20 1.806336
594.30 1.794264
594.40 1.812706
594.50 1.850047
594.60 1.882109
594.70 1.89534
594.80 1.883802
594.90 1.866303
595.00 1.832225
595.10 1.791026
595.20 1.786703
595.30 1.806407
595.40 1.81914
595.50 1.80411
595.60 1.796858
595.70 1.793638
595.80 1.776896
595.90 1.768556
596.00 1.801956
596.10 1.850444
596.20 1.876022
596.30 1.873582
596.40 1.856536
596.50 1.850088
596.60 1.837898
596.70 1.822893
596.80 1.825055
596.90 1.849786
597.00 1.868074
597.10 1.87716
597.20 1.88081
597.30 1.883073
597.40 1.876385
597.50 1.861996
597.60 1.851988
597.70 1.84418
597.80 1.832726
597.90 1.814217
598.00 1.809818
598.10 1.845968
598.20 1.878358
598.30 1.892248
598.40 1.89529
598.50 1.879495
598.60 1.878582
598.70 1.881692
598.80 1.886
598.90 1.885684
599.00 1.884522
599.10 1.888191
599.20 1.898286
599.30 1.923965
599.40 1.948155
599.50 1.964822
599.60 1.975477
599.70 1.975638
599.80 1.961847
599.90 1.93169
600.00 1.919414
600.10 1.913351
600.20 1.900548
600.30 1.888097
600.40 1.891314
600.50 1.903818
600.60 1.90275
600.70 1.907491
600.80 1.895413
600.90 1.86995
601.00 1.864352
601.10 1.895753
601.20 1.932493
601.30 1.934797
601.40 1.91007
601.50 1.905663
601.60 1.920878
601.70 1.920636
601.80 1.907372
601.90 1.908482
602.00 1.918319
602.10 1.921738
602.20 1.902668
602.30 1.883197
602.40 1.899239
602.50 1.928946
602.60 1.948661
602.70 1.956938
602.80 1.981264
602.90 2.009939
603.00 2.021233
603.10 2.021218
603.20 2.025625
603.30 2.040262
603.40 2.0442
603.50 2.042388
603.60 2.040025
603.70 2.02686
603.80 2.005189
603.90 1.984656
604.00 1.968386
604.10 1.965035
604.20 1.969872
604.30 1.999312
604.40 2.02995
604.50 2.049722
604.60 2.064632
604.70 2.086616
604.80 2.094539
604.90 2.082304
605.00 2.07839
605.10 2.081887
605.20 2.073971
605.30 2.046954
605.40 2.031437
605.50 2.02599
605.60 2.022918
605.70 2.017368
605.80 2.010387
605.90 2.009353
606.00 2.028073
606.10 2.051825
606.20 2.068849
606.30 2.061013
606.40 2.031603
606.50 1.987439
606.60 1.94068
606.70 1.935355
606.80 1.972588
606.90 2.029898
607.00 2.076299
607.10 2.09781
607.20 2.103291
607.30 2.097213
607.40 2.084158
607.50 2.078056
607.60 2.088084
607.70 2.096446
607.80 2.101938
607.90 2.086125
608.00 2.060738
608.10 2.040277
608.20 2.019876
608.30 2.004199
608.40 2.008949
608.50 2.031473
608.60 2.045139
608.70 2.049746
608.80 2.063481
608.90 2.063263
609.00 2.052364
609.10 2.02567
609.20 2.006635
609.30 2.013309
609.40 2.047982
609.50 2.080689
609.60 2.103999
609.70 2.104422
609.80 2.089124
609.90 2.08478
610.00 2.086676
610.10 2.063977
610.20 1.963396
610.30 1.821628
610.40 1.727782
610.50 1.742503
610.60 1.871916
610.70 2.009532
610.80 2.085261
610.90 2.095034
611.00 2.078096
611.10 2.058607
611.20 2.046365
611.30 2.055834
611.40 2.080115
611.50 2.103552
611.60 2.12
611.70 2.110012
611.80 2.083564
611.90 2.048333
612.00 1.987628
612.10 1.879328
612.20 1.7231
612.30 1.584151
612.40 1.544725
612.50 1.642198
612.60 1.816763
612.70 1.952255
612.80 2.01038
612.90 2.049235
613.00 2.090196
613.10 2.115895
613.20 2.124332
613.30 2.128731
613.40 2.116601
613.50 2.077651
613.60 2.026904
613.70 1.955722
613.80 1.900075
613.90 1.89076
614.00 1.944696
614.10 2.026614
614.20 2.074114
614.30 2.0769
614.40 2.080182
614.50 2.104966
614.60 2.124369
614.70 2.132256
614.80 2.119582
614.90 2.094192
615.00 2.053439
615.10 2.022771
615.20 2.020404
615.30 2.035285
615.40 2.047127
615.50 2.034488
615.60 2.013263
615.70 1.999872
615.80 1.993902
615.90 1.952635
616.00 1.849635
616.10 1.680647
616.20 1.485252
616.30 1.326626
616.40 1.268422
616.50 1.337109
616.60 1.477101
616.70 1.589047
616.80 1.638484
616.90 1.632436
617.00 1.591452
617.10 1.573819
617.20 1.620692
617.30 1.710765
617.40 1.768426
617.50 1.8005
617.60 1.810178
617.70 1.825347
617.80 1.854622
617.90 1.877773
618.00 1.900473
618.10 1.906468
618.20 1.903807
618.30 1.897785
618.40 1.901346
618.50 1.888348
618.60 1.857831
618.70 1.8161
618.80 1.784266
618.90 1.767914
619.00 1.747478
619.10 1.714298
619.20 1.662489
619.30 1.625575
619.40 1.644514
619.50 1.689768
619.60 1.735896
619.70 1.771911
619.80 1.784871
619.90 1.771673
620.00 1.750381
620.10 1.741952
620.20 1.754236
620.30 1.780902
620.40 1.815344
620.50 1.839866
620.60 1.853627
620.70 1.852796
620.80 1.856564
620.90 1.862522
621.00 1.862552
621.10 1.836625
621.20 1.797975
621.30 1.769652
621.40 1.73348
621.50 1.680859
621.60 1.629846
621.70 1.592089
621.80 1.585615
621.90 1.607513
622.00 1.636996
622.10 1.648845
622.20 1.650315
622.30 1.645859
622.40 1.625872
622.50 1.600389
622.60 1.589136
622.70 1.60985
622.80 1.633693
622.90 1.632388
623.00 1.601058
623.10 1.566956
623.20 1.5445
623.30 1.547483
623.40 1.587732
623.50 1.645842
623.60 1.705832
623.70 1.728307
623.80 1.717696
623.90 1.692389
624.00 1.671192
624.10 1.648607
624.20 1.620989
624.30 1.601394
624.40 1.599664
624.50 1.616257
624.60 1.638643
624.70 1.658397
624.80 1.690347
624.90 1.72575
625.00 1.742396
625.10 1.734911
625.20 1.716993
625.30 1.704112
625.40 1.684258
625.50 1.67617
625.60 1.685057
625.70 1.686747
625.80 1.649051
625.90 1.586949
626.00 1.549302
626.10 1.56247
626.20 1.626373
626.30 1.706468
626.40 1.775392
626.50 1.810787
626.60 1.818151
626.70 1.807519
626.80 1.789588
626.90 1.787143
627.00 1.780101
627.10 1.772176
627.20 1.783597
627.30 1.818443
627.40 1.845693
627.50 1.832187
627.60 1.791268
627.70 1.757418
627.80 1.74387
627.90 1.743623
628.00 1.747369
628.10 1.743371
628.20 1.742162
628.30 1.761955
628.40 1.793473
628.50 1.817303
628.60 1.828225
628.70 1.848411
628.80 1.881581
628.90 1.908458
629.00 1.925006
629.10 1.917523
629.20 1.893333
629.30 1.866991
629.40 1.843847
629.50 1.843111
629.60 1.843887
629.70 1.840982
629.80 1.838812
629.90 1.858232
630.00 1.898114
630.10 1.911431
630.20 1.86582
630.30 1.870976
630.40 1.87091
630.50 1.843236
630.60 1.857532
630.70 1.892714
630.80 1.933725
630.90 1.956785
631.00 1.968216
631.10 1.980591
631.20 1.982102
631.30 1.972241
631.40 1.977183
631.50 1.988487
631.60 1.989917
631.70 1.974099
631.80 1.955362
631.90 1.948752
632.00 1.961704
632.10 1.983278
632.20 2.003553
632.30 2.006116
632.40 1.999252
632.50 2.005979
632.60 2.020584
632.70 2.023046
632.80 2.015337
632.90 2.017811
633.00 2.021361
633.10 2.025649
633.20 2.037486
633.30 2.062986
633.40 2.082306
633.50 2.075467
633.60 2.038269
633.70 1.996619
633.80 1.984777
633.90 2.006821
634.00 2.046257
634.10 2.085849
634.20 2.111563
634.30 2.110759
634.40 2.080217
634.50 2.045178
634.60 2.036276
634.70 2.062087
634.80 2.102862
634.90 2.129524
635.00 2.1373
635.10 2.140398
635.20 2.145506
635.30 2.147182
635.40 2.121571
635.50 2.087581
635.60 2.066122
635.70 2.058439
635.80 2.033757
635.90 1.994215
636.00 1.973864
636.10 1.9695
636.20 1.954507
636.30 1.934593
636.40 1.936564
636.50 1.975021
636.60 1.992538
636.70 1.984393
636.80 1.998999
636.90 2.007245
637.00 2.000961
637.10 1.99602
637.20 2.018368
637.30 2.041275
637.40 2.048687
637.50 2.038454
637.60 2.024045
637.70 2.014403
637.80 1.999524
637.90 1.962997
638.00 1.904418
638.10 1.847126
638.20 1.810903
638.30 1.805062
638.40 1.83629
638.50 1.879368
638.60 1.909705
638.70 1.907315
638.80 1.879373
638.90 1.856133
639.00 1.853695
639.10 1.879775
639.20 1.912036
639.30 1.918248
639.40 1.89874
639.50 1.895976
639.60 1.933069
639.70 1.984565
639.80 2.030164
639.90 2.037983
640.00 2.009101
640.10 1.970317
640.20 1.958426
640.30 1.995693
640.40 2.058031
640.50 2.10469
640.60 2.11971
640.70 2.129052
640.80 2.127539
640.90 2.120561
641.00 2.121771
641.10 2.12242
641.20 2.106928
641.30 2.082286
641.40 2.076806
641.50 2.098369
641.60 2.123683
641.70 2.140606
641.80 2.140813
641.90 2.137625
642.00 2.119634
642.10 2.088361
642.20 2.066715
642.30 2.07009
642.40 2.104792
642.50 2.151218
642.60 2.186526
642.70 2.195405
642.80 2.182279
642.90 2.174905
643.00 2.165724
643.10 2.143222
643.20 2.115609
643.30 2.110857
643.40 2.129989
643.50 2.157831
643.60 2.181789
643.70 2.183816
643.80 2.130111
643.90 2.019327
644.00 1.915306
644.10 1.896955
644.20 1.975738
644.30 2.09448
644.40 2.201851
644.50 2.268175
644.60 2.290724
644.70 2.287075
644.80 2.252692
644.90 2.179967
645.00 2.093985
645.10 2.026696
645.20 2.019077
645.30 2.084244
645.40 2.17694
645.50 2.231015
645.60 2.234317
645.70 2.227101
645.80 2.233535
645.90 2.255978
646.00 2.276807
646.10 2.255396
646.20 2.165062
646.30 2.032834
646.40 1.93808
646.50 1.941521
646.60 2.033699
646.70 2.152317
646.80 2.234236
646.90 2.270686
647.00 2.274519
647.10 2.257974
647.20 2.222654
647.30 2.196767
647.40 2.200085
647.50 2.236325
647.60 2.272806
647.70 2.291349
647.80 2.303613
647.90 2.314552
648.00 2.320257
648.10 2.304667
648.20 2.2727
648.30 2.248827
648.40 2.233091
648.50 2.227907
648.60 2.232399
648.70 2.249854
648.80 2.273583
648.90 2.28047
649.00 2.28008
649.10 2.281572
649.20 2.269109
649.30 2.210456
649.40 2.093875
649.50 1.962161
649.60 1.891574
649.70 1.904489
649.80 1.975233
649.90 2.040167
650.00 2.074413
650.10 2.09949
650.20 2.140038
650.30 2.202444
650.40 2.25068
650.50 2.275663
650.60 2.295582
650.70 2.314093
650.80 2.317815
650.90 2.302897
651.00 2.292013
651.10 2.294137
651.20 2.307705
651.30 2.320575
651.40 2.313966
651.50 2.300333
651.60 2.294642
651.70 2.290864
651.80 2.282323
651.90 2.266812
652.00 2.276955
652.10 2.305973
652.20 2.326115
652.30 2.327724
652.40 2.325094
652.50 2.321534
652.60 2.325653
652.70 2.341435
652.80 2.364035
652.90 2.377675
653.00 2.376986
653.10 2.365239
653.20 2.348223
653.30 2.332555
653.40 2.330472
653.50 2.345989
653.60 2.36484
653.70 2.37591
653.80 2.384836
653.90 2.394456
654.00 2.398025
654.10 2.396956
654.20 2.403443
654.30 2.406641
654.40 2.381034
654.50 2.332876
654.60 2.292416
654.70 2.268353
654.80 2.25115
654.90 2.257862
655.00 2.286242
655.10 2.312683
655.20 2.326947
655.30 2.309985
655.40 2.277468
655.50 2.253548
655.60 2.229824
655.70 2.219253
655.80 2.230293
655.90 2.259518
656.00 2.304176
656.10 2.320998
656.20 2.270511
656.30 2.172409
656.40 2.08252
656.50 2.060448
656.60 2.119413
656.70 2.215189
656.80 2.280214
656.90 2.304858
657.00 2.294291
657.10 2.275008
657.20 2.251146
657.30 2.205822
657.40 2.168027
657.50 2.15895
657.60 2.18286
657.70 2.22909
657.80 2.277448
657.90 2.29675
658.00 2.283944
658.10 2.266999
658.20 2.261622
658.30 2.278382
658.40 2.303112
658.50 2.317243
658.60 2.321139
658.70 2.323244
658.80 2.322974
658.90 2.330583
659.00 2.345137
659.10 2.338591
659.20 2.311455
659.30 2.262299
659.40 2.205752
659.50 2.17749
659.60 2.192661
659.70 2.239677
659.80 2.286271
659.90 2.302918
660.00 2.293587
660.10 2.286555
660.20 2.301234
660.30 2.326791
660.40 2.339559
660.50 2.333232
660.60 2.311873
660.70 2.291099
660.80 2.277041
660.90 2.2586
661.00 2.256246
661.10 2.270629
661.20 2.287744
661.30 2.301584
661.40 2.305839
661.50 2.311422
661.60 2.306449
661.70 2.298017
661.80 2.29943
661.90 2.30353
662.00 2.304775
662.10 2.29756
662.20 2.291534
662.30 2.290599
662.40 2.287946
662.50 2.277577
662.60 2.252591
662.70 2.239388
662.80 2.234418
662.90 2.235121
663.00 2.235117
663.10 2.235997
663.20 2.245112
663.30 2.250138
663.40 2.245894
663.50 2.239367
663.60 2.239526
663.70 2.242164
663.80 2.23796
663.90 2.237758
664.00 2.252239
664.10 2.269618
664.20 2.269503
664.30 2.261682
664.40 2.252639
664.50 2.245278
664.60 2.242524
664.70 2.252503
664.80 2.267869
664.90 2.27005
665.00 2.254819
665.10 2.223292
665.20 2.195479
665.30 2.174824
665.40 2.166707
665.50 2.166997
665.60 2.178079
665.70 2.188054
665.80 2.185858
665.90 2.180561
666.00 2.168391
666.10 2.165843
666.20 2.161616
666.30 2.147795
666.40 2.140092
666.50 2.138498
666.60 2.139517
666.70 2.145262
666.80 2.163969
666.90 2.189642
667.00 2.210401
667.10 2.222168
667.20 2.236751
667.30 2.247968
667.40 2.239485
667.50 2.220098
667.60 2.200619
667.70 2.181572
667.80 2.14932
667.90 2.109377
668.00 2.080895
668.10 2.071221
668.20 2.064732
668.30 2.061895
668.40 2.065004
668.50 2.074046
668.60 2.09256
668.70 2.103961
668.80 2.112106
668.90 2.119329
669.00 2.111189
669.10 2.091046
669.20 2.077239
669.30 2.078492
669.40 2.087244
669.50 2.097686
669.60 2.097803
669.70 2.087224
669.80 2.072464
669.90 2.065102
670.00 2.085295
670.10 2.111817
670.20 2.12286
670.30 2.130048
670.40 2.13083
670.50 2.125404
670.60 2.127958
670.70 2.128145
670.80 2.122481
670.90 2.121453
671.00 2.122554
671.10 2.126142
671.20 2.127492
671.30 2.117179
671.40 2.096404
671.50 2.061247
671.60 2.01688
671.70 1.95609
671.80 1.895673
671.90 1.855273
672.00 1.852543
672.10 1.892234
672.20 1.942935
672.30 1.977604
672.40 1.991115
672.50 2.000982
672.60 2.002905
672.70 1.997626
672.80 1.999249
672.90 2.005217
673.00 2.008489
673.10 2.007103
673.20 2.008459
673.30 2.01513
673.40 2.013032
673.50 2.007847
673.60 2.005799
673.70 2.014816
673.80 2.026069
673.90 2.031607
674.00 2.036126
674.10 2.036822
674.20 2.031263
674.30 2.019232
674.40 2.00556
674.50 2.004005
674.60 2.004149
674.70 1.998822
674.80 1.986419
674.90 1.962356
675.00 1.93735
675.10 1.919763
675.20 1.921219
675.30 1.937164
675.40 1.949287
675.50 1.95538
675.60 1.955641
675.70 1.964404
675.80 1.984575
675.90 2.005758
676.00 2.015546
676.10 2.008973
676.20 2.000618
676.30 1.996554
676.40 1.996931
676.50 2.004027
676.60 1.998183
676.70 1.986962
676.80 1.977398
676.90 1.963575
677.00 1.951927
677.10 1.950096
677.20 1.972668
677.30 1.998277
677.40 2.001587
677.50 1.999838
677.60 2.009506
677.70 2.02552
677.80 2.030693
677.90 2.020691
678.00 2.009325
678.10 2.000102
678.20 1.978378
678.30 1.945991
678.40 1.911567
678.50 1.889858
678.60 1.890652
678.70 1.89321
678.80 1.892126
678.90 1.894067
679.00 1.906856
679.10 1.917286
679.20 1.916819
679.30 1.913854
679.40 1.912873
679.50 1.913267
679.60 1.911347
679.70 1.905329
679.80 1.899031
679.90 1.897499
680.00 1.903242
680.10 1.91647
680.20 1.930279
680.30 1.943624
680.40 1.953698
680.50 1.948795
680.60 1.934798
680.70 1.913193
680.80 1.891436
680.90 1.884661
681.00 1.892194
681.10 1.898142
681.20 1.906573
681.30 1.920333
681.40 1.928628
681.50 1.931715
681.60 1.920078
681.70 1.898395
681.80 1.875201
681.90 1.863847
682.00 1.859824
682.10 1.868557
682.20 1.885173
682.30 1.889107
682.40 1.888421
682.50 1.890353
682.60 1.891444
682.70 1.893913
682.80 1.895156
682.90 1.895833
683.00 1.896281
683.10 1.89541
683.20 1.895977
683.30 1.889756
683.40 1.883251
683.50 1.889924
683.60 1.905207
683.70 1.902581
683.80 1.88072
683.90 1.870271
684.00 1.87642
684.10 1.888256
684.20 1.894132
684.30 1.895901
684.40 1.899922
684.50 1.894201
684.60 1.87853
684.70 1.864312
684.80 1.857475
684.90 1.861446
685.00 1.864126
685.10 1.86437
685.20 1.860416
685.30 1.841346
685.40 1.828039
685.50 1.829131
685.60 1.838176
685.70 1.834608
685.80 1.819078
685.90 1.816121
686.00 1.818027
686.10 1.809706
686.20 1.795754
686.30 1.795211
686.40 1.811915
686.50 1.841168
686.60 1.865836
686.70 1.874943
686.80 1.866191
686.90 1.845716
687.00 1.833704
687.10 1.832007
687.20 1.833309
687.30 1.834216
687.40 1.839023
687.50 1.854157
687.60 1.867914
687.70 1.8847
687.80 1.909183
687.90 1.927786
688.00 1.938186
688.10 1.923093
688.20 1.888089
688.30 1.855582
688.40 1.843136
688.50 1.841665
688.60 1.831911
688.70 1.831713
688.80 1.851169
688.90 1.878175
689.00 1.913357
689.10 1.934897
689.20 1.926072
689.30 1.911232
689.40 1.910748
689.50 1.925003
689.60 1.936244
689.70 1.936006
689.80 1.932744
689.90 1.93256
690.00 1.91935
690.10 1.881879
690.20 1.835076
690.30 1.818808
690.40 1.85272
690.50 1.911796
690.60 1.957806
690.70 1.980656
690.80 2.003378
690.90 2.023801
691.00 2.032955
691.10 2.027719
691.20 2.014584
691.30 2.009282
691.40 2.012282
691.50 2.010951
691.60 2.010217
691.70 2.003121
691.80 1.977148
691.90 1.919273
692.00 1.86771
692.10 1.867651
692.20 1.915772
692.30 1.985165
692.40 2.026731
692.50 2.045281
692.60 2.053241
692.70 2.062696
692.80 2.084236
692.90 2.108826
693.00 2.137429
693.10 2.158998
693.20 2.172322
693.30 2.179067
693.40 2.179289
693.50 2.172635
693.60 2.160203
693.70 2.151018
693.80 2.149411
693.90 2.155483
694.00 2.158556
694.10 2.166056
694.20 2.183517
694.30 2.205308
694.40 2.225021
694.50 2.236286
694.60 2.23664
694.70 2.241095
694.80 2.258907
694.90 2.276121
695.00 2.289843
695.10 2.281368
695.20 2.262513
695.30 2.2598
695.40 2.250304
695.50 2.236892
695.60 2.227973
695.70 2.220728
695.80 2.209856
695.90 2.195221
696.00 2.185948
696.10 2.183429
696.20 2.18776
696.30 2.194656
696.40 2.203041
696.50 2.214394
696.60 2.226593
696.70 2.232509
696.80 2.228782
696.90 2.230099
697.00 2.235783
697.10 2.235859
697.20 2.22767
697.30 2.219409
697.40 2.209307
697.50 2.204189
697.60 2.207711
697.70 2.20652
697.80 2.193282
697.90 2.169113
698.00 2.1361
698.10 2.129199
698.20 2.157437
698.30 2.188786
698.40 2.222165
698.50 2.253917
698.60 2.272169
698.70 2.272675
698.80 2.258825
698.90 2.2425
699.00 2.233036
699.10 2.22557
699.20 2.217674
699.30 2.213421
699.40 2.212582
699.50 2.214199
699.60 2.22302
699.70 2.241228
699.80 2.26507
699.90 2.276144
700.00 2.271924
700.10 2.262481
700.20 2.265941
700.30 2.290995
700.40 2.300497
700.50 2.287251
700.60 2.268595
700.70 2.261449
700.80 2.26774
700.90 2.278222
701.00 2.293094
701.10 2.299022
701.20 2.286921
701.30 2.287332
701.40 2.318904
701.50 2.338651
701.60 2.325978
701.70 2.291117
701.80 2.261229
701.90 2.268227
702.00 2.300266
702.10 2.334934
702.20 2.355254
702.30 2.347914
702.40 2.32402
702.50 2.304648
702.60 2.29264
702.70 2.28724
702.80 2.30152
702.90 2.334133
703.00 2.381759
703.10 2.426728
703.20 2.441121
703.30 2.427027
703.40 2.4108
703.50 2.418633
703.60 2.444602
703.70 2.458437
703.80 2.445504
703.90 2.413316
704.00 2.393529
704.10 2.414443
704.20 2.461627
704.30 2.508232
704.40 2.539399
704.50 2.55341
704.60 2.559591
704.70 2.565772
704.80 2.570471
704.90 2.571346
705.00 2.562818
705.10 2.54751
705.20 2.530656
705.30 2.501819
705.40 2.453934
705.50 2.382941
705.60 2.299215
705.70 2.243188
705.80 2.232275
705.90 2.263853
706.00 2.287789
706.10 2.262991
706.20 2.224411
706.30 2.205642
706.40 2.210535
706.50 2.233634
706.60 2.256821
706.70 2.269431
706.80 2.274115
706.90 2.270435
707.00 2.275772
707.10 2.292351
707.20 2.311892
707.30 2.335237
707.40 2.353106
707.50 2.354546
707.60 2.349425
707.70 2.349546
707.80 2.350776
707.90 2.350304
708.00 2.345559
708.10 2.342704
708.20 2.351885
708.30 2.359232
708.40 2.355619
708.50 2.335716
708.60 2.300175
708.70 2.250158
708.80 2.184973
708.90 2.116248
709.00 2.054733
709.10 2.035806
709.20 2.070677
709.30 2.120373
709.40 2.148865
709.50 2.146837
709.60 2.130644
709.70 2.11575
709.80 2.11214
709.90 2.122176
710.00 2.138864
710.10 2.155892
710.20 2.158926
710.30 2.150532
710.40 2.147886
710.50 2.155948
710.60 2.171915
710.70 2.187698
710.80 2.199224
710.90 2.211183
711.00 2.22189
711.10 2.220691
711.20 2.21596
711.30 2.213469
711.40 2.215592
711.50 2.218137
711.60 2.222929
711.70 2.230519
711.80 2.234048
711.90 2.246914
712.00 2.266273
712.10 2.280987
712.20 2.291703
712.30 2.291812
712.40 2.277545
712.50 2.23503
712.60 2.152462
712.70 2.052273
712.80 1.970324
712.90 1.942003
713.00 1.964434
713.10 2.000807
713.20 2.00824
713.30 1.982826
713.40 1.965278
713.50 1.970515
713.60 1.9881
713.70 2.002556
713.80 2.006265
713.90 1.998465
714.00 1.989112
714.10 1.989351
714.20 2.003385
714.30 2.026128
714.40 2.04592
714.50 2.054596
714.60 2.052294
714.70 2.024242
714.80 1.95697
714.90 1.897444
715.00 1.883943
715.10 1.922149
715.20 2.002074
715.30 2.076911
715.40 2.116616
715.50 2.130738
715.60 2.140178
715.70 2.158055
715.80 2.167598
715.90 2.153458
716.00 2.124227
716.10 2.101049
716.20 2.100884
716.30 2.117114
716.40 2.130617
716.50 2.134406
716.60 2.130013
716.70 2.125927
716.80 2.133735
716.90 2.148255
717.00 2.157692
717.10 2.161629
717.20 2.164949
717.30 2.170903
717.40 2.176287
717.50 2.180598
717.60 2.181075
717.70 2.175102
717.80 2.170435
717.90 2.16631
718.00 2.165395
718.10 2.173966
718.20 2.188909
718.30 2.20807
718.40 2.230533
718.50 2.253848
718.60 2.26625
718.70 2.244081
718.80 2.194178
718.90 2.151816
719.00 2.142912
719.10 2.16753
719.20 2.202468
719.30 2.231645
719.40 2.248064
719.50 2.254804
719.60 2.264606
719.70 2.270273
719.80 2.254615
719.90 2.215632
720.00 2.176048
720.10 2.152429
720.20 2.12282
720.30 2.088675
720.40 2.076881
720.50 2.099667
720.60 2.147777
720.70 2.175631
720.80 2.158774
720.90 2.122535
721.00 2.094027
721.10 2.087865
721.20 2.110378
721.30 2.153876
721.40 2.198892
721.50 2.232948
721.60 2.245928
721.70 2.241212
721.80 2.23808
721.90 2.243485
722.00 2.26634
722.10 2.292176
722.20 2.304529
722.30 2.30248
722.40 2.288087
722.50 2.285938
722.60 2.302233
722.70 2.315487
722.80 2.316542
722.90 2.307273
723.00 2.29582
723.10 2.292612
723.20 2.303912
723.30 2.317375
723.40 2.322496
723.50 2.316811
723.60 2.307763
723.70 2.320153
723.80 2.345554
723.90 2.355771
724.00 2.345058
724.10 2.324445
724.20 2.309823
724.30 2.302228
724.40 2.294528
724.50 2.284759
724.60 2.271782
724.70 2.267393
724.80 2.294801
724.90 2.341601
725.00 2.383974
725.10 2.397618
725.20 2.371508
725.30 2.335751
725.40 2.312067
725.50 2.311387
725.60 2.337092
725.70 2.374643
725.80 2.396126
725.90 2.394576
726.00 2.3838
726.10 2.372837
726.20 2.367497
726.30 2.372727
726.40 2.387362
726.50 2.404181
726.60 2.417211
726.70 2.424747
726.80 2.428695
726.90 2.43844
727.00 2.445351
727.10 2.430644
727.20 2.399538
727.30 2.38038
727.40 2.398028
727.50 2.442898
727.60 2.476574
727.70 2.475573
727.80 2.464439
727.90 2.451858
728.00 2.436908
728.10 2.42667
728.20 2.436413
728.30 2.463517
728.40 2.473628
728.50 2.474365
728.60 2.471011
728.70 2.466008
728.80 2.46964
728.90 2.47666
729.00 2.482782
729.10 2.484193
729.20 2.468968
729.30 2.450036
729.40 2.443136
729.50 2.454949
729.60 2.47772
729.70 2.498302
729.80 2.511497
729.90 2.509211
730.00 2.498516
730.10 2.486166
730.20 2.484535
730.30 2.493235
730.40 2.498756
730.50 2.48816
730.60 2.468766
730.70 2.468048
730.80 2.480275
730.90 2.490292
731.00 2.495369
731.10 2.495955
731.20 2.494944
731.30 2.494885
731.40 2.506692
731.50 2.531664
731.60 2.554015
731.70 2.551528
731.80 2.530782
731.90 2.522775
732.00 2.523013
732.10 2.522566
732.20 2.529444
732.30 2.547062
732.40 2.553099
732.50 2.519209
732.60 2.449276
732.70 2.381239
732.80 2.349929
732.90 2.37217
733.00 2.447855
733.10 2.53144
733.20 2.562539
733.30 2.552039
733.40 2.540685
733.50 2.543571
733.60 2.557324
733.70 2.562711
733.80 2.567345
733.90 2.593711
734.00 2.608405
734.10 2.591222
734.20 2.56966
734.30 2.53771
734.40 2.513195
734.50 2.502414
734.60 2.483707
734.70 2.488322
734.80 2.517561
734.90 2.546377
735.00 2.562873
735.10 2.560674
735.20 2.55377
735.30 2.557381
735.40 2.560388
735.50 2.540557
735.60 2.492784
735.70 2.43773
735.80 2.405367
735.90 2.40822
736.00 2.441816
736.10 2.489669
736.20 2.519371
736.30 2.519326
736.40 2.498395
736.50 2.484803
736.60 2.495599
736.70 2.517076
736.80 2.55374
736.90 2.582869
737.00 2.591251
737.10 2.602163
737.20 2.600116
737.30 2.601203
737.40 2.617886
737.50 2.621376
737.60 2.619545
737.70 2.614729
737.80 2.607904
737.90 2.613337
738.00 2.624006
738.10 2.631011
738.20 2.635771
738.30 2.628265
738.40 2.609914
738.50 2.597859
738.60 2.59186
738.70 2.590706
738.80 2.584209
738.90 2.568643
739.00 2.559999
739.10 2.556316
739.20 2.55253
739.30 2.549315
739.40 2.55031
739.50 2.561633
739.60 2.581102
739.70 2.603101
739.80 2.614219
739.90 2.60395
740.00 2.568597
740.10 2.524928
740.20 2.507283
740.30 2.523746
740.40 2.564497
740.50 2.609227
740.60 2.632423
740.70 2.635374
740.80 2.62902
740.90 2.616531
741.00 2.599632
741.10 2.580669
741.20 2.571077
741.30 2.572353
741.40 2.578607
741.50 2.58749
741.60 2.592359
741.70 2.592165
741.80 2.590768
741.90 2.593381
742.00 2.602291
742.10 2.611894
742.20 2.609486
742.30 2.593102
742.40 2.577706
742.50 2.569399
742.60 2.572239
742.70 2.592798
742.80 2.627315
742.90 2.656422
743.00 2.665864
743.10 2.662273
743.20 2.649429
743.30 2.632539
743.40 2.62518
743.50 2.629955
743.60 2.63611
743.70 2.646877
743.80 2.665501
743.90 2.670786
744.00 2.651133
744.10 2.622341
744.20 2.603159
744.30 2.601896
744.40 2.609262
744.50 2.613844
744.60 2.602304
744.70 2.571269
744.80 2.548204
744.90 2.552819
745.00 2.583986
745.10 2.619935
745.20 2.638926
745.30 2.645783
745.40 2.652275
745.50 2.65962
745.60 2.665557
745.70 2.669927
745.80 2.677437
745.90 2.686656
746.00 2.67866
746.10 2.645032
746.20 2.602089
746.30 2.556648
746.40 2.517848
746.50 2.517822
746.60 2.560142
746.70 2.61975
746.80 2.664558
746.90 2.673015
747.00 2.661697
747.10 2.655049
747.20 2.661878
747.30 2.673225
747.40 2.67244
747.50 2.665479
747.60 2.666877
747.70 2.668133
747.80 2.665275
747.90 2.667465
748.00 2.673753
748.10 2.678328
748.20 2.679275
748.30 2.672749
748.40 2.666205
748.50 2.668022
748.60 2.669856
748.70 2.670285
748.80 2.665593
748.90 2.655688
749.00 2.646658
749.10 2.632641
749.20 2.616584
749.30 2.609664
749.40 2.603749
749.50 2.586125
749.60 2.561452
749.70 2.55611
749.80 2.578109
749.90 2.612092
750.00 2.648777
750.10 2.671465
750.20 2.680195
750.30 2.687891
750.40 2.686374
750.50 2.668951
750.60 2.65041
750.70 2.643102
750.80 2.643748
750.90 2.645055
751.00 2.635854
751.10 2.613207
751.20 2.593159
751.30 2.590376
751.40 2.607387
751.50 2.642275
751.60 2.67908
751.70 2.702632
751.80 2.712254
751.90 2.710404
752.00 2.702481
752.10 2.689215
752.20 2.679378
752.30 2.675914
752.40 2.67247
752.50 2.674458
752.60 2.673306
752.70 2.664381
752.80 2.649777
752.90 2.640246
753.00 2.642098
753.10 2.650402
753.20 2.656224
753.30 2.651998
753.40 2.651584
753.50 2.660978
753.60 2.680327
753.70 2.702693
753.80 2.716236
753.90 2.724054
754.00 2.728046
754.10 2.722654
754.20 2.71158
754.30 2.708825
754.40 2.717516
754.50 2.722974
754.60 2.714225
754.70 2.702453
754.80 2.700448
754.90 2.704109
755.00 2.704123
755.10 2.702725
755.20 2.712322
755.30 2.723054
755.40 2.718301
755.50 2.705752
755.60 2.693723
755.70 2.685645
755.80 2.68772
755.90 2.694491
756.00 2.703256
756.10 2.713911
756.20 2.721676
756.30 2.72444
756.40 2.721016
756.50 2.716512
756.60 2.713533
756.70 2.704655
756.80 2.690944
756.90 2.681812
757.00 2.676404
757.10 2.674257
757.20 2.681171
757.30 2.694006
757.40 2.707846
757.50 2.713433
757.60 2.701161
757.70 2.692318
757.80 2.698412
757.90 2.704313
758.00 2.709597
758.10 2.713787
758.20 2.714875
758.30 2.706506
758.40 2.691629
758.50 2.679185
758.60 2.658232
758.70 2.639452
758.80 2.637504
758.90 2.638135
759.00 2.627708
759.10 2.608719
759.20 2.599971
759.30 2.613547
759.40 2.646089
759.50 2.66159
759.60 2.639402
759.70 2.612436
759.80 2.610398
759.90 2.651035
760.00 2.688044
760.10 2.667344
760.20 2.619735
760.30 2.577909
760.40 2.576013
760.50 2.616839
760.60 2.655734
760.70 2.665574
760.80 2.639724
760.90 2.607357
761.00 2.592579
761.10 2.597168
761.20 2.617374
761.30 2.638366
761.40 2.653883
761.50 2.655405
761.60 2.624067
761.70 2.575258
761.80 2.561898
761.90 2.59548
762.00 2.642002
762.10 2.660505
762.20 2.634752
762.30 2.604404
762.40 2.609576
762.50 2.645182
762.60 2.682567
762.70 2.686882
762.80 2.651762
762.90 2.60718
763.00 2.590702
763.10 2.60144
763.20 2.591699
763.30 2.570218
763.40 2.593307
763.50 2.621622
763.60 2.604643
763.70 2.581316
763.80 2.583934
763.90 2.60509
764.00 2.618361
764.10 2.598767
764.20 2.580756
764.30 2.602422
764.40 2.624921
764.50 2.616592
764.60 2.591571
764.70 2.572156
764.80 2.598717
764.90 2.641725
765.00 2.624482
765.10 2.570095
765.20 2.543393
765.30 2.578849
765.40 2.632649
765.50 2.607229
765.60 2.535873
765.70 2.523349
765.80 2.568613
765.90 2.618583
766.00 2.612639
766.10 2.55226
766.20 2.513992
766.30 2.50401
766.40 2.456094
766.50 2.315522
766.60 2.117509
766.70 2.001757
766.80 2.061752
766.90 2.261034
767.00 2.463895
767.10 2.552074
767.20 2.535424
767.30 2.487493
767.40 2.470425
767.50 2.500051
767.60 2.529532
767.70 2.533091
767.80 2.521186
767.90 2.508224
768.00 2.518272
768.10 2.539664
768.20 2.553266
768.30 2.549918
768.40 2.527795
768.50 2.515808
768.60 2.520902
768.70 2.533693
768.80 2.550199
768.90 2.558628
769.00 2.55534
769.10 2.546111
769.20 2.539503
769.30 2.540291
769.40 2.546808
769.50 2.558247
769.60 2.56489
769.70 2.53775
769.80 2.452787
769.90 2.321623
770.00 2.196516
770.10 2.142777
770.20 2.197046
770.30 2.327453
770.40 2.453138
770.50 2.518187
770.60 2.526512
770.70 2.522292
770.80 2.52293
770.90 2.514499
771.00 2.499127
771.10 2.496812
771.20 2.512464
771.30 2.518835
771.40 2.49157
771.50 2.455654
771.60 2.445787
771.70 2.464956
771.80 2.496178
771.90 2.516406
772.00 2.537937
772.10 2.567087
772.20 2.561867
772.30 2.536651
772.40 2.528301
772.50 2.529608
772.60 2.535669
772.70 2.538647
772.80 2.535398
772.90 2.534156
773.00 2.537236
773.10 2.545623
773.20 2.561133
773.30 2.579345
773.40 2.589078
773.50 2.585611
773.60 2.583028
773.70 2.591183
773.80 2.598784
773.90 2.599859
774.00 2.597326
774.10 2.592918
774.20 2.58799
774.30 2.579725
774.40 2.565359
774.50 2.5475
774.60 2.532222
774.70 2.519894
774.80 2.50048
774.90 2.468425
775.00 2.43741
775.10 2.434545
775.20 2.454072
775.30 2.477333
775.40 2.496568
775.50 2.507845
775.60 2.522225
775.70 2.532753
775.80 2.529515
775.90 2.528103
776.00 2.536855
776.10 2.544201
776.20 2.541735
776.30 2.536659
776.40 2.528328
776.50 2.521085
776.60 2.525032
776.70 2.529834
776.80 2.528414
776.90 2.525031
777.00 2.52917
777.10 2.544002
777.20 2.553408
777.30 2.552462
777.40 2.555462
777.50 2.561675
777.60 2.558918
777.70 2.553777
777.80 2.554948
777.90 2.555991
778.00 2.548366
778.10 2.530184
778.20 2.507139
778.30 2.490147
778.40 2.489702
778.50 2.498374
778.60 2.501928
778.70 2.502183
778.80 2.505374
778.90 2.505644
779.00 2.494892
779.10 2.486962
779.20 2.495826
779.30 2.525002
779.40 2.5635
779.50 2.579111
779.60 2.567898
779.70 2.556858
779.80 2.549077
779.90 2.535423
780.00 2.518094
780.10 2.504711
780.20 2.50562
780.30 2.519038
780.40 2.537817
780.50 2.556158
780.60 2.567198
780.70 2.574185
780.80 2.576157
780.90 2.574798
781.00 2.580423
781.10 2.579796
781.20 2.570042
781.30 2.571828
781.40 2.581907
781.50 2.586744
781.60 2.583037
781.70 2.577208
781.80 2.580685
781.90 2.591288
782.00 2.590228
782.10 2.573531
782.20 2.560781
782.30 2.557428
782.40 2.552659
782.50 2.546725
782.60 2.551117
782.70 2.561275
782.80 2.560972
782.90 2.553829
783.00 2.539725
783.10 2.519165
783.20 2.501943
783.30 2.488029
783.40 2.474195
783.50 2.463526
783.60 2.455872
783.70 2.455111
783.80 2.465658
783.90 2.479991
784.00 2.500631
784.10 2.530212
784.20 2.554546
784.30 2.566823
784.40 2.569321
784.50 2.568753
784.60 2.572342
784.70 2.573733
784.80 2.572461
784.90 2.57142
785.00 2.569584
785.10 2.573597
785.20 2.582832
785.30 2.589356
785.40 2.596279
785.50 2.607015
785.60 2.603358
785.70 2.582929
785.80 2.576933
785.90 2.583006
786.00 2.590836
786.10 2.604447
786.20 2.598892
786.30 2.57775
786.40 2.574289
786.50 2.583922
786.60 2.596672
786.70 2.60804
786.80 2.608094
786.90 2.604177
787.00 2.60334
787.10 2.591906
787.20 2.572581
787.30 2.564314
787.40 2.571801
787.50 2.585688
787.60 2.596078
787.70 2.602299
787.80 2.605619
787.90 2.604545
788.00 2.601457
788.10 2.601364
788.20 2.601423
788.30 2.605573
788.40 2.615776
788.50 2.614099
788.60 2.598562
788.70 2.587465
788.80 2.589594
788.90 2.61083
789.00 2.635876
789.10 2.63226
789.20 2.613233
789.30 2.60952
789.40 2.609167
789.50 2.599469
789.60 2.589476
789.70 2.590426
789.80 2.602193
789.90 2.612846
790.00 2.61829
790.10 2.620481
790.20 2.616781
790.30 2.606606
790.40 2.596638
790.50 2.592855
790.60 2.595956
790.70 2.596907
790.80 2.591368
790.90 2.582641
791.00 2.574014
791.10 2.567739
791.20 2.569229
791.30 2.590961
791.40 2.600279
791.50 2.573566
791.60 2.570086
791.70 2.604735
791.80 2.622838
791.90 2.611238
792.00 2.598798
792.10 2.605338
792.20 2.614099
792.30 2.602673
792.40 2.589382
792.50 2.584667
792.60 2.589948
792.70 2.599781
792.80 2.593735
792.90 2.583817
793.00 2.585179
793.10 2.587075
793.20 2.59214
793.30 2.607071
793.40 2.623308
793.50 2.642274
793.60 2.64406
793.70 2.610671
793.80 2.570462
793.90 2.544253
794.00 2.541438
794.10 2.564035
794.20 2.594907
794.30 2.612234
794.40 2.602966
794.50 2.578379
794.60 2.556669
794.70 2.536479
794.80 2.512896
794.90 2.498545
795.00 2.504241
795.10 2.535065
795.20 2.584535
795.30 2.621191
795.40 2.633896
795.50 2.640774
795.60 2.641266
795.70 2.636005
795.80 2.641221
795.90 2.642648
796.00 2.62517
796.10 2.604257
796.20 2.591951
796.30 2.594997
796.40 2.608544
796.50 2.626127
796.60 2.649573
796.70 2.667228
796.80 2.676171
796.90 2.670802
797.00 2.648518
797.10 2.643578
797.20 2.655609
797.30 2.657989
797.40 2.656424
797.50 2.650315
797.60 2.644293
797.70 2.65153
797.80 2.652493
797.90 2.639258
798.00 2.620711
798.10 2.599533
798.20 2.599043
798.30 2.622341
798.40 2.643093
798.50 2.658322
798.60 2.664239
798.70 2.651631
798.80 2.639039
798.90 2.633596
799.00 2.624603
799.10 2.631061
799.20 2.654233
799.30 2.673189
799.40 2.69327
799.50 2.698137
799.60 2.679494
799.70 2.652483
799.80 2.616262
799.90 2.575262
800.00 2.540849
800.10 2.529907
800.20 2.553461
800.30 2.590472
800.40 2.618805
800.50 2.637611
800.60 2.649384
800.70 2.658001
800.80 2.657135
800.90 2.643616
801.00 2.632989
801.10 2.634629
801.20 2.643488
801.30 2.650533
801.40 2.651721
801.50 2.648805
801.60 2.649772
801.70 2.661683
801.80 2.674352
801.90 2.675132
802.00 2.670264
802.10 2.662171
802.20 2.649283
802.30 2.642314
802.40 2.640113
802.50 2.639241
802.60 2.631767
802.70 2.606094
802.80 2.581661
802.90 2.577986
803.00 2.591944
803.10 2.619503
803.20 2.647256
803.30 2.660076
803.40 2.66761
803.50 2.672438
803.60 2.669634
803.70 2.666541
803.80 2.660334
803.90 2.653086
804.00 2.65837
804.10 2.667738
804.20 2.671144
804.30 2.673503
804.40 2.673624
804.50 2.661994
804.60 2.630248
804.70 2.585267
804.80 2.550354
804.90 2.551946
805.00 2.587633
805.10 2.628905
805.20 2.664406
805.30 2.689296
805.40 2.695472
805.50 2.686644
805.60 2.679783
805.70 2.689149
805.80 2.698187
805.90 2.697089
806.00 2.701046
806.10 2.707053
806.20 2.714628
806.30 2.722303
806.40 2.709479
806.50 2.684457
806.60 2.666323
806.70 2.656171
806.80 2.657733
806.90 2.655445
807.00 2.638837
807.10 2.624332
807.20 2.623411
807.30 2.640835
807.40 2.662439
807.50 2.668763
807.60 2.666036
807.70 2.662497
807.80 2.665982
807.90 2.68071
808.00 2.696297
808.10 2.70384
808.20 2.702109
808.30 2.69751
808.40 2.69448
808.50 2.685667
808.60 2.667967
808.70 2.654499
808.80 2.656536
808.90 2.67367
809.00 2.692191
809.10 2.701636
809.20 2.709401
809.30 2.709342
809.40 2.695348
809.50 2.682171
809.60 2.674803
809.70 2.670865
809.80 2.674812
809.90 2.682151
810.00 2.682844
810.10 2.684284
810.20 2.694427
810.30 2.704378
810.40 2.707671
810.50 2.705895
810.60 2.697738
810.70 2.685379
810.80 2.680884
810.90 2.685669
811.00 2.68869
811.10 2.687647
811.20 2.688963
811.30 2.69497
811.40 2.69973
811.50 2.693846
811.60 2.667813
811.70 2.627903
811.80 2.595703
811.90 2.586207
812.00 2.603994
812.10 2.638461
812.20 2.670638
812.30 2.691027
812.40 2.697215
812.50 2.692113
812.60 2.685107
812.70 2.684741
812.80 2.692323
812.90 2.695696
813.00 2.686525
813.10 2.678122
813.20 2.679428
813.30 2.686526
813.40 2.690146
813.50 2.680556
813.60 2.669099
813.70 2.670624
813.80 2.684823
813.90 2.708175
814.00 2.724251
814.10 2.716748
814.20 2.694526
814.30 2.672836
814.40 2.659553
814.50 2.66324
814.60 2.68032
814.70 2.690699
814.80 2.685762
814.90 2.67244
815.00 2.660181
815.10 2.663444
815.20 2.681303
815.30 2.692627
815.40 2.690159
815.50 2.68214
815.60 2.671815
815.70 2.669431
815.80 2.681455
815.90 2.691858
816.00 2.687525
816.10 2.669964
816.20 2.645236
816.30 2.626308
816.40 2.62251
816.50 2.632117
816.60 2.657498
816.70 2.689071
816.80 2.705289
816.90 2.703942
817.00 2.690234
817.10 2.668388
817.20 2.653365
817.30 2.656606
817.40 2.674832
817.50 2.693376
817.60 2.695474
817.70 2.682171
817.80 2.666662
817.90 2.658519
818.00 2.6624
818.10 2.654694
818.20 2.597202
818.30 2.47996
818.40 2.334516
818.50 2.231507
818.60 2.232467
818.70 2.326003
818.80 2.444814
818.90 2.538647
819.00 2.596148
819.10 2.631943
819.20 2.649993
819.30 2.609575
819.40 2.484511
819.50 2.312385
819.60 2.158715
819.70 2.088609
819.80 2.146616
819.90 2.295754
820.00 2.444333
820.10 2.541368
820.20 2.587098
820.30 2.604762
820.40 2.613225
820.50 2.614575
820.60 2.606033
820.70 2.59238
820.80 2.588381
820.90 2.601266
821.00 2.623224
821.10 2.636894
821.20 2.63205
821.30 2.619136
821.40 2.611246
821.50 2.611294
821.60 2.62001
821.70 2.634605
821.80 2.643526
821.90 2.635101
822.00 2.610461
822.10 2.579047
822.20 2.550495
822.30 2.539602
822.40 2.559435
822.50 2.604538
822.60 2.650687
822.70 2.67331
822.80 2.665373
822.90 2.637213
823.00 2.61778
823.10 2.630489
823.20 2.654039
823.30 2.654746
823.40 2.636201
823.50 2.618522
823.60 2.612133
823.70 2.625767
823.80 2.655767
823.90 2.679523
824.00 2.692331
824.10 2.703247
824.20 2.70358
824.30 2.690233
824.40 2.673838
824.50 2.666075
824.60 2.678108
824.70 2.706946
824.80 2.744331
824.90 2.777243
825.00 2.787948
825.10 2.784366
825.20 2.784377
825.30 2.780702
825.40 2.763048
825.50 2.733809
825.60 2.691439
825.70 2.642266
825.80 2.609717
825.90 2.607635
826.00 2.627425
826.10 2.659102
826.20 2.693588
826.30 2.713624
826.40 2.719538
826.50 2.725878
826.60 2.734866
826.70 2.748684
826.80 2.768585
826.90 2.78164
827.00 2.780644
827.10 2.769707
827.20 2.74692
827.30 2.711306
827.40 2.665238
827.50 2.614483
827.60 2.580325
827.70 2.574911
827.80 2.591464
827.90 2.620554
828.00 2.641641
828.10 2.642837
828.20 2.63521
828.30 2.631347
828.40 2.638646
828.50 2.658481
828.60 2.688458
828.70 2.702458
828.80 2.667066
828.90 2.600881
829.00 2.547791
829.10 2.536419
829.20 2.565244
829.30 2.588972
829.40 2.584103
829.50 2.572615
829.60 2.56783
829.70 2.594673
829.80 2.656287
829.90 2.696142
830.00 2.681098
830.10 2.67846
830.20 2.675821
830.30 2.667032
830.40 2.658242
830.50 2.628457
830.60 2.598672
830.70 2.587413
830.80 2.576154
830.90 2.592273
831.00 2.608392
831.10 2.623761
831.20 2.639129
831.30 2.639102
831.40 2.639075
831.50 2.641474
831.60 2.643874
831.70 2.641604
831.80 2.639334
831.90 2.636497
832.00 2.63366
832.10 2.626524
832.20 2.619388
832.30 2.612425
832.40 2.605461
832.50 2.600109
832.60 2.594756
832.70 2.544029
832.80 2.493302
832.90 2.470637
833.00 2.447972
833.10 2.484825
833.20 2.521677
833.30 2.53643
833.40 2.551182
833.50 2.549363
833.60 2.547544
833.70 2.564473
833.80 2.581402
833.90 2.582884
834.00 2.584365
834.10 2.584052
834.20 2.583739
834.30 2.621008
834.40 2.658277
834.50 2.669343
834.60 2.680409
834.70 2.654963
834.80 2.629518
834.90 2.619346
835.00 2.609174
835.10 2.603053
835.20 2.596932
835.30 2.615023
835.40 2.633114
835.50 2.629909
835.60 2.626703
835.70 2.632552
835.80 2.6384
835.90 2.636414
836.00 2.634429
836.10 2.630888
836.20 2.627347
836.30 2.603908
836.40 2.580469
836.50 2.546845
836.60 2.513221
836.70 2.528322
836.80 2.543424
836.90 2.586137
837.00 2.62885
837.10 2.640889
837.20 2.652927
837.30 2.647667
837.40 2.642407
837.50 2.631968
837.60 2.62153
837.70 2.592931
837.80 2.564332
837.90 2.554026
838.00 2.54372
838.10 2.541833
838.20 2.539946
838.30 2.50872
838.40 2.477494
838.50 2.463991
838.60 2.450488
838.70 2.436628
838.80 2.422768
838.90 2.391939
839.00 2.36111
839.10 2.412195
839.20 2.46328
839.30 2.530349
839.40 2.597417
839.50 2.598588
839.60 2.599758
839.70 2.588791
839.80 2.577825
839.90 2.57749
840.00 2.577156
840.10 2.586238
840.20 2.600777
840.30 2.615042
840.40 2.626138
840.50 2.632584
840.60 2.642646
840.70 2.652136
840.80 2.65853
840.90 2.659205
841.00 2.654423
841.10 2.641205
841.20 2.607863
841.30 2.566167
841.40 2.540703
841.50 2.527564
841.60 2.536537
841.70 2.557799
841.80 2.578691
841.90 2.592882
842.00 2.606664
842.10 2.610355
842.20 2.609956
842.30 2.604362
842.40 2.590513
842.50 2.567275
842.60 2.532096
842.70 2.4973
842.80 2.48501
842.90 2.485202
843.00 2.511968
843.10 2.552251
843.20 2.583824
843.30 2.584878
843.40 2.571536
843.50 2.483684
843.60 2.380093
843.70 2.318689
843.80 2.293491
843.90 2.315297
844.00 2.384783
844.10 2.460108
844.20 2.509822
844.30 2.554213
844.40 2.581915
844.50 2.601527
844.60 2.611706
844.70 2.615859
844.80 2.624842
844.90 2.633793
845.00 2.6245
845.10 2.606322
845.20 2.591704
845.30 2.582338
845.40 2.579305
845.50 2.581292
845.60 2.587219
845.70 2.585953
845.80 2.583208
845.90 2.581146
846.00 2.58224
846.10 2.587259
846.20 2.590768
846.30 2.590454
846.40 2.587185
846.50 2.575773
846.60 2.558481
846.70 2.524835
846.80 2.475459
846.90 2.427011
847.00 2.402912
847.10 2.399574
847.20 2.430801
847.30 2.47073
847.40 2.507773
847.50 2.537939
847.60 2.559946
847.70 2.568712
847.80 2.572633
847.90 2.57362
848.00 2.574644
848.10 2.573364
848.20 2.569021
848.30 2.56372
848.40 2.561807
848.50 2.564195
848.60 2.573091
848.70 2.581284
848.80 2.586191
848.90 2.588879
849.00 2.591135
849.10 2.592509
849.20 2.592588
849.30 2.585194
849.40 2.572741
849.50 2.539165
849.60 2.482219
849.70 2.403562
849.80 2.302954
849.90 2.199538
850.00 2.159832
850.10 2.173666
850.20 2.243072
850.30 2.333308
850.40 2.413271
850.50 2.466236
850.60 2.507105
850.70 2.52123
850.80 2.527811
850.90 2.536878
851.00 2.54471
851.10 2.547701
851.20 2.539669
851.30 2.521053
851.40 2.47916
851.50 2.435128
851.60 2.399497
851.70 2.380762
851.80 2.382531
851.90 2.400057
852.00 2.418797
852.10 2.447639
852.20 2.480065
852.30 2.510003
852.40 2.531057
852.50 2.539332
852.60 2.536602
852.70 2.53122
852.80 2.524541
852.90 2.522692
853.00 2.52381
853.10 2.524854
853.20 2.524449
853.30 2.520849
853.40 2.513807
853.50 2.503197
853.60 2.487894
853.70 2.455089
853.80 2.413823
853.90 2.349499
854.00 2.254583
854.10 2.137018
854.20 1.987552
854.30 1.843569
854.40 1.783546
854.50 1.779189
854.60 1.853051
854.70 1.975694
854.80 2.101084
854.90 2.203042
855.00 2.288328
855.10 2.340741
855.20 2.38891
855.30 2.430065
855.40 2.462442
855.50 2.48527
855.60 2.496863
855.70 2.504247
855.80 2.507801
855.90 2.515839
856.00 2.520582
856.10 2.522359
856.20 2.523825
856.30 2.526511
856.40 2.525802
856.50 2.53096
856.60 2.540315
856.70 2.545664
856.80 2.548136
856.90 2.549497
857.00 2.550738
857.10 2.552575
857.20 2.551337
857.30 2.550523
857.40 2.554082
857.50 2.55771
857.60 2.55939
857.70 2.559399
857.80 2.560941
857.90 2.568362
858.00 2.576363
858.10 2.574478
858.20 2.564046
858.30 2.548355
858.40 2.534676
858.50 2.528048
858.60 2.535436
858.70 2.548465
858.80 2.562618
858.90 2.574393
859.00 2.581721
859.10 2.583705
859.20 2.581344
859.30 2.572934
859.40 2.566201
859.50 2.566067
859.60 2.565796
859.70 2.561385
859.80 2.552884
859.90 2.543857
860.00 2.539402
860.10 2.539743
860.20 2.54402
860.30 2.550156
860.40 2.557794
860.50 2.56496
860.60 2.569639
860.70 2.570577
860.80 2.569092
860.90 2.564206
861.00 2.556275
861.10 2.53946
861.20 2.516064
861.30 2.492446
861.40 2.479133
861.50 2.479527
861.60 2.497653
861.70 2.512726
861.80 2.525252
861.90 2.53508
862.00 2.539077
862.10 2.532579
862.20 2.522753
862.30 2.519932
862.40 2.522414
862.50 2.526952
862.60 2.532611
862.70 2.540894
862.80 2.549105
862.90 2.553216
863.00 2.551556
863.10 2.552199
863.20 2.550232
863.30 2.544762
863.40 2.538153
863.50 2.534489
863.60 2.534994
863.70 2.539977
863.80 2.551089
863.90 2.562653
864.00 2.570561
864.10 2.57565
864.20 2.579183
864.30 2.580612
864.40 2.581329
864.50 2.583641
864.60 2.582465
864.70 2.580672
864.80 2.576928
864.90 2.57051
865.00 2.562725
865.10 2.558185
865.20 2.555184
865.30 2.548304
865.40 2.537068
865.50 2.525808
865.60 2.515458
865.70 2.502817
865.80 2.474218
865.90 2.438458
866.00 2.357149
866.10 2.250972
866.20 2.118542
866.30 1.986997
866.40 1.891826
866.50 1.893975
866.60 1.949068
866.70 2.0894
866.80 2.227567
866.90 2.336735
867.00 2.417233
867.10 2.470951
867.20 2.491208
867.30 2.503756
867.40 2.490823
867.50 2.465362
867.60 2.431202
867.70 2.406283
867.80 2.409035
867.90 2.443127
868.00 2.483347
868.10 2.511588
868.20 2.528762
868.30 2.523617
868.40 2.510644
868.50 2.498626
868.60 2.483951
868.70 2.462357
868.80 2.414331
868.90 2.349675
869.00 2.286022
869.10 2.246117
869.20 2.252128
869.30 2.297883
869.40 2.355208
869.50 2.407147
869.60 2.445469
869.70 2.469956
869.80 2.481617
869.90 2.485164
870.00 2.485489
870.10 2.485646
870.20 2.486489
870.30 2.49558
870.40 2.509053
870.50 2.52113
870.60 2.531965
870.70 2.541126
870.80 2.546258
870.90 2.540676
871.00 2.527561
871.10 2.507069
871.20 2.48797
871.30 2.474265
871.40 2.466695
871.50 2.465699
871.60 2.471374
871.70 2.477841
871.80 2.485195
871.90 2.491418
872.00 2.493874
872.10 2.497294
872.20 2.507789
872.30 2.522474
872.40 2.533537
872.50 2.542354
872.60 2.550276
872.70 2.557485
872.80 2.5621
872.90 2.564477
873.00 2.56567
873.10 2.568023
873.20 2.564148
873.30 2.557254
873.40 2.541201
873.50 2.518387
873.60 2.496854
873.70 2.483257
873.80 2.478604
873.90 2.490773
874.00 2.509374
874.10 2.52549
874.20 2.536946
874.30 2.547929
874.40 2.559395
874.50 2.567002
874.60 2.562784
874.70 2.560735
874.80 2.55976
874.90 2.555906
875.00 2.548633
875.10 2.542528
875.20 2.542989
875.30 2.55391
875.40 2.561598
875.50 2.556217
875.60 2.547312
875.70 2.533132
875.80 2.518588
875.90 2.509422
876.00 2.510906
876.10 2.519052
876.20 2.535081
876.30 2.542691
876.40 2.532052
876.50 2.512798
876.60 2.493618
876.70 2.479906
876.80 2.475926
876.90 2.489799
877.00 2.50551
877.10 2.519297
877.20 2.521036
877.30 2.507022
877.40 2.482293
877.50 2.461091
877.60 2.459995
877.70 2.479518
877.80 2.509863
877.90 2.537895
878.00 2.551863
878.10 2.553829
878.20 2.5538
878.30 2.562846
878.40 2.570142
878.50 2.577081
878.60 2.582925
878.70 2.587301
878.80 2.59116
878.90 2.59332
879.00 2.591174
879.10 2.584452
879.20 2.572558
879.30 2.557338
879.40 2.540623
879.50 2.528353
879.60 2.525654
879.70 2.536552
879.80 2.551942
879.90 2.563389
880.00 2.571675
880.10 2.566733
880.20 2.549554
880.30 2.522512
880.40 2.485488
880.50 2.439908
880.60 2.380269
880.70 2.311316
880.80 2.258837
880.90 2.242773
881.00 2.270915
881.10 2.340023
881.20 2.418651
881.30 2.49091
881.40 2.544142
881.50 2.574278
881.60 2.592418
881.70 2.600947
881.80 2.600388
881.90 2.59872
882.00 2.593101
882.10 2.586766
882.20 2.563014
882.30 2.524007
882.40 2.468984
882.50 2.409028
882.60 2.360622
882.70 2.359538
882.80 2.387445
882.90 2.442761
883.00 2.497155
883.10 2.535658
883.20 2.560111
883.30 2.579507
883.40 2.591111
883.50 2.59988
883.60 2.59633
883.70 2.58653
883.80 2.570547
883.90 2.550799
884.00 2.532599
884.10 2.525421
884.20 2.530723
884.30 2.5463
884.40 2.561951
884.50 2.571779
884.60 2.576455
884.70 2.577877
884.80 2.575353
884.90 2.571108
885.00 2.569786
885.10 2.570028
885.20 2.578275
885.30 2.588632
885.40 2.59789
885.50 2.605718
885.60 2.612675
885.70 2.607461
885.80 2.605311
885.90 2.600812
886.00 2.593957
886.10 2.582041
886.20 2.565106
886.30 2.545244
886.40 2.535343
886.50 2.521779
886.60 2.508383
886.70 2.495349
886.80 2.481574
886.90 2.47112
887.00 2.471477
887.10 2.475932
887.20 2.489287
887.30 2.506606
887.40 2.514608
887.50 2.520684
887.60 2.527706
887.70 2.533817
887.80 2.541252
887.90 2.549316
888.00 2.553006
888.10 2.558468
888.20 2.561593
888.30 2.564007
888.40 2.568485
888.50 2.57254
888.60 2.57199
888.70 2.567819
888.80 2.563711
888.90 2.567234
889.00 2.573573
889.10 2.576677
889.20 2.573428
889.30 2.569967
889.40 2.563522
889.50 2.560973
889.60 2.55875
889.70 2.554928
889.80 2.551518
889.90 2.55129
890.00 2.550875
890.10 2.554759
890.20 2.560111
890.30 2.567531
890.40 2.575454
890.50 2.581056
890.60 2.584189
890.70 2.588287
890.80 2.590454
890.90 2.587715
891.00 2.578211
891.10 2.568684
891.20 2.561986
891.30 2.557284
891.40 2.553325
891.50 2.554249
891.60 2.557033
891.70 2.556765
891.80 2.555285
891.90 2.550721
892.00 2.543158
892.10 2.534876
892.20 2.528465
892.30 2.525699
892.40 2.527029
892.50 2.52797
892.60 2.528755
892.70 2.530112
892.80 2.531913
892.90 2.531821
893.00 2.528913
893.10 2.532898
893.20 2.536646
893.30 2.537569
893.40 2.541521
893.50 2.550261
893.60 2.560665
893.70 2.571204
893.80 2.57545
893.90 2.574571
894.00 2.565297
894.10 2.55234
894.20 2.541007
894.30 2.531433
894.40 2.520096
894.50 2.506569
894.60 2.492801
894.70 2.47934
894.80 2.471709
894.90 2.476177
895.00 2.491298
895.10 2.512292
895.20 2.53446
895.30 2.54984
895.40 2.553075
895.50 2.55279
895.60 2.550361
895.70 2.547009
895.80 2.544932
895.90 2.54779
896.00 2.554409
896.10 2.555534
896.20 2.555532
896.30 2.555272
896.40 2.553862
896.50 2.551321
896.60 2.547144
896.70 2.540141
896.80 2.532429
896.90 2.529586
897.00 2.531144
897.10 2.533987
897.20 2.535556
897.30 2.534383
897.40 2.531188
897.50 2.524446
897.60 2.512885
897.70 2.501879
897.80 2.494594
897.90 2.495029
898.00 2.504545
898.10 2.520738
898.20 2.537906
898.30 2.551034
898.40 2.556363
898.50 2.557386
898.60 2.555836
898.70 2.553193
898.80 2.550667
898.90 2.543032
899.00 2.531559
899.10 2.527258
899.20 2.528073
899.30 2.534992
899.40 2.545795
899.50 2.555757
899.60 2.562842
899.70 2.565395
899.80 2.547867
899.90 2.516544
900.00 2.478089
900.10 2.446297
900.20 2.431792
900.30 2.441068
900.40 2.468014
900.50 2.512099
900.60 2.545448
900.70 2.554957
900.80 2.54918
900.90 2.526185
901.00 2.483214
901.10 2.433215
901.20 2.396494
901.30 2.375221
901.40 2.382112
901.50 2.399121
901.60 2.410196
901.70 2.407875
901.80 2.397999
901.90 2.391924
902.00 2.393639
902.10 2.39504
902.20 2.399859
902.30 2.409477
902.40 2.419576
902.50 2.42564
902.60 2.434633
902.70 2.446529
902.80 2.458702
902.90 2.469298
903.00 2.479824
903.10 2.491678
903.20 2.505313
903.30 2.52206
903.40 2.535943
903.50 2.541721
903.60 2.545256
903.70 2.544822
903.80 2.543482
903.90 2.545933
904.00 2.553505
904.10 2.562818
904.20 2.568699
904.30 2.570279
904.40 2.567904
904.50 2.565914
904.60 2.563509
904.70 2.557708
904.80 2.551599
904.90 2.553266
905.00 2.557537
905.10 2.563185
905.20 2.5666
905.30 2.565017
905.40 2.562701
905.50 2.563609
905.60 2.566749
905.70 2.566071
905.80 2.562787
905.90 2.558619
906.00 2.552516
906.10 2.545056
906.20 2.536055
906.30 2.527062
906.40 2.522379
906.50 2.520843
906.60 2.523265
906.70 2.530386
906.80 2.538281
906.90 2.542204
907.00 2.542982
907.10 2.543665
907.20 2.542322
907.30 2.539415
907.40 2.54273
907.50 2.54803
907.60 2.548921
907.70 2.546768
907.80 2.544543
907.90 2.542345
908.00 2.535365
908.10 2.525934
908.20 2.521022
908.30 2.523742
908.40 2.528071
908.50 2.532707
908.60 2.528195
908.70 2.511547
908.80 2.476918
908.90 2.435098
909.00 2.396329
909.10 2.368894
909.20 2.361502
909.30 2.390458
909.40 2.433735
909.50 2.477598
909.60 2.513778
909.70 2.532618
909.80 2.536749
909.90 2.532645
910.00 2.523241
910.10 2.516833
910.20 2.517982
910.30 2.525157
910.40 2.531242
910.50 2.534573
910.60 2.534965
910.70 2.533211
910.80 2.525068
910.90 2.520504
911.00 2.520858
911.10 2.525729
911.20 2.529697
911.30 2.530943
911.40 2.530279
911.50 2.528576
911.60 2.525547
911.70 2.518369
911.80 2.50027
911.90 2.480332
912.00 2.461324
912.10 2.449616
912.20 2.452412
912.30 2.470809
912.40 2.489792
912.50 2.510228
912.60 2.525516
912.70 2.533019
912.80 2.538507
912.90 2.545176
913.00 2.549784
913.10 2.552732
913.20 2.550933
913.30 2.549528
913.40 2.552063
913.50 2.55553
913.60 2.555374
913.70 2.552058
913.80 2.547029
913.90 2.534431
914.00 2.520857
914.10 2.510115
914.20 2.500677
914.30 2.496008
914.40 2.499765
914.50 2.504328
914.60 2.504574
914.70 2.500661
914.80 2.492858
914.90 2.487432
915.00 2.488825
915.10 2.495061
915.20 2.505326
915.30 2.515142
915.40 2.518268
915.50 2.51958
915.60 2.519655
915.70 2.522062
915.80 2.527171
915.90 2.532867
916.00 2.533482
916.10 2.534156
916.20 2.534503
916.30 2.53243
916.40 2.524491
916.50 2.512924
916.60 2.505656
916.70 2.505779
916.80 2.506858
916.90 2.503812
917.00 2.501067
917.10 2.499509
917.20 2.496587
917.30 2.489233
917.40 2.479796
917.50 2.474625
917.60 2.482154
917.70 2.492371
917.80 2.50342
917.90 2.513643
918.00 2.519618
918.10 2.523322
918.20 2.524605
918.30 2.524668
918.40 2.523767
918.50 2.524516
918.60 2.524961
918.70 2.523926
918.80 2.522011
918.90 2.522729
919.00 2.525298
919.10 2.522835
919.20 2.521459
919.30 2.520663
919.40 2.516397
919.50 2.510196
919.60 2.50744
919.70 2.509176
919.80 2.512997
919.90 2.520961
920.00 2.528435
920.10 2.530371
920.20 2.529409
920.30 2.530376
920.40 2.533904
920.50 2.537085
920.60 2.539705
920.70 2.539447
920.80 2.530113
920.90 2.515731
921.00 2.496209
921.10 2.477561
921.20 2.466456
921.30 2.473715
921.40 2.486007
921.50 2.503256
921.60 2.518934
921.70 2.525667
921.80 2.524776
921.90 2.525389
922.00 2.5282
922.10 2.534551
922.20 2.542156
922.30 2.54564
922.40 2.543334
922.50 2.536505
922.60 2.52789
922.70 2.522337
922.80 2.520693
922.90 2.515256
923.00 2.508158
923.10 2.496553
923.20 2.481683
923.30 2.466497
923.40 2.458548
923.50 2.46125
923.60 2.480006
923.70 2.499302
923.80 2.511475
923.90 2.516912
924.00 2.517593
924.10 2.516661
924.20 2.514672
924.30 2.515598
924.40 2.518209
924.50 2.519204
924.60 2.517803
924.70 2.509567
924.80 2.495841
924.90 2.485427
925.00 2.484351
925.10 2.490187
925.20 2.501169
925.30 2.507759
925.40 2.506672
925.50 2.497369
925.60 2.476219
925.70 2.447162
925.80 2.424759
925.90 2.416196
926.00 2.423064
926.10 2.442513
926.20 2.465689
926.30 2.487442
926.40 2.507484
926.50 2.519668
926.60 2.523779
926.70 2.52929
926.80 2.538964
926.90 2.547552
927.00 2.550097
927.10 2.545816
927.20 2.540448
927.30 2.529742
927.40 2.520143
927.50 2.514583
927.60 2.511678
927.70 2.507739
927.80 2.500983
927.90 2.491949
928.00 2.489431
928.10 2.487751
928.20 2.4882
928.30 2.491196
928.40 2.496627
928.50 2.500771
928.60 2.501635
928.70 2.499996
928.80 2.493678
928.90 2.478425
929.00 2.460592
929.10 2.443153
929.20 2.429
929.30 2.420715
929.40 2.41993
929.50 2.425474
929.60 2.442813
929.70 2.457338
929.80 2.465589
929.90 2.472088
930.00 2.47864
930.10 2.482616
930.20 2.482928
930.30 2.487012
930.40 2.491922
930.50 2.495823
930.60 2.496827
930.70 2.492663
930.80 2.485585
930.90 2.477657
931.00 2.475414
931.10 2.47684
931.20 2.477782
931.30 2.480637
931.40 2.487778
931.50 2.493669
931.60 2.494848
931.70 2.490829
931.80 2.479928
931.90 2.474926
932.00 2.471549
932.10 2.475318
932.20 2.481509
932.30 2.489022
932.40 2.492876
932.50 2.490994
932.60 2.485315
932.70 2.484459
932.80 2.483548
932.90 2.484604
933.00 2.494595
933.10 2.500533
933.20 2.501099
933.30 2.495761
933.40 2.488161
933.50 2.479529
933.60 2.475595
933.70 2.476276
933.80 2.481583
933.90 2.489191
934.00 2.496502
934.10 2.497712
934.20 2.492213
934.30 2.484601
934.40 2.478005
934.50 2.471512
934.60 2.465375
934.70 2.466403
934.80 2.473121
934.90 2.486857
935.00 2.487119
935.10 2.480809
935.20 2.465106
935.30 2.451081
935.40 2.440981
935.50 2.438249
935.60 2.437446
935.70 2.441325
935.80 2.438943
935.90 2.434731
936.00 2.426705
936.10 2.417724
936.20 2.414708
936.30 2.413456
936.40 2.416106
936.50 2.419498
936.60 2.426504
936.70 2.433538
936.80 2.443169
936.90 2.448241
937.00 2.449859
937.10 2.447846
937.20 2.437479
937.30 2.427429
937.40 2.421915
937.50 2.421515
937.60 2.427012
937.70 2.437393
937.80 2.447235
937.90 2.450525
938.00 2.451008
938.10 2.448157
938.20 2.447861
938.30 2.448371
938.40 2.455594
938.50 2.462325
938.60 2.469547
938.70 2.47163
938.80 2.471756
938.90 2.467068
939.00 2.463948
939.10 2.463489
939.20 2.468844
939.30 2.471795
939.40 2.47111
939.50 2.463804
939.60 2.456132
939.70 2.449432
939.80 2.446868
939.90 2.442872
940.00 2.439149
940.10 2.435683
940.20 2.433789
940.30 2.430927
940.40 2.429121
940.50 2.42778
940.60 2.425814
940.70 2.426567
940.80 2.428251
940.90 2.42934
941.00 2.429059
941.10 2.428117
941.20 2.422234
941.30 2.409548
941.40 2.394862
941.50 2.376286
941.60 2.361065
941.70 2.345677
941.80 2.347373
941.90 2.359562
942.00 2.376985
942.10 2.400443
942.20 2.422747
942.30 2.438892
942.40 2.449375
942.50 2.455723
942.60 2.454897
942.70 2.451025
942.80 2.445433
942.90 2.441973
943.00 2.438474
943.10 2.437046
943.20 2.436076
943.30 2.43895
943.40 2.439469
943.50 2.441372
943.60 2.43581
943.70 2.431329
943.80 2.42325
943.90 2.415402
944.00 2.404735
944.10 2.396598
944.20 2.395367
944.30 2.397065
944.40 2.40241
944.50 2.397739
944.60 2.389361
944.70 2.376494
944.80 2.361275
944.90 2.352573
945.00 2.353893
945.10 2.367588
945.20 2.386311
945.30 2.401021
945.40 2.410053
945.50 2.415863
945.60 2.417739
945.70 2.420262
945.80 2.422451
945.90 2.422975
946.00 2.427256
946.10 2.432032
946.20 2.434509
946.30 2.430171
946.40 2.423681
946.50 2.421564
946.60 2.425312
946.70 2.4292
946.80 2.429769
946.90 2.428791
947.00 2.42977
947.10 2.432357
947.20 2.431137
947.30 2.431013
947.40 2.433774
947.50 2.4391
947.60 2.440736
947.70 2.439984
947.80 2.440149
947.90 2.443083
948.00 2.443307
948.10 2.440821
948.20 2.432761
948.30 2.433138
948.40 2.436057
948.50 2.444333
948.60 2.446715
948.70 2.448029
948.80 2.446456
948.90 2.445398
949.00 2.442222
949.10 2.442079
949.20 2.441708
949.30 2.444676
949.40 2.440772
949.50 2.432194
949.60 2.422378
949.70 2.414183
949.80 2.413367
949.90 2.422746
950.00 2.434953
950.10 2.442999
950.20 2.444512
950.30 2.443026
950.40 2.441226
950.50 2.43483
950.60 2.432902
950.70 2.430118
950.80 2.426912
950.90 2.418525
951.00 2.413864
951.10 2.410097
951.20 2.411262
951.30 2.410237
951.40 2.410375
951.50 2.411165
951.60 2.413574
951.70 2.417333
951.80 2.420679
951.90 2.422315
952.00 2.422566
952.10 2.424728
952.20 2.429951
952.30 2.436391
952.40 2.444798
952.50 2.45181
952.60 2.455124
952.70 2.454795
952.80 2.453782
952.90 2.45037
953.00 2.44654
953.10 2.440197
953.20 2.43764
953.30 2.437561
953.40 2.438116
953.50 2.435104
953.60 2.427599
953.70 2.422924
953.80 2.422268
953.90 2.427107
954.00 2.435714
954.10 2.44336
954.20 2.447171
954.30 2.444845
954.40 2.43236
954.50 2.41232
954.60 2.387329
954.70 2.364941
954.80 2.356196
954.90 2.359622
955.00 2.365446
955.10 2.390189
955.20 2.410961
955.30 2.42584
955.40 2.433484
955.50 2.440279
955.60 2.440721
955.70 2.436555
955.80 2.432171
955.90 2.431101
956.00 2.433584
956.10 2.438141
956.20 2.44527
956.30 2.4514
956.40 2.452034
956.50 2.448977
956.60 2.441898
956.70 2.439175
956.80 2.436031
956.90 2.436059
957.00 2.430388
957.10 2.42241
957.20 2.410299
957.30 2.39484
957.40 2.379101
957.50 2.368559
957.60 2.36386
957.70 2.363404
957.80 2.376796
957.90 2.391304
958.00 2.404065
958.10 2.413569
958.20 2.419052
958.30 2.423539
958.40 2.426749
958.50 2.431429
958.60 2.436627
958.70 2.440505
958.80 2.439513
958.90 2.436313
959.00 2.432999
959.10 2.431252
959.20 2.43005
959.30 2.430655
959.40 2.43257
959.50 2.434229
959.60 2.436827
959.70 2.42837
959.80 2.412137
959.90 2.390653
960.00 2.362167
960.10 2.334159
960.20 2.320748
960.30 2.323247
960.40 2.335277
960.50 2.36101
960.60 2.382055
960.70 2.399401
960.80 2.403157
960.90 2.408801
961.00 2.416219
961.10 2.422545
961.20 2.426962
961.30 2.42917
961.40 2.429878
961.50 2.428956
961.60 2.427675
961.70 2.425536
961.80 2.423744
961.90 2.423587
962.00 2.423779
962.10 2.423926
962.20 2.423723
962.30 2.42302
962.40 2.420753
962.50 2.418312
962.60 2.416625
962.70 2.412588
962.80 2.410117
962.90 2.410353
963.00 2.415351
963.10 2.42591
963.20 2.434059
963.30 2.438426
963.40 2.439832
963.50 2.431271
963.60 2.413036
963.70 2.385313
963.80 2.336191
963.90 2.276884
964.00 2.242115
964.10 2.233217
964.20 2.233599
964.30 2.28059
964.40 2.325074
964.50 2.363077
964.60 2.370395
964.70 2.355931
964.80 2.335962
964.90 2.31506
965.00 2.303262
965.10 2.314411
965.20 2.330384
965.30 2.3446
965.40 2.355969
965.50 2.361176
965.60 2.364604
965.70 2.366013
965.80 2.370639
965.90 2.37583
966.00 2.378988
966.10 2.380461
966.20 2.376705
966.30 2.374411
966.40 2.373376
966.50 2.371955
966.60 2.372318
966.70 2.374418
966.80 2.376644
966.90 2.377027
967.00 2.370076
967.10 2.360556
967.20 2.352339
967.30 2.343166
967.40 2.328505
967.50 2.306897
967.60 2.2757
967.70 2.241353
967.80 2.230347
967.90 2.239811
968.00 2.259675
968.10 2.308258
968.20 2.3478
968.30 2.38024
968.40 2.393206
968.50 2.40126
968.60 2.399124
968.70 2.387431
968.80 2.370248
968.90 2.344153
969.00 2.321881
969.10 2.302335
969.20 2.303683
969.30 2.318742
969.40 2.339385
969.50 2.36396
969.60 2.385806
969.70 2.395888
969.80 2.401419
969.90 2.404688
970.00 2.401722
970.10 2.393943
970.20 2.38344
970.30 2.366741
970.40 2.348345
970.50 2.320629
970.60 2.289352
970.70 2.253134
970.80 2.248922
970.90 2.261716
971.00 2.28127
971.10 2.321325
971.20 2.35545
971.30 2.380599
971.40 2.393573
971.50 2.402395
971.60 2.397795
971.70 2.388287
971.80 2.377548
971.90 2.362265
972.00 2.349589
972.10 2.342381
972.20 2.344527
972.30 2.352352
972.40 2.364475
972.50 2.374318
972.60 2.384258
972.70 2.369509
972.80 2.345506
972.90 2.317116
973.00 2.287829
973.10 2.270366
973.20 2.271145
973.30 2.288027
973.40 2.31164
973.50 2.32945
973.60 2.338748
973.70 2.341928
973.80 2.33354
973.90 2.327821
974.00 2.326083
974.10 2.325642
974.20 2.327352
974.30 2.318469
974.40 2.303834
974.50 2.281549
974.60 2.271149
974.70 2.272994
974.80 2.282613
974.90 2.306059
975.00 2.330673
975.10 2.348891
975.20 2.360564
975.30 2.369174
975.40 2.370635
975.50 2.372159
975.60 2.374363
975.70 2.377843
975.80 2.383643
975.90 2.388503
976.00 2.39227
976.10 2.394848
976.20 2.393376
976.30 2.388076
976.40 2.3792
976.50 2.371815
976.60 2.369047
976.70 2.368226
976.80 2.36551
976.90 2.359424
977.00 2.341616
977.10 2.320336
977.20 2.296513
977.30 2.293354
977.40 2.301302
977.50 2.316288
977.60 2.343333
977.70 2.364117
977.80 2.377496
977.90 2.383199
978.00 2.389091
978.10 2.379022
978.20 2.357017
978.30 2.326959
978.40 2.277429
978.50 2.235477
978.60 2.206346
978.70 2.197023
978.80 2.196755
978.90 2.21412
979.00 2.238375
979.10 2.263469
979.20 2.293597
979.30 2.323536
979.40 2.351737
979.50 2.370507
979.60 2.380906
979.70 2.385168
979.80 2.385005
979.90 2.383996
980.00 2.380467
980.10 2.376881
980.20 2.373105
980.30 2.370919
980.40 2.372924
980.50 2.376705
980.60 2.380944
980.70 2.384315
980.80 2.384789
980.90 2.383945
981.00 2.382193
981.10 2.381706
981.20 2.380684
981.30 2.379943
981.40 2.378823
981.50 2.378835
981.60 2.37876
981.70 2.378436
981.80 2.376607
981.90 2.37727
982.00 2.37872
982.10 2.380493
982.20 2.380513
982.30 2.377972
982.40 2.374345
982.50 2.370747
982.60 2.368573
982.70 2.369097
982.80 2.37036
982.90 2.372613
983.00 2.372319
983.10 2.369647
983.20 2.363788
983.30 2.354767
983.40 2.34419
983.50 2.341516
983.60 2.344552
983.70 2.350291
983.80 2.359819
983.90 2.367828
984.00 2.374984
984.10 2.380697
984.20 2.38463
984.30 2.385205
984.40 2.384149
984.50 2.383121
984.60 2.382248
984.70 2.380361
984.80 2.379961
984.90 2.381161
985.00 2.382216
985.10 2.379815
985.20 2.375562
985.30 2.37128
985.40 2.370455
985.50 2.370405
985.60 2.370768
985.70 2.371561
985.80 2.373117
985.90 2.373601
986.00 2.371198
986.10 2.365696
986.20 2.361417
986.30 2.358715
986.40 2.357508
986.50 2.358213
986.60 2.361774
986.70 2.3657
986.80 2.368824
986.90 2.368264
987.00 2.367993
987.10 2.368349
987.20 2.369013
987.30 2.371788
987.40 2.374711
987.50 2.377581
987.60 2.379004
987.70 2.3791
987.80 2.378577
987.90 2.376563
988.00 2.374196
988.10 2.371505
988.20 2.369782
988.30 2.367563
988.40 2.369417
988.50 2.371257
988.60 2.374134
988.70 2.3759
988.80 2.373101
988.90 2.365534
989.00 2.357327
989.10 2.351663
989.20 2.349535
989.30 2.349863
989.40 2.351105
989.50 2.349652
989.60 2.345285
989.70 2.336586
989.80 2.324688
989.90 2.312091
990.00 2.308241
990.10 2.306649
990.20 2.304885
990.30 2.300147
990.40 2.292133
990.50 2.281953
990.60 2.268083
990.70 2.253442
990.80 2.244689
990.90 2.240277
991.00 2.237394
991.10 2.242033
991.20 2.245581
991.30 2.248428
991.40 2.246699
991.50 2.241861
991.60 2.235293
991.70 2.229193
991.80 2.22258
991.90 2.227347
992.00 2.234596
992.10 2.243595
992.20 2.248989
992.30 2.248485
992.40 2.244594
992.50 2.237407
992.60 2.229923
992.70 2.227882
992.80 2.227977
992.90 2.228781
993.00 2.237016
993.10 2.248673
993.20 2.262007
993.30 2.273225
993.40 2.27955
993.50 2.277685
993.60 2.274939
993.70 2.273318
993.80 2.280972
993.90 2.28885
994.00 2.296606
994.10 2.301572
994.20 2.302755
994.30 2.300239
994.40 2.295671
994.50 2.29201
994.60 2.289314
994.70 2.287881
994.80 2.286398
994.90 2.287633
995.00 2.289126
995.10 2.293875
995.20 2.300568
995.30 2.305819
995.40 2.30736
995.50 2.308106
995.60 2.310226
995.70 2.30723
995.80 2.303828
995.90 2.298809
996.00 2.292885
996.10 2.284581
996.20 2.278977
996.30 2.276232
996.40 2.276125
996.50 2.285082
996.60 2.295695
996.70 2.306537
996.80 2.313158
996.90 2.315711
997.00 2.310124
997.10 2.298261
997.20 2.283785
997.30 2.275919
997.40 2.271027
997.50 2.268538
997.60 2.271767
997.70 2.275375
997.80 2.279483
997.90 2.284079
998.00 2.28749
998.10 2.288648
998.20 2.28842
998.30 2.28789
998.40 2.27992
998.50 2.27284
998.60 2.266387
998.70 2.263338
998.80 2.26367
998.90 2.268477
999.00 2.274018
999.10 2.277087
999.20 2.276844
999.30 2.277123
999.40 2.278415
999.50 2.281205
999.60 2.281674
999.70 2.277567
999.80 2.270383
999.90 2.262801
1000.00 2.264023
1000.10 2.266383
1000.20 2.269081
1000.30 2.270044
1000.40 2.269326
1000.50 2.268616
1000.60 2.267531
1000.70 2.268215
1000.80 2.268447
1000.90 2.266975
1001.00 2.263765
1001.10 2.25787
1001.20 2.254143
1001.30 2.252507
1001.40 2.257867
1001.50 2.267535
1001.60 2.278723
1001.70 2.29006
1001.80 2.301988
1001.90 2.307416
1002.00 2.308402
1002.10 2.306946
1002.20 2.301031
1002.30 2.297928
1002.40 2.298031
1002.50 2.301023
1002.60 2.304187
1002.70 2.305843
1002.80 2.306009
1002.90 2.30462
1003.00 2.302241
1003.10 2.301586
1003.20 2.301076
1003.30 2.298582
1003.40 2.29237
1003.50 2.279168
1003.60 2.26472
1003.70 2.250093
1003.80 2.247948
1003.90 2.252374
1004.00 2.261212
1004.10 2.276721
1004.20 2.292896
1004.30 2.306736
1004.40 2.31745
1004.50 2.325445
1004.60 2.326781
1004.70 2.325271
1004.80 2.320938
1004.90 2.307064
1005.00 2.293411
1005.10 2.281533
1005.20 2.272802
1005.30 2.267086
1005.40 2.266278
1005.50 2.262576
1005.60 2.256162
1005.70 2.246848
1005.80 2.239995
1005.90 2.234141
1006.00 2.230056
1006.10 2.229223
1006.20 2.232162
1006.30 2.234783
1006.40 2.235642
1006.50 2.238752
1006.60 2.241584
1006.70 2.243938
1006.80 2.248053
1006.90 2.258367
1007.00 2.269861
1007.10 2.279807
1007.20 2.28694
1007.30 2.288658
1007.40 2.290104
1007.50 2.292048
1007.60 2.298241
1007.70 2.304841
1007.80 2.30876
1007.90 2.309176
1008.00 2.306948
1008.10 2.300017
1008.20 2.292419
1008.30 2.285282
1008.40 2.28323
1008.50 2.284914
1008.60 2.287244
1008.70 2.289559
1008.80 2.292425
1008.90 2.291732
1009.00 2.289647
1009.10 2.286716
1009.20 2.288096
1009.30 2.291878
1009.40 2.296434
1009.50 2.302879
1009.60 2.306318
1009.70 2.310955
1009.80 2.31515
1009.90 2.318313
1010.00 2.318452
1010.10 2.319651
1010.20 2.321829
1010.30 2.323138
1010.40 2.323364
1010.50 2.321353
1010.60 2.31765
1010.70 2.314754
1010.80 2.311853
1010.90 2.30882
1011.00 2.305232
1011.10 2.300014
1011.20 2.292495
1011.30 2.284572
1011.40 2.277851
1011.50 2.274409
1011.60 2.272543
1011.70 2.270833
1011.80 2.268418
1011.90 2.269243
1012.00 2.270108
1012.10 2.271449
1012.20 2.275904
1012.30 2.281503
1012.40 2.285354
1012.50 2.287566
1012.60 2.289062
1012.70 2.286819
1012.80 2.285405
1012.90 2.285218
1013.00 2.287392
1013.10 2.290298
1013.20 2.292873
1013.30 2.29458
1013.40 2.296551
1013.50 2.291405
1013.60 2.284052
1013.70 2.275648
1013.80 2.270941
1013.90 2.266611
1014.00 2.265082
1014.10 2.268425
1014.20 2.273135
1014.30 2.27349
1014.40 2.269131
1014.50 2.262029
1014.60 2.24565
1014.70 2.232263
1014.80 2.221788
1014.90 2.220109
1015.00 2.227978
1015.10 2.244024
1015.20 2.261982
1015.30 2.27767
1015.40 2.279028
1015.50 2.276327
1015.60 2.271
1015.70 2.260681
1015.80 2.253414
1015.90 2.252298
1016.00 2.255113
1016.10 2.260025
1016.20 2.266673
1016.30 2.271877
1016.40 2.273562
1016.50 2.271486
1016.60 2.269344
1016.70 2.26847
1016.80 2.267894
1016.90 2.266412
1017.00 2.260298
1017.10 2.254858
1017.20 2.250699
1017.30 2.253358
1017.40 2.258499
1017.50 2.265815
1017.60 2.275537
1017.70 2.283365
1017.80 2.284676
1017.90 2.283108
1018.00 2.279524
1018.10 2.274658
1018.20 2.270678
1018.30 2.268405
1018.40 2.266693
1018.50 2.263291
1018.60 2.258234
1018.70 2.253352
1018.80 2.248737
1018.90 2.252147
1019.00 2.255939
1019.10 2.259615
1019.20 2.260572
1019.30 2.259951
1019.40 2.257708
1019.50 2.254383
1019.60 2.251134
1019.70 2.250808
1019.80 2.252797
1019.90 2.256505
1020.00 2.259705
1020.10 2.261724
1020.20 2.263602
1020.30 2.265366
1020.40 2.266259
1020.50 2.2676
1020.60 2.269249
1020.70 2.271028
1020.80 2.27198
1020.90 2.272742
1021.00 2.272911
1021.10 2.270391
1021.20 2.266708
1021.30 2.26085
1021.40 2.252786
1021.50 2.241508
1021.60 2.228884
1021.70 2.215096
1021.80 2.200694
1021.90 2.186653
1022.00 2.184198
1022.10 2.190562
1022.20 2.203103
1022.30 2.216011
1022.40 2.231611
1022.50 2.245059
1022.60 2.255883
1022.70 2.259384
1022.80 2.260399
1022.90 2.258376
1023.00 2.254105
1023.10 2.251209
1023.20 2.252051
1023.30 2.254109
1023.40 2.254122
1023.50 2.253775
1023.60 2.254375
1023.70 2.257455
1023.80 2.260785
1023.90 2.262676
1024.00 2.265481
1024.10 2.268833
1024.20 2.272632
1024.30 2.27322
1024.40 2.272794
1024.50 2.271648
1024.60 2.267965
1024.70 2.265761
1024.80 2.264097
1024.90 2.262492
1025.00 2.260064
1025.10 2.255305
1025.20 2.249829
1025.30 2.244065
1025.40 2.239822
1025.50 2.23743
1025.60 2.236078
1025.70 2.236663
1025.80 2.237959
1025.90 2.237228
1026.00 2.235375
1026.10 2.231812
1026.20 2.22618
1026.30 2.220011
1026.40 2.215847
1026.50 2.216321
1026.60 2.219484
1026.70 2.226022
1026.80 2.233681
1026.90 2.242458
1027.00 2.249684
1027.10 2.255037
1027.20 2.25534
1027.30 2.247337
1027.40 2.236618
1027.50 2.230226
1027.60 2.22706
1027.70 2.226189
1027.80 2.228814
1027.90 2.231803
1028.00 2.235005
1028.10 2.234619
1028.20 2.231641
1028.30 2.227071
1028.40 2.222204
1028.50 2.217818
1028.60 2.222393
1028.70 2.228895
1028.80 2.235333
1028.90 2.239619
1029.00 2.24405
1029.10 2.247231
1029.20 2.246483
1029.30 2.242666
1029.40 2.23993
1029.50 2.238457
1029.60 2.238752
1029.70 2.238786
1029.80 2.23801
1029.90 2.236988
1030.00 2.235949
1030.10 2.234512
1030.20 2.233346
1030.30 2.23324
1030.40 2.233794
1030.50 2.237386
1030.60 2.240767
1030.70 2.244413
1030.80 2.245297
1030.90 2.243703
1031.00 2.240644
1031.10 2.238144
1031.20 2.237413
1031.30 2.239006
1031.40 2.240758
1031.50 2.242992
1031.60 2.243994
1031.70 2.243577
1031.80 2.241507
1031.90 2.237759
1032.00 2.234331
1032.10 2.233813
1032.20 2.234213
1032.30 2.234713
1032.40 2.231326
1032.50 2.224778
1032.60 2.215793
1032.70 2.204875
1032.80 2.195442
1032.90 2.193625
1033.00 2.195824
1033.10 2.200824
1033.20 2.211015
1033.30 2.221448
1033.40 2.229902
1033.50 2.231816
1033.60 2.229953
1033.70 2.224086
1033.80 2.215333
1033.90 2.205877
1034.00 2.19221
1034.10 2.172257
1034.20 2.145506
1034.30 2.098802
1034.40 2.045948
1034.50 2.000284
1034.60 1.972476
1034.70 1.967736
1034.80 2.005086
1034.90 2.051298
1035.00 2.103673
1035.10 2.146472
1035.20 2.175688
1035.30 2.193974
1035.40 2.202231
1035.50 2.209896
1035.60 2.215239
1035.70 2.219462
1035.80 2.222167
1035.90 2.226276
1036.00 2.230374
1036.10 2.234516
1036.20 2.238066
1036.30 2.241312
1036.40 2.243226
1036.50 2.243568
1036.60 2.243699
1036.70 2.243418
1036.80 2.242265
1036.90 2.239267
1037.00 2.235987
1037.10 2.231116
1037.20 2.226288
1037.30 2.222116
1037.40 2.220992
1037.50 2.221141
1037.60 2.221788
1037.70 2.223064
1037.80 2.219804
1037.90 2.21206
1038.00 2.201985
1038.10 2.192253
1038.20 2.186457
1038.30 2.190332
1038.40 2.196337
1038.50 2.20421
1038.60 2.215072
1038.70 2.223864
1038.80 2.229151
1038.90 2.229344
1039.00 2.227129
1039.10 2.224484
1039.20 2.222123
1039.30 2.221029
1039.40 2.21411
1039.50 2.199236
1039.60 2.17697
1039.70 2.14625
1039.80 2.122232
1039.90 2.113549
1040.00 2.11846
1040.10 2.134215
1040.20 2.165647
1040.30 2.192567
1040.40 2.213168
1040.50 2.221173
1040.60 2.224743
1040.70 2.22685
1040.80 2.227509
1040.90 2.229908
1041.00 2.230175
1041.10 2.229092
1041.20 2.225566
1041.30 2.221066
1041.40 2.216973
1041.50 2.215515
1041.60 2.216197
1041.70 2.216806
1041.80 2.217954
1041.90 2.219717
1042.00 2.222961
1042.10 2.221806
1042.20 2.217572
1042.30 2.208905
1042.40 2.196221
1042.50 2.186207
1042.60 2.180887
1042.70 2.178624
1042.80 2.177981
1042.90 2.180567
1043.00 2.184437
1043.10 2.190802
1043.20 2.201847
1043.30 2.211418
1043.40 2.219731
1043.50 2.226517
1043.60 2.23256
1043.70 2.232601
1043.80 2.231981
1043.90 2.22891
1044.00 2.224017
1044.10 2.220422
1044.20 2.22154
1044.30 2.224117
1044.40 2.226171
1044.50 2.225541
1044.60 2.224733
1044.70 2.223578
1044.80 2.223464
1044.90 2.223584
1045.00 2.225103
1045.10 2.229021
1045.20 2.231994
1045.30 2.231436
1045.40 2.230046
1045.50 2.228608
1045.60 2.226835
1045.70 2.226903
1045.80 2.227544
1045.90 2.226371
1046.00 2.221252
1046.10 2.216132
1046.20 2.2115
1046.30 2.209125
1046.40 2.210102
1046.50 2.211603
1046.60 2.212151
1046.70 2.21024
1046.80 2.203719
1046.90 2.193309
1047.00 2.180531
1047.10 2.168008
1047.20 2.162751
1047.30 2.161704
1047.40 2.16701
1047.50 2.179288
1047.60 2.189659
1047.70 2.195638
1047.80 2.198828
1047.90 2.202353
1048.00 2.205025
1048.10 2.206767
1048.20 2.207106
1048.30 2.209005
1048.40 2.208287
1048.50 2.205144
1048.60 2.199529
1048.70 2.195179
1048.80 2.190652
1048.90 2.18737
1049.00 2.18706
1049.10 2.19384
1049.20 2.200661
1049.30 2.206568
1049.40 2.207512
1049.50 2.200059
1049.60 2.183768
1049.70 2.163348
1049.80 2.140671
1049.90 2.135502
1050.00 2.138376
1050.10 2.151082
1050.20 2.174686
1050.30 2.193974
1050.40 2.204025
1050.50 2.206121
1050.60 2.205186
1050.70 2.207466
1050.80 2.209347
1050.90 2.208404
1051.00 2.202033
1051.10 2.194634
1051.20 2.187472
1051.30 2.180012
1051.40 2.173329
1051.50 2.170442
1051.60 2.169549
1051.70 2.171488
1051.80 2.17509
1051.90 2.177427
1052.00 2.177984
1052.10 2.17869
1052.20 2.180896
1052.30 2.185565
1052.40 2.190128
1052.50 2.193201
1052.60 2.196502
1052.70 2.200491
1052.80 2.204862
1052.90 2.208266
1053.00 2.20874
1053.10 2.203985
1053.20 2.19578
1053.30 2.18531
1053.40 2.179554
1053.50 2.177772
1053.60 2.179814
1053.70 2.18536
1053.80 2.192273
1053.90 2.197461
1054.00 2.20041
1054.10 2.200164
1054.20 2.201683
1054.30 2.204075
1054.40 2.206549
1054.50 2.205697
1054.60 2.202906
1054.70 2.200821
1054.80 2.198613
1054.90 2.197587
1055.00 2.1976
1055.10 2.196843
1055.20 2.194056
1055.30 2.190419
1055.40 2.186469
1055.50 2.183236
1055.60 2.179339
1055.70 2.177451
1055.80 2.174926
1055.90 2.171813
1056.00 2.168435
1056.10 2.167652
1056.20 2.168334
1056.30 2.169677
1056.40 2.171954
1056.50 2.172349
1056.60 2.172792
1056.70 2.173292
1056.80 2.173692
1056.90 2.173413
1057.00 2.174263
1057.10 2.176338
1057.20 2.179488
1057.30 2.180247
1057.40 2.179192
1057.50 2.177353
1057.60 2.177561
1057.70 2.179513
1057.80 2.181397
1057.90 2.182189
1058.00 2.183089
1058.10 2.183015
1058.20 2.180867
1058.30 2.17405
1058.40 2.154305
1058.50 2.121379
1058.60 2.091413
1058.70 2.06765
1058.80 2.062055
1058.90 2.074092
1059.00 2.097943
1059.10 2.129808
1059.20 2.154291
1059.30 2.168611
1059.40 2.176978
1059.50 2.180493
1059.60 2.182442
1059.70 2.185096
1059.80 2.187197
1059.90 2.186097
1060.00 2.182506
1060.10 2.178219
1060.20 2.172208
1060.30 2.163249
1060.40 2.150346
1060.50 2.139461
1060.60 2.129842
1060.70 2.121611
1060.80 2.11906
1060.90 2.122983
1061.00 2.130837
1061.10 2.138465
1061.20 2.147215
1061.30 2.155601
1061.40 2.163505
1061.50 2.167891
1061.60 2.168833
1061.70 2.167949
1061.80 2.166219
1061.90 2.166047
1062.00 2.166857
1062.10 2.167528
1062.20 2.167671
1062.30 2.168609
1062.40 2.169866
1062.50 2.171605
1062.60 2.173632
1062.70 2.174123
1062.80 2.174121
1062.90 2.174461
1063.00 2.176089
1063.10 2.174353
1063.20 2.172621
1063.30 2.171045
1063.40 2.170655
1063.50 2.172385
1063.60 2.174104
1063.70 2.175712
1063.80 2.176851
1063.90 2.178668
1064.00 2.18037
1064.10 2.181564
1064.20 2.182671
1064.30 2.181588
1064.40 2.179141
1064.50 2.176547
1064.60 2.175541
1064.70 2.173422
1064.80 2.170665
1064.90 2.167029
1065.00 2.163605
1065.10 2.162672
1065.20 2.163858
1065.30 2.165367
1065.40 2.165552
1065.50 2.164283
1065.60 2.161965
1065.70 2.159263
1065.80 2.157116
1065.90 2.151128
1066.00 2.139964
1066.10 2.120892
1066.20 2.09578
1066.30 2.073135
1066.40 2.058647
1066.50 2.055563
1066.60 2.072301
1066.70 2.090661
1066.80 2.108867
1066.90 2.123192
1067.00 2.129364
1067.10 2.130494
1067.20 2.128809
1067.30 2.127772
1067.40 2.132793
1067.50 2.137798
1067.60 2.140371
1067.70 2.138676
1067.80 2.137568
1067.90 2.137274
1068.00 2.137698
1068.10 2.137431
1068.20 2.145675
1068.30 2.154305
1068.40 2.162531
1068.50 2.165367
1068.60 2.164916
1068.70 2.163053
1068.80 2.159304
1068.90 2.153339
1069.00 2.146104
1069.10 2.141128
1069.20 2.137961
1069.30 2.134548
1069.40 2.133693
1069.50 2.134232
1069.60 2.134159
1069.70 2.132386
1069.80 2.135604
1069.90 2.141455
1070.00 2.149649
1070.10 2.156022
1070.20 2.159894
1070.30 2.159703
1070.40 2.157505
1070.50 2.151843
1070.60 2.149808
1070.70 2.149529
1070.80 2.150725
1070.90 2.148485
1071.00 2.146445
1071.10 2.145695
1071.20 2.146194
1071.30 2.147696
1071.40 2.150285
1071.50 2.153399
1071.60 2.157093
1071.70 2.160235
1071.80 2.162342
1071.90 2.162352
1072.00 2.160969
1072.10 2.159628
1072.20 2.157661
1072.30 2.154314
1072.40 2.148293
1072.50 2.135753
1072.60 2.118151
1072.70 2.0955
1072.80 2.072562
1072.90 2.0613
1073.00 2.062208
1073.10 2.072136
1073.20 2.086083
1073.30 2.093044
1073.40 2.096759
1073.50 2.09671
1073.60 2.098749
1073.70 2.105486
1073.80 2.118052
1073.90 2.134203
1074.00 2.146192
1074.10 2.151305
1074.20 2.152609
1074.30 2.151599
1074.40 2.148621
1074.50 2.145482
1074.60 2.139103
1074.70 2.129822
1074.80 2.117014
1074.90 2.102999
1075.00 2.089034
1075.10 2.076901
1075.20 2.07513
1075.30 2.078548
1075.40 2.086719
1075.50 2.099414
1075.60 2.111988
1075.70 2.123506
1075.80 2.133763
1075.90 2.141398
1076.00 2.144117
1076.10 2.146075
1076.20 2.146447
1076.30 2.144903
1076.40 2.143943
1076.50 2.143722
1076.60 2.143973
1076.70 2.143195
1076.80 2.144482
1076.90 2.145996
1077.00 2.146803
1077.10 2.144281
1077.20 2.141066
1077.30 2.137028
1077.40 2.130561
1077.50 2.121148
1077.60 2.113154
1077.70 2.107162
1077.80 2.102966
1077.90 2.106187
1078.00 2.110569
1078.10 2.113544
1078.20 2.113449
1078.30 2.10805
1078.40 2.102904
1078.50 2.097488
1078.60 2.091648
1078.70 2.084135
1078.80 2.079464
1078.90 2.078058
1079.00 2.079228
1079.10 2.086318
1079.20 2.096309
1079.30 2.105816
1079.40 2.111052
1079.50 2.114736
1079.60 2.118062
1079.70 2.121468
1079.80 2.124989
1079.90 2.126239
1080.00 2.124561
1080.10 2.120511
1080.20 2.115641
1080.30 2.113782
1080.40 2.113852
1080.50 2.114968
1080.60 2.116989
1080.70 2.117756
1080.80 2.117515
1080.90 2.114449
1081.00 2.099435
1081.10 2.070984
1081.20 2.043623
1081.30 2.023505
1081.40 2.018046
1081.50 2.026191
1081.60 2.04405
1081.70 2.067305
1081.80 2.082487
1081.90 2.09093
1082.00 2.095673
1082.10 2.096559
1082.20 2.093974
1082.30 2.091261
1082.40 2.088282
1082.50 2.084788
1082.60 2.073678
1082.70 2.057836
1082.80 2.037864
1082.90 2.013218
1083.00 1.980104
1083.10 1.956648
1083.20 1.94828
1083.30 1.953822
1083.40 1.967583
1083.50 1.987626
1083.60 2.009111
1083.70 2.02676
1083.80 2.040774
1083.90 2.053336
1084.00 2.064972
1084.10 2.07778
1084.20 2.087511
1084.30 2.092413
1084.40 2.094156
1084.50 2.094976
1084.60 2.091756
1084.70 2.08856
1084.80 2.086077
1084.90 2.085366
1085.00 2.087122
1085.10 2.091611
1085.20 2.098165
1085.30 2.103355
1085.40 2.107084
1085.50 2.109858
1085.60 2.111616
1085.70 2.113427
1085.80 2.114864
1085.90 2.116958
1086.00 2.119568
1086.10 2.120975
1086.20 2.116173
1086.30 2.1093
1086.40 2.101396
1086.50 2.094883
1086.60 2.089045
1086.70 2.083543
1086.80 2.077883
1086.90 2.062808
1087.00 2.043902
1087.10 2.02599
1087.20 2.016501
1087.30 2.013575
1087.40 2.018581
1087.50 2.03204
1087.60 2.052861
1087.70 2.069295
1087.80 2.081676
1087.90 2.090312
1088.00 2.093331
1088.10 2.089455
1088.20 2.084443
1088.30 2.079333
1088.40 2.076393
1088.50 2.074293
1088.60 2.072713
1088.70 2.072012
1088.80 2.075631
1088.90 2.080192
1089.00 2.083445
1089.10 2.083595
1089.20 2.081127
1089.30 2.078845
1089.40 2.076829
1089.50 2.074495
1089.60 2.069892
1089.70 2.067177
1089.80 2.066834
1089.90 2.069661
1090.00 2.074431
1090.10 2.079707
1090.20 2.084851
1090.30 2.089196
1090.40 2.090079
1090.50 2.085844
1090.60 2.079289
1090.70 2.070539
1090.80 2.064952
1090.90 2.063583
1091.00 2.066316
1091.10 2.07197
1091.20 2.0764
1091.30 2.079063
1091.40 2.080195
1091.50 2.07924
1091.60 2.075695
1091.70 2.073923
1091.80 2.075434
1091.90 2.081694
1092.00 2.086799
1092.10 2.090574
1092.20 2.093353
1092.30 2.09491
1092.40 2.095673
1092.50 2.096286
1092.60 2.096938
1092.70 2.096196
1092.80 2.09384
1092.90 2.090667
1093.00 2.087871
1093.10 2.088859
1093.20 2.093368
1093.30 2.098875
1093.40 2.103805
1093.50 2.105461
1093.60 2.105763
1093.70 2.104744
1093.80 2.102292
1093.90 2.10351
1094.00 2.110163
1094.10 2.116362
1094.20 2.118598
1094.30 2.115528
1094.40 2.111589
1094.50 2.105941
1094.60 2.100094
1094.70 2.097059
1094.80 2.095275
1094.90 2.094467
1095.00 2.094551
1095.10 2.095001
1095.20 2.093585
1095.30 2.089278
1095.40 2.082576
1095.50 2.075287
1095.60 2.067712
1095.70 2.059942
1095.80 2.052097
1095.90 2.047489
1096.00 2.04635
1096.10 2.050169
1096.20 2.057605
1096.30 2.061249
1096.40 2.060215
1096.50 2.055221
1096.60 2.042216
1096.70 2.025838
1096.80 2.01451
1096.90 2.01363
1097.00 2.021595
1097.10 2.031565
1097.20 2.041587
1097.30 2.051041
1097.40 2.056177
1097.50 2.059051
1097.60 2.060951
1097.70 2.060402
1097.80 2.059131
1097.90 2.054332
1098.00 2.047348
1098.10 2.03876
1098.20 2.036936
1098.30 2.039422
1098.40 2.044058
1098.50 2.051919
1098.60 2.060224
1098.70 2.066524
1098.80 2.069857
1098.90 2.070903
1099.00 2.071326
1099.10 2.073048
1099.20 2.075125
1099.30 2.07654
1099.40 2.074752
1099.50 2.072418
1099.60 2.070253
1099.70 2.06793
1099.80 2.066066
1099.90 2.065899
1100.00 2.066768
1100.10 2.069211
1100.20 2.071053
1100.30 2.072233
1100.40 2.071399
1100.50 2.069386
1100.60 2.068056
1100.70 2.069076
1100.80 2.070977
1100.90 2.072313
1101.00 2.072984
1101.10 2.073102
1101.20 2.07143
1101.30 2.06742
1101.40 2.061595
1101.50 2.051653
1101.60 2.037947
1101.70 2.024831
1101.80 2.019876
1101.90 2.018212
1102.00 2.021017
1102.10 2.027554
1102.20 2.035677
1102.30 2.041632
1102.40 2.044921
1102.50 2.046457
1102.60 2.053576
1102.70 2.061262
1102.80 2.066811
1102.90 2.067697
1103.00 2.067818
1103.10 2.066348
1103.20 2.06293
1103.30 2.062302
1103.40 2.06194
1103.50 2.061498
1103.60 2.060457
1103.70 2.061624
1103.80 2.061976
1103.90 2.06261
1104.00 2.063755
1104.10 2.064317
1104.20 2.064503
1104.30 2.064945
1104.40 2.065614
1104.50 2.06568
1104.60 2.065517
1104.70 2.064866
1104.80 2.0636
1104.90 2.062835
1105.00 2.062855
1105.10 2.063428
1105.20 2.065977
1105.30 2.067483
1105.40 2.067286
1105.50 2.064195
1105.60 2.061252
1105.70 2.058029
1105.80 2.054586
1105.90 2.051864
1106.00 2.051646
1106.10 2.051573
1106.20 2.052095
1106.30 2.05387
1106.40 2.058049
1106.50 2.060754
1106.60 2.062222
1106.70 2.062695
1106.80 2.061615
1106.90 2.058921
1107.00 2.055922
1107.10 2.053451
1107.20 2.050692
1107.30 2.048463
1107.40 2.047851
1107.50 2.0502
1107.60 2.055922
1107.70 2.061964
1107.80 2.066252
1107.90 2.06593
1108.00 2.063529
1108.10 2.061463
1108.20 2.060221
1108.30 2.059326
1108.40 2.059745
1108.50 2.061289
1108.60 2.063429
1108.70 2.065482
1108.80 2.064433
1108.90 2.0625
1109.00 2.059447
1109.10 2.055815
1109.20 2.054741
1109.30 2.0556
1109.40 2.057581
1109.50 2.059291
1109.60 2.063188
1109.70 2.066221
1109.80 2.067743
1109.90 2.066676
1110.00 2.066944
1110.10 2.06605
1110.20 2.064157
1110.30 2.059159
1110.40 2.056475
1110.50 2.055342
1110.60 2.055728
1110.70 2.05692
1110.80 2.057699
1110.90 2.05863
1111.00 2.059357
1111.10 2.059707
1111.20 2.057396
1111.30 2.054496
1111.40 2.050655
1111.50 2.046838
1111.60 2.044573
1111.70 2.044273
1111.80 2.044767
1111.90 2.040309
1112.00 2.02814
1112.10 2.013661
1112.20 2.001415
1112.30 1.999974
1112.40 2.004033
1112.50 2.016277
1112.60 2.032476
1112.70 2.043225
1112.80 2.049736
1112.90 2.054225
1113.00 2.056
1113.10 2.053025
1113.20 2.050291
1113.30 2.048883
1113.40 2.049191
1113.50 2.050334
1113.60 2.049756
1113.70 2.048212
1113.80 2.047258
1113.90 2.049529
1114.00 2.052077
1114.10 2.054747
1114.20 2.055579
1114.30 2.055803
1114.40 2.054188
1114.50 2.052668
1114.60 2.049389
1114.70 2.04584
1114.80 2.04212
1114.90 2.037446
1115.00 2.029266
1115.10 2.021875
1115.20 2.020202
1115.30 2.024086
1115.40 2.030875
1115.50 2.038523
1115.60 2.044106
1115.70 2.041956
1115.80 2.024918
1115.90 2.009549
1116.00 2.001066
1116.10 2.000723
1116.20 2.007265
1116.30 2.020853
1116.40 2.035284
1116.50 2.044745
1116.60 2.051444
1116.70 2.056771
1116.80 2.060419
1116.90 2.060176
1117.00 2.061155
1117.10 2.05576
1117.20 2.049202
1117.30 2.040108
1117.40 2.03675
1117.50 2.034305
1117.60 2.035891
1117.70 2.039683
1117.80 2.046173
1117.90 2.049266
1118.00 2.050307
1118.10 2.046908
1118.20 2.045667
1118.30 2.043652
1118.40 2.03862
1118.50 2.037448
1118.60 2.039165
1118.70 2.040711
1118.80 2.038846
1118.90 2.032093
1119.00 2.026921
1119.10 2.02296
1119.20 2.021334
1119.30 2.024148
1119.40 2.030504
1119.50 2.036401
1119.60 2.039784
1119.70 2.040741
1119.80 2.036092
1119.90 2.029082
1120.00 2.022215
1120.10 2.016662
1120.20 2.010953
1120.30 2.010927
1120.40 2.020484
1120.50 2.031289
1120.60 2.040479
1120.70 2.047161
1120.80 2.049521
1120.90 2.048975
1121.00 2.047174
1121.10 2.04219
1121.20 2.038657
1121.30 2.033211
1121.40 2.029922
1121.50 2.028892
1121.60 2.031552
1121.70 2.034839
1121.80 2.036418
1121.90 2.037104
1122.00 2.037379
1122.10 2.037457
1122.20 2.03596
1122.30 2.031931
1122.40 2.029732
1122.50 2.032049
1122.60 2.034505
1122.70 2.036393
1122.80 2.034661
1122.90 2.036134
1123.00 2.041382
1123.10 2.041687
1123.20 2.040331
1123.30 2.037491
1123.40 2.03234
1123.50 2.028736
1123.60 2.019659
1123.70 2.014763
1123.80 2.015847
1123.90 2.021557
1124.00 2.034307
1124.10 2.043116
1124.20 2.049791
1124.30 2.049146
1124.40 2.037331
1124.50 2.026465
1124.60 2.016139
1124.70 2.016609
1124.80 2.0185
1124.90 2.019179
1125.00 2.017834
1125.10 2.002507
1125.20 1.980951
1125.30 1.952
1125.40 1.907267
1125.50 1.860652
1125.60 1.826187
1125.70 1.830184
1125.80 1.858816
1125.90 1.906141
1126.00 1.938068
1126.10 1.970302
1126.20 1.989953
1126.30 2.00736
1126.40 2.01203
1126.50 2.01758
1126.60 2.026085
1126.70 2.032114
1126.80 2.036788
1126.90 2.039625
1127.00 2.038343
1127.10 2.036546
1127.20 2.03254
1127.30 2.029364
1127.40 2.024428
1127.50 2.019507
1127.60 2.016991
1127.70 2.019492
1127.80 2.022216
1127.90 2.024694
1128.00 2.02708
1128.10 2.030246
1128.20 2.035325
1128.30 2.035782
1128.40 2.03635
1128.50 2.035177
1128.60 2.034798
1128.70 2.03432
1128.80 2.03404
1128.90 2.035281
1129.00 2.036637
1129.10 2.036311
1129.20 2.034741
1129.30 2.031032
1129.40 2.026937
1129.50 2.02315
1129.60 2.014872
1129.70 2.005856
1129.80 1.997468
1129.90 1.996373
1130.00 1.998498
1130.10 2.002332
1130.20 2.005069
1130.30 2.006685
1130.40 2.009244
1130.50 2.012871
1130.60 2.014956
1130.70 2.016093
1130.80 2.013972
1130.90 2.010131
1131.00 2.005741
1131.10 1.999361
1131.20 1.994515
1131.30 1.99067
1131.40 1.988229
1131.50 1.985661
1131.60 1.989724
1131.70 1.995041
1131.80 2.002717
1131.90 2.007473
1132.00 2.010937
1132.10 2.013253
1132.20 2.013887
1132.30 2.014858
1132.40 2.014101
1132.50 2.015587
1132.60 2.016648
1132.70 2.017655
1132.80 2.01815
1132.90 2.016369
1133.00 2.013032
1133.10 2.006001
1133.20 1.995985
1133.30 1.98553
1133.40 1.976515
1133.50 1.973208
1133.60 1.972189
1133.70 1.978301
1133.80 1.987229
1133.90 1.995624
1134.00 2.001241
1134.10 2.002598
1134.20 1.999509
1134.30 1.996488
1134.40 1.992229
1134.50 1.990289
1134.60 1.989492
1134.70 1.984793
1134.80 1.990295
1134.90 1.996838
1135.00 2.009028
1135.10 2.025543
1135.20 2.031747
1135.30 2.038254
1135.40 2.034411
1135.50 2.021015
1135.60 2.006449
1135.70 1.991645
1135.80 1.985764
1135.90 1.981492
1136.00 1.974247
1136.10 1.976569
1136.20 1.982338
1136.30 1.994343
1136.40 2.008565
1136.50 2.01584
1136.60 2.019967
1136.70 2.015554
1136.80 2.007121
1136.90 1.998315
1137.00 1.990797
1137.10 1.987813
1137.20 1.983808
1137.30 1.975387
1137.40 1.963845
1137.50 1.949717
1137.60 1.935586
1137.70 1.926421
1137.80 1.918506
1137.90 1.907264
1138.00 1.897358
1138.10 1.873794
1138.20 1.848156
1138.30 1.81429
1138.40 1.789053
1138.50 1.779987
1138.60 1.809359
1138.70 1.842877
1138.80 1.88449
1138.90 1.913256
1139.00 1.93925
1139.10 1.94661
1139.20 1.946703
1139.30 1.943201
1139.40 1.94077
1139.50 1.939472
1139.60 1.941269
1139.70 1.942376
1139.80 1.941176
1139.90 1.932017
1140.00 1.924297
1140.10 1.905466
1140.20 1.86948
1140.30 1.831116
1140.40 1.770877
1140.50 1.717691
1140.60 1.652851
1140.70 1.64502
1140.80 1.654398
1140.90 1.690229
1141.00 1.752285
1141.10 1.82612
1141.20 1.886886
1141.30 1.932995
1141.40 1.955025
1141.50 1.96438
1141.60 1.972516
1141.70 1.974079
1141.80 1.975476
1141.90 1.978271
1142.00 1.974847
1142.10 1.967984
1142.20 1.955923
1142.30 1.942871
1142.40 1.930013
1142.50 1.925997
1142.60 1.926441
1142.70 1.93453
1142.80 1.947037
1142.90 1.958573
1143.00 1.968289
1143.10 1.975174
1143.20 1.981751
1143.30 1.984793
1143.40 1.986011
1143.50 1.985066
1143.60 1.980082
1143.70 1.973206
1143.80 1.959419
1143.90 1.948133
1144.00 1.932473
1144.10 1.921409
1144.20 1.910099
1144.30 1.910274
1144.40 1.918045
1144.50 1.933054
1144.60 1.951069
1144.70 1.96608
1144.80 1.975678
1144.90 1.975816
1145.00 1.974251
1145.10 1.97129
1145.20 1.972348
1145.30 1.974568
1145.40 1.976615
1145.50 1.978338
1145.60 1.978237
1145.70 1.977839
1145.80 1.977469
1145.90 1.978293
1146.00 1.980028
1146.10 1.98223
1146.20 1.982887
1146.30 1.983081
1146.40 1.981486
1146.50 1.979444
1146.60 1.97816
1146.70 1.977192
1146.80 1.980304
1146.90 1.982764
1147.00 1.984897
1147.10 1.98527
1147.20 1.9799
1147.30 1.972468
1147.40 1.96176
1147.50 1.95426
1147.60 1.950035
1147.70 1.956003
1147.80 1.963939
1147.90 1.972082
1148.00 1.976849
1148.10 1.977866
1148.20 1.975347
1148.30 1.969041
1148.40 1.96108
1148.50 1.951279
1148.60 1.941606
1148.70 1.932117
1148.80 1.929163
1148.90 1.930535
1149.00 1.941752
1149.10 1.955039
1149.20 1.967365
1149.30 1.976239
1149.40 1.978359
1149.50 1.974245
1149.60 1.966191
1149.70 1.957458
1149.80 1.957537
1149.90 1.959076
1150.00 1.964643
1150.10 1.970269
1150.20 1.974641
1150.30 1.978236
1150.40 1.974391
1150.50 1.970463
1150.60 1.966296
1150.70 1.963511
1150.80 1.961087
1150.90 1.959198
1151.00 1.958782
1151.10 1.961961
1151.20 1.965021
1151.30 1.967994
1151.40 1.969165
1151.50 1.969733
1151.60 1.970536
1151.70 1.97013
1151.80 1.969823
1151.90 1.966686
1152.00 1.962502
1152.10 1.957757
1152.20 1.955099
1152.30 1.955693
1152.40 1.955823
1152.50 1.954595
1152.60 1.950453
1152.70 1.947077
1152.80 1.946475
1152.90 1.950623
1153.00 1.959976
1153.10 1.96807
1153.20 1.974177
1153.30 1.972186
1153.40 1.966906
1153.50 1.960561
1153.60 1.95658
1153.70 1.956628
1153.80 1.956914
1153.90 1.957715
1154.00 1.959232
1154.10 1.960495
1154.20 1.960861
1154.30 1.960939
1154.40 1.960686
1154.50 1.962874
1154.60 1.964281
1154.70 1.963349
1154.80 1.961413
1154.90 1.958183
1155.00 1.95815
1155.10 1.957991
1155.20 1.957905
1155.30 1.956616
1155.40 1.954407
1155.50 1.952209
1155.60 1.950634
1155.70 1.951053
1155.80 1.952233
1155.90 1.956089
1156.00 1.959544
1156.10 1.96353
1156.20 1.965857
1156.30 1.964131
1156.40 1.961474
1156.50 1.957687
1156.60 1.956544
1156.70 1.955769
1156.80 1.955136
1156.90 1.954397
1157.00 1.9526
1157.10 1.95187
1157.20 1.950244
1157.30 1.949419
1157.40 1.94821
1157.50 1.947487
1157.60 1.94765
1157.70 1.947978
1157.80 1.948235
1157.90 1.949742
1158.00 1.952065
1158.10 1.955665
1158.20 1.958529
1158.30 1.959795
1158.40 1.959652
1158.50 1.957349
1158.60 1.953318
1158.70 1.948103
1158.80 1.943466
1158.90 1.94073
1159.00 1.936382
1159.10 1.931218
1159.20 1.924394
1159.30 1.915702
1159.40 1.90463
1159.50 1.891523
1159.60 1.881056
1159.70 1.88398
1159.80 1.887168
1159.90 1.896662
1160.00 1.906554
1160.10 1.917381
1160.20 1.926367
1160.30 1.931119
1160.40 1.932706
1160.50 1.925858
1160.60 1.913367
1160.70 1.891467
1160.80 1.865793
1160.90 1.83365
1161.00 1.809994
1161.10 1.786825
1161.20 1.781469
1161.30 1.788886
1161.40 1.802678
1161.50 1.832189
1161.60 1.860347
1161.70 1.888445
1161.80 1.90794
1161.90 1.921892
1162.00 1.930069
1162.10 1.93457
1162.20 1.93607
1162.30 1.935973
1162.40 1.936152
1162.50 1.935921
1162.60 1.93585
1162.70 1.935581
1162.80 1.935053
1162.90 1.934593
1163.00 1.933929
1163.10 1.932396
1163.20 1.930174
1163.30 1.926726
1163.40 1.92477
1163.50 1.921813
1163.60 1.914209
1163.70 1.904667
1163.80 1.885654
1163.90 1.866269
1164.00 1.845784
1164.10 1.837265
1164.20 1.83716
1164.30 1.84389
1164.40 1.861429
1164.50 1.881556
1164.60 1.899216
1164.70 1.913107
1164.80 1.921595
1164.90 1.925066
1165.00 1.928322
1165.10 1.929831
1165.20 1.93019
1165.30 1.930236
1165.40 1.929263
1165.50 1.927658
1165.60 1.925175
1165.70 1.922265
1165.80 1.919866
1165.90 1.918118
1166.00 1.916357
1166.10 1.915031
1166.20 1.916738
1166.30 1.919545
1166.40 1.923035
1166.50 1.924578
1166.60 1.925086
1166.70 1.923531
1166.80 1.921194
1166.90 1.918842
1167.00 1.916392
1167.10 1.91428
1167.20 1.912805
1167.30 1.911918
1167.40 1.911709
1167.50 1.912653
1167.60 1.913629
1167.70 1.91424
1167.80 1.915404
1167.90 1.916391
1168.00 1.917772
1168.10 1.917752
1168.20 1.917023
1168.30 1.916491
1168.40 1.915984
1168.50 1.915831
1168.60 1.915376
1168.70 1.912657
1168.80 1.901668
1168.90 1.887582
1169.00 1.859235
1169.10 1.829088
1169.20 1.797043
1169.30 1.78276
1169.40 1.784182
1169.50 1.792553
1169.60 1.819603
1169.70 1.84753
1169.80 1.87218
1169.90 1.890411
1170.00 1.902495
1170.10 1.907803
1170.20 1.912809
1170.30 1.914499
1170.40 1.916485
1170.50 1.918537
1170.60 1.919183
1170.70 1.919384
1170.80 1.919421
1170.90 1.917682
1171.00 1.915854
1171.10 1.91391
1171.20 1.913302
1171.30 1.913454
1171.40 1.914844
1171.50 1.916482
1171.60 1.918099
1171.70 1.918788
1171.80 1.918826
1171.90 1.918392
1172.00 1.917028
1172.10 1.915269
1172.20 1.912867
1172.30 1.910771
1172.40 1.909006
1172.50 1.908217
1172.60 1.908187
1172.70 1.90949
1172.80 1.91117
1172.90 1.912956
1173.00 1.914152
1173.10 1.915455
1173.20 1.917076
1173.30 1.919097
1173.40 1.921474
1173.50 1.921977
1173.60 1.921225
1173.70 1.918948
1173.80 1.916208
1173.90 1.913761
1174.00 1.912391
1174.10 1.911756
1174.20 1.911735
1174.30 1.912543
1174.40 1.913688
1174.50 1.915592
1174.60 1.917109
1174.70 1.918457
1174.80 1.917947
1174.90 1.91614
1175.00 1.912871
1175.10 1.90928
1175.20 1.905255
1175.30 1.900566
1175.40 1.896109
1175.50 1.892217
1175.60 1.893009
1175.70 1.894442
1175.80 1.896244
1175.90 1.897376
1176.00 1.898262
1176.10 1.897524
1176.20 1.897556
1176.30 1.898328
1176.40 1.899761
1176.50 1.900413
1176.60 1.898902
1176.70 1.895752
1176.80 1.888091
1176.90 1.873883
1177.00 1.859955
1177.10 1.837642
1177.20 1.814639
1177.30 1.789352
1177.40 1.773967
1177.50 1.765827
1177.60 1.760354
1177.70 1.775846
1177.80 1.796226
1177.90 1.818521
1178.00 1.837194
1178.10 1.847813
1178.20 1.844726
1178.30 1.837632
1178.40 1.821129
1178.50 1.812453
1178.60 1.806044
1178.70 1.81353
1178.80 1.825621
1178.90 1.841416
1179.00 1.858391
1179.10 1.872213
1179.20 1.878586
1179.30 1.877978
1179.40 1.871016
1179.50 1.861935
1179.60 1.854181
1179.70 1.847596
1179.80 1.844934
1179.90 1.844068
1180.00 1.849883
1180.10 1.856916
1180.20 1.864084
1180.30 1.871384
1180.40 1.878197
1180.50 1.88456
1180.60 1.88894
1180.70 1.891592
1180.80 1.893068
1180.90 1.894338
1181.00 1.895006
1181.10 1.894507
1181.20 1.8936
1181.30 1.891427
1181.40 1.889299
1181.50 1.886764
1181.60 1.885218
1181.70 1.883685
1181.80 1.882344
1181.90 1.881302
1182.00 1.879491
1182.10 1.875972
1182.20 1.871818
1182.30 1.865701
1182.40 1.852295
1182.50 1.83691
1182.60 1.805844
1182.70 1.763061
1182.80 1.714037
1182.90 1.661918
1183.00 1.62146
1183.10 1.597508
1183.20 1.602228
1183.30 1.622158
1183.40 1.664219
1183.50 1.711203
1183.60 1.762634
1183.70 1.795609
1183.80 1.824883
1183.90 1.839164
1184.00 1.848301
1184.10 1.854857
1184.20 1.859515
1184.30 1.864168
1184.40 1.86947
1184.50 1.872975
1184.60 1.875082
1184.70 1.876664
1184.80 1.877716
1184.90 1.878657
1185.00 1.879392
1185.10 1.880385
1185.20 1.882058
1185.30 1.883456
1185.40 1.884117
1185.50 1.884342
1185.60 1.884642
1185.70 1.885147
1185.80 1.885289
1185.90 1.885135
1186.00 1.884773
1186.10 1.884507
1186.20 1.884183
1186.30 1.88293
1186.40 1.881374
1186.50 1.878665
1186.60 1.875891
1186.70 1.873457
1186.80 1.872836
1186.90 1.873164
1187.00 1.874281
1187.10 1.874727
1187.20 1.875072
1187.30 1.874749
1187.40 1.874471
1187.50 1.874244
1187.60 1.872495
1187.70 1.871486
1187.80 1.869107
1187.90 1.862946
1188.00 1.856421
1188.10 1.833227
1188.20 1.800861
1188.30 1.76192
1188.40 1.717939
1188.50 1.680117
1188.60 1.657994
1188.70 1.656796
1188.80 1.673112
1188.90 1.707034
1189.00 1.743772
1189.10 1.782673
1189.20 1.803447
1189.30 1.820538
1189.40 1.82082
1189.50 1.82179
1189.60 1.822934
1189.70 1.827786
1189.80 1.834284
1189.90 1.842543
1190.00 1.851123
1190.10 1.859276
1190.20 1.865256
1190.30 1.868173
1190.40 1.867457
1190.50 1.865588
1190.60 1.864059
1190.70 1.863979
1190.80 1.863978
1190.90 1.864052
1191.00 1.8652
1191.10 1.866332
1191.20 1.867329
1191.30 1.868189
1191.40 1.869239
1191.50 1.870719
1191.60 1.87125
1191.70 1.871267
1191.80 1.871118
1191.90 1.871478
1192.00 1.872477
1192.10 1.872477
1192.20 1.872328
1192.30 1.870238
1192.40 1.86839
1192.50 1.866451
1192.60 1.864876
1192.70 1.863896
1192.80 1.864014
1192.90 1.86495
1193.00 1.866263
1193.10 1.866944
1193.20 1.867407
1193.30 1.867636
1193.40 1.867344
1193.50 1.86728
1193.60 1.865638
1193.70 1.86366
1193.80 1.861227
1193.90 1.858928
1194.00 1.857266
1194.10 1.856413
1194.20 1.856234
1194.30 1.857178
1194.40 1.8581
1194.50 1.858112
1194.60 1.855731
1194.70 1.850366
1194.80 1.844934
1194.90 1.83495
1195.00 1.824809
1195.10 1.813506
1195.20 1.806847
1195.30 1.803052
1195.40 1.803728
1195.50 1.806998
1195.60 1.812555
1195.70 1.816383
1195.80 1.819899
1195.90 1.820782
1196.00 1.823791
1196.10 1.82753
1196.20 1.832877
1196.30 1.837197
1196.40 1.840902
1196.50 1.842942
1196.60 1.844044
1196.70 1.844071
1196.80 1.842537
1196.90 1.838802
1197.00 1.825753
1197.10 1.808337
1197.20 1.776427
1197.30 1.734932
1197.40 1.691255
1197.50 1.653451
1197.60 1.634085
1197.70 1.623039
1197.80 1.650245
1197.90 1.681355
1198.00 1.719057
1198.10 1.752769
1198.20 1.778594
1198.30 1.784407
1198.40 1.784222
1198.50 1.775916
1198.60 1.770228
1198.70 1.766337
1198.80 1.764641
1198.90 1.767932
1199.00 1.773802
1199.10 1.776558
1199.20 1.776901
1199.30 1.774591
1199.40 1.773625
1199.50 1.774735
1199.60 1.781782
1199.70 1.791665
1199.80 1.805004
1199.90 1.814972
1200.00 1.823928
