# Version 2.1 - nm, norm@500 to 1, cut digits
# Wavelength(nm)  Flambda(ergs/cm^s/s/nm)
300.00 0.01123523
300.10 0.01493453
300.20 0.01718711
300.30 0.01811821
300.40 0.01836163
300.50 0.01843267
300.60 0.01850373
300.70 0.01857555
300.80 0.01865104
300.90 0.01873586
301.00 0.01883621
301.10 0.01895483
301.20 0.01908898
301.30 0.01923245
301.40 0.01937959
301.50 0.01952746
301.60 0.01967533
301.70 0.0198232
301.80 0.01997107
301.90 0.02011894
302.00 0.02026681
302.10 0.02041468
302.20 0.02056255
302.30 0.02071042
302.40 0.0208583
302.50 0.02100617
302.60 0.02115404
302.70 0.02130247
302.80 0.02145368
302.90 0.02161197
303.00 0.02178204
303.10 0.021966
303.20 0.02216174
303.30 0.02236455
303.40 0.02257016
303.50 0.02277631
303.60 0.02298247
303.70 0.02318863
303.80 0.02339479
303.90 0.02360095
304.00 0.02380711
304.10 0.02401327
304.20 0.02421943
304.30 0.02442559
304.40 0.02463174
304.50 0.0248379
304.60 0.02504406
304.70 0.02524852
304.80 0.02544445
304.90 0.02561874
305.00 0.02575699
305.10 0.02585279
305.20 0.02591253
305.30 0.02595064
305.40 0.02598023
305.50 0.02600811
305.60 0.02603599
305.70 0.02606388
305.80 0.02609176
305.90 0.02611964
306.00 0.02614752
306.10 0.02617541
306.20 0.02620329
306.30 0.02623117
306.40 0.02625905
306.50 0.02628694
306.60 0.02631482
306.70 0.02634271
306.80 0.02637061
306.90 0.02639856
307.00 0.02642659
307.10 0.02645471
307.20 0.02648292
307.30 0.02651116
307.40 0.02653943
307.50 0.0265677
307.60 0.02659597
307.70 0.02662424
307.80 0.02665251
307.90 0.02668078
308.00 0.02670905
308.10 0.02673732
308.20 0.02676559
308.30 0.02679386
308.40 0.02682213
308.50 0.02685039
308.60 0.02687866
308.70 0.0269112
308.80 0.02696506
308.90 0.02707308
309.00 0.02727132
309.10 0.0275758
309.20 0.0279705
309.30 0.02841936
309.40 0.02888954
309.50 0.02936399
309.60 0.02983845
309.70 0.0303129
309.80 0.03078735
309.90 0.0312618
310.00 0.03173625
310.10 0.0322107
310.20 0.03268515
310.30 0.0331596
310.40 0.03363405
310.50 0.0341085
310.60 0.03458295
310.70 0.03505312
310.80 0.03550184
310.90 0.03589612
311.00 0.0361997
311.10 0.03639648
311.20 0.03650258
311.30 0.03655422
311.40 0.03658443
311.50 0.03661035
311.60 0.03663627
311.70 0.03666218
311.80 0.0366881
311.90 0.03671402
312.00 0.03673994
312.10 0.03676586
312.20 0.03679178
312.30 0.0368177
312.40 0.03684362
312.50 0.03686954
312.60 0.03689545
312.70 0.03692667
312.80 0.03698436
312.90 0.0371093
313.00 0.03734625
313.10 0.0377151
313.20 0.03819596
313.30 0.03874406
313.40 0.03931865
313.50 0.03989853
313.60 0.04047841
313.70 0.04105829
313.80 0.04163817
313.90 0.04221805
314.00 0.04279793
314.10 0.04337781
314.20 0.04395769
314.30 0.04453757
314.40 0.04511745
314.50 0.04569733
314.60 0.0462772
314.70 0.04686077
314.80 0.04746277
314.90 0.04811157
315.00 0.04883835
315.10 0.04965694
315.20 0.05055351
315.30 0.05149688
315.40 0.05245868
315.50 0.05342417
315.60 0.05438966
315.70 0.05535515
315.80 0.05632064
315.90 0.05728613
316.00 0.05825162
316.10 0.05921711
316.20 0.0601826
316.30 0.06114809
316.40 0.06211358
316.50 0.06307907
316.60 0.06404457
316.70 0.06499651
316.80 0.06588069
316.90 0.06659282
317.00 0.06701834
317.10 0.06710637
317.20 0.06690778
317.30 0.06653714
317.40 0.06609875
317.50 0.0656468
317.60 0.06519485
317.70 0.0647429
317.80 0.06429096
317.90 0.06383901
318.00 0.06338707
318.10 0.06293513
318.20 0.06248318
318.30 0.06203124
318.40 0.06157929
318.50 0.06112734
318.60 0.06067539
318.70 0.06023382
318.80 0.05984412
318.90 0.05958612
319.00 0.05954751
319.10 0.05976726
319.20 0.0602064
319.30 0.06077725
319.40 0.06139996
319.50 0.06203305
319.60 0.06266614
319.70 0.06329923
319.80 0.06393232
319.90 0.0645654
320.00 0.06519849
320.10 0.06583157
320.20 0.06646466
320.30 0.06709775
320.40 0.06773083
320.50 0.06836392
320.60 0.06899701
320.70 0.06962626
320.80 0.07023632
320.90 0.07079768
321.00 0.07127789
321.10 0.07166255
321.20 0.07196607
321.30 0.07222088
321.40 0.0724565
321.50 0.07268829
321.60 0.07292007
321.70 0.07315186
321.80 0.07338365
321.90 0.07361543
322.00 0.07384722
322.10 0.07407901
322.20 0.07431079
322.30 0.07454258
322.40 0.07477436
322.50 0.07500615
322.60 0.07523792
322.70 0.07548373
322.80 0.0757996
322.90 0.07629339
323.00 0.07708357
323.10 0.07822277
323.20 0.07965836
323.30 0.08127187
323.40 0.08295545
323.50 0.08465305
323.60 0.08635065
323.70 0.08804825
323.80 0.08974584
323.90 0.09144343
324.00 0.09314103
324.10 0.09483862
324.20 0.09653622
324.30 0.09823381
324.40 0.0999314
324.50 0.101629
324.60 0.1033266
324.70 0.1050219
324.80 0.1067058
324.90 0.1083609
325.00 0.1099678
325.10 0.111518
325.20 0.11302
325.30 0.1144932
325.40 0.1159549
325.50 0.1174144
325.60 0.1188739
325.70 0.1203334
325.80 0.1217929
325.90 0.1232524
326.00 0.1247118
326.10 0.1261713
326.20 0.1276308
326.30 0.1290903
326.40 0.1305498
326.50 0.1320093
326.60 0.1334688
326.70 0.1349331
326.80 0.1364221
326.90 0.1379733
327.00 0.1396283
327.10 0.1414055
327.20 0.1432864
327.30 0.1452297
327.40 0.1471974
327.50 0.1491701
327.60 0.1511428
327.70 0.1531155
327.80 0.1550882
327.90 0.1570609
328.00 0.1590335
328.10 0.1610062
328.20 0.1629789
328.30 0.1649516
328.40 0.1669243
328.50 0.168897
328.60 0.1708697
328.70 0.1728136
328.80 0.1746135
328.90 0.176048
329.00 0.1768736
329.10 0.1769822
329.20 0.176482
329.30 0.1756163
329.40 0.1746067
329.50 0.1735683
329.60 0.1725298
329.70 0.1714914
329.80 0.170453
329.90 0.1694145
330.00 0.1683761
330.10 0.1673377
330.20 0.1662993
330.30 0.1652608
330.40 0.1642224
330.50 0.163184
330.60 0.1621455
330.70 0.1611285
330.80 0.1602182
330.90 0.159579
331.00 0.1593915
331.10 0.1597358
331.20 0.1605318
331.30 0.1615989
331.40 0.1627728
331.50 0.163968
331.60 0.1651633
331.70 0.1663585
331.80 0.1675537
331.90 0.168749
332.00 0.1699442
332.10 0.1711394
332.20 0.1723347
332.30 0.1735299
332.40 0.1747252
332.50 0.1759204
332.60 0.1771156
332.70 0.1782974
332.80 0.1794115
332.90 0.1803539
333.00 0.1810104
333.10 0.1813302
333.20 0.181364
333.30 0.1812261
333.40 0.1810206
333.50 0.1808016
333.60 0.1805826
333.70 0.1803636
333.80 0.1801446
333.90 0.1799256
334.00 0.1797066
334.10 0.1794877
334.20 0.1792687
334.30 0.1790496
334.40 0.1788306
334.50 0.1786116
334.60 0.1785749
334.70 0.1791329
334.80 0.1804446
334.90 0.1817769
335.00 0.1817348
335.10 0.1799377
335.20 0.1785816
335.30 0.1817718
335.40 0.1923618
335.50 0.2087309
335.60 0.2246117
335.70 0.232735
335.80 0.2295187
335.90 0.2168418
336.00 0.20004
336.10 0.1846065
336.20 0.1743728
336.30 0.1709444
336.40 0.1730208
336.50 0.1765551
336.60 0.17718
336.70 0.1738307
336.80 0.1701005
336.90 0.1714226
337.00 0.1804155
337.10 0.1943294
337.20 0.2066203
337.30 0.2114466
337.40 0.2077705
337.50 0.2000051
337.60 0.1946399
337.70 0.1954271
337.80 0.2011779
337.90 0.2079417
338.00 0.2126976
338.10 0.2146147
338.20 0.213255
338.30 0.2071828
338.40 0.1959098
338.50 0.1827673
338.60 0.1743905
338.70 0.1759505
338.80 0.1863283
338.90 0.1984727
339.00 0.2050656
339.10 0.204515
339.20 0.2019358
339.30 0.2041196
339.40 0.2132806
339.50 0.2256209
339.60 0.2354378
339.70 0.2399146
339.80 0.2398415
339.90 0.2367906
340.00 0.2313879
340.10 0.2242801
340.20 0.2169619
340.30 0.2105683
340.40 0.204335
340.50 0.1963991
340.60 0.1863121
340.70 0.176077
340.80 0.1685621
340.90 0.1653987
341.00 0.1664778
341.10 0.1708032
341.20 0.1772273
341.30 0.1844014
341.40 0.1907368
341.50 0.1950187
341.60 0.1971274
341.70 0.198091
341.80 0.1993037
341.90 0.2014962
342.00 0.2040874
342.10 0.2052983
342.20 0.2032348
342.30 0.1974798
342.40 0.1899515
342.50 0.1839319
342.60 0.1818614
342.70 0.1838174
342.80 0.1878319
342.90 0.1914455
343.00 0.1932203
343.10 0.1933855
343.20 0.1933023
343.30 0.1941403
343.40 0.1958582
343.50 0.1974452
343.60 0.1979905
343.70 0.1972441
343.80 0.1954
343.90 0.1929144
344.00 0.1906218
344.10 0.1894869
344.20 0.1897616
344.30 0.1905597
344.40 0.1906347
344.50 0.1895729
344.60 0.1881293
344.70 0.1875655
344.80 0.1888461
344.90 0.1923116
345.00 0.1977816
345.10 0.2046908
345.20 0.2121186
345.30 0.2187904
345.40 0.223282
345.50 0.2247055
345.60 0.2234509
345.70 0.221121
345.80 0.2194355
345.90 0.2190286
346.00 0.2191652
346.10 0.2183842
346.20 0.2155182
346.30 0.2106123
346.40 0.2052193
346.50 0.2014963
346.60 0.2004898
346.70 0.2012263
346.80 0.2016171
346.90 0.2001592
347.00 0.1967093
347.10 0.1921968
347.20 0.1881634
347.30 0.1863284
347.40 0.187785
347.50 0.1921386
347.60 0.1976909
347.70 0.2027453
347.80 0.2067415
347.90 0.2102387
348.00 0.2140331
348.10 0.2182674
348.20 0.2221438
348.30 0.2244512
348.40 0.2245469
348.50 0.2229196
348.60 0.2206855
348.70 0.2185703
348.80 0.2165685
348.90 0.2144459
349.00 0.2122144
349.10 0.2100723
349.20 0.2081972
349.30 0.2068443
349.40 0.2064713
349.50 0.2073702
349.60 0.2090958
349.70 0.2105323
349.80 0.2108815
349.90 0.2107844
350.00 0.212245
350.10 0.2170514
350.20 0.2250618
350.30 0.2340247
350.40 0.2411152
350.50 0.2447207
350.60 0.2449719
350.70 0.2429877
350.80 0.239924
350.90 0.2364269
351.00 0.2323824
351.10 0.2269688
351.20 0.2192995
351.30 0.2095633
351.40 0.1996476
351.50 0.1922309
351.60 0.1888853
351.70 0.1889678
351.80 0.1903675
351.90 0.1912646
352.00 0.1911476
352.10 0.1903854
352.20 0.1894071
352.30 0.1885847
352.40 0.1887172
352.50 0.1912681
352.60 0.1975625
352.70 0.2074161
352.80 0.2186118
352.90 0.2281371
353.00 0.2344024
353.10 0.2382563
353.20 0.2416844
353.30 0.2457875
353.40 0.2502971
353.50 0.2546737
353.60 0.2590271
353.70 0.2637731
353.80 0.2689049
353.90 0.2739662
354.00 0.27836
354.10 0.281311
354.20 0.2818837
354.30 0.2797045
354.40 0.27577
354.50 0.2721086
354.60 0.2702648
354.70 0.2701607
354.80 0.270523
354.90 0.2702196
355.00 0.2690391
355.10 0.2674363
355.20 0.2658953
355.30 0.2646403
355.40 0.2637796
355.50 0.2633602
355.60 0.263117
355.70 0.262308
355.80 0.2600594
355.90 0.2560926
356.00 0.2510552
356.10 0.2459948
356.20 0.2414608
356.30 0.2370659
356.40 0.2319106
356.50 0.2255608
356.60 0.2187601
356.70 0.2131635
356.80 0.2101839
356.90 0.2099483
357.00 0.2113084
357.10 0.2127286
357.20 0.2130889
357.30 0.2119118
357.40 0.209223
357.50 0.2053997
357.60 0.2010612
357.70 0.196852
357.80 0.1931795
357.90 0.1901229
358.00 0.1876589
358.10 0.186057
358.20 0.185984
358.30 0.188067
358.40 0.1922638
358.50 0.1976366
358.60 0.2027146
358.70 0.2061241
358.80 0.2071605
358.90 0.2061289
359.00 0.2043659
359.10 0.203738
359.20 0.2056146
359.30 0.2099122
359.40 0.2149858
359.50 0.2186582
359.60 0.2196962
359.70 0.2185759
359.80 0.2169435
359.90 0.2162237
360.00 0.2164883
360.10 0.2164585
360.20 0.2145972
360.30 0.2103427
360.40 0.2045817
360.50 0.1992058
360.60 0.1962348
360.70 0.1970128
360.80 0.2016022
360.90 0.2086425
361.00 0.2160187
361.10 0.2220651
361.20 0.226354
361.30 0.2293693
361.40 0.2315296
361.50 0.2327443
361.60 0.232991
361.70 0.2329419
361.80 0.233599
361.90 0.2352765
362.00 0.2372254
362.10 0.2384187
362.20 0.2384951
362.30 0.2378623
362.40 0.2372038
362.50 0.2370902
362.60 0.2377114
362.70 0.2385489
362.80 0.2384684
362.90 0.236622
363.00 0.2334359
363.10 0.2304847
363.20 0.2292221
363.30 0.2298976
363.40 0.2316622
363.50 0.2334576
363.60 0.2346968
363.70 0.2353219
363.80 0.2354521
363.90 0.2350385
364.00 0.2337782
364.10 0.2313255
364.20 0.2276411
364.30 0.223188
364.40 0.2188337
364.50 0.2155675
364.60 0.2141184
364.70 0.2145481
364.80 0.2161633
364.90 0.2180397
365.00 0.2198663
365.10 0.2222597
365.20 0.2260038
365.30 0.230883
365.40 0.2353979
365.50 0.2378036
365.60 0.2375485
365.70 0.2356923
365.80 0.2338848
365.90 0.2330274
366.00 0.2329349
366.10 0.2330879
366.20 0.2334506
366.30 0.2343998
366.40 0.236033
366.50 0.2377897
366.60 0.2387452
366.70 0.2382084
366.80 0.2360818
366.90 0.2328092
367.00 0.2291437
367.10 0.2259406
367.20 0.223977
367.30 0.2237521
367.40 0.2252712
367.50 0.2280016
367.60 0.2311331
367.70 0.2339992
367.80 0.2363536
367.90 0.2383261
368.00 0.2401474
368.10 0.241872
368.20 0.2432805
368.30 0.2439866
368.40 0.243688
368.50 0.2424505
368.60 0.2408266
368.70 0.2396262
368.80 0.2394223
368.90 0.2402017
369.00 0.2415238
369.10 0.2430398
369.20 0.2447316
369.30 0.2465825
369.40 0.248159
369.50 0.2487185
369.60 0.2478521
369.70 0.2459868
369.80 0.2442361
369.90 0.2437694
370.00 0.2452047
370.10 0.2483666
370.20 0.2524846
370.30 0.2566079
370.40 0.2599331
370.50 0.261939
370.60 0.2624452
370.70 0.2617548
370.80 0.2606732
370.90 0.2601483
371.00 0.2606559
371.10 0.2618046
371.20 0.2624843
371.30 0.2614403
371.40 0.2579735
371.50 0.2524052
371.60 0.2460296
371.70 0.2405084
371.80 0.2371118
371.90 0.2363073
372.00 0.2377978
372.10 0.2406088
372.20 0.2430197
372.30 0.2428643
372.40 0.238532
372.50 0.2302307
372.60 0.2203674
372.70 0.2124705
372.80 0.2093922
372.90 0.2120594
373.00 0.2194041
373.10 0.2291396
373.20 0.2387081
373.30 0.2459738
373.40 0.2496499
373.50 0.2493905
373.60 0.2455546
373.70 0.2388635
373.80 0.2302481
373.90 0.2209339
374.00 0.2124572
374.10 0.2063986
374.20 0.2039805
374.30 0.2058515
374.40 0.2121371
374.50 0.2224848
374.60 0.2359342
374.70 0.2507333
374.80 0.2644491
374.90 0.2745845
375.00 0.2794356
375.10 0.2786395
375.20 0.2731151
375.30 0.2645846
375.40 0.2550451
375.50 0.2463489
375.60 0.2397628
375.70 0.2356284
375.80 0.2333834
375.90 0.2320277
376.00 0.2308177
376.10 0.2298117
376.20 0.2299872
376.30 0.2328361
376.40 0.2396369
376.50 0.2509044
376.60 0.2663762
376.70 0.2851817
376.80 0.305722
376.90 0.3253348
377.00 0.3405125
377.10 0.3481039
377.20 0.3467557
377.30 0.3374377
377.40 0.3227293
377.50 0.3055997
377.60 0.2885591
377.70 0.2734143
377.80 0.2612042
377.90 0.2521451
378.00 0.2457605
378.10 0.2412934
378.20 0.2381494
378.30 0.2360078
378.40 0.234646
378.50 0.2338805
378.60 0.2337403
378.70 0.2345636
378.80 0.2368519
378.90 0.2411677
379.00 0.2483031
379.10 0.2593792
379.20 0.2753793
379.30 0.2962897
379.40 0.3205663
379.50 0.3453578
379.60 0.3671629
379.70 0.3825285
379.80 0.388831
379.90 0.3850932
380.00 0.3724854
380.10 0.3539837
380.20 0.333236
380.30 0.313312
380.40 0.2960571
380.50 0.2821391
380.60 0.2714109
380.70 0.2632222
380.80 0.2566509
380.90 0.2509036
381.00 0.245706
381.10 0.2412921
381.20 0.2379328
381.30 0.2354917
381.40 0.2335572
381.50 0.2320247
381.60 0.2313253
381.70 0.2318777
381.80 0.2333161
381.90 0.2344133
382.00 0.2339738
382.10 0.231883
382.20 0.2292751
382.30 0.2281468
382.40 0.2320055
382.50 0.247563
382.60 0.2807028
382.70 0.3219007
382.80 0.3443147
382.90 0.3297383
383.00 0.2964728
383.10 0.290258
383.20 0.335793
383.30 0.4083914
383.40 0.462532
383.50 0.4799965
383.60 0.4785941
383.70 0.478328
383.80 0.4729951
383.90 0.4440811
384.00 0.3930896
384.10 0.3435785
384.20 0.3155224
384.30 0.3058936
384.40 0.2980143
384.50 0.2818056
384.60 0.2583629
384.70 0.2338297
384.80 0.2152554
384.90 0.2089297
385.00 0.2189155
385.10 0.2432461
385.20 0.2692304
385.30 0.2785586
385.40 0.2597903
385.50 0.2203878
385.60 0.1817639
385.70 0.159327
385.80 0.1539056
385.90 0.1619786
386.00 0.187372
386.10 0.2368361
386.20 0.3051355
386.30 0.3658845
386.40 0.3857861
386.50 0.3552698
386.60 0.304904
386.70 0.2823745
386.80 0.3051887
386.90 0.3436604
387.00 0.3554639
387.10 0.3304821
387.20 0.293945
387.30 0.2736991
387.40 0.2740994
387.50 0.2811354
387.60 0.2847326
387.70 0.291037
387.80 0.3124355
387.90 0.3452829
388.00 0.3645522
388.10 0.3496791
388.20 0.3114064
388.30 0.2795939
388.40 0.2677473
388.50 0.2640383
388.60 0.2580987
388.70 0.2601397
388.80 0.2856839
388.90 0.3345994
389.00 0.391096
389.10 0.4355248
389.20 0.4545483
389.30 0.4486198
389.40 0.4360046
389.50 0.4402596
389.60 0.4650111
389.70 0.4874212
389.80 0.4813561
389.90 0.4432512
390.00 0.3928583
390.10 0.3503392
390.20 0.3217139
390.30 0.3083608
390.40 0.3146133
390.50 0.3358368
390.60 0.3475901
390.70 0.3235637
390.80 0.2685079
390.90 0.2214524
391.00 0.2172289
391.10 0.2532463
391.20 0.2987033
391.30 0.3268923
391.40 0.3328878
391.50 0.3238705
391.60 0.3050968
391.70 0.2792836
391.80 0.2532706
391.90 0.2367788
392.00 0.2332555
392.10 0.2396889
392.20 0.2546917
392.30 0.2793322
392.40 0.3060578
392.50 0.3147763
392.60 0.2902666
392.70 0.23987
392.80 0.1886815
392.90 0.1598492
393.00 0.1615759
393.10 0.1860745
393.20 0.2137776
393.30 0.221864
393.40 0.1984398
393.50 0.1557419
393.60 0.1229211
393.70 0.1240266
393.80 0.1621315
393.90 0.2224354
394.00 0.2867019
394.10 0.337832
394.20 0.35857
394.30 0.3375629
394.40 0.2827987
394.50 0.2268565
394.60 0.2097194
394.70 0.2466714
394.80 0.3116617
394.90 0.3586166
395.00 0.3626985
395.10 0.3394929
395.20 0.3187529
395.30 0.312353
395.40 0.3149268
395.50 0.3213975
395.60 0.3276405
395.70 0.3227114
395.80 0.2993024
395.90 0.2708437
396.00 0.2625852
396.10 0.284049
396.20 0.3207572
396.30 0.3499727
396.40 0.3573511
396.50 0.3424772
396.60 0.3183787
396.70 0.3050667
396.80 0.3150313
396.90 0.3389124
397.00 0.349235
397.10 0.3240146
397.20 0.2693749
397.30 0.2186491
397.40 0.2048137
397.50 0.2328922
397.60 0.280908
397.70 0.3254926
397.80 0.3621359
397.90 0.4000778
398.00 0.4423238
398.10 0.4778544
398.20 0.492642
398.30 0.4851819
398.40 0.4670808
398.50 0.4507874
398.60 0.4388214
398.70 0.4229367
398.80 0.3942782
398.90 0.356294
399.00 0.3303123
399.10 0.3385478
399.20 0.3819365
399.30 0.4399392
399.40 0.4916836
399.50 0.5272846
399.60 0.539734
399.70 0.5249698
399.80 0.4958176
399.90 0.4812473
400.00 0.4959457
400.10 0.5203171
400.20 0.5229229
400.30 0.4978072
400.40 0.4696594
400.50 0.4631455
400.60 0.4754449
400.70 0.482437
400.80 0.4670618
400.90 0.4366357
401.00 0.4156585
401.10 0.4218148
401.20 0.4498219
401.30 0.4784776
401.40 0.4920874
401.50 0.4943499
401.60 0.497831
401.70 0.5044839
401.80 0.5026533
401.90 0.4846496
402.00 0.4610638
402.10 0.4531632
402.20 0.4726771
402.30 0.5119664
402.40 0.5505244
402.50 0.5687781
402.60 0.5597367
402.70 0.5292044
402.80 0.4867792
402.90 0.4381716
403.00 0.386119
403.10 0.3371472
403.20 0.3006608
403.30 0.2798301
403.40 0.270627
403.50 0.2700172
403.60 0.2843262
403.70 0.3256555
403.80 0.3955072
403.90 0.4732243
404.00 0.5266059
404.10 0.5370101
404.20 0.5106905
404.30 0.4649018
404.40 0.412208
404.50 0.3647806
404.60 0.3382983
404.70 0.3398162
404.80 0.3587312
404.90 0.3801779
405.00 0.4013629
405.10 0.4267027
405.20 0.4533748
405.30 0.4716121
405.40 0.4767758
405.50 0.4722548
405.60 0.462894
405.70 0.4504966
405.80 0.435906
405.90 0.4229608
406.00 0.4160138
406.10 0.4138748
406.20 0.4095908
406.30 0.398288
406.40 0.3833311
406.50 0.3708783
406.60 0.3635817
406.70 0.3627213
406.80 0.3704599
406.90 0.3826327
407.00 0.3850154
407.10 0.3660214
407.20 0.331808
407.30 0.3020652
407.40 0.2904363
407.50 0.2961423
407.60 0.3129829
407.70 0.3374944
407.80 0.3676608
407.90 0.4020285
408.00 0.4436767
408.10 0.4956566
408.20 0.5486409
408.30 0.5824495
408.40 0.5862594
408.50 0.5735199
408.60 0.5676286
408.70 0.5782286
408.80 0.5952008
408.90 0.6014224
409.00 0.587462
409.10 0.5576975
409.20 0.5277112
409.30 0.5128837
409.40 0.5164046
409.50 0.5265514
409.60 0.5268427
409.70 0.5088924
409.80 0.4804519
409.90 0.4610198
410.00 0.4651591
410.10 0.4866387
410.20 0.5034542
410.30 0.5048196
410.40 0.5050007
410.50 0.5231478
410.60 0.5562779
410.70 0.583108
410.80 0.5910936
410.90 0.5883053
411.00 0.5860801
411.10 0.5827555
411.20 0.57055
411.30 0.5518143
411.40 0.5394286
411.50 0.5393121
411.60 0.5403613
411.70 0.526077
411.80 0.4961401
411.90 0.4737733
412.00 0.4848017
412.10 0.5310294
412.20 0.5861726
412.30 0.6179693
412.40 0.6157962
412.50 0.5968175
412.60 0.5844437
412.70 0.5839017
412.80 0.5821589
412.90 0.5671045
413.00 0.5415974
413.10 0.515323
413.20 0.491065
413.30 0.4674872
413.40 0.4470255
413.50 0.43294
413.60 0.4212126
413.70 0.4046556
413.80 0.3867735
413.90 0.3817953
414.00 0.3956233
414.10 0.4139387
414.20 0.4161546
414.30 0.3976078
414.40 0.3742225
414.50 0.3655427
414.60 0.3783355
414.70 0.4055849
414.80 0.4353183
414.90 0.4566504
415.00 0.4613501
415.10 0.4476444
415.20 0.4264277
415.30 0.419284
415.40 0.4407286
415.50 0.4806696
415.60 0.5125808
415.70 0.5226087
415.80 0.5232592
415.90 0.5330826
416.00 0.5518515
416.10 0.5643427
416.20 0.5633762
416.30 0.5559355
416.40 0.5473391
416.50 0.5314454
416.60 0.5019183
416.70 0.4664277
416.80 0.4417981
416.90 0.4369802
417.00 0.4456207
417.10 0.4543443
417.20 0.4543892
417.30 0.4456116
417.40 0.4339289
417.50 0.4293041
417.60 0.440597
417.70 0.4674465
417.80 0.4977929
417.90 0.5158169
418.00 0.5124343
418.10 0.4889003
418.20 0.4555767
418.30 0.4273457
418.40 0.4147298
418.50 0.414117
418.60 0.4116201
418.70 0.4015787
418.80 0.3971703
418.90 0.4149641
419.00 0.4515499
419.10 0.4859859
419.20 0.5056898
419.30 0.5212452
419.40 0.5485211
419.50 0.5819396
419.60 0.5960145
419.70 0.5740901
419.80 0.5270025
419.90 0.4792191
420.00 0.444642
420.10 0.4216232
420.20 0.4053557
420.30 0.3963212
420.40 0.3960691
420.50 0.4036959
420.60 0.4195358
420.70 0.4430695
420.80 0.4653556
420.90 0.4720318
421.00 0.4590714
421.10 0.4423414
421.20 0.4451561
421.30 0.4732601
421.40 0.5064018
421.50 0.5150596
421.60 0.4829705
421.70 0.4178883
421.80 0.3444671
421.90 0.2870737
422.00 0.2563577
422.10 0.2475197
422.20 0.2482496
422.30 0.2477949
422.40 0.2401642
422.50 0.2241856
422.60 0.2053586
422.70 0.1941875
422.80 0.1976158
422.90 0.2135131
423.00 0.2336177
423.10 0.2504945
423.20 0.2610557
423.30 0.2665482
423.40 0.2705901
423.50 0.2750463
423.60 0.2771575
423.70 0.2744021
423.80 0.273684
423.90 0.2883876
424.00 0.3234565
424.10 0.3678852
424.20 0.4049882
424.30 0.4281309
424.40 0.4420021
424.50 0.450456
424.60 0.4514596
424.70 0.4434123
424.80 0.4284544
424.90 0.4083149
425.00 0.3823581
425.10 0.3530821
425.20 0.331019
425.30 0.3278562
425.40 0.3460302
425.50 0.3778683
425.60 0.4100006
425.70 0.4298939
425.80 0.4325044
425.90 0.4236106
426.00 0.4168034
426.10 0.4231734
426.20 0.442557
426.30 0.465012
426.40 0.4804717
426.50 0.4850559
426.60 0.4816072
426.70 0.4768376
426.80 0.4767949
426.90 0.4823044
427.00 0.4859213
427.10 0.4776178
427.20 0.4567731
427.30 0.434638
427.40 0.4228161
427.50 0.4230955
427.60 0.4300734
427.70 0.4391153
427.80 0.4480804
427.90 0.4527012
428.00 0.4473843
428.10 0.4314926
428.20 0.4108841
428.30 0.3929531
428.40 0.3815157
428.50 0.3776128
428.60 0.3823914
428.70 0.3938295
428.80 0.4023213
428.90 0.3964247
429.00 0.3747373
429.10 0.3484691
429.20 0.3322842
429.30 0.33575
429.40 0.3610539
429.50 0.4009101
429.60 0.4368914
429.70 0.4501526
429.80 0.4389049
429.90 0.4203874
430.00 0.412104
430.10 0.415418
430.20 0.4202931
430.30 0.4214182
430.40 0.4231542
430.50 0.4291801
430.60 0.4330853
430.70 0.4231487
430.80 0.3971066
430.90 0.3681406
431.00 0.3536286
431.10 0.3597043
431.20 0.3810778
431.30 0.4139356
431.40 0.4592397
431.50 0.510138
431.60 0.5462261
431.70 0.5505772
431.80 0.5299329
431.90 0.5096712
432.00 0.5068391
432.10 0.5149452
432.20 0.5181338
432.30 0.5122869
432.40 0.5069184
432.50 0.5106769
432.60 0.5206077
432.70 0.5262201
432.80 0.5215728
432.90 0.5110458
433.00 0.5054159
433.10 0.5133606
433.20 0.5340279
433.30 0.5573814
433.40 0.5711063
433.50 0.5675256
433.60 0.5459746
433.70 0.5122123
433.80 0.4776146
433.90 0.4570083
434.00 0.4619388
434.10 0.4899898
434.20 0.5234102
434.30 0.5414539
434.40 0.5356243
434.50 0.5132415
434.60 0.4899352
434.70 0.480353
434.80 0.4917329
434.90 0.5201479
435.00 0.549577
435.10 0.5613385
435.20 0.5482949
435.30 0.5203001
435.40 0.4959563
435.50 0.487072
435.60 0.4897248
435.70 0.4906805
435.80 0.482561
435.90 0.4707563
436.00 0.465778
436.10 0.4725919
436.20 0.4905424
436.30 0.5203723
436.40 0.5628923
436.50 0.6093197
436.60 0.6417635
436.70 0.6471089
436.80 0.6280078
436.90 0.5984576
437.00 0.5723417
437.10 0.5574001
437.20 0.5555847
437.30 0.5637379
437.40 0.5732126
437.50 0.5747328
437.60 0.5657143
437.70 0.5528872
437.80 0.5471285
437.90 0.5534846
438.00 0.5642099
438.10 0.5622568
438.20 0.5356238
438.30 0.4908345
438.40 0.4534245
438.50 0.4488973
438.60 0.4803394
438.70 0.5266711
438.80 0.5623274
438.90 0.5782113
439.00 0.5818525
439.10 0.5825339
439.20 0.5827846
439.30 0.5810972
439.40 0.5762208
439.50 0.5678796
439.60 0.5578142
439.70 0.5533213
439.80 0.5634708
439.90 0.5874566
440.00 0.6101925
440.10 0.6134059
440.20 0.5929842
440.30 0.5635814
440.40 0.5448626
440.50 0.5451615
440.60 0.5593326
440.70 0.5783475
440.80 0.5983231
440.90 0.6178683
441.00 0.6316756
441.10 0.6342053
441.20 0.6270994
441.30 0.618817
441.40 0.6144706
441.50 0.6112882
441.60 0.6082997
441.70 0.6134103
441.80 0.6344147
441.90 0.6661915
442.00 0.6919193
442.10 0.6983275
442.20 0.6861944
442.30 0.6654256
442.40 0.6449671
442.50 0.6296645
442.60 0.6228359
442.70 0.6265072
442.80 0.6392922
442.90 0.6553014
443.00 0.6688474
443.10 0.6792724
443.20 0.6887311
443.30 0.6966372
443.40 0.6972182
443.50 0.6852629
443.60 0.6648301
443.70 0.6497662
443.80 0.6514959
443.90 0.6673767
444.00 0.68473
444.10 0.6962545
444.20 0.7081344
444.30 0.7304975
444.40 0.7640987
444.50 0.7978344
444.60 0.8172992
444.70 0.8155595
444.80 0.7985395
444.90 0.7812314
445.00 0.7754471
445.10 0.7772142
445.20 0.7680097
445.30 0.7322696
445.40 0.6759575
445.50 0.6268897
445.60 0.6135156
445.70 0.6410927
445.80 0.6874475
445.90 0.7233281
446.00 0.7376168
446.10 0.7428356
446.20 0.7564659
446.30 0.7807074
446.40 0.8034252
446.50 0.8157645
446.60 0.82086
446.70 0.8243665
446.80 0.8260496
446.90 0.8231055
447.00 0.816833
447.10 0.8112732
447.20 0.8071749
447.30 0.8040482
447.40 0.80623
447.50 0.8207251
447.60 0.8471753
447.70 0.8725892
447.80 0.8796255
447.90 0.8628575
448.00 0.8350761
448.10 0.815596
448.20 0.8143632
448.30 0.8260228
448.40 0.8384545
448.50 0.8450173
448.60 0.8475128
448.70 0.8507189
448.80 0.8560867
448.90 0.8612177
449.00 0.8648417
449.10 0.8696596
449.20 0.8783358
449.30 0.8876384
449.40 0.8886914
449.50 0.8752266
449.60 0.8521077
449.70 0.8337714
449.80 0.832768
449.90 0.8494929
450.00 0.8728924
450.10 0.8921598
450.20 0.9068296
450.30 0.9226831
450.40 0.9389431
450.50 0.9433682
450.60 0.9239685
450.70 0.8847918
450.80 0.8464421
450.90 0.8303707
451.00 0.8418528
451.10 0.8664446
451.20 0.8820544
451.30 0.8775689
451.40 0.8623042
451.50 0.8558819
451.60 0.8690036
451.70 0.895128
451.80 0.920874
451.90 0.9397441
452.00 0.9530421
452.10 0.9632113
452.20 0.970796
452.30 0.9738765
452.40 0.9654943
452.50 0.9355995
452.60 0.8816973
452.70 0.8189935
452.80 0.7739531
452.90 0.7637727
453.00 0.7837478
453.10 0.8111527
453.20 0.8201201
453.30 0.7978006
453.40 0.753211
453.50 0.7136946
453.60 0.7083434
453.70 0.7488314
453.80 0.8216197
453.90 0.8981305
454.00 0.9549572
454.10 0.9869018
454.20 1.001583
454.30 1.003813
454.40 0.9912751
454.50 0.9641734
454.60 0.9311636
454.70 0.9013067
454.80 0.8768449
454.90 0.859299
455.00 0.8548567
455.10 0.8667214
455.20 0.8849227
455.30 0.8937272
455.40 0.8906667
455.50 0.8925616
455.60 0.9181816
455.70 0.9667591
455.80 1.017249
455.90 1.048486
456.00 1.058517
456.10 1.062023
456.20 1.072305
456.30 1.090326
456.40 1.110704
456.50 1.131786
456.60 1.154691
456.70 1.1749
456.80 1.181771
456.90 1.168852
457.00 1.140817
457.10 1.109712
457.20 1.08726
457.30 1.080766
457.40 1.091537
457.50 1.111625
457.60 1.12456
457.70 1.116103
457.80 1.086449
457.90 1.050756
458.00 1.02849
458.10 1.030559
458.20 1.051047
458.30 1.068635
458.40 1.060038
458.50 1.018498
458.60 0.9605733
458.70 0.9129433
458.80 0.8922042
458.90 0.8971565
459.00 0.9163143
459.10 0.9391428
459.20 0.9617442
459.30 0.984802
459.40 1.007529
459.50 1.026078
459.60 1.037467
459.70 1.042168
459.80 1.041754
459.90 1.035564
460.00 1.022819
460.10 1.007917
460.20 0.999262
460.30 1.001056
460.40 1.009144
460.50 1.015946
460.60 1.019736
460.70 1.026994
460.80 1.044556
460.90 1.071461
461.00 1.100337
461.10 1.125477
461.20 1.145654
461.30 1.159977
461.40 1.16615
461.50 1.165019
461.60 1.164164
461.70 1.173629
461.80 1.197642
461.90 1.232051
462.00 1.26577
462.10 1.283723
462.20 1.274919
462.30 1.240375
462.40 1.191988
462.50 1.142695
462.60 1.098802
462.70 1.063795
462.80 1.044112
462.90 1.043866
463.00 1.056434
463.10 1.066855
463.20 1.064613
463.30 1.052364
463.40 1.039611
463.50 1.030335
463.60 1.021547
463.70 1.013532
463.80 1.014707
463.90 1.031328
464.00 1.05586
464.10 1.072617
464.20 1.074604
464.30 1.06813
464.40 1.05897
464.50 1.042072
464.60 1.011907
464.70 0.9775735
464.80 0.9596081
464.90 0.9689475
465.00 0.9937156
465.10 1.011716
465.20 1.014598
465.30 1.015129
465.40 1.028882
465.50 1.054642
465.60 1.079361
465.70 1.098949
465.80 1.123808
465.90 1.160598
466.00 1.197151
466.10 1.212348
466.20 1.197858
466.30 1.166396
466.40 1.140823
466.50 1.136236
466.60 1.148226
466.70 1.15704
466.80 1.144242
466.90 1.107138
467.00 1.057311
467.10 1.006863
467.20 0.9631401
467.30 0.9345031
467.40 0.931093
467.50 0.9563669
467.60 1.000632
467.70 1.045281
467.80 1.073458
467.90 1.077139
468.00 1.058456
468.10 1.029207
468.20 1.004454
468.30 0.9938403
468.40 0.9985778
468.50 1.013612
468.60 1.032756
468.70 1.052874
468.80 1.073506
468.90 1.093706
469.00 1.10997
469.10 1.118258
469.20 1.120363
469.30 1.123432
469.40 1.130362
469.50 1.135202
469.60 1.131099
469.70 1.120651
469.80 1.114071
469.90 1.116079
470.00 1.119911
470.10 1.116994
470.20 1.108947
470.30 1.108041
470.40 1.124206
470.50 1.15142
470.60 1.170311
470.70 1.16777
470.80 1.152843
470.90 1.148231
471.00 1.164674
471.10 1.187538
471.20 1.19076
471.30 1.16086
471.40 1.10675
471.50 1.050729
471.60 1.013158
471.70 1.002641
471.80 1.015355
471.90 1.040724
472.00 1.066647
472.10 1.083332
472.20 1.086428
472.30 1.078875
472.40 1.069556
472.50 1.066826
472.60 1.071587
472.70 1.077221
472.80 1.077719
472.90 1.076531
473.00 1.084354
473.10 1.105173
473.20 1.128642
473.30 1.14035
473.40 1.137502
473.50 1.129525
473.60 1.124344
473.70 1.121374
473.80 1.118528
473.90 1.118566
474.00 1.125445
474.10 1.137869
474.20 1.150294
474.30 1.159198
474.40 1.166823
474.50 1.178549
474.60 1.195958
474.70 1.213231
474.80 1.222894
474.90 1.224757
475.00 1.224791
475.10 1.226144
475.20 1.225532
475.30 1.219923
475.40 1.21122
475.50 1.202199
475.60 1.191473
475.70 1.174415
475.80 1.148179
475.90 1.113592
476.00 1.073013
476.10 1.027931
476.20 0.9796585
476.30 0.9328119
476.40 0.8954012
476.50 0.8732456
476.60 0.8659519
476.70 0.8678223
476.80 0.8705829
476.90 0.866352
477.00 0.8524142
477.10 0.8353028
477.20 0.8275048
477.30 0.8368485
477.40 0.8594558
477.50 0.8832952
477.60 0.8963658
477.70 0.8928152
477.80 0.8747081
477.90 0.8498046
478.00 0.8265868
478.10 0.8107274
478.20 0.8054233
478.30 0.8131853
478.40 0.8348595
478.50 0.8656742
478.60 0.8956198
478.70 0.9161491
478.80 0.9254258
478.90 0.9268036
479.00 0.9242669
479.10 0.921662
479.20 0.925271
479.30 0.9412478
479.40 0.96805
479.50 0.9954758
479.60 1.013897
479.70 1.022809
479.80 1.029319
479.90 1.040085
480.00 1.057473
480.10 1.080272
480.20 1.102334
480.30 1.112553
480.40 1.101038
480.50 1.066553
480.60 1.016492
480.70 0.9609556
480.80 0.910289
480.90 0.8760166
481.00 0.8664389
481.10 0.8794784
481.20 0.9036714
481.30 0.9275549
481.40 0.9465397
481.50 0.9601339
481.60 0.9675115
481.70 0.9691262
481.80 0.9691288
481.90 0.972911
482.00 0.9827962
482.10 0.9969287
482.20 1.011835
482.30 1.022715
482.40 1.022745
482.50 1.008455
482.60 0.9872069
482.70 0.9754972
482.80 0.9844281
482.90 1.007117
483.00 1.02578
483.10 1.031551
483.20 1.032089
483.30 1.038367
483.40 1.048639
483.50 1.051801
483.60 1.04585
483.70 1.043596
483.80 1.056737
483.90 1.079973
484.00 1.095652
484.10 1.09303
484.20 1.077431
484.30 1.061168
484.40 1.052116
484.50 1.051551
484.60 1.056962
484.70 1.064047
484.80 1.067412
484.90 1.06288
485.00 1.0499
485.10 1.030648
485.20 1.008349
485.30 0.9867631
485.40 0.9697885
485.50 0.9602906
485.60 0.9590376
485.70 0.9646047
485.80 0.9744053
485.90 0.9848446
486.00 0.9913115
486.10 0.989472
486.20 0.978347
486.30 0.9635748
486.40 0.9550378
486.50 0.9595783
486.60 0.9761459
486.70 0.9984649
486.80 1.021087
486.90 1.041233
487.00 1.055954
487.10 1.061368
487.20 1.056463
487.30 1.045902
487.40 1.037753
487.50 1.037547
487.60 1.044863
487.70 1.055715
487.80 1.066925
487.90 1.077167
488.00 1.085685
488.10 1.091541
488.20 1.093585
488.30 1.091462
488.40 1.088137
488.50 1.091628
488.60 1.109782
488.70 1.139481
488.80 1.164811
488.90 1.17143
489.00 1.160563
489.10 1.145545
489.20 1.136408
489.30 1.131581
489.40 1.124128
489.50 1.111631
489.60 1.09895
489.70 1.093867
489.80 1.100021
489.90 1.112511
490.00 1.121488
490.10 1.121411
490.20 1.117219
490.30 1.120559
490.40 1.140879
490.50 1.179899
490.60 1.231381
490.70 1.283051
490.80 1.320129
490.90 1.332616
491.00 1.32221
491.10 1.301125
491.20 1.282265
491.30 1.271505
491.40 1.269222
491.50 1.275574
491.60 1.289494
491.70 1.303422
491.80 1.305179
491.90 1.288708
492.00 1.262867
492.10 1.247183
492.20 1.256964
492.30 1.291359
492.40 1.33515
492.50 1.372339
492.60 1.398794
492.70 1.421401
492.80 1.446401
492.90 1.472344
493.00 1.492586
493.10 1.501354
493.20 1.496902
493.30 1.481866
493.40 1.463176
493.50 1.448397
493.60 1.439343
493.70 1.430576
493.80 1.415598
493.90 1.394572
494.00 1.377449
494.10 1.378667
494.20 1.405395
494.30 1.448465
494.40 1.486938
494.50 1.505789
494.60 1.50843
494.70 1.509489
494.80 1.518097
494.90 1.532579
495.00 1.548183
495.10 1.560893
495.20 1.560334
495.30 1.525331
495.40 1.435191
495.50 1.289778
495.60 1.117155
495.70 0.9597526
495.80 0.8515963
495.90 0.8042734
496.00 0.8082098
496.10 0.8422313
496.20 0.8827802
496.30 0.9116227
496.40 0.9225977
496.50 0.922623
496.60 0.9246349
496.70 0.9374641
496.80 0.961142
496.90 0.990298
497.00 1.020125
497.10 1.049021
497.20 1.077477
497.30 1.105493
497.40 1.131107
497.50 1.151959
497.60 1.167797
497.70 1.179921
497.80 1.185204
497.90 1.172579
498.00 1.132346
498.10 1.072763
498.20 1.022969
498.30 1.012203
498.40 1.044366
498.50 1.096466
498.60 1.140712
498.70 1.163938
498.80 1.1695
498.90 1.168975
499.00 1.174158
499.10 1.18966
499.20 1.208527
499.30 1.218543
499.40 1.216684
499.50 1.213332
499.60 1.208101
499.70 1.164914
499.80 1.029017
499.90 0.7829923
500.00 1
500.10 0.8853276
500.20 1.008274
500.30 1.064399
500.40 1.021603
500.50 0.9537875
500.60 1.033032
500.70 1.06453
500.80 0.9396963
500.90 0.8019099
501.00 0.916746
501.10 1.128527
501.20 1.151735
501.30 1.008061
501.40 0.9678175
501.50 1.023698
501.60 1.032492
501.70 0.9916905
501.80 0.9765569
501.90 1.014797
502.00 1.157207
502.10 1.220524
502.20 1.083407
502.30 0.9966914
502.40 0.9748523
502.50 1.011752
502.60 1.11205
502.70 1.072826
502.80 1.047192
502.90 1.100427
503.00 1.061755
503.10 1.122235
503.20 1.16355
503.30 1.164344
503.40 1.162939
503.50 1.137399
503.60 1.173977
503.70 1.144022
503.80 1.111938
503.90 1.075145
504.00 1.026083
504.10 0.9362114
504.20 1.002848
504.30 1.084494
504.40 1.139627
504.50 1.237424
504.60 1.230192
504.70 1.29262
504.80 1.36432
504.90 1.287897
505.00 1.131196
505.10 1.150897
505.20 1.132969
505.30 1.082686
505.40 1.168216
505.50 1.230055
505.60 1.12854
505.70 1.159727
505.80 1.282409
505.90 1.324213
506.00 1.296678
506.10 1.278594
506.20 1.276062
506.30 1.224267
506.40 1.155565
506.50 1.143102
506.60 1.128201
506.70 1.125936
506.80 1.149513
506.90 1.145629
507.00 1.095537
507.10 1.120828
507.20 1.242119
507.30 1.22349
507.40 1.162844
507.50 1.230805
507.60 1.260754
507.70 1.230486
507.80 1.144621
507.90 1.135429
508.00 1.141735
508.10 1.133827
508.20 1.154604
508.30 1.164678
508.40 1.123529
508.50 1.170951
508.60 1.245174
508.70 1.222126
508.80 1.239857
508.90 1.31708
509.00 1.269197
509.10 1.189918
509.20 1.270195
509.30 1.326042
509.40 1.351514
509.50 1.2497
509.60 1.086392
509.70 1.13367
509.80 1.252364
509.90 1.270532
510.00 1.23839
510.10 1.220544
510.20 1.248808
510.30 1.231354
510.40 1.206312
510.50 1.183704
510.60 1.10184
510.70 1.128485
510.80 1.223481
510.90 1.207846
511.00 1.180723
511.10 1.17667
511.20 1.192294
511.30 1.14505
511.40 1.250736
511.50 1.398671
511.60 1.347959
511.70 1.329598
511.80 1.424243
511.90 1.482177
512.00 1.345581
512.10 1.295742
512.20 1.314397
512.30 1.317479
512.40 1.255847
512.50 1.203005
512.60 1.257112
512.70 1.291075
512.80 1.203633
512.90 1.163661
513.00 1.145704
513.10 1.139537
513.20 1.126481
513.30 1.266981
513.40 1.344657
513.50 1.30287
513.60 1.183227
513.70 1.246981
513.80 1.371543
513.90 1.354405
514.00 1.211962
514.10 1.2116
514.20 1.299988
514.30 1.309606
514.40 1.308016
514.50 1.265376
514.60 1.204186
514.70 1.096099
514.80 1.130188
514.90 1.265484
515.00 1.270203
515.10 1.151901
515.20 1.126384
515.30 1.123175
515.40 1.041327
515.50 1.007398
515.60 1.20324
515.70 1.322537
515.80 1.381006
515.90 1.435438
516.00 1.390376
516.10 1.46711
516.20 1.55714
516.30 1.46873
516.40 1.434071
516.50 1.499209
516.60 1.375907
516.70 1.135047
516.80 0.9157289
516.90 0.7668704
517.00 0.7054936
517.10 0.7732877
517.20 0.7119874
517.30 0.6294724
517.40 0.6703752
517.50 0.752877
517.60 0.8597091
517.70 0.9440552
517.80 0.9177137
517.90 0.8988638
518.00 0.8920682
518.10 0.8573965
518.20 0.7918708
518.30 0.727988
518.40 0.7098469
518.50 0.795978
518.60 1.005445
518.70 1.138796
518.80 1.113078
518.90 1.129816
519.00 1.141177
519.10 1.153603
519.20 1.119405
519.30 1.088346
519.40 1.058039
519.50 1.09243
519.60 1.12718
519.70 1.198053
519.80 1.268283
519.90 1.215892
520.00 1.211182
520.10 1.270815
520.20 1.221135
520.30 1.216523
520.40 1.168585
520.50 1.020418
520.60 0.8520985
520.70 0.8106501
520.80 0.8222023
520.90 0.7898071
521.00 0.8065197
521.10 0.8579016
521.20 1.058765
521.30 1.27544
521.40 1.401313
521.50 1.430255
521.60 1.353979
521.70 1.377175
521.80 1.511422
521.90 1.486161
522.00 1.467842
522.10 1.510918
522.20 1.490867
522.30 1.499317
522.40 1.615274
522.50 1.586921
522.60 1.463404
522.70 1.338353
522.80 1.340189
522.90 1.408647
523.00 1.58806
523.10 1.685626
523.20 1.706389
523.30 1.670974
523.40 1.713295
523.50 1.61355
523.60 1.62702
523.70 1.705024
523.80 1.766481
523.90 1.729397
524.00 1.721239
524.10 1.620503
524.20 1.443171
524.30 1.383346
524.40 1.447319
524.50 1.555945
524.60 1.583065
524.70 1.510908
524.80 1.412479
524.90 1.439729
525.00 1.50045
525.10 1.512214
525.20 1.405758
525.30 1.413361
525.40 1.4703
525.50 1.509569
525.60 1.61203
525.70 1.629851
525.80 1.569528
525.90 1.671864
526.00 1.621959
526.10 1.515042
526.20 1.410819
526.30 1.377976
526.40 1.326615
526.50 1.248216
526.60 1.167082
526.70 1.272682
526.80 1.429538
526.90 1.336753
527.00 1.177964
527.10 1.083532
527.20 1.214297
527.30 1.358091
527.40 1.425799
527.50 1.536141
527.60 1.679325
527.70 1.647945
527.80 1.657468
527.90 1.6542
528.00 1.629309
528.10 1.612438
528.20 1.629436
528.30 1.598436
528.40 1.583437
528.50 1.578651
528.60 1.678248
528.70 1.697018
528.80 1.788047
528.90 1.835814
529.00 1.826905
529.10 1.777751
529.20 1.67447
529.30 1.671141
529.40 1.698652
529.50 1.729965
529.60 1.715896
529.70 1.635065
529.80 1.563503
529.90 1.470275
530.00 1.492041
530.10 1.652226
530.20 1.74947
530.30 1.730018
530.40 1.781021
530.50 1.815864
530.60 1.893612
530.70 1.859297
530.80 1.795645
530.90 1.65312
531.00 1.754168
531.10 1.744237
531.20 1.700554
531.30 1.710574
531.40 1.740394
531.50 1.671114
531.60 1.742105
531.70 1.796841
531.80 1.755398
531.90 1.86176
532.00 1.885938
532.10 1.798376
532.20 1.742653
532.30 1.765616
532.40 1.736496
532.50 1.64802
532.60 1.643643
532.70 1.742467
532.80 1.67104
532.90 1.434466
533.00 1.322645
533.10 1.506914
533.20 1.636635
533.30 1.686816
533.40 1.728256
533.50 1.727872
533.60 1.719126
533.70 1.747837
533.80 1.773202
533.90 1.725958
534.00 1.653808
534.10 1.652467
534.20 1.701399
534.30 1.713634
534.40 1.728957
534.50 1.763357
534.60 1.747807
534.70 1.686508
534.80 1.659769
534.90 1.645032
535.00 1.648238
535.10 1.693056
535.20 1.81754
535.30 1.946039
535.40 2.008974
535.50 1.914845
535.60 1.847001
535.70 1.869134
535.80 1.888426
535.90 1.795067
536.00 1.815011
536.10 1.89102
536.20 1.870275
536.30 1.832443
536.40 1.821755
536.50 1.746642
536.60 1.827994
536.70 1.930525
536.80 1.893082
536.90 1.797478
537.00 1.765649
537.10 1.714692
537.20 1.635644
537.30 1.632729
537.40 1.781537
537.50 1.908106
537.60 1.903145
537.70 1.890891
537.80 1.95705
537.90 2.056993
538.00 1.970386
538.10 1.997602
538.20 2.014391
538.30 1.99358
538.40 1.962444
538.50 1.921156
538.60 1.971153
538.70 2.019717
538.80 2.120903
538.90 2.091395
539.00 2.010209
539.10 1.981742
539.20 1.985984
539.30 1.995844
539.40 2.012878
539.50 1.936381
539.60 1.795582
539.70 1.761934
539.80 1.756116
539.90 1.795533
540.00 1.939361
540.10 2.05828
540.20 2.069369
540.30 2.137759
540.40 2.110071
540.50 1.978005
540.60 1.823653
540.70 1.766257
540.80 1.805323
540.90 1.859419
541.00 1.835731
541.10 1.798615
541.20 1.791991
541.30 1.87175
541.40 2.007261
541.50 2.085205
541.60 2.118608
541.70 2.087345
541.80 2.059314
541.90 2.108856
542.00 2.190325
542.10 2.159127
542.20 2.105353
542.30 2.037164
542.40 1.989914
542.50 1.963065
542.60 2.05628
542.70 2.120034
542.80 2.157036
542.90 2.083994
543.00 1.976166
543.10 1.888721
543.20 1.916025
543.30 1.939719
543.40 1.896757
543.50 1.920211
543.60 1.903724
543.70 1.9665
543.80 2.065784
543.90 2.059151
544.00 2.100323
544.10 2.18702
544.20 2.235267
544.30 2.269217
544.40 2.301745
544.50 2.260192
544.60 2.065054
544.70 1.896871
544.80 1.738609
544.90 1.614765
545.00 1.567671
545.10 1.452455
545.20 1.33095
545.30 1.344498
545.40 1.416267
545.50 1.423752
545.60 1.448622
545.70 1.386684
545.80 1.36693
545.90 1.44885
546.00 1.542881
546.10 1.498827
546.20 1.49121
546.30 1.488866
546.40 1.460283
546.50 1.539755
546.60 1.608361
546.70 1.581681
546.80 1.618772
546.90 1.677822
547.00 1.641397
547.10 1.605122
547.20 1.667771
547.30 1.764288
547.40 1.804406
547.50 1.740637
547.60 1.677796
547.70 1.658133
547.80 1.67551
547.90 1.730697
548.00 1.756027
548.10 1.747156
548.20 1.719983
548.30 1.742309
548.40 1.780933
548.50 1.881879
548.60 1.904243
548.70 1.905202
548.80 1.877031
548.90 1.834358
549.00 1.801311
549.10 1.819133
549.20 1.856833
549.30 1.957329
549.40 1.987592
549.50 1.900598
549.60 1.866684
549.70 1.786311
549.80 1.649494
549.90 1.585236
550.00 1.647605
550.10 1.56757
550.20 1.467032
550.30 1.437421
550.40 1.494806
550.50 1.520897
550.60 1.493466
550.70 1.448162
550.80 1.466933
550.90 1.614553
551.00 1.679007
551.10 1.665004
551.20 1.612966
551.30 1.527021
551.40 1.486465
551.50 1.480021
551.60 1.462584
551.70 1.499082
551.80 1.615405
551.90 1.629025
552.00 1.617277
552.10 1.639701
552.20 1.701138
552.30 1.730114
552.40 1.77935
552.50 1.723146
552.60 1.663916
552.70 1.643517
552.80 1.630738
552.90 1.594783
553.00 1.583296
553.10 1.662264
553.20 1.648993
553.30 1.552369
553.40 1.518877
553.50 1.595139
553.60 1.640998
553.70 1.563013
553.80 1.542633
553.90 1.563144
554.00 1.585717
554.10 1.503185
554.20 1.560071
554.30 1.588769
554.40 1.5967
554.50 1.568796
554.60 1.584104
554.70 1.639792
554.80 1.652352
554.90 1.667779
555.00 1.743371
555.10 1.709739
555.20 1.688277
555.30 1.614623
555.40 1.597966
555.50 1.701406
555.60 1.635847
555.70 1.580547
555.80 1.600464
555.90 1.739055
556.00 1.831818
556.10 1.797078
556.20 1.738924
556.30 1.721891
556.40 1.644595
556.50 1.628166
556.60 1.736954
556.70 1.81864
556.80 1.794192
556.90 1.794755
557.00 1.837607
557.10 1.813375
557.20 1.782966
557.30 1.780387
557.40 1.782005
557.50 1.781999
557.60 1.781999
557.70 1.781999
557.80 1.781999
557.90 1.781999
558.00 1.781999
558.10 1.781999
558.20 1.782159
558.30 1.781357
558.40 1.770626
558.50 1.808088
558.60 1.906914
558.70 1.944128
558.80 1.851508
558.90 1.747161
559.00 1.713238
559.10 1.717667
559.20 1.807001
559.30 1.848446
559.40 1.825771
559.50 1.738358
559.60 1.759598
559.70 1.797728
559.80 1.716974
559.90 1.547222
560.00 1.48909
560.10 1.565864
560.20 1.594642
560.30 1.604242
560.40 1.627129
560.50 1.610485
560.60 1.658103
560.70 1.717193
560.80 1.694737
560.90 1.663395
561.00 1.684511
561.10 1.749407
561.20 1.799492
561.30 1.797729
561.40 1.721308
561.50 1.699828
561.60 1.694259
561.70 1.654631
561.80 1.611995
561.90 1.597835
562.00 1.65136
562.10 1.689878
562.20 1.743674
562.30 1.736597
562.40 1.792095
562.50 1.789608
562.60 1.765952
562.70 1.7961
562.80 1.798759
562.90 1.701726
563.00 1.6408
563.10 1.519118
563.20 1.524987
563.30 1.644628
563.40 1.759659
563.50 1.790033
563.60 1.760694
563.70 1.748069
563.80 1.695678
563.90 1.662508
564.00 1.740132
564.10 1.735232
564.20 1.666239
564.30 1.644568
564.40 1.675163
564.50 1.63935
564.60 1.638266
564.70 1.704205
564.80 1.761778
564.90 1.820296
565.00 1.877117
565.10 1.882731
565.20 1.90049
565.30 1.865174
565.40 1.823495
565.50 1.848981
565.60 1.973582
565.70 2.026432
565.80 1.975501
565.90 1.863322
566.00 1.879242
566.10 1.912341
566.20 1.883327
566.30 1.888424
566.40 1.878257
566.50 1.841703
566.60 1.782357
566.70 1.818996
566.80 1.860065
566.90 1.798507
567.00 1.685063
567.10 1.748559
567.20 1.78787
567.30 1.748302
567.40 1.759169
567.50 1.850408
567.60 1.854908
567.70 1.848508
567.80 1.904765
567.90 1.966466
568.00 2.003837
568.10 1.996176
568.20 1.910824
568.30 1.835575
568.40 1.849322
568.50 1.857226
568.60 1.954478
568.70 2.037165
568.80 1.919281
568.90 1.800193
569.00 1.831101
569.10 1.857685
569.20 1.843814
569.30 1.893462
569.40 1.934423
569.50 1.980216
569.60 1.874854
569.70 1.892039
569.80 1.99365
569.90 1.993534
570.00 1.923739
570.10 1.922382
570.20 1.97057
570.30 2.042406
570.40 2.043168
570.50 1.949078
570.60 1.981302
570.70 2.147671
570.80 2.109588
570.90 2.022636
571.00 2.030311
571.10 2.035469
571.20 2.045524
571.30 2.185439
571.40 2.241142
571.50 2.145434
571.60 2.128215
571.70 2.143877
571.80 2.135939
571.90 2.125681
572.00 2.054296
572.10 2.009325
572.20 2.117981
572.30 2.180993
572.40 2.107505
572.50 2.06129
572.60 2.09341
572.70 2.120073
572.80 2.02058
572.90 2.006426
573.00 2.08621
573.10 2.12113
573.20 2.085165
573.30 2.159608
573.40 2.128336
573.50 2.157766
573.60 2.25446
573.70 2.174781
573.80 2.099434
573.90 2.116582
574.00 2.198551
574.10 2.224389
574.20 2.265047
574.30 2.197582
574.40 2.135281
574.50 2.186234
574.60 2.245873
574.70 2.262686
574.80 2.236252
574.90 2.182449
575.00 2.276218
575.10 2.338161
575.20 2.316618
575.30 2.301493
575.40 2.314587
575.50 2.318662
575.60 2.261441
575.70 2.338286
575.80 2.340636
575.90 2.327082
576.00 2.245731
576.10 2.181069
576.20 2.170384
576.30 2.061794
576.40 1.953054
576.50 1.965161
576.60 1.973051
576.70 1.980087
576.80 1.973571
576.90 2.111056
577.00 2.220791
577.10 2.147578
577.20 2.062706
577.30 2.074788
577.40 2.090029
577.50 2.01028
577.60 2.020498
577.70 2.106786
577.80 2.198726
577.90 2.12369
578.00 2.036598
578.10 2.089431
578.20 2.166522
578.30 2.215805
578.40 2.220573
578.50 2.249454
578.60 2.239183
578.70 2.219344
578.80 2.216002
578.90 2.260301
579.00 2.301557
579.10 2.194802
579.20 2.114874
579.30 2.205682
579.40 2.24391
579.50 2.225416
579.60 2.310789
579.70 2.358076
579.80 2.299168
579.90 2.30446
580.00 2.375159
580.10 2.411267
580.20 2.360776
580.30 2.368899
580.40 2.45627
580.50 2.497704
580.60 2.506342
580.70 2.516962
580.80 2.491313
580.90 2.45991
581.00 2.449707
581.10 2.403913
581.20 2.358234
581.30 2.265514
581.40 2.139631
581.50 2.086828
581.60 2.08336
581.70 2.058878
581.80 2.091387
581.90 2.058141
582.00 2.024399
582.10 1.976362
582.20 1.959782
582.30 1.933991
582.40 1.926397
582.50 1.997154
582.60 2.080587
582.70 2.040701
582.80 2.008948
582.90 2.005209
583.00 2.021764
583.10 2.088486
583.20 2.118498
583.30 2.099817
583.40 2.157348
583.50 2.232032
583.60 2.205296
583.70 2.075622
583.80 1.976954
583.90 1.969111
584.00 2.017549
584.10 2.051788
584.20 2.137526
584.30 2.189936
584.40 2.142294
584.50 2.162982
584.60 2.142951
584.70 2.088479
584.80 2.042865
584.90 1.980719
585.00 1.897976
585.10 1.805261
585.20 1.760374
585.30 1.778941
585.40 1.767802
585.50 1.74953
585.60 1.704838
585.70 1.655413
585.80 1.619746
585.90 1.666735
586.00 1.764455
586.10 1.868876
586.20 1.87224
586.30 1.766177
586.40 1.691281
586.50 1.69574
586.60 1.704979
586.70 1.710591
586.80 1.782216
586.90 1.756374
587.00 1.681489
587.10 1.590378
587.20 1.613458
587.30 1.642476
587.40 1.607238
587.50 1.530549
587.60 1.450379
587.70 1.463798
587.80 1.460014
587.90 1.422914
588.00 1.374554
588.10 1.38725
588.20 1.331107
588.30 1.298998
588.40 1.280846
588.50 1.168574
588.60 1.152546
588.70 1.208721
588.80 1.016226
588.90 0.765476
589.00 0.710311
589.10 0.6537964
589.20 0.4266606
589.30 0.4804147
589.40 0.6088938
589.50 0.6877784
589.60 0.6902691
589.70 0.6933081
589.80 0.6313926
589.90 0.6158707
590.00 0.8407723
590.10 0.9309552
590.20 0.9037932
590.30 1.086018
590.40 1.185833
590.50 1.162934
590.60 1.194824
590.70 1.319526
590.80 1.316463
590.90 1.233682
591.00 1.275386
591.10 1.430237
591.20 1.48472
591.30 1.435512
591.40 1.403486
591.50 1.407346
591.60 1.47954
591.70 1.51082
591.80 1.550138
591.90 1.531443
592.00 1.58793
592.10 1.578899
592.20 1.523609
592.30 1.487556
592.40 1.432882
592.50 1.388336
592.60 1.460919
592.70 1.501886
592.80 1.473995
592.90 1.432589
593.00 1.515486
593.10 1.577003
593.20 1.585102
593.30 1.5919
593.40 1.61686
593.50 1.634547
593.60 1.602487
593.70 1.596133
593.80 1.629041
593.90 1.654608
594.00 1.705873
594.10 1.75349
594.20 1.684198
594.30 1.659853
594.40 1.722062
594.50 1.799008
594.60 1.822704
594.70 1.818075
594.80 1.765044
594.90 1.742183
595.00 1.717278
595.10 1.665017
595.20 1.562041
595.30 1.513084
595.40 1.572724
595.50 1.630694
595.60 1.6123
595.70 1.560824
595.80 1.515843
595.90 1.549408
596.00 1.619212
596.10 1.665401
596.20 1.631388
596.30 1.577287
596.40 1.573293
596.50 1.591545
596.60 1.595035
596.70 1.664224
596.80 1.740132
596.90 1.759135
597.00 1.75927
597.10 1.733451
597.20 1.743349
597.30 1.714132
597.40 1.700215
597.50 1.692944
597.60 1.63959
597.70 1.643433
597.80 1.68307
597.90 1.707632
598.00 1.680177
598.10 1.650274
598.20 1.752136
598.30 1.846779
598.40 1.788337
598.50 1.806448
598.60 1.873627
598.70 1.902332
598.80 1.830285
598.90 1.837908
599.00 1.836815
599.10 1.827048
599.20 1.780128
599.30 1.885715
599.40 1.985502
599.50 1.994019
599.60 2.009444
599.70 2.005573
599.80 1.968175
599.90 1.919094
600.00 1.947279
600.10 1.928519
600.20 1.8729
600.30 1.85443
600.40 1.869342
600.50 1.900038
600.60 1.935654
600.70 1.956317
600.80 1.909093
600.90 1.859997
601.00 1.913628
601.10 1.938384
601.20 1.953351
601.30 1.962268
601.40 1.945306
601.50 1.935683
601.60 1.959654
601.70 1.986127
601.80 2.010084
601.90 2.009655
602.00 2.021105
602.10 2.055255
602.20 2.044666
602.30 1.958195
602.40 1.938483
602.50 1.953805
602.60 1.946943
602.70 1.95884
602.80 2.058142
602.90 2.153195
603.00 2.150032
603.10 2.126646
603.20 2.114392
603.30 2.120155
603.40 2.171677
603.50 2.217407
603.60 2.19048
603.70 2.060012
603.80 1.962235
603.90 1.946194
604.00 1.990322
604.10 2.079981
604.20 2.080304
604.30 2.106782
604.40 2.131384
604.50 2.144325
604.60 2.182612
604.70 2.230348
604.80 2.214192
604.90 2.183278
605.00 2.210542
605.10 2.290221
605.20 2.274118
605.30 2.172547
605.40 2.110835
605.50 2.134481
605.60 2.178773
605.70 2.22278
605.80 2.281833
605.90 2.308971
606.00 2.262248
606.10 2.243205
606.20 2.289453
606.30 2.338573
606.40 2.278001
606.50 2.071246
606.60 1.985001
606.70 2.084037
606.80 2.167717
606.90 2.197007
607.00 2.246795
607.10 2.272579
607.20 2.272519
607.30 2.273368
607.40 2.246706
607.50 2.245884
607.60 2.270651
607.70 2.319651
607.80 2.341776
607.90 2.315234
608.00 2.250138
608.10 2.182903
608.20 2.156696
608.30 2.130991
608.40 2.169148
608.50 2.235341
608.60 2.271539
608.70 2.281388
608.80 2.281393
608.90 2.265824
609.00 2.270302
609.10 2.273469
609.20 2.277334
609.30 2.3074
609.40 2.371174
609.50 2.424883
609.60 2.48062
609.70 2.431481
609.80 2.387475
609.90 2.372945
610.00 2.389052
610.10 2.396035
610.20 2.284905
610.30 2.11448
610.40 1.949154
610.50 1.944568
610.60 2.109932
610.70 2.287187
610.80 2.419848
610.90 2.407131
611.00 2.362745
611.10 2.314738
611.20 2.262004
611.30 2.287644
611.40 2.358537
611.50 2.404899
611.60 2.385169
611.70 2.359504
611.80 2.309848
611.90 2.187385
612.00 2.133226
612.10 2.120956
612.20 2.027467
612.30 1.904376
612.40 1.857231
612.50 1.936652
612.60 2.072715
612.70 2.242461
612.80 2.350509
612.90 2.423079
613.00 2.422335
613.10 2.417127
613.20 2.363578
613.30 2.378589
613.40 2.383459
613.50 2.351038
613.60 2.330513
613.70 2.372783
613.80 2.388236
613.90 2.364247
614.00 2.342215
614.10 2.379691
614.20 2.4057
614.30 2.376496
614.40 2.431964
614.50 2.507841
614.60 2.527003
614.70 2.462595
614.80 2.432013
614.90 2.379506
615.00 2.22377
615.10 2.161366
615.20 2.195185
615.30 2.238387
615.40 2.222705
615.50 2.163471
615.60 2.066826
615.70 2.005395
615.80 1.982402
615.90 1.953418
616.00 1.815173
616.10 1.601777
616.20 1.430408
616.30 1.350943
616.40 1.340799
616.50 1.356037
616.60 1.411655
616.70 1.459654
616.80 1.447994
616.90 1.457247
617.00 1.483599
617.10 1.500272
617.20 1.525832
617.30 1.579554
617.40 1.600744
617.50 1.582551
617.60 1.565631
617.70 1.618401
617.80 1.652698
617.90 1.67585
618.00 1.731559
618.10 1.755912
618.20 1.719112
618.30 1.626577
618.40 1.615832
618.50 1.594889
618.60 1.519977
618.70 1.436648
618.80 1.42992
618.90 1.404206
619.00 1.370712
619.10 1.359761
619.20 1.291492
619.30 1.269317
619.40 1.295055
619.50 1.355287
619.60 1.36862
619.70 1.372435
619.80 1.417384
619.90 1.417771
620.00 1.396545
620.10 1.395211
620.20 1.444264
620.30 1.507796
620.40 1.515122
620.50 1.518262
620.60 1.560995
620.70 1.562776
620.80 1.571293
620.90 1.561319
621.00 1.568824
621.10 1.53261
621.20 1.481246
621.30 1.45462
621.40 1.390801
621.50 1.335103
621.60 1.303237
621.70 1.2583
621.80 1.231807
621.90 1.245161
622.00 1.311679
622.10 1.359509
622.20 1.376132
622.30 1.335996
622.40 1.262893
622.50 1.227246
622.60 1.234686
622.70 1.234417
622.80 1.196052
622.90 1.223117
623.00 1.291103
623.10 1.283604
623.20 1.218976
623.30 1.204827
623.40 1.296938
623.50 1.363285
623.60 1.42313
623.70 1.409883
623.80 1.403075
623.90 1.387187
624.00 1.33886
624.10 1.33611
624.20 1.341229
624.30 1.334688
624.40 1.2789
624.50 1.311679
624.60 1.318572
624.70 1.33505
624.80 1.376922
624.90 1.437806
625.00 1.473253
625.10 1.484962
625.20 1.515199
625.30 1.509048
625.40 1.491611
625.50 1.50071
625.60 1.506632
625.70 1.523964
625.80 1.504911
625.90 1.52808
626.00 1.509698
626.10 1.523326
626.20 1.580603
626.30 1.575211
626.40 1.649538
626.50 1.72451
626.60 1.775905
626.70 1.730537
626.80 1.678936
626.90 1.70186
627.00 1.694077
627.10 1.646232
627.20 1.621562
627.30 1.675031
627.40 1.738827
627.50 1.720033
627.60 1.663103
627.70 1.644511
627.80 1.638526
627.90 1.608978
628.00 1.624678
628.10 1.615991
628.20 1.626179
628.30 1.644378
628.40 1.70377
628.50 1.750487
628.60 1.779711
628.70 1.824306
628.80 1.877818
628.90 1.919034
629.00 1.873932
629.10 1.82486
629.20 1.820782
629.30 1.829373
629.40 1.85189
629.50 1.818322
629.60 1.815112
629.70 1.865015
629.80 1.978712
629.90 2.161707
630.00 2.290205
630.10 2.33959
630.20 2.00011
630.30 1.73585
630.40 1.905565
630.50 2.074479
630.60 2.050674
630.70 1.955701
630.80 2.068259
630.90 2.144912
631.00 2.110793
631.10 2.110932
631.20 2.154468
631.30 2.226844
631.40 2.292805
631.50 2.256824
631.60 2.278172
631.70 2.289489
631.80 2.283478
631.90 2.29258
632.00 2.286808
632.10 2.335754
632.20 2.34221
632.30 2.285647
632.40 2.23608
632.50 2.271881
632.60 2.298754
632.70 2.301158
632.80 2.346574
632.90 2.374976
633.00 2.383703
633.10 2.363604
633.20 2.391345
633.30 2.383021
633.40 2.373502
633.50 2.40498
633.60 2.415623
633.70 2.4331
633.80 2.461566
633.90 2.497736
634.00 2.48254
634.10 2.469761
634.20 2.510779
634.30 2.575617
634.40 2.581008
634.50 2.546467
634.60 2.559406
634.70 2.607682
634.80 2.672982
634.90 2.685374
635.00 2.663126
635.10 2.680518
635.20 2.659034
635.30 2.610733
635.40 2.571994
635.50 2.514594
635.60 2.503971
635.70 2.467916
635.80 2.417867
635.90 2.356999
636.00 2.304106
636.10 2.323276
636.20 2.381224
636.30 2.458303
636.40 2.473614
636.50 2.414473
636.60 2.395821
636.70 2.307133
636.80 2.284607
636.90 2.314023
637.00 2.314304
637.10 2.277589
637.20 2.314981
637.30 2.437961
637.40 2.491533
637.50 2.451868
637.60 2.396123
637.70 2.377609
637.80 2.366873
637.90 2.340944
638.00 2.237344
638.10 2.103029
638.20 2.049213
638.30 2.027213
638.40 2.0267
638.50 2.080881
638.60 2.135494
638.70 2.172667
638.80 2.122852
638.90 2.051673
639.00 2.049287
639.10 2.089294
639.20 2.156449
639.30 2.227743
639.40 2.276514
639.50 2.297784
639.60 2.368461
639.70 2.505352
639.80 2.583775
639.90 2.556919
640.00 2.513327
640.10 2.510527
640.20 2.534945
640.30 2.58912
640.40 2.640325
640.50 2.69304
640.60 2.747034
640.70 2.773229
640.80 2.76215
640.90 2.747877
641.00 2.76009
641.10 2.791165
641.20 2.843793
641.30 2.801931
641.40 2.733758
641.50 2.705823
641.60 2.72924
641.70 2.714882
641.80 2.664567
641.90 2.682858
642.00 2.715514
642.10 2.716191
642.20 2.674322
642.30 2.652104
642.40 2.696393
642.50 2.743868
642.60 2.77394
642.70 2.76394
642.80 2.785891
642.90 2.826913
643.00 2.830979
643.10 2.816432
643.20 2.81393
643.30 2.840804
643.40 2.829387
643.50 2.787121
643.60 2.787935
643.70 2.808795
643.80 2.792525
643.90 2.704748
644.00 2.61237
644.10 2.594675
644.20 2.688574
644.30 2.836188
644.40 2.939556
644.50 3.024836
644.60 3.07268
644.70 3.100573
644.80 3.051689
644.90 2.932699
645.00 2.829848
645.10 2.734096
645.20 2.723879
645.30 2.82235
645.40 2.974095
645.50 3.075259
645.60 3.096117
645.70 3.0794
645.80 3.062818
645.90 3.110335
646.00 3.134987
646.10 3.089224
646.20 2.957354
646.30 2.80841
646.40 2.755223
646.50 2.76944
646.60 2.846905
646.70 2.994466
646.80 3.079252
646.90 3.153732
647.00 3.214675
647.10 3.187687
647.20 3.12102
647.30 3.071107
647.40 3.174208
647.50 3.237865
647.60 3.243421
647.70 3.269703
647.80 3.323195
647.90 3.357988
648.00 3.318965
648.10 3.211616
648.20 3.095317
648.30 3.089376
648.40 3.092115
648.50 3.056195
648.60 3.014652
648.70 3.005086
648.80 3.041806
648.90 3.083435
649.00 3.107274
649.10 3.134571
649.20 3.137583
649.30 3.052693
649.40 2.926446
649.50 2.840435
649.60 2.821192
649.70 2.855365
649.80 2.945152
649.90 3.015049
650.00 3.022448
650.10 3.012863
650.20 3.061985
650.30 3.192587
650.40 3.278838
650.50 3.301885
650.60 3.333861
650.70 3.385181
650.80 3.426288
650.90 3.422093
651.00 3.399418
651.10 3.393743
651.20 3.410936
651.30 3.432447
651.40 3.343003
651.50 3.249842
651.60 3.277343
651.70 3.366772
651.80 3.401651
651.90 3.375505
652.00 3.384045
652.10 3.432071
652.20 3.467138
652.30 3.520749
652.40 3.555279
652.50 3.529505
652.60 3.539747
652.70 3.583584
652.80 3.603158
652.90 3.581825
653.00 3.545129
653.10 3.561458
653.20 3.59504
653.30 3.612974
653.40 3.643357
653.50 3.697397
653.60 3.743882
653.70 3.731769
653.80 3.727559
653.90 3.776107
654.00 3.856445
654.10 3.89387
654.20 3.862239
654.30 3.783423
654.40 3.71885
654.50 3.657649
654.60 3.588773
654.70 3.510069
654.80 3.449343
654.90 3.459644
655.00 3.470125
655.10 3.449478
655.20 3.4385
655.30 3.393299
655.40 3.3573
655.50 3.341242
655.60 3.323199
655.70 3.327254
655.80 3.34439
655.90 3.3894
656.00 3.43878
656.10 3.475757
656.20 3.415394
656.30 3.3056
656.40 3.190505
656.50 3.124663
656.60 3.111556
656.70 3.128404
656.80 3.186334
656.90 3.23693
657.00 3.260916
657.10 3.239404
657.20 3.168086
657.30 3.056021
657.40 2.974176
657.50 2.965756
657.60 3.054349
657.70 3.173491
657.80 3.222145
657.90 3.178453
658.00 3.107661
658.10 3.101615
658.20 3.121691
658.30 3.15753
658.40 3.223661
658.50 3.279048
658.60 3.307019
658.70 3.334469
658.80 3.369041
658.90 3.391701
659.00 3.400575
659.10 3.376251
659.20 3.375295
659.30 3.330405
659.40 3.227168
659.50 3.138911
659.60 3.094518
659.70 3.134544
659.80 3.200316
659.90 3.258728
660.00 3.264575
660.10 3.231693
660.20 3.188127
660.30 3.207692
660.40 3.296237
660.50 3.331027
660.60 3.285639
660.70 3.226017
660.80 3.215363
660.90 3.179536
661.00 3.119687
661.10 3.125935
661.20 3.182212
661.30 3.24724
661.40 3.280978
661.50 3.280206
661.60 3.217802
661.70 3.17702
661.80 3.190024
661.90 3.218501
662.00 3.187672
662.10 3.13015
662.20 3.102574
662.30 3.090399
662.40 3.045656
662.50 2.989268
662.60 2.938784
662.70 2.886689
662.80 2.835634
662.90 2.851574
663.00 2.906688
663.10 2.939456
663.20 2.946362
663.30 2.989066
663.40 3.035469
663.50 3.026167
663.60 2.95501
663.70 2.848422
663.80 2.756335
663.90 2.754133
664.00 2.856356
664.10 2.913557
664.20 2.9344
664.30 2.99306
664.40 3.030061
664.50 3.038853
664.60 3.015526
664.70 3.004045
664.80 3.00192
664.90 2.96069
665.00 2.871116
665.10 2.742682
665.20 2.594104
665.30 2.482557
665.40 2.451031
665.50 2.497742
665.60 2.591004
665.70 2.600586
665.80 2.559622
665.90 2.542413
666.00 2.552172
666.10 2.594559
666.20 2.601223
666.30 2.593021
666.40 2.644429
666.50 2.690083
666.60 2.683015
666.70 2.701167
666.80 2.761721
666.90 2.814063
667.00 2.81765
667.10 2.796229
667.20 2.804904
667.30 2.822043
667.40 2.808667
667.50 2.75212
667.60 2.722826
667.70 2.747345
667.80 2.76018
667.90 2.718216
668.00 2.644986
668.10 2.533449
668.20 2.401526
668.30 2.289483
668.40 2.216673
668.50 2.219555
668.60 2.267436
668.70 2.325882
668.80 2.380349
668.90 2.39502
669.00 2.397184
669.10 2.387395
669.20 2.314767
669.30 2.278988
669.40 2.314703
669.50 2.385916
669.60 2.433659
669.70 2.399571
669.80 2.388494
669.90 2.428788
670.00 2.4891
670.10 2.513622
670.20 2.496327
670.30 2.518219
670.40 2.555264
670.50 2.576347
670.60 2.565075
670.70 2.528202
670.80 2.518297
670.90 2.510876
671.00 2.530268
671.10 2.581485
671.20 2.593106
671.30 2.562628
671.40 2.507381
671.50 2.418523
671.60 2.307135
671.70 2.17756
671.80 2.092767
671.90 2.024186
672.00 1.971086
672.10 1.97424
672.20 2.022008
672.30 2.082239
672.40 2.098492
672.50 2.120491
672.60 2.135734
672.70 2.127022
672.80 2.145616
672.90 2.166479
673.00 2.188975
673.10 2.19521
673.20 2.1734
673.30 2.166893
673.40 2.188085
673.50 2.200944
673.60 2.174878
673.70 2.218198
673.80 2.291192
673.90 2.326207
674.00 2.324185
674.10 2.305956
674.20 2.280136
674.30 2.275833
674.40 2.320674
674.50 2.397827
674.60 2.442943
674.70 2.367334
674.80 2.24652
674.90 2.161674
675.00 2.114809
675.10 2.091769
675.20 2.071603
675.30 2.106695
675.40 2.14514
675.50 2.151929
675.60 2.149687
675.70 2.148121
675.80 2.179644
675.90 2.236089
676.00 2.231306
676.10 2.201658
676.20 2.196498
676.30 2.225212
676.40 2.272474
676.50 2.289202
676.60 2.305046
676.70 2.333102
676.80 2.350561
676.90 2.344279
677.00 2.308063
677.10 2.296325
677.20 2.334336
677.30 2.33509
677.40 2.296621
677.50 2.29257
677.60 2.352135
677.70 2.413758
677.80 2.417008
677.90 2.401185
678.00 2.369968
678.10 2.318593
678.20 2.272189
678.30 2.224291
678.40 2.144879
678.50 2.063909
678.60 2.039648
678.70 2.030883
678.80 2.067581
678.90 2.113441
679.00 2.145282
679.10 2.126141
679.20 2.102781
679.30 2.137141
679.40 2.137817
679.50 2.121264
679.60 2.118726
679.70 2.121375
679.80 2.141276
679.90 2.149168
680.00 2.159186
680.10 2.139839
680.20 2.134261
680.30 2.209388
680.40 2.290925
680.50 2.282634
680.60 2.214759
680.70 2.170936
680.80 2.134042
680.90 2.109914
681.00 2.114994
681.10 2.152588
681.20 2.226123
681.30 2.231218
681.40 2.206797
681.50 2.230557
681.60 2.21635
681.70 2.160884
681.80 2.115193
681.90 2.125267
682.00 2.144645
682.10 2.129167
682.20 2.142393
682.30 2.17896
682.40 2.163728
682.50 2.127189
682.60 2.156889
682.70 2.215904
682.80 2.281262
682.90 2.289687
683.00 2.286788
683.10 2.317496
683.20 2.272373
683.30 2.228781
683.40 2.240098
683.50 2.28945
683.60 2.329
683.70 2.300022
683.80 2.241546
683.90 2.196628
684.00 2.211801
684.10 2.246429
684.20 2.270781
684.30 2.295706
684.40 2.312841
684.50 2.29975
684.60 2.265659
684.70 2.225437
684.80 2.210623
684.90 2.231376
685.00 2.259571
685.10 2.222025
685.20 2.150169
685.30 2.110904
685.40 2.121933
685.50 2.128406
685.60 2.131729
685.70 2.141742
685.80 2.12926
685.90 2.104906
686.00 2.091401
686.10 2.12618
686.20 2.12821
686.30 2.131076
686.40 2.177907
686.50 2.244144
686.60 2.25902
686.70 2.230855
686.80 2.18489
686.90 2.164948
687.00 2.160034
687.10 2.12741
687.20 2.131301
687.30 2.1502
687.40 2.205348
687.50 2.27542
687.60 2.306921
687.70 2.311386
687.80 2.311475
687.90 2.361473
688.00 2.435554
688.10 2.427383
688.20 2.351165
688.30 2.312453
688.40 2.303095
688.50 2.281229
688.60 2.206691
688.70 2.208659
688.80 2.311349
688.90 2.336733
689.00 2.363902
689.10 2.384224
689.20 2.336024
689.30 2.301771
689.40 2.323122
689.50 2.376176
689.60 2.411432
689.70 2.404244
689.80 2.438955
689.90 2.49026
690.00 2.443239
690.10 2.351757
690.20 2.267164
690.30 2.227751
690.40 2.26821
690.50 2.322429
690.60 2.410247
690.70 2.523904
690.80 2.579028
690.90 2.579681
691.00 2.590952
691.10 2.602815
691.20 2.604058
691.30 2.612708
691.40 2.629017
691.50 2.675093
691.60 2.72347
691.70 2.687562
691.80 2.532616
691.90 2.378787
692.00 2.299094
692.10 2.294842
692.20 2.395617
692.30 2.552257
692.40 2.694969
692.50 2.781348
692.60 2.762679
692.70 2.752076
692.80 2.791402
692.90 2.815353
693.00 2.846857
693.10 2.870622
693.20 2.906539
693.30 2.945727
693.40 2.964976
693.50 2.97013
693.60 2.983835
693.70 3.02963
693.80 3.055314
693.90 3.0345
694.00 2.993477
694.10 3.011512
694.20 3.077783
694.30 3.12155
694.40 3.181522
694.50 3.248469
694.60 3.295339
694.70 3.34725
694.80 3.385342
694.90 3.395555
695.00 3.404033
695.10 3.366052
695.20 3.304933
695.30 3.270476
695.40 3.219605
695.50 3.180523
695.60 3.184058
695.70 3.155955
695.80 3.127402
695.90 3.125664
696.00 3.141614
696.10 3.159461
696.20 3.146903
696.30 3.127996
696.40 3.183272
696.50 3.258102
696.60 3.300895
696.70 3.318397
696.80 3.303387
696.90 3.296961
697.00 3.292967
697.10 3.285618
697.20 3.294688
697.30 3.268043
697.40 3.218192
697.50 3.24815
697.60 3.298211
697.70 3.346603
697.80 3.391342
697.90 3.400427
698.00 3.417995
698.10 3.426776
698.20 3.419233
698.30 3.409288
698.40 3.418326
698.50 3.466109
698.60 3.49928
698.70 3.505089
698.80 3.492813
698.90 3.492849
699.00 3.510471
699.10 3.450192
699.20 3.364173
699.30 3.328864
699.40 3.337477
699.50 3.374311
699.60 3.427866
699.70 3.496774
699.80 3.549484
699.90 3.524291
700.00 3.481908
700.10 3.511625
700.20 3.559944
700.30 3.597198
700.40 3.587598
700.50 3.568917
700.60 3.55923
700.70 3.510384
700.80 3.518597
700.90 3.593595
701.00 3.627107
701.10 3.591501
701.20 3.590273
701.30 3.69061
701.40 3.789488
701.50 3.80664
701.60 3.779799
701.70 3.773525
701.80 3.767022
701.90 3.772365
702.00 3.815742
702.10 3.864966
702.20 3.874573
702.30 3.829245
702.40 3.770993
702.50 3.712874
702.60 3.67764
702.70 3.691205
702.80 3.747153
702.90 3.875318
703.00 4.048087
703.10 4.175494
703.20 4.203675
703.30 4.139385
703.40 4.081209
703.50 4.117228
703.60 4.23704
703.70 4.343347
703.80 4.370733
703.90 4.37197
704.00 4.358408
704.10 4.395222
704.20 4.497287
704.30 4.598112
704.40 4.653693
704.50 4.675521
704.60 4.708766
704.70 4.724296
704.80 4.741398
704.90 4.776502
705.00 4.759572
705.10 4.70957
705.20 4.672048
705.30 4.578149
705.40 4.360118
705.50 3.994841
705.60 3.564828
705.70 3.26117
705.80 3.146399
705.90 3.180797
706.00 3.25357
706.10 3.239067
706.20 3.147611
706.30 3.099975
706.40 3.124998
706.50 3.186271
706.60 3.250433
706.70 3.303745
706.80 3.376322
706.90 3.397817
707.00 3.398949
707.10 3.438418
707.20 3.504525
707.30 3.561509
707.40 3.578614
707.50 3.570126
707.60 3.568924
707.70 3.583395
707.80 3.593761
707.90 3.614953
708.00 3.630597
708.10 3.638562
708.20 3.656273
708.30 3.65935
708.40 3.666643
708.50 3.703121
708.60 3.703333
708.70 3.583166
708.80 3.295586
708.90 2.902645
709.00 2.597692
709.10 2.479762
709.20 2.53034
709.30 2.647182
709.40 2.719369
709.50 2.72383
709.60 2.695987
709.70 2.672714
709.80 2.674197
709.90 2.711515
710.00 2.766658
710.10 2.804313
710.20 2.824992
710.30 2.801937
710.40 2.79792
710.50 2.856431
710.60 2.913887
710.70 2.934771
710.80 2.962647
710.90 3.047542
711.00 3.126047
711.10 3.179153
711.20 3.223565
711.30 3.248953
711.40 3.272796
711.50 3.275934
711.60 3.252265
711.70 3.213979
711.80 3.198134
711.90 3.233938
712.00 3.299097
712.10 3.388702
712.20 3.463677
712.30 3.478923
712.40 3.419506
712.50 3.244463
712.60 2.93288
712.70 2.548877
712.80 2.23553
712.90 2.137854
713.00 2.212933
713.10 2.32715
713.20 2.367795
713.30 2.314233
713.40 2.268109
713.50 2.253664
713.60 2.250516
713.70 2.286693
713.80 2.335518
713.90 2.347194
714.00 2.347624
714.10 2.356746
714.20 2.401078
714.30 2.462655
714.40 2.508227
714.50 2.538196
714.60 2.536868
714.70 2.508369
714.80 2.47696
714.90 2.458064
715.00 2.470114
715.10 2.512626
715.20 2.599821
715.30 2.690618
715.40 2.744353
715.50 2.782547
715.60 2.815709
715.70 2.867442
715.80 2.906128
715.90 2.866911
716.00 2.770922
716.10 2.687701
716.20 2.653963
716.30 2.663296
716.40 2.695003
716.50 2.735047
716.60 2.760333
716.70 2.773343
716.80 2.779684
716.90 2.787834
717.00 2.819898
717.10 2.858805
717.20 2.882719
717.30 2.89247
717.40 2.913067
717.50 2.904431
717.60 2.867858
717.70 2.859105
717.80 2.876273
717.90 2.9003
718.00 2.907234
718.10 2.939878
718.20 3.028991
718.30 3.098027
718.40 3.128195
718.50 3.180215
718.60 3.235518
718.70 3.235321
718.80 3.20324
718.90 3.194147
719.00 3.205314
719.10 3.217334
719.20 3.266382
719.30 3.296298
719.40 3.277308
719.50 3.273248
719.60 3.264076
719.70 3.264083
719.80 3.202067
719.90 3.073276
720.00 2.963604
720.10 2.902753
720.20 2.854472
720.30 2.815752
720.40 2.823727
720.50 2.857453
720.60 2.917914
720.70 2.981567
720.80 3.014691
720.90 3.009527
721.00 2.987379
721.10 2.982728
721.20 3.020909
721.30 3.074929
721.40 3.105803
721.50 3.134078
721.60 3.175827
721.70 3.184401
721.80 3.184478
721.90 3.218285
722.00 3.25958
722.10 3.29842
722.20 3.333342
722.30 3.349176
722.40 3.372368
722.50 3.404401
722.60 3.442897
722.70 3.475951
722.80 3.478807
722.90 3.464842
723.00 3.470505
723.10 3.477209
723.20 3.444212
723.30 3.411543
723.40 3.391249
723.50 3.423157
723.60 3.474217
723.70 3.49965
723.80 3.545047
723.90 3.638721
724.00 3.748701
724.10 3.725046
724.20 3.501222
724.30 3.288005
724.40 3.365151
724.50 3.575777
724.60 3.643953
724.70 3.639602
724.80 3.653221
724.90 3.682337
725.00 3.735086
725.10 3.806163
725.20 3.839827
725.30 3.813644
725.40 3.761206
725.50 3.779382
725.60 3.876582
725.70 3.960029
725.80 3.957857
725.90 3.8746
726.00 3.849668
726.10 3.918469
726.20 3.994228
726.30 4.059181
726.40 4.110152
726.50 4.118891
726.60 4.129508
726.70 4.117522
726.80 4.09257
726.90 4.109042
727.00 4.096605
727.10 4.019087
727.20 3.93947
727.30 3.894195
727.40 3.900221
727.50 4.021094
727.60 4.145034
727.70 4.218585
727.80 4.253524
727.90 4.161883
728.00 4.069291
728.10 4.025849
728.20 4.030279
728.30 4.109761
728.40 4.238829
728.50 4.384615
728.60 4.433899
728.70 4.352681
728.80 4.270728
728.90 4.262616
729.00 4.329278
729.10 4.416407
729.20 4.400574
729.30 4.32722
729.40 4.297546
729.50 4.329606
729.60 4.391993
729.70 4.446128
729.80 4.481681
729.90 4.451046
730.00 4.384654
730.10 4.359966
730.20 4.412509
730.30 4.493624
730.40 4.526653
730.50 4.503856
730.60 4.469341
730.70 4.494172
730.80 4.517387
730.90 4.504394
731.00 4.518546
731.10 4.558338
731.20 4.584668
731.30 4.607361
731.40 4.662798
731.50 4.721535
731.60 4.797181
731.70 4.805564
731.80 4.707154
731.90 4.672936
732.00 4.662116
732.10 4.639232
732.20 4.704677
732.30 4.780509
732.40 4.808327
732.50 4.755783
732.60 4.597789
732.70 4.449848
732.80 4.415458
732.90 4.498301
733.00 4.637919
733.10 4.769582
733.20 4.814482
733.30 4.787323
733.40 4.775427
733.50 4.8099
733.60 4.881283
733.70 4.915604
733.80 4.923922
733.90 4.960448
734.00 5.004333
734.10 5.057624
734.20 5.105792
734.30 5.038976
734.40 4.870785
734.50 4.786301
734.60 4.76416
734.70 4.766995
734.80 4.809035
734.90 4.870782
735.00 4.949038
735.10 4.982071
735.20 4.994693
735.30 5.033563
735.40 5.061636
735.50 5.056457
735.60 4.977024
735.70 4.859957
735.80 4.781972
735.90 4.792152
736.00 4.860842
736.10 4.945461
736.20 4.998242
736.30 4.960104
736.40 4.936878
736.50 4.952352
736.60 4.957645
736.70 4.990978
736.80 5.07779
736.90 5.196595
737.00 5.261294
737.10 5.313973
737.20 5.343054
737.30 5.276532
737.40 5.226185
737.50 5.185201
737.60 5.143599
737.70 5.165105
737.80 5.161847
737.90 5.15112
738.00 5.226804
738.10 5.301449
738.20 5.308303
738.30 5.25886
738.40 5.206834
738.50 5.223572
738.60 5.267448
738.70 5.30104
738.80 5.320071
738.90 5.329382
739.00 5.348731
739.10 5.3683
739.20 5.362088
739.30 5.325891
739.40 5.309281
739.50 5.298092
739.60 5.290588
739.70 5.314179
739.80 5.298562
739.90 5.300116
740.00 5.300201
740.10 5.242238
740.20 5.28098
740.30 5.349041
740.40 5.307536
740.50 5.280611
740.60 5.269227
740.70 5.270627
740.80 5.285621
740.90 5.266717
741.00 5.282881
741.10 5.32715
741.20 5.353198
741.30 5.358807
741.40 5.362447
741.50 5.384101
741.60 5.393533
741.70 5.369266
741.80 5.344192
741.90 5.311311
742.00 5.290726
742.10 5.310689
742.20 5.346123
742.30 5.354499
742.40 5.343827
742.50 5.360733
742.60 5.366691
742.70 5.379481
742.80 5.421859
742.90 5.452365
743.00 5.490131
743.10 5.548159
743.20 5.55215
743.30 5.514639
743.40 5.491167
743.50 5.440681
743.60 5.397924
743.70 5.416745
743.80 5.459219
743.90 5.508261
744.00 5.544836
744.10 5.536512
744.20 5.500023
744.30 5.443324
744.40 5.397781
744.50 5.407632
744.60 5.412463
744.70 5.383131
744.80 5.346146
744.90 5.327402
745.00 5.364234
745.10 5.418435
745.20 5.45006
745.30 5.46605
745.40 5.47075
745.50 5.480396
745.60 5.499454
745.70 5.503986
745.80 5.519859
745.90 5.576479
746.00 5.612573
746.10 5.582757
746.20 5.503287
746.30 5.440454
746.40 5.426428
746.50 5.433085
746.60 5.462657
746.70 5.498562
746.80 5.525927
746.90 5.568318
747.00 5.5923
747.10 5.599628
747.20 5.62476
747.30 5.645159
747.40 5.661168
747.50 5.639309
747.60 5.565768
747.70 5.532356
747.80 5.573748
747.90 5.623125
748.00 5.62305
748.10 5.583544
748.20 5.569291
748.30 5.59734
748.40 5.656086
748.50 5.682372
748.60 5.608831
748.70 5.499549
748.80 5.474164
748.90 5.547996
749.00 5.611201
749.10 5.560701
749.20 5.481897
749.30 5.485434
749.40 5.511734
749.50 5.512369
749.60 5.484335
749.70 5.462925
749.80 5.490229
749.90 5.559581
750.00 5.673972
750.10 5.75223
750.20 5.727068
750.30 5.685451
750.40 5.66805
750.50 5.653798
750.60 5.649968
750.70 5.635855
750.80 5.617473
750.90 5.636251
751.00 5.675372
751.10 5.695797
751.20 5.694225
751.30 5.690855
751.40 5.692178
751.50 5.734954
751.60 5.813867
751.70 5.867903
751.80 5.892008
751.90 5.856142
752.00 5.753713
752.10 5.679128
752.20 5.717906
752.30 5.814352
752.40 5.882736
752.50 5.882212
752.60 5.799644
752.70 5.667678
752.80 5.571135
752.90 5.567516
753.00 5.606588
753.10 5.664298
753.20 5.725782
753.30 5.784599
753.40 5.785362
753.50 5.725723
753.60 5.709458
753.70 5.755725
753.80 5.832181
753.90 5.914529
754.00 5.970237
754.10 6.008634
754.20 6.005476
754.30 5.936675
754.40 5.897341
754.50 5.921392
754.60 5.948316
754.70 5.963076
754.80 5.94301
754.90 5.896147
755.00 5.875278
755.10 5.891755
755.20 5.918928
755.30 5.935112
755.40 5.940029
755.50 5.912455
755.60 5.890923
755.70 5.90822
755.80 5.921064
755.90 5.916791
756.00 5.925168
756.10 5.969928
756.20 6.011101
756.30 6.003978
756.40 5.973227
756.50 5.922853
756.60 5.858824
756.70 5.811261
756.80 5.780364
756.90 5.775193
757.00 5.778631
757.10 5.780863
757.20 5.844692
757.30 5.960775
757.40 6.064858
757.50 6.104126
757.60 6.025189
757.70 5.942247
757.80 5.930937
757.90 5.944793
758.00 5.956893
758.10 5.96557
758.20 5.99756
758.30 6.030751
758.40 6.027921
758.50 5.991463
758.60 5.957682
758.70 5.983893
758.80 5.963447
758.90 5.780049
759.00 5.506341
759.10 5.245327
759.20 5.083587
759.30 5.07765
759.40 5.172302
759.50 5.253002
759.60 5.275538
759.70 5.275815
759.80 5.318572
759.90 5.422657
760.00 5.54467
760.10 5.559615
760.20 5.413995
760.30 5.273402
760.40 5.238069
760.50 5.278138
760.60 5.396639
760.70 5.429706
760.80 5.322296
760.90 5.316372
761.00 5.360617
761.10 5.333119
761.20 5.329431
761.30 5.360792
761.40 5.434396
761.50 5.512225
761.60 5.509666
761.70 5.498591
761.80 5.546556
761.90 5.651039
762.00 5.750558
762.10 5.752669
762.20 5.662444
762.30 5.55973
762.40 5.546158
762.50 5.588167
762.60 5.574823
762.70 5.519557
762.80 5.403948
762.90 5.226261
763.00 5.076857
763.10 4.940719
763.20 4.870235
763.30 4.920237
763.40 5.019654
763.50 5.072411
763.60 5.003315
763.70 4.940551
763.80 4.953959
763.90 4.940409
764.00 4.949917
764.10 4.989491
764.20 4.986099
764.30 4.984842
764.40 5.014517
764.50 5.035652
764.60 5.025535
764.70 5.004745
764.80 5.051273
764.90 5.124352
765.00 5.103206
765.10 4.997456
765.20 4.910168
765.30 4.957882
765.40 5.056713
765.50 5.03878
765.60 4.960141
765.70 4.945541
765.80 5.032902
765.90 5.155942
766.00 5.175027
766.10 5.046008
766.20 4.85156
766.30 4.641319
766.40 4.335172
766.50 3.856901
766.60 3.320072
766.70 3.01823
766.80 3.107119
766.90 3.519942
767.00 4.004794
767.10 4.286688
767.20 4.319878
767.30 4.223457
767.40 4.158112
767.50 4.179602
767.60 4.259626
767.70 4.34299
767.80 4.38057
767.90 4.388513
768.00 4.402268
768.10 4.443702
768.20 4.509129
768.30 4.537548
768.40 4.526666
768.50 4.510026
768.60 4.509191
768.70 4.533948
768.80 4.557203
768.90 4.583925
769.00 4.612888
769.10 4.617461
769.20 4.603398
769.30 4.619317
769.40 4.67034
769.50 4.676755
769.60 4.58934
769.70 4.439032
769.80 4.18119
769.90 3.801816
770.00 3.457232
770.10 3.290578
770.20 3.405552
770.30 3.756209
770.40 4.124051
770.50 4.373949
770.60 4.453539
770.70 4.421202
770.80 4.375773
770.90 4.343866
771.00 4.381088
771.10 4.510474
771.20 4.65298
771.30 4.732275
771.40 4.689296
771.50 4.481497
771.60 4.314373
771.70 4.41556
771.80 4.566961
771.90 4.568584
772.00 4.554868
772.10 4.571393
772.20 4.610818
772.30 4.666136
772.40 4.68465
772.50 4.712356
772.60 4.772398
772.70 4.795581
772.80 4.784614
772.90 4.794824
773.00 4.823936
773.10 4.850509
773.20 4.86519
773.30 4.895219
773.40 4.943659
773.50 4.978311
773.60 5.005578
773.70 5.004347
773.80 4.960591
773.90 4.928758
774.00 4.933441
774.10 4.96891
774.20 5.032991
774.30 5.031804
774.40 4.924365
774.50 4.800398
774.60 4.722438
774.70 4.707882
774.80 4.69145
774.90 4.620583
775.00 4.569098
775.10 4.583275
775.20 4.519416
775.30 4.404902
775.40 4.288333
775.50 4.186934
775.60 4.303319
775.70 4.482846
775.80 4.507782
775.90 4.512128
776.00 4.601388
776.10 4.689339
776.20 4.669773
776.30 4.609546
776.40 4.574171
776.50 4.502898
776.60 4.458208
776.70 4.503839
776.80 4.567705
776.90 4.622462
777.00 4.680678
777.10 4.729855
777.20 4.764398
777.30 4.795598
777.40 4.809854
777.50 4.800062
777.60 4.767856
777.70 4.732649
777.80 4.746229
777.90 4.806619
778.00 4.849826
778.10 4.851633
778.20 4.804502
778.30 4.705952
778.40 4.59599
778.50 4.516861
778.60 4.474929
778.70 4.452256
778.80 4.500568
778.90 4.600677
779.00 4.642778
779.10 4.668645
779.20 4.70136
779.30 4.753082
779.40 4.892181
779.50 5.010577
779.60 4.988756
779.70 4.824172
779.80 4.622452
779.90 4.523825
780.00 4.51601
780.10 4.574491
780.20 4.627415
780.30 4.655223
780.40 4.759512
780.50 4.883893
780.60 4.957184
780.70 5.016253
780.80 5.052669
780.90 5.124227
781.00 5.240155
781.10 5.215251
781.20 5.057626
781.30 4.98506
781.40 5.014911
781.50 5.069323
781.60 5.107295
781.70 5.079232
781.80 5.057157
781.90 5.111577
782.00 5.155533
782.10 5.139671
782.20 5.127749
782.30 5.109393
782.40 5.031224
782.50 4.934231
782.60 4.863684
782.70 4.848528
782.80 4.861439
782.90 4.840056
783.00 4.775055
783.10 4.690616
783.20 4.631715
783.30 4.634341
783.40 4.673943
783.50 4.736864
783.60 4.800467
783.70 4.834804
783.80 4.84608
783.90 4.817252
784.00 4.80183
784.10 4.860292
784.20 4.942853
784.30 4.994987
784.40 4.975476
784.50 4.927643
784.60 4.93054
784.70 4.983465
784.80 5.027517
784.90 5.00727
785.00 4.969403
785.10 5.001251
785.20 5.10761
785.30 5.242209
785.40 5.349948
785.50 5.323592
785.60 5.157246
785.70 5.063736
785.80 5.085661
785.90 5.094748
786.00 5.107761
786.10 5.117882
786.20 5.077028
786.30 5.007147
786.40 4.931869
786.50 4.91113
786.60 4.980041
786.70 5.083637
786.80 5.149862
786.90 5.169607
787.00 5.167704
787.10 5.157419
787.20 5.154711
787.30 5.117304
787.40 5.026432
787.50 4.950329
787.60 4.970997
787.70 5.082548
787.80 5.192404
787.90 5.272515
788.00 5.303468
788.10 5.293563
788.20 5.308963
788.30 5.325254
788.40 5.315132
788.50 5.331347
788.60 5.346846
788.70 5.327744
788.80 5.327371
788.90 5.370537
789.00 5.430082
789.10 5.480815
789.20 5.485037
789.30 5.435736
789.40 5.382525
789.50 5.353391
789.60 5.341979
789.70 5.350817
789.80 5.363546
789.90 5.375269
790.00 5.385211
790.10 5.36857
790.20 5.331722
790.30 5.299128
790.40 5.31182
790.50 5.353278
790.60 5.372012
790.70 5.343129
790.80 5.249286
790.90 5.176358
791.00 5.164135
791.10 5.129364
791.20 5.121981
791.30 5.236315
791.40 5.385311
791.50 5.409287
791.60 5.287062
791.70 5.144509
791.80 5.131555
791.90 5.212336
792.00 5.303935
792.10 5.372337
792.20 5.379928
792.30 5.361095
792.40 5.330687
792.50 5.276633
792.60 5.245235
792.70 5.249216
792.80 5.268872
792.90 5.305703
793.00 5.355116
793.10 5.391458
793.20 5.451529
793.30 5.523752
793.40 5.519555
793.50 5.489774
793.60 5.467272
793.70 5.413348
793.80 5.388946
793.90 5.387109
794.00 5.379611
794.10 5.397453
794.20 5.426592
794.30 5.452076
794.40 5.479902
794.50 5.479505
794.60 5.439654
794.70 5.382404
794.80 5.327735
794.90 5.296015
795.00 5.272951
795.10 5.295361
795.20 5.377759
795.30 5.47069
795.40 5.560294
795.50 5.620355
795.60 5.621537
795.70 5.599274
795.80 5.6119
795.90 5.617753
796.00 5.584681
796.10 5.550007
796.20 5.510631
796.30 5.545004
796.40 5.686843
796.50 5.839475
796.60 5.925529
796.70 5.846079
796.80 5.639815
796.90 5.511273
797.00 5.517876
797.10 5.59839
797.20 5.686135
797.30 5.728437
797.40 5.734907
797.50 5.707154
797.60 5.671977
797.70 5.702143
797.80 5.763493
797.90 5.810875
798.00 5.844951
798.10 5.822933
798.20 5.73929
798.30 5.62774
798.40 5.553033
798.50 5.576491
798.60 5.64867
798.70 5.660642
798.80 5.622177
798.90 5.609353
799.00 5.590477
799.10 5.585465
799.20 5.669153
799.30 5.828773
799.40 6.014198
799.50 6.074178
799.60 5.90734
799.70 5.64207
799.80 5.493241
799.90 5.488849
800.00 5.515583
800.10 5.590774
800.20 5.713845
800.30 5.765397
800.40 5.757319
800.50 5.756859
800.60 5.752119
800.70 5.777039
800.80 5.800594
800.90 5.770134
801.00 5.749026
801.10 5.76053
801.20 5.803582
801.30 5.898751
801.40 5.963386
801.50 5.918039
801.60 5.829739
801.70 5.794354
801.80 5.801675
801.90 5.819027
802.00 5.864502
802.10 5.911374
802.20 5.884667
802.30 5.816543
802.40 5.794848
802.50 5.813601
802.60 5.845865
802.70 5.899264
802.80 5.914771
802.90 5.869989
803.00 5.848129
803.10 5.884631
803.20 5.953102
803.30 5.979523
803.40 5.980628
803.50 6.001683
803.60 5.989512
803.70 5.963955
803.80 5.956164
803.90 5.944249
804.00 5.957346
804.10 5.982529
804.20 5.968167
804.30 5.966124
804.40 6.006318
804.50 6.030818
804.60 6.021106
804.70 5.976122
804.80 5.912904
804.90 5.892511
805.00 5.926862
805.10 5.990119
805.20 6.077762
805.30 6.164566
805.40 6.201041
805.50 6.166766
805.60 6.092562
805.70 6.084698
805.80 6.153218
805.90 6.20726
806.00 6.248608
806.10 6.269739
806.20 6.299852
806.30 6.337439
806.40 6.255813
806.50 6.118712
806.60 6.050911
806.70 6.045451
806.80 6.09525
806.90 6.141197
807.00 6.135699
807.10 6.089419
807.20 6.056124
807.30 6.105283
807.40 6.175341
807.50 6.182745
807.60 6.176939
807.70 6.191815
807.80 6.21716
807.90 6.270574
808.00 6.296488
808.10 6.265282
808.20 6.258201
808.30 6.293719
808.40 6.336459
808.50 6.357954
808.60 6.324512
808.70 6.271967
808.80 6.264146
808.90 6.282457
809.00 6.283382
809.10 6.293509
809.20 6.341147
809.30 6.370196
809.40 6.34455
809.50 6.318275
809.60 6.28926
809.70 6.243565
809.80 6.245103
809.90 6.270628
810.00 6.273653
810.10 6.305545
810.20 6.340938
810.30 6.327822
810.40 6.305441
810.50 6.285259
810.60 6.268477
810.70 6.270038
810.80 6.277447
810.90 6.291382
811.00 6.305489
811.10 6.310691
811.20 6.32432
811.30 6.351895
811.40 6.379361
811.50 6.375836
811.60 6.329161
811.70 6.258054
811.80 6.158097
811.90 6.089432
812.00 6.147855
812.10 6.27329
812.20 6.362593
812.30 6.406517
812.40 6.398249
812.50 6.387249
812.60 6.427157
812.70 6.45691
812.80 6.46529
812.90 6.462733
813.00 6.436471
813.10 6.43316
813.20 6.448618
813.30 6.445385
813.40 6.421225
813.50 6.399897
813.60 6.417057
813.70 6.462375
813.80 6.499743
813.90 6.527895
814.00 6.520919
814.10 6.462864
814.20 6.429369
814.30 6.42522
814.40 6.402871
814.50 6.384094
814.60 6.389016
814.70 6.412657
814.80 6.4244
814.90 6.400476
815.00 6.347251
815.10 6.313984
815.20 6.33336
815.30 6.369358
815.40 6.398941
815.50 6.417702
815.60 6.405664
815.70 6.374112
815.80 6.368507
815.90 6.399668
816.00 6.418124
816.10 6.386563
816.20 6.32434
816.30 6.261429
816.40 6.221124
816.50 6.232434
816.60 6.301447
816.70 6.388451
816.80 6.467338
816.90 6.52854
817.00 6.531372
817.10 6.474122
817.20 6.417508
817.30 6.416229
817.40 6.453075
817.50 6.47784
817.60 6.478496
817.70 6.426725
817.80 6.337756
817.90 6.27594
818.00 6.234929
818.10 6.145516
818.20 5.933692
818.30 5.524096
818.40 4.986603
818.50 4.608184
818.60 4.604086
818.70 4.954758
818.80 5.430344
818.90 5.794276
819.00 6.005783
819.10 6.092393
819.20 6.061736
819.30 5.883062
819.40 5.479342
819.50 4.889544
819.60 4.367311
819.70 4.173305
819.80 4.40107
819.90 4.911022
820.00 5.403341
820.10 5.716594
820.20 5.90265
820.30 6.046695
820.40 6.146753
820.50 6.169532
820.60 6.12718
820.70 6.075364
820.80 6.067516
820.90 6.09761
821.00 6.135228
821.10 6.164476
821.20 6.18151
821.30 6.202985
821.40 6.228347
821.50 6.227063
821.60 6.215371
821.70 6.205485
821.80 6.190054
821.90 6.202007
822.00 6.21789
822.10 6.200394
822.20 6.165842
822.30 6.143749
822.40 6.182269
822.50 6.276955
822.60 6.348116
822.70 6.357969
822.80 6.338881
822.90 6.300906
823.00 6.272541
823.10 6.319469
823.20 6.391787
823.30 6.397247
823.40 6.34527
823.50 6.269642
823.60 6.209629
823.70 6.220503
823.80 6.32146
823.90 6.442897
824.00 6.478216
824.10 6.46319
824.20 6.484208
824.30 6.482954
824.40 6.412393
824.50 6.367373
824.60 6.404201
824.70 6.492541
824.80 6.626539
824.90 6.747722
825.00 6.78856
825.10 6.787283
825.20 6.75931
825.30 6.671928
825.40 6.5629
825.50 6.48546
825.60 6.407243
825.70 6.30493
825.80 6.233722
825.90 6.240392
826.00 6.324519
826.10 6.435837
826.20 6.51258
826.30 6.542935
826.40 6.557375
826.50 6.573807
826.60 6.597103
826.70 6.635566
826.80 6.682475
826.90 6.700406
827.00 6.66609
827.10 6.605675
827.20 6.531823
827.30 6.437485
827.40 6.337132
827.50 6.252023
827.60 6.19591
827.70 6.179067
827.80 6.232432
827.90 6.344257
828.00 6.446179
828.10 6.470088
828.20 6.368054
828.30 6.247151
828.40 6.238614
828.50 6.295242
828.60 6.368709
828.70 6.398174
828.80 6.329372
828.90 6.250082
829.00 6.179709
829.10 6.060278
829.20 5.945203
829.30 5.902527
829.40 5.927906
829.50 6.020456
829.60 6.146468
829.70 6.250494
829.80 6.354979
829.90 6.499174
830.00 6.448436
830.10 6.347323
830.20 6.246209
830.30 6.175149
830.40 6.104089
830.50 6.111163
830.60 6.118237
830.70 6.112207
830.80 6.106178
830.90 6.130237
831.00 6.154296
831.10 6.242321
831.20 6.330346
831.30 6.290155
831.40 6.249964
831.50 6.228186
831.60 6.206409
831.70 6.220497
831.80 6.234585
831.90 6.229008
832.00 6.223431
832.10 6.194825
832.20 6.166219
832.30 6.160512
832.40 6.154806
832.50 6.172494
832.60 6.190182
832.70 6.091116
832.80 5.99205
832.90 5.945107
833.00 5.898164
833.10 5.987942
833.20 6.07772
833.30 6.12335
833.40 6.168981
833.50 6.117301
833.60 6.065622
833.70 6.057574
833.80 6.049527
833.90 6.0894
834.00 6.129274
834.10 6.175966
834.20 6.222658
834.30 6.337125
834.40 6.451591
834.50 6.506661
834.60 6.561731
834.70 6.309285
834.80 6.056839
834.90 5.996093
835.00 5.935346
835.10 6.073252
835.20 6.211159
835.30 6.220789
835.40 6.23042
835.50 6.157566
835.60 6.084713
835.70 6.115882
835.80 6.14705
835.90 6.183183
836.00 6.219316
836.10 6.208649
836.20 6.197983
836.30 6.149283
836.40 6.100583
836.50 6.035446
836.60 5.97031
836.70 6.004476
836.80 6.038642
836.90 6.122457
837.00 6.206273
837.10 6.251693
837.20 6.297113
837.30 6.263418
837.40 6.229723
837.50 6.15885
837.60 6.087976
837.70 6.02486
837.80 5.961743
837.90 5.973867
838.00 5.985992
838.10 6.008416
838.20 6.03084
838.30 5.942612
838.40 5.854385
838.50 5.795157
838.60 5.735929
838.70 5.715062
838.80 5.694194
838.90 5.665036
839.00 5.635877
839.10 5.738605
839.20 5.841334
839.30 5.975874
839.40 6.110414
839.50 6.086226
839.60 6.062038
839.70 6.079903
839.80 6.097767
839.90 6.131174
840.00 6.16458
840.10 6.055844
840.20 6.112448
840.30 6.16442
840.40 6.179024
840.50 6.187283
840.60 6.202191
840.70 6.222735
840.80 6.238144
840.90 6.235552
841.00 6.230544
841.10 6.172063
841.20 6.105053
841.30 6.021394
841.40 5.927835
841.50 5.883558
841.60 5.951755
841.70 6.016021
841.80 6.060283
841.90 6.100598
842.00 6.110949
842.10 6.110082
842.20 6.11058
842.30 6.092153
842.40 6.073663
842.50 6.036032
842.60 5.995216
842.70 5.923175
842.80 5.833651
842.90 5.798495
843.00 5.873856
843.10 5.944409
843.20 5.997139
843.30 6.040526
843.40 5.903811
843.50 5.668725
843.60 5.454202
843.70 5.27534
843.80 5.131116
843.90 5.341767
844.00 5.557484
844.10 5.716213
844.20 5.845641
844.30 5.915313
844.40 5.91904
844.50 5.92717
844.60 5.90309
844.70 5.881534
844.80 5.875987
844.90 5.870215
845.00 5.858863
845.10 5.868407
845.20 5.868165
845.30 5.876241
845.40 5.889408
845.50 5.896309
845.60 5.896114
845.70 5.904407
845.80 5.905544
845.90 5.906628
846.00 5.889528
846.10 5.872662
846.20 5.870769
846.30 5.873674
846.40 5.860066
846.50 5.834667
846.60 5.804619
846.70 5.736666
846.80 5.669286
846.90 5.591729
847.00 5.510088
847.10 5.496847
847.20 5.571748
847.30 5.647571
847.40 5.704064
847.50 5.759298
847.60 5.784113
847.70 5.799751
847.80 5.817897
847.90 5.836476
848.00 5.850105
848.10 5.850317
848.20 5.849824
848.30 5.843762
848.40 5.836546
848.50 5.848832
848.60 5.880649
848.70 5.908106
848.80 5.916716
848.90 5.92544
849.00 5.950002
849.10 5.977546
849.20 5.98908
849.30 5.980468
849.40 5.954103
849.50 5.899091
849.60 5.838915
849.70 5.641352
849.80 5.424568
849.90 5.25818
850.00 5.135497
850.10 5.094734
850.20 5.306376
850.30 5.519856
850.40 5.669058
850.50 5.804625
850.60 5.847244
850.70 5.829918
850.80 5.825781
850.90 5.833495
851.00 5.846804
851.10 5.870158
851.20 5.890512
851.30 5.852029
851.40 5.779014
851.50 5.696696
851.60 5.612285
851.70 5.530042
851.80 5.53985
851.90 5.555364
852.00 5.590263
852.10 5.63371
852.20 5.686719
852.30 5.753198
852.40 5.820184
852.50 5.844919
852.60 5.867849
852.70 5.868227
852.80 5.857517
852.90 5.851587
853.00 5.864202
853.10 5.876245
853.20 5.852253
853.30 5.828758
853.40 5.829765
853.50 5.840265
853.60 5.836442
853.70 5.812784
853.80 5.778383
853.90 5.646869
854.00 5.510111
854.10 5.241548
854.20 4.928493
854.30 4.653949
854.40 4.440198
854.50 4.294595
854.60 4.578211
854.70 4.864737
854.80 5.112387
854.90 5.345291
855.00 5.520394
855.10 5.632569
855.20 5.735402
855.30 5.794052
855.40 5.850604
855.50 5.874175
855.60 5.891883
855.70 5.907569
855.80 5.921553
855.90 5.92234
856.00 5.904961
856.10 5.89171
856.20 5.874276
856.30 5.856673
856.40 5.868799
856.50 5.900569
856.60 5.932163
856.70 5.950602
856.80 5.963326
856.90 5.972973
857.00 5.984524
857.10 5.98388
857.20 5.973949
857.30 5.96463
857.40 5.958879
857.50 5.956382
857.60 5.959079
857.70 5.961933
857.80 5.96718
857.90 5.972488
858.00 5.975912
858.10 5.985942
858.20 5.994408
858.30 5.972983
858.40 5.952518
858.50 5.950044
858.60 5.954768
858.70 5.966603
858.80 5.994544
858.90 6.020484
859.00 6.021109
859.10 6.020289
859.20 6.010887
859.30 5.998788
859.40 5.98786
859.50 5.972242
859.60 5.961142
859.70 5.960102
859.80 5.957556
859.90 5.947906
860.00 5.937353
860.10 5.937213
860.20 5.950412
860.30 5.962481
860.40 5.970404
860.50 5.979888
860.60 5.98735
860.70 5.99241
860.80 5.98939
860.90 5.98326
861.00 5.974992
861.10 5.955113
861.20 5.934497
861.30 5.901868
861.40 5.867933
861.50 5.87459
861.60 5.918665
861.70 5.955031
861.80 5.961558
861.90 5.971875
862.00 5.983366
862.10 5.991891
862.20 5.984945
862.30 5.967832
862.40 5.949925
862.50 5.937378
862.60 5.926444
862.70 5.949099
862.80 5.974649
862.90 5.989308
863.00 5.99678
863.10 6.000406
863.20 5.996584
863.30 5.994523
863.40 5.967104
863.50 5.935531
863.60 5.927385
863.70 5.935505
863.80 5.946256
863.90 5.96869
864.00 5.993198
864.10 6.006258
864.20 6.019414
864.30 6.041361
864.40 6.067661
864.50 6.079628
864.60 6.073151
864.70 6.064251
864.80 6.044947
864.90 6.026759
865.00 6.02624
865.10 6.03289
865.20 6.037821
865.30 6.03016
865.40 6.020368
865.50 6.00736
865.60 5.993883
865.70 5.969704
865.80 5.939645
865.90 5.860492
866.00 5.723137
866.10 5.553494
866.20 5.225468
866.30 4.907177
866.40 4.75534
866.50 4.653577
866.60 4.775437
866.70 5.130744
866.80 5.459791
866.90 5.664586
867.00 5.861021
867.10 5.933885
867.20 5.983942
867.30 6.004341
867.40 5.992693
867.50 5.960174
867.60 5.879306
867.70 5.803637
867.80 5.820598
867.90 5.849762
868.00 5.917085
868.10 6.01141
868.20 6.063392
868.30 6.017264
868.40 5.972535
868.50 5.950094
868.60 5.926944
868.70 5.876238
868.80 5.80755
868.90 5.703157
869.00 5.54736
869.10 5.400899
869.20 5.462912
869.30 5.530032
869.40 5.608035
869.50 5.690464
869.60 5.752529
869.70 5.770113
869.80 5.790906
869.90 5.804099
870.00 5.815627
870.10 5.814493
870.20 5.808454
870.30 5.812238
870.40 5.829632
870.50 5.845055
870.60 5.865344
870.70 5.884772
870.80 5.895677
870.90 5.904812
871.00 5.895425
871.10 5.869101
871.20 5.844843
871.30 5.823843
871.40 5.806651
871.50 5.826605
871.60 5.853521
871.70 5.861931
871.80 5.855235
871.90 5.852365
872.00 5.855249
872.10 5.859797
872.20 5.902908
872.30 5.9534
872.40 5.987638
872.50 6.008485
872.60 6.030626
872.70 6.054004
872.80 6.080596
872.90 6.105179
873.00 6.125275
873.10 6.113834
873.20 6.087705
873.30 6.053491
873.40 6.012923
873.50 5.978383
873.60 5.959161
873.70 5.940853
873.80 5.942623
873.90 5.955694
874.00 5.976316
874.10 6.00553
874.20 6.036464
874.30 6.066649
874.40 6.097336
874.50 6.105025
874.60 6.100722
874.70 6.09216
874.80 6.093206
874.90 6.090262
875.00 6.061566
875.10 6.037838
875.20 6.049323
875.30 6.06945
875.40 6.092178
875.50 6.115492
875.60 6.124646
875.70 6.07833
875.80 6.03595
875.90 6.034782
876.00 6.042945
876.10 6.062869
876.20 6.093542
876.30 6.110139
876.40 6.092457
876.50 6.071169
876.60 6.022992
876.70 5.974493
876.80 5.966556
876.90 5.986575
877.00 6.021599
877.10 6.07001
877.20 6.11506
877.30 6.105361
877.40 6.089017
877.50 6.065161
877.60 6.037895
877.70 6.030557
877.80 6.094083
877.90 6.149553
878.00 6.113088
878.10 6.076534
878.20 6.060043
878.30 6.047978
878.40 6.049997
878.50 6.067977
878.60 6.082152
878.70 6.087412
878.80 6.092556
878.90 6.091517
879.00 6.087906
879.10 6.087188
879.20 6.086162
879.30 6.081674
879.40 6.057895
879.50 6.035842
879.60 6.038304
879.70 6.048348
879.80 6.057893
879.90 6.068599
880.00 6.067623
880.10 6.049843
880.20 6.03163
880.30 5.962192
880.40 5.880334
880.50 5.805584
880.60 5.725242
880.70 5.646293
880.80 5.559419
880.90 5.479931
881.00 5.57731
881.10 5.709873
881.20 5.860251
881.30 6.021101
881.40 6.149779
881.50 6.181122
881.60 6.207032
881.70 6.212608
881.80 6.218216
881.90 6.220292
882.00 6.218359
882.10 6.193798
882.20 6.138859
882.30 6.077618
882.40 5.948008
882.50 5.821067
882.60 5.761072
882.70 5.733078
882.80 5.772666
882.90 5.91297
883.00 6.053136
883.10 6.096389
883.20 6.136694
883.30 6.171403
883.40 6.205709
883.50 6.216891
883.60 6.203319
883.70 6.190376
883.80 6.185191
883.90 6.181057
884.00 6.161587
884.10 6.13721
884.20 6.139042
884.30 6.168489
884.40 6.186718
884.50 6.174807
884.60 6.163018
884.70 6.158121
884.80 6.155348
884.90 6.149439
885.00 6.141075
885.10 6.149353
885.20 6.169188
885.30 6.1913
885.40 6.236465
885.50 6.279163
885.60 6.28588
885.70 6.276479
885.80 6.247238
885.90 6.199994
886.00 6.146872
886.10 6.071127
886.20 6.000152
886.30 5.970406
886.40 5.955684
886.50 5.967552
886.60 5.984162
886.70 5.994888
886.80 5.973135
886.90 5.944423
887.00 5.910713
887.10 5.884631
887.20 5.860349
887.30 5.841006
887.40 5.838268
887.50 5.850301
887.60 5.862647
887.70 5.889184
887.80 5.918322
887.90 5.959239
888.00 6.012495
888.10 6.052416
888.20 6.063477
888.30 6.072473
888.40 6.063402
888.50 6.052297
888.60 6.029569
888.70 5.995472
888.80 5.977876
888.90 5.985655
889.00 5.992343
889.10 6.01875
889.20 6.047876
889.30 6.056109
889.40 6.050674
889.50 6.032777
889.60 5.997176
889.70 5.964253
889.80 5.933898
889.90 5.905686
890.00 5.908214
890.10 5.92587
890.20 5.951788
890.30 5.984601
890.40 6.01392
890.50 6.025125
890.60 6.034924
890.70 6.047295
890.80 6.062916
890.90 6.060365
891.00 6.035745
891.10 6.011039
891.20 5.963898
891.30 5.919942
891.40 5.921476
891.50 5.937221
891.60 5.955207
891.70 5.975777
891.80 5.993924
891.90 6.010934
892.00 6.027599
892.10 6.027312
892.20 6.02141
892.30 6.008259
892.40 5.990748
892.50 5.977524
892.60 5.979043
892.70 5.979796
892.80 5.96347
892.90 5.944794
893.00 5.951141
893.10 5.97523
893.20 6.001575
893.30 6.029509
893.40 6.055733
893.50 6.07875
893.60 6.097463
893.70 6.095537
893.80 6.09115
893.90 6.075338
894.00 6.033751
894.10 6.000397
894.20 5.974449
894.30 5.948591
894.40 5.947753
894.50 5.957204
894.60 5.949259
894.70 5.921767
894.80 5.899616
894.90 5.909948
895.00 5.91741
895.10 5.943251
895.20 5.979115
895.30 6.011152
895.40 6.037967
895.50 6.064884
895.60 6.074131
895.70 6.083522
895.80 6.084144
895.90 6.081438
896.00 6.065701
896.10 6.041838
896.20 6.022421
896.30 6.035317
896.40 6.048662
896.50 6.043933
896.60 6.03405
896.70 6.026155
896.80 6.021058
896.90 6.021987
897.00 6.022503
897.10 6.022796
897.20 6.03716
897.30 6.052338
897.40 6.045423
897.50 6.024401
897.60 6.008861
897.70 5.994551
897.80 5.978088
897.90 5.983813
898.00 5.990227
898.10 6.014773
898.20 6.051761
898.30 6.081201
898.40 6.079562
898.50 6.083387
898.60 6.119885
898.70 6.151657
898.80 6.150705
898.90 6.140931
899.00 6.127461
899.10 6.113475
899.20 6.105999
899.30 6.118774
899.40 6.131811
899.50 6.146074
899.60 6.160421
899.70 6.157222
899.80 6.142083
899.90 6.11464
900.00 6.034193
900.10 5.959846
900.20 5.959911
900.30 5.97061
900.40 6.042605
900.50 6.156012
900.60 6.239431
900.70 6.254155
900.80 6.261151
900.90 6.23524
901.00 6.210085
901.10 6.151801
901.20 6.071625
901.30 6.033798
901.40 6.074282
901.50 6.113586
901.60 6.139774
901.70 6.162639
901.80 6.148154
901.90 6.121755
902.00 6.101642
902.10 6.087374
902.20 6.073511
902.30 6.083907
902.40 6.095181
902.50 6.100709
902.60 6.105114
902.70 6.102815
902.80 6.087987
902.90 6.075929
903.00 6.074455
903.10 6.075338
903.20 6.123693
903.30 6.182808
903.40 6.207031
903.50 6.201067
903.60 6.197721
903.70 6.207012
903.80 6.214795
903.90 6.214528
904.00 6.211639
904.10 6.222914
904.20 6.248003
904.30 6.252099
904.40 6.204328
904.50 6.161923
904.60 6.151375
904.70 6.1412
904.80 6.125188
904.90 6.105114
905.00 6.095323
905.10 6.116138
905.20 6.129878
905.30 6.108786
905.40 6.090442
905.50 6.089317
905.60 6.093412
905.70 6.095247
905.80 6.091377
905.90 6.088134
906.00 6.068605
906.10 6.050387
906.20 6.009031
906.30 5.958962
906.40 5.93105
906.50 5.933474
906.60 5.940191
906.70 5.975744
906.80 6.011878
906.90 6.047101
907.00 6.082805
907.10 6.11163
907.20 6.137079
907.30 6.16508
907.40 6.168715
907.50 6.169041
907.60 6.163524
907.70 6.158337
907.80 6.16898
907.90 6.185697
908.00 6.193519
908.10 6.187659
908.20 6.177605
908.30 6.172477
908.40 6.170232
908.50 6.156039
908.60 6.134076
908.70 6.095501
908.80 6.029536
908.90 5.961092
909.00 5.862073
909.10 5.767105
909.20 5.773503
909.30 5.812942
909.40 5.874555
909.50 5.961789
909.60 6.041103
909.70 6.074753
909.80 6.107781
909.90 6.123038
910.00 6.13451
910.10 6.155006
910.20 6.183614
910.30 6.204523
910.40 6.208576
910.50 6.211509
910.60 6.193398
910.70 6.174104
910.80 6.151538
910.90 6.123743
911.00 6.11015
911.10 6.117874
911.20 6.12463
911.30 6.123094
911.40 6.119368
911.50 6.117581
911.60 6.122246
911.70 6.120492
911.80 6.115051
911.90 6.112635
912.00 6.086667
912.10 6.061651
912.20 6.066721
912.30 6.080237
912.40 6.102584
912.50 6.149662
912.60 6.191263
912.70 6.175831
912.80 6.16028
912.90 6.165273
913.00 6.175356
913.10 6.185539
913.20 6.195723
913.30 6.213814
913.40 6.261545
913.50 6.307068
913.60 6.307673
913.70 6.300487
913.80 6.257022
913.90 6.188576
914.00 6.125391
914.10 6.082958
914.20 6.046303
914.30 6.075332
914.40 6.109328
914.50 6.12878
914.60 6.13262
914.70 6.121137
914.80 6.09686
914.90 6.070309
915.00 6.075153
915.10 6.082444
915.20 6.092141
915.30 6.10043
915.40 6.122267
915.50 6.156604
915.60 6.189101
915.70 6.208051
915.80 6.223577
915.90 6.216855
916.00 6.208515
916.10 6.197736
916.20 6.189878
916.30 6.178997
916.40 6.153725
916.50 6.132176
916.60 6.140575
916.70 6.15123
916.80 6.153951
916.90 6.153415
917.00 6.152163
917.10 6.156298
917.20 6.160175
917.30 6.164612
917.40 6.170038
917.50 6.175076
917.60 6.180443
917.70 6.198905
917.80 6.245225
917.90 6.292625
918.00 6.27863
918.10 6.263409
918.20 6.234587
918.30 6.199926
918.40 6.176048
918.50 6.177218
918.60 6.178457
918.70 6.1708
918.80 6.163814
918.90 6.185258
919.00 6.212244
919.10 6.223524
919.20 6.215168
919.30 6.197205
919.40 6.182581
919.50 6.170732
919.60 6.18298
919.70 6.199548
919.80 6.215935
919.90 6.222031
920.00 6.222886
920.10 6.219159
920.20 6.21619
920.30 6.240874
920.40 6.267823
920.50 6.288367
920.60 6.307639
920.70 6.308073
920.80 6.272385
920.90 6.234373
921.00 6.160343
921.10 6.089186
921.20 6.083429
921.30 6.100938
921.40 6.123939
921.50 6.152164
921.60 6.176583
921.70 6.186812
921.80 6.197487
921.90 6.187914
922.00 6.173618
922.10 6.158443
922.20 6.144675
922.30 6.133649
922.40 6.135724
922.50 6.1388
922.60 6.104605
922.70 6.059618
922.80 6.027135
922.90 6.004073
923.00 5.974591
923.10 5.931697
923.20 5.888418
923.30 5.870676
923.40 5.85831
923.50 5.889333
923.60 5.942415
923.70 5.995224
923.80 6.042883
923.90 6.089378
924.00 6.087793
924.10 6.086923
924.20 6.104592
924.30 6.125308
924.40 6.139222
924.50 6.144777
924.60 6.140902
924.70 6.124329
924.80 6.11057
924.90 6.097216
925.00 6.08322
925.10 6.088486
925.20 6.116431
925.30 6.143782
925.40 6.150233
925.50 6.157578
925.60 6.13695
925.70 6.105873
925.80 6.081508
925.90 6.062663
926.00 6.035681
926.10 6.006123
926.20 5.979396
926.30 5.949848
926.40 5.9207
926.50 5.914127
926.60 5.921675
926.70 5.937587
926.80 5.980621
926.90 6.021103
927.00 6.046172
927.10 6.072099
927.20 6.098146
927.30 6.124159
927.40 6.131629
927.50 6.108991
927.60 6.087031
927.70 6.064471
927.80 6.041905
927.90 6.033656
928.00 6.030461
928.10 6.025439
928.20 6.007897
928.30 5.998684
928.40 6.02365
928.50 6.045726
928.60 6.061572
928.70 6.078086
928.80 6.064785
928.90 6.027212
929.00 5.992427
929.10 5.962476
929.20 5.933118
929.30 5.918415
929.40 5.903829
929.50 5.929046
929.60 5.980583
929.70 6.023728
929.80 6.049483
929.90 6.071207
930.00 6.059003
930.10 6.046824
930.20 6.04586
930.30 6.047854
930.40 6.058939
930.50 6.08275
930.60 6.105071
930.70 6.097435
930.80 6.088292
930.90 6.088461
931.00 6.093177
931.10 6.084254
931.20 6.042305
931.30 6.010035
931.40 6.070743
931.50 6.132468
931.60 6.142305
931.70 6.143377
931.80 6.113061
931.90 6.056171
932.00 6.013877
932.10 6.051641
932.20 6.088988
932.30 6.130335
932.40 6.169654
932.50 6.178525
932.60 6.16954
932.70 6.153299
932.80 6.101286
932.90 6.048471
933.00 6.072508
933.10 6.095514
933.20 6.107774
933.30 6.112267
933.40 6.108753
933.50 6.082396
933.60 6.057286
933.70 6.05022
933.80 6.048665
933.90 6.105294
934.00 6.18183
934.10 6.209574
934.20 6.17673
934.30 6.144846
934.40 6.14158
934.50 6.144942
934.60 6.086022
934.70 6.010024
934.80 6.002974
934.90 6.064493
935.00 6.110996
935.10 6.108962
935.20 6.101107
935.30 6.07893
935.40 6.058342
935.50 6.032707
935.60 6.002015
935.70 5.993296
935.80 5.984696
935.90 5.982091
936.00 5.992012
936.10 5.998005
936.20 5.999066
936.30 5.995892
936.40 5.992628
936.50 6.018954
936.60 6.052045
936.70 6.076773
936.80 6.041808
936.90 6.009568
937.00 5.995265
937.10 6.005238
937.20 6.016778
937.30 5.981172
937.40 5.920782
937.50 5.853954
937.60 5.92937
937.70 6.006738
937.80 6.065111
937.90 6.068437
938.00 6.077537
938.10 6.063827
938.20 6.033262
938.30 6.002287
938.40 6.00135
938.50 6.004997
938.60 6.008624
938.70 6.017822
938.80 6.030583
938.90 6.021075
939.00 5.979093
939.10 5.934188
939.20 5.942584
939.30 5.975486
939.40 6.008095
939.50 5.979208
939.60 5.950951
939.70 5.929517
939.80 5.927916
939.90 5.925641
940.00 5.929208
940.10 5.936276
940.20 5.941601
940.30 5.928182
940.40 5.909198
940.50 5.89225
940.60 5.899597
940.70 5.906309
940.80 5.917607
940.90 5.935901
941.00 5.956881
941.10 5.964834
941.20 5.968306
941.30 5.973316
941.40 5.96222
941.50 5.949784
941.60 5.941032
941.70 5.940065
941.80 5.939391
941.90 5.937461
942.00 5.934398
942.10 5.929753
942.20 5.945387
942.30 5.965115
942.40 5.983868
942.50 6.000849
942.60 6.018094
942.70 6.03276
942.80 6.042829
942.90 6.057604
943.00 6.044189
943.10 6.015801
943.20 5.98369
943.30 6.023891
943.40 6.066204
943.50 6.094474
943.60 6.074591
943.70 6.060716
943.80 6.038107
943.90 6.008773
944.00 5.981825
944.10 5.965116
944.20 5.951348
944.30 5.938242
944.40 5.934304
944.50 5.928281
944.60 5.923846
944.70 5.918448
944.80 5.910601
944.90 5.917422
945.00 5.93198
945.10 5.945899
945.20 5.96162
945.30 5.977468
945.40 5.989445
945.50 5.989186
945.60 5.992204
945.70 5.982679
945.80 5.961827
945.90 5.941822
946.00 5.968072
946.10 6.006013
946.20 6.038487
946.30 6.009274
946.40 5.977319
946.50 5.96591
946.60 5.993642
946.70 6.022019
946.80 6.03378
946.90 6.036025
947.00 6.039977
947.10 6.011141
947.20 5.97961
947.30 5.956614
947.40 5.966046
947.50 5.976333
947.60 5.979517
947.70 5.974459
947.80 5.96831
947.90 5.983219
948.00 6.003466
948.10 6.021457
948.20 6.01385
948.30 6.011199
948.40 6.000527
948.50 5.977088
948.60 5.947621
948.70 5.963066
948.80 6.002085
948.90 6.043566
949.00 6.030812
949.10 6.012735
949.20 5.999702
949.30 6.008744
949.40 6.020684
949.50 6.004544
949.60 5.962788
949.70 5.922941
949.80 5.94055
949.90 5.969938
950.00 5.997588
950.10 6.038501
950.20 6.084015
950.30 6.093733
950.40 6.039757
950.50 5.983582
950.60 5.978726
950.70 6.000688
950.80 6.022218
950.90 6.005483
951.00 5.986277
951.10 5.970729
951.20 5.971199
951.30 5.971889
951.40 5.966852
951.50 5.957472
951.60 5.950175
951.70 5.969588
951.80 5.995018
951.90 6.01807
952.00 6.017179
952.10 6.014336
952.20 6.018722
952.30 6.03498
952.40 6.050644
952.50 6.054311
952.60 6.050752
952.70 6.045688
952.80 6.068768
952.90 6.09567
953.00 6.112
953.10 6.089858
953.20 6.067559
953.30 6.052595
953.40 6.045322
953.50 6.037889
953.60 6.017628
953.70 5.994569
953.80 5.974913
953.90 5.980786
954.00 5.98475
954.10 5.98194
954.20 5.968333
954.30 5.955503
954.40 5.922932
954.50 5.881239
954.60 5.841505
954.70 5.771074
954.80 5.697853
954.90 5.657474
955.00 5.72175
955.10 5.781822
955.20 5.843269
955.30 5.906475
955.40 5.972245
955.50 5.981078
955.60 5.979411
955.70 5.980931
955.80 6.000758
955.90 6.017946
956.00 6.028311
956.10 6.029607
956.20 6.031431
956.30 6.040518
956.40 6.052965
956.50 6.067181
956.60 6.052786
956.70 6.039902
956.80 6.029645
956.90 6.028154
957.00 6.022794
957.10 6.01554
957.20 6.006899
957.30 5.999439
957.40 5.946817
957.50 5.886174
957.60 5.836545
957.70 5.863042
957.80 5.885571
957.90 5.911583
958.00 5.942982
958.10 5.975917
958.20 5.978196
958.30 5.967237
958.40 5.955822
958.50 5.953602
958.60 5.94943
958.70 5.946221
958.80 5.945226
958.90 5.94823
959.00 5.946621
959.10 5.942644
959.20 5.939706
959.30 5.935582
959.40 5.930043
959.50 5.924199
959.60 5.921898
959.70 5.921642
959.80 5.887874
959.90 5.809031
960.00 5.733369
960.10 5.688726
960.20 5.650496
960.30 5.608385
960.40 5.697343
960.50 5.787636
960.60 5.857237
960.70 5.879528
960.80 5.906831
960.90 5.931643
961.00 5.955428
961.10 5.979389
961.20 5.981364
961.30 5.981081
961.40 5.980616
961.50 5.975632
961.60 5.968792
961.70 5.961873
961.80 5.953499
961.90 5.942094
962.00 5.941676
962.10 5.947573
962.20 5.953512
962.30 5.938037
962.40 5.922652
962.50 5.917616
962.60 5.933903
962.70 5.949861
962.80 5.957611
962.90 5.960513
963.00 5.963935
963.10 5.967069
963.20 5.969278
963.30 5.966257
963.40 5.944959
963.50 5.925336
963.60 5.871676
963.70 5.783121
963.80 5.704413
963.90 5.587283
964.00 5.454294
964.10 5.335684
964.20 5.457571
964.30 5.566847
964.40 5.664864
964.50 5.74594
964.60 5.839762
964.70 5.819148
964.80 5.736967
964.90 5.656789
965.00 5.683042
965.10 5.710395
965.20 5.743316
965.30 5.802809
965.40 5.863141
965.50 5.890503
965.60 5.886209
965.70 5.883249
965.80 5.873058
965.90 5.862959
966.00 5.854689
966.10 5.854242
966.20 5.85359
966.30 5.8562
966.40 5.865556
966.50 5.877651
966.60 5.878229
966.70 5.873035
966.80 5.867546
966.90 5.86074
967.00 5.854229
967.10 5.843854
967.20 5.822633
967.30 5.803629
967.40 5.735416
967.50 5.627859
967.60 5.524313
967.70 5.481778
967.80 5.44419
967.90 5.426737
968.00 5.574318
968.10 5.714922
968.20 5.810551
968.30 5.847833
968.40 5.893131
968.50 5.900835
968.60 5.895672
968.70 5.891297
968.80 5.823061
968.90 5.755721
969.00 5.705124
969.10 5.691065
969.20 5.666626
969.30 5.704205
969.40 5.785143
969.50 5.865168
969.60 5.895717
969.70 5.921406
969.80 5.940214
969.90 5.919808
970.00 5.903433
970.10 5.885543
970.20 5.86575
970.30 5.848369
970.40 5.770641
970.50 5.675781
970.60 5.585336
970.70 5.532082
970.80 5.471021
970.90 5.47342
971.00 5.60139
971.10 5.719464
971.20 5.788633
971.30 5.831296
971.40 5.877093
971.50 5.894162
971.60 5.911987
971.70 5.919436
971.80 5.883264
971.90 5.849955
972.00 5.82514
972.10 5.807246
972.20 5.78694
972.30 5.809719
972.40 5.843269
972.50 5.87032
972.60 5.835113
972.70 5.807695
972.80 5.750437
972.90 5.642102
973.00 5.532855
973.10 5.52673
973.20 5.567061
973.30 5.602626
973.40 5.674947
973.50 5.749242
973.60 5.802657
973.70 5.79253
973.80 5.786482
973.90 5.785322
974.00 5.788488
974.10 5.78983
974.20 5.753241
974.30 5.712549
974.40 5.67145
974.50 5.61992
974.60 5.564587
974.70 5.561737
974.80 5.628669
974.90 5.691169
975.00 5.745066
975.10 5.794858
975.20 5.844079
975.30 5.851317
975.40 5.861732
975.50 5.873842
975.60 5.886762
975.70 5.899574
975.80 5.908992
975.90 5.916777
976.00 5.92339
976.10 5.912688
976.20 5.901646
976.30 5.893297
976.40 5.892251
976.50 5.887556
976.60 5.883797
976.70 5.881099
976.80 5.880778
976.90 5.830569
977.00 5.768386
977.10 5.710377
977.20 5.682751
977.30 5.647716
977.40 5.653198
977.50 5.732404
977.60 5.808057
977.70 5.843312
977.80 5.85694
977.90 5.871571
978.00 5.863769
978.10 5.86034
978.20 5.831331
978.30 5.712039
978.40 5.597953
978.50 5.519957
978.60 5.472635
978.70 5.41979
978.80 5.456328
978.90 5.504998
979.00 5.554477
979.10 5.633086
979.20 5.710434
979.30 5.788056
979.40 5.865372
979.50 5.945145
979.60 5.960784
979.70 5.952464
979.80 5.946403
979.90 5.946986
980.00 5.94887
980.10 5.950623
980.20 5.951195
980.30 5.952068
980.40 5.957265
980.50 5.966117
980.60 5.975016
980.70 5.967383
980.80 5.957563
980.90 5.950427
981.00 5.953821
981.10 5.95468
981.20 5.948323
981.30 5.934806
981.40 5.923271
981.50 5.909922
981.60 5.896037
981.70 5.883644
981.80 5.882077
981.90 5.878812
982.00 5.87796
982.10 5.879238
982.20 5.881511
982.30 5.880484
982.40 5.877623
982.50 5.874375
982.60 5.878763
982.70 5.884045
982.80 5.888487
982.90 5.890647
983.00 5.894239
983.10 5.893157
983.20 5.887558
983.30 5.881789
983.40 5.884624
983.50 5.890085
983.60 5.896622
983.70 5.913057
983.80 5.92823
983.90 5.944451
984.00 5.960248
984.10 5.973614
984.20 5.974302
984.30 5.970399
984.40 5.966506
984.50 5.959964
984.60 5.954137
984.70 5.952394
984.80 5.957919
984.90 5.963639
985.00 5.95441
985.10 5.936894
985.20 5.920376
985.30 5.912394
985.40 5.903007
985.50 5.897426
985.60 5.909173
985.70 5.920776
985.80 5.928736
985.90 5.933341
986.00 5.939366
986.10 5.940537
986.20 5.940722
986.30 5.942258
986.40 5.957088
986.50 5.970933
986.60 5.980341
986.70 5.98315
986.80 5.987382
986.90 5.984248
987.00 5.977849
987.10 5.972007
987.20 5.981487
987.30 5.989292
987.40 5.996628
987.50 6.001275
987.60 6.007322
987.70 6.008622
987.80 6.008847
987.90 6.011464
988.00 6.00909
988.10 6.003909
988.20 6.000468
988.30 6.007304
988.40 6.011016
988.50 6.018416
988.60 6.030011
988.70 6.041991
988.80 6.024388
988.90 5.99899
989.00 5.97508
989.10 5.963687
989.20 5.952545
989.30 5.938142
989.40 5.918135
989.50 5.902279
989.60 5.866188
989.70 5.821611
989.80 5.781292
989.90 5.766636
990.00 5.747886
990.10 5.732117
990.20 5.731659
990.30 5.731452
990.40 5.701615
990.50 5.6454
990.60 5.591902
990.70 5.559878
990.80 5.528527
990.90 5.502323
991.00 5.525915
991.10 5.54321
991.20 5.55491
991.30 5.55968
991.40 5.569284
991.50 5.543371
991.60 5.501499
991.70 5.460521
991.80 5.456868
991.90 5.447501
992.00 5.451492
992.10 5.488482
992.20 5.52869
992.30 5.537138
992.40 5.527617
992.50 5.522192
992.60 5.521678
992.70 5.517407
992.80 5.519471
992.90 5.554019
993.00 5.58291
993.10 5.609356
993.20 5.635988
993.30 5.667638
993.40 5.648009
993.50 5.615411
993.60 5.588253
993.70 5.605128
993.80 5.614057
993.90 5.633878
994.00 5.671578
994.10 5.710622
994.20 5.719597
994.30 5.718259
994.40 5.720442
994.50 5.726667
994.60 5.730312
994.70 5.736512
994.80 5.750512
994.90 5.76182
995.00 5.771084
995.10 5.777702
995.20 5.783368
995.30 5.766332
995.40 5.747296
995.50 5.727867
995.60 5.70591
995.70 5.690504
995.80 5.67914
995.90 5.673037
996.00 5.66453
996.10 5.653533
996.20 5.637719
996.30 5.622419
996.40 5.642229
996.50 5.658346
996.60 5.678062
996.70 5.706165
996.80 5.742364
996.90 5.721929
997.00 5.67586
997.10 5.635065
997.20 5.602662
997.30 5.565794
997.40 5.541049
997.50 5.554687
997.60 5.559422
997.70 5.576291
997.80 5.603997
997.90 5.631959
998.00 5.649542
998.10 5.665723
998.20 5.67526
998.30 5.640468
998.40 5.613664
998.50 5.590617
998.60 5.573003
998.70 5.553958
998.80 5.561309
998.90 5.576422
999.00 5.588752
999.10 5.579826
999.20 5.570583
999.30 5.571435
999.40 5.59189
999.50 5.611982
999.60 5.614439
999.70 5.607448
999.80 5.602181
999.90 5.60102
1000.00 5.596616
1000.10 5.598669
1000.20 5.624609
1000.30 5.649246
1000.40 5.658465
1000.50 5.654771
1000.60 5.653618
1000.70 5.643716
1000.80 5.635328
1000.90 5.62575
1001.00 5.596474
1001.10 5.565896
1001.20 5.555622
1001.30 5.572388
1001.40 5.582282
1001.50 5.604778
1001.60 5.630707
1001.70 5.655168
1001.80 5.678572
1001.90 5.707917
1002.00 5.721924
1002.10 5.701401
1002.20 5.682641
1002.30 5.689265
1002.40 5.7111
1002.50 5.730391
1002.60 5.736856
1002.70 5.74235
1002.80 5.740632
1002.90 5.714304
1003.00 5.691798
1003.10 5.681315
1003.20 5.681182
1003.30 5.679302
1003.40 5.650902
1003.50 5.617026
1003.60 5.58583
1003.70 5.572947
1003.80 5.556319
1003.90 5.559365
1004.00 5.591031
1004.10 5.618918
1004.20 5.653732
1004.30 5.690822
1004.40 5.727594
1004.50 5.727953
1004.60 5.73173
1004.70 5.727735
1004.80 5.705003
1004.90 5.686036
1005.00 5.645319
1005.10 5.593341
1005.20 5.54394
1005.30 5.518213
1005.40 5.493839
1005.50 5.473908
1005.60 5.469054
1005.70 5.457278
1005.80 5.45738
1005.90 5.46727
1006.00 5.474984
1006.10 5.485349
1006.20 5.497982
1006.30 5.510656
1006.40 5.526821
1006.50 5.542597
1006.60 5.560473
1006.70 5.578743
1006.80 5.59379
1006.90 5.61855
1007.00 5.649225
1007.10 5.679152
1007.20 5.667963
1007.30 5.66029
1007.40 5.65864
1007.50 5.668812
1007.60 5.67405
1007.70 5.685072
1007.80 5.698996
1007.90 5.712824
1008.00 5.70758
1008.10 5.70171
1008.20 5.696942
1008.30 5.693446
1008.40 5.688633
1008.50 5.685956
1008.60 5.686229
1008.70 5.68698
1008.80 5.662331
1008.90 5.633814
1009.00 5.607896
1009.10 5.597312
1009.20 5.583555
1009.30 5.575688
1009.40 5.573614
1009.50 5.567662
1009.60 5.582707
1009.70 5.605298
1009.80 5.627705
1009.90 5.660815
1010.00 5.693227
1010.10 5.716967
1010.20 5.721846
1010.30 5.729237
1010.40 5.720509
1010.50 5.70416
1010.60 5.690607
1010.70 5.675707
1010.80 5.662472
1010.90 5.651122
1011.00 5.645448
1011.10 5.639563
1011.20 5.620477
1011.30 5.587433
1011.40 5.55283
1011.50 5.55006
1011.60 5.554764
1011.70 5.558274
1011.80 5.554423
1011.90 5.549288
1012.00 5.555974
1012.10 5.576557
1012.20 5.589655
1012.30 5.601297
1012.40 5.615578
1012.50 5.631295
1012.60 5.625753
1012.70 5.623217
1012.80 5.623589
1012.90 5.632648
1013.00 5.641096
1013.10 5.648702
1013.20 5.656601
1013.30 5.664405
1013.40 5.645904
1013.50 5.628297
1013.60 5.607174
1013.70 5.570652
1013.80 5.531609
1013.90 5.522928
1014.00 5.539872
1014.10 5.551324
1014.20 5.567773
1014.30 5.583743
1014.40 5.595641
1014.50 5.584185
1014.60 5.579503
1014.70 5.564739
1014.80 5.53561
1014.90 5.505946
1015.00 5.525437
1015.10 5.560641
1015.20 5.592638
1015.30 5.604392
1015.40 5.621984
1015.50 5.626748
1015.60 5.608288
1015.70 5.596908
1015.80 5.588564
1015.90 5.5781
1016.00 5.565288
1016.10 5.585775
1016.20 5.605902
1016.30 5.616728
1016.40 5.595614
1016.50 5.577363
1016.60 5.574632
1016.70 5.586161
1016.80 5.59604
1016.90 5.588396
1017.00 5.581629
1017.10 5.576066
1017.20 5.571423
1017.30 5.561418
1017.40 5.56966
1017.50 5.600239
1017.60 5.625109
1017.70 5.628897
1017.80 5.632176
1017.90 5.63824
1018.00 5.61449
1018.10 5.591401
1018.20 5.577624
1018.30 5.581568
1018.40 5.583346
1018.50 5.577484
1018.60 5.565104
1018.70 5.552666
1018.80 5.554733
1018.90 5.553571
1019.00 5.556611
1019.10 5.57626
1019.20 5.598107
1019.30 5.606215
1019.40 5.603268
1019.50 5.602396
1019.60 5.602929
1019.70 5.603036
1019.80 5.602994
1019.90 5.604599
1020.00 5.60819
1020.10 5.606712
1020.20 5.598055
1020.30 5.587877
1020.40 5.594763
1020.50 5.606504
1020.60 5.617478
1020.70 5.623375
1020.80 5.630942
1020.90 5.638511
1021.00 5.648087
1021.10 5.659855
1021.20 5.647165
1021.30 5.627424
1021.40 5.609798
1021.50 5.579899
1021.60 5.546509
1021.70 5.515401
1021.80 5.490446
1021.90 5.466926
1022.00 5.461664
1022.10 5.465174
1022.20 5.466662
1022.30 5.49532
1022.40 5.523352
1022.50 5.547861
1022.60 5.559514
1022.70 5.576535
1022.80 5.579245
1022.90 5.569665
1023.00 5.561693
1023.10 5.567746
1023.20 5.578906
1023.30 5.589402
1023.40 5.585236
1023.50 5.575717
1023.60 5.576289
1023.70 5.589519
1023.80 5.602151
1023.90 5.612902
1024.00 5.625076
1024.10 5.638596
1024.20 5.653946
1024.30 5.667455
1024.40 5.666489
1024.50 5.63509
1024.60 5.609675
1024.70 5.594261
1024.80 5.586166
1024.90 5.577156
1025.00 5.572278
1025.10 5.568437
1025.20 5.5613
1025.30 5.542245
1025.40 5.521721
1025.50 5.516588
1025.60 5.524245
1025.70 5.528529
1025.80 5.522314
1025.90 5.518603
1026.00 5.513524
1026.10 5.488023
1026.20 5.462317
1026.30 5.450324
1026.40 5.453424
1026.50 5.449935
1026.60 5.464436
1026.70 5.484202
1026.80 5.502565
1026.90 5.527791
1027.00 5.557328
1027.10 5.574515
1027.20 5.566853
1027.30 5.56384
1027.40 5.552967
1027.50 5.538902
1027.60 5.525677
1027.70 5.522136
1027.80 5.516408
1027.90 5.51132
1028.00 5.509636
1028.10 5.510764
1028.20 5.500313
1028.30 5.478771
1028.40 5.457768
1028.50 5.468249
1028.60 5.480053
1028.70 5.492719
1028.80 5.513963
1028.90 5.53362
1029.00 5.547451
1029.10 5.559005
1029.20 5.576297
1029.30 5.57041
1029.40 5.553906
1029.50 5.538439
1029.60 5.542145
1029.70 5.545036
1029.80 5.54189
1029.90 5.529852
1030.00 5.519911
1030.10 5.527668
1030.20 5.541391
1030.30 5.554255
1030.40 5.561184
1030.50 5.565176
1030.60 5.571261
1030.70 5.58299
1030.80 5.598489
1030.90 5.597716
1031.00 5.586979
1031.10 5.577805
1031.20 5.584038
1031.30 5.590468
1031.40 5.594114
1031.50 5.583581
1031.60 5.575934
1031.70 5.562133
1031.80 5.545309
1031.90 5.530554
1032.00 5.527387
1032.10 5.524332
1032.20 5.521131
1032.30 5.528647
1032.40 5.538311
1032.50 5.539447
1032.60 5.526063
1032.70 5.50969
1032.80 5.517665
1032.90 5.531901
1033.00 5.54386
1033.10 5.547823
1033.20 5.556026
1033.30 5.561376
1033.40 5.56579
1033.50 5.577538
1033.60 5.556764
1033.70 5.516158
1033.80 5.477513
1033.90 5.450195
1034.00 5.419722
1034.10 5.380026
1034.20 5.295101
1034.30 5.213869
1034.40 5.099269
1034.50 4.947728
1034.60 4.794364
1034.70 4.834109
1034.80 4.917802
1034.90 5.005321
1035.00 5.149643
1035.10 5.29874
1035.20 5.394471
1035.30 5.409894
1035.40 5.426319
1035.50 5.455365
1035.60 5.488067
1035.70 5.520593
1035.80 5.51651
1035.90 5.511606
1036.00 5.518087
1036.10 5.542367
1036.20 5.566676
1036.30 5.569577
1036.40 5.565632
1036.50 5.563544
1036.60 5.580769
1036.70 5.59706
1036.80 5.607063
1036.90 5.600716
1037.00 5.593071
1037.10 5.596176
1037.20 5.605789
1037.30 5.614054
1037.40 5.608345
1037.50 5.60533
1037.60 5.598589
1037.70 5.5784
1037.80 5.562716
1037.90 5.53602
1038.00 5.499013
1038.10 5.462174
1038.20 5.453317
1038.30 5.444831
1038.40 5.440045
1038.50 5.467436
1038.60 5.49122
1038.70 5.509783
1038.80 5.525116
1038.90 5.54479
1039.00 5.541786
1039.10 5.529907
1039.20 5.518459
1039.30 5.504469
1039.40 5.492143
1039.50 5.464207
1039.60 5.396724
1039.70 5.329646
1039.80 5.294995
1039.90 5.278419
1040.00 5.259395
1040.10 5.330266
1040.20 5.40882
1040.30 5.477893
1040.40 5.508789
1040.50 5.542451
1040.60 5.560243
1040.70 5.563227
1040.80 5.567594
1040.90 5.576526
1041.00 5.590233
1041.10 5.593235
1041.20 5.550477
1041.30 5.51039
1041.40 5.490612
1041.50 5.490173
1041.60 5.486717
1041.70 5.499928
1041.80 5.511892
1041.90 5.521204
1042.00 5.530257
1042.10 5.544967
1042.20 5.542695
1042.30 5.521076
1042.40 5.504255
1042.50 5.48121
1042.60 5.456295
1042.70 5.431942
1042.80 5.430437
1042.90 5.424977
1043.00 5.430708
1043.10 5.455005
1043.20 5.470258
1043.30 5.490262
1043.40 5.513941
1043.50 5.537443
1043.60 5.54817
1043.70 5.562637
1043.80 5.570782
1043.90 5.552716
1044.00 5.535203
1044.10 5.529727
1044.20 5.536813
1044.30 5.543269
1044.40 5.539319
1044.50 5.533849
1044.60 5.529132
1044.70 5.53057
1044.80 5.5287
1044.90 5.529744
1045.00 5.53367
1045.10 5.536604
1045.20 5.54513
1045.30 5.554997
1045.40 5.563749
1045.50 5.550831
1045.60 5.540788
1045.70 5.530978
1045.80 5.525855
1045.90 5.524085
1046.00 5.509663
1046.10 5.490983
1046.20 5.473287
1046.30 5.489129
1046.40 5.504157
1046.50 5.513332
1046.60 5.50674
1046.70 5.501025
1046.80 5.485145
1046.90 5.462567
1047.00 5.440135
1047.10 5.426511
1047.20 5.410289
1047.30 5.402198
1047.40 5.424674
1047.50 5.444041
1047.60 5.454239
1047.70 5.456891
1047.80 5.460686
1047.90 5.476946
1048.00 5.497522
1048.10 5.517021
1048.20 5.516343
1048.30 5.512308
1048.40 5.508093
1048.50 5.503327
1048.60 5.499456
1048.70 5.488701
1048.80 5.475871
1048.90 5.46357
1049.00 5.483473
1049.10 5.504187
1049.20 5.51759
1049.30 5.513101
1049.40 5.509939
1049.50 5.471751
1049.60 5.415636
1049.70 5.362512
1049.80 5.331257
1049.90 5.292226
1050.00 5.28719
1050.10 5.361884
1050.20 5.431538
1050.30 5.474285
1050.40 5.501854
1050.50 5.531856
1050.60 5.530371
1050.70 5.526879
1050.80 5.522337
1050.90 5.510579
1051.00 5.498688
1051.10 5.482502
1051.20 5.465213
1051.30 5.450156
1051.40 5.43358
1051.50 5.413388
1051.60 5.396548
1051.70 5.406185
1051.80 5.413001
1051.90 5.415244
1052.00 5.411178
1052.10 5.408632
1052.20 5.421319
1052.30 5.43934
1052.40 5.457516
1052.50 5.467026
1052.60 5.472574
1052.70 5.482225
1052.80 5.501948
1052.90 5.523711
1053.00 5.525092
1053.10 5.51837
1053.20 5.51471
1053.30 5.505047
1053.40 5.491543
1053.50 5.481011
1053.60 5.476478
1053.70 5.472765
1053.80 5.475366
1053.90 5.483596
1054.00 5.492587
1054.10 5.485238
1054.20 5.473665
1054.30 5.467035
1054.40 5.478574
1054.50 5.492361
1054.60 5.49599
1054.70 5.492749
1054.80 5.491231
1054.90 5.492783
1055.00 5.489979
1055.10 5.487058
1055.20 5.48174
1055.30 5.4773
1055.40 5.469096
1055.50 5.458613
1055.60 5.451174
1055.70 5.436662
1055.80 5.420802
1055.90 5.405884
1056.00 5.398661
1056.10 5.387869
1056.20 5.381263
1056.30 5.383966
1056.40 5.385548
1056.50 5.391981
1056.60 5.399413
1056.70 5.405584
1056.80 5.404748
1056.90 5.405634
1057.00 5.408336
1057.10 5.415964
1057.20 5.422494
1057.30 5.421084
1057.40 5.413091
1057.50 5.404431
1057.60 5.424952
1057.70 5.450313
1057.80 5.469479
1057.90 5.464215
1058.00 5.458807
1058.10 5.459779
1058.20 5.468659
1058.30 5.478134
1058.40 5.417036
1058.50 5.340507
1058.60 5.269492
1058.70 5.248078
1058.80 5.221982
1058.90 5.231203
1059.00 5.291722
1059.10 5.349919
1059.20 5.382203
1059.30 5.404122
1059.40 5.426938
1059.50 5.42459
1059.60 5.421664
1059.70 5.42304
1059.80 5.436925
1059.90 5.454017
1060.00 5.451421
1060.10 5.436189
1060.20 5.421403
1060.30 5.414773
1060.40 5.408188
1060.50 5.397638
1060.60 5.378092
1060.70 5.360273
1060.80 5.346885
1060.90 5.336049
1061.00 5.324931
1061.10 5.335877
1061.20 5.345555
1061.30 5.359069
1061.40 5.388163
1061.50 5.416953
1061.60 5.428841
1061.70 5.426705
1061.80 5.427426
1061.90 5.421328
1062.00 5.413264
1062.10 5.405871
1062.20 5.406344
1062.30 5.406017
1062.40 5.412756
1062.50 5.426709
1062.60 5.437795
1062.70 5.444089
1062.80 5.448045
1062.90 5.451127
1063.00 5.445258
1063.10 5.444361
1063.20 5.4375
1063.30 5.420149
1063.40 5.403441
1063.50 5.406647
1063.60 5.416725
1063.70 5.426483
1063.80 5.435191
1063.90 5.442733
1064.00 5.44869
1064.10 5.450746
1064.20 5.453448
1064.30 5.448745
1064.40 5.439887
1064.50 5.431742
1064.60 5.433801
1064.70 5.438279
1064.80 5.440158
1064.90 5.428804
1065.00 5.416716
1065.10 5.414912
1065.20 5.424914
1065.30 5.435859
1065.40 5.415154
1065.50 5.387242
1065.60 5.364226
1065.70 5.375434
1065.80 5.383431
1065.90 5.378837
1066.00 5.356202
1066.10 5.335068
1066.20 5.286375
1066.30 5.228409
1066.40 5.179641
1066.50 5.206698
1066.60 5.226889
1066.70 5.256794
1066.80 5.301534
1066.90 5.346947
1067.00 5.346409
1067.10 5.326568
1067.20 5.308354
1067.30 5.332326
1067.40 5.352794
1067.50 5.366419
1067.60 5.361319
1067.70 5.358026
1067.80 5.352409
1067.90 5.346326
1068.00 5.340437
1068.10 5.344713
1068.20 5.348521
1068.30 5.351539
1068.40 5.349995
1068.50 5.34812
1068.60 5.338534
1068.70 5.322356
1068.80 5.30785
1068.90 5.311431
1069.00 5.32094
1069.10 5.330035
1069.20 5.330849
1069.30 5.330504
1069.40 5.333311
1069.50 5.34192
1069.60 5.352466
1069.70 5.364338
1069.80 5.373421
1069.90 5.385137
1070.00 5.415867
1070.10 5.446044
1070.20 5.458147
1070.30 5.444973
1070.40 5.433217
1070.50 5.421461
1070.60 5.406603
1070.70 5.390692
1070.80 5.378764
1070.90 5.367842
1071.00 5.358909
1071.10 5.359754
1071.20 5.361345
1071.30 5.370856
1071.40 5.383433
1071.50 5.394845
1071.60 5.403564
1071.70 5.414577
1071.80 5.420035
1071.90 5.405987
1072.00 5.391619
1072.10 5.392828
1072.20 5.405839
1072.30 5.418602
1072.40 5.381925
1072.50 5.342055
1072.60 5.30452
1072.70 5.271609
1072.80 5.234017
1072.90 5.214475
1073.00 5.21109
1073.10 5.205013
1073.20 5.212412
1073.30 5.22812
1073.40 5.243186
1073.50 5.247919
1073.60 5.25038
1073.70 5.274898
1073.80 5.330741
1073.90 5.383556
1074.00 5.404711
1074.10 5.414139
1074.20 5.424222
1074.30 5.425224
1074.40 5.427492
1074.50 5.420423
1074.60 5.394563
1074.70 5.36989
1074.80 5.356243
1074.90 5.346183
1075.00 5.335211
1075.10 5.330991
1075.20 5.327023
1075.30 5.324676
1075.40 5.32662
1075.50 5.329598
1075.60 5.337129
1075.70 5.3441
1075.80 5.349225
1075.90 5.357255
1076.00 5.367838
1076.10 5.373429
1076.20 5.363884
1076.30 5.355773
1076.40 5.358568
1076.50 5.371732
1076.60 5.384361
1076.70 5.38175
1076.80 5.375991
1076.90 5.371428
1077.00 5.372983
1077.10 5.374809
1077.20 5.370873
1077.30 5.361169
1077.40 5.352575
1077.50 5.328798
1077.60 5.300398
1077.70 5.275594
1077.80 5.279977
1077.90 5.279606
1078.00 5.286837
1078.10 5.304685
1078.20 5.323097
1078.30 5.321399
1078.40 5.311545
1078.50 5.302399
1078.60 5.301449
1078.70 5.301752
1078.80 5.301186
1078.90 5.30183
1079.00 5.304196
1079.10 5.303291
1079.20 5.299738
1079.30 5.295744
1079.40 5.29202
1079.50 5.285626
1079.60 5.285728
1079.70 5.307612
1079.80 5.328361
1079.90 5.337488
1080.00 5.336722
1080.10 5.336443
1080.20 5.335493
1080.30 5.333158
1080.40 5.330675
1080.50 5.328724
1080.60 5.326316
1080.70 5.32677
1080.80 5.331011
1080.90 5.336109
1081.00 5.311701
1081.10 5.280494
1081.20 5.250494
1081.30 5.229187
1081.40 5.206828
1081.50 5.208189
1081.60 5.245338
1081.70 5.282098
1081.80 5.297562
1081.90 5.305103
1082.00 5.311836
1082.10 5.303016
1082.20 5.297846
1082.30 5.294235
1082.40 5.293824
1082.50 5.292048
1082.60 5.281879
1082.70 5.264872
1082.80 5.246936
1082.90 5.210138
1083.00 5.171297
1083.10 5.137781
1083.20 5.117439
1083.30 5.101368
1083.40 5.112435
1083.50 5.144876
1083.60 5.179211
1083.70 5.189213
1083.80 5.192128
1083.90 5.199199
1084.00 5.223101
1084.10 5.244285
1084.20 5.255574
1084.30 5.25953
1084.40 5.265334
1084.50 5.26381
1084.60 5.260768
1084.70 5.258368
1084.80 5.266261
1084.90 5.271746
1085.00 5.283158
1085.10 5.297314
1085.20 5.309699
1085.30 5.305936
1085.40 5.302271
1085.50 5.300945
1085.60 5.310581
1085.70 5.316601
1085.80 5.320488
1085.90 5.319623
1086.00 5.318709
1086.10 5.325583
1086.20 5.336913
1086.30 5.347866
1086.40 5.333822
1086.50 5.321522
1086.60 5.311151
1086.70 5.307978
1086.80 5.305221
1086.90 5.287537
1087.00 5.256754
1087.10 5.224521
1087.20 5.222942
1087.30 5.22869
1087.40 5.232913
1087.50 5.237496
1087.60 5.243905
1087.70 5.262763
1087.80 5.287763
1087.90 5.310717
1088.00 5.303908
1088.10 5.294644
1088.20 5.28513
1088.30 5.278223
1088.40 5.271963
1088.50 5.267437
1088.60 5.262778
1088.70 5.256524
1088.80 5.261203
1088.90 5.27019
1089.00 5.278373
1089.10 5.273352
1089.20 5.268566
1089.30 5.261264
1089.40 5.251346
1089.50 5.242024
1089.60 5.236787
1089.70 5.229359
1089.80 5.225214
1089.90 5.251387
1090.00 5.277524
1090.10 5.291214
1090.20 5.287953
1090.30 5.286449
1090.40 5.286585
1090.50 5.288535
1090.60 5.290381
1090.70 5.267369
1090.80 5.24458
1090.90 5.226945
1091.00 5.223145
1091.10 5.219374
1091.20 5.223485
1091.30 5.230484
1091.40 5.236353
1091.50 5.243709
1091.60 5.249074
1091.70 5.251702
1091.80 5.246765
1091.90 5.245688
1092.00 5.253213
1092.10 5.268772
1092.20 5.284057
1092.30 5.291951
1092.40 5.299885
1092.50 5.308349
1092.60 5.320565
1092.70 5.333105
1092.80 5.332605
1092.90 5.318126
1093.00 5.303275
1093.10 5.305104
1093.20 5.311457
1093.30 5.317513
1093.40 5.318391
1093.50 5.317665
1093.60 5.321551
1093.70 5.332667
1093.80 5.343581
1093.90 5.350619
1094.00 5.353304
1094.10 5.355514
1094.20 5.362436
1094.30 5.375698
1094.40 5.37149
1094.50 5.333618
1094.60 5.297651
1094.70 5.296691
1094.80 5.307095
1094.90 5.317314
1095.00 5.320302
1095.10 5.319746
1095.20 5.316509
1095.30 5.308582
1095.40 5.302026
1095.50 5.293669
1095.60 5.286275
1095.70 5.279597
1095.80 5.279956
1095.90 5.281473
1096.00 5.283857
1096.10 5.284804
1096.20 5.283583
1096.30 5.28424
1096.40 5.288037
1096.50 5.29189
1096.60 5.268099
1096.70 5.241276
1096.80 5.217761
1096.90 5.208838
1097.00 5.198894
1097.10 5.192485
1097.20 5.188264
1097.30 5.183587
1097.40 5.199948
1097.50 5.218967
1097.60 5.232991
1097.70 5.21192
1097.80 5.19215
1097.90 5.179962
1098.00 5.179209
1098.10 5.177549
1098.20 5.171809
1098.30 5.167744
1098.40 5.165117
1098.50 5.173303
1098.60 5.179941
1098.70 5.185229
1098.80 5.186428
1098.90 5.187184
1099.00 5.186066
1099.10 5.183661
1099.20 5.181162
1099.30 5.190939
1099.40 5.200691
1099.50 5.206938
1099.60 5.206332
1099.70 5.207154
1099.80 5.204734
1099.90 5.201199
1100.00 5.197821
1100.10 5.207755
1100.20 5.219407
1100.30 5.226568
1100.40 5.216927
1100.50 5.20786
1100.60 5.202458
1100.70 5.198464
1100.80 5.193402
1100.90 5.201218
1101.00 5.210752
1101.10 5.216948
1101.20 5.205362
1101.30 5.194801
1101.40 5.186922
1101.50 5.179858
1101.60 5.172567
1101.70 5.166571
1101.80 5.164135
1101.90 5.162191
1102.00 5.164854
1102.10 5.166511
1102.20 5.168171
1102.30 5.168083
1102.40 5.166891
1102.50 5.175296
1102.60 5.182272
1102.70 5.188347
1102.80 5.198107
1102.90 5.211122
1103.00 5.217898
1103.10 5.215192
1103.20 5.215296
1103.30 5.197326
1103.40 5.174062
1103.50 5.152431
1103.60 5.152467
1103.70 5.147825
1103.80 5.155053
1103.90 5.184272
1104.00 5.212353
1104.10 5.230297
1104.20 5.242647
1104.30 5.255166
1104.40 5.237201
1104.50 5.216292
1104.60 5.200183
1104.70 5.19933
1104.80 5.196393
1104.90 5.190574
1105.00 5.184735
1105.10 5.179449
1105.20 5.168602
1105.30 5.158976
1105.40 5.15195
1105.50 5.162204
1105.60 5.169566
1105.70 5.169798
1105.80 5.159371
1105.90 5.146976
1106.00 5.15115
1106.10 5.161239
1106.20 5.169394
1106.30 5.161185
1106.40 5.153844
1106.50 5.152387
1106.60 5.160469
1106.70 5.167909
1106.80 5.157597
1106.90 5.141176
1107.00 5.125782
1107.10 5.137357
1107.20 5.144569
1107.30 5.149895
1107.40 5.149296
1107.50 5.147999
1107.60 5.154906
1107.70 5.16589
1107.80 5.177914
1107.90 5.172746
1108.00 5.168771
1108.10 5.169215
1108.20 5.181041
1108.30 5.190797
1108.40 5.19273
1108.50 5.190286
1108.60 5.188335
1108.70 5.190339
1108.80 5.193712
1108.90 5.19734
1109.00 5.202514
1109.10 5.208286
1109.20 5.217902
1109.30 5.230007
1109.40 5.240929
1109.50 5.235423
1109.60 5.226237
1109.70 5.217813
1109.80 5.209684
1109.90 5.202902
1110.00 5.193926
1110.10 5.184323
1110.20 5.175733
1110.30 5.171885
1110.40 5.170833
1110.50 5.16938
1110.60 5.157895
1110.70 5.142232
1110.80 5.140143
1110.90 5.158239
1111.00 5.176747
1111.10 5.170606
1111.20 5.153579
1111.30 5.137092
1111.40 5.140796
1111.50 5.145784
1111.60 5.150104
1111.70 5.150071
1111.80 5.148047
1111.90 5.13723
1112.00 5.123381
1112.10 5.110417
1112.20 5.088774
1112.30 5.066086
1112.40 5.059036
1112.50 5.089659
1112.60 5.117221
1112.70 5.142894
1112.80 5.166951
1112.90 5.19138
1113.00 5.192039
1113.10 5.19389
1113.20 5.193231
1113.30 5.183863
1113.40 5.173125
1113.50 5.176377
1113.60 5.195322
1113.70 5.21578
1113.80 5.193778
1113.90 5.159772
1114.00 5.135245
1114.10 5.146226
1114.20 5.153685
1114.30 5.156664
1114.40 5.153644
1114.50 5.149936
1114.60 5.155494
1114.70 5.165479
1114.80 5.174276
1114.90 5.17535
1115.00 5.183029
1115.10 5.181303
1115.20 5.166741
1115.30 5.148663
1115.40 5.153003
1115.50 5.166244
1115.60 5.178444
1115.70 5.153674
1115.80 5.127449
1115.90 5.109357
1116.00 5.101818
1116.10 5.094778
1116.20 5.126365
1116.30 5.174749
1116.40 5.222905
1116.50 5.20924
1116.60 5.203945
1116.70 5.20436
1116.80 5.216822
1116.90 5.222993
1117.00 5.226014
1117.10 5.223166
1117.20 5.225003
1117.30 5.191824
1117.40 5.157461
1117.50 5.132203
1117.60 5.12647
1117.70 5.117269
1117.80 5.134109
1117.90 5.171733
1118.00 5.210533
1118.10 5.211327
1118.20 5.211564
1118.30 5.20659
1118.40 5.174938
1118.50 5.141799
1118.60 5.14253
1118.70 5.178778
1118.80 5.210659
1118.90 5.206365
1119.00 5.198172
1119.10 5.191185
1119.20 5.181469
1119.30 5.170321
1119.40 5.161775
1119.50 5.160111
1119.60 5.152565
1119.70 5.158425
1119.80 5.166725
1119.90 5.173226
1120.00 5.165236
1120.10 5.158761
1120.20 5.151041
1120.30 5.139864
1120.40 5.129929
1120.50 5.125649
1120.60 5.117441
1120.70 5.108826
1120.80 5.135987
1120.90 5.165094
1121.00 5.183468
1121.10 5.17715
1121.20 5.173127
1121.30 5.147803
1121.40 5.109828
1121.50 5.07311
1121.60 5.113277
1121.70 5.160892
1121.80 5.19591
1121.90 5.197185
1122.00 5.199146
1122.10 5.200776
1122.20 5.202182
1122.30 5.204398
1122.40 5.225581
1122.50 5.248521
1122.60 5.258476
1122.70 5.215149
1122.80 5.171945
1122.90 5.16127
1123.00 5.187706
1123.10 5.204914
1123.20 5.219914
1123.30 5.231125
1123.40 5.235252
1123.50 5.246421
1123.60 5.208345
1123.70 5.153336
1123.80 5.097496
1123.90 5.0789
1124.00 5.122267
1124.10 5.160866
1124.20 5.19564
1124.30 5.188673
1124.40 5.176032
1124.50 5.16761
1124.60 5.149276
1124.70 5.135055
1124.80 5.120256
1124.90 5.115716
1125.00 5.11136
1125.10 5.103426
1125.20 5.073789
1125.30 4.990509
1125.40 4.911959
1125.50 4.842594
1125.60 4.786825
1125.70 4.746102
1125.80 4.682314
1125.90 4.8063
1126.00 4.962926
1126.10 5.128982
1126.20 5.181381
1126.30 5.158027
1126.40 5.134471
1126.50 5.121093
1126.60 5.135313
1126.70 5.148751
1126.80 5.159215
1126.90 5.163244
1127.00 5.163929
1127.10 5.167304
1127.20 5.157899
1127.30 5.144829
1127.40 5.134357
1127.50 5.134351
1127.60 5.141868
1127.70 5.149543
1127.80 5.150212
1127.90 5.137585
1128.00 5.125767
1128.10 5.113884
1128.20 5.13656
1128.30 5.155805
1128.40 5.176666
1128.50 5.149632
1128.60 5.113807
1128.70 5.079068
1128.80 5.062545
1128.90 5.057466
1129.00 5.053095
1129.10 5.054575
1129.20 5.065389
1129.30 5.070717
1129.40 5.075699
1129.50 5.086735
1129.60 5.100284
1129.70 5.115422
1129.80 5.089044
1129.90 5.058755
1130.00 5.02937
1130.10 5.022187
1130.20 5.031233
1130.30 5.037929
1130.40 5.043193
1130.50 5.044286
1130.60 5.044997
1130.70 5.045401
1130.80 5.050035
1130.90 5.056987
1131.00 5.062243
1131.10 5.063077
1131.20 5.063228
1131.30 5.06376
1131.40 5.060165
1131.50 5.053029
1131.60 5.046395
1131.70 5.04492
1131.80 5.056644
1131.90 5.067776
1132.00 5.079326
1132.10 5.090594
1132.20 5.099904
1132.30 5.111892
1132.40 5.102716
1132.50 5.090317
1132.60 5.07735
1132.70 5.076459
1132.80 5.087364
1132.90 5.096098
1133.00 5.096398
1133.10 5.079691
1133.20 5.062248
1133.30 5.049612
1133.40 5.036339
1133.50 5.027278
1133.60 5.01627
1133.70 5.033183
1133.80 5.058236
1133.90 5.083088
1134.00 5.103299
1134.10 5.11514
1134.20 5.122568
1134.30 5.122255
1134.40 5.10284
1134.50 5.081401
1134.60 5.059891
1134.70 5.039252
1134.80 5.042928
1134.90 5.051787
1135.00 5.091038
1135.10 5.130187
1135.20 5.157858
1135.30 5.180092
1135.40 5.193857
1135.50 5.204763
1135.60 5.215797
1135.70 5.201997
1135.80 5.18927
1135.90 5.179893
1136.00 5.105103
1136.10 5.046879
1136.20 4.983054
1136.30 4.998877
1136.40 5.041362
1136.50 5.082254
1136.60 5.094954
1136.70 5.077066
1136.80 5.057765
1136.90 5.040188
1137.00 5.020781
1137.10 5.004727
1137.20 4.986242
1137.30 4.973774
1137.40 4.958022
1137.50 4.950053
1137.60 4.912867
1137.70 4.858196
1137.80 4.804564
1137.90 4.740857
1138.00 4.655712
1138.10 4.56262
1138.20 4.469312
1138.30 4.378474
1138.40 4.304093
1138.50 4.21391
1138.60 4.320867
1138.70 4.461788
1138.80 4.590852
1138.90 4.705707
1139.00 4.795722
1139.10 4.887113
1139.20 4.932105
1139.30 4.918722
1139.40 4.903366
1139.50 4.896007
1139.60 4.910248
1139.70 4.922634
1139.80 4.943131
1139.90 4.885279
1140.00 4.818005
1140.10 4.756311
1140.20 4.63833
1140.30 4.483098
1140.40 4.323547
1140.50 4.204382
1140.60 4.147475
1140.70 4.097061
1140.80 4.073791
1140.90 4.222271
1141.00 4.3975
1141.10 4.557871
1141.20 4.690524
1141.30 4.798321
1141.40 4.918829
1141.50 4.964891
1141.60 4.972648
1141.70 4.981077
1141.80 4.990459
1141.90 4.99598
1142.00 5.00119
1142.10 5.000453
1142.20 4.957478
1142.30 4.914481
1142.40 4.870141
1142.50 4.88722
1142.60 4.906195
1142.70 4.922604
1142.80 4.938145
1142.90 4.952577
1143.00 4.967444
1143.10 4.976927
1143.20 4.980227
1143.30 4.983058
1143.40 4.987612
1143.50 4.997585
1143.60 5.006676
1143.70 5.019116
1143.80 4.988557
1143.90 4.955138
1144.00 4.923626
1144.10 4.916965
1144.20 4.926398
1144.30 4.935162
1144.40 4.938005
1144.50 4.937739
1144.60 4.937753
1144.70 4.943576
1144.80 4.978098
1144.90 5.00735
1145.00 5.037752
1145.10 5.020949
1145.20 5.008529
1145.30 4.99715
1145.40 4.999392
1145.50 5.006041
1145.60 5.013174
1145.70 5.019763
1145.80 5.025379
1145.90 5.02967
1146.00 5.031486
1146.10 5.031878
1146.20 5.03026
1146.30 5.030433
1146.40 5.034392
1146.50 5.04054
1146.60 5.04866
1146.70 5.04161
1146.80 5.029801
1146.90 5.017651
1147.00 5.018295
1147.10 5.029409
1147.20 5.03853
1147.30 5.043738
1147.40 5.019644
1147.50 5.000418
1147.60 4.971672
1147.70 4.967938
1147.80 4.961993
1147.90 4.961642
1148.00 4.974581
1148.10 4.991297
1148.20 5.00651
1148.30 5.003703
1148.40 4.981333
1148.50 4.959874
1148.60 4.940151
1148.70 4.918698
1148.80 4.901684
1148.90 4.881238
1149.00 4.906246
1149.10 4.929746
1149.20 4.950967
1149.30 4.984346
1149.40 5.016844
1149.50 5.051973
1149.60 5.053086
1149.70 5.022939
1149.80 4.998487
1149.90 4.981458
1150.00 4.992315
1150.10 5.000672
1150.20 5.001862
1150.30 5.013538
1150.40 5.019306
1150.50 5.027772
1150.60 5.019924
1150.70 5.006571
1150.80 4.994091
1150.90 4.986627
1151.00 4.984312
1151.10 4.98397
1151.20 4.983953
1151.30 4.980821
1151.40 4.977397
1151.50 4.971037
1151.60 4.990305
1151.70 5.007503
1151.80 5.027067
1151.90 5.008974
1152.00 4.98261
1152.10 4.95554
1152.20 4.951399
1152.30 4.967712
1152.40 4.983783
1152.50 4.989252
1152.60 4.966693
1152.70 4.94838
1152.80 4.926756
1152.90 4.933765
1153.00 4.940019
1153.10 4.943781
1153.20 4.957781
1153.30 4.969708
1153.40 4.982583
1153.50 4.981776
1153.60 4.969004
1153.70 4.95786
1153.80 4.95011
1153.90 4.952097
1154.00 4.954916
1154.10 4.958563
1154.20 4.957609
1154.30 4.955681
1154.40 4.952732
1154.50 4.952774
1154.60 4.952381
1154.70 4.952569
1154.80 4.949406
1154.90 4.944588
1155.00 4.939578
1155.10 4.937359
1155.20 4.942383
1155.30 4.946545
1155.40 4.950347
1155.50 4.955414
1155.60 4.959927
1155.70 4.966773
1155.80 4.958978
1155.90 4.950244
1156.00 4.94038
1156.10 4.945277
1156.20 4.964644
1156.30 4.983712
1156.40 4.99239
1156.50 4.972144
1156.60 4.952148
1156.70 4.930069
1156.80 4.926173
1156.90 4.920303
1157.00 4.916484
1157.10 4.917534
1157.20 4.921997
1157.30 4.925351
1157.40 4.93163
1157.50 4.9406
1157.60 4.950534
1157.70 4.95532
1157.80 4.94591
1157.90 4.937535
1158.00 4.928735
1158.10 4.942611
1158.20 4.955716
1158.30 4.969528
1158.40 4.972632
1158.50 4.970751
1158.60 4.970096
1158.70 4.967788
1158.80 4.963703
1158.90 4.96039
1159.00 4.951319
1159.10 4.926606
1159.20 4.901851
1159.30 4.876334
1159.40 4.848935
1159.50 4.81965
1159.60 4.790151
1159.70 4.78921
1159.80 4.801479
1159.90 4.811087
1160.00 4.832832
1160.10 4.862136
1160.20 4.891442
1160.30 4.90821
1160.40 4.892761
1160.50 4.877882
1160.60 4.863086
1160.70 4.810664
1160.80 4.752837
1160.90 4.695996
1161.00 4.671588
1161.10 4.662511
1161.20 4.646332
1161.30 4.663219
1161.40 4.707485
1161.50 4.75235
1161.60 4.792787
1161.70 4.821862
1161.80 4.849087
1161.90 4.877513
1162.00 4.881399
1162.10 4.88315
1162.20 4.888135
1162.30 4.883532
1162.40 4.880982
1162.50 4.876295
1162.60 4.876891
1162.70 4.881402
1162.80 4.885053
1162.90 4.887011
1163.00 4.886669
1163.10 4.885827
1163.20 4.885308
1163.30 4.874653
1163.40 4.862597
1163.50 4.854063
1163.60 4.829294
1163.70 4.799063
1163.80 4.771703
1163.90 4.745152
1164.00 4.723448
1164.10 4.697597
1164.20 4.69446
1164.30 4.735306
1164.40 4.777075
1164.50 4.814555
1164.60 4.835905
1164.70 4.854467
1164.80 4.878026
1164.90 4.886335
1165.00 4.890925
1165.10 4.897099
1165.20 4.893314
1165.30 4.880608
1165.40 4.866541
1165.50 4.854718
1165.60 4.848528
1165.70 4.843751
1165.80 4.836608
1165.90 4.825373
1166.00 4.817472
1166.10 4.807924
1166.20 4.818734
1166.30 4.828646
1166.40 4.839752
1166.50 4.843226
1166.60 4.843319
1166.70 4.845247
1166.80 4.847124
1166.90 4.845839
1167.00 4.843268
1167.10 4.838383
1167.20 4.828454
1167.30 4.819654
1167.40 4.811249
1167.50 4.811474
1167.60 4.811691
1167.70 4.81147
1167.80 4.815447
1167.90 4.822377
1168.00 4.829693
1168.10 4.836309
1168.20 4.840523
1168.30 4.844826
1168.40 4.847308
1168.50 4.837189
1168.60 4.825266
1168.70 4.817796
1168.80 4.767699
1168.90 4.70235
1169.00 4.645356
1169.10 4.577609
1169.20 4.519147
1169.30 4.450375
1169.40 4.445177
1169.50 4.526266
1169.60 4.61034
1169.70 4.681289
1169.80 4.728215
1169.90 4.769062
1170.00 4.81573
1170.10 4.823703
1170.20 4.8265
1170.30 4.83429
1170.40 4.836101
1170.50 4.833493
1170.60 4.832773
1170.70 4.833837
1170.80 4.834325
1170.90 4.834214
1171.00 4.833767
1171.10 4.830949
1171.20 4.828164
1171.30 4.824496
1171.40 4.829686
1171.50 4.83427
1171.60 4.839411
1171.70 4.835099
1171.80 4.828749
1171.90 4.823852
1172.00 4.8212
1172.10 4.821202
1172.20 4.820706
1172.30 4.82016
1172.40 4.821801
1172.50 4.823389
1172.60 4.824467
1172.70 4.827365
1172.80 4.828853
1172.90 4.830736
1173.00 4.831718
1173.10 4.832582
1173.20 4.833515
1173.30 4.835325
1173.40 4.836381
1173.50 4.837411
1173.60 4.83654
1173.70 4.829944
1173.80 4.825119
1173.90 4.82108
1174.00 4.825738
1174.10 4.832864
1174.20 4.837474
1174.30 4.840112
1174.40 4.841441
1174.50 4.842799
1174.60 4.84565
1174.70 4.846337
1174.80 4.846166
1174.90 4.839289
1175.00 4.815216
1175.10 4.79213
1175.20 4.770113
1175.30 4.746784
1175.40 4.726044
1175.50 4.702788
1175.60 4.698232
1175.70 4.699636
1175.80 4.701836
1175.90 4.713498
1176.00 4.72858
1176.10 4.743129
1176.20 4.754628
1176.30 4.761561
1176.40 4.770762
1176.50 4.778921
1176.60 4.771986
1176.70 4.758438
1176.80 4.753155
1176.90 4.709776
1177.00 4.647395
1177.10 4.591849
1177.20 4.523379
1177.30 4.453818
1177.40 4.377079
1177.50 4.33256
1177.60 4.367608
1177.70 4.411209
1177.80 4.4455
1177.90 4.518131
1178.00 4.589329
1178.10 4.665971
1178.20 4.664922
1178.30 4.640855
1178.40 4.624019
1178.50 4.620262
1178.60 4.622382
1178.70 4.624522
1178.80 4.640826
1178.90 4.679336
1179.00 4.717882
1179.10 4.750278
1179.20 4.75303
1179.30 4.753558
1179.40 4.758169
1179.50 4.738254
1179.60 4.715941
1179.70 4.693138
1179.80 4.689766
1179.90 4.695028
1180.00 4.698129
1180.10 4.699444
1180.20 4.700888
1180.30 4.703221
1180.40 4.708258
1180.50 4.722699
1180.60 4.737007
1180.70 4.752957
1180.80 4.760193
1180.90 4.766796
1181.00 4.773566
1181.10 4.773243
1181.20 4.769652
1181.30 4.765177
1181.40 4.761645
1181.50 4.758935
1181.60 4.756389
1181.70 4.754429
1181.80 4.752565
1181.90 4.752665
1182.00 4.752156
1182.10 4.748786
1182.20 4.744401
1182.30 4.739738
1182.40 4.71845
1182.50 4.688
1182.60 4.660328
1182.70 4.591153
1182.80 4.477656
1182.90 4.362166
1183.00 4.278908
1183.10 4.278503
1183.20 4.282524
1183.30 4.281753
1183.40 4.3801
1183.50 4.479326
1183.60 4.581028
1183.70 4.621753
1183.80 4.644185
1183.90 4.666038
1184.00 4.676859
1184.10 4.683022
1184.20 4.689183
1184.30 4.695894
1184.40 4.703446
1184.50 4.711093
1184.60 4.721167
1184.70 4.723674
1184.80 4.721323
1184.90 4.720497
1185.00 4.718247
1185.10 4.719275
1185.20 4.717519
1185.30 4.720133
1185.40 4.728017
1185.50 4.735996
1185.60 4.741218
1185.70 4.74085
1185.80 4.739359
1185.90 4.738387
1186.00 4.734668
1186.10 4.731375
1186.20 4.727795
1186.30 4.730699
1186.40 4.733422
1186.50 4.737153
1186.60 4.733056
1186.70 4.722947
1186.80 4.713244
1186.90 4.710419
1187.00 4.719001
1187.10 4.727484
1187.20 4.734521
1187.30 4.73785
1187.40 4.741509
1187.50 4.745314
1187.60 4.739135
1187.70 4.729901
1187.80 4.722457
1187.90 4.705278
1188.00 4.67898
1188.10 4.657735
1188.20 4.607067
1188.30 4.505126
1188.40 4.40003
1188.50 4.313102
1188.60 4.31167
1188.70 4.319906
1188.80 4.314223
1188.90 4.397518
1189.00 4.492342
1189.10 4.588406
1189.20 4.613015
1189.30 4.599651
1189.40 4.58999
1189.50 4.590171
1189.60 4.599392
1189.70 4.608226
1189.80 4.618007
1189.90 4.636172
1190.00 4.653732
1190.10 4.673823
1190.20 4.68633
1190.30 4.697283
1190.40 4.70941
1190.50 4.709176
1190.60 4.703486
1190.70 4.697123
1190.80 4.692925
1190.90 4.693287
1191.00 4.693474
1191.10 4.692638
1191.20 4.689979
1191.30 4.687042
1191.40 4.684157
1191.50 4.69003
1191.60 4.695759
1191.70 4.701775
1191.80 4.702323
1191.90 4.701706
1192.00 4.701129
1192.10 4.702492
1192.20 4.704526
1192.30 4.706689
1192.40 4.705824
1192.50 4.696981
1192.60 4.687925
1192.70 4.679336
1192.80 4.680563
1192.90 4.682916
1193.00 4.684727
1193.10 4.686901
1193.20 4.687322
1193.30 4.688627
1193.40 4.686867
1193.50 4.682222
1193.60 4.67911
1193.70 4.67557
1193.80 4.670723
1193.90 4.665451
1194.00 4.659714
1194.10 4.660627
1194.20 4.663256
1194.30 4.66525
1194.40 4.660494
1194.50 4.652891
1194.60 4.645546
1194.70 4.629347
1194.80 4.604712
1194.90 4.580965
1195.00 4.556264
1195.10 4.532496
1195.20 4.508816
1195.30 4.491876
1195.40 4.514897
1195.50 4.540636
1195.60 4.566241
1195.70 4.575023
1195.80 4.576811
1195.90 4.58125
1196.00 4.590405
1196.10 4.601654
1196.20 4.613096
1196.30 4.619277
1196.40 4.618414
1196.50 4.617676
1196.60 4.616358
1196.70 4.614237
1196.80 4.611734
1196.90 4.610037
1197.00 4.572963
1197.10 4.527249
1197.20 4.48985
1197.30 4.407934
1197.40 4.307115
1197.50 4.203398
1197.60 4.159252
1197.70 4.189092
1197.80 4.218375
1197.90 4.254948
1198.00 4.344108
1198.10 4.433506
1198.20 4.524435
1198.30 4.530038
1198.40 4.531705
1198.50 4.535744
1198.60 4.54067
1198.70 4.542778
1198.80 4.547696
1198.90 4.551517
1199.00 4.551796
1199.10 4.552444
1199.20 4.553166
1199.30 4.555731
1199.40 4.559865
1199.50 4.563197
1199.60 4.570388
1199.70 4.576884
1199.80 4.582798
1199.90 4.586337
1200.00 4.587414
