# Version 2.1 - nm, norm@500 to 1, cut digits, bergeron_11500_90.dat_11500
# Wavelength(nm)  Flambda(ergs/cm^s/s/nm)
300.00 2.096
300.10 2.095
300.20 2.094
300.30 2.093
300.40 2.091
300.50 2.09
300.60 2.089
300.70 2.088
300.80 2.087
300.90 2.086
301.00 2.085
301.10 2.084
301.20 2.083
301.30 2.081
301.40 2.08
301.50 2.079
301.60 2.078
301.70 2.077
301.80 2.076
301.90 2.075
302.00 2.074
302.10 2.073
302.20 2.072
302.30 2.07
302.40 2.069
302.50 2.068
302.60 2.067
302.70 2.066
302.80 2.065
302.90 2.064
303.00 2.063
303.10 2.062
303.20 2.061
303.30 2.059
303.40 2.058
303.50 2.057
303.60 2.056
303.70 2.055
303.80 2.054
303.90 2.053
304.00 2.052
304.10 2.051
304.20 2.05
304.30 2.049
304.40 2.047
304.50 2.046
304.60 2.045
304.70 2.044
304.80 2.043
304.90 2.042
305.00 2.041
305.10 2.04
305.20 2.039
305.30 2.038
305.40 2.037
305.50 2.035
305.60 2.034
305.70 2.033
305.80 2.032
305.90 2.031
306.00 2.03
306.10 2.029
306.20 2.028
306.30 2.027
306.40 2.026
306.50 2.025
306.60 2.024
306.70 2.022
306.80 2.021
306.90 2.02
307.00 2.019
307.10 2.018
307.20 2.017
307.30 2.016
307.40 2.015
307.50 2.014
307.60 2.013
307.70 2.012
307.80 2.011
307.90 2.01
308.00 2.008
308.10 2.007
308.20 2.006
308.30 2.005
308.40 2.004
308.50 2.003
308.60 2.002
308.70 2.001
308.80 2
308.90 1.999
309.00 1.998
309.10 1.997
309.20 1.996
309.30 1.995
309.40 1.993
309.50 1.992
309.60 1.991
309.70 1.99
309.80 1.989
309.90 1.988
310.00 1.987
310.10 1.986
310.20 1.985
310.30 1.984
310.40 1.983
310.50 1.982
310.60 1.981
310.70 1.98
310.80 1.979
310.90 1.977
311.00 1.976
311.10 1.975
311.20 1.974
311.30 1.973
311.40 1.972
311.50 1.971
311.60 1.97
311.70 1.969
311.80 1.968
311.90 1.967
312.00 1.966
312.10 1.965
312.20 1.964
312.30 1.963
312.40 1.962
312.50 1.961
312.60 1.959
312.70 1.958
312.80 1.957
312.90 1.956
313.00 1.955
313.10 1.954
313.20 1.953
313.30 1.952
313.40 1.951
313.50 1.95
313.60 1.949
313.70 1.948
313.80 1.947
313.90 1.946
314.00 1.945
314.10 1.944
314.20 1.943
314.30 1.942
314.40 1.941
314.50 1.939
314.60 1.938
314.70 1.937
314.80 1.936
314.90 1.935
315.00 1.934
315.10 1.933
315.20 1.932
315.30 1.931
315.40 1.93
315.50 1.929
315.60 1.928
315.70 1.927
315.80 1.926
315.90 1.925
316.00 1.924
316.10 1.923
316.20 1.922
316.30 1.921
316.40 1.92
316.50 1.919
316.60 1.918
316.70 1.917
316.80 1.916
316.90 1.914
317.00 1.913
317.10 1.912
317.20 1.911
317.30 1.91
317.40 1.909
317.50 1.908
317.60 1.907
317.70 1.906
317.80 1.905
317.90 1.904
318.00 1.903
318.10 1.902
318.20 1.901
318.30 1.9
318.40 1.899
318.50 1.898
318.60 1.897
318.70 1.896
318.80 1.895
318.90 1.894
319.00 1.893
319.10 1.892
319.20 1.891
319.30 1.89
319.40 1.889
319.50 1.888
319.60 1.887
319.70 1.886
319.80 1.885
319.90 1.884
320.00 1.883
320.10 1.882
320.20 1.881
320.30 1.88
320.40 1.878
320.50 1.877
320.60 1.876
320.70 1.875
320.80 1.874
320.90 1.873
321.00 1.872
321.10 1.871
321.20 1.87
321.30 1.869
321.40 1.868
321.50 1.867
321.60 1.866
321.70 1.865
321.80 1.864
321.90 1.863
322.00 1.862
322.10 1.861
322.20 1.86
322.30 1.859
322.40 1.858
322.50 1.857
322.60 1.856
322.70 1.855
322.80 1.854
322.90 1.853
323.00 1.852
323.10 1.851
323.20 1.85
323.30 1.849
323.40 1.848
323.50 1.847
323.60 1.846
323.70 1.845
323.80 1.844
323.90 1.843
324.00 1.842
324.10 1.841
324.20 1.84
324.30 1.839
324.40 1.838
324.50 1.837
324.60 1.836
324.70 1.835
324.80 1.834
324.90 1.833
325.00 1.832
325.10 1.831
325.20 1.83
325.30 1.829
325.40 1.828
325.50 1.827
325.60 1.826
325.70 1.825
325.80 1.824
325.90 1.823
326.00 1.822
326.10 1.821
326.20 1.82
326.30 1.819
326.40 1.818
326.50 1.817
326.60 1.816
326.70 1.815
326.80 1.814
326.90 1.813
327.00 1.812
327.10 1.811
327.20 1.81
327.30 1.809
327.40 1.808
327.50 1.807
327.60 1.806
327.70 1.805
327.80 1.804
327.90 1.803
328.00 1.802
328.10 1.801
328.20 1.8
328.30 1.799
328.40 1.798
328.50 1.797
328.60 1.796
328.70 1.795
328.80 1.794
328.90 1.793
329.00 1.792
329.10 1.791
329.20 1.791
329.30 1.79
329.40 1.789
329.50 1.788
329.60 1.787
329.70 1.786
329.80 1.785
329.90 1.784
330.00 1.783
330.10 1.782
330.20 1.781
330.30 1.78
330.40 1.779
330.50 1.778
330.60 1.777
330.70 1.776
330.80 1.775
330.90 1.774
331.00 1.773
331.10 1.772
331.20 1.771
331.30 1.77
331.40 1.769
331.50 1.768
331.60 1.767
331.70 1.766
331.80 1.765
331.90 1.764
332.00 1.763
332.10 1.762
332.20 1.761
332.30 1.76
332.40 1.759
332.50 1.758
332.60 1.757
332.70 1.757
332.80 1.756
332.90 1.755
333.00 1.754
333.10 1.753
333.20 1.752
333.30 1.751
333.40 1.75
333.50 1.749
333.60 1.748
333.70 1.747
333.80 1.746
333.90 1.745
334.00 1.744
334.10 1.743
334.20 1.742
334.30 1.741
334.40 1.74
334.50 1.739
334.60 1.738
334.70 1.737
334.80 1.736
334.90 1.735
335.00 1.735
335.10 1.734
335.20 1.733
335.30 1.732
335.40 1.731
335.50 1.73
335.60 1.729
335.70 1.728
335.80 1.727
335.90 1.726
336.00 1.725
336.10 1.724
336.20 1.723
336.30 1.722
336.40 1.721
336.50 1.72
336.60 1.719
336.70 1.718
336.80 1.717
336.90 1.717
337.00 1.716
337.10 1.715
337.20 1.714
337.30 1.713
337.40 1.712
337.50 1.711
337.60 1.71
337.70 1.709
337.80 1.708
337.90 1.707
338.00 1.706
338.10 1.705
338.20 1.704
338.30 1.703
338.40 1.702
338.50 1.702
338.60 1.701
338.70 1.7
338.80 1.699
338.90 1.698
339.00 1.697
339.10 1.696
339.20 1.695
339.30 1.694
339.40 1.693
339.50 1.692
339.60 1.691
339.70 1.69
339.80 1.689
339.90 1.688
340.00 1.688
340.10 1.687
340.20 1.686
340.30 1.685
340.40 1.684
340.50 1.683
340.60 1.682
340.70 1.681
340.80 1.68
340.90 1.679
341.00 1.678
341.10 1.677
341.20 1.676
341.30 1.676
341.40 1.675
341.50 1.674
341.60 1.673
341.70 1.672
341.80 1.671
341.90 1.67
342.00 1.669
342.10 1.668
342.20 1.667
342.30 1.666
342.40 1.665
342.50 1.665
342.60 1.664
342.70 1.663
342.80 1.662
342.90 1.661
343.00 1.66
343.10 1.659
343.20 1.658
343.30 1.657
343.40 1.656
343.50 1.655
343.60 1.654
343.70 1.654
343.80 1.653
343.90 1.652
344.00 1.651
344.10 1.65
344.20 1.649
344.30 1.648
344.40 1.647
344.50 1.646
344.60 1.645
344.70 1.644
344.80 1.644
344.90 1.643
345.00 1.642
345.10 1.641
345.20 1.64
345.30 1.639
345.40 1.638
345.50 1.637
345.60 1.636
345.70 1.635
345.80 1.635
345.90 1.634
346.00 1.633
346.10 1.632
346.20 1.631
346.30 1.63
346.40 1.629
346.50 1.628
346.60 1.627
346.70 1.626
346.80 1.626
346.90 1.625
347.00 1.624
347.10 1.623
347.20 1.622
347.30 1.621
347.40 1.62
347.50 1.619
347.60 1.618
347.70 1.618
347.80 1.617
347.90 1.616
348.00 1.615
348.10 1.614
348.20 1.613
348.30 1.612
348.40 1.611
348.50 1.61
348.60 1.61
348.70 1.609
348.80 1.608
348.90 1.607
349.00 1.606
349.10 1.605
349.20 1.604
349.30 1.603
349.40 1.602
349.50 1.602
349.60 1.601
349.70 1.6
349.80 1.599
349.90 1.598
350.00 1.597
350.10 1.596
350.20 1.595
350.30 1.595
350.40 1.594
350.50 1.593
350.60 1.592
350.70 1.591
350.80 1.59
350.90 1.589
351.00 1.588
351.10 1.588
351.20 1.587
351.30 1.586
351.40 1.585
351.50 1.584
351.60 1.583
351.70 1.582
351.80 1.581
351.90 1.581
352.00 1.58
352.10 1.579
352.20 1.578
352.30 1.577
352.40 1.576
352.50 1.575
352.60 1.574
352.70 1.574
352.80 1.573
352.90 1.572
353.00 1.571
353.10 1.57
353.20 1.569
353.30 1.568
353.40 1.568
353.50 1.567
353.60 1.566
353.70 1.565
353.80 1.564
353.90 1.563
354.00 1.562
354.10 1.562
354.20 1.561
354.30 1.56
354.40 1.559
354.50 1.558
354.60 1.557
354.70 1.556
354.80 1.555
354.90 1.555
355.00 1.554
355.10 1.553
355.20 1.552
355.30 1.551
355.40 1.55
355.50 1.549
355.60 1.549
355.70 1.548
355.80 1.547
355.90 1.546
356.00 1.545
356.10 1.544
356.20 1.544
356.30 1.543
356.40 1.542
356.50 1.541
356.60 1.54
356.70 1.539
356.80 1.538
356.90 1.538
357.00 1.537
357.10 1.536
357.20 1.535
357.30 1.534
357.40 1.533
357.50 1.533
357.60 1.532
357.70 1.531
357.80 1.53
357.90 1.529
358.00 1.528
358.10 1.527
358.20 1.527
358.30 1.526
358.40 1.525
358.50 1.524
358.60 1.523
358.70 1.522
358.80 1.522
358.90 1.521
359.00 1.52
359.10 1.519
359.20 1.518
359.30 1.517
359.40 1.517
359.50 1.516
359.60 1.515
359.70 1.514
359.80 1.513
359.90 1.512
360.00 1.512
360.10 1.511
360.20 1.51
360.30 1.509
360.40 1.508
360.50 1.507
360.60 1.507
360.70 1.506
360.80 1.505
360.90 1.504
361.00 1.503
361.10 1.502
361.20 1.502
361.30 1.501
361.40 1.5
361.50 1.499
361.60 1.498
361.70 1.497
361.80 1.497
361.90 1.496
362.00 1.495
362.10 1.494
362.20 1.493
362.30 1.493
362.40 1.492
362.50 1.491
362.60 1.49
362.70 1.489
362.80 1.488
362.90 1.488
363.00 1.487
363.10 1.486
363.20 1.485
363.30 1.484
363.40 1.483
363.50 1.482
363.60 1.481
363.70 1.48
363.80 1.479
363.90 1.478
364.00 1.477
364.10 1.476
364.20 1.475
364.30 1.474
364.40 1.473
364.50 1.472
364.60 1.471
364.70 1.47
364.80 1.469
364.90 1.468
365.00 1.467
365.10 1.466
365.20 1.465
365.30 1.464
365.40 1.463
365.50 1.462
365.60 1.461
365.70 1.461
365.80 1.46
365.90 1.459
366.00 1.458
366.10 1.457
366.20 1.456
366.30 1.455
366.40 1.454
366.50 1.453
366.60 1.452
366.70 1.452
366.80 1.451
366.90 1.45
367.00 1.449
367.10 1.448
367.20 1.447
367.30 1.446
367.40 1.446
367.50 1.445
367.60 1.444
367.70 1.443
367.80 1.442
367.90 1.441
368.00 1.441
368.10 1.44
368.20 1.439
368.30 1.438
368.40 1.437
368.50 1.436
368.60 1.436
368.70 1.435
368.80 1.434
368.90 1.433
369.00 1.432
369.10 1.431
369.20 1.431
369.30 1.43
369.40 1.429
369.50 1.428
369.60 1.427
369.70 1.426
369.80 1.426
369.90 1.425
370.00 1.424
370.10 1.423
370.20 1.423
370.30 1.422
370.40 1.421
370.50 1.421
370.60 1.42
370.70 1.419
370.80 1.418
370.90 1.418
371.00 1.417
371.10 1.416
371.20 1.416
371.30 1.415
371.40 1.414
371.50 1.414
371.60 1.413
371.70 1.412
371.80 1.412
371.90 1.411
372.00 1.41
372.10 1.41
372.20 1.409
372.30 1.409
372.40 1.409
372.50 1.408
372.60 1.408
372.70 1.408
372.80 1.407
372.90 1.407
373.00 1.406
373.10 1.406
373.20 1.406
373.30 1.405
373.40 1.405
373.50 1.404
373.60 1.404
373.70 1.404
373.80 1.403
373.90 1.403
374.00 1.402
374.10 1.402
374.20 1.402
374.30 1.402
374.40 1.402
374.50 1.402
374.60 1.401
374.70 1.401
374.80 1.401
374.90 1.401
375.00 1.401
375.10 1.401
375.20 1.4
375.30 1.4
375.40 1.4
375.50 1.4
375.60 1.4
375.70 1.4
375.80 1.399
375.90 1.399
376.00 1.399
376.10 1.399
376.20 1.399
376.30 1.398
376.40 1.398
376.50 1.398
376.60 1.398
376.70 1.397
376.80 1.397
376.90 1.397
377.00 1.396
377.10 1.396
377.20 1.395
377.30 1.394
377.40 1.394
377.50 1.393
377.60 1.392
377.70 1.391
377.80 1.391
377.90 1.39
378.00 1.389
378.10 1.387
378.20 1.385
378.30 1.383
378.40 1.381
378.50 1.379
378.60 1.376
378.70 1.374
378.80 1.372
378.90 1.37
379.00 1.368
379.10 1.366
379.20 1.365
379.30 1.364
379.40 1.362
379.50 1.361
379.60 1.359
379.70 1.358
379.80 1.356
379.90 1.355
380.00 1.353
380.10 1.355
380.20 1.357
380.30 1.358
380.40 1.36
380.50 1.361
380.60 1.363
380.70 1.365
380.80 1.366
380.90 1.368
381.00 1.369
381.10 1.37
381.20 1.37
381.30 1.37
381.40 1.371
381.50 1.371
381.60 1.37
381.70 1.369
381.80 1.368
381.90 1.366
382.00 1.364
382.10 1.362
382.20 1.359
382.30 1.354
382.40 1.349
382.50 1.344
382.60 1.339
382.70 1.333
382.80 1.328
382.90 1.323
383.00 1.318
383.10 1.313
383.20 1.308
383.30 1.305
383.40 1.301
383.50 1.296
383.60 1.297
383.70 1.302
383.80 1.306
383.90 1.309
384.00 1.314
384.10 1.32
384.20 1.327
384.30 1.333
384.40 1.34
384.50 1.345
384.60 1.351
384.70 1.355
384.80 1.359
384.90 1.362
385.00 1.365
385.10 1.367
385.20 1.369
385.30 1.371
385.40 1.372
385.50 1.373
385.60 1.373
385.70 1.373
385.80 1.373
385.90 1.373
386.00 1.372
386.10 1.371
386.20 1.37
386.30 1.368
386.40 1.366
386.50 1.364
386.60 1.361
386.70 1.358
386.80 1.355
386.90 1.351
387.00 1.347
387.10 1.343
387.20 1.338
387.30 1.333
387.40 1.327
387.50 1.321
387.60 1.314
387.70 1.307
387.80 1.298
387.90 1.289
388.00 1.279
388.10 1.267
388.20 1.254
388.30 1.24
388.40 1.225
388.50 1.212
388.60 1.2
388.70 1.191
388.80 1.185
388.90 1.179
389.00 1.184
389.10 1.191
389.20 1.199
389.30 1.211
389.40 1.225
389.50 1.24
389.60 1.254
389.70 1.267
389.80 1.28
389.90 1.291
390.00 1.3
390.10 1.309
390.20 1.317
390.30 1.325
390.40 1.332
390.50 1.338
390.60 1.344
390.70 1.349
390.80 1.354
390.90 1.359
391.00 1.363
391.10 1.367
391.20 1.371
391.30 1.374
391.40 1.377
391.50 1.38
391.60 1.382
391.70 1.384
391.80 1.386
391.90 1.387
392.00 1.388
392.10 1.389
392.20 1.39
392.30 1.39
392.40 1.39
392.50 1.39
392.60 1.389
392.70 1.388
392.80 1.387
392.90 1.385
393.00 1.383
393.10 1.381
393.20 1.379
393.30 1.376
393.40 1.373
393.50 1.37
393.60 1.366
393.70 1.362
393.80 1.358
393.90 1.353
394.00 1.349
394.10 1.343
394.20 1.337
394.30 1.331
394.40 1.325
394.50 1.318
394.60 1.31
394.70 1.302
394.80 1.294
394.90 1.285
395.00 1.276
395.10 1.266
395.20 1.256
395.30 1.245
395.40 1.234
395.50 1.222
395.60 1.209
395.70 1.196
395.80 1.182
395.90 1.166
396.00 1.151
396.10 1.134
396.20 1.115
396.30 1.094
396.40 1.072
396.50 1.045
396.60 1.017
396.70 0.9888
396.80 0.9676
396.90 0.9474
397.00 0.9279
397.10 0.9458
397.20 0.9646
397.30 0.9842
397.40 1.012
397.50 1.04
397.60 1.067
397.70 1.089
397.80 1.11
397.90 1.129
398.00 1.146
398.10 1.162
398.20 1.177
398.30 1.191
398.40 1.205
398.50 1.218
398.60 1.23
398.70 1.241
398.80 1.253
398.90 1.263
399.00 1.273
399.10 1.283
399.20 1.292
399.30 1.301
399.40 1.309
399.50 1.317
399.60 1.325
399.70 1.332
399.80 1.339
399.90 1.346
400.00 1.352
400.10 1.358
400.20 1.364
400.30 1.369
400.40 1.374
400.50 1.379
400.60 1.383
400.70 1.388
400.80 1.392
400.90 1.396
401.00 1.399
401.10 1.403
401.20 1.406
401.30 1.409
401.40 1.412
401.50 1.414
401.60 1.416
401.70 1.419
401.80 1.421
401.90 1.422
402.00 1.424
402.10 1.425
402.20 1.427
402.30 1.428
402.40 1.428
402.50 1.429
402.60 1.429
402.70 1.43
402.80 1.43
402.90 1.43
403.00 1.43
403.10 1.429
403.20 1.429
403.30 1.428
403.40 1.427
403.50 1.426
403.60 1.425
403.70 1.423
403.80 1.422
403.90 1.42
404.00 1.418
404.10 1.416
404.20 1.413
404.30 1.411
404.40 1.408
404.50 1.405
404.60 1.402
404.70 1.399
404.80 1.396
404.90 1.392
405.00 1.388
405.10 1.384
405.20 1.38
405.30 1.375
405.40 1.37
405.50 1.365
405.60 1.36
405.70 1.355
405.80 1.349
405.90 1.343
406.00 1.337
406.10 1.331
406.20 1.324
406.30 1.317
406.40 1.31
406.50 1.302
406.60 1.295
406.70 1.286
406.80 1.278
406.90 1.269
407.00 1.26
407.10 1.251
407.20 1.241
407.30 1.231
407.40 1.22
407.50 1.209
407.60 1.198
407.70 1.186
407.80 1.173
407.90 1.16
408.00 1.147
408.10 1.133
408.20 1.119
408.30 1.104
408.40 1.088
408.50 1.072
408.60 1.055
408.70 1.037
408.80 1.019
408.90 1
409.00 0.9809
409.10 0.9606
409.20 0.9399
409.30 0.9185
409.40 0.8955
409.50 0.871
409.60 0.8452
409.70 0.8153
409.80 0.7835
409.90 0.7499
410.00 0.7228
410.10 0.7034
410.20 0.6916
410.30 0.7117
410.40 0.7366
410.50 0.7665
410.60 0.7989
410.70 0.8289
410.80 0.8565
410.90 0.8805
411.00 0.9033
411.10 0.9249
411.20 0.945
411.30 0.9646
411.40 0.9837
411.50 1.002
411.60 1.02
411.70 1.037
411.80 1.053
411.90 1.069
412.00 1.084
412.10 1.098
412.20 1.112
412.30 1.125
412.40 1.138
412.50 1.15
412.60 1.162
412.70 1.174
412.80 1.184
412.90 1.195
413.00 1.205
413.10 1.215
413.20 1.224
413.30 1.233
413.40 1.242
413.50 1.25
413.60 1.258
413.70 1.266
413.80 1.273
413.90 1.28
414.00 1.287
414.10 1.294
414.20 1.3
414.30 1.307
414.40 1.313
414.50 1.318
414.60 1.324
414.70 1.33
414.80 1.335
414.90 1.34
415.00 1.345
415.10 1.35
415.20 1.354
415.30 1.359
415.40 1.363
415.50 1.367
415.60 1.371
415.70 1.375
415.80 1.378
415.90 1.382
416.00 1.385
416.10 1.388
416.20 1.392
416.30 1.395
416.40 1.398
416.50 1.401
416.60 1.403
416.70 1.406
416.80 1.408
416.90 1.411
417.00 1.413
417.10 1.415
417.20 1.418
417.30 1.42
417.40 1.422
417.50 1.424
417.60 1.425
417.70 1.427
417.80 1.429
417.90 1.43
418.00 1.432
418.10 1.433
418.20 1.435
418.30 1.436
418.40 1.437
418.50 1.438
418.60 1.439
418.70 1.44
418.80 1.441
418.90 1.442
419.00 1.443
419.10 1.444
419.20 1.444
419.30 1.445
419.40 1.445
419.50 1.446
419.60 1.446
419.70 1.447
419.80 1.447
419.90 1.447
420.00 1.448
420.10 1.448
420.20 1.448
420.30 1.448
420.40 1.448
420.50 1.448
420.60 1.448
420.70 1.448
420.80 1.448
420.90 1.447
421.00 1.447
421.10 1.447
421.20 1.446
421.30 1.446
421.40 1.446
421.50 1.445
421.60 1.444
421.70 1.444
421.80 1.443
421.90 1.442
422.00 1.442
422.10 1.441
422.20 1.44
422.30 1.439
422.40 1.438
422.50 1.437
422.60 1.436
422.70 1.435
422.80 1.434
422.90 1.433
423.00 1.431
423.10 1.43
423.20 1.429
423.30 1.427
423.40 1.426
423.50 1.424
423.60 1.423
423.70 1.421
423.80 1.42
423.90 1.418
424.00 1.416
424.10 1.414
424.20 1.412
424.30 1.411
424.40 1.409
424.50 1.407
424.60 1.404
424.70 1.402
424.80 1.4
424.90 1.398
425.00 1.396
425.10 1.393
425.20 1.391
425.30 1.388
425.40 1.386
425.50 1.383
425.60 1.381
425.70 1.378
425.80 1.375
425.90 1.372
426.00 1.369
426.10 1.366
426.20 1.362
426.30 1.359
426.40 1.356
426.50 1.352
426.60 1.349
426.70 1.345
426.80 1.342
426.90 1.338
427.00 1.334
427.10 1.331
427.20 1.327
427.30 1.323
427.40 1.318
427.50 1.314
427.60 1.31
427.70 1.306
427.80 1.301
427.90 1.296
428.00 1.292
428.10 1.287
428.20 1.282
428.30 1.277
428.40 1.272
428.50 1.267
428.60 1.261
428.70 1.256
428.80 1.25
428.90 1.244
429.00 1.238
429.10 1.232
429.20 1.226
429.30 1.219
429.40 1.213
429.50 1.206
429.60 1.199
429.70 1.192
429.80 1.184
429.90 1.177
430.00 1.169
430.10 1.161
430.20 1.153
430.30 1.145
430.40 1.136
430.50 1.127
430.60 1.118
430.70 1.109
430.80 1.1
430.90 1.09
431.00 1.08
431.10 1.069
431.20 1.058
431.30 1.047
431.40 1.036
431.50 1.024
431.60 1.012
431.70 0.999
431.80 0.9861
431.90 0.9724
432.00 0.9583
432.10 0.9439
432.20 0.9284
432.30 0.9125
432.40 0.8961
432.50 0.8784
432.60 0.8601
432.70 0.8412
432.80 0.8213
432.90 0.8011
433.00 0.7808
433.10 0.7606
433.20 0.7407
433.30 0.721
433.40 0.7011
433.50 0.6803
433.60 0.6585
433.70 0.6315
433.80 0.6008
433.90 0.5666
434.00 0.5249
434.10 0.5257
434.20 0.569
434.30 0.6025
434.40 0.6324
434.50 0.6586
434.60 0.6796
434.70 0.6998
434.80 0.719
434.90 0.7381
435.00 0.7574
435.10 0.7768
435.20 0.7964
435.30 0.8157
435.40 0.8347
435.50 0.8527
435.60 0.87
435.70 0.8866
435.80 0.902
435.90 0.9169
436.00 0.9312
436.10 0.9446
436.20 0.9575
436.30 0.9701
436.40 0.9819
436.50 0.9934
436.60 1.005
436.70 1.015
436.80 1.025
436.90 1.035
437.00 1.045
437.10 1.054
437.20 1.063
437.30 1.071
437.40 1.08
437.50 1.088
437.60 1.096
437.70 1.103
437.80 1.11
437.90 1.117
438.00 1.124
438.10 1.131
438.20 1.137
438.30 1.143
438.40 1.15
438.50 1.155
438.60 1.161
438.70 1.167
438.80 1.172
438.90 1.177
439.00 1.182
439.10 1.187
439.20 1.191
439.30 1.196
439.40 1.2
439.50 1.205
439.60 1.209
439.70 1.213
439.80 1.216
439.90 1.22
440.00 1.224
440.10 1.227
440.20 1.231
440.30 1.234
440.40 1.237
440.50 1.24
440.60 1.243
440.70 1.246
440.80 1.249
440.90 1.252
441.00 1.255
441.10 1.257
441.20 1.26
441.30 1.262
441.40 1.265
441.50 1.267
441.60 1.269
441.70 1.271
441.80 1.274
441.90 1.276
442.00 1.278
442.10 1.279
442.20 1.281
442.30 1.283
442.40 1.285
442.50 1.287
442.60 1.288
442.70 1.29
442.80 1.291
442.90 1.293
443.00 1.294
443.10 1.295
443.20 1.297
443.30 1.298
443.40 1.299
443.50 1.3
443.60 1.301
443.70 1.303
443.80 1.304
443.90 1.305
444.00 1.306
444.10 1.307
444.20 1.307
444.30 1.308
444.40 1.309
444.50 1.31
444.60 1.311
444.70 1.312
444.80 1.312
444.90 1.313
445.00 1.314
445.10 1.314
445.20 1.315
445.30 1.316
445.40 1.316
445.50 1.317
445.60 1.317
445.70 1.318
445.80 1.318
445.90 1.318
446.00 1.319
446.10 1.319
446.20 1.319
446.30 1.32
446.40 1.32
446.50 1.32
446.60 1.321
446.70 1.321
446.80 1.321
446.90 1.321
447.00 1.321
447.10 1.322
447.20 1.322
447.30 1.322
447.40 1.322
447.50 1.322
447.60 1.322
447.70 1.322
447.80 1.322
447.90 1.322
448.00 1.322
448.10 1.322
448.20 1.322
448.30 1.322
448.40 1.322
448.50 1.322
448.60 1.322
448.70 1.322
448.80 1.322
448.90 1.322
449.00 1.322
449.10 1.322
449.20 1.322
449.30 1.322
449.40 1.321
449.50 1.321
449.60 1.321
449.70 1.321
449.80 1.321
449.90 1.32
450.00 1.32
450.10 1.32
450.20 1.32
450.30 1.32
450.40 1.319
450.50 1.319
450.60 1.319
450.70 1.318
450.80 1.318
450.90 1.318
451.00 1.317
451.10 1.317
451.20 1.317
451.30 1.316
451.40 1.316
451.50 1.316
451.60 1.315
451.70 1.315
451.80 1.315
451.90 1.314
452.00 1.314
452.10 1.313
452.20 1.313
452.30 1.313
452.40 1.312
452.50 1.312
452.60 1.311
452.70 1.311
452.80 1.31
452.90 1.31
453.00 1.31
453.10 1.309
453.20 1.309
453.30 1.308
453.40 1.308
453.50 1.307
453.60 1.307
453.70 1.306
453.80 1.306
453.90 1.305
454.00 1.305
454.10 1.304
454.20 1.304
454.30 1.303
454.40 1.303
454.50 1.302
454.60 1.302
454.70 1.301
454.80 1.301
454.90 1.3
455.00 1.299
455.10 1.299
455.20 1.298
455.30 1.298
455.40 1.297
455.50 1.297
455.60 1.296
455.70 1.295
455.80 1.295
455.90 1.294
456.00 1.294
456.10 1.293
456.20 1.292
456.30 1.292
456.40 1.291
456.50 1.291
456.60 1.29
456.70 1.29
456.80 1.289
456.90 1.288
457.00 1.288
457.10 1.287
457.20 1.287
457.30 1.286
457.40 1.286
457.50 1.285
457.60 1.284
457.70 1.284
457.80 1.283
457.90 1.282
458.00 1.282
458.10 1.281
458.20 1.28
458.30 1.28
458.40 1.279
458.50 1.278
458.60 1.278
458.70 1.277
458.80 1.276
458.90 1.275
459.00 1.275
459.10 1.274
459.20 1.273
459.30 1.273
459.40 1.272
459.50 1.271
459.60 1.271
459.70 1.27
459.80 1.269
459.90 1.268
460.00 1.268
460.10 1.267
460.20 1.266
460.30 1.265
460.40 1.265
460.50 1.264
460.60 1.263
460.70 1.262
460.80 1.262
460.90 1.261
461.00 1.26
461.10 1.259
461.20 1.259
461.30 1.258
461.40 1.257
461.50 1.256
461.60 1.256
461.70 1.255
461.80 1.254
461.90 1.253
462.00 1.253
462.10 1.252
462.20 1.251
462.30 1.25
462.40 1.249
462.50 1.249
462.60 1.248
462.70 1.247
462.80 1.246
462.90 1.245
463.00 1.244
463.10 1.244
463.20 1.243
463.30 1.242
463.40 1.241
463.50 1.24
463.60 1.239
463.70 1.239
463.80 1.238
463.90 1.237
464.00 1.236
464.10 1.235
464.20 1.234
464.30 1.233
464.40 1.233
464.50 1.232
464.60 1.231
464.70 1.23
464.80 1.229
464.90 1.228
465.00 1.227
465.10 1.226
465.20 1.226
465.30 1.225
465.40 1.224
465.50 1.223
465.60 1.222
465.70 1.221
465.80 1.22
465.90 1.219
466.00 1.218
466.10 1.217
466.20 1.216
466.30 1.215
466.40 1.214
466.50 1.213
466.60 1.212
466.70 1.211
466.80 1.21
466.90 1.209
467.00 1.209
467.10 1.208
467.20 1.207
467.30 1.206
467.40 1.204
467.50 1.203
467.60 1.202
467.70 1.201
467.80 1.2
467.90 1.199
468.00 1.198
468.10 1.197
468.20 1.196
468.30 1.195
468.40 1.194
468.50 1.193
468.60 1.192
468.70 1.191
468.80 1.19
468.90 1.189
469.00 1.188
469.10 1.187
469.20 1.185
469.30 1.184
469.40 1.183
469.50 1.182
469.60 1.181
469.70 1.18
469.80 1.178
469.90 1.177
470.00 1.176
470.10 1.175
470.20 1.174
470.30 1.173
470.40 1.171
470.50 1.17
470.60 1.169
470.70 1.168
470.80 1.167
470.90 1.165
471.00 1.164
471.10 1.163
471.20 1.162
471.30 1.16
471.40 1.159
471.50 1.158
471.60 1.156
471.70 1.155
471.80 1.154
471.90 1.152
472.00 1.151
472.10 1.15
472.20 1.148
472.30 1.147
472.40 1.145
472.50 1.144
472.60 1.143
472.70 1.141
472.80 1.14
472.90 1.138
473.00 1.137
473.10 1.135
473.20 1.134
473.30 1.132
473.40 1.13
473.50 1.129
473.60 1.127
473.70 1.126
473.80 1.124
473.90 1.123
474.00 1.121
474.10 1.119
474.20 1.118
474.30 1.116
474.40 1.114
474.50 1.112
474.60 1.111
474.70 1.109
474.80 1.107
474.90 1.105
475.00 1.103
475.10 1.102
475.20 1.1
475.30 1.098
475.40 1.096
475.50 1.094
475.60 1.092
475.70 1.09
475.80 1.088
475.90 1.086
476.00 1.084
476.10 1.082
476.20 1.08
476.30 1.077
476.40 1.075
476.50 1.073
476.60 1.071
476.70 1.068
476.80 1.066
476.90 1.064
477.00 1.062
477.10 1.059
477.20 1.057
477.30 1.054
477.40 1.052
477.50 1.049
477.60 1.047
477.70 1.044
477.80 1.041
477.90 1.039
478.00 1.036
478.10 1.034
478.20 1.031
478.30 1.028
478.40 1.025
478.50 1.022
478.60 1.019
478.70 1.016
478.80 1.013
478.90 1.01
479.00 1.007
479.10 1.004
479.20 1
479.30 0.9969
479.40 0.9934
479.50 0.9898
479.60 0.9863
479.70 0.9828
479.80 0.9793
479.90 0.9758
480.00 0.9723
480.10 0.9688
480.20 0.9648
480.30 0.9606
480.40 0.9564
480.50 0.9522
480.60 0.948
480.70 0.9438
480.80 0.9396
480.90 0.9354
481.00 0.9313
481.10 0.9271
481.20 0.9222
481.30 0.917
481.40 0.9119
481.50 0.9067
481.60 0.9015
481.70 0.8963
481.80 0.8912
481.90 0.886
482.00 0.8809
482.10 0.8757
482.20 0.8695
482.30 0.8629
482.40 0.8563
482.50 0.8497
482.60 0.8431
482.70 0.8365
482.80 0.8299
482.90 0.8233
483.00 0.8167
483.10 0.8101
483.20 0.8018
483.30 0.7927
483.40 0.7836
483.50 0.7745
483.60 0.7654
483.70 0.7563
483.80 0.7472
483.90 0.7382
484.00 0.7291
484.10 0.72
484.20 0.7089
484.30 0.6968
484.40 0.6847
484.50 0.6727
484.60 0.6606
484.70 0.6473
484.80 0.6335
484.90 0.6197
485.00 0.6058
485.10 0.592
485.20 0.5785
485.30 0.565
485.40 0.5519
485.50 0.539
485.60 0.5257
485.70 0.5122
485.80 0.4949
485.90 0.4757
486.00 0.4465
486.10 0.3907
486.20 0.4109
486.30 0.4586
486.40 0.4811
486.50 0.5002
486.60 0.5152
486.70 0.5283
486.80 0.541
486.90 0.5534
487.00 0.5662
487.10 0.5791
487.20 0.5922
487.30 0.6054
487.40 0.6186
487.50 0.6318
487.60 0.645
487.70 0.6569
487.80 0.6683
487.90 0.6796
488.00 0.691
488.10 0.7023
488.20 0.7115
488.30 0.7198
488.40 0.728
488.50 0.7362
488.60 0.7445
488.70 0.7527
488.80 0.7609
488.90 0.7691
489.00 0.7773
489.10 0.7855
489.20 0.792
489.30 0.7976
489.40 0.8033
489.50 0.8089
489.60 0.8145
489.70 0.8202
489.80 0.8258
489.90 0.8314
490.00 0.837
490.10 0.8426
490.20 0.8472
490.30 0.8513
490.40 0.8555
490.50 0.8596
490.60 0.8637
490.70 0.8678
490.80 0.8719
490.90 0.876
491.00 0.8801
491.10 0.8842
491.20 0.8877
491.30 0.8907
491.40 0.8938
491.50 0.8969
491.60 0.9
491.70 0.903
491.80 0.9061
491.90 0.9092
492.00 0.9122
492.10 0.9153
492.20 0.9179
492.30 0.9202
492.40 0.9226
492.50 0.925
492.60 0.9273
492.70 0.9297
492.80 0.932
492.90 0.9344
493.00 0.9367
493.10 0.9391
493.20 0.9411
493.30 0.9429
493.40 0.9447
493.50 0.9466
493.60 0.9484
493.70 0.9502
493.80 0.9521
493.90 0.9539
494.00 0.9557
494.10 0.9575
494.20 0.9591
494.30 0.9604
494.40 0.9618
494.50 0.9631
494.60 0.9645
494.70 0.9659
494.80 0.9672
494.90 0.9686
495.00 0.9699
495.10 0.9713
495.20 0.9724
495.30 0.9734
495.40 0.9744
495.50 0.9755
495.60 0.9765
495.70 0.9775
495.80 0.9785
495.90 0.9795
496.00 0.9805
496.10 0.9815
496.20 0.9824
496.30 0.9831
496.40 0.9839
496.50 0.9846
496.60 0.9854
496.70 0.9862
496.80 0.9869
496.90 0.9877
497.00 0.9884
497.10 0.9892
497.20 0.9898
497.30 0.9903
497.40 0.9908
497.50 0.9914
497.60 0.9919
497.70 0.9924
497.80 0.993
497.90 0.9935
498.00 0.994
498.10 0.9945
498.20 0.9949
498.30 0.9953
498.40 0.9956
498.50 0.996
498.60 0.9963
498.70 0.9967
498.80 0.997
498.90 0.9974
499.00 0.9977
499.10 0.998
499.20 0.9983
499.30 0.9985
499.40 0.9987
499.50 0.9989
499.60 0.9992
499.70 0.9994
499.80 0.9996
499.90 0.9998
500.00 1
500.10 1
500.20 1
500.30 1
500.40 1.001
500.50 1.001
500.60 1.001
500.70 1.001
500.80 1.001
500.90 1.001
501.00 1.001
501.10 1.001
501.20 1.001
501.30 1.001
501.40 1.001
501.50 1.001
501.60 1.001
501.70 1.001
501.80 1.001
501.90 1.001
502.00 1.001
502.10 1.001
502.20 1.001
502.30 1.001
502.40 1.001
502.50 1.001
502.60 1.001
502.70 1.001
502.80 1.001
502.90 1.001
503.00 1
503.10 1
503.20 1
503.30 1
503.40 1
503.50 0.9998
503.60 0.9997
503.70 0.9995
503.80 0.9994
503.90 0.9993
504.00 0.9991
504.10 0.999
504.20 0.9988
504.30 0.9986
504.40 0.9984
504.50 0.9982
504.60 0.998
504.70 0.9978
504.80 0.9976
504.90 0.9974
505.00 0.9972
505.10 0.997
505.20 0.9968
505.30 0.9966
505.40 0.9963
505.50 0.9961
505.60 0.9959
505.70 0.9956
505.80 0.9954
505.90 0.9951
506.00 0.9949
506.10 0.9947
506.20 0.9944
506.30 0.9941
506.40 0.9938
506.50 0.9936
506.60 0.9933
506.70 0.993
506.80 0.9927
506.90 0.9925
507.00 0.9922
507.10 0.9919
507.20 0.9916
507.30 0.9913
507.40 0.991
507.50 0.9907
507.60 0.9904
507.70 0.9901
507.80 0.9897
507.90 0.9894
508.00 0.9891
508.10 0.9888
508.20 0.9885
508.30 0.9882
508.40 0.9878
508.50 0.9875
508.60 0.9872
508.70 0.9868
508.80 0.9865
508.90 0.9861
509.00 0.9858
509.10 0.9855
509.20 0.9851
509.30 0.9848
509.40 0.9844
509.50 0.9841
509.60 0.9837
509.70 0.9833
509.80 0.983
509.90 0.9826
510.00 0.9823
510.10 0.9819
510.20 0.9816
510.30 0.9812
510.40 0.9808
510.50 0.9804
510.60 0.98
510.70 0.9797
510.80 0.9793
510.90 0.9789
511.00 0.9785
511.10 0.9782
511.20 0.9778
511.30 0.9774
511.40 0.977
511.50 0.9766
511.60 0.9762
511.70 0.9758
511.80 0.9754
511.90 0.9751
512.00 0.9747
512.10 0.9743
512.20 0.9739
512.30 0.9735
512.40 0.9731
512.50 0.9727
512.60 0.9723
512.70 0.9719
512.80 0.9715
512.90 0.9711
513.00 0.9707
513.10 0.9703
513.20 0.9698
513.30 0.9694
513.40 0.969
513.50 0.9686
513.60 0.9682
513.70 0.9678
513.80 0.9674
513.90 0.967
514.00 0.9665
514.10 0.9661
514.20 0.9657
514.30 0.9653
514.40 0.9649
514.50 0.9644
514.60 0.964
514.70 0.9636
514.80 0.9632
514.90 0.9628
515.00 0.9623
515.10 0.9619
515.20 0.9615
515.30 0.9611
515.40 0.9606
515.50 0.9602
515.60 0.9598
515.70 0.9594
515.80 0.9589
515.90 0.9585
516.00 0.9581
516.10 0.9577
516.20 0.9572
516.30 0.9568
516.40 0.9564
516.50 0.9559
516.60 0.9555
516.70 0.9551
516.80 0.9546
516.90 0.9542
517.00 0.9538
517.10 0.9533
517.20 0.9529
517.30 0.9525
517.40 0.952
517.50 0.9516
517.60 0.9512
517.70 0.9507
517.80 0.9503
517.90 0.9498
518.00 0.9494
518.10 0.949
518.20 0.9485
518.30 0.9481
518.40 0.9477
518.50 0.9472
518.60 0.9468
518.70 0.9463
518.80 0.9459
518.90 0.9455
519.00 0.945
519.10 0.9446
519.20 0.9441
519.30 0.9437
519.40 0.9433
519.50 0.9428
519.60 0.9424
519.70 0.9419
519.80 0.9415
519.90 0.941
520.00 0.9406
520.10 0.9402
520.20 0.9397
520.30 0.9393
520.40 0.9388
520.50 0.9384
520.60 0.9379
520.70 0.9375
520.80 0.937
520.90 0.9366
521.00 0.9361
521.10 0.9357
521.20 0.9353
521.30 0.9348
521.40 0.9344
521.50 0.9339
521.60 0.9335
521.70 0.933
521.80 0.9326
521.90 0.9321
522.00 0.9317
522.10 0.9312
522.20 0.9308
522.30 0.9303
522.40 0.9299
522.50 0.9294
522.60 0.929
522.70 0.9285
522.80 0.9281
522.90 0.9277
523.00 0.9272
523.10 0.9268
523.20 0.9263
523.30 0.9259
523.40 0.9254
523.50 0.925
523.60 0.9245
523.70 0.9241
523.80 0.9236
523.90 0.9232
524.00 0.9227
524.10 0.9223
524.20 0.9218
524.30 0.9214
524.40 0.9209
524.50 0.9205
524.60 0.92
524.70 0.9196
524.80 0.9191
524.90 0.9187
525.00 0.9182
525.10 0.9178
525.20 0.9173
525.30 0.9169
525.40 0.9164
525.50 0.916
525.60 0.9155
525.70 0.9151
525.80 0.9146
525.90 0.9142
526.00 0.9137
526.10 0.9133
526.20 0.9128
526.30 0.9124
526.40 0.9119
526.50 0.9115
526.60 0.9111
526.70 0.9106
526.80 0.9102
526.90 0.9097
527.00 0.9093
527.10 0.9088
527.20 0.9084
527.30 0.9079
527.40 0.9075
527.50 0.907
527.60 0.9066
527.70 0.9061
527.80 0.9057
527.90 0.9052
528.00 0.9048
528.10 0.9043
528.20 0.9039
528.30 0.9034
528.40 0.903
528.50 0.9025
528.60 0.9021
528.70 0.9016
528.80 0.9012
528.90 0.9007
529.00 0.9003
529.10 0.8998
529.20 0.8994
529.30 0.899
529.40 0.8985
529.50 0.8981
529.60 0.8976
529.70 0.8972
529.80 0.8967
529.90 0.8963
530.00 0.8958
530.10 0.8954
530.20 0.8949
530.30 0.8945
530.40 0.894
530.50 0.8936
530.60 0.8932
530.70 0.8927
530.80 0.8923
530.90 0.8918
531.00 0.8914
531.10 0.8909
531.20 0.8905
531.30 0.89
531.40 0.8896
531.50 0.8892
531.60 0.8887
531.70 0.8883
531.80 0.8878
531.90 0.8874
532.00 0.8869
532.10 0.8865
532.20 0.886
532.30 0.8856
532.40 0.8852
532.50 0.8847
532.60 0.8843
532.70 0.8838
532.80 0.8834
532.90 0.8829
533.00 0.8825
533.10 0.8821
533.20 0.8816
533.30 0.8812
533.40 0.8807
533.50 0.8803
533.60 0.8799
533.70 0.8794
533.80 0.879
533.90 0.8785
534.00 0.8781
534.10 0.8777
534.20 0.8772
534.30 0.8768
534.40 0.8763
534.50 0.8759
534.60 0.8755
534.70 0.875
534.80 0.8746
534.90 0.8741
535.00 0.8737
535.10 0.8733
535.20 0.8728
535.30 0.8724
535.40 0.8719
535.50 0.8715
535.60 0.8711
535.70 0.8706
535.80 0.8702
535.90 0.8698
536.00 0.8693
536.10 0.8689
536.20 0.8684
536.30 0.868
536.40 0.8676
536.50 0.8671
536.60 0.8667
536.70 0.8663
536.80 0.8658
536.90 0.8654
537.00 0.865
537.10 0.8645
537.20 0.8641
537.30 0.8637
537.40 0.8632
537.50 0.8628
537.60 0.8624
537.70 0.8619
537.80 0.8615
537.90 0.8611
538.00 0.8606
538.10 0.8602
538.20 0.8598
538.30 0.8593
538.40 0.8589
538.50 0.8585
538.60 0.858
538.70 0.8576
538.80 0.8572
538.90 0.8567
539.00 0.8563
539.10 0.8559
539.20 0.8554
539.30 0.855
539.40 0.8546
539.50 0.8541
539.60 0.8537
539.70 0.8533
539.80 0.8528
539.90 0.8524
540.00 0.852
540.10 0.8516
540.20 0.8511
540.30 0.8507
540.40 0.8503
540.50 0.8498
540.60 0.8494
540.70 0.849
540.80 0.8486
540.90 0.8481
541.00 0.8477
541.10 0.8473
541.20 0.8469
541.30 0.8464
541.40 0.846
541.50 0.8456
541.60 0.8452
541.70 0.8447
541.80 0.8443
541.90 0.8439
542.00 0.8435
542.10 0.843
542.20 0.8426
542.30 0.8422
542.40 0.8417
542.50 0.8413
542.60 0.8409
542.70 0.8405
542.80 0.8401
542.90 0.8396
543.00 0.8392
543.10 0.8388
543.20 0.8384
543.30 0.8379
543.40 0.8375
543.50 0.8371
543.60 0.8367
543.70 0.8363
543.80 0.8358
543.90 0.8354
544.00 0.835
544.10 0.8346
544.20 0.8342
544.30 0.8337
544.40 0.8333
544.50 0.8329
544.60 0.8325
544.70 0.832
544.80 0.8316
544.90 0.8312
545.00 0.8308
545.10 0.8304
545.20 0.8299
545.30 0.8295
545.40 0.8291
545.50 0.8287
545.60 0.8283
545.70 0.8279
545.80 0.8274
545.90 0.827
546.00 0.8266
546.10 0.8262
546.20 0.8258
546.30 0.8255
546.40 0.8252
546.50 0.8249
546.60 0.8246
546.70 0.8243
546.80 0.824
546.90 0.8236
547.00 0.8233
547.10 0.823
547.20 0.8226
547.30 0.8222
547.40 0.8218
547.50 0.8214
547.60 0.821
547.70 0.8205
547.80 0.8201
547.90 0.8197
548.00 0.8193
548.10 0.8189
548.20 0.8184
548.30 0.818
548.40 0.8176
548.50 0.8172
548.60 0.8168
548.70 0.8164
548.80 0.816
548.90 0.8155
549.00 0.8151
549.10 0.8147
549.20 0.8143
549.30 0.8139
549.40 0.8135
549.50 0.8131
549.60 0.8126
549.70 0.8122
549.80 0.8118
549.90 0.8114
550.00 0.811
550.10 0.8106
550.20 0.8102
550.30 0.8097
550.40 0.8093
550.50 0.8089
550.60 0.8085
550.70 0.8081
550.80 0.8077
550.90 0.8073
551.00 0.8069
551.10 0.8065
551.20 0.8061
551.30 0.8056
551.40 0.8052
551.50 0.8048
551.60 0.8044
551.70 0.804
551.80 0.8036
551.90 0.8032
552.00 0.8028
552.10 0.8024
552.20 0.802
552.30 0.8016
552.40 0.8012
552.50 0.8008
552.60 0.8003
552.70 0.7999
552.80 0.7995
552.90 0.7991
553.00 0.7987
553.10 0.7983
553.20 0.7979
553.30 0.7975
553.40 0.7971
553.50 0.7967
553.60 0.7963
553.70 0.7959
553.80 0.7955
553.90 0.7951
554.00 0.7947
554.10 0.7943
554.20 0.7939
554.30 0.7935
554.40 0.7931
554.50 0.7927
554.60 0.7923
554.70 0.7919
554.80 0.7915
554.90 0.7911
555.00 0.7907
555.10 0.7903
555.20 0.7899
555.30 0.7895
555.40 0.7891
555.50 0.7887
555.60 0.7883
555.70 0.7879
555.80 0.7875
555.90 0.7871
556.00 0.7867
556.10 0.7863
556.20 0.7859
556.30 0.7855
556.40 0.7851
556.50 0.7847
556.60 0.7843
556.70 0.7839
556.80 0.7835
556.90 0.7831
557.00 0.7827
557.10 0.7823
557.20 0.7819
557.30 0.7815
557.40 0.7811
557.50 0.7807
557.60 0.7804
557.70 0.78
557.80 0.7796
557.90 0.7792
558.00 0.7788
558.10 0.7784
558.20 0.778
558.30 0.7776
558.40 0.7772
558.50 0.7768
558.60 0.7764
558.70 0.776
558.80 0.7756
558.90 0.7752
559.00 0.7749
559.10 0.7745
559.20 0.7741
559.30 0.7737
559.40 0.7733
559.50 0.7729
559.60 0.7725
559.70 0.7721
559.80 0.7717
559.90 0.7713
560.00 0.771
560.10 0.7706
560.20 0.7702
560.30 0.7698
560.40 0.7694
560.50 0.769
560.60 0.7686
560.70 0.7682
560.80 0.7679
560.90 0.7675
561.00 0.7671
561.10 0.7667
561.20 0.7663
561.30 0.7659
561.40 0.7655
561.50 0.7652
561.60 0.7648
561.70 0.7644
561.80 0.764
561.90 0.7636
562.00 0.7632
562.10 0.7629
562.20 0.7625
562.30 0.7621
562.40 0.7617
562.50 0.7613
562.60 0.7609
562.70 0.7606
562.80 0.7602
562.90 0.7598
563.00 0.7594
563.10 0.759
563.20 0.7586
563.30 0.7583
563.40 0.7579
563.50 0.7575
563.60 0.7571
563.70 0.7567
563.80 0.7564
563.90 0.756
564.00 0.7556
564.10 0.7552
564.20 0.7548
564.30 0.7545
564.40 0.7541
564.50 0.7537
564.60 0.7533
564.70 0.753
564.80 0.7526
564.90 0.7522
565.00 0.7518
565.10 0.7514
565.20 0.7511
565.30 0.7507
565.40 0.7503
565.50 0.7499
565.60 0.7496
565.70 0.7492
565.80 0.7488
565.90 0.7484
566.00 0.7481
566.10 0.7477
566.20 0.7473
566.30 0.7469
566.40 0.7466
566.50 0.7462
566.60 0.7458
566.70 0.7454
566.80 0.7451
566.90 0.7447
567.00 0.7443
567.10 0.744
567.20 0.7436
567.30 0.7432
567.40 0.7428
567.50 0.7425
567.60 0.7421
567.70 0.7417
567.80 0.7414
567.90 0.741
568.00 0.7406
568.10 0.7402
568.20 0.7399
568.30 0.7395
568.40 0.7391
568.50 0.7388
568.60 0.7384
568.70 0.738
568.80 0.7377
568.90 0.7373
569.00 0.7369
569.10 0.7365
569.20 0.7362
569.30 0.7358
569.40 0.7354
569.50 0.7351
569.60 0.7347
569.70 0.7343
569.80 0.734
569.90 0.7336
570.00 0.7333
570.10 0.7329
570.20 0.7325
570.30 0.7322
570.40 0.7318
570.50 0.7314
570.60 0.7311
570.70 0.7307
570.80 0.7303
570.90 0.73
571.00 0.7296
571.10 0.7292
571.20 0.7289
571.30 0.7285
571.40 0.7281
571.50 0.7278
571.60 0.7274
571.70 0.7271
571.80 0.7267
571.90 0.7263
572.00 0.726
572.10 0.7256
572.20 0.7252
572.30 0.7249
572.40 0.7245
572.50 0.7242
572.60 0.7238
572.70 0.7234
572.80 0.7231
572.90 0.7227
573.00 0.7224
573.10 0.722
573.20 0.7216
573.30 0.7213
573.40 0.7209
573.50 0.7206
573.60 0.7202
573.70 0.7199
573.80 0.7195
573.90 0.7191
574.00 0.7188
574.10 0.7184
574.20 0.7181
574.30 0.7177
574.40 0.7173
574.50 0.717
574.60 0.7166
574.70 0.7163
574.80 0.7159
574.90 0.7156
575.00 0.7152
575.10 0.7149
575.20 0.7145
575.30 0.7141
575.40 0.7138
575.50 0.7134
575.60 0.7131
575.70 0.7127
575.80 0.7124
575.90 0.712
576.00 0.7117
576.10 0.7113
576.20 0.711
576.30 0.7106
576.40 0.7103
576.50 0.7099
576.60 0.7096
576.70 0.7092
576.80 0.7089
576.90 0.7085
577.00 0.7081
577.10 0.7078
577.20 0.7074
577.30 0.7071
577.40 0.7067
577.50 0.7064
577.60 0.706
577.70 0.7057
577.80 0.7053
577.90 0.705
578.00 0.7046
578.10 0.7043
578.20 0.7039
578.30 0.7036
578.40 0.7033
578.50 0.7029
578.60 0.7026
578.70 0.7022
578.80 0.7019
578.90 0.7015
579.00 0.7012
579.10 0.7008
579.20 0.7005
579.30 0.7001
579.40 0.6998
579.50 0.6994
579.60 0.6991
579.70 0.6987
579.80 0.6984
579.90 0.698
580.00 0.6977
580.10 0.6974
580.20 0.697
580.30 0.6967
580.40 0.6963
580.50 0.696
580.60 0.6956
580.70 0.6953
580.80 0.6949
580.90 0.6946
581.00 0.6943
581.10 0.6939
581.20 0.6936
581.30 0.6932
581.40 0.6929
581.50 0.6925
581.60 0.6922
581.70 0.6919
581.80 0.6915
581.90 0.6912
582.00 0.6908
582.10 0.6905
582.20 0.6902
582.30 0.6898
582.40 0.6895
582.50 0.6891
582.60 0.6888
582.70 0.6885
582.80 0.6881
582.90 0.6878
583.00 0.6874
583.10 0.6871
583.20 0.6868
583.30 0.6864
583.40 0.6861
583.50 0.6858
583.60 0.6854
583.70 0.6851
583.80 0.6847
583.90 0.6844
584.00 0.6841
584.10 0.6837
584.20 0.6834
584.30 0.6831
584.40 0.6827
584.50 0.6824
584.60 0.682
584.70 0.6817
584.80 0.6814
584.90 0.681
585.00 0.6807
585.10 0.6804
585.20 0.68
585.30 0.6797
585.40 0.6794
585.50 0.679
585.60 0.6787
585.70 0.6784
585.80 0.678
585.90 0.6777
586.00 0.6774
586.10 0.677
586.20 0.6767
586.30 0.6764
586.40 0.676
586.50 0.6757
586.60 0.6754
586.70 0.675
586.80 0.6747
586.90 0.6744
587.00 0.674
587.10 0.6737
587.20 0.6734
587.30 0.673
587.40 0.6727
587.50 0.6724
587.60 0.6721
587.70 0.6717
587.80 0.6714
587.90 0.6711
588.00 0.6707
588.10 0.6704
588.20 0.6701
588.30 0.6698
588.40 0.6694
588.50 0.6691
588.60 0.6688
588.70 0.6684
588.80 0.6681
588.90 0.6678
589.00 0.6675
589.10 0.6671
589.20 0.6668
589.30 0.6665
589.40 0.6662
589.50 0.6658
589.60 0.6655
589.70 0.6652
589.80 0.6648
589.90 0.6645
590.00 0.6642
590.10 0.6639
590.20 0.6635
590.30 0.6632
590.40 0.6629
590.50 0.6626
590.60 0.6622
590.70 0.6619
590.80 0.6616
590.90 0.6613
591.00 0.6609
591.10 0.6606
591.20 0.6603
591.30 0.66
591.40 0.6597
591.50 0.6593
591.60 0.659
591.70 0.6587
591.80 0.6584
591.90 0.658
592.00 0.6577
592.10 0.6574
592.20 0.6571
592.30 0.6568
592.40 0.6564
592.50 0.6561
592.60 0.6558
592.70 0.6555
592.80 0.6552
592.90 0.6548
593.00 0.6545
593.10 0.6542
593.20 0.6539
593.30 0.6536
593.40 0.6532
593.50 0.6529
593.60 0.6526
593.70 0.6523
593.80 0.652
593.90 0.6516
594.00 0.6513
594.10 0.651
594.20 0.6507
594.30 0.6504
594.40 0.6501
594.50 0.6497
594.60 0.6494
594.70 0.6491
594.80 0.6488
594.90 0.6485
595.00 0.6482
595.10 0.6478
595.20 0.6475
595.30 0.6472
595.40 0.6469
595.50 0.6466
595.60 0.6463
595.70 0.646
595.80 0.6456
595.90 0.6453
596.00 0.645
596.10 0.6447
596.20 0.6442
596.30 0.6437
596.40 0.6432
596.50 0.6427
596.60 0.6421
596.70 0.6416
596.80 0.6411
596.90 0.6406
597.00 0.6401
597.10 0.6395
597.20 0.6391
597.30 0.6388
597.40 0.6385
597.50 0.6382
597.60 0.6379
597.70 0.6376
597.80 0.6372
597.90 0.6369
598.00 0.6366
598.10 0.6363
598.20 0.636
598.30 0.6357
598.40 0.6353
598.50 0.635
598.60 0.6347
598.70 0.6344
598.80 0.6341
598.90 0.6338
599.00 0.6335
599.10 0.6331
599.20 0.6328
599.30 0.6325
599.40 0.6322
599.50 0.6319
599.60 0.6316
599.70 0.6312
599.80 0.6309
599.90 0.6306
600.00 0.6303
600.10 0.63
600.20 0.6297
600.30 0.6294
600.40 0.629
600.50 0.6287
600.60 0.6284
600.70 0.6281
600.80 0.6278
600.90 0.6275
601.00 0.6272
601.10 0.6269
601.20 0.6265
601.30 0.6262
601.40 0.6259
601.50 0.6256
601.60 0.6253
601.70 0.625
601.80 0.6247
601.90 0.6244
602.00 0.624
602.10 0.6237
602.20 0.6234
602.30 0.6231
602.40 0.6228
602.50 0.6225
602.60 0.6222
602.70 0.6219
602.80 0.6216
602.90 0.6212
603.00 0.6209
603.10 0.6206
603.20 0.6203
603.30 0.62
603.40 0.6197
603.50 0.6194
603.60 0.6191
603.70 0.6188
603.80 0.6185
603.90 0.6181
604.00 0.6178
604.10 0.6175
604.20 0.6172
604.30 0.6169
604.40 0.6166
604.50 0.6163
604.60 0.616
604.70 0.6157
604.80 0.6154
604.90 0.6151
605.00 0.6148
605.10 0.6145
605.20 0.6141
605.30 0.6138
605.40 0.6135
605.50 0.6132
605.60 0.6129
605.70 0.6126
605.80 0.6123
605.90 0.612
606.00 0.6117
606.10 0.6114
606.20 0.6111
606.30 0.6108
606.40 0.6105
606.50 0.6102
606.60 0.6098
606.70 0.6095
606.80 0.6092
606.90 0.6089
607.00 0.6086
607.10 0.6083
607.20 0.608
607.30 0.6077
607.40 0.6074
607.50 0.6071
607.60 0.6068
607.70 0.6065
607.80 0.6062
607.90 0.6059
608.00 0.6056
608.10 0.6053
608.20 0.605
608.30 0.6047
608.40 0.6044
608.50 0.6041
608.60 0.6037
608.70 0.6034
608.80 0.6031
608.90 0.6028
609.00 0.6025
609.10 0.6022
609.20 0.6019
609.30 0.6016
609.40 0.6013
609.50 0.601
609.60 0.6007
609.70 0.6004
609.80 0.6001
609.90 0.5998
610.00 0.5995
610.10 0.5992
610.20 0.5989
610.30 0.5986
610.40 0.5983
610.50 0.598
610.60 0.5977
610.70 0.5974
610.80 0.5971
610.90 0.5968
611.00 0.5965
611.10 0.5962
611.20 0.5959
611.30 0.5956
611.40 0.5953
611.50 0.595
611.60 0.5947
611.70 0.5944
611.80 0.5941
611.90 0.5938
612.00 0.5935
612.10 0.5932
612.20 0.5929
612.30 0.5926
612.40 0.5923
612.50 0.592
612.60 0.5917
612.70 0.5914
612.80 0.5911
612.90 0.5908
613.00 0.5905
613.10 0.5902
613.20 0.5899
613.30 0.5896
613.40 0.5893
613.50 0.589
613.60 0.5887
613.70 0.5884
613.80 0.5881
613.90 0.5878
614.00 0.5875
614.10 0.5872
614.20 0.5869
614.30 0.5865
614.40 0.5862
614.50 0.5859
614.60 0.5856
614.70 0.5853
614.80 0.585
614.90 0.5847
615.00 0.5844
615.10 0.5841
615.20 0.5838
615.30 0.5835
615.40 0.5832
615.50 0.5829
615.60 0.5826
615.70 0.5823
615.80 0.582
615.90 0.5817
616.00 0.5814
616.10 0.5811
616.20 0.5808
616.30 0.5805
616.40 0.5802
616.50 0.5799
616.60 0.5796
616.70 0.5793
616.80 0.579
616.90 0.5787
617.00 0.5784
617.10 0.5781
617.20 0.5778
617.30 0.5775
617.40 0.5772
617.50 0.5769
617.60 0.5766
617.70 0.5763
617.80 0.576
617.90 0.5757
618.00 0.5754
618.10 0.5751
618.20 0.5748
618.30 0.5745
618.40 0.5742
618.50 0.5739
618.60 0.5736
618.70 0.5733
618.80 0.573
618.90 0.5727
619.00 0.5724
619.10 0.5721
619.20 0.5718
619.30 0.5715
619.40 0.5712
619.50 0.5709
619.60 0.5706
619.70 0.5703
619.80 0.57
619.90 0.5697
620.00 0.5694
620.10 0.5691
620.20 0.5688
620.30 0.5685
620.40 0.5682
620.50 0.5679
620.60 0.5676
620.70 0.5673
620.80 0.567
620.90 0.5667
621.00 0.5664
621.10 0.5661
621.20 0.5658
621.30 0.5655
621.40 0.5652
621.50 0.5649
621.60 0.5646
621.70 0.5643
621.80 0.564
621.90 0.5637
622.00 0.5634
622.10 0.5631
622.20 0.5628
622.30 0.5625
622.40 0.5622
622.50 0.5619
622.60 0.5616
622.70 0.5612
622.80 0.5609
622.90 0.5606
623.00 0.5603
623.10 0.56
623.20 0.5597
623.30 0.5594
623.40 0.5591
623.50 0.5588
623.60 0.5585
623.70 0.5582
623.80 0.5579
623.90 0.5576
624.00 0.5573
624.10 0.557
624.20 0.5567
624.30 0.5564
624.40 0.5561
624.50 0.5557
624.60 0.5554
624.70 0.5551
624.80 0.5548
624.90 0.5545
625.00 0.5542
625.10 0.5539
625.20 0.5536
625.30 0.5533
625.40 0.553
625.50 0.5527
625.60 0.5523
625.70 0.552
625.80 0.5517
625.90 0.5514
626.00 0.5511
626.10 0.5508
626.20 0.5505
626.30 0.5502
626.40 0.5499
626.50 0.5496
626.60 0.5492
626.70 0.5489
626.80 0.5486
626.90 0.5483
627.00 0.548
627.10 0.5477
627.20 0.5474
627.30 0.547
627.40 0.5467
627.50 0.5464
627.60 0.5461
627.70 0.5458
627.80 0.5455
627.90 0.5452
628.00 0.5448
628.10 0.5445
628.20 0.5442
628.30 0.5439
628.40 0.5436
628.50 0.5433
628.60 0.5429
628.70 0.5426
628.80 0.5423
628.90 0.542
629.00 0.5417
629.10 0.5413
629.20 0.541
629.30 0.5407
629.40 0.5404
629.50 0.54
629.60 0.5397
629.70 0.5394
629.80 0.5391
629.90 0.5388
630.00 0.5384
630.10 0.5381
630.20 0.5378
630.30 0.5374
630.40 0.5371
630.50 0.5368
630.60 0.5365
630.70 0.5361
630.80 0.5358
630.90 0.5355
631.00 0.5351
631.10 0.5348
631.20 0.5345
631.30 0.5341
631.40 0.5338
631.50 0.5335
631.60 0.5331
631.70 0.5328
631.80 0.5325
631.90 0.5321
632.00 0.5318
632.10 0.5314
632.20 0.5311
632.30 0.5308
632.40 0.5304
632.50 0.5301
632.60 0.5297
632.70 0.5294
632.80 0.529
632.90 0.5287
633.00 0.5284
633.10 0.528
633.20 0.5277
633.30 0.5273
633.40 0.527
633.50 0.5266
633.60 0.5262
633.70 0.5259
633.80 0.5255
633.90 0.5252
634.00 0.5248
634.10 0.5245
634.20 0.5241
634.30 0.5238
634.40 0.5234
634.50 0.523
634.60 0.5227
634.70 0.5223
634.80 0.5219
634.90 0.5216
635.00 0.5212
635.10 0.5208
635.20 0.5205
635.30 0.5201
635.40 0.5197
635.50 0.5193
635.60 0.519
635.70 0.5186
635.80 0.5182
635.90 0.5178
636.00 0.5174
636.10 0.5171
636.20 0.5167
636.30 0.5163
636.40 0.5159
636.50 0.5155
636.60 0.5151
636.70 0.5147
636.80 0.5143
636.90 0.5139
637.00 0.5135
637.10 0.5131
637.20 0.5127
637.30 0.5123
637.40 0.5119
637.50 0.5115
637.60 0.5111
637.70 0.5107
637.80 0.5103
637.90 0.5099
638.00 0.5094
638.10 0.509
638.20 0.5086
638.30 0.5082
638.40 0.5078
638.50 0.5073
638.60 0.5069
638.70 0.5065
638.80 0.506
638.90 0.5056
639.00 0.5052
639.10 0.5047
639.20 0.5043
639.30 0.5039
639.40 0.5034
639.50 0.5029
639.60 0.5025
639.70 0.502
639.80 0.5016
639.90 0.5011
640.00 0.5006
640.10 0.5002
640.20 0.4997
640.30 0.4993
640.40 0.4988
640.50 0.4983
640.60 0.4978
640.70 0.4973
640.80 0.4968
640.90 0.4963
641.00 0.4959
641.10 0.4954
641.20 0.4949
641.30 0.4944
641.40 0.4939
641.50 0.4934
641.60 0.4928
641.70 0.4923
641.80 0.4918
641.90 0.4913
642.00 0.4908
642.10 0.4903
642.20 0.4897
642.30 0.4892
642.40 0.4887
642.50 0.4881
642.60 0.4875
642.70 0.487
642.80 0.4864
642.90 0.4858
643.00 0.4853
643.10 0.4847
643.20 0.4842
643.30 0.4836
643.40 0.483
643.50 0.4824
643.60 0.4818
643.70 0.4812
643.80 0.4806
643.90 0.48
644.00 0.4793
644.10 0.4787
644.20 0.4781
644.30 0.4775
644.40 0.4768
644.50 0.4762
644.60 0.4755
644.70 0.4748
644.80 0.4742
644.90 0.4735
645.00 0.4728
645.10 0.4722
645.20 0.4715
645.30 0.4708
645.40 0.4701
645.50 0.4693
645.60 0.4686
645.70 0.4679
645.80 0.4671
645.90 0.4664
646.00 0.4656
646.10 0.4649
646.20 0.4642
646.30 0.4634
646.40 0.4626
646.50 0.4618
646.60 0.4609
646.70 0.4601
646.80 0.4593
646.90 0.4585
647.00 0.4577
647.10 0.4568
647.20 0.456
647.30 0.4552
647.40 0.4542
647.50 0.4533
647.60 0.4524
647.70 0.4514
647.80 0.4505
647.90 0.4496
648.00 0.4486
648.10 0.4477
648.20 0.4467
648.30 0.4458
648.40 0.4447
648.50 0.4435
648.60 0.4424
648.70 0.4413
648.80 0.4402
648.90 0.4391
649.00 0.438
649.10 0.4369
649.20 0.4358
649.30 0.4347
649.40 0.4334
649.50 0.4321
649.60 0.4308
649.70 0.4295
649.80 0.4282
649.90 0.4269
650.00 0.4256
650.10 0.4243
650.20 0.423
650.30 0.4217
650.40 0.4201
650.50 0.4186
650.60 0.417
650.70 0.4154
650.80 0.4139
650.90 0.4123
651.00 0.4108
651.10 0.4092
651.20 0.4077
651.30 0.4061
651.40 0.4042
651.50 0.4023
651.60 0.4004
651.70 0.3985
651.80 0.3966
651.90 0.3947
652.00 0.3928
652.10 0.3909
652.20 0.389
652.30 0.387
652.40 0.3846
652.50 0.3822
652.60 0.3798
652.70 0.3774
652.80 0.375
652.90 0.3726
653.00 0.3702
653.10 0.3678
653.20 0.3654
653.30 0.3628
653.40 0.3596
653.50 0.3564
653.60 0.3533
653.70 0.3501
653.80 0.3469
653.90 0.3438
654.00 0.3406
654.10 0.3374
654.20 0.3343
654.30 0.331
654.40 0.3273
654.50 0.3236
654.60 0.32
654.70 0.3163
654.80 0.3126
654.90 0.3089
655.00 0.3052
655.10 0.3016
655.20 0.2979
655.30 0.2942
655.40 0.2904
655.50 0.2866
655.60 0.2825
655.70 0.2782
655.80 0.2732
655.90 0.2674
656.00 0.2586
656.10 0.2487
656.20 0.2251
656.30 0.2102
656.40 0.2365
656.50 0.2527
656.60 0.2614
656.70 0.2693
656.80 0.2741
656.90 0.2787
657.00 0.2826
657.10 0.2864
657.20 0.29
657.30 0.2935
657.40 0.2969
657.50 0.3003
657.60 0.3037
657.70 0.3071
657.80 0.3105
657.90 0.3139
658.00 0.3173
658.10 0.3207
658.20 0.3241
658.30 0.3273
658.40 0.3302
658.50 0.333
658.60 0.3358
658.70 0.3387
658.80 0.3415
658.90 0.3443
659.00 0.3472
659.10 0.35
659.20 0.3528
659.30 0.3555
659.40 0.3575
659.50 0.3596
659.60 0.3616
659.70 0.3637
659.80 0.3657
659.90 0.3677
660.00 0.3698
660.10 0.3718
660.20 0.3738
660.30 0.3758
660.40 0.3773
660.50 0.3788
660.60 0.3803
660.70 0.3818
660.80 0.3833
660.90 0.3848
661.00 0.3862
661.10 0.3877
661.20 0.3892
661.30 0.3907
661.40 0.3918
661.50 0.3929
661.60 0.3941
661.70 0.3952
661.80 0.3964
661.90 0.3975
662.00 0.3986
662.10 0.3998
662.20 0.4009
662.30 0.402
662.40 0.4029
662.50 0.4037
662.60 0.4046
662.70 0.4055
662.80 0.4063
662.90 0.4072
663.00 0.408
663.10 0.4089
663.20 0.4098
663.30 0.4106
663.40 0.4113
663.50 0.4119
663.60 0.4126
663.70 0.4133
663.80 0.4139
663.90 0.4146
664.00 0.4153
664.10 0.4159
664.20 0.4166
664.30 0.4172
664.40 0.4177
664.50 0.4182
664.60 0.4187
664.70 0.4192
664.80 0.4197
664.90 0.4202
665.00 0.4207
665.10 0.4212
665.20 0.4217
665.30 0.4222
665.40 0.4225
665.50 0.4229
665.60 0.4233
665.70 0.4236
665.80 0.424
665.90 0.4244
666.00 0.4247
666.10 0.4251
666.20 0.4255
666.30 0.4258
666.40 0.4261
666.50 0.4264
666.60 0.4267
666.70 0.427
666.80 0.4272
666.90 0.4275
667.00 0.4278
667.10 0.4281
667.20 0.4284
667.30 0.4286
667.40 0.4288
667.50 0.429
667.60 0.4293
667.70 0.4295
667.80 0.4297
667.90 0.4299
668.00 0.4301
668.10 0.4303
668.20 0.4305
668.30 0.4307
668.40 0.4308
668.50 0.431
668.60 0.4311
668.70 0.4313
668.80 0.4314
668.90 0.4316
669.00 0.4317
669.10 0.4319
669.20 0.432
669.30 0.4321
669.40 0.4322
669.50 0.4323
669.60 0.4324
669.70 0.4325
669.80 0.4326
669.90 0.4327
670.00 0.4328
670.10 0.4329
670.20 0.433
670.30 0.4331
670.40 0.4331
670.50 0.4332
670.60 0.4332
670.70 0.4333
670.80 0.4333
670.90 0.4334
671.00 0.4334
671.10 0.4335
671.20 0.4335
671.30 0.4336
671.40 0.4336
671.50 0.4336
671.60 0.4336
671.70 0.4337
671.80 0.4337
671.90 0.4337
672.00 0.4337
672.10 0.4337
672.20 0.4338
672.30 0.4338
672.40 0.4338
672.50 0.4337
672.60 0.4337
672.70 0.4337
672.80 0.4337
672.90 0.4337
673.00 0.4337
673.10 0.4337
673.20 0.4337
673.30 0.4337
673.40 0.4336
673.50 0.4336
673.60 0.4336
673.70 0.4335
673.80 0.4335
673.90 0.4334
674.00 0.4334
674.10 0.4334
674.20 0.4333
674.30 0.4333
674.40 0.4333
674.50 0.4332
674.60 0.4331
674.70 0.4331
674.80 0.433
674.90 0.433
675.00 0.4329
675.10 0.4329
675.20 0.4328
675.30 0.4327
675.40 0.4327
675.50 0.4326
675.60 0.4325
675.70 0.4325
675.80 0.4324
675.90 0.4323
676.00 0.4322
676.10 0.4322
676.20 0.4321
676.30 0.432
676.40 0.4319
676.50 0.4318
676.60 0.4317
676.70 0.4317
676.80 0.4316
676.90 0.4315
677.00 0.4314
677.10 0.4313
677.20 0.4312
677.30 0.4311
677.40 0.431
677.50 0.4309
677.60 0.4308
677.70 0.4307
677.80 0.4306
677.90 0.4305
678.00 0.4304
678.10 0.4303
678.20 0.4302
678.30 0.4301
678.40 0.43
678.50 0.4299
678.60 0.4298
678.70 0.4297
678.80 0.4295
678.90 0.4294
679.00 0.4293
679.10 0.4292
679.20 0.4291
679.30 0.429
679.40 0.4289
679.50 0.4287
679.60 0.4286
679.70 0.4285
679.80 0.4284
679.90 0.4282
680.00 0.4281
680.10 0.428
680.20 0.4279
680.30 0.4278
680.40 0.4276
680.50 0.4275
680.60 0.4274
680.70 0.4272
680.80 0.4271
680.90 0.427
681.00 0.4269
681.10 0.4267
681.20 0.4266
681.30 0.4265
681.40 0.4263
681.50 0.4262
681.60 0.4261
681.70 0.4259
681.80 0.4258
681.90 0.4257
682.00 0.4255
682.10 0.4254
682.20 0.4252
682.30 0.4251
682.40 0.425
682.50 0.4248
682.60 0.4247
682.70 0.4245
682.80 0.4244
682.90 0.4243
683.00 0.4241
683.10 0.424
683.20 0.4238
683.30 0.4237
683.40 0.4236
683.50 0.4234
683.60 0.4233
683.70 0.4231
683.80 0.423
683.90 0.4228
684.00 0.4227
684.10 0.4225
684.20 0.4224
684.30 0.4222
684.40 0.4221
684.50 0.4219
684.60 0.4218
684.70 0.4216
684.80 0.4215
684.90 0.4213
685.00 0.4212
685.10 0.421
685.20 0.4209
685.30 0.4207
685.40 0.4206
685.50 0.4204
685.60 0.4203
685.70 0.4201
685.80 0.42
685.90 0.4198
686.00 0.4197
686.10 0.4195
686.20 0.4194
686.30 0.4192
686.40 0.4191
686.50 0.4189
686.60 0.4188
686.70 0.4186
686.80 0.4184
686.90 0.4183
687.00 0.4181
687.10 0.418
687.20 0.4178
687.30 0.4177
687.40 0.4175
687.50 0.4173
687.60 0.4172
687.70 0.417
687.80 0.4169
687.90 0.4167
688.00 0.4166
688.10 0.4164
688.20 0.4162
688.30 0.4161
688.40 0.4159
688.50 0.4158
688.60 0.4156
688.70 0.4155
688.80 0.4153
688.90 0.4151
689.00 0.415
689.10 0.4148
689.20 0.4147
689.30 0.4145
689.40 0.4143
689.50 0.4142
689.60 0.414
689.70 0.4138
689.80 0.4137
689.90 0.4135
690.00 0.4133
690.10 0.4132
690.20 0.413
690.30 0.4128
690.40 0.4127
690.50 0.4125
690.60 0.4123
690.70 0.4121
690.80 0.412
690.90 0.4118
691.00 0.4116
691.10 0.4115
691.20 0.4113
691.30 0.4111
691.40 0.411
691.50 0.4108
691.60 0.4106
691.70 0.4105
691.80 0.4103
691.90 0.4101
692.00 0.41
692.10 0.4098
692.20 0.4096
692.30 0.4095
692.40 0.4093
692.50 0.4091
692.60 0.409
692.70 0.4088
692.80 0.4086
692.90 0.4085
693.00 0.4083
693.10 0.4081
693.20 0.408
693.30 0.4078
693.40 0.4077
693.50 0.4075
693.60 0.4073
693.70 0.4072
693.80 0.407
693.90 0.4068
694.00 0.4067
694.10 0.4065
694.20 0.4063
694.30 0.4062
694.40 0.406
694.50 0.4058
694.60 0.4057
694.70 0.4055
694.80 0.4053
694.90 0.4052
695.00 0.405
695.10 0.4049
695.20 0.4047
695.30 0.4045
695.40 0.4044
695.50 0.4042
695.60 0.404
695.70 0.4039
695.80 0.4037
695.90 0.4035
696.00 0.4034
696.10 0.4032
696.20 0.4031
696.30 0.4029
696.40 0.4027
696.50 0.4026
696.60 0.4024
696.70 0.4022
696.80 0.4021
696.90 0.4019
697.00 0.4017
697.10 0.4016
697.20 0.4014
697.30 0.4013
697.40 0.4011
697.50 0.4009
697.60 0.4008
697.70 0.4006
697.80 0.4004
697.90 0.4003
698.00 0.4001
698.10 0.4
698.20 0.3998
698.30 0.3996
698.40 0.3995
698.50 0.3993
698.60 0.3992
698.70 0.399
698.80 0.3988
698.90 0.3987
699.00 0.3985
699.10 0.3983
699.20 0.3982
699.30 0.398
699.40 0.3979
699.50 0.3977
699.60 0.3975
699.70 0.3974
699.80 0.3972
699.90 0.3971
700.00 0.3969
700.10 0.3968
700.20 0.3966
700.30 0.3965
700.40 0.3963
700.50 0.3962
700.60 0.396
700.70 0.3959
700.80 0.3957
700.90 0.3956
701.00 0.3954
701.10 0.3953
701.20 0.3951
701.30 0.395
701.40 0.3949
701.50 0.3947
701.60 0.3946
701.70 0.3944
701.80 0.3943
701.90 0.3941
702.00 0.394
702.10 0.3938
702.20 0.3937
702.30 0.3935
702.40 0.3934
702.50 0.3933
702.60 0.3931
702.70 0.393
702.80 0.3928
702.90 0.3927
703.00 0.3925
703.10 0.3924
703.20 0.3922
703.30 0.3921
703.40 0.3919
703.50 0.3918
703.60 0.3917
703.70 0.3915
703.80 0.3914
703.90 0.3912
704.00 0.3911
704.10 0.3909
704.20 0.3908
704.30 0.3906
704.40 0.3905
704.50 0.3904
704.60 0.3902
704.70 0.3901
704.80 0.3899
704.90 0.3898
705.00 0.3896
705.10 0.3895
705.20 0.3893
705.30 0.3891
705.40 0.389
705.50 0.3888
705.60 0.3886
705.70 0.3885
705.80 0.3883
705.90 0.3882
706.00 0.388
706.10 0.3878
706.20 0.3877
706.30 0.3875
706.40 0.3873
706.50 0.3872
706.60 0.387
706.70 0.3868
706.80 0.3867
706.90 0.3865
707.00 0.3863
707.10 0.3862
707.20 0.386
707.30 0.3859
707.40 0.3857
707.50 0.3855
707.60 0.3854
707.70 0.3852
707.80 0.385
707.90 0.3849
708.00 0.3847
708.10 0.3845
708.20 0.3844
708.30 0.3842
708.40 0.3841
708.50 0.3839
708.60 0.3837
708.70 0.3836
708.80 0.3834
708.90 0.3832
709.00 0.3831
709.10 0.3829
709.20 0.3828
709.30 0.3826
709.40 0.3824
709.50 0.3823
709.60 0.3821
709.70 0.3819
709.80 0.3818
709.90 0.3816
710.00 0.3815
710.10 0.3813
710.20 0.3811
710.30 0.381
710.40 0.3808
710.50 0.3806
710.60 0.3805
710.70 0.3803
710.80 0.3802
710.90 0.38
711.00 0.3798
711.10 0.3797
711.20 0.3795
711.30 0.3793
711.40 0.3792
711.50 0.379
711.60 0.3789
711.70 0.3787
711.80 0.3785
711.90 0.3784
712.00 0.3782
712.10 0.3781
712.20 0.3779
712.30 0.3777
712.40 0.3776
712.50 0.3774
712.60 0.3773
712.70 0.3771
712.80 0.3769
712.90 0.3768
713.00 0.3766
713.10 0.3765
713.20 0.3763
713.30 0.3761
713.40 0.376
713.50 0.3758
713.60 0.3757
713.70 0.3755
713.80 0.3753
713.90 0.3752
714.00 0.375
714.10 0.3749
714.20 0.3747
714.30 0.3745
714.40 0.3744
714.50 0.3742
714.60 0.3741
714.70 0.3739
714.80 0.3737
714.90 0.3736
715.00 0.3734
715.10 0.3733
715.20 0.3731
715.30 0.373
715.40 0.3728
715.50 0.3727
715.60 0.3725
715.70 0.3724
715.80 0.3722
715.90 0.3721
716.00 0.3719
716.10 0.3718
716.20 0.3716
716.30 0.3715
716.40 0.3713
716.50 0.3712
716.60 0.371
716.70 0.3709
716.80 0.3707
716.90 0.3706
717.00 0.3704
717.10 0.3703
717.20 0.3701
717.30 0.37
717.40 0.3698
717.50 0.3697
717.60 0.3696
717.70 0.3694
717.80 0.3693
717.90 0.3691
718.00 0.369
718.10 0.3688
718.20 0.3687
718.30 0.3685
718.40 0.3684
718.50 0.3682
718.60 0.3681
718.70 0.3679
718.80 0.3678
718.90 0.3676
719.00 0.3675
719.10 0.3673
719.20 0.3672
719.30 0.367
719.40 0.3669
719.50 0.3668
719.60 0.3666
719.70 0.3665
719.80 0.3663
719.90 0.3662
720.00 0.366
720.10 0.3659
720.20 0.3657
720.30 0.3655
720.40 0.3654
720.50 0.3652
720.60 0.3651
720.70 0.3649
720.80 0.3648
720.90 0.3646
721.00 0.3644
721.10 0.3643
721.20 0.3641
721.30 0.364
721.40 0.3638
721.50 0.3637
721.60 0.3635
721.70 0.3633
721.80 0.3632
721.90 0.363
722.00 0.3629
722.10 0.3627
722.20 0.3626
722.30 0.3624
722.40 0.3622
722.50 0.3621
722.60 0.3619
722.70 0.3618
722.80 0.3616
722.90 0.3615
723.00 0.3613
723.10 0.3612
723.20 0.361
723.30 0.3608
723.40 0.3607
723.50 0.3605
723.60 0.3604
723.70 0.3602
723.80 0.3601
723.90 0.3599
724.00 0.3598
724.10 0.3596
724.20 0.3594
724.30 0.3593
724.40 0.3591
724.50 0.359
724.60 0.3588
724.70 0.3587
724.80 0.3585
724.90 0.3584
725.00 0.3582
725.10 0.3581
725.20 0.3579
725.30 0.3577
725.40 0.3576
725.50 0.3574
725.60 0.3573
725.70 0.3571
725.80 0.357
725.90 0.3568
726.00 0.3567
726.10 0.3565
726.20 0.3564
726.30 0.3562
726.40 0.3561
726.50 0.3559
726.60 0.3558
726.70 0.3556
726.80 0.3555
726.90 0.3553
727.00 0.3551
727.10 0.355
727.20 0.3548
727.30 0.3547
727.40 0.3545
727.50 0.3544
727.60 0.3542
727.70 0.3541
727.80 0.3539
727.90 0.3538
728.00 0.3536
728.10 0.3535
728.20 0.3533
728.30 0.3532
728.40 0.353
728.50 0.3529
728.60 0.3527
728.70 0.3526
728.80 0.3524
728.90 0.3523
729.00 0.3521
729.10 0.352
729.20 0.3518
729.30 0.3517
729.40 0.3515
729.50 0.3514
729.60 0.3512
729.70 0.3511
729.80 0.3509
729.90 0.3508
730.00 0.3506
730.10 0.3505
730.20 0.3503
730.30 0.3502
730.40 0.35
730.50 0.3499
730.60 0.3497
730.70 0.3496
730.80 0.3494
730.90 0.3493
731.00 0.3491
731.10 0.349
731.20 0.3488
731.30 0.3487
731.40 0.3485
731.50 0.3484
731.60 0.3482
731.70 0.3481
731.80 0.3479
731.90 0.3478
732.00 0.3476
732.10 0.3475
732.20 0.3473
732.30 0.3472
732.40 0.347
732.50 0.3469
732.60 0.3467
732.70 0.3466
732.80 0.3464
732.90 0.3463
733.00 0.3462
733.10 0.346
733.20 0.3459
733.30 0.3457
733.40 0.3456
733.50 0.3454
733.60 0.3453
733.70 0.3451
733.80 0.345
733.90 0.3448
734.00 0.3447
734.10 0.3445
734.20 0.3444
734.30 0.3442
734.40 0.3441
734.50 0.3439
734.60 0.3438
734.70 0.3437
734.80 0.3435
734.90 0.3434
735.00 0.3432
735.10 0.3431
735.20 0.3429
735.30 0.3428
735.40 0.3426
735.50 0.3425
735.60 0.3423
735.70 0.3422
735.80 0.342
735.90 0.3419
736.00 0.3418
736.10 0.3416
736.20 0.3415
736.30 0.3413
736.40 0.3412
736.50 0.341
736.60 0.3409
736.70 0.3407
736.80 0.3406
736.90 0.3404
737.00 0.3403
737.10 0.3402
737.20 0.34
737.30 0.3399
737.40 0.3397
737.50 0.3396
737.60 0.3394
737.70 0.3393
737.80 0.3391
737.90 0.339
738.00 0.3389
738.10 0.3387
738.20 0.3386
738.30 0.3384
738.40 0.3383
738.50 0.3381
738.60 0.338
738.70 0.3378
738.80 0.3377
738.90 0.3376
739.00 0.3374
739.10 0.3373
739.20 0.3371
739.30 0.337
739.40 0.3368
739.50 0.3367
739.60 0.3366
739.70 0.3364
739.80 0.3363
739.90 0.3361
740.00 0.336
740.10 0.3358
740.20 0.3357
740.30 0.3356
740.40 0.3354
740.50 0.3353
740.60 0.3351
740.70 0.335
740.80 0.3348
740.90 0.3347
741.00 0.3346
741.10 0.3344
741.20 0.3343
741.30 0.3341
741.40 0.334
741.50 0.3339
741.60 0.3337
741.70 0.3336
741.80 0.3334
741.90 0.3333
742.00 0.3332
742.10 0.333
742.20 0.3329
742.30 0.3327
742.40 0.3326
742.50 0.3325
742.60 0.3323
742.70 0.3322
742.80 0.332
742.90 0.3319
743.00 0.3318
743.10 0.3316
743.20 0.3315
743.30 0.3313
743.40 0.3312
743.50 0.3311
743.60 0.3309
743.70 0.3308
743.80 0.3306
743.90 0.3305
744.00 0.3304
744.10 0.3302
744.20 0.3301
744.30 0.3299
744.40 0.3298
744.50 0.3297
744.60 0.3295
744.70 0.3294
744.80 0.3292
744.90 0.3291
745.00 0.329
745.10 0.3288
745.20 0.3287
745.30 0.3285
745.40 0.3284
745.50 0.3283
745.60 0.3281
745.70 0.328
745.80 0.3279
745.90 0.3277
746.00 0.3276
746.10 0.3274
746.20 0.3273
746.30 0.3272
746.40 0.327
746.50 0.3269
746.60 0.3267
746.70 0.3266
746.80 0.3265
746.90 0.3263
747.00 0.3262
747.10 0.3261
747.20 0.3259
747.30 0.3258
747.40 0.3256
747.50 0.3255
747.60 0.3254
747.70 0.3252
747.80 0.3251
747.90 0.325
748.00 0.3248
748.10 0.3247
748.20 0.3246
748.30 0.3244
748.40 0.3243
748.50 0.3241
748.60 0.324
748.70 0.3239
748.80 0.3237
748.90 0.3236
749.00 0.3235
749.10 0.3233
749.20 0.3232
749.30 0.3231
749.40 0.3229
749.50 0.3228
749.60 0.3226
749.70 0.3225
749.80 0.3224
749.90 0.3222
750.00 0.3221
750.10 0.322
750.20 0.3218
750.30 0.3217
750.40 0.3216
750.50 0.3214
750.60 0.3213
750.70 0.3212
750.80 0.321
750.90 0.3209
751.00 0.3208
751.10 0.3206
751.20 0.3205
751.30 0.3204
751.40 0.3202
751.50 0.3201
751.60 0.3199
751.70 0.3198
751.80 0.3197
751.90 0.3195
752.00 0.3194
752.10 0.3193
752.20 0.3191
752.30 0.319
752.40 0.3189
752.50 0.3187
752.60 0.3186
752.70 0.3185
752.80 0.3183
752.90 0.3182
753.00 0.3181
753.10 0.3179
753.20 0.3178
753.30 0.3177
753.40 0.3175
753.50 0.3174
753.60 0.3173
753.70 0.3172
753.80 0.317
753.90 0.3169
754.00 0.3168
754.10 0.3166
754.20 0.3165
754.30 0.3164
754.40 0.3162
754.50 0.3161
754.60 0.316
754.70 0.3158
754.80 0.3157
754.90 0.3156
755.00 0.3154
755.10 0.3153
755.20 0.3152
755.30 0.315
755.40 0.3149
755.50 0.3148
755.60 0.3146
755.70 0.3145
755.80 0.3144
755.90 0.3142
756.00 0.3141
756.10 0.314
756.20 0.3139
756.30 0.3137
756.40 0.3136
756.50 0.3135
756.60 0.3133
756.70 0.3132
756.80 0.3131
756.90 0.3129
757.00 0.3128
757.10 0.3127
757.20 0.3125
757.30 0.3124
757.40 0.3123
757.50 0.3122
757.60 0.312
757.70 0.3119
757.80 0.3118
757.90 0.3116
758.00 0.3115
758.10 0.3114
758.20 0.3112
758.30 0.3111
758.40 0.311
758.50 0.3109
758.60 0.3107
758.70 0.3106
758.80 0.3105
758.90 0.3103
759.00 0.3102
759.10 0.3101
759.20 0.3099
759.30 0.3098
759.40 0.3097
759.50 0.3096
759.60 0.3094
759.70 0.3093
759.80 0.3092
759.90 0.309
760.00 0.3089
760.10 0.3088
760.20 0.3087
760.30 0.3085
760.40 0.3084
760.50 0.3083
760.60 0.3081
760.70 0.308
760.80 0.3079
760.90 0.3078
761.00 0.3076
761.10 0.3075
761.20 0.3074
761.30 0.3072
761.40 0.3071
761.50 0.307
761.60 0.3069
761.70 0.3067
761.80 0.3066
761.90 0.3065
762.00 0.3064
762.10 0.3062
762.20 0.3061
762.30 0.306
762.40 0.3059
762.50 0.3057
762.60 0.3056
762.70 0.3055
762.80 0.3053
762.90 0.3052
763.00 0.3051
763.10 0.305
763.20 0.3048
763.30 0.3047
763.40 0.3046
763.50 0.3045
763.60 0.3043
763.70 0.3042
763.80 0.3041
763.90 0.304
764.00 0.3038
764.10 0.3037
764.20 0.3036
764.30 0.3035
764.40 0.3033
764.50 0.3032
764.60 0.3031
764.70 0.303
764.80 0.3028
764.90 0.3027
765.00 0.3026
765.10 0.3024
765.20 0.3023
765.30 0.3022
765.40 0.3021
765.50 0.3019
765.60 0.3018
765.70 0.3017
765.80 0.3016
765.90 0.3014
766.00 0.3013
766.10 0.3012
766.20 0.3011
766.30 0.301
766.40 0.3008
766.50 0.3007
766.60 0.3006
766.70 0.3005
766.80 0.3003
766.90 0.3002
767.00 0.3001
767.10 0.3
767.20 0.2998
767.30 0.2997
767.40 0.2996
767.50 0.2995
767.60 0.2993
767.70 0.2992
767.80 0.2991
767.90 0.299
768.00 0.2988
768.10 0.2987
768.20 0.2986
768.30 0.2985
768.40 0.2983
768.50 0.2982
768.60 0.2981
768.70 0.298
768.80 0.2979
768.90 0.2977
769.00 0.2976
769.10 0.2975
769.20 0.2974
769.30 0.2972
769.40 0.2971
769.50 0.297
769.60 0.2969
769.70 0.2967
769.80 0.2966
769.90 0.2965
770.00 0.2964
770.10 0.2963
770.20 0.2961
770.30 0.296
770.40 0.2959
770.50 0.2958
770.60 0.2956
770.70 0.2955
770.80 0.2954
770.90 0.2953
771.00 0.2952
771.10 0.295
771.20 0.2949
771.30 0.2948
771.40 0.2947
771.50 0.2946
771.60 0.2944
771.70 0.2943
771.80 0.2942
771.90 0.2941
772.00 0.294
772.10 0.2938
772.20 0.2937
772.30 0.2936
772.40 0.2935
772.50 0.2933
772.60 0.2932
772.70 0.2931
772.80 0.293
772.90 0.2929
773.00 0.2927
773.10 0.2926
773.20 0.2925
773.30 0.2924
773.40 0.2923
773.50 0.2921
773.60 0.292
773.70 0.2919
773.80 0.2918
773.90 0.2917
774.00 0.2915
774.10 0.2914
774.20 0.2913
774.30 0.2912
774.40 0.2911
774.50 0.2909
774.60 0.2908
774.70 0.2907
774.80 0.2906
774.90 0.2905
775.00 0.2904
775.10 0.2902
775.20 0.2901
775.30 0.29
775.40 0.2899
775.50 0.2898
775.60 0.2896
775.70 0.2895
775.80 0.2894
775.90 0.2893
776.00 0.2892
776.10 0.289
776.20 0.2889
776.30 0.2888
776.40 0.2887
776.50 0.2886
776.60 0.2885
776.70 0.2883
776.80 0.2882
776.90 0.2881
777.00 0.288
777.10 0.2879
777.20 0.2877
777.30 0.2876
777.40 0.2875
777.50 0.2874
777.60 0.2873
777.70 0.2872
777.80 0.287
777.90 0.2869
778.00 0.2868
778.10 0.2867
778.20 0.2866
778.30 0.2864
778.40 0.2863
778.50 0.2862
778.60 0.2861
778.70 0.286
778.80 0.2859
778.90 0.2857
779.00 0.2856
779.10 0.2855
779.20 0.2854
779.30 0.2853
779.40 0.2852
779.50 0.285
779.60 0.2849
779.70 0.2848
779.80 0.2847
779.90 0.2846
780.00 0.2845
780.10 0.2843
780.20 0.2842
780.30 0.2841
780.40 0.284
780.50 0.2839
780.60 0.2838
780.70 0.2836
780.80 0.2835
780.90 0.2834
781.00 0.2833
781.10 0.2832
781.20 0.2831
781.30 0.283
781.40 0.2828
781.50 0.2827
781.60 0.2826
781.70 0.2825
781.80 0.2824
781.90 0.2823
782.00 0.2822
782.10 0.282
782.20 0.2819
782.30 0.2818
782.40 0.2817
782.50 0.2816
782.60 0.2815
782.70 0.2813
782.80 0.2812
782.90 0.2811
783.00 0.281
783.10 0.2809
783.20 0.2808
783.30 0.2807
783.40 0.2805
783.50 0.2804
783.60 0.2803
783.70 0.2802
783.80 0.2801
783.90 0.28
784.00 0.2799
784.10 0.2798
784.20 0.2796
784.30 0.2795
784.40 0.2794
784.50 0.2793
784.60 0.2792
784.70 0.2791
784.80 0.279
784.90 0.2788
785.00 0.2787
785.10 0.2786
785.20 0.2785
785.30 0.2784
785.40 0.2783
785.50 0.2782
785.60 0.278
785.70 0.2779
785.80 0.2778
785.90 0.2777
786.00 0.2776
786.10 0.2775
786.20 0.2774
786.30 0.2773
786.40 0.2771
786.50 0.277
786.60 0.2769
786.70 0.2768
786.80 0.2767
786.90 0.2766
787.00 0.2765
787.10 0.2764
787.20 0.2762
787.30 0.2761
787.40 0.276
787.50 0.2759
787.60 0.2758
787.70 0.2757
787.80 0.2756
787.90 0.2755
788.00 0.2754
788.10 0.2752
788.20 0.2751
788.30 0.275
788.40 0.2749
788.50 0.2748
788.60 0.2747
788.70 0.2746
788.80 0.2745
788.90 0.2743
789.00 0.2742
789.10 0.2741
789.20 0.274
789.30 0.2739
789.40 0.2738
789.50 0.2737
789.60 0.2736
789.70 0.2735
789.80 0.2733
789.90 0.2732
790.00 0.2731
790.10 0.273
790.20 0.2729
790.30 0.2728
790.40 0.2727
790.50 0.2726
790.60 0.2725
790.70 0.2724
790.80 0.2722
790.90 0.2721
791.00 0.272
791.10 0.2719
791.20 0.2718
791.30 0.2717
791.40 0.2716
791.50 0.2715
791.60 0.2714
791.70 0.2713
791.80 0.2711
791.90 0.271
792.00 0.2709
792.10 0.2708
792.20 0.2707
792.30 0.2706
792.40 0.2705
792.50 0.2704
792.60 0.2703
792.70 0.2702
792.80 0.2701
792.90 0.2699
793.00 0.2698
793.10 0.2697
793.20 0.2696
793.30 0.2695
793.40 0.2694
793.50 0.2693
793.60 0.2692
793.70 0.2691
793.80 0.269
793.90 0.2689
794.00 0.2688
794.10 0.2686
794.20 0.2685
794.30 0.2684
794.40 0.2683
794.50 0.2682
794.60 0.2681
794.70 0.268
794.80 0.2679
794.90 0.2678
795.00 0.2677
795.10 0.2676
795.20 0.2675
795.30 0.2673
795.40 0.2672
795.50 0.2671
795.60 0.267
795.70 0.2669
795.80 0.2668
795.90 0.2667
796.00 0.2666
796.10 0.2665
796.20 0.2664
796.30 0.2663
796.40 0.2662
796.50 0.2661
796.60 0.266
796.70 0.2658
796.80 0.2657
796.90 0.2656
797.00 0.2655
797.10 0.2654
797.20 0.2653
797.30 0.2652
797.40 0.2651
797.50 0.265
797.60 0.2649
797.70 0.2648
797.80 0.2647
797.90 0.2646
798.00 0.2645
798.10 0.2643
798.20 0.2642
798.30 0.2641
798.40 0.264
798.50 0.2639
798.60 0.2638
798.70 0.2637
798.80 0.2636
798.90 0.2635
799.00 0.2634
799.10 0.2633
799.20 0.2632
799.30 0.2631
799.40 0.263
799.50 0.2629
799.60 0.2628
799.70 0.2627
799.80 0.2625
799.90 0.2624
800.00 0.2623
800.10 0.2622
800.20 0.2621
800.30 0.262
800.40 0.2619
800.50 0.2618
800.60 0.2617
800.70 0.2616
800.80 0.2615
800.90 0.2614
801.00 0.2613
801.10 0.2612
801.20 0.2611
801.30 0.261
801.40 0.2609
801.50 0.2608
801.60 0.2607
801.70 0.2606
801.80 0.2605
801.90 0.2603
802.00 0.2602
802.10 0.2601
802.20 0.26
802.30 0.2599
802.40 0.2598
802.50 0.2597
802.60 0.2596
802.70 0.2595
802.80 0.2594
802.90 0.2593
803.00 0.2592
803.10 0.2591
803.20 0.259
803.30 0.2589
803.40 0.2588
803.50 0.2587
803.60 0.2586
803.70 0.2585
803.80 0.2584
803.90 0.2583
804.00 0.2582
804.10 0.2581
804.20 0.258
804.30 0.2579
804.40 0.2578
804.50 0.2577
804.60 0.2576
804.70 0.2575
804.80 0.2573
804.90 0.2572
805.00 0.2571
805.10 0.257
805.20 0.2569
805.30 0.2568
805.40 0.2567
805.50 0.2566
805.60 0.2565
805.70 0.2564
805.80 0.2563
805.90 0.2562
806.00 0.2561
806.10 0.256
806.20 0.2559
806.30 0.2558
806.40 0.2557
806.50 0.2556
806.60 0.2555
806.70 0.2554
806.80 0.2553
806.90 0.2552
807.00 0.2551
807.10 0.255
807.20 0.2549
807.30 0.2548
807.40 0.2547
807.50 0.2546
807.60 0.2545
807.70 0.2544
807.80 0.2543
807.90 0.2542
808.00 0.2541
808.10 0.254
808.20 0.2539
808.30 0.2538
808.40 0.2537
808.50 0.2536
808.60 0.2535
808.70 0.2534
808.80 0.2533
808.90 0.2532
809.00 0.2531
809.10 0.253
809.20 0.2529
809.30 0.2528
809.40 0.2527
809.50 0.2526
809.60 0.2525
809.70 0.2524
809.80 0.2523
809.90 0.2522
810.00 0.2521
810.10 0.252
810.20 0.2519
810.30 0.2518
810.40 0.2517
810.50 0.2516
810.60 0.2515
810.70 0.2514
810.80 0.2513
810.90 0.2512
811.00 0.2511
811.10 0.251
811.20 0.2509
811.30 0.2508
811.40 0.2507
811.50 0.2506
811.60 0.2505
811.70 0.2504
811.80 0.2503
811.90 0.2502
812.00 0.2501
812.10 0.25
812.20 0.2499
812.30 0.2498
812.40 0.2497
812.50 0.2496
812.60 0.2495
812.70 0.2494
812.80 0.2493
812.90 0.2492
813.00 0.2491
813.10 0.249
813.20 0.2489
813.30 0.2488
813.40 0.2487
813.50 0.2486
813.60 0.2485
813.70 0.2484
813.80 0.2483
813.90 0.2482
814.00 0.2481
814.10 0.248
814.20 0.2479
814.30 0.2478
814.40 0.2477
814.50 0.2476
814.60 0.2475
814.70 0.2474
814.80 0.2473
814.90 0.2472
815.00 0.2471
815.10 0.247
815.20 0.2469
815.30 0.2468
815.40 0.2467
815.50 0.2466
815.60 0.2465
815.70 0.2464
815.80 0.2463
815.90 0.2462
816.00 0.2461
816.10 0.246
816.20 0.2459
816.30 0.2459
816.40 0.2458
816.50 0.2457
816.60 0.2456
816.70 0.2455
816.80 0.2454
816.90 0.2453
817.00 0.2452
817.10 0.2451
817.20 0.245
817.30 0.2449
817.40 0.2448
817.50 0.2447
817.60 0.2446
817.70 0.2445
817.80 0.2444
817.90 0.2443
818.00 0.2442
818.10 0.2441
818.20 0.244
818.30 0.2439
818.40 0.2438
818.50 0.2437
818.60 0.2436
818.70 0.2435
818.80 0.2434
818.90 0.2433
819.00 0.2432
819.10 0.2431
819.20 0.243
819.30 0.243
819.40 0.2429
819.50 0.2428
819.60 0.2427
819.70 0.2426
819.80 0.2425
819.90 0.2424
820.00 0.2423
820.10 0.2422
820.20 0.2421
820.30 0.242
820.40 0.2419
820.50 0.2418
820.60 0.2417
820.70 0.2416
820.80 0.2415
820.90 0.2414
821.00 0.2414
821.10 0.2413
821.20 0.2412
821.30 0.2411
821.40 0.241
821.50 0.2409
821.60 0.2408
821.70 0.2407
821.80 0.2406
821.90 0.2405
822.00 0.2404
822.10 0.2403
822.20 0.2402
822.30 0.2401
822.40 0.24
822.50 0.2399
822.60 0.2398
822.70 0.2397
822.80 0.2397
822.90 0.2396
823.00 0.2395
823.10 0.2394
823.20 0.2393
823.30 0.2392
823.40 0.2391
823.50 0.239
823.60 0.2389
823.70 0.2388
823.80 0.2387
823.90 0.2386
824.00 0.2385
824.10 0.2384
824.20 0.2383
824.30 0.2382
824.40 0.2381
824.50 0.2381
824.60 0.238
824.70 0.2379
824.80 0.2378
824.90 0.2377
825.00 0.2376
825.10 0.2375
825.20 0.2374
825.30 0.2373
825.40 0.2372
825.50 0.2371
825.60 0.237
825.70 0.2369
825.80 0.2368
825.90 0.2368
826.00 0.2367
826.10 0.2366
826.20 0.2365
826.30 0.2364
826.40 0.2363
826.50 0.2362
826.60 0.2361
826.70 0.236
826.80 0.2359
826.90 0.2358
827.00 0.2357
827.10 0.2356
827.20 0.2355
827.30 0.2355
827.40 0.2354
827.50 0.2353
827.60 0.2352
827.70 0.2351
827.80 0.235
827.90 0.2349
828.00 0.2348
828.10 0.2347
828.20 0.2346
828.30 0.2345
828.40 0.2344
828.50 0.2344
828.60 0.2343
828.70 0.2342
828.80 0.2341
828.90 0.234
829.00 0.2339
829.10 0.2338
829.20 0.2337
829.30 0.2336
829.40 0.2335
829.50 0.2334
829.60 0.2333
829.70 0.2333
829.80 0.2332
829.90 0.2331
830.00 0.233
830.10 0.2329
830.20 0.2328
830.30 0.2327
830.40 0.2326
830.50 0.2325
830.60 0.2324
830.70 0.2323
830.80 0.2323
830.90 0.2322
831.00 0.2321
831.10 0.232
831.20 0.2319
831.30 0.2318
831.40 0.2317
831.50 0.2316
831.60 0.2315
831.70 0.2314
831.80 0.2314
831.90 0.2313
832.00 0.2312
832.10 0.2311
832.20 0.231
832.30 0.2309
832.40 0.2308
832.50 0.2307
832.60 0.2306
832.70 0.2305
832.80 0.2305
832.90 0.2304
833.00 0.2303
833.10 0.2302
833.20 0.2301
833.30 0.23
833.40 0.2299
833.50 0.2298
833.60 0.2297
833.70 0.2296
833.80 0.2296
833.90 0.2295
834.00 0.2294
834.10 0.2293
834.20 0.2292
834.30 0.2291
834.40 0.229
834.50 0.2289
834.60 0.2288
834.70 0.2288
834.80 0.2287
834.90 0.2286
835.00 0.2285
835.10 0.2284
835.20 0.2283
835.30 0.2282
835.40 0.2281
835.50 0.228
835.60 0.228
835.70 0.2279
835.80 0.2278
835.90 0.2277
836.00 0.2276
836.10 0.2275
836.20 0.2274
836.30 0.2273
836.40 0.2272
836.50 0.2272
836.60 0.2271
836.70 0.227
836.80 0.2269
836.90 0.2268
837.00 0.2267
837.10 0.2266
837.20 0.2265
837.30 0.2265
837.40 0.2264
837.50 0.2263
837.60 0.2262
837.70 0.2261
837.80 0.226
837.90 0.2259
838.00 0.2258
838.10 0.2258
838.20 0.2257
838.30 0.2256
838.40 0.2255
838.50 0.2254
838.60 0.2253
838.70 0.2252
838.80 0.2251
838.90 0.2251
839.00 0.225
839.10 0.2249
839.20 0.2248
839.30 0.2247
839.40 0.2246
839.50 0.2245
839.60 0.2244
839.70 0.2244
839.80 0.2243
839.90 0.2242
840.00 0.2241
840.10 0.224
840.20 0.2239
840.30 0.2238
840.40 0.2238
840.50 0.2237
840.60 0.2236
840.70 0.2235
840.80 0.2234
840.90 0.2233
841.00 0.2232
841.10 0.2231
841.20 0.2231
841.30 0.223
841.40 0.2229
841.50 0.2228
841.60 0.2227
841.70 0.2226
841.80 0.2225
841.90 0.2225
842.00 0.2224
842.10 0.2223
842.20 0.2222
842.30 0.2221
842.40 0.222
842.50 0.2219
842.60 0.2219
842.70 0.2218
842.80 0.2217
842.90 0.2216
843.00 0.2215
843.10 0.2214
843.20 0.2213
843.30 0.2213
843.40 0.2212
843.50 0.2211
843.60 0.221
843.70 0.2209
843.80 0.2208
843.90 0.2207
844.00 0.2207
844.10 0.2206
844.20 0.2205
844.30 0.2204
844.40 0.2203
844.50 0.2202
844.60 0.2202
844.70 0.2201
844.80 0.22
844.90 0.2199
845.00 0.2198
845.10 0.2197
845.20 0.2196
845.30 0.2196
845.40 0.2195
845.50 0.2194
845.60 0.2193
845.70 0.2192
845.80 0.2191
845.90 0.2191
846.00 0.219
846.10 0.2189
846.20 0.2188
846.30 0.2187
846.40 0.2186
846.50 0.2185
846.60 0.2185
846.70 0.2184
846.80 0.2183
846.90 0.2182
847.00 0.2181
847.10 0.218
847.20 0.218
847.30 0.2179
847.40 0.2178
847.50 0.2177
847.60 0.2176
847.70 0.2175
847.80 0.2175
847.90 0.2174
848.00 0.2173
848.10 0.2172
848.20 0.2171
848.30 0.2171
848.40 0.217
848.50 0.2169
848.60 0.2168
848.70 0.2167
848.80 0.2166
848.90 0.2166
849.00 0.2165
849.10 0.2164
849.20 0.2163
849.30 0.2162
849.40 0.2162
849.50 0.2161
849.60 0.216
849.70 0.2159
849.80 0.2158
849.90 0.2157
850.00 0.2157
850.10 0.2156
850.20 0.2155
850.30 0.2154
850.40 0.2153
850.50 0.2153
850.60 0.2152
850.70 0.2151
850.80 0.215
850.90 0.2149
851.00 0.2148
851.10 0.2148
851.20 0.2147
851.30 0.2146
851.40 0.2145
851.50 0.2144
851.60 0.2144
851.70 0.2143
851.80 0.2142
851.90 0.2141
852.00 0.214
852.10 0.214
852.20 0.2139
852.30 0.2138
852.40 0.2137
852.50 0.2136
852.60 0.2135
852.70 0.2135
852.80 0.2134
852.90 0.2133
853.00 0.2132
853.10 0.2131
853.20 0.2131
853.30 0.213
853.40 0.2129
853.50 0.2128
853.60 0.2127
853.70 0.2127
853.80 0.2126
853.90 0.2125
854.00 0.2124
854.10 0.2123
854.20 0.2123
854.30 0.2122
854.40 0.2121
854.50 0.212
854.60 0.2119
854.70 0.2119
854.80 0.2118
854.90 0.2117
855.00 0.2116
855.10 0.2116
855.20 0.2115
855.30 0.2114
855.40 0.2113
855.50 0.2112
855.60 0.2112
855.70 0.2111
855.80 0.211
855.90 0.2109
856.00 0.2108
856.10 0.2108
856.20 0.2107
856.30 0.2106
856.40 0.2105
856.50 0.2104
856.60 0.2104
856.70 0.2103
856.80 0.2102
856.90 0.2101
857.00 0.21
857.10 0.21
857.20 0.2099
857.30 0.2098
857.40 0.2097
857.50 0.2097
857.60 0.2096
857.70 0.2095
857.80 0.2094
857.90 0.2093
858.00 0.2093
858.10 0.2092
858.20 0.2091
858.30 0.209
858.40 0.209
858.50 0.2089
858.60 0.2088
858.70 0.2087
858.80 0.2087
858.90 0.2086
859.00 0.2085
859.10 0.2084
859.20 0.2083
859.30 0.2083
859.40 0.2082
859.50 0.2081
859.60 0.208
859.70 0.208
859.80 0.2079
859.90 0.2078
860.00 0.2077
860.10 0.2077
860.20 0.2076
860.30 0.2075
860.40 0.2074
860.50 0.2073
860.60 0.2073
860.70 0.2072
860.80 0.2071
860.90 0.207
861.00 0.207
861.10 0.2069
861.20 0.2068
861.30 0.2067
861.40 0.2067
861.50 0.2066
861.60 0.2065
861.70 0.2064
861.80 0.2063
861.90 0.2063
862.00 0.2062
862.10 0.2061
862.20 0.206
862.30 0.206
862.40 0.2059
862.50 0.2058
862.60 0.2057
862.70 0.2057
862.80 0.2056
862.90 0.2055
863.00 0.2054
863.10 0.2054
863.20 0.2053
863.30 0.2052
863.40 0.2051
863.50 0.2051
863.60 0.205
863.70 0.2049
863.80 0.2048
863.90 0.2048
864.00 0.2047
864.10 0.2046
864.20 0.2045
864.30 0.2045
864.40 0.2044
864.50 0.2043
864.60 0.2042
864.70 0.2042
864.80 0.2041
864.90 0.204
865.00 0.2039
865.10 0.2039
865.20 0.2038
865.30 0.2037
865.40 0.2036
865.50 0.2036
865.60 0.2035
865.70 0.2034
865.80 0.2033
865.90 0.2033
866.00 0.2032
866.10 0.2031
866.20 0.203
866.30 0.203
866.40 0.2029
866.50 0.2028
866.60 0.2027
866.70 0.2027
866.80 0.2026
866.90 0.2025
867.00 0.2024
867.10 0.2024
867.20 0.2023
867.30 0.2022
867.40 0.2022
867.50 0.2021
867.60 0.202
867.70 0.2019
867.80 0.2019
867.90 0.2018
868.00 0.2017
868.10 0.2017
868.20 0.2016
868.30 0.2015
868.40 0.2014
868.50 0.2014
868.60 0.2013
868.70 0.2012
868.80 0.2012
868.90 0.2011
869.00 0.201
869.10 0.201
869.20 0.2009
869.30 0.2008
869.40 0.2007
869.50 0.2007
869.60 0.2006
869.70 0.2005
869.80 0.2005
869.90 0.2004
870.00 0.2003
870.10 0.2003
870.20 0.2002
870.30 0.2001
870.40 0.2
870.50 0.2
870.60 0.1999
870.70 0.1998
870.80 0.1998
870.90 0.1997
871.00 0.1996
871.10 0.1996
871.20 0.1995
871.30 0.1994
871.40 0.1993
871.50 0.1993
871.60 0.1992
871.70 0.1991
871.80 0.1991
871.90 0.199
872.00 0.1989
872.10 0.1989
872.20 0.1988
872.30 0.1987
872.40 0.1986
872.50 0.1986
872.60 0.1985
872.70 0.1984
872.80 0.1984
872.90 0.1983
873.00 0.1982
873.10 0.1982
873.20 0.1981
873.30 0.198
873.40 0.1979
873.50 0.1979
873.60 0.1978
873.70 0.1977
873.80 0.1977
873.90 0.1976
874.00 0.1975
874.10 0.1975
874.20 0.1974
874.30 0.1973
874.40 0.1973
874.50 0.1972
874.60 0.1971
874.70 0.197
874.80 0.197
874.90 0.1969
875.00 0.1968
875.10 0.1968
875.20 0.1967
875.30 0.1966
875.40 0.1966
875.50 0.1965
875.60 0.1964
875.70 0.1964
875.80 0.1963
875.90 0.1962
876.00 0.1961
876.10 0.1961
876.20 0.196
876.30 0.1959
876.40 0.1959
876.50 0.1958
876.60 0.1957
876.70 0.1957
876.80 0.1956
876.90 0.1955
877.00 0.1955
877.10 0.1954
877.20 0.1953
877.30 0.1953
877.40 0.1952
877.50 0.1951
877.60 0.1951
877.70 0.195
877.80 0.1949
877.90 0.1949
878.00 0.1948
878.10 0.1947
878.20 0.1947
878.30 0.1946
878.40 0.1945
878.50 0.1945
878.60 0.1944
878.70 0.1944
878.80 0.1943
878.90 0.1942
879.00 0.1942
879.10 0.1941
879.20 0.194
879.30 0.194
879.40 0.1939
879.50 0.1938
879.60 0.1938
879.70 0.1937
879.80 0.1936
879.90 0.1936
880.00 0.1935
880.10 0.1934
880.20 0.1934
880.30 0.1933
880.40 0.1933
880.50 0.1932
880.60 0.1931
880.70 0.1931
880.80 0.193
880.90 0.1929
881.00 0.1929
881.10 0.1928
881.20 0.1927
881.30 0.1927
881.40 0.1926
881.50 0.1925
881.60 0.1925
881.70 0.1924
881.80 0.1924
881.90 0.1923
882.00 0.1922
882.10 0.1921
882.20 0.1921
882.30 0.192
882.40 0.1919
882.50 0.1919
882.60 0.1918
882.70 0.1917
882.80 0.1916
882.90 0.1916
883.00 0.1915
883.10 0.1914
883.20 0.1913
883.30 0.1913
883.40 0.1912
883.50 0.1911
883.60 0.191
883.70 0.191
883.80 0.1909
883.90 0.1908
884.00 0.1907
884.10 0.1907
884.20 0.1906
884.30 0.1905
884.40 0.1904
884.50 0.1904
884.60 0.1903
884.70 0.1902
884.80 0.1901
884.90 0.1901
885.00 0.19
885.10 0.1899
885.20 0.1899
885.30 0.1898
885.40 0.1897
885.50 0.1896
885.60 0.1896
885.70 0.1895
885.80 0.1894
885.90 0.1893
886.00 0.1893
886.10 0.1892
886.20 0.1891
886.30 0.189
886.40 0.189
886.50 0.1889
886.60 0.1888
886.70 0.1888
886.80 0.1887
886.90 0.1886
887.00 0.1885
887.10 0.1885
887.20 0.1884
887.30 0.1884
887.40 0.1883
887.50 0.1883
887.60 0.1882
887.70 0.1882
887.80 0.1881
887.90 0.1881
888.00 0.188
888.10 0.188
888.20 0.1879
888.30 0.1878
888.40 0.1878
888.50 0.1877
888.60 0.1877
888.70 0.1876
888.80 0.1876
888.90 0.1875
889.00 0.1875
889.10 0.1874
889.20 0.1874
889.30 0.1873
889.40 0.1873
889.50 0.1872
889.60 0.1872
889.70 0.1871
889.80 0.1871
889.90 0.187
890.00 0.187
890.10 0.1869
890.20 0.1868
890.30 0.1868
890.40 0.1867
890.50 0.1867
890.60 0.1866
890.70 0.1866
890.80 0.1865
890.90 0.1865
891.00 0.1864
891.10 0.1864
891.20 0.1863
891.30 0.1863
891.40 0.1862
891.50 0.1862
891.60 0.1861
891.70 0.1861
891.80 0.186
891.90 0.186
892.00 0.1859
892.10 0.1858
892.20 0.1858
892.30 0.1857
892.40 0.1857
892.50 0.1856
892.60 0.1855
892.70 0.1855
892.80 0.1854
892.90 0.1853
893.00 0.1853
893.10 0.1852
893.20 0.1852
893.30 0.1851
893.40 0.185
893.50 0.185
893.60 0.1849
893.70 0.1849
893.80 0.1848
893.90 0.1847
894.00 0.1847
894.10 0.1846
894.20 0.1845
894.30 0.1845
894.40 0.1844
894.50 0.1844
894.60 0.1843
894.70 0.1842
894.80 0.1842
894.90 0.1841
895.00 0.1841
895.10 0.184
895.20 0.1839
895.30 0.1839
895.40 0.1838
895.50 0.1837
895.60 0.1837
895.70 0.1836
895.80 0.1836
895.90 0.1835
896.00 0.1834
896.10 0.1834
896.20 0.1833
896.30 0.1833
896.40 0.1832
896.50 0.1831
896.60 0.1831
896.70 0.183
896.80 0.1829
896.90 0.1829
897.00 0.1828
897.10 0.1827
897.20 0.1826
897.30 0.1825
897.40 0.1825
897.50 0.1824
897.60 0.1823
897.70 0.1822
897.80 0.1821
897.90 0.182
898.00 0.1819
898.10 0.1818
898.20 0.1817
898.30 0.1816
898.40 0.1815
898.50 0.1815
898.60 0.1814
898.70 0.1813
898.80 0.1812
898.90 0.1811
899.00 0.181
899.10 0.1809
899.20 0.1808
899.30 0.1807
899.40 0.1806
899.50 0.1805
899.60 0.1805
899.70 0.1804
899.80 0.1803
899.90 0.1802
900.00 0.1801
900.10 0.18
900.20 0.1799
900.30 0.1798
900.40 0.1797
900.50 0.1796
900.60 0.1796
900.70 0.1795
900.80 0.1794
900.90 0.1793
901.00 0.1792
901.10 0.1791
901.20 0.179
901.30 0.1789
901.40 0.1788
901.50 0.1787
901.60 0.1787
901.70 0.1786
901.80 0.1785
901.90 0.1784
902.00 0.1783
902.10 0.1783
902.20 0.1782
902.30 0.1782
902.40 0.1782
902.50 0.1781
902.60 0.1781
902.70 0.1781
902.80 0.178
902.90 0.178
903.00 0.178
903.10 0.1779
903.20 0.1779
903.30 0.1779
903.40 0.1778
903.50 0.1778
903.60 0.1778
903.70 0.1777
903.80 0.1777
903.90 0.1777
904.00 0.1776
904.10 0.1776
904.20 0.1776
904.30 0.1775
904.40 0.1775
904.50 0.1775
904.60 0.1774
904.70 0.1774
904.80 0.1774
904.90 0.1773
905.00 0.1773
905.10 0.1773
905.20 0.1772
905.30 0.1772
905.40 0.1772
905.50 0.1771
905.60 0.1771
905.70 0.1771
905.80 0.177
905.90 0.177
906.00 0.177
906.10 0.1769
906.20 0.1769
906.30 0.1769
906.40 0.1768
906.50 0.1768
906.60 0.1768
906.70 0.1767
906.80 0.1767
906.90 0.1767
907.00 0.1766
907.10 0.1766
907.20 0.1765
907.30 0.1765
907.40 0.1764
907.50 0.1764
907.60 0.1763
907.70 0.1763
907.80 0.1762
907.90 0.1762
908.00 0.1762
908.10 0.1761
908.20 0.1761
908.30 0.176
908.40 0.176
908.50 0.1759
908.60 0.1759
908.70 0.1758
908.80 0.1758
908.90 0.1757
909.00 0.1757
909.10 0.1756
909.20 0.1756
909.30 0.1755
909.40 0.1755
909.50 0.1754
909.60 0.1754
909.70 0.1753
909.80 0.1753
909.90 0.1752
910.00 0.1752
910.10 0.1751
910.20 0.1751
910.30 0.1751
910.40 0.175
910.50 0.175
910.60 0.1749
910.70 0.1749
910.80 0.1748
910.90 0.1748
911.00 0.1747
911.10 0.1747
911.20 0.1746
911.30 0.1746
911.40 0.1745
911.50 0.1745
911.60 0.1744
911.70 0.1744
911.80 0.1743
911.90 0.1743
912.00 0.1742
912.10 0.1742
912.20 0.1741
912.30 0.174
912.40 0.174
912.50 0.1739
912.60 0.1738
912.70 0.1738
912.80 0.1737
912.90 0.1736
913.00 0.1736
913.10 0.1735
913.20 0.1734
913.30 0.1734
913.40 0.1733
913.50 0.1732
913.60 0.1732
913.70 0.1731
913.80 0.173
913.90 0.1729
914.00 0.1729
914.10 0.1728
914.20 0.1727
914.30 0.1727
914.40 0.1726
914.50 0.1725
914.60 0.1725
914.70 0.1724
914.80 0.1723
914.90 0.1723
915.00 0.1722
915.10 0.1721
915.20 0.1721
915.30 0.172
915.40 0.1719
915.50 0.1719
915.60 0.1718
915.70 0.1717
915.80 0.1717
915.90 0.1716
916.00 0.1715
916.10 0.1715
916.20 0.1714
916.30 0.1713
916.40 0.1713
916.50 0.1712
916.60 0.1711
916.70 0.1711
916.80 0.171
916.90 0.1709
917.00 0.1709
917.10 0.1708
917.20 0.1707
917.30 0.1706
917.40 0.1705
917.50 0.1704
917.60 0.1703
917.70 0.1702
917.80 0.1701
917.90 0.17
918.00 0.1699
918.10 0.1698
918.20 0.1697
918.30 0.1696
918.40 0.1695
918.50 0.1694
918.60 0.1693
918.70 0.1692
918.80 0.1691
918.90 0.169
919.00 0.1689
919.10 0.1688
919.20 0.1687
919.30 0.1686
919.40 0.1685
919.50 0.1684
919.60 0.1683
919.70 0.1682
919.80 0.1681
919.90 0.168
920.00 0.1679
920.10 0.1678
920.20 0.1677
920.30 0.1676
920.40 0.1675
920.50 0.1674
920.60 0.1673
920.70 0.1672
920.80 0.1671
920.90 0.167
921.00 0.1669
921.10 0.1668
921.20 0.1667
921.30 0.1666
921.40 0.1665
921.50 0.1664
921.60 0.1663
921.70 0.1662
921.80 0.1661
921.90 0.166
922.00 0.166
922.10 0.1659
922.20 0.1658
922.30 0.1657
922.40 0.1656
922.50 0.1655
922.60 0.1654
922.70 0.1654
922.80 0.1653
922.90 0.1652
923.00 0.1651
923.10 0.165
923.20 0.1649
923.30 0.1649
923.40 0.1648
923.50 0.1647
923.60 0.1646
923.70 0.1645
923.80 0.1644
923.90 0.1643
924.00 0.1643
924.10 0.1642
924.20 0.1641
924.30 0.164
924.40 0.1639
924.50 0.1638
924.60 0.1638
924.70 0.1637
924.80 0.1636
924.90 0.1635
925.00 0.1634
925.10 0.1633
925.20 0.1633
925.30 0.1632
925.40 0.1631
925.50 0.163
925.60 0.1629
925.70 0.1628
925.80 0.1628
925.90 0.1627
926.00 0.1626
926.10 0.1625
926.20 0.1624
926.30 0.1623
926.40 0.1623
926.50 0.1622
926.60 0.1621
926.70 0.162
926.80 0.1619
926.90 0.1618
927.00 0.1618
927.10 0.1618
927.20 0.1618
927.30 0.1618
927.40 0.1618
927.50 0.1618
927.60 0.1618
927.70 0.1618
927.80 0.1618
927.90 0.1618
928.00 0.1618
928.10 0.1618
928.20 0.1618
928.30 0.1618
928.40 0.1618
928.50 0.1618
928.60 0.1618
928.70 0.1618
928.80 0.1618
928.90 0.1618
929.00 0.1618
929.10 0.1618
929.20 0.1618
929.30 0.1618
929.40 0.1618
929.50 0.1619
929.60 0.1619
929.70 0.1619
929.80 0.1619
929.90 0.1619
930.00 0.1619
930.10 0.1619
930.20 0.1619
930.30 0.1619
930.40 0.1619
930.50 0.1619
930.60 0.1619
930.70 0.1619
930.80 0.1619
930.90 0.1619
931.00 0.1619
931.10 0.1619
931.20 0.1619
931.30 0.1619
931.40 0.1619
931.50 0.1619
931.60 0.1619
931.70 0.1619
931.80 0.1619
931.90 0.1619
932.00 0.1619
932.10 0.1619
932.20 0.1619
932.30 0.1619
932.40 0.1618
932.50 0.1618
932.60 0.1618
932.70 0.1618
932.80 0.1617
932.90 0.1617
933.00 0.1617
933.10 0.1617
933.20 0.1616
933.30 0.1616
933.40 0.1616
933.50 0.1616
933.60 0.1615
933.70 0.1615
933.80 0.1615
933.90 0.1615
934.00 0.1614
934.10 0.1614
934.20 0.1614
934.30 0.1614
934.40 0.1613
934.50 0.1613
934.60 0.1612
934.70 0.1612
934.80 0.1612
934.90 0.1611
935.00 0.1611
935.10 0.161
935.20 0.161
935.30 0.161
935.40 0.1609
935.50 0.1609
935.60 0.1608
935.70 0.1608
935.80 0.1608
935.90 0.1607
936.00 0.1607
936.10 0.1606
936.20 0.1606
936.30 0.1606
936.40 0.1605
936.50 0.1605
936.60 0.1605
936.70 0.1604
936.80 0.1604
936.90 0.1603
937.00 0.1603
937.10 0.1602
937.20 0.1602
937.30 0.1602
937.40 0.1601
937.50 0.1601
937.60 0.16
937.70 0.16
937.80 0.1599
937.90 0.1599
938.00 0.1598
938.10 0.1598
938.20 0.1597
938.30 0.1597
938.40 0.1596
938.50 0.1596
938.60 0.1595
938.70 0.1594
938.80 0.1594
938.90 0.1593
939.00 0.1593
939.10 0.1592
939.20 0.1592
939.30 0.1591
939.40 0.1591
939.50 0.159
939.60 0.1589
939.70 0.1589
939.80 0.1588
939.90 0.1588
940.00 0.1587
940.10 0.1587
940.20 0.1586
940.30 0.1586
940.40 0.1585
940.50 0.1584
940.60 0.1584
940.70 0.1583
940.80 0.1582
940.90 0.1582
941.00 0.1581
941.10 0.158
941.20 0.158
941.30 0.1579
941.40 0.1578
941.50 0.1578
941.60 0.1577
941.70 0.1576
941.80 0.1576
941.90 0.1575
942.00 0.1574
942.10 0.1574
942.20 0.1573
942.30 0.1572
942.40 0.1571
942.50 0.157
942.60 0.157
942.70 0.1569
942.80 0.1568
942.90 0.1567
943.00 0.1566
943.10 0.1565
943.20 0.1565
943.30 0.1564
943.40 0.1563
943.50 0.1562
943.60 0.1561
943.70 0.156
943.80 0.156
943.90 0.1559
944.00 0.1558
944.10 0.1557
944.20 0.1556
944.30 0.1556
944.40 0.1555
944.50 0.1554
944.60 0.1552
944.70 0.1551
944.80 0.155
944.90 0.1549
945.00 0.1548
945.10 0.1547
945.20 0.1546
945.30 0.1545
945.40 0.1544
945.50 0.1543
945.60 0.1542
945.70 0.1541
945.80 0.1539
945.90 0.1538
946.00 0.1537
946.10 0.1536
946.20 0.1535
946.30 0.1533
946.40 0.1532
946.50 0.1531
946.60 0.153
946.70 0.1528
946.80 0.1527
946.90 0.1526
947.00 0.1525
947.10 0.1523
947.20 0.1522
947.30 0.1521
947.40 0.1519
947.50 0.1517
947.60 0.1516
947.70 0.1514
947.80 0.1513
947.90 0.1511
948.00 0.1509
948.10 0.1508
948.20 0.1506
948.30 0.1505
948.40 0.1503
948.50 0.1501
948.60 0.15
948.70 0.1498
948.80 0.1497
948.90 0.1495
949.00 0.1493
949.10 0.1492
949.20 0.149
949.30 0.1489
949.40 0.1487
949.50 0.1485
949.60 0.1483
949.70 0.1481
949.80 0.148
949.90 0.1478
950.00 0.1476
950.10 0.1474
950.20 0.1472
950.30 0.147
950.40 0.1469
950.50 0.1467
950.60 0.1465
950.70 0.1463
950.80 0.1461
950.90 0.146
951.00 0.1458
951.10 0.1456
951.20 0.1454
951.30 0.1452
951.40 0.1451
951.50 0.1449
951.60 0.1447
951.70 0.1446
951.80 0.1444
951.90 0.1443
952.00 0.1441
952.10 0.144
952.20 0.1439
952.30 0.1438
952.40 0.1436
952.50 0.1435
952.60 0.1434
952.70 0.1433
952.80 0.1432
952.90 0.1432
953.00 0.1433
953.10 0.1433
953.20 0.1433
953.30 0.1434
953.40 0.1434
953.50 0.1435
953.60 0.1437
953.70 0.144
953.80 0.1443
953.90 0.1446
954.00 0.145
954.10 0.1453
954.20 0.1457
954.30 0.1446
954.40 0.1432
954.50 0.1428
954.60 0.1424
954.70 0.142
954.80 0.1416
954.90 0.1413
955.00 0.1409
955.10 0.1406
955.20 0.1404
955.30 0.1402
955.40 0.14
955.50 0.1398
955.60 0.1396
955.70 0.1395
955.80 0.1393
955.90 0.1393
956.00 0.1392
956.10 0.1392
956.20 0.1392
956.30 0.1392
956.40 0.1392
956.50 0.1391
956.60 0.1391
956.70 0.1391
956.80 0.1391
956.90 0.1391
957.00 0.139
957.10 0.1391
957.20 0.1392
957.30 0.1392
957.40 0.1393
957.50 0.1394
957.60 0.1394
957.70 0.1395
957.80 0.1396
957.90 0.1396
958.00 0.1397
958.10 0.1398
958.20 0.1399
958.30 0.1399
958.40 0.14
958.50 0.1401
958.60 0.1402
958.70 0.1402
958.80 0.1403
958.90 0.1404
959.00 0.1404
959.10 0.1405
959.20 0.1406
959.30 0.1407
959.40 0.1407
959.50 0.1408
959.60 0.1408
959.70 0.1409
959.80 0.141
959.90 0.141
960.00 0.1411
960.10 0.1412
960.20 0.1412
960.30 0.1413
960.40 0.1414
960.50 0.1414
960.60 0.1415
960.70 0.1416
960.80 0.1416
960.90 0.1417
961.00 0.1417
961.10 0.1418
961.20 0.1419
961.30 0.1419
961.40 0.142
961.50 0.142
961.60 0.1421
961.70 0.1421
961.80 0.1422
961.90 0.1422
962.00 0.1423
962.10 0.1423
962.20 0.1423
962.30 0.1424
962.40 0.1424
962.50 0.1425
962.60 0.1425
962.70 0.1425
962.80 0.1426
962.90 0.1426
963.00 0.1426
963.10 0.1427
963.20 0.1427
963.30 0.1427
963.40 0.1428
963.50 0.1428
963.60 0.1428
963.70 0.1428
963.80 0.1429
963.90 0.1429
964.00 0.1429
964.10 0.1429
964.20 0.143
964.30 0.143
964.40 0.143
964.50 0.143
964.60 0.143
964.70 0.143
964.80 0.143
964.90 0.1431
965.00 0.1431
965.10 0.1431
965.20 0.1431
965.30 0.1431
965.40 0.1431
965.50 0.1431
965.60 0.1431
965.70 0.1431
965.80 0.1431
965.90 0.1432
966.00 0.1432
966.10 0.1432
966.20 0.1432
966.30 0.1432
966.40 0.1432
966.50 0.1432
966.60 0.1432
966.70 0.1432
966.80 0.1432
966.90 0.1432
967.00 0.1432
967.10 0.1432
967.20 0.1432
967.30 0.1432
967.40 0.1432
967.50 0.1432
967.60 0.1432
967.70 0.1431
967.80 0.1431
967.90 0.1431
968.00 0.1431
968.10 0.1431
968.20 0.1431
968.30 0.1431
968.40 0.1431
968.50 0.1431
968.60 0.1431
968.70 0.143
968.80 0.143
968.90 0.143
969.00 0.143
969.10 0.143
969.20 0.143
969.30 0.143
969.40 0.1429
969.50 0.1429
969.60 0.1429
969.70 0.1429
969.80 0.1429
969.90 0.1429
970.00 0.1428
970.10 0.1428
970.20 0.1428
970.30 0.1428
970.40 0.1428
970.50 0.1427
970.60 0.1427
970.70 0.1427
970.80 0.1427
970.90 0.1426
971.00 0.1426
971.10 0.1426
971.20 0.1426
971.30 0.1426
971.40 0.1425
971.50 0.1425
971.60 0.1425
971.70 0.1425
971.80 0.1424
971.90 0.1424
972.00 0.1424
972.10 0.1424
972.20 0.1423
972.30 0.1423
972.40 0.1423
972.50 0.1422
972.60 0.1422
972.70 0.1422
972.80 0.1421
972.90 0.1421
973.00 0.1421
973.10 0.142
973.20 0.142
973.30 0.142
973.40 0.1419
973.50 0.1419
973.60 0.1419
973.70 0.1419
973.80 0.1418
973.90 0.1418
974.00 0.1418
974.10 0.1417
974.20 0.1417
974.30 0.1417
974.40 0.1416
974.50 0.1416
974.60 0.1415
974.70 0.1415
974.80 0.1415
974.90 0.1414
975.00 0.1414
975.10 0.1414
975.20 0.1413
975.30 0.1413
975.40 0.1412
975.50 0.1412
975.60 0.1412
975.70 0.1411
975.80 0.1411
975.90 0.141
976.00 0.141
976.10 0.141
976.20 0.1409
976.30 0.1409
976.40 0.1409
976.50 0.1408
976.60 0.1408
976.70 0.1407
976.80 0.1407
976.90 0.1407
977.00 0.1406
977.10 0.1406
977.20 0.1405
977.30 0.1405
977.40 0.1404
977.50 0.1404
977.60 0.1403
977.70 0.1403
977.80 0.1402
977.90 0.1402
978.00 0.1401
978.10 0.1401
978.20 0.14
978.30 0.14
978.40 0.1399
978.50 0.1399
978.60 0.1398
978.70 0.1398
978.80 0.1397
978.90 0.1397
979.00 0.1396
979.10 0.1396
979.20 0.1395
979.30 0.1395
979.40 0.1394
979.50 0.1394
979.60 0.1393
979.70 0.1393
979.80 0.1393
979.90 0.1392
980.00 0.1392
980.10 0.1391
980.20 0.1391
980.30 0.139
980.40 0.139
980.50 0.1389
980.60 0.1389
980.70 0.1388
980.80 0.1388
980.90 0.1387
981.00 0.1387
981.10 0.1386
981.20 0.1386
981.30 0.1385
981.40 0.1385
981.50 0.1384
981.60 0.1384
981.70 0.1383
981.80 0.1383
981.90 0.1382
982.00 0.1382
982.10 0.1381
982.20 0.1381
982.30 0.138
982.40 0.1379
982.50 0.1379
982.60 0.1378
982.70 0.1378
982.80 0.1377
982.90 0.1376
983.00 0.1376
983.10 0.1375
983.20 0.1375
983.30 0.1374
983.40 0.1373
983.50 0.1373
983.60 0.1372
983.70 0.1371
983.80 0.1371
983.90 0.137
984.00 0.137
984.10 0.1369
984.20 0.1368
984.30 0.1368
984.40 0.1367
984.50 0.1367
984.60 0.1366
984.70 0.1365
984.80 0.1365
984.90 0.1364
985.00 0.1363
985.10 0.1362
985.20 0.1362
985.30 0.1361
985.40 0.136
985.50 0.136
985.60 0.1359
985.70 0.1358
985.80 0.1357
985.90 0.1357
986.00 0.1356
986.10 0.1355
986.20 0.1355
986.30 0.1354
986.40 0.1353
986.50 0.1352
986.60 0.1352
986.70 0.1351
986.80 0.135
986.90 0.135
987.00 0.1349
987.10 0.1348
987.20 0.1347
987.30 0.1346
987.40 0.1346
987.50 0.1345
987.60 0.1344
987.70 0.1343
987.80 0.1342
987.90 0.1341
988.00 0.134
988.10 0.134
988.20 0.1339
988.30 0.1338
988.40 0.1337
988.50 0.1336
988.60 0.1335
988.70 0.1335
988.80 0.1334
988.90 0.1333
989.00 0.1332
989.10 0.1331
989.20 0.133
989.30 0.1329
989.40 0.1328
989.50 0.1327
989.60 0.1326
989.70 0.1325
989.80 0.1324
989.90 0.1323
990.00 0.1322
990.10 0.1321
990.20 0.132
990.30 0.1319
990.40 0.1318
990.50 0.1317
990.60 0.1316
990.70 0.1315
990.80 0.1314
990.90 0.1313
991.00 0.1311
991.10 0.131
991.20 0.1309
991.30 0.1308
991.40 0.1307
991.50 0.1306
991.60 0.1305
991.70 0.1303
991.80 0.1302
991.90 0.1301
992.00 0.13
992.10 0.1299
992.20 0.1298
992.30 0.1296
992.40 0.1295
992.50 0.1294
992.60 0.1293
992.70 0.1291
992.80 0.129
992.90 0.1288
993.00 0.1287
993.10 0.1285
993.20 0.1284
993.30 0.1283
993.40 0.1281
993.50 0.128
993.60 0.1278
993.70 0.1277
993.80 0.1275
993.90 0.1274
994.00 0.1273
994.10 0.1271
994.20 0.127
994.30 0.1268
994.40 0.1267
994.50 0.1265
994.60 0.1264
994.70 0.1262
994.80 0.1261
994.90 0.1259
995.00 0.1258
995.10 0.1256
995.20 0.1254
995.30 0.1253
995.40 0.1251
995.50 0.1249
995.60 0.1248
995.70 0.1246
995.80 0.1244
995.90 0.1242
996.00 0.124
996.10 0.1239
996.20 0.1237
996.30 0.1235
996.40 0.1233
996.50 0.1231
996.60 0.1229
996.70 0.1227
996.80 0.1226
996.90 0.1224
997.00 0.1222
997.10 0.122
997.20 0.1218
997.30 0.1216
997.40 0.1214
997.50 0.1212
997.60 0.121
997.70 0.1208
997.80 0.1206
997.90 0.1203
998.00 0.1201
998.10 0.1199
998.20 0.1197
998.30 0.1194
998.40 0.1192
998.50 0.119
998.60 0.1188
998.70 0.1186
998.80 0.1183
998.90 0.1181
999.00 0.1179
999.10 0.1177
999.20 0.1174
999.30 0.1172
999.40 0.117
999.50 0.1168
999.60 0.1166
999.70 0.1163
999.80 0.1161
999.90 0.1159
1000.00 0.1156
1000.10 0.1154
1000.20 0.1152
1000.30 0.1149
1000.40 0.1147
1000.50 0.1144
1000.60 0.1142
1000.70 0.114
1000.80 0.1137
1000.90 0.1135
1001.00 0.1133
1001.10 0.113
1001.20 0.1128
1001.30 0.1126
1001.40 0.1123
1001.50 0.1121
1001.60 0.1119
1001.70 0.1116
1001.80 0.1114
1001.90 0.1112
1002.00 0.111
1002.10 0.1109
1002.20 0.1108
1002.30 0.1106
1002.40 0.1105
1002.50 0.1104
1002.60 0.1103
1002.70 0.1102
1002.80 0.1101
1002.90 0.1099
1003.00 0.1098
1003.10 0.1097
1003.20 0.1097
1003.30 0.1097
1003.40 0.1097
1003.50 0.1097
1003.60 0.1098
1003.70 0.1098
1003.80 0.1098
1003.90 0.1101
1004.00 0.1104
1004.10 0.1108
1004.20 0.1112
1004.30 0.1117
1004.40 0.1122
1004.50 0.1127
1004.60 0.1131
1004.70 0.111
1004.80 0.1104
1004.90 0.1099
1005.00 0.1093
1005.10 0.1089
1005.20 0.1085
1005.30 0.1081
1005.40 0.1077
1005.50 0.1076
1005.60 0.1075
1005.70 0.1074
1005.80 0.1074
1005.90 0.1073
1006.00 0.1072
1006.10 0.1071
1006.20 0.1071
1006.30 0.1071
1006.40 0.1071
1006.50 0.1071
1006.60 0.1071
1006.70 0.1071
1006.80 0.1071
1006.90 0.1071
1007.00 0.1071
1007.10 0.1073
1007.20 0.1074
1007.30 0.1075
1007.40 0.1076
1007.50 0.1078
1007.60 0.1079
1007.70 0.108
1007.80 0.1081
1007.90 0.1083
1008.00 0.1084
1008.10 0.1085
1008.20 0.1087
1008.30 0.1088
1008.40 0.1089
1008.50 0.1091
1008.60 0.1092
1008.70 0.1093
1008.80 0.1094
1008.90 0.1096
1009.00 0.1097
1009.10 0.1098
1009.20 0.11
1009.30 0.1101
1009.40 0.1102
1009.50 0.1103
1009.60 0.1105
1009.70 0.1106
1009.80 0.1107
1009.90 0.1108
1010.00 0.111
1010.10 0.1111
1010.20 0.1112
1010.30 0.1113
1010.40 0.1114
1010.50 0.1116
1010.60 0.1117
1010.70 0.1118
1010.80 0.1119
1010.90 0.112
1011.00 0.1121
1011.10 0.1123
1011.20 0.1124
1011.30 0.1125
1011.40 0.1126
1011.50 0.1127
1011.60 0.1129
1011.70 0.113
1011.80 0.1131
1011.90 0.1132
1012.00 0.1133
1012.10 0.1133
1012.20 0.1134
1012.30 0.1135
1012.40 0.1136
1012.50 0.1137
1012.60 0.1138
1012.70 0.1139
1012.80 0.1139
1012.90 0.114
1013.00 0.1141
1013.10 0.1142
1013.20 0.1143
1013.30 0.1144
1013.40 0.1145
1013.50 0.1145
1013.60 0.1146
1013.70 0.1147
1013.80 0.1148
1013.90 0.1148
1014.00 0.1149
1014.10 0.115
1014.20 0.115
1014.30 0.1151
1014.40 0.1152
1014.50 0.1152
1014.60 0.1153
1014.70 0.1154
1014.80 0.1154
1014.90 0.1155
1015.00 0.1155
1015.10 0.1156
1015.20 0.1156
1015.30 0.1157
1015.40 0.1157
1015.50 0.1158
1015.60 0.1158
1015.70 0.1159
1015.80 0.1159
1015.90 0.116
1016.00 0.116
1016.10 0.1161
1016.20 0.1161
1016.30 0.1162
1016.40 0.1162
1016.50 0.1163
1016.60 0.1163
1016.70 0.1164
1016.80 0.1164
1016.90 0.1165
1017.00 0.1165
1017.10 0.1165
1017.20 0.1166
1017.30 0.1166
1017.40 0.1166
1017.50 0.1167
1017.60 0.1167
1017.70 0.1167
1017.80 0.1168
1017.90 0.1168
1018.00 0.1168
1018.10 0.1168
1018.20 0.1169
1018.30 0.1169
1018.40 0.1169
1018.50 0.117
1018.60 0.117
1018.70 0.117
1018.80 0.117
1018.90 0.1171
1019.00 0.1171
1019.10 0.1171
1019.20 0.1171
1019.30 0.1171
1019.40 0.1172
1019.50 0.1172
1019.60 0.1172
1019.70 0.1172
1019.80 0.1172
1019.90 0.1173
1020.00 0.1173
1020.10 0.1173
1020.20 0.1173
1020.30 0.1173
1020.40 0.1174
1020.50 0.1174
1020.60 0.1174
1020.70 0.1174
1020.80 0.1174
1020.90 0.1174
1021.00 0.1175
1021.10 0.1175
1021.20 0.1175
1021.30 0.1175
1021.40 0.1175
1021.50 0.1175
1021.60 0.1175
1021.70 0.1175
1021.80 0.1175
1021.90 0.1175
1022.00 0.1176
1022.10 0.1176
1022.20 0.1176
1022.30 0.1176
1022.40 0.1176
1022.50 0.1176
1022.60 0.1176
1022.70 0.1176
1022.80 0.1176
1022.90 0.1176
1023.00 0.1176
1023.10 0.1176
1023.20 0.1176
1023.30 0.1176
1023.40 0.1176
1023.50 0.1176
1023.60 0.1176
1023.70 0.1176
1023.80 0.1176
1023.90 0.1176
1024.00 0.1176
1024.10 0.1176
1024.20 0.1176
1024.30 0.1176
1024.40 0.1176
1024.50 0.1176
1024.60 0.1176
1024.70 0.1176
1024.80 0.1176
1024.90 0.1176
1025.00 0.1176
1025.10 0.1176
1025.20 0.1176
1025.30 0.1176
1025.40 0.1176
1025.50 0.1176
1025.60 0.1175
1025.70 0.1175
1025.80 0.1175
1025.90 0.1175
1026.00 0.1175
1026.10 0.1175
1026.20 0.1175
1026.30 0.1175
1026.40 0.1175
1026.50 0.1175
1026.60 0.1175
1026.70 0.1175
1026.80 0.1175
1026.90 0.1175
1027.00 0.1175
1027.10 0.1174
1027.20 0.1174
1027.30 0.1174
1027.40 0.1174
1027.50 0.1174
1027.60 0.1174
1027.70 0.1173
1027.80 0.1173
1027.90 0.1173
1028.00 0.1173
1028.10 0.1173
1028.20 0.1173
1028.30 0.1173
1028.40 0.1172
1028.50 0.1172
1028.60 0.1172
1028.70 0.1172
1028.80 0.1172
1028.90 0.1172
1029.00 0.1171
1029.10 0.1171
1029.20 0.1171
1029.30 0.1171
1029.40 0.1171
1029.50 0.1171
1029.60 0.117
1029.70 0.117
1029.80 0.117
1029.90 0.117
1030.00 0.117
1030.10 0.117
1030.20 0.117
1030.30 0.1169
1030.40 0.1169
1030.50 0.1169
1030.60 0.1169
1030.70 0.1169
1030.80 0.1169
1030.90 0.1168
1031.00 0.1168
1031.10 0.1168
1031.20 0.1168
1031.30 0.1168
1031.40 0.1168
1031.50 0.1167
1031.60 0.1167
1031.70 0.1167
1031.80 0.1167
1031.90 0.1167
1032.00 0.1167
1032.10 0.1166
1032.20 0.1166
1032.30 0.1166
1032.40 0.1166
1032.50 0.1165
1032.60 0.1165
1032.70 0.1165
1032.80 0.1165
1032.90 0.1165
1033.00 0.1164
1033.10 0.1164
1033.20 0.1164
1033.30 0.1164
1033.40 0.1163
1033.50 0.1163
1033.60 0.1163
1033.70 0.1163
1033.80 0.1162
1033.90 0.1162
1034.00 0.1162
1034.10 0.1162
1034.20 0.1161
1034.30 0.1161
1034.40 0.1161
1034.50 0.1161
1034.60 0.116
1034.70 0.116
1034.80 0.116
1034.90 0.116
1035.00 0.1159
1035.10 0.1159
1035.20 0.1159
1035.30 0.1159
1035.40 0.1158
1035.50 0.1158
1035.60 0.1158
1035.70 0.1158
1035.80 0.1157
1035.90 0.1157
1036.00 0.1157
1036.10 0.1157
1036.20 0.1156
1036.30 0.1156
1036.40 0.1156
1036.50 0.1156
1036.60 0.1156
1036.70 0.1155
1036.80 0.1155
1036.90 0.1155
1037.00 0.1155
1037.10 0.1154
1037.20 0.1154
1037.30 0.1154
1037.40 0.1153
1037.50 0.1153
1037.60 0.1153
1037.70 0.1152
1037.80 0.1152
1037.90 0.1152
1038.00 0.1152
1038.10 0.1151
1038.20 0.1151
1038.30 0.1151
1038.40 0.115
1038.50 0.115
1038.60 0.115
1038.70 0.1149
1038.80 0.1149
1038.90 0.1149
1039.00 0.1149
1039.10 0.1148
1039.20 0.1148
1039.30 0.1148
1039.40 0.1147
1039.50 0.1147
1039.60 0.1147
1039.70 0.1147
1039.80 0.1146
1039.90 0.1146
1040.00 0.1146
1040.10 0.1145
1040.20 0.1145
1040.30 0.1145
1040.40 0.1144
1040.50 0.1144
1040.60 0.1144
1040.70 0.1144
1040.80 0.1143
1040.90 0.1143
1041.00 0.1143
1041.10 0.1142
1041.20 0.1142
1041.30 0.1142
1041.40 0.1141
1041.50 0.1141
1041.60 0.1141
1041.70 0.1141
1041.80 0.114
1041.90 0.114
1042.00 0.114
1042.10 0.1139
1042.20 0.1139
1042.30 0.1139
1042.40 0.1138
1042.50 0.1138
1042.60 0.1138
1042.70 0.1137
1042.80 0.1137
1042.90 0.1137
1043.00 0.1136
1043.10 0.1136
1043.20 0.1136
1043.30 0.1135
1043.40 0.1135
1043.50 0.1135
1043.60 0.1134
1043.70 0.1134
1043.80 0.1134
1043.90 0.1133
1044.00 0.1133
1044.10 0.1133
1044.20 0.1132
1044.30 0.1132
1044.40 0.1132
1044.50 0.1131
1044.60 0.1131
1044.70 0.1131
1044.80 0.113
1044.90 0.113
1045.00 0.113
1045.10 0.1129
1045.20 0.1129
1045.30 0.1129
1045.40 0.1128
1045.50 0.1128
1045.60 0.1128
1045.70 0.1127
1045.80 0.1127
1045.90 0.1127
1046.00 0.1126
1046.10 0.1126
1046.20 0.1126
1046.30 0.1125
1046.40 0.1125
1046.50 0.1125
1046.60 0.1124
1046.70 0.1124
1046.80 0.1124
1046.90 0.1123
1047.00 0.1123
1047.10 0.1123
1047.20 0.1122
1047.30 0.1122
1047.40 0.1121
1047.50 0.1121
1047.60 0.1121
1047.70 0.112
1047.80 0.112
1047.90 0.112
1048.00 0.1119
1048.10 0.1119
1048.20 0.1118
1048.30 0.1118
1048.40 0.1118
1048.50 0.1117
1048.60 0.1117
1048.70 0.1117
1048.80 0.1116
1048.90 0.1116
1049.00 0.1115
1049.10 0.1115
1049.20 0.1115
1049.30 0.1114
1049.40 0.1114
1049.50 0.1114
1049.60 0.1113
1049.70 0.1113
1049.80 0.1112
1049.90 0.1112
1050.00 0.1112
1050.10 0.1111
1050.20 0.1111
1050.30 0.1111
1050.40 0.111
1050.50 0.111
1050.60 0.111
1050.70 0.1109
1050.80 0.1109
1050.90 0.1108
1051.00 0.1108
1051.10 0.1108
1051.20 0.1107
1051.30 0.1107
1051.40 0.1107
1051.50 0.1106
1051.60 0.1106
1051.70 0.1105
1051.80 0.1105
1051.90 0.1105
1052.00 0.1104
1052.10 0.1104
1052.20 0.1104
1052.30 0.1103
1052.40 0.1103
1052.50 0.1102
1052.60 0.1102
1052.70 0.1102
1052.80 0.1101
1052.90 0.1101
1053.00 0.11
1053.10 0.11
1053.20 0.1099
1053.30 0.1099
1053.40 0.1099
1053.50 0.1098
1053.60 0.1098
1053.70 0.1097
1053.80 0.1097
1053.90 0.1097
1054.00 0.1096
1054.10 0.1096
1054.20 0.1095
1054.30 0.1095
1054.40 0.1095
1054.50 0.1094
1054.60 0.1094
1054.70 0.1093
1054.80 0.1093
1054.90 0.1093
1055.00 0.1092
1055.10 0.1092
1055.20 0.1091
1055.30 0.1091
1055.40 0.1091
1055.50 0.109
1055.60 0.109
1055.70 0.1089
1055.80 0.1089
1055.90 0.1089
1056.00 0.1088
1056.10 0.1088
1056.20 0.1087
1056.30 0.1087
1056.40 0.1087
1056.50 0.1086
1056.60 0.1086
1056.70 0.1085
1056.80 0.1085
1056.90 0.1085
1057.00 0.1084
1057.10 0.1084
1057.20 0.1083
1057.30 0.1083
1057.40 0.1082
1057.50 0.1082
1057.60 0.1081
1057.70 0.1081
1057.80 0.1081
1057.90 0.108
1058.00 0.108
1058.10 0.1079
1058.20 0.1079
1058.30 0.1078
1058.40 0.1078
1058.50 0.1077
1058.60 0.1077
1058.70 0.1077
1058.80 0.1076
1058.90 0.1076
1059.00 0.1075
1059.10 0.1075
1059.20 0.1074
1059.30 0.1074
1059.40 0.1073
1059.50 0.1073
1059.60 0.1072
1059.70 0.1072
1059.80 0.1072
1059.90 0.1071
1060.00 0.1071
1060.10 0.107
1060.20 0.107
1060.30 0.1069
1060.40 0.1069
1060.50 0.1068
1060.60 0.1068
1060.70 0.1068
1060.80 0.1067
1060.90 0.1067
1061.00 0.1066
1061.10 0.1066
1061.20 0.1065
1061.30 0.1065
1061.40 0.1064
1061.50 0.1064
1061.60 0.1064
1061.70 0.1063
1061.80 0.1063
1061.90 0.1062
1062.00 0.1062
1062.10 0.1061
1062.20 0.1061
1062.30 0.106
1062.40 0.106
1062.50 0.1059
1062.60 0.1059
1062.70 0.1058
1062.80 0.1058
1062.90 0.1057
1063.00 0.1057
1063.10 0.1056
1063.20 0.1056
1063.30 0.1055
1063.40 0.1055
1063.50 0.1054
1063.60 0.1054
1063.70 0.1053
1063.80 0.1053
1063.90 0.1052
1064.00 0.1052
1064.10 0.1051
1064.20 0.1051
1064.30 0.105
1064.40 0.105
1064.50 0.1049
1064.60 0.1049
1064.70 0.1048
1064.80 0.1048
1064.90 0.1047
1065.00 0.1047
1065.10 0.1046
1065.20 0.1046
1065.30 0.1045
1065.40 0.1045
1065.50 0.1044
1065.60 0.1044
1065.70 0.1043
1065.80 0.1043
1065.90 0.1042
1066.00 0.1042
1066.10 0.1041
1066.20 0.104
1066.30 0.104
1066.40 0.1039
1066.50 0.1039
1066.60 0.1038
1066.70 0.1038
1066.80 0.1037
1066.90 0.1037
1067.00 0.1036
1067.10 0.1036
1067.20 0.1035
1067.30 0.1035
1067.40 0.1034
1067.50 0.1033
1067.60 0.1033
1067.70 0.1032
1067.80 0.1032
1067.90 0.1031
1068.00 0.103
1068.10 0.103
1068.20 0.1029
1068.30 0.1029
1068.40 0.1028
1068.50 0.1027
1068.60 0.1027
1068.70 0.1026
1068.80 0.1026
1068.90 0.1025
1069.00 0.1024
1069.10 0.1024
1069.20 0.1023
1069.30 0.1023
1069.40 0.1022
1069.50 0.1021
1069.60 0.1021
1069.70 0.102
1069.80 0.102
1069.90 0.1019
1070.00 0.1018
1070.10 0.1018
1070.20 0.1017
1070.30 0.1017
1070.40 0.1016
1070.50 0.1015
1070.60 0.1015
1070.70 0.1014
1070.80 0.1014
1070.90 0.1013
1071.00 0.1012
1071.10 0.1012
1071.20 0.1011
1071.30 0.1011
1071.40 0.101
1071.50 0.1009
1071.60 0.1009
1071.70 0.1008
1071.80 0.1008
1071.90 0.1007
1072.00 0.1007
1072.10 0.1006
1072.20 0.1005
1072.30 0.1004
1072.40 0.1004
1072.50 0.1003
1072.60 0.1002
1072.70 0.1002
1072.80 0.1001
1072.90 0.1
1073.00 0.09997
1073.10 0.0999
1073.20 0.09983
1073.30 0.09976
1073.40 0.09969
1073.50 0.09962
1073.60 0.09954
1073.70 0.09947
1073.80 0.09939
1073.90 0.09931
1074.00 0.09923
1074.10 0.09916
1074.20 0.09908
1074.30 0.099
1074.40 0.09892
1074.50 0.09885
1074.60 0.09877
1074.70 0.09869
1074.80 0.09861
1074.90 0.09854
1075.00 0.09846
1075.10 0.09838
1075.20 0.0983
1075.30 0.09823
1075.40 0.09815
1075.50 0.09807
1075.60 0.098
1075.70 0.09792
1075.80 0.09784
1075.90 0.09776
1076.00 0.09769
1076.10 0.09761
1076.20 0.09753
1076.30 0.09746
1076.40 0.09738
1076.50 0.0973
1076.60 0.09723
1076.70 0.09715
1076.80 0.09707
1076.90 0.097
1077.00 0.09692
1077.10 0.09683
1077.20 0.09675
1077.30 0.09666
1077.40 0.09658
1077.50 0.09649
1077.60 0.0964
1077.70 0.0963
1077.80 0.09621
1077.90 0.09612
1078.00 0.09603
1078.10 0.09593
1078.20 0.09584
1078.30 0.09575
1078.40 0.09565
1078.50 0.09556
1078.60 0.09547
1078.70 0.09538
1078.80 0.09528
1078.90 0.09519
1079.00 0.0951
1079.10 0.09501
1079.20 0.09491
1079.30 0.09482
1079.40 0.09473
1079.50 0.09463
1079.60 0.09452
1079.70 0.09442
1079.80 0.09431
1079.90 0.09421
1080.00 0.0941
1080.10 0.09399
1080.20 0.09389
1080.30 0.09378
1080.40 0.09368
1080.50 0.09357
1080.60 0.09347
1080.70 0.09336
1080.80 0.09325
1080.90 0.09315
1081.00 0.09304
1081.10 0.09294
1081.20 0.09283
1081.30 0.09273
1081.40 0.09262
1081.50 0.09251
1081.60 0.0924
1081.70 0.09228
1081.80 0.09216
1081.90 0.09205
1082.00 0.09193
1082.10 0.0918
1082.20 0.09168
1082.30 0.09155
1082.40 0.09143
1082.50 0.0913
1082.60 0.09118
1082.70 0.09105
1082.80 0.09093
1082.90 0.0908
1083.00 0.09068
1083.10 0.09055
1083.20 0.09042
1083.30 0.0903
1083.40 0.09017
1083.50 0.09004
1083.60 0.08991
1083.70 0.08977
1083.80 0.08963
1083.90 0.08949
1084.00 0.08935
1084.10 0.08921
1084.20 0.08907
1084.30 0.08893
1084.40 0.08879
1084.50 0.08865
1084.60 0.08849
1084.70 0.08833
1084.80 0.08817
1084.90 0.08801
1085.00 0.08785
1085.10 0.08769
1085.20 0.08753
1085.30 0.08737
1085.40 0.08721
1085.50 0.08705
1085.60 0.08689
1085.70 0.08673
1085.80 0.08657
1085.90 0.08642
1086.00 0.08626
1086.10 0.0861
1086.20 0.08594
1086.30 0.08578
1086.40 0.08562
1086.50 0.08546
1086.60 0.08528
1086.70 0.0851
1086.80 0.08492
1086.90 0.08474
1087.00 0.08456
1087.10 0.08437
1087.20 0.08417
1087.30 0.08398
1087.40 0.08378
1087.50 0.08359
1087.60 0.08339
1087.70 0.0832
1087.80 0.083
1087.90 0.08281
1088.00 0.08261
1088.10 0.08242
1088.20 0.08222
1088.30 0.08203
1088.40 0.08183
1088.50 0.08163
1088.60 0.08142
1088.70 0.0812
1088.80 0.08099
1088.90 0.08077
1089.00 0.08056
1089.10 0.08034
1089.20 0.08013
1089.30 0.07991
1089.40 0.0797
1089.50 0.07949
1089.60 0.07927
1089.70 0.07906
1089.80 0.07884
1089.90 0.07863
1090.00 0.07842
1090.10 0.0782
1090.20 0.07799
1090.30 0.07777
1090.40 0.07756
1090.50 0.07735
1090.60 0.07716
1090.70 0.07696
1090.80 0.07677
1090.90 0.07657
1091.00 0.07638
1091.10 0.07618
1091.20 0.07599
1091.30 0.07579
1091.40 0.0756
1091.50 0.07541
1091.60 0.07521
1091.70 0.07502
1091.80 0.07482
1091.90 0.07463
1092.00 0.07444
1092.10 0.07436
1092.20 0.07427
1092.30 0.07418
1092.40 0.07409
1092.50 0.07401
1092.60 0.07392
1092.70 0.07387
1092.80 0.07392
1092.90 0.07396
1093.00 0.07401
1093.10 0.07414
1093.20 0.07446
1093.30 0.07481
1093.40 0.07525
1093.50 0.07537
1093.60 0.07494
1093.70 0.07448
1093.80 0.07412
1093.90 0.07385
1094.00 0.07376
1094.10 0.07367
1094.20 0.07359
1094.30 0.07354
1094.40 0.07359
1094.50 0.07364
1094.60 0.07369
1094.70 0.07374
1094.80 0.07378
1094.90 0.07383
1095.00 0.07391
1095.10 0.07406
1095.20 0.07421
1095.30 0.07435
1095.40 0.0745
1095.50 0.07465
1095.60 0.07479
1095.70 0.07494
1095.80 0.07509
1095.90 0.07523
1096.00 0.07538
1096.10 0.07553
1096.20 0.07568
1096.30 0.07582
1096.40 0.07597
1096.50 0.07612
1096.60 0.07629
1096.70 0.07646
1096.80 0.07662
1096.90 0.07679
1097.00 0.07696
1097.10 0.07712
1097.20 0.07728
1097.30 0.07744
1097.40 0.0776
1097.50 0.07776
1097.60 0.07792
1097.70 0.07808
1097.80 0.07823
1097.90 0.07839
1098.00 0.07855
1098.10 0.07871
1098.20 0.07887
1098.30 0.07903
1098.40 0.07919
1098.50 0.07934
1098.60 0.07948
1098.70 0.07961
1098.80 0.07974
1098.90 0.07988
1099.00 0.08001
1099.10 0.08015
1099.20 0.08028
1099.30 0.08041
1099.40 0.08055
1099.50 0.08068
1099.60 0.08081
1099.70 0.08095
1099.80 0.08108
1099.90 0.08121
1100.00 0.08135
1100.10 0.08148
1100.20 0.08161
1100.30 0.08175
1100.40 0.08188
1100.50 0.08201
1100.60 0.08211
1100.70 0.08221
1100.80 0.08232
1100.90 0.08242
1101.00 0.08252
1101.10 0.08263
1101.20 0.08273
1101.30 0.08284
1101.40 0.08294
1101.50 0.08304
1101.60 0.08315
1101.70 0.08325
1101.80 0.08335
1101.90 0.08346
1102.00 0.08356
1102.10 0.08365
1102.20 0.08374
1102.30 0.08383
1102.40 0.08391
1102.50 0.084
1102.60 0.08408
1102.70 0.08416
1102.80 0.08424
1102.90 0.08431
1103.00 0.08439
1103.10 0.08447
1103.20 0.08455
1103.30 0.08463
1103.40 0.08471
1103.50 0.08478
1103.60 0.08485
1103.70 0.08491
1103.80 0.08497
1103.90 0.08503
1104.00 0.08509
1104.10 0.08515
1104.20 0.08522
1104.30 0.08528
1104.40 0.08534
1104.50 0.0854
1104.60 0.08546
1104.70 0.08553
1104.80 0.08559
1104.90 0.08565
1105.00 0.08571
1105.10 0.08577
1105.20 0.08583
1105.30 0.08589
1105.40 0.08596
1105.50 0.08601
1105.60 0.08606
1105.70 0.0861
1105.80 0.08615
1105.90 0.0862
1106.00 0.08624
1106.10 0.08629
1106.20 0.08633
1106.30 0.08638
1106.40 0.08642
1106.50 0.08647
1106.60 0.08652
1106.70 0.08656
1106.80 0.08661
1106.90 0.08665
1107.00 0.0867
1107.10 0.08674
1107.20 0.08677
1107.30 0.08681
1107.40 0.08685
1107.50 0.08689
1107.60 0.08692
1107.70 0.08695
1107.80 0.08698
1107.90 0.08701
1108.00 0.08704
1108.10 0.08707
1108.20 0.0871
1108.30 0.08713
1108.40 0.08716
1108.50 0.08719
1108.60 0.08722
1108.70 0.08725
1108.80 0.08728
1108.90 0.08731
1109.00 0.08734
1109.10 0.08737
1109.20 0.0874
1109.30 0.08743
1109.40 0.08746
1109.50 0.08749
1109.60 0.08751
1109.70 0.08753
1109.80 0.08755
1109.90 0.08757
1110.00 0.08758
1110.10 0.0876
1110.20 0.08762
1110.30 0.08764
1110.40 0.08766
1110.50 0.08768
1110.60 0.0877
1110.70 0.08772
1110.80 0.08773
1110.90 0.08775
1111.00 0.08777
1111.10 0.08779
1111.20 0.08781
1111.30 0.08783
1111.40 0.08785
1111.50 0.08787
1111.60 0.08788
1111.70 0.0879
1111.80 0.08792
1111.90 0.08794
1112.00 0.08796
1112.10 0.08797
1112.20 0.08798
1112.30 0.08799
1112.40 0.088
1112.50 0.08801
1112.60 0.08802
1112.70 0.08804
1112.80 0.08805
1112.90 0.08806
1113.00 0.08807
1113.10 0.08808
1113.20 0.08809
1113.30 0.0881
1113.40 0.08811
1113.50 0.08812
1113.60 0.08812
1113.70 0.08812
1113.80 0.08813
1113.90 0.08813
1114.00 0.08813
1114.10 0.08814
1114.20 0.08814
1114.30 0.08814
1114.40 0.08815
1114.50 0.08815
1114.60 0.08815
1114.70 0.08816
1114.80 0.08816
1114.90 0.08816
1115.00 0.08816
1115.10 0.08817
1115.20 0.08817
1115.30 0.08817
1115.40 0.08818
1115.50 0.08818
1115.60 0.08818
1115.70 0.08819
1115.80 0.08819
1115.90 0.08819
1116.00 0.08819
1116.10 0.0882
1116.20 0.0882
1116.30 0.0882
1116.40 0.08821
1116.50 0.08821
1116.60 0.08821
1116.70 0.08822
1116.80 0.08822
1116.90 0.08822
1117.00 0.08823
1117.10 0.08822
1117.20 0.08821
1117.30 0.08821
1117.40 0.0882
1117.50 0.08819
1117.60 0.08819
1117.70 0.08818
1117.80 0.08817
1117.90 0.08817
1118.00 0.08816
1118.10 0.08816
1118.20 0.08815
1118.30 0.08814
1118.40 0.08814
1118.50 0.08813
1118.60 0.08812
1118.70 0.08812
1118.80 0.08811
1118.90 0.0881
1119.00 0.0881
1119.10 0.08809
1119.20 0.08809
1119.30 0.08808
1119.40 0.08807
1119.50 0.08807
1119.60 0.08806
1119.70 0.08805
1119.80 0.08805
1119.90 0.08804
1120.00 0.08804
1120.10 0.08803
1120.20 0.08802
1120.30 0.08802
1120.40 0.08801
1120.50 0.088
1120.60 0.088
1120.70 0.08799
1120.80 0.08798
1120.90 0.08798
1121.00 0.08797
1121.10 0.08797
1121.20 0.08796
1121.30 0.08795
1121.40 0.08795
1121.50 0.08794
1121.60 0.08793
1121.70 0.08793
1121.80 0.08792
1121.90 0.08792
1122.00 0.08791
1122.10 0.0879
1122.20 0.08788
1122.30 0.08787
1122.40 0.08786
1122.50 0.08784
1122.60 0.08783
1122.70 0.08782
1122.80 0.0878
1122.90 0.08779
1123.00 0.08778
1123.10 0.08776
1123.20 0.08775
1123.30 0.08773
1123.40 0.08772
1123.50 0.08771
1123.60 0.08769
1123.70 0.08768
1123.80 0.08767
1123.90 0.08765
1124.00 0.08764
1124.10 0.08763
1124.20 0.08761
1124.30 0.0876
1124.40 0.08759
1124.50 0.08757
1124.60 0.08756
1124.70 0.08755
1124.80 0.08753
1124.90 0.08752
1125.00 0.08751
1125.10 0.08749
1125.20 0.08748
1125.30 0.08747
1125.40 0.08746
1125.50 0.08744
1125.60 0.08743
1125.70 0.08742
1125.80 0.0874
1125.90 0.08739
1126.00 0.08738
1126.10 0.08736
1126.20 0.08735
1126.30 0.08734
1126.40 0.08732
1126.50 0.08731
1126.60 0.0873
1126.70 0.08728
1126.80 0.08727
1126.90 0.08726
1127.00 0.08724
1127.10 0.08723
1127.20 0.08721
1127.30 0.08719
1127.40 0.08717
1127.50 0.08716
1127.60 0.08714
1127.70 0.08712
1127.80 0.0871
1127.90 0.08709
1128.00 0.08707
1128.10 0.08705
1128.20 0.08703
1128.30 0.08702
1128.40 0.087
1128.50 0.08698
1128.60 0.08697
1128.70 0.08695
1128.80 0.08693
1128.90 0.08691
1129.00 0.0869
1129.10 0.08688
1129.20 0.08686
1129.30 0.08684
1129.40 0.08683
1129.50 0.08681
1129.60 0.08679
1129.70 0.08678
1129.80 0.08676
1129.90 0.08674
1130.00 0.08672
1130.10 0.08671
1130.20 0.08669
1130.30 0.08667
1130.40 0.08665
1130.50 0.08664
1130.60 0.08662
1130.70 0.0866
1130.80 0.08659
1130.90 0.08657
1131.00 0.08655
1131.10 0.08653
1131.20 0.08652
1131.30 0.0865
1131.40 0.08648
1131.50 0.08647
1131.60 0.08645
1131.70 0.08643
1131.80 0.08641
1131.90 0.0864
1132.00 0.08638
1132.10 0.08636
1132.20 0.08634
1132.30 0.08632
1132.40 0.0863
1132.50 0.08628
1132.60 0.08626
1132.70 0.08624
1132.80 0.08622
1132.90 0.0862
1133.00 0.08618
1133.10 0.08616
1133.20 0.08614
1133.30 0.08612
1133.40 0.0861
1133.50 0.08608
1133.60 0.08606
1133.70 0.08604
1133.80 0.08602
1133.90 0.086
1134.00 0.08598
1134.10 0.08596
1134.20 0.08594
1134.30 0.08592
1134.40 0.0859
1134.50 0.08588
1134.60 0.08586
1134.70 0.08584
1134.80 0.08582
1134.90 0.0858
1135.00 0.08578
1135.10 0.08576
1135.20 0.08574
1135.30 0.08572
1135.40 0.0857
1135.50 0.08568
1135.60 0.08566
1135.70 0.08564
1135.80 0.08562
1135.90 0.0856
1136.00 0.08558
1136.10 0.08556
1136.20 0.08554
1136.30 0.08552
1136.40 0.0855
1136.50 0.08548
1136.60 0.08546
1136.70 0.08544
1136.80 0.08542
1136.90 0.0854
1137.00 0.08538
1137.10 0.08536
1137.20 0.08534
1137.30 0.08532
1137.40 0.0853
1137.50 0.08528
1137.60 0.08525
1137.70 0.08523
1137.80 0.08521
1137.90 0.08519
1138.00 0.08517
1138.10 0.08515
1138.20 0.08513
1138.30 0.08511
1138.40 0.08508
1138.50 0.08506
1138.60 0.08504
1138.70 0.08502
1138.80 0.085
1138.90 0.08498
1139.00 0.08496
1139.10 0.08494
1139.20 0.08491
1139.30 0.08489
1139.40 0.08487
1139.50 0.08485
1139.60 0.08483
1139.70 0.08481
1139.80 0.08479
1139.90 0.08477
1140.00 0.08474
1140.10 0.08472
1140.20 0.0847
1140.30 0.08468
1140.40 0.08466
1140.50 0.08464
1140.60 0.08462
1140.70 0.0846
1140.80 0.08458
1140.90 0.08455
1141.00 0.08453
1141.10 0.08451
1141.20 0.08449
1141.30 0.08447
1141.40 0.08445
1141.50 0.08443
1141.60 0.08441
1141.70 0.08439
1141.80 0.08436
1141.90 0.08434
1142.00 0.08432
1142.10 0.0843
1142.20 0.08428
1142.30 0.08426
1142.40 0.08423
1142.50 0.08421
1142.60 0.08419
1142.70 0.08417
1142.80 0.08414
1142.90 0.08412
1143.00 0.0841
1143.10 0.08408
1143.20 0.08405
1143.30 0.08403
1143.40 0.08401
1143.50 0.08399
1143.60 0.08396
1143.70 0.08394
1143.80 0.08392
1143.90 0.0839
1144.00 0.08387
1144.10 0.08385
1144.20 0.08383
1144.30 0.08381
1144.40 0.08378
1144.50 0.08376
1144.60 0.08374
1144.70 0.08372
1144.80 0.0837
1144.90 0.08367
1145.00 0.08365
1145.10 0.08363
1145.20 0.08361
1145.30 0.08358
1145.40 0.08356
1145.50 0.08354
1145.60 0.08352
1145.70 0.08349
1145.80 0.08347
1145.90 0.08345
1146.00 0.08343
1146.10 0.08341
1146.20 0.08338
1146.30 0.08336
1146.40 0.08334
1146.50 0.08332
1146.60 0.08329
1146.70 0.08327
1146.80 0.08325
1146.90 0.08323
1147.00 0.08321
1147.10 0.08318
1147.20 0.08316
1147.30 0.08314
1147.40 0.08311
1147.50 0.08309
1147.60 0.08307
1147.70 0.08305
1147.80 0.08302
1147.90 0.083
1148.00 0.08298
1148.10 0.08295
1148.20 0.08293
1148.30 0.08291
1148.40 0.08289
1148.50 0.08286
1148.60 0.08284
1148.70 0.08282
1148.80 0.08279
1148.90 0.08277
1149.00 0.08275
1149.10 0.08273
1149.20 0.0827
1149.30 0.08268
1149.40 0.08266
1149.50 0.08264
1149.60 0.08261
1149.70 0.08259
1149.80 0.08257
1149.90 0.08254
1150.00 0.08252
1150.10 0.0825
1150.20 0.08248
1150.30 0.08245
1150.40 0.08243
1150.50 0.08241
1150.60 0.08239
1150.70 0.08236
1150.80 0.08234
1150.90 0.08232
1151.00 0.0823
1151.10 0.08227
1151.20 0.08225
1151.30 0.08223
1151.40 0.08221
1151.50 0.08218
1151.60 0.08216
1151.70 0.08214
1151.80 0.08212
1151.90 0.08209
1152.00 0.08207
1152.10 0.08205
1152.20 0.08202
1152.30 0.082
1152.40 0.08198
1152.50 0.08195
1152.60 0.08193
1152.70 0.08191
1152.80 0.08189
1152.90 0.08186
1153.00 0.08184
1153.10 0.08182
1153.20 0.08179
1153.30 0.08177
1153.40 0.08175
1153.50 0.08172
1153.60 0.0817
1153.70 0.08168
1153.80 0.08166
1153.90 0.08163
1154.00 0.08161
1154.10 0.08159
1154.20 0.08156
1154.30 0.08154
1154.40 0.08152
1154.50 0.08149
1154.60 0.08147
1154.70 0.08145
1154.80 0.08143
1154.90 0.0814
1155.00 0.08138
1155.10 0.08136
1155.20 0.08133
1155.30 0.08131
1155.40 0.08129
1155.50 0.08127
1155.60 0.08124
1155.70 0.08122
1155.80 0.0812
1155.90 0.08117
1156.00 0.08115
1156.10 0.08113
1156.20 0.08111
1156.30 0.08108
1156.40 0.08106
1156.50 0.08104
1156.60 0.08102
1156.70 0.08099
1156.80 0.08097
1156.90 0.08095
1157.00 0.08092
1157.10 0.0809
1157.20 0.08088
1157.30 0.08086
1157.40 0.08083
1157.50 0.08081
1157.60 0.08079
1157.70 0.08076
1157.80 0.08074
1157.90 0.08072
1158.00 0.08069
1158.10 0.08067
1158.20 0.08065
1158.30 0.08063
1158.40 0.0806
1158.50 0.08058
1158.60 0.08056
1158.70 0.08053
1158.80 0.08051
1158.90 0.08049
1159.00 0.08047
1159.10 0.08044
1159.20 0.08042
1159.30 0.0804
1159.40 0.08037
1159.50 0.08035
1159.60 0.08033
1159.70 0.08031
1159.80 0.08028
1159.90 0.08026
1160.00 0.08024
1160.10 0.08021
1160.20 0.08019
1160.30 0.08017
1160.40 0.08015
1160.50 0.08012
1160.60 0.0801
1160.70 0.08008
1160.80 0.08005
1160.90 0.08003
1161.00 0.08001
1161.10 0.07999
1161.20 0.07996
1161.30 0.07994
1161.40 0.07992
1161.50 0.0799
1161.60 0.07987
1161.70 0.07985
1161.80 0.07983
1161.90 0.0798
1162.00 0.07978
1162.10 0.07976
1162.20 0.07974
1162.30 0.07971
1162.40 0.07969
1162.50 0.07967
1162.60 0.07964
1162.70 0.07962
1162.80 0.0796
1162.90 0.07957
1163.00 0.07955
1163.10 0.07953
1163.20 0.07951
1163.30 0.07948
1163.40 0.07946
1163.50 0.07944
1163.60 0.07941
1163.70 0.07939
1163.80 0.07937
1163.90 0.07935
1164.00 0.07932
1164.10 0.0793
1164.20 0.07928
1164.30 0.07925
1164.40 0.07923
1164.50 0.07921
1164.60 0.07918
1164.70 0.07916
1164.80 0.07914
1164.90 0.07912
1165.00 0.07909
1165.10 0.07907
1165.20 0.07905
1165.30 0.07902
1165.40 0.079
1165.50 0.07898
1165.60 0.07896
1165.70 0.07893
1165.80 0.07891
1165.90 0.07889
1166.00 0.07887
1166.10 0.07884
1166.20 0.07882
1166.30 0.0788
1166.40 0.07877
1166.50 0.07875
1166.60 0.07873
1166.70 0.07871
1166.80 0.07868
1166.90 0.07866
1167.00 0.07864
1167.10 0.07861
1167.20 0.07859
1167.30 0.07857
1167.40 0.07855
1167.50 0.07852
1167.60 0.0785
1167.70 0.07848
1167.80 0.07845
1167.90 0.07843
1168.00 0.07841
1168.10 0.07839
1168.20 0.07836
1168.30 0.07834
1168.40 0.07832
1168.50 0.0783
1168.60 0.07827
1168.70 0.07825
1168.80 0.07823
1168.90 0.0782
1169.00 0.07818
1169.10 0.07816
1169.20 0.07814
1169.30 0.07811
1169.40 0.07809
1169.50 0.07807
1169.60 0.07805
1169.70 0.07802
1169.80 0.078
1169.90 0.07798
1170.00 0.07795
1170.10 0.07793
1170.20 0.07791
1170.30 0.07789
1170.40 0.07786
1170.50 0.07784
1170.60 0.07782
1170.70 0.0778
1170.80 0.07777
1170.90 0.07775
1171.00 0.07773
1171.10 0.07771
1171.20 0.07768
1171.30 0.07766
1171.40 0.07764
1171.50 0.07762
1171.60 0.07759
1171.70 0.07757
1171.80 0.07755
1171.90 0.07752
1172.00 0.0775
1172.10 0.07748
1172.20 0.07746
1172.30 0.07743
1172.40 0.07741
1172.50 0.07739
1172.60 0.07737
1172.70 0.07734
1172.80 0.07732
1172.90 0.0773
1173.00 0.07728
1173.10 0.07725
1173.20 0.07723
1173.30 0.07721
1173.40 0.07719
1173.50 0.07716
1173.60 0.07714
1173.70 0.07712
1173.80 0.0771
1173.90 0.07707
1174.00 0.07705
1174.10 0.07703
1174.20 0.07701
1174.30 0.07698
1174.40 0.07696
1174.50 0.07694
1174.60 0.07692
1174.70 0.07689
1174.80 0.07687
1174.90 0.07685
1175.00 0.07683
1175.10 0.0768
1175.20 0.07678
1175.30 0.07676
1175.40 0.07674
1175.50 0.07671
1175.60 0.07669
1175.70 0.07667
1175.80 0.07665
1175.90 0.07662
1176.00 0.0766
1176.10 0.07658
1176.20 0.07656
1176.30 0.07653
1176.40 0.07651
1176.50 0.07649
1176.60 0.07647
1176.70 0.07645
1176.80 0.07642
1176.90 0.0764
1177.00 0.07638
1177.10 0.07636
1177.20 0.07633
1177.30 0.07631
1177.40 0.07629
1177.50 0.07627
1177.60 0.07624
1177.70 0.07622
1177.80 0.0762
1177.90 0.07618
1178.00 0.07616
1178.10 0.07613
1178.20 0.07611
1178.30 0.07609
1178.40 0.07607
1178.50 0.07604
1178.60 0.07602
1178.70 0.076
1178.80 0.07598
1178.90 0.07595
1179.00 0.07593
1179.10 0.07591
1179.20 0.07589
1179.30 0.07587
1179.40 0.07584
1179.50 0.07582
1179.60 0.0758
1179.70 0.07578
1179.80 0.07575
1179.90 0.07573
1180.00 0.07571
1180.10 0.07569
1180.20 0.07567
1180.30 0.07564
1180.40 0.07562
1180.50 0.0756
1180.60 0.07558
1180.70 0.07556
1180.80 0.07553
1180.90 0.07551
1181.00 0.07549
1181.10 0.07547
1181.20 0.07544
1181.30 0.07542
1181.40 0.0754
1181.50 0.07538
1181.60 0.07536
1181.70 0.07533
1181.80 0.07531
1181.90 0.07529
1182.00 0.07527
1182.10 0.07525
1182.20 0.07522
1182.30 0.0752
1182.40 0.07518
1182.50 0.07516
1182.60 0.07513
1182.70 0.07511
1182.80 0.07509
1182.90 0.07507
1183.00 0.07505
1183.10 0.07502
1183.20 0.075
1183.30 0.07498
1183.40 0.07496
1183.50 0.07494
1183.60 0.07491
1183.70 0.07489
1183.80 0.07487
1183.90 0.07485
1184.00 0.07482
1184.10 0.0748
1184.20 0.07478
1184.30 0.07476
1184.40 0.07474
1184.50 0.07471
1184.60 0.07469
1184.70 0.07467
1184.80 0.07465
1184.90 0.07463
1185.00 0.0746
1185.10 0.07458
1185.20 0.07456
1185.30 0.07454
1185.40 0.07452
1185.50 0.07449
1185.60 0.07447
1185.70 0.07445
1185.80 0.07443
1185.90 0.07441
1186.00 0.07438
1186.10 0.07436
1186.20 0.07434
1186.30 0.07432
1186.40 0.0743
1186.50 0.07427
1186.60 0.07425
1186.70 0.07423
1186.80 0.07421
1186.90 0.07419
1187.00 0.07416
1187.10 0.07414
1187.20 0.07412
1187.30 0.0741
1187.40 0.07408
1187.50 0.07405
1187.60 0.07403
1187.70 0.07401
1187.80 0.07399
1187.90 0.07397
1188.00 0.07394
1188.10 0.07392
1188.20 0.0739
1188.30 0.07388
1188.40 0.07386
1188.50 0.07383
1188.60 0.07381
1188.70 0.07379
1188.80 0.07377
1188.90 0.07375
1189.00 0.07373
1189.10 0.0737
1189.20 0.07368
1189.30 0.07366
1189.40 0.07364
1189.50 0.07362
1189.60 0.07359
1189.70 0.07357
1189.80 0.07355
1189.90 0.07353
1190.00 0.07351
1190.10 0.07349
1190.20 0.07346
1190.30 0.07344
1190.40 0.07342
1190.50 0.0734
1190.60 0.07338
1190.70 0.07335
1190.80 0.07333
1190.90 0.07331
1191.00 0.07329
1191.10 0.07327
1191.20 0.07325
1191.30 0.07322
1191.40 0.0732
1191.50 0.07318
1191.60 0.07316
1191.70 0.07314
1191.80 0.07312
1191.90 0.07309
1192.00 0.07307
1192.10 0.07305
1192.20 0.07303
1192.30 0.07301
1192.40 0.07299
1192.50 0.07296
1192.60 0.07294
1192.70 0.07292
1192.80 0.0729
1192.90 0.07288
1193.00 0.07286
1193.10 0.07283
1193.20 0.07281
1193.30 0.07279
1193.40 0.07277
1193.50 0.07275
1193.60 0.07273
1193.70 0.0727
1193.80 0.07268
1193.90 0.07266
1194.00 0.07264
1194.10 0.07262
1194.20 0.0726
1194.30 0.07257
1194.40 0.07255
1194.50 0.07253
1194.60 0.07251
1194.70 0.07249
1194.80 0.07247
1194.90 0.07245
1195.00 0.07242
1195.10 0.0724
1195.20 0.07238
1195.30 0.07236
1195.40 0.07234
1195.50 0.07232
1195.60 0.07229
1195.70 0.07227
1195.80 0.07225
1195.90 0.07223
1196.00 0.07221
1196.10 0.07219
1196.20 0.07217
1196.30 0.07214
1196.40 0.07212
1196.50 0.0721
1196.60 0.07208
1196.70 0.07206
1196.80 0.07204
1196.90 0.07202
1197.00 0.07199
1197.10 0.07197
1197.20 0.07195
1197.30 0.07193
1197.40 0.07191
1197.50 0.07189
1197.60 0.07187
1197.70 0.07184
1197.80 0.07182
1197.90 0.0718
1198.00 0.07178
1198.10 0.07176
1198.20 0.07174
1198.30 0.07172
1198.40 0.07169
1198.50 0.07167
1198.60 0.07165
1198.70 0.07163
1198.80 0.07161
1198.90 0.07159
1199.00 0.07157
1199.10 0.07154
1199.20 0.07152
1199.30 0.0715
1199.40 0.07148
1199.50 0.07146
1199.60 0.07144
1199.70 0.07142
1199.80 0.0714
1199.90 0.07137
1200.00 0
