# Version 2.1 - nm, norm@500 to 1, cut digits, bergeron_4750_90.dat_4750
# Wavelength(nm)  Flambda(ergs/cm^s/s/nm)
300.00 0.3188
300.10 0.3192
300.20 0.3197
300.30 0.3201
300.40 0.3205
300.50 0.321
300.60 0.3214
300.70 0.3218
300.80 0.3223
300.90 0.3227
301.00 0.3231
301.10 0.3236
301.20 0.324
301.30 0.3244
301.40 0.3249
301.50 0.3253
301.60 0.3257
301.70 0.3261
301.80 0.3266
301.90 0.327
302.00 0.3274
302.10 0.3279
302.20 0.3283
302.30 0.3287
302.40 0.3292
302.50 0.3296
302.60 0.33
302.70 0.3305
302.80 0.3309
302.90 0.3313
303.00 0.3318
303.10 0.3322
303.20 0.3326
303.30 0.3331
303.40 0.3335
303.50 0.3339
303.60 0.3344
303.70 0.3348
303.80 0.3352
303.90 0.3356
304.00 0.3361
304.10 0.3365
304.20 0.337
304.30 0.3374
304.40 0.3378
304.50 0.3383
304.60 0.3387
304.70 0.3391
304.80 0.3396
304.90 0.34
305.00 0.3405
305.10 0.3409
305.20 0.3413
305.30 0.3418
305.40 0.3422
305.50 0.3426
305.60 0.3431
305.70 0.3435
305.80 0.3439
305.90 0.3443
306.00 0.3448
306.10 0.3452
306.20 0.3457
306.30 0.3461
306.40 0.3465
306.50 0.347
306.60 0.3474
306.70 0.3479
306.80 0.3483
306.90 0.3487
307.00 0.3492
307.10 0.3496
307.20 0.3501
307.30 0.3505
307.40 0.3509
307.50 0.3514
307.60 0.3518
307.70 0.3522
307.80 0.3527
307.90 0.3531
308.00 0.3535
308.10 0.354
308.20 0.3544
308.30 0.3549
308.40 0.3553
308.50 0.3557
308.60 0.3562
308.70 0.3566
308.80 0.3571
308.90 0.3575
309.00 0.3579
309.10 0.3584
309.20 0.3588
309.30 0.3593
309.40 0.3597
309.50 0.3601
309.60 0.3606
309.70 0.361
309.80 0.3614
309.90 0.3619
310.00 0.3623
310.10 0.3628
310.20 0.3632
310.30 0.3637
310.40 0.3641
310.50 0.3645
310.60 0.365
310.70 0.3654
310.80 0.3659
310.90 0.3663
311.00 0.3668
311.10 0.3672
311.20 0.3677
311.30 0.3681
311.40 0.3685
311.50 0.369
311.60 0.3694
311.70 0.3698
311.80 0.3703
311.90 0.3707
312.00 0.3712
312.10 0.3716
312.20 0.372
312.30 0.3725
312.40 0.3729
312.50 0.3734
312.60 0.3738
312.70 0.3743
312.80 0.3747
312.90 0.3752
313.00 0.3756
313.10 0.376
313.20 0.3765
313.30 0.3769
313.40 0.3774
313.50 0.3778
313.60 0.3783
313.70 0.3787
313.80 0.3791
313.90 0.3796
314.00 0.38
314.10 0.3805
314.20 0.3809
314.30 0.3814
314.40 0.3818
314.50 0.3823
314.60 0.3827
314.70 0.3831
314.80 0.3836
314.90 0.384
315.00 0.3845
315.10 0.3849
315.20 0.3854
315.30 0.3858
315.40 0.3863
315.50 0.3867
315.60 0.3871
315.70 0.3876
315.80 0.388
315.90 0.3885
316.00 0.3889
316.10 0.3894
316.20 0.3898
316.30 0.3903
316.40 0.3907
316.50 0.3912
316.60 0.3916
316.70 0.392
316.80 0.3925
316.90 0.3929
317.00 0.3934
317.10 0.3938
317.20 0.3943
317.30 0.3947
317.40 0.3952
317.50 0.3956
317.60 0.3961
317.70 0.3965
317.80 0.3969
317.90 0.3974
318.00 0.3978
318.10 0.3983
318.20 0.3987
318.30 0.3992
318.40 0.3996
318.50 0.4001
318.60 0.4005
318.70 0.401
318.80 0.4014
318.90 0.4019
319.00 0.4023
319.10 0.4028
319.20 0.4032
319.30 0.4037
319.40 0.4041
319.50 0.4045
319.60 0.405
319.70 0.4054
319.80 0.4059
319.90 0.4063
320.00 0.4068
320.10 0.4072
320.20 0.4077
320.30 0.4081
320.40 0.4086
320.50 0.409
320.60 0.4095
320.70 0.4099
320.80 0.4104
320.90 0.4108
321.00 0.4113
321.10 0.4117
321.20 0.4122
321.30 0.4126
321.40 0.4131
321.50 0.4135
321.60 0.414
321.70 0.4144
321.80 0.4148
321.90 0.4153
322.00 0.4157
322.10 0.4162
322.20 0.4166
322.30 0.4171
322.40 0.4175
322.50 0.418
322.60 0.4184
322.70 0.4189
322.80 0.4193
322.90 0.4198
323.00 0.4202
323.10 0.4207
323.20 0.4211
323.30 0.4216
323.40 0.422
323.50 0.4225
323.60 0.4229
323.70 0.4234
323.80 0.4238
323.90 0.4243
324.00 0.4247
324.10 0.4252
324.20 0.4256
324.30 0.4261
324.40 0.4265
324.50 0.427
324.60 0.4274
324.70 0.4279
324.80 0.4283
324.90 0.4288
325.00 0.4292
325.10 0.4297
325.20 0.4301
325.30 0.4306
325.40 0.431
325.50 0.4315
325.60 0.4319
325.70 0.4324
325.80 0.4328
325.90 0.4333
326.00 0.4337
326.10 0.4341
326.20 0.4346
326.30 0.4351
326.40 0.4355
326.50 0.436
326.60 0.4364
326.70 0.4369
326.80 0.4373
326.90 0.4378
327.00 0.4382
327.10 0.4387
327.20 0.4391
327.30 0.4396
327.40 0.44
327.50 0.4405
327.60 0.4409
327.70 0.4414
327.80 0.4418
327.90 0.4422
328.00 0.4427
328.10 0.4431
328.20 0.4436
328.30 0.444
328.40 0.4445
328.50 0.445
328.60 0.4454
328.70 0.4459
328.80 0.4463
328.90 0.4468
329.00 0.4472
329.10 0.4477
329.20 0.4481
329.30 0.4486
329.40 0.449
329.50 0.4495
329.60 0.4499
329.70 0.4503
329.80 0.4508
329.90 0.4512
330.00 0.4517
330.10 0.4521
330.20 0.4526
330.30 0.453
330.40 0.4535
330.50 0.454
330.60 0.4544
330.70 0.4549
330.80 0.4553
330.90 0.4558
331.00 0.4562
331.10 0.4567
331.20 0.4571
331.30 0.4576
331.40 0.458
331.50 0.4585
331.60 0.4589
331.70 0.4593
331.80 0.4598
331.90 0.4602
332.00 0.4607
332.10 0.4611
332.20 0.4616
332.30 0.462
332.40 0.4625
332.50 0.463
332.60 0.4634
332.70 0.4639
332.80 0.4643
332.90 0.4648
333.00 0.4652
333.10 0.4657
333.20 0.4661
333.30 0.4666
333.40 0.467
333.50 0.4674
333.60 0.4679
333.70 0.4683
333.80 0.4688
333.90 0.4692
334.00 0.4697
334.10 0.4701
334.20 0.4706
334.30 0.471
334.40 0.4715
334.50 0.4719
334.60 0.4724
334.70 0.4728
334.80 0.4733
334.90 0.4737
335.00 0.4742
335.10 0.4746
335.20 0.4751
335.30 0.4755
335.40 0.476
335.50 0.4764
335.60 0.4769
335.70 0.4773
335.80 0.4778
335.90 0.4782
336.00 0.4787
336.10 0.4791
336.20 0.4796
336.30 0.48
336.40 0.4805
336.50 0.4809
336.60 0.4814
336.70 0.4818
336.80 0.4823
336.90 0.4827
337.00 0.4832
337.10 0.4836
337.20 0.4841
337.30 0.4845
337.40 0.485
337.50 0.4854
337.60 0.4859
337.70 0.4863
337.80 0.4868
337.90 0.4872
338.00 0.4876
338.10 0.4881
338.20 0.4886
338.30 0.489
338.40 0.4895
338.50 0.4899
338.60 0.4904
338.70 0.4908
338.80 0.4913
338.90 0.4917
339.00 0.4922
339.10 0.4926
339.20 0.4931
339.30 0.4935
339.40 0.4939
339.50 0.4944
339.60 0.4948
339.70 0.4953
339.80 0.4957
339.90 0.4962
340.00 0.4966
340.10 0.4971
340.20 0.4975
340.30 0.498
340.40 0.4984
340.50 0.4989
340.60 0.4993
340.70 0.4998
340.80 0.5002
340.90 0.5007
341.00 0.5011
341.10 0.5016
341.20 0.502
341.30 0.5025
341.40 0.5029
341.50 0.5033
341.60 0.5038
341.70 0.5042
341.80 0.5047
341.90 0.5051
342.00 0.5056
342.10 0.506
342.20 0.5065
342.30 0.5069
342.40 0.5074
342.50 0.5078
342.60 0.5083
342.70 0.5087
342.80 0.5092
342.90 0.5096
343.00 0.5101
343.10 0.5105
343.20 0.5109
343.30 0.5114
343.40 0.5118
343.50 0.5123
343.60 0.5127
343.70 0.5132
343.80 0.5136
343.90 0.514
344.00 0.5145
344.10 0.5149
344.20 0.5154
344.30 0.5158
344.40 0.5163
344.50 0.5167
344.60 0.5172
344.70 0.5176
344.80 0.5181
344.90 0.5185
345.00 0.519
345.10 0.5194
345.20 0.5199
345.30 0.5203
345.40 0.5208
345.50 0.5212
345.60 0.5216
345.70 0.5221
345.80 0.5225
345.90 0.523
346.00 0.5234
346.10 0.5239
346.20 0.5243
346.30 0.5248
346.40 0.5252
346.50 0.5256
346.60 0.5261
346.70 0.5265
346.80 0.527
346.90 0.5274
347.00 0.5279
347.10 0.5283
347.20 0.5288
347.30 0.5292
347.40 0.5296
347.50 0.5301
347.60 0.5305
347.70 0.531
347.80 0.5314
347.90 0.5318
348.00 0.5323
348.10 0.5327
348.20 0.5332
348.30 0.5336
348.40 0.5341
348.50 0.5345
348.60 0.535
348.70 0.5354
348.80 0.5359
348.90 0.5363
349.00 0.5367
349.10 0.5372
349.20 0.5376
349.30 0.5381
349.40 0.5385
349.50 0.5389
349.60 0.5394
349.70 0.5398
349.80 0.5403
349.90 0.5407
350.00 0.5411
350.10 0.5416
350.20 0.542
350.30 0.5425
350.40 0.5429
350.50 0.5434
350.60 0.5438
350.70 0.5442
350.80 0.5447
350.90 0.5451
351.00 0.5456
351.10 0.546
351.20 0.5465
351.30 0.5469
351.40 0.5473
351.50 0.5478
351.60 0.5482
351.70 0.5486
351.80 0.5491
351.90 0.5495
352.00 0.55
352.10 0.5504
352.20 0.5508
352.30 0.5513
352.40 0.5517
352.50 0.5522
352.60 0.5526
352.70 0.5531
352.80 0.5535
352.90 0.5539
353.00 0.5544
353.10 0.5548
353.20 0.5553
353.30 0.5557
353.40 0.5561
353.50 0.5566
353.60 0.557
353.70 0.5574
353.80 0.5579
353.90 0.5583
354.00 0.5587
354.10 0.5592
354.20 0.5596
354.30 0.5601
354.40 0.5605
354.50 0.561
354.60 0.5614
354.70 0.5618
354.80 0.5623
354.90 0.5627
355.00 0.5631
355.10 0.5636
355.20 0.564
355.30 0.5645
355.40 0.5649
355.50 0.5653
355.60 0.5658
355.70 0.5662
355.80 0.5666
355.90 0.5671
356.00 0.5675
356.10 0.5679
356.20 0.5684
356.30 0.5688
356.40 0.5693
356.50 0.5697
356.60 0.5701
356.70 0.5706
356.80 0.571
356.90 0.5714
357.00 0.5719
357.10 0.5723
357.20 0.5727
357.30 0.5732
357.40 0.5736
357.50 0.5741
357.60 0.5745
357.70 0.5749
357.80 0.5753
357.90 0.5758
358.00 0.5762
358.10 0.5766
358.20 0.5771
358.30 0.5775
358.40 0.578
358.50 0.5784
358.60 0.5788
358.70 0.5793
358.80 0.5797
358.90 0.5801
359.00 0.5806
359.10 0.581
359.20 0.5814
359.30 0.5819
359.40 0.5823
359.50 0.5827
359.60 0.5832
359.70 0.5836
359.80 0.584
359.90 0.5844
360.00 0.5849
360.10 0.5853
360.20 0.5857
360.30 0.5862
360.40 0.5866
360.50 0.5871
360.60 0.5875
360.70 0.5879
360.80 0.5884
360.90 0.5888
361.00 0.5892
361.10 0.5896
361.20 0.5901
361.30 0.5905
361.40 0.5909
361.50 0.5914
361.60 0.5918
361.70 0.5922
361.80 0.5927
361.90 0.5931
362.00 0.5935
362.10 0.5939
362.20 0.5944
362.30 0.5948
362.40 0.5952
362.50 0.5957
362.60 0.5961
362.70 0.5965
362.80 0.5969
362.90 0.5974
363.00 0.5978
363.10 0.5982
363.20 0.5987
363.30 0.5991
363.40 0.5995
363.50 0.5999
363.60 0.6004
363.70 0.6008
363.80 0.6012
363.90 0.6017
364.00 0.6021
364.10 0.6025
364.20 0.6029
364.30 0.6034
364.40 0.6038
364.50 0.6042
364.60 0.6046
364.70 0.6051
364.80 0.6055
364.90 0.6059
365.00 0.6064
365.10 0.6068
365.20 0.6072
365.30 0.6076
365.40 0.6081
365.50 0.6085
365.60 0.6089
365.70 0.6093
365.80 0.6098
365.90 0.6102
366.00 0.6106
366.10 0.611
366.20 0.6115
366.30 0.6119
366.40 0.6123
366.50 0.6127
366.60 0.6132
366.70 0.6136
366.80 0.614
366.90 0.6144
367.00 0.6149
367.10 0.6153
367.20 0.6157
367.30 0.6161
367.40 0.6166
367.50 0.617
367.60 0.6174
367.70 0.6178
367.80 0.6182
367.90 0.6187
368.00 0.6191
368.10 0.6195
368.20 0.6199
368.30 0.6204
368.40 0.6208
368.50 0.6212
368.60 0.6216
368.70 0.6221
368.80 0.6225
368.90 0.6229
369.00 0.6233
369.10 0.6237
369.20 0.6242
369.30 0.6246
369.40 0.625
369.50 0.6254
369.60 0.6258
369.70 0.6263
369.80 0.6267
369.90 0.6271
370.00 0.6275
370.10 0.6279
370.20 0.6283
370.30 0.6288
370.40 0.6292
370.50 0.6296
370.60 0.63
370.70 0.6305
370.80 0.6309
370.90 0.6313
371.00 0.6317
371.10 0.6321
371.20 0.6325
371.30 0.633
371.40 0.6334
371.50 0.6338
371.60 0.6342
371.70 0.6346
371.80 0.635
371.90 0.6355
372.00 0.6359
372.10 0.6363
372.20 0.6367
372.30 0.6371
372.40 0.6375
372.50 0.638
372.60 0.6384
372.70 0.6388
372.80 0.6392
372.90 0.6396
373.00 0.64
373.10 0.6405
373.20 0.6409
373.30 0.6413
373.40 0.6417
373.50 0.6421
373.60 0.6425
373.70 0.6429
373.80 0.6434
373.90 0.6438
374.00 0.6442
374.10 0.6446
374.20 0.645
374.30 0.6454
374.40 0.6458
374.50 0.6463
374.60 0.6467
374.70 0.6471
374.80 0.6475
374.90 0.6479
375.00 0.6483
375.10 0.6487
375.20 0.6492
375.30 0.6496
375.40 0.65
375.50 0.6504
375.60 0.6508
375.70 0.6512
375.80 0.6516
375.90 0.652
376.00 0.6524
376.10 0.6528
376.20 0.6533
376.30 0.6537
376.40 0.6541
376.50 0.6545
376.60 0.6549
376.70 0.6553
376.80 0.6557
376.90 0.6561
377.00 0.6565
377.10 0.6569
377.20 0.6573
377.30 0.6578
377.40 0.6582
377.50 0.6586
377.60 0.659
377.70 0.6594
377.80 0.6598
377.90 0.6602
378.00 0.6606
378.10 0.661
378.20 0.6614
378.30 0.6618
378.40 0.6622
378.50 0.6626
378.60 0.6631
378.70 0.6635
378.80 0.6639
378.90 0.6643
379.00 0.6647
379.10 0.6651
379.20 0.6655
379.30 0.6659
379.40 0.6663
379.50 0.6667
379.60 0.6671
379.70 0.6675
379.80 0.6679
379.90 0.6683
380.00 0.6687
380.10 0.6691
380.20 0.6695
380.30 0.6699
380.40 0.6703
380.50 0.6708
380.60 0.6712
380.70 0.6716
380.80 0.672
380.90 0.6724
381.00 0.6728
381.10 0.6732
381.20 0.6736
381.30 0.674
381.40 0.6744
381.50 0.6748
381.60 0.6752
381.70 0.6756
381.80 0.676
381.90 0.6764
382.00 0.6768
382.10 0.6772
382.20 0.6776
382.30 0.678
382.40 0.6784
382.50 0.6788
382.60 0.6792
382.70 0.6796
382.80 0.68
382.90 0.6804
383.00 0.6808
383.10 0.6812
383.20 0.6816
383.30 0.682
383.40 0.6824
383.50 0.6828
383.60 0.6832
383.70 0.6836
383.80 0.684
383.90 0.6844
384.00 0.6848
384.10 0.6852
384.20 0.6856
384.30 0.6859
384.40 0.6863
384.50 0.6867
384.60 0.6871
384.70 0.6875
384.80 0.6879
384.90 0.6883
385.00 0.6887
385.10 0.6891
385.20 0.6895
385.30 0.6899
385.40 0.6903
385.50 0.6907
385.60 0.6911
385.70 0.6915
385.80 0.6919
385.90 0.6923
386.00 0.6927
386.10 0.6931
386.20 0.6935
386.30 0.6938
386.40 0.6942
386.50 0.6946
386.60 0.695
386.70 0.6954
386.80 0.6958
386.90 0.6962
387.00 0.6966
387.10 0.697
387.20 0.6974
387.30 0.6978
387.40 0.6982
387.50 0.6986
387.60 0.6989
387.70 0.6993
387.80 0.6997
387.90 0.7001
388.00 0.7005
388.10 0.7009
388.20 0.7013
388.30 0.7017
388.40 0.7021
388.50 0.7025
388.60 0.7028
388.70 0.7032
388.80 0.7036
388.90 0.704
389.00 0.7044
389.10 0.7048
389.20 0.7052
389.30 0.7056
389.40 0.7059
389.50 0.7063
389.60 0.7067
389.70 0.7071
389.80 0.7075
389.90 0.7079
390.00 0.7083
390.10 0.7087
390.20 0.709
390.30 0.7094
390.40 0.7098
390.50 0.7102
390.60 0.7106
390.70 0.711
390.80 0.7114
390.90 0.7117
391.00 0.7121
391.10 0.7125
391.20 0.7129
391.30 0.7133
391.40 0.7137
391.50 0.714
391.60 0.7144
391.70 0.7148
391.80 0.7152
391.90 0.7156
392.00 0.716
392.10 0.7164
392.20 0.7167
392.30 0.7171
392.40 0.7175
392.50 0.7179
392.60 0.7183
392.70 0.7186
392.80 0.719
392.90 0.7194
393.00 0.7198
393.10 0.7202
393.20 0.7205
393.30 0.7209
393.40 0.7213
393.50 0.7217
393.60 0.7221
393.70 0.7224
393.80 0.7228
393.90 0.7232
394.00 0.7236
394.10 0.724
394.20 0.7243
394.30 0.7247
394.40 0.7251
394.50 0.7255
394.60 0.7258
394.70 0.7262
394.80 0.7266
394.90 0.727
395.00 0.7274
395.10 0.7277
395.20 0.7281
395.30 0.7285
395.40 0.7289
395.50 0.7292
395.60 0.7296
395.70 0.73
395.80 0.7304
395.90 0.7307
396.00 0.7311
396.10 0.7315
396.20 0.7319
396.30 0.7322
396.40 0.7326
396.50 0.733
396.60 0.7334
396.70 0.7337
396.80 0.7341
396.90 0.7345
397.00 0.7349
397.10 0.7352
397.20 0.7356
397.30 0.736
397.40 0.7363
397.50 0.7367
397.60 0.7371
397.70 0.7375
397.80 0.7378
397.90 0.7382
398.00 0.7386
398.10 0.7389
398.20 0.7393
398.30 0.7397
398.40 0.7401
398.50 0.7404
398.60 0.7408
398.70 0.7412
398.80 0.7415
398.90 0.7419
399.00 0.7423
399.10 0.7426
399.20 0.743
399.30 0.7434
399.40 0.7437
399.50 0.7441
399.60 0.7445
399.70 0.7448
399.80 0.7452
399.90 0.7456
400.00 0.7459
400.10 0.7463
400.20 0.7467
400.30 0.747
400.40 0.7474
400.50 0.7478
400.60 0.7481
400.70 0.7485
400.80 0.7489
400.90 0.7492
401.00 0.7496
401.10 0.75
401.20 0.7503
401.30 0.7507
401.40 0.7511
401.50 0.7514
401.60 0.7518
401.70 0.7522
401.80 0.7525
401.90 0.7529
402.00 0.7532
402.10 0.7536
402.20 0.754
402.30 0.7543
402.40 0.7547
402.50 0.7551
402.60 0.7554
402.70 0.7558
402.80 0.7561
402.90 0.7565
403.00 0.7569
403.10 0.7572
403.20 0.7576
403.30 0.7579
403.40 0.7583
403.50 0.7587
403.60 0.759
403.70 0.7594
403.80 0.7597
403.90 0.7601
404.00 0.7604
404.10 0.7608
404.20 0.7612
404.30 0.7616
404.40 0.7619
404.50 0.7622
404.60 0.7626
404.70 0.763
404.80 0.7633
404.90 0.7637
405.00 0.764
405.10 0.7644
405.20 0.7647
405.30 0.7651
405.40 0.7655
405.50 0.7658
405.60 0.7662
405.70 0.7665
405.80 0.7669
405.90 0.7672
406.00 0.7676
406.10 0.768
406.20 0.7683
406.30 0.7686
406.40 0.769
406.50 0.7694
406.60 0.7697
406.70 0.7701
406.80 0.7704
406.90 0.7708
407.00 0.7711
407.10 0.7715
407.20 0.7718
407.30 0.7722
407.40 0.7725
407.50 0.7729
407.60 0.7732
407.70 0.7736
407.80 0.7739
407.90 0.7743
408.00 0.7746
408.10 0.775
408.20 0.7753
408.30 0.7757
408.40 0.776
408.50 0.7764
408.60 0.7767
408.70 0.7771
408.80 0.7774
408.90 0.7778
409.00 0.7781
409.10 0.7785
409.20 0.7788
409.30 0.7792
409.40 0.7795
409.50 0.7798
409.60 0.7802
409.70 0.7805
409.80 0.7809
409.90 0.7813
410.00 0.7816
410.10 0.7819
410.20 0.7822
410.30 0.7826
410.40 0.783
410.50 0.7833
410.60 0.7837
410.70 0.784
410.80 0.7844
410.90 0.7847
411.00 0.785
411.10 0.7853
411.20 0.7857
411.30 0.786
411.40 0.7864
411.50 0.7867
411.60 0.7871
411.70 0.7874
411.80 0.7878
411.90 0.7881
412.00 0.7885
412.10 0.7888
412.20 0.7891
412.30 0.7894
412.40 0.7898
412.50 0.7901
412.60 0.7905
412.70 0.7908
412.80 0.7912
412.90 0.7915
413.00 0.7919
413.10 0.7922
413.20 0.7925
413.30 0.7929
413.40 0.7932
413.50 0.7936
413.60 0.7939
413.70 0.7942
413.80 0.7946
413.90 0.7949
414.00 0.7953
414.10 0.7956
414.20 0.7959
414.30 0.7963
414.40 0.7966
414.50 0.7969
414.60 0.7973
414.70 0.7976
414.80 0.7979
414.90 0.7983
415.00 0.7986
415.10 0.7989
415.20 0.7993
415.30 0.7996
415.40 0.7999
415.50 0.8003
415.60 0.8006
415.70 0.8009
415.80 0.8013
415.90 0.8016
416.00 0.8019
416.10 0.8023
416.20 0.8026
416.30 0.8029
416.40 0.8032
416.50 0.8036
416.60 0.8039
416.70 0.8043
416.80 0.8046
416.90 0.805
417.00 0.8053
417.10 0.8056
417.20 0.8059
417.30 0.8063
417.40 0.8066
417.50 0.8069
417.60 0.8072
417.70 0.8075
417.80 0.8079
417.90 0.8082
418.00 0.8085
418.10 0.8089
418.20 0.8092
418.30 0.8095
418.40 0.8099
418.50 0.8102
418.60 0.8105
418.70 0.8108
418.80 0.8111
418.90 0.8115
419.00 0.8118
419.10 0.8122
419.20 0.8125
419.30 0.8128
419.40 0.8131
419.50 0.8134
419.60 0.8137
419.70 0.8141
419.80 0.8144
419.90 0.8148
420.00 0.8151
420.10 0.8154
420.20 0.8157
420.30 0.816
420.40 0.8163
420.50 0.8167
420.60 0.817
420.70 0.8173
420.80 0.8176
420.90 0.818
421.00 0.8183
421.10 0.8186
421.20 0.8189
421.30 0.8193
421.40 0.8196
421.50 0.8199
421.60 0.8202
421.70 0.8205
421.80 0.8209
421.90 0.8212
422.00 0.8215
422.10 0.8218
422.20 0.8222
422.30 0.8225
422.40 0.8228
422.50 0.8231
422.60 0.8234
422.70 0.8237
422.80 0.824
422.90 0.8244
423.00 0.8247
423.10 0.825
423.20 0.8253
423.30 0.8256
423.40 0.8259
423.50 0.8262
423.60 0.8266
423.70 0.8269
423.80 0.8272
423.90 0.8275
424.00 0.8278
424.10 0.8281
424.20 0.8285
424.30 0.8288
424.40 0.8291
424.50 0.8294
424.60 0.8297
424.70 0.83
424.80 0.8303
424.90 0.8307
425.00 0.831
425.10 0.8313
425.20 0.8316
425.30 0.8319
425.40 0.8322
425.50 0.8325
425.60 0.8328
425.70 0.8331
425.80 0.8334
425.90 0.8338
426.00 0.8341
426.10 0.8344
426.20 0.8347
426.30 0.835
426.40 0.8353
426.50 0.8356
426.60 0.8359
426.70 0.8362
426.80 0.8365
426.90 0.8368
427.00 0.8372
427.10 0.8375
427.20 0.8378
427.30 0.8381
427.40 0.8384
427.50 0.8387
427.60 0.839
427.70 0.8393
427.80 0.8396
427.90 0.8399
428.00 0.8402
428.10 0.8405
428.20 0.8409
428.30 0.8411
428.40 0.8414
428.50 0.8418
428.60 0.8421
428.70 0.8424
428.80 0.8427
428.90 0.843
429.00 0.8433
429.10 0.8436
429.20 0.8439
429.30 0.8442
429.40 0.8445
429.50 0.8448
429.60 0.8451
429.70 0.8454
429.80 0.8457
429.90 0.846
430.00 0.8463
430.10 0.8466
430.20 0.8469
430.30 0.8472
430.40 0.8475
430.50 0.8478
430.60 0.8481
430.70 0.8484
430.80 0.8487
430.90 0.849
431.00 0.8493
431.10 0.8496
431.20 0.8498
431.30 0.8502
431.40 0.8505
431.50 0.8508
431.60 0.8511
431.70 0.8513
431.80 0.8517
431.90 0.852
432.00 0.8523
432.10 0.8525
432.20 0.8528
432.30 0.8531
432.40 0.8534
432.50 0.8537
432.60 0.854
432.70 0.8543
432.80 0.8546
432.90 0.8549
433.00 0.8552
433.10 0.8555
433.20 0.8558
433.30 0.8561
433.40 0.8564
433.50 0.8567
433.60 0.8569
433.70 0.8572
433.80 0.8575
433.90 0.8578
434.00 0.8581
434.10 0.8584
434.20 0.8587
434.30 0.859
434.40 0.8593
434.50 0.8595
434.60 0.8598
434.70 0.8601
434.80 0.8604
434.90 0.8607
435.00 0.861
435.10 0.8613
435.20 0.8616
435.30 0.8619
435.40 0.8622
435.50 0.8625
435.60 0.8628
435.70 0.863
435.80 0.8633
435.90 0.8636
436.00 0.8639
436.10 0.8642
436.20 0.8645
436.30 0.8647
436.40 0.865
436.50 0.8653
436.60 0.8656
436.70 0.8659
436.80 0.8662
436.90 0.8665
437.00 0.8668
437.10 0.867
437.20 0.8673
437.30 0.8676
437.40 0.8679
437.50 0.8682
437.60 0.8684
437.70 0.8687
437.80 0.869
437.90 0.8693
438.00 0.8696
438.10 0.8699
438.20 0.8702
438.30 0.8704
438.40 0.8707
438.50 0.871
438.60 0.8713
438.70 0.8716
438.80 0.8719
438.90 0.8721
439.00 0.8724
439.10 0.8727
439.20 0.873
439.30 0.8732
439.40 0.8735
439.50 0.8738
439.60 0.8741
439.70 0.8744
439.80 0.8747
439.90 0.8749
440.00 0.8752
440.10 0.8755
440.20 0.8757
440.30 0.876
440.40 0.8763
440.50 0.8766
440.60 0.8769
440.70 0.8771
440.80 0.8774
440.90 0.8777
441.00 0.8779
441.10 0.8782
441.20 0.8785
441.30 0.8788
441.40 0.8791
441.50 0.8793
441.60 0.8796
441.70 0.8799
441.80 0.8802
441.90 0.8804
442.00 0.8807
442.10 0.881
442.20 0.8812
442.30 0.8815
442.40 0.8818
442.50 0.882
442.60 0.8823
442.70 0.8826
442.80 0.8829
442.90 0.8831
443.00 0.8834
443.10 0.8837
443.20 0.884
443.30 0.8842
443.40 0.8845
443.50 0.8848
443.60 0.8851
443.70 0.8853
443.80 0.8855
443.90 0.8858
444.00 0.8861
444.10 0.8864
444.20 0.8866
444.30 0.8869
444.40 0.8872
444.50 0.8874
444.60 0.8877
444.70 0.888
444.80 0.8882
444.90 0.8885
445.00 0.8888
445.10 0.889
445.20 0.8893
445.30 0.8896
445.40 0.8898
445.50 0.8901
445.60 0.8904
445.70 0.8906
445.80 0.8909
445.90 0.8912
446.00 0.8914
446.10 0.8917
446.20 0.892
446.30 0.8922
446.40 0.8925
446.50 0.8927
446.60 0.893
446.70 0.8933
446.80 0.8935
446.90 0.8938
447.00 0.894
447.10 0.8943
447.20 0.8946
447.30 0.8948
447.40 0.8951
447.50 0.8953
447.60 0.8956
447.70 0.8959
447.80 0.8961
447.90 0.8964
448.00 0.8966
448.10 0.8969
448.20 0.8972
448.30 0.8974
448.40 0.8977
448.50 0.8979
448.60 0.8982
448.70 0.8984
448.80 0.8987
448.90 0.8989
449.00 0.8992
449.10 0.8995
449.20 0.8997
449.30 0.9
449.40 0.9002
449.50 0.9005
449.60 0.9007
449.70 0.901
449.80 0.9013
449.90 0.9015
450.00 0.9018
450.10 0.902
450.20 0.9023
450.30 0.9025
450.40 0.9028
450.50 0.903
450.60 0.9033
450.70 0.9035
450.80 0.9038
450.90 0.904
451.00 0.9043
451.10 0.9045
451.20 0.9048
451.30 0.905
451.40 0.9053
451.50 0.9055
451.60 0.9058
451.70 0.9061
451.80 0.9063
451.90 0.9066
452.00 0.9068
452.10 0.9071
452.20 0.9073
452.30 0.9075
452.40 0.9078
452.50 0.908
452.60 0.9083
452.70 0.9085
452.80 0.9088
452.90 0.909
453.00 0.9093
453.10 0.9095
453.20 0.9098
453.30 0.91
453.40 0.9103
453.50 0.9105
453.60 0.9108
453.70 0.911
453.80 0.9112
453.90 0.9115
454.00 0.9117
454.10 0.912
454.20 0.9122
454.30 0.9124
454.40 0.9127
454.50 0.9129
454.60 0.9132
454.70 0.9134
454.80 0.9137
454.90 0.9139
455.00 0.9142
455.10 0.9144
455.20 0.9146
455.30 0.9149
455.40 0.9151
455.50 0.9154
455.60 0.9156
455.70 0.9159
455.80 0.9161
455.90 0.9163
456.00 0.9166
456.10 0.9168
456.20 0.9171
456.30 0.9173
456.40 0.9175
456.50 0.9178
456.60 0.918
456.70 0.9183
456.80 0.9185
456.90 0.9187
457.00 0.919
457.10 0.9192
457.20 0.9194
457.30 0.9197
457.40 0.9199
457.50 0.9202
457.60 0.9204
457.70 0.9206
457.80 0.9209
457.90 0.9211
458.00 0.9213
458.10 0.9216
458.20 0.9218
458.30 0.922
458.40 0.9223
458.50 0.9225
458.60 0.9227
458.70 0.923
458.80 0.9232
458.90 0.9234
459.00 0.9237
459.10 0.9239
459.20 0.9241
459.30 0.9244
459.40 0.9246
459.50 0.9248
459.60 0.9251
459.70 0.9253
459.80 0.9255
459.90 0.9258
460.00 0.926
460.10 0.9262
460.20 0.9264
460.30 0.9267
460.40 0.9269
460.50 0.9271
460.60 0.9274
460.70 0.9276
460.80 0.9278
460.90 0.9281
461.00 0.9283
461.10 0.9285
461.20 0.9288
461.30 0.929
461.40 0.9292
461.50 0.9294
461.60 0.9297
461.70 0.9299
461.80 0.9301
461.90 0.9303
462.00 0.9306
462.10 0.9308
462.20 0.931
462.30 0.9312
462.40 0.9314
462.50 0.9317
462.60 0.9319
462.70 0.9321
462.80 0.9323
462.90 0.9326
463.00 0.9328
463.10 0.933
463.20 0.9332
463.30 0.9334
463.40 0.9337
463.50 0.9339
463.60 0.9341
463.70 0.9343
463.80 0.9346
463.90 0.9348
464.00 0.935
464.10 0.9352
464.20 0.9355
464.30 0.9357
464.40 0.9359
464.50 0.9361
464.60 0.9364
464.70 0.9366
464.80 0.9368
464.90 0.937
465.00 0.9372
465.10 0.9375
465.20 0.9377
465.30 0.9379
465.40 0.9381
465.50 0.9383
465.60 0.9385
465.70 0.9387
465.80 0.939
465.90 0.9392
466.00 0.9394
466.10 0.9396
466.20 0.9398
466.30 0.94
466.40 0.9403
466.50 0.9405
466.60 0.9407
466.70 0.9409
466.80 0.9411
466.90 0.9413
467.00 0.9415
467.10 0.9418
467.20 0.942
467.30 0.9422
467.40 0.9424
467.50 0.9426
467.60 0.9428
467.70 0.943
467.80 0.9433
467.90 0.9435
468.00 0.9437
468.10 0.9439
468.20 0.9441
468.30 0.9443
468.40 0.9445
468.50 0.9447
468.60 0.945
468.70 0.9452
468.80 0.9454
468.90 0.9456
469.00 0.9458
469.10 0.946
469.20 0.9462
469.30 0.9464
469.40 0.9466
469.50 0.9469
469.60 0.9471
469.70 0.9473
469.80 0.9475
469.90 0.9477
470.00 0.9479
470.10 0.9481
470.20 0.9483
470.30 0.9485
470.40 0.9487
470.50 0.9489
470.60 0.9491
470.70 0.9493
470.80 0.9495
470.90 0.9497
471.00 0.95
471.10 0.9502
471.20 0.9504
471.30 0.9506
471.40 0.9508
471.50 0.951
471.60 0.9512
471.70 0.9514
471.80 0.9516
471.90 0.9518
472.00 0.952
472.10 0.9522
472.20 0.9524
472.30 0.9526
472.40 0.9528
472.50 0.953
472.60 0.9532
472.70 0.9534
472.80 0.9536
472.90 0.9538
473.00 0.954
473.10 0.9542
473.20 0.9544
473.30 0.9546
473.40 0.9548
473.50 0.955
473.60 0.9552
473.70 0.9554
473.80 0.9556
473.90 0.9558
474.00 0.956
474.10 0.9562
474.20 0.9564
474.30 0.9566
474.40 0.9568
474.50 0.957
474.60 0.9572
474.70 0.9574
474.80 0.9576
474.90 0.9578
475.00 0.958
475.10 0.9582
475.20 0.9584
475.30 0.9586
475.40 0.9588
475.50 0.959
475.60 0.9592
475.70 0.9593
475.80 0.9595
475.90 0.9597
476.00 0.9599
476.10 0.9601
476.20 0.9603
476.30 0.9605
476.40 0.9607
476.50 0.9609
476.60 0.9611
476.70 0.9613
476.80 0.9615
476.90 0.9616
477.00 0.9618
477.10 0.962
477.20 0.9622
477.30 0.9624
477.40 0.9626
477.50 0.9628
477.60 0.963
477.70 0.9632
477.80 0.9633
477.90 0.9635
478.00 0.9637
478.10 0.9639
478.20 0.9641
478.30 0.9643
478.40 0.9645
478.50 0.9647
478.60 0.9649
478.70 0.9651
478.80 0.9652
478.90 0.9654
479.00 0.9656
479.10 0.9658
479.20 0.966
479.30 0.9662
479.40 0.9664
479.50 0.9666
479.60 0.9667
479.70 0.9669
479.80 0.9671
479.90 0.9673
480.00 0.9675
480.10 0.9677
480.20 0.9678
480.30 0.968
480.40 0.9682
480.50 0.9684
480.60 0.9686
480.70 0.9687
480.80 0.9689
480.90 0.9691
481.00 0.9693
481.10 0.9695
481.20 0.9696
481.30 0.9698
481.40 0.97
481.50 0.9702
481.60 0.9704
481.70 0.9706
481.80 0.9708
481.90 0.9709
482.00 0.9711
482.10 0.9713
482.20 0.9715
482.30 0.9717
482.40 0.9718
482.50 0.972
482.60 0.9722
482.70 0.9724
482.80 0.9725
482.90 0.9727
483.00 0.9729
483.10 0.9731
483.20 0.9732
483.30 0.9734
483.40 0.9736
483.50 0.9738
483.60 0.9739
483.70 0.9741
483.80 0.9743
483.90 0.9745
484.00 0.9746
484.10 0.9748
484.20 0.975
484.30 0.9751
484.40 0.9753
484.50 0.9755
484.60 0.9756
484.70 0.9758
484.80 0.976
484.90 0.9761
485.00 0.9763
485.10 0.9765
485.20 0.9766
485.30 0.9768
485.40 0.977
485.50 0.9771
485.60 0.9773
485.70 0.9774
485.80 0.9776
485.90 0.9777
486.00 0.9779
486.10 0.978
486.20 0.9782
486.30 0.9784
486.40 0.9786
486.50 0.9788
486.60 0.9789
486.70 0.9791
486.80 0.9793
486.90 0.9795
487.00 0.9797
487.10 0.9799
487.20 0.9801
487.30 0.9803
487.40 0.9804
487.50 0.9806
487.60 0.9808
487.70 0.981
487.80 0.9811
487.90 0.9813
488.00 0.9815
488.10 0.9817
488.20 0.9818
488.30 0.982
488.40 0.9822
488.50 0.9823
488.60 0.9825
488.70 0.9827
488.80 0.9828
488.90 0.983
489.00 0.9832
489.10 0.9833
489.20 0.9835
489.30 0.9837
489.40 0.9838
489.50 0.984
489.60 0.9842
489.70 0.9843
489.80 0.9845
489.90 0.9847
490.00 0.9848
490.10 0.985
490.20 0.9852
490.30 0.9853
490.40 0.9855
490.50 0.9856
490.60 0.9858
490.70 0.9859
490.80 0.9861
490.90 0.9863
491.00 0.9864
491.10 0.9866
491.20 0.9867
491.30 0.9869
491.40 0.9871
491.50 0.9872
491.60 0.9874
491.70 0.9876
491.80 0.9877
491.90 0.9879
492.00 0.988
492.10 0.9882
492.20 0.9884
492.30 0.9885
492.40 0.9887
492.50 0.9888
492.60 0.989
492.70 0.9891
492.80 0.9893
492.90 0.9894
493.00 0.9896
493.10 0.9897
493.20 0.9899
493.30 0.9901
493.40 0.9902
493.50 0.9904
493.60 0.9905
493.70 0.9907
493.80 0.9908
493.90 0.991
494.00 0.9912
494.10 0.9913
494.20 0.9915
494.30 0.9916
494.40 0.9918
494.50 0.9919
494.60 0.9921
494.70 0.9922
494.80 0.9924
494.90 0.9925
495.00 0.9927
495.10 0.9928
495.20 0.993
495.30 0.9931
495.40 0.9933
495.50 0.9934
495.60 0.9936
495.70 0.9937
495.80 0.9939
495.90 0.994
496.00 0.9942
496.10 0.9944
496.20 0.9945
496.30 0.9946
496.40 0.9948
496.50 0.9949
496.60 0.9951
496.70 0.9952
496.80 0.9954
496.90 0.9955
497.00 0.9957
497.10 0.9958
497.20 0.996
497.30 0.9961
497.40 0.9963
497.50 0.9964
497.60 0.9965
497.70 0.9967
497.80 0.9968
497.90 0.997
498.00 0.9971
498.10 0.9973
498.20 0.9974
498.30 0.9976
498.40 0.9977
498.50 0.9979
498.60 0.998
498.70 0.9981
498.80 0.9983
498.90 0.9984
499.00 0.9986
499.10 0.9987
499.20 0.9989
499.30 0.999
499.40 0.9992
499.50 0.9993
499.60 0.9994
499.70 0.9996
499.80 0.9997
499.90 0.9999
500.00 1
500.10 1
500.20 1
500.30 1
500.40 1.001
500.50 1.001
500.60 1.001
500.70 1.001
500.80 1.001
500.90 1.001
501.00 1.001
501.10 1.002
501.20 1.002
501.30 1.002
501.40 1.002
501.50 1.002
501.60 1.002
501.70 1.002
501.80 1.002
501.90 1.003
502.00 1.003
502.10 1.003
502.20 1.003
502.30 1.003
502.40 1.003
502.50 1.003
502.60 1.004
502.70 1.004
502.80 1.004
502.90 1.004
503.00 1.004
503.10 1.004
503.20 1.004
503.30 1.005
503.40 1.005
503.50 1.005
503.60 1.005
503.70 1.005
503.80 1.005
503.90 1.005
504.00 1.005
504.10 1.006
504.20 1.006
504.30 1.006
504.40 1.006
504.50 1.006
504.60 1.006
504.70 1.006
504.80 1.007
504.90 1.007
505.00 1.007
505.10 1.007
505.20 1.007
505.30 1.007
505.40 1.007
505.50 1.007
505.60 1.008
505.70 1.008
505.80 1.008
505.90 1.008
506.00 1.008
506.10 1.008
506.20 1.008
506.30 1.008
506.40 1.009
506.50 1.009
506.60 1.009
506.70 1.009
506.80 1.009
506.90 1.009
507.00 1.009
507.10 1.009
507.20 1.01
507.30 1.01
507.40 1.01
507.50 1.01
507.60 1.01
507.70 1.01
507.80 1.01
507.90 1.01
508.00 1.011
508.10 1.011
508.20 1.011
508.30 1.011
508.40 1.011
508.50 1.011
508.60 1.011
508.70 1.011
508.80 1.012
508.90 1.012
509.00 1.012
509.10 1.012
509.20 1.012
509.30 1.012
509.40 1.012
509.50 1.012
509.60 1.013
509.70 1.013
509.80 1.013
509.90 1.013
510.00 1.013
510.10 1.013
510.20 1.013
510.30 1.013
510.40 1.014
510.50 1.014
510.60 1.014
510.70 1.014
510.80 1.014
510.90 1.014
511.00 1.014
511.10 1.014
511.20 1.014
511.30 1.015
511.40 1.015
511.50 1.015
511.60 1.015
511.70 1.015
511.80 1.015
511.90 1.015
512.00 1.015
512.10 1.016
512.20 1.016
512.30 1.016
512.40 1.016
512.50 1.016
512.60 1.016
512.70 1.016
512.80 1.016
512.90 1.016
513.00 1.017
513.10 1.017
513.20 1.017
513.30 1.017
513.40 1.017
513.50 1.017
513.60 1.017
513.70 1.017
513.80 1.017
513.90 1.018
514.00 1.018
514.10 1.018
514.20 1.018
514.30 1.018
514.40 1.018
514.50 1.018
514.60 1.018
514.70 1.018
514.80 1.019
514.90 1.019
515.00 1.019
515.10 1.019
515.20 1.019
515.30 1.019
515.40 1.019
515.50 1.019
515.60 1.019
515.70 1.02
515.80 1.02
515.90 1.02
516.00 1.02
516.10 1.02
516.20 1.02
516.30 1.02
516.40 1.02
516.50 1.02
516.60 1.021
516.70 1.021
516.80 1.021
516.90 1.021
517.00 1.021
517.10 1.021
517.20 1.021
517.30 1.021
517.40 1.021
517.50 1.022
517.60 1.022
517.70 1.022
517.80 1.022
517.90 1.022
518.00 1.022
518.10 1.022
518.20 1.022
518.30 1.022
518.40 1.022
518.50 1.023
518.60 1.023
518.70 1.023
518.80 1.023
518.90 1.023
519.00 1.023
519.10 1.023
519.20 1.023
519.30 1.023
519.40 1.023
519.50 1.024
519.60 1.024
519.70 1.024
519.80 1.024
519.90 1.024
520.00 1.024
520.10 1.024
520.20 1.024
520.30 1.024
520.40 1.024
520.50 1.025
520.60 1.025
520.70 1.025
520.80 1.025
520.90 1.025
521.00 1.025
521.10 1.025
521.20 1.025
521.30 1.025
521.40 1.025
521.50 1.026
521.60 1.026
521.70 1.026
521.80 1.026
521.90 1.026
522.00 1.026
522.10 1.026
522.20 1.026
522.30 1.026
522.40 1.026
522.50 1.027
522.60 1.027
522.70 1.027
522.80 1.027
522.90 1.027
523.00 1.027
523.10 1.027
523.20 1.027
523.30 1.027
523.40 1.027
523.50 1.027
523.60 1.028
523.70 1.028
523.80 1.028
523.90 1.028
524.00 1.028
524.10 1.028
524.20 1.028
524.30 1.028
524.40 1.028
524.50 1.028
524.60 1.028
524.70 1.029
524.80 1.029
524.90 1.029
525.00 1.029
525.10 1.029
525.20 1.029
525.30 1.029
525.40 1.029
525.50 1.029
525.60 1.029
525.70 1.029
525.80 1.03
525.90 1.03
526.00 1.03
526.10 1.03
526.20 1.03
526.30 1.03
526.40 1.03
526.50 1.03
526.60 1.03
526.70 1.03
526.80 1.03
526.90 1.031
527.00 1.031
527.10 1.031
527.20 1.031
527.30 1.031
527.40 1.031
527.50 1.031
527.60 1.031
527.70 1.031
527.80 1.031
527.90 1.031
528.00 1.032
528.10 1.032
528.20 1.032
528.30 1.032
528.40 1.032
528.50 1.032
528.60 1.032
528.70 1.032
528.80 1.032
528.90 1.032
529.00 1.032
529.10 1.032
529.20 1.033
529.30 1.033
529.40 1.033
529.50 1.033
529.60 1.033
529.70 1.033
529.80 1.033
529.90 1.033
530.00 1.033
530.10 1.033
530.20 1.033
530.30 1.033
530.40 1.033
530.50 1.034
530.60 1.034
530.70 1.034
530.80 1.034
530.90 1.034
531.00 1.034
531.10 1.034
531.20 1.034
531.30 1.034
531.40 1.034
531.50 1.034
531.60 1.034
531.70 1.035
531.80 1.035
531.90 1.035
532.00 1.035
532.10 1.035
532.20 1.035
532.30 1.035
532.40 1.035
532.50 1.035
532.60 1.035
532.70 1.035
532.80 1.035
532.90 1.035
533.00 1.036
533.10 1.036
533.20 1.036
533.30 1.036
533.40 1.036
533.50 1.036
533.60 1.036
533.70 1.036
533.80 1.036
533.90 1.036
534.00 1.036
534.10 1.036
534.20 1.036
534.30 1.037
534.40 1.037
534.50 1.037
534.60 1.037
534.70 1.037
534.80 1.037
534.90 1.037
535.00 1.037
535.10 1.037
535.20 1.037
535.30 1.037
535.40 1.037
535.50 1.037
535.60 1.037
535.70 1.037
535.80 1.038
535.90 1.038
536.00 1.038
536.10 1.038
536.20 1.038
536.30 1.038
536.40 1.038
536.50 1.038
536.60 1.038
536.70 1.038
536.80 1.038
536.90 1.038
537.00 1.038
537.10 1.038
537.20 1.039
537.30 1.039
537.40 1.039
537.50 1.039
537.60 1.039
537.70 1.039
537.80 1.039
537.90 1.039
538.00 1.039
538.10 1.039
538.20 1.039
538.30 1.039
538.40 1.039
538.50 1.039
538.60 1.039
538.70 1.04
538.80 1.04
538.90 1.04
539.00 1.04
539.10 1.04
539.20 1.04
539.30 1.04
539.40 1.04
539.50 1.04
539.60 1.04
539.70 1.04
539.80 1.04
539.90 1.04
540.00 1.04
540.10 1.04
540.20 1.041
540.30 1.041
540.40 1.041
540.50 1.041
540.60 1.041
540.70 1.041
540.80 1.041
540.90 1.041
541.00 1.041
541.10 1.041
541.20 1.041
541.30 1.041
541.40 1.041
541.50 1.041
541.60 1.041
541.70 1.041
541.80 1.042
541.90 1.042
542.00 1.042
542.10 1.042
542.20 1.042
542.30 1.042
542.40 1.042
542.50 1.042
542.60 1.042
542.70 1.042
542.80 1.042
542.90 1.042
543.00 1.042
543.10 1.042
543.20 1.042
543.30 1.042
543.40 1.042
543.50 1.043
543.60 1.043
543.70 1.043
543.80 1.043
543.90 1.043
544.00 1.043
544.10 1.043
544.20 1.043
544.30 1.043
544.40 1.043
544.50 1.043
544.60 1.043
544.70 1.043
544.80 1.043
544.90 1.043
545.00 1.043
545.10 1.043
545.20 1.043
545.30 1.044
545.40 1.044
545.50 1.044
545.60 1.044
545.70 1.044
545.80 1.044
545.90 1.044
546.00 1.044
546.10 1.044
546.20 1.044
546.30 1.044
546.40 1.044
546.50 1.044
546.60 1.044
546.70 1.044
546.80 1.044
546.90 1.044
547.00 1.044
547.10 1.044
547.20 1.045
547.30 1.045
547.40 1.045
547.50 1.045
547.60 1.045
547.70 1.045
547.80 1.045
547.90 1.045
548.00 1.045
548.10 1.045
548.20 1.045
548.30 1.045
548.40 1.045
548.50 1.045
548.60 1.045
548.70 1.045
548.80 1.045
548.90 1.045
549.00 1.045
549.10 1.045
549.20 1.046
549.30 1.046
549.40 1.046
549.50 1.046
549.60 1.046
549.70 1.046
549.80 1.046
549.90 1.046
550.00 1.046
550.10 1.046
550.20 1.046
550.30 1.046
550.40 1.046
550.50 1.046
550.60 1.046
550.70 1.046
550.80 1.046
550.90 1.046
551.00 1.046
551.10 1.046
551.20 1.046
551.30 1.046
551.40 1.047
551.50 1.047
551.60 1.047
551.70 1.047
551.80 1.047
551.90 1.047
552.00 1.047
552.10 1.047
552.20 1.047
552.30 1.047
552.40 1.047
552.50 1.047
552.60 1.047
552.70 1.047
552.80 1.047
552.90 1.047
553.00 1.047
553.10 1.047
553.20 1.047
553.30 1.047
553.40 1.047
553.50 1.047
553.60 1.047
553.70 1.047
553.80 1.048
553.90 1.048
554.00 1.048
554.10 1.048
554.20 1.048
554.30 1.048
554.40 1.048
554.50 1.048
554.60 1.048
554.70 1.048
554.80 1.048
554.90 1.048
555.00 1.048
555.10 1.048
555.20 1.048
555.30 1.048
555.40 1.048
555.50 1.048
555.60 1.048
555.70 1.048
555.80 1.048
555.90 1.048
556.00 1.048
556.10 1.048
556.20 1.048
556.30 1.048
556.40 1.049
556.50 1.049
556.60 1.049
556.70 1.049
556.80 1.049
556.90 1.049
557.00 1.049
557.10 1.049
557.20 1.049
557.30 1.049
557.40 1.049
557.50 1.049
557.60 1.049
557.70 1.049
557.80 1.049
557.90 1.049
558.00 1.049
558.10 1.049
558.20 1.049
558.30 1.049
558.40 1.049
558.50 1.049
558.60 1.049
558.70 1.049
558.80 1.049
558.90 1.049
559.00 1.049
559.10 1.049
559.20 1.049
559.30 1.049
559.40 1.05
559.50 1.05
559.60 1.05
559.70 1.05
559.80 1.05
559.90 1.05
560.00 1.05
560.10 1.05
560.20 1.05
560.30 1.05
560.40 1.05
560.50 1.05
560.60 1.05
560.70 1.05
560.80 1.05
560.90 1.05
561.00 1.05
561.10 1.05
561.20 1.05
561.30 1.05
561.40 1.05
561.50 1.05
561.60 1.05
561.70 1.05
561.80 1.05
561.90 1.05
562.00 1.05
562.10 1.05
562.20 1.05
562.30 1.05
562.40 1.05
562.50 1.05
562.60 1.05
562.70 1.05
562.80 1.05
562.90 1.051
563.00 1.051
563.10 1.051
563.20 1.051
563.30 1.051
563.40 1.051
563.50 1.051
563.60 1.051
563.70 1.051
563.80 1.051
563.90 1.051
564.00 1.051
564.10 1.051
564.20 1.051
564.30 1.051
564.40 1.051
564.50 1.051
564.60 1.051
564.70 1.051
564.80 1.051
564.90 1.051
565.00 1.051
565.10 1.051
565.20 1.051
565.30 1.051
565.40 1.051
565.50 1.051
565.60 1.051
565.70 1.051
565.80 1.051
565.90 1.051
566.00 1.051
566.10 1.051
566.20 1.051
566.30 1.051
566.40 1.051
566.50 1.051
566.60 1.051
566.70 1.051
566.80 1.051
566.90 1.051
567.00 1.051
567.10 1.051
567.20 1.051
567.30 1.051
567.40 1.051
567.50 1.052
567.60 1.052
567.70 1.052
567.80 1.052
567.90 1.052
568.00 1.052
568.10 1.052
568.20 1.052
568.30 1.052
568.40 1.052
568.50 1.052
568.60 1.052
568.70 1.052
568.80 1.052
568.90 1.052
569.00 1.052
569.10 1.052
569.20 1.052
569.30 1.052
569.40 1.052
569.50 1.052
569.60 1.052
569.70 1.052
569.80 1.052
569.90 1.052
570.00 1.052
570.10 1.052
570.20 1.052
570.30 1.052
570.40 1.052
570.50 1.052
570.60 1.052
570.70 1.052
570.80 1.052
570.90 1.052
571.00 1.052
571.10 1.052
571.20 1.052
571.30 1.052
571.40 1.052
571.50 1.052
571.60 1.052
571.70 1.052
571.80 1.052
571.90 1.052
572.00 1.052
572.10 1.052
572.20 1.052
572.30 1.052
572.40 1.052
572.50 1.052
572.60 1.052
572.70 1.052
572.80 1.052
572.90 1.052
573.00 1.052
573.10 1.052
573.20 1.052
573.30 1.052
573.40 1.052
573.50 1.052
573.60 1.052
573.70 1.052
573.80 1.052
573.90 1.052
574.00 1.052
574.10 1.052
574.20 1.052
574.30 1.052
574.40 1.052
574.50 1.052
574.60 1.053
574.70 1.053
574.80 1.053
574.90 1.053
575.00 1.053
575.10 1.053
575.20 1.053
575.30 1.053
575.40 1.053
575.50 1.053
575.60 1.053
575.70 1.053
575.80 1.053
575.90 1.053
576.00 1.053
576.10 1.053
576.20 1.053
576.30 1.053
576.40 1.053
576.50 1.053
576.60 1.053
576.70 1.053
576.80 1.053
576.90 1.053
577.00 1.053
577.10 1.053
577.20 1.053
577.30 1.053
577.40 1.053
577.50 1.053
577.60 1.053
577.70 1.053
577.80 1.053
577.90 1.053
578.00 1.053
578.10 1.053
578.20 1.053
578.30 1.053
578.40 1.053
578.50 1.053
578.60 1.053
578.70 1.053
578.80 1.053
578.90 1.053
579.00 1.053
579.10 1.053
579.20 1.053
579.30 1.053
579.40 1.053
579.50 1.053
579.60 1.053
579.70 1.053
579.80 1.053
579.90 1.053
580.00 1.053
580.10 1.053
580.20 1.053
580.30 1.053
580.40 1.053
580.50 1.053
580.60 1.053
580.70 1.053
580.80 1.053
580.90 1.053
581.00 1.053
581.10 1.053
581.20 1.053
581.30 1.053
581.40 1.053
581.50 1.053
581.60 1.053
581.70 1.053
581.80 1.053
581.90 1.053
582.00 1.053
582.10 1.053
582.20 1.053
582.30 1.053
582.40 1.053
582.50 1.053
582.60 1.053
582.70 1.053
582.80 1.053
582.90 1.053
583.00 1.053
583.10 1.053
583.20 1.053
583.30 1.053
583.40 1.053
583.50 1.053
583.60 1.053
583.70 1.053
583.80 1.053
583.90 1.053
584.00 1.053
584.10 1.053
584.20 1.053
584.30 1.053
584.40 1.053
584.50 1.053
584.60 1.053
584.70 1.053
584.80 1.053
584.90 1.053
585.00 1.053
585.10 1.053
585.20 1.053
585.30 1.053
585.40 1.053
585.50 1.053
585.60 1.053
585.70 1.053
585.80 1.053
585.90 1.053
586.00 1.053
586.10 1.053
586.20 1.053
586.30 1.053
586.40 1.053
586.50 1.053
586.60 1.053
586.70 1.053
586.80 1.053
586.90 1.052
587.00 1.052
587.10 1.052
587.20 1.052
587.30 1.052
587.40 1.052
587.50 1.052
587.60 1.052
587.70 1.052
587.80 1.052
587.90 1.052
588.00 1.052
588.10 1.052
588.20 1.052
588.30 1.052
588.40 1.052
588.50 1.052
588.60 1.052
588.70 1.052
588.80 1.052
588.90 1.052
589.00 1.052
589.10 1.052
589.20 1.052
589.30 1.052
589.40 1.052
589.50 1.052
589.60 1.052
589.70 1.052
589.80 1.052
589.90 1.052
590.00 1.052
590.10 1.052
590.20 1.052
590.30 1.052
590.40 1.052
590.50 1.052
590.60 1.052
590.70 1.052
590.80 1.052
590.90 1.052
591.00 1.052
591.10 1.052
591.20 1.052
591.30 1.052
591.40 1.052
591.50 1.052
591.60 1.052
591.70 1.052
591.80 1.052
591.90 1.052
592.00 1.052
592.10 1.052
592.20 1.052
592.30 1.052
592.40 1.052
592.50 1.052
592.60 1.052
592.70 1.052
592.80 1.052
592.90 1.052
593.00 1.052
593.10 1.052
593.20 1.052
593.30 1.052
593.40 1.052
593.50 1.052
593.60 1.052
593.70 1.052
593.80 1.052
593.90 1.052
594.00 1.052
594.10 1.052
594.20 1.052
594.30 1.052
594.40 1.052
594.50 1.051
594.60 1.051
594.70 1.051
594.80 1.051
594.90 1.051
595.00 1.051
595.10 1.051
595.20 1.051
595.30 1.051
595.40 1.051
595.50 1.051
595.60 1.051
595.70 1.051
595.80 1.051
595.90 1.051
596.00 1.051
596.10 1.051
596.20 1.051
596.30 1.051
596.40 1.051
596.50 1.051
596.60 1.051
596.70 1.051
596.80 1.051
596.90 1.051
597.00 1.051
597.10 1.051
597.20 1.051
597.30 1.051
597.40 1.051
597.50 1.051
597.60 1.051
597.70 1.051
597.80 1.051
597.90 1.051
598.00 1.051
598.10 1.051
598.20 1.051
598.30 1.051
598.40 1.051
598.50 1.051
598.60 1.051
598.70 1.051
598.80 1.051
598.90 1.051
599.00 1.051
599.10 1.051
599.20 1.051
599.30 1.05
599.40 1.05
599.50 1.05
599.60 1.05
599.70 1.05
599.80 1.05
599.90 1.05
600.00 1.05
600.10 1.05
600.20 1.05
600.30 1.05
600.40 1.05
600.50 1.05
600.60 1.05
600.70 1.05
600.80 1.05
600.90 1.05
601.00 1.05
601.10 1.05
601.20 1.05
601.30 1.05
601.40 1.05
601.50 1.05
601.60 1.05
601.70 1.05
601.80 1.05
601.90 1.05
602.00 1.05
602.10 1.05
602.20 1.05
602.30 1.05
602.40 1.05
602.50 1.05
602.60 1.05
602.70 1.05
602.80 1.05
602.90 1.05
603.00 1.05
603.10 1.049
603.20 1.049
603.30 1.049
603.40 1.049
603.50 1.049
603.60 1.049
603.70 1.049
603.80 1.049
603.90 1.049
604.00 1.049
604.10 1.049
604.20 1.049
604.30 1.049
604.40 1.049
604.50 1.049
604.60 1.049
604.70 1.049
604.80 1.049
604.90 1.049
605.00 1.049
605.10 1.049
605.20 1.049
605.30 1.049
605.40 1.049
605.50 1.049
605.60 1.049
605.70 1.049
605.80 1.049
605.90 1.049
606.00 1.049
606.10 1.049
606.20 1.049
606.30 1.049
606.40 1.048
606.50 1.048
606.60 1.048
606.70 1.048
606.80 1.048
606.90 1.048
607.00 1.048
607.10 1.048
607.20 1.048
607.30 1.048
607.40 1.048
607.50 1.048
607.60 1.048
607.70 1.048
607.80 1.048
607.90 1.048
608.00 1.048
608.10 1.048
608.20 1.048
608.30 1.048
608.40 1.048
608.50 1.048
608.60 1.048
608.70 1.048
608.80 1.048
608.90 1.048
609.00 1.048
609.10 1.048
609.20 1.048
609.30 1.048
609.40 1.047
609.50 1.047
609.60 1.047
609.70 1.047
609.80 1.047
609.90 1.047
610.00 1.047
610.10 1.047
610.20 1.047
610.30 1.047
610.40 1.047
610.50 1.047
610.60 1.047
610.70 1.047
610.80 1.047
610.90 1.047
611.00 1.047
611.10 1.047
611.20 1.047
611.30 1.047
611.40 1.047
611.50 1.047
611.60 1.047
611.70 1.047
611.80 1.047
611.90 1.047
612.00 1.047
612.10 1.046
612.20 1.046
612.30 1.046
612.40 1.046
612.50 1.046
612.60 1.046
612.70 1.046
612.80 1.046
612.90 1.046
613.00 1.046
613.10 1.046
613.20 1.046
613.30 1.046
613.40 1.046
613.50 1.046
613.60 1.046
613.70 1.046
613.80 1.046
613.90 1.046
614.00 1.046
614.10 1.046
614.20 1.046
614.30 1.046
614.40 1.046
614.50 1.046
614.60 1.045
614.70 1.045
614.80 1.045
614.90 1.045
615.00 1.045
615.10 1.045
615.20 1.045
615.30 1.045
615.40 1.045
615.50 1.045
615.60 1.045
615.70 1.045
615.80 1.045
615.90 1.045
616.00 1.045
616.10 1.045
616.20 1.045
616.30 1.045
616.40 1.045
616.50 1.045
616.60 1.045
616.70 1.045
616.80 1.045
616.90 1.045
617.00 1.044
617.10 1.044
617.20 1.044
617.30 1.044
617.40 1.044
617.50 1.044
617.60 1.044
617.70 1.044
617.80 1.044
617.90 1.044
618.00 1.044
618.10 1.044
618.20 1.044
618.30 1.044
618.40 1.044
618.50 1.044
618.60 1.044
618.70 1.044
618.80 1.044
618.90 1.044
619.00 1.044
619.10 1.044
619.20 1.043
619.30 1.043
619.40 1.043
619.50 1.043
619.60 1.043
619.70 1.043
619.80 1.043
619.90 1.043
620.00 1.043
620.10 1.043
620.20 1.043
620.30 1.043
620.40 1.043
620.50 1.043
620.60 1.043
620.70 1.043
620.80 1.043
620.90 1.043
621.00 1.043
621.10 1.043
621.20 1.043
621.30 1.043
621.40 1.042
621.50 1.042
621.60 1.042
621.70 1.042
621.80 1.042
621.90 1.042
622.00 1.042
622.10 1.042
622.20 1.042
622.30 1.042
622.40 1.042
622.50 1.042
622.60 1.042
622.70 1.042
622.80 1.042
622.90 1.042
623.00 1.042
623.10 1.042
623.20 1.042
623.30 1.042
623.40 1.041
623.50 1.041
623.60 1.041
623.70 1.041
623.80 1.041
623.90 1.041
624.00 1.041
624.10 1.041
624.20 1.041
624.30 1.041
624.40 1.041
624.50 1.041
624.60 1.041
624.70 1.041
624.80 1.041
624.90 1.041
625.00 1.041
625.10 1.041
625.20 1.041
625.30 1.041
625.40 1.04
625.50 1.04
625.60 1.04
625.70 1.04
625.80 1.04
625.90 1.04
626.00 1.04
626.10 1.04
626.20 1.04
626.30 1.04
626.40 1.04
626.50 1.04
626.60 1.04
626.70 1.04
626.80 1.04
626.90 1.04
627.00 1.04
627.10 1.04
627.20 1.04
627.30 1.039
627.40 1.039
627.50 1.039
627.60 1.039
627.70 1.039
627.80 1.039
627.90 1.039
628.00 1.039
628.10 1.039
628.20 1.039
628.30 1.039
628.40 1.039
628.50 1.039
628.60 1.039
628.70 1.039
628.80 1.039
628.90 1.039
629.00 1.039
629.10 1.039
629.20 1.038
629.30 1.038
629.40 1.038
629.50 1.038
629.60 1.038
629.70 1.038
629.80 1.038
629.90 1.038
630.00 1.038
630.10 1.038
630.20 1.038
630.30 1.038
630.40 1.038
630.50 1.038
630.60 1.038
630.70 1.038
630.80 1.038
630.90 1.037
631.00 1.037
631.10 1.037
631.20 1.037
631.30 1.037
631.40 1.037
631.50 1.037
631.60 1.037
631.70 1.037
631.80 1.037
631.90 1.037
632.00 1.037
632.10 1.037
632.20 1.037
632.30 1.037
632.40 1.037
632.50 1.037
632.60 1.036
632.70 1.036
632.80 1.036
632.90 1.036
633.00 1.036
633.10 1.036
633.20 1.036
633.30 1.036
633.40 1.036
633.50 1.036
633.60 1.036
633.70 1.036
633.80 1.036
633.90 1.036
634.00 1.036
634.10 1.036
634.20 1.036
634.30 1.035
634.40 1.035
634.50 1.035
634.60 1.035
634.70 1.035
634.80 1.035
634.90 1.035
635.00 1.035
635.10 1.035
635.20 1.035
635.30 1.035
635.40 1.035
635.50 1.035
635.60 1.035
635.70 1.035
635.80 1.035
635.90 1.035
636.00 1.034
636.10 1.034
636.20 1.034
636.30 1.034
636.40 1.034
636.50 1.034
636.60 1.034
636.70 1.034
636.80 1.034
636.90 1.034
637.00 1.034
637.10 1.034
637.20 1.034
637.30 1.034
637.40 1.034
637.50 1.034
637.60 1.033
637.70 1.033
637.80 1.033
637.90 1.033
638.00 1.033
638.10 1.033
638.20 1.033
638.30 1.033
638.40 1.033
638.50 1.033
638.60 1.033
638.70 1.033
638.80 1.033
638.90 1.033
639.00 1.033
639.10 1.032
639.20 1.032
639.30 1.032
639.40 1.032
639.50 1.032
639.60 1.032
639.70 1.032
639.80 1.032
639.90 1.032
640.00 1.032
640.10 1.032
640.20 1.032
640.30 1.032
640.40 1.032
640.50 1.032
640.60 1.032
640.70 1.031
640.80 1.031
640.90 1.031
641.00 1.031
641.10 1.031
641.20 1.031
641.30 1.031
641.40 1.031
641.50 1.031
641.60 1.031
641.70 1.031
641.80 1.031
641.90 1.031
642.00 1.031
642.10 1.031
642.20 1.03
642.30 1.03
642.40 1.03
642.50 1.03
642.60 1.03
642.70 1.03
642.80 1.03
642.90 1.03
643.00 1.03
643.10 1.03
643.20 1.03
643.30 1.03
643.40 1.03
643.50 1.03
643.60 1.029
643.70 1.029
643.80 1.029
643.90 1.029
644.00 1.029
644.10 1.029
644.20 1.029
644.30 1.029
644.40 1.029
644.50 1.029
644.60 1.029
644.70 1.029
644.80 1.029
644.90 1.029
645.00 1.029
645.10 1.028
645.20 1.028
645.30 1.028
645.40 1.028
645.50 1.028
645.60 1.028
645.70 1.028
645.80 1.028
645.90 1.028
646.00 1.028
646.10 1.028
646.20 1.028
646.30 1.028
646.40 1.028
646.50 1.027
646.60 1.027
646.70 1.027
646.80 1.027
646.90 1.027
647.00 1.027
647.10 1.027
647.20 1.027
647.30 1.027
647.40 1.027
647.50 1.027
647.60 1.027
647.70 1.027
647.80 1.027
647.90 1.026
648.00 1.026
648.10 1.026
648.20 1.026
648.30 1.026
648.40 1.026
648.50 1.026
648.60 1.026
648.70 1.026
648.80 1.026
648.90 1.026
649.00 1.026
649.10 1.026
649.20 1.026
649.30 1.025
649.40 1.025
649.50 1.025
649.60 1.025
649.70 1.025
649.80 1.025
649.90 1.025
650.00 1.025
650.10 1.025
650.20 1.025
650.30 1.025
650.40 1.025
650.50 1.025
650.60 1.024
650.70 1.024
650.80 1.024
650.90 1.024
651.00 1.024
651.10 1.024
651.20 1.024
651.30 1.024
651.40 1.024
651.50 1.024
651.60 1.024
651.70 1.024
651.80 1.024
651.90 1.023
652.00 1.023
652.10 1.023
652.20 1.023
652.30 1.023
652.40 1.023
652.50 1.023
652.60 1.023
652.70 1.023
652.80 1.023
652.90 1.023
653.00 1.023
653.10 1.022
653.20 1.022
653.30 1.022
653.40 1.022
653.50 1.022
653.60 1.022
653.70 1.022
653.80 1.022
653.90 1.022
654.00 1.022
654.10 1.022
654.20 1.021
654.30 1.021
654.40 1.021
654.50 1.021
654.60 1.021
654.70 1.021
654.80 1.021
654.90 1.021
655.00 1.02
655.10 1.02
655.20 1.02
655.30 1.02
655.40 1.02
655.50 1.02
655.60 1.02
655.70 1.019
655.80 1.019
655.90 1.019
656.00 1.019
656.10 1.019
656.20 1.019
656.30 1.019
656.40 1.018
656.50 1.018
656.60 1.019
656.70 1.019
656.80 1.019
656.90 1.019
657.00 1.019
657.10 1.019
657.20 1.019
657.30 1.019
657.40 1.019
657.50 1.019
657.60 1.019
657.70 1.018
657.80 1.018
657.90 1.018
658.00 1.018
658.10 1.018
658.20 1.018
658.30 1.018
658.40 1.018
658.50 1.018
658.60 1.018
658.70 1.018
658.80 1.018
658.90 1.018
659.00 1.018
659.10 1.018
659.20 1.018
659.30 1.018
659.40 1.018
659.50 1.017
659.60 1.017
659.70 1.017
659.80 1.017
659.90 1.017
660.00 1.017
660.10 1.017
660.20 1.017
660.30 1.017
660.40 1.017
660.50 1.017
660.60 1.017
660.70 1.017
660.80 1.017
660.90 1.016
661.00 1.016
661.10 1.016
661.20 1.016
661.30 1.016
661.40 1.016
661.50 1.016
661.60 1.016
661.70 1.016
661.80 1.016
661.90 1.016
662.00 1.016
662.10 1.015
662.20 1.015
662.30 1.015
662.40 1.015
662.50 1.015
662.60 1.015
662.70 1.015
662.80 1.015
662.90 1.015
663.00 1.015
663.10 1.015
663.20 1.015
663.30 1.015
663.40 1.014
663.50 1.014
663.60 1.014
663.70 1.014
663.80 1.014
663.90 1.014
664.00 1.014
664.10 1.014
664.20 1.014
664.30 1.014
664.40 1.014
664.50 1.014
664.60 1.013
664.70 1.013
664.80 1.013
664.90 1.013
665.00 1.013
665.10 1.013
665.20 1.013
665.30 1.013
665.40 1.013
665.50 1.013
665.60 1.013
665.70 1.013
665.80 1.012
665.90 1.012
666.00 1.012
666.10 1.012
666.20 1.012
666.30 1.012
666.40 1.012
666.50 1.012
666.60 1.012
666.70 1.012
666.80 1.012
666.90 1.012
667.00 1.011
667.10 1.011
667.20 1.011
667.30 1.011
667.40 1.011
667.50 1.011
667.60 1.011
667.70 1.011
667.80 1.011
667.90 1.011
668.00 1.011
668.10 1.01
668.20 1.01
668.30 1.01
668.40 1.01
668.50 1.01
668.60 1.01
668.70 1.01
668.80 1.01
668.90 1.01
669.00 1.01
669.10 1.01
669.20 1.01
669.30 1.009
669.40 1.009
669.50 1.009
669.60 1.009
669.70 1.009
669.80 1.009
669.90 1.009
670.00 1.009
670.10 1.009
670.20 1.009
670.30 1.009
670.40 1.008
670.50 1.008
670.60 1.008
670.70 1.008
670.80 1.008
670.90 1.008
671.00 1.008
671.10 1.008
671.20 1.008
671.30 1.008
671.40 1.008
671.50 1.008
671.60 1.007
671.70 1.007
671.80 1.007
671.90 1.007
672.00 1.007
672.10 1.007
672.20 1.007
672.30 1.007
672.40 1.007
672.50 1.007
672.60 1.007
672.70 1.006
672.80 1.006
672.90 1.006
673.00 1.006
673.10 1.006
673.20 1.006
673.30 1.006
673.40 1.006
673.50 1.006
673.60 1.006
673.70 1.006
673.80 1.005
673.90 1.005
674.00 1.005
674.10 1.005
674.20 1.005
674.30 1.005
674.40 1.005
674.50 1.005
674.60 1.005
674.70 1.005
674.80 1.005
674.90 1.004
675.00 1.004
675.10 1.004
675.20 1.004
675.30 1.004
675.40 1.004
675.50 1.004
675.60 1.004
675.70 1.004
675.80 1.004
675.90 1.004
676.00 1.003
676.10 1.003
676.20 1.003
676.30 1.003
676.40 1.003
676.50 1.003
676.60 1.003
676.70 1.003
676.80 1.003
676.90 1.003
677.00 1.003
677.10 1.002
677.20 1.002
677.30 1.002
677.40 1.002
677.50 1.002
677.60 1.002
677.70 1.002
677.80 1.002
677.90 1.002
678.00 1.002
678.10 1.002
678.20 1.001
678.30 1.001
678.40 1.001
678.50 1.001
678.60 1.001
678.70 1.001
678.80 1.001
678.90 1.001
679.00 1.001
679.10 1.001
679.20 1.001
679.30 1
679.40 1
679.50 1
679.60 1
679.70 1
679.80 1
679.90 0.9999
680.00 0.9998
680.10 0.9997
680.20 0.9996
680.30 0.9995
680.40 0.9994
680.50 0.9993
680.60 0.9992
680.70 0.9991
680.80 0.999
680.90 0.9989
681.00 0.9988
681.10 0.9987
681.20 0.9986
681.30 0.9985
681.40 0.9984
681.50 0.9983
681.60 0.9983
681.70 0.9982
681.80 0.9981
681.90 0.998
682.00 0.9979
682.10 0.9978
682.20 0.9977
682.30 0.9976
682.40 0.9975
682.50 0.9974
682.60 0.9973
682.70 0.9972
682.80 0.9971
682.90 0.997
683.00 0.9969
683.10 0.9968
683.20 0.9967
683.30 0.9966
683.40 0.9966
683.50 0.9965
683.60 0.9964
683.70 0.9963
683.80 0.9962
683.90 0.9961
684.00 0.996
684.10 0.9959
684.20 0.9958
684.30 0.9957
684.40 0.9956
684.50 0.9955
684.60 0.9954
684.70 0.9953
684.80 0.9952
684.90 0.9951
685.00 0.995
685.10 0.9949
685.20 0.9948
685.30 0.9947
685.40 0.9946
685.50 0.9945
685.60 0.9944
685.70 0.9943
685.80 0.9942
685.90 0.9941
686.00 0.994
686.10 0.994
686.20 0.9939
686.30 0.9938
686.40 0.9937
686.50 0.9936
686.60 0.9935
686.70 0.9934
686.80 0.9933
686.90 0.9932
687.00 0.9931
687.10 0.993
687.20 0.9929
687.30 0.9928
687.40 0.9927
687.50 0.9926
687.60 0.9925
687.70 0.9924
687.80 0.9923
687.90 0.9922
688.00 0.9921
688.10 0.992
688.20 0.9919
688.30 0.9918
688.40 0.9917
688.50 0.9916
688.60 0.9915
688.70 0.9914
688.80 0.9913
688.90 0.9912
689.00 0.9911
689.10 0.991
689.20 0.9909
689.30 0.9908
689.40 0.9907
689.50 0.9906
689.60 0.9905
689.70 0.9904
689.80 0.9903
689.90 0.9902
690.00 0.9901
690.10 0.99
690.20 0.9899
690.30 0.9898
690.40 0.9897
690.50 0.9896
690.60 0.9895
690.70 0.9894
690.80 0.9893
690.90 0.9892
691.00 0.9891
691.10 0.989
691.20 0.9889
691.30 0.9888
691.40 0.9887
691.50 0.9886
691.60 0.9885
691.70 0.9884
691.80 0.9883
691.90 0.9882
692.00 0.9881
692.10 0.988
692.20 0.9879
692.30 0.9878
692.40 0.9877
692.50 0.9876
692.60 0.9875
692.70 0.9874
692.80 0.9873
692.90 0.9872
693.00 0.9871
693.10 0.987
693.20 0.9869
693.30 0.9868
693.40 0.9867
693.50 0.9866
693.60 0.9865
693.70 0.9864
693.80 0.9863
693.90 0.9862
694.00 0.9861
694.10 0.986
694.20 0.9859
694.30 0.9858
694.40 0.9857
694.50 0.9856
694.60 0.9855
694.70 0.9854
694.80 0.9853
694.90 0.9852
695.00 0.9851
695.10 0.985
695.20 0.9849
695.30 0.9848
695.40 0.9847
695.50 0.9846
695.60 0.9845
695.70 0.9844
695.80 0.9843
695.90 0.9842
696.00 0.9841
696.10 0.984
696.20 0.9839
696.30 0.9838
696.40 0.9836
696.50 0.9835
696.60 0.9834
696.70 0.9833
696.80 0.9832
696.90 0.9831
697.00 0.983
697.10 0.9829
697.20 0.9828
697.30 0.9827
697.40 0.9826
697.50 0.9825
697.60 0.9824
697.70 0.9823
697.80 0.9822
697.90 0.9821
698.00 0.982
698.10 0.9819
698.20 0.9818
698.30 0.9817
698.40 0.9816
698.50 0.9815
698.60 0.9814
698.70 0.9813
698.80 0.9812
698.90 0.9811
699.00 0.981
699.10 0.9809
699.20 0.9808
699.30 0.9807
699.40 0.9806
699.50 0.9805
699.60 0.9804
699.70 0.9803
699.80 0.9802
699.90 0.9801
700.00 0.98
700.10 0.9799
700.20 0.9797
700.30 0.9796
700.40 0.9795
700.50 0.9794
700.60 0.9793
700.70 0.9792
700.80 0.9791
700.90 0.979
701.00 0.9789
701.10 0.9788
701.20 0.9787
701.30 0.9786
701.40 0.9785
701.50 0.9784
701.60 0.9783
701.70 0.9782
701.80 0.9781
701.90 0.978
702.00 0.9779
702.10 0.9777
702.20 0.9776
702.30 0.9775
702.40 0.9774
702.50 0.9773
702.60 0.9772
702.70 0.9771
702.80 0.977
702.90 0.9769
703.00 0.9768
703.10 0.9767
703.20 0.9766
703.30 0.9765
703.40 0.9764
703.50 0.9763
703.60 0.9762
703.70 0.9761
703.80 0.976
703.90 0.9759
704.00 0.9757
704.10 0.9756
704.20 0.9755
704.30 0.9754
704.40 0.9753
704.50 0.9752
704.60 0.9751
704.70 0.975
704.80 0.9749
704.90 0.9748
705.00 0.9747
705.10 0.9746
705.20 0.9745
705.30 0.9744
705.40 0.9743
705.50 0.9742
705.60 0.9741
705.70 0.9739
705.80 0.9738
705.90 0.9737
706.00 0.9736
706.10 0.9735
706.20 0.9734
706.30 0.9733
706.40 0.9732
706.50 0.9731
706.60 0.973
706.70 0.9729
706.80 0.9728
706.90 0.9727
707.00 0.9725
707.10 0.9724
707.20 0.9723
707.30 0.9722
707.40 0.9721
707.50 0.972
707.60 0.9719
707.70 0.9718
707.80 0.9717
707.90 0.9716
708.00 0.9715
708.10 0.9714
708.20 0.9713
708.30 0.9711
708.40 0.971
708.50 0.9709
708.60 0.9708
708.70 0.9707
708.80 0.9706
708.90 0.9705
709.00 0.9704
709.10 0.9703
709.20 0.9702
709.30 0.9701
709.40 0.97
709.50 0.9699
709.60 0.9697
709.70 0.9696
709.80 0.9695
709.90 0.9694
710.00 0.9693
710.10 0.9692
710.20 0.9691
710.30 0.969
710.40 0.9689
710.50 0.9688
710.60 0.9687
710.70 0.9686
710.80 0.9684
710.90 0.9683
711.00 0.9682
711.10 0.9681
711.20 0.968
711.30 0.9679
711.40 0.9678
711.50 0.9677
711.60 0.9676
711.70 0.9675
711.80 0.9673
711.90 0.9672
712.00 0.9671
712.10 0.967
712.20 0.9669
712.30 0.9668
712.40 0.9667
712.50 0.9666
712.60 0.9665
712.70 0.9664
712.80 0.9662
712.90 0.9661
713.00 0.966
713.10 0.9659
713.20 0.9658
713.30 0.9657
713.40 0.9656
713.50 0.9655
713.60 0.9654
713.70 0.9653
713.80 0.9652
713.90 0.965
714.00 0.9649
714.10 0.9648
714.20 0.9647
714.30 0.9646
714.40 0.9645
714.50 0.9644
714.60 0.9643
714.70 0.9642
714.80 0.9641
714.90 0.964
715.00 0.9638
715.10 0.9637
715.20 0.9636
715.30 0.9635
715.40 0.9634
715.50 0.9633
715.60 0.9632
715.70 0.9631
715.80 0.963
715.90 0.9628
716.00 0.9627
716.10 0.9626
716.20 0.9625
716.30 0.9624
716.40 0.9623
716.50 0.9622
716.60 0.9621
716.70 0.9619
716.80 0.9618
716.90 0.9617
717.00 0.9616
717.10 0.9615
717.20 0.9614
717.30 0.9613
717.40 0.9612
717.50 0.9611
717.60 0.9609
717.70 0.9608
717.80 0.9607
717.90 0.9606
718.00 0.9605
718.10 0.9604
718.20 0.9603
718.30 0.9602
718.40 0.96
718.50 0.9599
718.60 0.9598
718.70 0.9597
718.80 0.9596
718.90 0.9595
719.00 0.9594
719.10 0.9593
719.20 0.9592
719.30 0.959
719.40 0.9589
719.50 0.9588
719.60 0.9587
719.70 0.9586
719.80 0.9585
719.90 0.9584
720.00 0.9583
720.10 0.9582
720.20 0.958
720.30 0.9579
720.40 0.9578
720.50 0.9577
720.60 0.9576
720.70 0.9575
720.80 0.9574
720.90 0.9572
721.00 0.9571
721.10 0.957
721.20 0.9569
721.30 0.9568
721.40 0.9567
721.50 0.9566
721.60 0.9565
721.70 0.9563
721.80 0.9562
721.90 0.9561
722.00 0.956
722.10 0.9559
722.20 0.9558
722.30 0.9557
722.40 0.9555
722.50 0.9554
722.60 0.9553
722.70 0.9552
722.80 0.9551
722.90 0.955
723.00 0.9549
723.10 0.9548
723.20 0.9546
723.30 0.9545
723.40 0.9544
723.50 0.9543
723.60 0.9542
723.70 0.9541
723.80 0.954
723.90 0.9538
724.00 0.9537
724.10 0.9536
724.20 0.9535
724.30 0.9534
724.40 0.9533
724.50 0.9532
724.60 0.9531
724.70 0.9529
724.80 0.9528
724.90 0.9527
725.00 0.9526
725.10 0.9525
725.20 0.9524
725.30 0.9523
725.40 0.9521
725.50 0.952
725.60 0.9519
725.70 0.9518
725.80 0.9517
725.90 0.9516
726.00 0.9515
726.10 0.9513
726.20 0.9512
726.30 0.9511
726.40 0.951
726.50 0.9509
726.60 0.9508
726.70 0.9507
726.80 0.9505
726.90 0.9504
727.00 0.9503
727.10 0.9502
727.20 0.9501
727.30 0.95
727.40 0.9498
727.50 0.9497
727.60 0.9496
727.70 0.9495
727.80 0.9494
727.90 0.9493
728.00 0.9492
728.10 0.949
728.20 0.9489
728.30 0.9488
728.40 0.9487
728.50 0.9486
728.60 0.9485
728.70 0.9484
728.80 0.9482
728.90 0.9481
729.00 0.948
729.10 0.9479
729.20 0.9478
729.30 0.9477
729.40 0.9476
729.50 0.9474
729.60 0.9473
729.70 0.9472
729.80 0.9471
729.90 0.947
730.00 0.9469
730.10 0.9468
730.20 0.9466
730.30 0.9465
730.40 0.9464
730.50 0.9463
730.60 0.9462
730.70 0.946
730.80 0.9459
730.90 0.9458
731.00 0.9457
731.10 0.9456
731.20 0.9455
731.30 0.9453
731.40 0.9452
731.50 0.9451
731.60 0.945
731.70 0.9449
731.80 0.9447
731.90 0.9446
732.00 0.9445
732.10 0.9444
732.20 0.9443
732.30 0.9442
732.40 0.944
732.50 0.9439
732.60 0.9438
732.70 0.9437
732.80 0.9436
732.90 0.9434
733.00 0.9433
733.10 0.9432
733.20 0.9431
733.30 0.943
733.40 0.9429
733.50 0.9427
733.60 0.9426
733.70 0.9425
733.80 0.9424
733.90 0.9423
734.00 0.9421
734.10 0.942
734.20 0.9419
734.30 0.9418
734.40 0.9417
734.50 0.9416
734.60 0.9414
734.70 0.9413
734.80 0.9412
734.90 0.9411
735.00 0.941
735.10 0.9409
735.20 0.9407
735.30 0.9406
735.40 0.9405
735.50 0.9404
735.60 0.9403
735.70 0.9402
735.80 0.94
735.90 0.9399
736.00 0.9398
736.10 0.9397
736.20 0.9396
736.30 0.9395
736.40 0.9393
736.50 0.9392
736.60 0.9391
736.70 0.939
736.80 0.9389
736.90 0.9388
737.00 0.9386
737.10 0.9385
737.20 0.9384
737.30 0.9383
737.40 0.9382
737.50 0.9381
737.60 0.9379
737.70 0.9378
737.80 0.9377
737.90 0.9376
738.00 0.9375
738.10 0.9374
738.20 0.9372
738.30 0.9371
738.40 0.937
738.50 0.9369
738.60 0.9368
738.70 0.9367
738.80 0.9365
738.90 0.9364
739.00 0.9363
739.10 0.9362
739.20 0.9361
739.30 0.936
739.40 0.9358
739.50 0.9357
739.60 0.9356
739.70 0.9355
739.80 0.9354
739.90 0.9353
740.00 0.9352
740.10 0.935
740.20 0.9349
740.30 0.9348
740.40 0.9347
740.50 0.9345
740.60 0.9344
740.70 0.9343
740.80 0.9342
740.90 0.9341
741.00 0.9339
741.10 0.9338
741.20 0.9337
741.30 0.9336
741.40 0.9335
741.50 0.9333
741.60 0.9332
741.70 0.9331
741.80 0.933
741.90 0.9329
742.00 0.9327
742.10 0.9326
742.20 0.9325
742.30 0.9324
742.40 0.9323
742.50 0.9321
742.60 0.932
742.70 0.9319
742.80 0.9318
742.90 0.9317
743.00 0.9315
743.10 0.9314
743.20 0.9313
743.30 0.9312
743.40 0.9311
743.50 0.9309
743.60 0.9308
743.70 0.9307
743.80 0.9306
743.90 0.9305
744.00 0.9303
744.10 0.9302
744.20 0.9301
744.30 0.93
744.40 0.9299
744.50 0.9297
744.60 0.9296
744.70 0.9295
744.80 0.9294
744.90 0.9293
745.00 0.9291
745.10 0.929
745.20 0.9289
745.30 0.9288
745.40 0.9287
745.50 0.9285
745.60 0.9284
745.70 0.9283
745.80 0.9282
745.90 0.9281
746.00 0.9279
746.10 0.9278
746.20 0.9277
746.30 0.9276
746.40 0.9275
746.50 0.9273
746.60 0.9272
746.70 0.9271
746.80 0.927
746.90 0.9269
747.00 0.9267
747.10 0.9266
747.20 0.9265
747.30 0.9264
747.40 0.9263
747.50 0.9262
747.60 0.926
747.70 0.9259
747.80 0.9258
747.90 0.9257
748.00 0.9256
748.10 0.9254
748.20 0.9253
748.30 0.9252
748.40 0.9251
748.50 0.925
748.60 0.9248
748.70 0.9247
748.80 0.9246
748.90 0.9245
749.00 0.9244
749.10 0.9243
749.20 0.9241
749.30 0.924
749.40 0.9239
749.50 0.9238
749.60 0.9237
749.70 0.9235
749.80 0.9234
749.90 0.9233
750.00 0.9232
750.10 0.9231
750.20 0.9229
750.30 0.9228
750.40 0.9227
750.50 0.9226
750.60 0.9224
750.70 0.9223
750.80 0.9222
750.90 0.9221
751.00 0.922
751.10 0.9218
751.20 0.9217
751.30 0.9216
751.40 0.9215
751.50 0.9213
751.60 0.9212
751.70 0.9211
751.80 0.921
751.90 0.9208
752.00 0.9207
752.10 0.9206
752.20 0.9205
752.30 0.9204
752.40 0.9202
752.50 0.9201
752.60 0.92
752.70 0.9199
752.80 0.9197
752.90 0.9196
753.00 0.9195
753.10 0.9194
753.20 0.9193
753.30 0.9191
753.40 0.919
753.50 0.9189
753.60 0.9188
753.70 0.9186
753.80 0.9185
753.90 0.9184
754.00 0.9183
754.10 0.9181
754.20 0.918
754.30 0.9179
754.40 0.9178
754.50 0.9177
754.60 0.9175
754.70 0.9174
754.80 0.9173
754.90 0.9172
755.00 0.917
755.10 0.9169
755.20 0.9168
755.30 0.9167
755.40 0.9166
755.50 0.9164
755.60 0.9163
755.70 0.9162
755.80 0.9161
755.90 0.916
756.00 0.9158
756.10 0.9157
756.20 0.9156
756.30 0.9155
756.40 0.9153
756.50 0.9152
756.60 0.9151
756.70 0.915
756.80 0.9149
756.90 0.9147
757.00 0.9146
757.10 0.9145
757.20 0.9144
757.30 0.9143
757.40 0.9141
757.50 0.914
757.60 0.9139
757.70 0.9138
757.80 0.9136
757.90 0.9135
758.00 0.9134
758.10 0.9133
758.20 0.9132
758.30 0.913
758.40 0.9129
758.50 0.9128
758.60 0.9127
758.70 0.9126
758.80 0.9124
758.90 0.9123
759.00 0.9122
759.10 0.9121
759.20 0.912
759.30 0.9118
759.40 0.9117
759.50 0.9116
759.60 0.9115
759.70 0.9114
759.80 0.9112
759.90 0.9111
760.00 0.911
760.10 0.9109
760.20 0.9107
760.30 0.9106
760.40 0.9105
760.50 0.9104
760.60 0.9102
760.70 0.9101
760.80 0.91
760.90 0.9099
761.00 0.9097
761.10 0.9096
761.20 0.9095
761.30 0.9094
761.40 0.9092
761.50 0.9091
761.60 0.909
761.70 0.9089
761.80 0.9087
761.90 0.9086
762.00 0.9085
762.10 0.9084
762.20 0.9082
762.30 0.9081
762.40 0.908
762.50 0.9079
762.60 0.9077
762.70 0.9076
762.80 0.9075
762.90 0.9074
763.00 0.9072
763.10 0.9071
763.20 0.907
763.30 0.9069
763.40 0.9068
763.50 0.9066
763.60 0.9065
763.70 0.9064
763.80 0.9063
763.90 0.9061
764.00 0.906
764.10 0.9059
764.20 0.9058
764.30 0.9056
764.40 0.9055
764.50 0.9054
764.60 0.9053
764.70 0.9051
764.80 0.905
764.90 0.9049
765.00 0.9048
765.10 0.9046
765.20 0.9045
765.30 0.9044
765.40 0.9043
765.50 0.9042
765.60 0.904
765.70 0.9039
765.80 0.9038
765.90 0.9037
766.00 0.9035
766.10 0.9034
766.20 0.9033
766.30 0.9032
766.40 0.903
766.50 0.9029
766.60 0.9028
766.70 0.9027
766.80 0.9025
766.90 0.9024
767.00 0.9023
767.10 0.9022
767.20 0.9021
767.30 0.9019
767.40 0.9018
767.50 0.9017
767.60 0.9016
767.70 0.9014
767.80 0.9013
767.90 0.9012
768.00 0.9011
768.10 0.901
768.20 0.9008
768.30 0.9007
768.40 0.9006
768.50 0.9005
768.60 0.9003
768.70 0.9002
768.80 0.9001
768.90 0.9
769.00 0.8999
769.10 0.8997
769.20 0.8996
769.30 0.8995
769.40 0.8994
769.50 0.8992
769.60 0.8991
769.70 0.899
769.80 0.8989
769.90 0.8988
770.00 0.8986
770.10 0.8985
770.20 0.8984
770.30 0.8982
770.40 0.8981
770.50 0.898
770.60 0.8979
770.70 0.8977
770.80 0.8976
770.90 0.8975
771.00 0.8974
771.10 0.8972
771.20 0.8971
771.30 0.897
771.40 0.8969
771.50 0.8967
771.60 0.8966
771.70 0.8965
771.80 0.8963
771.90 0.8962
772.00 0.8961
772.10 0.896
772.20 0.8958
772.30 0.8957
772.40 0.8956
772.50 0.8955
772.60 0.8953
772.70 0.8952
772.80 0.8951
772.90 0.895
773.00 0.8948
773.10 0.8947
773.20 0.8946
773.30 0.8945
773.40 0.8943
773.50 0.8942
773.60 0.8941
773.70 0.894
773.80 0.8938
773.90 0.8937
774.00 0.8936
774.10 0.8934
774.20 0.8933
774.30 0.8932
774.40 0.8931
774.50 0.8929
774.60 0.8928
774.70 0.8927
774.80 0.8926
774.90 0.8924
775.00 0.8923
775.10 0.8922
775.20 0.8921
775.30 0.8919
775.40 0.8918
775.50 0.8917
775.60 0.8916
775.70 0.8914
775.80 0.8913
775.90 0.8912
776.00 0.8911
776.10 0.8909
776.20 0.8908
776.30 0.8907
776.40 0.8906
776.50 0.8904
776.60 0.8903
776.70 0.8902
776.80 0.8901
776.90 0.8899
777.00 0.8898
777.10 0.8897
777.20 0.8896
777.30 0.8894
777.40 0.8893
777.50 0.8892
777.60 0.8891
777.70 0.8889
777.80 0.8888
777.90 0.8887
778.00 0.8886
778.10 0.8884
778.20 0.8883
778.30 0.8882
778.40 0.8881
778.50 0.888
778.60 0.8878
778.70 0.8877
778.80 0.8876
778.90 0.8875
779.00 0.8873
779.10 0.8872
779.20 0.8871
779.30 0.887
779.40 0.8868
779.50 0.8867
779.60 0.8866
779.70 0.8865
779.80 0.8863
779.90 0.8862
780.00 0.8861
780.10 0.886
780.20 0.8858
780.30 0.8857
780.40 0.8856
780.50 0.8855
780.60 0.8853
780.70 0.8852
780.80 0.8851
780.90 0.8849
781.00 0.8848
781.10 0.8847
781.20 0.8846
781.30 0.8844
781.40 0.8843
781.50 0.8842
781.60 0.884
781.70 0.8839
781.80 0.8838
781.90 0.8837
782.00 0.8835
782.10 0.8834
782.20 0.8833
782.30 0.8832
782.40 0.883
782.50 0.8829
782.60 0.8828
782.70 0.8826
782.80 0.8825
782.90 0.8824
783.00 0.8823
783.10 0.8821
783.20 0.882
783.30 0.8819
783.40 0.8818
783.50 0.8816
783.60 0.8815
783.70 0.8814
783.80 0.8812
783.90 0.8811
784.00 0.881
784.10 0.8809
784.20 0.8807
784.30 0.8806
784.40 0.8805
784.50 0.8804
784.60 0.8802
784.70 0.8801
784.80 0.88
784.90 0.8799
785.00 0.8797
785.10 0.8796
785.20 0.8795
785.30 0.8794
785.40 0.8792
785.50 0.8791
785.60 0.879
785.70 0.8788
785.80 0.8787
785.90 0.8786
786.00 0.8785
786.10 0.8783
786.20 0.8782
786.30 0.8781
786.40 0.878
786.50 0.8778
786.60 0.8777
786.70 0.8776
786.80 0.8775
786.90 0.8773
787.00 0.8772
787.10 0.8771
787.20 0.877
787.30 0.8768
787.40 0.8767
787.50 0.8766
787.60 0.8765
787.70 0.8763
787.80 0.8762
787.90 0.8761
788.00 0.876
788.10 0.8758
788.20 0.8757
788.30 0.8756
788.40 0.8755
788.50 0.8753
788.60 0.8752
788.70 0.8751
788.80 0.875
788.90 0.8748
789.00 0.8747
789.10 0.8746
789.20 0.8745
789.30 0.8743
789.40 0.8742
789.50 0.8741
789.60 0.874
789.70 0.8738
789.80 0.8737
789.90 0.8736
790.00 0.8735
790.10 0.8733
790.20 0.8732
790.30 0.8731
790.40 0.8729
790.50 0.8728
790.60 0.8727
790.70 0.8726
790.80 0.8724
790.90 0.8723
791.00 0.8722
791.10 0.872
791.20 0.8719
791.30 0.8718
791.40 0.8717
791.50 0.8715
791.60 0.8714
791.70 0.8713
791.80 0.8711
791.90 0.871
792.00 0.8709
792.10 0.8708
792.20 0.8706
792.30 0.8705
792.40 0.8704
792.50 0.8702
792.60 0.8701
792.70 0.87
792.80 0.8699
792.90 0.8697
793.00 0.8696
793.10 0.8695
793.20 0.8693
793.30 0.8692
793.40 0.8691
793.50 0.869
793.60 0.8688
793.70 0.8687
793.80 0.8686
793.90 0.8684
794.00 0.8683
794.10 0.8682
794.20 0.8681
794.30 0.8679
794.40 0.8678
794.50 0.8677
794.60 0.8676
794.70 0.8674
794.80 0.8673
794.90 0.8672
795.00 0.867
795.10 0.8669
795.20 0.8668
795.30 0.8667
795.40 0.8665
795.50 0.8664
795.60 0.8663
795.70 0.8662
795.80 0.866
795.90 0.8659
796.00 0.8658
796.10 0.8656
796.20 0.8655
796.30 0.8654
796.40 0.8653
796.50 0.8651
796.60 0.865
796.70 0.8649
796.80 0.8648
796.90 0.8646
797.00 0.8645
797.10 0.8644
797.20 0.8642
797.30 0.8641
797.40 0.864
797.50 0.8639
797.60 0.8637
797.70 0.8636
797.80 0.8635
797.90 0.8634
798.00 0.8632
798.10 0.8631
798.20 0.863
798.30 0.8629
798.40 0.8627
798.50 0.8626
798.60 0.8625
798.70 0.8624
798.80 0.8622
798.90 0.8621
799.00 0.862
799.10 0.8618
799.20 0.8617
799.30 0.8616
799.40 0.8615
799.50 0.8613
799.60 0.8612
799.70 0.8611
799.80 0.861
799.90 0.8608
800.00 0.8607
800.10 0.8606
800.20 0.8605
800.30 0.8603
800.40 0.8602
800.50 0.8601
800.60 0.8599
800.70 0.8598
800.80 0.8597
800.90 0.8595
801.00 0.8594
801.10 0.8593
801.20 0.8592
801.30 0.859
801.40 0.8589
801.50 0.8588
801.60 0.8586
801.70 0.8585
801.80 0.8584
801.90 0.8582
802.00 0.8581
802.10 0.858
802.20 0.8579
802.30 0.8577
802.40 0.8576
802.50 0.8575
802.60 0.8573
802.70 0.8572
802.80 0.8571
802.90 0.857
803.00 0.8568
803.10 0.8567
803.20 0.8566
803.30 0.8564
803.40 0.8563
803.50 0.8562
803.60 0.8561
803.70 0.8559
803.80 0.8558
803.90 0.8557
804.00 0.8555
804.10 0.8554
804.20 0.8553
804.30 0.8552
804.40 0.855
804.50 0.8549
804.60 0.8548
804.70 0.8546
804.80 0.8545
804.90 0.8544
805.00 0.8543
805.10 0.8541
805.20 0.854
805.30 0.8539
805.40 0.8537
805.50 0.8536
805.60 0.8535
805.70 0.8534
805.80 0.8532
805.90 0.8531
806.00 0.853
806.10 0.8528
806.20 0.8527
806.30 0.8526
806.40 0.8525
806.50 0.8523
806.60 0.8522
806.70 0.8521
806.80 0.852
806.90 0.8518
807.00 0.8517
807.10 0.8516
807.20 0.8514
807.30 0.8513
807.40 0.8512
807.50 0.8511
807.60 0.8509
807.70 0.8508
807.80 0.8507
807.90 0.8506
808.00 0.8504
808.10 0.8503
808.20 0.8502
808.30 0.85
808.40 0.8499
808.50 0.8498
808.60 0.8497
808.70 0.8495
808.80 0.8494
808.90 0.8493
809.00 0.8492
809.10 0.849
809.20 0.8489
809.30 0.8488
809.40 0.8487
809.50 0.8485
809.60 0.8484
809.70 0.8483
809.80 0.8481
809.90 0.848
810.00 0.8479
810.10 0.8478
810.20 0.8476
810.30 0.8475
810.40 0.8474
810.50 0.8472
810.60 0.8471
810.70 0.847
810.80 0.8469
810.90 0.8467
811.00 0.8466
811.10 0.8465
811.20 0.8463
811.30 0.8462
811.40 0.8461
811.50 0.8459
811.60 0.8458
811.70 0.8457
811.80 0.8456
811.90 0.8454
812.00 0.8453
812.10 0.8452
812.20 0.845
812.30 0.8449
812.40 0.8448
812.50 0.8446
812.60 0.8445
812.70 0.8444
812.80 0.8443
812.90 0.8441
813.00 0.844
813.10 0.8439
813.20 0.8437
813.30 0.8436
813.40 0.8435
813.50 0.8434
813.60 0.8432
813.70 0.8431
813.80 0.843
813.90 0.8428
814.00 0.8427
814.10 0.8426
814.20 0.8424
814.30 0.8423
814.40 0.8422
814.50 0.8421
814.60 0.8419
814.70 0.8418
814.80 0.8417
814.90 0.8415
815.00 0.8414
815.10 0.8413
815.20 0.8412
815.30 0.841
815.40 0.8409
815.50 0.8408
815.60 0.8406
815.70 0.8405
815.80 0.8404
815.90 0.8403
816.00 0.8401
816.10 0.84
816.20 0.8399
816.30 0.8398
816.40 0.8396
816.50 0.8395
816.60 0.8394
816.70 0.8392
816.80 0.8391
816.90 0.839
817.00 0.8389
817.10 0.8387
817.20 0.8386
817.30 0.8385
817.40 0.8383
817.50 0.8382
817.60 0.8381
817.70 0.838
817.80 0.8378
817.90 0.8377
818.00 0.8376
818.10 0.8375
818.20 0.8373
818.30 0.8372
818.40 0.8371
818.50 0.8369
818.60 0.8368
818.70 0.8367
818.80 0.8366
818.90 0.8364
819.00 0.8363
819.10 0.8362
819.20 0.8361
819.30 0.8359
819.40 0.8358
819.50 0.8357
819.60 0.8355
819.70 0.8354
819.80 0.8353
819.90 0.8352
820.00 0.835
820.10 0.8349
820.20 0.8348
820.30 0.8347
820.40 0.8345
820.50 0.8344
820.60 0.8343
820.70 0.8341
820.80 0.834
820.90 0.8339
821.00 0.8338
821.10 0.8336
821.20 0.8335
821.30 0.8334
821.40 0.8332
821.50 0.8331
821.60 0.833
821.70 0.8328
821.80 0.8327
821.90 0.8326
822.00 0.8325
822.10 0.8323
822.20 0.8322
822.30 0.8321
822.40 0.8319
822.50 0.8318
822.60 0.8317
822.70 0.8316
822.80 0.8314
822.90 0.8313
823.00 0.8312
823.10 0.831
823.20 0.8309
823.30 0.8308
823.40 0.8306
823.50 0.8305
823.60 0.8304
823.70 0.8303
823.80 0.8301
823.90 0.83
824.00 0.8299
824.10 0.8297
824.20 0.8296
824.30 0.8295
824.40 0.8294
824.50 0.8292
824.60 0.8291
824.70 0.829
824.80 0.8288
824.90 0.8287
825.00 0.8286
825.10 0.8284
825.20 0.8283
825.30 0.8282
825.40 0.8281
825.50 0.8279
825.60 0.8278
825.70 0.8277
825.80 0.8275
825.90 0.8274
826.00 0.8273
826.10 0.8272
826.20 0.827
826.30 0.8269
826.40 0.8268
826.50 0.8266
826.60 0.8265
826.70 0.8264
826.80 0.8263
826.90 0.8261
827.00 0.826
827.10 0.8259
827.20 0.8257
827.30 0.8256
827.40 0.8255
827.50 0.8254
827.60 0.8252
827.70 0.8251
827.80 0.825
827.90 0.8248
828.00 0.8247
828.10 0.8246
828.20 0.8245
828.30 0.8243
828.40 0.8242
828.50 0.8241
828.60 0.8239
828.70 0.8238
828.80 0.8237
828.90 0.8235
829.00 0.8234
829.10 0.8233
829.20 0.8232
829.30 0.823
829.40 0.8229
829.50 0.8228
829.60 0.8226
829.70 0.8225
829.80 0.8224
829.90 0.8223
830.00 0.8221
830.10 0.822
830.20 0.8219
830.30 0.8217
830.40 0.8216
830.50 0.8215
830.60 0.8214
830.70 0.8212
830.80 0.8211
830.90 0.821
831.00 0.8208
831.10 0.8207
831.20 0.8206
831.30 0.8205
831.40 0.8203
831.50 0.8202
831.60 0.8201
831.70 0.8199
831.80 0.8198
831.90 0.8197
832.00 0.8196
832.10 0.8194
832.20 0.8193
832.30 0.8192
832.40 0.819
832.50 0.8189
832.60 0.8188
832.70 0.8187
832.80 0.8185
832.90 0.8184
833.00 0.8183
833.10 0.8181
833.20 0.818
833.30 0.8179
833.40 0.8177
833.50 0.8176
833.60 0.8175
833.70 0.8174
833.80 0.8172
833.90 0.8171
834.00 0.817
834.10 0.8168
834.20 0.8167
834.30 0.8166
834.40 0.8165
834.50 0.8163
834.60 0.8162
834.70 0.8161
834.80 0.8159
834.90 0.8158
835.00 0.8157
835.10 0.8156
835.20 0.8154
835.30 0.8153
835.40 0.8152
835.50 0.815
835.60 0.8149
835.70 0.8148
835.80 0.8147
835.90 0.8145
836.00 0.8144
836.10 0.8143
836.20 0.8141
836.30 0.814
836.40 0.8139
836.50 0.8138
836.60 0.8136
836.70 0.8135
836.80 0.8134
836.90 0.8132
837.00 0.8131
837.10 0.813
837.20 0.8129
837.30 0.8127
837.40 0.8126
837.50 0.8125
837.60 0.8123
837.70 0.8122
837.80 0.8121
837.90 0.812
838.00 0.8118
838.10 0.8117
838.20 0.8116
838.30 0.8114
838.40 0.8113
838.50 0.8112
838.60 0.811
838.70 0.8109
838.80 0.8108
838.90 0.8107
839.00 0.8105
839.10 0.8104
839.20 0.8103
839.30 0.8101
839.40 0.81
839.50 0.8099
839.60 0.8098
839.70 0.8096
839.80 0.8095
839.90 0.8094
840.00 0.8092
840.10 0.8091
840.20 0.809
840.30 0.8089
840.40 0.8087
840.50 0.8086
840.60 0.8085
840.70 0.8083
840.80 0.8082
840.90 0.8081
841.00 0.808
841.10 0.8078
841.20 0.8077
841.30 0.8076
841.40 0.8074
841.50 0.8073
841.60 0.8072
841.70 0.8071
841.80 0.8069
841.90 0.8068
842.00 0.8067
842.10 0.8065
842.20 0.8064
842.30 0.8063
842.40 0.8062
842.50 0.806
842.60 0.8059
842.70 0.8058
842.80 0.8056
842.90 0.8055
843.00 0.8054
843.10 0.8052
843.20 0.8051
843.30 0.805
843.40 0.8049
843.50 0.8047
843.60 0.8046
843.70 0.8045
843.80 0.8043
843.90 0.8042
844.00 0.8041
844.10 0.804
844.20 0.8038
844.30 0.8037
844.40 0.8036
844.50 0.8034
844.60 0.8033
844.70 0.8032
844.80 0.803
844.90 0.8029
845.00 0.8028
845.10 0.8027
845.20 0.8025
845.30 0.8024
845.40 0.8023
845.50 0.8021
845.60 0.802
845.70 0.8019
845.80 0.8018
845.90 0.8016
846.00 0.8015
846.10 0.8014
846.20 0.8013
846.30 0.8011
846.40 0.801
846.50 0.8009
846.60 0.8007
846.70 0.8006
846.80 0.8005
846.90 0.8004
847.00 0.8002
847.10 0.8001
847.20 0.8
847.30 0.7998
847.40 0.7997
847.50 0.7996
847.60 0.7995
847.70 0.7993
847.80 0.7992
847.90 0.7991
848.00 0.7989
848.10 0.7988
848.20 0.7987
848.30 0.7985
848.40 0.7984
848.50 0.7983
848.60 0.7982
848.70 0.798
848.80 0.7979
848.90 0.7978
849.00 0.7976
849.10 0.7975
849.20 0.7974
849.30 0.7973
849.40 0.7971
849.50 0.797
849.60 0.7969
849.70 0.7967
849.80 0.7966
849.90 0.7965
850.00 0.7964
850.10 0.7962
850.20 0.7961
850.30 0.796
850.40 0.7958
850.50 0.7957
850.60 0.7956
850.70 0.7955
850.80 0.7953
850.90 0.7952
851.00 0.7951
851.10 0.7949
851.20 0.7948
851.30 0.7947
851.40 0.7946
851.50 0.7944
851.60 0.7943
851.70 0.7942
851.80 0.7941
851.90 0.7939
852.00 0.7938
852.10 0.7937
852.20 0.7935
852.30 0.7934
852.40 0.7933
852.50 0.7931
852.60 0.793
852.70 0.7929
852.80 0.7928
852.90 0.7926
853.00 0.7925
853.10 0.7924
853.20 0.7922
853.30 0.7921
853.40 0.792
853.50 0.7919
853.60 0.7917
853.70 0.7916
853.80 0.7915
853.90 0.7913
854.00 0.7912
854.10 0.7911
854.20 0.791
854.30 0.7908
854.40 0.7907
854.50 0.7906
854.60 0.7904
854.70 0.7903
854.80 0.7902
854.90 0.7901
855.00 0.7899
855.10 0.7898
855.20 0.7897
855.30 0.7895
855.40 0.7894
855.50 0.7893
855.60 0.7892
855.70 0.789
855.80 0.7889
855.90 0.7888
856.00 0.7887
856.10 0.7885
856.20 0.7884
856.30 0.7883
856.40 0.7881
856.50 0.788
856.60 0.7879
856.70 0.7878
856.80 0.7876
856.90 0.7875
857.00 0.7874
857.10 0.7872
857.20 0.7871
857.30 0.787
857.40 0.7869
857.50 0.7867
857.60 0.7866
857.70 0.7865
857.80 0.7863
857.90 0.7862
858.00 0.7861
858.10 0.786
858.20 0.7858
858.30 0.7857
858.40 0.7856
858.50 0.7854
858.60 0.7853
858.70 0.7852
858.80 0.785
858.90 0.7849
859.00 0.7848
859.10 0.7847
859.20 0.7845
859.30 0.7844
859.40 0.7843
859.50 0.7841
859.60 0.784
859.70 0.7839
859.80 0.7838
859.90 0.7836
860.00 0.7835
860.10 0.7834
860.20 0.7833
860.30 0.7831
860.40 0.783
860.50 0.7829
860.60 0.7827
860.70 0.7826
860.80 0.7825
860.90 0.7824
861.00 0.7822
861.10 0.7821
861.20 0.782
861.30 0.7818
861.40 0.7817
861.50 0.7816
861.60 0.7815
861.70 0.7813
861.80 0.7812
861.90 0.7811
862.00 0.7809
862.10 0.7808
862.20 0.7807
862.30 0.7806
862.40 0.7804
862.50 0.7803
862.60 0.7802
862.70 0.78
862.80 0.7799
862.90 0.7798
863.00 0.7797
863.10 0.7795
863.20 0.7794
863.30 0.7793
863.40 0.7791
863.50 0.779
863.60 0.7789
863.70 0.7788
863.80 0.7786
863.90 0.7785
864.00 0.7784
864.10 0.7783
864.20 0.7781
864.30 0.778
864.40 0.7779
864.50 0.7777
864.60 0.7776
864.70 0.7775
864.80 0.7774
864.90 0.7772
865.00 0.7771
865.10 0.777
865.20 0.7768
865.30 0.7767
865.40 0.7766
865.50 0.7765
865.60 0.7763
865.70 0.7762
865.80 0.7761
865.90 0.776
866.00 0.7758
866.10 0.7757
866.20 0.7756
866.30 0.7754
866.40 0.7753
866.50 0.7752
866.60 0.7751
866.70 0.7749
866.80 0.7748
866.90 0.7747
867.00 0.7746
867.10 0.7744
867.20 0.7743
867.30 0.7742
867.40 0.774
867.50 0.7739
867.60 0.7738
867.70 0.7737
867.80 0.7735
867.90 0.7734
868.00 0.7733
868.10 0.7731
868.20 0.773
868.30 0.7729
868.40 0.7728
868.50 0.7726
868.60 0.7725
868.70 0.7724
868.80 0.7722
868.90 0.7721
869.00 0.772
869.10 0.7719
869.20 0.7717
869.30 0.7716
869.40 0.7715
869.50 0.7713
869.60 0.7712
869.70 0.7711
869.80 0.771
869.90 0.7708
870.00 0.7707
870.10 0.7706
870.20 0.7704
870.30 0.7703
870.40 0.7702
870.50 0.7701
870.60 0.7699
870.70 0.7698
870.80 0.7697
870.90 0.7696
871.00 0.7694
871.10 0.7693
871.20 0.7692
871.30 0.769
871.40 0.7689
871.50 0.7688
871.60 0.7687
871.70 0.7685
871.80 0.7684
871.90 0.7683
872.00 0.7682
872.10 0.768
872.20 0.7679
872.30 0.7678
872.40 0.7676
872.50 0.7675
872.60 0.7674
872.70 0.7673
872.80 0.7671
872.90 0.767
873.00 0.7669
873.10 0.7667
873.20 0.7666
873.30 0.7665
873.40 0.7664
873.50 0.7662
873.60 0.7661
873.70 0.766
873.80 0.7658
873.90 0.7657
874.00 0.7656
874.10 0.7655
874.20 0.7653
874.30 0.7652
874.40 0.7651
874.50 0.7649
874.60 0.7648
874.70 0.7647
874.80 0.7646
874.90 0.7644
875.00 0.7643
875.10 0.7642
875.20 0.7641
875.30 0.7639
875.40 0.7638
875.50 0.7637
875.60 0.7635
875.70 0.7634
875.80 0.7633
875.90 0.7632
876.00 0.763
876.10 0.7629
876.20 0.7628
876.30 0.7627
876.40 0.7625
876.50 0.7624
876.60 0.7623
876.70 0.7621
876.80 0.762
876.90 0.7619
877.00 0.7618
877.10 0.7616
877.20 0.7615
877.30 0.7614
877.40 0.7613
877.50 0.7611
877.60 0.761
877.70 0.7609
877.80 0.7607
877.90 0.7606
878.00 0.7605
878.10 0.7604
878.20 0.7602
878.30 0.7601
878.40 0.76
878.50 0.7599
878.60 0.7597
878.70 0.7596
878.80 0.7595
878.90 0.7593
879.00 0.7592
879.10 0.7591
879.20 0.759
879.30 0.7588
879.40 0.7587
879.50 0.7586
879.60 0.7585
879.70 0.7583
879.80 0.7582
879.90 0.7581
880.00 0.7579
880.10 0.7578
880.20 0.7577
880.30 0.7576
880.40 0.7574
880.50 0.7573
880.60 0.7572
880.70 0.7571
880.80 0.7569
880.90 0.7568
881.00 0.7567
881.10 0.7566
881.20 0.7564
881.30 0.7563
881.40 0.7562
881.50 0.756
881.60 0.7559
881.70 0.7558
881.80 0.7557
881.90 0.7555
882.00 0.7554
882.10 0.7553
882.20 0.7552
882.30 0.755
882.40 0.7549
882.50 0.7548
882.60 0.7546
882.70 0.7545
882.80 0.7544
882.90 0.7543
883.00 0.7541
883.10 0.754
883.20 0.7539
883.30 0.7538
883.40 0.7536
883.50 0.7535
883.60 0.7534
883.70 0.7532
883.80 0.7531
883.90 0.753
884.00 0.7529
884.10 0.7527
884.20 0.7526
884.30 0.7525
884.40 0.7524
884.50 0.7522
884.60 0.7521
884.70 0.752
884.80 0.7518
884.90 0.7517
885.00 0.7516
885.10 0.7515
885.20 0.7513
885.30 0.7512
885.40 0.7511
885.50 0.751
885.60 0.7508
885.70 0.7507
885.80 0.7506
885.90 0.7505
886.00 0.7503
886.10 0.7502
886.20 0.7501
886.30 0.7499
886.40 0.7498
886.50 0.7497
886.60 0.7496
886.70 0.7494
886.80 0.7493
886.90 0.7492
887.00 0.7491
887.10 0.7489
887.20 0.7488
887.30 0.7487
887.40 0.7486
887.50 0.7484
887.60 0.7483
887.70 0.7482
887.80 0.748
887.90 0.7479
888.00 0.7478
888.10 0.7477
888.20 0.7475
888.30 0.7474
888.40 0.7473
888.50 0.7472
888.60 0.747
888.70 0.7469
888.80 0.7468
888.90 0.7466
889.00 0.7465
889.10 0.7464
889.20 0.7463
889.30 0.7461
889.40 0.746
889.50 0.7459
889.60 0.7458
889.70 0.7456
889.80 0.7455
889.90 0.7454
890.00 0.7452
890.10 0.7451
890.20 0.745
890.30 0.7449
890.40 0.7447
890.50 0.7446
890.60 0.7445
890.70 0.7444
890.80 0.7442
890.90 0.7441
891.00 0.744
891.10 0.7439
891.20 0.7437
891.30 0.7436
891.40 0.7435
891.50 0.7434
891.60 0.7432
891.70 0.7431
891.80 0.743
891.90 0.7429
892.00 0.7427
892.10 0.7426
892.20 0.7425
892.30 0.7423
892.40 0.7422
892.50 0.7421
892.60 0.742
892.70 0.7418
892.80 0.7417
892.90 0.7416
893.00 0.7415
893.10 0.7413
893.20 0.7412
893.30 0.7411
893.40 0.741
893.50 0.7408
893.60 0.7407
893.70 0.7406
893.80 0.7405
893.90 0.7403
894.00 0.7402
894.10 0.7401
894.20 0.74
894.30 0.7398
894.40 0.7397
894.50 0.7396
894.60 0.7395
894.70 0.7393
894.80 0.7392
894.90 0.7391
895.00 0.739
895.10 0.7388
895.20 0.7387
895.30 0.7386
895.40 0.7385
895.50 0.7383
895.60 0.7382
895.70 0.7381
895.80 0.738
895.90 0.7378
896.00 0.7377
896.10 0.7376
896.20 0.7375
896.30 0.7373
896.40 0.7372
896.50 0.7371
896.60 0.737
896.70 0.7368
896.80 0.7367
896.90 0.7366
897.00 0.7365
897.10 0.7363
897.20 0.7362
897.30 0.7361
897.40 0.7359
897.50 0.7358
897.60 0.7357
897.70 0.7356
897.80 0.7354
897.90 0.7353
898.00 0.7352
898.10 0.7351
898.20 0.7349
898.30 0.7348
898.40 0.7347
898.50 0.7345
898.60 0.7344
898.70 0.7343
898.80 0.7342
898.90 0.734
899.00 0.7339
899.10 0.7338
899.20 0.7337
899.30 0.7335
899.40 0.7334
899.50 0.7333
899.60 0.7332
899.70 0.733
899.80 0.7329
899.90 0.7328
900.00 0.7327
900.10 0.7325
900.20 0.7324
900.30 0.7323
900.40 0.7321
900.50 0.732
900.60 0.7319
900.70 0.7318
900.80 0.7316
900.90 0.7315
901.00 0.7314
901.10 0.7313
901.20 0.7311
901.30 0.731
901.40 0.7309
901.50 0.7308
901.60 0.7306
901.70 0.7305
901.80 0.7304
901.90 0.7303
902.00 0.7301
902.10 0.73
902.20 0.7299
902.30 0.7298
902.40 0.7296
902.50 0.7295
902.60 0.7294
902.70 0.7292
902.80 0.7291
902.90 0.729
903.00 0.7289
903.10 0.7287
903.20 0.7286
903.30 0.7285
903.40 0.7283
903.50 0.7282
903.60 0.7281
903.70 0.728
903.80 0.7278
903.90 0.7277
904.00 0.7276
904.10 0.7275
904.20 0.7273
904.30 0.7272
904.40 0.7271
904.50 0.7269
904.60 0.7268
904.70 0.7267
904.80 0.7266
904.90 0.7264
905.00 0.7263
905.10 0.7262
905.20 0.7261
905.30 0.7259
905.40 0.7258
905.50 0.7257
905.60 0.7256
905.70 0.7254
905.80 0.7253
905.90 0.7252
906.00 0.725
906.10 0.7249
906.20 0.7248
906.30 0.7247
906.40 0.7245
906.50 0.7244
906.60 0.7243
906.70 0.7242
906.80 0.724
906.90 0.7239
907.00 0.7238
907.10 0.7237
907.20 0.7235
907.30 0.7234
907.40 0.7233
907.50 0.7231
907.60 0.723
907.70 0.7229
907.80 0.7228
907.90 0.7226
908.00 0.7225
908.10 0.7224
908.20 0.7223
908.30 0.7221
908.40 0.722
908.50 0.7219
908.60 0.7218
908.70 0.7216
908.80 0.7215
908.90 0.7214
909.00 0.7213
909.10 0.7211
909.20 0.721
909.30 0.7209
909.40 0.7208
909.50 0.7206
909.60 0.7205
909.70 0.7204
909.80 0.7203
909.90 0.7201
910.00 0.72
910.10 0.7199
910.20 0.7198
910.30 0.7196
910.40 0.7195
910.50 0.7194
910.60 0.7193
910.70 0.7191
910.80 0.719
910.90 0.7189
911.00 0.7188
911.10 0.7186
911.20 0.7185
911.30 0.7184
911.40 0.7183
911.50 0.7181
911.60 0.718
911.70 0.7179
911.80 0.7178
911.90 0.7176
912.00 0.7175
912.10 0.7174
912.20 0.7173
912.30 0.7171
912.40 0.717
912.50 0.7169
912.60 0.7168
912.70 0.7166
912.80 0.7165
912.90 0.7164
913.00 0.7163
913.10 0.7161
913.20 0.716
913.30 0.7159
913.40 0.7158
913.50 0.7156
913.60 0.7155
913.70 0.7154
913.80 0.7153
913.90 0.7151
914.00 0.715
914.10 0.7149
914.20 0.7148
914.30 0.7146
914.40 0.7145
914.50 0.7144
914.60 0.7143
914.70 0.7141
914.80 0.714
914.90 0.7139
915.00 0.7138
915.10 0.7136
915.20 0.7135
915.30 0.7134
915.40 0.7133
915.50 0.7131
915.60 0.713
915.70 0.7129
915.80 0.7128
915.90 0.7126
916.00 0.7125
916.10 0.7124
916.20 0.7123
916.30 0.7122
916.40 0.712
916.50 0.7119
916.60 0.7118
916.70 0.7117
916.80 0.7115
916.90 0.7114
917.00 0.7113
917.10 0.7112
917.20 0.711
917.30 0.7109
917.40 0.7108
917.50 0.7107
917.60 0.7105
917.70 0.7104
917.80 0.7103
917.90 0.7102
918.00 0.71
918.10 0.7099
918.20 0.7098
918.30 0.7097
918.40 0.7095
918.50 0.7094
918.60 0.7093
918.70 0.7092
918.80 0.709
918.90 0.7089
919.00 0.7088
919.10 0.7087
919.20 0.7085
919.30 0.7084
919.40 0.7083
919.50 0.7082
919.60 0.708
919.70 0.7079
919.80 0.7078
919.90 0.7077
920.00 0.7076
920.10 0.7074
920.20 0.7073
920.30 0.7072
920.40 0.7071
920.50 0.7069
920.60 0.7068
920.70 0.7067
920.80 0.7066
920.90 0.7064
921.00 0.7063
921.10 0.7062
921.20 0.7061
921.30 0.7059
921.40 0.7058
921.50 0.7057
921.60 0.7056
921.70 0.7055
921.80 0.7053
921.90 0.7052
922.00 0.7051
922.10 0.705
922.20 0.7048
922.30 0.7047
922.40 0.7046
922.50 0.7045
922.60 0.7043
922.70 0.7042
922.80 0.7041
922.90 0.704
923.00 0.7038
923.10 0.7037
923.20 0.7036
923.30 0.7035
923.40 0.7033
923.50 0.7032
923.60 0.7031
923.70 0.703
923.80 0.7028
923.90 0.7027
924.00 0.7026
924.10 0.7025
924.20 0.7023
924.30 0.7022
924.40 0.7021
924.50 0.702
924.60 0.7019
924.70 0.7017
924.80 0.7016
924.90 0.7015
925.00 0.7014
925.10 0.7012
925.20 0.7011
925.30 0.701
925.40 0.7009
925.50 0.7007
925.60 0.7006
925.70 0.7005
925.80 0.7004
925.90 0.7002
926.00 0.7001
926.10 0.7
926.20 0.6999
926.30 0.6998
926.40 0.6996
926.50 0.6995
926.60 0.6994
926.70 0.6993
926.80 0.6991
926.90 0.699
927.00 0.6989
927.10 0.6988
927.20 0.6986
927.30 0.6985
927.40 0.6984
927.50 0.6983
927.60 0.6981
927.70 0.698
927.80 0.6979
927.90 0.6978
928.00 0.6977
928.10 0.6975
928.20 0.6974
928.30 0.6973
928.40 0.6972
928.50 0.697
928.60 0.6969
928.70 0.6968
928.80 0.6967
928.90 0.6965
929.00 0.6964
929.10 0.6963
929.20 0.6962
929.30 0.696
929.40 0.6959
929.50 0.6958
929.60 0.6957
929.70 0.6956
929.80 0.6954
929.90 0.6953
930.00 0.6952
930.10 0.6951
930.20 0.6949
930.30 0.6948
930.40 0.6947
930.50 0.6946
930.60 0.6944
930.70 0.6943
930.80 0.6942
930.90 0.6941
931.00 0.694
931.10 0.6938
931.20 0.6937
931.30 0.6936
931.40 0.6935
931.50 0.6933
931.60 0.6932
931.70 0.6931
931.80 0.693
931.90 0.6928
932.00 0.6927
932.10 0.6926
932.20 0.6925
932.30 0.6924
932.40 0.6922
932.50 0.6921
932.60 0.692
932.70 0.6919
932.80 0.6917
932.90 0.6916
933.00 0.6915
933.10 0.6914
933.20 0.6912
933.30 0.6911
933.40 0.691
933.50 0.6909
933.60 0.6908
933.70 0.6906
933.80 0.6905
933.90 0.6904
934.00 0.6903
934.10 0.6901
934.20 0.69
934.30 0.6899
934.40 0.6898
934.50 0.6897
934.60 0.6895
934.70 0.6894
934.80 0.6893
934.90 0.6892
935.00 0.689
935.10 0.6889
935.20 0.6888
935.30 0.6887
935.40 0.6885
935.50 0.6884
935.60 0.6883
935.70 0.6882
935.80 0.6881
935.90 0.6879
936.00 0.6878
936.10 0.6877
936.20 0.6876
936.30 0.6874
936.40 0.6873
936.50 0.6872
936.60 0.6871
936.70 0.687
936.80 0.6868
936.90 0.6867
937.00 0.6866
937.10 0.6865
937.20 0.6863
937.30 0.6862
937.40 0.6861
937.50 0.686
937.60 0.6859
937.70 0.6857
937.80 0.6856
937.90 0.6855
938.00 0.6854
938.10 0.6852
938.20 0.6851
938.30 0.685
938.40 0.6849
938.50 0.6848
938.60 0.6846
938.70 0.6845
938.80 0.6844
938.90 0.6843
939.00 0.6841
939.10 0.684
939.20 0.6839
939.30 0.6838
939.40 0.6837
939.50 0.6835
939.60 0.6834
939.70 0.6833
939.80 0.6832
939.90 0.6831
940.00 0.6829
940.10 0.6828
940.20 0.6827
940.30 0.6826
940.40 0.6824
940.50 0.6823
940.60 0.6822
940.70 0.6821
940.80 0.682
940.90 0.6818
941.00 0.6817
941.10 0.6816
941.20 0.6815
941.30 0.6813
941.40 0.6812
941.50 0.6811
941.60 0.681
941.70 0.6809
941.80 0.6807
941.90 0.6806
942.00 0.6805
942.10 0.6804
942.20 0.6802
942.30 0.6801
942.40 0.68
942.50 0.6799
942.60 0.6798
942.70 0.6796
942.80 0.6795
942.90 0.6794
943.00 0.6793
943.10 0.6791
943.20 0.679
943.30 0.6789
943.40 0.6788
943.50 0.6787
943.60 0.6785
943.70 0.6784
943.80 0.6783
943.90 0.6782
944.00 0.678
944.10 0.6779
944.20 0.6778
944.30 0.6777
944.40 0.6776
944.50 0.6774
944.60 0.6773
944.70 0.6772
944.80 0.6771
944.90 0.677
945.00 0.6768
945.10 0.6767
945.20 0.6766
945.30 0.6765
945.40 0.6763
945.50 0.6762
945.60 0.6761
945.70 0.676
945.80 0.6759
945.90 0.6757
946.00 0.6756
946.10 0.6755
946.20 0.6754
946.30 0.6753
946.40 0.6751
946.50 0.675
946.60 0.6749
946.70 0.6748
946.80 0.6746
946.90 0.6745
947.00 0.6744
947.10 0.6743
947.20 0.6742
947.30 0.674
947.40 0.6739
947.50 0.6738
947.60 0.6737
947.70 0.6736
947.80 0.6734
947.90 0.6733
948.00 0.6732
948.10 0.6731
948.20 0.673
948.30 0.6728
948.40 0.6727
948.50 0.6726
948.60 0.6725
948.70 0.6723
948.80 0.6722
948.90 0.6721
949.00 0.672
949.10 0.6719
949.20 0.6717
949.30 0.6716
949.40 0.6715
949.50 0.6714
949.60 0.6713
949.70 0.6711
949.80 0.671
949.90 0.6709
950.00 0.6708
950.10 0.6706
950.20 0.6705
950.30 0.6704
950.40 0.6703
950.50 0.6702
950.60 0.67
950.70 0.6699
950.80 0.6698
950.90 0.6697
951.00 0.6696
951.10 0.6694
951.20 0.6693
951.30 0.6692
951.40 0.6691
951.50 0.669
951.60 0.6688
951.70 0.6687
951.80 0.6686
951.90 0.6685
952.00 0.6683
952.10 0.6682
952.20 0.6681
952.30 0.668
952.40 0.6679
952.50 0.6678
952.60 0.6676
952.70 0.6675
952.80 0.6674
952.90 0.6673
953.00 0.6671
953.10 0.667
953.20 0.6669
953.30 0.6668
953.40 0.6667
953.50 0.6665
953.60 0.6664
953.70 0.6663
953.80 0.6662
953.90 0.6661
954.00 0.6659
954.10 0.6658
954.20 0.6657
954.30 0.6656
954.40 0.6655
954.50 0.6653
954.60 0.6652
954.70 0.6651
954.80 0.665
954.90 0.6649
955.00 0.6647
955.10 0.6646
955.20 0.6645
955.30 0.6644
955.40 0.6643
955.50 0.6641
955.60 0.664
955.70 0.6639
955.80 0.6638
955.90 0.6637
956.00 0.6635
956.10 0.6634
956.20 0.6633
956.30 0.6632
956.40 0.6631
956.50 0.6629
956.60 0.6628
956.70 0.6627
956.80 0.6626
956.90 0.6625
957.00 0.6623
957.10 0.6622
957.20 0.6621
957.30 0.662
957.40 0.6618
957.50 0.6617
957.60 0.6616
957.70 0.6615
957.80 0.6614
957.90 0.6612
958.00 0.6611
958.10 0.661
958.20 0.6609
958.30 0.6608
958.40 0.6606
958.50 0.6605
958.60 0.6604
958.70 0.6603
958.80 0.6602
958.90 0.66
959.00 0.6599
959.10 0.6598
959.20 0.6597
959.30 0.6596
959.40 0.6594
959.50 0.6593
959.60 0.6592
959.70 0.6591
959.80 0.659
959.90 0.6588
960.00 0.6587
960.10 0.6586
960.20 0.6585
960.30 0.6584
960.40 0.6582
960.50 0.6581
960.60 0.658
960.70 0.6579
960.80 0.6578
960.90 0.6576
961.00 0.6575
961.10 0.6574
961.20 0.6573
961.30 0.6572
961.40 0.657
961.50 0.6569
961.60 0.6568
961.70 0.6567
961.80 0.6566
961.90 0.6565
962.00 0.6563
962.10 0.6562
962.20 0.6561
962.30 0.656
962.40 0.6559
962.50 0.6557
962.60 0.6556
962.70 0.6555
962.80 0.6554
962.90 0.6553
963.00 0.6551
963.10 0.655
963.20 0.6549
963.30 0.6548
963.40 0.6547
963.50 0.6545
963.60 0.6544
963.70 0.6543
963.80 0.6542
963.90 0.6541
964.00 0.6539
964.10 0.6538
964.20 0.6537
964.30 0.6536
964.40 0.6535
964.50 0.6534
964.60 0.6532
964.70 0.6531
964.80 0.653
964.90 0.6529
965.00 0.6528
965.10 0.6526
965.20 0.6525
965.30 0.6524
965.40 0.6523
965.50 0.6522
965.60 0.652
965.70 0.6519
965.80 0.6518
965.90 0.6517
966.00 0.6516
966.10 0.6514
966.20 0.6513
966.30 0.6512
966.40 0.6511
966.50 0.651
966.60 0.6508
966.70 0.6507
966.80 0.6506
966.90 0.6505
967.00 0.6504
967.10 0.6503
967.20 0.6501
967.30 0.65
967.40 0.6499
967.50 0.6498
967.60 0.6497
967.70 0.6495
967.80 0.6494
967.90 0.6493
968.00 0.6492
968.10 0.6491
968.20 0.6489
968.30 0.6488
968.40 0.6487
968.50 0.6486
968.60 0.6485
968.70 0.6483
968.80 0.6482
968.90 0.6481
969.00 0.648
969.10 0.6479
969.20 0.6478
969.30 0.6476
969.40 0.6475
969.50 0.6474
969.60 0.6473
969.70 0.6472
969.80 0.647
969.90 0.6469
970.00 0.6468
970.10 0.6467
970.20 0.6466
970.30 0.6465
970.40 0.6463
970.50 0.6462
970.60 0.6461
970.70 0.646
970.80 0.6459
970.90 0.6457
971.00 0.6456
971.10 0.6455
971.20 0.6454
971.30 0.6453
971.40 0.6452
971.50 0.645
971.60 0.6449
971.70 0.6448
971.80 0.6447
971.90 0.6446
972.00 0.6444
972.10 0.6443
972.20 0.6442
972.30 0.6441
972.40 0.644
972.50 0.6439
972.60 0.6437
972.70 0.6436
972.80 0.6435
972.90 0.6434
973.00 0.6433
973.10 0.6431
973.20 0.643
973.30 0.6429
973.40 0.6428
973.50 0.6427
973.60 0.6426
973.70 0.6424
973.80 0.6423
973.90 0.6422
974.00 0.6421
974.10 0.642
974.20 0.6418
974.30 0.6417
974.40 0.6416
974.50 0.6415
974.60 0.6414
974.70 0.6413
974.80 0.6411
974.90 0.641
975.00 0.6409
975.10 0.6408
975.20 0.6407
975.30 0.6405
975.40 0.6404
975.50 0.6403
975.60 0.6402
975.70 0.6401
975.80 0.64
975.90 0.6398
976.00 0.6397
976.10 0.6396
976.20 0.6395
976.30 0.6394
976.40 0.6393
976.50 0.6391
976.60 0.639
976.70 0.6389
976.80 0.6388
976.90 0.6387
977.00 0.6386
977.10 0.6384
977.20 0.6383
977.30 0.6382
977.40 0.6381
977.50 0.638
977.60 0.6378
977.70 0.6377
977.80 0.6376
977.90 0.6375
978.00 0.6374
978.10 0.6373
978.20 0.6371
978.30 0.637
978.40 0.6369
978.50 0.6368
978.60 0.6367
978.70 0.6366
978.80 0.6364
978.90 0.6363
979.00 0.6362
979.10 0.6361
979.20 0.636
979.30 0.6359
979.40 0.6357
979.50 0.6356
979.60 0.6355
979.70 0.6354
979.80 0.6353
979.90 0.6352
980.00 0.635
980.10 0.6349
980.20 0.6348
980.30 0.6347
980.40 0.6346
980.50 0.6345
980.60 0.6343
980.70 0.6342
980.80 0.6341
980.90 0.634
981.00 0.6339
981.10 0.6338
981.20 0.6336
981.30 0.6335
981.40 0.6334
981.50 0.6333
981.60 0.6332
981.70 0.6331
981.80 0.6329
981.90 0.6328
982.00 0.6327
982.10 0.6326
982.20 0.6325
982.30 0.6324
982.40 0.6322
982.50 0.6321
982.60 0.632
982.70 0.6319
982.80 0.6318
982.90 0.6317
983.00 0.6315
983.10 0.6314
983.20 0.6313
983.30 0.6312
983.40 0.6311
983.50 0.631
983.60 0.6308
983.70 0.6307
983.80 0.6306
983.90 0.6305
984.00 0.6304
984.10 0.6303
984.20 0.6301
984.30 0.63
984.40 0.6299
984.50 0.6298
984.60 0.6297
984.70 0.6296
984.80 0.6294
984.90 0.6293
985.00 0.6292
985.10 0.6291
985.20 0.629
985.30 0.6289
985.40 0.6287
985.50 0.6286
985.60 0.6285
985.70 0.6284
985.80 0.6283
985.90 0.6282
986.00 0.628
986.10 0.6279
986.20 0.6278
986.30 0.6277
986.40 0.6276
986.50 0.6275
986.60 0.6273
986.70 0.6272
986.80 0.6271
986.90 0.627
987.00 0.6269
987.10 0.6268
987.20 0.6267
987.30 0.6265
987.40 0.6264
987.50 0.6263
987.60 0.6262
987.70 0.6261
987.80 0.626
987.90 0.6258
988.00 0.6257
988.10 0.6256
988.20 0.6255
988.30 0.6254
988.40 0.6253
988.50 0.6251
988.60 0.625
988.70 0.6249
988.80 0.6248
988.90 0.6247
989.00 0.6246
989.10 0.6245
989.20 0.6243
989.30 0.6242
989.40 0.6241
989.50 0.624
989.60 0.6239
989.70 0.6238
989.80 0.6236
989.90 0.6235
990.00 0.6234
990.10 0.6233
990.20 0.6232
990.30 0.6231
990.40 0.623
990.50 0.6228
990.60 0.6227
990.70 0.6226
990.80 0.6225
990.90 0.6224
991.00 0.6223
991.10 0.6222
991.20 0.622
991.30 0.6219
991.40 0.6218
991.50 0.6217
991.60 0.6216
991.70 0.6215
991.80 0.6214
991.90 0.6212
992.00 0.6211
992.10 0.621
992.20 0.6209
992.30 0.6208
992.40 0.6207
992.50 0.6205
992.60 0.6204
992.70 0.6203
992.80 0.6202
992.90 0.6201
993.00 0.62
993.10 0.6199
993.20 0.6197
993.30 0.6196
993.40 0.6195
993.50 0.6194
993.60 0.6193
993.70 0.6192
993.80 0.6191
993.90 0.6189
994.00 0.6188
994.10 0.6187
994.20 0.6186
994.30 0.6185
994.40 0.6184
994.50 0.6183
994.60 0.6181
994.70 0.618
994.80 0.6179
994.90 0.6178
995.00 0.6177
995.10 0.6176
995.20 0.6175
995.30 0.6173
995.40 0.6172
995.50 0.6171
995.60 0.617
995.70 0.6169
995.80 0.6168
995.90 0.6167
996.00 0.6165
996.10 0.6164
996.20 0.6163
996.30 0.6162
996.40 0.6161
996.50 0.616
996.60 0.6159
996.70 0.6157
996.80 0.6156
996.90 0.6155
997.00 0.6154
997.10 0.6153
997.20 0.6152
997.30 0.6151
997.40 0.615
997.50 0.6148
997.60 0.6147
997.70 0.6146
997.80 0.6145
997.90 0.6144
998.00 0.6143
998.10 0.6142
998.20 0.614
998.30 0.6139
998.40 0.6138
998.50 0.6137
998.60 0.6136
998.70 0.6135
998.80 0.6134
998.90 0.6132
999.00 0.6131
999.10 0.613
999.20 0.6129
999.30 0.6128
999.40 0.6127
999.50 0.6126
999.60 0.6125
999.70 0.6123
999.80 0.6122
999.90 0.6121
1000.00 0.612
1000.10 0.6119
1000.20 0.6118
1000.30 0.6117
1000.40 0.6115
1000.50 0.6114
1000.60 0.6113
1000.70 0.6112
1000.80 0.6111
1000.90 0.611
1001.00 0.6109
1001.10 0.6107
1001.20 0.6106
1001.30 0.6105
1001.40 0.6104
1001.50 0.6103
1001.60 0.6102
1001.70 0.6101
1001.80 0.61
1001.90 0.6098
1002.00 0.6097
1002.10 0.6096
1002.20 0.6095
1002.30 0.6094
1002.40 0.6093
1002.50 0.6092
1002.60 0.6091
1002.70 0.6089
1002.80 0.6088
1002.90 0.6087
1003.00 0.6086
1003.10 0.6085
1003.20 0.6084
1003.30 0.6083
1003.40 0.6082
1003.50 0.608
1003.60 0.6079
1003.70 0.6078
1003.80 0.6077
1003.90 0.6076
1004.00 0.6075
1004.10 0.6074
1004.20 0.6072
1004.30 0.6071
1004.40 0.607
1004.50 0.6069
1004.60 0.6068
1004.70 0.6067
1004.80 0.6066
1004.90 0.6065
1005.00 0.6064
1005.10 0.6062
1005.20 0.6061
1005.30 0.606
1005.40 0.6059
1005.50 0.6058
1005.60 0.6057
1005.70 0.6056
1005.80 0.6055
1005.90 0.6053
1006.00 0.6052
1006.10 0.6051
1006.20 0.605
1006.30 0.6049
1006.40 0.6048
1006.50 0.6047
1006.60 0.6046
1006.70 0.6044
1006.80 0.6043
1006.90 0.6042
1007.00 0.6041
1007.10 0.604
1007.20 0.6039
1007.30 0.6038
1007.40 0.6037
1007.50 0.6035
1007.60 0.6034
1007.70 0.6033
1007.80 0.6032
1007.90 0.6031
1008.00 0.603
1008.10 0.6029
1008.20 0.6028
1008.30 0.6027
1008.40 0.6025
1008.50 0.6024
1008.60 0.6023
1008.70 0.6022
1008.80 0.6021
1008.90 0.602
1009.00 0.6019
1009.10 0.6018
1009.20 0.6016
1009.30 0.6015
1009.40 0.6014
1009.50 0.6013
1009.60 0.6012
1009.70 0.6011
1009.80 0.601
1009.90 0.6009
1010.00 0.6007
1010.10 0.6006
1010.20 0.6005
1010.30 0.6004
1010.40 0.6003
1010.50 0.6002
1010.60 0.6001
1010.70 0.6
1010.80 0.5999
1010.90 0.5997
1011.00 0.5996
1011.10 0.5995
1011.20 0.5994
1011.30 0.5993
1011.40 0.5992
1011.50 0.5991
1011.60 0.599
1011.70 0.5989
1011.80 0.5987
1011.90 0.5986
1012.00 0.5985
1012.10 0.5984
1012.20 0.5983
1012.30 0.5982
1012.40 0.5981
1012.50 0.598
1012.60 0.5978
1012.70 0.5977
1012.80 0.5976
1012.90 0.5975
1013.00 0.5974
1013.10 0.5973
1013.20 0.5972
1013.30 0.5971
1013.40 0.597
1013.50 0.5968
1013.60 0.5967
1013.70 0.5966
1013.80 0.5965
1013.90 0.5964
1014.00 0.5963
1014.10 0.5962
1014.20 0.5961
1014.30 0.596
1014.40 0.5959
1014.50 0.5957
1014.60 0.5956
1014.70 0.5955
1014.80 0.5954
1014.90 0.5953
1015.00 0.5952
1015.10 0.5951
1015.20 0.595
1015.30 0.5949
1015.40 0.5947
1015.50 0.5946
1015.60 0.5945
1015.70 0.5944
1015.80 0.5943
1015.90 0.5942
1016.00 0.5941
1016.10 0.594
1016.20 0.5939
1016.30 0.5937
1016.40 0.5936
1016.50 0.5935
1016.60 0.5934
1016.70 0.5933
1016.80 0.5932
1016.90 0.5931
1017.00 0.593
1017.10 0.5929
1017.20 0.5927
1017.30 0.5926
1017.40 0.5925
1017.50 0.5924
1017.60 0.5923
1017.70 0.5922
1017.80 0.5921
1017.90 0.592
1018.00 0.5919
1018.10 0.5918
1018.20 0.5916
1018.30 0.5915
1018.40 0.5914
1018.50 0.5913
1018.60 0.5912
1018.70 0.5911
1018.80 0.591
1018.90 0.5909
1019.00 0.5908
1019.10 0.5907
1019.20 0.5905
1019.30 0.5904
1019.40 0.5903
1019.50 0.5902
1019.60 0.5901
1019.70 0.59
1019.80 0.5899
1019.90 0.5898
1020.00 0.5897
1020.10 0.5896
1020.20 0.5894
1020.30 0.5893
1020.40 0.5892
1020.50 0.5891
1020.60 0.589
1020.70 0.5889
1020.80 0.5888
1020.90 0.5887
1021.00 0.5886
1021.10 0.5885
1021.20 0.5883
1021.30 0.5882
1021.40 0.5881
1021.50 0.588
1021.60 0.5879
1021.70 0.5878
1021.80 0.5877
1021.90 0.5876
1022.00 0.5875
1022.10 0.5874
1022.20 0.5872
1022.30 0.5871
1022.40 0.587
1022.50 0.5869
1022.60 0.5868
1022.70 0.5867
1022.80 0.5866
1022.90 0.5865
1023.00 0.5864
1023.10 0.5863
1023.20 0.5862
1023.30 0.586
1023.40 0.5859
1023.50 0.5858
1023.60 0.5857
1023.70 0.5856
1023.80 0.5855
1023.90 0.5854
1024.00 0.5853
1024.10 0.5852
1024.20 0.5851
1024.30 0.585
1024.40 0.5848
1024.50 0.5847
1024.60 0.5846
1024.70 0.5845
1024.80 0.5844
1024.90 0.5843
1025.00 0.5842
1025.10 0.5841
1025.20 0.584
1025.30 0.5839
1025.40 0.5838
1025.50 0.5836
1025.60 0.5835
1025.70 0.5834
1025.80 0.5833
1025.90 0.5832
1026.00 0.5831
1026.10 0.583
1026.20 0.5829
1026.30 0.5828
1026.40 0.5827
1026.50 0.5826
1026.60 0.5825
1026.70 0.5823
1026.80 0.5822
1026.90 0.5821
1027.00 0.582
1027.10 0.5819
1027.20 0.5818
1027.30 0.5817
1027.40 0.5816
1027.50 0.5815
1027.60 0.5814
1027.70 0.5813
1027.80 0.5812
1027.90 0.581
1028.00 0.5809
1028.10 0.5808
1028.20 0.5807
1028.30 0.5806
1028.40 0.5805
1028.50 0.5804
1028.60 0.5803
1028.70 0.5802
1028.80 0.5801
1028.90 0.58
1029.00 0.5799
1029.10 0.5797
1029.20 0.5796
1029.30 0.5795
1029.40 0.5794
1029.50 0.5793
1029.60 0.5792
1029.70 0.5791
1029.80 0.579
1029.90 0.5789
1030.00 0.5788
1030.10 0.5787
1030.20 0.5786
1030.30 0.5785
1030.40 0.5783
1030.50 0.5782
1030.60 0.5781
1030.70 0.578
1030.80 0.5779
1030.90 0.5778
1031.00 0.5777
1031.10 0.5776
1031.20 0.5775
1031.30 0.5774
1031.40 0.5773
1031.50 0.5772
1031.60 0.5771
1031.70 0.5769
1031.80 0.5768
1031.90 0.5767
1032.00 0.5766
1032.10 0.5765
1032.20 0.5764
1032.30 0.5763
1032.40 0.5762
1032.50 0.5761
1032.60 0.576
1032.70 0.5759
1032.80 0.5758
1032.90 0.5757
1033.00 0.5755
1033.10 0.5754
1033.20 0.5753
1033.30 0.5752
1033.40 0.5751
1033.50 0.575
1033.60 0.5749
1033.70 0.5748
1033.80 0.5747
1033.90 0.5746
1034.00 0.5745
1034.10 0.5744
1034.20 0.5743
1034.30 0.5742
1034.40 0.574
1034.50 0.5739
1034.60 0.5738
1034.70 0.5737
1034.80 0.5736
1034.90 0.5735
1035.00 0.5734
1035.10 0.5733
1035.20 0.5732
1035.30 0.5731
1035.40 0.573
1035.50 0.5729
1035.60 0.5728
1035.70 0.5727
1035.80 0.5726
1035.90 0.5724
1036.00 0.5723
1036.10 0.5722
1036.20 0.5721
1036.30 0.572
1036.40 0.5719
1036.50 0.5718
1036.60 0.5717
1036.70 0.5716
1036.80 0.5715
1036.90 0.5714
1037.00 0.5713
1037.10 0.5712
1037.20 0.5711
1037.30 0.571
1037.40 0.5708
1037.50 0.5707
1037.60 0.5706
1037.70 0.5705
1037.80 0.5704
1037.90 0.5703
1038.00 0.5702
1038.10 0.5701
1038.20 0.57
1038.30 0.5699
1038.40 0.5698
1038.50 0.5697
1038.60 0.5696
1038.70 0.5695
1038.80 0.5694
1038.90 0.5693
1039.00 0.5691
1039.10 0.569
1039.20 0.5689
1039.30 0.5688
1039.40 0.5687
1039.50 0.5686
1039.60 0.5685
1039.70 0.5684
1039.80 0.5683
1039.90 0.5682
1040.00 0.5681
1040.10 0.568
1040.20 0.5679
1040.30 0.5678
1040.40 0.5677
1040.50 0.5676
1040.60 0.5675
1040.70 0.5674
1040.80 0.5672
1040.90 0.5671
1041.00 0.567
1041.10 0.5669
1041.20 0.5668
1041.30 0.5667
1041.40 0.5666
1041.50 0.5665
1041.60 0.5664
1041.70 0.5663
1041.80 0.5662
1041.90 0.5661
1042.00 0.566
1042.10 0.5659
1042.20 0.5658
1042.30 0.5657
1042.40 0.5656
1042.50 0.5655
1042.60 0.5654
1042.70 0.5652
1042.80 0.5651
1042.90 0.565
1043.00 0.5649
1043.10 0.5648
1043.20 0.5647
1043.30 0.5646
1043.40 0.5645
1043.50 0.5644
1043.60 0.5643
1043.70 0.5642
1043.80 0.5641
1043.90 0.564
1044.00 0.5639
1044.10 0.5638
1044.20 0.5637
1044.30 0.5636
1044.40 0.5635
1044.50 0.5634
1044.60 0.5632
1044.70 0.5631
1044.80 0.563
1044.90 0.5629
1045.00 0.5628
1045.10 0.5627
1045.20 0.5626
1045.30 0.5625
1045.40 0.5624
1045.50 0.5623
1045.60 0.5622
1045.70 0.5621
1045.80 0.562
1045.90 0.5619
1046.00 0.5618
1046.10 0.5617
1046.20 0.5616
1046.30 0.5615
1046.40 0.5614
1046.50 0.5613
1046.60 0.5612
1046.70 0.5611
1046.80 0.5609
1046.90 0.5608
1047.00 0.5607
1047.10 0.5606
1047.20 0.5605
1047.30 0.5604
1047.40 0.5603
1047.50 0.5602
1047.60 0.5601
1047.70 0.56
1047.80 0.5599
1047.90 0.5598
1048.00 0.5597
1048.10 0.5596
1048.20 0.5595
1048.30 0.5594
1048.40 0.5593
1048.50 0.5592
1048.60 0.5591
1048.70 0.559
1048.80 0.5589
1048.90 0.5588
1049.00 0.5587
1049.10 0.5586
1049.20 0.5585
1049.30 0.5583
1049.40 0.5582
1049.50 0.5581
1049.60 0.558
1049.70 0.5579
1049.80 0.5578
1049.90 0.5577
1050.00 0.5576
1050.10 0.5575
1050.20 0.5574
1050.30 0.5573
1050.40 0.5572
1050.50 0.5571
1050.60 0.557
1050.70 0.5569
1050.80 0.5568
1050.90 0.5567
1051.00 0.5566
1051.10 0.5565
1051.20 0.5564
1051.30 0.5563
1051.40 0.5562
1051.50 0.5561
1051.60 0.556
1051.70 0.5559
1051.80 0.5558
1051.90 0.5557
1052.00 0.5556
1052.10 0.5555
1052.20 0.5554
1052.30 0.5552
1052.40 0.5551
1052.50 0.555
1052.60 0.5549
1052.70 0.5548
1052.80 0.5547
1052.90 0.5546
1053.00 0.5545
1053.10 0.5544
1053.20 0.5543
1053.30 0.5542
1053.40 0.5541
1053.50 0.554
1053.60 0.5539
1053.70 0.5538
1053.80 0.5537
1053.90 0.5536
1054.00 0.5535
1054.10 0.5534
1054.20 0.5533
1054.30 0.5532
1054.40 0.5531
1054.50 0.553
1054.60 0.5529
1054.70 0.5528
1054.80 0.5527
1054.90 0.5526
1055.00 0.5525
1055.10 0.5524
1055.20 0.5523
1055.30 0.5522
1055.40 0.5521
1055.50 0.552
1055.60 0.5519
1055.70 0.5518
1055.80 0.5516
1055.90 0.5515
1056.00 0.5514
1056.10 0.5513
1056.20 0.5512
1056.30 0.5511
1056.40 0.551
1056.50 0.5509
1056.60 0.5508
1056.70 0.5507
1056.80 0.5506
1056.90 0.5505
1057.00 0.5504
1057.10 0.5503
1057.20 0.5502
1057.30 0.5501
1057.40 0.55
1057.50 0.5499
1057.60 0.5498
1057.70 0.5497
1057.80 0.5496
1057.90 0.5495
1058.00 0.5494
1058.10 0.5493
1058.20 0.5492
1058.30 0.5491
1058.40 0.549
1058.50 0.5489
1058.60 0.5488
1058.70 0.5487
1058.80 0.5486
1058.90 0.5485
1059.00 0.5484
1059.10 0.5483
1059.20 0.5482
1059.30 0.5481
1059.40 0.548
1059.50 0.5479
1059.60 0.5478
1059.70 0.5477
1059.80 0.5476
1059.90 0.5475
1060.00 0.5474
1060.10 0.5473
1060.20 0.5472
1060.30 0.5471
1060.40 0.547
1060.50 0.5469
1060.60 0.5468
1060.70 0.5467
1060.80 0.5466
1060.90 0.5465
1061.00 0.5464
1061.10 0.5463
1061.20 0.5462
1061.30 0.546
1061.40 0.5459
1061.50 0.5458
1061.60 0.5457
1061.70 0.5456
1061.80 0.5455
1061.90 0.5454
1062.00 0.5453
1062.10 0.5452
1062.20 0.5451
1062.30 0.545
1062.40 0.5449
1062.50 0.5448
1062.60 0.5447
1062.70 0.5446
1062.80 0.5445
1062.90 0.5444
1063.00 0.5443
1063.10 0.5442
1063.20 0.5441
1063.30 0.544
1063.40 0.5439
1063.50 0.5438
1063.60 0.5437
1063.70 0.5436
1063.80 0.5435
1063.90 0.5434
1064.00 0.5433
1064.10 0.5432
1064.20 0.5431
1064.30 0.543
1064.40 0.5429
1064.50 0.5428
1064.60 0.5427
1064.70 0.5426
1064.80 0.5425
1064.90 0.5424
1065.00 0.5423
1065.10 0.5422
1065.20 0.5421
1065.30 0.542
1065.40 0.5419
1065.50 0.5418
1065.60 0.5417
1065.70 0.5416
1065.80 0.5415
1065.90 0.5414
1066.00 0.5413
1066.10 0.5412
1066.20 0.5411
1066.30 0.541
1066.40 0.5409
1066.50 0.5408
1066.60 0.5407
1066.70 0.5406
1066.80 0.5405
1066.90 0.5404
1067.00 0.5403
1067.10 0.5402
1067.20 0.5401
1067.30 0.54
1067.40 0.5399
1067.50 0.5398
1067.60 0.5397
1067.70 0.5396
1067.80 0.5395
1067.90 0.5394
1068.00 0.5393
1068.10 0.5392
1068.20 0.5391
1068.30 0.539
1068.40 0.5389
1068.50 0.5388
1068.60 0.5387
1068.70 0.5386
1068.80 0.5385
1068.90 0.5384
1069.00 0.5383
1069.10 0.5382
1069.20 0.5381
1069.30 0.538
1069.40 0.5379
1069.50 0.5378
1069.60 0.5377
1069.70 0.5376
1069.80 0.5375
1069.90 0.5374
1070.00 0.5373
1070.10 0.5372
1070.20 0.5371
1070.30 0.537
1070.40 0.5369
1070.50 0.5368
1070.60 0.5367
1070.70 0.5366
1070.80 0.5365
1070.90 0.5364
1071.00 0.5363
1071.10 0.5362
1071.20 0.5361
1071.30 0.536
1071.40 0.5359
1071.50 0.5358
1071.60 0.5357
1071.70 0.5356
1071.80 0.5355
1071.90 0.5354
1072.00 0.5353
1072.10 0.5352
1072.20 0.5351
1072.30 0.535
1072.40 0.535
1072.50 0.5349
1072.60 0.5348
1072.70 0.5347
1072.80 0.5346
1072.90 0.5345
1073.00 0.5344
1073.10 0.5343
1073.20 0.5342
1073.30 0.5341
1073.40 0.534
1073.50 0.5339
1073.60 0.5338
1073.70 0.5337
1073.80 0.5336
1073.90 0.5335
1074.00 0.5334
1074.10 0.5333
1074.20 0.5332
1074.30 0.5331
1074.40 0.533
1074.50 0.5329
1074.60 0.5328
1074.70 0.5327
1074.80 0.5326
1074.90 0.5325
1075.00 0.5324
1075.10 0.5323
1075.20 0.5322
1075.30 0.5321
1075.40 0.532
1075.50 0.5319
1075.60 0.5318
1075.70 0.5317
1075.80 0.5316
1075.90 0.5315
1076.00 0.5314
1076.10 0.5313
1076.20 0.5312
1076.30 0.5311
1076.40 0.531
1076.50 0.5309
1076.60 0.5308
1076.70 0.5307
1076.80 0.5306
1076.90 0.5305
1077.00 0.5304
1077.10 0.5303
1077.20 0.5302
1077.30 0.5301
1077.40 0.53
1077.50 0.5299
1077.60 0.5298
1077.70 0.5297
1077.80 0.5296
1077.90 0.5295
1078.00 0.5294
1078.10 0.5293
1078.20 0.5293
1078.30 0.5292
1078.40 0.5291
1078.50 0.529
1078.60 0.5289
1078.70 0.5288
1078.80 0.5287
1078.90 0.5286
1079.00 0.5285
1079.10 0.5284
1079.20 0.5283
1079.30 0.5282
1079.40 0.5281
1079.50 0.528
1079.60 0.5279
1079.70 0.5278
1079.80 0.5277
1079.90 0.5276
1080.00 0.5275
1080.10 0.5274
1080.20 0.5273
1080.30 0.5272
1080.40 0.5271
1080.50 0.527
1080.60 0.5269
1080.70 0.5268
1080.80 0.5267
1080.90 0.5266
1081.00 0.5265
1081.10 0.5264
1081.20 0.5263
1081.30 0.5262
1081.40 0.5261
1081.50 0.526
1081.60 0.5259
1081.70 0.5258
1081.80 0.5257
1081.90 0.5256
1082.00 0.5255
1082.10 0.5255
1082.20 0.5254
1082.30 0.5253
1082.40 0.5252
1082.50 0.5251
1082.60 0.525
1082.70 0.5249
1082.80 0.5248
1082.90 0.5247
1083.00 0.5246
1083.10 0.5245
1083.20 0.5244
1083.30 0.5243
1083.40 0.5242
1083.50 0.5241
1083.60 0.524
1083.70 0.5239
1083.80 0.5238
1083.90 0.5237
1084.00 0.5236
1084.10 0.5235
1084.20 0.5234
1084.30 0.5233
1084.40 0.5232
1084.50 0.5231
1084.60 0.523
1084.70 0.5229
1084.80 0.5228
1084.90 0.5227
1085.00 0.5227
1085.10 0.5226
1085.20 0.5225
1085.30 0.5224
1085.40 0.5223
1085.50 0.5222
1085.60 0.5221
1085.70 0.522
1085.80 0.5219
1085.90 0.5218
1086.00 0.5217
1086.10 0.5216
1086.20 0.5215
1086.30 0.5214
1086.40 0.5213
1086.50 0.5212
1086.60 0.5211
1086.70 0.521
1086.80 0.5209
1086.90 0.5208
1087.00 0.5207
1087.10 0.5206
1087.20 0.5205
1087.30 0.5204
1087.40 0.5203
1087.50 0.5202
1087.60 0.5201
1087.70 0.5201
1087.80 0.52
1087.90 0.5199
1088.00 0.5198
1088.10 0.5197
1088.20 0.5196
1088.30 0.5195
1088.40 0.5194
1088.50 0.5193
1088.60 0.5192
1088.70 0.5191
1088.80 0.519
1088.90 0.5189
1089.00 0.5188
1089.10 0.5187
1089.20 0.5186
1089.30 0.5185
1089.40 0.5184
1089.50 0.5183
1089.60 0.5182
1089.70 0.5181
1089.80 0.518
1089.90 0.5179
1090.00 0.5179
1090.10 0.5178
1090.20 0.5177
1090.30 0.5176
1090.40 0.5175
1090.50 0.5174
1090.60 0.5173
1090.70 0.5172
1090.80 0.5171
1090.90 0.517
1091.00 0.5169
1091.10 0.5168
1091.20 0.5167
1091.30 0.5166
1091.40 0.5165
1091.50 0.5164
1091.60 0.5163
1091.70 0.5162
1091.80 0.5161
1091.90 0.516
1092.00 0.5159
1092.10 0.5158
1092.20 0.5158
1092.30 0.5157
1092.40 0.5156
1092.50 0.5155
1092.60 0.5154
1092.70 0.5153
1092.80 0.5152
1092.90 0.5151
1093.00 0.515
1093.10 0.5149
1093.20 0.5148
1093.30 0.5147
1093.40 0.5146
1093.50 0.5145
1093.60 0.5144
1093.70 0.5143
1093.80 0.5142
1093.90 0.5141
1094.00 0.514
1094.10 0.514
1094.20 0.5139
1094.30 0.5138
1094.40 0.5137
1094.50 0.5136
1094.60 0.5135
1094.70 0.5134
1094.80 0.5133
1094.90 0.5132
1095.00 0.5131
1095.10 0.513
1095.20 0.5129
1095.30 0.5128
1095.40 0.5127
1095.50 0.5126
1095.60 0.5125
1095.70 0.5124
1095.80 0.5123
1095.90 0.5122
1096.00 0.5122
1096.10 0.5121
1096.20 0.512
1096.30 0.5119
1096.40 0.5118
1096.50 0.5117
1096.60 0.5116
1096.70 0.5115
1096.80 0.5114
1096.90 0.5113
1097.00 0.5112
1097.10 0.5111
1097.20 0.511
1097.30 0.5109
1097.40 0.5108
1097.50 0.5107
1097.60 0.5106
1097.70 0.5105
1097.80 0.5105
1097.90 0.5104
1098.00 0.5103
1098.10 0.5102
1098.20 0.5101
1098.30 0.51
1098.40 0.5099
1098.50 0.5098
1098.60 0.5097
1098.70 0.5096
1098.80 0.5095
1098.90 0.5094
1099.00 0.5093
1099.10 0.5092
1099.20 0.5091
1099.30 0.509
1099.40 0.509
1099.50 0.5089
1099.60 0.5088
1099.70 0.5087
1099.80 0.5086
1099.90 0.5085
1100.00 0.5084
1100.10 0.5083
1100.20 0.5082
1100.30 0.5081
1100.40 0.508
1100.50 0.5079
1100.60 0.5078
1100.70 0.5077
1100.80 0.5076
1100.90 0.5075
1101.00 0.5075
1101.10 0.5074
1101.20 0.5073
1101.30 0.5072
1101.40 0.5071
1101.50 0.507
1101.60 0.5069
1101.70 0.5068
1101.80 0.5067
1101.90 0.5066
1102.00 0.5065
1102.10 0.5064
1102.20 0.5063
1102.30 0.5062
1102.40 0.5061
1102.50 0.5061
1102.60 0.506
1102.70 0.5059
1102.80 0.5058
1102.90 0.5057
1103.00 0.5056
1103.10 0.5055
1103.20 0.5054
1103.30 0.5053
1103.40 0.5052
1103.50 0.5051
1103.60 0.505
1103.70 0.5049
1103.80 0.5048
1103.90 0.5048
1104.00 0.5047
1104.10 0.5046
1104.20 0.5045
1104.30 0.5044
1104.40 0.5043
1104.50 0.5042
1104.60 0.5041
1104.70 0.504
1104.80 0.5039
1104.90 0.5038
1105.00 0.5037
1105.10 0.5036
1105.20 0.5035
1105.30 0.5034
1105.40 0.5034
1105.50 0.5033
1105.60 0.5032
1105.70 0.5031
1105.80 0.503
1105.90 0.5029
1106.00 0.5028
1106.10 0.5027
1106.20 0.5026
1106.30 0.5025
1106.40 0.5024
1106.50 0.5023
1106.60 0.5022
1106.70 0.5021
1106.80 0.5021
1106.90 0.502
1107.00 0.5019
1107.10 0.5018
1107.20 0.5017
1107.30 0.5016
1107.40 0.5015
1107.50 0.5014
1107.60 0.5013
1107.70 0.5012
1107.80 0.5011
1107.90 0.501
1108.00 0.5009
1108.10 0.5009
1108.20 0.5008
1108.30 0.5007
1108.40 0.5006
1108.50 0.5005
1108.60 0.5004
1108.70 0.5003
1108.80 0.5002
1108.90 0.5001
1109.00 0.5
1109.10 0.4999
1109.20 0.4998
1109.30 0.4997
1109.40 0.4997
1109.50 0.4996
1109.60 0.4995
1109.70 0.4994
1109.80 0.4993
1109.90 0.4992
1110.00 0.4991
1110.10 0.499
1110.20 0.4989
1110.30 0.4988
1110.40 0.4987
1110.50 0.4986
1110.60 0.4986
1110.70 0.4985
1110.80 0.4984
1110.90 0.4983
1111.00 0.4982
1111.10 0.4981
1111.20 0.498
1111.30 0.4979
1111.40 0.4978
1111.50 0.4977
1111.60 0.4976
1111.70 0.4975
1111.80 0.4974
1111.90 0.4974
1112.00 0.4973
1112.10 0.4972
1112.20 0.4971
1112.30 0.497
1112.40 0.4969
1112.50 0.4968
1112.60 0.4967
1112.70 0.4966
1112.80 0.4965
1112.90 0.4964
1113.00 0.4963
1113.10 0.4963
1113.20 0.4962
1113.30 0.4961
1113.40 0.496
1113.50 0.4959
1113.60 0.4958
1113.70 0.4957
1113.80 0.4956
1113.90 0.4955
1114.00 0.4954
1114.10 0.4953
1114.20 0.4953
1114.30 0.4952
1114.40 0.4951
1114.50 0.495
1114.60 0.4949
1114.70 0.4948
1114.80 0.4947
1114.90 0.4946
1115.00 0.4945
1115.10 0.4944
1115.20 0.4943
1115.30 0.4942
1115.40 0.4942
1115.50 0.4941
1115.60 0.494
1115.70 0.4939
1115.80 0.4938
1115.90 0.4937
1116.00 0.4936
1116.10 0.4935
1116.20 0.4934
1116.30 0.4933
1116.40 0.4932
1116.50 0.4932
1116.60 0.4931
1116.70 0.493
1116.80 0.4929
1116.90 0.4928
1117.00 0.4927
1117.10 0.4926
1117.20 0.4925
1117.30 0.4924
1117.40 0.4923
1117.50 0.4922
1117.60 0.4922
1117.70 0.4921
1117.80 0.492
1117.90 0.4919
1118.00 0.4918
1118.10 0.4917
1118.20 0.4916
1118.30 0.4915
1118.40 0.4914
1118.50 0.4913
1118.60 0.4912
1118.70 0.4912
1118.80 0.4911
1118.90 0.491
1119.00 0.4909
1119.10 0.4908
1119.20 0.4907
1119.30 0.4906
1119.40 0.4905
1119.50 0.4904
1119.60 0.4903
1119.70 0.4903
1119.80 0.4902
1119.90 0.4901
1120.00 0.49
1120.10 0.4899
1120.20 0.4898
1120.30 0.4897
1120.40 0.4896
1120.50 0.4895
1120.60 0.4894
1120.70 0.4894
1120.80 0.4893
1120.90 0.4892
1121.00 0.4891
1121.10 0.489
1121.20 0.4889
1121.30 0.4888
1121.40 0.4887
1121.50 0.4886
1121.60 0.4885
1121.70 0.4885
1121.80 0.4884
1121.90 0.4883
1122.00 0.4882
1122.10 0.4881
1122.20 0.488
1122.30 0.4879
1122.40 0.4878
1122.50 0.4877
1122.60 0.4876
1122.70 0.4876
1122.80 0.4875
1122.90 0.4874
1123.00 0.4873
1123.10 0.4872
1123.20 0.4871
1123.30 0.487
1123.40 0.4869
1123.50 0.4868
1123.60 0.4867
1123.70 0.4867
1123.80 0.4866
1123.90 0.4865
1124.00 0.4864
1124.10 0.4863
1124.20 0.4862
1124.30 0.4861
1124.40 0.486
1124.50 0.4859
1124.60 0.4858
1124.70 0.4858
1124.80 0.4857
1124.90 0.4856
1125.00 0.4855
1125.10 0.4854
1125.20 0.4853
1125.30 0.4852
1125.40 0.4851
1125.50 0.485
1125.60 0.485
1125.70 0.4849
1125.80 0.4848
1125.90 0.4847
1126.00 0.4846
1126.10 0.4845
1126.20 0.4844
1126.30 0.4843
1126.40 0.4842
1126.50 0.4841
1126.60 0.4841
1126.70 0.484
1126.80 0.4839
1126.90 0.4838
1127.00 0.4837
1127.10 0.4836
1127.20 0.4835
1127.30 0.4834
1127.40 0.4833
1127.50 0.4833
1127.60 0.4832
1127.70 0.4831
1127.80 0.483
1127.90 0.4829
1128.00 0.4828
1128.10 0.4827
1128.20 0.4826
1128.30 0.4825
1128.40 0.4825
1128.50 0.4824
1128.60 0.4823
1128.70 0.4822
1128.80 0.4821
1128.90 0.482
1129.00 0.4819
1129.10 0.4818
1129.20 0.4817
1129.30 0.4817
1129.40 0.4816
1129.50 0.4815
1129.60 0.4814
1129.70 0.4813
1129.80 0.4812
1129.90 0.4811
1130.00 0.481
1130.10 0.4809
1130.20 0.4809
1130.30 0.4808
1130.40 0.4807
1130.50 0.4806
1130.60 0.4805
1130.70 0.4804
1130.80 0.4803
1130.90 0.4802
1131.00 0.4801
1131.10 0.4801
1131.20 0.48
1131.30 0.4799
1131.40 0.4798
1131.50 0.4797
1131.60 0.4796
1131.70 0.4795
1131.80 0.4794
1131.90 0.4794
1132.00 0.4793
1132.10 0.4792
1132.20 0.4791
1132.30 0.479
1132.40 0.4789
1132.50 0.4788
1132.60 0.4787
1132.70 0.4786
1132.80 0.4786
1132.90 0.4785
1133.00 0.4784
1133.10 0.4783
1133.20 0.4782
1133.30 0.4781
1133.40 0.478
1133.50 0.4779
1133.60 0.4779
1133.70 0.4778
1133.80 0.4777
1133.90 0.4776
1134.00 0.4775
1134.10 0.4774
1134.20 0.4773
1134.30 0.4772
1134.40 0.4771
1134.50 0.4771
1134.60 0.477
1134.70 0.4769
1134.80 0.4768
1134.90 0.4767
1135.00 0.4766
1135.10 0.4765
1135.20 0.4764
1135.30 0.4764
1135.40 0.4763
1135.50 0.4762
1135.60 0.4761
1135.70 0.476
1135.80 0.4759
1135.90 0.4758
1136.00 0.4757
1136.10 0.4757
1136.20 0.4756
1136.30 0.4755
1136.40 0.4754
1136.50 0.4753
1136.60 0.4752
1136.70 0.4751
1136.80 0.475
1136.90 0.475
1137.00 0.4749
1137.10 0.4748
1137.20 0.4747
1137.30 0.4746
1137.40 0.4745
1137.50 0.4744
1137.60 0.4743
1137.70 0.4743
1137.80 0.4742
1137.90 0.4741
1138.00 0.474
1138.10 0.4739
1138.20 0.4738
1138.30 0.4737
1138.40 0.4736
1138.50 0.4736
1138.60 0.4735
1138.70 0.4734
1138.80 0.4733
1138.90 0.4732
1139.00 0.4731
1139.10 0.473
1139.20 0.4729
1139.30 0.4729
1139.40 0.4728
1139.50 0.4727
1139.60 0.4726
1139.70 0.4725
1139.80 0.4724
1139.90 0.4723
1140.00 0.4722
1140.10 0.4722
1140.20 0.4721
1140.30 0.472
1140.40 0.4719
1140.50 0.4718
1140.60 0.4717
1140.70 0.4716
1140.80 0.4715
1140.90 0.4715
1141.00 0.4714
1141.10 0.4713
1141.20 0.4712
1141.30 0.4711
1141.40 0.471
1141.50 0.4709
1141.60 0.4708
1141.70 0.4708
1141.80 0.4707
1141.90 0.4706
1142.00 0.4705
1142.10 0.4704
1142.20 0.4703
1142.30 0.4702
1142.40 0.4702
1142.50 0.4701
1142.60 0.47
1142.70 0.4699
1142.80 0.4698
1142.90 0.4697
1143.00 0.4696
1143.10 0.4695
1143.20 0.4695
1143.30 0.4694
1143.40 0.4693
1143.50 0.4692
1143.60 0.4691
1143.70 0.469
1143.80 0.4689
1143.90 0.4689
1144.00 0.4688
1144.10 0.4687
1144.20 0.4686
1144.30 0.4685
1144.40 0.4684
1144.50 0.4683
1144.60 0.4682
1144.70 0.4682
1144.80 0.4681
1144.90 0.468
1145.00 0.4679
1145.10 0.4678
1145.20 0.4677
1145.30 0.4676
1145.40 0.4676
1145.50 0.4675
1145.60 0.4674
1145.70 0.4673
1145.80 0.4672
1145.90 0.4671
1146.00 0.467
1146.10 0.4669
1146.20 0.4669
1146.30 0.4668
1146.40 0.4667
1146.50 0.4666
1146.60 0.4665
1146.70 0.4664
1146.80 0.4663
1146.90 0.4663
1147.00 0.4662
1147.10 0.4661
1147.20 0.466
1147.30 0.4659
1147.40 0.4658
1147.50 0.4657
1147.60 0.4657
1147.70 0.4656
1147.80 0.4655
1147.90 0.4654
1148.00 0.4653
1148.10 0.4652
1148.20 0.4651
1148.30 0.4651
1148.40 0.465
1148.50 0.4649
1148.60 0.4648
1148.70 0.4647
1148.80 0.4646
1148.90 0.4645
1149.00 0.4645
1149.10 0.4644
1149.20 0.4643
1149.30 0.4642
1149.40 0.4641
1149.50 0.464
1149.60 0.4639
1149.70 0.4639
1149.80 0.4638
1149.90 0.4637
1150.00 0.4636
1150.10 0.4635
1150.20 0.4634
1150.30 0.4633
1150.40 0.4633
1150.50 0.4632
1150.60 0.4631
1150.70 0.463
1150.80 0.4629
1150.90 0.4628
1151.00 0.4627
1151.10 0.4627
1151.20 0.4626
1151.30 0.4625
1151.40 0.4624
1151.50 0.4623
1151.60 0.4622
1151.70 0.4621
1151.80 0.4621
1151.90 0.462
1152.00 0.4619
1152.10 0.4618
1152.20 0.4617
1152.30 0.4616
1152.40 0.4615
1152.50 0.4615
1152.60 0.4614
1152.70 0.4613
1152.80 0.4612
1152.90 0.4611
1153.00 0.461
1153.10 0.4609
1153.20 0.4609
1153.30 0.4608
1153.40 0.4607
1153.50 0.4606
1153.60 0.4605
1153.70 0.4604
1153.80 0.4603
1153.90 0.4603
1154.00 0.4602
1154.10 0.4601
1154.20 0.46
1154.30 0.4599
1154.40 0.4598
1154.50 0.4598
1154.60 0.4597
1154.70 0.4596
1154.80 0.4595
1154.90 0.4594
1155.00 0.4593
1155.10 0.4592
1155.20 0.4592
1155.30 0.4591
1155.40 0.459
1155.50 0.4589
1155.60 0.4588
1155.70 0.4587
1155.80 0.4586
1155.90 0.4586
1156.00 0.4585
1156.10 0.4584
1156.20 0.4583
1156.30 0.4582
1156.40 0.4581
1156.50 0.4581
1156.60 0.458
1156.70 0.4579
1156.80 0.4578
1156.90 0.4577
1157.00 0.4576
1157.10 0.4575
1157.20 0.4575
1157.30 0.4574
1157.40 0.4573
1157.50 0.4572
1157.60 0.4571
1157.70 0.457
1157.80 0.457
1157.90 0.4569
1158.00 0.4568
1158.10 0.4567
1158.20 0.4566
1158.30 0.4565
1158.40 0.4564
1158.50 0.4564
1158.60 0.4563
1158.70 0.4562
1158.80 0.4561
1158.90 0.456
1159.00 0.4559
1159.10 0.4559
1159.20 0.4558
1159.30 0.4557
1159.40 0.4556
1159.50 0.4555
1159.60 0.4554
1159.70 0.4554
1159.80 0.4553
1159.90 0.4552
1160.00 0.4551
1160.10 0.455
1160.20 0.4549
1160.30 0.4548
1160.40 0.4548
1160.50 0.4547
1160.60 0.4546
1160.70 0.4545
1160.80 0.4544
1160.90 0.4543
1161.00 0.4543
1161.10 0.4542
1161.20 0.4541
1161.30 0.454
1161.40 0.4539
1161.50 0.4538
1161.60 0.4538
1161.70 0.4537
1161.80 0.4536
1161.90 0.4535
1162.00 0.4534
1162.10 0.4533
1162.20 0.4533
1162.30 0.4532
1162.40 0.4531
1162.50 0.453
1162.60 0.4529
1162.70 0.4528
1162.80 0.4527
1162.90 0.4527
1163.00 0.4526
1163.10 0.4525
1163.20 0.4524
1163.30 0.4523
1163.40 0.4522
1163.50 0.4522
1163.60 0.4521
1163.70 0.452
1163.80 0.4519
1163.90 0.4518
1164.00 0.4517
1164.10 0.4517
1164.20 0.4516
1164.30 0.4515
1164.40 0.4514
1164.50 0.4513
1164.60 0.4512
1164.70 0.4512
1164.80 0.4511
1164.90 0.451
1165.00 0.4509
1165.10 0.4508
1165.20 0.4507
1165.30 0.4506
1165.40 0.4506
1165.50 0.4505
1165.60 0.4504
1165.70 0.4503
1165.80 0.4502
1165.90 0.4501
1166.00 0.4501
1166.10 0.45
1166.20 0.4499
1166.30 0.4498
1166.40 0.4497
1166.50 0.4496
1166.60 0.4496
1166.70 0.4495
1166.80 0.4494
1166.90 0.4493
1167.00 0.4492
1167.10 0.4491
1167.20 0.4491
1167.30 0.449
1167.40 0.4489
1167.50 0.4488
1167.60 0.4487
1167.70 0.4486
1167.80 0.4486
1167.90 0.4485
1168.00 0.4484
1168.10 0.4483
1168.20 0.4482
1168.30 0.4481
1168.40 0.4481
1168.50 0.448
1168.60 0.4479
1168.70 0.4478
1168.80 0.4477
1168.90 0.4476
1169.00 0.4476
1169.10 0.4475
1169.20 0.4474
1169.30 0.4473
1169.40 0.4472
1169.50 0.4471
1169.60 0.4471
1169.70 0.447
1169.80 0.4469
1169.90 0.4468
1170.00 0.4467
1170.10 0.4466
1170.20 0.4466
1170.30 0.4465
1170.40 0.4464
1170.50 0.4463
1170.60 0.4462
1170.70 0.4462
1170.80 0.4461
1170.90 0.446
1171.00 0.4459
1171.10 0.4458
1171.20 0.4457
1171.30 0.4457
1171.40 0.4456
1171.50 0.4455
1171.60 0.4454
1171.70 0.4453
1171.80 0.4452
1171.90 0.4452
1172.00 0.4451
1172.10 0.445
1172.20 0.4449
1172.30 0.4448
1172.40 0.4447
1172.50 0.4447
1172.60 0.4446
1172.70 0.4445
1172.80 0.4444
1172.90 0.4443
1173.00 0.4442
1173.10 0.4442
1173.20 0.4441
1173.30 0.444
1173.40 0.4439
1173.50 0.4438
1173.60 0.4438
1173.70 0.4437
1173.80 0.4436
1173.90 0.4435
1174.00 0.4434
1174.10 0.4433
1174.20 0.4433
1174.30 0.4432
1174.40 0.4431
1174.50 0.443
1174.60 0.4429
1174.70 0.4428
1174.80 0.4428
1174.90 0.4427
1175.00 0.4426
1175.10 0.4425
1175.20 0.4424
1175.30 0.4424
1175.40 0.4423
1175.50 0.4422
1175.60 0.4421
1175.70 0.442
1175.80 0.4419
1175.90 0.4419
1176.00 0.4418
1176.10 0.4417
1176.20 0.4416
1176.30 0.4415
1176.40 0.4415
1176.50 0.4414
1176.60 0.4413
1176.70 0.4412
1176.80 0.4411
1176.90 0.441
1177.00 0.441
1177.10 0.4409
1177.20 0.4408
1177.30 0.4407
1177.40 0.4406
1177.50 0.4406
1177.60 0.4405
1177.70 0.4404
1177.80 0.4403
1177.90 0.4402
1178.00 0.4401
1178.10 0.4401
1178.20 0.44
1178.30 0.4399
1178.40 0.4398
1178.50 0.4397
1178.60 0.4396
1178.70 0.4396
1178.80 0.4395
1178.90 0.4394
1179.00 0.4393
1179.10 0.4392
1179.20 0.4392
1179.30 0.4391
1179.40 0.439
1179.50 0.4389
1179.60 0.4388
1179.70 0.4387
1179.80 0.4387
1179.90 0.4386
1180.00 0.4385
1180.10 0.4384
1180.20 0.4383
1180.30 0.4383
1180.40 0.4382
1180.50 0.4381
1180.60 0.438
1180.70 0.4379
1180.80 0.4379
1180.90 0.4378
1181.00 0.4377
1181.10 0.4376
1181.20 0.4375
1181.30 0.4374
1181.40 0.4374
1181.50 0.4373
1181.60 0.4372
1181.70 0.4371
1181.80 0.437
1181.90 0.437
1182.00 0.4369
1182.10 0.4368
1182.20 0.4367
1182.30 0.4366
1182.40 0.4365
1182.50 0.4365
1182.60 0.4364
1182.70 0.4363
1182.80 0.4362
1182.90 0.4361
1183.00 0.4361
1183.10 0.436
1183.20 0.4359
1183.30 0.4358
1183.40 0.4357
1183.50 0.4357
1183.60 0.4356
1183.70 0.4355
1183.80 0.4354
1183.90 0.4353
1184.00 0.4352
1184.10 0.4352
1184.20 0.4351
1184.30 0.435
1184.40 0.4349
1184.50 0.4348
1184.60 0.4348
1184.70 0.4347
1184.80 0.4346
1184.90 0.4345
1185.00 0.4344
1185.10 0.4344
1185.20 0.4343
1185.30 0.4342
1185.40 0.4341
1185.50 0.434
1185.60 0.4339
1185.70 0.4339
1185.80 0.4338
1185.90 0.4337
1186.00 0.4336
1186.10 0.4335
1186.20 0.4335
1186.30 0.4334
1186.40 0.4333
1186.50 0.4332
1186.60 0.4331
1186.70 0.4331
1186.80 0.433
1186.90 0.4329
1187.00 0.4328
1187.10 0.4327
1187.20 0.4327
1187.30 0.4326
1187.40 0.4325
1187.50 0.4324
1187.60 0.4323
1187.70 0.4323
1187.80 0.4322
1187.90 0.4321
1188.00 0.432
1188.10 0.4319
1188.20 0.4318
1188.30 0.4318
1188.40 0.4317
1188.50 0.4316
1188.60 0.4315
1188.70 0.4314
1188.80 0.4314
1188.90 0.4313
1189.00 0.4312
1189.10 0.4311
1189.20 0.431
1189.30 0.431
1189.40 0.4309
1189.50 0.4308
1189.60 0.4307
1189.70 0.4306
1189.80 0.4306
1189.90 0.4305
1190.00 0.4304
1190.10 0.4303
1190.20 0.4302
1190.30 0.4302
1190.40 0.4301
1190.50 0.43
1190.60 0.4299
1190.70 0.4298
1190.80 0.4298
1190.90 0.4297
1191.00 0.4296
1191.10 0.4295
1191.20 0.4294
1191.30 0.4294
1191.40 0.4293
1191.50 0.4292
1191.60 0.4291
1191.70 0.429
1191.80 0.429
1191.90 0.4289
1192.00 0.4288
1192.10 0.4287
1192.20 0.4286
1192.30 0.4286
1192.40 0.4285
1192.50 0.4284
1192.60 0.4283
1192.70 0.4282
1192.80 0.4282
1192.90 0.4281
1193.00 0.428
1193.10 0.4279
1193.20 0.4278
1193.30 0.4278
1193.40 0.4277
1193.50 0.4276
1193.60 0.4275
1193.70 0.4274
1193.80 0.4274
1193.90 0.4273
1194.00 0.4272
1194.10 0.4271
1194.20 0.427
1194.30 0.427
1194.40 0.4269
1194.50 0.4268
1194.60 0.4267
1194.70 0.4266
1194.80 0.4266
1194.90 0.4265
1195.00 0.4264
1195.10 0.4263
1195.20 0.4262
1195.30 0.4262
1195.40 0.4261
1195.50 0.426
1195.60 0.4259
1195.70 0.4258
1195.80 0.4258
1195.90 0.4257
1196.00 0.4256
1196.10 0.4255
1196.20 0.4255
1196.30 0.4254
1196.40 0.4253
1196.50 0.4252
1196.60 0.4251
1196.70 0.4251
1196.80 0.425
1196.90 0.4249
1197.00 0.4248
1197.10 0.4247
1197.20 0.4247
1197.30 0.4246
1197.40 0.4245
1197.50 0.4244
1197.60 0.4243
1197.70 0.4243
1197.80 0.4242
1197.90 0.4241
1198.00 0.424
1198.10 0.4239
1198.20 0.4239
1198.30 0.4238
1198.40 0.4237
1198.50 0.4236
1198.60 0.4235
1198.70 0.4235
1198.80 0.4234
1198.90 0.4233
1199.00 0.4232
1199.10 0.4232
1199.20 0.4231
1199.30 0.423
1199.40 0.4229
1199.50 0.4228
1199.60 0.4228
1199.70 0.4227
1199.80 0.4226
1199.90 0.4225
1200.00 0
