# Version 2.1 - nm, norm@500 to 1, cut digits, bergeron_12500_95.dat_12500
# Wavelength(nm)  Flambda(ergs/cm^s/s/nm)
300.00 2.411
300.10 2.409
300.20 2.408
300.30 2.406
300.40 2.405
300.50 2.403
300.60 2.402
300.70 2.401
300.80 2.399
300.90 2.398
301.00 2.396
301.10 2.395
301.20 2.393
301.30 2.392
301.40 2.39
301.50 2.389
301.60 2.387
301.70 2.386
301.80 2.385
301.90 2.383
302.00 2.382
302.10 2.38
302.20 2.379
302.30 2.377
302.40 2.376
302.50 2.375
302.60 2.373
302.70 2.372
302.80 2.37
302.90 2.369
303.00 2.367
303.10 2.366
303.20 2.364
303.30 2.363
303.40 2.362
303.50 2.36
303.60 2.359
303.70 2.357
303.80 2.356
303.90 2.354
304.00 2.353
304.10 2.352
304.20 2.35
304.30 2.349
304.40 2.347
304.50 2.346
304.60 2.344
304.70 2.343
304.80 2.342
304.90 2.34
305.00 2.339
305.10 2.337
305.20 2.336
305.30 2.334
305.40 2.333
305.50 2.332
305.60 2.33
305.70 2.329
305.80 2.327
305.90 2.326
306.00 2.325
306.10 2.323
306.20 2.322
306.30 2.32
306.40 2.319
306.50 2.318
306.60 2.316
306.70 2.315
306.80 2.313
306.90 2.312
307.00 2.311
307.10 2.309
307.20 2.308
307.30 2.306
307.40 2.305
307.50 2.304
307.60 2.302
307.70 2.301
307.80 2.299
307.90 2.298
308.00 2.297
308.10 2.295
308.20 2.294
308.30 2.292
308.40 2.291
308.50 2.29
308.60 2.288
308.70 2.287
308.80 2.285
308.90 2.284
309.00 2.283
309.10 2.281
309.20 2.28
309.30 2.278
309.40 2.277
309.50 2.276
309.60 2.274
309.70 2.273
309.80 2.272
309.90 2.27
310.00 2.269
310.10 2.267
310.20 2.266
310.30 2.265
310.40 2.263
310.50 2.262
310.60 2.261
310.70 2.259
310.80 2.258
310.90 2.256
311.00 2.255
311.10 2.254
311.20 2.252
311.30 2.251
311.40 2.25
311.50 2.248
311.60 2.247
311.70 2.245
311.80 2.244
311.90 2.243
312.00 2.241
312.10 2.24
312.20 2.239
312.30 2.237
312.40 2.236
312.50 2.235
312.60 2.233
312.70 2.232
312.80 2.23
312.90 2.229
313.00 2.228
313.10 2.226
313.20 2.225
313.30 2.224
313.40 2.222
313.50 2.221
313.60 2.22
313.70 2.218
313.80 2.217
313.90 2.216
314.00 2.214
314.10 2.213
314.20 2.212
314.30 2.21
314.40 2.209
314.50 2.207
314.60 2.206
314.70 2.205
314.80 2.203
314.90 2.202
315.00 2.201
315.10 2.199
315.20 2.198
315.30 2.197
315.40 2.195
315.50 2.194
315.60 2.193
315.70 2.191
315.80 2.19
315.90 2.189
316.00 2.187
316.10 2.186
316.20 2.185
316.30 2.183
316.40 2.182
316.50 2.181
316.60 2.179
316.70 2.178
316.80 2.177
316.90 2.175
317.00 2.174
317.10 2.173
317.20 2.171
317.30 2.17
317.40 2.169
317.50 2.167
317.60 2.166
317.70 2.165
317.80 2.164
317.90 2.162
318.00 2.161
318.10 2.16
318.20 2.158
318.30 2.157
318.40 2.156
318.50 2.154
318.60 2.153
318.70 2.152
318.80 2.15
318.90 2.149
319.00 2.148
319.10 2.146
319.20 2.145
319.30 2.144
319.40 2.143
319.50 2.141
319.60 2.14
319.70 2.139
319.80 2.137
319.90 2.136
320.00 2.135
320.10 2.133
320.20 2.132
320.30 2.131
320.40 2.129
320.50 2.128
320.60 2.127
320.70 2.126
320.80 2.124
320.90 2.123
321.00 2.122
321.10 2.12
321.20 2.119
321.30 2.118
321.40 2.117
321.50 2.115
321.60 2.114
321.70 2.113
321.80 2.111
321.90 2.11
322.00 2.109
322.10 2.108
322.20 2.106
322.30 2.105
322.40 2.104
322.50 2.102
322.60 2.101
322.70 2.1
322.80 2.099
322.90 2.097
323.00 2.096
323.10 2.095
323.20 2.093
323.30 2.092
323.40 2.091
323.50 2.09
323.60 2.088
323.70 2.087
323.80 2.086
323.90 2.085
324.00 2.083
324.10 2.082
324.20 2.081
324.30 2.079
324.40 2.078
324.50 2.077
324.60 2.076
324.70 2.074
324.80 2.073
324.90 2.072
325.00 2.071
325.10 2.069
325.20 2.068
325.30 2.067
325.40 2.066
325.50 2.064
325.60 2.063
325.70 2.062
325.80 2.061
325.90 2.059
326.00 2.058
326.10 2.057
326.20 2.055
326.30 2.054
326.40 2.053
326.50 2.052
326.60 2.05
326.70 2.049
326.80 2.048
326.90 2.047
327.00 2.045
327.10 2.044
327.20 2.043
327.30 2.042
327.40 2.04
327.50 2.039
327.60 2.038
327.70 2.037
327.80 2.036
327.90 2.034
328.00 2.033
328.10 2.032
328.20 2.031
328.30 2.029
328.40 2.028
328.50 2.027
328.60 2.026
328.70 2.024
328.80 2.023
328.90 2.022
329.00 2.021
329.10 2.019
329.20 2.018
329.30 2.017
329.40 2.016
329.50 2.015
329.60 2.013
329.70 2.012
329.80 2.011
329.90 2.01
330.00 2.008
330.10 2.007
330.20 2.006
330.30 2.005
330.40 2.003
330.50 2.002
330.60 2.001
330.70 2
330.80 1.999
330.90 1.997
331.00 1.996
331.10 1.995
331.20 1.994
331.30 1.993
331.40 1.991
331.50 1.99
331.60 1.989
331.70 1.988
331.80 1.986
331.90 1.985
332.00 1.984
332.10 1.983
332.20 1.982
332.30 1.98
332.40 1.979
332.50 1.978
332.60 1.977
332.70 1.976
332.80 1.974
332.90 1.973
333.00 1.972
333.10 1.971
333.20 1.97
333.30 1.968
333.40 1.967
333.50 1.966
333.60 1.965
333.70 1.964
333.80 1.962
333.90 1.961
334.00 1.96
334.10 1.959
334.20 1.958
334.30 1.956
334.40 1.955
334.50 1.954
334.60 1.953
334.70 1.952
334.80 1.95
334.90 1.949
335.00 1.948
335.10 1.947
335.20 1.946
335.30 1.945
335.40 1.943
335.50 1.942
335.60 1.941
335.70 1.94
335.80 1.939
335.90 1.937
336.00 1.936
336.10 1.935
336.20 1.934
336.30 1.933
336.40 1.932
336.50 1.93
336.60 1.929
336.70 1.928
336.80 1.927
336.90 1.926
337.00 1.924
337.10 1.923
337.20 1.922
337.30 1.921
337.40 1.92
337.50 1.919
337.60 1.917
337.70 1.916
337.80 1.915
337.90 1.914
338.00 1.913
338.10 1.912
338.20 1.91
338.30 1.909
338.40 1.908
338.50 1.907
338.60 1.906
338.70 1.905
338.80 1.903
338.90 1.902
339.00 1.901
339.10 1.9
339.20 1.899
339.30 1.898
339.40 1.897
339.50 1.895
339.60 1.894
339.70 1.893
339.80 1.892
339.90 1.891
340.00 1.89
340.10 1.888
340.20 1.887
340.30 1.886
340.40 1.885
340.50 1.884
340.60 1.883
340.70 1.882
340.80 1.88
340.90 1.879
341.00 1.878
341.10 1.877
341.20 1.876
341.30 1.875
341.40 1.874
341.50 1.872
341.60 1.871
341.70 1.87
341.80 1.869
341.90 1.868
342.00 1.867
342.10 1.866
342.20 1.864
342.30 1.863
342.40 1.862
342.50 1.861
342.60 1.86
342.70 1.859
342.80 1.858
342.90 1.857
343.00 1.855
343.10 1.854
343.20 1.853
343.30 1.852
343.40 1.851
343.50 1.85
343.60 1.849
343.70 1.848
343.80 1.846
343.90 1.845
344.00 1.844
344.10 1.843
344.20 1.842
344.30 1.841
344.40 1.84
344.50 1.839
344.60 1.837
344.70 1.836
344.80 1.835
344.90 1.834
345.00 1.833
345.10 1.832
345.20 1.831
345.30 1.83
345.40 1.829
345.50 1.827
345.60 1.826
345.70 1.825
345.80 1.824
345.90 1.823
346.00 1.822
346.10 1.821
346.20 1.82
346.30 1.819
346.40 1.817
346.50 1.816
346.60 1.815
346.70 1.814
346.80 1.813
346.90 1.812
347.00 1.811
347.10 1.81
347.20 1.809
347.30 1.808
347.40 1.806
347.50 1.805
347.60 1.804
347.70 1.803
347.80 1.802
347.90 1.801
348.00 1.8
348.10 1.799
348.20 1.798
348.30 1.797
348.40 1.796
348.50 1.794
348.60 1.793
348.70 1.792
348.80 1.791
348.90 1.79
349.00 1.789
349.10 1.788
349.20 1.787
349.30 1.786
349.40 1.785
349.50 1.784
349.60 1.783
349.70 1.781
349.80 1.78
349.90 1.779
350.00 1.778
350.10 1.777
350.20 1.776
350.30 1.775
350.40 1.774
350.50 1.773
350.60 1.772
350.70 1.771
350.80 1.77
350.90 1.768
351.00 1.767
351.10 1.766
351.20 1.765
351.30 1.764
351.40 1.763
351.50 1.762
351.60 1.761
351.70 1.76
351.80 1.759
351.90 1.758
352.00 1.757
352.10 1.756
352.20 1.755
352.30 1.754
352.40 1.752
352.50 1.751
352.60 1.75
352.70 1.749
352.80 1.748
352.90 1.747
353.00 1.746
353.10 1.745
353.20 1.744
353.30 1.743
353.40 1.742
353.50 1.741
353.60 1.74
353.70 1.739
353.80 1.738
353.90 1.737
354.00 1.736
354.10 1.735
354.20 1.733
354.30 1.732
354.40 1.731
354.50 1.73
354.60 1.729
354.70 1.728
354.80 1.727
354.90 1.726
355.00 1.725
355.10 1.724
355.20 1.723
355.30 1.722
355.40 1.721
355.50 1.72
355.60 1.719
355.70 1.718
355.80 1.717
355.90 1.716
356.00 1.715
356.10 1.714
356.20 1.713
356.30 1.712
356.40 1.711
356.50 1.709
356.60 1.708
356.70 1.707
356.80 1.706
356.90 1.705
357.00 1.704
357.10 1.703
357.20 1.702
357.30 1.701
357.40 1.7
357.50 1.699
357.60 1.698
357.70 1.697
357.80 1.696
357.90 1.695
358.00 1.694
358.10 1.693
358.20 1.692
358.30 1.691
358.40 1.69
358.50 1.689
358.60 1.688
358.70 1.687
358.80 1.686
358.90 1.685
359.00 1.684
359.10 1.683
359.20 1.682
359.30 1.681
359.40 1.68
359.50 1.679
359.60 1.678
359.70 1.677
359.80 1.676
359.90 1.675
360.00 1.674
360.10 1.673
360.20 1.672
360.30 1.671
360.40 1.67
360.50 1.669
360.60 1.668
360.70 1.667
360.80 1.666
360.90 1.665
361.00 1.664
361.10 1.663
361.20 1.662
361.30 1.661
361.40 1.66
361.50 1.659
361.60 1.658
361.70 1.657
361.80 1.656
361.90 1.655
362.00 1.654
362.10 1.653
362.20 1.652
362.30 1.651
362.40 1.65
362.50 1.649
362.60 1.648
362.70 1.647
362.80 1.646
362.90 1.645
363.00 1.644
363.10 1.642
363.20 1.641
363.30 1.64
363.40 1.639
363.50 1.638
363.60 1.637
363.70 1.635
363.80 1.634
363.90 1.633
364.00 1.632
364.10 1.631
364.20 1.63
364.30 1.628
364.40 1.627
364.50 1.626
364.60 1.625
364.70 1.624
364.80 1.622
364.90 1.621
365.00 1.62
365.10 1.619
365.20 1.618
365.30 1.616
365.40 1.615
365.50 1.614
365.60 1.613
365.70 1.611
365.80 1.61
365.90 1.609
366.00 1.608
366.10 1.607
366.20 1.606
366.30 1.605
366.40 1.604
366.50 1.603
366.60 1.602
366.70 1.601
366.80 1.6
366.90 1.599
367.00 1.598
367.10 1.597
367.20 1.596
367.30 1.595
367.40 1.593
367.50 1.592
367.60 1.591
367.70 1.59
367.80 1.589
367.90 1.588
368.00 1.587
368.10 1.586
368.20 1.585
368.30 1.584
368.40 1.583
368.50 1.582
368.60 1.581
368.70 1.58
368.80 1.579
368.90 1.578
369.00 1.577
369.10 1.576
369.20 1.575
369.30 1.574
369.40 1.573
369.50 1.572
369.60 1.571
369.70 1.57
369.80 1.569
369.90 1.568
370.00 1.567
370.10 1.566
370.20 1.565
370.30 1.564
370.40 1.563
370.50 1.562
370.60 1.561
370.70 1.56
370.80 1.559
370.90 1.558
371.00 1.557
371.10 1.556
371.20 1.555
371.30 1.554
371.40 1.553
371.50 1.552
371.60 1.551
371.70 1.55
371.80 1.549
371.90 1.548
372.00 1.547
372.10 1.546
372.20 1.545
372.30 1.545
372.40 1.544
372.50 1.543
372.60 1.542
372.70 1.541
372.80 1.54
372.90 1.539
373.00 1.538
373.10 1.538
373.20 1.537
373.30 1.536
373.40 1.535
373.50 1.534
373.60 1.533
373.70 1.532
373.80 1.532
373.90 1.531
374.00 1.53
374.10 1.529
374.20 1.528
374.30 1.527
374.40 1.527
374.50 1.526
374.60 1.525
374.70 1.524
374.80 1.524
374.90 1.523
375.00 1.522
375.10 1.521
375.20 1.521
375.30 1.52
375.40 1.519
375.50 1.518
375.60 1.518
375.70 1.517
375.80 1.516
375.90 1.515
376.00 1.515
376.10 1.514
376.20 1.513
376.30 1.512
376.40 1.512
376.50 1.511
376.60 1.51
376.70 1.509
376.80 1.509
376.90 1.508
377.00 1.507
377.10 1.506
377.20 1.506
377.30 1.505
377.40 1.504
377.50 1.503
377.60 1.502
377.70 1.501
377.80 1.501
377.90 1.5
378.00 1.499
378.10 1.498
378.20 1.496
378.30 1.495
378.40 1.494
378.50 1.493
378.60 1.491
378.70 1.49
378.80 1.489
378.90 1.487
379.00 1.486
379.10 1.485
379.20 1.484
379.30 1.483
379.40 1.482
379.50 1.481
379.60 1.48
379.70 1.479
379.80 1.478
379.90 1.477
380.00 1.476
380.10 1.476
380.20 1.476
380.30 1.476
380.40 1.476
380.50 1.477
380.60 1.477
380.70 1.477
380.80 1.477
380.90 1.477
381.00 1.477
381.10 1.476
381.20 1.476
381.30 1.475
381.40 1.475
381.50 1.475
381.60 1.474
381.70 1.473
381.80 1.472
381.90 1.471
382.00 1.47
382.10 1.468
382.20 1.467
382.30 1.465
382.40 1.462
382.50 1.46
382.60 1.458
382.70 1.456
382.80 1.454
382.90 1.451
383.00 1.449
383.10 1.447
383.20 1.445
383.30 1.443
383.40 1.442
383.50 1.44
383.60 1.44
383.70 1.441
383.80 1.442
383.90 1.443
384.00 1.445
384.10 1.447
384.20 1.449
384.30 1.451
384.40 1.453
384.50 1.455
384.60 1.456
384.70 1.458
384.80 1.459
384.90 1.46
385.00 1.461
385.10 1.461
385.20 1.461
385.30 1.462
385.40 1.462
385.50 1.462
385.60 1.461
385.70 1.461
385.80 1.461
385.90 1.46
386.00 1.459
386.10 1.458
386.20 1.457
386.30 1.456
386.40 1.454
386.50 1.453
386.60 1.451
386.70 1.449
386.80 1.447
386.90 1.445
387.00 1.442
387.10 1.44
387.20 1.437
387.30 1.434
387.40 1.431
387.50 1.428
387.60 1.424
387.70 1.42
387.80 1.416
387.90 1.412
388.00 1.407
388.10 1.402
388.20 1.397
388.30 1.391
388.40 1.385
388.50 1.379
388.60 1.374
388.70 1.371
388.80 1.369
388.90 1.367
389.00 1.368
389.10 1.371
389.20 1.374
389.30 1.378
389.40 1.383
389.50 1.389
389.60 1.395
389.70 1.4
389.80 1.406
389.90 1.41
390.00 1.414
390.10 1.418
390.20 1.422
390.30 1.425
390.40 1.428
390.50 1.431
390.60 1.434
390.70 1.437
390.80 1.439
390.90 1.441
391.00 1.443
391.10 1.445
391.20 1.447
391.30 1.448
391.40 1.449
391.50 1.451
391.60 1.452
391.70 1.452
391.80 1.453
391.90 1.453
392.00 1.454
392.10 1.454
392.20 1.454
392.30 1.453
392.40 1.453
392.50 1.452
392.60 1.451
392.70 1.45
392.80 1.449
392.90 1.447
393.00 1.446
393.10 1.444
393.20 1.442
393.30 1.44
393.40 1.437
393.50 1.435
393.60 1.432
393.70 1.429
393.80 1.426
393.90 1.422
394.00 1.418
394.10 1.414
394.20 1.41
394.30 1.406
394.40 1.401
394.50 1.396
394.60 1.391
394.70 1.385
394.80 1.379
394.90 1.373
395.00 1.367
395.10 1.36
395.20 1.353
395.30 1.346
395.40 1.338
395.50 1.331
395.60 1.322
395.70 1.314
395.80 1.305
395.90 1.296
396.00 1.286
396.10 1.276
396.20 1.266
396.30 1.254
396.40 1.242
396.50 1.228
396.60 1.213
396.70 1.198
396.80 1.186
396.90 1.176
397.00 1.166
397.10 1.175
397.20 1.184
397.30 1.195
397.40 1.21
397.50 1.224
397.60 1.238
397.70 1.25
397.80 1.262
397.90 1.272
398.00 1.282
398.10 1.291
398.20 1.301
398.30 1.309
398.40 1.318
398.50 1.326
398.60 1.334
398.70 1.341
398.80 1.348
398.90 1.355
399.00 1.362
399.10 1.368
399.20 1.375
399.30 1.38
399.40 1.386
399.50 1.391
399.60 1.396
399.70 1.401
399.80 1.406
399.90 1.41
400.00 1.415
400.10 1.419
400.20 1.422
400.30 1.426
400.40 1.429
400.50 1.432
400.60 1.435
400.70 1.438
400.80 1.441
400.90 1.443
401.00 1.445
401.10 1.447
401.20 1.449
401.30 1.451
401.40 1.453
401.50 1.454
401.60 1.456
401.70 1.457
401.80 1.458
401.90 1.459
402.00 1.459
402.10 1.46
402.20 1.46
402.30 1.46
402.40 1.461
402.50 1.461
402.60 1.46
402.70 1.46
402.80 1.46
402.90 1.459
403.00 1.458
403.10 1.457
403.20 1.456
403.30 1.455
403.40 1.454
403.50 1.453
403.60 1.451
403.70 1.449
403.80 1.448
403.90 1.446
404.00 1.443
404.10 1.441
404.20 1.439
404.30 1.436
404.40 1.433
404.50 1.431
404.60 1.427
404.70 1.424
404.80 1.421
404.90 1.417
405.00 1.414
405.10 1.41
405.20 1.406
405.30 1.402
405.40 1.397
405.50 1.393
405.60 1.388
405.70 1.383
405.80 1.378
405.90 1.372
406.00 1.367
406.10 1.361
406.20 1.355
406.30 1.349
406.40 1.342
406.50 1.336
406.60 1.329
406.70 1.322
406.80 1.314
406.90 1.307
407.00 1.299
407.10 1.291
407.20 1.282
407.30 1.273
407.40 1.264
407.50 1.255
407.60 1.245
407.70 1.235
407.80 1.225
407.90 1.214
408.00 1.202
408.10 1.191
408.20 1.179
408.30 1.166
408.40 1.154
408.50 1.14
408.60 1.127
408.70 1.112
408.80 1.098
408.90 1.083
409.00 1.068
409.10 1.052
409.20 1.036
409.30 1.02
409.40 1.003
409.50 0.9862
409.60 0.9685
409.70 0.9489
409.80 0.9284
409.90 0.9069
410.00 0.8918
410.10 0.882
410.20 0.8777
410.30 0.8858
410.40 0.8987
410.50 0.9164
410.60 0.9369
410.70 0.9562
410.80 0.9743
410.90 0.9908
411.00 1.007
411.10 1.023
411.20 1.038
411.30 1.052
411.40 1.067
411.50 1.081
411.60 1.095
411.70 1.109
411.80 1.122
411.90 1.135
412.00 1.147
412.10 1.159
412.20 1.17
412.30 1.181
412.40 1.192
412.50 1.202
412.60 1.212
412.70 1.221
412.80 1.23
412.90 1.239
413.00 1.248
413.10 1.256
413.20 1.264
413.30 1.272
413.40 1.279
413.50 1.287
413.60 1.293
413.70 1.3
413.80 1.307
413.90 1.313
414.00 1.319
414.10 1.325
414.20 1.331
414.30 1.336
414.40 1.342
414.50 1.347
414.60 1.352
414.70 1.357
414.80 1.361
414.90 1.366
415.00 1.371
415.10 1.375
415.20 1.379
415.30 1.383
415.40 1.387
415.50 1.391
415.60 1.394
415.70 1.398
415.80 1.401
415.90 1.404
416.00 1.408
416.10 1.411
416.20 1.414
416.30 1.417
416.40 1.419
416.50 1.422
416.60 1.425
416.70 1.427
416.80 1.43
416.90 1.432
417.00 1.434
417.10 1.436
417.20 1.438
417.30 1.44
417.40 1.442
417.50 1.444
417.60 1.446
417.70 1.447
417.80 1.449
417.90 1.451
418.00 1.452
418.10 1.453
418.20 1.455
418.30 1.456
418.40 1.457
418.50 1.458
418.60 1.459
418.70 1.46
418.80 1.461
418.90 1.462
419.00 1.463
419.10 1.463
419.20 1.464
419.30 1.465
419.40 1.465
419.50 1.466
419.60 1.466
419.70 1.466
419.80 1.467
419.90 1.467
420.00 1.467
420.10 1.467
420.20 1.467
420.30 1.467
420.40 1.467
420.50 1.467
420.60 1.467
420.70 1.467
420.80 1.466
420.90 1.466
421.00 1.466
421.10 1.465
421.20 1.465
421.30 1.464
421.40 1.464
421.50 1.463
421.60 1.462
421.70 1.462
421.80 1.461
421.90 1.46
422.00 1.459
422.10 1.458
422.20 1.457
422.30 1.456
422.40 1.455
422.50 1.454
422.60 1.452
422.70 1.451
422.80 1.45
422.90 1.448
423.00 1.447
423.10 1.445
423.20 1.444
423.30 1.442
423.40 1.441
423.50 1.439
423.60 1.437
423.70 1.435
423.80 1.433
423.90 1.431
424.00 1.429
424.10 1.427
424.20 1.425
424.30 1.423
424.40 1.421
424.50 1.418
424.60 1.416
424.70 1.414
424.80 1.411
424.90 1.409
425.00 1.406
425.10 1.403
425.20 1.401
425.30 1.398
425.40 1.395
425.50 1.392
425.60 1.389
425.70 1.386
425.80 1.383
425.90 1.38
426.00 1.376
426.10 1.373
426.20 1.369
426.30 1.365
426.40 1.361
426.50 1.357
426.60 1.354
426.70 1.35
426.80 1.346
426.90 1.342
427.00 1.338
427.10 1.334
427.20 1.329
427.30 1.325
427.40 1.321
427.50 1.316
427.60 1.312
427.70 1.307
427.80 1.302
427.90 1.297
428.00 1.292
428.10 1.287
428.20 1.282
428.30 1.277
428.40 1.271
428.50 1.266
428.60 1.26
428.70 1.255
428.80 1.249
428.90 1.243
429.00 1.237
429.10 1.23
429.20 1.224
429.30 1.217
429.40 1.211
429.50 1.204
429.60 1.197
429.70 1.19
429.80 1.182
429.90 1.175
430.00 1.167
430.10 1.159
430.20 1.151
430.30 1.143
430.40 1.135
430.50 1.126
430.60 1.117
430.70 1.108
430.80 1.099
430.90 1.09
431.00 1.08
431.10 1.07
431.20 1.06
431.30 1.049
431.40 1.038
431.50 1.027
431.60 1.016
431.70 1.004
431.80 0.9918
431.90 0.9792
432.00 0.9663
432.10 0.953
432.20 0.9391
432.30 0.9249
432.40 0.9103
432.50 0.8948
432.60 0.879
432.70 0.8627
432.80 0.8459
432.90 0.8288
433.00 0.8116
433.10 0.7944
433.20 0.7773
433.30 0.7604
433.40 0.7436
433.50 0.7265
433.60 0.7088
433.70 0.6868
433.80 0.6599
433.90 0.6281
434.00 0.5949
434.10 0.5957
434.20 0.6302
434.30 0.661
434.40 0.687
434.50 0.7081
434.60 0.725
434.70 0.7414
434.80 0.7575
434.90 0.7737
435.00 0.79
435.10 0.8065
435.20 0.8228
435.30 0.839
435.40 0.8549
435.50 0.8702
435.60 0.885
435.70 0.8994
435.80 0.9129
435.90 0.9261
436.00 0.9389
436.10 0.951
436.20 0.9628
436.30 0.9742
436.40 0.9851
436.50 0.9957
436.60 1.006
436.70 1.016
436.80 1.026
436.90 1.035
437.00 1.044
437.10 1.053
437.20 1.061
437.30 1.069
437.40 1.077
437.50 1.085
437.60 1.092
437.70 1.1
437.80 1.107
437.90 1.114
438.00 1.12
438.10 1.127
438.20 1.133
438.30 1.139
438.40 1.145
438.50 1.151
438.60 1.157
438.70 1.162
438.80 1.168
438.90 1.173
439.00 1.178
439.10 1.183
439.20 1.188
439.30 1.192
439.40 1.197
439.50 1.201
439.60 1.205
439.70 1.21
439.80 1.214
439.90 1.218
440.00 1.222
440.10 1.225
440.20 1.229
440.30 1.233
440.40 1.236
440.50 1.24
440.60 1.243
440.70 1.246
440.80 1.249
440.90 1.252
441.00 1.255
441.10 1.258
441.20 1.261
441.30 1.264
441.40 1.267
441.50 1.269
441.60 1.272
441.70 1.274
441.80 1.277
441.90 1.279
442.00 1.282
442.10 1.284
442.20 1.286
442.30 1.288
442.40 1.29
442.50 1.292
442.60 1.294
442.70 1.296
442.80 1.298
442.90 1.3
443.00 1.301
443.10 1.303
443.20 1.305
443.30 1.306
443.40 1.308
443.50 1.309
443.60 1.311
443.70 1.312
443.80 1.314
443.90 1.315
444.00 1.316
444.10 1.318
444.20 1.319
444.30 1.32
444.40 1.321
444.50 1.322
444.60 1.324
444.70 1.325
444.80 1.326
444.90 1.327
445.00 1.328
445.10 1.328
445.20 1.329
445.30 1.33
445.40 1.331
445.50 1.332
445.60 1.333
445.70 1.333
445.80 1.334
445.90 1.335
446.00 1.335
446.10 1.336
446.20 1.337
446.30 1.337
446.40 1.338
446.50 1.338
446.60 1.339
446.70 1.339
446.80 1.34
446.90 1.34
447.00 1.34
447.10 1.341
447.20 1.341
447.30 1.342
447.40 1.342
447.50 1.342
447.60 1.343
447.70 1.343
447.80 1.343
447.90 1.343
448.00 1.344
448.10 1.344
448.20 1.344
448.30 1.344
448.40 1.344
448.50 1.344
448.60 1.344
448.70 1.344
448.80 1.345
448.90 1.345
449.00 1.345
449.10 1.345
449.20 1.345
449.30 1.345
449.40 1.345
449.50 1.345
449.60 1.345
449.70 1.345
449.80 1.345
449.90 1.345
450.00 1.344
450.10 1.344
450.20 1.344
450.30 1.344
450.40 1.344
450.50 1.344
450.60 1.344
450.70 1.343
450.80 1.343
450.90 1.343
451.00 1.343
451.10 1.343
451.20 1.342
451.30 1.342
451.40 1.342
451.50 1.342
451.60 1.341
451.70 1.341
451.80 1.341
451.90 1.34
452.00 1.34
452.10 1.34
452.20 1.339
452.30 1.339
452.40 1.339
452.50 1.338
452.60 1.338
452.70 1.338
452.80 1.337
452.90 1.337
453.00 1.336
453.10 1.336
453.20 1.336
453.30 1.335
453.40 1.335
453.50 1.334
453.60 1.334
453.70 1.333
453.80 1.333
453.90 1.332
454.00 1.332
454.10 1.331
454.20 1.331
454.30 1.331
454.40 1.33
454.50 1.33
454.60 1.329
454.70 1.328
454.80 1.328
454.90 1.327
455.00 1.327
455.10 1.326
455.20 1.326
455.30 1.325
455.40 1.325
455.50 1.324
455.60 1.323
455.70 1.323
455.80 1.322
455.90 1.322
456.00 1.321
456.10 1.32
456.20 1.32
456.30 1.319
456.40 1.319
456.50 1.318
456.60 1.317
456.70 1.317
456.80 1.316
456.90 1.316
457.00 1.315
457.10 1.314
457.20 1.314
457.30 1.313
457.40 1.313
457.50 1.312
457.60 1.311
457.70 1.311
457.80 1.31
457.90 1.309
458.00 1.308
458.10 1.308
458.20 1.307
458.30 1.306
458.40 1.306
458.50 1.305
458.60 1.304
458.70 1.303
458.80 1.303
458.90 1.302
459.00 1.301
459.10 1.3
459.20 1.3
459.30 1.299
459.40 1.298
459.50 1.297
459.60 1.297
459.70 1.296
459.80 1.295
459.90 1.294
460.00 1.293
460.10 1.293
460.20 1.292
460.30 1.291
460.40 1.29
460.50 1.289
460.60 1.289
460.70 1.288
460.80 1.287
460.90 1.286
461.00 1.285
461.10 1.284
461.20 1.284
461.30 1.283
461.40 1.282
461.50 1.281
461.60 1.28
461.70 1.279
461.80 1.278
461.90 1.277
462.00 1.277
462.10 1.276
462.20 1.275
462.30 1.274
462.40 1.273
462.50 1.272
462.60 1.271
462.70 1.27
462.80 1.269
462.90 1.268
463.00 1.267
463.10 1.266
463.20 1.265
463.30 1.265
463.40 1.264
463.50 1.263
463.60 1.262
463.70 1.261
463.80 1.26
463.90 1.259
464.00 1.258
464.10 1.257
464.20 1.256
464.30 1.255
464.40 1.254
464.50 1.253
464.60 1.252
464.70 1.251
464.80 1.25
464.90 1.249
465.00 1.248
465.10 1.247
465.20 1.245
465.30 1.244
465.40 1.243
465.50 1.242
465.60 1.241
465.70 1.24
465.80 1.239
465.90 1.238
466.00 1.237
466.10 1.236
466.20 1.235
466.30 1.233
466.40 1.232
466.50 1.231
466.60 1.23
466.70 1.229
466.80 1.228
466.90 1.227
467.00 1.225
467.10 1.224
467.20 1.223
467.30 1.222
467.40 1.221
467.50 1.219
467.60 1.218
467.70 1.217
467.80 1.216
467.90 1.215
468.00 1.213
468.10 1.212
468.20 1.211
468.30 1.21
468.40 1.208
468.50 1.207
468.60 1.206
468.70 1.204
468.80 1.203
468.90 1.202
469.00 1.2
469.10 1.199
469.20 1.198
469.30 1.196
469.40 1.195
469.50 1.194
469.60 1.192
469.70 1.191
469.80 1.19
469.90 1.188
470.00 1.187
470.10 1.185
470.20 1.184
470.30 1.183
470.40 1.181
470.50 1.18
470.60 1.178
470.70 1.177
470.80 1.175
470.90 1.174
471.00 1.173
471.10 1.171
471.20 1.17
471.30 1.168
471.40 1.166
471.50 1.165
471.60 1.163
471.70 1.162
471.80 1.16
471.90 1.158
472.00 1.157
472.10 1.155
472.20 1.154
472.30 1.152
472.40 1.15
472.50 1.148
472.60 1.147
472.70 1.145
472.80 1.143
472.90 1.141
473.00 1.14
473.10 1.138
473.20 1.136
473.30 1.134
473.40 1.132
473.50 1.13
473.60 1.128
473.70 1.127
473.80 1.125
473.90 1.123
474.00 1.121
474.10 1.119
474.20 1.117
474.30 1.115
474.40 1.113
474.50 1.111
474.60 1.109
474.70 1.106
474.80 1.104
474.90 1.102
475.00 1.1
475.10 1.098
475.20 1.096
475.30 1.094
475.40 1.091
475.50 1.089
475.60 1.087
475.70 1.084
475.80 1.082
475.90 1.08
476.00 1.077
476.10 1.075
476.20 1.072
476.30 1.07
476.40 1.067
476.50 1.065
476.60 1.062
476.70 1.06
476.80 1.057
476.90 1.055
477.00 1.052
477.10 1.049
477.20 1.047
477.30 1.044
477.40 1.041
477.50 1.038
477.60 1.035
477.70 1.032
477.80 1.029
477.90 1.027
478.00 1.024
478.10 1.021
478.20 1.018
478.30 1.014
478.40 1.011
478.50 1.008
478.60 1.004
478.70 1.001
478.80 0.9978
478.90 0.9945
479.00 0.9912
479.10 0.988
479.20 0.9844
479.30 0.9806
479.40 0.9769
479.50 0.9731
479.60 0.9694
479.70 0.9657
479.80 0.9619
479.90 0.9582
480.00 0.9545
480.10 0.9508
480.20 0.9466
480.30 0.9423
480.40 0.9379
480.50 0.9336
480.60 0.9293
480.70 0.925
480.80 0.9207
480.90 0.9164
481.00 0.912
481.10 0.9077
481.20 0.9029
481.30 0.8977
481.40 0.8925
481.50 0.8874
481.60 0.8823
481.70 0.8771
481.80 0.872
481.90 0.8668
482.00 0.8617
482.10 0.8566
482.20 0.8506
482.30 0.8443
482.40 0.8379
482.50 0.8316
482.60 0.8252
482.70 0.8189
482.80 0.8126
482.90 0.8062
483.00 0.7999
483.10 0.7936
483.20 0.7859
483.30 0.7775
483.40 0.7691
483.50 0.7608
483.60 0.7524
483.70 0.7441
483.80 0.7357
483.90 0.7274
484.00 0.7191
484.10 0.7107
484.20 0.7007
484.30 0.69
484.40 0.6792
484.50 0.6685
484.60 0.6577
484.70 0.646
484.80 0.6337
484.90 0.6214
485.00 0.6092
485.10 0.5969
485.20 0.5847
485.30 0.5724
485.40 0.5602
485.50 0.5481
485.60 0.5355
485.70 0.5228
485.80 0.5064
485.90 0.4884
486.00 0.461
486.10 0.4199
486.20 0.431
486.30 0.4722
486.40 0.4933
486.50 0.5112
486.60 0.5253
486.70 0.5376
486.80 0.5495
486.90 0.5611
487.00 0.5728
487.10 0.5845
487.20 0.5961
487.30 0.6077
487.40 0.6194
487.50 0.631
487.60 0.6426
487.70 0.6531
487.80 0.6631
487.90 0.6731
488.00 0.6831
488.10 0.693
488.20 0.7013
488.30 0.7088
488.40 0.7163
488.50 0.7238
488.60 0.7313
488.70 0.7388
488.80 0.7463
488.90 0.7537
489.00 0.7612
489.10 0.7687
489.20 0.7747
489.30 0.7801
489.40 0.7854
489.50 0.7908
489.60 0.7962
489.70 0.8015
489.80 0.8069
489.90 0.8122
490.00 0.8176
490.10 0.8229
490.20 0.8274
490.30 0.8315
490.40 0.8356
490.50 0.8396
490.60 0.8437
490.70 0.8478
490.80 0.8519
490.90 0.8559
491.00 0.86
491.10 0.8641
491.20 0.8675
491.30 0.8707
491.40 0.8739
491.50 0.8771
491.60 0.8803
491.70 0.8835
491.80 0.8867
491.90 0.8899
492.00 0.8931
492.10 0.8962
492.20 0.899
492.30 0.9015
492.40 0.9041
492.50 0.9066
492.60 0.9092
492.70 0.9117
492.80 0.9143
492.90 0.9168
493.00 0.9194
493.10 0.9219
493.20 0.9241
493.30 0.9262
493.40 0.9283
493.50 0.9304
493.60 0.9325
493.70 0.9346
493.80 0.9367
493.90 0.9388
494.00 0.9408
494.10 0.9429
494.20 0.9447
494.30 0.9463
494.40 0.9479
494.50 0.9496
494.60 0.9512
494.70 0.9528
494.80 0.9544
494.90 0.956
495.00 0.9576
495.10 0.9593
495.20 0.9606
495.30 0.9619
495.40 0.9632
495.50 0.9645
495.60 0.9658
495.70 0.9671
495.80 0.9683
495.90 0.9696
496.00 0.9709
496.10 0.9722
496.20 0.9733
496.30 0.9743
496.40 0.9753
496.50 0.9763
496.60 0.9774
496.70 0.9784
496.80 0.9794
496.90 0.9804
497.00 0.9814
497.10 0.9825
497.20 0.9833
497.30 0.9841
497.40 0.9849
497.50 0.9857
497.60 0.9864
497.70 0.9872
497.80 0.988
497.90 0.9888
498.00 0.9896
498.10 0.9903
498.20 0.991
498.30 0.9915
498.40 0.9921
498.50 0.9927
498.60 0.9933
498.70 0.9938
498.80 0.9944
498.90 0.995
499.00 0.9956
499.10 0.9961
499.20 0.9966
499.30 0.997
499.40 0.9975
499.50 0.9979
499.60 0.9983
499.70 0.9987
499.80 0.9992
499.90 0.9996
500.00 1
500.10 1
500.20 1.001
500.30 1.001
500.40 1.001
500.50 1.002
500.60 1.002
500.70 1.002
500.80 1.002
500.90 1.003
501.00 1.003
501.10 1.003
501.20 1.003
501.30 1.004
501.40 1.004
501.50 1.004
501.60 1.004
501.70 1.004
501.80 1.004
501.90 1.005
502.00 1.005
502.10 1.005
502.20 1.005
502.30 1.005
502.40 1.005
502.50 1.005
502.60 1.005
502.70 1.005
502.80 1.005
502.90 1.006
503.00 1.006
503.10 1.006
503.20 1.006
503.30 1.006
503.40 1.006
503.50 1.006
503.60 1.006
503.70 1.006
503.80 1.006
503.90 1.006
504.00 1.006
504.10 1.006
504.20 1.006
504.30 1.006
504.40 1.005
504.50 1.005
504.60 1.005
504.70 1.005
504.80 1.005
504.90 1.005
505.00 1.005
505.10 1.005
505.20 1.005
505.30 1.005
505.40 1.005
505.50 1.004
505.60 1.004
505.70 1.004
505.80 1.004
505.90 1.004
506.00 1.004
506.10 1.004
506.20 1.003
506.30 1.003
506.40 1.003
506.50 1.003
506.60 1.003
506.70 1.003
506.80 1.002
506.90 1.002
507.00 1.002
507.10 1.002
507.20 1.002
507.30 1.001
507.40 1.001
507.50 1.001
507.60 1.001
507.70 1
507.80 1
507.90 0.9999
508.00 0.9997
508.10 0.9995
508.20 0.9992
508.30 0.9989
508.40 0.9987
508.50 0.9984
508.60 0.9981
508.70 0.9979
508.80 0.9976
508.90 0.9973
509.00 0.997
509.10 0.9968
509.20 0.9965
509.30 0.9962
509.40 0.9959
509.50 0.9956
509.60 0.9953
509.70 0.995
509.80 0.9947
509.90 0.9944
510.00 0.9941
510.10 0.9938
510.20 0.9934
510.30 0.9931
510.40 0.9928
510.50 0.9925
510.60 0.9921
510.70 0.9918
510.80 0.9915
510.90 0.9911
511.00 0.9908
511.10 0.9905
511.20 0.9901
511.30 0.9898
511.40 0.9894
511.50 0.9891
511.60 0.9887
511.70 0.9884
511.80 0.988
511.90 0.9877
512.00 0.9873
512.10 0.987
512.20 0.9866
512.30 0.9862
512.40 0.9859
512.50 0.9855
512.60 0.9851
512.70 0.9848
512.80 0.9844
512.90 0.984
513.00 0.9836
513.10 0.9833
513.20 0.9829
513.30 0.9825
513.40 0.9821
513.50 0.9817
513.60 0.9813
513.70 0.981
513.80 0.9806
513.90 0.9802
514.00 0.9798
514.10 0.9794
514.20 0.979
514.30 0.9786
514.40 0.9782
514.50 0.9778
514.60 0.9774
514.70 0.977
514.80 0.9766
514.90 0.9762
515.00 0.9758
515.10 0.9754
515.20 0.975
515.30 0.9746
515.40 0.9742
515.50 0.9738
515.60 0.9733
515.70 0.9729
515.80 0.9725
515.90 0.9721
516.00 0.9717
516.10 0.9713
516.20 0.9709
516.30 0.9705
516.40 0.97
516.50 0.9696
516.60 0.9692
516.70 0.9688
516.80 0.9684
516.90 0.9679
517.00 0.9675
517.10 0.9671
517.20 0.9667
517.30 0.9662
517.40 0.9658
517.50 0.9654
517.60 0.9649
517.70 0.9645
517.80 0.9641
517.90 0.9637
518.00 0.9632
518.10 0.9628
518.20 0.9624
518.30 0.9619
518.40 0.9615
518.50 0.9611
518.60 0.9606
518.70 0.9602
518.80 0.9598
518.90 0.9593
519.00 0.9589
519.10 0.9584
519.20 0.958
519.30 0.9576
519.40 0.9571
519.50 0.9567
519.60 0.9562
519.70 0.9558
519.80 0.9554
519.90 0.9549
520.00 0.9545
520.10 0.954
520.20 0.9536
520.30 0.9531
520.40 0.9527
520.50 0.9522
520.60 0.9518
520.70 0.9514
520.80 0.9509
520.90 0.9505
521.00 0.95
521.10 0.9496
521.20 0.9491
521.30 0.9487
521.40 0.9482
521.50 0.9478
521.60 0.9473
521.70 0.9469
521.80 0.9464
521.90 0.946
522.00 0.9455
522.10 0.9451
522.20 0.9446
522.30 0.9442
522.40 0.9437
522.50 0.9433
522.60 0.9428
522.70 0.9423
522.80 0.9419
522.90 0.9414
523.00 0.941
523.10 0.9405
523.20 0.9401
523.30 0.9396
523.40 0.9392
523.50 0.9387
523.60 0.9382
523.70 0.9378
523.80 0.9373
523.90 0.9369
524.00 0.9364
524.10 0.936
524.20 0.9355
524.30 0.935
524.40 0.9346
524.50 0.9341
524.60 0.9337
524.70 0.9332
524.80 0.9327
524.90 0.9323
525.00 0.9318
525.10 0.9314
525.20 0.9309
525.30 0.9304
525.40 0.93
525.50 0.9295
525.60 0.9291
525.70 0.9286
525.80 0.9281
525.90 0.9277
526.00 0.9272
526.10 0.9268
526.20 0.9263
526.30 0.9258
526.40 0.9254
526.50 0.9249
526.60 0.9244
526.70 0.924
526.80 0.9235
526.90 0.9231
527.00 0.9226
527.10 0.9221
527.20 0.9217
527.30 0.9212
527.40 0.9207
527.50 0.9203
527.60 0.9198
527.70 0.9194
527.80 0.9189
527.90 0.9184
528.00 0.918
528.10 0.9175
528.20 0.917
528.30 0.9166
528.40 0.9161
528.50 0.9156
528.60 0.9152
528.70 0.9147
528.80 0.9143
528.90 0.9138
529.00 0.9133
529.10 0.9129
529.20 0.9124
529.30 0.9119
529.40 0.9115
529.50 0.911
529.60 0.9106
529.70 0.9101
529.80 0.9096
529.90 0.9092
530.00 0.9087
530.10 0.9082
530.20 0.9078
530.30 0.9073
530.40 0.9068
530.50 0.9064
530.60 0.9059
530.70 0.9055
530.80 0.905
530.90 0.9045
531.00 0.9041
531.10 0.9036
531.20 0.9031
531.30 0.9027
531.40 0.9022
531.50 0.9018
531.60 0.9013
531.70 0.9008
531.80 0.9004
531.90 0.8999
532.00 0.8994
532.10 0.899
532.20 0.8985
532.30 0.8981
532.40 0.8976
532.50 0.8971
532.60 0.8967
532.70 0.8962
532.80 0.8958
532.90 0.8953
533.00 0.8948
533.10 0.8944
533.20 0.8939
533.30 0.8934
533.40 0.893
533.50 0.8925
533.60 0.8921
533.70 0.8916
533.80 0.8911
533.90 0.8907
534.00 0.8902
534.10 0.8898
534.20 0.8893
534.30 0.8888
534.40 0.8884
534.50 0.8879
534.60 0.8875
534.70 0.887
534.80 0.8865
534.90 0.8861
535.00 0.8856
535.10 0.8852
535.20 0.8847
535.30 0.8843
535.40 0.8838
535.50 0.8833
535.60 0.8829
535.70 0.8824
535.80 0.882
535.90 0.8815
536.00 0.8811
536.10 0.8806
536.20 0.8801
536.30 0.8797
536.40 0.8792
536.50 0.8788
536.60 0.8783
536.70 0.8779
536.80 0.8774
536.90 0.8769
537.00 0.8765
537.10 0.876
537.20 0.8756
537.30 0.8751
537.40 0.8747
537.50 0.8742
537.60 0.8738
537.70 0.8733
537.80 0.8728
537.90 0.8724
538.00 0.8719
538.10 0.8715
538.20 0.871
538.30 0.8706
538.40 0.8701
538.50 0.8697
538.60 0.8692
538.70 0.8688
538.80 0.8683
538.90 0.8679
539.00 0.8674
539.10 0.867
539.20 0.8665
539.30 0.8661
539.40 0.8656
539.50 0.8651
539.60 0.8647
539.70 0.8642
539.80 0.8638
539.90 0.8633
540.00 0.8629
540.10 0.8624
540.20 0.862
540.30 0.8615
540.40 0.8611
540.50 0.8606
540.60 0.8602
540.70 0.8597
540.80 0.8593
540.90 0.8588
541.00 0.8584
541.10 0.858
541.20 0.8575
541.30 0.8571
541.40 0.8566
541.50 0.8562
541.60 0.8557
541.70 0.8553
541.80 0.8548
541.90 0.8544
542.00 0.8539
542.10 0.8535
542.20 0.853
542.30 0.8526
542.40 0.8521
542.50 0.8517
542.60 0.8512
542.70 0.8508
542.80 0.8504
542.90 0.8499
543.00 0.8495
543.10 0.849
543.20 0.8486
543.30 0.8481
543.40 0.8477
543.50 0.8472
543.60 0.8468
543.70 0.8464
543.80 0.8459
543.90 0.8455
544.00 0.845
544.10 0.8446
544.20 0.8441
544.30 0.8437
544.40 0.8433
544.50 0.8428
544.60 0.8424
544.70 0.8419
544.80 0.8415
544.90 0.8411
545.00 0.8406
545.10 0.8402
545.20 0.8397
545.30 0.8393
545.40 0.8389
545.50 0.8384
545.60 0.838
545.70 0.8375
545.80 0.8371
545.90 0.8367
546.00 0.8362
546.10 0.8358
546.20 0.8355
546.30 0.8352
546.40 0.835
546.50 0.8347
546.60 0.8344
546.70 0.8342
546.80 0.8339
546.90 0.8337
547.00 0.8334
547.10 0.8331
547.20 0.8328
547.30 0.8323
547.40 0.8319
547.50 0.8314
547.60 0.831
547.70 0.8305
547.80 0.8301
547.90 0.8297
548.00 0.8292
548.10 0.8288
548.20 0.8283
548.30 0.8279
548.40 0.8274
548.50 0.827
548.60 0.8266
548.70 0.8261
548.80 0.8257
548.90 0.8252
549.00 0.8248
549.10 0.8244
549.20 0.8239
549.30 0.8235
549.40 0.823
549.50 0.8226
549.60 0.8222
549.70 0.8217
549.80 0.8213
549.90 0.8209
550.00 0.8204
550.10 0.82
550.20 0.8195
550.30 0.8191
550.40 0.8187
550.50 0.8182
550.60 0.8178
550.70 0.8174
550.80 0.8169
550.90 0.8165
551.00 0.8161
551.10 0.8156
551.20 0.8152
551.30 0.8148
551.40 0.8143
551.50 0.8139
551.60 0.8135
551.70 0.813
551.80 0.8126
551.90 0.8122
552.00 0.8117
552.10 0.8113
552.20 0.8109
552.30 0.8104
552.40 0.81
552.50 0.8096
552.60 0.8091
552.70 0.8087
552.80 0.8083
552.90 0.8079
553.00 0.8074
553.10 0.807
553.20 0.8066
553.30 0.8061
553.40 0.8057
553.50 0.8053
553.60 0.8049
553.70 0.8044
553.80 0.804
553.90 0.8036
554.00 0.8032
554.10 0.8027
554.20 0.8023
554.30 0.8019
554.40 0.8015
554.50 0.801
554.60 0.8006
554.70 0.8002
554.80 0.7998
554.90 0.7993
555.00 0.7989
555.10 0.7985
555.20 0.7981
555.30 0.7976
555.40 0.7972
555.50 0.7968
555.60 0.7964
555.70 0.7959
555.80 0.7955
555.90 0.7951
556.00 0.7947
556.10 0.7943
556.20 0.7938
556.30 0.7934
556.40 0.793
556.50 0.7926
556.60 0.7922
556.70 0.7917
556.80 0.7913
556.90 0.7909
557.00 0.7905
557.10 0.7901
557.20 0.7897
557.30 0.7892
557.40 0.7888
557.50 0.7884
557.60 0.788
557.70 0.7876
557.80 0.7872
557.90 0.7867
558.00 0.7863
558.10 0.7859
558.20 0.7855
558.30 0.7851
558.40 0.7847
558.50 0.7842
558.60 0.7838
558.70 0.7834
558.80 0.783
558.90 0.7826
559.00 0.7822
559.10 0.7818
559.20 0.7814
559.30 0.7809
559.40 0.7805
559.50 0.7801
559.60 0.7797
559.70 0.7793
559.80 0.7789
559.90 0.7785
560.00 0.7781
560.10 0.7777
560.20 0.7772
560.30 0.7768
560.40 0.7764
560.50 0.776
560.60 0.7756
560.70 0.7752
560.80 0.7748
560.90 0.7744
561.00 0.774
561.10 0.7736
561.20 0.7732
561.30 0.7727
561.40 0.7723
561.50 0.7719
561.60 0.7715
561.70 0.7711
561.80 0.7707
561.90 0.7703
562.00 0.7699
562.10 0.7695
562.20 0.7691
562.30 0.7687
562.40 0.7683
562.50 0.7679
562.60 0.7675
562.70 0.7671
562.80 0.7667
562.90 0.7663
563.00 0.7659
563.10 0.7655
563.20 0.7651
563.30 0.7647
563.40 0.7643
563.50 0.7639
563.60 0.7635
563.70 0.7631
563.80 0.7626
563.90 0.7622
564.00 0.7618
564.10 0.7614
564.20 0.761
564.30 0.7606
564.40 0.7602
564.50 0.7598
564.60 0.7594
564.70 0.7591
564.80 0.7587
564.90 0.7583
565.00 0.7579
565.10 0.7575
565.20 0.7571
565.30 0.7567
565.40 0.7563
565.50 0.7559
565.60 0.7555
565.70 0.7551
565.80 0.7547
565.90 0.7543
566.00 0.7539
566.10 0.7535
566.20 0.7531
566.30 0.7527
566.40 0.7523
566.50 0.7519
566.60 0.7515
566.70 0.7511
566.80 0.7507
566.90 0.7503
567.00 0.75
567.10 0.7496
567.20 0.7492
567.30 0.7488
567.40 0.7484
567.50 0.748
567.60 0.7476
567.70 0.7472
567.80 0.7468
567.90 0.7464
568.00 0.746
568.10 0.7456
568.20 0.7453
568.30 0.7449
568.40 0.7445
568.50 0.7441
568.60 0.7437
568.70 0.7433
568.80 0.7429
568.90 0.7425
569.00 0.7421
569.10 0.7418
569.20 0.7414
569.30 0.741
569.40 0.7406
569.50 0.7402
569.60 0.7398
569.70 0.7394
569.80 0.739
569.90 0.7387
570.00 0.7383
570.10 0.7379
570.20 0.7375
570.30 0.7371
570.40 0.7367
570.50 0.7364
570.60 0.736
570.70 0.7356
570.80 0.7352
570.90 0.7348
571.00 0.7344
571.10 0.734
571.20 0.7337
571.30 0.7333
571.40 0.7329
571.50 0.7325
571.60 0.7321
571.70 0.7318
571.80 0.7314
571.90 0.731
572.00 0.7306
572.10 0.7302
572.20 0.7299
572.30 0.7295
572.40 0.7291
572.50 0.7287
572.60 0.7283
572.70 0.728
572.80 0.7276
572.90 0.7272
573.00 0.7268
573.10 0.7264
573.20 0.7261
573.30 0.7257
573.40 0.7253
573.50 0.7249
573.60 0.7246
573.70 0.7242
573.80 0.7238
573.90 0.7234
574.00 0.7231
574.10 0.7227
574.20 0.7223
574.30 0.7219
574.40 0.7215
574.50 0.7212
574.60 0.7208
574.70 0.7204
574.80 0.72
574.90 0.7197
575.00 0.7193
575.10 0.7189
575.20 0.7186
575.30 0.7182
575.40 0.7178
575.50 0.7174
575.60 0.7171
575.70 0.7167
575.80 0.7163
575.90 0.7159
576.00 0.7156
576.10 0.7152
576.20 0.7148
576.30 0.7145
576.40 0.7141
576.50 0.7137
576.60 0.7133
576.70 0.713
576.80 0.7126
576.90 0.7122
577.00 0.7119
577.10 0.7115
577.20 0.7111
577.30 0.7108
577.40 0.7104
577.50 0.71
577.60 0.7097
577.70 0.7093
577.80 0.7089
577.90 0.7086
578.00 0.7082
578.10 0.7078
578.20 0.7075
578.30 0.7071
578.40 0.7067
578.50 0.7064
578.60 0.706
578.70 0.7056
578.80 0.7053
578.90 0.7049
579.00 0.7045
579.10 0.7042
579.20 0.7038
579.30 0.7034
579.40 0.7031
579.50 0.7027
579.60 0.7024
579.70 0.702
579.80 0.7016
579.90 0.7013
580.00 0.7009
580.10 0.7005
580.20 0.7002
580.30 0.6998
580.40 0.6995
580.50 0.6991
580.60 0.6987
580.70 0.6984
580.80 0.698
580.90 0.6976
581.00 0.6973
581.10 0.6969
581.20 0.6966
581.30 0.6962
581.40 0.6958
581.50 0.6955
581.60 0.6951
581.70 0.6948
581.80 0.6944
581.90 0.6941
582.00 0.6937
582.10 0.6933
582.20 0.693
582.30 0.6926
582.40 0.6923
582.50 0.6919
582.60 0.6916
582.70 0.6912
582.80 0.6908
582.90 0.6905
583.00 0.6901
583.10 0.6898
583.20 0.6894
583.30 0.6891
583.40 0.6887
583.50 0.6884
583.60 0.688
583.70 0.6876
583.80 0.6873
583.90 0.6869
584.00 0.6866
584.10 0.6862
584.20 0.6859
584.30 0.6855
584.40 0.6852
584.50 0.6848
584.60 0.6845
584.70 0.6841
584.80 0.6838
584.90 0.6834
585.00 0.6831
585.10 0.6827
585.20 0.6824
585.30 0.682
585.40 0.6817
585.50 0.6813
585.60 0.681
585.70 0.6806
585.80 0.6803
585.90 0.6799
586.00 0.6796
586.10 0.6792
586.20 0.6789
586.30 0.6785
586.40 0.6782
586.50 0.6778
586.60 0.6775
586.70 0.6771
586.80 0.6768
586.90 0.6764
587.00 0.6761
587.10 0.6757
587.20 0.6754
587.30 0.675
587.40 0.6747
587.50 0.6743
587.60 0.674
587.70 0.6737
587.80 0.6733
587.90 0.673
588.00 0.6726
588.10 0.6723
588.20 0.6719
588.30 0.6716
588.40 0.6712
588.50 0.6709
588.60 0.6705
588.70 0.6702
588.80 0.6699
588.90 0.6695
589.00 0.6692
589.10 0.6688
589.20 0.6685
589.30 0.6682
589.40 0.6678
589.50 0.6675
589.60 0.6671
589.70 0.6668
589.80 0.6664
589.90 0.6661
590.00 0.6658
590.10 0.6654
590.20 0.6651
590.30 0.6647
590.40 0.6644
590.50 0.6641
590.60 0.6637
590.70 0.6634
590.80 0.663
590.90 0.6627
591.00 0.6624
591.10 0.662
591.20 0.6617
591.30 0.6614
591.40 0.661
591.50 0.6607
591.60 0.6603
591.70 0.66
591.80 0.6597
591.90 0.6593
592.00 0.659
592.10 0.6587
592.20 0.6583
592.30 0.658
592.40 0.6576
592.50 0.6573
592.60 0.657
592.70 0.6566
592.80 0.6563
592.90 0.656
593.00 0.6556
593.10 0.6553
593.20 0.655
593.30 0.6546
593.40 0.6543
593.50 0.654
593.60 0.6536
593.70 0.6533
593.80 0.653
593.90 0.6526
594.00 0.6523
594.10 0.652
594.20 0.6516
594.30 0.6513
594.40 0.651
594.50 0.6506
594.60 0.6503
594.70 0.65
594.80 0.6497
594.90 0.6493
595.00 0.649
595.10 0.6487
595.20 0.6483
595.30 0.648
595.40 0.6477
595.50 0.6473
595.60 0.647
595.70 0.6467
595.80 0.6464
595.90 0.646
596.00 0.6457
596.10 0.6454
596.20 0.6448
596.30 0.6441
596.40 0.6434
596.50 0.6427
596.60 0.6421
596.70 0.6414
596.80 0.6407
596.90 0.64
597.00 0.6393
597.10 0.6386
597.20 0.6382
597.30 0.6379
597.40 0.6375
597.50 0.6372
597.60 0.6369
597.70 0.6365
597.80 0.6362
597.90 0.6359
598.00 0.6355
598.10 0.6352
598.20 0.6348
598.30 0.6345
598.40 0.6342
598.50 0.6338
598.60 0.6335
598.70 0.6332
598.80 0.6328
598.90 0.6325
599.00 0.6322
599.10 0.6318
599.20 0.6315
599.30 0.6312
599.40 0.6308
599.50 0.6305
599.60 0.6302
599.70 0.6298
599.80 0.6295
599.90 0.6292
600.00 0.6288
600.10 0.6285
600.20 0.6282
600.30 0.6279
600.40 0.6275
600.50 0.6272
600.60 0.6269
600.70 0.6265
600.80 0.6262
600.90 0.6259
601.00 0.6255
601.10 0.6252
601.20 0.6249
601.30 0.6245
601.40 0.6242
601.50 0.6239
601.60 0.6235
601.70 0.6232
601.80 0.6229
601.90 0.6226
602.00 0.6222
602.10 0.6219
602.20 0.6216
602.30 0.6212
602.40 0.6209
602.50 0.6206
602.60 0.6202
602.70 0.6199
602.80 0.6196
602.90 0.6193
603.00 0.6189
603.10 0.6186
603.20 0.6183
603.30 0.6179
603.40 0.6176
603.50 0.6173
603.60 0.617
603.70 0.6166
603.80 0.6163
603.90 0.616
604.00 0.6157
604.10 0.6153
604.20 0.615
604.30 0.6147
604.40 0.6143
604.50 0.614
604.60 0.6137
604.70 0.6134
604.80 0.613
604.90 0.6127
605.00 0.6124
605.10 0.6121
605.20 0.6117
605.30 0.6114
605.40 0.6111
605.50 0.6108
605.60 0.6104
605.70 0.6101
605.80 0.6098
605.90 0.6094
606.00 0.6091
606.10 0.6088
606.20 0.6085
606.30 0.6081
606.40 0.6078
606.50 0.6075
606.60 0.6072
606.70 0.6068
606.80 0.6065
606.90 0.6062
607.00 0.6059
607.10 0.6056
607.20 0.6052
607.30 0.6049
607.40 0.6046
607.50 0.6043
607.60 0.6039
607.70 0.6036
607.80 0.6033
607.90 0.603
608.00 0.6026
608.10 0.6023
608.20 0.602
608.30 0.6017
608.40 0.6013
608.50 0.601
608.60 0.6007
608.70 0.6004
608.80 0.6
608.90 0.5997
609.00 0.5994
609.10 0.5991
609.20 0.5988
609.30 0.5984
609.40 0.5981
609.50 0.5978
609.60 0.5975
609.70 0.5971
609.80 0.5968
609.90 0.5965
610.00 0.5962
610.10 0.5958
610.20 0.5955
610.30 0.5952
610.40 0.5949
610.50 0.5946
610.60 0.5942
610.70 0.5939
610.80 0.5936
610.90 0.5933
611.00 0.593
611.10 0.5926
611.20 0.5923
611.30 0.592
611.40 0.5917
611.50 0.5913
611.60 0.591
611.70 0.5907
611.80 0.5904
611.90 0.5901
612.00 0.5897
612.10 0.5894
612.20 0.5891
612.30 0.5888
612.40 0.5884
612.50 0.5881
612.60 0.5878
612.70 0.5875
612.80 0.5872
612.90 0.5868
613.00 0.5865
613.10 0.5862
613.20 0.5859
613.30 0.5855
613.40 0.5852
613.50 0.5849
613.60 0.5846
613.70 0.5843
613.80 0.5839
613.90 0.5836
614.00 0.5833
614.10 0.583
614.20 0.5826
614.30 0.5823
614.40 0.582
614.50 0.5817
614.60 0.5814
614.70 0.581
614.80 0.5807
614.90 0.5804
615.00 0.5801
615.10 0.5798
615.20 0.5794
615.30 0.5791
615.40 0.5788
615.50 0.5785
615.60 0.5781
615.70 0.5778
615.80 0.5775
615.90 0.5772
616.00 0.5768
616.10 0.5765
616.20 0.5762
616.30 0.5759
616.40 0.5756
616.50 0.5752
616.60 0.5749
616.70 0.5746
616.80 0.5743
616.90 0.5739
617.00 0.5736
617.10 0.5733
617.20 0.573
617.30 0.5726
617.40 0.5723
617.50 0.572
617.60 0.5717
617.70 0.5713
617.80 0.571
617.90 0.5707
618.00 0.5704
618.10 0.5701
618.20 0.5697
618.30 0.5694
618.40 0.5691
618.50 0.5688
618.60 0.5684
618.70 0.5681
618.80 0.5678
618.90 0.5674
619.00 0.5671
619.10 0.5668
619.20 0.5665
619.30 0.5661
619.40 0.5658
619.50 0.5655
619.60 0.5652
619.70 0.5648
619.80 0.5645
619.90 0.5642
620.00 0.5639
620.10 0.5635
620.20 0.5632
620.30 0.5629
620.40 0.5625
620.50 0.5622
620.60 0.5619
620.70 0.5616
620.80 0.5612
620.90 0.5609
621.00 0.5606
621.10 0.5603
621.20 0.5599
621.30 0.5596
621.40 0.5593
621.50 0.5589
621.60 0.5586
621.70 0.5583
621.80 0.5579
621.90 0.5576
622.00 0.5573
622.10 0.5569
622.20 0.5566
622.30 0.5563
622.40 0.556
622.50 0.5556
622.60 0.5553
622.70 0.555
622.80 0.5546
622.90 0.5543
623.00 0.554
623.10 0.5536
623.20 0.5533
623.30 0.553
623.40 0.5526
623.50 0.5523
623.60 0.552
623.70 0.5516
623.80 0.5513
623.90 0.5509
624.00 0.5506
624.10 0.5503
624.20 0.5499
624.30 0.5496
624.40 0.5493
624.50 0.5489
624.60 0.5486
624.70 0.5482
624.80 0.5479
624.90 0.5476
625.00 0.5472
625.10 0.5469
625.20 0.5466
625.30 0.5462
625.40 0.5459
625.50 0.5455
625.60 0.5452
625.70 0.5448
625.80 0.5445
625.90 0.5442
626.00 0.5438
626.10 0.5435
626.20 0.5431
626.30 0.5428
626.40 0.5424
626.50 0.5421
626.60 0.5418
626.70 0.5414
626.80 0.5411
626.90 0.5407
627.00 0.5404
627.10 0.54
627.20 0.5397
627.30 0.5393
627.40 0.539
627.50 0.5386
627.60 0.5383
627.70 0.5379
627.80 0.5376
627.90 0.5372
628.00 0.5369
628.10 0.5365
628.20 0.5362
628.30 0.5358
628.40 0.5355
628.50 0.5351
628.60 0.5348
628.70 0.5344
628.80 0.534
628.90 0.5337
629.00 0.5333
629.10 0.533
629.20 0.5326
629.30 0.5323
629.40 0.5319
629.50 0.5315
629.60 0.5312
629.70 0.5308
629.80 0.5304
629.90 0.5301
630.00 0.5297
630.10 0.5294
630.20 0.529
630.30 0.5286
630.40 0.5282
630.50 0.5279
630.60 0.5275
630.70 0.5271
630.80 0.5268
630.90 0.5264
631.00 0.526
631.10 0.5257
631.20 0.5253
631.30 0.5249
631.40 0.5245
631.50 0.5242
631.60 0.5238
631.70 0.5234
631.80 0.523
631.90 0.5226
632.00 0.5223
632.10 0.5219
632.20 0.5215
632.30 0.5211
632.40 0.5207
632.50 0.5203
632.60 0.5199
632.70 0.5195
632.80 0.5192
632.90 0.5188
633.00 0.5184
633.10 0.518
633.20 0.5176
633.30 0.5172
633.40 0.5168
633.50 0.5164
633.60 0.516
633.70 0.5156
633.80 0.5152
633.90 0.5148
634.00 0.5144
634.10 0.514
634.20 0.5136
634.30 0.5132
634.40 0.5128
634.50 0.5123
634.60 0.5119
634.70 0.5115
634.80 0.5111
634.90 0.5107
635.00 0.5103
635.10 0.5098
635.20 0.5094
635.30 0.509
635.40 0.5086
635.50 0.5081
635.60 0.5077
635.70 0.5073
635.80 0.5068
635.90 0.5064
636.00 0.506
636.10 0.5055
636.20 0.5051
636.30 0.5047
636.40 0.5042
636.50 0.5038
636.60 0.5033
636.70 0.5029
636.80 0.5024
636.90 0.502
637.00 0.5015
637.10 0.5011
637.20 0.5006
637.30 0.5002
637.40 0.4997
637.50 0.4992
637.60 0.4987
637.70 0.4983
637.80 0.4978
637.90 0.4973
638.00 0.4968
638.10 0.4964
638.20 0.4959
638.30 0.4954
638.40 0.4949
638.50 0.4944
638.60 0.4939
638.70 0.4934
638.80 0.4929
638.90 0.4924
639.00 0.492
639.10 0.4915
639.20 0.491
639.30 0.4905
639.40 0.4899
639.50 0.4894
639.60 0.4889
639.70 0.4884
639.80 0.4879
639.90 0.4873
640.00 0.4868
640.10 0.4863
640.20 0.4858
640.30 0.4852
640.40 0.4847
640.50 0.4841
640.60 0.4836
640.70 0.483
640.80 0.4825
640.90 0.4819
641.00 0.4814
641.10 0.4808
641.20 0.4803
641.30 0.4797
641.40 0.4791
641.50 0.4785
641.60 0.478
641.70 0.4774
641.80 0.4768
641.90 0.4762
642.00 0.4756
642.10 0.475
642.20 0.4745
642.30 0.4739
642.40 0.4732
642.50 0.4726
642.60 0.472
642.70 0.4713
642.80 0.4707
642.90 0.4701
643.00 0.4695
643.10 0.4688
643.20 0.4682
643.30 0.4676
643.40 0.4669
643.50 0.4662
643.60 0.4655
643.70 0.4648
643.80 0.4642
643.90 0.4635
644.00 0.4628
644.10 0.4621
644.20 0.4615
644.30 0.4608
644.40 0.46
644.50 0.4593
644.60 0.4586
644.70 0.4578
644.80 0.4571
644.90 0.4563
645.00 0.4556
645.10 0.4549
645.20 0.4541
645.30 0.4534
645.40 0.4526
645.50 0.4518
645.60 0.451
645.70 0.4502
645.80 0.4494
645.90 0.4486
646.00 0.4478
646.10 0.447
646.20 0.4462
646.30 0.4454
646.40 0.4445
646.50 0.4436
646.60 0.4428
646.70 0.4419
646.80 0.441
646.90 0.4401
647.00 0.4393
647.10 0.4384
647.20 0.4375
647.30 0.4366
647.40 0.4357
647.50 0.4347
647.60 0.4337
647.70 0.4327
647.80 0.4317
647.90 0.4307
648.00 0.4298
648.10 0.4288
648.20 0.4278
648.30 0.4268
648.40 0.4256
648.50 0.4245
648.60 0.4233
648.70 0.4222
648.80 0.421
648.90 0.4199
649.00 0.4188
649.10 0.4176
649.20 0.4165
649.30 0.4153
649.40 0.414
649.50 0.4126
649.60 0.4113
649.70 0.41
649.80 0.4087
649.90 0.4074
650.00 0.406
650.10 0.4047
650.20 0.4034
650.30 0.402
650.40 0.4005
650.50 0.3989
650.60 0.3974
650.70 0.3958
650.80 0.3942
650.90 0.3927
651.00 0.3911
651.10 0.3896
651.20 0.388
651.30 0.3864
651.40 0.3846
651.50 0.3827
651.60 0.3809
651.70 0.3791
651.80 0.3772
651.90 0.3754
652.00 0.3736
652.10 0.3717
652.20 0.3699
652.30 0.368
652.40 0.3657
652.50 0.3635
652.60 0.3612
652.70 0.3589
652.80 0.3567
652.90 0.3544
653.00 0.3522
653.10 0.3499
653.20 0.3477
653.30 0.3453
653.40 0.3425
653.50 0.3397
653.60 0.3369
653.70 0.334
653.80 0.3312
653.90 0.3284
654.00 0.3256
654.10 0.3228
654.20 0.32
654.30 0.3171
654.40 0.314
654.50 0.3109
654.60 0.3078
654.70 0.3047
654.80 0.3016
654.90 0.2984
655.00 0.2952
655.10 0.2921
655.20 0.2889
655.30 0.2857
655.40 0.2823
655.50 0.2787
655.60 0.2748
655.70 0.2707
655.80 0.2659
655.90 0.2602
656.00 0.2515
656.10 0.2415
656.20 0.2188
656.30 0.2034
656.40 0.2291
656.50 0.2455
656.60 0.2542
656.70 0.262
656.80 0.2667
656.90 0.2711
657.00 0.2748
657.10 0.2784
657.20 0.2816
657.30 0.2848
657.40 0.2877
657.50 0.2906
657.60 0.2935
657.70 0.2964
657.80 0.2993
657.90 0.3021
658.00 0.3049
658.10 0.3077
658.20 0.3105
658.30 0.3133
658.40 0.3158
658.50 0.3183
658.60 0.3208
658.70 0.3233
658.80 0.3258
658.90 0.3283
659.00 0.3307
659.10 0.3332
659.20 0.3357
659.30 0.3381
659.40 0.34
659.50 0.3419
659.60 0.3438
659.70 0.3457
659.80 0.3476
659.90 0.3495
660.00 0.3513
660.10 0.3532
660.20 0.3551
660.30 0.3569
660.40 0.3584
660.50 0.3598
660.60 0.3613
660.70 0.3627
660.80 0.3642
660.90 0.3656
661.00 0.3671
661.10 0.3685
661.20 0.37
661.30 0.3714
661.40 0.3725
661.50 0.3737
661.60 0.3748
661.70 0.376
661.80 0.3771
661.90 0.3783
662.00 0.3794
662.10 0.3806
662.20 0.3817
662.30 0.3828
662.40 0.3837
662.50 0.3846
662.60 0.3855
662.70 0.3864
662.80 0.3873
662.90 0.3882
663.00 0.3891
663.10 0.39
663.20 0.3909
663.30 0.3918
663.40 0.3925
663.50 0.3932
663.60 0.3939
663.70 0.3946
663.80 0.3953
663.90 0.3961
664.00 0.3968
664.10 0.3975
664.20 0.3982
664.30 0.3989
664.40 0.3994
664.50 0.4
664.60 0.4005
664.70 0.401
664.80 0.4016
664.90 0.4021
665.00 0.4027
665.10 0.4032
665.20 0.4038
665.30 0.4043
665.40 0.4047
665.50 0.4051
665.60 0.4055
665.70 0.406
665.80 0.4064
665.90 0.4068
666.00 0.4072
666.10 0.4077
666.20 0.4081
666.30 0.4085
666.40 0.4088
666.50 0.4092
666.60 0.4095
666.70 0.4099
666.80 0.4102
666.90 0.4106
667.00 0.4109
667.10 0.4113
667.20 0.4116
667.30 0.4119
667.40 0.4122
667.50 0.4125
667.60 0.4128
667.70 0.413
667.80 0.4133
667.90 0.4136
668.00 0.4138
668.10 0.4141
668.20 0.4144
668.30 0.4147
668.40 0.4149
668.50 0.4151
668.60 0.4153
668.70 0.4155
668.80 0.4157
668.90 0.4159
669.00 0.4161
669.10 0.4163
669.20 0.4166
669.30 0.4168
669.40 0.4169
669.50 0.4171
669.60 0.4172
669.70 0.4174
669.80 0.4175
669.90 0.4177
670.00 0.4179
670.10 0.418
670.20 0.4182
670.30 0.4183
670.40 0.4184
670.50 0.4186
670.60 0.4187
670.70 0.4188
670.80 0.4189
670.90 0.419
671.00 0.4191
671.10 0.4192
671.20 0.4193
671.30 0.4194
671.40 0.4195
671.50 0.4196
671.60 0.4197
671.70 0.4197
671.80 0.4198
671.90 0.4199
672.00 0.42
672.10 0.42
672.20 0.4201
672.30 0.4202
672.40 0.4202
672.50 0.4203
672.60 0.4203
672.70 0.4204
672.80 0.4204
672.90 0.4204
673.00 0.4205
673.10 0.4205
673.20 0.4206
673.30 0.4206
673.40 0.4206
673.50 0.4206
673.60 0.4206
673.70 0.4207
673.80 0.4207
673.90 0.4207
674.00 0.4207
674.10 0.4207
674.20 0.4207
674.30 0.4207
674.40 0.4207
674.50 0.4207
674.60 0.4207
674.70 0.4207
674.80 0.4207
674.90 0.4207
675.00 0.4207
675.10 0.4207
675.20 0.4207
675.30 0.4206
675.40 0.4206
675.50 0.4206
675.60 0.4205
675.70 0.4205
675.80 0.4205
675.90 0.4204
676.00 0.4204
676.10 0.4204
676.20 0.4204
676.30 0.4203
676.40 0.4203
676.50 0.4202
676.60 0.4202
676.70 0.4201
676.80 0.4201
676.90 0.42
677.00 0.42
677.10 0.4199
677.20 0.4199
677.30 0.4198
677.40 0.4197
677.50 0.4197
677.60 0.4196
677.70 0.4195
677.80 0.4195
677.90 0.4194
678.00 0.4193
678.10 0.4193
678.20 0.4192
678.30 0.4191
678.40 0.4191
678.50 0.419
678.60 0.4189
678.70 0.4188
678.80 0.4187
678.90 0.4187
679.00 0.4186
679.10 0.4185
679.20 0.4184
679.30 0.4183
679.40 0.4182
679.50 0.4181
679.60 0.4181
679.70 0.418
679.80 0.4179
679.90 0.4178
680.00 0.4177
680.10 0.4176
680.20 0.4175
680.30 0.4174
680.40 0.4173
680.50 0.4172
680.60 0.4171
680.70 0.417
680.80 0.4169
680.90 0.4168
681.00 0.4167
681.10 0.4166
681.20 0.4165
681.30 0.4164
681.40 0.4163
681.50 0.4161
681.60 0.416
681.70 0.4159
681.80 0.4158
681.90 0.4157
682.00 0.4156
682.10 0.4155
682.20 0.4154
682.30 0.4152
682.40 0.4151
682.50 0.415
682.60 0.4149
682.70 0.4148
682.80 0.4146
682.90 0.4145
683.00 0.4144
683.10 0.4143
683.20 0.4142
683.30 0.414
683.40 0.4139
683.50 0.4138
683.60 0.4137
683.70 0.4135
683.80 0.4134
683.90 0.4133
684.00 0.4131
684.10 0.413
684.20 0.4129
684.30 0.4128
684.40 0.4126
684.50 0.4125
684.60 0.4124
684.70 0.4122
684.80 0.4121
684.90 0.412
685.00 0.4118
685.10 0.4117
685.20 0.4116
685.30 0.4114
685.40 0.4113
685.50 0.4112
685.60 0.411
685.70 0.4109
685.80 0.4108
685.90 0.4106
686.00 0.4105
686.10 0.4103
686.20 0.4102
686.30 0.4101
686.40 0.4099
686.50 0.4098
686.60 0.4096
686.70 0.4095
686.80 0.4094
686.90 0.4092
687.00 0.4091
687.10 0.4089
687.20 0.4088
687.30 0.4087
687.40 0.4085
687.50 0.4084
687.60 0.4082
687.70 0.4081
687.80 0.4079
687.90 0.4078
688.00 0.4076
688.10 0.4075
688.20 0.4074
688.30 0.4072
688.40 0.4071
688.50 0.4069
688.60 0.4068
688.70 0.4066
688.80 0.4065
688.90 0.4063
689.00 0.4062
689.10 0.406
689.20 0.4059
689.30 0.4057
689.40 0.4056
689.50 0.4054
689.60 0.4052
689.70 0.4051
689.80 0.4049
689.90 0.4048
690.00 0.4046
690.10 0.4044
690.20 0.4043
690.30 0.4041
690.40 0.4039
690.50 0.4038
690.60 0.4036
690.70 0.4035
690.80 0.4033
690.90 0.4031
691.00 0.403
691.10 0.4028
691.20 0.4027
691.30 0.4025
691.40 0.4023
691.50 0.4022
691.60 0.402
691.70 0.4018
691.80 0.4017
691.90 0.4015
692.00 0.4014
692.10 0.4012
692.20 0.401
692.30 0.4009
692.40 0.4007
692.50 0.4006
692.60 0.4004
692.70 0.4002
692.80 0.4001
692.90 0.3999
693.00 0.3998
693.10 0.3996
693.20 0.3994
693.30 0.3993
693.40 0.3991
693.50 0.399
693.60 0.3988
693.70 0.3987
693.80 0.3985
693.90 0.3983
694.00 0.3982
694.10 0.398
694.20 0.3979
694.30 0.3977
694.40 0.3975
694.50 0.3974
694.60 0.3972
694.70 0.3971
694.80 0.3969
694.90 0.3967
695.00 0.3966
695.10 0.3964
695.20 0.3963
695.30 0.3961
695.40 0.396
695.50 0.3958
695.60 0.3956
695.70 0.3955
695.80 0.3953
695.90 0.3952
696.00 0.395
696.10 0.3949
696.20 0.3947
696.30 0.3945
696.40 0.3944
696.50 0.3942
696.60 0.3941
696.70 0.3939
696.80 0.3938
696.90 0.3936
697.00 0.3934
697.10 0.3933
697.20 0.3931
697.30 0.393
697.40 0.3928
697.50 0.3927
697.60 0.3925
697.70 0.3923
697.80 0.3922
697.90 0.392
698.00 0.3919
698.10 0.3917
698.20 0.3916
698.30 0.3914
698.40 0.3913
698.50 0.3911
698.60 0.3909
698.70 0.3908
698.80 0.3906
698.90 0.3905
699.00 0.3903
699.10 0.3902
699.20 0.39
699.30 0.3899
699.40 0.3897
699.50 0.3895
699.60 0.3894
699.70 0.3892
699.80 0.3891
699.90 0.3889
700.00 0.3888
700.10 0.3886
700.20 0.3885
700.30 0.3883
700.40 0.3882
700.50 0.388
700.60 0.3879
700.70 0.3877
700.80 0.3876
700.90 0.3874
701.00 0.3873
701.10 0.3871
701.20 0.387
701.30 0.3868
701.40 0.3867
701.50 0.3865
701.60 0.3864
701.70 0.3863
701.80 0.3861
701.90 0.386
702.00 0.3858
702.10 0.3857
702.20 0.3855
702.30 0.3854
702.40 0.3852
702.50 0.3851
702.60 0.3849
702.70 0.3848
702.80 0.3846
702.90 0.3845
703.00 0.3843
703.10 0.3842
703.20 0.384
703.30 0.3839
703.40 0.3837
703.50 0.3836
703.60 0.3835
703.70 0.3833
703.80 0.3832
703.90 0.383
704.00 0.3829
704.10 0.3827
704.20 0.3826
704.30 0.3824
704.40 0.3823
704.50 0.3821
704.60 0.382
704.70 0.3818
704.80 0.3817
704.90 0.3816
705.00 0.3814
705.10 0.3812
705.20 0.3811
705.30 0.3809
705.40 0.3808
705.50 0.3806
705.60 0.3804
705.70 0.3803
705.80 0.3801
705.90 0.3799
706.00 0.3798
706.10 0.3796
706.20 0.3794
706.30 0.3793
706.40 0.3791
706.50 0.3789
706.60 0.3788
706.70 0.3786
706.80 0.3785
706.90 0.3783
707.00 0.3781
707.10 0.378
707.20 0.3778
707.30 0.3776
707.40 0.3775
707.50 0.3773
707.60 0.3772
707.70 0.377
707.80 0.3768
707.90 0.3767
708.00 0.3765
708.10 0.3763
708.20 0.3762
708.30 0.376
708.40 0.3759
708.50 0.3757
708.60 0.3755
708.70 0.3754
708.80 0.3752
708.90 0.375
709.00 0.3749
709.10 0.3747
709.20 0.3746
709.30 0.3744
709.40 0.3742
709.50 0.3741
709.60 0.3739
709.70 0.3738
709.80 0.3736
709.90 0.3734
710.00 0.3733
710.10 0.3731
710.20 0.3729
710.30 0.3728
710.40 0.3726
710.50 0.3725
710.60 0.3723
710.70 0.3721
710.80 0.372
710.90 0.3718
711.00 0.3717
711.10 0.3715
711.20 0.3713
711.30 0.3712
711.40 0.371
711.50 0.3708
711.60 0.3707
711.70 0.3705
711.80 0.3704
711.90 0.3702
712.00 0.37
712.10 0.3699
712.20 0.3697
712.30 0.3696
712.40 0.3694
712.50 0.3692
712.60 0.3691
712.70 0.3689
712.80 0.3687
712.90 0.3686
713.00 0.3684
713.10 0.3683
713.20 0.3681
713.30 0.3679
713.40 0.3678
713.50 0.3676
713.60 0.3675
713.70 0.3673
713.80 0.3671
713.90 0.367
714.00 0.3668
714.10 0.3667
714.20 0.3665
714.30 0.3664
714.40 0.3662
714.50 0.366
714.60 0.3659
714.70 0.3657
714.80 0.3656
714.90 0.3654
715.00 0.3652
715.10 0.3651
715.20 0.365
715.30 0.3648
715.40 0.3647
715.50 0.3645
715.60 0.3644
715.70 0.3642
715.80 0.3641
715.90 0.3639
716.00 0.3638
716.10 0.3637
716.20 0.3635
716.30 0.3634
716.40 0.3632
716.50 0.3631
716.60 0.3629
716.70 0.3628
716.80 0.3627
716.90 0.3625
717.00 0.3624
717.10 0.3622
717.20 0.3621
717.30 0.3619
717.40 0.3618
717.50 0.3617
717.60 0.3615
717.70 0.3614
717.80 0.3612
717.90 0.3611
718.00 0.361
718.10 0.3608
718.20 0.3607
718.30 0.3605
718.40 0.3604
718.50 0.3602
718.60 0.3601
718.70 0.36
718.80 0.3598
718.90 0.3597
719.00 0.3595
719.10 0.3594
719.20 0.3593
719.30 0.3591
719.40 0.359
719.50 0.3588
719.60 0.3587
719.70 0.3586
719.80 0.3584
719.90 0.3583
720.00 0.3581
720.10 0.358
720.20 0.3578
720.30 0.3577
720.40 0.3575
720.50 0.3573
720.60 0.3572
720.70 0.357
720.80 0.3569
720.90 0.3567
721.00 0.3565
721.10 0.3564
721.20 0.3562
721.30 0.3561
721.40 0.3559
721.50 0.3557
721.60 0.3556
721.70 0.3554
721.80 0.3553
721.90 0.3551
722.00 0.355
722.10 0.3548
722.20 0.3546
722.30 0.3545
722.40 0.3543
722.50 0.3542
722.60 0.354
722.70 0.3538
722.80 0.3537
722.90 0.3535
723.00 0.3534
723.10 0.3532
723.20 0.3531
723.30 0.3529
723.40 0.3527
723.50 0.3526
723.60 0.3524
723.70 0.3523
723.80 0.3521
723.90 0.352
724.00 0.3518
724.10 0.3516
724.20 0.3515
724.30 0.3513
724.40 0.3512
724.50 0.351
724.60 0.3509
724.70 0.3507
724.80 0.3505
724.90 0.3504
725.00 0.3502
725.10 0.3501
725.20 0.3499
725.30 0.3498
725.40 0.3496
725.50 0.3495
725.60 0.3493
725.70 0.3491
725.80 0.349
725.90 0.3488
726.00 0.3487
726.10 0.3485
726.20 0.3484
726.30 0.3482
726.40 0.3481
726.50 0.3479
726.60 0.3478
726.70 0.3476
726.80 0.3474
726.90 0.3473
727.00 0.3471
727.10 0.347
727.20 0.3468
727.30 0.3467
727.40 0.3465
727.50 0.3464
727.60 0.3462
727.70 0.3461
727.80 0.3459
727.90 0.3458
728.00 0.3456
728.10 0.3454
728.20 0.3453
728.30 0.3451
728.40 0.345
728.50 0.3448
728.60 0.3447
728.70 0.3445
728.80 0.3444
728.90 0.3442
729.00 0.3441
729.10 0.3439
729.20 0.3438
729.30 0.3436
729.40 0.3435
729.50 0.3433
729.60 0.3432
729.70 0.343
729.80 0.3429
729.90 0.3427
730.00 0.3425
730.10 0.3424
730.20 0.3422
730.30 0.3421
730.40 0.3419
730.50 0.3418
730.60 0.3416
730.70 0.3415
730.80 0.3413
730.90 0.3412
731.00 0.341
731.10 0.3409
731.20 0.3407
731.30 0.3406
731.40 0.3404
731.50 0.3403
731.60 0.3401
731.70 0.34
731.80 0.3398
731.90 0.3397
732.00 0.3395
732.10 0.3394
732.20 0.3392
732.30 0.3391
732.40 0.3389
732.50 0.3388
732.60 0.3386
732.70 0.3385
732.80 0.3383
732.90 0.3382
733.00 0.338
733.10 0.3379
733.20 0.3377
733.30 0.3376
733.40 0.3374
733.50 0.3373
733.60 0.3372
733.70 0.337
733.80 0.3369
733.90 0.3367
734.00 0.3366
734.10 0.3364
734.20 0.3363
734.30 0.3361
734.40 0.336
734.50 0.3358
734.60 0.3357
734.70 0.3355
734.80 0.3354
734.90 0.3352
735.00 0.3351
735.10 0.3349
735.20 0.3348
735.30 0.3346
735.40 0.3345
735.50 0.3343
735.60 0.3342
735.70 0.334
735.80 0.3339
735.90 0.3338
736.00 0.3336
736.10 0.3335
736.20 0.3333
736.30 0.3332
736.40 0.333
736.50 0.3329
736.60 0.3327
736.70 0.3326
736.80 0.3324
736.90 0.3323
737.00 0.3321
737.10 0.332
737.20 0.3318
737.30 0.3317
737.40 0.3316
737.50 0.3314
737.60 0.3313
737.70 0.3311
737.80 0.331
737.90 0.3308
738.00 0.3307
738.10 0.3305
738.20 0.3304
738.30 0.3302
738.40 0.3301
738.50 0.33
738.60 0.3298
738.70 0.3297
738.80 0.3295
738.90 0.3294
739.00 0.3292
739.10 0.3291
739.20 0.3289
739.30 0.3288
739.40 0.3286
739.50 0.3285
739.60 0.3284
739.70 0.3282
739.80 0.3281
739.90 0.3279
740.00 0.3278
740.10 0.3276
740.20 0.3275
740.30 0.3274
740.40 0.3272
740.50 0.3271
740.60 0.3269
740.70 0.3268
740.80 0.3266
740.90 0.3265
741.00 0.3264
741.10 0.3262
741.20 0.3261
741.30 0.3259
741.40 0.3258
741.50 0.3256
741.60 0.3255
741.70 0.3254
741.80 0.3252
741.90 0.3251
742.00 0.3249
742.10 0.3248
742.20 0.3246
742.30 0.3245
742.40 0.3244
742.50 0.3242
742.60 0.3241
742.70 0.3239
742.80 0.3238
742.90 0.3237
743.00 0.3235
743.10 0.3234
743.20 0.3232
743.30 0.3231
743.40 0.323
743.50 0.3228
743.60 0.3227
743.70 0.3225
743.80 0.3224
743.90 0.3222
744.00 0.3221
744.10 0.322
744.20 0.3218
744.30 0.3217
744.40 0.3215
744.50 0.3214
744.60 0.3213
744.70 0.3211
744.80 0.321
744.90 0.3208
745.00 0.3207
745.10 0.3206
745.20 0.3204
745.30 0.3203
745.40 0.3201
745.50 0.32
745.60 0.3199
745.70 0.3197
745.80 0.3196
745.90 0.3195
746.00 0.3193
746.10 0.3192
746.20 0.319
746.30 0.3189
746.40 0.3188
746.50 0.3186
746.60 0.3185
746.70 0.3183
746.80 0.3182
746.90 0.3181
747.00 0.3179
747.10 0.3178
747.20 0.3176
747.30 0.3175
747.40 0.3174
747.50 0.3172
747.60 0.3171
747.70 0.317
747.80 0.3168
747.90 0.3167
748.00 0.3165
748.10 0.3164
748.20 0.3163
748.30 0.3161
748.40 0.316
748.50 0.3159
748.60 0.3157
748.70 0.3156
748.80 0.3154
748.90 0.3153
749.00 0.3152
749.10 0.315
749.20 0.3149
749.30 0.3148
749.40 0.3146
749.50 0.3145
749.60 0.3143
749.70 0.3142
749.80 0.3141
749.90 0.3139
750.00 0.3138
750.10 0.3137
750.20 0.3135
750.30 0.3134
750.40 0.3133
750.50 0.3131
750.60 0.313
750.70 0.3128
750.80 0.3127
750.90 0.3126
751.00 0.3124
751.10 0.3123
751.20 0.3122
751.30 0.312
751.40 0.3119
751.50 0.3118
751.60 0.3116
751.70 0.3115
751.80 0.3114
751.90 0.3112
752.00 0.3111
752.10 0.311
752.20 0.3108
752.30 0.3107
752.40 0.3106
752.50 0.3104
752.60 0.3103
752.70 0.3102
752.80 0.31
752.90 0.3099
753.00 0.3097
753.10 0.3096
753.20 0.3095
753.30 0.3093
753.40 0.3092
753.50 0.3091
753.60 0.3089
753.70 0.3088
753.80 0.3087
753.90 0.3085
754.00 0.3084
754.10 0.3083
754.20 0.3081
754.30 0.308
754.40 0.3079
754.50 0.3077
754.60 0.3076
754.70 0.3075
754.80 0.3073
754.90 0.3072
755.00 0.3071
755.10 0.307
755.20 0.3068
755.30 0.3067
755.40 0.3066
755.50 0.3064
755.60 0.3063
755.70 0.3062
755.80 0.306
755.90 0.3059
756.00 0.3058
756.10 0.3056
756.20 0.3055
756.30 0.3054
756.40 0.3052
756.50 0.3051
756.60 0.305
756.70 0.3048
756.80 0.3047
756.90 0.3046
757.00 0.3044
757.10 0.3043
757.20 0.3042
757.30 0.304
757.40 0.3039
757.50 0.3038
757.60 0.3037
757.70 0.3035
757.80 0.3034
757.90 0.3033
758.00 0.3031
758.10 0.303
758.20 0.3029
758.30 0.3027
758.40 0.3026
758.50 0.3025
758.60 0.3023
758.70 0.3022
758.80 0.3021
758.90 0.302
759.00 0.3018
759.10 0.3017
759.20 0.3016
759.30 0.3014
759.40 0.3013
759.50 0.3012
759.60 0.301
759.70 0.3009
759.80 0.3008
759.90 0.3007
760.00 0.3005
760.10 0.3004
760.20 0.3003
760.30 0.3001
760.40 0.3
760.50 0.2999
760.60 0.2998
760.70 0.2996
760.80 0.2995
760.90 0.2994
761.00 0.2992
761.10 0.2991
761.20 0.299
761.30 0.2989
761.40 0.2987
761.50 0.2986
761.60 0.2985
761.70 0.2983
761.80 0.2982
761.90 0.2981
762.00 0.298
762.10 0.2978
762.20 0.2977
762.30 0.2976
762.40 0.2975
762.50 0.2973
762.60 0.2972
762.70 0.2971
762.80 0.2969
762.90 0.2968
763.00 0.2967
763.10 0.2966
763.20 0.2964
763.30 0.2963
763.40 0.2962
763.50 0.2961
763.60 0.2959
763.70 0.2958
763.80 0.2957
763.90 0.2956
764.00 0.2954
764.10 0.2953
764.20 0.2952
764.30 0.295
764.40 0.2949
764.50 0.2948
764.60 0.2947
764.70 0.2945
764.80 0.2944
764.90 0.2943
765.00 0.2942
765.10 0.294
765.20 0.2939
765.30 0.2938
765.40 0.2937
765.50 0.2935
765.60 0.2934
765.70 0.2933
765.80 0.2932
765.90 0.293
766.00 0.2929
766.10 0.2928
766.20 0.2927
766.30 0.2925
766.40 0.2924
766.50 0.2923
766.60 0.2922
766.70 0.292
766.80 0.2919
766.90 0.2918
767.00 0.2917
767.10 0.2915
767.20 0.2914
767.30 0.2913
767.40 0.2912
767.50 0.291
767.60 0.2909
767.70 0.2908
767.80 0.2907
767.90 0.2905
768.00 0.2904
768.10 0.2903
768.20 0.2902
768.30 0.29
768.40 0.2899
768.50 0.2898
768.60 0.2897
768.70 0.2895
768.80 0.2894
768.90 0.2893
769.00 0.2892
769.10 0.2891
769.20 0.2889
769.30 0.2888
769.40 0.2887
769.50 0.2886
769.60 0.2884
769.70 0.2883
769.80 0.2882
769.90 0.2881
770.00 0.2879
770.10 0.2878
770.20 0.2877
770.30 0.2876
770.40 0.2875
770.50 0.2873
770.60 0.2872
770.70 0.2871
770.80 0.287
770.90 0.2868
771.00 0.2867
771.10 0.2866
771.20 0.2865
771.30 0.2864
771.40 0.2862
771.50 0.2861
771.60 0.286
771.70 0.2859
771.80 0.2858
771.90 0.2856
772.00 0.2855
772.10 0.2854
772.20 0.2853
772.30 0.2852
772.40 0.285
772.50 0.2849
772.60 0.2848
772.70 0.2847
772.80 0.2845
772.90 0.2844
773.00 0.2843
773.10 0.2842
773.20 0.2841
773.30 0.2839
773.40 0.2838
773.50 0.2837
773.60 0.2836
773.70 0.2835
773.80 0.2833
773.90 0.2832
774.00 0.2831
774.10 0.283
774.20 0.2829
774.30 0.2827
774.40 0.2826
774.50 0.2825
774.60 0.2824
774.70 0.2823
774.80 0.2821
774.90 0.282
775.00 0.2819
775.10 0.2818
775.20 0.2817
775.30 0.2815
775.40 0.2814
775.50 0.2813
775.60 0.2812
775.70 0.2811
775.80 0.281
775.90 0.2808
776.00 0.2807
776.10 0.2806
776.20 0.2805
776.30 0.2804
776.40 0.2802
776.50 0.2801
776.60 0.28
776.70 0.2799
776.80 0.2798
776.90 0.2796
777.00 0.2795
777.10 0.2794
777.20 0.2793
777.30 0.2792
777.40 0.2791
777.50 0.2789
777.60 0.2788
777.70 0.2787
777.80 0.2786
777.90 0.2785
778.00 0.2783
778.10 0.2782
778.20 0.2781
778.30 0.278
778.40 0.2779
778.50 0.2778
778.60 0.2776
778.70 0.2775
778.80 0.2774
778.90 0.2773
779.00 0.2772
779.10 0.2771
779.20 0.2769
779.30 0.2768
779.40 0.2767
779.50 0.2766
779.60 0.2765
779.70 0.2764
779.80 0.2762
779.90 0.2761
780.00 0.276
780.10 0.2759
780.20 0.2758
780.30 0.2757
780.40 0.2755
780.50 0.2754
780.60 0.2753
780.70 0.2752
780.80 0.2751
780.90 0.275
781.00 0.2748
781.10 0.2747
781.20 0.2746
781.30 0.2745
781.40 0.2744
781.50 0.2743
781.60 0.2742
781.70 0.274
781.80 0.2739
781.90 0.2738
782.00 0.2737
782.10 0.2736
782.20 0.2735
782.30 0.2733
782.40 0.2732
782.50 0.2731
782.60 0.273
782.70 0.2729
782.80 0.2728
782.90 0.2727
783.00 0.2725
783.10 0.2724
783.20 0.2723
783.30 0.2722
783.40 0.2721
783.50 0.272
783.60 0.2719
783.70 0.2717
783.80 0.2716
783.90 0.2715
784.00 0.2714
784.10 0.2713
784.20 0.2712
784.30 0.2711
784.40 0.271
784.50 0.2708
784.60 0.2707
784.70 0.2706
784.80 0.2705
784.90 0.2704
785.00 0.2703
785.10 0.2702
785.20 0.27
785.30 0.2699
785.40 0.2698
785.50 0.2697
785.60 0.2696
785.70 0.2695
785.80 0.2694
785.90 0.2693
786.00 0.2691
786.10 0.269
786.20 0.2689
786.30 0.2688
786.40 0.2687
786.50 0.2686
786.60 0.2685
786.70 0.2683
786.80 0.2682
786.90 0.2681
787.00 0.268
787.10 0.2679
787.20 0.2678
787.30 0.2677
787.40 0.2676
787.50 0.2674
787.60 0.2673
787.70 0.2672
787.80 0.2671
787.90 0.267
788.00 0.2669
788.10 0.2668
788.20 0.2667
788.30 0.2666
788.40 0.2664
788.50 0.2663
788.60 0.2662
788.70 0.2661
788.80 0.266
788.90 0.2659
789.00 0.2658
789.10 0.2657
789.20 0.2655
789.30 0.2654
789.40 0.2653
789.50 0.2652
789.60 0.2651
789.70 0.265
789.80 0.2649
789.90 0.2648
790.00 0.2647
790.10 0.2645
790.20 0.2644
790.30 0.2643
790.40 0.2642
790.50 0.2641
790.60 0.264
790.70 0.2639
790.80 0.2638
790.90 0.2637
791.00 0.2636
791.10 0.2635
791.20 0.2633
791.30 0.2632
791.40 0.2631
791.50 0.263
791.60 0.2629
791.70 0.2628
791.80 0.2627
791.90 0.2626
792.00 0.2625
792.10 0.2624
792.20 0.2623
792.30 0.2621
792.40 0.262
792.50 0.2619
792.60 0.2618
792.70 0.2617
792.80 0.2616
792.90 0.2615
793.00 0.2614
793.10 0.2613
793.20 0.2612
793.30 0.2611
793.40 0.2609
793.50 0.2608
793.60 0.2607
793.70 0.2606
793.80 0.2605
793.90 0.2604
794.00 0.2603
794.10 0.2602
794.20 0.2601
794.30 0.26
794.40 0.2599
794.50 0.2598
794.60 0.2596
794.70 0.2595
794.80 0.2594
794.90 0.2593
795.00 0.2592
795.10 0.2591
795.20 0.259
795.30 0.2589
795.40 0.2588
795.50 0.2587
795.60 0.2586
795.70 0.2585
795.80 0.2584
795.90 0.2583
796.00 0.2581
796.10 0.258
796.20 0.2579
796.30 0.2578
796.40 0.2577
796.50 0.2576
796.60 0.2575
796.70 0.2574
796.80 0.2573
796.90 0.2572
797.00 0.2571
797.10 0.257
797.20 0.2569
797.30 0.2568
797.40 0.2566
797.50 0.2565
797.60 0.2564
797.70 0.2563
797.80 0.2562
797.90 0.2561
798.00 0.256
798.10 0.2559
798.20 0.2558
798.30 0.2557
798.40 0.2556
798.50 0.2555
798.60 0.2554
798.70 0.2553
798.80 0.2552
798.90 0.2551
799.00 0.2549
799.10 0.2548
799.20 0.2547
799.30 0.2546
799.40 0.2545
799.50 0.2544
799.60 0.2543
799.70 0.2542
799.80 0.2541
799.90 0.254
800.00 0.2539
800.10 0.2538
800.20 0.2537
800.30 0.2536
800.40 0.2535
800.50 0.2534
800.60 0.2533
800.70 0.2532
800.80 0.2531
800.90 0.253
801.00 0.2528
801.10 0.2527
801.20 0.2526
801.30 0.2525
801.40 0.2524
801.50 0.2523
801.60 0.2522
801.70 0.2521
801.80 0.252
801.90 0.2519
802.00 0.2518
802.10 0.2517
802.20 0.2516
802.30 0.2515
802.40 0.2514
802.50 0.2513
802.60 0.2512
802.70 0.2511
802.80 0.251
802.90 0.2509
803.00 0.2508
803.10 0.2507
803.20 0.2506
803.30 0.2505
803.40 0.2504
803.50 0.2503
803.60 0.2502
803.70 0.2501
803.80 0.2499
803.90 0.2498
804.00 0.2497
804.10 0.2496
804.20 0.2495
804.30 0.2494
804.40 0.2493
804.50 0.2492
804.60 0.2491
804.70 0.249
804.80 0.2489
804.90 0.2488
805.00 0.2487
805.10 0.2486
805.20 0.2485
805.30 0.2484
805.40 0.2483
805.50 0.2482
805.60 0.2481
805.70 0.248
805.80 0.2479
805.90 0.2478
806.00 0.2477
806.10 0.2476
806.20 0.2475
806.30 0.2474
806.40 0.2473
806.50 0.2472
806.60 0.2471
806.70 0.247
806.80 0.2469
806.90 0.2468
807.00 0.2467
807.10 0.2466
807.20 0.2465
807.30 0.2464
807.40 0.2463
807.50 0.2462
807.60 0.2461
807.70 0.246
807.80 0.2459
807.90 0.2458
808.00 0.2457
808.10 0.2456
808.20 0.2455
808.30 0.2454
808.40 0.2453
808.50 0.2452
808.60 0.2451
808.70 0.245
808.80 0.2449
808.90 0.2448
809.00 0.2447
809.10 0.2446
809.20 0.2445
809.30 0.2444
809.40 0.2443
809.50 0.2442
809.60 0.2441
809.70 0.244
809.80 0.2439
809.90 0.2438
810.00 0.2437
810.10 0.2436
810.20 0.2435
810.30 0.2434
810.40 0.2433
810.50 0.2432
810.60 0.2431
810.70 0.243
810.80 0.2429
810.90 0.2428
811.00 0.2427
811.10 0.2426
811.20 0.2425
811.30 0.2424
811.40 0.2423
811.50 0.2422
811.60 0.2421
811.70 0.242
811.80 0.2419
811.90 0.2418
812.00 0.2417
812.10 0.2416
812.20 0.2415
812.30 0.2414
812.40 0.2413
812.50 0.2412
812.60 0.2411
812.70 0.241
812.80 0.2409
812.90 0.2408
813.00 0.2407
813.10 0.2406
813.20 0.2405
813.30 0.2404
813.40 0.2403
813.50 0.2402
813.60 0.2401
813.70 0.24
813.80 0.2399
813.90 0.2398
814.00 0.2397
814.10 0.2396
814.20 0.2395
814.30 0.2394
814.40 0.2393
814.50 0.2392
814.60 0.2391
814.70 0.239
814.80 0.2389
814.90 0.2388
815.00 0.2387
815.10 0.2386
815.20 0.2385
815.30 0.2384
815.40 0.2383
815.50 0.2382
815.60 0.2382
815.70 0.2381
815.80 0.238
815.90 0.2379
816.00 0.2378
816.10 0.2377
816.20 0.2376
816.30 0.2375
816.40 0.2374
816.50 0.2373
816.60 0.2372
816.70 0.2371
816.80 0.237
816.90 0.2369
817.00 0.2368
817.10 0.2367
817.20 0.2366
817.30 0.2365
817.40 0.2364
817.50 0.2363
817.60 0.2362
817.70 0.2361
817.80 0.236
817.90 0.2359
818.00 0.2358
818.10 0.2357
818.20 0.2356
818.30 0.2355
818.40 0.2354
818.50 0.2354
818.60 0.2353
818.70 0.2352
818.80 0.2351
818.90 0.235
819.00 0.2349
819.10 0.2348
819.20 0.2347
819.30 0.2346
819.40 0.2345
819.50 0.2344
819.60 0.2343
819.70 0.2342
819.80 0.2341
819.90 0.234
820.00 0.2339
820.10 0.2338
820.20 0.2338
820.30 0.2337
820.40 0.2336
820.50 0.2335
820.60 0.2334
820.70 0.2333
820.80 0.2332
820.90 0.2331
821.00 0.233
821.10 0.2329
821.20 0.2328
821.30 0.2327
821.40 0.2326
821.50 0.2325
821.60 0.2324
821.70 0.2323
821.80 0.2323
821.90 0.2322
822.00 0.2321
822.10 0.232
822.20 0.2319
822.30 0.2318
822.40 0.2317
822.50 0.2316
822.60 0.2315
822.70 0.2314
822.80 0.2313
822.90 0.2312
823.00 0.2311
823.10 0.231
823.20 0.2309
823.30 0.2308
823.40 0.2308
823.50 0.2307
823.60 0.2306
823.70 0.2305
823.80 0.2304
823.90 0.2303
824.00 0.2302
824.10 0.2301
824.20 0.23
824.30 0.2299
824.40 0.2298
824.50 0.2297
824.60 0.2296
824.70 0.2295
824.80 0.2295
824.90 0.2294
825.00 0.2293
825.10 0.2292
825.20 0.2291
825.30 0.229
825.40 0.2289
825.50 0.2288
825.60 0.2287
825.70 0.2286
825.80 0.2285
825.90 0.2284
826.00 0.2283
826.10 0.2282
826.20 0.2282
826.30 0.2281
826.40 0.228
826.50 0.2279
826.60 0.2278
826.70 0.2277
826.80 0.2276
826.90 0.2275
827.00 0.2274
827.10 0.2273
827.20 0.2272
827.30 0.2271
827.40 0.2271
827.50 0.227
827.60 0.2269
827.70 0.2268
827.80 0.2267
827.90 0.2266
828.00 0.2265
828.10 0.2264
828.20 0.2263
828.30 0.2262
828.40 0.2261
828.50 0.2261
828.60 0.226
828.70 0.2259
828.80 0.2258
828.90 0.2257
829.00 0.2256
829.10 0.2255
829.20 0.2254
829.30 0.2253
829.40 0.2252
829.50 0.2251
829.60 0.2251
829.70 0.225
829.80 0.2249
829.90 0.2248
830.00 0.2247
830.10 0.2246
830.20 0.2245
830.30 0.2244
830.40 0.2243
830.50 0.2242
830.60 0.2242
830.70 0.2241
830.80 0.224
830.90 0.2239
831.00 0.2238
831.10 0.2237
831.20 0.2236
831.30 0.2235
831.40 0.2234
831.50 0.2233
831.60 0.2233
831.70 0.2232
831.80 0.2231
831.90 0.223
832.00 0.2229
832.10 0.2228
832.20 0.2227
832.30 0.2226
832.40 0.2225
832.50 0.2224
832.60 0.2224
832.70 0.2223
832.80 0.2222
832.90 0.2221
833.00 0.222
833.10 0.2219
833.20 0.2218
833.30 0.2217
833.40 0.2216
833.50 0.2216
833.60 0.2215
833.70 0.2214
833.80 0.2213
833.90 0.2212
834.00 0.2211
834.10 0.221
834.20 0.2209
834.30 0.2208
834.40 0.2208
834.50 0.2207
834.60 0.2206
834.70 0.2205
834.80 0.2204
834.90 0.2203
835.00 0.2202
835.10 0.2201
835.20 0.2201
835.30 0.22
835.40 0.2199
835.50 0.2198
835.60 0.2197
835.70 0.2196
835.80 0.2195
835.90 0.2194
836.00 0.2193
836.10 0.2193
836.20 0.2192
836.30 0.2191
836.40 0.219
836.50 0.2189
836.60 0.2188
836.70 0.2187
836.80 0.2186
836.90 0.2186
837.00 0.2185
837.10 0.2184
837.20 0.2183
837.30 0.2182
837.40 0.2181
837.50 0.218
837.60 0.218
837.70 0.2179
837.80 0.2178
837.90 0.2177
838.00 0.2176
838.10 0.2175
838.20 0.2174
838.30 0.2173
838.40 0.2173
838.50 0.2172
838.60 0.2171
838.70 0.217
838.80 0.2169
838.90 0.2168
839.00 0.2167
839.10 0.2167
839.20 0.2166
839.30 0.2165
839.40 0.2164
839.50 0.2163
839.60 0.2162
839.70 0.2161
839.80 0.216
839.90 0.216
840.00 0.2159
840.10 0.2158
840.20 0.2157
840.30 0.2156
840.40 0.2155
840.50 0.2154
840.60 0.2154
840.70 0.2153
840.80 0.2152
840.90 0.2151
841.00 0.215
841.10 0.2149
841.20 0.2148
841.30 0.2148
841.40 0.2147
841.50 0.2146
841.60 0.2145
841.70 0.2144
841.80 0.2143
841.90 0.2142
842.00 0.2142
842.10 0.2141
842.20 0.214
842.30 0.2139
842.40 0.2138
842.50 0.2137
842.60 0.2137
842.70 0.2136
842.80 0.2135
842.90 0.2134
843.00 0.2133
843.10 0.2132
843.20 0.2131
843.30 0.2131
843.40 0.213
843.50 0.2129
843.60 0.2128
843.70 0.2127
843.80 0.2126
843.90 0.2126
844.00 0.2125
844.10 0.2124
844.20 0.2123
844.30 0.2122
844.40 0.2121
844.50 0.212
844.60 0.212
844.70 0.2119
844.80 0.2118
844.90 0.2117
845.00 0.2116
845.10 0.2115
845.20 0.2115
845.30 0.2114
845.40 0.2113
845.50 0.2112
845.60 0.2111
845.70 0.211
845.80 0.211
845.90 0.2109
846.00 0.2108
846.10 0.2107
846.20 0.2106
846.30 0.2105
846.40 0.2105
846.50 0.2104
846.60 0.2103
846.70 0.2102
846.80 0.2101
846.90 0.21
847.00 0.21
847.10 0.2099
847.20 0.2098
847.30 0.2097
847.40 0.2096
847.50 0.2095
847.60 0.2095
847.70 0.2094
847.80 0.2093
847.90 0.2092
848.00 0.2091
848.10 0.209
848.20 0.209
848.30 0.2089
848.40 0.2088
848.50 0.2087
848.60 0.2086
848.70 0.2086
848.80 0.2085
848.90 0.2084
849.00 0.2083
849.10 0.2082
849.20 0.2081
849.30 0.2081
849.40 0.208
849.50 0.2079
849.60 0.2078
849.70 0.2077
849.80 0.2077
849.90 0.2076
850.00 0.2075
850.10 0.2074
850.20 0.2073
850.30 0.2072
850.40 0.2072
850.50 0.2071
850.60 0.207
850.70 0.2069
850.80 0.2068
850.90 0.2068
851.00 0.2067
851.10 0.2066
851.20 0.2065
851.30 0.2064
851.40 0.2064
851.50 0.2063
851.60 0.2062
851.70 0.2061
851.80 0.206
851.90 0.206
852.00 0.2059
852.10 0.2058
852.20 0.2057
852.30 0.2056
852.40 0.2055
852.50 0.2055
852.60 0.2054
852.70 0.2053
852.80 0.2052
852.90 0.2051
853.00 0.2051
853.10 0.205
853.20 0.2049
853.30 0.2048
853.40 0.2047
853.50 0.2047
853.60 0.2046
853.70 0.2045
853.80 0.2044
853.90 0.2043
854.00 0.2043
854.10 0.2042
854.20 0.2041
854.30 0.204
854.40 0.204
854.50 0.2039
854.60 0.2038
854.70 0.2037
854.80 0.2036
854.90 0.2036
855.00 0.2035
855.10 0.2034
855.20 0.2033
855.30 0.2032
855.40 0.2032
855.50 0.2031
855.60 0.203
855.70 0.2029
855.80 0.2028
855.90 0.2028
856.00 0.2027
856.10 0.2026
856.20 0.2025
856.30 0.2024
856.40 0.2024
856.50 0.2023
856.60 0.2022
856.70 0.2021
856.80 0.202
856.90 0.202
857.00 0.2019
857.10 0.2018
857.20 0.2017
857.30 0.2017
857.40 0.2016
857.50 0.2015
857.60 0.2014
857.70 0.2013
857.80 0.2013
857.90 0.2012
858.00 0.2011
858.10 0.201
858.20 0.201
858.30 0.2009
858.40 0.2008
858.50 0.2007
858.60 0.2006
858.70 0.2006
858.80 0.2005
858.90 0.2004
859.00 0.2003
859.10 0.2003
859.20 0.2002
859.30 0.2001
859.40 0.2
859.50 0.1999
859.60 0.1999
859.70 0.1998
859.80 0.1997
859.90 0.1996
860.00 0.1996
860.10 0.1995
860.20 0.1994
860.30 0.1993
860.40 0.1993
860.50 0.1992
860.60 0.1991
860.70 0.199
860.80 0.1989
860.90 0.1989
861.00 0.1988
861.10 0.1987
861.20 0.1986
861.30 0.1986
861.40 0.1985
861.50 0.1984
861.60 0.1983
861.70 0.1983
861.80 0.1982
861.90 0.1981
862.00 0.198
862.10 0.1979
862.20 0.1979
862.30 0.1978
862.40 0.1977
862.50 0.1976
862.60 0.1976
862.70 0.1975
862.80 0.1974
862.90 0.1973
863.00 0.1973
863.10 0.1972
863.20 0.1971
863.30 0.197
863.40 0.197
863.50 0.1969
863.60 0.1968
863.70 0.1967
863.80 0.1967
863.90 0.1966
864.00 0.1965
864.10 0.1964
864.20 0.1964
864.30 0.1963
864.40 0.1962
864.50 0.1961
864.60 0.1961
864.70 0.196
864.80 0.1959
864.90 0.1958
865.00 0.1958
865.10 0.1957
865.20 0.1956
865.30 0.1955
865.40 0.1955
865.50 0.1954
865.60 0.1953
865.70 0.1952
865.80 0.1952
865.90 0.1951
866.00 0.195
866.10 0.1949
866.20 0.1949
866.30 0.1948
866.40 0.1947
866.50 0.1946
866.60 0.1946
866.70 0.1945
866.80 0.1944
866.90 0.1943
867.00 0.1943
867.10 0.1942
867.20 0.1941
867.30 0.194
867.40 0.194
867.50 0.1939
867.60 0.1938
867.70 0.1938
867.80 0.1937
867.90 0.1936
868.00 0.1935
868.10 0.1935
868.20 0.1934
868.30 0.1933
868.40 0.1932
868.50 0.1932
868.60 0.1931
868.70 0.193
868.80 0.193
868.90 0.1929
869.00 0.1928
869.10 0.1927
869.20 0.1927
869.30 0.1926
869.40 0.1925
869.50 0.1924
869.60 0.1924
869.70 0.1923
869.80 0.1922
869.90 0.1922
870.00 0.1921
870.10 0.192
870.20 0.1919
870.30 0.1919
870.40 0.1918
870.50 0.1917
870.60 0.1917
870.70 0.1916
870.80 0.1915
870.90 0.1914
871.00 0.1914
871.10 0.1913
871.20 0.1912
871.30 0.1911
871.40 0.1911
871.50 0.191
871.60 0.1909
871.70 0.1909
871.80 0.1908
871.90 0.1907
872.00 0.1906
872.10 0.1906
872.20 0.1905
872.30 0.1904
872.40 0.1904
872.50 0.1903
872.60 0.1902
872.70 0.1902
872.80 0.1901
872.90 0.19
873.00 0.1899
873.10 0.1899
873.20 0.1898
873.30 0.1897
873.40 0.1897
873.50 0.1896
873.60 0.1895
873.70 0.1894
873.80 0.1894
873.90 0.1893
874.00 0.1892
874.10 0.1892
874.20 0.1891
874.30 0.189
874.40 0.189
874.50 0.1889
874.60 0.1888
874.70 0.1887
874.80 0.1887
874.90 0.1886
875.00 0.1885
875.10 0.1885
875.20 0.1884
875.30 0.1883
875.40 0.1882
875.50 0.1882
875.60 0.1881
875.70 0.188
875.80 0.188
875.90 0.1879
876.00 0.1878
876.10 0.1878
876.20 0.1877
876.30 0.1876
876.40 0.1875
876.50 0.1875
876.60 0.1874
876.70 0.1873
876.80 0.1873
876.90 0.1872
877.00 0.1871
877.10 0.1871
877.20 0.187
877.30 0.1869
877.40 0.1869
877.50 0.1868
877.60 0.1867
877.70 0.1867
877.80 0.1866
877.90 0.1865
878.00 0.1865
878.10 0.1864
878.20 0.1863
878.30 0.1863
878.40 0.1862
878.50 0.1861
878.60 0.186
878.70 0.186
878.80 0.1859
878.90 0.1858
879.00 0.1858
879.10 0.1857
879.20 0.1856
879.30 0.1856
879.40 0.1855
879.50 0.1854
879.60 0.1854
879.70 0.1853
879.80 0.1852
879.90 0.1852
880.00 0.1851
880.10 0.185
880.20 0.185
880.30 0.1849
880.40 0.1848
880.50 0.1848
880.60 0.1847
880.70 0.1846
880.80 0.1846
880.90 0.1845
881.00 0.1844
881.10 0.1844
881.20 0.1843
881.30 0.1842
881.40 0.1842
881.50 0.1841
881.60 0.184
881.70 0.184
881.80 0.1839
881.90 0.1838
882.00 0.1838
882.10 0.1837
882.20 0.1836
882.30 0.1836
882.40 0.1835
882.50 0.1834
882.60 0.1834
882.70 0.1833
882.80 0.1832
882.90 0.1832
883.00 0.1831
883.10 0.183
883.20 0.1829
883.30 0.1829
883.40 0.1828
883.50 0.1827
883.60 0.1827
883.70 0.1826
883.80 0.1825
883.90 0.1825
884.00 0.1824
884.10 0.1823
884.20 0.1823
884.30 0.1822
884.40 0.1821
884.50 0.1821
884.60 0.182
884.70 0.1819
884.80 0.1819
884.90 0.1818
885.00 0.1817
885.10 0.1817
885.20 0.1816
885.30 0.1815
885.40 0.1815
885.50 0.1814
885.60 0.1813
885.70 0.1813
885.80 0.1812
885.90 0.1811
886.00 0.181
886.10 0.181
886.20 0.1809
886.30 0.1808
886.40 0.1808
886.50 0.1807
886.60 0.1806
886.70 0.1806
886.80 0.1805
886.90 0.1804
887.00 0.1804
887.10 0.1803
887.20 0.1803
887.30 0.1802
887.40 0.1801
887.50 0.1801
887.60 0.18
887.70 0.1799
887.80 0.1799
887.90 0.1798
888.00 0.1798
888.10 0.1797
888.20 0.1796
888.30 0.1796
888.40 0.1795
888.50 0.1795
888.60 0.1794
888.70 0.1793
888.80 0.1793
888.90 0.1792
889.00 0.1792
889.10 0.1791
889.20 0.179
889.30 0.179
889.40 0.1789
889.50 0.1789
889.60 0.1788
889.70 0.1787
889.80 0.1787
889.90 0.1786
890.00 0.1786
890.10 0.1785
890.20 0.1784
890.30 0.1784
890.40 0.1783
890.50 0.1783
890.60 0.1782
890.70 0.1781
890.80 0.1781
890.90 0.178
891.00 0.178
891.10 0.1779
891.20 0.1778
891.30 0.1778
891.40 0.1777
891.50 0.1776
891.60 0.1776
891.70 0.1775
891.80 0.1775
891.90 0.1774
892.00 0.1773
892.10 0.1773
892.20 0.1772
892.30 0.1772
892.40 0.1771
892.50 0.177
892.60 0.177
892.70 0.1769
892.80 0.1769
892.90 0.1768
893.00 0.1767
893.10 0.1767
893.20 0.1766
893.30 0.1765
893.40 0.1765
893.50 0.1764
893.60 0.1764
893.70 0.1763
893.80 0.1762
893.90 0.1762
894.00 0.1761
894.10 0.1761
894.20 0.176
894.30 0.1759
894.40 0.1759
894.50 0.1758
894.60 0.1757
894.70 0.1757
894.80 0.1756
894.90 0.1756
895.00 0.1755
895.10 0.1754
895.20 0.1754
895.30 0.1753
895.40 0.1753
895.50 0.1752
895.60 0.1751
895.70 0.1751
895.80 0.175
895.90 0.1749
896.00 0.1749
896.10 0.1748
896.20 0.1748
896.30 0.1747
896.40 0.1746
896.50 0.1746
896.60 0.1745
896.70 0.1745
896.80 0.1744
896.90 0.1743
897.00 0.1743
897.10 0.1742
897.20 0.1741
897.30 0.1741
897.40 0.174
897.50 0.1739
897.60 0.1739
897.70 0.1738
897.80 0.1737
897.90 0.1737
898.00 0.1736
898.10 0.1735
898.20 0.1734
898.30 0.1734
898.40 0.1733
898.50 0.1732
898.60 0.1732
898.70 0.1731
898.80 0.173
898.90 0.173
899.00 0.1729
899.10 0.1728
899.20 0.1728
899.30 0.1727
899.40 0.1726
899.50 0.1725
899.60 0.1725
899.70 0.1724
899.80 0.1723
899.90 0.1723
900.00 0.1722
900.10 0.1721
900.20 0.1721
900.30 0.172
900.40 0.1719
900.50 0.1719
900.60 0.1718
900.70 0.1717
900.80 0.1717
900.90 0.1716
901.00 0.1715
901.10 0.1714
901.20 0.1714
901.30 0.1713
901.40 0.1712
901.50 0.1712
901.60 0.1711
901.70 0.171
901.80 0.171
901.90 0.1709
902.00 0.1708
902.10 0.1708
902.20 0.1707
902.30 0.1707
902.40 0.1706
902.50 0.1706
902.60 0.1705
902.70 0.1705
902.80 0.1704
902.90 0.1704
903.00 0.1703
903.10 0.1703
903.20 0.1702
903.30 0.1702
903.40 0.1701
903.50 0.1701
903.60 0.17
903.70 0.17
903.80 0.1699
903.90 0.1699
904.00 0.1698
904.10 0.1698
904.20 0.1697
904.30 0.1697
904.40 0.1696
904.50 0.1696
904.60 0.1695
904.70 0.1695
904.80 0.1694
904.90 0.1694
905.00 0.1693
905.10 0.1693
905.20 0.1692
905.30 0.1692
905.40 0.1691
905.50 0.1691
905.60 0.169
905.70 0.169
905.80 0.1689
905.90 0.1689
906.00 0.1688
906.10 0.1688
906.20 0.1687
906.30 0.1687
906.40 0.1686
906.50 0.1686
906.60 0.1685
906.70 0.1685
906.80 0.1684
906.90 0.1684
907.00 0.1683
907.10 0.1683
907.20 0.1682
907.30 0.1682
907.40 0.1681
907.50 0.168
907.60 0.168
907.70 0.1679
907.80 0.1679
907.90 0.1678
908.00 0.1678
908.10 0.1677
908.20 0.1677
908.30 0.1676
908.40 0.1676
908.50 0.1675
908.60 0.1675
908.70 0.1674
908.80 0.1674
908.90 0.1673
909.00 0.1672
909.10 0.1672
909.20 0.1671
909.30 0.1671
909.40 0.167
909.50 0.167
909.60 0.1669
909.70 0.1669
909.80 0.1668
909.90 0.1668
910.00 0.1667
910.10 0.1667
910.20 0.1666
910.30 0.1665
910.40 0.1665
910.50 0.1664
910.60 0.1664
910.70 0.1663
910.80 0.1663
910.90 0.1662
911.00 0.1662
911.10 0.1661
911.20 0.1661
911.30 0.166
911.40 0.166
911.50 0.1659
911.60 0.1659
911.70 0.1658
911.80 0.1657
911.90 0.1657
912.00 0.1656
912.10 0.1656
912.20 0.1655
912.30 0.1655
912.40 0.1654
912.50 0.1654
912.60 0.1653
912.70 0.1652
912.80 0.1652
912.90 0.1651
913.00 0.1651
913.10 0.165
913.20 0.1649
913.30 0.1649
913.40 0.1648
913.50 0.1648
913.60 0.1647
913.70 0.1647
913.80 0.1646
913.90 0.1645
914.00 0.1645
914.10 0.1644
914.20 0.1644
914.30 0.1643
914.40 0.1642
914.50 0.1642
914.60 0.1641
914.70 0.1641
914.80 0.164
914.90 0.164
915.00 0.1639
915.10 0.1638
915.20 0.1638
915.30 0.1637
915.40 0.1637
915.50 0.1636
915.60 0.1636
915.70 0.1635
915.80 0.1634
915.90 0.1634
916.00 0.1633
916.10 0.1633
916.20 0.1632
916.30 0.1632
916.40 0.1631
916.50 0.163
916.60 0.163
916.70 0.1629
916.80 0.1629
916.90 0.1628
917.00 0.1628
917.10 0.1627
917.20 0.1626
917.30 0.1625
917.40 0.1625
917.50 0.1624
917.60 0.1623
917.70 0.1623
917.80 0.1622
917.90 0.1621
918.00 0.1621
918.10 0.162
918.20 0.1619
918.30 0.1619
918.40 0.1618
918.50 0.1617
918.60 0.1617
918.70 0.1616
918.80 0.1615
918.90 0.1615
919.00 0.1614
919.10 0.1613
919.20 0.1613
919.30 0.1612
919.40 0.1611
919.50 0.1611
919.60 0.161
919.70 0.1609
919.80 0.1609
919.90 0.1608
920.00 0.1608
920.10 0.1607
920.20 0.1606
920.30 0.1606
920.40 0.1605
920.50 0.1604
920.60 0.1604
920.70 0.1603
920.80 0.1602
920.90 0.1602
921.00 0.1601
921.10 0.16
921.20 0.16
921.30 0.1599
921.40 0.1598
921.50 0.1598
921.60 0.1597
921.70 0.1596
921.80 0.1596
921.90 0.1595
922.00 0.1594
922.10 0.1594
922.20 0.1593
922.30 0.1592
922.40 0.1592
922.50 0.1591
922.60 0.159
922.70 0.159
922.80 0.1589
922.90 0.1588
923.00 0.1588
923.10 0.1587
923.20 0.1586
923.30 0.1586
923.40 0.1585
923.50 0.1584
923.60 0.1584
923.70 0.1583
923.80 0.1583
923.90 0.1582
924.00 0.1581
924.10 0.1581
924.20 0.158
924.30 0.1579
924.40 0.1579
924.50 0.1578
924.60 0.1577
924.70 0.1577
924.80 0.1576
924.90 0.1575
925.00 0.1575
925.10 0.1574
925.20 0.1573
925.30 0.1573
925.40 0.1572
925.50 0.1571
925.60 0.1571
925.70 0.157
925.80 0.157
925.90 0.1569
926.00 0.1568
926.10 0.1568
926.20 0.1567
926.30 0.1566
926.40 0.1566
926.50 0.1565
926.60 0.1564
926.70 0.1564
926.80 0.1563
926.90 0.1562
927.00 0.1562
927.10 0.1561
927.20 0.1561
927.30 0.1561
927.40 0.1561
927.50 0.156
927.60 0.156
927.70 0.156
927.80 0.1559
927.90 0.1559
928.00 0.1559
928.10 0.1558
928.20 0.1558
928.30 0.1558
928.40 0.1557
928.50 0.1557
928.60 0.1557
928.70 0.1557
928.80 0.1556
928.90 0.1556
929.00 0.1556
929.10 0.1555
929.20 0.1555
929.30 0.1555
929.40 0.1554
929.50 0.1554
929.60 0.1554
929.70 0.1553
929.80 0.1553
929.90 0.1553
930.00 0.1553
930.10 0.1552
930.20 0.1552
930.30 0.1552
930.40 0.1551
930.50 0.1551
930.60 0.1551
930.70 0.155
930.80 0.155
930.90 0.155
931.00 0.1549
931.10 0.1549
931.20 0.1549
931.30 0.1549
931.40 0.1548
931.50 0.1548
931.60 0.1548
931.70 0.1547
931.80 0.1547
931.90 0.1547
932.00 0.1546
932.10 0.1546
932.20 0.1546
932.30 0.1545
932.40 0.1545
932.50 0.1544
932.60 0.1544
932.70 0.1544
932.80 0.1543
932.90 0.1543
933.00 0.1542
933.10 0.1542
933.20 0.1541
933.30 0.1541
933.40 0.1541
933.50 0.154
933.60 0.154
933.70 0.1539
933.80 0.1539
933.90 0.1539
934.00 0.1538
934.10 0.1538
934.20 0.1537
934.30 0.1537
934.40 0.1537
934.50 0.1536
934.60 0.1536
934.70 0.1535
934.80 0.1535
934.90 0.1534
935.00 0.1534
935.10 0.1533
935.20 0.1533
935.30 0.1532
935.40 0.1532
935.50 0.1532
935.60 0.1531
935.70 0.1531
935.80 0.153
935.90 0.153
936.00 0.1529
936.10 0.1529
936.20 0.1528
936.30 0.1528
936.40 0.1527
936.50 0.1527
936.60 0.1527
936.70 0.1526
936.80 0.1526
936.90 0.1525
937.00 0.1525
937.10 0.1524
937.20 0.1524
937.30 0.1523
937.40 0.1523
937.50 0.1522
937.60 0.1522
937.70 0.1521
937.80 0.1521
937.90 0.152
938.00 0.152
938.10 0.1519
938.20 0.1519
938.30 0.1519
938.40 0.1518
938.50 0.1518
938.60 0.1517
938.70 0.1517
938.80 0.1516
938.90 0.1516
939.00 0.1515
939.10 0.1515
939.20 0.1514
939.30 0.1514
939.40 0.1513
939.50 0.1513
939.60 0.1512
939.70 0.1512
939.80 0.1511
939.90 0.1511
940.00 0.151
940.10 0.151
940.20 0.1509
940.30 0.1509
940.40 0.1508
940.50 0.1507
940.60 0.1507
940.70 0.1506
940.80 0.1506
940.90 0.1505
941.00 0.1505
941.10 0.1504
941.20 0.1504
941.30 0.1503
941.40 0.1503
941.50 0.1502
941.60 0.1502
941.70 0.1501
941.80 0.1501
941.90 0.15
942.00 0.15
942.10 0.1499
942.20 0.1498
942.30 0.1498
942.40 0.1497
942.50 0.1497
942.60 0.1496
942.70 0.1496
942.80 0.1495
942.90 0.1494
943.00 0.1494
943.10 0.1493
943.20 0.1493
943.30 0.1492
943.40 0.1491
943.50 0.1491
943.60 0.149
943.70 0.149
943.80 0.1489
943.90 0.1489
944.00 0.1488
944.10 0.1487
944.20 0.1487
944.30 0.1486
944.40 0.1486
944.50 0.1485
944.60 0.1484
944.70 0.1484
944.80 0.1483
944.90 0.1482
945.00 0.1482
945.10 0.1481
945.20 0.148
945.30 0.148
945.40 0.1479
945.50 0.1478
945.60 0.1478
945.70 0.1477
945.80 0.1476
945.90 0.1475
946.00 0.1475
946.10 0.1474
946.20 0.1473
946.30 0.1472
946.40 0.1472
946.50 0.1471
946.60 0.147
946.70 0.147
946.80 0.1469
946.90 0.1468
947.00 0.1467
947.10 0.1467
947.20 0.1466
947.30 0.1465
947.40 0.1464
947.50 0.1463
947.60 0.1462
947.70 0.1462
947.80 0.1461
947.90 0.146
948.00 0.1459
948.10 0.1458
948.20 0.1457
948.30 0.1456
948.40 0.1455
948.50 0.1454
948.60 0.1454
948.70 0.1453
948.80 0.1452
948.90 0.1451
949.00 0.145
949.10 0.1449
949.20 0.1448
949.30 0.1447
949.40 0.1446
949.50 0.1445
949.60 0.1444
949.70 0.1443
949.80 0.1442
949.90 0.1441
950.00 0.1441
950.10 0.144
950.20 0.1439
950.30 0.1438
950.40 0.1437
950.50 0.1436
950.60 0.1435
950.70 0.1434
950.80 0.1433
950.90 0.1432
951.00 0.1431
951.10 0.143
951.20 0.1429
951.30 0.1428
951.40 0.1427
951.50 0.1426
951.60 0.1425
951.70 0.1424
951.80 0.1423
951.90 0.1423
952.00 0.1422
952.10 0.1421
952.20 0.142
952.30 0.142
952.40 0.1419
952.50 0.1418
952.60 0.1418
952.70 0.1417
952.80 0.1416
952.90 0.1416
953.00 0.1415
953.10 0.1415
953.20 0.1415
953.30 0.1414
953.40 0.1414
953.50 0.1414
953.60 0.1415
953.70 0.1416
953.80 0.1417
953.90 0.1418
954.00 0.142
954.10 0.1421
954.20 0.1422
954.30 0.1409
954.40 0.1396
954.50 0.1394
954.60 0.1392
954.70 0.139
954.80 0.1388
954.90 0.1386
955.00 0.1384
955.10 0.1382
955.20 0.1381
955.30 0.1379
955.40 0.1377
955.50 0.1375
955.60 0.1374
955.70 0.1372
955.80 0.137
955.90 0.137
956.00 0.1369
956.10 0.1369
956.20 0.1368
956.30 0.1367
956.40 0.1367
956.50 0.1366
956.60 0.1365
956.70 0.1365
956.80 0.1364
956.90 0.1364
957.00 0.1363
957.10 0.1363
957.20 0.1363
957.30 0.1363
957.40 0.1363
957.50 0.1363
957.60 0.1363
957.70 0.1363
957.80 0.1363
957.90 0.1363
958.00 0.1363
958.10 0.1363
958.20 0.1363
958.30 0.1363
958.40 0.1363
958.50 0.1363
958.60 0.1363
958.70 0.1363
958.80 0.1363
958.90 0.1363
959.00 0.1363
959.10 0.1363
959.20 0.1363
959.30 0.1363
959.40 0.1363
959.50 0.1363
959.60 0.1363
959.70 0.1363
959.80 0.1363
959.90 0.1363
960.00 0.1364
960.10 0.1364
960.20 0.1364
960.30 0.1364
960.40 0.1364
960.50 0.1364
960.60 0.1364
960.70 0.1364
960.80 0.1364
960.90 0.1364
961.00 0.1365
961.10 0.1365
961.20 0.1365
961.30 0.1365
961.40 0.1365
961.50 0.1365
961.60 0.1365
961.70 0.1365
961.80 0.1365
961.90 0.1365
962.00 0.1365
962.10 0.1365
962.20 0.1365
962.30 0.1365
962.40 0.1365
962.50 0.1365
962.60 0.1365
962.70 0.1365
962.80 0.1366
962.90 0.1366
963.00 0.1366
963.10 0.1366
963.20 0.1366
963.30 0.1366
963.40 0.1366
963.50 0.1366
963.60 0.1366
963.70 0.1366
963.80 0.1366
963.90 0.1366
964.00 0.1366
964.10 0.1366
964.20 0.1365
964.30 0.1365
964.40 0.1365
964.50 0.1365
964.60 0.1365
964.70 0.1365
964.80 0.1365
964.90 0.1365
965.00 0.1365
965.10 0.1365
965.20 0.1365
965.30 0.1365
965.40 0.1364
965.50 0.1364
965.60 0.1364
965.70 0.1364
965.80 0.1364
965.90 0.1364
966.00 0.1364
966.10 0.1364
966.20 0.1364
966.30 0.1364
966.40 0.1364
966.50 0.1363
966.60 0.1363
966.70 0.1363
966.80 0.1363
966.90 0.1363
967.00 0.1363
967.10 0.1362
967.20 0.1362
967.30 0.1362
967.40 0.1362
967.50 0.1362
967.60 0.1362
967.70 0.1361
967.80 0.1361
967.90 0.1361
968.00 0.1361
968.10 0.1361
968.20 0.136
968.30 0.136
968.40 0.136
968.50 0.136
968.60 0.1359
968.70 0.1359
968.80 0.1359
968.90 0.1359
969.00 0.1359
969.10 0.1358
969.20 0.1358
969.30 0.1358
969.40 0.1358
969.50 0.1357
969.60 0.1357
969.70 0.1357
969.80 0.1357
969.90 0.1356
970.00 0.1356
970.10 0.1356
970.20 0.1356
970.30 0.1355
970.40 0.1355
970.50 0.1355
970.60 0.1355
970.70 0.1354
970.80 0.1354
970.90 0.1354
971.00 0.1353
971.10 0.1353
971.20 0.1353
971.30 0.1352
971.40 0.1352
971.50 0.1352
971.60 0.1352
971.70 0.1351
971.80 0.1351
971.90 0.1351
972.00 0.135
972.10 0.135
972.20 0.135
972.30 0.1349
972.40 0.1349
972.50 0.1349
972.60 0.1348
972.70 0.1348
972.80 0.1348
972.90 0.1347
973.00 0.1347
973.10 0.1347
973.20 0.1346
973.30 0.1346
973.40 0.1346
973.50 0.1345
973.60 0.1345
973.70 0.1345
973.80 0.1344
973.90 0.1344
974.00 0.1344
974.10 0.1343
974.20 0.1343
974.30 0.1343
974.40 0.1342
974.50 0.1342
974.60 0.1341
974.70 0.1341
974.80 0.1341
974.90 0.134
975.00 0.134
975.10 0.1339
975.20 0.1339
975.30 0.1339
975.40 0.1338
975.50 0.1338
975.60 0.1338
975.70 0.1337
975.80 0.1337
975.90 0.1336
976.00 0.1336
976.10 0.1336
976.20 0.1335
976.30 0.1335
976.40 0.1334
976.50 0.1334
976.60 0.1334
976.70 0.1333
976.80 0.1333
976.90 0.1333
977.00 0.1332
977.10 0.1332
977.20 0.1331
977.30 0.1331
977.40 0.133
977.50 0.133
977.60 0.1329
977.70 0.1329
977.80 0.1328
977.90 0.1328
978.00 0.1328
978.10 0.1327
978.20 0.1327
978.30 0.1326
978.40 0.1326
978.50 0.1325
978.60 0.1325
978.70 0.1324
978.80 0.1324
978.90 0.1323
979.00 0.1323
979.10 0.1323
979.20 0.1322
979.30 0.1322
979.40 0.1321
979.50 0.1321
979.60 0.132
979.70 0.132
979.80 0.1319
979.90 0.1319
980.00 0.1318
980.10 0.1318
980.20 0.1318
980.30 0.1317
980.40 0.1317
980.50 0.1316
980.60 0.1316
980.70 0.1315
980.80 0.1315
980.90 0.1314
981.00 0.1314
981.10 0.1313
981.20 0.1313
981.30 0.1313
981.40 0.1312
981.50 0.1312
981.60 0.1311
981.70 0.1311
981.80 0.131
981.90 0.131
982.00 0.1309
982.10 0.1309
982.20 0.1308
982.30 0.1308
982.40 0.1307
982.50 0.1307
982.60 0.1306
982.70 0.1306
982.80 0.1305
982.90 0.1305
983.00 0.1304
983.10 0.1304
983.20 0.1303
983.30 0.1302
983.40 0.1302
983.50 0.1301
983.60 0.1301
983.70 0.13
983.80 0.13
983.90 0.1299
984.00 0.1299
984.10 0.1298
984.20 0.1298
984.30 0.1297
984.40 0.1297
984.50 0.1296
984.60 0.1296
984.70 0.1295
984.80 0.1294
984.90 0.1294
985.00 0.1293
985.10 0.1292
985.20 0.1292
985.30 0.1291
985.40 0.1291
985.50 0.129
985.60 0.1289
985.70 0.1289
985.80 0.1288
985.90 0.1288
986.00 0.1287
986.10 0.1286
986.20 0.1286
986.30 0.1285
986.40 0.1285
986.50 0.1284
986.60 0.1283
986.70 0.1283
986.80 0.1282
986.90 0.1281
987.00 0.1281
987.10 0.128
987.20 0.1279
987.30 0.1279
987.40 0.1278
987.50 0.1277
987.60 0.1277
987.70 0.1276
987.80 0.1275
987.90 0.1275
988.00 0.1274
988.10 0.1273
988.20 0.1273
988.30 0.1272
988.40 0.1271
988.50 0.127
988.60 0.127
988.70 0.1269
988.80 0.1268
988.90 0.1267
989.00 0.1267
989.10 0.1266
989.20 0.1265
989.30 0.1264
989.40 0.1263
989.50 0.1263
989.60 0.1262
989.70 0.1261
989.80 0.126
989.90 0.1259
990.00 0.1259
990.10 0.1258
990.20 0.1257
990.30 0.1256
990.40 0.1255
990.50 0.1255
990.60 0.1254
990.70 0.1253
990.80 0.1252
990.90 0.1251
991.00 0.125
991.10 0.1249
991.20 0.1248
991.30 0.1248
991.40 0.1247
991.50 0.1246
991.60 0.1245
991.70 0.1244
991.80 0.1243
991.90 0.1242
992.00 0.1241
992.10 0.124
992.20 0.1239
992.30 0.1238
992.40 0.1237
992.50 0.1236
992.60 0.1235
992.70 0.1234
992.80 0.1233
992.90 0.1232
993.00 0.1231
993.10 0.123
993.20 0.1229
993.30 0.1227
993.40 0.1226
993.50 0.1225
993.60 0.1224
993.70 0.1223
993.80 0.1222
993.90 0.1221
994.00 0.122
994.10 0.1219
994.20 0.1217
994.30 0.1216
994.40 0.1215
994.50 0.1214
994.60 0.1213
994.70 0.1212
994.80 0.1211
994.90 0.1209
995.00 0.1208
995.10 0.1207
995.20 0.1206
995.30 0.1204
995.40 0.1203
995.50 0.1202
995.60 0.1201
995.70 0.1199
995.80 0.1198
995.90 0.1196
996.00 0.1195
996.10 0.1194
996.20 0.1192
996.30 0.1191
996.40 0.119
996.50 0.1188
996.60 0.1187
996.70 0.1186
996.80 0.1184
996.90 0.1183
997.00 0.1182
997.10 0.118
997.20 0.1179
997.30 0.1177
997.40 0.1176
997.50 0.1174
997.60 0.1173
997.70 0.1171
997.80 0.117
997.90 0.1168
998.00 0.1167
998.10 0.1165
998.20 0.1164
998.30 0.1162
998.40 0.1161
998.50 0.1159
998.60 0.1158
998.70 0.1156
998.80 0.1155
998.90 0.1153
999.00 0.1152
999.10 0.115
999.20 0.1149
999.30 0.1148
999.40 0.1146
999.50 0.1145
999.60 0.1143
999.70 0.1142
999.80 0.114
999.90 0.1139
1000.00 0.1138
1000.10 0.1136
1000.20 0.1135
1000.30 0.1134
1000.40 0.1132
1000.50 0.1131
1000.60 0.113
1000.70 0.1128
1000.80 0.1127
1000.90 0.1126
1001.00 0.1124
1001.10 0.1123
1001.20 0.1121
1001.30 0.112
1001.40 0.1119
1001.50 0.1117
1001.60 0.1116
1001.70 0.1115
1001.80 0.1114
1001.90 0.1113
1002.00 0.1112
1002.10 0.1112
1002.20 0.1112
1002.30 0.1111
1002.40 0.1111
1002.50 0.1111
1002.60 0.1111
1002.70 0.1111
1002.80 0.111
1002.90 0.111
1003.00 0.111
1003.10 0.111
1003.20 0.1111
1003.30 0.1112
1003.40 0.1113
1003.50 0.1114
1003.60 0.1115
1003.70 0.1116
1003.80 0.1117
1003.90 0.1119
1004.00 0.1121
1004.10 0.1124
1004.20 0.1126
1004.30 0.1128
1004.40 0.1131
1004.50 0.1133
1004.60 0.1135
1004.70 0.1102
1004.80 0.11
1004.90 0.1097
1005.00 0.1094
1005.10 0.1091
1005.20 0.1089
1005.30 0.1086
1005.40 0.1083
1005.50 0.1082
1005.60 0.108
1005.70 0.1078
1005.80 0.1077
1005.90 0.1075
1006.00 0.1074
1006.10 0.1072
1006.20 0.1071
1006.30 0.1071
1006.40 0.107
1006.50 0.107
1006.60 0.1069
1006.70 0.1068
1006.80 0.1068
1006.90 0.1067
1007.00 0.1067
1007.10 0.1066
1007.20 0.1066
1007.30 0.1065
1007.40 0.1065
1007.50 0.1064
1007.60 0.1064
1007.70 0.1064
1007.80 0.1064
1007.90 0.1064
1008.00 0.1064
1008.10 0.1064
1008.20 0.1065
1008.30 0.1065
1008.40 0.1065
1008.50 0.1065
1008.60 0.1065
1008.70 0.1066
1008.80 0.1066
1008.90 0.1066
1009.00 0.1066
1009.10 0.1066
1009.20 0.1066
1009.30 0.1067
1009.40 0.1067
1009.50 0.1067
1009.60 0.1067
1009.70 0.1068
1009.80 0.1068
1009.90 0.1069
1010.00 0.1069
1010.10 0.107
1010.20 0.107
1010.30 0.107
1010.40 0.1071
1010.50 0.1071
1010.60 0.1072
1010.70 0.1072
1010.80 0.1073
1010.90 0.1073
1011.00 0.1074
1011.10 0.1074
1011.20 0.1075
1011.30 0.1075
1011.40 0.1076
1011.50 0.1076
1011.60 0.1077
1011.70 0.1077
1011.80 0.1078
1011.90 0.1078
1012.00 0.1079
1012.10 0.1079
1012.20 0.108
1012.30 0.108
1012.40 0.108
1012.50 0.1081
1012.60 0.1081
1012.70 0.1082
1012.80 0.1082
1012.90 0.1083
1013.00 0.1083
1013.10 0.1083
1013.20 0.1084
1013.30 0.1084
1013.40 0.1085
1013.50 0.1085
1013.60 0.1086
1013.70 0.1086
1013.80 0.1086
1013.90 0.1087
1014.00 0.1087
1014.10 0.1087
1014.20 0.1088
1014.30 0.1088
1014.40 0.1089
1014.50 0.1089
1014.60 0.1089
1014.70 0.109
1014.80 0.109
1014.90 0.109
1015.00 0.109
1015.10 0.1091
1015.20 0.1091
1015.30 0.1091
1015.40 0.1092
1015.50 0.1092
1015.60 0.1092
1015.70 0.1092
1015.80 0.1093
1015.90 0.1093
1016.00 0.1093
1016.10 0.1094
1016.20 0.1094
1016.30 0.1094
1016.40 0.1094
1016.50 0.1095
1016.60 0.1095
1016.70 0.1095
1016.80 0.1095
1016.90 0.1096
1017.00 0.1096
1017.10 0.1096
1017.20 0.1096
1017.30 0.1096
1017.40 0.1097
1017.50 0.1097
1017.60 0.1097
1017.70 0.1097
1017.80 0.1097
1017.90 0.1097
1018.00 0.1098
1018.10 0.1098
1018.20 0.1098
1018.30 0.1098
1018.40 0.1098
1018.50 0.1098
1018.60 0.1099
1018.70 0.1099
1018.80 0.1099
1018.90 0.1099
1019.00 0.1099
1019.10 0.1099
1019.20 0.1099
1019.30 0.1099
1019.40 0.1099
1019.50 0.11
1019.60 0.11
1019.70 0.11
1019.80 0.11
1019.90 0.11
1020.00 0.11
1020.10 0.11
1020.20 0.11
1020.30 0.11
1020.40 0.11
1020.50 0.1101
1020.60 0.1101
1020.70 0.1101
1020.80 0.1101
1020.90 0.1101
1021.00 0.1101
1021.10 0.1101
1021.20 0.1101
1021.30 0.1101
1021.40 0.1101
1021.50 0.1101
1021.60 0.1101
1021.70 0.1101
1021.80 0.1101
1021.90 0.1101
1022.00 0.1101
1022.10 0.1101
1022.20 0.1101
1022.30 0.1101
1022.40 0.1101
1022.50 0.1101
1022.60 0.1101
1022.70 0.1101
1022.80 0.1101
1022.90 0.1101
1023.00 0.1101
1023.10 0.1101
1023.20 0.1101
1023.30 0.1101
1023.40 0.1101
1023.50 0.1101
1023.60 0.1101
1023.70 0.1101
1023.80 0.1101
1023.90 0.1101
1024.00 0.1101
1024.10 0.1101
1024.20 0.1101
1024.30 0.1101
1024.40 0.1101
1024.50 0.1101
1024.60 0.1101
1024.70 0.11
1024.80 0.11
1024.90 0.11
1025.00 0.11
1025.10 0.11
1025.20 0.11
1025.30 0.11
1025.40 0.11
1025.50 0.11
1025.60 0.11
1025.70 0.11
1025.80 0.11
1025.90 0.1099
1026.00 0.1099
1026.10 0.1099
1026.20 0.1099
1026.30 0.1099
1026.40 0.1099
1026.50 0.1099
1026.60 0.1099
1026.70 0.1099
1026.80 0.1099
1026.90 0.1099
1027.00 0.1098
1027.10 0.1098
1027.20 0.1098
1027.30 0.1098
1027.40 0.1098
1027.50 0.1098
1027.60 0.1098
1027.70 0.1097
1027.80 0.1097
1027.90 0.1097
1028.00 0.1097
1028.10 0.1097
1028.20 0.1097
1028.30 0.1096
1028.40 0.1096
1028.50 0.1096
1028.60 0.1096
1028.70 0.1096
1028.80 0.1096
1028.90 0.1095
1029.00 0.1095
1029.10 0.1095
1029.20 0.1095
1029.30 0.1095
1029.40 0.1095
1029.50 0.1094
1029.60 0.1094
1029.70 0.1094
1029.80 0.1094
1029.90 0.1094
1030.00 0.1094
1030.10 0.1094
1030.20 0.1093
1030.30 0.1093
1030.40 0.1093
1030.50 0.1093
1030.60 0.1093
1030.70 0.1093
1030.80 0.1092
1030.90 0.1092
1031.00 0.1092
1031.10 0.1092
1031.20 0.1092
1031.30 0.1092
1031.40 0.1091
1031.50 0.1091
1031.60 0.1091
1031.70 0.1091
1031.80 0.1091
1031.90 0.1091
1032.00 0.1091
1032.10 0.109
1032.20 0.109
1032.30 0.109
1032.40 0.109
1032.50 0.1089
1032.60 0.1089
1032.70 0.1089
1032.80 0.1089
1032.90 0.1088
1033.00 0.1088
1033.10 0.1088
1033.20 0.1088
1033.30 0.1088
1033.40 0.1087
1033.50 0.1087
1033.60 0.1087
1033.70 0.1087
1033.80 0.1086
1033.90 0.1086
1034.00 0.1086
1034.10 0.1086
1034.20 0.1085
1034.30 0.1085
1034.40 0.1085
1034.50 0.1085
1034.60 0.1084
1034.70 0.1084
1034.80 0.1084
1034.90 0.1084
1035.00 0.1084
1035.10 0.1083
1035.20 0.1083
1035.30 0.1083
1035.40 0.1083
1035.50 0.1082
1035.60 0.1082
1035.70 0.1082
1035.80 0.1082
1035.90 0.1081
1036.00 0.1081
1036.10 0.1081
1036.20 0.1081
1036.30 0.1081
1036.40 0.108
1036.50 0.108
1036.60 0.108
1036.70 0.108
1036.80 0.1079
1036.90 0.1079
1037.00 0.1079
1037.10 0.1079
1037.20 0.1078
1037.30 0.1078
1037.40 0.1078
1037.50 0.1078
1037.60 0.1077
1037.70 0.1077
1037.80 0.1077
1037.90 0.1076
1038.00 0.1076
1038.10 0.1076
1038.20 0.1076
1038.30 0.1075
1038.40 0.1075
1038.50 0.1075
1038.60 0.1074
1038.70 0.1074
1038.80 0.1074
1038.90 0.1074
1039.00 0.1073
1039.10 0.1073
1039.20 0.1073
1039.30 0.1072
1039.40 0.1072
1039.50 0.1072
1039.60 0.1072
1039.70 0.1071
1039.80 0.1071
1039.90 0.1071
1040.00 0.107
1040.10 0.107
1040.20 0.107
1040.30 0.107
1040.40 0.1069
1040.50 0.1069
1040.60 0.1069
1040.70 0.1068
1040.80 0.1068
1040.90 0.1068
1041.00 0.1068
1041.10 0.1067
1041.20 0.1067
1041.30 0.1067
1041.40 0.1066
1041.50 0.1066
1041.60 0.1066
1041.70 0.1066
1041.80 0.1065
1041.90 0.1065
1042.00 0.1065
1042.10 0.1064
1042.20 0.1064
1042.30 0.1064
1042.40 0.1063
1042.50 0.1063
1042.60 0.1063
1042.70 0.1062
1042.80 0.1062
1042.90 0.1062
1043.00 0.1061
1043.10 0.1061
1043.20 0.1061
1043.30 0.106
1043.40 0.106
1043.50 0.106
1043.60 0.1059
1043.70 0.1059
1043.80 0.1059
1043.90 0.1059
1044.00 0.1058
1044.10 0.1058
1044.20 0.1058
1044.30 0.1057
1044.40 0.1057
1044.50 0.1057
1044.60 0.1056
1044.70 0.1056
1044.80 0.1056
1044.90 0.1055
1045.00 0.1055
1045.10 0.1055
1045.20 0.1054
1045.30 0.1054
1045.40 0.1054
1045.50 0.1053
1045.60 0.1053
1045.70 0.1053
1045.80 0.1052
1045.90 0.1052
1046.00 0.1052
1046.10 0.1051
1046.20 0.1051
1046.30 0.1051
1046.40 0.105
1046.50 0.105
1046.60 0.105
1046.70 0.1049
1046.80 0.1049
1046.90 0.1049
1047.00 0.1048
1047.10 0.1048
1047.20 0.1048
1047.30 0.1047
1047.40 0.1047
1047.50 0.1047
1047.60 0.1046
1047.70 0.1046
1047.80 0.1045
1047.90 0.1045
1048.00 0.1045
1048.10 0.1044
1048.20 0.1044
1048.30 0.1044
1048.40 0.1043
1048.50 0.1043
1048.60 0.1042
1048.70 0.1042
1048.80 0.1042
1048.90 0.1041
1049.00 0.1041
1049.10 0.1041
1049.20 0.104
1049.30 0.104
1049.40 0.104
1049.50 0.1039
1049.60 0.1039
1049.70 0.1038
1049.80 0.1038
1049.90 0.1038
1050.00 0.1037
1050.10 0.1037
1050.20 0.1037
1050.30 0.1036
1050.40 0.1036
1050.50 0.1036
1050.60 0.1035
1050.70 0.1035
1050.80 0.1034
1050.90 0.1034
1051.00 0.1034
1051.10 0.1033
1051.20 0.1033
1051.30 0.1033
1051.40 0.1032
1051.50 0.1032
1051.60 0.1031
1051.70 0.1031
1051.80 0.1031
1051.90 0.103
1052.00 0.103
1052.10 0.103
1052.20 0.1029
1052.30 0.1029
1052.40 0.1028
1052.50 0.1028
1052.60 0.1028
1052.70 0.1027
1052.80 0.1027
1052.90 0.1026
1053.00 0.1026
1053.10 0.1026
1053.20 0.1025
1053.30 0.1025
1053.40 0.1024
1053.50 0.1024
1053.60 0.1023
1053.70 0.1023
1053.80 0.1023
1053.90 0.1022
1054.00 0.1022
1054.10 0.1021
1054.20 0.1021
1054.30 0.1021
1054.40 0.102
1054.50 0.102
1054.60 0.1019
1054.70 0.1019
1054.80 0.1019
1054.90 0.1018
1055.00 0.1018
1055.10 0.1017
1055.20 0.1017
1055.30 0.1017
1055.40 0.1016
1055.50 0.1016
1055.60 0.1015
1055.70 0.1015
1055.80 0.1015
1055.90 0.1014
1056.00 0.1014
1056.10 0.1013
1056.20 0.1013
1056.30 0.1013
1056.40 0.1012
1056.50 0.1012
1056.60 0.1011
1056.70 0.1011
1056.80 0.1011
1056.90 0.101
1057.00 0.101
1057.10 0.1009
1057.20 0.1009
1057.30 0.1008
1057.40 0.1008
1057.50 0.1007
1057.60 0.1007
1057.70 0.1006
1057.80 0.1006
1057.90 0.1006
1058.00 0.1005
1058.10 0.1005
1058.20 0.1004
1058.30 0.1004
1058.40 0.1003
1058.50 0.1003
1058.60 0.1002
1058.70 0.1002
1058.80 0.1001
1058.90 0.1001
1059.00 0.1001
1059.10 0.1
1059.20 0.09996
1059.30 0.09992
1059.40 0.09987
1059.50 0.09983
1059.60 0.09978
1059.70 0.09974
1059.80 0.09969
1059.90 0.09964
1060.00 0.0996
1060.10 0.09955
1060.20 0.09951
1060.30 0.09946
1060.40 0.09942
1060.50 0.09937
1060.60 0.09933
1060.70 0.09928
1060.80 0.09923
1060.90 0.09919
1061.00 0.09914
1061.10 0.0991
1061.20 0.09905
1061.30 0.09901
1061.40 0.09896
1061.50 0.09892
1061.60 0.09887
1061.70 0.09883
1061.80 0.09878
1061.90 0.09874
1062.00 0.09869
1062.10 0.09864
1062.20 0.09859
1062.30 0.09853
1062.40 0.09848
1062.50 0.09843
1062.60 0.09838
1062.70 0.09833
1062.80 0.09827
1062.90 0.09822
1063.00 0.09817
1063.10 0.09812
1063.20 0.09807
1063.30 0.09801
1063.40 0.09796
1063.50 0.09791
1063.60 0.09786
1063.70 0.09781
1063.80 0.09775
1063.90 0.0977
1064.00 0.09765
1064.10 0.0976
1064.20 0.09755
1064.30 0.09749
1064.40 0.09744
1064.50 0.09739
1064.60 0.09734
1064.70 0.09729
1064.80 0.09723
1064.90 0.09718
1065.00 0.09713
1065.10 0.09708
1065.20 0.09703
1065.30 0.09698
1065.40 0.09692
1065.50 0.09687
1065.60 0.09682
1065.70 0.09677
1065.80 0.09672
1065.90 0.09667
1066.00 0.09661
1066.10 0.09656
1066.20 0.09651
1066.30 0.09646
1066.40 0.09641
1066.50 0.09636
1066.60 0.09631
1066.70 0.09625
1066.80 0.0962
1066.90 0.09615
1067.00 0.0961
1067.10 0.09604
1067.20 0.09598
1067.30 0.09592
1067.40 0.09586
1067.50 0.0958
1067.60 0.09574
1067.70 0.09568
1067.80 0.09561
1067.90 0.09555
1068.00 0.09549
1068.10 0.09543
1068.20 0.09537
1068.30 0.09531
1068.40 0.09525
1068.50 0.09519
1068.60 0.09513
1068.70 0.09507
1068.80 0.09501
1068.90 0.09495
1069.00 0.09489
1069.10 0.09483
1069.20 0.09477
1069.30 0.09471
1069.40 0.09465
1069.50 0.09459
1069.60 0.09453
1069.70 0.09447
1069.80 0.09441
1069.90 0.09435
1070.00 0.09429
1070.10 0.09423
1070.20 0.09417
1070.30 0.0941
1070.40 0.09404
1070.50 0.09398
1070.60 0.09392
1070.70 0.09386
1070.80 0.0938
1070.90 0.09374
1071.00 0.09368
1071.10 0.09362
1071.20 0.09356
1071.30 0.0935
1071.40 0.09344
1071.50 0.09339
1071.60 0.09333
1071.70 0.09327
1071.80 0.09321
1071.90 0.09315
1072.00 0.09309
1072.10 0.09302
1072.20 0.09295
1072.30 0.09288
1072.40 0.09282
1072.50 0.09275
1072.60 0.09268
1072.70 0.09261
1072.80 0.09255
1072.90 0.09248
1073.00 0.09241
1073.10 0.09234
1073.20 0.09228
1073.30 0.09221
1073.40 0.09214
1073.50 0.09207
1073.60 0.092
1073.70 0.09192
1073.80 0.09185
1073.90 0.09177
1074.00 0.0917
1074.10 0.09162
1074.20 0.09155
1074.30 0.09147
1074.40 0.0914
1074.50 0.09133
1074.60 0.09125
1074.70 0.09118
1074.80 0.0911
1074.90 0.09103
1075.00 0.09095
1075.10 0.09088
1075.20 0.0908
1075.30 0.09073
1075.40 0.09065
1075.50 0.09058
1075.60 0.09051
1075.70 0.09043
1075.80 0.09036
1075.90 0.09028
1076.00 0.09021
1076.10 0.09013
1076.20 0.09006
1076.30 0.08999
1076.40 0.08991
1076.50 0.08984
1076.60 0.08976
1076.70 0.08969
1076.80 0.08962
1076.90 0.08954
1077.00 0.08947
1077.10 0.08939
1077.20 0.08931
1077.30 0.08922
1077.40 0.08914
1077.50 0.08906
1077.60 0.08897
1077.70 0.08889
1077.80 0.0888
1077.90 0.08872
1078.00 0.08863
1078.10 0.08854
1078.20 0.08846
1078.30 0.08837
1078.40 0.08829
1078.50 0.0882
1078.60 0.08812
1078.70 0.08803
1078.80 0.08794
1078.90 0.08786
1079.00 0.08777
1079.10 0.08769
1079.20 0.0876
1079.30 0.08752
1079.40 0.08743
1079.50 0.08734
1079.60 0.08725
1079.70 0.08715
1079.80 0.08706
1079.90 0.08696
1080.00 0.08687
1080.10 0.08677
1080.20 0.08668
1080.30 0.08658
1080.40 0.08649
1080.50 0.08639
1080.60 0.0863
1080.70 0.0862
1080.80 0.08611
1080.90 0.08602
1081.00 0.08592
1081.10 0.08583
1081.20 0.08573
1081.30 0.08564
1081.40 0.08554
1081.50 0.08545
1081.60 0.08535
1081.70 0.08524
1081.80 0.08514
1081.90 0.08504
1082.00 0.08494
1082.10 0.08483
1082.20 0.08473
1082.30 0.08462
1082.40 0.08451
1082.50 0.08441
1082.60 0.0843
1082.70 0.08419
1082.80 0.08408
1082.90 0.08398
1083.00 0.08387
1083.10 0.08376
1083.20 0.08366
1083.30 0.08355
1083.40 0.08344
1083.50 0.08333
1083.60 0.08322
1083.70 0.0831
1083.80 0.08299
1083.90 0.08288
1084.00 0.08276
1084.10 0.08265
1084.20 0.08253
1084.30 0.08242
1084.40 0.08231
1084.50 0.08219
1084.60 0.08206
1084.70 0.08194
1084.80 0.08182
1084.90 0.08169
1085.00 0.08157
1085.10 0.08145
1085.20 0.08132
1085.30 0.0812
1085.40 0.08107
1085.50 0.08095
1085.60 0.08083
1085.70 0.0807
1085.80 0.08058
1085.90 0.08046
1086.00 0.08033
1086.10 0.08021
1086.20 0.08009
1086.30 0.07996
1086.40 0.07984
1086.50 0.07972
1086.60 0.07958
1086.70 0.07945
1086.80 0.07932
1086.90 0.07919
1087.00 0.07906
1087.10 0.07893
1087.20 0.07879
1087.30 0.07866
1087.40 0.07853
1087.50 0.0784
1087.60 0.07826
1087.70 0.07813
1087.80 0.078
1087.90 0.07786
1088.00 0.07773
1088.10 0.0776
1088.20 0.07747
1088.30 0.07733
1088.40 0.0772
1088.50 0.07707
1088.60 0.07694
1088.70 0.07682
1088.80 0.07669
1088.90 0.07656
1089.00 0.07644
1089.10 0.07631
1089.20 0.07618
1089.30 0.07606
1089.40 0.07593
1089.50 0.0758
1089.60 0.07568
1089.70 0.07555
1089.80 0.07543
1089.90 0.0753
1090.00 0.07517
1090.10 0.07505
1090.20 0.07492
1090.30 0.07479
1090.40 0.07467
1090.50 0.07456
1090.60 0.07449
1090.70 0.07441
1090.80 0.07434
1090.90 0.07427
1091.00 0.0742
1091.10 0.07413
1091.20 0.07405
1091.30 0.07398
1091.40 0.07391
1091.50 0.07384
1091.60 0.07377
1091.70 0.07369
1091.80 0.07362
1091.90 0.07355
1092.00 0.07348
1092.10 0.07352
1092.20 0.07356
1092.30 0.07359
1092.40 0.07363
1092.50 0.07367
1092.60 0.07371
1092.70 0.0738
1092.80 0.07399
1092.90 0.07419
1093.00 0.07439
1093.10 0.07458
1093.20 0.07478
1093.30 0.07498
1093.40 0.07516
1093.50 0.07523
1093.60 0.07501
1093.70 0.07477
1093.80 0.07453
1093.90 0.07429
1094.00 0.07405
1094.10 0.07381
1094.20 0.07357
1094.30 0.07338
1094.40 0.0733
1094.50 0.07323
1094.60 0.07315
1094.70 0.07307
1094.80 0.073
1094.90 0.07292
1095.00 0.07288
1095.10 0.07291
1095.20 0.07293
1095.30 0.07296
1095.40 0.07299
1095.50 0.07302
1095.60 0.07304
1095.70 0.07307
1095.80 0.0731
1095.90 0.07313
1096.00 0.07315
1096.10 0.07318
1096.20 0.07321
1096.30 0.07323
1096.40 0.07326
1096.50 0.0733
1096.60 0.07338
1096.70 0.07346
1096.80 0.07353
1096.90 0.07361
1097.00 0.07368
1097.10 0.07376
1097.20 0.07384
1097.30 0.07392
1097.40 0.074
1097.50 0.07408
1097.60 0.07416
1097.70 0.07424
1097.80 0.07431
1097.90 0.07439
1098.00 0.07447
1098.10 0.07455
1098.20 0.07463
1098.30 0.07471
1098.40 0.07478
1098.50 0.07486
1098.60 0.07494
1098.70 0.07502
1098.80 0.0751
1098.90 0.07518
1099.00 0.07526
1099.10 0.07534
1099.20 0.07542
1099.30 0.0755
1099.40 0.07558
1099.50 0.07566
1099.60 0.07574
1099.70 0.07582
1099.80 0.0759
1099.90 0.07598
1100.00 0.07606
1100.10 0.07614
1100.20 0.07622
1100.30 0.0763
1100.40 0.07638
1100.50 0.07646
1100.60 0.07653
1100.70 0.0766
1100.80 0.07667
1100.90 0.07674
1101.00 0.07681
1101.10 0.07688
1101.20 0.07695
1101.30 0.07703
1101.40 0.0771
1101.50 0.07717
1101.60 0.07724
1101.70 0.07731
1101.80 0.07738
1101.90 0.07745
1102.00 0.07752
1102.10 0.07758
1102.20 0.07765
1102.30 0.07771
1102.40 0.07777
1102.50 0.07783
1102.60 0.07789
1102.70 0.07795
1102.80 0.07801
1102.90 0.07807
1103.00 0.07813
1103.10 0.07819
1103.20 0.07824
1103.30 0.0783
1103.40 0.07836
1103.50 0.07842
1103.60 0.07847
1103.70 0.07851
1103.80 0.07856
1103.90 0.07861
1104.00 0.07866
1104.10 0.07871
1104.20 0.07876
1104.30 0.07881
1104.40 0.07886
1104.50 0.0789
1104.60 0.07895
1104.70 0.079
1104.80 0.07905
1104.90 0.0791
1105.00 0.07915
1105.10 0.0792
1105.20 0.07925
1105.30 0.07929
1105.40 0.07934
1105.50 0.07939
1105.60 0.07943
1105.70 0.07946
1105.80 0.0795
1105.90 0.07954
1106.00 0.07958
1106.10 0.07962
1106.20 0.07966
1106.30 0.07969
1106.40 0.07973
1106.50 0.07977
1106.60 0.07981
1106.70 0.07985
1106.80 0.07989
1106.90 0.07992
1107.00 0.07996
1107.10 0.07999
1107.20 0.08003
1107.30 0.08006
1107.40 0.08009
1107.50 0.08012
1107.60 0.08015
1107.70 0.08018
1107.80 0.08021
1107.90 0.08023
1108.00 0.08026
1108.10 0.08029
1108.20 0.08032
1108.30 0.08035
1108.40 0.08037
1108.50 0.0804
1108.60 0.08043
1108.70 0.08046
1108.80 0.08048
1108.90 0.08051
1109.00 0.08054
1109.10 0.08056
1109.20 0.08059
1109.30 0.08062
1109.40 0.08065
1109.50 0.08067
1109.60 0.08069
1109.70 0.08071
1109.80 0.08073
1109.90 0.08075
1110.00 0.08077
1110.10 0.08078
1110.20 0.0808
1110.30 0.08082
1110.40 0.08084
1110.50 0.08086
1110.60 0.08088
1110.70 0.0809
1110.80 0.08092
1110.90 0.08093
1111.00 0.08095
1111.10 0.08097
1111.20 0.08099
1111.30 0.08101
1111.40 0.08103
1111.50 0.08105
1111.60 0.08106
1111.70 0.08108
1111.80 0.0811
1111.90 0.08112
1112.00 0.08114
1112.10 0.08115
1112.20 0.08116
1112.30 0.08118
1112.40 0.08119
1112.50 0.0812
1112.60 0.08121
1112.70 0.08122
1112.80 0.08124
1112.90 0.08125
1113.00 0.08126
1113.10 0.08127
1113.20 0.08129
1113.30 0.0813
1113.40 0.08131
1113.50 0.08132
1113.60 0.08133
1113.70 0.08133
1113.80 0.08134
1113.90 0.08135
1114.00 0.08135
1114.10 0.08136
1114.20 0.08136
1114.30 0.08137
1114.40 0.08138
1114.50 0.08138
1114.60 0.08139
1114.70 0.08139
1114.80 0.0814
1114.90 0.08141
1115.00 0.08141
1115.10 0.08142
1115.20 0.08142
1115.30 0.08143
1115.40 0.08144
1115.50 0.08144
1115.60 0.08145
1115.70 0.08145
1115.80 0.08146
1115.90 0.08147
1116.00 0.08147
1116.10 0.08148
1116.20 0.08148
1116.30 0.08149
1116.40 0.0815
1116.50 0.0815
1116.60 0.08151
1116.70 0.08151
1116.80 0.08152
1116.90 0.08153
1117.00 0.08153
1117.10 0.08153
1117.20 0.08153
1117.30 0.08152
1117.40 0.08152
1117.50 0.08152
1117.60 0.08152
1117.70 0.08152
1117.80 0.08151
1117.90 0.08151
1118.00 0.08151
1118.10 0.08151
1118.20 0.0815
1118.30 0.0815
1118.40 0.0815
1118.50 0.0815
1118.60 0.08149
1118.70 0.08149
1118.80 0.08149
1118.90 0.08149
1119.00 0.08148
1119.10 0.08148
1119.20 0.08148
1119.30 0.08148
1119.40 0.08148
1119.50 0.08147
1119.60 0.08147
1119.70 0.08147
1119.80 0.08147
1119.90 0.08146
1120.00 0.08146
1120.10 0.08146
1120.20 0.08146
1120.30 0.08145
1120.40 0.08145
1120.50 0.08145
1120.60 0.08145
1120.70 0.08144
1120.80 0.08144
1120.90 0.08144
1121.00 0.08144
1121.10 0.08143
1121.20 0.08143
1121.30 0.08143
1121.40 0.08143
1121.50 0.08143
1121.60 0.08142
1121.70 0.08142
1121.80 0.08142
1121.90 0.08142
1122.00 0.08141
1122.10 0.0814
1122.20 0.0814
1122.30 0.08139
1122.40 0.08138
1122.50 0.08137
1122.60 0.08136
1122.70 0.08135
1122.80 0.08134
1122.90 0.08133
1123.00 0.08132
1123.10 0.08131
1123.20 0.08131
1123.30 0.0813
1123.40 0.08129
1123.50 0.08128
1123.60 0.08127
1123.70 0.08126
1123.80 0.08125
1123.90 0.08124
1124.00 0.08123
1124.10 0.08122
1124.20 0.08122
1124.30 0.08121
1124.40 0.0812
1124.50 0.08119
1124.60 0.08118
1124.70 0.08117
1124.80 0.08116
1124.90 0.08115
1125.00 0.08114
1125.10 0.08113
1125.20 0.08113
1125.30 0.08112
1125.40 0.08111
1125.50 0.0811
1125.60 0.08109
1125.70 0.08108
1125.80 0.08107
1125.90 0.08106
1126.00 0.08105
1126.10 0.08104
1126.20 0.08104
1126.30 0.08103
1126.40 0.08102
1126.50 0.08101
1126.60 0.081
1126.70 0.08099
1126.80 0.08098
1126.90 0.08097
1127.00 0.08096
1127.10 0.08095
1127.20 0.08094
1127.30 0.08092
1127.40 0.08091
1127.50 0.0809
1127.60 0.08088
1127.70 0.08087
1127.80 0.08086
1127.90 0.08084
1128.00 0.08083
1128.10 0.08082
1128.20 0.0808
1128.30 0.08079
1128.40 0.08078
1128.50 0.08076
1128.60 0.08075
1128.70 0.08074
1128.80 0.08072
1128.90 0.08071
1129.00 0.0807
1129.10 0.08068
1129.20 0.08067
1129.30 0.08066
1129.40 0.08064
1129.50 0.08063
1129.60 0.08061
1129.70 0.0806
1129.80 0.08059
1129.90 0.08057
1130.00 0.08056
1130.10 0.08055
1130.20 0.08053
1130.30 0.08052
1130.40 0.08051
1130.50 0.08049
1130.60 0.08048
1130.70 0.08047
1130.80 0.08045
1130.90 0.08044
1131.00 0.08043
1131.10 0.08041
1131.20 0.0804
1131.30 0.08039
1131.40 0.08037
1131.50 0.08036
1131.60 0.08035
1131.70 0.08033
1131.80 0.08032
1131.90 0.08031
1132.00 0.08029
1132.10 0.08028
1132.20 0.08026
1132.30 0.08024
1132.40 0.08023
1132.50 0.08021
1132.60 0.0802
1132.70 0.08018
1132.80 0.08016
1132.90 0.08015
1133.00 0.08013
1133.10 0.08011
1133.20 0.0801
1133.30 0.08008
1133.40 0.08006
1133.50 0.08005
1133.60 0.08003
1133.70 0.08001
1133.80 0.08
1133.90 0.07998
1134.00 0.07996
1134.10 0.07995
1134.20 0.07993
1134.30 0.07992
1134.40 0.0799
1134.50 0.07988
1134.60 0.07987
1134.70 0.07985
1134.80 0.07983
1134.90 0.07982
1135.00 0.0798
1135.10 0.07978
1135.20 0.07977
1135.30 0.07975
1135.40 0.07973
1135.50 0.07972
1135.60 0.0797
1135.70 0.07969
1135.80 0.07967
1135.90 0.07965
1136.00 0.07964
1136.10 0.07962
1136.20 0.0796
1136.30 0.07959
1136.40 0.07957
1136.50 0.07955
1136.60 0.07954
1136.70 0.07952
1136.80 0.07951
1136.90 0.07949
1137.00 0.07947
1137.10 0.07945
1137.20 0.07944
1137.30 0.07942
1137.40 0.0794
1137.50 0.07938
1137.60 0.07936
1137.70 0.07934
1137.80 0.07933
1137.90 0.07931
1138.00 0.07929
1138.10 0.07927
1138.20 0.07925
1138.30 0.07923
1138.40 0.07921
1138.50 0.0792
1138.60 0.07918
1138.70 0.07916
1138.80 0.07914
1138.90 0.07912
1139.00 0.0791
1139.10 0.07909
1139.20 0.07907
1139.30 0.07905
1139.40 0.07903
1139.50 0.07901
1139.60 0.07899
1139.70 0.07898
1139.80 0.07896
1139.90 0.07894
1140.00 0.07892
1140.10 0.0789
1140.20 0.07888
1140.30 0.07887
1140.40 0.07885
1140.50 0.07883
1140.60 0.07881
1140.70 0.07879
1140.80 0.07877
1140.90 0.07876
1141.00 0.07874
1141.10 0.07872
1141.20 0.0787
1141.30 0.07868
1141.40 0.07866
1141.50 0.07865
1141.60 0.07863
1141.70 0.07861
1141.80 0.07859
1141.90 0.07857
1142.00 0.07856
1142.10 0.07854
1142.20 0.07852
1142.30 0.0785
1142.40 0.07848
1142.50 0.07846
1142.60 0.07844
1142.70 0.07842
1142.80 0.0784
1142.90 0.07838
1143.00 0.07836
1143.10 0.07834
1143.20 0.07832
1143.30 0.0783
1143.40 0.07828
1143.50 0.07826
1143.60 0.07824
1143.70 0.07822
1143.80 0.0782
1143.90 0.07818
1144.00 0.07816
1144.10 0.07814
1144.20 0.07812
1144.30 0.0781
1144.40 0.07808
1144.50 0.07806
1144.60 0.07805
1144.70 0.07803
1144.80 0.07801
1144.90 0.07799
1145.00 0.07797
1145.10 0.07795
1145.20 0.07793
1145.30 0.07791
1145.40 0.07789
1145.50 0.07787
1145.60 0.07785
1145.70 0.07783
1145.80 0.07781
1145.90 0.07779
1146.00 0.07777
1146.10 0.07775
1146.20 0.07773
1146.30 0.07771
1146.40 0.07769
1146.50 0.07768
1146.60 0.07766
1146.70 0.07764
1146.80 0.07762
1146.90 0.0776
1147.00 0.07758
1147.10 0.07756
1147.20 0.07754
1147.30 0.07752
1147.40 0.0775
1147.50 0.07748
1147.60 0.07745
1147.70 0.07743
1147.80 0.07741
1147.90 0.07739
1148.00 0.07737
1148.10 0.07735
1148.20 0.07733
1148.30 0.07731
1148.40 0.07729
1148.50 0.07727
1148.60 0.07725
1148.70 0.07723
1148.80 0.07721
1148.90 0.07719
1149.00 0.07717
1149.10 0.07715
1149.20 0.07713
1149.30 0.07711
1149.40 0.07709
1149.50 0.07707
1149.60 0.07705
1149.70 0.07702
1149.80 0.077
1149.90 0.07698
1150.00 0.07696
1150.10 0.07694
1150.20 0.07692
1150.30 0.0769
1150.40 0.07688
1150.50 0.07686
1150.60 0.07684
1150.70 0.07682
1150.80 0.0768
1150.90 0.07678
1151.00 0.07676
1151.10 0.07674
1151.20 0.07672
1151.30 0.0767
1151.40 0.07668
1151.50 0.07666
1151.60 0.07664
1151.70 0.07662
1151.80 0.0766
1151.90 0.07658
1152.00 0.07656
1152.10 0.07654
1152.20 0.07652
1152.30 0.07649
1152.40 0.07647
1152.50 0.07645
1152.60 0.07643
1152.70 0.07641
1152.80 0.07639
1152.90 0.07637
1153.00 0.07635
1153.10 0.07633
1153.20 0.0763
1153.30 0.07628
1153.40 0.07626
1153.50 0.07624
1153.60 0.07622
1153.70 0.0762
1153.80 0.07618
1153.90 0.07616
1154.00 0.07614
1154.10 0.07612
1154.20 0.0761
1154.30 0.07607
1154.40 0.07605
1154.50 0.07603
1154.60 0.07601
1154.70 0.07599
1154.80 0.07597
1154.90 0.07595
1155.00 0.07593
1155.10 0.07591
1155.20 0.07589
1155.30 0.07587
1155.40 0.07584
1155.50 0.07582
1155.60 0.0758
1155.70 0.07578
1155.80 0.07576
1155.90 0.07574
1156.00 0.07572
1156.10 0.0757
1156.20 0.07568
1156.30 0.07566
1156.40 0.07564
1156.50 0.07562
1156.60 0.07559
1156.70 0.07557
1156.80 0.07555
1156.90 0.07553
1157.00 0.07551
1157.10 0.07549
1157.20 0.07547
1157.30 0.07545
1157.40 0.07543
1157.50 0.07541
1157.60 0.07538
1157.70 0.07536
1157.80 0.07534
1157.90 0.07532
1158.00 0.0753
1158.10 0.07528
1158.20 0.07526
1158.30 0.07524
1158.40 0.07521
1158.50 0.07519
1158.60 0.07517
1158.70 0.07515
1158.80 0.07513
1158.90 0.07511
1159.00 0.07509
1159.10 0.07507
1159.20 0.07505
1159.30 0.07502
1159.40 0.075
1159.50 0.07498
1159.60 0.07496
1159.70 0.07494
1159.80 0.07492
1159.90 0.0749
1160.00 0.07488
1160.10 0.07486
1160.20 0.07483
1160.30 0.07481
1160.40 0.07479
1160.50 0.07477
1160.60 0.07475
1160.70 0.07473
1160.80 0.07471
1160.90 0.07469
1161.00 0.07467
1161.10 0.07465
1161.20 0.07462
1161.30 0.0746
1161.40 0.07458
1161.50 0.07456
1161.60 0.07454
1161.70 0.07452
1161.80 0.0745
1161.90 0.07448
1162.00 0.07446
1162.10 0.07444
1162.20 0.07441
1162.30 0.07439
1162.40 0.07437
1162.50 0.07435
1162.60 0.07433
1162.70 0.07431
1162.80 0.07429
1162.90 0.07426
1163.00 0.07424
1163.10 0.07422
1163.20 0.0742
1163.30 0.07418
1163.40 0.07416
1163.50 0.07414
1163.60 0.07411
1163.70 0.07409
1163.80 0.07407
1163.90 0.07405
1164.00 0.07403
1164.10 0.07401
1164.20 0.07399
1164.30 0.07396
1164.40 0.07394
1164.50 0.07392
1164.60 0.0739
1164.70 0.07388
1164.80 0.07386
1164.90 0.07384
1165.00 0.07382
1165.10 0.07379
1165.20 0.07377
1165.30 0.07375
1165.40 0.07373
1165.50 0.07371
1165.60 0.07369
1165.70 0.07367
1165.80 0.07365
1165.90 0.07362
1166.00 0.0736
1166.10 0.07358
1166.20 0.07356
1166.30 0.07354
1166.40 0.07352
1166.50 0.0735
1166.60 0.07348
1166.70 0.07345
1166.80 0.07343
1166.90 0.07341
1167.00 0.07339
1167.10 0.07337
1167.20 0.07335
1167.30 0.07333
1167.40 0.07331
1167.50 0.07328
1167.60 0.07326
1167.70 0.07324
1167.80 0.07322
1167.90 0.0732
1168.00 0.07318
1168.10 0.07316
1168.20 0.07313
1168.30 0.07311
1168.40 0.07309
1168.50 0.07307
1168.60 0.07305
1168.70 0.07303
1168.80 0.07301
1168.90 0.07298
1169.00 0.07296
1169.10 0.07294
1169.20 0.07292
1169.30 0.0729
1169.40 0.07288
1169.50 0.07286
1169.60 0.07284
1169.70 0.07281
1169.80 0.07279
1169.90 0.07277
1170.00 0.07275
1170.10 0.07273
1170.20 0.07271
1170.30 0.07269
1170.40 0.07267
1170.50 0.07264
1170.60 0.07262
1170.70 0.0726
1170.80 0.07258
1170.90 0.07256
1171.00 0.07254
1171.10 0.07252
1171.20 0.0725
1171.30 0.07247
1171.40 0.07245
1171.50 0.07243
1171.60 0.07241
1171.70 0.07239
1171.80 0.07237
1171.90 0.07235
1172.00 0.07233
1172.10 0.0723
1172.20 0.07228
1172.30 0.07226
1172.40 0.07224
1172.50 0.07222
1172.60 0.0722
1172.70 0.07218
1172.80 0.07216
1172.90 0.07213
1173.00 0.07211
1173.10 0.07209
1173.20 0.07207
1173.30 0.07205
1173.40 0.07203
1173.50 0.07201
1173.60 0.07199
1173.70 0.07196
1173.80 0.07194
1173.90 0.07192
1174.00 0.0719
1174.10 0.07188
1174.20 0.07186
1174.30 0.07184
1174.40 0.07182
1174.50 0.07179
1174.60 0.07177
1174.70 0.07175
1174.80 0.07173
1174.90 0.07171
1175.00 0.07169
1175.10 0.07167
1175.20 0.07165
1175.30 0.07162
1175.40 0.0716
1175.50 0.07158
1175.60 0.07156
1175.70 0.07154
1175.80 0.07152
1175.90 0.0715
1176.00 0.07148
1176.10 0.07146
1176.20 0.07143
1176.30 0.07141
1176.40 0.07139
1176.50 0.07137
1176.60 0.07135
1176.70 0.07133
1176.80 0.07131
1176.90 0.07129
1177.00 0.07127
1177.10 0.07124
1177.20 0.07122
1177.30 0.0712
1177.40 0.07118
1177.50 0.07116
1177.60 0.07114
1177.70 0.07112
1177.80 0.0711
1177.90 0.07107
1178.00 0.07105
1178.10 0.07103
1178.20 0.07101
1178.30 0.07099
1178.40 0.07097
1178.50 0.07095
1178.60 0.07093
1178.70 0.07091
1178.80 0.07088
1178.90 0.07086
1179.00 0.07084
1179.10 0.07082
1179.20 0.0708
1179.30 0.07078
1179.40 0.07076
1179.50 0.07074
1179.60 0.07072
1179.70 0.07069
1179.80 0.07067
1179.90 0.07065
1180.00 0.07063
1180.10 0.07061
1180.20 0.07059
1180.30 0.07057
1180.40 0.07055
1180.50 0.07053
1180.60 0.0705
1180.70 0.07048
1180.80 0.07046
1180.90 0.07044
1181.00 0.07042
1181.10 0.0704
1181.20 0.07038
1181.30 0.07036
1181.40 0.07034
1181.50 0.07032
1181.60 0.07029
1181.70 0.07027
1181.80 0.07025
1181.90 0.07023
1182.00 0.07021
1182.10 0.07019
1182.20 0.07017
1182.30 0.07015
1182.40 0.07013
1182.50 0.0701
1182.60 0.07008
1182.70 0.07006
1182.80 0.07004
1182.90 0.07002
1183.00 0.07
1183.10 0.06998
1183.20 0.06996
1183.30 0.06993
1183.40 0.06991
1183.50 0.06989
1183.60 0.06987
1183.70 0.06985
1183.80 0.06983
1183.90 0.06981
1184.00 0.06979
1184.10 0.06977
1184.20 0.06974
1184.30 0.06972
1184.40 0.0697
1184.50 0.06968
1184.60 0.06966
1184.70 0.06964
1184.80 0.06962
1184.90 0.0696
1185.00 0.06958
1185.10 0.06955
1185.20 0.06953
1185.30 0.06951
1185.40 0.06949
1185.50 0.06947
1185.60 0.06945
1185.70 0.06943
1185.80 0.06941
1185.90 0.06939
1186.00 0.06937
1186.10 0.06934
1186.20 0.06932
1186.30 0.0693
1186.40 0.06928
1186.50 0.06926
1186.60 0.06924
1186.70 0.06922
1186.80 0.0692
1186.90 0.06918
1187.00 0.06916
1187.10 0.06913
1187.20 0.06911
1187.30 0.06909
1187.40 0.06907
1187.50 0.06905
1187.60 0.06903
1187.70 0.06901
1187.80 0.06899
1187.90 0.06897
1188.00 0.06895
1188.10 0.06892
1188.20 0.0689
1188.30 0.06888
1188.40 0.06886
1188.50 0.06884
1188.60 0.06882
1188.70 0.0688
1188.80 0.06878
1188.90 0.06876
1189.00 0.06874
1189.10 0.06871
1189.20 0.06869
1189.30 0.06867
1189.40 0.06865
1189.50 0.06863
1189.60 0.06861
1189.70 0.06859
1189.80 0.06857
1189.90 0.06855
1190.00 0.06853
1190.10 0.06851
1190.20 0.06848
1190.30 0.06846
1190.40 0.06844
1190.50 0.06842
1190.60 0.0684
1190.70 0.06838
1190.80 0.06836
1190.90 0.06834
1191.00 0.06832
1191.10 0.0683
1191.20 0.06828
1191.30 0.06826
1191.40 0.06823
1191.50 0.06821
1191.60 0.06819
1191.70 0.06817
1191.80 0.06815
1191.90 0.06813
1192.00 0.06811
1192.10 0.06809
1192.20 0.06807
1192.30 0.06805
1192.40 0.06803
1192.50 0.068
1192.60 0.06798
1192.70 0.06796
1192.80 0.06794
1192.90 0.06792
1193.00 0.0679
1193.10 0.06788
1193.20 0.06786
1193.30 0.06784
1193.40 0.06782
1193.50 0.0678
1193.60 0.06778
1193.70 0.06775
1193.80 0.06773
1193.90 0.06771
1194.00 0.06769
1194.10 0.06767
1194.20 0.06765
1194.30 0.06763
1194.40 0.06761
1194.50 0.06759
1194.60 0.06757
1194.70 0.06755
1194.80 0.06753
1194.90 0.0675
1195.00 0.06748
1195.10 0.06746
1195.20 0.06744
1195.30 0.06742
1195.40 0.0674
1195.50 0.06738
1195.60 0.06736
1195.70 0.06734
1195.80 0.06732
1195.90 0.0673
1196.00 0.06728
1196.10 0.06726
1196.20 0.06724
1196.30 0.06721
1196.40 0.06719
1196.50 0.06717
1196.60 0.06715
1196.70 0.06713
1196.80 0.06711
1196.90 0.06709
1197.00 0.06707
1197.10 0.06705
1197.20 0.06703
1197.30 0.06701
1197.40 0.06699
1197.50 0.06697
1197.60 0.06694
1197.70 0.06692
1197.80 0.0669
1197.90 0.06688
1198.00 0.06686
1198.10 0.06684
1198.20 0.06682
1198.30 0.0668
1198.40 0.06678
1198.50 0.06676
1198.60 0.06673
1198.70 0.06671
1198.80 0.06669
1198.90 0.06667
1199.00 0.06665
1199.10 0.06663
1199.20 0.06661
1199.30 0.06659
1199.40 0.06657
1199.50 0.06655
1199.60 0.06653
1199.70 0.0665
1199.80 0.06648
1199.90 0.06646
1200.00 0
