# Version 2.1 - nm, norm@500 to 1, cut digits, bergeron_5250_75.dat_5250
# Wavelength(nm)  Flambda(ergs/cm^s/s/nm)
300.00 0.4316
300.10 0.432
300.20 0.4325
300.30 0.433
300.40 0.4335
300.50 0.434
300.60 0.4344
300.70 0.4349
300.80 0.4354
300.90 0.4359
301.00 0.4363
301.10 0.4368
301.20 0.4373
301.30 0.4378
301.40 0.4382
301.50 0.4387
301.60 0.4392
301.70 0.4397
301.80 0.4401
301.90 0.4406
302.00 0.4411
302.10 0.4415
302.20 0.442
302.30 0.4425
302.40 0.443
302.50 0.4435
302.60 0.4439
302.70 0.4444
302.80 0.4449
302.90 0.4454
303.00 0.4459
303.10 0.4463
303.20 0.4468
303.30 0.4473
303.40 0.4477
303.50 0.4482
303.60 0.4487
303.70 0.4492
303.80 0.4496
303.90 0.4501
304.00 0.4506
304.10 0.4511
304.20 0.4515
304.30 0.452
304.40 0.4525
304.50 0.453
304.60 0.4535
304.70 0.4539
304.80 0.4544
304.90 0.4549
305.00 0.4554
305.10 0.4558
305.20 0.4563
305.30 0.4568
305.40 0.4573
305.50 0.4577
305.60 0.4582
305.70 0.4587
305.80 0.4591
305.90 0.4596
306.00 0.4601
306.10 0.4606
306.20 0.461
306.30 0.4615
306.40 0.462
306.50 0.4625
306.60 0.4629
306.70 0.4634
306.80 0.4639
306.90 0.4644
307.00 0.4649
307.10 0.4653
307.20 0.4658
307.30 0.4663
307.40 0.4667
307.50 0.4672
307.60 0.4677
307.70 0.4682
307.80 0.4686
307.90 0.4691
308.00 0.4696
308.10 0.47
308.20 0.4705
308.30 0.471
308.40 0.4715
308.50 0.472
308.60 0.4724
308.70 0.4729
308.80 0.4734
308.90 0.4739
309.00 0.4743
309.10 0.4748
309.20 0.4753
309.30 0.4757
309.40 0.4762
309.50 0.4767
309.60 0.4772
309.70 0.4776
309.80 0.4781
309.90 0.4786
310.00 0.479
310.10 0.4795
310.20 0.48
310.30 0.4805
310.40 0.4809
310.50 0.4814
310.60 0.4819
310.70 0.4824
310.80 0.4828
310.90 0.4833
311.00 0.4838
311.10 0.4843
311.20 0.4847
311.30 0.4852
311.40 0.4857
311.50 0.4861
311.60 0.4866
311.70 0.4871
311.80 0.4876
311.90 0.488
312.00 0.4885
312.10 0.4889
312.20 0.4894
312.30 0.4899
312.40 0.4904
312.50 0.4908
312.60 0.4913
312.70 0.4918
312.80 0.4923
312.90 0.4927
313.00 0.4932
313.10 0.4937
313.20 0.4942
313.30 0.4946
313.40 0.4951
313.50 0.4956
313.60 0.496
313.70 0.4965
313.80 0.497
313.90 0.4974
314.00 0.4979
314.10 0.4984
314.20 0.4988
314.30 0.4993
314.40 0.4998
314.50 0.5003
314.60 0.5007
314.70 0.5012
314.80 0.5017
314.90 0.5022
315.00 0.5026
315.10 0.5031
315.20 0.5036
315.30 0.504
315.40 0.5045
315.50 0.505
315.60 0.5054
315.70 0.5059
315.80 0.5064
315.90 0.5068
316.00 0.5073
316.10 0.5078
316.20 0.5082
316.30 0.5087
316.40 0.5092
316.50 0.5096
316.60 0.5101
316.70 0.5106
316.80 0.5111
316.90 0.5115
317.00 0.512
317.10 0.5125
317.20 0.5129
317.30 0.5134
317.40 0.5139
317.50 0.5143
317.60 0.5148
317.70 0.5152
317.80 0.5157
317.90 0.5162
318.00 0.5166
318.10 0.5171
318.20 0.5176
318.30 0.518
318.40 0.5185
318.50 0.519
318.60 0.5195
318.70 0.5199
318.80 0.5204
318.90 0.5209
319.00 0.5213
319.10 0.5218
319.20 0.5223
319.30 0.5227
319.40 0.5232
319.50 0.5236
319.60 0.5241
319.70 0.5246
319.80 0.525
319.90 0.5255
320.00 0.526
320.10 0.5264
320.20 0.5269
320.30 0.5274
320.40 0.5278
320.50 0.5283
320.60 0.5288
320.70 0.5292
320.80 0.5297
320.90 0.5302
321.00 0.5306
321.10 0.5311
321.20 0.5315
321.30 0.532
321.40 0.5325
321.50 0.5329
321.60 0.5334
321.70 0.5338
321.80 0.5343
321.90 0.5348
322.00 0.5352
322.10 0.5357
322.20 0.5362
322.30 0.5366
322.40 0.5371
322.50 0.5376
322.60 0.538
322.70 0.5385
322.80 0.5389
322.90 0.5394
323.00 0.5399
323.10 0.5403
323.20 0.5408
323.30 0.5412
323.40 0.5417
323.50 0.5422
323.60 0.5426
323.70 0.5431
323.80 0.5435
323.90 0.544
324.00 0.5444
324.10 0.5449
324.20 0.5454
324.30 0.5458
324.40 0.5463
324.50 0.5468
324.60 0.5472
324.70 0.5477
324.80 0.5482
324.90 0.5486
325.00 0.5491
325.10 0.5495
325.20 0.55
325.30 0.5504
325.40 0.5509
325.50 0.5514
325.60 0.5518
325.70 0.5523
325.80 0.5527
325.90 0.5532
326.00 0.5536
326.10 0.5541
326.20 0.5546
326.30 0.555
326.40 0.5555
326.50 0.5559
326.60 0.5564
326.70 0.5569
326.80 0.5573
326.90 0.5578
327.00 0.5582
327.10 0.5587
327.20 0.5591
327.30 0.5596
327.40 0.56
327.50 0.5605
327.60 0.561
327.70 0.5614
327.80 0.5619
327.90 0.5623
328.00 0.5628
328.10 0.5632
328.20 0.5637
328.30 0.5641
328.40 0.5646
328.50 0.5651
328.60 0.5655
328.70 0.566
328.80 0.5664
328.90 0.5669
329.00 0.5673
329.10 0.5678
329.20 0.5682
329.30 0.5687
329.40 0.5691
329.50 0.5696
329.60 0.57
329.70 0.5705
329.80 0.5709
329.90 0.5714
330.00 0.5718
330.10 0.5723
330.20 0.5727
330.30 0.5732
330.40 0.5737
330.50 0.5741
330.60 0.5746
330.70 0.575
330.80 0.5755
330.90 0.5759
331.00 0.5764
331.10 0.5768
331.20 0.5773
331.30 0.5777
331.40 0.5782
331.50 0.5786
331.60 0.5791
331.70 0.5795
331.80 0.58
331.90 0.5804
332.00 0.5808
332.10 0.5813
332.20 0.5817
332.30 0.5822
332.40 0.5827
332.50 0.5831
332.60 0.5836
332.70 0.584
332.80 0.5845
332.90 0.5849
333.00 0.5853
333.10 0.5858
333.20 0.5862
333.30 0.5867
333.40 0.5871
333.50 0.5876
333.60 0.588
333.70 0.5885
333.80 0.5889
333.90 0.5894
334.00 0.5898
334.10 0.5902
334.20 0.5907
334.30 0.5911
334.40 0.5916
334.50 0.592
334.60 0.5925
334.70 0.5929
334.80 0.5934
334.90 0.5938
335.00 0.5943
335.10 0.5947
335.20 0.5952
335.30 0.5956
335.40 0.596
335.50 0.5965
335.60 0.5969
335.70 0.5974
335.80 0.5978
335.90 0.5982
336.00 0.5987
336.10 0.5991
336.20 0.5996
336.30 0.6
336.40 0.6005
336.50 0.6009
336.60 0.6014
336.70 0.6018
336.80 0.6022
336.90 0.6027
337.00 0.6031
337.10 0.6036
337.20 0.604
337.30 0.6044
337.40 0.6049
337.50 0.6053
337.60 0.6058
337.70 0.6062
337.80 0.6066
337.90 0.6071
338.00 0.6075
338.10 0.6079
338.20 0.6084
338.30 0.6088
338.40 0.6093
338.50 0.6097
338.60 0.6102
338.70 0.6106
338.80 0.611
338.90 0.6115
339.00 0.6119
339.10 0.6124
339.20 0.6128
339.30 0.6132
339.40 0.6137
339.50 0.6141
339.60 0.6145
339.70 0.615
339.80 0.6154
339.90 0.6158
340.00 0.6163
340.10 0.6167
340.20 0.6171
340.30 0.6176
340.40 0.618
340.50 0.6185
340.60 0.6189
340.70 0.6193
340.80 0.6198
340.90 0.6202
341.00 0.6206
341.10 0.6211
341.20 0.6215
341.30 0.6219
341.40 0.6224
341.50 0.6228
341.60 0.6232
341.70 0.6237
341.80 0.6241
341.90 0.6245
342.00 0.6249
342.10 0.6254
342.20 0.6258
342.30 0.6262
342.40 0.6267
342.50 0.6271
342.60 0.6275
342.70 0.628
342.80 0.6284
342.90 0.6288
343.00 0.6293
343.10 0.6297
343.20 0.6301
343.30 0.6306
343.40 0.631
343.50 0.6314
343.60 0.6318
343.70 0.6323
343.80 0.6327
343.90 0.6331
344.00 0.6335
344.10 0.634
344.20 0.6344
344.30 0.6348
344.40 0.6353
344.50 0.6357
344.60 0.6361
344.70 0.6365
344.80 0.637
344.90 0.6374
345.00 0.6378
345.10 0.6383
345.20 0.6387
345.30 0.6391
345.40 0.6395
345.50 0.64
345.60 0.6404
345.70 0.6408
345.80 0.6412
345.90 0.6416
346.00 0.6421
346.10 0.6425
346.20 0.6429
346.30 0.6433
346.40 0.6438
346.50 0.6442
346.60 0.6446
346.70 0.645
346.80 0.6455
346.90 0.6459
347.00 0.6463
347.10 0.6467
347.20 0.6472
347.30 0.6476
347.40 0.648
347.50 0.6484
347.60 0.6488
347.70 0.6493
347.80 0.6497
347.90 0.6501
348.00 0.6505
348.10 0.6509
348.20 0.6514
348.30 0.6518
348.40 0.6522
348.50 0.6526
348.60 0.653
348.70 0.6535
348.80 0.6539
348.90 0.6543
349.00 0.6547
349.10 0.6551
349.20 0.6556
349.30 0.656
349.40 0.6564
349.50 0.6568
349.60 0.6572
349.70 0.6576
349.80 0.658
349.90 0.6584
350.00 0.6589
350.10 0.6593
350.20 0.6597
350.30 0.6601
350.40 0.6605
350.50 0.661
350.60 0.6614
350.70 0.6618
350.80 0.6622
350.90 0.6626
351.00 0.663
351.10 0.6635
351.20 0.6639
351.30 0.6643
351.40 0.6647
351.50 0.6651
351.60 0.6655
351.70 0.6659
351.80 0.6663
351.90 0.6668
352.00 0.6672
352.10 0.6676
352.20 0.668
352.30 0.6684
352.40 0.6688
352.50 0.6692
352.60 0.6696
352.70 0.6701
352.80 0.6705
352.90 0.6709
353.00 0.6713
353.10 0.6717
353.20 0.6721
353.30 0.6725
353.40 0.6729
353.50 0.6733
353.60 0.6737
353.70 0.6741
353.80 0.6745
353.90 0.6749
354.00 0.6753
354.10 0.6758
354.20 0.6762
354.30 0.6766
354.40 0.677
354.50 0.6774
354.60 0.6778
354.70 0.6782
354.80 0.6786
354.90 0.679
355.00 0.6794
355.10 0.6799
355.20 0.6803
355.30 0.6807
355.40 0.6811
355.50 0.6815
355.60 0.6819
355.70 0.6823
355.80 0.6827
355.90 0.6831
356.00 0.6835
356.10 0.6839
356.20 0.6843
356.30 0.6847
356.40 0.6851
356.50 0.6855
356.60 0.6859
356.70 0.6863
356.80 0.6867
356.90 0.6871
357.00 0.6875
357.10 0.6879
357.20 0.6883
357.30 0.6887
357.40 0.6891
357.50 0.6895
357.60 0.6899
357.70 0.6903
357.80 0.6907
357.90 0.6911
358.00 0.6915
358.10 0.6919
358.20 0.6923
358.30 0.6927
358.40 0.6931
358.50 0.6935
358.60 0.6939
358.70 0.6943
358.80 0.6947
358.90 0.6951
359.00 0.6955
359.10 0.6959
359.20 0.6963
359.30 0.6967
359.40 0.697
359.50 0.6974
359.60 0.6978
359.70 0.6982
359.80 0.6986
359.90 0.699
360.00 0.6994
360.10 0.6998
360.20 0.7002
360.30 0.7006
360.40 0.701
360.50 0.7014
360.60 0.7018
360.70 0.7022
360.80 0.7026
360.90 0.703
361.00 0.7034
361.10 0.7037
361.20 0.7041
361.30 0.7045
361.40 0.7049
361.50 0.7053
361.60 0.7057
361.70 0.7061
361.80 0.7065
361.90 0.7069
362.00 0.7072
362.10 0.7076
362.20 0.708
362.30 0.7084
362.40 0.7088
362.50 0.7092
362.60 0.7096
362.70 0.71
362.80 0.7104
362.90 0.7108
363.00 0.7112
363.10 0.7116
363.20 0.7119
363.30 0.7123
363.40 0.7127
363.50 0.7131
363.60 0.7135
363.70 0.7139
363.80 0.7143
363.90 0.7146
364.00 0.715
364.10 0.7154
364.20 0.7158
364.30 0.7162
364.40 0.7166
364.50 0.7169
364.60 0.7173
364.70 0.7177
364.80 0.718
364.90 0.7184
365.00 0.7188
365.10 0.7192
365.20 0.7196
365.30 0.72
365.40 0.7203
365.50 0.7207
365.60 0.7211
365.70 0.7215
365.80 0.7219
365.90 0.7222
366.00 0.7226
366.10 0.723
366.20 0.7234
366.30 0.7238
366.40 0.7241
366.50 0.7245
366.60 0.7249
366.70 0.7253
366.80 0.7257
366.90 0.7261
367.00 0.7264
367.10 0.7268
367.20 0.7272
367.30 0.7276
367.40 0.728
367.50 0.7283
367.60 0.7287
367.70 0.7291
367.80 0.7295
367.90 0.7298
368.00 0.7302
368.10 0.7306
368.20 0.731
368.30 0.7313
368.40 0.7317
368.50 0.7321
368.60 0.7325
368.70 0.7328
368.80 0.7332
368.90 0.7336
369.00 0.734
369.10 0.7343
369.20 0.7347
369.30 0.7351
369.40 0.7354
369.50 0.7358
369.60 0.7362
369.70 0.7365
369.80 0.7369
369.90 0.7373
370.00 0.7377
370.10 0.738
370.20 0.7384
370.30 0.7388
370.40 0.7391
370.50 0.7395
370.60 0.7399
370.70 0.7402
370.80 0.7406
370.90 0.741
371.00 0.7414
371.10 0.7417
371.20 0.7421
371.30 0.7425
371.40 0.7428
371.50 0.7432
371.60 0.7436
371.70 0.7439
371.80 0.7443
371.90 0.7446
372.00 0.745
372.10 0.7454
372.20 0.7457
372.30 0.7461
372.40 0.7465
372.50 0.7468
372.60 0.7472
372.70 0.7476
372.80 0.7479
372.90 0.7483
373.00 0.7487
373.10 0.749
373.20 0.7494
373.30 0.7497
373.40 0.7501
373.50 0.7505
373.60 0.7508
373.70 0.7512
373.80 0.7516
373.90 0.7519
374.00 0.7523
374.10 0.7526
374.20 0.753
374.30 0.7533
374.40 0.7537
374.50 0.7541
374.60 0.7544
374.70 0.7548
374.80 0.7551
374.90 0.7555
375.00 0.7559
375.10 0.7562
375.20 0.7566
375.30 0.7569
375.40 0.7573
375.50 0.7576
375.60 0.758
375.70 0.7583
375.80 0.7587
375.90 0.759
376.00 0.7594
376.10 0.7597
376.20 0.7601
376.30 0.7605
376.40 0.7608
376.50 0.7612
376.60 0.7615
376.70 0.7619
376.80 0.7622
376.90 0.7626
377.00 0.7629
377.10 0.7633
377.20 0.7636
377.30 0.764
377.40 0.7644
377.50 0.7647
377.60 0.7651
377.70 0.7654
377.80 0.7658
377.90 0.7661
378.00 0.7665
378.10 0.7668
378.20 0.7672
378.30 0.7675
378.40 0.7679
378.50 0.7682
378.60 0.7685
378.70 0.7689
378.80 0.7692
378.90 0.7696
379.00 0.7699
379.10 0.7703
379.20 0.7706
379.30 0.771
379.40 0.7713
379.50 0.7716
379.60 0.772
379.70 0.7723
379.80 0.7727
379.90 0.773
380.00 0.7734
380.10 0.7737
380.20 0.7741
380.30 0.7744
380.40 0.7748
380.50 0.7751
380.60 0.7755
380.70 0.7758
380.80 0.7762
380.90 0.7765
381.00 0.7769
381.10 0.7772
381.20 0.7776
381.30 0.7779
381.40 0.7782
381.50 0.7786
381.60 0.779
381.70 0.7793
381.80 0.7796
381.90 0.78
382.00 0.7803
382.10 0.7807
382.20 0.781
382.30 0.7813
382.40 0.7816
382.50 0.7819
382.60 0.7823
382.70 0.7826
382.80 0.7829
382.90 0.7832
383.00 0.7835
383.10 0.7839
383.20 0.7842
383.30 0.7844
383.40 0.7845
383.50 0.7845
383.60 0.785
383.70 0.7856
383.80 0.7861
383.90 0.7866
384.00 0.7869
384.10 0.7873
384.20 0.7877
384.30 0.788
384.40 0.7884
384.50 0.7888
384.60 0.7891
384.70 0.7894
384.80 0.7898
384.90 0.7901
385.00 0.7904
385.10 0.7908
385.20 0.7911
385.30 0.7915
385.40 0.7918
385.50 0.7921
385.60 0.7925
385.70 0.7928
385.80 0.7931
385.90 0.7935
386.00 0.7938
386.10 0.7941
386.20 0.7945
386.30 0.7948
386.40 0.7951
386.50 0.7954
386.60 0.7957
386.70 0.7961
386.80 0.7964
386.90 0.7967
387.00 0.7971
387.10 0.7974
387.20 0.7977
387.30 0.7981
387.40 0.7984
387.50 0.7987
387.60 0.799
387.70 0.7993
387.80 0.7996
387.90 0.7999
388.00 0.8002
388.10 0.8005
388.20 0.8007
388.30 0.801
388.40 0.8012
388.50 0.8013
388.60 0.8013
388.70 0.8011
388.80 0.8006
388.90 0.7998
389.00 0.8012
389.10 0.8023
389.20 0.8032
389.30 0.8038
389.40 0.8044
389.50 0.8049
389.60 0.8053
389.70 0.8057
389.80 0.806
389.90 0.8064
390.00 0.8068
390.10 0.8071
390.20 0.8074
390.30 0.8078
390.40 0.8081
390.50 0.8084
390.60 0.8087
390.70 0.8091
390.80 0.8094
390.90 0.8097
391.00 0.81
391.10 0.8104
391.20 0.8107
391.30 0.811
391.40 0.8113
391.50 0.8116
391.60 0.812
391.70 0.8123
391.80 0.8126
391.90 0.8129
392.00 0.8132
392.10 0.8135
392.20 0.8139
392.30 0.8142
392.40 0.8145
392.50 0.8148
392.60 0.8151
392.70 0.8154
392.80 0.8157
392.90 0.816
393.00 0.8164
393.10 0.8167
393.20 0.817
393.30 0.8173
393.40 0.8176
393.50 0.8179
393.60 0.8182
393.70 0.8186
393.80 0.8189
393.90 0.8192
394.00 0.8195
394.10 0.8198
394.20 0.8201
394.30 0.8204
394.40 0.8207
394.50 0.821
394.60 0.8213
394.70 0.8216
394.80 0.8219
394.90 0.8222
395.00 0.8225
395.10 0.8228
395.20 0.8231
395.30 0.8234
395.40 0.8237
395.50 0.824
395.60 0.8242
395.70 0.8245
395.80 0.8248
395.90 0.825
396.00 0.8252
396.10 0.8255
396.20 0.8256
396.30 0.8258
396.40 0.8258
396.50 0.8258
396.60 0.8255
396.70 0.825
396.80 0.8238
396.90 0.8218
397.00 0.8192
397.10 0.8222
397.20 0.8247
397.30 0.8267
397.40 0.8278
397.50 0.8287
397.60 0.8294
397.70 0.83
397.80 0.8304
397.90 0.8309
398.00 0.8313
398.10 0.8316
398.20 0.832
398.30 0.8323
398.40 0.8327
398.50 0.833
398.60 0.8333
398.70 0.8336
398.80 0.8339
398.90 0.8342
399.00 0.8346
399.10 0.8349
399.20 0.8351
399.30 0.8354
399.40 0.8357
399.50 0.8361
399.60 0.8364
399.70 0.8366
399.80 0.8369
399.90 0.8372
400.00 0.8375
400.10 0.8378
400.20 0.8381
400.30 0.8384
400.40 0.8387
400.50 0.839
400.60 0.8393
400.70 0.8396
400.80 0.8399
400.90 0.8402
401.00 0.8405
401.10 0.8408
401.20 0.8411
401.30 0.8413
401.40 0.8416
401.50 0.8419
401.60 0.8422
401.70 0.8425
401.80 0.8428
401.90 0.8431
402.00 0.8434
402.10 0.8437
402.20 0.8439
402.30 0.8442
402.40 0.8445
402.50 0.8448
402.60 0.8451
402.70 0.8454
402.80 0.8457
402.90 0.8459
403.00 0.8462
403.10 0.8465
403.20 0.8468
403.30 0.8471
403.40 0.8473
403.50 0.8476
403.60 0.8479
403.70 0.8482
403.80 0.8485
403.90 0.8487
404.00 0.849
404.10 0.8493
404.20 0.8496
404.30 0.8499
404.40 0.8501
404.50 0.8504
404.60 0.8507
404.70 0.851
404.80 0.8513
404.90 0.8515
405.00 0.8518
405.10 0.8521
405.20 0.8524
405.30 0.8527
405.40 0.8529
405.50 0.8532
405.60 0.8535
405.70 0.8538
405.80 0.854
405.90 0.8543
406.00 0.8546
406.10 0.8549
406.20 0.8551
406.30 0.8554
406.40 0.8557
406.50 0.856
406.60 0.8562
406.70 0.8565
406.80 0.8567
406.90 0.857
407.00 0.8573
407.10 0.8576
407.20 0.8578
407.30 0.8581
407.40 0.8584
407.50 0.8586
407.60 0.8589
407.70 0.8592
407.80 0.8594
407.90 0.8597
408.00 0.8599
408.10 0.8602
408.20 0.8604
408.30 0.8607
408.40 0.8609
408.50 0.8612
408.60 0.8614
408.70 0.8616
408.80 0.8618
408.90 0.862
409.00 0.8622
409.10 0.8623
409.20 0.8625
409.30 0.8626
409.40 0.8625
409.50 0.8624
409.60 0.8621
409.70 0.8614
409.80 0.8602
409.90 0.8583
410.00 0.8537
410.10 0.8487
410.20 0.8435
410.30 0.8515
410.40 0.8575
410.50 0.8613
410.60 0.8632
410.70 0.8646
410.80 0.8656
410.90 0.8663
411.00 0.8669
411.10 0.8674
411.20 0.8678
411.30 0.8682
411.40 0.8686
411.50 0.8689
411.60 0.8692
411.70 0.8695
411.80 0.8698
411.90 0.8701
412.00 0.8704
412.10 0.8707
412.20 0.871
412.30 0.8712
412.40 0.8715
412.50 0.8718
412.60 0.8721
412.70 0.8724
412.80 0.8726
412.90 0.8729
413.00 0.8731
413.10 0.8734
413.20 0.8737
413.30 0.8739
413.40 0.8742
413.50 0.8744
413.60 0.8747
413.70 0.875
413.80 0.8752
413.90 0.8755
414.00 0.8758
414.10 0.876
414.20 0.8763
414.30 0.8765
414.40 0.8768
414.50 0.877
414.60 0.8773
414.70 0.8775
414.80 0.8778
414.90 0.878
415.00 0.8783
415.10 0.8785
415.20 0.8788
415.30 0.879
415.40 0.8793
415.50 0.8795
415.60 0.8798
415.70 0.88
415.80 0.8803
415.90 0.8805
416.00 0.8808
416.10 0.881
416.20 0.8813
416.30 0.8815
416.40 0.8818
416.50 0.882
416.60 0.8823
416.70 0.8825
416.80 0.8828
416.90 0.883
417.00 0.8833
417.10 0.8835
417.20 0.8838
417.30 0.884
417.40 0.8842
417.50 0.8845
417.60 0.8847
417.70 0.885
417.80 0.8852
417.90 0.8854
418.00 0.8857
418.10 0.8859
418.20 0.8862
418.30 0.8864
418.40 0.8866
418.50 0.8869
418.60 0.8871
418.70 0.8874
418.80 0.8876
418.90 0.8879
419.00 0.8881
419.10 0.8884
419.20 0.8886
419.30 0.8888
419.40 0.8891
419.50 0.8893
419.60 0.8895
419.70 0.8898
419.80 0.89
419.90 0.8902
420.00 0.8905
420.10 0.8907
420.20 0.8909
420.30 0.8912
420.40 0.8915
420.50 0.8917
420.60 0.8919
420.70 0.8922
420.80 0.8924
420.90 0.8926
421.00 0.8928
421.10 0.8931
421.20 0.8933
421.30 0.8935
421.40 0.8938
421.50 0.894
421.60 0.8942
421.70 0.8945
421.80 0.8947
421.90 0.895
422.00 0.8952
422.10 0.8954
422.20 0.8956
422.30 0.8959
422.40 0.8961
422.50 0.8963
422.60 0.8965
422.70 0.8968
422.80 0.897
422.90 0.8973
423.00 0.8975
423.10 0.8977
423.20 0.8979
423.30 0.8982
423.40 0.8984
423.50 0.8986
423.60 0.8988
423.70 0.8991
423.80 0.8993
423.90 0.8995
424.00 0.8998
424.10 0.9
424.20 0.9002
424.30 0.9004
424.40 0.9006
424.50 0.9009
424.60 0.9011
424.70 0.9013
424.80 0.9016
424.90 0.9018
425.00 0.902
425.10 0.9022
425.20 0.9024
425.30 0.9026
425.40 0.9029
425.50 0.9031
425.60 0.9033
425.70 0.9036
425.80 0.9038
425.90 0.904
426.00 0.9042
426.10 0.9044
426.20 0.9046
426.30 0.9049
426.40 0.9051
426.50 0.9053
426.60 0.9055
426.70 0.9057
426.80 0.906
426.90 0.9062
427.00 0.9064
427.10 0.9066
427.20 0.9068
427.30 0.9071
427.40 0.9073
427.50 0.9075
427.60 0.9077
427.70 0.9079
427.80 0.9081
427.90 0.9083
428.00 0.9086
428.10 0.9088
428.20 0.909
428.30 0.9092
428.40 0.9094
428.50 0.9096
428.60 0.9098
428.70 0.91
428.80 0.9102
428.90 0.9104
429.00 0.9107
429.10 0.9109
429.20 0.9111
429.30 0.9113
429.40 0.9115
429.50 0.9117
429.60 0.9119
429.70 0.9121
429.80 0.9123
429.90 0.9125
430.00 0.9127
430.10 0.9129
430.20 0.9131
430.30 0.9133
430.40 0.9135
430.50 0.9137
430.60 0.9139
430.70 0.9142
430.80 0.9144
430.90 0.9146
431.00 0.9148
431.10 0.915
431.20 0.9152
431.30 0.9153
431.40 0.9155
431.50 0.9157
431.60 0.9159
431.70 0.9161
431.80 0.9163
431.90 0.9164
432.00 0.9166
432.10 0.9168
432.20 0.9169
432.30 0.9171
432.40 0.9172
432.50 0.9173
432.60 0.9174
432.70 0.9175
432.80 0.9176
432.90 0.9176
433.00 0.9176
433.10 0.9174
433.20 0.9172
433.30 0.9169
433.40 0.9161
433.50 0.9149
433.60 0.9133
433.70 0.9095
433.80 0.9026
433.90 0.8925
434.00 0.8706
434.10 0.8712
434.20 0.8944
434.30 0.9043
434.40 0.9113
434.50 0.9154
434.60 0.9173
434.70 0.9188
434.80 0.9199
434.90 0.9206
435.00 0.9213
435.10 0.9218
435.20 0.9222
435.30 0.9226
435.40 0.9229
435.50 0.9232
435.60 0.9235
435.70 0.9238
435.80 0.9241
435.90 0.9243
436.00 0.9245
436.10 0.9248
436.20 0.925
436.30 0.9252
436.40 0.9255
436.50 0.9257
436.60 0.9259
436.70 0.9261
436.80 0.9263
436.90 0.9265
437.00 0.9267
437.10 0.9269
437.20 0.9271
437.30 0.9273
437.40 0.9275
437.50 0.9277
437.60 0.9279
437.70 0.9281
437.80 0.9283
437.90 0.9285
438.00 0.9287
438.10 0.9289
438.20 0.9291
438.30 0.9293
438.40 0.9295
438.50 0.9297
438.60 0.9299
438.70 0.93
438.80 0.9302
438.90 0.9304
439.00 0.9306
439.10 0.9308
439.20 0.931
439.30 0.9312
439.40 0.9314
439.50 0.9316
439.60 0.9318
439.70 0.9319
439.80 0.9321
439.90 0.9323
440.00 0.9325
440.10 0.9327
440.20 0.9329
440.30 0.9331
440.40 0.9332
440.50 0.9334
440.60 0.9336
440.70 0.9338
440.80 0.934
440.90 0.9341
441.00 0.9343
441.10 0.9345
441.20 0.9347
441.30 0.9349
441.40 0.9351
441.50 0.9352
441.60 0.9354
441.70 0.9356
441.80 0.9358
441.90 0.9359
442.00 0.9361
442.10 0.9363
442.20 0.9365
442.30 0.9367
442.40 0.9368
442.50 0.937
442.60 0.9372
442.70 0.9374
442.80 0.9376
442.90 0.9377
443.00 0.9379
443.10 0.9381
443.20 0.9383
443.30 0.9384
443.40 0.9386
443.50 0.9388
443.60 0.939
443.70 0.9391
443.80 0.9393
443.90 0.9395
444.00 0.9397
444.10 0.9398
444.20 0.94
444.30 0.9402
444.40 0.9404
444.50 0.9405
444.60 0.9407
444.70 0.9409
444.80 0.9411
444.90 0.9412
445.00 0.9414
445.10 0.9416
445.20 0.9417
445.30 0.9419
445.40 0.9421
445.50 0.9422
445.60 0.9424
445.70 0.9426
445.80 0.9427
445.90 0.9429
446.00 0.9431
446.10 0.9432
446.20 0.9434
446.30 0.9436
446.40 0.9438
446.50 0.9439
446.60 0.9441
446.70 0.9443
446.80 0.9444
446.90 0.9446
447.00 0.9448
447.10 0.9449
447.20 0.9451
447.30 0.9453
447.40 0.9454
447.50 0.9456
447.60 0.9457
447.70 0.9459
447.80 0.9461
447.90 0.9462
448.00 0.9464
448.10 0.9466
448.20 0.9467
448.30 0.9469
448.40 0.9471
448.50 0.9472
448.60 0.9474
448.70 0.9476
448.80 0.9477
448.90 0.9479
449.00 0.948
449.10 0.9482
449.20 0.9483
449.30 0.9485
449.40 0.9487
449.50 0.9488
449.60 0.949
449.70 0.9491
449.80 0.9493
449.90 0.9495
450.00 0.9496
450.10 0.9498
450.20 0.95
450.30 0.9501
450.40 0.9503
450.50 0.9504
450.60 0.9506
450.70 0.9507
450.80 0.9509
450.90 0.9511
451.00 0.9512
451.10 0.9513
451.20 0.9515
451.30 0.9517
451.40 0.9518
451.50 0.952
451.60 0.9521
451.70 0.9523
451.80 0.9524
451.90 0.9526
452.00 0.9528
452.10 0.9529
452.20 0.953
452.30 0.9532
452.40 0.9533
452.50 0.9535
452.60 0.9537
452.70 0.9538
452.80 0.954
452.90 0.9541
453.00 0.9543
453.10 0.9544
453.20 0.9546
453.30 0.9547
453.40 0.9549
453.50 0.955
453.60 0.9552
453.70 0.9553
453.80 0.9555
453.90 0.9556
454.00 0.9558
454.10 0.9559
454.20 0.9561
454.30 0.9562
454.40 0.9564
454.50 0.9565
454.60 0.9567
454.70 0.9568
454.80 0.957
454.90 0.9571
455.00 0.9573
455.10 0.9574
455.20 0.9576
455.30 0.9577
455.40 0.9578
455.50 0.958
455.60 0.9581
455.70 0.9583
455.80 0.9584
455.90 0.9585
456.00 0.9587
456.10 0.9588
456.20 0.959
456.30 0.9591
456.40 0.9592
456.50 0.9594
456.60 0.9595
456.70 0.9597
456.80 0.9598
456.90 0.96
457.00 0.9601
457.10 0.9602
457.20 0.9604
457.30 0.9605
457.40 0.9607
457.50 0.9608
457.60 0.9609
457.70 0.9611
457.80 0.9612
457.90 0.9614
458.00 0.9615
458.10 0.9616
458.20 0.9618
458.30 0.9619
458.40 0.9621
458.50 0.9622
458.60 0.9623
458.70 0.9625
458.80 0.9626
458.90 0.9628
459.00 0.9629
459.10 0.963
459.20 0.9632
459.30 0.9633
459.40 0.9634
459.50 0.9636
459.60 0.9637
459.70 0.9638
459.80 0.964
459.90 0.9641
460.00 0.9643
460.10 0.9644
460.20 0.9645
460.30 0.9646
460.40 0.9648
460.50 0.9649
460.60 0.965
460.70 0.9652
460.80 0.9653
460.90 0.9654
461.00 0.9656
461.10 0.9657
461.20 0.9658
461.30 0.966
461.40 0.9661
461.50 0.9662
461.60 0.9664
461.70 0.9665
461.80 0.9666
461.90 0.9667
462.00 0.9669
462.10 0.967
462.20 0.9671
462.30 0.9673
462.40 0.9674
462.50 0.9675
462.60 0.9677
462.70 0.9678
462.80 0.9679
462.90 0.968
463.00 0.9682
463.10 0.9683
463.20 0.9684
463.30 0.9685
463.40 0.9687
463.50 0.9688
463.60 0.9689
463.70 0.969
463.80 0.9692
463.90 0.9693
464.00 0.9694
464.10 0.9695
464.20 0.9697
464.30 0.9698
464.40 0.9699
464.50 0.97
464.60 0.9702
464.70 0.9703
464.80 0.9704
464.90 0.9705
465.00 0.9706
465.10 0.9708
465.20 0.9709
465.30 0.971
465.40 0.9711
465.50 0.9713
465.60 0.9714
465.70 0.9715
465.80 0.9716
465.90 0.9717
466.00 0.9719
466.10 0.972
466.20 0.9721
466.30 0.9722
466.40 0.9723
466.50 0.9725
466.60 0.9726
466.70 0.9727
466.80 0.9728
466.90 0.9729
467.00 0.973
467.10 0.9732
467.20 0.9733
467.30 0.9734
467.40 0.9735
467.50 0.9736
467.60 0.9737
467.70 0.9739
467.80 0.974
467.90 0.9741
468.00 0.9742
468.10 0.9743
468.20 0.9744
468.30 0.9746
468.40 0.9747
468.50 0.9748
468.60 0.9749
468.70 0.975
468.80 0.9751
468.90 0.9752
469.00 0.9754
469.10 0.9755
469.20 0.9756
469.30 0.9757
469.40 0.9758
469.50 0.9759
469.60 0.976
469.70 0.9761
469.80 0.9763
469.90 0.9764
470.00 0.9765
470.10 0.9766
470.20 0.9767
470.30 0.9768
470.40 0.9769
470.50 0.977
470.60 0.9771
470.70 0.9772
470.80 0.9773
470.90 0.9774
471.00 0.9775
471.10 0.9777
471.20 0.9778
471.30 0.9779
471.40 0.978
471.50 0.9781
471.60 0.9782
471.70 0.9783
471.80 0.9784
471.90 0.9785
472.00 0.9786
472.10 0.9787
472.20 0.9788
472.30 0.979
472.40 0.9791
472.50 0.9792
472.60 0.9793
472.70 0.9794
472.80 0.9795
472.90 0.9796
473.00 0.9797
473.10 0.9798
473.20 0.9799
473.30 0.98
473.40 0.9801
473.50 0.9802
473.60 0.9803
473.70 0.9804
473.80 0.9805
473.90 0.9806
474.00 0.9807
474.10 0.9808
474.20 0.9809
474.30 0.981
474.40 0.9811
474.50 0.9812
474.60 0.9813
474.70 0.9814
474.80 0.9815
474.90 0.9816
475.00 0.9817
475.10 0.9818
475.20 0.9819
475.30 0.982
475.40 0.9821
475.50 0.9822
475.60 0.9823
475.70 0.9824
475.80 0.9825
475.90 0.9826
476.00 0.9827
476.10 0.9828
476.20 0.9829
476.30 0.983
476.40 0.9831
476.50 0.9832
476.60 0.9832
476.70 0.9833
476.80 0.9834
476.90 0.9835
477.00 0.9836
477.10 0.9837
477.20 0.9838
477.30 0.9839
477.40 0.984
477.50 0.9841
477.60 0.9842
477.70 0.9843
477.80 0.9844
477.90 0.9845
478.00 0.9845
478.10 0.9846
478.20 0.9847
478.30 0.9848
478.40 0.9849
478.50 0.985
478.60 0.9851
478.70 0.9852
478.80 0.9853
478.90 0.9854
479.00 0.9855
479.10 0.9855
479.20 0.9856
479.30 0.9857
479.40 0.9858
479.50 0.9859
479.60 0.986
479.70 0.9861
479.80 0.9862
479.90 0.9862
480.00 0.9863
480.10 0.9864
480.20 0.9865
480.30 0.9866
480.40 0.9867
480.50 0.9867
480.60 0.9868
480.70 0.9869
480.80 0.987
480.90 0.9871
481.00 0.9871
481.10 0.9872
481.20 0.9873
481.30 0.9874
481.40 0.9874
481.50 0.9875
481.60 0.9876
481.70 0.9877
481.80 0.9878
481.90 0.9878
482.00 0.9879
482.10 0.988
482.20 0.988
482.30 0.9881
482.40 0.9882
482.50 0.9882
482.60 0.9883
482.70 0.9884
482.80 0.9884
482.90 0.9885
483.00 0.9886
483.10 0.9886
483.20 0.9887
483.30 0.9887
483.40 0.9887
483.50 0.9887
483.60 0.9888
483.70 0.9888
483.80 0.9888
483.90 0.9888
484.00 0.9888
484.10 0.9889
484.20 0.9888
484.30 0.9887
484.40 0.9887
484.50 0.9886
484.60 0.9885
484.70 0.9882
484.80 0.9879
484.90 0.9875
485.00 0.9872
485.10 0.9868
485.20 0.986
485.30 0.9851
485.40 0.9834
485.50 0.9815
485.60 0.9776
485.70 0.9729
485.80 0.9615
485.90 0.9471
486.00 0.9195
486.10 0.8612
486.20 0.885
486.30 0.9325
486.40 0.9521
486.50 0.9671
486.60 0.9752
486.70 0.9802
486.80 0.9832
486.90 0.9853
487.00 0.9868
487.10 0.9879
487.20 0.9886
487.30 0.9891
487.40 0.9896
487.50 0.9901
487.60 0.9906
487.70 0.9909
487.80 0.9912
487.90 0.9914
488.00 0.9916
488.10 0.9918
488.20 0.992
488.30 0.9921
488.40 0.9923
488.50 0.9924
488.60 0.9925
488.70 0.9926
488.80 0.9928
488.90 0.9929
489.00 0.993
489.10 0.9931
489.20 0.9932
489.30 0.9933
489.40 0.9934
489.50 0.9935
489.60 0.9936
489.70 0.9937
489.80 0.9938
489.90 0.9939
490.00 0.994
490.10 0.9941
490.20 0.9941
490.30 0.9942
490.40 0.9943
490.50 0.9944
490.60 0.9944
490.70 0.9945
490.80 0.9946
490.90 0.9947
491.00 0.9947
491.10 0.9948
491.20 0.9949
491.30 0.995
491.40 0.995
491.50 0.9951
491.60 0.9952
491.70 0.9952
491.80 0.9953
491.90 0.9954
492.00 0.9954
492.10 0.9955
492.20 0.9956
492.30 0.9956
492.40 0.9957
492.50 0.9958
492.60 0.9958
492.70 0.9959
492.80 0.996
492.90 0.996
493.00 0.9961
493.10 0.9962
493.20 0.9962
493.30 0.9963
493.40 0.9964
493.50 0.9964
493.60 0.9965
493.70 0.9965
493.80 0.9966
493.90 0.9967
494.00 0.9967
494.10 0.9968
494.20 0.9969
494.30 0.9969
494.40 0.997
494.50 0.997
494.60 0.9971
494.70 0.9971
494.80 0.9972
494.90 0.9973
495.00 0.9973
495.10 0.9974
495.20 0.9974
495.30 0.9975
495.40 0.9976
495.50 0.9976
495.60 0.9977
495.70 0.9977
495.80 0.9978
495.90 0.9979
496.00 0.9979
496.10 0.998
496.20 0.998
496.30 0.9981
496.40 0.9981
496.50 0.9982
496.60 0.9982
496.70 0.9983
496.80 0.9983
496.90 0.9984
497.00 0.9984
497.10 0.9985
497.20 0.9985
497.30 0.9986
497.40 0.9987
497.50 0.9987
497.60 0.9988
497.70 0.9988
497.80 0.9989
497.90 0.9989
498.00 0.999
498.10 0.999
498.20 0.9991
498.30 0.9991
498.40 0.9992
498.50 0.9992
498.60 0.9993
498.70 0.9993
498.80 0.9994
498.90 0.9994
499.00 0.9995
499.10 0.9995
499.20 0.9996
499.30 0.9996
499.40 0.9997
499.50 0.9997
499.60 0.9998
499.70 0.9998
499.80 0.9999
499.90 0.9999
500.00 1
500.10 1
500.20 1
500.30 1
500.40 1
500.50 1
500.60 1
500.70 1
500.80 1
500.90 1
501.00 1
501.10 1
501.20 1.001
501.30 1.001
501.40 1.001
501.50 1.001
501.60 1.001
501.70 1.001
501.80 1.001
501.90 1.001
502.00 1.001
502.10 1.001
502.20 1.001
502.30 1.001
502.40 1.001
502.50 1.001
502.60 1.001
502.70 1.001
502.80 1.001
502.90 1.001
503.00 1.001
503.10 1.001
503.20 1.001
503.30 1.001
503.40 1.002
503.50 1.002
503.60 1.002
503.70 1.002
503.80 1.002
503.90 1.002
504.00 1.002
504.10 1.002
504.20 1.002
504.30 1.002
504.40 1.002
504.50 1.002
504.60 1.002
504.70 1.002
504.80 1.002
504.90 1.002
505.00 1.002
505.10 1.002
505.20 1.002
505.30 1.002
505.40 1.002
505.50 1.002
505.60 1.002
505.70 1.002
505.80 1.002
505.90 1.003
506.00 1.003
506.10 1.003
506.20 1.003
506.30 1.003
506.40 1.003
506.50 1.003
506.60 1.003
506.70 1.003
506.80 1.003
506.90 1.003
507.00 1.003
507.10 1.003
507.20 1.003
507.30 1.003
507.40 1.003
507.50 1.003
507.60 1.003
507.70 1.003
507.80 1.003
507.90 1.003
508.00 1.003
508.10 1.003
508.20 1.003
508.30 1.003
508.40 1.003
508.50 1.003
508.60 1.003
508.70 1.003
508.80 1.003
508.90 1.004
509.00 1.004
509.10 1.004
509.20 1.004
509.30 1.004
509.40 1.004
509.50 1.004
509.60 1.004
509.70 1.004
509.80 1.004
509.90 1.004
510.00 1.004
510.10 1.004
510.20 1.004
510.30 1.004
510.40 1.004
510.50 1.004
510.60 1.004
510.70 1.004
510.80 1.004
510.90 1.004
511.00 1.004
511.10 1.004
511.20 1.004
511.30 1.004
511.40 1.004
511.50 1.004
511.60 1.004
511.70 1.004
511.80 1.004
511.90 1.004
512.00 1.004
512.10 1.004
512.20 1.004
512.30 1.004
512.40 1.005
512.50 1.005
512.60 1.005
512.70 1.005
512.80 1.005
512.90 1.005
513.00 1.005
513.10 1.005
513.20 1.005
513.30 1.005
513.40 1.005
513.50 1.005
513.60 1.005
513.70 1.005
513.80 1.005
513.90 1.005
514.00 1.005
514.10 1.005
514.20 1.005
514.30 1.005
514.40 1.005
514.50 1.005
514.60 1.005
514.70 1.005
514.80 1.005
514.90 1.005
515.00 1.005
515.10 1.005
515.20 1.005
515.30 1.005
515.40 1.005
515.50 1.005
515.60 1.005
515.70 1.005
515.80 1.005
515.90 1.005
516.00 1.005
516.10 1.005
516.20 1.005
516.30 1.005
516.40 1.005
516.50 1.005
516.60 1.005
516.70 1.005
516.80 1.005
516.90 1.005
517.00 1.005
517.10 1.006
517.20 1.006
517.30 1.006
517.40 1.006
517.50 1.006
517.60 1.006
517.70 1.006
517.80 1.006
517.90 1.006
518.00 1.006
518.10 1.006
518.20 1.006
518.30 1.006
518.40 1.006
518.50 1.006
518.60 1.006
518.70 1.006
518.80 1.006
518.90 1.006
519.00 1.006
519.10 1.006
519.20 1.006
519.30 1.006
519.40 1.006
519.50 1.006
519.60 1.006
519.70 1.006
519.80 1.006
519.90 1.006
520.00 1.006
520.10 1.006
520.20 1.006
520.30 1.006
520.40 1.006
520.50 1.006
520.60 1.006
520.70 1.006
520.80 1.006
520.90 1.006
521.00 1.006
521.10 1.006
521.20 1.006
521.30 1.006
521.40 1.006
521.50 1.006
521.60 1.006
521.70 1.006
521.80 1.006
521.90 1.006
522.00 1.006
522.10 1.006
522.20 1.006
522.30 1.006
522.40 1.006
522.50 1.006
522.60 1.006
522.70 1.006
522.80 1.006
522.90 1.006
523.00 1.006
523.10 1.006
523.20 1.006
523.30 1.006
523.40 1.006
523.50 1.006
523.60 1.006
523.70 1.006
523.80 1.006
523.90 1.006
524.00 1.006
524.10 1.006
524.20 1.006
524.30 1.006
524.40 1.006
524.50 1.006
524.60 1.006
524.70 1.006
524.80 1.006
524.90 1.006
525.00 1.006
525.10 1.006
525.20 1.006
525.30 1.006
525.40 1.006
525.50 1.006
525.60 1.006
525.70 1.006
525.80 1.006
525.90 1.006
526.00 1.006
526.10 1.006
526.20 1.006
526.30 1.006
526.40 1.006
526.50 1.006
526.60 1.006
526.70 1.006
526.80 1.006
526.90 1.006
527.00 1.006
527.10 1.006
527.20 1.006
527.30 1.006
527.40 1.006
527.50 1.006
527.60 1.006
527.70 1.006
527.80 1.006
527.90 1.006
528.00 1.006
528.10 1.006
528.20 1.006
528.30 1.006
528.40 1.006
528.50 1.006
528.60 1.006
528.70 1.006
528.80 1.006
528.90 1.006
529.00 1.006
529.10 1.006
529.20 1.006
529.30 1.006
529.40 1.006
529.50 1.006
529.60 1.006
529.70 1.006
529.80 1.006
529.90 1.006
530.00 1.006
530.10 1.006
530.20 1.006
530.30 1.006
530.40 1.006
530.50 1.006
530.60 1.006
530.70 1.006
530.80 1.006
530.90 1.006
531.00 1.006
531.10 1.006
531.20 1.006
531.30 1.006
531.40 1.006
531.50 1.006
531.60 1.006
531.70 1.006
531.80 1.006
531.90 1.006
532.00 1.006
532.10 1.006
532.20 1.006
532.30 1.006
532.40 1.006
532.50 1.006
532.60 1.006
532.70 1.006
532.80 1.006
532.90 1.006
533.00 1.006
533.10 1.006
533.20 1.006
533.30 1.006
533.40 1.006
533.50 1.006
533.60 1.006
533.70 1.006
533.80 1.006
533.90 1.006
534.00 1.006
534.10 1.006
534.20 1.006
534.30 1.006
534.40 1.006
534.50 1.006
534.60 1.006
534.70 1.006
534.80 1.006
534.90 1.006
535.00 1.006
535.10 1.006
535.20 1.006
535.30 1.006
535.40 1.006
535.50 1.006
535.60 1.006
535.70 1.006
535.80 1.006
535.90 1.006
536.00 1.006
536.10 1.006
536.20 1.006
536.30 1.006
536.40 1.006
536.50 1.006
536.60 1.006
536.70 1.006
536.80 1.006
536.90 1.006
537.00 1.006
537.10 1.006
537.20 1.006
537.30 1.006
537.40 1.006
537.50 1.006
537.60 1.006
537.70 1.006
537.80 1.006
537.90 1.006
538.00 1.006
538.10 1.006
538.20 1.006
538.30 1.006
538.40 1.006
538.50 1.005
538.60 1.005
538.70 1.005
538.80 1.005
538.90 1.005
539.00 1.005
539.10 1.005
539.20 1.005
539.30 1.005
539.40 1.005
539.50 1.005
539.60 1.005
539.70 1.005
539.80 1.005
539.90 1.005
540.00 1.005
540.10 1.005
540.20 1.005
540.30 1.005
540.40 1.005
540.50 1.005
540.60 1.005
540.70 1.005
540.80 1.005
540.90 1.005
541.00 1.005
541.10 1.005
541.20 1.005
541.30 1.005
541.40 1.005
541.50 1.005
541.60 1.005
541.70 1.005
541.80 1.005
541.90 1.005
542.00 1.005
542.10 1.005
542.20 1.005
542.30 1.005
542.40 1.005
542.50 1.005
542.60 1.005
542.70 1.005
542.80 1.005
542.90 1.005
543.00 1.005
543.10 1.005
543.20 1.005
543.30 1.005
543.40 1.005
543.50 1.004
543.60 1.004
543.70 1.004
543.80 1.004
543.90 1.004
544.00 1.004
544.10 1.004
544.20 1.004
544.30 1.004
544.40 1.004
544.50 1.004
544.60 1.004
544.70 1.004
544.80 1.004
544.90 1.004
545.00 1.004
545.10 1.004
545.20 1.004
545.30 1.004
545.40 1.004
545.50 1.004
545.60 1.004
545.70 1.004
545.80 1.004
545.90 1.004
546.00 1.004
546.10 1.004
546.20 1.004
546.30 1.004
546.40 1.004
546.50 1.004
546.60 1.004
546.70 1.004
546.80 1.004
546.90 1.004
547.00 1.004
547.10 1.004
547.20 1.004
547.30 1.004
547.40 1.003
547.50 1.003
547.60 1.003
547.70 1.003
547.80 1.003
547.90 1.003
548.00 1.003
548.10 1.003
548.20 1.003
548.30 1.003
548.40 1.003
548.50 1.003
548.60 1.003
548.70 1.003
548.80 1.003
548.90 1.003
549.00 1.003
549.10 1.003
549.20 1.003
549.30 1.003
549.40 1.003
549.50 1.003
549.60 1.003
549.70 1.003
549.80 1.003
549.90 1.003
550.00 1.003
550.10 1.003
550.20 1.003
550.30 1.003
550.40 1.003
550.50 1.003
550.60 1.002
550.70 1.002
550.80 1.002
550.90 1.002
551.00 1.002
551.10 1.002
551.20 1.002
551.30 1.002
551.40 1.002
551.50 1.002
551.60 1.002
551.70 1.002
551.80 1.002
551.90 1.002
552.00 1.002
552.10 1.002
552.20 1.002
552.30 1.002
552.40 1.002
552.50 1.002
552.60 1.002
552.70 1.002
552.80 1.002
552.90 1.002
553.00 1.002
553.10 1.002
553.20 1.002
553.30 1.002
553.40 1.002
553.50 1.001
553.60 1.001
553.70 1.001
553.80 1.001
553.90 1.001
554.00 1.001
554.10 1.001
554.20 1.001
554.30 1.001
554.40 1.001
554.50 1.001
554.60 1.001
554.70 1.001
554.80 1.001
554.90 1.001
555.00 1.001
555.10 1.001
555.20 1.001
555.30 1.001
555.40 1.001
555.50 1.001
555.60 1.001
555.70 1.001
555.80 1.001
555.90 1.001
556.00 1
556.10 1
556.20 1
556.30 1
556.40 1
556.50 1
556.60 1
556.70 1
556.80 1
556.90 1
557.00 1
557.10 1
557.20 1
557.30 1
557.40 0.9999
557.50 0.9999
557.60 0.9999
557.70 0.9998
557.80 0.9998
557.90 0.9997
558.00 0.9997
558.10 0.9996
558.20 0.9996
558.30 0.9996
558.40 0.9995
558.50 0.9995
558.60 0.9994
558.70 0.9994
558.80 0.9993
558.90 0.9993
559.00 0.9993
559.10 0.9992
559.20 0.9992
559.30 0.9991
559.40 0.9991
559.50 0.999
559.60 0.999
559.70 0.9989
559.80 0.9989
559.90 0.9989
560.00 0.9988
560.10 0.9988
560.20 0.9987
560.30 0.9987
560.40 0.9986
560.50 0.9986
560.60 0.9985
560.70 0.9985
560.80 0.9984
560.90 0.9984
561.00 0.9984
561.10 0.9983
561.20 0.9983
561.30 0.9982
561.40 0.9982
561.50 0.9981
561.60 0.9981
561.70 0.998
561.80 0.998
561.90 0.9979
562.00 0.9979
562.10 0.9978
562.20 0.9978
562.30 0.9977
562.40 0.9977
562.50 0.9976
562.60 0.9976
562.70 0.9976
562.80 0.9975
562.90 0.9975
563.00 0.9974
563.10 0.9974
563.20 0.9973
563.30 0.9973
563.40 0.9972
563.50 0.9972
563.60 0.9971
563.70 0.9971
563.80 0.997
563.90 0.997
564.00 0.9969
564.10 0.9969
564.20 0.9968
564.30 0.9968
564.40 0.9967
564.50 0.9967
564.60 0.9966
564.70 0.9966
564.80 0.9965
564.90 0.9965
565.00 0.9964
565.10 0.9964
565.20 0.9963
565.30 0.9963
565.40 0.9962
565.50 0.9962
565.60 0.9961
565.70 0.9961
565.80 0.996
565.90 0.996
566.00 0.9959
566.10 0.9959
566.20 0.9958
566.30 0.9957
566.40 0.9957
566.50 0.9956
566.60 0.9956
566.70 0.9955
566.80 0.9955
566.90 0.9954
567.00 0.9954
567.10 0.9953
567.20 0.9953
567.30 0.9952
567.40 0.9952
567.50 0.9951
567.60 0.9951
567.70 0.995
567.80 0.995
567.90 0.9949
568.00 0.9948
568.10 0.9948
568.20 0.9947
568.30 0.9947
568.40 0.9946
568.50 0.9946
568.60 0.9945
568.70 0.9945
568.80 0.9944
568.90 0.9944
569.00 0.9943
569.10 0.9943
569.20 0.9942
569.30 0.9941
569.40 0.9941
569.50 0.994
569.60 0.994
569.70 0.9939
569.80 0.9939
569.90 0.9938
570.00 0.9937
570.10 0.9937
570.20 0.9936
570.30 0.9936
570.40 0.9935
570.50 0.9935
570.60 0.9934
570.70 0.9933
570.80 0.9933
570.90 0.9932
571.00 0.9932
571.10 0.9931
571.20 0.9931
571.30 0.993
571.40 0.9929
571.50 0.9929
571.60 0.9928
571.70 0.9928
571.80 0.9927
571.90 0.9927
572.00 0.9926
572.10 0.9925
572.20 0.9925
572.30 0.9924
572.40 0.9924
572.50 0.9923
572.60 0.9923
572.70 0.9922
572.80 0.9921
572.90 0.9921
573.00 0.992
573.10 0.992
573.20 0.9919
573.30 0.9918
573.40 0.9918
573.50 0.9917
573.60 0.9917
573.70 0.9916
573.80 0.9915
573.90 0.9915
574.00 0.9914
574.10 0.9914
574.20 0.9913
574.30 0.9912
574.40 0.9912
574.50 0.9911
574.60 0.9911
574.70 0.991
574.80 0.9909
574.90 0.9909
575.00 0.9908
575.10 0.9907
575.20 0.9907
575.30 0.9906
575.40 0.9906
575.50 0.9905
575.60 0.9904
575.70 0.9904
575.80 0.9903
575.90 0.9902
576.00 0.9902
576.10 0.9901
576.20 0.9901
576.30 0.99
576.40 0.9899
576.50 0.9899
576.60 0.9898
576.70 0.9897
576.80 0.9897
576.90 0.9896
577.00 0.9895
577.10 0.9895
577.20 0.9894
577.30 0.9894
577.40 0.9893
577.50 0.9892
577.60 0.9892
577.70 0.9891
577.80 0.989
577.90 0.989
578.00 0.9889
578.10 0.9889
578.20 0.9888
578.30 0.9887
578.40 0.9887
578.50 0.9886
578.60 0.9885
578.70 0.9885
578.80 0.9884
578.90 0.9883
579.00 0.9883
579.10 0.9882
579.20 0.9881
579.30 0.9881
579.40 0.988
579.50 0.9879
579.60 0.9879
579.70 0.9878
579.80 0.9877
579.90 0.9877
580.00 0.9876
580.10 0.9875
580.20 0.9875
580.30 0.9874
580.40 0.9873
580.50 0.9873
580.60 0.9872
580.70 0.9871
580.80 0.9871
580.90 0.987
581.00 0.9869
581.10 0.9869
581.20 0.9868
581.30 0.9867
581.40 0.9866
581.50 0.9866
581.60 0.9865
581.70 0.9864
581.80 0.9864
581.90 0.9863
582.00 0.9862
582.10 0.9862
582.20 0.9861
582.30 0.986
582.40 0.986
582.50 0.9859
582.60 0.9858
582.70 0.9858
582.80 0.9857
582.90 0.9856
583.00 0.9856
583.10 0.9855
583.20 0.9854
583.30 0.9853
583.40 0.9853
583.50 0.9852
583.60 0.9851
583.70 0.9851
583.80 0.985
583.90 0.9849
584.00 0.9848
584.10 0.9848
584.20 0.9847
584.30 0.9846
584.40 0.9846
584.50 0.9845
584.60 0.9844
584.70 0.9843
584.80 0.9843
584.90 0.9842
585.00 0.9841
585.10 0.9841
585.20 0.984
585.30 0.9839
585.40 0.9839
585.50 0.9838
585.60 0.9837
585.70 0.9836
585.80 0.9836
585.90 0.9835
586.00 0.9834
586.10 0.9834
586.20 0.9833
586.30 0.9832
586.40 0.9831
586.50 0.9831
586.60 0.983
586.70 0.9829
586.80 0.9828
586.90 0.9828
587.00 0.9827
587.10 0.9826
587.20 0.9825
587.30 0.9825
587.40 0.9824
587.50 0.9823
587.60 0.9822
587.70 0.9822
587.80 0.9821
587.90 0.982
588.00 0.9819
588.10 0.9819
588.20 0.9818
588.30 0.9817
588.40 0.9816
588.50 0.9816
588.60 0.9815
588.70 0.9814
588.80 0.9814
588.90 0.9813
589.00 0.9812
589.10 0.9811
589.20 0.9811
589.30 0.981
589.40 0.9809
589.50 0.9808
589.60 0.9808
589.70 0.9807
589.80 0.9806
589.90 0.9805
590.00 0.9805
590.10 0.9804
590.20 0.9803
590.30 0.9802
590.40 0.9801
590.50 0.9801
590.60 0.98
590.70 0.9799
590.80 0.9798
590.90 0.9798
591.00 0.9797
591.10 0.9796
591.20 0.9795
591.30 0.9794
591.40 0.9794
591.50 0.9793
591.60 0.9792
591.70 0.9791
591.80 0.9791
591.90 0.979
592.00 0.9789
592.10 0.9788
592.20 0.9787
592.30 0.9787
592.40 0.9786
592.50 0.9785
592.60 0.9784
592.70 0.9784
592.80 0.9783
592.90 0.9782
593.00 0.9781
593.10 0.978
593.20 0.978
593.30 0.9779
593.40 0.9778
593.50 0.9777
593.60 0.9776
593.70 0.9776
593.80 0.9775
593.90 0.9774
594.00 0.9773
594.10 0.9773
594.20 0.9772
594.30 0.9771
594.40 0.977
594.50 0.9769
594.60 0.9769
594.70 0.9768
594.80 0.9767
594.90 0.9766
595.00 0.9765
595.10 0.9765
595.20 0.9764
595.30 0.9763
595.40 0.9762
595.50 0.9761
595.60 0.976
595.70 0.976
595.80 0.9759
595.90 0.9758
596.00 0.9757
596.10 0.9756
596.20 0.9756
596.30 0.9755
596.40 0.9754
596.50 0.9753
596.60 0.9752
596.70 0.9751
596.80 0.9751
596.90 0.975
597.00 0.9749
597.10 0.9748
597.20 0.9747
597.30 0.9746
597.40 0.9746
597.50 0.9745
597.60 0.9744
597.70 0.9743
597.80 0.9742
597.90 0.9742
598.00 0.9741
598.10 0.974
598.20 0.9739
598.30 0.9738
598.40 0.9737
598.50 0.9737
598.60 0.9736
598.70 0.9735
598.80 0.9734
598.90 0.9733
599.00 0.9732
599.10 0.9732
599.20 0.9731
599.30 0.973
599.40 0.9729
599.50 0.9728
599.60 0.9727
599.70 0.9727
599.80 0.9726
599.90 0.9725
600.00 0.9724
600.10 0.9723
600.20 0.9722
600.30 0.9721
600.40 0.9721
600.50 0.972
600.60 0.9719
600.70 0.9718
600.80 0.9717
600.90 0.9716
601.00 0.9715
601.10 0.9715
601.20 0.9714
601.30 0.9713
601.40 0.9712
601.50 0.9711
601.60 0.971
601.70 0.9709
601.80 0.9709
601.90 0.9708
602.00 0.9707
602.10 0.9706
602.20 0.9705
602.30 0.9704
602.40 0.9703
602.50 0.9702
602.60 0.9702
602.70 0.9701
602.80 0.97
602.90 0.9699
603.00 0.9698
603.10 0.9697
603.20 0.9696
603.30 0.9696
603.40 0.9695
603.50 0.9694
603.60 0.9693
603.70 0.9692
603.80 0.9691
603.90 0.969
604.00 0.969
604.10 0.9689
604.20 0.9688
604.30 0.9687
604.40 0.9686
604.50 0.9685
604.60 0.9684
604.70 0.9683
604.80 0.9682
604.90 0.9682
605.00 0.9681
605.10 0.968
605.20 0.9679
605.30 0.9678
605.40 0.9677
605.50 0.9676
605.60 0.9675
605.70 0.9674
605.80 0.9673
605.90 0.9673
606.00 0.9672
606.10 0.9671
606.20 0.967
606.30 0.9669
606.40 0.9668
606.50 0.9667
606.60 0.9666
606.70 0.9665
606.80 0.9664
606.90 0.9664
607.00 0.9663
607.10 0.9662
607.20 0.9661
607.30 0.966
607.40 0.9659
607.50 0.9658
607.60 0.9657
607.70 0.9656
607.80 0.9655
607.90 0.9655
608.00 0.9654
608.10 0.9653
608.20 0.9652
608.30 0.9651
608.40 0.965
608.50 0.9649
608.60 0.9648
608.70 0.9647
608.80 0.9646
608.90 0.9646
609.00 0.9645
609.10 0.9644
609.20 0.9643
609.30 0.9642
609.40 0.9641
609.50 0.964
609.60 0.9639
609.70 0.9638
609.80 0.9637
609.90 0.9636
610.00 0.9635
610.10 0.9634
610.20 0.9634
610.30 0.9633
610.40 0.9632
610.50 0.9631
610.60 0.963
610.70 0.9629
610.80 0.9628
610.90 0.9627
611.00 0.9626
611.10 0.9625
611.20 0.9624
611.30 0.9623
611.40 0.9622
611.50 0.9621
611.60 0.962
611.70 0.9619
611.80 0.9619
611.90 0.9618
612.00 0.9617
612.10 0.9616
612.20 0.9615
612.30 0.9614
612.40 0.9613
612.50 0.9612
612.60 0.9611
612.70 0.961
612.80 0.9609
612.90 0.9608
613.00 0.9607
613.10 0.9606
613.20 0.9606
613.30 0.9605
613.40 0.9604
613.50 0.9603
613.60 0.9602
613.70 0.9601
613.80 0.96
613.90 0.9599
614.00 0.9598
614.10 0.9597
614.20 0.9596
614.30 0.9595
614.40 0.9594
614.50 0.9593
614.60 0.9592
614.70 0.9591
614.80 0.959
614.90 0.9589
615.00 0.9588
615.10 0.9587
615.20 0.9586
615.30 0.9585
615.40 0.9584
615.50 0.9584
615.60 0.9583
615.70 0.9582
615.80 0.9581
615.90 0.958
616.00 0.9579
616.10 0.9578
616.20 0.9577
616.30 0.9576
616.40 0.9575
616.50 0.9574
616.60 0.9573
616.70 0.9572
616.80 0.9571
616.90 0.957
617.00 0.9569
617.10 0.9568
617.20 0.9567
617.30 0.9566
617.40 0.9565
617.50 0.9564
617.60 0.9563
617.70 0.9562
617.80 0.9561
617.90 0.956
618.00 0.9559
618.10 0.9558
618.20 0.9557
618.30 0.9556
618.40 0.9555
618.50 0.9554
618.60 0.9553
618.70 0.9552
618.80 0.9551
618.90 0.955
619.00 0.9549
619.10 0.9548
619.20 0.9547
619.30 0.9546
619.40 0.9545
619.50 0.9544
619.60 0.9543
619.70 0.9542
619.80 0.9541
619.90 0.9541
620.00 0.954
620.10 0.9539
620.20 0.9538
620.30 0.9537
620.40 0.9536
620.50 0.9534
620.60 0.9533
620.70 0.9532
620.80 0.9531
620.90 0.953
621.00 0.9529
621.10 0.9528
621.20 0.9527
621.30 0.9526
621.40 0.9525
621.50 0.9524
621.60 0.9523
621.70 0.9522
621.80 0.9521
621.90 0.952
622.00 0.9519
622.10 0.9518
622.20 0.9517
622.30 0.9516
622.40 0.9515
622.50 0.9514
622.60 0.9513
622.70 0.9512
622.80 0.9511
622.90 0.951
623.00 0.951
623.10 0.9509
623.20 0.9508
623.30 0.9506
623.40 0.9505
623.50 0.9504
623.60 0.9503
623.70 0.9502
623.80 0.9501
623.90 0.95
624.00 0.9499
624.10 0.9498
624.20 0.9497
624.30 0.9496
624.40 0.9495
624.50 0.9494
624.60 0.9493
624.70 0.9492
624.80 0.9491
624.90 0.949
625.00 0.9489
625.10 0.9488
625.20 0.9487
625.30 0.9486
625.40 0.9485
625.50 0.9484
625.60 0.9483
625.70 0.9482
625.80 0.9481
625.90 0.948
626.00 0.9479
626.10 0.9478
626.20 0.9477
626.30 0.9476
626.40 0.9475
626.50 0.9474
626.60 0.9473
626.70 0.9471
626.80 0.947
626.90 0.9469
627.00 0.9468
627.10 0.9467
627.20 0.9466
627.30 0.9465
627.40 0.9464
627.50 0.9463
627.60 0.9462
627.70 0.9461
627.80 0.946
627.90 0.9459
628.00 0.9458
628.10 0.9457
628.20 0.9456
628.30 0.9455
628.40 0.9454
628.50 0.9453
628.60 0.9452
628.70 0.9451
628.80 0.945
628.90 0.9449
629.00 0.9447
629.10 0.9446
629.20 0.9445
629.30 0.9444
629.40 0.9443
629.50 0.9442
629.60 0.9441
629.70 0.944
629.80 0.9439
629.90 0.9438
630.00 0.9437
630.10 0.9436
630.20 0.9435
630.30 0.9434
630.40 0.9433
630.50 0.9432
630.60 0.9431
630.70 0.943
630.80 0.9428
630.90 0.9427
631.00 0.9426
631.10 0.9425
631.20 0.9424
631.30 0.9423
631.40 0.9422
631.50 0.9421
631.60 0.942
631.70 0.9419
631.80 0.9418
631.90 0.9417
632.00 0.9416
632.10 0.9415
632.20 0.9414
632.30 0.9413
632.40 0.9412
632.50 0.941
632.60 0.9409
632.70 0.9408
632.80 0.9407
632.90 0.9406
633.00 0.9405
633.10 0.9404
633.20 0.9403
633.30 0.9402
633.40 0.9401
633.50 0.94
633.60 0.9399
633.70 0.9398
633.80 0.9397
633.90 0.9395
634.00 0.9394
634.10 0.9393
634.20 0.9392
634.30 0.9391
634.40 0.939
634.50 0.9389
634.60 0.9388
634.70 0.9387
634.80 0.9386
634.90 0.9385
635.00 0.9384
635.10 0.9382
635.20 0.9381
635.30 0.938
635.40 0.9379
635.50 0.9378
635.60 0.9377
635.70 0.9376
635.80 0.9375
635.90 0.9374
636.00 0.9373
636.10 0.9372
636.20 0.9371
636.30 0.9369
636.40 0.9368
636.50 0.9367
636.60 0.9366
636.70 0.9365
636.80 0.9364
636.90 0.9363
637.00 0.9362
637.10 0.9361
637.20 0.9359
637.30 0.9358
637.40 0.9357
637.50 0.9356
637.60 0.9355
637.70 0.9354
637.80 0.9353
637.90 0.9352
638.00 0.9351
638.10 0.935
638.20 0.9349
638.30 0.9347
638.40 0.9346
638.50 0.9345
638.60 0.9344
638.70 0.9343
638.80 0.9342
638.90 0.9341
639.00 0.934
639.10 0.9339
639.20 0.9337
639.30 0.9336
639.40 0.9335
639.50 0.9334
639.60 0.9333
639.70 0.9332
639.80 0.9331
639.90 0.933
640.00 0.9329
640.10 0.9327
640.20 0.9326
640.30 0.9325
640.40 0.9324
640.50 0.9323
640.60 0.9322
640.70 0.9321
640.80 0.932
640.90 0.9318
641.00 0.9317
641.10 0.9316
641.20 0.9315
641.30 0.9314
641.40 0.9313
641.50 0.9312
641.60 0.9311
641.70 0.9309
641.80 0.9308
641.90 0.9307
642.00 0.9306
642.10 0.9305
642.20 0.9304
642.30 0.9303
642.40 0.9301
642.50 0.93
642.60 0.9299
642.70 0.9298
642.80 0.9297
642.90 0.9296
643.00 0.9295
643.10 0.9293
643.20 0.9292
643.30 0.9291
643.40 0.929
643.50 0.9289
643.60 0.9288
643.70 0.9286
643.80 0.9285
643.90 0.9284
644.00 0.9283
644.10 0.9282
644.20 0.9281
644.30 0.928
644.40 0.9278
644.50 0.9277
644.60 0.9276
644.70 0.9275
644.80 0.9274
644.90 0.9273
645.00 0.9271
645.10 0.927
645.20 0.9269
645.30 0.9268
645.40 0.9267
645.50 0.9266
645.60 0.9264
645.70 0.9263
645.80 0.9262
645.90 0.9261
646.00 0.926
646.10 0.9258
646.20 0.9257
646.30 0.9256
646.40 0.9255
646.50 0.9254
646.60 0.9253
646.70 0.9251
646.80 0.925
646.90 0.9249
647.00 0.9248
647.10 0.9247
647.20 0.9245
647.30 0.9244
647.40 0.9243
647.50 0.9242
647.60 0.924
647.70 0.9239
647.80 0.9238
647.90 0.9237
648.00 0.9236
648.10 0.9234
648.20 0.9233
648.30 0.9232
648.40 0.9231
648.50 0.9229
648.60 0.9228
648.70 0.9227
648.80 0.9225
648.90 0.9224
649.00 0.9223
649.10 0.9222
649.20 0.922
649.30 0.9219
649.40 0.9218
649.50 0.9216
649.60 0.9215
649.70 0.9214
649.80 0.9212
649.90 0.9211
650.00 0.921
650.10 0.9208
650.20 0.9207
650.30 0.9206
650.40 0.9204
650.50 0.9203
650.60 0.9201
650.70 0.92
650.80 0.9198
650.90 0.9197
651.00 0.9195
651.10 0.9194
651.20 0.9192
651.30 0.9191
651.40 0.9189
651.50 0.9187
651.60 0.9185
651.70 0.9184
651.80 0.9182
651.90 0.918
652.00 0.9178
652.10 0.9176
652.20 0.9175
652.30 0.9173
652.40 0.917
652.50 0.9168
652.60 0.9166
652.70 0.9163
652.80 0.9161
652.90 0.9158
653.00 0.9156
653.10 0.9154
653.20 0.9151
653.30 0.9148
653.40 0.9144
653.50 0.9139
653.60 0.9135
653.70 0.913
653.80 0.9126
653.90 0.9121
654.00 0.9117
654.10 0.9112
654.20 0.9107
654.30 0.9102
654.40 0.9092
654.50 0.9082
654.60 0.9073
654.70 0.9063
654.80 0.9051
654.90 0.9029
655.00 0.9007
655.10 0.8986
655.20 0.8964
655.30 0.8938
655.40 0.8894
655.50 0.8845
655.60 0.8773
655.70 0.8688
655.80 0.8555
655.90 0.8392
656.00 0.811
656.10 0.7795
656.20 0.7189
656.30 0.6526
656.40 0.7456
656.50 0.7929
656.60 0.8212
656.70 0.8464
656.80 0.8595
656.90 0.8715
657.00 0.8785
657.10 0.885
657.20 0.8891
657.30 0.8928
657.40 0.8947
657.50 0.8967
657.60 0.8986
657.70 0.9006
657.80 0.9023
657.90 0.903
658.00 0.9037
658.10 0.9045
658.20 0.9052
658.30 0.9058
658.40 0.906
658.50 0.9063
658.60 0.9065
658.70 0.9067
658.80 0.9069
658.90 0.9071
659.00 0.9073
659.10 0.9076
659.20 0.9078
659.30 0.9079
659.40 0.9079
659.50 0.9079
659.60 0.908
659.70 0.908
659.80 0.908
659.90 0.908
660.00 0.908
660.10 0.908
660.20 0.908
660.30 0.908
660.40 0.9079
660.50 0.9078
660.60 0.9078
660.70 0.9077
660.80 0.9077
660.90 0.9076
661.00 0.9075
661.10 0.9075
661.20 0.9074
661.30 0.9074
661.40 0.9073
661.50 0.9072
661.60 0.9071
661.70 0.907
661.80 0.9069
661.90 0.9068
662.00 0.9067
662.10 0.9067
662.20 0.9066
662.30 0.9065
662.40 0.9064
662.50 0.9063
662.60 0.9062
662.70 0.9061
662.80 0.906
662.90 0.9059
663.00 0.9058
663.10 0.9057
663.20 0.9056
663.30 0.9055
663.40 0.9054
663.50 0.9052
663.60 0.9051
663.70 0.905
663.80 0.9049
663.90 0.9048
664.00 0.9047
664.10 0.9046
664.20 0.9045
664.30 0.9044
664.40 0.9043
664.50 0.9042
664.60 0.904
664.70 0.9039
664.80 0.9038
664.90 0.9037
665.00 0.9036
665.10 0.9035
665.20 0.9034
665.30 0.9033
665.40 0.9031
665.50 0.903
665.60 0.9029
665.70 0.9028
665.80 0.9027
665.90 0.9026
666.00 0.9025
666.10 0.9023
666.20 0.9022
666.30 0.9021
666.40 0.902
666.50 0.9019
666.60 0.9018
666.70 0.9016
666.80 0.9015
666.90 0.9014
667.00 0.9013
667.10 0.9012
667.20 0.9011
667.30 0.9009
667.40 0.9008
667.50 0.9007
667.60 0.9006
667.70 0.9005
667.80 0.9004
667.90 0.9002
668.00 0.9001
668.10 0.9
668.20 0.8999
668.30 0.8998
668.40 0.8996
668.50 0.8995
668.60 0.8994
668.70 0.8993
668.80 0.8992
668.90 0.899
669.00 0.8989
669.10 0.8988
669.20 0.8987
669.30 0.8986
669.40 0.8984
669.50 0.8983
669.60 0.8982
669.70 0.8981
669.80 0.898
669.90 0.8978
670.00 0.8977
670.10 0.8976
670.20 0.8975
670.30 0.8974
670.40 0.8972
670.50 0.8971
670.60 0.897
670.70 0.8969
670.80 0.8968
670.90 0.8966
671.00 0.8965
671.10 0.8964
671.20 0.8963
671.30 0.8962
671.40 0.896
671.50 0.8959
671.60 0.8958
671.70 0.8957
671.80 0.8955
671.90 0.8954
672.00 0.8953
672.10 0.8952
672.20 0.8951
672.30 0.8949
672.40 0.8948
672.50 0.8947
672.60 0.8946
672.70 0.8944
672.80 0.8943
672.90 0.8942
673.00 0.8941
673.10 0.894
673.20 0.8938
673.30 0.8937
673.40 0.8936
673.50 0.8935
673.60 0.8933
673.70 0.8932
673.80 0.8931
673.90 0.893
674.00 0.8928
674.10 0.8927
674.20 0.8926
674.30 0.8925
674.40 0.8924
674.50 0.8922
674.60 0.8921
674.70 0.892
674.80 0.8919
674.90 0.8917
675.00 0.8916
675.10 0.8915
675.20 0.8914
675.30 0.8912
675.40 0.8911
675.50 0.891
675.60 0.8909
675.70 0.8908
675.80 0.8906
675.90 0.8905
676.00 0.8904
676.10 0.8903
676.20 0.8901
676.30 0.89
676.40 0.8899
676.50 0.8898
676.60 0.8896
676.70 0.8895
676.80 0.8894
676.90 0.8893
677.00 0.8892
677.10 0.889
677.20 0.8889
677.30 0.8888
677.40 0.8887
677.50 0.8885
677.60 0.8884
677.70 0.8883
677.80 0.8882
677.90 0.888
678.00 0.8879
678.10 0.8878
678.20 0.8877
678.30 0.8875
678.40 0.8874
678.50 0.8873
678.60 0.8872
678.70 0.887
678.80 0.8869
678.90 0.8868
679.00 0.8867
679.10 0.8865
679.20 0.8864
679.30 0.8863
679.40 0.8862
679.50 0.886
679.60 0.8859
679.70 0.8858
679.80 0.8857
679.90 0.8855
680.00 0.8854
680.10 0.8853
680.20 0.8852
680.30 0.885
680.40 0.8849
680.50 0.8848
680.60 0.8847
680.70 0.8845
680.80 0.8844
680.90 0.8843
681.00 0.8841
681.10 0.884
681.20 0.8839
681.30 0.8838
681.40 0.8836
681.50 0.8835
681.60 0.8834
681.70 0.8833
681.80 0.8831
681.90 0.883
682.00 0.8829
682.10 0.8828
682.20 0.8826
682.30 0.8825
682.40 0.8824
682.50 0.8823
682.60 0.8821
682.70 0.882
682.80 0.8819
682.90 0.8818
683.00 0.8816
683.10 0.8815
683.20 0.8814
683.30 0.8812
683.40 0.8811
683.50 0.881
683.60 0.8809
683.70 0.8807
683.80 0.8806
683.90 0.8805
684.00 0.8804
684.10 0.8802
684.20 0.8801
684.30 0.88
684.40 0.8799
684.50 0.8797
684.60 0.8796
684.70 0.8795
684.80 0.8794
684.90 0.8792
685.00 0.8791
685.10 0.879
685.20 0.8788
685.30 0.8787
685.40 0.8786
685.50 0.8785
685.60 0.8783
685.70 0.8782
685.80 0.8781
685.90 0.878
686.00 0.8778
686.10 0.8777
686.20 0.8776
686.30 0.8775
686.40 0.8773
686.50 0.8772
686.60 0.8771
686.70 0.877
686.80 0.8768
686.90 0.8767
687.00 0.8766
687.10 0.8764
687.20 0.8763
687.30 0.8762
687.40 0.8761
687.50 0.8759
687.60 0.8758
687.70 0.8757
687.80 0.8756
687.90 0.8754
688.00 0.8753
688.10 0.8752
688.20 0.8751
688.30 0.8749
688.40 0.8748
688.50 0.8747
688.60 0.8745
688.70 0.8744
688.80 0.8743
688.90 0.8742
689.00 0.874
689.10 0.8739
689.20 0.8738
689.30 0.8737
689.40 0.8735
689.50 0.8734
689.60 0.8733
689.70 0.8731
689.80 0.873
689.90 0.8729
690.00 0.8727
690.10 0.8726
690.20 0.8725
690.30 0.8724
690.40 0.8722
690.50 0.8721
690.60 0.872
690.70 0.8718
690.80 0.8717
690.90 0.8716
691.00 0.8715
691.10 0.8713
691.20 0.8712
691.30 0.8711
691.40 0.8709
691.50 0.8708
691.60 0.8707
691.70 0.8706
691.80 0.8704
691.90 0.8703
692.00 0.8702
692.10 0.87
692.20 0.8699
692.30 0.8698
692.40 0.8697
692.50 0.8695
692.60 0.8694
692.70 0.8693
692.80 0.8691
692.90 0.869
693.00 0.8689
693.10 0.8688
693.20 0.8686
693.30 0.8685
693.40 0.8684
693.50 0.8682
693.60 0.8681
693.70 0.868
693.80 0.8679
693.90 0.8677
694.00 0.8676
694.10 0.8675
694.20 0.8674
694.30 0.8672
694.40 0.8671
694.50 0.867
694.60 0.8668
694.70 0.8667
694.80 0.8666
694.90 0.8665
695.00 0.8663
695.10 0.8662
695.20 0.8661
695.30 0.8659
695.40 0.8658
695.50 0.8657
695.60 0.8655
695.70 0.8654
695.80 0.8653
695.90 0.8652
696.00 0.865
696.10 0.8649
696.20 0.8648
696.30 0.8646
696.40 0.8645
696.50 0.8644
696.60 0.8643
696.70 0.8641
696.80 0.864
696.90 0.8639
697.00 0.8637
697.10 0.8636
697.20 0.8635
697.30 0.8633
697.40 0.8632
697.50 0.8631
697.60 0.863
697.70 0.8628
697.80 0.8627
697.90 0.8626
698.00 0.8624
698.10 0.8623
698.20 0.8622
698.30 0.8621
698.40 0.8619
698.50 0.8618
698.60 0.8617
698.70 0.8615
698.80 0.8614
698.90 0.8613
699.00 0.8612
699.10 0.861
699.20 0.8609
699.30 0.8608
699.40 0.8606
699.50 0.8605
699.60 0.8604
699.70 0.8603
699.80 0.8601
699.90 0.86
700.00 0.8599
700.10 0.8597
700.20 0.8596
700.30 0.8595
700.40 0.8593
700.50 0.8592
700.60 0.8591
700.70 0.859
700.80 0.8588
700.90 0.8587
701.00 0.8586
701.10 0.8584
701.20 0.8583
701.30 0.8582
701.40 0.858
701.50 0.8579
701.60 0.8578
701.70 0.8576
701.80 0.8575
701.90 0.8574
702.00 0.8573
702.10 0.8571
702.20 0.857
702.30 0.8569
702.40 0.8567
702.50 0.8566
702.60 0.8565
702.70 0.8563
702.80 0.8562
702.90 0.8561
703.00 0.8559
703.10 0.8558
703.20 0.8557
703.30 0.8556
703.40 0.8554
703.50 0.8553
703.60 0.8552
703.70 0.855
703.80 0.8549
703.90 0.8548
704.00 0.8546
704.10 0.8545
704.20 0.8544
704.30 0.8543
704.40 0.8541
704.50 0.854
704.60 0.8539
704.70 0.8537
704.80 0.8536
704.90 0.8535
705.00 0.8534
705.10 0.8532
705.20 0.8531
705.30 0.853
705.40 0.8528
705.50 0.8527
705.60 0.8526
705.70 0.8524
705.80 0.8523
705.90 0.8522
706.00 0.852
706.10 0.8519
706.20 0.8518
706.30 0.8516
706.40 0.8515
706.50 0.8514
706.60 0.8512
706.70 0.8511
706.80 0.851
706.90 0.8508
707.00 0.8507
707.10 0.8506
707.20 0.8505
707.30 0.8503
707.40 0.8502
707.50 0.8501
707.60 0.8499
707.70 0.8498
707.80 0.8497
707.90 0.8495
708.00 0.8494
708.10 0.8493
708.20 0.8491
708.30 0.849
708.40 0.8489
708.50 0.8488
708.60 0.8486
708.70 0.8485
708.80 0.8484
708.90 0.8482
709.00 0.8481
709.10 0.848
709.20 0.8478
709.30 0.8477
709.40 0.8476
709.50 0.8474
709.60 0.8473
709.70 0.8472
709.80 0.8471
709.90 0.8469
710.00 0.8468
710.10 0.8467
710.20 0.8465
710.30 0.8464
710.40 0.8463
710.50 0.8461
710.60 0.846
710.70 0.8459
710.80 0.8457
710.90 0.8456
711.00 0.8455
711.10 0.8453
711.20 0.8452
711.30 0.8451
711.40 0.8449
711.50 0.8448
711.60 0.8447
711.70 0.8445
711.80 0.8444
711.90 0.8443
712.00 0.8441
712.10 0.844
712.20 0.8439
712.30 0.8438
712.40 0.8436
712.50 0.8435
712.60 0.8434
712.70 0.8432
712.80 0.8431
712.90 0.843
713.00 0.8428
713.10 0.8427
713.20 0.8426
713.30 0.8424
713.40 0.8423
713.50 0.8422
713.60 0.842
713.70 0.8419
713.80 0.8418
713.90 0.8416
714.00 0.8415
714.10 0.8414
714.20 0.8413
714.30 0.8411
714.40 0.841
714.50 0.8409
714.60 0.8407
714.70 0.8406
714.80 0.8405
714.90 0.8403
715.00 0.8402
715.10 0.8401
715.20 0.8399
715.30 0.8398
715.40 0.8397
715.50 0.8395
715.60 0.8394
715.70 0.8393
715.80 0.8391
715.90 0.839
716.00 0.8389
716.10 0.8387
716.20 0.8386
716.30 0.8385
716.40 0.8383
716.50 0.8382
716.60 0.8381
716.70 0.8379
716.80 0.8378
716.90 0.8377
717.00 0.8375
717.10 0.8374
717.20 0.8373
717.30 0.8371
717.40 0.837
717.50 0.8369
717.60 0.8368
717.70 0.8366
717.80 0.8365
717.90 0.8364
718.00 0.8362
718.10 0.8361
718.20 0.836
718.30 0.8358
718.40 0.8357
718.50 0.8356
718.60 0.8354
718.70 0.8353
718.80 0.8352
718.90 0.835
719.00 0.8349
719.10 0.8348
719.20 0.8346
719.30 0.8345
719.40 0.8344
719.50 0.8342
719.60 0.8341
719.70 0.834
719.80 0.8339
719.90 0.8337
720.00 0.8336
720.10 0.8335
720.20 0.8333
720.30 0.8332
720.40 0.8331
720.50 0.8329
720.60 0.8328
720.70 0.8327
720.80 0.8325
720.90 0.8324
721.00 0.8323
721.10 0.8321
721.20 0.832
721.30 0.8319
721.40 0.8317
721.50 0.8316
721.60 0.8315
721.70 0.8313
721.80 0.8312
721.90 0.8311
722.00 0.8309
722.10 0.8308
722.20 0.8307
722.30 0.8305
722.40 0.8304
722.50 0.8303
722.60 0.8301
722.70 0.83
722.80 0.8299
722.90 0.8297
723.00 0.8296
723.10 0.8295
723.20 0.8293
723.30 0.8292
723.40 0.8291
723.50 0.8289
723.60 0.8288
723.70 0.8287
723.80 0.8285
723.90 0.8284
724.00 0.8283
724.10 0.8281
724.20 0.828
724.30 0.8279
724.40 0.8277
724.50 0.8276
724.60 0.8275
724.70 0.8273
724.80 0.8272
724.90 0.8271
725.00 0.827
725.10 0.8268
725.20 0.8267
725.30 0.8266
725.40 0.8264
725.50 0.8263
725.60 0.8261
725.70 0.826
725.80 0.8259
725.90 0.8257
726.00 0.8256
726.10 0.8255
726.20 0.8253
726.30 0.8252
726.40 0.8251
726.50 0.8249
726.60 0.8248
726.70 0.8247
726.80 0.8245
726.90 0.8244
727.00 0.8243
727.10 0.8241
727.20 0.824
727.30 0.8239
727.40 0.8237
727.50 0.8236
727.60 0.8235
727.70 0.8233
727.80 0.8232
727.90 0.8231
728.00 0.8229
728.10 0.8228
728.20 0.8227
728.30 0.8225
728.40 0.8224
728.50 0.8223
728.60 0.8221
728.70 0.822
728.80 0.8219
728.90 0.8218
729.00 0.8216
729.10 0.8215
729.20 0.8214
729.30 0.8212
729.40 0.8211
729.50 0.821
729.60 0.8208
729.70 0.8207
729.80 0.8206
729.90 0.8204
730.00 0.8203
730.10 0.8202
730.20 0.82
730.30 0.8199
730.40 0.8198
730.50 0.8196
730.60 0.8195
730.70 0.8193
730.80 0.8192
730.90 0.8191
731.00 0.8189
731.10 0.8188
731.20 0.8187
731.30 0.8185
731.40 0.8184
731.50 0.8183
731.60 0.8181
731.70 0.818
731.80 0.8179
731.90 0.8177
732.00 0.8176
732.10 0.8174
732.20 0.8173
732.30 0.8172
732.40 0.817
732.50 0.8169
732.60 0.8168
732.70 0.8166
732.80 0.8165
732.90 0.8164
733.00 0.8162
733.10 0.8161
733.20 0.816
733.30 0.8158
733.40 0.8157
733.50 0.8156
733.60 0.8154
733.70 0.8153
733.80 0.8152
733.90 0.815
734.00 0.8149
734.10 0.8148
734.20 0.8146
734.30 0.8145
734.40 0.8144
734.50 0.8142
734.60 0.8141
734.70 0.814
734.80 0.8138
734.90 0.8137
735.00 0.8136
735.10 0.8134
735.20 0.8133
735.30 0.8132
735.40 0.813
735.50 0.8129
735.60 0.8128
735.70 0.8126
735.80 0.8125
735.90 0.8124
736.00 0.8122
736.10 0.8121
736.20 0.812
736.30 0.8118
736.40 0.8117
736.50 0.8116
736.60 0.8114
736.70 0.8113
736.80 0.8112
736.90 0.811
737.00 0.8109
737.10 0.8108
737.20 0.8106
737.30 0.8105
737.40 0.8104
737.50 0.8102
737.60 0.8101
737.70 0.81
737.80 0.8098
737.90 0.8097
738.00 0.8096
738.10 0.8094
738.20 0.8093
738.30 0.8092
738.40 0.809
738.50 0.8089
738.60 0.8088
738.70 0.8086
738.80 0.8085
738.90 0.8084
739.00 0.8082
739.10 0.8081
739.20 0.808
739.30 0.8078
739.40 0.8077
739.50 0.8076
739.60 0.8074
739.70 0.8073
739.80 0.8072
739.90 0.807
740.00 0.8069
740.10 0.8068
740.20 0.8066
740.30 0.8065
740.40 0.8064
740.50 0.8062
740.60 0.8061
740.70 0.806
740.80 0.8058
740.90 0.8057
741.00 0.8056
741.10 0.8054
741.20 0.8053
741.30 0.8052
741.40 0.805
741.50 0.8049
741.60 0.8047
741.70 0.8046
741.80 0.8045
741.90 0.8043
742.00 0.8042
742.10 0.8041
742.20 0.8039
742.30 0.8038
742.40 0.8037
742.50 0.8035
742.60 0.8034
742.70 0.8033
742.80 0.8031
742.90 0.803
743.00 0.8029
743.10 0.8027
743.20 0.8026
743.30 0.8024
743.40 0.8023
743.50 0.8022
743.60 0.802
743.70 0.8019
743.80 0.8018
743.90 0.8016
744.00 0.8015
744.10 0.8014
744.20 0.8012
744.30 0.8011
744.40 0.801
744.50 0.8008
744.60 0.8007
744.70 0.8006
744.80 0.8004
744.90 0.8003
745.00 0.8002
745.10 0.8
745.20 0.7999
745.30 0.7998
745.40 0.7996
745.50 0.7995
745.60 0.7994
745.70 0.7992
745.80 0.7991
745.90 0.799
746.00 0.7988
746.10 0.7987
746.20 0.7986
746.30 0.7984
746.40 0.7983
746.50 0.7982
746.60 0.798
746.70 0.7979
746.80 0.7978
746.90 0.7976
747.00 0.7975
747.10 0.7974
747.20 0.7972
747.30 0.7971
747.40 0.797
747.50 0.7968
747.60 0.7967
747.70 0.7966
747.80 0.7964
747.90 0.7963
748.00 0.7962
748.10 0.796
748.20 0.7959
748.30 0.7958
748.40 0.7956
748.50 0.7955
748.60 0.7954
748.70 0.7952
748.80 0.7951
748.90 0.795
749.00 0.7948
749.10 0.7947
749.20 0.7946
749.30 0.7944
749.40 0.7943
749.50 0.7942
749.60 0.7941
749.70 0.7939
749.80 0.7938
749.90 0.7937
750.00 0.7935
750.10 0.7934
750.20 0.7933
750.30 0.7931
750.40 0.793
750.50 0.7928
750.60 0.7927
750.70 0.7926
750.80 0.7924
750.90 0.7923
751.00 0.7922
751.10 0.792
751.20 0.7919
751.30 0.7918
751.40 0.7916
751.50 0.7915
751.60 0.7913
751.70 0.7912
751.80 0.7911
751.90 0.7909
752.00 0.7908
752.10 0.7907
752.20 0.7905
752.30 0.7904
752.40 0.7903
752.50 0.7901
752.60 0.79
752.70 0.7899
752.80 0.7897
752.90 0.7896
753.00 0.7895
753.10 0.7893
753.20 0.7892
753.30 0.789
753.40 0.7889
753.50 0.7888
753.60 0.7886
753.70 0.7885
753.80 0.7884
753.90 0.7882
754.00 0.7881
754.10 0.788
754.20 0.7878
754.30 0.7877
754.40 0.7876
754.50 0.7874
754.60 0.7873
754.70 0.7872
754.80 0.787
754.90 0.7869
755.00 0.7868
755.10 0.7866
755.20 0.7865
755.30 0.7864
755.40 0.7862
755.50 0.7861
755.60 0.786
755.70 0.7858
755.80 0.7857
755.90 0.7856
756.00 0.7854
756.10 0.7853
756.20 0.7852
756.30 0.785
756.40 0.7849
756.50 0.7848
756.60 0.7846
756.70 0.7845
756.80 0.7844
756.90 0.7842
757.00 0.7841
757.10 0.784
757.20 0.7838
757.30 0.7837
757.40 0.7836
757.50 0.7834
757.60 0.7833
757.70 0.7832
757.80 0.783
757.90 0.7829
758.00 0.7828
758.10 0.7826
758.20 0.7825
758.30 0.7824
758.40 0.7822
758.50 0.7821
758.60 0.782
758.70 0.7818
758.80 0.7817
758.90 0.7816
759.00 0.7814
759.10 0.7813
759.20 0.7812
759.30 0.781
759.40 0.7809
759.50 0.7808
759.60 0.7806
759.70 0.7805
759.80 0.7804
759.90 0.7802
760.00 0.7801
760.10 0.78
760.20 0.7798
760.30 0.7797
760.40 0.7796
760.50 0.7794
760.60 0.7793
760.70 0.7792
760.80 0.779
760.90 0.7789
761.00 0.7787
761.10 0.7786
761.20 0.7785
761.30 0.7783
761.40 0.7782
761.50 0.7781
761.60 0.7779
761.70 0.7778
761.80 0.7777
761.90 0.7775
762.00 0.7774
762.10 0.7773
762.20 0.7771
762.30 0.777
762.40 0.7769
762.50 0.7767
762.60 0.7766
762.70 0.7764
762.80 0.7763
762.90 0.7762
763.00 0.776
763.10 0.7759
763.20 0.7758
763.30 0.7756
763.40 0.7755
763.50 0.7754
763.60 0.7752
763.70 0.7751
763.80 0.775
763.90 0.7748
764.00 0.7747
764.10 0.7746
764.20 0.7744
764.30 0.7743
764.40 0.7742
764.50 0.774
764.60 0.7739
764.70 0.7738
764.80 0.7736
764.90 0.7735
765.00 0.7734
765.10 0.7732
765.20 0.7731
765.30 0.773
765.40 0.7728
765.50 0.7727
765.60 0.7726
765.70 0.7724
765.80 0.7723
765.90 0.7722
766.00 0.772
766.10 0.7719
766.20 0.7718
766.30 0.7716
766.40 0.7715
766.50 0.7714
766.60 0.7712
766.70 0.7711
766.80 0.771
766.90 0.7708
767.00 0.7707
767.10 0.7706
767.20 0.7704
767.30 0.7703
767.40 0.7702
767.50 0.77
767.60 0.7699
767.70 0.7698
767.80 0.7696
767.90 0.7695
768.00 0.7694
768.10 0.7692
768.20 0.7691
768.30 0.769
768.40 0.7688
768.50 0.7687
768.60 0.7686
768.70 0.7684
768.80 0.7683
768.90 0.7682
769.00 0.768
769.10 0.7679
769.20 0.7678
769.30 0.7676
769.40 0.7675
769.50 0.7674
769.60 0.7672
769.70 0.7671
769.80 0.767
769.90 0.7668
770.00 0.7667
770.10 0.7666
770.20 0.7664
770.30 0.7663
770.40 0.7662
770.50 0.766
770.60 0.7659
770.70 0.7658
770.80 0.7656
770.90 0.7655
771.00 0.7654
771.10 0.7652
771.20 0.7651
771.30 0.765
771.40 0.7648
771.50 0.7647
771.60 0.7646
771.70 0.7644
771.80 0.7643
771.90 0.7641
772.00 0.764
772.10 0.7639
772.20 0.7637
772.30 0.7636
772.40 0.7635
772.50 0.7633
772.60 0.7632
772.70 0.7631
772.80 0.7629
772.90 0.7628
773.00 0.7627
773.10 0.7625
773.20 0.7624
773.30 0.7623
773.40 0.7621
773.50 0.762
773.60 0.7619
773.70 0.7617
773.80 0.7616
773.90 0.7615
774.00 0.7613
774.10 0.7612
774.20 0.7611
774.30 0.7609
774.40 0.7608
774.50 0.7607
774.60 0.7605
774.70 0.7604
774.80 0.7603
774.90 0.7601
775.00 0.76
775.10 0.7599
775.20 0.7597
775.30 0.7596
775.40 0.7595
775.50 0.7593
775.60 0.7592
775.70 0.7591
775.80 0.7589
775.90 0.7588
776.00 0.7587
776.10 0.7585
776.20 0.7584
776.30 0.7583
776.40 0.7581
776.50 0.758
776.60 0.7579
776.70 0.7577
776.80 0.7576
776.90 0.7575
777.00 0.7573
777.10 0.7572
777.20 0.7571
777.30 0.7569
777.40 0.7568
777.50 0.7567
777.60 0.7565
777.70 0.7564
777.80 0.7563
777.90 0.7561
778.00 0.756
778.10 0.7559
778.20 0.7557
778.30 0.7556
778.40 0.7555
778.50 0.7554
778.60 0.7552
778.70 0.7551
778.80 0.755
778.90 0.7548
779.00 0.7547
779.10 0.7546
779.20 0.7544
779.30 0.7543
779.40 0.7542
779.50 0.754
779.60 0.7539
779.70 0.7538
779.80 0.7536
779.90 0.7535
780.00 0.7534
780.10 0.7532
780.20 0.7531
780.30 0.753
780.40 0.7528
780.50 0.7527
780.60 0.7526
780.70 0.7524
780.80 0.7523
780.90 0.7522
781.00 0.752
781.10 0.7519
781.20 0.7518
781.30 0.7516
781.40 0.7515
781.50 0.7514
781.60 0.7512
781.70 0.7511
781.80 0.751
781.90 0.7508
782.00 0.7507
782.10 0.7506
782.20 0.7504
782.30 0.7503
782.40 0.7502
782.50 0.75
782.60 0.7499
782.70 0.7497
782.80 0.7496
782.90 0.7495
783.00 0.7493
783.10 0.7492
783.20 0.7491
783.30 0.7489
783.40 0.7488
783.50 0.7487
783.60 0.7485
783.70 0.7484
783.80 0.7483
783.90 0.7481
784.00 0.748
784.10 0.7479
784.20 0.7477
784.30 0.7476
784.40 0.7475
784.50 0.7473
784.60 0.7472
784.70 0.7471
784.80 0.7469
784.90 0.7468
785.00 0.7467
785.10 0.7465
785.20 0.7464
785.30 0.7463
785.40 0.7462
785.50 0.746
785.60 0.7459
785.70 0.7458
785.80 0.7456
785.90 0.7455
786.00 0.7454
786.10 0.7452
786.20 0.7451
786.30 0.745
786.40 0.7448
786.50 0.7447
786.60 0.7446
786.70 0.7444
786.80 0.7443
786.90 0.7442
787.00 0.744
787.10 0.7439
787.20 0.7438
787.30 0.7436
787.40 0.7435
787.50 0.7434
787.60 0.7432
787.70 0.7431
787.80 0.743
787.90 0.7428
788.00 0.7427
788.10 0.7426
788.20 0.7425
788.30 0.7423
788.40 0.7422
788.50 0.7421
788.60 0.7419
788.70 0.7418
788.80 0.7417
788.90 0.7415
789.00 0.7414
789.10 0.7413
789.20 0.7411
789.30 0.741
789.40 0.7409
789.50 0.7407
789.60 0.7406
789.70 0.7405
789.80 0.7404
789.90 0.7402
790.00 0.7401
790.10 0.74
790.20 0.7398
790.30 0.7397
790.40 0.7396
790.50 0.7394
790.60 0.7393
790.70 0.7392
790.80 0.739
790.90 0.7389
791.00 0.7388
791.10 0.7386
791.20 0.7385
791.30 0.7384
791.40 0.7382
791.50 0.7381
791.60 0.738
791.70 0.7378
791.80 0.7377
791.90 0.7376
792.00 0.7374
792.10 0.7373
792.20 0.7372
792.30 0.737
792.40 0.7369
792.50 0.7368
792.60 0.7366
792.70 0.7365
792.80 0.7364
792.90 0.7362
793.00 0.7361
793.10 0.736
793.20 0.7358
793.30 0.7357
793.40 0.7356
793.50 0.7354
793.60 0.7353
793.70 0.7352
793.80 0.735
793.90 0.7349
794.00 0.7348
794.10 0.7346
794.20 0.7345
794.30 0.7344
794.40 0.7342
794.50 0.7341
794.60 0.734
794.70 0.7338
794.80 0.7337
794.90 0.7336
795.00 0.7334
795.10 0.7333
795.20 0.7332
795.30 0.733
795.40 0.7329
795.50 0.7328
795.60 0.7326
795.70 0.7325
795.80 0.7324
795.90 0.7322
796.00 0.7321
796.10 0.732
796.20 0.7319
796.30 0.7317
796.40 0.7316
796.50 0.7315
796.60 0.7313
796.70 0.7312
796.80 0.7311
796.90 0.7309
797.00 0.7308
797.10 0.7307
797.20 0.7305
797.30 0.7304
797.40 0.7303
797.50 0.7301
797.60 0.73
797.70 0.7299
797.80 0.7298
797.90 0.7296
798.00 0.7295
798.10 0.7294
798.20 0.7292
798.30 0.7291
798.40 0.729
798.50 0.7288
798.60 0.7287
798.70 0.7286
798.80 0.7284
798.90 0.7283
799.00 0.7282
799.10 0.7281
799.20 0.7279
799.30 0.7278
799.40 0.7277
799.50 0.7275
799.60 0.7274
799.70 0.7273
799.80 0.7271
799.90 0.727
800.00 0.7269
800.10 0.7268
800.20 0.7266
800.30 0.7265
800.40 0.7264
800.50 0.7262
800.60 0.7261
800.70 0.726
800.80 0.7258
800.90 0.7257
801.00 0.7256
801.10 0.7254
801.20 0.7253
801.30 0.7252
801.40 0.725
801.50 0.7249
801.60 0.7248
801.70 0.7246
801.80 0.7245
801.90 0.7244
802.00 0.7242
802.10 0.7241
802.20 0.724
802.30 0.7238
802.40 0.7237
802.50 0.7236
802.60 0.7234
802.70 0.7233
802.80 0.7232
802.90 0.723
803.00 0.7229
803.10 0.7228
803.20 0.7227
803.30 0.7225
803.40 0.7224
803.50 0.7223
803.60 0.7221
803.70 0.722
803.80 0.7219
803.90 0.7217
804.00 0.7216
804.10 0.7215
804.20 0.7213
804.30 0.7212
804.40 0.7211
804.50 0.7209
804.60 0.7208
804.70 0.7207
804.80 0.7205
804.90 0.7204
805.00 0.7203
805.10 0.7202
805.20 0.72
805.30 0.7199
805.40 0.7198
805.50 0.7196
805.60 0.7195
805.70 0.7194
805.80 0.7192
805.90 0.7191
806.00 0.719
806.10 0.7188
806.20 0.7187
806.30 0.7186
806.40 0.7185
806.50 0.7183
806.60 0.7182
806.70 0.7181
806.80 0.7179
806.90 0.7178
807.00 0.7177
807.10 0.7175
807.20 0.7174
807.30 0.7173
807.40 0.7172
807.50 0.717
807.60 0.7169
807.70 0.7168
807.80 0.7166
807.90 0.7165
808.00 0.7164
808.10 0.7162
808.20 0.7161
808.30 0.716
808.40 0.7159
808.50 0.7157
808.60 0.7156
808.70 0.7155
808.80 0.7153
808.90 0.7152
809.00 0.7151
809.10 0.715
809.20 0.7148
809.30 0.7147
809.40 0.7146
809.50 0.7144
809.60 0.7143
809.70 0.7142
809.80 0.7141
809.90 0.7139
810.00 0.7138
810.10 0.7137
810.20 0.7135
810.30 0.7134
810.40 0.7133
810.50 0.7131
810.60 0.713
810.70 0.7129
810.80 0.7127
810.90 0.7126
811.00 0.7125
811.10 0.7123
811.20 0.7122
811.30 0.7121
811.40 0.7119
811.50 0.7118
811.60 0.7117
811.70 0.7116
811.80 0.7114
811.90 0.7113
812.00 0.7112
812.10 0.711
812.20 0.7109
812.30 0.7108
812.40 0.7106
812.50 0.7105
812.60 0.7104
812.70 0.7102
812.80 0.7101
812.90 0.71
813.00 0.7098
813.10 0.7097
813.20 0.7096
813.30 0.7095
813.40 0.7093
813.50 0.7092
813.60 0.7091
813.70 0.7089
813.80 0.7088
813.90 0.7087
814.00 0.7085
814.10 0.7084
814.20 0.7083
814.30 0.7082
814.40 0.708
814.50 0.7079
814.60 0.7078
814.70 0.7076
814.80 0.7075
814.90 0.7074
815.00 0.7072
815.10 0.7071
815.20 0.707
815.30 0.7069
815.40 0.7067
815.50 0.7066
815.60 0.7065
815.70 0.7063
815.80 0.7062
815.90 0.7061
816.00 0.7059
816.10 0.7058
816.20 0.7057
816.30 0.7056
816.40 0.7054
816.50 0.7053
816.60 0.7052
816.70 0.705
816.80 0.7049
816.90 0.7048
817.00 0.7047
817.10 0.7045
817.20 0.7044
817.30 0.7043
817.40 0.7041
817.50 0.704
817.60 0.7039
817.70 0.7037
817.80 0.7036
817.90 0.7035
818.00 0.7034
818.10 0.7032
818.20 0.7031
818.30 0.703
818.40 0.7028
818.50 0.7027
818.60 0.7026
818.70 0.7025
818.80 0.7023
818.90 0.7022
819.00 0.7021
819.10 0.7019
819.20 0.7018
819.30 0.7017
819.40 0.7016
819.50 0.7014
819.60 0.7013
819.70 0.7012
819.80 0.7011
819.90 0.7009
820.00 0.7008
820.10 0.7007
820.20 0.7005
820.30 0.7004
820.40 0.7003
820.50 0.7002
820.60 0.7
820.70 0.6999
820.80 0.6998
820.90 0.6996
821.00 0.6995
821.10 0.6994
821.20 0.6992
821.30 0.6991
821.40 0.699
821.50 0.6989
821.60 0.6987
821.70 0.6986
821.80 0.6985
821.90 0.6983
822.00 0.6982
822.10 0.6981
822.20 0.698
822.30 0.6978
822.40 0.6977
822.50 0.6976
822.60 0.6974
822.70 0.6973
822.80 0.6972
822.90 0.697
823.00 0.6969
823.10 0.6968
823.20 0.6967
823.30 0.6965
823.40 0.6964
823.50 0.6963
823.60 0.6961
823.70 0.696
823.80 0.6959
823.90 0.6958
824.00 0.6956
824.10 0.6955
824.20 0.6954
824.30 0.6952
824.40 0.6951
824.50 0.695
824.60 0.6949
824.70 0.6947
824.80 0.6946
824.90 0.6945
825.00 0.6943
825.10 0.6942
825.20 0.6941
825.30 0.694
825.40 0.6938
825.50 0.6937
825.60 0.6936
825.70 0.6934
825.80 0.6933
825.90 0.6932
826.00 0.6931
826.10 0.6929
826.20 0.6928
826.30 0.6927
826.40 0.6925
826.50 0.6924
826.60 0.6923
826.70 0.6922
826.80 0.692
826.90 0.6919
827.00 0.6918
827.10 0.6916
827.20 0.6915
827.30 0.6914
827.40 0.6913
827.50 0.6911
827.60 0.691
827.70 0.6909
827.80 0.6907
827.90 0.6906
828.00 0.6905
828.10 0.6904
828.20 0.6902
828.30 0.6901
828.40 0.69
828.50 0.6898
828.60 0.6897
828.70 0.6896
828.80 0.6895
828.90 0.6893
829.00 0.6892
829.10 0.6891
829.20 0.6889
829.30 0.6888
829.40 0.6887
829.50 0.6886
829.60 0.6884
829.70 0.6883
829.80 0.6882
829.90 0.6881
830.00 0.6879
830.10 0.6878
830.20 0.6877
830.30 0.6875
830.40 0.6874
830.50 0.6873
830.60 0.6872
830.70 0.687
830.80 0.6869
830.90 0.6868
831.00 0.6867
831.10 0.6865
831.20 0.6864
831.30 0.6863
831.40 0.6861
831.50 0.686
831.60 0.6859
831.70 0.6858
831.80 0.6856
831.90 0.6855
832.00 0.6854
832.10 0.6853
832.20 0.6851
832.30 0.685
832.40 0.6849
832.50 0.6847
832.60 0.6846
832.70 0.6845
832.80 0.6844
832.90 0.6842
833.00 0.6841
833.10 0.684
833.20 0.6838
833.30 0.6837
833.40 0.6836
833.50 0.6835
833.60 0.6833
833.70 0.6832
833.80 0.6831
833.90 0.6829
834.00 0.6828
834.10 0.6827
834.20 0.6826
834.30 0.6824
834.40 0.6823
834.50 0.6822
834.60 0.6821
834.70 0.6819
834.80 0.6818
834.90 0.6817
835.00 0.6815
835.10 0.6814
835.20 0.6813
835.30 0.6812
835.40 0.681
835.50 0.6809
835.60 0.6808
835.70 0.6807
835.80 0.6805
835.90 0.6804
836.00 0.6803
836.10 0.6801
836.20 0.68
836.30 0.6799
836.40 0.6798
836.50 0.6796
836.60 0.6795
836.70 0.6794
836.80 0.6793
836.90 0.6791
837.00 0.679
837.10 0.6789
837.20 0.6788
837.30 0.6786
837.40 0.6785
837.50 0.6784
837.60 0.6782
837.70 0.6781
837.80 0.678
837.90 0.6779
838.00 0.6777
838.10 0.6776
838.20 0.6775
838.30 0.6774
838.40 0.6772
838.50 0.6771
838.60 0.677
838.70 0.6768
838.80 0.6767
838.90 0.6766
839.00 0.6765
839.10 0.6763
839.20 0.6762
839.30 0.6761
839.40 0.676
839.50 0.6758
839.60 0.6757
839.70 0.6756
839.80 0.6755
839.90 0.6753
840.00 0.6752
840.10 0.6751
840.20 0.6749
840.30 0.6748
840.40 0.6747
840.50 0.6746
840.60 0.6744
840.70 0.6743
840.80 0.6742
840.90 0.6741
841.00 0.6739
841.10 0.6738
841.20 0.6737
841.30 0.6736
841.40 0.6734
841.50 0.6733
841.60 0.6732
841.70 0.6731
841.80 0.6729
841.90 0.6728
842.00 0.6727
842.10 0.6726
842.20 0.6724
842.30 0.6723
842.40 0.6722
842.50 0.672
842.60 0.6719
842.70 0.6718
842.80 0.6717
842.90 0.6715
843.00 0.6714
843.10 0.6713
843.20 0.6712
843.30 0.671
843.40 0.6709
843.50 0.6708
843.60 0.6707
843.70 0.6705
843.80 0.6704
843.90 0.6703
844.00 0.6701
844.10 0.67
844.20 0.6699
844.30 0.6698
844.40 0.6696
844.50 0.6695
844.60 0.6694
844.70 0.6693
844.80 0.6691
844.90 0.669
845.00 0.6689
845.10 0.6688
845.20 0.6686
845.30 0.6685
845.40 0.6684
845.50 0.6683
845.60 0.6681
845.70 0.668
845.80 0.6679
845.90 0.6678
846.00 0.6676
846.10 0.6675
846.20 0.6674
846.30 0.6673
846.40 0.6671
846.50 0.667
846.60 0.6669
846.70 0.6668
846.80 0.6666
846.90 0.6665
847.00 0.6664
847.10 0.6663
847.20 0.6661
847.30 0.666
847.40 0.6659
847.50 0.6658
847.60 0.6656
847.70 0.6655
847.80 0.6654
847.90 0.6653
848.00 0.6651
848.10 0.665
848.20 0.6649
848.30 0.6647
848.40 0.6646
848.50 0.6645
848.60 0.6644
848.70 0.6642
848.80 0.6641
848.90 0.664
849.00 0.6639
849.10 0.6637
849.20 0.6636
849.30 0.6635
849.40 0.6634
849.50 0.6632
849.60 0.6631
849.70 0.663
849.80 0.6629
849.90 0.6627
850.00 0.6626
850.10 0.6625
850.20 0.6624
850.30 0.6622
850.40 0.6621
850.50 0.662
850.60 0.6619
850.70 0.6617
850.80 0.6616
850.90 0.6615
851.00 0.6614
851.10 0.6612
851.20 0.6611
851.30 0.661
851.40 0.6609
851.50 0.6608
851.60 0.6606
851.70 0.6605
851.80 0.6604
851.90 0.6603
852.00 0.6601
852.10 0.66
852.20 0.6599
852.30 0.6598
852.40 0.6596
852.50 0.6595
852.60 0.6594
852.70 0.6593
852.80 0.6591
852.90 0.659
853.00 0.6589
853.10 0.6588
853.20 0.6586
853.30 0.6585
853.40 0.6584
853.50 0.6583
853.60 0.6581
853.70 0.658
853.80 0.6579
853.90 0.6578
854.00 0.6576
854.10 0.6575
854.20 0.6574
854.30 0.6573
854.40 0.6571
854.50 0.657
854.60 0.6569
854.70 0.6568
854.80 0.6566
854.90 0.6565
855.00 0.6564
855.10 0.6563
855.20 0.6561
855.30 0.656
855.40 0.6559
855.50 0.6558
855.60 0.6557
855.70 0.6555
855.80 0.6554
855.90 0.6553
856.00 0.6552
856.10 0.655
856.20 0.6549
856.30 0.6548
856.40 0.6547
856.50 0.6545
856.60 0.6544
856.70 0.6543
856.80 0.6542
856.90 0.654
857.00 0.6539
857.10 0.6538
857.20 0.6537
857.30 0.6535
857.40 0.6534
857.50 0.6533
857.60 0.6532
857.70 0.6531
857.80 0.6529
857.90 0.6528
858.00 0.6527
858.10 0.6526
858.20 0.6524
858.30 0.6523
858.40 0.6522
858.50 0.6521
858.60 0.6519
858.70 0.6518
858.80 0.6517
858.90 0.6516
859.00 0.6514
859.10 0.6513
859.20 0.6512
859.30 0.6511
859.40 0.6509
859.50 0.6508
859.60 0.6507
859.70 0.6506
859.80 0.6505
859.90 0.6503
860.00 0.6502
860.10 0.6501
860.20 0.65
860.30 0.6498
860.40 0.6497
860.50 0.6496
860.60 0.6495
860.70 0.6493
860.80 0.6492
860.90 0.6491
861.00 0.649
861.10 0.6488
861.20 0.6487
861.30 0.6486
861.40 0.6485
861.50 0.6484
861.60 0.6482
861.70 0.6481
861.80 0.648
861.90 0.6479
862.00 0.6477
862.10 0.6476
862.20 0.6475
862.30 0.6474
862.40 0.6473
862.50 0.6471
862.60 0.647
862.70 0.6469
862.80 0.6468
862.90 0.6466
863.00 0.6465
863.10 0.6464
863.20 0.6463
863.30 0.6461
863.40 0.646
863.50 0.6459
863.60 0.6458
863.70 0.6456
863.80 0.6455
863.90 0.6454
864.00 0.6453
864.10 0.6452
864.20 0.645
864.30 0.6449
864.40 0.6448
864.50 0.6447
864.60 0.6445
864.70 0.6444
864.80 0.6443
864.90 0.6442
865.00 0.6441
865.10 0.6439
865.20 0.6438
865.30 0.6437
865.40 0.6436
865.50 0.6434
865.60 0.6433
865.70 0.6432
865.80 0.6431
865.90 0.643
866.00 0.6428
866.10 0.6427
866.20 0.6426
866.30 0.6425
866.40 0.6423
866.50 0.6422
866.60 0.6421
866.70 0.642
866.80 0.6419
866.90 0.6417
867.00 0.6416
867.10 0.6415
867.20 0.6414
867.30 0.6412
867.40 0.6411
867.50 0.641
867.60 0.6409
867.70 0.6408
867.80 0.6406
867.90 0.6405
868.00 0.6404
868.10 0.6403
868.20 0.6401
868.30 0.64
868.40 0.6399
868.50 0.6398
868.60 0.6397
868.70 0.6395
868.80 0.6394
868.90 0.6393
869.00 0.6392
869.10 0.639
869.20 0.6389
869.30 0.6388
869.40 0.6387
869.50 0.6386
869.60 0.6384
869.70 0.6383
869.80 0.6382
869.90 0.6381
870.00 0.6379
870.10 0.6378
870.20 0.6377
870.30 0.6376
870.40 0.6375
870.50 0.6373
870.60 0.6372
870.70 0.6371
870.80 0.637
870.90 0.6369
871.00 0.6367
871.10 0.6366
871.20 0.6365
871.30 0.6364
871.40 0.6362
871.50 0.6361
871.60 0.636
871.70 0.6359
871.80 0.6358
871.90 0.6356
872.00 0.6355
872.10 0.6354
872.20 0.6353
872.30 0.6352
872.40 0.635
872.50 0.6349
872.60 0.6348
872.70 0.6347
872.80 0.6345
872.90 0.6344
873.00 0.6343
873.10 0.6342
873.20 0.6341
873.30 0.6339
873.40 0.6338
873.50 0.6337
873.60 0.6336
873.70 0.6335
873.80 0.6333
873.90 0.6332
874.00 0.6331
874.10 0.633
874.20 0.6329
874.30 0.6327
874.40 0.6326
874.50 0.6325
874.60 0.6324
874.70 0.6322
874.80 0.6321
874.90 0.632
875.00 0.6319
875.10 0.6318
875.20 0.6316
875.30 0.6315
875.40 0.6314
875.50 0.6313
875.60 0.6312
875.70 0.631
875.80 0.6309
875.90 0.6308
876.00 0.6307
876.10 0.6306
876.20 0.6304
876.30 0.6303
876.40 0.6302
876.50 0.6301
876.60 0.63
876.70 0.6298
876.80 0.6297
876.90 0.6296
877.00 0.6295
877.10 0.6294
877.20 0.6292
877.30 0.6291
877.40 0.629
877.50 0.6289
877.60 0.6288
877.70 0.6286
877.80 0.6285
877.90 0.6284
878.00 0.6283
878.10 0.6281
878.20 0.628
878.30 0.6279
878.40 0.6278
878.50 0.6277
878.60 0.6275
878.70 0.6274
878.80 0.6273
878.90 0.6272
879.00 0.6271
879.10 0.6269
879.20 0.6268
879.30 0.6267
879.40 0.6266
879.50 0.6265
879.60 0.6263
879.70 0.6262
879.80 0.6261
879.90 0.626
880.00 0.6259
880.10 0.6257
880.20 0.6256
880.30 0.6255
880.40 0.6254
880.50 0.6253
880.60 0.6251
880.70 0.625
880.80 0.6249
880.90 0.6248
881.00 0.6247
881.10 0.6245
881.20 0.6244
881.30 0.6243
881.40 0.6242
881.50 0.6241
881.60 0.6239
881.70 0.6238
881.80 0.6237
881.90 0.6236
882.00 0.6235
882.10 0.6234
882.20 0.6232
882.30 0.6231
882.40 0.623
882.50 0.6229
882.60 0.6228
882.70 0.6226
882.80 0.6225
882.90 0.6224
883.00 0.6223
883.10 0.6222
883.20 0.622
883.30 0.6219
883.40 0.6218
883.50 0.6217
883.60 0.6216
883.70 0.6214
883.80 0.6213
883.90 0.6212
884.00 0.6211
884.10 0.621
884.20 0.6208
884.30 0.6207
884.40 0.6206
884.50 0.6205
884.60 0.6204
884.70 0.6202
884.80 0.6201
884.90 0.62
885.00 0.6199
885.10 0.6198
885.20 0.6196
885.30 0.6195
885.40 0.6194
885.50 0.6193
885.60 0.6192
885.70 0.6191
885.80 0.6189
885.90 0.6188
886.00 0.6187
886.10 0.6186
886.20 0.6185
886.30 0.6183
886.40 0.6182
886.50 0.6181
886.60 0.618
886.70 0.6179
886.80 0.6177
886.90 0.6176
887.00 0.6175
887.10 0.6174
887.20 0.6173
887.30 0.6172
887.40 0.617
887.50 0.6169
887.60 0.6168
887.70 0.6167
887.80 0.6166
887.90 0.6164
888.00 0.6163
888.10 0.6162
888.20 0.6161
888.30 0.616
888.40 0.6158
888.50 0.6157
888.60 0.6156
888.70 0.6155
888.80 0.6154
888.90 0.6153
889.00 0.6151
889.10 0.615
889.20 0.6149
889.30 0.6148
889.40 0.6147
889.50 0.6145
889.60 0.6144
889.70 0.6143
889.80 0.6142
889.90 0.6141
890.00 0.614
890.10 0.6138
890.20 0.6137
890.30 0.6136
890.40 0.6135
890.50 0.6134
890.60 0.6132
890.70 0.6131
890.80 0.613
890.90 0.6129
891.00 0.6128
891.10 0.6127
891.20 0.6125
891.30 0.6124
891.40 0.6123
891.50 0.6122
891.60 0.6121
891.70 0.6119
891.80 0.6118
891.90 0.6117
892.00 0.6116
892.10 0.6115
892.20 0.6114
892.30 0.6112
892.40 0.6111
892.50 0.611
892.60 0.6109
892.70 0.6108
892.80 0.6107
892.90 0.6105
893.00 0.6104
893.10 0.6103
893.20 0.6102
893.30 0.6101
893.40 0.6099
893.50 0.6098
893.60 0.6097
893.70 0.6096
893.80 0.6095
893.90 0.6094
894.00 0.6092
894.10 0.6091
894.20 0.609
894.30 0.6089
894.40 0.6088
894.50 0.6087
894.60 0.6085
894.70 0.6084
894.80 0.6083
894.90 0.6082
895.00 0.6081
895.10 0.6079
895.20 0.6078
895.30 0.6077
895.40 0.6076
895.50 0.6075
895.60 0.6074
895.70 0.6072
895.80 0.6071
895.90 0.607
896.00 0.6069
896.10 0.6068
896.20 0.6067
896.30 0.6065
896.40 0.6064
896.50 0.6063
896.60 0.6062
896.70 0.6061
896.80 0.606
896.90 0.6058
897.00 0.6057
897.10 0.6056
897.20 0.6055
897.30 0.6054
897.40 0.6053
897.50 0.6051
897.60 0.605
897.70 0.6049
897.80 0.6048
897.90 0.6047
898.00 0.6046
898.10 0.6044
898.20 0.6043
898.30 0.6042
898.40 0.6041
898.50 0.604
898.60 0.6039
898.70 0.6037
898.80 0.6036
898.90 0.6035
899.00 0.6034
899.10 0.6033
899.20 0.6032
899.30 0.603
899.40 0.6029
899.50 0.6028
899.60 0.6027
899.70 0.6026
899.80 0.6025
899.90 0.6023
900.00 0.6022
900.10 0.6021
900.20 0.602
900.30 0.6019
900.40 0.6018
900.50 0.6016
900.60 0.6015
900.70 0.6014
900.80 0.6013
900.90 0.6012
901.00 0.6011
901.10 0.6009
901.20 0.6008
901.30 0.6007
901.40 0.6006
901.50 0.6005
901.60 0.6004
901.70 0.6003
901.80 0.6001
901.90 0.6
902.00 0.5999
902.10 0.5998
902.20 0.5997
902.30 0.5996
902.40 0.5994
902.50 0.5993
902.60 0.5992
902.70 0.5991
902.80 0.599
902.90 0.5989
903.00 0.5987
903.10 0.5986
903.20 0.5985
903.30 0.5984
903.40 0.5983
903.50 0.5982
903.60 0.5981
903.70 0.5979
903.80 0.5978
903.90 0.5977
904.00 0.5976
904.10 0.5975
904.20 0.5974
904.30 0.5972
904.40 0.5971
904.50 0.597
904.60 0.5969
904.70 0.5968
904.80 0.5967
904.90 0.5966
905.00 0.5964
905.10 0.5963
905.20 0.5962
905.30 0.5961
905.40 0.596
905.50 0.5959
905.60 0.5957
905.70 0.5956
905.80 0.5955
905.90 0.5954
906.00 0.5953
906.10 0.5952
906.20 0.5951
906.30 0.5949
906.40 0.5948
906.50 0.5947
906.60 0.5946
906.70 0.5945
906.80 0.5944
906.90 0.5943
907.00 0.5941
907.10 0.594
907.20 0.5939
907.30 0.5938
907.40 0.5937
907.50 0.5936
907.60 0.5934
907.70 0.5933
907.80 0.5932
907.90 0.5931
908.00 0.593
908.10 0.5929
908.20 0.5928
908.30 0.5926
908.40 0.5925
908.50 0.5924
908.60 0.5923
908.70 0.5922
908.80 0.5921
908.90 0.5919
909.00 0.5918
909.10 0.5917
909.20 0.5916
909.30 0.5915
909.40 0.5914
909.50 0.5913
909.60 0.5911
909.70 0.591
909.80 0.5909
909.90 0.5908
910.00 0.5907
910.10 0.5906
910.20 0.5905
910.30 0.5903
910.40 0.5902
910.50 0.5901
910.60 0.59
910.70 0.5899
910.80 0.5898
910.90 0.5897
911.00 0.5895
911.10 0.5894
911.20 0.5893
911.30 0.5892
911.40 0.5891
911.50 0.589
911.60 0.5889
911.70 0.5887
911.80 0.5886
911.90 0.5885
912.00 0.5884
912.10 0.5883
912.20 0.5882
912.30 0.5881
912.40 0.5879
912.50 0.5878
912.60 0.5877
912.70 0.5876
912.80 0.5875
912.90 0.5874
913.00 0.5873
913.10 0.5871
913.20 0.587
913.30 0.5869
913.40 0.5868
913.50 0.5867
913.60 0.5866
913.70 0.5865
913.80 0.5864
913.90 0.5862
914.00 0.5861
914.10 0.586
914.20 0.5859
914.30 0.5858
914.40 0.5857
914.50 0.5856
914.60 0.5854
914.70 0.5853
914.80 0.5852
914.90 0.5851
915.00 0.585
915.10 0.5849
915.20 0.5848
915.30 0.5846
915.40 0.5845
915.50 0.5844
915.60 0.5843
915.70 0.5842
915.80 0.5841
915.90 0.584
916.00 0.5839
916.10 0.5837
916.20 0.5836
916.30 0.5835
916.40 0.5834
916.50 0.5833
916.60 0.5832
916.70 0.5831
916.80 0.583
916.90 0.5828
917.00 0.5827
917.10 0.5826
917.20 0.5825
917.30 0.5824
917.40 0.5823
917.50 0.5822
917.60 0.582
917.70 0.5819
917.80 0.5818
917.90 0.5817
918.00 0.5816
918.10 0.5815
918.20 0.5814
918.30 0.5813
918.40 0.5811
918.50 0.581
918.60 0.5809
918.70 0.5808
918.80 0.5807
918.90 0.5806
919.00 0.5805
919.10 0.5803
919.20 0.5802
919.30 0.5801
919.40 0.58
919.50 0.5799
919.60 0.5798
919.70 0.5797
919.80 0.5796
919.90 0.5794
920.00 0.5793
920.10 0.5792
920.20 0.5791
920.30 0.579
920.40 0.5789
920.50 0.5788
920.60 0.5787
920.70 0.5785
920.80 0.5784
920.90 0.5783
921.00 0.5782
921.10 0.5781
921.20 0.578
921.30 0.5779
921.40 0.5778
921.50 0.5776
921.60 0.5775
921.70 0.5774
921.80 0.5773
921.90 0.5772
922.00 0.5771
922.10 0.577
922.20 0.5769
922.30 0.5767
922.40 0.5766
922.50 0.5765
922.60 0.5764
922.70 0.5763
922.80 0.5762
922.90 0.5761
923.00 0.576
923.10 0.5758
923.20 0.5757
923.30 0.5756
923.40 0.5755
923.50 0.5754
923.60 0.5753
923.70 0.5752
923.80 0.5751
923.90 0.575
924.00 0.5748
924.10 0.5747
924.20 0.5746
924.30 0.5745
924.40 0.5744
924.50 0.5743
924.60 0.5742
924.70 0.5741
924.80 0.574
924.90 0.5738
925.00 0.5737
925.10 0.5736
925.20 0.5735
925.30 0.5734
925.40 0.5733
925.50 0.5732
925.60 0.5731
925.70 0.573
925.80 0.5728
925.90 0.5727
926.00 0.5726
926.10 0.5725
926.20 0.5724
926.30 0.5723
926.40 0.5722
926.50 0.5721
926.60 0.572
926.70 0.5718
926.80 0.5717
926.90 0.5716
927.00 0.5715
927.10 0.5714
927.20 0.5713
927.30 0.5712
927.40 0.5711
927.50 0.571
927.60 0.5708
927.70 0.5707
927.80 0.5706
927.90 0.5705
928.00 0.5704
928.10 0.5703
928.20 0.5702
928.30 0.5701
928.40 0.57
928.50 0.5698
928.60 0.5697
928.70 0.5696
928.80 0.5695
928.90 0.5694
929.00 0.5693
929.10 0.5692
929.20 0.5691
929.30 0.569
929.40 0.5688
929.50 0.5687
929.60 0.5686
929.70 0.5685
929.80 0.5684
929.90 0.5683
930.00 0.5682
930.10 0.5681
930.20 0.568
930.30 0.5678
930.40 0.5677
930.50 0.5676
930.60 0.5675
930.70 0.5674
930.80 0.5673
930.90 0.5672
931.00 0.5671
931.10 0.567
931.20 0.5669
931.30 0.5667
931.40 0.5666
931.50 0.5665
931.60 0.5664
931.70 0.5663
931.80 0.5662
931.90 0.5661
932.00 0.566
932.10 0.5659
932.20 0.5658
932.30 0.5656
932.40 0.5655
932.50 0.5654
932.60 0.5653
932.70 0.5652
932.80 0.5651
932.90 0.565
933.00 0.5649
933.10 0.5648
933.20 0.5647
933.30 0.5645
933.40 0.5644
933.50 0.5643
933.60 0.5642
933.70 0.5641
933.80 0.564
933.90 0.5639
934.00 0.5638
934.10 0.5637
934.20 0.5636
934.30 0.5634
934.40 0.5633
934.50 0.5632
934.60 0.5631
934.70 0.563
934.80 0.5629
934.90 0.5628
935.00 0.5627
935.10 0.5626
935.20 0.5625
935.30 0.5623
935.40 0.5622
935.50 0.5621
935.60 0.562
935.70 0.5619
935.80 0.5618
935.90 0.5617
936.00 0.5616
936.10 0.5615
936.20 0.5614
936.30 0.5613
936.40 0.5611
936.50 0.561
936.60 0.5609
936.70 0.5608
936.80 0.5607
936.90 0.5606
937.00 0.5605
937.10 0.5604
937.20 0.5603
937.30 0.5602
937.40 0.56
937.50 0.5599
937.60 0.5598
937.70 0.5597
937.80 0.5596
937.90 0.5595
938.00 0.5594
938.10 0.5593
938.20 0.5592
938.30 0.5591
938.40 0.559
938.50 0.5588
938.60 0.5587
938.70 0.5586
938.80 0.5585
938.90 0.5584
939.00 0.5583
939.10 0.5582
939.20 0.5581
939.30 0.558
939.40 0.5579
939.50 0.5578
939.60 0.5577
939.70 0.5575
939.80 0.5574
939.90 0.5573
940.00 0.5572
940.10 0.5571
940.20 0.557
940.30 0.5569
940.40 0.5568
940.50 0.5567
940.60 0.5566
940.70 0.5565
940.80 0.5564
940.90 0.5562
941.00 0.5561
941.10 0.556
941.20 0.5559
941.30 0.5558
941.40 0.5557
941.50 0.5556
941.60 0.5555
941.70 0.5554
941.80 0.5553
941.90 0.5552
942.00 0.555
942.10 0.5549
942.20 0.5548
942.30 0.5547
942.40 0.5546
942.50 0.5545
942.60 0.5544
942.70 0.5543
942.80 0.5542
942.90 0.5541
943.00 0.554
943.10 0.5539
943.20 0.5537
943.30 0.5536
943.40 0.5535
943.50 0.5534
943.60 0.5533
943.70 0.5532
943.80 0.5531
943.90 0.553
944.00 0.5529
944.10 0.5528
944.20 0.5527
944.30 0.5526
944.40 0.5525
944.50 0.5523
944.60 0.5522
944.70 0.5521
944.80 0.552
944.90 0.5519
945.00 0.5518
945.10 0.5517
945.20 0.5516
945.30 0.5515
945.40 0.5514
945.50 0.5513
945.60 0.5512
945.70 0.5511
945.80 0.5509
945.90 0.5508
946.00 0.5507
946.10 0.5506
946.20 0.5505
946.30 0.5504
946.40 0.5503
946.50 0.5502
946.60 0.5501
946.70 0.55
946.80 0.5499
946.90 0.5498
947.00 0.5497
947.10 0.5496
947.20 0.5494
947.30 0.5493
947.40 0.5492
947.50 0.5491
947.60 0.549
947.70 0.5489
947.80 0.5488
947.90 0.5487
948.00 0.5486
948.10 0.5485
948.20 0.5484
948.30 0.5483
948.40 0.5482
948.50 0.548
948.60 0.5479
948.70 0.5478
948.80 0.5477
948.90 0.5476
949.00 0.5475
949.10 0.5474
949.20 0.5473
949.30 0.5472
949.40 0.5471
949.50 0.547
949.60 0.5469
949.70 0.5468
949.80 0.5467
949.90 0.5466
950.00 0.5464
950.10 0.5463
950.20 0.5462
950.30 0.5461
950.40 0.546
950.50 0.5459
950.60 0.5458
950.70 0.5457
950.80 0.5456
950.90 0.5455
951.00 0.5454
951.10 0.5453
951.20 0.5452
951.30 0.5451
951.40 0.545
951.50 0.5448
951.60 0.5447
951.70 0.5446
951.80 0.5445
951.90 0.5444
952.00 0.5443
952.10 0.5442
952.20 0.5441
952.30 0.544
952.40 0.5439
952.50 0.5438
952.60 0.5437
952.70 0.5436
952.80 0.5435
952.90 0.5434
953.00 0.5432
953.10 0.5431
953.20 0.543
953.30 0.5429
953.40 0.5428
953.50 0.5427
953.60 0.5426
953.70 0.5425
953.80 0.5424
953.90 0.5422
954.00 0.5421
954.10 0.5419
954.20 0.5418
954.30 0.5416
954.40 0.5416
954.50 0.5415
954.60 0.5414
954.70 0.5414
954.80 0.5413
954.90 0.5412
955.00 0.5411
955.10 0.541
955.20 0.5409
955.30 0.5408
955.40 0.5407
955.50 0.5406
955.60 0.5405
955.70 0.5404
955.80 0.5403
955.90 0.5402
956.00 0.5401
956.10 0.54
956.20 0.5399
956.30 0.5398
956.40 0.5397
956.50 0.5396
956.60 0.5394
956.70 0.5393
956.80 0.5392
956.90 0.5391
957.00 0.539
957.10 0.5389
957.20 0.5388
957.30 0.5387
957.40 0.5386
957.50 0.5385
957.60 0.5384
957.70 0.5383
957.80 0.5382
957.90 0.5381
958.00 0.538
958.10 0.5379
958.20 0.5378
958.30 0.5377
958.40 0.5375
958.50 0.5374
958.60 0.5373
958.70 0.5372
958.80 0.5371
958.90 0.537
959.00 0.5369
959.10 0.5368
959.20 0.5367
959.30 0.5366
959.40 0.5365
959.50 0.5364
959.60 0.5363
959.70 0.5362
959.80 0.5361
959.90 0.536
960.00 0.5359
960.10 0.5358
960.20 0.5357
960.30 0.5356
960.40 0.5355
960.50 0.5353
960.60 0.5352
960.70 0.5351
960.80 0.535
960.90 0.5349
961.00 0.5348
961.10 0.5347
961.20 0.5346
961.30 0.5345
961.40 0.5344
961.50 0.5343
961.60 0.5342
961.70 0.5341
961.80 0.534
961.90 0.5339
962.00 0.5338
962.10 0.5337
962.20 0.5336
962.30 0.5335
962.40 0.5334
962.50 0.5333
962.60 0.5332
962.70 0.533
962.80 0.5329
962.90 0.5328
963.00 0.5327
963.10 0.5326
963.20 0.5325
963.30 0.5324
963.40 0.5323
963.50 0.5322
963.60 0.5321
963.70 0.532
963.80 0.5319
963.90 0.5318
964.00 0.5317
964.10 0.5316
964.20 0.5315
964.30 0.5314
964.40 0.5313
964.50 0.5312
964.60 0.5311
964.70 0.531
964.80 0.5309
964.90 0.5308
965.00 0.5307
965.10 0.5306
965.20 0.5304
965.30 0.5303
965.40 0.5302
965.50 0.5301
965.60 0.53
965.70 0.5299
965.80 0.5298
965.90 0.5297
966.00 0.5296
966.10 0.5295
966.20 0.5294
966.30 0.5293
966.40 0.5292
966.50 0.5291
966.60 0.529
966.70 0.5289
966.80 0.5288
966.90 0.5287
967.00 0.5286
967.10 0.5285
967.20 0.5284
967.30 0.5283
967.40 0.5282
967.50 0.5281
967.60 0.528
967.70 0.5279
967.80 0.5278
967.90 0.5277
968.00 0.5276
968.10 0.5275
968.20 0.5273
968.30 0.5272
968.40 0.5271
968.50 0.527
968.60 0.5269
968.70 0.5268
968.80 0.5267
968.90 0.5266
969.00 0.5265
969.10 0.5264
969.20 0.5263
969.30 0.5262
969.40 0.5261
969.50 0.526
969.60 0.5259
969.70 0.5258
969.80 0.5257
969.90 0.5256
970.00 0.5255
970.10 0.5254
970.20 0.5253
970.30 0.5252
970.40 0.5251
970.50 0.525
970.60 0.5249
970.70 0.5248
970.80 0.5247
970.90 0.5246
971.00 0.5245
971.10 0.5244
971.20 0.5243
971.30 0.5242
971.40 0.5241
971.50 0.524
971.60 0.5238
971.70 0.5237
971.80 0.5236
971.90 0.5235
972.00 0.5234
972.10 0.5233
972.20 0.5232
972.30 0.5231
972.40 0.523
972.50 0.5229
972.60 0.5228
972.70 0.5227
972.80 0.5226
972.90 0.5225
973.00 0.5224
973.10 0.5223
973.20 0.5222
973.30 0.5221
973.40 0.522
973.50 0.5219
973.60 0.5218
973.70 0.5217
973.80 0.5216
973.90 0.5215
974.00 0.5214
974.10 0.5213
974.20 0.5212
974.30 0.5211
974.40 0.521
974.50 0.5209
974.60 0.5208
974.70 0.5207
974.80 0.5206
974.90 0.5205
975.00 0.5204
975.10 0.5203
975.20 0.5202
975.30 0.5201
975.40 0.52
975.50 0.5199
975.60 0.5198
975.70 0.5197
975.80 0.5196
975.90 0.5195
976.00 0.5194
976.10 0.5193
976.20 0.5192
976.30 0.5191
976.40 0.5189
976.50 0.5188
976.60 0.5187
976.70 0.5186
976.80 0.5185
976.90 0.5184
977.00 0.5183
977.10 0.5182
977.20 0.5181
977.30 0.518
977.40 0.5179
977.50 0.5178
977.60 0.5177
977.70 0.5176
977.80 0.5175
977.90 0.5174
978.00 0.5173
978.10 0.5172
978.20 0.5171
978.30 0.517
978.40 0.5169
978.50 0.5168
978.60 0.5167
978.70 0.5166
978.80 0.5165
978.90 0.5164
979.00 0.5163
979.10 0.5162
979.20 0.5161
979.30 0.516
979.40 0.5159
979.50 0.5158
979.60 0.5157
979.70 0.5156
979.80 0.5155
979.90 0.5154
980.00 0.5153
980.10 0.5152
980.20 0.5151
980.30 0.515
980.40 0.5149
980.50 0.5148
980.60 0.5147
980.70 0.5146
980.80 0.5145
980.90 0.5144
981.00 0.5143
981.10 0.5142
981.20 0.5141
981.30 0.514
981.40 0.5139
981.50 0.5138
981.60 0.5137
981.70 0.5136
981.80 0.5135
981.90 0.5134
982.00 0.5133
982.10 0.5132
982.20 0.5131
982.30 0.513
982.40 0.5129
982.50 0.5128
982.60 0.5127
982.70 0.5126
982.80 0.5125
982.90 0.5124
983.00 0.5123
983.10 0.5122
983.20 0.5121
983.30 0.512
983.40 0.5119
983.50 0.5118
983.60 0.5117
983.70 0.5116
983.80 0.5115
983.90 0.5114
984.00 0.5113
984.10 0.5112
984.20 0.5111
984.30 0.511
984.40 0.5109
984.50 0.5108
984.60 0.5107
984.70 0.5106
984.80 0.5105
984.90 0.5104
985.00 0.5103
985.10 0.5102
985.20 0.5101
985.30 0.51
985.40 0.5099
985.50 0.5098
985.60 0.5097
985.70 0.5096
985.80 0.5095
985.90 0.5094
986.00 0.5093
986.10 0.5092
986.20 0.5091
986.30 0.509
986.40 0.5089
986.50 0.5088
986.60 0.5087
986.70 0.5086
986.80 0.5085
986.90 0.5084
987.00 0.5083
987.10 0.5082
987.20 0.5081
987.30 0.508
987.40 0.5079
987.50 0.5078
987.60 0.5077
987.70 0.5076
987.80 0.5075
987.90 0.5074
988.00 0.5073
988.10 0.5072
988.20 0.5071
988.30 0.507
988.40 0.5069
988.50 0.5068
988.60 0.5067
988.70 0.5066
988.80 0.5065
988.90 0.5064
989.00 0.5063
989.10 0.5062
989.20 0.5061
989.30 0.506
989.40 0.5059
989.50 0.5058
989.60 0.5057
989.70 0.5056
989.80 0.5055
989.90 0.5054
990.00 0.5053
990.10 0.5052
990.20 0.5051
990.30 0.505
990.40 0.5049
990.50 0.5048
990.60 0.5047
990.70 0.5046
990.80 0.5045
990.90 0.5044
991.00 0.5043
991.10 0.5042
991.20 0.5041
991.30 0.504
991.40 0.5039
991.50 0.5038
991.60 0.5037
991.70 0.5036
991.80 0.5035
991.90 0.5034
992.00 0.5033
992.10 0.5032
992.20 0.5031
992.30 0.503
992.40 0.5029
992.50 0.5029
992.60 0.5028
992.70 0.5027
992.80 0.5026
992.90 0.5025
993.00 0.5024
993.10 0.5023
993.20 0.5022
993.30 0.5021
993.40 0.502
993.50 0.5019
993.60 0.5018
993.70 0.5017
993.80 0.5016
993.90 0.5015
994.00 0.5014
994.10 0.5013
994.20 0.5012
994.30 0.5011
994.40 0.501
994.50 0.5009
994.60 0.5008
994.70 0.5007
994.80 0.5006
994.90 0.5005
995.00 0.5004
995.10 0.5003
995.20 0.5002
995.30 0.5001
995.40 0.5
995.50 0.4999
995.60 0.4998
995.70 0.4997
995.80 0.4996
995.90 0.4995
996.00 0.4994
996.10 0.4993
996.20 0.4992
996.30 0.4991
996.40 0.499
996.50 0.4989
996.60 0.4988
996.70 0.4987
996.80 0.4986
996.90 0.4985
997.00 0.4984
997.10 0.4983
997.20 0.4983
997.30 0.4982
997.40 0.4981
997.50 0.498
997.60 0.4979
997.70 0.4978
997.80 0.4977
997.90 0.4976
998.00 0.4975
998.10 0.4974
998.20 0.4973
998.30 0.4972
998.40 0.4971
998.50 0.497
998.60 0.4969
998.70 0.4968
998.80 0.4967
998.90 0.4966
999.00 0.4965
999.10 0.4964
999.20 0.4963
999.30 0.4962
999.40 0.4961
999.50 0.496
999.60 0.4959
999.70 0.4958
999.80 0.4957
999.90 0.4956
1000.00 0.4955
1000.10 0.4954
1000.20 0.4953
1000.30 0.4952
1000.40 0.4951
1000.50 0.495
1000.60 0.4949
1000.70 0.4948
1000.80 0.4948
1000.90 0.4947
1001.00 0.4946
1001.10 0.4945
1001.20 0.4944
1001.30 0.4943
1001.40 0.4942
1001.50 0.4941
1001.60 0.494
1001.70 0.4939
1001.80 0.4938
1001.90 0.4937
1002.00 0.4936
1002.10 0.4935
1002.20 0.4934
1002.30 0.4933
1002.40 0.4932
1002.50 0.4931
1002.60 0.493
1002.70 0.4929
1002.80 0.4928
1002.90 0.4927
1003.00 0.4926
1003.10 0.4925
1003.20 0.4924
1003.30 0.4923
1003.40 0.4922
1003.50 0.4921
1003.60 0.492
1003.70 0.4919
1003.80 0.4918
1003.90 0.4917
1004.00 0.4916
1004.10 0.4914
1004.20 0.4913
1004.30 0.4911
1004.40 0.4909
1004.50 0.4906
1004.60 0.4903
1004.70 0.4903
1004.80 0.4904
1004.90 0.4905
1005.00 0.4905
1005.10 0.4905
1005.20 0.4904
1005.30 0.4903
1005.40 0.4903
1005.50 0.4902
1005.60 0.4901
1005.70 0.49
1005.80 0.4899
1005.90 0.4898
1006.00 0.4897
1006.10 0.4896
1006.20 0.4895
1006.30 0.4895
1006.40 0.4894
1006.50 0.4893
1006.60 0.4892
1006.70 0.4891
1006.80 0.489
1006.90 0.4889
1007.00 0.4888
1007.10 0.4887
1007.20 0.4886
1007.30 0.4885
1007.40 0.4884
1007.50 0.4883
1007.60 0.4882
1007.70 0.4881
1007.80 0.488
1007.90 0.4879
1008.00 0.4878
1008.10 0.4877
1008.20 0.4876
1008.30 0.4875
1008.40 0.4874
1008.50 0.4874
1008.60 0.4873
1008.70 0.4872
1008.80 0.4871
1008.90 0.487
1009.00 0.4869
1009.10 0.4868
1009.20 0.4867
1009.30 0.4866
1009.40 0.4865
1009.50 0.4864
1009.60 0.4863
1009.70 0.4862
1009.80 0.4861
1009.90 0.486
1010.00 0.4859
1010.10 0.4858
1010.20 0.4857
1010.30 0.4856
1010.40 0.4855
1010.50 0.4854
1010.60 0.4854
1010.70 0.4853
1010.80 0.4852
1010.90 0.4851
1011.00 0.485
1011.10 0.4849
1011.20 0.4848
1011.30 0.4847
1011.40 0.4846
1011.50 0.4845
1011.60 0.4844
1011.70 0.4843
1011.80 0.4842
1011.90 0.4841
1012.00 0.484
1012.10 0.4839
1012.20 0.4838
1012.30 0.4837
1012.40 0.4837
1012.50 0.4836
1012.60 0.4835
1012.70 0.4834
1012.80 0.4833
1012.90 0.4832
1013.00 0.4831
1013.10 0.483
1013.20 0.4829
1013.30 0.4828
1013.40 0.4827
1013.50 0.4826
1013.60 0.4825
1013.70 0.4824
1013.80 0.4823
1013.90 0.4822
1014.00 0.4821
1014.10 0.482
1014.20 0.482
1014.30 0.4819
1014.40 0.4818
1014.50 0.4817
1014.60 0.4816
1014.70 0.4815
1014.80 0.4814
1014.90 0.4813
1015.00 0.4812
1015.10 0.4811
1015.20 0.481
1015.30 0.4809
1015.40 0.4808
1015.50 0.4807
1015.60 0.4806
1015.70 0.4805
1015.80 0.4804
1015.90 0.4804
1016.00 0.4803
1016.10 0.4802
1016.20 0.4801
1016.30 0.48
1016.40 0.4799
1016.50 0.4798
1016.60 0.4797
1016.70 0.4796
1016.80 0.4795
1016.90 0.4794
1017.00 0.4793
1017.10 0.4792
1017.20 0.4791
1017.30 0.479
1017.40 0.4789
1017.50 0.4789
1017.60 0.4788
1017.70 0.4787
1017.80 0.4786
1017.90 0.4785
1018.00 0.4784
1018.10 0.4783
1018.20 0.4782
1018.30 0.4781
1018.40 0.478
1018.50 0.4779
1018.60 0.4778
1018.70 0.4777
1018.80 0.4776
1018.90 0.4775
1019.00 0.4774
1019.10 0.4774
1019.20 0.4773
1019.30 0.4772
1019.40 0.4771
1019.50 0.477
1019.60 0.4769
1019.70 0.4768
1019.80 0.4767
1019.90 0.4766
1020.00 0.4765
1020.10 0.4764
1020.20 0.4763
1020.30 0.4762
1020.40 0.4761
1020.50 0.4761
1020.60 0.476
1020.70 0.4759
1020.80 0.4758
1020.90 0.4757
1021.00 0.4756
1021.10 0.4755
1021.20 0.4754
1021.30 0.4753
1021.40 0.4752
1021.50 0.4751
1021.60 0.475
1021.70 0.4749
1021.80 0.4748
1021.90 0.4747
1022.00 0.4747
1022.10 0.4746
1022.20 0.4745
1022.30 0.4744
1022.40 0.4743
1022.50 0.4742
1022.60 0.4741
1022.70 0.474
1022.80 0.4739
1022.90 0.4738
1023.00 0.4737
1023.10 0.4736
1023.20 0.4735
1023.30 0.4735
1023.40 0.4734
1023.50 0.4733
1023.60 0.4732
1023.70 0.4731
1023.80 0.473
1023.90 0.4729
1024.00 0.4728
1024.10 0.4727
1024.20 0.4726
1024.30 0.4725
1024.40 0.4724
1024.50 0.4723
1024.60 0.4723
1024.70 0.4722
1024.80 0.4721
1024.90 0.472
1025.00 0.4719
1025.10 0.4718
1025.20 0.4717
1025.30 0.4716
1025.40 0.4715
1025.50 0.4714
1025.60 0.4713
1025.70 0.4712
1025.80 0.4711
1025.90 0.4711
1026.00 0.471
1026.10 0.4709
1026.20 0.4708
1026.30 0.4707
1026.40 0.4706
1026.50 0.4705
1026.60 0.4704
1026.70 0.4703
1026.80 0.4702
1026.90 0.4701
1027.00 0.47
1027.10 0.47
1027.20 0.4699
1027.30 0.4698
1027.40 0.4697
1027.50 0.4696
1027.60 0.4695
1027.70 0.4694
1027.80 0.4693
1027.90 0.4692
1028.00 0.4691
1028.10 0.469
1028.20 0.4689
1028.30 0.4689
1028.40 0.4688
1028.50 0.4687
1028.60 0.4686
1028.70 0.4685
1028.80 0.4684
1028.90 0.4683
1029.00 0.4682
1029.10 0.4681
1029.20 0.468
1029.30 0.4679
1029.40 0.4678
1029.50 0.4678
1029.60 0.4677
1029.70 0.4676
1029.80 0.4675
1029.90 0.4674
1030.00 0.4673
1030.10 0.4672
1030.20 0.4671
1030.30 0.467
1030.40 0.4669
1030.50 0.4668
1030.60 0.4668
1030.70 0.4667
1030.80 0.4666
1030.90 0.4665
1031.00 0.4664
1031.10 0.4663
1031.20 0.4662
1031.30 0.4661
1031.40 0.466
1031.50 0.4659
1031.60 0.4658
1031.70 0.4658
1031.80 0.4657
1031.90 0.4656
1032.00 0.4655
1032.10 0.4654
1032.20 0.4653
1032.30 0.4652
1032.40 0.4651
1032.50 0.465
1032.60 0.4649
1032.70 0.4648
1032.80 0.4648
1032.90 0.4647
1033.00 0.4646
1033.10 0.4645
1033.20 0.4644
1033.30 0.4643
1033.40 0.4642
1033.50 0.4641
1033.60 0.464
1033.70 0.4639
1033.80 0.4638
1033.90 0.4638
1034.00 0.4637
1034.10 0.4636
1034.20 0.4635
1034.30 0.4634
1034.40 0.4633
1034.50 0.4632
1034.60 0.4631
1034.70 0.463
1034.80 0.4629
1034.90 0.4629
1035.00 0.4628
1035.10 0.4627
1035.20 0.4626
1035.30 0.4625
1035.40 0.4624
1035.50 0.4623
1035.60 0.4622
1035.70 0.4621
1035.80 0.462
1035.90 0.4619
1036.00 0.4619
1036.10 0.4618
1036.20 0.4617
1036.30 0.4616
1036.40 0.4615
1036.50 0.4614
1036.60 0.4613
1036.70 0.4612
1036.80 0.4611
1036.90 0.4611
1037.00 0.461
1037.10 0.4609
1037.20 0.4608
1037.30 0.4607
1037.40 0.4606
1037.50 0.4605
1037.60 0.4604
1037.70 0.4603
1037.80 0.4602
1037.90 0.4602
1038.00 0.4601
1038.10 0.46
1038.20 0.4599
1038.30 0.4598
1038.40 0.4597
1038.50 0.4596
1038.60 0.4595
1038.70 0.4594
1038.80 0.4593
1038.90 0.4593
1039.00 0.4592
1039.10 0.4591
1039.20 0.459
1039.30 0.4589
1039.40 0.4588
1039.50 0.4587
1039.60 0.4586
1039.70 0.4585
1039.80 0.4584
1039.90 0.4584
1040.00 0.4583
1040.10 0.4582
1040.20 0.4581
1040.30 0.458
1040.40 0.4579
1040.50 0.4578
1040.60 0.4577
1040.70 0.4576
1040.80 0.4576
1040.90 0.4575
1041.00 0.4574
1041.10 0.4573
1041.20 0.4572
1041.30 0.4571
1041.40 0.457
1041.50 0.4569
1041.60 0.4568
1041.70 0.4568
1041.80 0.4567
1041.90 0.4566
1042.00 0.4565
1042.10 0.4564
1042.20 0.4563
1042.30 0.4562
1042.40 0.4561
1042.50 0.456
1042.60 0.456
1042.70 0.4559
1042.80 0.4558
1042.90 0.4557
1043.00 0.4556
1043.10 0.4555
1043.20 0.4554
1043.30 0.4553
1043.40 0.4552
1043.50 0.4552
1043.60 0.4551
1043.70 0.455
1043.80 0.4549
1043.90 0.4548
1044.00 0.4547
1044.10 0.4546
1044.20 0.4545
1044.30 0.4544
1044.40 0.4544
1044.50 0.4543
1044.60 0.4542
1044.70 0.4541
1044.80 0.454
1044.90 0.4539
1045.00 0.4538
1045.10 0.4537
1045.20 0.4537
1045.30 0.4536
1045.40 0.4535
1045.50 0.4534
1045.60 0.4533
1045.70 0.4532
1045.80 0.4531
1045.90 0.453
1046.00 0.4529
1046.10 0.4529
1046.20 0.4528
1046.30 0.4527
1046.40 0.4526
1046.50 0.4525
1046.60 0.4524
1046.70 0.4523
1046.80 0.4522
1046.90 0.4522
1047.00 0.4521
1047.10 0.452
1047.20 0.4519
1047.30 0.4518
1047.40 0.4517
1047.50 0.4516
1047.60 0.4515
1047.70 0.4514
1047.80 0.4514
1047.90 0.4513
1048.00 0.4512
1048.10 0.4511
1048.20 0.451
1048.30 0.4509
1048.40 0.4508
1048.50 0.4507
1048.60 0.4507
1048.70 0.4506
1048.80 0.4505
1048.90 0.4504
1049.00 0.4503
1049.10 0.4502
1049.20 0.4501
1049.30 0.45
1049.40 0.45
1049.50 0.4499
1049.60 0.4498
1049.70 0.4497
1049.80 0.4496
1049.90 0.4495
1050.00 0.4494
1050.10 0.4493
1050.20 0.4493
1050.30 0.4492
1050.40 0.4491
1050.50 0.449
1050.60 0.4489
1050.70 0.4488
1050.80 0.4487
1050.90 0.4486
1051.00 0.4486
1051.10 0.4485
1051.20 0.4484
1051.30 0.4483
1051.40 0.4482
1051.50 0.4481
1051.60 0.448
1051.70 0.4479
1051.80 0.4479
1051.90 0.4478
1052.00 0.4477
1052.10 0.4476
1052.20 0.4475
1052.30 0.4474
1052.40 0.4473
1052.50 0.4472
1052.60 0.4472
1052.70 0.4471
1052.80 0.447
1052.90 0.4469
1053.00 0.4468
1053.10 0.4467
1053.20 0.4466
1053.30 0.4466
1053.40 0.4465
1053.50 0.4464
1053.60 0.4463
1053.70 0.4462
1053.80 0.4461
1053.90 0.446
1054.00 0.4459
1054.10 0.4459
1054.20 0.4458
1054.30 0.4457
1054.40 0.4456
1054.50 0.4455
1054.60 0.4454
1054.70 0.4453
1054.80 0.4452
1054.90 0.4452
1055.00 0.4451
1055.10 0.445
1055.20 0.4449
1055.30 0.4448
1055.40 0.4447
1055.50 0.4446
1055.60 0.4446
1055.70 0.4445
1055.80 0.4444
1055.90 0.4443
1056.00 0.4442
1056.10 0.4441
1056.20 0.444
1056.30 0.444
1056.40 0.4439
1056.50 0.4438
1056.60 0.4437
1056.70 0.4436
1056.80 0.4435
1056.90 0.4434
1057.00 0.4433
1057.10 0.4433
1057.20 0.4432
1057.30 0.4431
1057.40 0.443
1057.50 0.4429
1057.60 0.4428
1057.70 0.4427
1057.80 0.4427
1057.90 0.4426
1058.00 0.4425
1058.10 0.4424
1058.20 0.4423
1058.30 0.4422
1058.40 0.4421
1058.50 0.4421
1058.60 0.442
1058.70 0.4419
1058.80 0.4418
1058.90 0.4417
1059.00 0.4416
1059.10 0.4415
1059.20 0.4415
1059.30 0.4414
1059.40 0.4413
1059.50 0.4412
1059.60 0.4411
1059.70 0.441
1059.80 0.4409
1059.90 0.4409
1060.00 0.4408
1060.10 0.4407
1060.20 0.4406
1060.30 0.4405
1060.40 0.4404
1060.50 0.4403
1060.60 0.4403
1060.70 0.4402
1060.80 0.4401
1060.90 0.44
1061.00 0.4399
1061.10 0.4398
1061.20 0.4397
1061.30 0.4397
1061.40 0.4396
1061.50 0.4395
1061.60 0.4394
1061.70 0.4393
1061.80 0.4392
1061.90 0.4391
1062.00 0.4391
1062.10 0.439
1062.20 0.4389
1062.30 0.4388
1062.40 0.4387
1062.50 0.4386
1062.60 0.4386
1062.70 0.4385
1062.80 0.4384
1062.90 0.4383
1063.00 0.4382
1063.10 0.4381
1063.20 0.438
1063.30 0.438
1063.40 0.4379
1063.50 0.4378
1063.60 0.4377
1063.70 0.4376
1063.80 0.4375
1063.90 0.4374
1064.00 0.4374
1064.10 0.4373
1064.20 0.4372
1064.30 0.4371
1064.40 0.437
1064.50 0.4369
1064.60 0.4368
1064.70 0.4368
1064.80 0.4367
1064.90 0.4366
1065.00 0.4365
1065.10 0.4364
1065.20 0.4363
1065.30 0.4363
1065.40 0.4362
1065.50 0.4361
1065.60 0.436
1065.70 0.4359
1065.80 0.4358
1065.90 0.4357
1066.00 0.4357
1066.10 0.4356
1066.20 0.4355
1066.30 0.4354
1066.40 0.4353
1066.50 0.4352
1066.60 0.4352
1066.70 0.4351
1066.80 0.435
1066.90 0.4349
1067.00 0.4348
1067.10 0.4347
1067.20 0.4346
1067.30 0.4346
1067.40 0.4345
1067.50 0.4344
1067.60 0.4343
1067.70 0.4342
1067.80 0.4341
1067.90 0.4341
1068.00 0.434
1068.10 0.4339
1068.20 0.4338
1068.30 0.4337
1068.40 0.4336
1068.50 0.4336
1068.60 0.4335
1068.70 0.4334
1068.80 0.4333
1068.90 0.4332
1069.00 0.4331
1069.10 0.4331
1069.20 0.433
1069.30 0.4329
1069.40 0.4328
1069.50 0.4327
1069.60 0.4326
1069.70 0.4325
1069.80 0.4325
1069.90 0.4324
1070.00 0.4323
1070.10 0.4322
1070.20 0.4321
1070.30 0.432
1070.40 0.432
1070.50 0.4319
1070.60 0.4318
1070.70 0.4317
1070.80 0.4316
1070.90 0.4315
1071.00 0.4315
1071.10 0.4314
1071.20 0.4313
1071.30 0.4312
1071.40 0.4311
1071.50 0.431
1071.60 0.431
1071.70 0.4309
1071.80 0.4308
1071.90 0.4307
1072.00 0.4306
1072.10 0.4305
1072.20 0.4305
1072.30 0.4304
1072.40 0.4303
1072.50 0.4302
1072.60 0.4301
1072.70 0.43
1072.80 0.43
1072.90 0.4299
1073.00 0.4298
1073.10 0.4297
1073.20 0.4296
1073.30 0.4295
1073.40 0.4295
1073.50 0.4294
1073.60 0.4293
1073.70 0.4292
1073.80 0.4291
1073.90 0.429
1074.00 0.429
1074.10 0.4289
1074.20 0.4288
1074.30 0.4287
1074.40 0.4286
1074.50 0.4285
1074.60 0.4285
1074.70 0.4284
1074.80 0.4283
1074.90 0.4282
1075.00 0.4281
1075.10 0.428
1075.20 0.428
1075.30 0.4279
1075.40 0.4278
1075.50 0.4277
1075.60 0.4276
1075.70 0.4275
1075.80 0.4275
1075.90 0.4274
1076.00 0.4273
1076.10 0.4272
1076.20 0.4271
1076.30 0.4271
1076.40 0.427
1076.50 0.4269
1076.60 0.4268
1076.70 0.4267
1076.80 0.4266
1076.90 0.4266
1077.00 0.4265
1077.10 0.4264
1077.20 0.4263
1077.30 0.4262
1077.40 0.4261
1077.50 0.4261
1077.60 0.426
1077.70 0.4259
1077.80 0.4258
1077.90 0.4257
1078.00 0.4256
1078.10 0.4256
1078.20 0.4255
1078.30 0.4254
1078.40 0.4253
1078.50 0.4252
1078.60 0.4252
1078.70 0.4251
1078.80 0.425
1078.90 0.4249
1079.00 0.4248
1079.10 0.4247
1079.20 0.4247
1079.30 0.4246
1079.40 0.4245
1079.50 0.4244
1079.60 0.4243
1079.70 0.4242
1079.80 0.4242
1079.90 0.4241
1080.00 0.424
1080.10 0.4239
1080.20 0.4238
1080.30 0.4238
1080.40 0.4237
1080.50 0.4236
1080.60 0.4235
1080.70 0.4234
1080.80 0.4233
1080.90 0.4233
1081.00 0.4232
1081.10 0.4231
1081.20 0.423
1081.30 0.4229
1081.40 0.4229
1081.50 0.4228
1081.60 0.4227
1081.70 0.4226
1081.80 0.4225
1081.90 0.4224
1082.00 0.4224
1082.10 0.4223
1082.20 0.4222
1082.30 0.4221
1082.40 0.422
1082.50 0.422
1082.60 0.4219
1082.70 0.4218
1082.80 0.4217
1082.90 0.4216
1083.00 0.4215
1083.10 0.4215
1083.20 0.4214
1083.30 0.4213
1083.40 0.4212
1083.50 0.4211
1083.60 0.4211
1083.70 0.421
1083.80 0.4209
1083.90 0.4208
1084.00 0.4207
1084.10 0.4207
1084.20 0.4206
1084.30 0.4205
1084.40 0.4204
1084.50 0.4203
1084.60 0.4202
1084.70 0.4202
1084.80 0.4201
1084.90 0.42
1085.00 0.4199
1085.10 0.4198
1085.20 0.4198
1085.30 0.4197
1085.40 0.4196
1085.50 0.4195
1085.60 0.4194
1085.70 0.4194
1085.80 0.4193
1085.90 0.4192
1086.00 0.4191
1086.10 0.419
1086.20 0.419
1086.30 0.4189
1086.40 0.4188
1086.50 0.4187
1086.60 0.4186
1086.70 0.4185
1086.80 0.4185
1086.90 0.4184
1087.00 0.4183
1087.10 0.4182
1087.20 0.4181
1087.30 0.4181
1087.40 0.418
1087.50 0.4179
1087.60 0.4178
1087.70 0.4177
1087.80 0.4177
1087.90 0.4176
1088.00 0.4175
1088.10 0.4174
1088.20 0.4173
1088.30 0.4172
1088.40 0.4172
1088.50 0.4171
1088.60 0.417
1088.70 0.4169
1088.80 0.4168
1088.90 0.4168
1089.00 0.4167
1089.10 0.4166
1089.20 0.4165
1089.30 0.4164
1089.40 0.4164
1089.50 0.4163
1089.60 0.4162
1089.70 0.4161
1089.80 0.416
1089.90 0.416
1090.00 0.4159
1090.10 0.4158
1090.20 0.4157
1090.30 0.4156
1090.40 0.4156
1090.50 0.4155
1090.60 0.4154
1090.70 0.4153
1090.80 0.4152
1090.90 0.4152
1091.00 0.4151
1091.10 0.415
1091.20 0.4149
1091.30 0.4148
1091.40 0.4148
1091.50 0.4147
1091.60 0.4146
1091.70 0.4145
1091.80 0.4144
1091.90 0.4144
1092.00 0.4143
1092.10 0.4142
1092.20 0.4141
1092.30 0.414
1092.40 0.4139
1092.50 0.4138
1092.60 0.4138
1092.70 0.4136
1092.80 0.4135
1092.90 0.4134
1093.00 0.4132
1093.10 0.413
1093.20 0.4127
1093.30 0.4123
1093.40 0.4115
1093.50 0.4111
1093.60 0.4118
1093.70 0.4122
1093.80 0.4124
1093.90 0.4125
1094.00 0.4125
1094.10 0.4125
1094.20 0.4124
1094.30 0.4124
1094.40 0.4123
1094.50 0.4122
1094.60 0.4122
1094.70 0.4121
1094.80 0.412
1094.90 0.412
1095.00 0.4119
1095.10 0.4118
1095.20 0.4117
1095.30 0.4116
1095.40 0.4116
1095.50 0.4115
1095.60 0.4114
1095.70 0.4113
1095.80 0.4113
1095.90 0.4112
1096.00 0.4111
1096.10 0.411
1096.20 0.4109
1096.30 0.4109
1096.40 0.4108
1096.50 0.4107
1096.60 0.4106
1096.70 0.4105
1096.80 0.4105
1096.90 0.4104
1097.00 0.4103
1097.10 0.4102
1097.20 0.4101
1097.30 0.4101
1097.40 0.41
1097.50 0.4099
1097.60 0.4098
1097.70 0.4098
1097.80 0.4097
1097.90 0.4096
1098.00 0.4095
1098.10 0.4094
1098.20 0.4094
1098.30 0.4093
1098.40 0.4092
1098.50 0.4091
1098.60 0.409
1098.70 0.409
1098.80 0.4089
1098.90 0.4088
1099.00 0.4087
1099.10 0.4086
1099.20 0.4086
1099.30 0.4085
1099.40 0.4084
1099.50 0.4083
1099.60 0.4083
1099.70 0.4082
1099.80 0.4081
1099.90 0.408
1100.00 0.4079
1100.10 0.4079
1100.20 0.4078
1100.30 0.4077
1100.40 0.4076
1100.50 0.4075
1100.60 0.4075
1100.70 0.4074
1100.80 0.4073
1100.90 0.4072
1101.00 0.4072
1101.10 0.4071
1101.20 0.407
1101.30 0.4069
1101.40 0.4068
1101.50 0.4068
1101.60 0.4067
1101.70 0.4066
1101.80 0.4065
1101.90 0.4064
1102.00 0.4064
1102.10 0.4063
1102.20 0.4062
1102.30 0.4061
1102.40 0.4061
1102.50 0.406
1102.60 0.4059
1102.70 0.4058
1102.80 0.4057
1102.90 0.4057
1103.00 0.4056
1103.10 0.4055
1103.20 0.4054
1103.30 0.4054
1103.40 0.4053
1103.50 0.4052
1103.60 0.4051
1103.70 0.405
1103.80 0.405
1103.90 0.4049
1104.00 0.4048
1104.10 0.4047
1104.20 0.4047
1104.30 0.4046
1104.40 0.4045
1104.50 0.4044
1104.60 0.4043
1104.70 0.4043
1104.80 0.4042
1104.90 0.4041
1105.00 0.404
1105.10 0.404
1105.20 0.4039
1105.30 0.4038
1105.40 0.4037
1105.50 0.4036
1105.60 0.4036
1105.70 0.4035
1105.80 0.4034
1105.90 0.4033
1106.00 0.4033
1106.10 0.4032
1106.20 0.4031
1106.30 0.403
1106.40 0.4029
1106.50 0.4029
1106.60 0.4028
1106.70 0.4027
1106.80 0.4026
1106.90 0.4026
1107.00 0.4025
1107.10 0.4024
1107.20 0.4023
1107.30 0.4023
1107.40 0.4022
1107.50 0.4021
1107.60 0.402
1107.70 0.4019
1107.80 0.4019
1107.90 0.4018
1108.00 0.4017
1108.10 0.4016
1108.20 0.4016
1108.30 0.4015
1108.40 0.4014
1108.50 0.4013
1108.60 0.4012
1108.70 0.4012
1108.80 0.4011
1108.90 0.401
1109.00 0.4009
1109.10 0.4009
1109.20 0.4008
1109.30 0.4007
1109.40 0.4006
1109.50 0.4006
1109.60 0.4005
1109.70 0.4004
1109.80 0.4003
1109.90 0.4002
1110.00 0.4002
1110.10 0.4001
1110.20 0.4
1110.30 0.3999
1110.40 0.3999
1110.50 0.3998
1110.60 0.3997
1110.70 0.3996
1110.80 0.3996
1110.90 0.3995
1111.00 0.3994
1111.10 0.3993
1111.20 0.3992
1111.30 0.3992
1111.40 0.3991
1111.50 0.399
1111.60 0.3989
1111.70 0.3989
1111.80 0.3988
1111.90 0.3987
1112.00 0.3986
1112.10 0.3986
1112.20 0.3985
1112.30 0.3984
1112.40 0.3983
1112.50 0.3983
1112.60 0.3982
1112.70 0.3981
1112.80 0.398
1112.90 0.3979
1113.00 0.3979
1113.10 0.3978
1113.20 0.3977
1113.30 0.3976
1113.40 0.3976
1113.50 0.3975
1113.60 0.3974
1113.70 0.3973
1113.80 0.3973
1113.90 0.3972
1114.00 0.3971
1114.10 0.397
1114.20 0.397
1114.30 0.3969
1114.40 0.3968
1114.50 0.3967
1114.60 0.3967
1114.70 0.3966
1114.80 0.3965
1114.90 0.3964
1115.00 0.3963
1115.10 0.3963
1115.20 0.3962
1115.30 0.3961
1115.40 0.396
1115.50 0.396
1115.60 0.3959
1115.70 0.3958
1115.80 0.3957
1115.90 0.3957
1116.00 0.3956
1116.10 0.3955
1116.20 0.3954
1116.30 0.3954
1116.40 0.3953
1116.50 0.3952
1116.60 0.3951
1116.70 0.3951
1116.80 0.395
1116.90 0.3949
1117.00 0.3948
1117.10 0.3948
1117.20 0.3947
1117.30 0.3946
1117.40 0.3945
1117.50 0.3945
1117.60 0.3944
1117.70 0.3943
1117.80 0.3942
1117.90 0.3942
1118.00 0.3941
1118.10 0.394
1118.20 0.3939
1118.30 0.3938
1118.40 0.3938
1118.50 0.3937
1118.60 0.3936
1118.70 0.3935
1118.80 0.3935
1118.90 0.3934
1119.00 0.3933
1119.10 0.3932
1119.20 0.3932
1119.30 0.3931
1119.40 0.393
1119.50 0.3929
1119.60 0.3929
1119.70 0.3928
1119.80 0.3927
1119.90 0.3926
1120.00 0.3926
1120.10 0.3925
1120.20 0.3924
1120.30 0.3923
1120.40 0.3923
1120.50 0.3922
1120.60 0.3921
1120.70 0.392
1120.80 0.392
1120.90 0.3919
1121.00 0.3918
1121.10 0.3917
1121.20 0.3917
1121.30 0.3916
1121.40 0.3915
1121.50 0.3914
1121.60 0.3914
1121.70 0.3913
1121.80 0.3912
1121.90 0.3911
1122.00 0.3911
1122.10 0.391
1122.20 0.3909
1122.30 0.3908
1122.40 0.3908
1122.50 0.3907
1122.60 0.3906
1122.70 0.3905
1122.80 0.3905
1122.90 0.3904
1123.00 0.3903
1123.10 0.3902
1123.20 0.3902
1123.30 0.3901
1123.40 0.39
1123.50 0.3899
1123.60 0.3899
1123.70 0.3898
1123.80 0.3897
1123.90 0.3896
1124.00 0.3896
1124.10 0.3895
1124.20 0.3894
1124.30 0.3893
1124.40 0.3893
1124.50 0.3892
1124.60 0.3891
1124.70 0.3891
1124.80 0.389
1124.90 0.3889
1125.00 0.3888
1125.10 0.3888
1125.20 0.3887
1125.30 0.3886
1125.40 0.3885
1125.50 0.3885
1125.60 0.3884
1125.70 0.3883
1125.80 0.3882
1125.90 0.3882
1126.00 0.3881
1126.10 0.388
1126.20 0.3879
1126.30 0.3879
1126.40 0.3878
1126.50 0.3877
1126.60 0.3876
1126.70 0.3876
1126.80 0.3875
1126.90 0.3874
1127.00 0.3873
1127.10 0.3873
1127.20 0.3872
1127.30 0.3871
1127.40 0.387
1127.50 0.387
1127.60 0.3869
1127.70 0.3868
1127.80 0.3868
1127.90 0.3867
1128.00 0.3866
1128.10 0.3865
1128.20 0.3865
1128.30 0.3864
1128.40 0.3863
1128.50 0.3862
1128.60 0.3862
1128.70 0.3861
1128.80 0.386
1128.90 0.3859
1129.00 0.3859
1129.10 0.3858
1129.20 0.3857
1129.30 0.3856
1129.40 0.3856
1129.50 0.3855
1129.60 0.3854
1129.70 0.3854
1129.80 0.3853
1129.90 0.3852
1130.00 0.3851
1130.10 0.3851
1130.20 0.385
1130.30 0.3849
1130.40 0.3848
1130.50 0.3848
1130.60 0.3847
1130.70 0.3846
1130.80 0.3845
1130.90 0.3845
1131.00 0.3844
1131.10 0.3843
1131.20 0.3843
1131.30 0.3842
1131.40 0.3841
1131.50 0.384
1131.60 0.384
1131.70 0.3839
1131.80 0.3838
1131.90 0.3837
1132.00 0.3837
1132.10 0.3836
1132.20 0.3835
1132.30 0.3834
1132.40 0.3834
1132.50 0.3833
1132.60 0.3832
1132.70 0.3832
1132.80 0.3831
1132.90 0.383
1133.00 0.3829
1133.10 0.3829
1133.20 0.3828
1133.30 0.3827
1133.40 0.3826
1133.50 0.3826
1133.60 0.3825
1133.70 0.3824
1133.80 0.3823
1133.90 0.3823
1134.00 0.3822
1134.10 0.3821
1134.20 0.3821
1134.30 0.382
1134.40 0.3819
1134.50 0.3818
1134.60 0.3818
1134.70 0.3817
1134.80 0.3816
1134.90 0.3815
1135.00 0.3815
1135.10 0.3814
1135.20 0.3813
1135.30 0.3813
1135.40 0.3812
1135.50 0.3811
1135.60 0.381
1135.70 0.381
1135.80 0.3809
1135.90 0.3808
1136.00 0.3807
1136.10 0.3807
1136.20 0.3806
1136.30 0.3805
1136.40 0.3805
1136.50 0.3804
1136.60 0.3803
1136.70 0.3802
1136.80 0.3802
1136.90 0.3801
1137.00 0.38
1137.10 0.3799
1137.20 0.3799
1137.30 0.3798
1137.40 0.3797
1137.50 0.3797
1137.60 0.3796
1137.70 0.3795
1137.80 0.3794
1137.90 0.3794
1138.00 0.3793
1138.10 0.3792
1138.20 0.3792
1138.30 0.3791
1138.40 0.379
1138.50 0.3789
1138.60 0.3789
1138.70 0.3788
1138.80 0.3787
1138.90 0.3786
1139.00 0.3786
1139.10 0.3785
1139.20 0.3784
1139.30 0.3784
1139.40 0.3783
1139.50 0.3782
1139.60 0.3781
1139.70 0.3781
1139.80 0.378
1139.90 0.3779
1140.00 0.3779
1140.10 0.3778
1140.20 0.3777
1140.30 0.3776
1140.40 0.3776
1140.50 0.3775
1140.60 0.3774
1140.70 0.3774
1140.80 0.3773
1140.90 0.3772
1141.00 0.3771
1141.10 0.3771
1141.20 0.377
1141.30 0.3769
1141.40 0.3769
1141.50 0.3768
1141.60 0.3767
1141.70 0.3766
1141.80 0.3766
1141.90 0.3765
1142.00 0.3764
1142.10 0.3764
1142.20 0.3763
1142.30 0.3762
1142.40 0.3761
1142.50 0.3761
1142.60 0.376
1142.70 0.3759
1142.80 0.3759
1142.90 0.3758
1143.00 0.3757
1143.10 0.3756
1143.20 0.3756
1143.30 0.3755
1143.40 0.3754
1143.50 0.3753
1143.60 0.3753
1143.70 0.3752
1143.80 0.3751
1143.90 0.3751
1144.00 0.375
1144.10 0.3749
1144.20 0.3748
1144.30 0.3748
1144.40 0.3747
1144.50 0.3746
1144.60 0.3746
1144.70 0.3745
1144.80 0.3744
1144.90 0.3744
1145.00 0.3743
1145.10 0.3742
1145.20 0.3741
1145.30 0.3741
1145.40 0.374
1145.50 0.3739
1145.60 0.3739
1145.70 0.3738
1145.80 0.3737
1145.90 0.3736
1146.00 0.3736
1146.10 0.3735
1146.20 0.3734
1146.30 0.3734
1146.40 0.3733
1146.50 0.3732
1146.60 0.3731
1146.70 0.3731
1146.80 0.373
1146.90 0.3729
1147.00 0.3729
1147.10 0.3728
1147.20 0.3727
1147.30 0.3726
1147.40 0.3726
1147.50 0.3725
1147.60 0.3724
1147.70 0.3724
1147.80 0.3723
1147.90 0.3722
1148.00 0.3722
1148.10 0.3721
1148.20 0.372
1148.30 0.3719
1148.40 0.3719
1148.50 0.3718
1148.60 0.3717
1148.70 0.3717
1148.80 0.3716
1148.90 0.3715
1149.00 0.3714
1149.10 0.3714
1149.20 0.3713
1149.30 0.3712
1149.40 0.3712
1149.50 0.3711
1149.60 0.371
1149.70 0.371
1149.80 0.3709
1149.90 0.3708
1150.00 0.3707
1150.10 0.3707
1150.20 0.3706
1150.30 0.3705
1150.40 0.3705
1150.50 0.3704
1150.60 0.3703
1150.70 0.3703
1150.80 0.3702
1150.90 0.3701
1151.00 0.37
1151.10 0.37
1151.20 0.3699
1151.30 0.3698
1151.40 0.3698
1151.50 0.3697
1151.60 0.3696
1151.70 0.3696
1151.80 0.3695
1151.90 0.3694
1152.00 0.3693
1152.10 0.3693
1152.20 0.3692
1152.30 0.3691
1152.40 0.3691
1152.50 0.369
1152.60 0.3689
1152.70 0.3689
1152.80 0.3688
1152.90 0.3687
1153.00 0.3686
1153.10 0.3686
1153.20 0.3685
1153.30 0.3684
1153.40 0.3684
1153.50 0.3683
1153.60 0.3682
1153.70 0.3682
1153.80 0.3681
1153.90 0.368
1154.00 0.3679
1154.10 0.3679
1154.20 0.3678
1154.30 0.3677
1154.40 0.3677
1154.50 0.3676
1154.60 0.3675
1154.70 0.3675
1154.80 0.3674
1154.90 0.3673
1155.00 0.3672
1155.10 0.3672
1155.20 0.3671
1155.30 0.367
1155.40 0.367
1155.50 0.3669
1155.60 0.3668
1155.70 0.3668
1155.80 0.3667
1155.90 0.3666
1156.00 0.3666
1156.10 0.3665
1156.20 0.3664
1156.30 0.3663
1156.40 0.3663
1156.50 0.3662
1156.60 0.3661
1156.70 0.3661
1156.80 0.366
1156.90 0.3659
1157.00 0.3659
1157.10 0.3658
1157.20 0.3657
1157.30 0.3657
1157.40 0.3656
1157.50 0.3655
1157.60 0.3654
1157.70 0.3654
1157.80 0.3653
1157.90 0.3652
1158.00 0.3652
1158.10 0.3651
1158.20 0.365
1158.30 0.365
1158.40 0.3649
1158.50 0.3648
1158.60 0.3648
1158.70 0.3647
1158.80 0.3646
1158.90 0.3645
1159.00 0.3645
1159.10 0.3644
1159.20 0.3643
1159.30 0.3643
1159.40 0.3642
1159.50 0.3641
1159.60 0.3641
1159.70 0.364
1159.80 0.3639
1159.90 0.3639
1160.00 0.3638
1160.10 0.3637
1160.20 0.3637
1160.30 0.3636
1160.40 0.3635
1160.50 0.3634
1160.60 0.3634
1160.70 0.3633
1160.80 0.3632
1160.90 0.3632
1161.00 0.3631
1161.10 0.363
1161.20 0.363
1161.30 0.3629
1161.40 0.3628
1161.50 0.3628
1161.60 0.3627
1161.70 0.3626
1161.80 0.3626
1161.90 0.3625
1162.00 0.3624
1162.10 0.3623
1162.20 0.3623
1162.30 0.3622
1162.40 0.3621
1162.50 0.3621
1162.60 0.362
1162.70 0.3619
1162.80 0.3619
1162.90 0.3618
1163.00 0.3617
1163.10 0.3617
1163.20 0.3616
1163.30 0.3615
1163.40 0.3615
1163.50 0.3614
1163.60 0.3613
1163.70 0.3613
1163.80 0.3612
1163.90 0.3611
1164.00 0.3611
1164.10 0.361
1164.20 0.3609
1164.30 0.3608
1164.40 0.3608
1164.50 0.3607
1164.60 0.3606
1164.70 0.3606
1164.80 0.3605
1164.90 0.3604
1165.00 0.3604
1165.10 0.3603
1165.20 0.3602
1165.30 0.3602
1165.40 0.3601
1165.50 0.36
1165.60 0.36
1165.70 0.3599
1165.80 0.3598
1165.90 0.3598
1166.00 0.3597
1166.10 0.3596
1166.20 0.3596
1166.30 0.3595
1166.40 0.3594
1166.50 0.3594
1166.60 0.3593
1166.70 0.3592
1166.80 0.3592
1166.90 0.3591
1167.00 0.359
1167.10 0.3589
1167.20 0.3589
1167.30 0.3588
1167.40 0.3587
1167.50 0.3587
1167.60 0.3586
1167.70 0.3585
1167.80 0.3585
1167.90 0.3584
1168.00 0.3583
1168.10 0.3583
1168.20 0.3582
1168.30 0.3581
1168.40 0.3581
1168.50 0.358
1168.60 0.3579
1168.70 0.3579
1168.80 0.3578
1168.90 0.3577
1169.00 0.3577
1169.10 0.3576
1169.20 0.3575
1169.30 0.3575
1169.40 0.3574
1169.50 0.3573
1169.60 0.3573
1169.70 0.3572
1169.80 0.3571
1169.90 0.3571
1170.00 0.357
1170.10 0.3569
1170.20 0.3569
1170.30 0.3568
1170.40 0.3567
1170.50 0.3567
1170.60 0.3566
1170.70 0.3565
1170.80 0.3565
1170.90 0.3564
1171.00 0.3563
1171.10 0.3562
1171.20 0.3562
1171.30 0.3561
1171.40 0.356
1171.50 0.356
1171.60 0.3559
1171.70 0.3558
1171.80 0.3558
1171.90 0.3557
1172.00 0.3556
1172.10 0.3556
1172.20 0.3555
1172.30 0.3554
1172.40 0.3554
1172.50 0.3553
1172.60 0.3552
1172.70 0.3552
1172.80 0.3551
1172.90 0.355
1173.00 0.355
1173.10 0.3549
1173.20 0.3548
1173.30 0.3548
1173.40 0.3547
1173.50 0.3546
1173.60 0.3546
1173.70 0.3545
1173.80 0.3544
1173.90 0.3544
1174.00 0.3543
1174.10 0.3542
1174.20 0.3542
1174.30 0.3541
1174.40 0.354
1174.50 0.354
1174.60 0.3539
1174.70 0.3538
1174.80 0.3538
1174.90 0.3537
1175.00 0.3536
1175.10 0.3536
1175.20 0.3535
1175.30 0.3534
1175.40 0.3534
1175.50 0.3533
1175.60 0.3532
1175.70 0.3532
1175.80 0.3531
1175.90 0.353
1176.00 0.353
1176.10 0.3529
1176.20 0.3528
1176.30 0.3528
1176.40 0.3527
1176.50 0.3527
1176.60 0.3526
1176.70 0.3525
1176.80 0.3525
1176.90 0.3524
1177.00 0.3523
1177.10 0.3523
1177.20 0.3522
1177.30 0.3521
1177.40 0.3521
1177.50 0.352
1177.60 0.3519
1177.70 0.3519
1177.80 0.3518
1177.90 0.3517
1178.00 0.3517
1178.10 0.3516
1178.20 0.3515
1178.30 0.3515
1178.40 0.3514
1178.50 0.3513
1178.60 0.3513
1178.70 0.3512
1178.80 0.3511
1178.90 0.3511
1179.00 0.351
1179.10 0.3509
1179.20 0.3509
1179.30 0.3508
1179.40 0.3507
1179.50 0.3507
1179.60 0.3506
1179.70 0.3505
1179.80 0.3505
1179.90 0.3504
1180.00 0.3503
1180.10 0.3503
1180.20 0.3502
1180.30 0.3501
1180.40 0.3501
1180.50 0.35
1180.60 0.3499
1180.70 0.3499
1180.80 0.3498
1180.90 0.3498
1181.00 0.3497
1181.10 0.3496
1181.20 0.3496
1181.30 0.3495
1181.40 0.3494
1181.50 0.3494
1181.60 0.3493
1181.70 0.3492
1181.80 0.3492
1181.90 0.3491
1182.00 0.349
1182.10 0.349
1182.20 0.3489
1182.30 0.3488
1182.40 0.3488
1182.50 0.3487
1182.60 0.3486
1182.70 0.3486
1182.80 0.3485
1182.90 0.3484
1183.00 0.3484
1183.10 0.3483
1183.20 0.3482
1183.30 0.3482
1183.40 0.3481
1183.50 0.348
1183.60 0.348
1183.70 0.3479
1183.80 0.3479
1183.90 0.3478
1184.00 0.3477
1184.10 0.3477
1184.20 0.3476
1184.30 0.3475
1184.40 0.3475
1184.50 0.3474
1184.60 0.3473
1184.70 0.3473
1184.80 0.3472
1184.90 0.3471
1185.00 0.3471
1185.10 0.347
1185.20 0.3469
1185.30 0.3469
1185.40 0.3468
1185.50 0.3467
1185.60 0.3467
1185.70 0.3466
1185.80 0.3466
1185.90 0.3465
1186.00 0.3464
1186.10 0.3464
1186.20 0.3463
1186.30 0.3462
1186.40 0.3462
1186.50 0.3461
1186.60 0.346
1186.70 0.346
1186.80 0.3459
1186.90 0.3458
1187.00 0.3458
1187.10 0.3457
1187.20 0.3456
1187.30 0.3456
1187.40 0.3455
1187.50 0.3455
1187.60 0.3454
1187.70 0.3453
1187.80 0.3453
1187.90 0.3452
1188.00 0.3451
1188.10 0.3451
1188.20 0.345
1188.30 0.3449
1188.40 0.3449
1188.50 0.3448
1188.60 0.3447
1188.70 0.3447
1188.80 0.3446
1188.90 0.3445
1189.00 0.3445
1189.10 0.3444
1189.20 0.3444
1189.30 0.3443
1189.40 0.3442
1189.50 0.3442
1189.60 0.3441
1189.70 0.344
1189.80 0.344
1189.90 0.3439
1190.00 0.3438
1190.10 0.3438
1190.20 0.3437
1190.30 0.3436
1190.40 0.3436
1190.50 0.3435
1190.60 0.3435
1190.70 0.3434
1190.80 0.3433
1190.90 0.3433
1191.00 0.3432
1191.10 0.3431
1191.20 0.3431
1191.30 0.343
1191.40 0.3429
1191.50 0.3429
1191.60 0.3428
1191.70 0.3428
1191.80 0.3427
1191.90 0.3426
1192.00 0.3426
1192.10 0.3425
1192.20 0.3424
1192.30 0.3424
1192.40 0.3423
1192.50 0.3422
1192.60 0.3422
1192.70 0.3421
1192.80 0.342
1192.90 0.342
1193.00 0.3419
1193.10 0.3419
1193.20 0.3418
1193.30 0.3417
1193.40 0.3417
1193.50 0.3416
1193.60 0.3415
1193.70 0.3415
1193.80 0.3414
1193.90 0.3413
1194.00 0.3413
1194.10 0.3412
1194.20 0.3412
1194.30 0.3411
1194.40 0.341
1194.50 0.341
1194.60 0.3409
1194.70 0.3408
1194.80 0.3408
1194.90 0.3407
1195.00 0.3406
1195.10 0.3406
1195.20 0.3405
1195.30 0.3405
1195.40 0.3404
1195.50 0.3403
1195.60 0.3403
1195.70 0.3402
1195.80 0.3401
1195.90 0.3401
1196.00 0.34
1196.10 0.3399
1196.20 0.3399
1196.30 0.3398
1196.40 0.3398
1196.50 0.3397
1196.60 0.3396
1196.70 0.3396
1196.80 0.3395
1196.90 0.3394
1197.00 0.3394
1197.10 0.3393
1197.20 0.3393
1197.30 0.3392
1197.40 0.3391
1197.50 0.3391
1197.60 0.339
1197.70 0.3389
1197.80 0.3389
1197.90 0.3388
1198.00 0.3387
1198.10 0.3387
1198.20 0.3386
1198.30 0.3386
1198.40 0.3385
1198.50 0.3384
1198.60 0.3384
1198.70 0.3383
1198.80 0.3382
1198.90 0.3382
1199.00 0.3381
1199.10 0.3381
1199.20 0.338
1199.30 0.3379
1199.40 0.3379
1199.50 0.3378
1199.60 0.3377
1199.70 0.3377
1199.80 0.3376
1199.90 0.3375
1200.00 0
