# Version 2.1 - nm, norm@500 to 1, cut digits, bergeron_12000_85.dat_12000
# Wavelength(nm)  Flambda(ergs/cm^s/s/nm)
300.00 2.027
300.10 2.026
300.20 2.024
300.30 2.023
300.40 2.022
300.50 2.021
300.60 2.019
300.70 2.018
300.80 2.017
300.90 2.016
301.00 2.015
301.10 2.013
301.20 2.012
301.30 2.011
301.40 2.01
301.50 2.009
301.60 2.007
301.70 2.006
301.80 2.005
301.90 2.004
302.00 2.003
302.10 2.001
302.20 2
302.30 1.999
302.40 1.998
302.50 1.997
302.60 1.995
302.70 1.994
302.80 1.993
302.90 1.992
303.00 1.991
303.10 1.99
303.20 1.988
303.30 1.987
303.40 1.986
303.50 1.985
303.60 1.984
303.70 1.982
303.80 1.981
303.90 1.98
304.00 1.979
304.10 1.978
304.20 1.976
304.30 1.975
304.40 1.974
304.50 1.973
304.60 1.972
304.70 1.971
304.80 1.969
304.90 1.968
305.00 1.967
305.10 1.966
305.20 1.965
305.30 1.964
305.40 1.962
305.50 1.961
305.60 1.96
305.70 1.959
305.80 1.958
305.90 1.957
306.00 1.955
306.10 1.954
306.20 1.953
306.30 1.952
306.40 1.951
306.50 1.949
306.60 1.948
306.70 1.947
306.80 1.946
306.90 1.945
307.00 1.944
307.10 1.942
307.20 1.941
307.30 1.94
307.40 1.939
307.50 1.938
307.60 1.937
307.70 1.936
307.80 1.934
307.90 1.933
308.00 1.932
308.10 1.931
308.20 1.93
308.30 1.929
308.40 1.927
308.50 1.926
308.60 1.925
308.70 1.924
308.80 1.923
308.90 1.922
309.00 1.921
309.10 1.919
309.20 1.918
309.30 1.917
309.40 1.916
309.50 1.915
309.60 1.914
309.70 1.913
309.80 1.911
309.90 1.91
310.00 1.909
310.10 1.908
310.20 1.907
310.30 1.906
310.40 1.905
310.50 1.903
310.60 1.902
310.70 1.901
310.80 1.9
310.90 1.899
311.00 1.898
311.10 1.897
311.20 1.895
311.30 1.894
311.40 1.893
311.50 1.892
311.60 1.891
311.70 1.89
311.80 1.889
311.90 1.887
312.00 1.886
312.10 1.885
312.20 1.884
312.30 1.883
312.40 1.882
312.50 1.881
312.60 1.88
312.70 1.878
312.80 1.877
312.90 1.876
313.00 1.875
313.10 1.874
313.20 1.873
313.30 1.872
313.40 1.871
313.50 1.87
313.60 1.868
313.70 1.867
313.80 1.866
313.90 1.865
314.00 1.864
314.10 1.863
314.20 1.862
314.30 1.861
314.40 1.859
314.50 1.858
314.60 1.857
314.70 1.856
314.80 1.855
314.90 1.854
315.00 1.853
315.10 1.852
315.20 1.851
315.30 1.849
315.40 1.848
315.50 1.847
315.60 1.846
315.70 1.845
315.80 1.844
315.90 1.843
316.00 1.842
316.10 1.841
316.20 1.84
316.30 1.838
316.40 1.837
316.50 1.836
316.60 1.835
316.70 1.834
316.80 1.833
316.90 1.832
317.00 1.831
317.10 1.83
317.20 1.829
317.30 1.827
317.40 1.826
317.50 1.825
317.60 1.824
317.70 1.823
317.80 1.822
317.90 1.821
318.00 1.82
318.10 1.819
318.20 1.818
318.30 1.817
318.40 1.815
318.50 1.814
318.60 1.813
318.70 1.812
318.80 1.811
318.90 1.81
319.00 1.809
319.10 1.808
319.20 1.807
319.30 1.806
319.40 1.805
319.50 1.804
319.60 1.802
319.70 1.801
319.80 1.8
319.90 1.799
320.00 1.798
320.10 1.797
320.20 1.796
320.30 1.795
320.40 1.794
320.50 1.793
320.60 1.792
320.70 1.791
320.80 1.79
320.90 1.789
321.00 1.787
321.10 1.786
321.20 1.785
321.30 1.784
321.40 1.783
321.50 1.782
321.60 1.781
321.70 1.78
321.80 1.779
321.90 1.778
322.00 1.777
322.10 1.776
322.20 1.775
322.30 1.774
322.40 1.773
322.50 1.772
322.60 1.77
322.70 1.769
322.80 1.768
322.90 1.767
323.00 1.766
323.10 1.765
323.20 1.764
323.30 1.763
323.40 1.762
323.50 1.761
323.60 1.76
323.70 1.759
323.80 1.758
323.90 1.757
324.00 1.756
324.10 1.755
324.20 1.754
324.30 1.753
324.40 1.752
324.50 1.75
324.60 1.749
324.70 1.748
324.80 1.747
324.90 1.746
325.00 1.745
325.10 1.744
325.20 1.743
325.30 1.742
325.40 1.741
325.50 1.74
325.60 1.739
325.70 1.738
325.80 1.737
325.90 1.736
326.00 1.735
326.10 1.734
326.20 1.733
326.30 1.732
326.40 1.731
326.50 1.73
326.60 1.729
326.70 1.728
326.80 1.727
326.90 1.726
327.00 1.725
327.10 1.724
327.20 1.722
327.30 1.721
327.40 1.72
327.50 1.719
327.60 1.718
327.70 1.717
327.80 1.716
327.90 1.715
328.00 1.714
328.10 1.713
328.20 1.712
328.30 1.711
328.40 1.71
328.50 1.709
328.60 1.708
328.70 1.707
328.80 1.706
328.90 1.705
329.00 1.704
329.10 1.703
329.20 1.702
329.30 1.701
329.40 1.7
329.50 1.699
329.60 1.698
329.70 1.697
329.80 1.696
329.90 1.695
330.00 1.694
330.10 1.693
330.20 1.692
330.30 1.691
330.40 1.69
330.50 1.689
330.60 1.688
330.70 1.687
330.80 1.686
330.90 1.685
331.00 1.684
331.10 1.683
331.20 1.682
331.30 1.681
331.40 1.68
331.50 1.679
331.60 1.678
331.70 1.677
331.80 1.676
331.90 1.675
332.00 1.674
332.10 1.673
332.20 1.672
332.30 1.671
332.40 1.67
332.50 1.669
332.60 1.668
332.70 1.667
332.80 1.666
332.90 1.665
333.00 1.664
333.10 1.663
333.20 1.662
333.30 1.661
333.40 1.66
333.50 1.659
333.60 1.658
333.70 1.657
333.80 1.656
333.90 1.655
334.00 1.654
334.10 1.653
334.20 1.652
334.30 1.651
334.40 1.65
334.50 1.649
334.60 1.648
334.70 1.647
334.80 1.646
334.90 1.645
335.00 1.644
335.10 1.643
335.20 1.642
335.30 1.641
335.40 1.64
335.50 1.639
335.60 1.638
335.70 1.637
335.80 1.636
335.90 1.635
336.00 1.634
336.10 1.634
336.20 1.633
336.30 1.632
336.40 1.631
336.50 1.63
336.60 1.629
336.70 1.628
336.80 1.627
336.90 1.626
337.00 1.625
337.10 1.624
337.20 1.623
337.30 1.622
337.40 1.621
337.50 1.62
337.60 1.619
337.70 1.618
337.80 1.617
337.90 1.616
338.00 1.615
338.10 1.614
338.20 1.613
338.30 1.612
338.40 1.611
338.50 1.61
338.60 1.609
338.70 1.608
338.80 1.608
338.90 1.607
339.00 1.606
339.10 1.605
339.20 1.604
339.30 1.603
339.40 1.602
339.50 1.601
339.60 1.6
339.70 1.599
339.80 1.598
339.90 1.597
340.00 1.596
340.10 1.595
340.20 1.594
340.30 1.593
340.40 1.592
340.50 1.591
340.60 1.59
340.70 1.589
340.80 1.589
340.90 1.588
341.00 1.587
341.10 1.586
341.20 1.585
341.30 1.584
341.40 1.583
341.50 1.582
341.60 1.581
341.70 1.58
341.80 1.579
341.90 1.578
342.00 1.577
342.10 1.576
342.20 1.575
342.30 1.574
342.40 1.574
342.50 1.573
342.60 1.572
342.70 1.571
342.80 1.57
342.90 1.569
343.00 1.568
343.10 1.567
343.20 1.566
343.30 1.565
343.40 1.564
343.50 1.563
343.60 1.562
343.70 1.561
343.80 1.561
343.90 1.56
344.00 1.559
344.10 1.558
344.20 1.557
344.30 1.556
344.40 1.555
344.50 1.554
344.60 1.553
344.70 1.552
344.80 1.551
344.90 1.55
345.00 1.549
345.10 1.549
345.20 1.548
345.30 1.547
345.40 1.546
345.50 1.545
345.60 1.544
345.70 1.543
345.80 1.542
345.90 1.541
346.00 1.54
346.10 1.539
346.20 1.539
346.30 1.538
346.40 1.537
346.50 1.536
346.60 1.535
346.70 1.534
346.80 1.533
346.90 1.532
347.00 1.531
347.10 1.53
347.20 1.529
347.30 1.529
347.40 1.528
347.50 1.527
347.60 1.526
347.70 1.525
347.80 1.524
347.90 1.523
348.00 1.522
348.10 1.521
348.20 1.52
348.30 1.52
348.40 1.519
348.50 1.518
348.60 1.517
348.70 1.516
348.80 1.515
348.90 1.514
349.00 1.513
349.10 1.512
349.20 1.511
349.30 1.511
349.40 1.51
349.50 1.509
349.60 1.508
349.70 1.507
349.80 1.506
349.90 1.505
350.00 1.504
350.10 1.503
350.20 1.503
350.30 1.502
350.40 1.501
350.50 1.5
350.60 1.499
350.70 1.498
350.80 1.497
350.90 1.496
351.00 1.496
351.10 1.495
351.20 1.494
351.30 1.493
351.40 1.492
351.50 1.491
351.60 1.49
351.70 1.489
351.80 1.488
351.90 1.488
352.00 1.487
352.10 1.486
352.20 1.485
352.30 1.484
352.40 1.483
352.50 1.482
352.60 1.481
352.70 1.481
352.80 1.48
352.90 1.479
353.00 1.478
353.10 1.477
353.20 1.476
353.30 1.475
353.40 1.475
353.50 1.474
353.60 1.473
353.70 1.472
353.80 1.471
353.90 1.47
354.00 1.469
354.10 1.468
354.20 1.468
354.30 1.467
354.40 1.466
354.50 1.465
354.60 1.464
354.70 1.463
354.80 1.462
354.90 1.462
355.00 1.461
355.10 1.46
355.20 1.459
355.30 1.458
355.40 1.457
355.50 1.456
355.60 1.456
355.70 1.455
355.80 1.454
355.90 1.453
356.00 1.452
356.10 1.451
356.20 1.45
356.30 1.45
356.40 1.449
356.50 1.448
356.60 1.447
356.70 1.446
356.80 1.445
356.90 1.444
357.00 1.444
357.10 1.443
357.20 1.442
357.30 1.441
357.40 1.44
357.50 1.439
357.60 1.439
357.70 1.438
357.80 1.437
357.90 1.436
358.00 1.435
358.10 1.434
358.20 1.433
358.30 1.433
358.40 1.432
358.50 1.431
358.60 1.43
358.70 1.429
358.80 1.428
358.90 1.428
359.00 1.427
359.10 1.426
359.20 1.425
359.30 1.424
359.40 1.423
359.50 1.423
359.60 1.422
359.70 1.421
359.80 1.42
359.90 1.419
360.00 1.418
360.10 1.418
360.20 1.417
360.30 1.416
360.40 1.415
360.50 1.414
360.60 1.413
360.70 1.413
360.80 1.412
360.90 1.411
361.00 1.41
361.10 1.409
361.20 1.408
361.30 1.408
361.40 1.407
361.50 1.406
361.60 1.405
361.70 1.404
361.80 1.404
361.90 1.403
362.00 1.402
362.10 1.401
362.20 1.4
362.30 1.399
362.40 1.399
362.50 1.398
362.60 1.397
362.70 1.396
362.80 1.395
362.90 1.395
363.00 1.394
363.10 1.393
363.20 1.392
363.30 1.391
363.40 1.39
363.50 1.389
363.60 1.388
363.70 1.387
363.80 1.386
363.90 1.385
364.00 1.384
364.10 1.383
364.20 1.383
364.30 1.382
364.40 1.381
364.50 1.38
364.60 1.379
364.70 1.378
364.80 1.377
364.90 1.376
365.00 1.375
365.10 1.374
365.20 1.373
365.30 1.372
365.40 1.371
365.50 1.37
365.60 1.369
365.70 1.368
365.80 1.367
365.90 1.366
366.00 1.365
366.10 1.364
366.20 1.364
366.30 1.363
366.40 1.362
366.50 1.361
366.60 1.36
366.70 1.359
366.80 1.359
366.90 1.358
367.00 1.357
367.10 1.356
367.20 1.355
367.30 1.354
367.40 1.354
367.50 1.353
367.60 1.352
367.70 1.351
367.80 1.35
367.90 1.349
368.00 1.349
368.10 1.348
368.20 1.347
368.30 1.346
368.40 1.345
368.50 1.345
368.60 1.344
368.70 1.343
368.80 1.342
368.90 1.342
369.00 1.341
369.10 1.34
369.20 1.339
369.30 1.339
369.40 1.338
369.50 1.337
369.60 1.336
369.70 1.336
369.80 1.335
369.90 1.334
370.00 1.333
370.10 1.333
370.20 1.332
370.30 1.332
370.40 1.332
370.50 1.331
370.60 1.331
370.70 1.33
370.80 1.33
370.90 1.329
371.00 1.329
371.10 1.328
371.20 1.328
371.30 1.327
371.40 1.327
371.50 1.327
371.60 1.326
371.70 1.326
371.80 1.325
371.90 1.325
372.00 1.324
372.10 1.324
372.20 1.325
372.30 1.325
372.40 1.325
372.50 1.325
372.60 1.325
372.70 1.325
372.80 1.325
372.90 1.325
373.00 1.325
373.10 1.325
373.20 1.325
373.30 1.325
373.40 1.325
373.50 1.325
373.60 1.326
373.70 1.326
373.80 1.326
373.90 1.326
374.00 1.326
374.10 1.326
374.20 1.327
374.30 1.327
374.40 1.327
374.50 1.328
374.60 1.328
374.70 1.329
374.80 1.329
374.90 1.329
375.00 1.33
375.10 1.33
375.20 1.331
375.30 1.331
375.40 1.331
375.50 1.332
375.60 1.332
375.70 1.332
375.80 1.333
375.90 1.333
376.00 1.334
376.10 1.334
376.20 1.334
376.30 1.334
376.40 1.334
376.50 1.334
376.60 1.334
376.70 1.334
376.80 1.335
376.90 1.335
377.00 1.335
377.10 1.334
377.20 1.333
377.30 1.332
377.40 1.332
377.50 1.331
377.60 1.33
377.70 1.329
377.80 1.328
377.90 1.328
378.00 1.327
378.10 1.323
378.20 1.319
378.30 1.316
378.40 1.312
378.50 1.309
378.60 1.305
378.70 1.301
378.80 1.298
378.90 1.294
379.00 1.29
379.10 1.288
379.20 1.285
379.30 1.283
379.40 1.28
379.50 1.278
379.60 1.275
379.70 1.273
379.80 1.271
379.90 1.268
380.00 1.266
380.10 1.269
380.20 1.273
380.30 1.277
380.40 1.28
380.50 1.284
380.60 1.288
380.70 1.291
380.80 1.295
380.90 1.299
381.00 1.302
381.10 1.303
381.20 1.304
381.30 1.306
381.40 1.307
381.50 1.308
381.60 1.307
381.70 1.306
381.80 1.304
381.90 1.301
382.00 1.298
382.10 1.294
382.20 1.29
382.30 1.28
382.40 1.271
382.50 1.262
382.60 1.253
382.70 1.244
382.80 1.235
382.90 1.226
383.00 1.216
383.10 1.207
383.20 1.198
383.30 1.192
383.40 1.185
383.50 1.177
383.60 1.178
383.70 1.187
383.80 1.195
383.90 1.201
384.00 1.21
384.10 1.222
384.20 1.234
384.30 1.246
384.40 1.257
384.50 1.268
384.60 1.277
384.70 1.286
384.80 1.293
384.90 1.299
385.00 1.304
385.10 1.308
385.20 1.312
385.30 1.315
385.40 1.317
385.50 1.319
385.60 1.32
385.70 1.321
385.80 1.321
385.90 1.321
386.00 1.32
386.10 1.319
386.20 1.318
386.30 1.315
386.40 1.312
386.50 1.309
386.60 1.305
386.70 1.301
386.80 1.296
386.90 1.291
387.00 1.285
387.10 1.278
387.20 1.271
387.30 1.263
387.40 1.254
387.50 1.244
387.60 1.234
387.70 1.222
387.80 1.209
387.90 1.194
388.00 1.178
388.10 1.159
388.20 1.139
388.30 1.117
388.40 1.094
388.50 1.073
388.60 1.053
388.70 1.04
388.80 1.028
388.90 1.018
389.00 1.027
389.10 1.039
389.20 1.052
389.30 1.071
389.40 1.093
389.50 1.117
389.60 1.139
389.70 1.16
389.80 1.18
389.90 1.197
390.00 1.213
390.10 1.228
390.20 1.24
390.30 1.252
390.40 1.263
390.50 1.273
390.60 1.282
390.70 1.291
390.80 1.299
390.90 1.307
391.00 1.314
391.10 1.321
391.20 1.327
391.30 1.332
391.40 1.337
391.50 1.342
391.60 1.346
391.70 1.35
391.80 1.353
391.90 1.356
392.00 1.358
392.10 1.36
392.20 1.361
392.30 1.362
392.40 1.363
392.50 1.363
392.60 1.363
392.70 1.362
392.80 1.361
392.90 1.36
393.00 1.358
393.10 1.355
393.20 1.352
393.30 1.349
393.40 1.345
393.50 1.341
393.60 1.336
393.70 1.331
393.80 1.325
393.90 1.319
394.00 1.313
394.10 1.305
394.20 1.298
394.30 1.289
394.40 1.281
394.50 1.271
394.60 1.261
394.70 1.251
394.80 1.24
394.90 1.228
395.00 1.216
395.10 1.203
395.20 1.189
395.30 1.175
395.40 1.16
395.50 1.144
395.60 1.128
395.70 1.11
395.80 1.093
395.90 1.073
396.00 1.053
396.10 1.031
396.20 1.007
396.30 0.9805
396.40 0.9522
396.50 0.9185
396.60 0.8845
396.70 0.8501
396.80 0.8242
396.90 0.798
397.00 0.7716
397.10 0.7959
397.20 0.8202
397.30 0.8446
397.40 0.8782
397.50 0.9119
397.60 0.9455
397.70 0.9739
397.80 1
397.90 1.025
398.00 1.046
398.10 1.067
398.20 1.086
398.30 1.104
398.40 1.121
398.50 1.138
398.60 1.154
398.70 1.169
398.80 1.184
398.90 1.198
399.00 1.211
399.10 1.224
399.20 1.237
399.30 1.249
399.40 1.26
399.50 1.271
399.60 1.282
399.70 1.292
399.80 1.301
399.90 1.311
400.00 1.319
400.10 1.328
400.20 1.336
400.30 1.344
400.40 1.351
400.50 1.358
400.60 1.365
400.70 1.371
400.80 1.377
400.90 1.383
401.00 1.389
401.10 1.394
401.20 1.399
401.30 1.403
401.40 1.408
401.50 1.412
401.60 1.416
401.70 1.419
401.80 1.422
401.90 1.425
402.00 1.428
402.10 1.431
402.20 1.433
402.30 1.435
402.40 1.437
402.50 1.438
402.60 1.439
402.70 1.441
402.80 1.441
402.90 1.442
403.00 1.442
403.10 1.442
403.20 1.442
403.30 1.442
403.40 1.441
403.50 1.44
403.60 1.439
403.70 1.437
403.80 1.436
403.90 1.434
404.00 1.432
404.10 1.429
404.20 1.427
404.30 1.424
404.40 1.421
404.50 1.417
404.60 1.414
404.70 1.41
404.80 1.406
404.90 1.401
405.00 1.396
405.10 1.391
405.20 1.386
405.30 1.381
405.40 1.375
405.50 1.369
405.60 1.362
405.70 1.356
405.80 1.349
405.90 1.342
406.00 1.334
406.10 1.326
406.20 1.318
406.30 1.31
406.40 1.301
406.50 1.292
406.60 1.283
406.70 1.273
406.80 1.263
406.90 1.252
407.00 1.241
407.10 1.23
407.20 1.218
407.30 1.206
407.40 1.193
407.50 1.181
407.60 1.167
407.70 1.153
407.80 1.139
407.90 1.124
408.00 1.108
408.10 1.093
408.20 1.076
408.30 1.059
408.40 1.042
408.50 1.023
408.60 1.005
408.70 0.986
408.80 0.9664
408.90 0.9465
409.00 0.9261
409.10 0.9048
409.20 0.8829
409.30 0.8605
409.40 0.8362
409.50 0.8105
409.60 0.7833
409.70 0.752
409.80 0.7195
409.90 0.6857
410.00 0.6548
410.10 0.6295
410.20 0.6096
410.30 0.64
410.40 0.6709
410.50 0.7023
410.60 0.7353
410.70 0.7663
410.80 0.7954
410.90 0.8207
411.00 0.8447
411.10 0.8674
411.20 0.8886
411.30 0.9092
411.40 0.9293
411.50 0.9485
411.60 0.9673
411.70 0.9857
411.80 1.003
411.90 1.021
412.00 1.038
412.10 1.054
412.20 1.07
412.30 1.085
412.40 1.099
412.50 1.114
412.60 1.127
412.70 1.141
412.80 1.153
412.90 1.166
413.00 1.178
413.10 1.189
413.20 1.2
413.30 1.211
413.40 1.221
413.50 1.232
413.60 1.241
413.70 1.251
413.80 1.26
413.90 1.268
414.00 1.277
414.10 1.285
414.20 1.293
414.30 1.301
414.40 1.308
414.50 1.315
414.60 1.322
414.70 1.329
414.80 1.336
414.90 1.342
415.00 1.348
415.10 1.354
415.20 1.36
415.30 1.366
415.40 1.371
415.50 1.376
415.60 1.382
415.70 1.386
415.80 1.391
415.90 1.396
416.00 1.4
416.10 1.404
416.20 1.409
416.30 1.412
416.40 1.416
416.50 1.42
416.60 1.423
416.70 1.427
416.80 1.43
416.90 1.433
417.00 1.436
417.10 1.439
417.20 1.441
417.30 1.444
417.40 1.446
417.50 1.449
417.60 1.451
417.70 1.454
417.80 1.456
417.90 1.458
418.00 1.46
418.10 1.462
418.20 1.463
418.30 1.465
418.40 1.467
418.50 1.468
418.60 1.47
418.70 1.471
418.80 1.472
418.90 1.473
419.00 1.475
419.10 1.476
419.20 1.477
419.30 1.477
419.40 1.478
419.50 1.479
419.60 1.48
419.70 1.48
419.80 1.481
419.90 1.481
420.00 1.482
420.10 1.482
420.20 1.482
420.30 1.482
420.40 1.483
420.50 1.483
420.60 1.483
420.70 1.483
420.80 1.483
420.90 1.482
421.00 1.482
421.10 1.482
421.20 1.482
421.30 1.481
421.40 1.481
421.50 1.48
421.60 1.48
421.70 1.479
421.80 1.478
421.90 1.478
422.00 1.477
422.10 1.476
422.20 1.475
422.30 1.474
422.40 1.473
422.50 1.472
422.60 1.471
422.70 1.47
422.80 1.468
422.90 1.467
423.00 1.466
423.10 1.464
423.20 1.463
423.30 1.461
423.40 1.459
423.50 1.458
423.60 1.456
423.70 1.454
423.80 1.452
423.90 1.45
424.00 1.449
424.10 1.446
424.20 1.444
424.30 1.442
424.40 1.44
424.50 1.438
424.60 1.435
424.70 1.433
424.80 1.43
424.90 1.428
425.00 1.425
425.10 1.423
425.20 1.42
425.30 1.417
425.40 1.414
425.50 1.411
425.60 1.408
425.70 1.405
425.80 1.402
425.90 1.398
426.00 1.395
426.10 1.391
426.20 1.387
426.30 1.383
426.40 1.379
426.50 1.376
426.60 1.372
426.70 1.368
426.80 1.364
426.90 1.359
427.00 1.355
427.10 1.351
427.20 1.346
427.30 1.342
427.40 1.337
427.50 1.332
427.60 1.327
427.70 1.322
427.80 1.317
427.90 1.312
428.00 1.306
428.10 1.301
428.20 1.295
428.30 1.289
428.40 1.283
428.50 1.277
428.60 1.271
428.70 1.265
428.80 1.258
428.90 1.251
429.00 1.245
429.10 1.238
429.20 1.23
429.30 1.223
429.40 1.216
429.50 1.208
429.60 1.2
429.70 1.192
429.80 1.184
429.90 1.175
430.00 1.167
430.10 1.158
430.20 1.148
430.30 1.139
430.40 1.13
430.50 1.12
430.60 1.11
430.70 1.099
430.80 1.089
430.90 1.078
431.00 1.067
431.10 1.056
431.20 1.044
431.30 1.032
431.40 1.02
431.50 1.007
431.60 0.9942
431.70 0.9809
431.80 0.9672
431.90 0.9529
432.00 0.9383
432.10 0.9233
432.20 0.9074
432.30 0.8911
432.40 0.8743
432.50 0.8566
432.60 0.8382
432.70 0.8193
432.80 0.7995
432.90 0.7797
433.00 0.7599
433.10 0.7407
433.20 0.7218
433.30 0.7032
433.40 0.6838
433.50 0.6631
433.60 0.6412
433.70 0.614
433.80 0.5837
433.90 0.5502
434.00 0.4992
434.10 0.5001
434.20 0.5527
434.30 0.5854
434.40 0.6149
434.50 0.6412
434.60 0.6624
434.70 0.6824
434.80 0.7011
434.90 0.7191
435.00 0.7373
435.10 0.7557
435.20 0.7748
435.30 0.7938
435.40 0.8126
435.50 0.8306
435.60 0.8479
435.70 0.8646
435.80 0.8803
435.90 0.8955
436.00 0.9103
436.10 0.9242
436.20 0.9377
436.30 0.9508
436.40 0.9632
436.50 0.9753
436.60 0.9871
436.70 0.9984
436.80 1.009
436.90 1.02
437.00 1.03
437.10 1.04
437.20 1.05
437.30 1.06
437.40 1.069
437.50 1.078
437.60 1.086
437.70 1.095
437.80 1.103
437.90 1.111
438.00 1.119
438.10 1.126
438.20 1.133
438.30 1.14
438.40 1.147
438.50 1.154
438.60 1.16
438.70 1.167
438.80 1.173
438.90 1.179
439.00 1.184
439.10 1.19
439.20 1.195
439.30 1.201
439.40 1.206
439.50 1.21
439.60 1.215
439.70 1.22
439.80 1.224
439.90 1.229
440.00 1.233
440.10 1.237
440.20 1.241
440.30 1.245
440.40 1.249
440.50 1.252
440.60 1.256
440.70 1.259
440.80 1.263
440.90 1.266
441.00 1.269
441.10 1.272
441.20 1.275
441.30 1.278
441.40 1.281
441.50 1.283
441.60 1.286
441.70 1.289
441.80 1.291
441.90 1.293
442.00 1.296
442.10 1.298
442.20 1.3
442.30 1.302
442.40 1.304
442.50 1.306
442.60 1.308
442.70 1.31
442.80 1.312
442.90 1.313
443.00 1.315
443.10 1.316
443.20 1.318
443.30 1.319
443.40 1.321
443.50 1.322
443.60 1.324
443.70 1.325
443.80 1.326
443.90 1.327
444.00 1.329
444.10 1.33
444.20 1.331
444.30 1.332
444.40 1.333
444.50 1.334
444.60 1.335
444.70 1.336
444.80 1.336
444.90 1.337
445.00 1.338
445.10 1.339
445.20 1.339
445.30 1.34
445.40 1.341
445.50 1.341
445.60 1.342
445.70 1.342
445.80 1.343
445.90 1.343
446.00 1.344
446.10 1.344
446.20 1.345
446.30 1.345
446.40 1.345
446.50 1.346
446.60 1.346
446.70 1.346
446.80 1.347
446.90 1.347
447.00 1.347
447.10 1.347
447.20 1.348
447.30 1.348
447.40 1.348
447.50 1.348
447.60 1.348
447.70 1.348
447.80 1.348
447.90 1.348
448.00 1.348
448.10 1.348
448.20 1.348
448.30 1.348
448.40 1.348
448.50 1.348
448.60 1.348
448.70 1.348
448.80 1.348
448.90 1.348
449.00 1.348
449.10 1.348
449.20 1.348
449.30 1.347
449.40 1.347
449.50 1.347
449.60 1.347
449.70 1.347
449.80 1.346
449.90 1.346
450.00 1.346
450.10 1.346
450.20 1.345
450.30 1.345
450.40 1.345
450.50 1.345
450.60 1.344
450.70 1.344
450.80 1.344
450.90 1.343
451.00 1.343
451.10 1.343
451.20 1.342
451.30 1.342
451.40 1.341
451.50 1.341
451.60 1.341
451.70 1.34
451.80 1.34
451.90 1.339
452.00 1.339
452.10 1.339
452.20 1.338
452.30 1.338
452.40 1.337
452.50 1.337
452.60 1.336
452.70 1.336
452.80 1.335
452.90 1.335
453.00 1.334
453.10 1.334
453.20 1.333
453.30 1.333
453.40 1.332
453.50 1.332
453.60 1.331
453.70 1.331
453.80 1.33
453.90 1.329
454.00 1.329
454.10 1.328
454.20 1.328
454.30 1.327
454.40 1.327
454.50 1.326
454.60 1.326
454.70 1.325
454.80 1.324
454.90 1.324
455.00 1.323
455.10 1.322
455.20 1.322
455.30 1.321
455.40 1.321
455.50 1.32
455.60 1.319
455.70 1.319
455.80 1.318
455.90 1.317
456.00 1.317
456.10 1.316
456.20 1.315
456.30 1.315
456.40 1.314
456.50 1.314
456.60 1.313
456.70 1.312
456.80 1.312
456.90 1.311
457.00 1.31
457.10 1.31
457.20 1.309
457.30 1.308
457.40 1.308
457.50 1.307
457.60 1.306
457.70 1.306
457.80 1.305
457.90 1.304
458.00 1.303
458.10 1.303
458.20 1.302
458.30 1.301
458.40 1.301
458.50 1.3
458.60 1.299
458.70 1.298
458.80 1.298
458.90 1.297
459.00 1.296
459.10 1.295
459.20 1.295
459.30 1.294
459.40 1.293
459.50 1.292
459.60 1.291
459.70 1.291
459.80 1.29
459.90 1.289
460.00 1.288
460.10 1.288
460.20 1.287
460.30 1.286
460.40 1.285
460.50 1.284
460.60 1.283
460.70 1.283
460.80 1.282
460.90 1.281
461.00 1.28
461.10 1.279
461.20 1.279
461.30 1.278
461.40 1.277
461.50 1.276
461.60 1.275
461.70 1.274
461.80 1.273
461.90 1.273
462.00 1.272
462.10 1.271
462.20 1.27
462.30 1.269
462.40 1.268
462.50 1.267
462.60 1.267
462.70 1.266
462.80 1.265
462.90 1.264
463.00 1.263
463.10 1.262
463.20 1.261
463.30 1.26
463.40 1.259
463.50 1.259
463.60 1.258
463.70 1.257
463.80 1.256
463.90 1.255
464.00 1.254
464.10 1.253
464.20 1.252
464.30 1.251
464.40 1.25
464.50 1.249
464.60 1.248
464.70 1.247
464.80 1.246
464.90 1.245
465.00 1.244
465.10 1.244
465.20 1.243
465.30 1.242
465.40 1.241
465.50 1.24
465.60 1.239
465.70 1.238
465.80 1.237
465.90 1.236
466.00 1.235
466.10 1.234
466.20 1.233
466.30 1.231
466.40 1.23
466.50 1.229
466.60 1.228
466.70 1.227
466.80 1.226
466.90 1.225
467.00 1.224
467.10 1.223
467.20 1.222
467.30 1.221
467.40 1.22
467.50 1.219
467.60 1.218
467.70 1.216
467.80 1.215
467.90 1.214
468.00 1.213
468.10 1.212
468.20 1.211
468.30 1.21
468.40 1.209
468.50 1.207
468.60 1.206
468.70 1.205
468.80 1.204
468.90 1.203
469.00 1.202
469.10 1.2
469.20 1.199
469.30 1.198
469.40 1.197
469.50 1.195
469.60 1.194
469.70 1.193
469.80 1.192
469.90 1.19
470.00 1.189
470.10 1.188
470.20 1.187
470.30 1.185
470.40 1.184
470.50 1.183
470.60 1.181
470.70 1.18
470.80 1.179
470.90 1.178
471.00 1.176
471.10 1.175
471.20 1.174
471.30 1.172
471.40 1.171
471.50 1.169
471.60 1.168
471.70 1.166
471.80 1.165
471.90 1.164
472.00 1.162
472.10 1.161
472.20 1.159
472.30 1.158
472.40 1.156
472.50 1.154
472.60 1.153
472.70 1.151
472.80 1.15
472.90 1.148
473.00 1.146
473.10 1.145
473.20 1.143
473.30 1.141
473.40 1.14
473.50 1.138
473.60 1.136
473.70 1.135
473.80 1.133
473.90 1.131
474.00 1.129
474.10 1.128
474.20 1.126
474.30 1.124
474.40 1.122
474.50 1.12
474.60 1.118
474.70 1.116
474.80 1.114
474.90 1.112
475.00 1.11
475.10 1.108
475.20 1.106
475.30 1.104
475.40 1.102
475.50 1.1
475.60 1.097
475.70 1.095
475.80 1.093
475.90 1.091
476.00 1.089
476.10 1.086
476.20 1.084
476.30 1.082
476.40 1.079
476.50 1.077
476.60 1.074
476.70 1.072
476.80 1.069
476.90 1.067
477.00 1.064
477.10 1.062
477.20 1.059
477.30 1.056
477.40 1.053
477.50 1.051
477.60 1.048
477.70 1.045
477.80 1.042
477.90 1.039
478.00 1.036
478.10 1.034
478.20 1.03
478.30 1.027
478.40 1.024
478.50 1.02
478.60 1.017
478.70 1.014
478.80 1.011
478.90 1.007
479.00 1.004
479.10 1.001
479.20 0.9969
479.30 0.993
479.40 0.989
479.50 0.9851
479.60 0.9812
479.70 0.9773
479.80 0.9733
479.90 0.9694
480.00 0.9655
480.10 0.9616
480.20 0.9572
480.30 0.9526
480.40 0.9481
480.50 0.9435
480.60 0.9389
480.70 0.9344
480.80 0.9298
480.90 0.9253
481.00 0.9207
481.10 0.9162
481.20 0.9109
481.30 0.9053
481.40 0.8996
481.50 0.894
481.60 0.8884
481.70 0.8827
481.80 0.8771
481.90 0.8715
482.00 0.8659
482.10 0.8603
482.20 0.8537
482.30 0.8467
482.40 0.8396
482.50 0.8326
482.60 0.8256
482.70 0.8186
482.80 0.8116
482.90 0.8046
483.00 0.7976
483.10 0.7906
483.20 0.782
483.30 0.7728
483.40 0.7635
483.50 0.7543
483.60 0.7451
483.70 0.7358
483.80 0.7266
483.90 0.7174
484.00 0.7082
484.10 0.699
484.20 0.6883
484.30 0.6768
484.40 0.6654
484.50 0.6539
484.60 0.6425
484.70 0.6303
484.80 0.6177
484.90 0.6052
485.00 0.5926
485.10 0.5801
485.20 0.5679
485.30 0.5558
485.40 0.5437
485.50 0.5316
485.60 0.5186
485.70 0.5053
485.80 0.4877
485.90 0.4681
486.00 0.4387
486.10 0.3748
486.20 0.4005
486.30 0.4509
486.40 0.4737
486.50 0.4931
486.60 0.5082
486.70 0.5211
486.80 0.5332
486.90 0.5448
487.00 0.5564
487.10 0.5679
487.20 0.5797
487.30 0.5917
487.40 0.6036
487.50 0.6155
487.60 0.6274
487.70 0.6385
487.80 0.6492
487.90 0.66
488.00 0.6707
488.10 0.6813
488.20 0.6905
488.30 0.6988
488.40 0.7072
488.50 0.7155
488.60 0.7239
488.70 0.7322
488.80 0.7405
488.90 0.7489
489.00 0.7572
489.10 0.7655
489.20 0.7723
489.30 0.7783
489.40 0.7843
489.50 0.7903
489.60 0.7963
489.70 0.8023
489.80 0.8083
489.90 0.8143
490.00 0.8203
490.10 0.8262
490.20 0.8312
490.30 0.8358
490.40 0.8403
490.50 0.8448
490.60 0.8493
490.70 0.8538
490.80 0.8583
490.90 0.8628
491.00 0.8673
491.10 0.8718
491.20 0.8755
491.30 0.8789
491.40 0.8823
491.50 0.8856
491.60 0.889
491.70 0.8924
491.80 0.8957
491.90 0.8991
492.00 0.9024
492.10 0.9058
492.20 0.9087
492.30 0.9114
492.40 0.914
492.50 0.9167
492.60 0.9194
492.70 0.9221
492.80 0.9247
492.90 0.9274
493.00 0.9301
493.10 0.9327
493.20 0.935
493.30 0.937
493.40 0.939
493.50 0.9411
493.60 0.9431
493.70 0.9451
493.80 0.9472
493.90 0.9492
494.00 0.9512
494.10 0.9532
494.20 0.9549
494.30 0.9564
494.40 0.958
494.50 0.9595
494.60 0.961
494.70 0.9625
494.80 0.964
494.90 0.9656
495.00 0.9671
495.10 0.9686
495.20 0.9698
495.30 0.971
495.40 0.9721
495.50 0.9732
495.60 0.9744
495.70 0.9755
495.80 0.9766
495.90 0.9777
496.00 0.9789
496.10 0.98
496.20 0.9809
496.30 0.9817
496.40 0.9826
496.50 0.9834
496.60 0.9842
496.70 0.985
496.80 0.9859
496.90 0.9867
497.00 0.9875
497.10 0.9883
497.20 0.989
497.30 0.9896
497.40 0.9901
497.50 0.9907
497.60 0.9913
497.70 0.9919
497.80 0.9925
497.90 0.993
498.00 0.9936
498.10 0.9942
498.20 0.9946
498.30 0.995
498.40 0.9954
498.50 0.9958
498.60 0.9961
498.70 0.9965
498.80 0.9969
498.90 0.9973
499.00 0.9976
499.10 0.998
499.20 0.9983
499.30 0.9985
499.40 0.9987
499.50 0.9989
499.60 0.9991
499.70 0.9994
499.80 0.9996
499.90 0.9998
500.00 1
500.10 1
500.20 1
500.30 1
500.40 1.001
500.50 1.001
500.60 1.001
500.70 1.001
500.80 1.001
500.90 1.001
501.00 1.001
501.10 1.001
501.20 1.001
501.30 1.001
501.40 1.001
501.50 1.001
501.60 1.001
501.70 1.001
501.80 1.001
501.90 1.001
502.00 1.001
502.10 1.001
502.20 1.001
502.30 1.001
502.40 1.001
502.50 1.001
502.60 1.001
502.70 1
502.80 1
502.90 1
503.00 1
503.10 1
503.20 0.9999
503.30 0.9997
503.40 0.9996
503.50 0.9994
503.60 0.9992
503.70 0.9991
503.80 0.9989
503.90 0.9987
504.00 0.9986
504.10 0.9984
504.20 0.9982
504.30 0.998
504.40 0.9977
504.50 0.9975
504.60 0.9973
504.70 0.9971
504.80 0.9968
504.90 0.9966
505.00 0.9964
505.10 0.9962
505.20 0.9959
505.30 0.9956
505.40 0.9954
505.50 0.9951
505.60 0.9948
505.70 0.9946
505.80 0.9943
505.90 0.994
506.00 0.9937
506.10 0.9935
506.20 0.9932
506.30 0.9929
506.40 0.9925
506.50 0.9922
506.60 0.9919
506.70 0.9916
506.80 0.9913
506.90 0.991
507.00 0.9907
507.10 0.9904
507.20 0.99
507.30 0.9897
507.40 0.9893
507.50 0.989
507.60 0.9887
507.70 0.9883
507.80 0.988
507.90 0.9876
508.00 0.9873
508.10 0.9869
508.20 0.9866
508.30 0.9862
508.40 0.9858
508.50 0.9855
508.60 0.9851
508.70 0.9847
508.80 0.9844
508.90 0.984
509.00 0.9836
509.10 0.9833
509.20 0.9829
509.30 0.9825
509.40 0.9821
509.50 0.9817
509.60 0.9813
509.70 0.9809
509.80 0.9805
509.90 0.9801
510.00 0.9797
510.10 0.9793
510.20 0.9789
510.30 0.9785
510.40 0.9781
510.50 0.9777
510.60 0.9773
510.70 0.9769
510.80 0.9765
510.90 0.9761
511.00 0.9757
511.10 0.9752
511.20 0.9748
511.30 0.9744
511.40 0.974
511.50 0.9736
511.60 0.9731
511.70 0.9727
511.80 0.9723
511.90 0.9719
512.00 0.9714
512.10 0.971
512.20 0.9706
512.30 0.9701
512.40 0.9697
512.50 0.9693
512.60 0.9688
512.70 0.9684
512.80 0.9679
512.90 0.9675
513.00 0.9671
513.10 0.9666
513.20 0.9662
513.30 0.9657
513.40 0.9653
513.50 0.9648
513.60 0.9644
513.70 0.964
513.80 0.9635
513.90 0.9631
514.00 0.9626
514.10 0.9622
514.20 0.9617
514.30 0.9613
514.40 0.9608
514.50 0.9603
514.60 0.9599
514.70 0.9594
514.80 0.959
514.90 0.9585
515.00 0.9581
515.10 0.9576
515.20 0.9572
515.30 0.9567
515.40 0.9562
515.50 0.9558
515.60 0.9553
515.70 0.9549
515.80 0.9544
515.90 0.9539
516.00 0.9535
516.10 0.953
516.20 0.9526
516.30 0.9521
516.40 0.9516
516.50 0.9512
516.60 0.9507
516.70 0.9502
516.80 0.9498
516.90 0.9493
517.00 0.9488
517.10 0.9484
517.20 0.9479
517.30 0.9474
517.40 0.947
517.50 0.9465
517.60 0.946
517.70 0.9456
517.80 0.9451
517.90 0.9446
518.00 0.9442
518.10 0.9437
518.20 0.9432
518.30 0.9427
518.40 0.9423
518.50 0.9418
518.60 0.9413
518.70 0.9408
518.80 0.9404
518.90 0.9399
519.00 0.9394
519.10 0.939
519.20 0.9385
519.30 0.938
519.40 0.9375
519.50 0.9371
519.60 0.9366
519.70 0.9361
519.80 0.9356
519.90 0.9352
520.00 0.9347
520.10 0.9342
520.20 0.9337
520.30 0.9333
520.40 0.9328
520.50 0.9323
520.60 0.9318
520.70 0.9314
520.80 0.9309
520.90 0.9304
521.00 0.9299
521.10 0.9295
521.20 0.929
521.30 0.9285
521.40 0.928
521.50 0.9276
521.60 0.9271
521.70 0.9266
521.80 0.9261
521.90 0.9257
522.00 0.9252
522.10 0.9247
522.20 0.9242
522.30 0.9237
522.40 0.9233
522.50 0.9228
522.60 0.9223
522.70 0.9218
522.80 0.9214
522.90 0.9209
523.00 0.9204
523.10 0.9199
523.20 0.9195
523.30 0.919
523.40 0.9185
523.50 0.918
523.60 0.9175
523.70 0.9171
523.80 0.9166
523.90 0.9161
524.00 0.9156
524.10 0.9152
524.20 0.9147
524.30 0.9142
524.40 0.9137
524.50 0.9132
524.60 0.9128
524.70 0.9123
524.80 0.9118
524.90 0.9113
525.00 0.9109
525.10 0.9104
525.20 0.9099
525.30 0.9094
525.40 0.909
525.50 0.9085
525.60 0.908
525.70 0.9075
525.80 0.9071
525.90 0.9066
526.00 0.9061
526.10 0.9056
526.20 0.9052
526.30 0.9047
526.40 0.9042
526.50 0.9037
526.60 0.9032
526.70 0.9028
526.80 0.9023
526.90 0.9018
527.00 0.9013
527.10 0.9009
527.20 0.9004
527.30 0.8999
527.40 0.8994
527.50 0.899
527.60 0.8985
527.70 0.898
527.80 0.8975
527.90 0.8971
528.00 0.8966
528.10 0.8961
528.20 0.8957
528.30 0.8952
528.40 0.8947
528.50 0.8942
528.60 0.8938
528.70 0.8933
528.80 0.8928
528.90 0.8923
529.00 0.8919
529.10 0.8914
529.20 0.8909
529.30 0.8905
529.40 0.89
529.50 0.8895
529.60 0.889
529.70 0.8886
529.80 0.8881
529.90 0.8876
530.00 0.8872
530.10 0.8867
530.20 0.8862
530.30 0.8857
530.40 0.8853
530.50 0.8848
530.60 0.8843
530.70 0.8839
530.80 0.8834
530.90 0.8829
531.00 0.8825
531.10 0.882
531.20 0.8815
531.30 0.881
531.40 0.8806
531.50 0.8801
531.60 0.8796
531.70 0.8792
531.80 0.8787
531.90 0.8782
532.00 0.8778
532.10 0.8773
532.20 0.8768
532.30 0.8764
532.40 0.8759
532.50 0.8754
532.60 0.875
532.70 0.8745
532.80 0.874
532.90 0.8736
533.00 0.8731
533.10 0.8726
533.20 0.8722
533.30 0.8717
533.40 0.8712
533.50 0.8708
533.60 0.8703
533.70 0.8699
533.80 0.8694
533.90 0.8689
534.00 0.8685
534.10 0.868
534.20 0.8675
534.30 0.8671
534.40 0.8666
534.50 0.8661
534.60 0.8657
534.70 0.8652
534.80 0.8648
534.90 0.8643
535.00 0.8638
535.10 0.8634
535.20 0.8629
535.30 0.8625
535.40 0.862
535.50 0.8615
535.60 0.8611
535.70 0.8606
535.80 0.8602
535.90 0.8597
536.00 0.8592
536.10 0.8588
536.20 0.8583
536.30 0.8579
536.40 0.8574
536.50 0.8569
536.60 0.8565
536.70 0.856
536.80 0.8556
536.90 0.8551
537.00 0.8547
537.10 0.8542
537.20 0.8537
537.30 0.8533
537.40 0.8528
537.50 0.8524
537.60 0.8519
537.70 0.8515
537.80 0.851
537.90 0.8506
538.00 0.8501
538.10 0.8496
538.20 0.8492
538.30 0.8487
538.40 0.8483
538.50 0.8478
538.60 0.8474
538.70 0.8469
538.80 0.8465
538.90 0.846
539.00 0.8456
539.10 0.8451
539.20 0.8447
539.30 0.8442
539.40 0.8438
539.50 0.8433
539.60 0.8429
539.70 0.8424
539.80 0.842
539.90 0.8415
540.00 0.8411
540.10 0.8406
540.20 0.8402
540.30 0.8397
540.40 0.8393
540.50 0.8388
540.60 0.8384
540.70 0.8379
540.80 0.8375
540.90 0.837
541.00 0.8366
541.10 0.8361
541.20 0.8357
541.30 0.8352
541.40 0.8348
541.50 0.8343
541.60 0.8339
541.70 0.8334
541.80 0.833
541.90 0.8325
542.00 0.8321
542.10 0.8317
542.20 0.8312
542.30 0.8308
542.40 0.8303
542.50 0.8299
542.60 0.8294
542.70 0.829
542.80 0.8286
542.90 0.8281
543.00 0.8277
543.10 0.8272
543.20 0.8268
543.30 0.8263
543.40 0.8259
543.50 0.8255
543.60 0.825
543.70 0.8246
543.80 0.8241
543.90 0.8237
544.00 0.8233
544.10 0.8228
544.20 0.8224
544.30 0.8219
544.40 0.8215
544.50 0.8211
544.60 0.8206
544.70 0.8202
544.80 0.8197
544.90 0.8193
545.00 0.8189
545.10 0.8184
545.20 0.818
545.30 0.8176
545.40 0.8171
545.50 0.8167
545.60 0.8162
545.70 0.8158
545.80 0.8154
545.90 0.8149
546.00 0.8145
546.10 0.8141
546.20 0.8137
546.30 0.8133
546.40 0.813
546.50 0.8127
546.60 0.8123
546.70 0.812
546.80 0.8116
546.90 0.8113
547.00 0.8109
547.10 0.8106
547.20 0.8102
547.30 0.8097
547.40 0.8093
547.50 0.8089
547.60 0.8084
547.70 0.808
547.80 0.8076
547.90 0.8071
548.00 0.8067
548.10 0.8063
548.20 0.8058
548.30 0.8054
548.40 0.805
548.50 0.8045
548.60 0.8041
548.70 0.8037
548.80 0.8032
548.90 0.8028
549.00 0.8024
549.10 0.8019
549.20 0.8015
549.30 0.8011
549.40 0.8006
549.50 0.8002
549.60 0.7998
549.70 0.7994
549.80 0.7989
549.90 0.7985
550.00 0.7981
550.10 0.7976
550.20 0.7972
550.30 0.7968
550.40 0.7963
550.50 0.7959
550.60 0.7955
550.70 0.7951
550.80 0.7946
550.90 0.7942
551.00 0.7938
551.10 0.7934
551.20 0.7929
551.30 0.7925
551.40 0.7921
551.50 0.7917
551.60 0.7912
551.70 0.7908
551.80 0.7904
551.90 0.79
552.00 0.7895
552.10 0.7891
552.20 0.7887
552.30 0.7883
552.40 0.7878
552.50 0.7874
552.60 0.787
552.70 0.7866
552.80 0.7862
552.90 0.7857
553.00 0.7853
553.10 0.7849
553.20 0.7845
553.30 0.7841
553.40 0.7836
553.50 0.7832
553.60 0.7828
553.70 0.7824
553.80 0.782
553.90 0.7815
554.00 0.7811
554.10 0.7807
554.20 0.7803
554.30 0.7799
554.40 0.7794
554.50 0.779
554.60 0.7786
554.70 0.7782
554.80 0.7778
554.90 0.7774
555.00 0.7769
555.10 0.7765
555.20 0.7761
555.30 0.7757
555.40 0.7753
555.50 0.7749
555.60 0.7745
555.70 0.774
555.80 0.7736
555.90 0.7732
556.00 0.7728
556.10 0.7724
556.20 0.772
556.30 0.7716
556.40 0.7712
556.50 0.7707
556.60 0.7703
556.70 0.7699
556.80 0.7695
556.90 0.7691
557.00 0.7687
557.10 0.7683
557.20 0.7679
557.30 0.7675
557.40 0.767
557.50 0.7666
557.60 0.7662
557.70 0.7658
557.80 0.7654
557.90 0.765
558.00 0.7646
558.10 0.7642
558.20 0.7638
558.30 0.7634
558.40 0.763
558.50 0.7626
558.60 0.7622
558.70 0.7617
558.80 0.7613
558.90 0.7609
559.00 0.7605
559.10 0.7601
559.20 0.7597
559.30 0.7593
559.40 0.7589
559.50 0.7585
559.60 0.7581
559.70 0.7577
559.80 0.7573
559.90 0.7569
560.00 0.7565
560.10 0.7561
560.20 0.7557
560.30 0.7553
560.40 0.7549
560.50 0.7545
560.60 0.7541
560.70 0.7537
560.80 0.7533
560.90 0.7529
561.00 0.7525
561.10 0.7521
561.20 0.7517
561.30 0.7513
561.40 0.7509
561.50 0.7505
561.60 0.7501
561.70 0.7497
561.80 0.7493
561.90 0.7489
562.00 0.7485
562.10 0.7481
562.20 0.7477
562.30 0.7473
562.40 0.7469
562.50 0.7465
562.60 0.7461
562.70 0.7457
562.80 0.7453
562.90 0.7449
563.00 0.7445
563.10 0.7441
563.20 0.7437
563.30 0.7434
563.40 0.743
563.50 0.7426
563.60 0.7422
563.70 0.7418
563.80 0.7414
563.90 0.741
564.00 0.7406
564.10 0.7402
564.20 0.7398
564.30 0.7394
564.40 0.739
564.50 0.7386
564.60 0.7383
564.70 0.7379
564.80 0.7375
564.90 0.7371
565.00 0.7367
565.10 0.7363
565.20 0.7359
565.30 0.7355
565.40 0.7351
565.50 0.7347
565.60 0.7344
565.70 0.734
565.80 0.7336
565.90 0.7332
566.00 0.7328
566.10 0.7324
566.20 0.732
566.30 0.7316
566.40 0.7313
566.50 0.7309
566.60 0.7305
566.70 0.7301
566.80 0.7297
566.90 0.7293
567.00 0.7289
567.10 0.7286
567.20 0.7282
567.30 0.7278
567.40 0.7274
567.50 0.727
567.60 0.7266
567.70 0.7263
567.80 0.7259
567.90 0.7255
568.00 0.7251
568.10 0.7247
568.20 0.7243
568.30 0.724
568.40 0.7236
568.50 0.7232
568.60 0.7228
568.70 0.7224
568.80 0.7221
568.90 0.7217
569.00 0.7213
569.10 0.7209
569.20 0.7205
569.30 0.7202
569.40 0.7198
569.50 0.7194
569.60 0.719
569.70 0.7186
569.80 0.7183
569.90 0.7179
570.00 0.7175
570.10 0.7171
570.20 0.7168
570.30 0.7164
570.40 0.716
570.50 0.7156
570.60 0.7152
570.70 0.7149
570.80 0.7145
570.90 0.7141
571.00 0.7137
571.10 0.7134
571.20 0.713
571.30 0.7126
571.40 0.7122
571.50 0.7119
571.60 0.7115
571.70 0.7111
571.80 0.7108
571.90 0.7104
572.00 0.71
572.10 0.7096
572.20 0.7093
572.30 0.7089
572.40 0.7085
572.50 0.7081
572.60 0.7078
572.70 0.7074
572.80 0.707
572.90 0.7067
573.00 0.7063
573.10 0.7059
573.20 0.7055
573.30 0.7052
573.40 0.7048
573.50 0.7044
573.60 0.7041
573.70 0.7037
573.80 0.7033
573.90 0.703
574.00 0.7026
574.10 0.7022
574.20 0.7019
574.30 0.7015
574.40 0.7011
574.50 0.7008
574.60 0.7004
574.70 0.7
574.80 0.6997
574.90 0.6993
575.00 0.6989
575.10 0.6986
575.20 0.6982
575.30 0.6978
575.40 0.6975
575.50 0.6971
575.60 0.6967
575.70 0.6964
575.80 0.696
575.90 0.6956
576.00 0.6953
576.10 0.6949
576.20 0.6946
576.30 0.6942
576.40 0.6938
576.50 0.6935
576.60 0.6931
576.70 0.6927
576.80 0.6924
576.90 0.692
577.00 0.6917
577.10 0.6913
577.20 0.6909
577.30 0.6906
577.40 0.6902
577.50 0.6899
577.60 0.6895
577.70 0.6891
577.80 0.6888
577.90 0.6884
578.00 0.6881
578.10 0.6877
578.20 0.6873
578.30 0.687
578.40 0.6866
578.50 0.6863
578.60 0.6859
578.70 0.6855
578.80 0.6852
578.90 0.6848
579.00 0.6845
579.10 0.6841
579.20 0.6838
579.30 0.6834
579.40 0.6831
579.50 0.6827
579.60 0.6823
579.70 0.682
579.80 0.6816
579.90 0.6813
580.00 0.6809
580.10 0.6806
580.20 0.6802
580.30 0.6799
580.40 0.6795
580.50 0.6792
580.60 0.6788
580.70 0.6784
580.80 0.6781
580.90 0.6777
581.00 0.6774
581.10 0.677
581.20 0.6767
581.30 0.6763
581.40 0.676
581.50 0.6756
581.60 0.6753
581.70 0.6749
581.80 0.6746
581.90 0.6742
582.00 0.6739
582.10 0.6735
582.20 0.6732
582.30 0.6728
582.40 0.6725
582.50 0.6721
582.60 0.6718
582.70 0.6714
582.80 0.6711
582.90 0.6707
583.00 0.6704
583.10 0.67
583.20 0.6697
583.30 0.6693
583.40 0.669
583.50 0.6687
583.60 0.6683
583.70 0.668
583.80 0.6676
583.90 0.6673
584.00 0.6669
584.10 0.6666
584.20 0.6662
584.30 0.6659
584.40 0.6655
584.50 0.6652
584.60 0.6649
584.70 0.6645
584.80 0.6642
584.90 0.6638
585.00 0.6635
585.10 0.6631
585.20 0.6628
585.30 0.6624
585.40 0.6621
585.50 0.6618
585.60 0.6614
585.70 0.6611
585.80 0.6607
585.90 0.6604
586.00 0.6601
586.10 0.6597
586.20 0.6594
586.30 0.659
586.40 0.6587
586.50 0.6583
586.60 0.658
586.70 0.6577
586.80 0.6573
586.90 0.657
587.00 0.6566
587.10 0.6563
587.20 0.656
587.30 0.6556
587.40 0.6553
587.50 0.655
587.60 0.6546
587.70 0.6543
587.80 0.6539
587.90 0.6536
588.00 0.6533
588.10 0.6529
588.20 0.6526
588.30 0.6523
588.40 0.6519
588.50 0.6516
588.60 0.6513
588.70 0.6509
588.80 0.6506
588.90 0.6502
589.00 0.6499
589.10 0.6496
589.20 0.6492
589.30 0.6489
589.40 0.6486
589.50 0.6482
589.60 0.6479
589.70 0.6476
589.80 0.6472
589.90 0.6469
590.00 0.6466
590.10 0.6462
590.20 0.6459
590.30 0.6456
590.40 0.6452
590.50 0.6449
590.60 0.6446
590.70 0.6442
590.80 0.6439
590.90 0.6436
591.00 0.6432
591.10 0.6429
591.20 0.6426
591.30 0.6423
591.40 0.6419
591.50 0.6416
591.60 0.6413
591.70 0.6409
591.80 0.6406
591.90 0.6403
592.00 0.64
592.10 0.6396
592.20 0.6393
592.30 0.639
592.40 0.6386
592.50 0.6383
592.60 0.638
592.70 0.6377
592.80 0.6373
592.90 0.637
593.00 0.6367
593.10 0.6363
593.20 0.636
593.30 0.6357
593.40 0.6354
593.50 0.635
593.60 0.6347
593.70 0.6344
593.80 0.6341
593.90 0.6337
594.00 0.6334
594.10 0.6331
594.20 0.6328
594.30 0.6324
594.40 0.6321
594.50 0.6318
594.60 0.6315
594.70 0.6311
594.80 0.6308
594.90 0.6305
595.00 0.6302
595.10 0.6299
595.20 0.6295
595.30 0.6292
595.40 0.6289
595.50 0.6286
595.60 0.6282
595.70 0.6279
595.80 0.6276
595.90 0.6273
596.00 0.627
596.10 0.6266
596.20 0.6262
596.30 0.6257
596.40 0.6252
596.50 0.6247
596.60 0.6242
596.70 0.6237
596.80 0.6232
596.90 0.6227
597.00 0.6222
597.10 0.6217
597.20 0.6213
597.30 0.621
597.40 0.6207
597.50 0.6203
597.60 0.62
597.70 0.6197
597.80 0.6194
597.90 0.619
598.00 0.6187
598.10 0.6184
598.20 0.6181
598.30 0.6178
598.40 0.6174
598.50 0.6171
598.60 0.6168
598.70 0.6165
598.80 0.6162
598.90 0.6158
599.00 0.6155
599.10 0.6152
599.20 0.6149
599.30 0.6145
599.40 0.6142
599.50 0.6139
599.60 0.6136
599.70 0.6133
599.80 0.613
599.90 0.6126
600.00 0.6123
600.10 0.612
600.20 0.6117
600.30 0.6114
600.40 0.611
600.50 0.6107
600.60 0.6104
600.70 0.6101
600.80 0.6098
600.90 0.6094
601.00 0.6091
601.10 0.6088
601.20 0.6085
601.30 0.6082
601.40 0.6079
601.50 0.6075
601.60 0.6072
601.70 0.6069
601.80 0.6066
601.90 0.6063
602.00 0.606
602.10 0.6056
602.20 0.6053
602.30 0.605
602.40 0.6047
602.50 0.6044
602.60 0.6041
602.70 0.6038
602.80 0.6034
602.90 0.6031
603.00 0.6028
603.10 0.6025
603.20 0.6022
603.30 0.6019
603.40 0.6016
603.50 0.6012
603.60 0.6009
603.70 0.6006
603.80 0.6003
603.90 0.6
604.00 0.5997
604.10 0.5994
604.20 0.599
604.30 0.5987
604.40 0.5984
604.50 0.5981
604.60 0.5978
604.70 0.5975
604.80 0.5972
604.90 0.5969
605.00 0.5965
605.10 0.5962
605.20 0.5959
605.30 0.5956
605.40 0.5953
605.50 0.595
605.60 0.5947
605.70 0.5944
605.80 0.5941
605.90 0.5937
606.00 0.5934
606.10 0.5931
606.20 0.5928
606.30 0.5925
606.40 0.5922
606.50 0.5919
606.60 0.5916
606.70 0.5913
606.80 0.591
606.90 0.5906
607.00 0.5903
607.10 0.59
607.20 0.5897
607.30 0.5894
607.40 0.5891
607.50 0.5888
607.60 0.5885
607.70 0.5882
607.80 0.5879
607.90 0.5876
608.00 0.5873
608.10 0.5869
608.20 0.5866
608.30 0.5863
608.40 0.586
608.50 0.5857
608.60 0.5854
608.70 0.5851
608.80 0.5848
608.90 0.5845
609.00 0.5842
609.10 0.5839
609.20 0.5836
609.30 0.5833
609.40 0.583
609.50 0.5827
609.60 0.5824
609.70 0.582
609.80 0.5817
609.90 0.5814
610.00 0.5811
610.10 0.5808
610.20 0.5805
610.30 0.5802
610.40 0.5799
610.50 0.5796
610.60 0.5793
610.70 0.579
610.80 0.5787
610.90 0.5784
611.00 0.5781
611.10 0.5778
611.20 0.5775
611.30 0.5772
611.40 0.5769
611.50 0.5766
611.60 0.5762
611.70 0.5759
611.80 0.5756
611.90 0.5753
612.00 0.575
612.10 0.5747
612.20 0.5744
612.30 0.5741
612.40 0.5738
612.50 0.5735
612.60 0.5732
612.70 0.5729
612.80 0.5726
612.90 0.5723
613.00 0.572
613.10 0.5717
613.20 0.5714
613.30 0.5711
613.40 0.5708
613.50 0.5705
613.60 0.5702
613.70 0.5699
613.80 0.5696
613.90 0.5693
614.00 0.569
614.10 0.5687
614.20 0.5684
614.30 0.5681
614.40 0.5678
614.50 0.5675
614.60 0.5672
614.70 0.5669
614.80 0.5666
614.90 0.5663
615.00 0.566
615.10 0.5657
615.20 0.5654
615.30 0.5651
615.40 0.5648
615.50 0.5644
615.60 0.5641
615.70 0.5638
615.80 0.5635
615.90 0.5632
616.00 0.5629
616.10 0.5626
616.20 0.5623
616.30 0.562
616.40 0.5617
616.50 0.5614
616.60 0.5611
616.70 0.5608
616.80 0.5605
616.90 0.5602
617.00 0.5599
617.10 0.5596
617.20 0.5593
617.30 0.559
617.40 0.5587
617.50 0.5584
617.60 0.5581
617.70 0.5578
617.80 0.5575
617.90 0.5572
618.00 0.5569
618.10 0.5566
618.20 0.5563
618.30 0.556
618.40 0.5557
618.50 0.5554
618.60 0.5551
618.70 0.5548
618.80 0.5545
618.90 0.5542
619.00 0.5539
619.10 0.5536
619.20 0.5533
619.30 0.553
619.40 0.5527
619.50 0.5524
619.60 0.5521
619.70 0.5518
619.80 0.5515
619.90 0.5512
620.00 0.5509
620.10 0.5506
620.20 0.5503
620.30 0.55
620.40 0.5497
620.50 0.5494
620.60 0.5491
620.70 0.5488
620.80 0.5485
620.90 0.5482
621.00 0.5479
621.10 0.5476
621.20 0.5473
621.30 0.547
621.40 0.5467
621.50 0.5464
621.60 0.5461
621.70 0.5458
621.80 0.5455
621.90 0.5452
622.00 0.5449
622.10 0.5446
622.20 0.5443
622.30 0.544
622.40 0.5437
622.50 0.5434
622.60 0.5431
622.70 0.5427
622.80 0.5424
622.90 0.5421
623.00 0.5418
623.10 0.5415
623.20 0.5412
623.30 0.5409
623.40 0.5406
623.50 0.5403
623.60 0.54
623.70 0.5397
623.80 0.5394
623.90 0.5391
624.00 0.5388
624.10 0.5385
624.20 0.5382
624.30 0.5379
624.40 0.5376
624.50 0.5373
624.60 0.537
624.70 0.5367
624.80 0.5364
624.90 0.5361
625.00 0.5357
625.10 0.5354
625.20 0.5351
625.30 0.5348
625.40 0.5345
625.50 0.5342
625.60 0.5339
625.70 0.5336
625.80 0.5333
625.90 0.533
626.00 0.5327
626.10 0.5324
626.20 0.5321
626.30 0.5318
626.40 0.5314
626.50 0.5311
626.60 0.5308
626.70 0.5305
626.80 0.5302
626.90 0.5299
627.00 0.5296
627.10 0.5293
627.20 0.529
627.30 0.5287
627.40 0.5283
627.50 0.528
627.60 0.5277
627.70 0.5274
627.80 0.5271
627.90 0.5268
628.00 0.5265
628.10 0.5262
628.20 0.5258
628.30 0.5255
628.40 0.5252
628.50 0.5249
628.60 0.5246
628.70 0.5243
628.80 0.524
628.90 0.5236
629.00 0.5233
629.10 0.523
629.20 0.5227
629.30 0.5224
629.40 0.5221
629.50 0.5217
629.60 0.5214
629.70 0.5211
629.80 0.5208
629.90 0.5205
630.00 0.5201
630.10 0.5198
630.20 0.5195
630.30 0.5192
630.40 0.5188
630.50 0.5185
630.60 0.5182
630.70 0.5179
630.80 0.5175
630.90 0.5172
631.00 0.5169
631.10 0.5166
631.20 0.5162
631.30 0.5159
631.40 0.5156
631.50 0.5153
631.60 0.5149
631.70 0.5146
631.80 0.5143
631.90 0.5139
632.00 0.5136
632.10 0.5133
632.20 0.5129
632.30 0.5126
632.40 0.5123
632.50 0.5119
632.60 0.5116
632.70 0.5112
632.80 0.5109
632.90 0.5106
633.00 0.5102
633.10 0.5099
633.20 0.5095
633.30 0.5092
633.40 0.5089
633.50 0.5085
633.60 0.5082
633.70 0.5078
633.80 0.5075
633.90 0.5071
634.00 0.5068
634.10 0.5064
634.20 0.5061
634.30 0.5057
634.40 0.5054
634.50 0.505
634.60 0.5046
634.70 0.5043
634.80 0.5039
634.90 0.5036
635.00 0.5032
635.10 0.5028
635.20 0.5025
635.30 0.5021
635.40 0.5017
635.50 0.5014
635.60 0.501
635.70 0.5006
635.80 0.5002
635.90 0.4999
636.00 0.4995
636.10 0.4991
636.20 0.4988
636.30 0.4984
636.40 0.498
636.50 0.4976
636.60 0.4972
636.70 0.4968
636.80 0.4964
636.90 0.4961
637.00 0.4957
637.10 0.4953
637.20 0.4949
637.30 0.4945
637.40 0.4941
637.50 0.4937
637.60 0.4933
637.70 0.4929
637.80 0.4925
637.90 0.4921
638.00 0.4917
638.10 0.4913
638.20 0.4909
638.30 0.4904
638.40 0.49
638.50 0.4896
638.60 0.4892
638.70 0.4887
638.80 0.4883
638.90 0.4879
639.00 0.4875
639.10 0.487
639.20 0.4866
639.30 0.4862
639.40 0.4857
639.50 0.4853
639.60 0.4848
639.70 0.4844
639.80 0.4839
639.90 0.4835
640.00 0.483
640.10 0.4826
640.20 0.4821
640.30 0.4817
640.40 0.4812
640.50 0.4807
640.60 0.4802
640.70 0.4797
640.80 0.4793
640.90 0.4788
641.00 0.4783
641.10 0.4778
641.20 0.4773
641.30 0.4768
641.40 0.4763
641.50 0.4758
641.60 0.4753
641.70 0.4748
641.80 0.4743
641.90 0.4738
642.00 0.4733
642.10 0.4727
642.20 0.4722
642.30 0.4717
642.40 0.4711
642.50 0.4706
642.60 0.47
642.70 0.4695
642.80 0.4689
642.90 0.4684
643.00 0.4678
643.10 0.4673
643.20 0.4667
643.30 0.4661
643.40 0.4655
643.50 0.4649
643.60 0.4643
643.70 0.4637
643.80 0.4631
643.90 0.4625
644.00 0.4619
644.10 0.4613
644.20 0.4607
644.30 0.4601
644.40 0.4594
644.50 0.4587
644.60 0.4581
644.70 0.4574
644.80 0.4567
644.90 0.4561
645.00 0.4554
645.10 0.4547
645.20 0.4541
645.30 0.4534
645.40 0.4526
645.50 0.4519
645.60 0.4511
645.70 0.4504
645.80 0.4497
645.90 0.4489
646.00 0.4482
646.10 0.4474
646.20 0.4467
646.30 0.446
646.40 0.4451
646.50 0.4443
646.60 0.4435
646.70 0.4426
646.80 0.4418
646.90 0.441
647.00 0.4401
647.10 0.4393
647.20 0.4385
647.30 0.4376
647.40 0.4367
647.50 0.4357
647.60 0.4348
647.70 0.4338
647.80 0.4329
647.90 0.4319
648.00 0.431
648.10 0.43
648.20 0.4291
648.30 0.4281
648.40 0.427
648.50 0.4258
648.60 0.4247
648.70 0.4236
648.80 0.4225
648.90 0.4214
649.00 0.4203
649.10 0.4191
649.20 0.418
649.30 0.4169
649.40 0.4156
649.50 0.4143
649.60 0.4129
649.70 0.4116
649.80 0.4103
649.90 0.409
650.00 0.4077
650.10 0.4064
650.20 0.4051
650.30 0.4037
650.40 0.4022
650.50 0.4006
650.60 0.3991
650.70 0.3976
650.80 0.396
650.90 0.3945
651.00 0.393
651.10 0.3914
651.20 0.3899
651.30 0.3883
651.40 0.3864
651.50 0.3846
651.60 0.3827
651.70 0.3808
651.80 0.379
651.90 0.3771
652.00 0.3753
652.10 0.3734
652.20 0.3715
652.30 0.3696
652.40 0.3673
652.50 0.365
652.60 0.3627
652.70 0.3604
652.80 0.3581
652.90 0.3558
653.00 0.3535
653.10 0.3512
653.20 0.3489
653.30 0.3465
653.40 0.3436
653.50 0.3407
653.60 0.3378
653.70 0.3349
653.80 0.332
653.90 0.3291
654.00 0.3262
654.10 0.3234
654.20 0.3205
654.30 0.3175
654.40 0.3143
654.50 0.311
654.60 0.3078
654.70 0.3045
654.80 0.3012
654.90 0.2978
655.00 0.2944
655.10 0.291
655.20 0.2876
655.30 0.2842
655.40 0.2806
655.50 0.2769
655.60 0.273
655.70 0.2688
655.80 0.2639
655.90 0.2582
656.00 0.2498
656.10 0.2403
656.20 0.2161
656.30 0.1991
656.40 0.2285
656.50 0.2441
656.60 0.2524
656.70 0.26
656.80 0.2647
656.90 0.2693
657.00 0.273
657.10 0.2767
657.20 0.28
657.30 0.2833
657.40 0.2865
657.50 0.2896
657.60 0.2928
657.70 0.2959
657.80 0.299
657.90 0.302
658.00 0.305
658.10 0.308
658.20 0.3109
658.30 0.3138
658.40 0.3164
658.50 0.3189
658.60 0.3215
658.70 0.3241
658.80 0.3266
658.90 0.3292
659.00 0.3318
659.10 0.3343
659.20 0.3369
659.30 0.3393
659.40 0.3412
659.50 0.3432
659.60 0.3451
659.70 0.3471
659.80 0.349
659.90 0.3509
660.00 0.3529
660.10 0.3548
660.20 0.3567
660.30 0.3586
660.40 0.36
660.50 0.3615
660.60 0.363
660.70 0.3645
660.80 0.3659
660.90 0.3674
661.00 0.3689
661.10 0.3703
661.20 0.3718
661.30 0.3732
661.40 0.3743
661.50 0.3755
661.60 0.3766
661.70 0.3777
661.80 0.3788
661.90 0.3799
662.00 0.3811
662.10 0.3822
662.20 0.3833
662.30 0.3844
662.40 0.3852
662.50 0.3861
662.60 0.387
662.70 0.3879
662.80 0.3888
662.90 0.3897
663.00 0.3905
663.10 0.3914
663.20 0.3923
663.30 0.3931
663.40 0.3938
663.50 0.3945
663.60 0.3952
663.70 0.3958
663.80 0.3965
663.90 0.3972
664.00 0.3978
664.10 0.3985
664.20 0.3992
664.30 0.3998
664.40 0.4003
664.50 0.4008
664.60 0.4013
664.70 0.4018
664.80 0.4023
664.90 0.4028
665.00 0.4033
665.10 0.4038
665.20 0.4043
665.30 0.4048
665.40 0.4052
665.50 0.4056
665.60 0.4059
665.70 0.4063
665.80 0.4067
665.90 0.4071
666.00 0.4074
666.10 0.4078
666.20 0.4082
666.30 0.4085
666.40 0.4088
666.50 0.4091
666.60 0.4094
666.70 0.4097
666.80 0.4099
666.90 0.4102
667.00 0.4105
667.10 0.4108
667.20 0.411
667.30 0.4113
667.40 0.4115
667.50 0.4117
667.60 0.4119
667.70 0.4121
667.80 0.4123
667.90 0.4125
668.00 0.4127
668.10 0.4129
668.20 0.4131
668.30 0.4133
668.40 0.4134
668.50 0.4136
668.60 0.4137
668.70 0.4139
668.80 0.414
668.90 0.4141
669.00 0.4143
669.10 0.4144
669.20 0.4146
669.30 0.4147
669.40 0.4148
669.50 0.4149
669.60 0.4149
669.70 0.415
669.80 0.4151
669.90 0.4152
670.00 0.4153
670.10 0.4154
670.20 0.4154
670.30 0.4155
670.40 0.4156
670.50 0.4156
670.60 0.4157
670.70 0.4157
670.80 0.4157
670.90 0.4158
671.00 0.4158
671.10 0.4159
671.20 0.4159
671.30 0.4159
671.40 0.416
671.50 0.416
671.60 0.416
671.70 0.416
671.80 0.416
671.90 0.416
672.00 0.416
672.10 0.416
672.20 0.416
672.30 0.416
672.40 0.416
672.50 0.416
672.60 0.416
672.70 0.4159
672.80 0.4159
672.90 0.4159
673.00 0.4159
673.10 0.4158
673.20 0.4158
673.30 0.4158
673.40 0.4158
673.50 0.4157
673.60 0.4157
673.70 0.4156
673.80 0.4156
673.90 0.4155
674.00 0.4155
674.10 0.4154
674.20 0.4154
674.30 0.4153
674.40 0.4153
674.50 0.4152
674.60 0.4151
674.70 0.4151
674.80 0.415
674.90 0.4149
675.00 0.4149
675.10 0.4148
675.20 0.4147
675.30 0.4147
675.40 0.4146
675.50 0.4145
675.60 0.4144
675.70 0.4143
675.80 0.4143
675.90 0.4142
676.00 0.4141
676.10 0.414
676.20 0.4139
676.30 0.4138
676.40 0.4137
676.50 0.4136
676.60 0.4135
676.70 0.4134
676.80 0.4133
676.90 0.4132
677.00 0.4131
677.10 0.413
677.20 0.4129
677.30 0.4128
677.40 0.4127
677.50 0.4126
677.60 0.4125
677.70 0.4124
677.80 0.4123
677.90 0.4122
678.00 0.4121
678.10 0.412
678.20 0.4119
678.30 0.4117
678.40 0.4116
678.50 0.4115
678.60 0.4114
678.70 0.4113
678.80 0.4111
678.90 0.411
679.00 0.4109
679.10 0.4108
679.20 0.4107
679.30 0.4105
679.40 0.4104
679.50 0.4103
679.60 0.4102
679.70 0.41
679.80 0.4099
679.90 0.4098
680.00 0.4096
680.10 0.4095
680.20 0.4094
680.30 0.4093
680.40 0.4091
680.50 0.409
680.60 0.4088
680.70 0.4087
680.80 0.4086
680.90 0.4084
681.00 0.4083
681.10 0.4082
681.20 0.408
681.30 0.4079
681.40 0.4077
681.50 0.4076
681.60 0.4075
681.70 0.4073
681.80 0.4072
681.90 0.407
682.00 0.4069
682.10 0.4068
682.20 0.4066
682.30 0.4065
682.40 0.4063
682.50 0.4062
682.60 0.406
682.70 0.4059
682.80 0.4057
682.90 0.4056
683.00 0.4054
683.10 0.4053
683.20 0.4052
683.30 0.405
683.40 0.4049
683.50 0.4047
683.60 0.4046
683.70 0.4044
683.80 0.4043
683.90 0.4041
684.00 0.4039
684.10 0.4038
684.20 0.4036
684.30 0.4035
684.40 0.4033
684.50 0.4032
684.60 0.403
684.70 0.4029
684.80 0.4027
684.90 0.4026
685.00 0.4024
685.10 0.4023
685.20 0.4021
685.30 0.402
685.40 0.4018
685.50 0.4016
685.60 0.4015
685.70 0.4013
685.80 0.4012
685.90 0.401
686.00 0.4009
686.10 0.4007
686.20 0.4006
686.30 0.4004
686.40 0.4002
686.50 0.4001
686.60 0.3999
686.70 0.3998
686.80 0.3996
686.90 0.3994
687.00 0.3993
687.10 0.3991
687.20 0.399
687.30 0.3988
687.40 0.3986
687.50 0.3985
687.60 0.3983
687.70 0.3982
687.80 0.398
687.90 0.3978
688.00 0.3977
688.10 0.3975
688.20 0.3974
688.30 0.3972
688.40 0.397
688.50 0.3969
688.60 0.3967
688.70 0.3966
688.80 0.3964
688.90 0.3962
689.00 0.3961
689.10 0.3959
689.20 0.3957
689.30 0.3956
689.40 0.3954
689.50 0.3952
689.60 0.3951
689.70 0.3949
689.80 0.3947
689.90 0.3946
690.00 0.3944
690.10 0.3942
690.20 0.3941
690.30 0.3939
690.40 0.3937
690.50 0.3936
690.60 0.3934
690.70 0.3932
690.80 0.3931
690.90 0.3929
691.00 0.3927
691.10 0.3925
691.20 0.3924
691.30 0.3922
691.40 0.392
691.50 0.3919
691.60 0.3917
691.70 0.3915
691.80 0.3914
691.90 0.3912
692.00 0.391
692.10 0.3909
692.20 0.3907
692.30 0.3905
692.40 0.3904
692.50 0.3902
692.60 0.39
692.70 0.3899
692.80 0.3897
692.90 0.3895
693.00 0.3894
693.10 0.3892
693.20 0.389
693.30 0.3889
693.40 0.3887
693.50 0.3885
693.60 0.3884
693.70 0.3882
693.80 0.388
693.90 0.3879
694.00 0.3877
694.10 0.3875
694.20 0.3874
694.30 0.3872
694.40 0.387
694.50 0.3869
694.60 0.3867
694.70 0.3866
694.80 0.3864
694.90 0.3862
695.00 0.3861
695.10 0.3859
695.20 0.3857
695.30 0.3856
695.40 0.3854
695.50 0.3852
695.60 0.3851
695.70 0.3849
695.80 0.3847
695.90 0.3846
696.00 0.3844
696.10 0.3842
696.20 0.3841
696.30 0.3839
696.40 0.3838
696.50 0.3836
696.60 0.3834
696.70 0.3833
696.80 0.3831
696.90 0.3829
697.00 0.3828
697.10 0.3826
697.20 0.3824
697.30 0.3823
697.40 0.3821
697.50 0.382
697.60 0.3818
697.70 0.3816
697.80 0.3815
697.90 0.3813
698.00 0.3811
698.10 0.381
698.20 0.3808
698.30 0.3807
698.40 0.3805
698.50 0.3803
698.60 0.3802
698.70 0.38
698.80 0.3798
698.90 0.3797
699.00 0.3795
699.10 0.3794
699.20 0.3792
699.30 0.379
699.40 0.3789
699.50 0.3787
699.60 0.3786
699.70 0.3784
699.80 0.3782
699.90 0.3781
700.00 0.3779
700.10 0.3778
700.20 0.3776
700.30 0.3775
700.40 0.3773
700.50 0.3772
700.60 0.377
700.70 0.3769
700.80 0.3768
700.90 0.3766
701.00 0.3765
701.10 0.3763
701.20 0.3762
701.30 0.376
701.40 0.3759
701.50 0.3757
701.60 0.3756
701.70 0.3755
701.80 0.3753
701.90 0.3752
702.00 0.375
702.10 0.3749
702.20 0.3747
702.30 0.3746
702.40 0.3744
702.50 0.3743
702.60 0.3742
702.70 0.374
702.80 0.3739
702.90 0.3737
703.00 0.3736
703.10 0.3734
703.20 0.3733
703.30 0.3732
703.40 0.373
703.50 0.3729
703.60 0.3727
703.70 0.3726
703.80 0.3724
703.90 0.3723
704.00 0.3722
704.10 0.372
704.20 0.3719
704.30 0.3717
704.40 0.3716
704.50 0.3715
704.60 0.3713
704.70 0.3712
704.80 0.371
704.90 0.3709
705.00 0.3707
705.10 0.3706
705.20 0.3704
705.30 0.3702
705.40 0.3701
705.50 0.3699
705.60 0.3698
705.70 0.3696
705.80 0.3694
705.90 0.3693
706.00 0.3691
706.10 0.3689
706.20 0.3688
706.30 0.3686
706.40 0.3684
706.50 0.3683
706.60 0.3681
706.70 0.368
706.80 0.3678
706.90 0.3676
707.00 0.3675
707.10 0.3673
707.20 0.3671
707.30 0.367
707.40 0.3668
707.50 0.3667
707.60 0.3665
707.70 0.3663
707.80 0.3662
707.90 0.366
708.00 0.3658
708.10 0.3657
708.20 0.3655
708.30 0.3654
708.40 0.3652
708.50 0.365
708.60 0.3649
708.70 0.3647
708.80 0.3646
708.90 0.3644
709.00 0.3642
709.10 0.3641
709.20 0.3639
709.30 0.3637
709.40 0.3636
709.50 0.3634
709.60 0.3633
709.70 0.3631
709.80 0.3629
709.90 0.3628
710.00 0.3626
710.10 0.3625
710.20 0.3623
710.30 0.3621
710.40 0.362
710.50 0.3618
710.60 0.3617
710.70 0.3615
710.80 0.3613
710.90 0.3612
711.00 0.361
711.10 0.3609
711.20 0.3607
711.30 0.3605
711.40 0.3604
711.50 0.3602
711.60 0.3601
711.70 0.3599
711.80 0.3597
711.90 0.3596
712.00 0.3594
712.10 0.3593
712.20 0.3591
712.30 0.3589
712.40 0.3588
712.50 0.3586
712.60 0.3585
712.70 0.3583
712.80 0.3581
712.90 0.358
713.00 0.3578
713.10 0.3577
713.20 0.3575
713.30 0.3573
713.40 0.3572
713.50 0.357
713.60 0.3569
713.70 0.3567
713.80 0.3566
713.90 0.3564
714.00 0.3562
714.10 0.3561
714.20 0.3559
714.30 0.3558
714.40 0.3556
714.50 0.3555
714.60 0.3553
714.70 0.3551
714.80 0.355
714.90 0.3548
715.00 0.3547
715.10 0.3545
715.20 0.3544
715.30 0.3542
715.40 0.3541
715.50 0.3539
715.60 0.3538
715.70 0.3536
715.80 0.3535
715.90 0.3533
716.00 0.3532
716.10 0.353
716.20 0.3529
716.30 0.3527
716.40 0.3526
716.50 0.3524
716.60 0.3523
716.70 0.3521
716.80 0.352
716.90 0.3518
717.00 0.3517
717.10 0.3515
717.20 0.3514
717.30 0.3512
717.40 0.3511
717.50 0.3509
717.60 0.3508
717.70 0.3506
717.80 0.3505
717.90 0.3504
718.00 0.3502
718.10 0.3501
718.20 0.3499
718.30 0.3498
718.40 0.3496
718.50 0.3495
718.60 0.3493
718.70 0.3492
718.80 0.349
718.90 0.3489
719.00 0.3487
719.10 0.3486
719.20 0.3484
719.30 0.3483
719.40 0.3481
719.50 0.348
719.60 0.3479
719.70 0.3477
719.80 0.3476
719.90 0.3474
720.00 0.3473
720.10 0.3471
720.20 0.347
720.30 0.3468
720.40 0.3466
720.50 0.3465
720.60 0.3463
720.70 0.3462
720.80 0.346
720.90 0.3459
721.00 0.3457
721.10 0.3456
721.20 0.3454
721.30 0.3453
721.40 0.3451
721.50 0.3449
721.60 0.3448
721.70 0.3446
721.80 0.3445
721.90 0.3443
722.00 0.3442
722.10 0.344
722.20 0.3439
722.30 0.3437
722.40 0.3436
722.50 0.3434
722.60 0.3433
722.70 0.3431
722.80 0.343
722.90 0.3428
723.00 0.3426
723.10 0.3425
723.20 0.3423
723.30 0.3422
723.40 0.342
723.50 0.3419
723.60 0.3417
723.70 0.3416
723.80 0.3414
723.90 0.3413
724.00 0.3411
724.10 0.341
724.20 0.3408
724.30 0.3407
724.40 0.3405
724.50 0.3404
724.60 0.3402
724.70 0.3401
724.80 0.3399
724.90 0.3398
725.00 0.3396
725.10 0.3394
725.20 0.3393
725.30 0.3391
725.40 0.339
725.50 0.3388
725.60 0.3387
725.70 0.3385
725.80 0.3384
725.90 0.3382
726.00 0.3381
726.10 0.3379
726.20 0.3378
726.30 0.3376
726.40 0.3375
726.50 0.3373
726.60 0.3372
726.70 0.337
726.80 0.3369
726.90 0.3367
727.00 0.3366
727.10 0.3364
727.20 0.3363
727.30 0.3361
727.40 0.336
727.50 0.3358
727.60 0.3357
727.70 0.3355
727.80 0.3354
727.90 0.3352
728.00 0.3351
728.10 0.3349
728.20 0.3348
728.30 0.3346
728.40 0.3345
728.50 0.3344
728.60 0.3342
728.70 0.3341
728.80 0.3339
728.90 0.3338
729.00 0.3336
729.10 0.3335
729.20 0.3333
729.30 0.3332
729.40 0.333
729.50 0.3329
729.60 0.3327
729.70 0.3326
729.80 0.3324
729.90 0.3323
730.00 0.3321
730.10 0.332
730.20 0.3318
730.30 0.3317
730.40 0.3315
730.50 0.3314
730.60 0.3313
730.70 0.3311
730.80 0.331
730.90 0.3308
731.00 0.3307
731.10 0.3305
731.20 0.3304
731.30 0.3302
731.40 0.3301
731.50 0.3299
731.60 0.3298
731.70 0.3296
731.80 0.3295
731.90 0.3294
732.00 0.3292
732.10 0.3291
732.20 0.3289
732.30 0.3288
732.40 0.3286
732.50 0.3285
732.60 0.3283
732.70 0.3282
732.80 0.328
732.90 0.3279
733.00 0.3278
733.10 0.3276
733.20 0.3275
733.30 0.3273
733.40 0.3272
733.50 0.327
733.60 0.3269
733.70 0.3267
733.80 0.3266
733.90 0.3265
734.00 0.3263
734.10 0.3262
734.20 0.326
734.30 0.3259
734.40 0.3257
734.50 0.3256
734.60 0.3255
734.70 0.3253
734.80 0.3252
734.90 0.325
735.00 0.3249
735.10 0.3247
735.20 0.3246
735.30 0.3244
735.40 0.3243
735.50 0.3242
735.60 0.324
735.70 0.3239
735.80 0.3237
735.90 0.3236
736.00 0.3234
736.10 0.3233
736.20 0.3232
736.30 0.323
736.40 0.3229
736.50 0.3227
736.60 0.3226
736.70 0.3225
736.80 0.3223
736.90 0.3222
737.00 0.322
737.10 0.3219
737.20 0.3217
737.30 0.3216
737.40 0.3215
737.50 0.3213
737.60 0.3212
737.70 0.321
737.80 0.3209
737.90 0.3207
738.00 0.3206
738.10 0.3205
738.20 0.3203
738.30 0.3202
738.40 0.32
738.50 0.3199
738.60 0.3198
738.70 0.3196
738.80 0.3195
738.90 0.3193
739.00 0.3192
739.10 0.3191
739.20 0.3189
739.30 0.3188
739.40 0.3186
739.50 0.3185
739.60 0.3184
739.70 0.3182
739.80 0.3181
739.90 0.3179
740.00 0.3178
740.10 0.3177
740.20 0.3175
740.30 0.3174
740.40 0.3172
740.50 0.3171
740.60 0.317
740.70 0.3168
740.80 0.3167
740.90 0.3165
741.00 0.3164
741.10 0.3163
741.20 0.3161
741.30 0.316
741.40 0.3159
741.50 0.3157
741.60 0.3156
741.70 0.3154
741.80 0.3153
741.90 0.3152
742.00 0.315
742.10 0.3149
742.20 0.3148
742.30 0.3146
742.40 0.3145
742.50 0.3143
742.60 0.3142
742.70 0.3141
742.80 0.3139
742.90 0.3138
743.00 0.3137
743.10 0.3135
743.20 0.3134
743.30 0.3132
743.40 0.3131
743.50 0.313
743.60 0.3128
743.70 0.3127
743.80 0.3126
743.90 0.3124
744.00 0.3123
744.10 0.3122
744.20 0.312
744.30 0.3119
744.40 0.3117
744.50 0.3116
744.60 0.3115
744.70 0.3113
744.80 0.3112
744.90 0.3111
745.00 0.3109
745.10 0.3108
745.20 0.3107
745.30 0.3105
745.40 0.3104
745.50 0.3102
745.60 0.3101
745.70 0.31
745.80 0.3098
745.90 0.3097
746.00 0.3096
746.10 0.3094
746.20 0.3093
746.30 0.3092
746.40 0.309
746.50 0.3089
746.60 0.3088
746.70 0.3086
746.80 0.3085
746.90 0.3084
747.00 0.3082
747.10 0.3081
747.20 0.308
747.30 0.3078
747.40 0.3077
747.50 0.3076
747.60 0.3074
747.70 0.3073
747.80 0.3071
747.90 0.307
748.00 0.3069
748.10 0.3067
748.20 0.3066
748.30 0.3065
748.40 0.3063
748.50 0.3062
748.60 0.3061
748.70 0.3059
748.80 0.3058
748.90 0.3057
749.00 0.3055
749.10 0.3054
749.20 0.3053
749.30 0.3051
749.40 0.305
749.50 0.3049
749.60 0.3047
749.70 0.3046
749.80 0.3045
749.90 0.3043
750.00 0.3042
750.10 0.3041
750.20 0.304
750.30 0.3038
750.40 0.3037
750.50 0.3036
750.60 0.3034
750.70 0.3033
750.80 0.3032
750.90 0.303
751.00 0.3029
751.10 0.3028
751.20 0.3026
751.30 0.3025
751.40 0.3024
751.50 0.3022
751.60 0.3021
751.70 0.302
751.80 0.3019
751.90 0.3017
752.00 0.3016
752.10 0.3015
752.20 0.3013
752.30 0.3012
752.40 0.3011
752.50 0.3009
752.60 0.3008
752.70 0.3007
752.80 0.3005
752.90 0.3004
753.00 0.3003
753.10 0.3002
753.20 0.3
753.30 0.2999
753.40 0.2998
753.50 0.2996
753.60 0.2995
753.70 0.2994
753.80 0.2993
753.90 0.2991
754.00 0.299
754.10 0.2989
754.20 0.2987
754.30 0.2986
754.40 0.2985
754.50 0.2983
754.60 0.2982
754.70 0.2981
754.80 0.298
754.90 0.2978
755.00 0.2977
755.10 0.2976
755.20 0.2974
755.30 0.2973
755.40 0.2972
755.50 0.2971
755.60 0.2969
755.70 0.2968
755.80 0.2967
755.90 0.2965
756.00 0.2964
756.10 0.2963
756.20 0.2962
756.30 0.296
756.40 0.2959
756.50 0.2958
756.60 0.2957
756.70 0.2955
756.80 0.2954
756.90 0.2953
757.00 0.2951
757.10 0.295
757.20 0.2949
757.30 0.2948
757.40 0.2946
757.50 0.2945
757.60 0.2944
757.70 0.2942
757.80 0.2941
757.90 0.294
758.00 0.2939
758.10 0.2937
758.20 0.2936
758.30 0.2935
758.40 0.2934
758.50 0.2932
758.60 0.2931
758.70 0.293
758.80 0.2929
758.90 0.2927
759.00 0.2926
759.10 0.2925
759.20 0.2923
759.30 0.2922
759.40 0.2921
759.50 0.292
759.60 0.2918
759.70 0.2917
759.80 0.2916
759.90 0.2915
760.00 0.2913
760.10 0.2912
760.20 0.2911
760.30 0.291
760.40 0.2908
760.50 0.2907
760.60 0.2906
760.70 0.2905
760.80 0.2903
760.90 0.2902
761.00 0.2901
761.10 0.29
761.20 0.2898
761.30 0.2897
761.40 0.2896
761.50 0.2895
761.60 0.2893
761.70 0.2892
761.80 0.2891
761.90 0.289
762.00 0.2889
762.10 0.2887
762.20 0.2886
762.30 0.2885
762.40 0.2884
762.50 0.2882
762.60 0.2881
762.70 0.288
762.80 0.2879
762.90 0.2877
763.00 0.2876
763.10 0.2875
763.20 0.2874
763.30 0.2872
763.40 0.2871
763.50 0.287
763.60 0.2869
763.70 0.2868
763.80 0.2866
763.90 0.2865
764.00 0.2864
764.10 0.2863
764.20 0.2861
764.30 0.286
764.40 0.2859
764.50 0.2858
764.60 0.2857
764.70 0.2855
764.80 0.2854
764.90 0.2853
765.00 0.2852
765.10 0.285
765.20 0.2849
765.30 0.2848
765.40 0.2847
765.50 0.2846
765.60 0.2844
765.70 0.2843
765.80 0.2842
765.90 0.2841
766.00 0.2839
766.10 0.2838
766.20 0.2837
766.30 0.2836
766.40 0.2835
766.50 0.2833
766.60 0.2832
766.70 0.2831
766.80 0.283
766.90 0.2829
767.00 0.2827
767.10 0.2826
767.20 0.2825
767.30 0.2824
767.40 0.2823
767.50 0.2821
767.60 0.282
767.70 0.2819
767.80 0.2818
767.90 0.2816
768.00 0.2815
768.10 0.2814
768.20 0.2813
768.30 0.2812
768.40 0.281
768.50 0.2809
768.60 0.2808
768.70 0.2807
768.80 0.2806
768.90 0.2804
769.00 0.2803
769.10 0.2802
769.20 0.2801
769.30 0.28
769.40 0.2798
769.50 0.2797
769.60 0.2796
769.70 0.2795
769.80 0.2794
769.90 0.2792
770.00 0.2791
770.10 0.279
770.20 0.2789
770.30 0.2788
770.40 0.2787
770.50 0.2785
770.60 0.2784
770.70 0.2783
770.80 0.2782
770.90 0.2781
771.00 0.2779
771.10 0.2778
771.20 0.2777
771.30 0.2776
771.40 0.2775
771.50 0.2774
771.60 0.2772
771.70 0.2771
771.80 0.277
771.90 0.2769
772.00 0.2768
772.10 0.2767
772.20 0.2765
772.30 0.2764
772.40 0.2763
772.50 0.2762
772.60 0.2761
772.70 0.276
772.80 0.2758
772.90 0.2757
773.00 0.2756
773.10 0.2755
773.20 0.2754
773.30 0.2752
773.40 0.2751
773.50 0.275
773.60 0.2749
773.70 0.2748
773.80 0.2747
773.90 0.2745
774.00 0.2744
774.10 0.2743
774.20 0.2742
774.30 0.2741
774.40 0.274
774.50 0.2739
774.60 0.2737
774.70 0.2736
774.80 0.2735
774.90 0.2734
775.00 0.2733
775.10 0.2732
775.20 0.273
775.30 0.2729
775.40 0.2728
775.50 0.2727
775.60 0.2726
775.70 0.2725
775.80 0.2723
775.90 0.2722
776.00 0.2721
776.10 0.272
776.20 0.2719
776.30 0.2718
776.40 0.2717
776.50 0.2715
776.60 0.2714
776.70 0.2713
776.80 0.2712
776.90 0.2711
777.00 0.271
777.10 0.2708
777.20 0.2707
777.30 0.2706
777.40 0.2705
777.50 0.2704
777.60 0.2703
777.70 0.2702
777.80 0.27
777.90 0.2699
778.00 0.2698
778.10 0.2697
778.20 0.2696
778.30 0.2695
778.40 0.2694
778.50 0.2692
778.60 0.2691
778.70 0.269
778.80 0.2689
778.90 0.2688
779.00 0.2687
779.10 0.2686
779.20 0.2684
779.30 0.2683
779.40 0.2682
779.50 0.2681
779.60 0.268
779.70 0.2679
779.80 0.2678
779.90 0.2677
780.00 0.2675
780.10 0.2674
780.20 0.2673
780.30 0.2672
780.40 0.2671
780.50 0.267
780.60 0.2669
780.70 0.2668
780.80 0.2666
780.90 0.2665
781.00 0.2664
781.10 0.2663
781.20 0.2662
781.30 0.2661
781.40 0.266
781.50 0.2659
781.60 0.2657
781.70 0.2656
781.80 0.2655
781.90 0.2654
782.00 0.2653
782.10 0.2652
782.20 0.2651
782.30 0.265
782.40 0.2649
782.50 0.2647
782.60 0.2646
782.70 0.2645
782.80 0.2644
782.90 0.2643
783.00 0.2642
783.10 0.2641
783.20 0.264
783.30 0.2639
783.40 0.2637
783.50 0.2636
783.60 0.2635
783.70 0.2634
783.80 0.2633
783.90 0.2632
784.00 0.2631
784.10 0.263
784.20 0.2629
784.30 0.2628
784.40 0.2626
784.50 0.2625
784.60 0.2624
784.70 0.2623
784.80 0.2622
784.90 0.2621
785.00 0.262
785.10 0.2619
785.20 0.2618
785.30 0.2617
785.40 0.2615
785.50 0.2614
785.60 0.2613
785.70 0.2612
785.80 0.2611
785.90 0.261
786.00 0.2609
786.10 0.2608
786.20 0.2607
786.30 0.2606
786.40 0.2604
786.50 0.2603
786.60 0.2602
786.70 0.2601
786.80 0.26
786.90 0.2599
787.00 0.2598
787.10 0.2597
787.20 0.2596
787.30 0.2595
787.40 0.2594
787.50 0.2592
787.60 0.2591
787.70 0.259
787.80 0.2589
787.90 0.2588
788.00 0.2587
788.10 0.2586
788.20 0.2585
788.30 0.2584
788.40 0.2583
788.50 0.2582
788.60 0.2581
788.70 0.2579
788.80 0.2578
788.90 0.2577
789.00 0.2576
789.10 0.2575
789.20 0.2574
789.30 0.2573
789.40 0.2572
789.50 0.2571
789.60 0.257
789.70 0.2569
789.80 0.2568
789.90 0.2567
790.00 0.2565
790.10 0.2564
790.20 0.2563
790.30 0.2562
790.40 0.2561
790.50 0.256
790.60 0.2559
790.70 0.2558
790.80 0.2557
790.90 0.2556
791.00 0.2555
791.10 0.2554
791.20 0.2553
791.30 0.2552
791.40 0.2551
791.50 0.2549
791.60 0.2548
791.70 0.2547
791.80 0.2546
791.90 0.2545
792.00 0.2544
792.10 0.2543
792.20 0.2542
792.30 0.2541
792.40 0.254
792.50 0.2539
792.60 0.2538
792.70 0.2537
792.80 0.2536
792.90 0.2535
793.00 0.2534
793.10 0.2533
793.20 0.2532
793.30 0.253
793.40 0.2529
793.50 0.2528
793.60 0.2527
793.70 0.2526
793.80 0.2525
793.90 0.2524
794.00 0.2523
794.10 0.2522
794.20 0.2521
794.30 0.252
794.40 0.2519
794.50 0.2518
794.60 0.2517
794.70 0.2516
794.80 0.2515
794.90 0.2514
795.00 0.2513
795.10 0.2512
795.20 0.2511
795.30 0.251
795.40 0.2508
795.50 0.2507
795.60 0.2506
795.70 0.2505
795.80 0.2504
795.90 0.2503
796.00 0.2502
796.10 0.2501
796.20 0.25
796.30 0.2499
796.40 0.2498
796.50 0.2497
796.60 0.2496
796.70 0.2495
796.80 0.2494
796.90 0.2493
797.00 0.2492
797.10 0.2491
797.20 0.249
797.30 0.2489
797.40 0.2488
797.50 0.2487
797.60 0.2486
797.70 0.2485
797.80 0.2484
797.90 0.2483
798.00 0.2482
798.10 0.248
798.20 0.2479
798.30 0.2478
798.40 0.2477
798.50 0.2476
798.60 0.2475
798.70 0.2474
798.80 0.2473
798.90 0.2472
799.00 0.2471
799.10 0.247
799.20 0.2469
799.30 0.2468
799.40 0.2467
799.50 0.2466
799.60 0.2465
799.70 0.2464
799.80 0.2463
799.90 0.2462
800.00 0.2461
800.10 0.246
800.20 0.2459
800.30 0.2458
800.40 0.2457
800.50 0.2456
800.60 0.2455
800.70 0.2454
800.80 0.2453
800.90 0.2452
801.00 0.2451
801.10 0.245
801.20 0.2449
801.30 0.2448
801.40 0.2447
801.50 0.2446
801.60 0.2445
801.70 0.2444
801.80 0.2443
801.90 0.2442
802.00 0.2441
802.10 0.244
802.20 0.2439
802.30 0.2438
802.40 0.2437
802.50 0.2436
802.60 0.2435
802.70 0.2434
802.80 0.2433
802.90 0.2432
803.00 0.2431
803.10 0.243
803.20 0.2429
803.30 0.2428
803.40 0.2427
803.50 0.2426
803.60 0.2425
803.70 0.2424
803.80 0.2423
803.90 0.2422
804.00 0.2421
804.10 0.242
804.20 0.2419
804.30 0.2418
804.40 0.2417
804.50 0.2416
804.60 0.2415
804.70 0.2414
804.80 0.2413
804.90 0.2412
805.00 0.2411
805.10 0.241
805.20 0.2409
805.30 0.2408
805.40 0.2407
805.50 0.2406
805.60 0.2405
805.70 0.2404
805.80 0.2403
805.90 0.2402
806.00 0.2401
806.10 0.24
806.20 0.2399
806.30 0.2398
806.40 0.2397
806.50 0.2396
806.60 0.2395
806.70 0.2394
806.80 0.2393
806.90 0.2392
807.00 0.2391
807.10 0.239
807.20 0.2389
807.30 0.2388
807.40 0.2387
807.50 0.2386
807.60 0.2385
807.70 0.2384
807.80 0.2383
807.90 0.2382
808.00 0.2381
808.10 0.238
808.20 0.2379
808.30 0.2378
808.40 0.2377
808.50 0.2376
808.60 0.2375
808.70 0.2374
808.80 0.2373
808.90 0.2372
809.00 0.2371
809.10 0.237
809.20 0.2369
809.30 0.2369
809.40 0.2368
809.50 0.2367
809.60 0.2366
809.70 0.2365
809.80 0.2364
809.90 0.2363
810.00 0.2362
810.10 0.2361
810.20 0.236
810.30 0.2359
810.40 0.2358
810.50 0.2357
810.60 0.2356
810.70 0.2355
810.80 0.2354
810.90 0.2353
811.00 0.2352
811.10 0.2351
811.20 0.235
811.30 0.2349
811.40 0.2348
811.50 0.2347
811.60 0.2346
811.70 0.2345
811.80 0.2344
811.90 0.2343
812.00 0.2343
812.10 0.2342
812.20 0.2341
812.30 0.234
812.40 0.2339
812.50 0.2338
812.60 0.2337
812.70 0.2336
812.80 0.2335
812.90 0.2334
813.00 0.2333
813.10 0.2332
813.20 0.2331
813.30 0.233
813.40 0.2329
813.50 0.2328
813.60 0.2327
813.70 0.2326
813.80 0.2325
813.90 0.2324
814.00 0.2323
814.10 0.2323
814.20 0.2322
814.30 0.2321
814.40 0.232
814.50 0.2319
814.60 0.2318
814.70 0.2317
814.80 0.2316
814.90 0.2315
815.00 0.2314
815.10 0.2313
815.20 0.2312
815.30 0.2311
815.40 0.231
815.50 0.2309
815.60 0.2308
815.70 0.2307
815.80 0.2306
815.90 0.2306
816.00 0.2305
816.10 0.2304
816.20 0.2303
816.30 0.2302
816.40 0.2301
816.50 0.23
816.60 0.2299
816.70 0.2298
816.80 0.2297
816.90 0.2296
817.00 0.2295
817.10 0.2294
817.20 0.2293
817.30 0.2292
817.40 0.2292
817.50 0.2291
817.60 0.229
817.70 0.2289
817.80 0.2288
817.90 0.2287
818.00 0.2286
818.10 0.2285
818.20 0.2284
818.30 0.2283
818.40 0.2282
818.50 0.2281
818.60 0.228
818.70 0.2279
818.80 0.2278
818.90 0.2278
819.00 0.2277
819.10 0.2276
819.20 0.2275
819.30 0.2274
819.40 0.2273
819.50 0.2272
819.60 0.2271
819.70 0.227
819.80 0.2269
819.90 0.2268
820.00 0.2267
820.10 0.2266
820.20 0.2266
820.30 0.2265
820.40 0.2264
820.50 0.2263
820.60 0.2262
820.70 0.2261
820.80 0.226
820.90 0.2259
821.00 0.2258
821.10 0.2257
821.20 0.2256
821.30 0.2256
821.40 0.2255
821.50 0.2254
821.60 0.2253
821.70 0.2252
821.80 0.2251
821.90 0.225
822.00 0.2249
822.10 0.2248
822.20 0.2247
822.30 0.2246
822.40 0.2246
822.50 0.2245
822.60 0.2244
822.70 0.2243
822.80 0.2242
822.90 0.2241
823.00 0.224
823.10 0.2239
823.20 0.2238
823.30 0.2237
823.40 0.2236
823.50 0.2236
823.60 0.2235
823.70 0.2234
823.80 0.2233
823.90 0.2232
824.00 0.2231
824.10 0.223
824.20 0.2229
824.30 0.2228
824.40 0.2227
824.50 0.2227
824.60 0.2226
824.70 0.2225
824.80 0.2224
824.90 0.2223
825.00 0.2222
825.10 0.2221
825.20 0.222
825.30 0.2219
825.40 0.2218
825.50 0.2218
825.60 0.2217
825.70 0.2216
825.80 0.2215
825.90 0.2214
826.00 0.2213
826.10 0.2212
826.20 0.2211
826.30 0.221
826.40 0.221
826.50 0.2209
826.60 0.2208
826.70 0.2207
826.80 0.2206
826.90 0.2205
827.00 0.2204
827.10 0.2203
827.20 0.2202
827.30 0.2202
827.40 0.2201
827.50 0.22
827.60 0.2199
827.70 0.2198
827.80 0.2197
827.90 0.2196
828.00 0.2195
828.10 0.2194
828.20 0.2194
828.30 0.2193
828.40 0.2192
828.50 0.2191
828.60 0.219
828.70 0.2189
828.80 0.2188
828.90 0.2187
829.00 0.2186
829.10 0.2186
829.20 0.2185
829.30 0.2184
829.40 0.2183
829.50 0.2182
829.60 0.2181
829.70 0.218
829.80 0.2179
829.90 0.2179
830.00 0.2178
830.10 0.2177
830.20 0.2176
830.30 0.2175
830.40 0.2174
830.50 0.2173
830.60 0.2172
830.70 0.2172
830.80 0.2171
830.90 0.217
831.00 0.2169
831.10 0.2168
831.20 0.2167
831.30 0.2166
831.40 0.2165
831.50 0.2165
831.60 0.2164
831.70 0.2163
831.80 0.2162
831.90 0.2161
832.00 0.216
832.10 0.2159
832.20 0.2159
832.30 0.2158
832.40 0.2157
832.50 0.2156
832.60 0.2155
832.70 0.2154
832.80 0.2153
832.90 0.2153
833.00 0.2152
833.10 0.2151
833.20 0.215
833.30 0.2149
833.40 0.2148
833.50 0.2147
833.60 0.2146
833.70 0.2146
833.80 0.2145
833.90 0.2144
834.00 0.2143
834.10 0.2142
834.20 0.2141
834.30 0.214
834.40 0.214
834.50 0.2139
834.60 0.2138
834.70 0.2137
834.80 0.2136
834.90 0.2135
835.00 0.2134
835.10 0.2134
835.20 0.2133
835.30 0.2132
835.40 0.2131
835.50 0.213
835.60 0.2129
835.70 0.2129
835.80 0.2128
835.90 0.2127
836.00 0.2126
836.10 0.2125
836.20 0.2124
836.30 0.2123
836.40 0.2123
836.50 0.2122
836.60 0.2121
836.70 0.212
836.80 0.2119
836.90 0.2118
837.00 0.2117
837.10 0.2117
837.20 0.2116
837.30 0.2115
837.40 0.2114
837.50 0.2113
837.60 0.2112
837.70 0.2112
837.80 0.2111
837.90 0.211
838.00 0.2109
838.10 0.2108
838.20 0.2107
838.30 0.2107
838.40 0.2106
838.50 0.2105
838.60 0.2104
838.70 0.2103
838.80 0.2102
838.90 0.2102
839.00 0.2101
839.10 0.21
839.20 0.2099
839.30 0.2098
839.40 0.2097
839.50 0.2096
839.60 0.2096
839.70 0.2095
839.80 0.2094
839.90 0.2093
840.00 0.2092
840.10 0.2091
840.20 0.2091
840.30 0.209
840.40 0.2089
840.50 0.2088
840.60 0.2087
840.70 0.2086
840.80 0.2086
840.90 0.2085
841.00 0.2084
841.10 0.2083
841.20 0.2082
841.30 0.2082
841.40 0.2081
841.50 0.208
841.60 0.2079
841.70 0.2078
841.80 0.2077
841.90 0.2077
842.00 0.2076
842.10 0.2075
842.20 0.2074
842.30 0.2073
842.40 0.2072
842.50 0.2072
842.60 0.2071
842.70 0.207
842.80 0.2069
842.90 0.2068
843.00 0.2067
843.10 0.2067
843.20 0.2066
843.30 0.2065
843.40 0.2064
843.50 0.2063
843.60 0.2063
843.70 0.2062
843.80 0.2061
843.90 0.206
844.00 0.2059
844.10 0.2058
844.20 0.2058
844.30 0.2057
844.40 0.2056
844.50 0.2055
844.60 0.2054
844.70 0.2054
844.80 0.2053
844.90 0.2052
845.00 0.2051
845.10 0.205
845.20 0.205
845.30 0.2049
845.40 0.2048
845.50 0.2047
845.60 0.2046
845.70 0.2045
845.80 0.2045
845.90 0.2044
846.00 0.2043
846.10 0.2042
846.20 0.2041
846.30 0.2041
846.40 0.204
846.50 0.2039
846.60 0.2038
846.70 0.2037
846.80 0.2037
846.90 0.2036
847.00 0.2035
847.10 0.2034
847.20 0.2033
847.30 0.2033
847.40 0.2032
847.50 0.2031
847.60 0.203
847.70 0.203
847.80 0.2029
847.90 0.2028
848.00 0.2027
848.10 0.2026
848.20 0.2026
848.30 0.2025
848.40 0.2024
848.50 0.2023
848.60 0.2023
848.70 0.2022
848.80 0.2021
848.90 0.202
849.00 0.2019
849.10 0.2019
849.20 0.2018
849.30 0.2017
849.40 0.2016
849.50 0.2016
849.60 0.2015
849.70 0.2014
849.80 0.2013
849.90 0.2013
850.00 0.2012
850.10 0.2011
850.20 0.201
850.30 0.2009
850.40 0.2009
850.50 0.2008
850.60 0.2007
850.70 0.2006
850.80 0.2006
850.90 0.2005
851.00 0.2004
851.10 0.2003
851.20 0.2003
851.30 0.2002
851.40 0.2001
851.50 0.2
851.60 0.2
851.70 0.1999
851.80 0.1998
851.90 0.1997
852.00 0.1997
852.10 0.1996
852.20 0.1995
852.30 0.1994
852.40 0.1994
852.50 0.1993
852.60 0.1992
852.70 0.1991
852.80 0.199
852.90 0.199
853.00 0.1989
853.10 0.1988
853.20 0.1987
853.30 0.1987
853.40 0.1986
853.50 0.1985
853.60 0.1984
853.70 0.1984
853.80 0.1983
853.90 0.1982
854.00 0.1981
854.10 0.1981
854.20 0.198
854.30 0.1979
854.40 0.1978
854.50 0.1978
854.60 0.1977
854.70 0.1976
854.80 0.1976
854.90 0.1975
855.00 0.1974
855.10 0.1973
855.20 0.1973
855.30 0.1972
855.40 0.1971
855.50 0.197
855.60 0.197
855.70 0.1969
855.80 0.1968
855.90 0.1967
856.00 0.1967
856.10 0.1966
856.20 0.1965
856.30 0.1964
856.40 0.1964
856.50 0.1963
856.60 0.1962
856.70 0.1961
856.80 0.1961
856.90 0.196
857.00 0.1959
857.10 0.1958
857.20 0.1958
857.30 0.1957
857.40 0.1956
857.50 0.1956
857.60 0.1955
857.70 0.1954
857.80 0.1953
857.90 0.1953
858.00 0.1952
858.10 0.1951
858.20 0.1951
858.30 0.195
858.40 0.1949
858.50 0.1948
858.60 0.1948
858.70 0.1947
858.80 0.1946
858.90 0.1946
859.00 0.1945
859.10 0.1944
859.20 0.1943
859.30 0.1943
859.40 0.1942
859.50 0.1941
859.60 0.1941
859.70 0.194
859.80 0.1939
859.90 0.1938
860.00 0.1938
860.10 0.1937
860.20 0.1936
860.30 0.1936
860.40 0.1935
860.50 0.1934
860.60 0.1933
860.70 0.1933
860.80 0.1932
860.90 0.1931
861.00 0.1931
861.10 0.193
861.20 0.1929
861.30 0.1928
861.40 0.1928
861.50 0.1927
861.60 0.1926
861.70 0.1926
861.80 0.1925
861.90 0.1924
862.00 0.1924
862.10 0.1923
862.20 0.1922
862.30 0.1921
862.40 0.1921
862.50 0.192
862.60 0.1919
862.70 0.1919
862.80 0.1918
862.90 0.1917
863.00 0.1917
863.10 0.1916
863.20 0.1915
863.30 0.1914
863.40 0.1914
863.50 0.1913
863.60 0.1912
863.70 0.1912
863.80 0.1911
863.90 0.191
864.00 0.1909
864.10 0.1909
864.20 0.1908
864.30 0.1907
864.40 0.1907
864.50 0.1906
864.60 0.1905
864.70 0.1905
864.80 0.1904
864.90 0.1903
865.00 0.1903
865.10 0.1902
865.20 0.1901
865.30 0.19
865.40 0.19
865.50 0.1899
865.60 0.1898
865.70 0.1898
865.80 0.1897
865.90 0.1896
866.00 0.1896
866.10 0.1895
866.20 0.1894
866.30 0.1893
866.40 0.1893
866.50 0.1892
866.60 0.1891
866.70 0.1891
866.80 0.189
866.90 0.1889
867.00 0.1889
867.10 0.1888
867.20 0.1887
867.30 0.1887
867.40 0.1886
867.50 0.1886
867.60 0.1885
867.70 0.1884
867.80 0.1884
867.90 0.1883
868.00 0.1882
868.10 0.1882
868.20 0.1881
868.30 0.1881
868.40 0.188
868.50 0.1879
868.60 0.1879
868.70 0.1878
868.80 0.1877
868.90 0.1877
869.00 0.1876
869.10 0.1876
869.20 0.1875
869.30 0.1874
869.40 0.1874
869.50 0.1873
869.60 0.1873
869.70 0.1872
869.80 0.1871
869.90 0.1871
870.00 0.187
870.10 0.1869
870.20 0.1869
870.30 0.1868
870.40 0.1868
870.50 0.1867
870.60 0.1866
870.70 0.1866
870.80 0.1865
870.90 0.1865
871.00 0.1864
871.10 0.1863
871.20 0.1863
871.30 0.1862
871.40 0.1861
871.50 0.1861
871.60 0.186
871.70 0.186
871.80 0.1859
871.90 0.1858
872.00 0.1858
872.10 0.1857
872.20 0.1856
872.30 0.1856
872.40 0.1855
872.50 0.1855
872.60 0.1854
872.70 0.1853
872.80 0.1853
872.90 0.1852
873.00 0.1851
873.10 0.1851
873.20 0.185
873.30 0.1849
873.40 0.1849
873.50 0.1848
873.60 0.1847
873.70 0.1847
873.80 0.1846
873.90 0.1846
874.00 0.1845
874.10 0.1844
874.20 0.1844
874.30 0.1843
874.40 0.1842
874.50 0.1842
874.60 0.1841
874.70 0.184
874.80 0.184
874.90 0.1839
875.00 0.1838
875.10 0.1838
875.20 0.1837
875.30 0.1837
875.40 0.1836
875.50 0.1835
875.60 0.1835
875.70 0.1834
875.80 0.1833
875.90 0.1833
876.00 0.1832
876.10 0.1831
876.20 0.1831
876.30 0.183
876.40 0.1829
876.50 0.1829
876.60 0.1828
876.70 0.1828
876.80 0.1827
876.90 0.1826
877.00 0.1826
877.10 0.1825
877.20 0.1825
877.30 0.1824
877.40 0.1823
877.50 0.1823
877.60 0.1822
877.70 0.1822
877.80 0.1821
877.90 0.1821
878.00 0.182
878.10 0.182
878.20 0.1819
878.30 0.1818
878.40 0.1818
878.50 0.1817
878.60 0.1817
878.70 0.1816
878.80 0.1816
878.90 0.1815
879.00 0.1815
879.10 0.1814
879.20 0.1813
879.30 0.1813
879.40 0.1812
879.50 0.1812
879.60 0.1811
879.70 0.1811
879.80 0.181
879.90 0.181
880.00 0.1809
880.10 0.1809
880.20 0.1808
880.30 0.1807
880.40 0.1807
880.50 0.1806
880.60 0.1806
880.70 0.1805
880.80 0.1805
880.90 0.1804
881.00 0.1804
881.10 0.1803
881.20 0.1802
881.30 0.1802
881.40 0.1801
881.50 0.1801
881.60 0.18
881.70 0.18
881.80 0.1799
881.90 0.1799
882.00 0.1798
882.10 0.1797
882.20 0.1797
882.30 0.1796
882.40 0.1795
882.50 0.1794
882.60 0.1793
882.70 0.1793
882.80 0.1792
882.90 0.1791
883.00 0.179
883.10 0.1789
883.20 0.1789
883.30 0.1788
883.40 0.1787
883.50 0.1786
883.60 0.1785
883.70 0.1785
883.80 0.1784
883.90 0.1783
884.00 0.1782
884.10 0.1782
884.20 0.1781
884.30 0.178
884.40 0.1779
884.50 0.1778
884.60 0.1778
884.70 0.1777
884.80 0.1776
884.90 0.1775
885.00 0.1774
885.10 0.1774
885.20 0.1773
885.30 0.1772
885.40 0.1771
885.50 0.1771
885.60 0.177
885.70 0.1769
885.80 0.1768
885.90 0.1767
886.00 0.1767
886.10 0.1766
886.20 0.1765
886.30 0.1764
886.40 0.1764
886.50 0.1763
886.60 0.1762
886.70 0.1761
886.80 0.176
886.90 0.176
887.00 0.1759
887.10 0.1759
887.20 0.1758
887.30 0.1758
887.40 0.1758
887.50 0.1757
887.60 0.1757
887.70 0.1757
887.80 0.1756
887.90 0.1756
888.00 0.1756
888.10 0.1755
888.20 0.1755
888.30 0.1755
888.40 0.1754
888.50 0.1754
888.60 0.1754
888.70 0.1753
888.80 0.1753
888.90 0.1753
889.00 0.1752
889.10 0.1752
889.20 0.1752
889.30 0.1751
889.40 0.1751
889.50 0.1751
889.60 0.175
889.70 0.175
889.80 0.175
889.90 0.175
890.00 0.1749
890.10 0.1749
890.20 0.1749
890.30 0.1748
890.40 0.1748
890.50 0.1748
890.60 0.1747
890.70 0.1747
890.80 0.1747
890.90 0.1746
891.00 0.1746
891.10 0.1746
891.20 0.1745
891.30 0.1745
891.40 0.1745
891.50 0.1744
891.60 0.1744
891.70 0.1744
891.80 0.1743
891.90 0.1743
892.00 0.1743
892.10 0.1742
892.20 0.1742
892.30 0.1741
892.40 0.174
892.50 0.174
892.60 0.1739
892.70 0.1739
892.80 0.1738
892.90 0.1738
893.00 0.1737
893.10 0.1736
893.20 0.1736
893.30 0.1735
893.40 0.1735
893.50 0.1734
893.60 0.1734
893.70 0.1733
893.80 0.1732
893.90 0.1732
894.00 0.1731
894.10 0.1731
894.20 0.173
894.30 0.173
894.40 0.1729
894.50 0.1728
894.60 0.1728
894.70 0.1727
894.80 0.1727
894.90 0.1726
895.00 0.1726
895.10 0.1725
895.20 0.1724
895.30 0.1724
895.40 0.1723
895.50 0.1723
895.60 0.1722
895.70 0.1722
895.80 0.1721
895.90 0.172
896.00 0.172
896.10 0.1719
896.20 0.1719
896.30 0.1718
896.40 0.1718
896.50 0.1717
896.60 0.1717
896.70 0.1716
896.80 0.1715
896.90 0.1715
897.00 0.1714
897.10 0.1713
897.20 0.1712
897.30 0.171
897.40 0.1709
897.50 0.1708
897.60 0.1707
897.70 0.1705
897.80 0.1704
897.90 0.1703
898.00 0.1701
898.10 0.17
898.20 0.1699
898.30 0.1698
898.40 0.1696
898.50 0.1695
898.60 0.1694
898.70 0.1693
898.80 0.1691
898.90 0.169
899.00 0.1689
899.10 0.1687
899.20 0.1686
899.30 0.1685
899.40 0.1684
899.50 0.1682
899.60 0.1681
899.70 0.168
899.80 0.1679
899.90 0.1677
900.00 0.1676
900.10 0.1675
900.20 0.1674
900.30 0.1672
900.40 0.1671
900.50 0.167
900.60 0.1668
900.70 0.1667
900.80 0.1666
900.90 0.1665
901.00 0.1663
901.10 0.1662
901.20 0.1661
901.30 0.166
901.40 0.1658
901.50 0.1657
901.60 0.1656
901.70 0.1655
901.80 0.1653
901.90 0.1652
902.00 0.1651
902.10 0.1651
902.20 0.1651
902.30 0.1651
902.40 0.1651
902.50 0.1651
902.60 0.1651
902.70 0.1651
902.80 0.1651
902.90 0.1651
903.00 0.1651
903.10 0.1651
903.20 0.1651
903.30 0.1651
903.40 0.1651
903.50 0.1652
903.60 0.1652
903.70 0.1652
903.80 0.1652
903.90 0.1652
904.00 0.1652
904.10 0.1652
904.20 0.1652
904.30 0.1652
904.40 0.1652
904.50 0.1652
904.60 0.1652
904.70 0.1652
904.80 0.1652
904.90 0.1652
905.00 0.1652
905.10 0.1652
905.20 0.1652
905.30 0.1652
905.40 0.1652
905.50 0.1652
905.60 0.1652
905.70 0.1653
905.80 0.1653
905.90 0.1653
906.00 0.1653
906.10 0.1653
906.20 0.1653
906.30 0.1653
906.40 0.1653
906.50 0.1653
906.60 0.1653
906.70 0.1653
906.80 0.1653
906.90 0.1653
907.00 0.1653
907.10 0.1653
907.20 0.1652
907.30 0.1652
907.40 0.1652
907.50 0.1651
907.60 0.1651
907.70 0.1651
907.80 0.165
907.90 0.165
908.00 0.165
908.10 0.165
908.20 0.1649
908.30 0.1649
908.40 0.1649
908.50 0.1648
908.60 0.1648
908.70 0.1648
908.80 0.1647
908.90 0.1647
909.00 0.1647
909.10 0.1646
909.20 0.1646
909.30 0.1646
909.40 0.1645
909.50 0.1645
909.60 0.1645
909.70 0.1644
909.80 0.1644
909.90 0.1644
910.00 0.1643
910.10 0.1643
910.20 0.1643
910.30 0.1642
910.40 0.1642
910.50 0.1642
910.60 0.1641
910.70 0.1641
910.80 0.1641
910.90 0.1641
911.00 0.164
911.10 0.164
911.20 0.164
911.30 0.1639
911.40 0.1639
911.50 0.1639
911.60 0.1638
911.70 0.1638
911.80 0.1638
911.90 0.1637
912.00 0.1637
912.10 0.1636
912.20 0.1635
912.30 0.1635
912.40 0.1634
912.50 0.1633
912.60 0.1632
912.70 0.1631
912.80 0.1631
912.90 0.163
913.00 0.1629
913.10 0.1628
913.20 0.1627
913.30 0.1627
913.40 0.1626
913.50 0.1625
913.60 0.1624
913.70 0.1623
913.80 0.1623
913.90 0.1622
914.00 0.1621
914.10 0.162
914.20 0.1619
914.30 0.1619
914.40 0.1618
914.50 0.1617
914.60 0.1616
914.70 0.1616
914.80 0.1615
914.90 0.1614
915.00 0.1613
915.10 0.1612
915.20 0.1612
915.30 0.1611
915.40 0.161
915.50 0.1609
915.60 0.1608
915.70 0.1608
915.80 0.1607
915.90 0.1606
916.00 0.1605
916.10 0.1604
916.20 0.1604
916.30 0.1603
916.40 0.1602
916.50 0.1601
916.60 0.1601
916.70 0.16
916.80 0.1599
916.90 0.1598
917.00 0.1597
917.10 0.1596
917.20 0.1594
917.30 0.1593
917.40 0.1591
917.50 0.159
917.60 0.1588
917.70 0.1587
917.80 0.1585
917.90 0.1584
918.00 0.1582
918.10 0.1581
918.20 0.1579
918.30 0.1578
918.40 0.1576
918.50 0.1575
918.60 0.1573
918.70 0.1572
918.80 0.157
918.90 0.1568
919.00 0.1567
919.10 0.1565
919.20 0.1564
919.30 0.1562
919.40 0.1561
919.50 0.1559
919.60 0.1558
919.70 0.1556
919.80 0.1555
919.90 0.1553
920.00 0.1552
920.10 0.155
920.20 0.1549
920.30 0.1547
920.40 0.1546
920.50 0.1544
920.60 0.1543
920.70 0.1541
920.80 0.154
920.90 0.1538
921.00 0.1537
921.10 0.1535
921.20 0.1534
921.30 0.1532
921.40 0.1531
921.50 0.1529
921.60 0.1528
921.70 0.1526
921.80 0.1525
921.90 0.1523
922.00 0.1522
922.10 0.1521
922.20 0.1521
922.30 0.152
922.40 0.1519
922.50 0.1519
922.60 0.1518
922.70 0.1517
922.80 0.1517
922.90 0.1516
923.00 0.1516
923.10 0.1515
923.20 0.1514
923.30 0.1514
923.40 0.1513
923.50 0.1512
923.60 0.1512
923.70 0.1511
923.80 0.1511
923.90 0.151
924.00 0.1509
924.10 0.1509
924.20 0.1508
924.30 0.1507
924.40 0.1507
924.50 0.1506
924.60 0.1506
924.70 0.1505
924.80 0.1504
924.90 0.1504
925.00 0.1503
925.10 0.1502
925.20 0.1502
925.30 0.1501
925.40 0.1501
925.50 0.15
925.60 0.1499
925.70 0.1499
925.80 0.1498
925.90 0.1498
926.00 0.1497
926.10 0.1496
926.20 0.1496
926.30 0.1495
926.40 0.1494
926.50 0.1494
926.60 0.1493
926.70 0.1493
926.80 0.1492
926.90 0.1491
927.00 0.1491
927.10 0.1491
927.20 0.1492
927.30 0.1492
927.40 0.1493
927.50 0.1493
927.60 0.1494
927.70 0.1495
927.80 0.1495
927.90 0.1496
928.00 0.1496
928.10 0.1497
928.20 0.1497
928.30 0.1498
928.40 0.1498
928.50 0.1499
928.60 0.1499
928.70 0.15
928.80 0.15
928.90 0.1501
929.00 0.1501
929.10 0.1502
929.20 0.1502
929.30 0.1503
929.40 0.1504
929.50 0.1504
929.60 0.1505
929.70 0.1505
929.80 0.1506
929.90 0.1506
930.00 0.1507
930.10 0.1507
930.20 0.1508
930.30 0.1508
930.40 0.1509
930.50 0.1509
930.60 0.151
930.70 0.151
930.80 0.1511
930.90 0.1511
931.00 0.1512
931.10 0.1512
931.20 0.1513
931.30 0.1514
931.40 0.1514
931.50 0.1515
931.60 0.1515
931.70 0.1516
931.80 0.1516
931.90 0.1517
932.00 0.1517
932.10 0.1517
932.20 0.1517
932.30 0.1517
932.40 0.1517
932.50 0.1517
932.60 0.1517
932.70 0.1517
932.80 0.1517
932.90 0.1517
933.00 0.1517
933.10 0.1517
933.20 0.1517
933.30 0.1517
933.40 0.1517
933.50 0.1516
933.60 0.1516
933.70 0.1516
933.80 0.1516
933.90 0.1516
934.00 0.1516
934.10 0.1516
934.20 0.1516
934.30 0.1516
934.40 0.1516
934.50 0.1516
934.60 0.1515
934.70 0.1515
934.80 0.1515
934.90 0.1514
935.00 0.1514
935.10 0.1514
935.20 0.1514
935.30 0.1513
935.40 0.1513
935.50 0.1513
935.60 0.1512
935.70 0.1512
935.80 0.1512
935.90 0.1512
936.00 0.1511
936.10 0.1511
936.20 0.1511
936.30 0.151
936.40 0.151
936.50 0.151
936.60 0.151
936.70 0.1509
936.80 0.1509
936.90 0.1509
937.00 0.1509
937.10 0.1508
937.20 0.1508
937.30 0.1507
937.40 0.1507
937.50 0.1506
937.60 0.1506
937.70 0.1506
937.80 0.1505
937.90 0.1505
938.00 0.1504
938.10 0.1504
938.20 0.1503
938.30 0.1503
938.40 0.1502
938.50 0.1502
938.60 0.1501
938.70 0.1501
938.80 0.15
938.90 0.15
939.00 0.1499
939.10 0.1499
939.20 0.1498
939.30 0.1497
939.40 0.1497
939.50 0.1496
939.60 0.1496
939.70 0.1495
939.80 0.1495
939.90 0.1494
940.00 0.1494
940.10 0.1493
940.20 0.1493
940.30 0.1492
940.40 0.1491
940.50 0.1491
940.60 0.149
940.70 0.1489
940.80 0.1488
940.90 0.1488
941.00 0.1487
941.10 0.1486
941.20 0.1486
941.30 0.1485
941.40 0.1484
941.50 0.1484
941.60 0.1483
941.70 0.1482
941.80 0.1481
941.90 0.1481
942.00 0.148
942.10 0.1479
942.20 0.1478
942.30 0.1478
942.40 0.1477
942.50 0.1476
942.60 0.1475
942.70 0.1474
942.80 0.1473
942.90 0.1472
943.00 0.1471
943.10 0.147
943.20 0.1469
943.30 0.1468
943.40 0.1467
943.50 0.1466
943.60 0.1465
943.70 0.1464
943.80 0.1463
943.90 0.1462
944.00 0.1461
944.10 0.146
944.20 0.1459
944.30 0.1458
944.40 0.1457
944.50 0.1456
944.60 0.1454
944.70 0.1453
944.80 0.1452
944.90 0.1451
945.00 0.1449
945.10 0.1448
945.20 0.1447
945.30 0.1446
945.40 0.1444
945.50 0.1442
945.60 0.1441
945.70 0.1439
945.80 0.1438
945.90 0.1436
946.00 0.1434
946.10 0.1433
946.20 0.1431
946.30 0.1429
946.40 0.1428
946.50 0.1426
946.60 0.1425
946.70 0.1423
946.80 0.1421
946.90 0.142
947.00 0.1418
947.10 0.1416
947.20 0.1414
947.30 0.1412
947.40 0.141
947.50 0.1408
947.60 0.1405
947.70 0.1403
947.80 0.1401
947.90 0.1398
948.00 0.1396
948.10 0.1394
948.20 0.1391
948.30 0.1389
948.40 0.1387
948.50 0.1385
948.60 0.1382
948.70 0.138
948.80 0.1378
948.90 0.1375
949.00 0.1373
949.10 0.1371
949.20 0.1368
949.30 0.1366
949.40 0.1363
949.50 0.136
949.60 0.1357
949.70 0.1355
949.80 0.1352
949.90 0.1349
950.00 0.1346
950.10 0.1343
950.20 0.134
950.30 0.1338
950.40 0.1335
950.50 0.1332
950.60 0.1329
950.70 0.1326
950.80 0.1323
950.90 0.1321
951.00 0.1318
951.10 0.1315
951.20 0.1312
951.30 0.1309
951.40 0.1307
951.50 0.1304
951.60 0.1301
951.70 0.1299
951.80 0.1296
951.90 0.1293
952.00 0.129
952.10 0.1288
952.20 0.1286
952.30 0.1284
952.40 0.1282
952.50 0.128
952.60 0.1278
952.70 0.1276
952.80 0.1274
952.90 0.1274
953.00 0.1273
953.10 0.1272
953.20 0.1272
953.30 0.1271
953.40 0.1271
953.50 0.127
953.60 0.1275
953.70 0.128
953.80 0.1285
953.90 0.129
954.00 0.1297
954.10 0.1303
954.20 0.1312
954.30 0.1299
954.40 0.1279
954.50 0.127
954.60 0.1264
954.70 0.1257
954.80 0.1252
954.90 0.1247
955.00 0.1242
955.10 0.1237
955.20 0.1235
955.30 0.1233
955.40 0.1232
955.50 0.123
955.60 0.1228
955.70 0.1227
955.80 0.1225
955.90 0.1226
956.00 0.1227
956.10 0.1228
956.20 0.1229
956.30 0.123
956.40 0.1231
956.50 0.1232
956.60 0.1233
956.70 0.1234
956.80 0.1235
956.90 0.1236
957.00 0.1237
957.10 0.1238
957.20 0.124
957.30 0.1241
957.40 0.1243
957.50 0.1244
957.60 0.1246
957.70 0.1248
957.80 0.1249
957.90 0.1251
958.00 0.1252
958.10 0.1254
958.20 0.1255
958.30 0.1257
958.40 0.1259
958.50 0.126
958.60 0.1262
958.70 0.1263
958.80 0.1265
958.90 0.1266
959.00 0.1268
959.10 0.127
959.20 0.1271
959.30 0.1273
959.40 0.1274
959.50 0.1275
959.60 0.1277
959.70 0.1278
959.80 0.1279
959.90 0.1281
960.00 0.1282
960.10 0.1283
960.20 0.1285
960.30 0.1286
960.40 0.1287
960.50 0.1289
960.60 0.129
960.70 0.1291
960.80 0.1293
960.90 0.1294
961.00 0.1295
961.10 0.1297
961.20 0.1298
961.30 0.1299
961.40 0.13
961.50 0.1301
961.60 0.1302
961.70 0.1303
961.80 0.1305
961.90 0.1306
962.00 0.1307
962.10 0.1307
962.20 0.1308
962.30 0.1309
962.40 0.131
962.50 0.1311
962.60 0.1312
962.70 0.1313
962.80 0.1314
962.90 0.1314
963.00 0.1315
963.10 0.1316
963.20 0.1317
963.30 0.1318
963.40 0.1319
963.50 0.1319
963.60 0.132
963.70 0.1321
963.80 0.1321
963.90 0.1322
964.00 0.1323
964.10 0.1323
964.20 0.1324
964.30 0.1325
964.40 0.1325
964.50 0.1325
964.60 0.1326
964.70 0.1326
964.80 0.1327
964.90 0.1327
965.00 0.1328
965.10 0.1328
965.20 0.1329
965.30 0.1329
965.40 0.1329
965.50 0.133
965.60 0.133
965.70 0.1331
965.80 0.1331
965.90 0.1332
966.00 0.1332
966.10 0.1333
966.20 0.1333
966.30 0.1334
966.40 0.1334
966.50 0.1334
966.60 0.1334
966.70 0.1335
966.80 0.1335
966.90 0.1335
967.00 0.1335
967.10 0.1336
967.20 0.1336
967.30 0.1336
967.40 0.1336
967.50 0.1336
967.60 0.1336
967.70 0.1337
967.80 0.1337
967.90 0.1337
968.00 0.1337
968.10 0.1337
968.20 0.1337
968.30 0.1338
968.40 0.1338
968.50 0.1338
968.60 0.1338
968.70 0.1338
968.80 0.1338
968.90 0.1338
969.00 0.1338
969.10 0.1338
969.20 0.1338
969.30 0.1338
969.40 0.1338
969.50 0.1338
969.60 0.1338
969.70 0.1338
969.80 0.1338
969.90 0.1338
970.00 0.1338
970.10 0.1338
970.20 0.1338
970.30 0.1338
970.40 0.1338
970.50 0.1338
970.60 0.1338
970.70 0.1338
970.80 0.1337
970.90 0.1337
971.00 0.1337
971.10 0.1337
971.20 0.1337
971.30 0.1337
971.40 0.1337
971.50 0.1337
971.60 0.1337
971.70 0.1336
971.80 0.1336
971.90 0.1336
972.00 0.1336
972.10 0.1336
972.20 0.1336
972.30 0.1336
972.40 0.1335
972.50 0.1335
972.60 0.1335
972.70 0.1335
972.80 0.1334
972.90 0.1334
973.00 0.1334
973.10 0.1334
973.20 0.1334
973.30 0.1333
973.40 0.1333
973.50 0.1333
973.60 0.1333
973.70 0.1332
973.80 0.1332
973.90 0.1332
974.00 0.1332
974.10 0.1332
974.20 0.1331
974.30 0.1331
974.40 0.1331
974.50 0.133
974.60 0.133
974.70 0.133
974.80 0.1329
974.90 0.1329
975.00 0.1329
975.10 0.1328
975.20 0.1328
975.30 0.1328
975.40 0.1327
975.50 0.1327
975.60 0.1327
975.70 0.1326
975.80 0.1326
975.90 0.1326
976.00 0.1325
976.10 0.1325
976.20 0.1325
976.30 0.1324
976.40 0.1324
976.50 0.1324
976.60 0.1323
976.70 0.1323
976.80 0.1323
976.90 0.1322
977.00 0.1322
977.10 0.1322
977.20 0.1321
977.30 0.1321
977.40 0.132
977.50 0.132
977.60 0.1319
977.70 0.1319
977.80 0.1318
977.90 0.1318
978.00 0.1317
978.10 0.1317
978.20 0.1316
978.30 0.1316
978.40 0.1316
978.50 0.1315
978.60 0.1315
978.70 0.1314
978.80 0.1314
978.90 0.1313
979.00 0.1313
979.10 0.1312
979.20 0.1312
979.30 0.1311
979.40 0.1311
979.50 0.131
979.60 0.131
979.70 0.1309
979.80 0.1309
979.90 0.1308
980.00 0.1308
980.10 0.1307
980.20 0.1307
980.30 0.1307
980.40 0.1306
980.50 0.1306
980.60 0.1305
980.70 0.1305
980.80 0.1304
980.90 0.1304
981.00 0.1303
981.10 0.1303
981.20 0.1302
981.30 0.1302
981.40 0.1301
981.50 0.1301
981.60 0.13
981.70 0.13
981.80 0.13
981.90 0.1299
982.00 0.1299
982.10 0.1298
982.20 0.1297
982.30 0.1297
982.40 0.1296
982.50 0.1295
982.60 0.1295
982.70 0.1294
982.80 0.1294
982.90 0.1293
983.00 0.1292
983.10 0.1292
983.20 0.1291
983.30 0.129
983.40 0.129
983.50 0.1289
983.60 0.1289
983.70 0.1288
983.80 0.1287
983.90 0.1287
984.00 0.1286
984.10 0.1285
984.20 0.1285
984.30 0.1284
984.40 0.1284
984.50 0.1283
984.60 0.1282
984.70 0.1282
984.80 0.1281
984.90 0.128
985.00 0.1279
985.10 0.1278
985.20 0.1278
985.30 0.1277
985.40 0.1276
985.50 0.1275
985.60 0.1275
985.70 0.1274
985.80 0.1273
985.90 0.1272
986.00 0.1272
986.10 0.1271
986.20 0.127
986.30 0.1269
986.40 0.1268
986.50 0.1268
986.60 0.1267
986.70 0.1266
986.80 0.1265
986.90 0.1265
987.00 0.1264
987.10 0.1263
987.20 0.1262
987.30 0.1261
987.40 0.126
987.50 0.1259
987.60 0.1258
987.70 0.1257
987.80 0.1256
987.90 0.1255
988.00 0.1254
988.10 0.1253
988.20 0.1253
988.30 0.1252
988.40 0.1251
988.50 0.125
988.60 0.1249
988.70 0.1248
988.80 0.1247
988.90 0.1245
989.00 0.1244
989.10 0.1243
989.20 0.1242
989.30 0.1241
989.40 0.124
989.50 0.1239
989.60 0.1238
989.70 0.1236
989.80 0.1235
989.90 0.1234
990.00 0.1233
990.10 0.1232
990.20 0.1231
990.30 0.123
990.40 0.1229
990.50 0.1227
990.60 0.1226
990.70 0.1225
990.80 0.1224
990.90 0.1222
991.00 0.1221
991.10 0.122
991.20 0.1218
991.30 0.1217
991.40 0.1216
991.50 0.1214
991.60 0.1213
991.70 0.1212
991.80 0.121
991.90 0.1209
992.00 0.1208
992.10 0.1206
992.20 0.1204
992.30 0.1203
992.40 0.1201
992.50 0.12
992.60 0.1198
992.70 0.1197
992.80 0.1195
992.90 0.1193
993.00 0.1192
993.10 0.119
993.20 0.1188
993.30 0.1186
993.40 0.1185
993.50 0.1183
993.60 0.1181
993.70 0.1179
993.80 0.1178
993.90 0.1176
994.00 0.1174
994.10 0.1173
994.20 0.1171
994.30 0.1169
994.40 0.1167
994.50 0.1166
994.60 0.1164
994.70 0.1162
994.80 0.116
994.90 0.1158
995.00 0.1156
995.10 0.1154
995.20 0.1152
995.30 0.115
995.40 0.1148
995.50 0.1146
995.60 0.1144
995.70 0.1142
995.80 0.1139
995.90 0.1137
996.00 0.1135
996.10 0.1133
996.20 0.1131
996.30 0.1128
996.40 0.1126
996.50 0.1124
996.60 0.1122
996.70 0.1119
996.80 0.1117
996.90 0.1115
997.00 0.1113
997.10 0.111
997.20 0.1108
997.30 0.1105
997.40 0.1103
997.50 0.11
997.60 0.1098
997.70 0.1095
997.80 0.1093
997.90 0.109
998.00 0.1087
998.10 0.1084
998.20 0.1082
998.30 0.1079
998.40 0.1076
998.50 0.1074
998.60 0.1071
998.70 0.1068
998.80 0.1066
998.90 0.1063
999.00 0.106
999.10 0.1057
999.20 0.1055
999.30 0.1052
999.40 0.1049
999.50 0.1047
999.60 0.1044
999.70 0.1041
999.80 0.1038
999.90 0.1035
1000.00 0.1032
1000.10 0.1029
1000.20 0.1026
1000.30 0.1023
1000.40 0.102
1000.50 0.1017
1000.60 0.1014
1000.70 0.1011
1000.80 0.1008
1000.90 0.1005
1001.00 0.1003
1001.10 0.09996
1001.20 0.09966
1001.30 0.09936
1001.40 0.09907
1001.50 0.09877
1001.60 0.09848
1001.70 0.09819
1001.80 0.0979
1001.90 0.09761
1002.00 0.09732
1002.10 0.09706
1002.20 0.09681
1002.30 0.09656
1002.40 0.0963
1002.50 0.09605
1002.60 0.0958
1002.70 0.09555
1002.80 0.09529
1002.90 0.09504
1003.00 0.09479
1003.10 0.09454
1003.20 0.09444
1003.30 0.0944
1003.40 0.09435
1003.50 0.09431
1003.60 0.09426
1003.70 0.09422
1003.80 0.09417
1003.90 0.09431
1004.00 0.0945
1004.10 0.09469
1004.20 0.09489
1004.30 0.09543
1004.40 0.09609
1004.50 0.09679
1004.60 0.09753
1004.70 0.09593
1004.80 0.09515
1004.90 0.09449
1005.00 0.09383
1005.10 0.09351
1005.20 0.0933
1005.30 0.09309
1005.40 0.09287
1005.50 0.09283
1005.60 0.09285
1005.70 0.09286
1005.80 0.09288
1005.90 0.0929
1006.00 0.09291
1006.10 0.09293
1006.20 0.09305
1006.30 0.09322
1006.40 0.09338
1006.50 0.09354
1006.60 0.0937
1006.70 0.09386
1006.80 0.09402
1006.90 0.09418
1007.00 0.09435
1007.10 0.09454
1007.20 0.09474
1007.30 0.09494
1007.40 0.09513
1007.50 0.09533
1007.60 0.09553
1007.70 0.09573
1007.80 0.09593
1007.90 0.09613
1008.00 0.09633
1008.10 0.09653
1008.20 0.09673
1008.30 0.09694
1008.40 0.09714
1008.50 0.09734
1008.60 0.09754
1008.70 0.09774
1008.80 0.09794
1008.90 0.09814
1009.00 0.09834
1009.10 0.09854
1009.20 0.09874
1009.30 0.09894
1009.40 0.09914
1009.50 0.09934
1009.60 0.09954
1009.70 0.09972
1009.80 0.09988
1009.90 0.1
1010.00 0.1002
1010.10 0.1004
1010.20 0.1005
1010.30 0.1007
1010.40 0.1009
1010.50 0.101
1010.60 0.1012
1010.70 0.1014
1010.80 0.1015
1010.90 0.1017
1011.00 0.1019
1011.10 0.102
1011.20 0.1022
1011.30 0.1023
1011.40 0.1025
1011.50 0.1027
1011.60 0.1028
1011.70 0.103
1011.80 0.1031
1011.90 0.1033
1012.00 0.1034
1012.10 0.1035
1012.20 0.1036
1012.30 0.1038
1012.40 0.1039
1012.50 0.104
1012.60 0.1041
1012.70 0.1042
1012.80 0.1044
1012.90 0.1045
1013.00 0.1046
1013.10 0.1047
1013.20 0.1048
1013.30 0.105
1013.40 0.1051
1013.50 0.1052
1013.60 0.1053
1013.70 0.1054
1013.80 0.1055
1013.90 0.1056
1014.00 0.1057
1014.10 0.1058
1014.20 0.1059
1014.30 0.106
1014.40 0.1061
1014.50 0.1062
1014.60 0.1063
1014.70 0.1064
1014.80 0.1064
1014.90 0.1065
1015.00 0.1066
1015.10 0.1067
1015.20 0.1067
1015.30 0.1068
1015.40 0.1069
1015.50 0.107
1015.60 0.107
1015.70 0.1071
1015.80 0.1072
1015.90 0.1073
1016.00 0.1073
1016.10 0.1074
1016.20 0.1075
1016.30 0.1076
1016.40 0.1076
1016.50 0.1077
1016.60 0.1078
1016.70 0.1079
1016.80 0.1079
1016.90 0.108
1017.00 0.108
1017.10 0.1081
1017.20 0.1081
1017.30 0.1082
1017.40 0.1082
1017.50 0.1083
1017.60 0.1083
1017.70 0.1084
1017.80 0.1084
1017.90 0.1085
1018.00 0.1085
1018.10 0.1086
1018.20 0.1086
1018.30 0.1087
1018.40 0.1087
1018.50 0.1088
1018.60 0.1088
1018.70 0.1089
1018.80 0.1089
1018.90 0.109
1019.00 0.109
1019.10 0.109
1019.20 0.1091
1019.30 0.1091
1019.40 0.1091
1019.50 0.1092
1019.60 0.1092
1019.70 0.1092
1019.80 0.1093
1019.90 0.1093
1020.00 0.1093
1020.10 0.1094
1020.20 0.1094
1020.30 0.1094
1020.40 0.1095
1020.50 0.1095
1020.60 0.1095
1020.70 0.1096
1020.80 0.1096
1020.90 0.1096
1021.00 0.1096
1021.10 0.1097
1021.20 0.1097
1021.30 0.1097
1021.40 0.1097
1021.50 0.1097
1021.60 0.1098
1021.70 0.1098
1021.80 0.1098
1021.90 0.1098
1022.00 0.1099
1022.10 0.1099
1022.20 0.1099
1022.30 0.1099
1022.40 0.1099
1022.50 0.1099
1022.60 0.1099
1022.70 0.1099
1022.80 0.1099
1022.90 0.11
1023.00 0.11
1023.10 0.11
1023.20 0.11
1023.30 0.11
1023.40 0.11
1023.50 0.11
1023.60 0.11
1023.70 0.11
1023.80 0.1101
1023.90 0.1101
1024.00 0.1101
1024.10 0.1101
1024.20 0.1101
1024.30 0.1101
1024.40 0.1101
1024.50 0.1101
1024.60 0.1101
1024.70 0.1101
1024.80 0.1101
1024.90 0.1101
1025.00 0.1101
1025.10 0.1101
1025.20 0.1101
1025.30 0.1101
1025.40 0.1101
1025.50 0.1101
1025.60 0.1101
1025.70 0.1101
1025.80 0.1101
1025.90 0.1101
1026.00 0.1101
1026.10 0.1101
1026.20 0.1101
1026.30 0.1101
1026.40 0.1101
1026.50 0.1101
1026.60 0.1101
1026.70 0.1101
1026.80 0.1101
1026.90 0.1101
1027.00 0.1101
1027.10 0.1101
1027.20 0.1101
1027.30 0.1101
1027.40 0.1101
1027.50 0.1101
1027.60 0.1101
1027.70 0.1101
1027.80 0.1101
1027.90 0.11
1028.00 0.11
1028.10 0.11
1028.20 0.11
1028.30 0.11
1028.40 0.11
1028.50 0.11
1028.60 0.11
1028.70 0.1099
1028.80 0.1099
1028.90 0.1099
1029.00 0.1099
1029.10 0.1099
1029.20 0.1099
1029.30 0.1099
1029.40 0.1099
1029.50 0.1099
1029.60 0.1098
1029.70 0.1098
1029.80 0.1098
1029.90 0.1098
1030.00 0.1098
1030.10 0.1098
1030.20 0.1098
1030.30 0.1098
1030.40 0.1098
1030.50 0.1097
1030.60 0.1097
1030.70 0.1097
1030.80 0.1097
1030.90 0.1097
1031.00 0.1097
1031.10 0.1097
1031.20 0.1097
1031.30 0.1096
1031.40 0.1096
1031.50 0.1096
1031.60 0.1096
1031.70 0.1096
1031.80 0.1096
1031.90 0.1096
1032.00 0.1096
1032.10 0.1095
1032.20 0.1095
1032.30 0.1095
1032.40 0.1095
1032.50 0.1095
1032.60 0.1094
1032.70 0.1094
1032.80 0.1094
1032.90 0.1094
1033.00 0.1094
1033.10 0.1093
1033.20 0.1093
1033.30 0.1093
1033.40 0.1093
1033.50 0.1092
1033.60 0.1092
1033.70 0.1092
1033.80 0.1092
1033.90 0.1092
1034.00 0.1091
1034.10 0.1091
1034.20 0.1091
1034.30 0.1091
1034.40 0.1091
1034.50 0.109
1034.60 0.109
1034.70 0.109
1034.80 0.109
1034.90 0.1089
1035.00 0.1089
1035.10 0.1089
1035.20 0.1089
1035.30 0.1089
1035.40 0.1088
1035.50 0.1088
1035.60 0.1088
1035.70 0.1088
1035.80 0.1088
1035.90 0.1087
1036.00 0.1087
1036.10 0.1087
1036.20 0.1087
1036.30 0.1086
1036.40 0.1086
1036.50 0.1086
1036.60 0.1086
1036.70 0.1086
1036.80 0.1085
1036.90 0.1085
1037.00 0.1085
1037.10 0.1085
1037.20 0.1084
1037.30 0.1084
1037.40 0.1084
1037.50 0.1084
1037.60 0.1083
1037.70 0.1083
1037.80 0.1083
1037.90 0.1082
1038.00 0.1082
1038.10 0.1082
1038.20 0.1082
1038.30 0.1081
1038.40 0.1081
1038.50 0.1081
1038.60 0.108
1038.70 0.108
1038.80 0.108
1038.90 0.108
1039.00 0.1079
1039.10 0.1079
1039.20 0.1079
1039.30 0.1079
1039.40 0.1078
1039.50 0.1078
1039.60 0.1078
1039.70 0.1077
1039.80 0.1077
1039.90 0.1077
1040.00 0.1077
1040.10 0.1076
1040.20 0.1076
1040.30 0.1076
1040.40 0.1075
1040.50 0.1075
1040.60 0.1075
1040.70 0.1075
1040.80 0.1074
1040.90 0.1074
1041.00 0.1074
1041.10 0.1074
1041.20 0.1073
1041.30 0.1073
1041.40 0.1073
1041.50 0.1072
1041.60 0.1072
1041.70 0.1072
1041.80 0.1072
1041.90 0.1071
1042.00 0.1071
1042.10 0.1071
1042.20 0.107
1042.30 0.107
1042.40 0.107
1042.50 0.1069
1042.60 0.1069
1042.70 0.1069
1042.80 0.1068
1042.90 0.1068
1043.00 0.1068
1043.10 0.1068
1043.20 0.1067
1043.30 0.1067
1043.40 0.1067
1043.50 0.1066
1043.60 0.1066
1043.70 0.1066
1043.80 0.1065
1043.90 0.1065
1044.00 0.1065
1044.10 0.1064
1044.20 0.1064
1044.30 0.1064
1044.40 0.1063
1044.50 0.1063
1044.60 0.1063
1044.70 0.1062
1044.80 0.1062
1044.90 0.1062
1045.00 0.1061
1045.10 0.1061
1045.20 0.1061
1045.30 0.106
1045.40 0.106
1045.50 0.106
1045.60 0.106
1045.70 0.1059
1045.80 0.1059
1045.90 0.1059
1046.00 0.1058
1046.10 0.1058
1046.20 0.1058
1046.30 0.1057
1046.40 0.1057
1046.50 0.1057
1046.60 0.1056
1046.70 0.1056
1046.80 0.1056
1046.90 0.1055
1047.00 0.1055
1047.10 0.1055
1047.20 0.1054
1047.30 0.1054
1047.40 0.1054
1047.50 0.1053
1047.60 0.1053
1047.70 0.1053
1047.80 0.1052
1047.90 0.1052
1048.00 0.1052
1048.10 0.1051
1048.20 0.1051
1048.30 0.105
1048.40 0.105
1048.50 0.105
1048.60 0.1049
1048.70 0.1049
1048.80 0.1049
1048.90 0.1048
1049.00 0.1048
1049.10 0.1048
1049.20 0.1047
1049.30 0.1047
1049.40 0.1047
1049.50 0.1046
1049.60 0.1046
1049.70 0.1046
1049.80 0.1045
1049.90 0.1045
1050.00 0.1045
1050.10 0.1044
1050.20 0.1044
1050.30 0.1043
1050.40 0.1043
1050.50 0.1043
1050.60 0.1042
1050.70 0.1042
1050.80 0.1042
1050.90 0.1041
1051.00 0.1041
1051.10 0.1041
1051.20 0.104
1051.30 0.104
1051.40 0.104
1051.50 0.1039
1051.60 0.1039
1051.70 0.1039
1051.80 0.1038
1051.90 0.1038
1052.00 0.1038
1052.10 0.1037
1052.20 0.1037
1052.30 0.1036
1052.40 0.1036
1052.50 0.1036
1052.60 0.1035
1052.70 0.1035
1052.80 0.1034
1052.90 0.1034
1053.00 0.1034
1053.10 0.1033
1053.20 0.1033
1053.30 0.1032
1053.40 0.1032
1053.50 0.1032
1053.60 0.1031
1053.70 0.1031
1053.80 0.1031
1053.90 0.103
1054.00 0.103
1054.10 0.1029
1054.20 0.1029
1054.30 0.1029
1054.40 0.1028
1054.50 0.1028
1054.60 0.1027
1054.70 0.1027
1054.80 0.1027
1054.90 0.1026
1055.00 0.1026
1055.10 0.1026
1055.20 0.1025
1055.30 0.1025
1055.40 0.1024
1055.50 0.1024
1055.60 0.1024
1055.70 0.1023
1055.80 0.1023
1055.90 0.1022
1056.00 0.1022
1056.10 0.1022
1056.20 0.1021
1056.30 0.1021
1056.40 0.1021
1056.50 0.102
1056.60 0.102
1056.70 0.1019
1056.80 0.1019
1056.90 0.1019
1057.00 0.1018
1057.10 0.1018
1057.20 0.1017
1057.30 0.1017
1057.40 0.1017
1057.50 0.1016
1057.60 0.1016
1057.70 0.1015
1057.80 0.1015
1057.90 0.1014
1058.00 0.1014
1058.10 0.1014
1058.20 0.1013
1058.30 0.1013
1058.40 0.1012
1058.50 0.1012
1058.60 0.1011
1058.70 0.1011
1058.80 0.1011
1058.90 0.101
1059.00 0.101
1059.10 0.1009
1059.20 0.1009
1059.30 0.1008
1059.40 0.1008
1059.50 0.1008
1059.60 0.1007
1059.70 0.1007
1059.80 0.1006
1059.90 0.1006
1060.00 0.1005
1060.10 0.1005
1060.20 0.1005
1060.30 0.1004
1060.40 0.1004
1060.50 0.1003
1060.60 0.1003
1060.70 0.1002
1060.80 0.1002
1060.90 0.1002
1061.00 0.1001
1061.10 0.1001
1061.20 0.1
1061.30 0.09999
1061.40 0.09995
1061.50 0.09991
1061.60 0.09986
1061.70 0.09982
1061.80 0.09978
1061.90 0.09974
1062.00 0.09969
1062.10 0.09965
1062.20 0.0996
1062.30 0.09955
1062.40 0.0995
1062.50 0.09945
1062.60 0.0994
1062.70 0.09935
1062.80 0.0993
1062.90 0.09925
1063.00 0.0992
1063.10 0.09915
1063.20 0.0991
1063.30 0.09905
1063.40 0.09901
1063.50 0.09896
1063.60 0.09891
1063.70 0.09886
1063.80 0.09881
1063.90 0.09876
1064.00 0.09871
1064.10 0.09866
1064.20 0.09861
1064.30 0.09856
1064.40 0.09851
1064.50 0.09847
1064.60 0.09842
1064.70 0.09837
1064.80 0.09832
1064.90 0.09827
1065.00 0.09822
1065.10 0.09817
1065.20 0.09812
1065.30 0.09807
1065.40 0.09803
1065.50 0.09798
1065.60 0.09793
1065.70 0.09788
1065.80 0.09783
1065.90 0.09778
1066.00 0.09773
1066.10 0.09768
1066.20 0.09764
1066.30 0.09759
1066.40 0.09754
1066.50 0.09749
1066.60 0.09744
1066.70 0.09739
1066.80 0.09734
1066.90 0.0973
1067.00 0.09725
1067.10 0.09719
1067.20 0.09713
1067.30 0.09707
1067.40 0.09701
1067.50 0.09695
1067.60 0.09689
1067.70 0.09684
1067.80 0.09678
1067.90 0.09672
1068.00 0.09666
1068.10 0.0966
1068.20 0.09654
1068.30 0.09648
1068.40 0.09643
1068.50 0.09637
1068.60 0.09631
1068.70 0.09625
1068.80 0.09619
1068.90 0.09613
1069.00 0.09607
1069.10 0.09602
1069.20 0.09596
1069.30 0.0959
1069.40 0.09584
1069.50 0.09578
1069.60 0.09572
1069.70 0.09567
1069.80 0.09561
1069.90 0.09555
1070.00 0.09549
1070.10 0.09543
1070.20 0.09537
1070.30 0.09532
1070.40 0.09526
1070.50 0.0952
1070.60 0.09514
1070.70 0.09508
1070.80 0.09503
1070.90 0.09497
1071.00 0.09491
1071.10 0.09485
1071.20 0.09479
1071.30 0.09473
1071.40 0.09468
1071.50 0.09462
1071.60 0.09456
1071.70 0.0945
1071.80 0.09445
1071.90 0.09439
1072.00 0.09433
1072.10 0.09426
1072.20 0.09419
1072.30 0.09413
1072.40 0.09406
1072.50 0.09399
1072.60 0.09393
1072.70 0.09386
1072.80 0.09379
1072.90 0.09373
1073.00 0.09366
1073.10 0.09359
1073.20 0.09352
1073.30 0.09346
1073.40 0.09339
1073.50 0.09332
1073.60 0.09324
1073.70 0.09316
1073.80 0.09309
1073.90 0.09301
1074.00 0.09293
1074.10 0.09285
1074.20 0.09278
1074.30 0.0927
1074.40 0.09262
1074.50 0.09255
1074.60 0.09247
1074.70 0.09239
1074.80 0.09231
1074.90 0.09224
1075.00 0.09216
1075.10 0.09208
1075.20 0.092
1075.30 0.09193
1075.40 0.09185
1075.50 0.09177
1075.60 0.0917
1075.70 0.09162
1075.80 0.09154
1075.90 0.09146
1076.00 0.09139
1076.10 0.09131
1076.20 0.09123
1076.30 0.09116
1076.40 0.09108
1076.50 0.091
1076.60 0.09093
1076.70 0.09085
1076.80 0.09077
1076.90 0.0907
1077.00 0.09062
1077.10 0.09053
1077.20 0.09045
1077.30 0.09036
1077.40 0.09027
1077.50 0.09018
1077.60 0.09009
1077.70 0.09
1077.80 0.0899
1077.90 0.08981
1078.00 0.08971
1078.10 0.08962
1078.20 0.08952
1078.30 0.08943
1078.40 0.08933
1078.50 0.08924
1078.60 0.08915
1078.70 0.08905
1078.80 0.08896
1078.90 0.08886
1079.00 0.08877
1079.10 0.08868
1079.20 0.08858
1079.30 0.08849
1079.40 0.08839
1079.50 0.08829
1079.60 0.08819
1079.70 0.08808
1079.80 0.08797
1079.90 0.08786
1080.00 0.08775
1080.10 0.08764
1080.20 0.08753
1080.30 0.08743
1080.40 0.08732
1080.50 0.08721
1080.60 0.0871
1080.70 0.08699
1080.80 0.08689
1080.90 0.08678
1081.00 0.08667
1081.10 0.08656
1081.20 0.08645
1081.30 0.08634
1081.40 0.08624
1081.50 0.08612
1081.60 0.086
1081.70 0.08588
1081.80 0.08576
1081.90 0.08564
1082.00 0.08552
1082.10 0.08539
1082.20 0.08526
1082.30 0.08513
1082.40 0.085
1082.50 0.08487
1082.60 0.08474
1082.70 0.08462
1082.80 0.08449
1082.90 0.08436
1083.00 0.08423
1083.10 0.0841
1083.20 0.08397
1083.30 0.08384
1083.40 0.08371
1083.50 0.08358
1083.60 0.08343
1083.70 0.08329
1083.80 0.08315
1083.90 0.083
1084.00 0.08286
1084.10 0.08272
1084.20 0.08257
1084.30 0.08243
1084.40 0.08229
1084.50 0.08214
1084.60 0.08197
1084.70 0.0818
1084.80 0.08164
1084.90 0.08147
1085.00 0.08131
1085.10 0.08114
1085.20 0.08098
1085.30 0.08081
1085.40 0.08064
1085.50 0.08048
1085.60 0.08031
1085.70 0.08015
1085.80 0.07998
1085.90 0.07982
1086.00 0.07965
1086.10 0.07949
1086.20 0.07932
1086.30 0.07916
1086.40 0.07899
1086.50 0.07882
1086.60 0.07863
1086.70 0.07845
1086.80 0.07826
1086.90 0.07808
1087.00 0.07789
1087.10 0.07768
1087.20 0.07748
1087.30 0.07728
1087.40 0.07707
1087.50 0.07687
1087.60 0.07666
1087.70 0.07646
1087.80 0.07626
1087.90 0.07605
1088.00 0.07585
1088.10 0.07565
1088.20 0.07544
1088.30 0.07524
1088.40 0.07504
1088.50 0.07482
1088.60 0.07459
1088.70 0.07437
1088.80 0.07414
1088.90 0.07391
1089.00 0.07368
1089.10 0.07345
1089.20 0.07322
1089.30 0.07299
1089.40 0.07276
1089.50 0.07253
1089.60 0.0723
1089.70 0.07208
1089.80 0.07185
1089.90 0.07162
1090.00 0.07139
1090.10 0.07116
1090.20 0.07093
1090.30 0.07071
1090.40 0.07048
1090.50 0.07025
1090.60 0.07001
1090.70 0.06978
1090.80 0.06954
1090.90 0.06931
1091.00 0.06907
1091.10 0.06884
1091.20 0.0686
1091.30 0.06837
1091.40 0.06814
1091.50 0.0679
1091.60 0.06767
1091.70 0.06743
1091.80 0.0672
1091.90 0.06696
1092.00 0.06673
1092.10 0.06652
1092.20 0.06631
1092.30 0.0661
1092.40 0.06588
1092.50 0.06567
1092.60 0.06546
1092.70 0.06527
1092.80 0.06513
1092.90 0.06499
1093.00 0.06485
1093.10 0.06479
1093.20 0.0649
1093.30 0.06503
1093.40 0.06548
1093.50 0.06567
1093.60 0.0651
1093.70 0.06485
1093.80 0.06471
1093.90 0.06465
1094.00 0.06475
1094.10 0.06485
1094.20 0.06495
1094.30 0.06508
1094.40 0.06525
1094.50 0.06542
1094.60 0.06559
1094.70 0.06576
1094.80 0.06594
1094.90 0.06611
1095.00 0.06629
1095.10 0.06648
1095.20 0.06667
1095.30 0.06686
1095.40 0.06705
1095.50 0.06724
1095.60 0.06743
1095.70 0.06762
1095.80 0.06781
1095.90 0.068
1096.00 0.06819
1096.10 0.06839
1096.20 0.06858
1096.30 0.06877
1096.40 0.06896
1096.50 0.06915
1096.60 0.06933
1096.70 0.06952
1096.80 0.06971
1096.90 0.0699
1097.00 0.07008
1097.10 0.07026
1097.20 0.07044
1097.30 0.07061
1097.40 0.07079
1097.50 0.07097
1097.60 0.07114
1097.70 0.07132
1097.80 0.07149
1097.90 0.07167
1098.00 0.07184
1098.10 0.07202
1098.20 0.0722
1098.30 0.07237
1098.40 0.07255
1098.50 0.07271
1098.60 0.07286
1098.70 0.073
1098.80 0.07315
1098.90 0.07329
1099.00 0.07344
1099.10 0.07358
1099.20 0.07373
1099.30 0.07387
1099.40 0.07402
1099.50 0.07416
1099.60 0.07431
1099.70 0.07445
1099.80 0.0746
1099.90 0.07474
1100.00 0.07489
1100.10 0.07503
1100.20 0.07518
1100.30 0.07532
1100.40 0.07547
1100.50 0.0756
1100.60 0.07571
1100.70 0.07583
1100.80 0.07594
1100.90 0.07605
1101.00 0.07616
1101.10 0.07628
1101.20 0.07639
1101.30 0.0765
1101.40 0.07661
1101.50 0.07673
1101.60 0.07684
1101.70 0.07695
1101.80 0.07706
1101.90 0.07717
1102.00 0.07729
1102.10 0.07738
1102.20 0.07748
1102.30 0.07757
1102.40 0.07767
1102.50 0.07776
1102.60 0.07785
1102.70 0.07794
1102.80 0.07802
1102.90 0.07811
1103.00 0.07819
1103.10 0.07828
1103.20 0.07837
1103.30 0.07845
1103.40 0.07854
1103.50 0.07862
1103.60 0.07869
1103.70 0.07876
1103.80 0.07882
1103.90 0.07889
1104.00 0.07896
1104.10 0.07903
1104.20 0.0791
1104.30 0.07917
1104.40 0.07923
1104.50 0.0793
1104.60 0.07937
1104.70 0.07944
1104.80 0.07951
1104.90 0.07957
1105.00 0.07964
1105.10 0.07971
1105.20 0.07978
1105.30 0.07985
1105.40 0.07991
1105.50 0.07998
1105.60 0.08003
1105.70 0.08008
1105.80 0.08013
1105.90 0.08018
1106.00 0.08023
1106.10 0.08028
1106.20 0.08033
1106.30 0.08038
1106.40 0.08043
1106.50 0.08048
1106.60 0.08053
1106.70 0.08058
1106.80 0.08063
1106.90 0.08068
1107.00 0.08073
1107.10 0.08077
1107.20 0.08081
1107.30 0.08086
1107.40 0.0809
1107.50 0.08094
1107.60 0.08098
1107.70 0.08101
1107.80 0.08104
1107.90 0.08108
1108.00 0.08111
1108.10 0.08114
1108.20 0.08118
1108.30 0.08121
1108.40 0.08124
1108.50 0.08128
1108.60 0.08131
1108.70 0.08135
1108.80 0.08138
1108.90 0.08141
1109.00 0.08145
1109.10 0.08148
1109.20 0.08151
1109.30 0.08155
1109.40 0.08158
1109.50 0.08161
1109.60 0.08163
1109.70 0.08165
1109.80 0.08167
1109.90 0.08169
1110.00 0.08172
1110.10 0.08174
1110.20 0.08176
1110.30 0.08178
1110.40 0.0818
1110.50 0.08182
1110.60 0.08184
1110.70 0.08186
1110.80 0.08188
1110.90 0.08191
1111.00 0.08193
1111.10 0.08195
1111.20 0.08197
1111.30 0.08199
1111.40 0.08201
1111.50 0.08203
1111.60 0.08205
1111.70 0.08207
1111.80 0.0821
1111.90 0.08212
1112.00 0.08214
1112.10 0.08215
1112.20 0.08216
1112.30 0.08218
1112.40 0.08219
1112.50 0.0822
1112.60 0.08221
1112.70 0.08223
1112.80 0.08224
1112.90 0.08225
1113.00 0.08227
1113.10 0.08228
1113.20 0.08229
1113.30 0.0823
1113.40 0.08232
1113.50 0.08233
1113.60 0.08233
1113.70 0.08233
1113.80 0.08234
1113.90 0.08234
1114.00 0.08234
1114.10 0.08235
1114.20 0.08235
1114.30 0.08235
1114.40 0.08236
1114.50 0.08236
1114.60 0.08236
1114.70 0.08237
1114.80 0.08237
1114.90 0.08238
1115.00 0.08238
1115.10 0.08238
1115.20 0.08239
1115.30 0.08239
1115.40 0.08239
1115.50 0.0824
1115.60 0.0824
1115.70 0.0824
1115.80 0.08241
1115.90 0.08241
1116.00 0.08241
1116.10 0.08242
1116.20 0.08242
1116.30 0.08243
1116.40 0.08243
1116.50 0.08243
1116.60 0.08244
1116.70 0.08244
1116.80 0.08244
1116.90 0.08245
1117.00 0.08245
1117.10 0.08244
1117.20 0.08244
1117.30 0.08243
1117.40 0.08243
1117.50 0.08242
1117.60 0.08241
1117.70 0.08241
1117.80 0.0824
1117.90 0.0824
1118.00 0.08239
1118.10 0.08238
1118.20 0.08238
1118.30 0.08237
1118.40 0.08237
1118.50 0.08236
1118.60 0.08235
1118.70 0.08235
1118.80 0.08234
1118.90 0.08234
1119.00 0.08233
1119.10 0.08232
1119.20 0.08232
1119.30 0.08231
1119.40 0.08231
1119.50 0.0823
1119.60 0.08229
1119.70 0.08229
1119.80 0.08228
1119.90 0.08228
1120.00 0.08227
1120.10 0.08226
1120.20 0.08226
1120.30 0.08225
1120.40 0.08224
1120.50 0.08224
1120.60 0.08223
1120.70 0.08223
1120.80 0.08222
1120.90 0.08221
1121.00 0.08221
1121.10 0.0822
1121.20 0.0822
1121.30 0.08219
1121.40 0.08218
1121.50 0.08218
1121.60 0.08217
1121.70 0.08217
1121.80 0.08216
1121.90 0.08215
1122.00 0.08215
1122.10 0.08214
1122.20 0.08212
1122.30 0.08211
1122.40 0.0821
1122.50 0.08208
1122.60 0.08207
1122.70 0.08206
1122.80 0.08204
1122.90 0.08203
1123.00 0.08202
1123.10 0.082
1123.20 0.08199
1123.30 0.08198
1123.40 0.08197
1123.50 0.08195
1123.60 0.08194
1123.70 0.08193
1123.80 0.08191
1123.90 0.0819
1124.00 0.08189
1124.10 0.08187
1124.20 0.08186
1124.30 0.08185
1124.40 0.08184
1124.50 0.08182
1124.60 0.08181
1124.70 0.0818
1124.80 0.08178
1124.90 0.08177
1125.00 0.08176
1125.10 0.08174
1125.20 0.08173
1125.30 0.08172
1125.40 0.08171
1125.50 0.08169
1125.60 0.08168
1125.70 0.08167
1125.80 0.08165
1125.90 0.08164
1126.00 0.08163
1126.10 0.08161
1126.20 0.0816
1126.30 0.08159
1126.40 0.08158
1126.50 0.08156
1126.60 0.08155
1126.70 0.08154
1126.80 0.08152
1126.90 0.08151
1127.00 0.0815
1127.10 0.08148
1127.20 0.08146
1127.30 0.08145
1127.40 0.08143
1127.50 0.08141
1127.60 0.08139
1127.70 0.08138
1127.80 0.08136
1127.90 0.08134
1128.00 0.08132
1128.10 0.08131
1128.20 0.08129
1128.30 0.08127
1128.40 0.08125
1128.50 0.08124
1128.60 0.08122
1128.70 0.0812
1128.80 0.08118
1128.90 0.08117
1129.00 0.08115
1129.10 0.08113
1129.20 0.08111
1129.30 0.0811
1129.40 0.08108
1129.50 0.08106
1129.60 0.08105
1129.70 0.08103
1129.80 0.08101
1129.90 0.08099
1130.00 0.08098
1130.10 0.08096
1130.20 0.08094
1130.30 0.08092
1130.40 0.08091
1130.50 0.08089
1130.60 0.08087
1130.70 0.08085
1130.80 0.08084
1130.90 0.08082
1131.00 0.0808
1131.10 0.08079
1131.20 0.08077
1131.30 0.08075
1131.40 0.08073
1131.50 0.08072
1131.60 0.0807
1131.70 0.08068
1131.80 0.08066
1131.90 0.08065
1132.00 0.08063
1132.10 0.08061
1132.20 0.08059
1132.30 0.08057
1132.40 0.08055
1132.50 0.08053
1132.60 0.08051
1132.70 0.08049
1132.80 0.08047
1132.90 0.08045
1133.00 0.08043
1133.10 0.08041
1133.20 0.08039
1133.30 0.08038
1133.40 0.08036
1133.50 0.08034
1133.60 0.08032
1133.70 0.0803
1133.80 0.08028
1133.90 0.08026
1134.00 0.08024
1134.10 0.08022
1134.20 0.0802
1134.30 0.08018
1134.40 0.08016
1134.50 0.08014
1134.60 0.08012
1134.70 0.0801
1134.80 0.08008
1134.90 0.08006
1135.00 0.08004
1135.10 0.08002
1135.20 0.08
1135.30 0.07999
1135.40 0.07997
1135.50 0.07995
1135.60 0.07993
1135.70 0.07991
1135.80 0.07989
1135.90 0.07987
1136.00 0.07985
1136.10 0.07983
1136.20 0.07981
1136.30 0.07979
1136.40 0.07977
1136.50 0.07975
1136.60 0.07973
1136.70 0.07971
1136.80 0.07969
1136.90 0.07968
1137.00 0.07966
1137.10 0.07963
1137.20 0.07961
1137.30 0.07959
1137.40 0.07957
1137.50 0.07955
1137.60 0.07953
1137.70 0.07951
1137.80 0.07949
1137.90 0.07946
1138.00 0.07944
1138.10 0.07942
1138.20 0.0794
1138.30 0.07938
1138.40 0.07936
1138.50 0.07934
1138.60 0.07932
1138.70 0.0793
1138.80 0.07927
1138.90 0.07925
1139.00 0.07923
1139.10 0.07921
1139.20 0.07919
1139.30 0.07917
1139.40 0.07915
1139.50 0.07913
1139.60 0.07911
1139.70 0.07908
1139.80 0.07906
1139.90 0.07904
1140.00 0.07902
1140.10 0.079
1140.20 0.07898
1140.30 0.07896
1140.40 0.07894
1140.50 0.07892
1140.60 0.07889
1140.70 0.07887
1140.80 0.07885
1140.90 0.07883
1141.00 0.07881
1141.10 0.07879
1141.20 0.07877
1141.30 0.07875
1141.40 0.07873
1141.50 0.07871
1141.60 0.07869
1141.70 0.07866
1141.80 0.07864
1141.90 0.07862
1142.00 0.0786
1142.10 0.07858
1142.20 0.07856
1142.30 0.07854
1142.40 0.07851
1142.50 0.07849
1142.60 0.07847
1142.70 0.07845
1142.80 0.07843
1142.90 0.0784
1143.00 0.07838
1143.10 0.07836
1143.20 0.07834
1143.30 0.07832
1143.40 0.0783
1143.50 0.07827
1143.60 0.07825
1143.70 0.07823
1143.80 0.07821
1143.90 0.07819
1144.00 0.07817
1144.10 0.07814
1144.20 0.07812
1144.30 0.0781
1144.40 0.07808
1144.50 0.07806
1144.60 0.07804
1144.70 0.07801
1144.80 0.07799
1144.90 0.07797
1145.00 0.07795
1145.10 0.07793
1145.20 0.07791
1145.30 0.07788
1145.40 0.07786
1145.50 0.07784
1145.60 0.07782
1145.70 0.0778
1145.80 0.07778
1145.90 0.07775
1146.00 0.07773
1146.10 0.07771
1146.20 0.07769
1146.30 0.07767
1146.40 0.07765
1146.50 0.07762
1146.60 0.0776
1146.70 0.07758
1146.80 0.07756
1146.90 0.07754
1147.00 0.07752
1147.10 0.07749
1147.20 0.07747
1147.30 0.07745
1147.40 0.07743
1147.50 0.07741
1147.60 0.07738
1147.70 0.07736
1147.80 0.07734
1147.90 0.07732
1148.00 0.0773
1148.10 0.07727
1148.20 0.07725
1148.30 0.07723
1148.40 0.07721
1148.50 0.07719
1148.60 0.07716
1148.70 0.07714
1148.80 0.07712
1148.90 0.0771
1149.00 0.07708
1149.10 0.07705
1149.20 0.07703
1149.30 0.07701
1149.40 0.07699
1149.50 0.07697
1149.60 0.07694
1149.70 0.07692
1149.80 0.0769
1149.90 0.07688
1150.00 0.07686
1150.10 0.07683
1150.20 0.07681
1150.30 0.07679
1150.40 0.07677
1150.50 0.07675
1150.60 0.07672
1150.70 0.0767
1150.80 0.07668
1150.90 0.07666
1151.00 0.07664
1151.10 0.07662
1151.20 0.07659
1151.30 0.07657
1151.40 0.07655
1151.50 0.07653
1151.60 0.07651
1151.70 0.07648
1151.80 0.07646
1151.90 0.07644
1152.00 0.07642
1152.10 0.0764
1152.20 0.07637
1152.30 0.07635
1152.40 0.07633
1152.50 0.07631
1152.60 0.07628
1152.70 0.07626
1152.80 0.07624
1152.90 0.07622
1153.00 0.0762
1153.10 0.07617
1153.20 0.07615
1153.30 0.07613
1153.40 0.07611
1153.50 0.07608
1153.60 0.07606
1153.70 0.07604
1153.80 0.07602
1153.90 0.076
1154.00 0.07597
1154.10 0.07595
1154.20 0.07593
1154.30 0.07591
1154.40 0.07589
1154.50 0.07586
1154.60 0.07584
1154.70 0.07582
1154.80 0.0758
1154.90 0.07577
1155.00 0.07575
1155.10 0.07573
1155.20 0.07571
1155.30 0.07569
1155.40 0.07566
1155.50 0.07564
1155.60 0.07562
1155.70 0.0756
1155.80 0.07558
1155.90 0.07555
1156.00 0.07553
1156.10 0.07551
1156.20 0.07549
1156.30 0.07547
1156.40 0.07544
1156.50 0.07542
1156.60 0.0754
1156.70 0.07538
1156.80 0.07536
1156.90 0.07533
1157.00 0.07531
1157.10 0.07529
1157.20 0.07527
1157.30 0.07524
1157.40 0.07522
1157.50 0.0752
1157.60 0.07518
1157.70 0.07516
1157.80 0.07513
1157.90 0.07511
1158.00 0.07509
1158.10 0.07507
1158.20 0.07504
1158.30 0.07502
1158.40 0.075
1158.50 0.07498
1158.60 0.07496
1158.70 0.07493
1158.80 0.07491
1158.90 0.07489
1159.00 0.07487
1159.10 0.07484
1159.20 0.07482
1159.30 0.0748
1159.40 0.07478
1159.50 0.07476
1159.60 0.07473
1159.70 0.07471
1159.80 0.07469
1159.90 0.07467
1160.00 0.07465
1160.10 0.07462
1160.20 0.0746
1160.30 0.07458
1160.40 0.07456
1160.50 0.07454
1160.60 0.07451
1160.70 0.07449
1160.80 0.07447
1160.90 0.07445
1161.00 0.07443
1161.10 0.0744
1161.20 0.07438
1161.30 0.07436
1161.40 0.07434
1161.50 0.07432
1161.60 0.07429
1161.70 0.07427
1161.80 0.07425
1161.90 0.07423
1162.00 0.07421
1162.10 0.07418
1162.20 0.07416
1162.30 0.07414
1162.40 0.07412
1162.50 0.0741
1162.60 0.07407
1162.70 0.07405
1162.80 0.07403
1162.90 0.07401
1163.00 0.07399
1163.10 0.07396
1163.20 0.07394
1163.30 0.07392
1163.40 0.0739
1163.50 0.07388
1163.60 0.07385
1163.70 0.07383
1163.80 0.07381
1163.90 0.07379
1164.00 0.07377
1164.10 0.07375
1164.20 0.07372
1164.30 0.0737
1164.40 0.07368
1164.50 0.07366
1164.60 0.07364
1164.70 0.07361
1164.80 0.07359
1164.90 0.07357
1165.00 0.07355
1165.10 0.07353
1165.20 0.07351
1165.30 0.07348
1165.40 0.07346
1165.50 0.07344
1165.60 0.07342
1165.70 0.0734
1165.80 0.07337
1165.90 0.07335
1166.00 0.07333
1166.10 0.07331
1166.20 0.07329
1166.30 0.07327
1166.40 0.07324
1166.50 0.07322
1166.60 0.0732
1166.70 0.07318
1166.80 0.07316
1166.90 0.07314
1167.00 0.07311
1167.10 0.07309
1167.20 0.07307
1167.30 0.07305
1167.40 0.07303
1167.50 0.073
1167.60 0.07298
1167.70 0.07296
1167.80 0.07294
1167.90 0.07292
1168.00 0.0729
1168.10 0.07287
1168.20 0.07285
1168.30 0.07283
1168.40 0.07281
1168.50 0.07279
1168.60 0.07276
1168.70 0.07274
1168.80 0.07272
1168.90 0.0727
1169.00 0.07268
1169.10 0.07266
1169.20 0.07263
1169.30 0.07261
1169.40 0.07259
1169.50 0.07257
1169.60 0.07255
1169.70 0.07253
1169.80 0.0725
1169.90 0.07248
1170.00 0.07246
1170.10 0.07244
1170.20 0.07242
1170.30 0.07239
1170.40 0.07237
1170.50 0.07235
1170.60 0.07233
1170.70 0.07231
1170.80 0.07229
1170.90 0.07226
1171.00 0.07224
1171.10 0.07222
1171.20 0.0722
1171.30 0.07218
1171.40 0.07216
1171.50 0.07214
1171.60 0.07211
1171.70 0.07209
1171.80 0.07207
1171.90 0.07205
1172.00 0.07203
1172.10 0.07201
1172.20 0.07198
1172.30 0.07196
1172.40 0.07194
1172.50 0.07192
1172.60 0.0719
1172.70 0.07188
1172.80 0.07185
1172.90 0.07183
1173.00 0.07181
1173.10 0.07179
1173.20 0.07177
1173.30 0.07175
1173.40 0.07172
1173.50 0.0717
1173.60 0.07168
1173.70 0.07166
1173.80 0.07164
1173.90 0.07162
1174.00 0.07159
1174.10 0.07157
1174.20 0.07155
1174.30 0.07153
1174.40 0.07151
1174.50 0.07149
1174.60 0.07147
1174.70 0.07144
1174.80 0.07142
1174.90 0.0714
1175.00 0.07138
1175.10 0.07136
1175.20 0.07134
1175.30 0.07132
1175.40 0.07129
1175.50 0.07127
1175.60 0.07125
1175.70 0.07123
1175.80 0.07121
1175.90 0.07119
1176.00 0.07117
1176.10 0.07114
1176.20 0.07112
1176.30 0.0711
1176.40 0.07108
1176.50 0.07106
1176.60 0.07104
1176.70 0.07102
1176.80 0.07099
1176.90 0.07097
1177.00 0.07095
1177.10 0.07093
1177.20 0.07091
1177.30 0.07089
1177.40 0.07087
1177.50 0.07084
1177.60 0.07082
1177.70 0.0708
1177.80 0.07078
1177.90 0.07076
1178.00 0.07074
1178.10 0.07072
1178.20 0.0707
1178.30 0.07067
1178.40 0.07065
1178.50 0.07063
1178.60 0.07061
1178.70 0.07059
1178.80 0.07057
1178.90 0.07055
1179.00 0.07053
1179.10 0.0705
1179.20 0.07048
1179.30 0.07046
1179.40 0.07044
1179.50 0.07042
1179.60 0.0704
1179.70 0.07038
1179.80 0.07036
1179.90 0.07033
1180.00 0.07031
1180.10 0.07029
1180.20 0.07027
1180.30 0.07025
1180.40 0.07023
1180.50 0.07021
1180.60 0.07019
1180.70 0.07016
1180.80 0.07014
1180.90 0.07012
1181.00 0.0701
1181.10 0.07008
1181.20 0.07006
1181.30 0.07004
1181.40 0.07002
1181.50 0.07
1181.60 0.06997
1181.70 0.06995
1181.80 0.06993
1181.90 0.06991
1182.00 0.06989
1182.10 0.06987
1182.20 0.06985
1182.30 0.06983
1182.40 0.06981
1182.50 0.06979
1182.60 0.06976
1182.70 0.06974
1182.80 0.06972
1182.90 0.0697
1183.00 0.06968
1183.10 0.06966
1183.20 0.06964
1183.30 0.06962
1183.40 0.0696
1183.50 0.06957
1183.60 0.06955
1183.70 0.06953
1183.80 0.06951
1183.90 0.06949
1184.00 0.06947
1184.10 0.06945
1184.20 0.06943
1184.30 0.06941
1184.40 0.06939
1184.50 0.06937
1184.60 0.06934
1184.70 0.06932
1184.80 0.0693
1184.90 0.06928
1185.00 0.06926
1185.10 0.06924
1185.20 0.06922
1185.30 0.0692
1185.40 0.06918
1185.50 0.06916
1185.60 0.06914
1185.70 0.06911
1185.80 0.06909
1185.90 0.06907
1186.00 0.06905
1186.10 0.06903
1186.20 0.06901
1186.30 0.06899
1186.40 0.06897
1186.50 0.06895
1186.60 0.06893
1186.70 0.06891
1186.80 0.06889
1186.90 0.06886
1187.00 0.06884
1187.10 0.06882
1187.20 0.0688
1187.30 0.06878
1187.40 0.06876
1187.50 0.06874
1187.60 0.06872
1187.70 0.0687
1187.80 0.06868
1187.90 0.06866
1188.00 0.06864
1188.10 0.06861
1188.20 0.06859
1188.30 0.06857
1188.40 0.06855
1188.50 0.06853
1188.60 0.06851
1188.70 0.06849
1188.80 0.06847
1188.90 0.06845
1189.00 0.06843
1189.10 0.06841
1189.20 0.06839
1189.30 0.06837
1189.40 0.06835
1189.50 0.06832
1189.60 0.0683
1189.70 0.06828
1189.80 0.06826
1189.90 0.06824
1190.00 0.06822
1190.10 0.0682
1190.20 0.06818
1190.30 0.06816
1190.40 0.06814
1190.50 0.06812
1190.60 0.0681
1190.70 0.06808
1190.80 0.06806
1190.90 0.06804
1191.00 0.06801
1191.10 0.06799
1191.20 0.06797
1191.30 0.06795
1191.40 0.06793
1191.50 0.06791
1191.60 0.06789
1191.70 0.06787
1191.80 0.06785
1191.90 0.06783
1192.00 0.06781
1192.10 0.06779
1192.20 0.06777
1192.30 0.06775
1192.40 0.06773
1192.50 0.06771
1192.60 0.06769
1192.70 0.06767
1192.80 0.06764
1192.90 0.06762
1193.00 0.0676
1193.10 0.06758
1193.20 0.06756
1193.30 0.06754
1193.40 0.06752
1193.50 0.0675
1193.60 0.06748
1193.70 0.06746
1193.80 0.06744
1193.90 0.06742
1194.00 0.0674
1194.10 0.06738
1194.20 0.06736
1194.30 0.06734
1194.40 0.06732
1194.50 0.0673
1194.60 0.06728
1194.70 0.06726
1194.80 0.06723
1194.90 0.06721
1195.00 0.06719
1195.10 0.06717
1195.20 0.06715
1195.30 0.06713
1195.40 0.06711
1195.50 0.06709
1195.60 0.06707
1195.70 0.06705
1195.80 0.06703
1195.90 0.06701
1196.00 0.06699
1196.10 0.06697
1196.20 0.06695
1196.30 0.06693
1196.40 0.06691
1196.50 0.06689
1196.60 0.06687
1196.70 0.06685
1196.80 0.06683
1196.90 0.06681
1197.00 0.06679
1197.10 0.06677
1197.20 0.06675
1197.30 0.06673
1197.40 0.06671
1197.50 0.06669
1197.60 0.06667
1197.70 0.06664
1197.80 0.06662
1197.90 0.0666
1198.00 0.06658
1198.10 0.06656
1198.20 0.06654
1198.30 0.06652
1198.40 0.0665
1198.50 0.06648
1198.60 0.06646
1198.70 0.06644
1198.80 0.06642
1198.90 0.0664
1199.00 0.06638
1199.10 0.06636
1199.20 0.06634
1199.30 0.06632
1199.40 0.0663
1199.50 0.06628
1199.60 0.06626
1199.70 0.06624
1199.80 0.06622
1199.90 0.0662
1200.00 0
