# Version 2.1 - nm, norm@500 to 1, cut digits, bergeron_15500_80.dat_15500
# Wavelength(nm)  Flambda(ergs/cm^s/s/nm)
300.00 2.382
300.10 2.38
300.20 2.378
300.30 2.376
300.40 2.374
300.50 2.373
300.60 2.371
300.70 2.369
300.80 2.367
300.90 2.365
301.00 2.363
301.10 2.361
301.20 2.359
301.30 2.357
301.40 2.355
301.50 2.353
301.60 2.352
301.70 2.35
301.80 2.348
301.90 2.346
302.00 2.344
302.10 2.342
302.20 2.34
302.30 2.338
302.40 2.336
302.50 2.335
302.60 2.333
302.70 2.331
302.80 2.329
302.90 2.327
303.00 2.325
303.10 2.323
303.20 2.321
303.30 2.32
303.40 2.318
303.50 2.316
303.60 2.314
303.70 2.312
303.80 2.31
303.90 2.309
304.00 2.307
304.10 2.305
304.20 2.303
304.30 2.301
304.40 2.299
304.50 2.297
304.60 2.296
304.70 2.294
304.80 2.292
304.90 2.29
305.00 2.288
305.10 2.287
305.20 2.285
305.30 2.283
305.40 2.281
305.50 2.279
305.60 2.278
305.70 2.276
305.80 2.274
305.90 2.272
306.00 2.27
306.10 2.269
306.20 2.267
306.30 2.265
306.40 2.263
306.50 2.261
306.60 2.26
306.70 2.258
306.80 2.256
306.90 2.254
307.00 2.252
307.10 2.251
307.20 2.249
307.30 2.247
307.40 2.245
307.50 2.243
307.60 2.242
307.70 2.24
307.80 2.238
307.90 2.236
308.00 2.235
308.10 2.233
308.20 2.231
308.30 2.229
308.40 2.227
308.50 2.226
308.60 2.224
308.70 2.222
308.80 2.22
308.90 2.219
309.00 2.217
309.10 2.215
309.20 2.213
309.30 2.212
309.40 2.21
309.50 2.208
309.60 2.206
309.70 2.205
309.80 2.203
309.90 2.201
310.00 2.199
310.10 2.198
310.20 2.196
310.30 2.194
310.40 2.193
310.50 2.191
310.60 2.189
310.70 2.187
310.80 2.186
310.90 2.184
311.00 2.182
311.10 2.181
311.20 2.179
311.30 2.177
311.40 2.175
311.50 2.174
311.60 2.172
311.70 2.17
311.80 2.169
311.90 2.167
312.00 2.165
312.10 2.164
312.20 2.162
312.30 2.16
312.40 2.159
312.50 2.157
312.60 2.155
312.70 2.153
312.80 2.152
312.90 2.15
313.00 2.148
313.10 2.147
313.20 2.145
313.30 2.143
313.40 2.142
313.50 2.14
313.60 2.138
313.70 2.137
313.80 2.135
313.90 2.133
314.00 2.132
314.10 2.13
314.20 2.128
314.30 2.127
314.40 2.125
314.50 2.123
314.60 2.122
314.70 2.12
314.80 2.118
314.90 2.117
315.00 2.115
315.10 2.114
315.20 2.112
315.30 2.11
315.40 2.109
315.50 2.107
315.60 2.105
315.70 2.104
315.80 2.102
315.90 2.1
316.00 2.099
316.10 2.097
316.20 2.096
316.30 2.094
316.40 2.092
316.50 2.091
316.60 2.089
316.70 2.088
316.80 2.086
316.90 2.084
317.00 2.083
317.10 2.081
317.20 2.079
317.30 2.078
317.40 2.076
317.50 2.075
317.60 2.073
317.70 2.071
317.80 2.07
317.90 2.068
318.00 2.067
318.10 2.065
318.20 2.064
318.30 2.062
318.40 2.06
318.50 2.059
318.60 2.057
318.70 2.056
318.80 2.054
318.90 2.052
319.00 2.051
319.10 2.049
319.20 2.048
319.30 2.046
319.40 2.045
319.50 2.043
319.60 2.041
319.70 2.04
319.80 2.038
319.90 2.037
320.00 2.035
320.10 2.034
320.20 2.032
320.30 2.031
320.40 2.029
320.50 2.027
320.60 2.026
320.70 2.024
320.80 2.023
320.90 2.021
321.00 2.02
321.10 2.018
321.20 2.017
321.30 2.015
321.40 2.014
321.50 2.012
321.60 2.01
321.70 2.009
321.80 2.007
321.90 2.006
322.00 2.004
322.10 2.003
322.20 2.001
322.30 2
322.40 1.998
322.50 1.997
322.60 1.995
322.70 1.994
322.80 1.992
322.90 1.991
323.00 1.989
323.10 1.988
323.20 1.986
323.30 1.985
323.40 1.983
323.50 1.982
323.60 1.98
323.70 1.979
323.80 1.977
323.90 1.976
324.00 1.974
324.10 1.973
324.20 1.971
324.30 1.97
324.40 1.968
324.50 1.967
324.60 1.965
324.70 1.964
324.80 1.962
324.90 1.961
325.00 1.959
325.10 1.958
325.20 1.956
325.30 1.955
325.40 1.953
325.50 1.952
325.60 1.95
325.70 1.949
325.80 1.947
325.90 1.946
326.00 1.944
326.10 1.943
326.20 1.941
326.30 1.94
326.40 1.939
326.50 1.937
326.60 1.936
326.70 1.934
326.80 1.933
326.90 1.931
327.00 1.93
327.10 1.928
327.20 1.927
327.30 1.925
327.40 1.924
327.50 1.922
327.60 1.921
327.70 1.92
327.80 1.918
327.90 1.917
328.00 1.915
328.10 1.914
328.20 1.912
328.30 1.911
328.40 1.91
328.50 1.908
328.60 1.907
328.70 1.905
328.80 1.904
328.90 1.902
329.00 1.901
329.10 1.899
329.20 1.898
329.30 1.897
329.40 1.895
329.50 1.894
329.60 1.892
329.70 1.891
329.80 1.89
329.90 1.888
330.00 1.887
330.10 1.885
330.20 1.884
330.30 1.883
330.40 1.881
330.50 1.88
330.60 1.878
330.70 1.877
330.80 1.876
330.90 1.874
331.00 1.873
331.10 1.871
331.20 1.87
331.30 1.869
331.40 1.867
331.50 1.866
331.60 1.864
331.70 1.863
331.80 1.862
331.90 1.86
332.00 1.859
332.10 1.858
332.20 1.856
332.30 1.855
332.40 1.853
332.50 1.852
332.60 1.851
332.70 1.849
332.80 1.848
332.90 1.846
333.00 1.845
333.10 1.844
333.20 1.842
333.30 1.841
333.40 1.84
333.50 1.838
333.60 1.837
333.70 1.836
333.80 1.834
333.90 1.833
334.00 1.831
334.10 1.83
334.20 1.829
334.30 1.827
334.40 1.826
334.50 1.825
334.60 1.823
334.70 1.822
334.80 1.821
334.90 1.819
335.00 1.818
335.10 1.817
335.20 1.815
335.30 1.814
335.40 1.813
335.50 1.811
335.60 1.81
335.70 1.809
335.80 1.807
335.90 1.806
336.00 1.805
336.10 1.803
336.20 1.802
336.30 1.801
336.40 1.799
336.50 1.798
336.60 1.797
336.70 1.795
336.80 1.794
336.90 1.793
337.00 1.791
337.10 1.79
337.20 1.789
337.30 1.787
337.40 1.786
337.50 1.785
337.60 1.783
337.70 1.782
337.80 1.781
337.90 1.78
338.00 1.778
338.10 1.777
338.20 1.776
338.30 1.774
338.40 1.773
338.50 1.772
338.60 1.77
338.70 1.769
338.80 1.768
338.90 1.767
339.00 1.765
339.10 1.764
339.20 1.763
339.30 1.761
339.40 1.76
339.50 1.759
339.60 1.758
339.70 1.756
339.80 1.755
339.90 1.754
340.00 1.752
340.10 1.751
340.20 1.75
340.30 1.749
340.40 1.747
340.50 1.746
340.60 1.745
340.70 1.744
340.80 1.742
340.90 1.741
341.00 1.74
341.10 1.738
341.20 1.737
341.30 1.736
341.40 1.735
341.50 1.733
341.60 1.732
341.70 1.731
341.80 1.73
341.90 1.728
342.00 1.727
342.10 1.726
342.20 1.725
342.30 1.723
342.40 1.722
342.50 1.721
342.60 1.72
342.70 1.718
342.80 1.717
342.90 1.716
343.00 1.715
343.10 1.713
343.20 1.712
343.30 1.711
343.40 1.71
343.50 1.708
343.60 1.707
343.70 1.706
343.80 1.705
343.90 1.703
344.00 1.702
344.10 1.701
344.20 1.7
344.30 1.699
344.40 1.697
344.50 1.696
344.60 1.695
344.70 1.694
344.80 1.692
344.90 1.691
345.00 1.69
345.10 1.689
345.20 1.688
345.30 1.686
345.40 1.685
345.50 1.684
345.60 1.683
345.70 1.681
345.80 1.68
345.90 1.679
346.00 1.678
346.10 1.677
346.20 1.675
346.30 1.674
346.40 1.673
346.50 1.672
346.60 1.671
346.70 1.669
346.80 1.668
346.90 1.667
347.00 1.666
347.10 1.665
347.20 1.663
347.30 1.662
347.40 1.661
347.50 1.66
347.60 1.659
347.70 1.658
347.80 1.656
347.90 1.655
348.00 1.654
348.10 1.653
348.20 1.652
348.30 1.65
348.40 1.649
348.50 1.648
348.60 1.647
348.70 1.646
348.80 1.644
348.90 1.643
349.00 1.642
349.10 1.641
349.20 1.64
349.30 1.639
349.40 1.637
349.50 1.636
349.60 1.635
349.70 1.634
349.80 1.633
349.90 1.632
350.00 1.63
350.10 1.629
350.20 1.628
350.30 1.627
350.40 1.626
350.50 1.625
350.60 1.624
350.70 1.622
350.80 1.621
350.90 1.62
351.00 1.619
351.10 1.618
351.20 1.617
351.30 1.615
351.40 1.614
351.50 1.613
351.60 1.612
351.70 1.611
351.80 1.61
351.90 1.609
352.00 1.607
352.10 1.606
352.20 1.605
352.30 1.604
352.40 1.603
352.50 1.602
352.60 1.601
352.70 1.599
352.80 1.598
352.90 1.597
353.00 1.596
353.10 1.595
353.20 1.594
353.30 1.593
353.40 1.592
353.50 1.59
353.60 1.589
353.70 1.588
353.80 1.587
353.90 1.586
354.00 1.585
354.10 1.584
354.20 1.583
354.30 1.581
354.40 1.58
354.50 1.579
354.60 1.578
354.70 1.577
354.80 1.576
354.90 1.575
355.00 1.574
355.10 1.573
355.20 1.571
355.30 1.57
355.40 1.569
355.50 1.568
355.60 1.567
355.70 1.566
355.80 1.565
355.90 1.564
356.00 1.563
356.10 1.561
356.20 1.56
356.30 1.559
356.40 1.558
356.50 1.557
356.60 1.556
356.70 1.555
356.80 1.554
356.90 1.553
357.00 1.552
357.10 1.551
357.20 1.549
357.30 1.548
357.40 1.547
357.50 1.546
357.60 1.545
357.70 1.544
357.80 1.543
357.90 1.542
358.00 1.541
358.10 1.54
358.20 1.539
358.30 1.538
358.40 1.536
358.50 1.535
358.60 1.534
358.70 1.533
358.80 1.532
358.90 1.531
359.00 1.53
359.10 1.529
359.20 1.528
359.30 1.527
359.40 1.526
359.50 1.525
359.60 1.524
359.70 1.523
359.80 1.521
359.90 1.52
360.00 1.519
360.10 1.518
360.20 1.517
360.30 1.516
360.40 1.515
360.50 1.514
360.60 1.513
360.70 1.512
360.80 1.511
360.90 1.51
361.00 1.509
361.10 1.508
361.20 1.507
361.30 1.506
361.40 1.505
361.50 1.504
361.60 1.503
361.70 1.501
361.80 1.5
361.90 1.499
362.00 1.498
362.10 1.497
362.20 1.496
362.30 1.495
362.40 1.494
362.50 1.493
362.60 1.492
362.70 1.491
362.80 1.49
362.90 1.489
363.00 1.488
363.10 1.487
363.20 1.486
363.30 1.485
363.40 1.483
363.50 1.482
363.60 1.481
363.70 1.48
363.80 1.479
363.90 1.478
364.00 1.477
364.10 1.476
364.20 1.475
364.30 1.473
364.40 1.472
364.50 1.471
364.60 1.47
364.70 1.469
364.80 1.468
364.90 1.467
365.00 1.465
365.10 1.464
365.20 1.463
365.30 1.462
365.40 1.461
365.50 1.46
365.60 1.459
365.70 1.458
365.80 1.456
365.90 1.455
366.00 1.454
366.10 1.453
366.20 1.452
366.30 1.451
366.40 1.45
366.50 1.449
366.60 1.448
366.70 1.447
366.80 1.446
366.90 1.445
367.00 1.444
367.10 1.443
367.20 1.442
367.30 1.441
367.40 1.44
367.50 1.439
367.60 1.438
367.70 1.437
367.80 1.436
367.90 1.435
368.00 1.434
368.10 1.433
368.20 1.432
368.30 1.431
368.40 1.43
368.50 1.429
368.60 1.428
368.70 1.427
368.80 1.426
368.90 1.426
369.00 1.425
369.10 1.424
369.20 1.423
369.30 1.422
369.40 1.421
369.50 1.42
369.60 1.419
369.70 1.418
369.80 1.418
369.90 1.417
370.00 1.416
370.10 1.415
370.20 1.415
370.30 1.415
370.40 1.414
370.50 1.414
370.60 1.413
370.70 1.413
370.80 1.412
370.90 1.412
371.00 1.412
371.10 1.411
371.20 1.411
371.30 1.41
371.40 1.41
371.50 1.409
371.60 1.409
371.70 1.409
371.80 1.408
371.90 1.408
372.00 1.407
372.10 1.408
372.20 1.408
372.30 1.408
372.40 1.409
372.50 1.409
372.60 1.409
372.70 1.41
372.80 1.41
372.90 1.41
373.00 1.41
373.10 1.411
373.20 1.411
373.30 1.411
373.40 1.412
373.50 1.412
373.60 1.412
373.70 1.413
373.80 1.413
373.90 1.413
374.00 1.414
374.10 1.414
374.20 1.415
374.30 1.416
374.40 1.417
374.50 1.417
374.60 1.418
374.70 1.419
374.80 1.42
374.90 1.42
375.00 1.421
375.10 1.422
375.20 1.423
375.30 1.423
375.40 1.424
375.50 1.425
375.60 1.426
375.70 1.427
375.80 1.427
375.90 1.428
376.00 1.429
376.10 1.429
376.20 1.429
376.30 1.43
376.40 1.43
376.50 1.43
376.60 1.431
376.70 1.431
376.80 1.431
376.90 1.432
377.00 1.432
377.10 1.431
377.20 1.43
377.30 1.429
377.40 1.428
377.50 1.427
377.60 1.426
377.70 1.425
377.80 1.424
377.90 1.423
378.00 1.422
378.10 1.417
378.20 1.411
378.30 1.406
378.40 1.401
378.50 1.396
378.60 1.39
378.70 1.385
378.80 1.38
378.90 1.375
379.00 1.37
379.10 1.366
379.20 1.362
379.30 1.359
379.40 1.355
379.50 1.351
379.60 1.348
379.70 1.344
379.80 1.34
379.90 1.337
380.00 1.333
380.10 1.338
380.20 1.343
380.30 1.349
380.40 1.354
380.50 1.359
380.60 1.364
380.70 1.369
380.80 1.374
380.90 1.379
381.00 1.385
381.10 1.386
381.20 1.388
381.30 1.389
381.40 1.391
381.50 1.392
381.60 1.391
381.70 1.389
381.80 1.386
381.90 1.382
382.00 1.378
382.10 1.372
382.20 1.365
382.30 1.352
382.40 1.34
382.50 1.327
382.60 1.315
382.70 1.302
382.80 1.289
382.90 1.277
383.00 1.264
383.10 1.252
383.20 1.239
383.30 1.231
383.40 1.22
383.50 1.209
383.60 1.211
383.70 1.223
383.80 1.233
383.90 1.243
384.00 1.254
384.10 1.27
384.20 1.286
384.30 1.302
384.40 1.317
384.50 1.332
384.60 1.345
384.70 1.357
384.80 1.367
384.90 1.376
385.00 1.383
385.10 1.389
385.20 1.395
385.30 1.4
385.40 1.403
385.50 1.406
385.60 1.408
385.70 1.409
385.80 1.409
385.90 1.409
386.00 1.407
386.10 1.406
386.20 1.403
386.30 1.4
386.40 1.396
386.50 1.391
386.60 1.385
386.70 1.379
386.80 1.372
386.90 1.364
387.00 1.356
387.10 1.347
387.20 1.337
387.30 1.326
387.40 1.315
387.50 1.302
387.60 1.288
387.70 1.273
387.80 1.255
387.90 1.237
388.00 1.217
388.10 1.195
388.20 1.17
388.30 1.145
388.40 1.118
388.50 1.093
388.60 1.071
388.70 1.055
388.80 1.04
388.90 1.027
389.00 1.038
389.10 1.052
389.20 1.069
389.30 1.09
389.40 1.114
389.50 1.141
389.60 1.167
389.70 1.192
389.80 1.215
389.90 1.236
390.00 1.255
390.10 1.274
390.20 1.29
390.30 1.306
390.40 1.321
390.50 1.334
390.60 1.347
390.70 1.359
390.80 1.371
390.90 1.382
391.00 1.393
391.10 1.402
391.20 1.412
391.30 1.421
391.40 1.429
391.50 1.437
391.60 1.445
391.70 1.451
391.80 1.458
391.90 1.463
392.00 1.468
392.10 1.472
392.20 1.476
392.30 1.478
392.40 1.48
392.50 1.482
392.60 1.483
392.70 1.483
392.80 1.482
392.90 1.481
393.00 1.478
393.10 1.476
393.20 1.472
393.30 1.467
393.40 1.462
393.50 1.456
393.60 1.45
393.70 1.443
393.80 1.434
393.90 1.426
394.00 1.416
394.10 1.406
394.20 1.395
394.30 1.384
394.40 1.371
394.50 1.358
394.60 1.345
394.70 1.331
394.80 1.316
394.90 1.302
395.00 1.286
395.10 1.27
395.20 1.254
395.30 1.237
395.40 1.22
395.50 1.202
395.60 1.183
395.70 1.164
395.80 1.144
395.90 1.124
396.00 1.102
396.10 1.08
396.20 1.055
396.30 1.029
396.40 1
396.50 0.9678
396.60 0.9353
396.70 0.9027
396.80 0.8764
396.90 0.8483
397.00 0.8183
397.10 0.8454
397.20 0.8715
397.30 0.8964
397.40 0.9278
397.50 0.9594
397.60 0.9912
397.70 1.019
397.80 1.045
397.90 1.069
398.00 1.091
398.10 1.111
398.20 1.131
398.30 1.151
398.40 1.169
398.50 1.187
398.60 1.205
398.70 1.222
398.80 1.239
398.90 1.255
399.00 1.271
399.10 1.287
399.20 1.302
399.30 1.317
399.40 1.332
399.50 1.347
399.60 1.361
399.70 1.375
399.80 1.389
399.90 1.402
400.00 1.415
400.10 1.427
400.20 1.439
400.30 1.45
400.40 1.461
400.50 1.472
400.60 1.482
400.70 1.492
400.80 1.501
400.90 1.511
401.00 1.519
401.10 1.527
401.20 1.535
401.30 1.542
401.40 1.549
401.50 1.556
401.60 1.562
401.70 1.568
401.80 1.573
401.90 1.578
402.00 1.583
402.10 1.587
402.20 1.591
402.30 1.594
402.40 1.598
402.50 1.6
402.60 1.603
402.70 1.605
402.80 1.606
402.90 1.608
403.00 1.609
403.10 1.609
403.20 1.61
403.30 1.609
403.40 1.609
403.50 1.608
403.60 1.607
403.70 1.605
403.80 1.603
403.90 1.601
404.00 1.598
404.10 1.595
404.20 1.592
404.30 1.588
404.40 1.584
404.50 1.58
404.60 1.575
404.70 1.57
404.80 1.564
404.90 1.558
405.00 1.552
405.10 1.545
405.20 1.538
405.30 1.53
405.40 1.523
405.50 1.514
405.60 1.506
405.70 1.497
405.80 1.487
405.90 1.477
406.00 1.467
406.10 1.457
406.20 1.446
406.30 1.434
406.40 1.422
406.50 1.41
406.60 1.398
406.70 1.385
406.80 1.372
406.90 1.358
407.00 1.344
407.10 1.329
407.20 1.315
407.30 1.299
407.40 1.284
407.50 1.268
407.60 1.251
407.70 1.235
407.80 1.218
407.90 1.201
408.00 1.184
408.10 1.166
408.20 1.148
408.30 1.13
408.40 1.112
408.50 1.094
408.60 1.075
408.70 1.057
408.80 1.038
408.90 1.019
409.00 0.9993
409.10 0.9797
409.20 0.9597
409.30 0.9393
409.40 0.917
409.50 0.8929
409.60 0.8672
409.70 0.8376
409.80 0.8068
409.90 0.7747
410.00 0.7411
410.10 0.711
410.20 0.6845
410.30 0.7231
410.40 0.7583
410.50 0.7899
410.60 0.8206
410.70 0.8497
410.80 0.877
410.90 0.9003
411.00 0.9222
411.10 0.9426
411.20 0.9616
411.30 0.9802
411.40 0.9984
411.50 1.016
411.60 1.034
411.70 1.052
411.80 1.069
411.90 1.086
412.00 1.103
412.10 1.119
412.20 1.136
412.30 1.152
412.40 1.168
412.50 1.184
412.60 1.2
412.70 1.215
412.80 1.23
412.90 1.245
413.00 1.259
413.10 1.273
413.20 1.287
413.30 1.3
413.40 1.313
413.50 1.326
413.60 1.338
413.70 1.351
413.80 1.362
413.90 1.374
414.00 1.385
414.10 1.396
414.20 1.406
414.30 1.416
414.40 1.426
414.50 1.436
414.60 1.445
414.70 1.454
414.80 1.463
414.90 1.471
415.00 1.48
415.10 1.487
415.20 1.495
415.30 1.503
415.40 1.51
415.50 1.517
415.60 1.523
415.70 1.53
415.80 1.536
415.90 1.542
416.00 1.548
416.10 1.553
416.20 1.559
416.30 1.564
416.40 1.569
416.50 1.573
416.60 1.578
416.70 1.582
416.80 1.587
416.90 1.591
417.00 1.594
417.10 1.598
417.20 1.602
417.30 1.605
417.40 1.608
417.50 1.611
417.60 1.614
417.70 1.617
417.80 1.62
417.90 1.622
418.00 1.624
418.10 1.627
418.20 1.629
418.30 1.631
418.40 1.633
418.50 1.634
418.60 1.636
418.70 1.638
418.80 1.639
418.90 1.64
419.00 1.642
419.10 1.643
419.20 1.644
419.30 1.645
419.40 1.645
419.50 1.646
419.60 1.647
419.70 1.647
419.80 1.648
419.90 1.648
420.00 1.649
420.10 1.649
420.20 1.649
420.30 1.649
420.40 1.649
420.50 1.649
420.60 1.649
420.70 1.649
420.80 1.648
420.90 1.648
421.00 1.647
421.10 1.647
421.20 1.646
421.30 1.646
421.40 1.645
421.50 1.644
421.60 1.643
421.70 1.642
421.80 1.641
421.90 1.64
422.00 1.639
422.10 1.638
422.20 1.637
422.30 1.635
422.40 1.634
422.50 1.633
422.60 1.631
422.70 1.629
422.80 1.628
422.90 1.626
423.00 1.624
423.10 1.623
423.20 1.621
423.30 1.619
423.40 1.617
423.50 1.614
423.60 1.612
423.70 1.61
423.80 1.608
423.90 1.605
424.00 1.603
424.10 1.6
424.20 1.598
424.30 1.595
424.40 1.592
424.50 1.589
424.60 1.586
424.70 1.583
424.80 1.58
424.90 1.577
425.00 1.574
425.10 1.571
425.20 1.567
425.30 1.564
425.40 1.56
425.50 1.556
425.60 1.553
425.70 1.549
425.80 1.545
425.90 1.541
426.00 1.536
426.10 1.532
426.20 1.527
426.30 1.522
426.40 1.517
426.50 1.512
426.60 1.507
426.70 1.502
426.80 1.497
426.90 1.492
427.00 1.487
427.10 1.481
427.20 1.475
427.30 1.47
427.40 1.464
427.50 1.458
427.60 1.452
427.70 1.445
427.80 1.439
427.90 1.432
428.00 1.425
428.10 1.418
428.20 1.411
428.30 1.404
428.40 1.396
428.50 1.389
428.60 1.381
428.70 1.373
428.80 1.365
428.90 1.356
429.00 1.348
429.10 1.339
429.20 1.33
429.30 1.321
429.40 1.311
429.50 1.302
429.60 1.292
429.70 1.282
429.80 1.272
429.90 1.261
430.00 1.251
430.10 1.24
430.20 1.229
430.30 1.218
430.40 1.206
430.50 1.195
430.60 1.183
430.70 1.171
430.80 1.159
430.90 1.146
431.00 1.133
431.10 1.12
431.20 1.107
431.30 1.094
431.40 1.081
431.50 1.067
431.60 1.053
431.70 1.039
431.80 1.025
431.90 1.011
432.00 0.9958
432.10 0.9809
432.20 0.9656
432.30 0.9501
432.40 0.9342
432.50 0.9177
432.60 0.9008
432.70 0.8835
432.80 0.8659
432.90 0.8485
433.00 0.8311
433.10 0.8144
433.20 0.7976
433.30 0.7806
433.40 0.7619
433.50 0.7415
433.60 0.7196
433.70 0.6923
433.80 0.6616
433.90 0.6275
434.00 0.5687
434.10 0.5696
434.20 0.63
434.30 0.6629
434.40 0.6925
434.50 0.7188
434.60 0.7397
434.70 0.759
434.80 0.7767
434.90 0.7928
435.00 0.8087
435.10 0.8244
435.20 0.8408
435.30 0.8572
435.40 0.8737
435.50 0.8897
435.60 0.9054
435.70 0.9207
435.80 0.9352
435.90 0.9495
436.00 0.9634
436.10 0.9769
436.20 0.9901
436.30 1.003
436.40 1.016
436.50 1.028
436.60 1.041
436.70 1.053
436.80 1.064
436.90 1.076
437.00 1.087
437.10 1.099
437.20 1.11
437.30 1.12
437.40 1.131
437.50 1.141
437.60 1.151
437.70 1.161
437.80 1.17
437.90 1.179
438.00 1.188
438.10 1.197
438.20 1.206
438.30 1.214
438.40 1.223
438.50 1.231
438.60 1.238
438.70 1.246
438.80 1.253
438.90 1.26
439.00 1.267
439.10 1.274
439.20 1.28
439.30 1.286
439.40 1.293
439.50 1.298
439.60 1.304
439.70 1.31
439.80 1.315
439.90 1.32
440.00 1.325
440.10 1.33
440.20 1.335
440.30 1.339
440.40 1.344
440.50 1.348
440.60 1.352
440.70 1.356
440.80 1.36
440.90 1.364
441.00 1.367
441.10 1.371
441.20 1.374
441.30 1.377
441.40 1.38
441.50 1.383
441.60 1.386
441.70 1.389
441.80 1.391
441.90 1.394
442.00 1.396
442.10 1.399
442.20 1.401
442.30 1.403
442.40 1.405
442.50 1.407
442.60 1.409
442.70 1.411
442.80 1.412
442.90 1.414
443.00 1.416
443.10 1.417
443.20 1.418
443.30 1.42
443.40 1.421
443.50 1.422
443.60 1.424
443.70 1.425
443.80 1.426
443.90 1.427
444.00 1.428
444.10 1.429
444.20 1.429
444.30 1.43
444.40 1.431
444.50 1.432
444.60 1.432
444.70 1.433
444.80 1.433
444.90 1.434
445.00 1.434
445.10 1.435
445.20 1.435
445.30 1.436
445.40 1.436
445.50 1.436
445.60 1.437
445.70 1.437
445.80 1.437
445.90 1.437
446.00 1.437
446.10 1.437
446.20 1.437
446.30 1.437
446.40 1.437
446.50 1.437
446.60 1.437
446.70 1.437
446.80 1.437
446.90 1.437
447.00 1.437
447.10 1.437
447.20 1.437
447.30 1.437
447.40 1.436
447.50 1.436
447.60 1.436
447.70 1.436
447.80 1.435
447.90 1.435
448.00 1.435
448.10 1.434
448.20 1.434
448.30 1.434
448.40 1.433
448.50 1.433
448.60 1.432
448.70 1.432
448.80 1.431
448.90 1.431
449.00 1.431
449.10 1.43
449.20 1.43
449.30 1.429
449.40 1.429
449.50 1.428
449.60 1.428
449.70 1.427
449.80 1.426
449.90 1.426
450.00 1.425
450.10 1.425
450.20 1.424
450.30 1.423
450.40 1.423
450.50 1.422
450.60 1.422
450.70 1.421
450.80 1.42
450.90 1.419
451.00 1.419
451.10 1.418
451.20 1.417
451.30 1.417
451.40 1.416
451.50 1.415
451.60 1.415
451.70 1.414
451.80 1.413
451.90 1.412
452.00 1.412
452.10 1.411
452.20 1.41
452.30 1.409
452.40 1.409
452.50 1.408
452.60 1.407
452.70 1.406
452.80 1.405
452.90 1.405
453.00 1.404
453.10 1.403
453.20 1.402
453.30 1.401
453.40 1.401
453.50 1.4
453.60 1.399
453.70 1.398
453.80 1.397
453.90 1.396
454.00 1.396
454.10 1.395
454.20 1.394
454.30 1.393
454.40 1.392
454.50 1.391
454.60 1.39
454.70 1.389
454.80 1.389
454.90 1.388
455.00 1.387
455.10 1.386
455.20 1.385
455.30 1.384
455.40 1.383
455.50 1.382
455.60 1.381
455.70 1.381
455.80 1.38
455.90 1.379
456.00 1.378
456.10 1.377
456.20 1.376
456.30 1.375
456.40 1.374
456.50 1.373
456.60 1.372
456.70 1.372
456.80 1.371
456.90 1.37
457.00 1.369
457.10 1.368
457.20 1.367
457.30 1.366
457.40 1.365
457.50 1.364
457.60 1.363
457.70 1.363
457.80 1.362
457.90 1.361
458.00 1.36
458.10 1.359
458.20 1.358
458.30 1.357
458.40 1.356
458.50 1.355
458.60 1.354
458.70 1.353
458.80 1.352
458.90 1.351
459.00 1.35
459.10 1.349
459.20 1.348
459.30 1.347
459.40 1.346
459.50 1.345
459.60 1.344
459.70 1.343
459.80 1.342
459.90 1.341
460.00 1.34
460.10 1.339
460.20 1.338
460.30 1.337
460.40 1.336
460.50 1.335
460.60 1.334
460.70 1.333
460.80 1.332
460.90 1.331
461.00 1.33
461.10 1.329
461.20 1.328
461.30 1.327
461.40 1.326
461.50 1.325
461.60 1.324
461.70 1.323
461.80 1.322
461.90 1.321
462.00 1.32
462.10 1.319
462.20 1.318
462.30 1.317
462.40 1.316
462.50 1.315
462.60 1.314
462.70 1.313
462.80 1.312
462.90 1.311
463.00 1.31
463.10 1.309
463.20 1.308
463.30 1.307
463.40 1.306
463.50 1.304
463.60 1.303
463.70 1.302
463.80 1.301
463.90 1.3
464.00 1.299
464.10 1.298
464.20 1.297
464.30 1.296
464.40 1.295
464.50 1.294
464.60 1.293
464.70 1.292
464.80 1.29
464.90 1.289
465.00 1.288
465.10 1.287
465.20 1.286
465.30 1.285
465.40 1.284
465.50 1.283
465.60 1.282
465.70 1.28
465.80 1.279
465.90 1.278
466.00 1.277
466.10 1.276
466.20 1.275
466.30 1.274
466.40 1.273
466.50 1.271
466.60 1.27
466.70 1.269
466.80 1.268
466.90 1.267
467.00 1.266
467.10 1.265
467.20 1.263
467.30 1.262
467.40 1.261
467.50 1.26
467.60 1.259
467.70 1.257
467.80 1.256
467.90 1.255
468.00 1.254
468.10 1.253
468.20 1.251
468.30 1.25
468.40 1.249
468.50 1.248
468.60 1.246
468.70 1.245
468.80 1.244
468.90 1.243
469.00 1.241
469.10 1.24
469.20 1.239
469.30 1.237
469.40 1.236
469.50 1.235
469.60 1.234
469.70 1.232
469.80 1.231
469.90 1.23
470.00 1.228
470.10 1.227
470.20 1.226
470.30 1.224
470.40 1.223
470.50 1.222
470.60 1.22
470.70 1.219
470.80 1.217
470.90 1.216
471.00 1.215
471.10 1.213
471.20 1.212
471.30 1.21
471.40 1.209
471.50 1.207
471.60 1.206
471.70 1.204
471.80 1.203
471.90 1.201
472.00 1.2
472.10 1.198
472.20 1.197
472.30 1.195
472.40 1.194
472.50 1.192
472.60 1.19
472.70 1.189
472.80 1.187
472.90 1.185
473.00 1.184
473.10 1.182
473.20 1.18
473.30 1.179
473.40 1.177
473.50 1.175
473.60 1.173
473.70 1.171
473.80 1.17
473.90 1.168
474.00 1.166
474.10 1.164
474.20 1.162
474.30 1.16
474.40 1.158
474.50 1.156
474.60 1.154
474.70 1.152
474.80 1.15
474.90 1.148
475.00 1.146
475.10 1.144
475.20 1.142
475.30 1.14
475.40 1.137
475.50 1.135
475.60 1.133
475.70 1.131
475.80 1.128
475.90 1.126
476.00 1.124
476.10 1.121
476.20 1.119
476.30 1.116
476.40 1.114
476.50 1.111
476.60 1.108
476.70 1.106
476.80 1.103
476.90 1.1
477.00 1.098
477.10 1.095
477.20 1.092
477.30 1.089
477.40 1.086
477.50 1.083
477.60 1.08
477.70 1.077
477.80 1.074
477.90 1.071
478.00 1.068
478.10 1.065
478.20 1.061
478.30 1.058
478.40 1.054
478.50 1.05
478.60 1.047
478.70 1.043
478.80 1.039
478.90 1.036
479.00 1.032
479.10 1.028
479.20 1.024
479.30 1.02
479.40 1.016
479.50 1.011
479.60 1.007
479.70 1.003
479.80 0.9985
479.90 0.9942
480.00 0.9899
480.10 0.9856
480.20 0.9807
480.30 0.9756
480.40 0.9705
480.50 0.9653
480.60 0.9602
480.70 0.9551
480.80 0.95
480.90 0.9449
481.00 0.9398
481.10 0.9347
481.20 0.9289
481.30 0.9227
481.40 0.9166
481.50 0.9105
481.60 0.9044
481.70 0.8982
481.80 0.8921
481.90 0.886
482.00 0.8799
482.10 0.8738
482.20 0.8669
482.30 0.8597
482.40 0.8524
482.50 0.8452
482.60 0.838
482.70 0.8307
482.80 0.8235
482.90 0.8163
483.00 0.8091
483.10 0.8019
483.20 0.7937
483.30 0.7851
483.40 0.7765
483.50 0.7679
483.60 0.7593
483.70 0.7507
483.80 0.7421
483.90 0.7335
484.00 0.725
484.10 0.7164
484.20 0.7071
484.30 0.6974
484.40 0.6877
484.50 0.678
484.60 0.6684
484.70 0.6582
484.80 0.6478
484.90 0.6373
485.00 0.6269
485.10 0.6166
485.20 0.606
485.30 0.5953
485.40 0.584
485.50 0.5726
485.60 0.5599
485.70 0.5467
485.80 0.5292
485.90 0.5098
486.00 0.4811
486.10 0.4116
486.20 0.4421
486.30 0.4927
486.40 0.5149
486.50 0.5341
486.60 0.5489
486.70 0.5616
486.80 0.5731
486.90 0.5839
487.00 0.5942
487.10 0.6043
487.20 0.6141
487.30 0.6237
487.40 0.6334
487.50 0.6431
487.60 0.6527
487.70 0.6618
487.80 0.6707
487.90 0.6795
488.00 0.6883
488.10 0.6971
488.20 0.7051
488.30 0.7127
488.40 0.7202
488.50 0.7278
488.60 0.7354
488.70 0.7429
488.80 0.7505
488.90 0.758
489.00 0.7656
489.10 0.7731
489.20 0.7796
489.30 0.7857
489.40 0.7917
489.50 0.7977
489.60 0.8037
489.70 0.8097
489.80 0.8157
489.90 0.8218
490.00 0.8277
490.10 0.8337
490.20 0.8389
490.30 0.8437
490.40 0.8484
490.50 0.8532
490.60 0.8579
490.70 0.8626
490.80 0.8674
490.90 0.8721
491.00 0.8768
491.10 0.8816
491.20 0.8856
491.30 0.8892
491.40 0.8928
491.50 0.8964
491.60 0.9001
491.70 0.9037
491.80 0.9073
491.90 0.9109
492.00 0.9145
492.10 0.9181
492.20 0.9211
492.30 0.9239
492.40 0.9266
492.50 0.9293
492.60 0.932
492.70 0.9347
492.80 0.9374
492.90 0.9402
493.00 0.9429
493.10 0.9456
493.20 0.9478
493.30 0.9498
493.40 0.9519
493.50 0.9539
493.60 0.9559
493.70 0.9579
493.80 0.9599
493.90 0.962
494.00 0.964
494.10 0.966
494.20 0.9676
494.30 0.969
494.40 0.9704
494.50 0.9718
494.60 0.9732
494.70 0.9746
494.80 0.976
494.90 0.9774
495.00 0.9788
495.10 0.9802
495.20 0.9812
495.30 0.9822
495.40 0.9831
495.50 0.9841
495.60 0.985
495.70 0.986
495.80 0.9869
495.90 0.9878
496.00 0.9888
496.10 0.9897
496.20 0.9904
496.30 0.991
496.40 0.9916
496.50 0.9922
496.60 0.9928
496.70 0.9933
496.80 0.9939
496.90 0.9945
497.00 0.9951
497.10 0.9957
497.20 0.9961
497.30 0.9964
497.40 0.9968
497.50 0.9971
497.60 0.9974
497.70 0.9977
497.80 0.9981
497.90 0.9984
498.00 0.9987
498.10 0.9991
498.20 0.9992
498.30 0.9994
498.40 0.9995
498.50 0.9996
498.60 0.9997
498.70 0.9998
498.80 1
498.90 1
499.00 1
499.10 1
499.20 1
499.30 1
499.40 1
499.50 1
499.60 1
499.70 1
499.80 1
499.90 1
500.00 1
500.10 1
500.20 0.9998
500.30 0.9997
500.40 0.9995
500.50 0.9993
500.60 0.9992
500.70 0.999
500.80 0.9988
500.90 0.9987
501.00 0.9985
501.10 0.9984
501.20 0.9981
501.30 0.9979
501.40 0.9976
501.50 0.9974
501.60 0.9971
501.70 0.9969
501.80 0.9966
501.90 0.9964
502.00 0.9961
502.10 0.9959
502.20 0.9956
502.30 0.9952
502.40 0.9949
502.50 0.9946
502.60 0.9943
502.70 0.9939
502.80 0.9936
502.90 0.9933
503.00 0.993
503.10 0.9926
503.20 0.9923
503.30 0.9919
503.40 0.9915
503.50 0.9912
503.60 0.9908
503.70 0.9904
503.80 0.99
503.90 0.9896
504.00 0.9893
504.10 0.9889
504.20 0.9885
504.30 0.9881
504.40 0.9876
504.50 0.9872
504.60 0.9868
504.70 0.9864
504.80 0.9859
504.90 0.9855
505.00 0.9851
505.10 0.9847
505.20 0.9842
505.30 0.9838
505.40 0.9833
505.50 0.9828
505.60 0.9824
505.70 0.9819
505.80 0.9815
505.90 0.981
506.00 0.9805
506.10 0.9801
506.20 0.9796
506.30 0.9791
506.40 0.9786
506.50 0.9781
506.60 0.9776
506.70 0.9772
506.80 0.9767
506.90 0.9762
507.00 0.9757
507.10 0.9752
507.20 0.9747
507.30 0.9742
507.40 0.9737
507.50 0.9732
507.60 0.9727
507.70 0.9722
507.80 0.9717
507.90 0.9712
508.00 0.9707
508.10 0.9702
508.20 0.9697
508.30 0.9692
508.40 0.9686
508.50 0.9681
508.60 0.9676
508.70 0.9671
508.80 0.9666
508.90 0.966
509.00 0.9655
509.10 0.965
509.20 0.9645
509.30 0.9639
509.40 0.9634
509.50 0.9629
509.60 0.9623
509.70 0.9618
509.80 0.9613
509.90 0.9607
510.00 0.9602
510.10 0.9597
510.20 0.9591
510.30 0.9586
510.40 0.958
510.50 0.9575
510.60 0.9569
510.70 0.9564
510.80 0.9558
510.90 0.9553
511.00 0.9547
511.10 0.9542
511.20 0.9537
511.30 0.9531
511.40 0.9525
511.50 0.952
511.60 0.9514
511.70 0.9509
511.80 0.9503
511.90 0.9498
512.00 0.9492
512.10 0.9487
512.20 0.9481
512.30 0.9476
512.40 0.947
512.50 0.9465
512.60 0.9459
512.70 0.9454
512.80 0.9448
512.90 0.9443
513.00 0.9437
513.10 0.9432
513.20 0.9426
513.30 0.942
513.40 0.9415
513.50 0.9409
513.60 0.9404
513.70 0.9398
513.80 0.9393
513.90 0.9387
514.00 0.9381
514.10 0.9376
514.20 0.937
514.30 0.9365
514.40 0.9359
514.50 0.9353
514.60 0.9348
514.70 0.9342
514.80 0.9336
514.90 0.9331
515.00 0.9325
515.10 0.932
515.20 0.9314
515.30 0.9308
515.40 0.9303
515.50 0.9297
515.60 0.9292
515.70 0.9286
515.80 0.928
515.90 0.9275
516.00 0.9269
516.10 0.9264
516.20 0.9258
516.30 0.9252
516.40 0.9247
516.50 0.9241
516.60 0.9236
516.70 0.923
516.80 0.9224
516.90 0.9219
517.00 0.9213
517.10 0.9207
517.20 0.9202
517.30 0.9196
517.40 0.9191
517.50 0.9185
517.60 0.9179
517.70 0.9174
517.80 0.9168
517.90 0.9163
518.00 0.9157
518.10 0.9152
518.20 0.9146
518.30 0.914
518.40 0.9135
518.50 0.9129
518.60 0.9123
518.70 0.9118
518.80 0.9112
518.90 0.9106
519.00 0.9101
519.10 0.9095
519.20 0.909
519.30 0.9084
519.40 0.9078
519.50 0.9073
519.60 0.9067
519.70 0.9062
519.80 0.9056
519.90 0.905
520.00 0.9045
520.10 0.9039
520.20 0.9034
520.30 0.9028
520.40 0.9023
520.50 0.9017
520.60 0.9011
520.70 0.9006
520.80 0.9
520.90 0.8995
521.00 0.8989
521.10 0.8984
521.20 0.8978
521.30 0.8972
521.40 0.8967
521.50 0.8961
521.60 0.8956
521.70 0.895
521.80 0.8944
521.90 0.8939
522.00 0.8933
522.10 0.8928
522.20 0.8922
522.30 0.8917
522.40 0.8911
522.50 0.8906
522.60 0.89
522.70 0.8895
522.80 0.8889
522.90 0.8884
523.00 0.8878
523.10 0.8873
523.20 0.8867
523.30 0.8862
523.40 0.8856
523.50 0.8851
523.60 0.8845
523.70 0.884
523.80 0.8834
523.90 0.8829
524.00 0.8823
524.10 0.8818
524.20 0.8812
524.30 0.8807
524.40 0.8801
524.50 0.8796
524.60 0.879
524.70 0.8785
524.80 0.8779
524.90 0.8774
525.00 0.8768
525.10 0.8763
525.20 0.8757
525.30 0.8752
525.40 0.8746
525.50 0.8741
525.60 0.8735
525.70 0.873
525.80 0.8725
525.90 0.8719
526.00 0.8714
526.10 0.8708
526.20 0.8703
526.30 0.8697
526.40 0.8692
526.50 0.8687
526.60 0.8681
526.70 0.8676
526.80 0.867
526.90 0.8665
527.00 0.8659
527.10 0.8654
527.20 0.8649
527.30 0.8643
527.40 0.8638
527.50 0.8632
527.60 0.8627
527.70 0.8622
527.80 0.8616
527.90 0.8611
528.00 0.8606
528.10 0.86
528.20 0.8595
528.30 0.8589
528.40 0.8584
528.50 0.8578
528.60 0.8573
528.70 0.8568
528.80 0.8562
528.90 0.8557
529.00 0.8551
529.10 0.8546
529.20 0.8541
529.30 0.8535
529.40 0.853
529.50 0.8525
529.60 0.8519
529.70 0.8514
529.80 0.8509
529.90 0.8503
530.00 0.8498
530.10 0.8493
530.20 0.8488
530.30 0.8482
530.40 0.8477
530.50 0.8472
530.60 0.8466
530.70 0.8461
530.80 0.8456
530.90 0.8451
531.00 0.8445
531.10 0.844
531.20 0.8435
531.30 0.8429
531.40 0.8424
531.50 0.8419
531.60 0.8414
531.70 0.8408
531.80 0.8403
531.90 0.8398
532.00 0.8393
532.10 0.8387
532.20 0.8382
532.30 0.8377
532.40 0.8372
532.50 0.8367
532.60 0.8361
532.70 0.8356
532.80 0.8351
532.90 0.8346
533.00 0.8341
533.10 0.8335
533.20 0.833
533.30 0.8325
533.40 0.832
533.50 0.8315
533.60 0.8309
533.70 0.8304
533.80 0.8299
533.90 0.8294
534.00 0.8289
534.10 0.8284
534.20 0.8278
534.30 0.8273
534.40 0.8268
534.50 0.8263
534.60 0.8258
534.70 0.8253
534.80 0.8248
534.90 0.8242
535.00 0.8237
535.10 0.8232
535.20 0.8227
535.30 0.8222
535.40 0.8217
535.50 0.8212
535.60 0.8206
535.70 0.8201
535.80 0.8196
535.90 0.8191
536.00 0.8186
536.10 0.8181
536.20 0.8176
536.30 0.8171
536.40 0.8166
536.50 0.8161
536.60 0.8155
536.70 0.815
536.80 0.8145
536.90 0.814
537.00 0.8135
537.10 0.813
537.20 0.8125
537.30 0.812
537.40 0.8115
537.50 0.811
537.60 0.8105
537.70 0.81
537.80 0.8095
537.90 0.809
538.00 0.8085
538.10 0.808
538.20 0.8075
538.30 0.807
538.40 0.8065
538.50 0.8059
538.60 0.8054
538.70 0.8049
538.80 0.8044
538.90 0.8039
539.00 0.8034
539.10 0.8029
539.20 0.8024
539.30 0.8019
539.40 0.8014
539.50 0.8009
539.60 0.8004
539.70 0.7999
539.80 0.7994
539.90 0.7989
540.00 0.7985
540.10 0.798
540.20 0.7975
540.30 0.797
540.40 0.7965
540.50 0.796
540.60 0.7955
540.70 0.795
540.80 0.7945
540.90 0.794
541.00 0.7935
541.10 0.793
541.20 0.7925
541.30 0.792
541.40 0.7915
541.50 0.791
541.60 0.7906
541.70 0.7901
541.80 0.7896
541.90 0.7891
542.00 0.7886
542.10 0.7881
542.20 0.7876
542.30 0.7872
542.40 0.7867
542.50 0.7862
542.60 0.7857
542.70 0.7852
542.80 0.7847
542.90 0.7842
543.00 0.7837
543.10 0.7832
543.20 0.7828
543.30 0.7823
543.40 0.7818
543.50 0.7813
543.60 0.7808
543.70 0.7804
543.80 0.7799
543.90 0.7794
544.00 0.7789
544.10 0.7784
544.20 0.778
544.30 0.7775
544.40 0.777
544.50 0.7765
544.60 0.776
544.70 0.7755
544.80 0.7751
544.90 0.7746
545.00 0.7741
545.10 0.7736
545.20 0.7731
545.30 0.7727
545.40 0.7722
545.50 0.7717
545.60 0.7712
545.70 0.7708
545.80 0.7703
545.90 0.7698
546.00 0.7694
546.10 0.7689
546.20 0.7684
546.30 0.768
546.40 0.7676
546.50 0.7672
546.60 0.7667
546.70 0.7663
546.80 0.7659
546.90 0.7655
547.00 0.7651
547.10 0.7646
547.20 0.7642
547.30 0.7637
547.40 0.7632
547.50 0.7627
547.60 0.7623
547.70 0.7618
547.80 0.7613
547.90 0.7609
548.00 0.7604
548.10 0.7599
548.20 0.7594
548.30 0.759
548.40 0.7585
548.50 0.758
548.60 0.7576
548.70 0.7571
548.80 0.7566
548.90 0.7562
549.00 0.7557
549.10 0.7553
549.20 0.7548
549.30 0.7543
549.40 0.7539
549.50 0.7534
549.60 0.7529
549.70 0.7525
549.80 0.752
549.90 0.7516
550.00 0.7511
550.10 0.7506
550.20 0.7502
550.30 0.7497
550.40 0.7493
550.50 0.7488
550.60 0.7483
550.70 0.7479
550.80 0.7474
550.90 0.747
551.00 0.7465
551.10 0.746
551.20 0.7456
551.30 0.7451
551.40 0.7447
551.50 0.7442
551.60 0.7438
551.70 0.7433
551.80 0.7428
551.90 0.7424
552.00 0.7419
552.10 0.7415
552.20 0.741
552.30 0.7406
552.40 0.7401
552.50 0.7397
552.60 0.7392
552.70 0.7388
552.80 0.7383
552.90 0.7378
553.00 0.7374
553.10 0.7369
553.20 0.7365
553.30 0.736
553.40 0.7356
553.50 0.7351
553.60 0.7347
553.70 0.7342
553.80 0.7338
553.90 0.7333
554.00 0.7329
554.10 0.7324
554.20 0.732
554.30 0.7315
554.40 0.7311
554.50 0.7306
554.60 0.7302
554.70 0.7297
554.80 0.7293
554.90 0.7288
555.00 0.7284
555.10 0.728
555.20 0.7275
555.30 0.7271
555.40 0.7266
555.50 0.7262
555.60 0.7257
555.70 0.7253
555.80 0.7248
555.90 0.7244
556.00 0.7239
556.10 0.7235
556.20 0.7231
556.30 0.7226
556.40 0.7222
556.50 0.7218
556.60 0.7213
556.70 0.7209
556.80 0.7204
556.90 0.72
557.00 0.7196
557.10 0.7191
557.20 0.7187
557.30 0.7183
557.40 0.7178
557.50 0.7174
557.60 0.7169
557.70 0.7165
557.80 0.7161
557.90 0.7156
558.00 0.7152
558.10 0.7147
558.20 0.7143
558.30 0.7139
558.40 0.7134
558.50 0.713
558.60 0.7126
558.70 0.7122
558.80 0.7117
558.90 0.7113
559.00 0.7109
559.10 0.7104
559.20 0.71
559.30 0.7096
559.40 0.7091
559.50 0.7087
559.60 0.7083
559.70 0.7079
559.80 0.7074
559.90 0.707
560.00 0.7066
560.10 0.7062
560.20 0.7057
560.30 0.7053
560.40 0.7049
560.50 0.7044
560.60 0.704
560.70 0.7036
560.80 0.7032
560.90 0.7027
561.00 0.7023
561.10 0.7019
561.20 0.7015
561.30 0.701
561.40 0.7006
561.50 0.7002
561.60 0.6998
561.70 0.6994
561.80 0.6989
561.90 0.6985
562.00 0.6981
562.10 0.6977
562.20 0.6972
562.30 0.6968
562.40 0.6964
562.50 0.696
562.60 0.6956
562.70 0.6951
562.80 0.6947
562.90 0.6943
563.00 0.6939
563.10 0.6935
563.20 0.693
563.30 0.6926
563.40 0.6922
563.50 0.6918
563.60 0.6914
563.70 0.691
563.80 0.6905
563.90 0.6901
564.00 0.6897
564.10 0.6893
564.20 0.6889
564.30 0.6885
564.40 0.688
564.50 0.6876
564.60 0.6872
564.70 0.6868
564.80 0.6864
564.90 0.686
565.00 0.6855
565.10 0.6851
565.20 0.6847
565.30 0.6843
565.40 0.6839
565.50 0.6835
565.60 0.6831
565.70 0.6827
565.80 0.6823
565.90 0.6819
566.00 0.6815
566.10 0.6811
566.20 0.6807
566.30 0.6802
566.40 0.6798
566.50 0.6794
566.60 0.679
566.70 0.6786
566.80 0.6782
566.90 0.6778
567.00 0.6774
567.10 0.677
567.20 0.6766
567.30 0.6762
567.40 0.6758
567.50 0.6754
567.60 0.675
567.70 0.6746
567.80 0.6742
567.90 0.6738
568.00 0.6733
568.10 0.6729
568.20 0.6725
568.30 0.6721
568.40 0.6717
568.50 0.6713
568.60 0.6709
568.70 0.6705
568.80 0.6701
568.90 0.6697
569.00 0.6693
569.10 0.6689
569.20 0.6685
569.30 0.6681
569.40 0.6677
569.50 0.6673
569.60 0.6669
569.70 0.6665
569.80 0.6661
569.90 0.6657
570.00 0.6653
570.10 0.6649
570.20 0.6645
570.30 0.6641
570.40 0.6637
570.50 0.6633
570.60 0.663
570.70 0.6626
570.80 0.6622
570.90 0.6618
571.00 0.6614
571.10 0.661
571.20 0.6606
571.30 0.6602
571.40 0.6598
571.50 0.6594
571.60 0.659
571.70 0.6586
571.80 0.6582
571.90 0.6578
572.00 0.6575
572.10 0.6571
572.20 0.6567
572.30 0.6563
572.40 0.6559
572.50 0.6555
572.60 0.6551
572.70 0.6547
572.80 0.6543
572.90 0.6539
573.00 0.6536
573.10 0.6532
573.20 0.6528
573.30 0.6524
573.40 0.652
573.50 0.6516
573.60 0.6512
573.70 0.6508
573.80 0.6505
573.90 0.6501
574.00 0.6497
574.10 0.6493
574.20 0.6489
574.30 0.6485
574.40 0.6481
574.50 0.6477
574.60 0.6474
574.70 0.647
574.80 0.6466
574.90 0.6462
575.00 0.6458
575.10 0.6454
575.20 0.6451
575.30 0.6447
575.40 0.6443
575.50 0.6439
575.60 0.6436
575.70 0.6432
575.80 0.6428
575.90 0.6424
576.00 0.642
576.10 0.6417
576.20 0.6413
576.30 0.6409
576.40 0.6405
576.50 0.6401
576.60 0.6398
576.70 0.6394
576.80 0.639
576.90 0.6386
577.00 0.6382
577.10 0.6379
577.20 0.6375
577.30 0.6371
577.40 0.6367
577.50 0.6364
577.60 0.636
577.70 0.6356
577.80 0.6353
577.90 0.6349
578.00 0.6345
578.10 0.6341
578.20 0.6338
578.30 0.6334
578.40 0.633
578.50 0.6326
578.60 0.6323
578.70 0.6319
578.80 0.6315
578.90 0.6311
579.00 0.6308
579.10 0.6304
579.20 0.63
579.30 0.6296
579.40 0.6293
579.50 0.6289
579.60 0.6285
579.70 0.6282
579.80 0.6278
579.90 0.6274
580.00 0.6271
580.10 0.6267
580.20 0.6263
580.30 0.626
580.40 0.6256
580.50 0.6252
580.60 0.6249
580.70 0.6245
580.80 0.6241
580.90 0.6238
581.00 0.6234
581.10 0.623
581.20 0.6227
581.30 0.6223
581.40 0.622
581.50 0.6216
581.60 0.6212
581.70 0.6209
581.80 0.6205
581.90 0.6201
582.00 0.6198
582.10 0.6194
582.20 0.619
582.30 0.6187
582.40 0.6183
582.50 0.618
582.60 0.6176
582.70 0.6172
582.80 0.6169
582.90 0.6165
583.00 0.6162
583.10 0.6158
583.20 0.6154
583.30 0.6151
583.40 0.6147
583.50 0.6144
583.60 0.614
583.70 0.6136
583.80 0.6133
583.90 0.6129
584.00 0.6126
584.10 0.6122
584.20 0.6118
584.30 0.6115
584.40 0.6111
584.50 0.6108
584.60 0.6104
584.70 0.6101
584.80 0.6097
584.90 0.6093
585.00 0.609
585.10 0.6086
585.20 0.6083
585.30 0.6079
585.40 0.6076
585.50 0.6072
585.60 0.6069
585.70 0.6065
585.80 0.6061
585.90 0.6058
586.00 0.6054
586.10 0.6051
586.20 0.6047
586.30 0.6044
586.40 0.604
586.50 0.6037
586.60 0.6033
586.70 0.603
586.80 0.6026
586.90 0.6023
587.00 0.6019
587.10 0.6015
587.20 0.6012
587.30 0.6009
587.40 0.6005
587.50 0.6002
587.60 0.5998
587.70 0.5995
587.80 0.5991
587.90 0.5988
588.00 0.5984
588.10 0.5981
588.20 0.5977
588.30 0.5974
588.40 0.597
588.50 0.5967
588.60 0.5963
588.70 0.596
588.80 0.5957
588.90 0.5953
589.00 0.595
589.10 0.5946
589.20 0.5943
589.30 0.5939
589.40 0.5936
589.50 0.5932
589.60 0.5929
589.70 0.5926
589.80 0.5922
589.90 0.5919
590.00 0.5915
590.10 0.5912
590.20 0.5909
590.30 0.5905
590.40 0.5902
590.50 0.5898
590.60 0.5895
590.70 0.5892
590.80 0.5888
590.90 0.5885
591.00 0.5881
591.10 0.5878
591.20 0.5875
591.30 0.5871
591.40 0.5868
591.50 0.5864
591.60 0.5861
591.70 0.5858
591.80 0.5854
591.90 0.5851
592.00 0.5848
592.10 0.5844
592.20 0.5841
592.30 0.5837
592.40 0.5834
592.50 0.5831
592.60 0.5827
592.70 0.5824
592.80 0.582
592.90 0.5817
593.00 0.5814
593.10 0.581
593.20 0.5807
593.30 0.5803
593.40 0.58
593.50 0.5797
593.60 0.5793
593.70 0.579
593.80 0.5787
593.90 0.5783
594.00 0.578
594.10 0.5777
594.20 0.5773
594.30 0.577
594.40 0.5767
594.50 0.5764
594.60 0.576
594.70 0.5757
594.80 0.5754
594.90 0.575
595.00 0.5747
595.10 0.5744
595.20 0.574
595.30 0.5737
595.40 0.5734
595.50 0.5731
595.60 0.5727
595.70 0.5724
595.80 0.5721
595.90 0.5718
596.00 0.5714
596.10 0.5711
596.20 0.5707
596.30 0.5703
596.40 0.5699
596.50 0.5695
596.60 0.5691
596.70 0.5686
596.80 0.5682
596.90 0.5678
597.00 0.5674
597.10 0.567
597.20 0.5666
597.30 0.5663
597.40 0.566
597.50 0.5656
597.60 0.5653
597.70 0.565
597.80 0.5647
597.90 0.5643
598.00 0.564
598.10 0.5637
598.20 0.5633
598.30 0.563
598.40 0.5627
598.50 0.5624
598.60 0.5621
598.70 0.5617
598.80 0.5614
598.90 0.5611
599.00 0.5608
599.10 0.5604
599.20 0.5601
599.30 0.5598
599.40 0.5595
599.50 0.5591
599.60 0.5588
599.70 0.5585
599.80 0.5582
599.90 0.5579
600.00 0.5575
600.10 0.5572
600.20 0.5569
600.30 0.5566
600.40 0.5562
600.50 0.5559
600.60 0.5556
600.70 0.5553
600.80 0.555
600.90 0.5546
601.00 0.5543
601.10 0.554
601.20 0.5537
601.30 0.5534
601.40 0.5531
601.50 0.5527
601.60 0.5524
601.70 0.5521
601.80 0.5518
601.90 0.5515
602.00 0.5511
602.10 0.5508
602.20 0.5505
602.30 0.5502
602.40 0.5499
602.50 0.5496
602.60 0.5492
602.70 0.5489
602.80 0.5486
602.90 0.5483
603.00 0.548
603.10 0.5477
603.20 0.5474
603.30 0.547
603.40 0.5467
603.50 0.5464
603.60 0.5461
603.70 0.5458
603.80 0.5455
603.90 0.5452
604.00 0.5448
604.10 0.5445
604.20 0.5442
604.30 0.5439
604.40 0.5436
604.50 0.5433
604.60 0.543
604.70 0.5427
604.80 0.5423
604.90 0.542
605.00 0.5417
605.10 0.5414
605.20 0.5411
605.30 0.5408
605.40 0.5405
605.50 0.5402
605.60 0.5399
605.70 0.5395
605.80 0.5392
605.90 0.5389
606.00 0.5386
606.10 0.5383
606.20 0.538
606.30 0.5377
606.40 0.5374
606.50 0.5371
606.60 0.5368
606.70 0.5365
606.80 0.5361
606.90 0.5358
607.00 0.5355
607.10 0.5352
607.20 0.5349
607.30 0.5346
607.40 0.5343
607.50 0.534
607.60 0.5337
607.70 0.5334
607.80 0.5331
607.90 0.5328
608.00 0.5325
608.10 0.5322
608.20 0.5319
608.30 0.5316
608.40 0.5312
608.50 0.5309
608.60 0.5306
608.70 0.5303
608.80 0.53
608.90 0.5297
609.00 0.5294
609.10 0.5291
609.20 0.5288
609.30 0.5285
609.40 0.5282
609.50 0.5279
609.60 0.5276
609.70 0.5273
609.80 0.527
609.90 0.5267
610.00 0.5264
610.10 0.5261
610.20 0.5258
610.30 0.5255
610.40 0.5252
610.50 0.5249
610.60 0.5246
610.70 0.5243
610.80 0.524
610.90 0.5237
611.00 0.5234
611.10 0.5231
611.20 0.5228
611.30 0.5225
611.40 0.5222
611.50 0.5219
611.60 0.5216
611.70 0.5213
611.80 0.521
611.90 0.5207
612.00 0.5204
612.10 0.5201
612.20 0.5198
612.30 0.5195
612.40 0.5192
612.50 0.5189
612.60 0.5186
612.70 0.5183
612.80 0.518
612.90 0.5177
613.00 0.5174
613.10 0.5171
613.20 0.5168
613.30 0.5165
613.40 0.5162
613.50 0.5159
613.60 0.5156
613.70 0.5153
613.80 0.515
613.90 0.5147
614.00 0.5144
614.10 0.5141
614.20 0.5139
614.30 0.5136
614.40 0.5133
614.50 0.513
614.60 0.5127
614.70 0.5124
614.80 0.5121
614.90 0.5118
615.00 0.5115
615.10 0.5112
615.20 0.5109
615.30 0.5106
615.40 0.5103
615.50 0.51
615.60 0.5097
615.70 0.5094
615.80 0.5091
615.90 0.5088
616.00 0.5086
616.10 0.5083
616.20 0.508
616.30 0.5077
616.40 0.5074
616.50 0.5071
616.60 0.5068
616.70 0.5065
616.80 0.5062
616.90 0.5059
617.00 0.5056
617.10 0.5053
617.20 0.5051
617.30 0.5048
617.40 0.5045
617.50 0.5042
617.60 0.5039
617.70 0.5036
617.80 0.5033
617.90 0.503
618.00 0.5027
618.10 0.5024
618.20 0.5021
618.30 0.5018
618.40 0.5016
618.50 0.5013
618.60 0.501
618.70 0.5007
618.80 0.5004
618.90 0.5001
619.00 0.4998
619.10 0.4995
619.20 0.4992
619.30 0.4989
619.40 0.4987
619.50 0.4984
619.60 0.4981
619.70 0.4978
619.80 0.4975
619.90 0.4972
620.00 0.4969
620.10 0.4966
620.20 0.4963
620.30 0.4961
620.40 0.4958
620.50 0.4955
620.60 0.4952
620.70 0.4949
620.80 0.4946
620.90 0.4943
621.00 0.494
621.10 0.4938
621.20 0.4935
621.30 0.4932
621.40 0.4929
621.50 0.4926
621.60 0.4923
621.70 0.492
621.80 0.4917
621.90 0.4915
622.00 0.4912
622.10 0.4909
622.20 0.4906
622.30 0.4903
622.40 0.49
622.50 0.4897
622.60 0.4894
622.70 0.4892
622.80 0.4889
622.90 0.4886
623.00 0.4883
623.10 0.488
623.20 0.4877
623.30 0.4874
623.40 0.4871
623.50 0.4869
623.60 0.4866
623.70 0.4863
623.80 0.486
623.90 0.4857
624.00 0.4854
624.10 0.4851
624.20 0.4849
624.30 0.4846
624.40 0.4843
624.50 0.484
624.60 0.4837
624.70 0.4834
624.80 0.4831
624.90 0.4828
625.00 0.4826
625.10 0.4823
625.20 0.482
625.30 0.4817
625.40 0.4814
625.50 0.4811
625.60 0.4808
625.70 0.4806
625.80 0.4803
625.90 0.48
626.00 0.4797
626.10 0.4794
626.20 0.4791
626.30 0.4788
626.40 0.4786
626.50 0.4783
626.60 0.478
626.70 0.4777
626.80 0.4774
626.90 0.4771
627.00 0.4768
627.10 0.4765
627.20 0.4763
627.30 0.476
627.40 0.4757
627.50 0.4754
627.60 0.4751
627.70 0.4748
627.80 0.4745
627.90 0.4743
628.00 0.474
628.10 0.4737
628.20 0.4734
628.30 0.4731
628.40 0.4728
628.50 0.4725
628.60 0.4722
628.70 0.4719
628.80 0.4717
628.90 0.4714
629.00 0.4711
629.10 0.4708
629.20 0.4705
629.30 0.4702
629.40 0.4699
629.50 0.4696
629.60 0.4693
629.70 0.4691
629.80 0.4688
629.90 0.4685
630.00 0.4682
630.10 0.4679
630.20 0.4676
630.30 0.4673
630.40 0.467
630.50 0.4667
630.60 0.4664
630.70 0.4662
630.80 0.4659
630.90 0.4656
631.00 0.4653
631.10 0.465
631.20 0.4647
631.30 0.4644
631.40 0.4641
631.50 0.4638
631.60 0.4635
631.70 0.4632
631.80 0.4629
631.90 0.4626
632.00 0.4623
632.10 0.4621
632.20 0.4618
632.30 0.4615
632.40 0.4612
632.50 0.4609
632.60 0.4606
632.70 0.4603
632.80 0.46
632.90 0.4597
633.00 0.4594
633.10 0.4591
633.20 0.4588
633.30 0.4585
633.40 0.4582
633.50 0.4579
633.60 0.4576
633.70 0.4573
633.80 0.457
633.90 0.4567
634.00 0.4564
634.10 0.4561
634.20 0.4558
634.30 0.4554
634.40 0.4551
634.50 0.4548
634.60 0.4545
634.70 0.4542
634.80 0.4539
634.90 0.4536
635.00 0.4533
635.10 0.453
635.20 0.4527
635.30 0.4524
635.40 0.452
635.50 0.4517
635.60 0.4514
635.70 0.4511
635.80 0.4508
635.90 0.4505
636.00 0.4501
636.10 0.4498
636.20 0.4495
636.30 0.4492
636.40 0.4489
636.50 0.4485
636.60 0.4482
636.70 0.4479
636.80 0.4476
636.90 0.4472
637.00 0.4469
637.10 0.4466
637.20 0.4463
637.30 0.4459
637.40 0.4456
637.50 0.4452
637.60 0.4449
637.70 0.4446
637.80 0.4442
637.90 0.4439
638.00 0.4436
638.10 0.4432
638.20 0.4429
638.30 0.4425
638.40 0.4422
638.50 0.4418
638.60 0.4415
638.70 0.4411
638.80 0.4408
638.90 0.4404
639.00 0.4401
639.10 0.4397
639.20 0.4394
639.30 0.439
639.40 0.4387
639.50 0.4383
639.60 0.4379
639.70 0.4376
639.80 0.4372
639.90 0.4368
640.00 0.4364
640.10 0.4361
640.20 0.4357
640.30 0.4353
640.40 0.4349
640.50 0.4346
640.60 0.4342
640.70 0.4338
640.80 0.4334
640.90 0.433
641.00 0.4326
641.10 0.4322
641.20 0.4318
641.30 0.4314
641.40 0.431
641.50 0.4306
641.60 0.4302
641.70 0.4298
641.80 0.4293
641.90 0.4289
642.00 0.4285
642.10 0.4281
642.20 0.4277
642.30 0.4273
642.40 0.4268
642.50 0.4264
642.60 0.4259
642.70 0.4255
642.80 0.425
642.90 0.4246
643.00 0.4241
643.10 0.4237
643.20 0.4232
643.30 0.4228
643.40 0.4223
643.50 0.4218
643.60 0.4213
643.70 0.4208
643.80 0.4203
643.90 0.4198
644.00 0.4193
644.10 0.4188
644.20 0.4183
644.30 0.4178
644.40 0.4173
644.50 0.4167
644.60 0.4162
644.70 0.4156
644.80 0.4151
644.90 0.4145
645.00 0.414
645.10 0.4135
645.20 0.4129
645.30 0.4124
645.40 0.4117
645.50 0.4111
645.60 0.4105
645.70 0.4099
645.80 0.4093
645.90 0.4087
646.00 0.4081
646.10 0.4075
646.20 0.4069
646.30 0.4062
646.40 0.4055
646.50 0.4049
646.60 0.4042
646.70 0.4035
646.80 0.4028
646.90 0.4021
647.00 0.4014
647.10 0.4007
647.20 0.4
647.30 0.3993
647.40 0.3985
647.50 0.3977
647.60 0.3969
647.70 0.3961
647.80 0.3953
647.90 0.3945
648.00 0.3937
648.10 0.3929
648.20 0.3921
648.30 0.3913
648.40 0.3904
648.50 0.3894
648.60 0.3885
648.70 0.3876
648.80 0.3866
648.90 0.3857
649.00 0.3848
649.10 0.3838
649.20 0.3829
649.30 0.3819
649.40 0.3808
649.50 0.3797
649.60 0.3786
649.70 0.3775
649.80 0.3764
649.90 0.3753
650.00 0.3742
650.10 0.3731
650.20 0.3721
650.30 0.3709
650.40 0.3696
650.50 0.3683
650.60 0.367
650.70 0.3657
650.80 0.3644
650.90 0.3631
651.00 0.3618
651.10 0.3605
651.20 0.3592
651.30 0.3578
651.40 0.3563
651.50 0.3547
651.60 0.3532
651.70 0.3516
651.80 0.3501
651.90 0.3485
652.00 0.347
652.10 0.3455
652.20 0.3439
652.30 0.3423
652.40 0.3405
652.50 0.3387
652.60 0.3368
652.70 0.335
652.80 0.3332
652.90 0.3313
653.00 0.3295
653.10 0.3277
653.20 0.3259
653.30 0.324
653.40 0.3218
653.50 0.3196
653.60 0.3174
653.70 0.3152
653.80 0.313
653.90 0.3108
654.00 0.3086
654.10 0.3064
654.20 0.3042
654.30 0.302
654.40 0.2995
654.50 0.297
654.60 0.2945
654.70 0.292
654.80 0.2894
654.90 0.2865
655.00 0.2837
655.10 0.2808
655.20 0.278
655.30 0.275
655.40 0.2718
655.50 0.2686
655.60 0.265
655.70 0.2612
655.80 0.2567
655.90 0.2516
656.00 0.2441
656.10 0.2359
656.20 0.212
656.30 0.1875
656.40 0.2252
656.50 0.239
656.60 0.2463
656.70 0.253
656.80 0.2573
656.90 0.2614
657.00 0.2648
657.10 0.2681
657.20 0.271
657.30 0.2739
657.40 0.2765
657.50 0.2791
657.60 0.2816
657.70 0.2842
657.80 0.2868
657.90 0.289
658.00 0.2912
658.10 0.2934
658.20 0.2956
658.30 0.2977
658.40 0.2996
658.50 0.3015
658.60 0.3033
658.70 0.3052
658.80 0.3071
658.90 0.3089
659.00 0.3108
659.10 0.3127
659.20 0.3145
659.30 0.3163
659.40 0.3178
659.50 0.3192
659.60 0.3207
659.70 0.3222
659.80 0.3237
659.90 0.3251
660.00 0.3266
660.10 0.328
660.20 0.3295
660.30 0.3309
660.40 0.3321
660.50 0.3332
660.60 0.3344
660.70 0.3355
660.80 0.3367
660.90 0.3378
661.00 0.339
661.10 0.3401
661.20 0.3413
661.30 0.3424
661.40 0.3433
661.50 0.3441
661.60 0.345
661.70 0.3459
661.80 0.3468
661.90 0.3477
662.00 0.3486
662.10 0.3495
662.20 0.3504
662.30 0.3512
662.40 0.3519
662.50 0.3525
662.60 0.3532
662.70 0.3538
662.80 0.3545
662.90 0.3552
663.00 0.3558
663.10 0.3565
663.20 0.3571
663.30 0.3578
663.40 0.3583
663.50 0.3588
663.60 0.3592
663.70 0.3597
663.80 0.3602
663.90 0.3607
664.00 0.3612
664.10 0.3617
664.20 0.3622
664.30 0.3626
664.40 0.363
664.50 0.3633
664.60 0.3637
664.70 0.364
664.80 0.3644
664.90 0.3647
665.00 0.3651
665.10 0.3654
665.20 0.3657
665.30 0.3661
665.40 0.3663
665.50 0.3665
665.60 0.3668
665.70 0.367
665.80 0.3672
665.90 0.3675
666.00 0.3677
666.10 0.3679
666.20 0.3682
666.30 0.3684
666.40 0.3685
666.50 0.3687
666.60 0.3688
666.70 0.369
666.80 0.3691
666.90 0.3693
667.00 0.3694
667.10 0.3696
667.20 0.3697
667.30 0.3698
667.40 0.3699
667.50 0.37
667.60 0.3701
667.70 0.3702
667.80 0.3703
667.90 0.3703
668.00 0.3704
668.10 0.3705
668.20 0.3706
668.30 0.3707
668.40 0.3707
668.50 0.3707
668.60 0.3708
668.70 0.3708
668.80 0.3708
668.90 0.3709
669.00 0.3709
669.10 0.3709
669.20 0.3709
669.30 0.371
669.40 0.371
669.50 0.3709
669.60 0.3709
669.70 0.3709
669.80 0.3709
669.90 0.3709
670.00 0.3709
670.10 0.3709
670.20 0.3709
670.30 0.3709
670.40 0.3708
670.50 0.3708
670.60 0.3707
670.70 0.3707
670.80 0.3706
670.90 0.3706
671.00 0.3705
671.10 0.3705
671.20 0.3705
671.30 0.3704
671.40 0.3703
671.50 0.3703
671.60 0.3702
671.70 0.3701
671.80 0.3701
671.90 0.37
672.00 0.3699
672.10 0.3699
672.20 0.3698
672.30 0.3697
672.40 0.3696
672.50 0.3695
672.60 0.3695
672.70 0.3694
672.80 0.3693
672.90 0.3692
673.00 0.3691
673.10 0.369
673.20 0.3689
673.30 0.3688
673.40 0.3687
673.50 0.3686
673.60 0.3685
673.70 0.3684
673.80 0.3683
673.90 0.3682
674.00 0.3681
674.10 0.368
674.20 0.3679
674.30 0.3678
674.40 0.3677
674.50 0.3676
674.60 0.3674
674.70 0.3673
674.80 0.3672
674.90 0.3671
675.00 0.367
675.10 0.3668
675.20 0.3667
675.30 0.3666
675.40 0.3665
675.50 0.3664
675.60 0.3662
675.70 0.3661
675.80 0.366
675.90 0.3658
676.00 0.3657
676.10 0.3656
676.20 0.3655
676.30 0.3653
676.40 0.3652
676.50 0.3651
676.60 0.3649
676.70 0.3648
676.80 0.3647
676.90 0.3645
677.00 0.3644
677.10 0.3642
677.20 0.3641
677.30 0.364
677.40 0.3638
677.50 0.3637
677.60 0.3635
677.70 0.3634
677.80 0.3633
677.90 0.3631
678.00 0.363
678.10 0.3628
678.20 0.3627
678.30 0.3625
678.40 0.3624
678.50 0.3622
678.60 0.3621
678.70 0.3619
678.80 0.3618
678.90 0.3617
679.00 0.3615
679.10 0.3614
679.20 0.3612
679.30 0.3611
679.40 0.3609
679.50 0.3608
679.60 0.3606
679.70 0.3604
679.80 0.3603
679.90 0.3601
680.00 0.36
680.10 0.3598
680.20 0.3597
680.30 0.3595
680.40 0.3594
680.50 0.3592
680.60 0.3591
680.70 0.3589
680.80 0.3588
680.90 0.3586
681.00 0.3584
681.10 0.3583
681.20 0.3581
681.30 0.358
681.40 0.3578
681.50 0.3577
681.60 0.3575
681.70 0.3573
681.80 0.3572
681.90 0.357
682.00 0.3569
682.10 0.3567
682.20 0.3566
682.30 0.3564
682.40 0.3562
682.50 0.3561
682.60 0.3559
682.70 0.3558
682.80 0.3556
682.90 0.3554
683.00 0.3553
683.10 0.3551
683.20 0.355
683.30 0.3548
683.40 0.3546
683.50 0.3545
683.60 0.3543
683.70 0.3542
683.80 0.354
683.90 0.3538
684.00 0.3537
684.10 0.3535
684.20 0.3534
684.30 0.3532
684.40 0.353
684.50 0.3529
684.60 0.3527
684.70 0.3525
684.80 0.3524
684.90 0.3522
685.00 0.3521
685.10 0.3519
685.20 0.3517
685.30 0.3516
685.40 0.3514
685.50 0.3512
685.60 0.3511
685.70 0.3509
685.80 0.3507
685.90 0.3506
686.00 0.3504
686.10 0.3503
686.20 0.3501
686.30 0.3499
686.40 0.3498
686.50 0.3496
686.60 0.3494
686.70 0.3493
686.80 0.3491
686.90 0.3489
687.00 0.3488
687.10 0.3486
687.20 0.3485
687.30 0.3483
687.40 0.3481
687.50 0.348
687.60 0.3478
687.70 0.3476
687.80 0.3475
687.90 0.3473
688.00 0.3471
688.10 0.347
688.20 0.3468
688.30 0.3467
688.40 0.3465
688.50 0.3463
688.60 0.3462
688.70 0.346
688.80 0.3458
688.90 0.3457
689.00 0.3455
689.10 0.3453
689.20 0.3452
689.30 0.345
689.40 0.3449
689.50 0.3447
689.60 0.3445
689.70 0.3444
689.80 0.3442
689.90 0.344
690.00 0.3439
690.10 0.3437
690.20 0.3435
690.30 0.3434
690.40 0.3432
690.50 0.343
690.60 0.3429
690.70 0.3427
690.80 0.3425
690.90 0.3424
691.00 0.3422
691.10 0.342
691.20 0.3419
691.30 0.3417
691.40 0.3415
691.50 0.3414
691.60 0.3412
691.70 0.341
691.80 0.3409
691.90 0.3407
692.00 0.3405
692.10 0.3404
692.20 0.3402
692.30 0.3401
692.40 0.3399
692.50 0.3397
692.60 0.3396
692.70 0.3394
692.80 0.3392
692.90 0.3391
693.00 0.3389
693.10 0.3387
693.20 0.3386
693.30 0.3384
693.40 0.3383
693.50 0.3381
693.60 0.3379
693.70 0.3378
693.80 0.3376
693.90 0.3374
694.00 0.3373
694.10 0.3371
694.20 0.3369
694.30 0.3368
694.40 0.3366
694.50 0.3365
694.60 0.3363
694.70 0.3361
694.80 0.336
694.90 0.3358
695.00 0.3356
695.10 0.3355
695.20 0.3353
695.30 0.3352
695.40 0.335
695.50 0.3348
695.60 0.3347
695.70 0.3345
695.80 0.3344
695.90 0.3342
696.00 0.334
696.10 0.3339
696.20 0.3337
696.30 0.3335
696.40 0.3334
696.50 0.3332
696.60 0.3331
696.70 0.3329
696.80 0.3327
696.90 0.3326
697.00 0.3324
697.10 0.3323
697.20 0.3321
697.30 0.3319
697.40 0.3318
697.50 0.3316
697.60 0.3315
697.70 0.3313
697.80 0.3311
697.90 0.331
698.00 0.3308
698.10 0.3307
698.20 0.3305
698.30 0.3303
698.40 0.3302
698.50 0.33
698.60 0.3299
698.70 0.3297
698.80 0.3295
698.90 0.3294
699.00 0.3292
699.10 0.3291
699.20 0.3289
699.30 0.3288
699.40 0.3286
699.50 0.3284
699.60 0.3283
699.70 0.3281
699.80 0.328
699.90 0.3278
700.00 0.3276
700.10 0.3275
700.20 0.3273
700.30 0.3272
700.40 0.327
700.50 0.3269
700.60 0.3267
700.70 0.3266
700.80 0.3264
700.90 0.3263
701.00 0.3261
701.10 0.326
701.20 0.3258
701.30 0.3257
701.40 0.3255
701.50 0.3254
701.60 0.3252
701.70 0.3251
701.80 0.3249
701.90 0.3248
702.00 0.3246
702.10 0.3245
702.20 0.3243
702.30 0.3242
702.40 0.324
702.50 0.3238
702.60 0.3237
702.70 0.3235
702.80 0.3234
702.90 0.3232
703.00 0.3231
703.10 0.3229
703.20 0.3228
703.30 0.3226
703.40 0.3225
703.50 0.3223
703.60 0.3222
703.70 0.322
703.80 0.3219
703.90 0.3217
704.00 0.3216
704.10 0.3214
704.20 0.3213
704.30 0.3211
704.40 0.321
704.50 0.3208
704.60 0.3207
704.70 0.3205
704.80 0.3204
704.90 0.3202
705.00 0.3201
705.10 0.3199
705.20 0.3198
705.30 0.3196
705.40 0.3195
705.50 0.3193
705.60 0.3192
705.70 0.319
705.80 0.3189
705.90 0.3187
706.00 0.3185
706.10 0.3184
706.20 0.3182
706.30 0.3181
706.40 0.3179
706.50 0.3178
706.60 0.3176
706.70 0.3175
706.80 0.3173
706.90 0.3172
707.00 0.317
707.10 0.3168
707.20 0.3167
707.30 0.3165
707.40 0.3164
707.50 0.3162
707.60 0.3161
707.70 0.3159
707.80 0.3158
707.90 0.3156
708.00 0.3155
708.10 0.3153
708.20 0.3151
708.30 0.315
708.40 0.3148
708.50 0.3147
708.60 0.3145
708.70 0.3144
708.80 0.3142
708.90 0.3141
709.00 0.3139
709.10 0.3138
709.20 0.3136
709.30 0.3135
709.40 0.3133
709.50 0.3132
709.60 0.313
709.70 0.3129
709.80 0.3127
709.90 0.3126
710.00 0.3124
710.10 0.3122
710.20 0.3121
710.30 0.3119
710.40 0.3118
710.50 0.3116
710.60 0.3115
710.70 0.3113
710.80 0.3112
710.90 0.311
711.00 0.3109
711.10 0.3107
711.20 0.3106
711.30 0.3104
711.40 0.3103
711.50 0.3101
711.60 0.31
711.70 0.3098
711.80 0.3097
711.90 0.3095
712.00 0.3094
712.10 0.3092
712.20 0.3091
712.30 0.3089
712.40 0.3088
712.50 0.3086
712.60 0.3085
712.70 0.3083
712.80 0.3082
712.90 0.308
713.00 0.3079
713.10 0.3077
713.20 0.3076
713.30 0.3074
713.40 0.3073
713.50 0.3071
713.60 0.307
713.70 0.3068
713.80 0.3067
713.90 0.3065
714.00 0.3064
714.10 0.3062
714.20 0.3061
714.30 0.3059
714.40 0.3058
714.50 0.3057
714.60 0.3055
714.70 0.3054
714.80 0.3052
714.90 0.3051
715.00 0.3049
715.10 0.3048
715.20 0.3046
715.30 0.3045
715.40 0.3043
715.50 0.3042
715.60 0.304
715.70 0.3039
715.80 0.3038
715.90 0.3036
716.00 0.3035
716.10 0.3033
716.20 0.3032
716.30 0.303
716.40 0.3029
716.50 0.3028
716.60 0.3026
716.70 0.3025
716.80 0.3023
716.90 0.3022
717.00 0.302
717.10 0.3019
717.20 0.3018
717.30 0.3016
717.40 0.3015
717.50 0.3013
717.60 0.3012
717.70 0.301
717.80 0.3009
717.90 0.3008
718.00 0.3006
718.10 0.3005
718.20 0.3003
718.30 0.3002
718.40 0.3
718.50 0.2999
718.60 0.2998
718.70 0.2996
718.80 0.2995
718.90 0.2993
719.00 0.2992
719.10 0.2991
719.20 0.2989
719.30 0.2988
719.40 0.2986
719.50 0.2985
719.60 0.2984
719.70 0.2982
719.80 0.2981
719.90 0.2979
720.00 0.2978
720.10 0.2976
720.20 0.2975
720.30 0.2974
720.40 0.2972
720.50 0.2971
720.60 0.2969
720.70 0.2968
720.80 0.2966
720.90 0.2965
721.00 0.2964
721.10 0.2962
721.20 0.2961
721.30 0.2959
721.40 0.2958
721.50 0.2956
721.60 0.2955
721.70 0.2954
721.80 0.2952
721.90 0.2951
722.00 0.2949
722.10 0.2948
722.20 0.2946
722.30 0.2945
722.40 0.2944
722.50 0.2942
722.60 0.2941
722.70 0.2939
722.80 0.2938
722.90 0.2936
723.00 0.2935
723.10 0.2934
723.20 0.2932
723.30 0.2931
723.40 0.2929
723.50 0.2928
723.60 0.2927
723.70 0.2925
723.80 0.2924
723.90 0.2922
724.00 0.2921
724.10 0.2919
724.20 0.2918
724.30 0.2917
724.40 0.2915
724.50 0.2914
724.60 0.2912
724.70 0.2911
724.80 0.291
724.90 0.2908
725.00 0.2907
725.10 0.2905
725.20 0.2904
725.30 0.2903
725.40 0.2901
725.50 0.29
725.60 0.2898
725.70 0.2897
725.80 0.2896
725.90 0.2894
726.00 0.2893
726.10 0.2891
726.20 0.289
726.30 0.2889
726.40 0.2887
726.50 0.2886
726.60 0.2885
726.70 0.2883
726.80 0.2882
726.90 0.288
727.00 0.2879
727.10 0.2878
727.20 0.2876
727.30 0.2875
727.40 0.2873
727.50 0.2872
727.60 0.2871
727.70 0.2869
727.80 0.2868
727.90 0.2867
728.00 0.2865
728.10 0.2864
728.20 0.2862
728.30 0.2861
728.40 0.286
728.50 0.2858
728.60 0.2857
728.70 0.2856
728.80 0.2854
728.90 0.2853
729.00 0.2851
729.10 0.285
729.20 0.2849
729.30 0.2847
729.40 0.2846
729.50 0.2845
729.60 0.2843
729.70 0.2842
729.80 0.2841
729.90 0.2839
730.00 0.2838
730.10 0.2836
730.20 0.2835
730.30 0.2834
730.40 0.2832
730.50 0.2831
730.60 0.283
730.70 0.2828
730.80 0.2827
730.90 0.2826
731.00 0.2824
731.10 0.2823
731.20 0.2822
731.30 0.282
731.40 0.2819
731.50 0.2818
731.60 0.2816
731.70 0.2815
731.80 0.2814
731.90 0.2812
732.00 0.2811
732.10 0.281
732.20 0.2808
732.30 0.2807
732.40 0.2806
732.50 0.2804
732.60 0.2803
732.70 0.2802
732.80 0.28
732.90 0.2799
733.00 0.2798
733.10 0.2796
733.20 0.2795
733.30 0.2794
733.40 0.2792
733.50 0.2791
733.60 0.279
733.70 0.2788
733.80 0.2787
733.90 0.2786
734.00 0.2784
734.10 0.2783
734.20 0.2782
734.30 0.278
734.40 0.2779
734.50 0.2778
734.60 0.2776
734.70 0.2775
734.80 0.2774
734.90 0.2772
735.00 0.2771
735.10 0.277
735.20 0.2768
735.30 0.2767
735.40 0.2766
735.50 0.2764
735.60 0.2763
735.70 0.2762
735.80 0.2761
735.90 0.2759
736.00 0.2758
736.10 0.2757
736.20 0.2755
736.30 0.2754
736.40 0.2753
736.50 0.2751
736.60 0.275
736.70 0.2749
736.80 0.2747
736.90 0.2746
737.00 0.2745
737.10 0.2744
737.20 0.2742
737.30 0.2741
737.40 0.274
737.50 0.2738
737.60 0.2737
737.70 0.2736
737.80 0.2734
737.90 0.2733
738.00 0.2732
738.10 0.273
738.20 0.2729
738.30 0.2728
738.40 0.2727
738.50 0.2725
738.60 0.2724
738.70 0.2723
738.80 0.2721
738.90 0.272
739.00 0.2719
739.10 0.2718
739.20 0.2716
739.30 0.2715
739.40 0.2714
739.50 0.2712
739.60 0.2711
739.70 0.271
739.80 0.2708
739.90 0.2707
740.00 0.2706
740.10 0.2705
740.20 0.2703
740.30 0.2702
740.40 0.2701
740.50 0.27
740.60 0.2698
740.70 0.2697
740.80 0.2696
740.90 0.2694
741.00 0.2693
741.10 0.2692
741.20 0.2691
741.30 0.2689
741.40 0.2688
741.50 0.2687
741.60 0.2686
741.70 0.2684
741.80 0.2683
741.90 0.2682
742.00 0.2681
742.10 0.2679
742.20 0.2678
742.30 0.2677
742.40 0.2676
742.50 0.2674
742.60 0.2673
742.70 0.2672
742.80 0.2671
742.90 0.2669
743.00 0.2668
743.10 0.2667
743.20 0.2666
743.30 0.2664
743.40 0.2663
743.50 0.2662
743.60 0.2661
743.70 0.2659
743.80 0.2658
743.90 0.2657
744.00 0.2656
744.10 0.2654
744.20 0.2653
744.30 0.2652
744.40 0.2651
744.50 0.2649
744.60 0.2648
744.70 0.2647
744.80 0.2646
744.90 0.2644
745.00 0.2643
745.10 0.2642
745.20 0.2641
745.30 0.2639
745.40 0.2638
745.50 0.2637
745.60 0.2636
745.70 0.2634
745.80 0.2633
745.90 0.2632
746.00 0.2631
746.10 0.2629
746.20 0.2628
746.30 0.2627
746.40 0.2626
746.50 0.2624
746.60 0.2623
746.70 0.2622
746.80 0.2621
746.90 0.262
747.00 0.2618
747.10 0.2617
747.20 0.2616
747.30 0.2615
747.40 0.2613
747.50 0.2612
747.60 0.2611
747.70 0.261
747.80 0.2608
747.90 0.2607
748.00 0.2606
748.10 0.2605
748.20 0.2604
748.30 0.2602
748.40 0.2601
748.50 0.26
748.60 0.2599
748.70 0.2597
748.80 0.2596
748.90 0.2595
749.00 0.2594
749.10 0.2593
749.20 0.2591
749.30 0.259
749.40 0.2589
749.50 0.2588
749.60 0.2586
749.70 0.2585
749.80 0.2584
749.90 0.2583
750.00 0.2582
750.10 0.258
750.20 0.2579
750.30 0.2578
750.40 0.2577
750.50 0.2576
750.60 0.2574
750.70 0.2573
750.80 0.2572
750.90 0.2571
751.00 0.257
751.10 0.2568
751.20 0.2567
751.30 0.2566
751.40 0.2565
751.50 0.2564
751.60 0.2563
751.70 0.2561
751.80 0.256
751.90 0.2559
752.00 0.2558
752.10 0.2557
752.20 0.2555
752.30 0.2554
752.40 0.2553
752.50 0.2552
752.60 0.2551
752.70 0.2549
752.80 0.2548
752.90 0.2547
753.00 0.2546
753.10 0.2545
753.20 0.2544
753.30 0.2542
753.40 0.2541
753.50 0.254
753.60 0.2539
753.70 0.2538
753.80 0.2536
753.90 0.2535
754.00 0.2534
754.10 0.2533
754.20 0.2532
754.30 0.2531
754.40 0.2529
754.50 0.2528
754.60 0.2527
754.70 0.2526
754.80 0.2525
754.90 0.2524
755.00 0.2522
755.10 0.2521
755.20 0.252
755.30 0.2519
755.40 0.2518
755.50 0.2517
755.60 0.2515
755.70 0.2514
755.80 0.2513
755.90 0.2512
756.00 0.2511
756.10 0.251
756.20 0.2508
756.30 0.2507
756.40 0.2506
756.50 0.2505
756.60 0.2504
756.70 0.2503
756.80 0.2501
756.90 0.25
757.00 0.2499
757.10 0.2498
757.20 0.2497
757.30 0.2496
757.40 0.2494
757.50 0.2493
757.60 0.2492
757.70 0.2491
757.80 0.249
757.90 0.2489
758.00 0.2487
758.10 0.2486
758.20 0.2485
758.30 0.2484
758.40 0.2483
758.50 0.2482
758.60 0.2481
758.70 0.2479
758.80 0.2478
758.90 0.2477
759.00 0.2476
759.10 0.2475
759.20 0.2474
759.30 0.2472
759.40 0.2471
759.50 0.247
759.60 0.2469
759.70 0.2468
759.80 0.2467
759.90 0.2466
760.00 0.2464
760.10 0.2463
760.20 0.2462
760.30 0.2461
760.40 0.246
760.50 0.2459
760.60 0.2458
760.70 0.2457
760.80 0.2455
760.90 0.2454
761.00 0.2453
761.10 0.2452
761.20 0.2451
761.30 0.245
761.40 0.2449
761.50 0.2448
761.60 0.2446
761.70 0.2445
761.80 0.2444
761.90 0.2443
762.00 0.2442
762.10 0.2441
762.20 0.244
762.30 0.2439
762.40 0.2437
762.50 0.2436
762.60 0.2435
762.70 0.2434
762.80 0.2433
762.90 0.2432
763.00 0.2431
763.10 0.243
763.20 0.2429
763.30 0.2427
763.40 0.2426
763.50 0.2425
763.60 0.2424
763.70 0.2423
763.80 0.2422
763.90 0.2421
764.00 0.242
764.10 0.2419
764.20 0.2417
764.30 0.2416
764.40 0.2415
764.50 0.2414
764.60 0.2413
764.70 0.2412
764.80 0.2411
764.90 0.241
765.00 0.2409
765.10 0.2407
765.20 0.2406
765.30 0.2405
765.40 0.2404
765.50 0.2403
765.60 0.2402
765.70 0.2401
765.80 0.24
765.90 0.2399
766.00 0.2398
766.10 0.2396
766.20 0.2395
766.30 0.2394
766.40 0.2393
766.50 0.2392
766.60 0.2391
766.70 0.239
766.80 0.2389
766.90 0.2388
767.00 0.2387
767.10 0.2385
767.20 0.2384
767.30 0.2383
767.40 0.2382
767.50 0.2381
767.60 0.238
767.70 0.2379
767.80 0.2378
767.90 0.2377
768.00 0.2376
768.10 0.2375
768.20 0.2373
768.30 0.2372
768.40 0.2371
768.50 0.237
768.60 0.2369
768.70 0.2368
768.80 0.2367
768.90 0.2366
769.00 0.2365
769.10 0.2364
769.20 0.2363
769.30 0.2361
769.40 0.236
769.50 0.2359
769.60 0.2358
769.70 0.2357
769.80 0.2356
769.90 0.2355
770.00 0.2354
770.10 0.2353
770.20 0.2352
770.30 0.2351
770.40 0.235
770.50 0.2349
770.60 0.2347
770.70 0.2346
770.80 0.2345
770.90 0.2344
771.00 0.2343
771.10 0.2342
771.20 0.2341
771.30 0.234
771.40 0.2339
771.50 0.2338
771.60 0.2337
771.70 0.2336
771.80 0.2335
771.90 0.2334
772.00 0.2333
772.10 0.2332
772.20 0.2331
772.30 0.2329
772.40 0.2328
772.50 0.2327
772.60 0.2326
772.70 0.2325
772.80 0.2324
772.90 0.2323
773.00 0.2322
773.10 0.2321
773.20 0.232
773.30 0.2319
773.40 0.2318
773.50 0.2317
773.60 0.2316
773.70 0.2315
773.80 0.2314
773.90 0.2313
774.00 0.2312
774.10 0.2311
774.20 0.2309
774.30 0.2308
774.40 0.2307
774.50 0.2306
774.60 0.2305
774.70 0.2304
774.80 0.2303
774.90 0.2302
775.00 0.2301
775.10 0.23
775.20 0.2299
775.30 0.2298
775.40 0.2297
775.50 0.2296
775.60 0.2295
775.70 0.2294
775.80 0.2293
775.90 0.2292
776.00 0.2291
776.10 0.229
776.20 0.2289
776.30 0.2288
776.40 0.2287
776.50 0.2285
776.60 0.2284
776.70 0.2283
776.80 0.2282
776.90 0.2281
777.00 0.228
777.10 0.2279
777.20 0.2278
777.30 0.2277
777.40 0.2276
777.50 0.2275
777.60 0.2274
777.70 0.2273
777.80 0.2272
777.90 0.2271
778.00 0.227
778.10 0.2269
778.20 0.2268
778.30 0.2267
778.40 0.2266
778.50 0.2265
778.60 0.2264
778.70 0.2263
778.80 0.2262
778.90 0.2261
779.00 0.226
779.10 0.2259
779.20 0.2258
779.30 0.2257
779.40 0.2256
779.50 0.2255
779.60 0.2254
779.70 0.2253
779.80 0.2252
779.90 0.2251
780.00 0.2249
780.10 0.2248
780.20 0.2247
780.30 0.2246
780.40 0.2245
780.50 0.2244
780.60 0.2243
780.70 0.2242
780.80 0.2241
780.90 0.224
781.00 0.2239
781.10 0.2238
781.20 0.2237
781.30 0.2236
781.40 0.2235
781.50 0.2234
781.60 0.2233
781.70 0.2232
781.80 0.2231
781.90 0.223
782.00 0.2229
782.10 0.2228
782.20 0.2227
782.30 0.2226
782.40 0.2225
782.50 0.2224
782.60 0.2223
782.70 0.2222
782.80 0.2221
782.90 0.222
783.00 0.2219
783.10 0.2218
783.20 0.2217
783.30 0.2216
783.40 0.2215
783.50 0.2214
783.60 0.2213
783.70 0.2212
783.80 0.2211
783.90 0.221
784.00 0.221
784.10 0.2209
784.20 0.2208
784.30 0.2207
784.40 0.2206
784.50 0.2205
784.60 0.2204
784.70 0.2203
784.80 0.2202
784.90 0.2201
785.00 0.22
785.10 0.2199
785.20 0.2198
785.30 0.2197
785.40 0.2196
785.50 0.2195
785.60 0.2194
785.70 0.2193
785.80 0.2192
785.90 0.2191
786.00 0.219
786.10 0.2189
786.20 0.2188
786.30 0.2187
786.40 0.2186
786.50 0.2185
786.60 0.2184
786.70 0.2183
786.80 0.2182
786.90 0.2181
787.00 0.218
787.10 0.2179
787.20 0.2178
787.30 0.2177
787.40 0.2176
787.50 0.2175
787.60 0.2174
787.70 0.2173
787.80 0.2172
787.90 0.2171
788.00 0.217
788.10 0.2169
788.20 0.2168
788.30 0.2167
788.40 0.2166
788.50 0.2165
788.60 0.2164
788.70 0.2163
788.80 0.2162
788.90 0.2161
789.00 0.2161
789.10 0.216
789.20 0.2159
789.30 0.2158
789.40 0.2157
789.50 0.2156
789.60 0.2155
789.70 0.2154
789.80 0.2153
789.90 0.2152
790.00 0.2151
790.10 0.215
790.20 0.2149
790.30 0.2148
790.40 0.2147
790.50 0.2146
790.60 0.2145
790.70 0.2144
790.80 0.2143
790.90 0.2142
791.00 0.2141
791.10 0.214
791.20 0.2139
791.30 0.2138
791.40 0.2138
791.50 0.2137
791.60 0.2136
791.70 0.2135
791.80 0.2134
791.90 0.2133
792.00 0.2132
792.10 0.2131
792.20 0.213
792.30 0.2129
792.40 0.2128
792.50 0.2127
792.60 0.2126
792.70 0.2125
792.80 0.2124
792.90 0.2123
793.00 0.2122
793.10 0.2121
793.20 0.2121
793.30 0.212
793.40 0.2119
793.50 0.2118
793.60 0.2117
793.70 0.2116
793.80 0.2115
793.90 0.2114
794.00 0.2113
794.10 0.2112
794.20 0.2111
794.30 0.211
794.40 0.2109
794.50 0.2108
794.60 0.2107
794.70 0.2107
794.80 0.2106
794.90 0.2105
795.00 0.2104
795.10 0.2103
795.20 0.2102
795.30 0.2101
795.40 0.21
795.50 0.2099
795.60 0.2098
795.70 0.2097
795.80 0.2096
795.90 0.2095
796.00 0.2094
796.10 0.2093
796.20 0.2093
796.30 0.2092
796.40 0.2091
796.50 0.209
796.60 0.2089
796.70 0.2088
796.80 0.2087
796.90 0.2086
797.00 0.2085
797.10 0.2084
797.20 0.2083
797.30 0.2082
797.40 0.2081
797.50 0.2081
797.60 0.208
797.70 0.2079
797.80 0.2078
797.90 0.2077
798.00 0.2076
798.10 0.2075
798.20 0.2074
798.30 0.2073
798.40 0.2072
798.50 0.2071
798.60 0.207
798.70 0.2069
798.80 0.2069
798.90 0.2068
799.00 0.2067
799.10 0.2066
799.20 0.2065
799.30 0.2064
799.40 0.2063
799.50 0.2062
799.60 0.2061
799.70 0.206
799.80 0.2059
799.90 0.2058
800.00 0.2058
800.10 0.2057
800.20 0.2056
800.30 0.2055
800.40 0.2054
800.50 0.2053
800.60 0.2052
800.70 0.2051
800.80 0.205
800.90 0.2049
801.00 0.2049
801.10 0.2048
801.20 0.2047
801.30 0.2046
801.40 0.2045
801.50 0.2044
801.60 0.2043
801.70 0.2042
801.80 0.2041
801.90 0.2041
802.00 0.204
802.10 0.2039
802.20 0.2038
802.30 0.2037
802.40 0.2036
802.50 0.2035
802.60 0.2034
802.70 0.2033
802.80 0.2032
802.90 0.2032
803.00 0.2031
803.10 0.203
803.20 0.2029
803.30 0.2028
803.40 0.2027
803.50 0.2026
803.60 0.2025
803.70 0.2024
803.80 0.2024
803.90 0.2023
804.00 0.2022
804.10 0.2021
804.20 0.202
804.30 0.2019
804.40 0.2018
804.50 0.2017
804.60 0.2017
804.70 0.2016
804.80 0.2015
804.90 0.2014
805.00 0.2013
805.10 0.2012
805.20 0.2011
805.30 0.201
805.40 0.2009
805.50 0.2009
805.60 0.2008
805.70 0.2007
805.80 0.2006
805.90 0.2005
806.00 0.2004
806.10 0.2003
806.20 0.2002
806.30 0.2002
806.40 0.2001
806.50 0.2
806.60 0.1999
806.70 0.1998
806.80 0.1997
806.90 0.1996
807.00 0.1995
807.10 0.1995
807.20 0.1994
807.30 0.1993
807.40 0.1992
807.50 0.1991
807.60 0.199
807.70 0.1989
807.80 0.1988
807.90 0.1988
808.00 0.1987
808.10 0.1986
808.20 0.1985
808.30 0.1984
808.40 0.1983
808.50 0.1982
808.60 0.1981
808.70 0.1981
808.80 0.198
808.90 0.1979
809.00 0.1978
809.10 0.1977
809.20 0.1976
809.30 0.1975
809.40 0.1975
809.50 0.1974
809.60 0.1973
809.70 0.1972
809.80 0.1971
809.90 0.197
810.00 0.1969
810.10 0.1968
810.20 0.1968
810.30 0.1967
810.40 0.1966
810.50 0.1965
810.60 0.1964
810.70 0.1963
810.80 0.1963
810.90 0.1962
811.00 0.1961
811.10 0.196
811.20 0.1959
811.30 0.1958
811.40 0.1957
811.50 0.1957
811.60 0.1956
811.70 0.1955
811.80 0.1954
811.90 0.1953
812.00 0.1952
812.10 0.1952
812.20 0.1951
812.30 0.195
812.40 0.1949
812.50 0.1948
812.60 0.1947
812.70 0.1946
812.80 0.1946
812.90 0.1945
813.00 0.1944
813.10 0.1943
813.20 0.1942
813.30 0.1941
813.40 0.1941
813.50 0.194
813.60 0.1939
813.70 0.1938
813.80 0.1937
813.90 0.1936
814.00 0.1936
814.10 0.1935
814.20 0.1934
814.30 0.1933
814.40 0.1932
814.50 0.1931
814.60 0.193
814.70 0.193
814.80 0.1929
814.90 0.1928
815.00 0.1927
815.10 0.1926
815.20 0.1925
815.30 0.1925
815.40 0.1924
815.50 0.1923
815.60 0.1922
815.70 0.1921
815.80 0.192
815.90 0.192
816.00 0.1919
816.10 0.1918
816.20 0.1917
816.30 0.1916
816.40 0.1915
816.50 0.1915
816.60 0.1914
816.70 0.1913
816.80 0.1912
816.90 0.1911
817.00 0.1911
817.10 0.191
817.20 0.1909
817.30 0.1908
817.40 0.1907
817.50 0.1906
817.60 0.1906
817.70 0.1905
817.80 0.1904
817.90 0.1903
818.00 0.1902
818.10 0.1901
818.20 0.1901
818.30 0.19
818.40 0.1899
818.50 0.1898
818.60 0.1897
818.70 0.1896
818.80 0.1896
818.90 0.1895
819.00 0.1894
819.10 0.1893
819.20 0.1892
819.30 0.1892
819.40 0.1891
819.50 0.189
819.60 0.1889
819.70 0.1888
819.80 0.1887
819.90 0.1887
820.00 0.1886
820.10 0.1885
820.20 0.1884
820.30 0.1883
820.40 0.1883
820.50 0.1882
820.60 0.1881
820.70 0.188
820.80 0.1879
820.90 0.1879
821.00 0.1878
821.10 0.1877
821.20 0.1876
821.30 0.1875
821.40 0.1875
821.50 0.1874
821.60 0.1873
821.70 0.1872
821.80 0.1871
821.90 0.1871
822.00 0.187
822.10 0.1869
822.20 0.1868
822.30 0.1867
822.40 0.1867
822.50 0.1866
822.60 0.1865
822.70 0.1864
822.80 0.1863
822.90 0.1863
823.00 0.1862
823.10 0.1861
823.20 0.186
823.30 0.1859
823.40 0.1859
823.50 0.1858
823.60 0.1857
823.70 0.1856
823.80 0.1855
823.90 0.1855
824.00 0.1854
824.10 0.1853
824.20 0.1852
824.30 0.1851
824.40 0.1851
824.50 0.185
824.60 0.1849
824.70 0.1848
824.80 0.1847
824.90 0.1847
825.00 0.1846
825.10 0.1845
825.20 0.1844
825.30 0.1843
825.40 0.1843
825.50 0.1842
825.60 0.1841
825.70 0.184
825.80 0.1839
825.90 0.1839
826.00 0.1838
826.10 0.1837
826.20 0.1836
826.30 0.1836
826.40 0.1835
826.50 0.1834
826.60 0.1833
826.70 0.1832
826.80 0.1832
826.90 0.1831
827.00 0.183
827.10 0.1829
827.20 0.1828
827.30 0.1828
827.40 0.1827
827.50 0.1826
827.60 0.1825
827.70 0.1825
827.80 0.1824
827.90 0.1823
828.00 0.1822
828.10 0.1821
828.20 0.1821
828.30 0.182
828.40 0.1819
828.50 0.1818
828.60 0.1818
828.70 0.1817
828.80 0.1816
828.90 0.1815
829.00 0.1815
829.10 0.1814
829.20 0.1813
829.30 0.1812
829.40 0.1811
829.50 0.1811
829.60 0.181
829.70 0.1809
829.80 0.1808
829.90 0.1808
830.00 0.1807
830.10 0.1806
830.20 0.1805
830.30 0.1804
830.40 0.1804
830.50 0.1803
830.60 0.1802
830.70 0.1801
830.80 0.1801
830.90 0.18
831.00 0.1799
831.10 0.1798
831.20 0.1798
831.30 0.1797
831.40 0.1796
831.50 0.1795
831.60 0.1795
831.70 0.1794
831.80 0.1793
831.90 0.1792
832.00 0.1791
832.10 0.1791
832.20 0.179
832.30 0.1789
832.40 0.1788
832.50 0.1788
832.60 0.1787
832.70 0.1786
832.80 0.1785
832.90 0.1785
833.00 0.1784
833.10 0.1783
833.20 0.1782
833.30 0.1782
833.40 0.1781
833.50 0.178
833.60 0.1779
833.70 0.1779
833.80 0.1778
833.90 0.1777
834.00 0.1776
834.10 0.1776
834.20 0.1775
834.30 0.1774
834.40 0.1773
834.50 0.1773
834.60 0.1772
834.70 0.1771
834.80 0.177
834.90 0.177
835.00 0.1769
835.10 0.1768
835.20 0.1767
835.30 0.1767
835.40 0.1766
835.50 0.1765
835.60 0.1764
835.70 0.1764
835.80 0.1763
835.90 0.1762
836.00 0.1761
836.10 0.1761
836.20 0.176
836.30 0.1759
836.40 0.1758
836.50 0.1758
836.60 0.1757
836.70 0.1756
836.80 0.1755
836.90 0.1755
837.00 0.1754
837.10 0.1753
837.20 0.1752
837.30 0.1752
837.40 0.1751
837.50 0.175
837.60 0.1749
837.70 0.1749
837.80 0.1748
837.90 0.1747
838.00 0.1746
838.10 0.1746
838.20 0.1745
838.30 0.1744
838.40 0.1744
838.50 0.1743
838.60 0.1742
838.70 0.1741
838.80 0.1741
838.90 0.174
839.00 0.1739
839.10 0.1738
839.20 0.1738
839.30 0.1737
839.40 0.1736
839.50 0.1735
839.60 0.1735
839.70 0.1734
839.80 0.1733
839.90 0.1733
840.00 0.1732
840.10 0.1731
840.20 0.173
840.30 0.173
840.40 0.1729
840.50 0.1728
840.60 0.1727
840.70 0.1727
840.80 0.1726
840.90 0.1725
841.00 0.1724
841.10 0.1724
841.20 0.1723
841.30 0.1722
841.40 0.1722
841.50 0.1721
841.60 0.172
841.70 0.1719
841.80 0.1719
841.90 0.1718
842.00 0.1717
842.10 0.1717
842.20 0.1716
842.30 0.1715
842.40 0.1714
842.50 0.1714
842.60 0.1713
842.70 0.1712
842.80 0.1711
842.90 0.1711
843.00 0.171
843.10 0.1709
843.20 0.1709
843.30 0.1708
843.40 0.1707
843.50 0.1706
843.60 0.1706
843.70 0.1705
843.80 0.1704
843.90 0.1704
844.00 0.1703
844.10 0.1702
844.20 0.1701
844.30 0.1701
844.40 0.17
844.50 0.1699
844.60 0.1699
844.70 0.1698
844.80 0.1697
844.90 0.1696
845.00 0.1696
845.10 0.1695
845.20 0.1694
845.30 0.1694
845.40 0.1693
845.50 0.1692
845.60 0.1691
845.70 0.1691
845.80 0.169
845.90 0.1689
846.00 0.1689
846.10 0.1688
846.20 0.1687
846.30 0.1687
846.40 0.1686
846.50 0.1685
846.60 0.1684
846.70 0.1684
846.80 0.1683
846.90 0.1682
847.00 0.1682
847.10 0.1681
847.20 0.168
847.30 0.168
847.40 0.1679
847.50 0.1678
847.60 0.1678
847.70 0.1677
847.80 0.1676
847.90 0.1676
848.00 0.1675
848.10 0.1674
848.20 0.1674
848.30 0.1673
848.40 0.1672
848.50 0.1672
848.60 0.1671
848.70 0.167
848.80 0.167
848.90 0.1669
849.00 0.1668
849.10 0.1668
849.20 0.1667
849.30 0.1667
849.40 0.1666
849.50 0.1665
849.60 0.1665
849.70 0.1664
849.80 0.1663
849.90 0.1663
850.00 0.1662
850.10 0.1661
850.20 0.1661
850.30 0.166
850.40 0.1659
850.50 0.1659
850.60 0.1658
850.70 0.1657
850.80 0.1657
850.90 0.1656
851.00 0.1655
851.10 0.1655
851.20 0.1654
851.30 0.1654
851.40 0.1653
851.50 0.1652
851.60 0.1652
851.70 0.1651
851.80 0.165
851.90 0.165
852.00 0.1649
852.10 0.1648
852.20 0.1648
852.30 0.1647
852.40 0.1646
852.50 0.1646
852.60 0.1645
852.70 0.1645
852.80 0.1644
852.90 0.1643
853.00 0.1643
853.10 0.1642
853.20 0.1641
853.30 0.1641
853.40 0.164
853.50 0.1639
853.60 0.1639
853.70 0.1638
853.80 0.1638
853.90 0.1637
854.00 0.1636
854.10 0.1636
854.20 0.1635
854.30 0.1634
854.40 0.1634
854.50 0.1633
854.60 0.1633
854.70 0.1632
854.80 0.1631
854.90 0.1631
855.00 0.163
855.10 0.1629
855.20 0.1629
855.30 0.1628
855.40 0.1627
855.50 0.1627
855.60 0.1626
855.70 0.1626
855.80 0.1625
855.90 0.1624
856.00 0.1624
856.10 0.1623
856.20 0.1622
856.30 0.1622
856.40 0.1621
856.50 0.1621
856.60 0.162
856.70 0.1619
856.80 0.1619
856.90 0.1618
857.00 0.1617
857.10 0.1617
857.20 0.1616
857.30 0.1616
857.40 0.1615
857.50 0.1614
857.60 0.1614
857.70 0.1613
857.80 0.1613
857.90 0.1612
858.00 0.1611
858.10 0.1611
858.20 0.161
858.30 0.161
858.40 0.1609
858.50 0.1609
858.60 0.1608
858.70 0.1607
858.80 0.1607
858.90 0.1606
859.00 0.1606
859.10 0.1605
859.20 0.1604
859.30 0.1604
859.40 0.1603
859.50 0.1603
859.60 0.1602
859.70 0.1601
859.80 0.1601
859.90 0.16
860.00 0.16
860.10 0.1599
860.20 0.1598
860.30 0.1598
860.40 0.1597
860.50 0.1597
860.60 0.1596
860.70 0.1596
860.80 0.1595
860.90 0.1594
861.00 0.1594
861.10 0.1593
861.20 0.1593
861.30 0.1592
861.40 0.1591
861.50 0.1591
861.60 0.159
861.70 0.159
861.80 0.1589
861.90 0.1588
862.00 0.1588
862.10 0.1587
862.20 0.1587
862.30 0.1586
862.40 0.1586
862.50 0.1585
862.60 0.1584
862.70 0.1584
862.80 0.1583
862.90 0.1583
863.00 0.1582
863.10 0.1581
863.20 0.1581
863.30 0.158
863.40 0.158
863.50 0.1579
863.60 0.1578
863.70 0.1578
863.80 0.1577
863.90 0.1577
864.00 0.1576
864.10 0.1576
864.20 0.1575
864.30 0.1574
864.40 0.1574
864.50 0.1573
864.60 0.1573
864.70 0.1572
864.80 0.1571
864.90 0.1571
865.00 0.157
865.10 0.157
865.20 0.1569
865.30 0.1568
865.40 0.1568
865.50 0.1567
865.60 0.1567
865.70 0.1566
865.80 0.1566
865.90 0.1565
866.00 0.1564
866.10 0.1564
866.20 0.1563
866.30 0.1563
866.40 0.1562
866.50 0.1561
866.60 0.1561
866.70 0.156
866.80 0.156
866.90 0.1559
867.00 0.1559
867.10 0.1558
867.20 0.1558
867.30 0.1557
867.40 0.1557
867.50 0.1556
867.60 0.1556
867.70 0.1555
867.80 0.1555
867.90 0.1554
868.00 0.1554
868.10 0.1553
868.20 0.1553
868.30 0.1552
868.40 0.1552
868.50 0.1551
868.60 0.1551
868.70 0.155
868.80 0.155
868.90 0.155
869.00 0.1549
869.10 0.1549
869.20 0.1548
869.30 0.1548
869.40 0.1547
869.50 0.1547
869.60 0.1546
869.70 0.1546
869.80 0.1545
869.90 0.1545
870.00 0.1544
870.10 0.1544
870.20 0.1543
870.30 0.1543
870.40 0.1542
870.50 0.1542
870.60 0.1541
870.70 0.1541
870.80 0.1541
870.90 0.154
871.00 0.154
871.10 0.1539
871.20 0.1539
871.30 0.1538
871.40 0.1538
871.50 0.1537
871.60 0.1537
871.70 0.1536
871.80 0.1536
871.90 0.1535
872.00 0.1535
872.10 0.1534
872.20 0.1534
872.30 0.1533
872.40 0.1533
872.50 0.1532
872.60 0.1532
872.70 0.1531
872.80 0.1531
872.90 0.153
873.00 0.153
873.10 0.1529
873.20 0.1529
873.30 0.1528
873.40 0.1527
873.50 0.1527
873.60 0.1526
873.70 0.1526
873.80 0.1525
873.90 0.1525
874.00 0.1524
874.10 0.1524
874.20 0.1523
874.30 0.1523
874.40 0.1522
874.50 0.1522
874.60 0.1521
874.70 0.1521
874.80 0.152
874.90 0.152
875.00 0.1519
875.10 0.1519
875.20 0.1518
875.30 0.1518
875.40 0.1517
875.50 0.1516
875.60 0.1516
875.70 0.1515
875.80 0.1515
875.90 0.1514
876.00 0.1514
876.10 0.1513
876.20 0.1513
876.30 0.1512
876.40 0.1512
876.50 0.1511
876.60 0.1511
876.70 0.151
876.80 0.151
876.90 0.1509
877.00 0.1509
877.10 0.1508
877.20 0.1508
877.30 0.1507
877.40 0.1507
877.50 0.1507
877.60 0.1506
877.70 0.1506
877.80 0.1505
877.90 0.1505
878.00 0.1505
878.10 0.1504
878.20 0.1504
878.30 0.1503
878.40 0.1503
878.50 0.1503
878.60 0.1502
878.70 0.1502
878.80 0.1501
878.90 0.1501
879.00 0.1501
879.10 0.15
879.20 0.15
879.30 0.1499
879.40 0.1499
879.50 0.1499
879.60 0.1498
879.70 0.1498
879.80 0.1497
879.90 0.1497
880.00 0.1497
880.10 0.1496
880.20 0.1496
880.30 0.1495
880.40 0.1495
880.50 0.1495
880.60 0.1494
880.70 0.1494
880.80 0.1493
880.90 0.1493
881.00 0.1493
881.10 0.1492
881.20 0.1492
881.30 0.1491
881.40 0.1491
881.50 0.1491
881.60 0.149
881.70 0.149
881.80 0.1489
881.90 0.1489
882.00 0.1489
882.10 0.1488
882.20 0.1487
882.30 0.1486
882.40 0.1485
882.50 0.1484
882.60 0.1484
882.70 0.1483
882.80 0.1482
882.90 0.1481
883.00 0.148
883.10 0.1479
883.20 0.1479
883.30 0.1478
883.40 0.1477
883.50 0.1476
883.60 0.1475
883.70 0.1475
883.80 0.1474
883.90 0.1473
884.00 0.1472
884.10 0.1471
884.20 0.147
884.30 0.147
884.40 0.1469
884.50 0.1468
884.60 0.1467
884.70 0.1466
884.80 0.1465
884.90 0.1465
885.00 0.1464
885.10 0.1463
885.20 0.1462
885.30 0.1461
885.40 0.146
885.50 0.146
885.60 0.1459
885.70 0.1458
885.80 0.1457
885.90 0.1456
886.00 0.1456
886.10 0.1455
886.20 0.1454
886.30 0.1453
886.40 0.1452
886.50 0.1451
886.60 0.1451
886.70 0.145
886.80 0.1449
886.90 0.1448
887.00 0.1447
887.10 0.1447
887.20 0.1447
887.30 0.1447
887.40 0.1447
887.50 0.1447
887.60 0.1447
887.70 0.1447
887.80 0.1447
887.90 0.1447
888.00 0.1447
888.10 0.1447
888.20 0.1447
888.30 0.1447
888.40 0.1447
888.50 0.1447
888.60 0.1447
888.70 0.1446
888.80 0.1446
888.90 0.1446
889.00 0.1446
889.10 0.1446
889.20 0.1446
889.30 0.1446
889.40 0.1446
889.50 0.1446
889.60 0.1446
889.70 0.1446
889.80 0.1446
889.90 0.1446
890.00 0.1446
890.10 0.1446
890.20 0.1446
890.30 0.1446
890.40 0.1446
890.50 0.1446
890.60 0.1446
890.70 0.1445
890.80 0.1445
890.90 0.1445
891.00 0.1445
891.10 0.1445
891.20 0.1445
891.30 0.1445
891.40 0.1445
891.50 0.1445
891.60 0.1445
891.70 0.1445
891.80 0.1445
891.90 0.1445
892.00 0.1445
892.10 0.1444
892.20 0.1444
892.30 0.1443
892.40 0.1443
892.50 0.1442
892.60 0.1442
892.70 0.1441
892.80 0.1441
892.90 0.144
893.00 0.144
893.10 0.1439
893.20 0.1439
893.30 0.1438
893.40 0.1438
893.50 0.1437
893.60 0.1437
893.70 0.1436
893.80 0.1436
893.90 0.1435
894.00 0.1435
894.10 0.1434
894.20 0.1434
894.30 0.1433
894.40 0.1433
894.50 0.1432
894.60 0.1432
894.70 0.1431
894.80 0.1431
894.90 0.143
895.00 0.143
895.10 0.1429
895.20 0.1429
895.30 0.1428
895.40 0.1428
895.50 0.1427
895.60 0.1427
895.70 0.1426
895.80 0.1426
895.90 0.1425
896.00 0.1425
896.10 0.1424
896.20 0.1424
896.30 0.1424
896.40 0.1423
896.50 0.1423
896.60 0.1422
896.70 0.1422
896.80 0.1421
896.90 0.1421
897.00 0.142
897.10 0.1419
897.20 0.1417
897.30 0.1415
897.40 0.1414
897.50 0.1412
897.60 0.1411
897.70 0.1409
897.80 0.1407
897.90 0.1406
898.00 0.1404
898.10 0.1403
898.20 0.1401
898.30 0.14
898.40 0.1398
898.50 0.1396
898.60 0.1395
898.70 0.1393
898.80 0.1392
898.90 0.139
899.00 0.1389
899.10 0.1387
899.20 0.1386
899.30 0.1384
899.40 0.1382
899.50 0.1381
899.60 0.1379
899.70 0.1378
899.80 0.1376
899.90 0.1375
900.00 0.1373
900.10 0.1371
900.20 0.137
900.30 0.1368
900.40 0.1367
900.50 0.1365
900.60 0.1364
900.70 0.1362
900.80 0.1361
900.90 0.1359
901.00 0.1357
901.10 0.1356
901.20 0.1354
901.30 0.1353
901.40 0.1351
901.50 0.135
901.60 0.1348
901.70 0.1347
901.80 0.1345
901.90 0.1344
902.00 0.1342
902.10 0.1342
902.20 0.1343
902.30 0.1343
902.40 0.1344
902.50 0.1344
902.60 0.1345
902.70 0.1345
902.80 0.1345
902.90 0.1346
903.00 0.1346
903.10 0.1347
903.20 0.1347
903.30 0.1348
903.40 0.1348
903.50 0.1348
903.60 0.1349
903.70 0.1349
903.80 0.135
903.90 0.135
904.00 0.1351
904.10 0.1351
904.20 0.1351
904.30 0.1352
904.40 0.1352
904.50 0.1353
904.60 0.1353
904.70 0.1354
904.80 0.1354
904.90 0.1354
905.00 0.1355
905.10 0.1355
905.20 0.1356
905.30 0.1356
905.40 0.1357
905.50 0.1357
905.60 0.1357
905.70 0.1358
905.80 0.1358
905.90 0.1359
906.00 0.1359
906.10 0.136
906.20 0.136
906.30 0.136
906.40 0.1361
906.50 0.1361
906.60 0.1362
906.70 0.1362
906.80 0.1363
906.90 0.1363
907.00 0.1363
907.10 0.1363
907.20 0.1363
907.30 0.1363
907.40 0.1363
907.50 0.1363
907.60 0.1363
907.70 0.1362
907.80 0.1362
907.90 0.1362
908.00 0.1362
908.10 0.1362
908.20 0.1362
908.30 0.1362
908.40 0.1361
908.50 0.1361
908.60 0.1361
908.70 0.1361
908.80 0.1361
908.90 0.1361
909.00 0.1361
909.10 0.136
909.20 0.136
909.30 0.136
909.40 0.136
909.50 0.136
909.60 0.136
909.70 0.136
909.80 0.136
909.90 0.1359
910.00 0.1359
910.10 0.1359
910.20 0.1359
910.30 0.1359
910.40 0.1359
910.50 0.1359
910.60 0.1358
910.70 0.1358
910.80 0.1358
910.90 0.1358
911.00 0.1358
911.10 0.1358
911.20 0.1358
911.30 0.1357
911.40 0.1357
911.50 0.1357
911.60 0.1357
911.70 0.1357
911.80 0.1357
911.90 0.1357
912.00 0.1356
912.10 0.1356
912.20 0.1355
912.30 0.1354
912.40 0.1353
912.50 0.1352
912.60 0.1351
912.70 0.135
912.80 0.1349
912.90 0.1348
913.00 0.1347
913.10 0.1347
913.20 0.1346
913.30 0.1345
913.40 0.1344
913.50 0.1343
913.60 0.1342
913.70 0.1341
913.80 0.134
913.90 0.1339
914.00 0.1338
914.10 0.1338
914.20 0.1337
914.30 0.1336
914.40 0.1335
914.50 0.1334
914.60 0.1333
914.70 0.1332
914.80 0.1331
914.90 0.133
915.00 0.133
915.10 0.1329
915.20 0.1328
915.30 0.1327
915.40 0.1326
915.50 0.1325
915.60 0.1324
915.70 0.1323
915.80 0.1322
915.90 0.1322
916.00 0.1321
916.10 0.132
916.20 0.1319
916.30 0.1318
916.40 0.1317
916.50 0.1316
916.60 0.1315
916.70 0.1314
916.80 0.1314
916.90 0.1313
917.00 0.1312
917.10 0.131
917.20 0.1308
917.30 0.1306
917.40 0.1304
917.50 0.1302
917.60 0.13
917.70 0.1298
917.80 0.1296
917.90 0.1294
918.00 0.1292
918.10 0.1291
918.20 0.1289
918.30 0.1287
918.40 0.1285
918.50 0.1283
918.60 0.1281
918.70 0.1279
918.80 0.1277
918.90 0.1275
919.00 0.1273
919.10 0.1271
919.20 0.1269
919.30 0.1268
919.40 0.1266
919.50 0.1264
919.60 0.1262
919.70 0.126
919.80 0.1258
919.90 0.1256
920.00 0.1254
920.10 0.1252
920.20 0.125
920.30 0.1249
920.40 0.1247
920.50 0.1245
920.60 0.1243
920.70 0.1241
920.80 0.1239
920.90 0.1237
921.00 0.1235
921.10 0.1233
921.20 0.1231
921.30 0.123
921.40 0.1228
921.50 0.1226
921.60 0.1224
921.70 0.1222
921.80 0.122
921.90 0.1218
922.00 0.1216
922.10 0.1216
922.20 0.1215
922.30 0.1215
922.40 0.1214
922.50 0.1213
922.60 0.1213
922.70 0.1212
922.80 0.1212
922.90 0.1211
923.00 0.1211
923.10 0.121
923.20 0.1209
923.30 0.1209
923.40 0.1208
923.50 0.1208
923.60 0.1207
923.70 0.1207
923.80 0.1206
923.90 0.1206
924.00 0.1205
924.10 0.1204
924.20 0.1204
924.30 0.1203
924.40 0.1203
924.50 0.1202
924.60 0.1202
924.70 0.1201
924.80 0.12
924.90 0.12
925.00 0.1199
925.10 0.1199
925.20 0.1198
925.30 0.1198
925.40 0.1197
925.50 0.1196
925.60 0.1196
925.70 0.1195
925.80 0.1195
925.90 0.1194
926.00 0.1194
926.10 0.1193
926.20 0.1193
926.30 0.1192
926.40 0.1191
926.50 0.1191
926.60 0.119
926.70 0.119
926.80 0.1189
926.90 0.1189
927.00 0.1188
927.10 0.1189
927.20 0.119
927.30 0.1191
927.40 0.1192
927.50 0.1193
927.60 0.1194
927.70 0.1195
927.80 0.1196
927.90 0.1197
928.00 0.1197
928.10 0.1198
928.20 0.1199
928.30 0.12
928.40 0.1201
928.50 0.1202
928.60 0.1203
928.70 0.1204
928.80 0.1205
928.90 0.1206
929.00 0.1207
929.10 0.1208
929.20 0.1209
929.30 0.121
929.40 0.121
929.50 0.1211
929.60 0.1212
929.70 0.1213
929.80 0.1214
929.90 0.1215
930.00 0.1216
930.10 0.1217
930.20 0.1218
930.30 0.1219
930.40 0.122
930.50 0.1221
930.60 0.1222
930.70 0.1222
930.80 0.1223
930.90 0.1224
931.00 0.1225
931.10 0.1226
931.20 0.1227
931.30 0.1228
931.40 0.1229
931.50 0.123
931.60 0.1231
931.70 0.1232
931.80 0.1233
931.90 0.1234
932.00 0.1234
932.10 0.1235
932.20 0.1235
932.30 0.1235
932.40 0.1235
932.50 0.1236
932.60 0.1236
932.70 0.1236
932.80 0.1236
932.90 0.1237
933.00 0.1237
933.10 0.1237
933.20 0.1237
933.30 0.1237
933.40 0.1238
933.50 0.1238
933.60 0.1238
933.70 0.1238
933.80 0.1239
933.90 0.1239
934.00 0.1239
934.10 0.1239
934.20 0.1239
934.30 0.124
934.40 0.124
934.50 0.1239
934.60 0.1239
934.70 0.1239
934.80 0.1239
934.90 0.1239
935.00 0.1239
935.10 0.1239
935.20 0.1239
935.30 0.1238
935.40 0.1238
935.50 0.1238
935.60 0.1238
935.70 0.1238
935.80 0.1238
935.90 0.1238
936.00 0.1238
936.10 0.1237
936.20 0.1237
936.30 0.1237
936.40 0.1237
936.50 0.1237
936.60 0.1237
936.70 0.1237
936.80 0.1237
936.90 0.1236
937.00 0.1236
937.10 0.1236
937.20 0.1236
937.30 0.1235
937.40 0.1235
937.50 0.1234
937.60 0.1234
937.70 0.1234
937.80 0.1233
937.90 0.1233
938.00 0.1233
938.10 0.1232
938.20 0.1232
938.30 0.1232
938.40 0.1231
938.50 0.123
938.60 0.123
938.70 0.1229
938.80 0.1229
938.90 0.1228
939.00 0.1228
939.10 0.1227
939.20 0.1227
939.30 0.1226
939.40 0.1226
939.50 0.1225
939.60 0.1224
939.70 0.1224
939.80 0.1223
939.90 0.1223
940.00 0.1222
940.10 0.1222
940.20 0.1221
940.30 0.1221
940.40 0.122
940.50 0.1219
940.60 0.1218
940.70 0.1217
940.80 0.1217
940.90 0.1216
941.00 0.1215
941.10 0.1214
941.20 0.1213
941.30 0.1213
941.40 0.1212
941.50 0.1211
941.60 0.121
941.70 0.1209
941.80 0.1209
941.90 0.1208
942.00 0.1207
942.10 0.1206
942.20 0.1205
942.30 0.1204
942.40 0.1203
942.50 0.1202
942.60 0.1201
942.70 0.1199
942.80 0.1198
942.90 0.1197
943.00 0.1196
943.10 0.1195
943.20 0.1193
943.30 0.1192
943.40 0.1191
943.50 0.119
943.60 0.1189
943.70 0.1188
943.80 0.1186
943.90 0.1185
944.00 0.1184
944.10 0.1183
944.20 0.1182
944.30 0.118
944.40 0.1179
944.50 0.1177
944.60 0.1176
944.70 0.1174
944.80 0.1173
944.90 0.1171
945.00 0.117
945.10 0.1168
945.20 0.1167
945.30 0.1165
945.40 0.1163
945.50 0.1161
945.60 0.1159
945.70 0.1157
945.80 0.1155
945.90 0.1153
946.00 0.1152
946.10 0.115
946.20 0.1148
946.30 0.1146
946.40 0.1144
946.50 0.1142
946.60 0.114
946.70 0.1138
946.80 0.1136
946.90 0.1134
947.00 0.1132
947.10 0.113
947.20 0.1128
947.30 0.1126
947.40 0.1123
947.50 0.112
947.60 0.1118
947.70 0.1115
947.80 0.1113
947.90 0.111
948.00 0.1108
948.10 0.1105
948.20 0.1103
948.30 0.11
948.40 0.1098
948.50 0.1095
948.60 0.1092
948.70 0.109
948.80 0.1087
948.90 0.1085
949.00 0.1082
949.10 0.108
949.20 0.1077
949.30 0.1075
949.40 0.1072
949.50 0.1069
949.60 0.1066
949.70 0.1064
949.80 0.1061
949.90 0.1058
950.00 0.1055
950.10 0.1052
950.20 0.105
950.30 0.1047
950.40 0.1044
950.50 0.1041
950.60 0.1038
950.70 0.1036
950.80 0.1033
950.90 0.103
951.00 0.1027
951.10 0.1025
951.20 0.1022
951.30 0.1019
951.40 0.1016
951.50 0.1014
951.60 0.1011
951.70 0.1009
951.80 0.1006
951.90 0.1003
952.00 0.1001
952.10 0.09988
952.20 0.09966
952.30 0.09945
952.40 0.09924
952.50 0.09903
952.60 0.09882
952.70 0.09861
952.80 0.0984
952.90 0.09829
953.00 0.09819
953.10 0.09809
953.20 0.09799
953.30 0.09788
953.40 0.09778
953.50 0.09768
953.60 0.09793
953.70 0.09817
953.80 0.09841
953.90 0.09866
954.00 0.09949
954.10 0.1003
954.20 0.1013
954.30 0.1007
954.40 0.0989
954.50 0.098
954.60 0.09726
954.70 0.09652
954.80 0.09626
954.90 0.096
955.00 0.09574
955.10 0.09549
955.20 0.0955
955.30 0.09551
955.40 0.09552
955.50 0.09553
955.60 0.09554
955.70 0.09555
955.80 0.09557
955.90 0.0957
956.00 0.09583
956.10 0.09596
956.20 0.09609
956.30 0.09622
956.40 0.09635
956.50 0.09648
956.60 0.09661
956.70 0.09674
956.80 0.09687
956.90 0.09701
957.00 0.09714
957.10 0.09729
957.20 0.09745
957.30 0.0976
957.40 0.09776
957.50 0.09792
957.60 0.09807
957.70 0.09823
957.80 0.09839
957.90 0.09854
958.00 0.0987
958.10 0.09886
958.20 0.09901
958.30 0.09917
958.40 0.09932
958.50 0.09948
958.60 0.09964
958.70 0.09979
958.80 0.09995
958.90 0.1001
959.00 0.1003
959.10 0.1004
959.20 0.1006
959.30 0.1007
959.40 0.1009
959.50 0.101
959.60 0.1011
959.70 0.1013
959.80 0.1014
959.90 0.1015
960.00 0.1017
960.10 0.1018
960.20 0.1019
960.30 0.1021
960.40 0.1022
960.50 0.1023
960.60 0.1025
960.70 0.1026
960.80 0.1027
960.90 0.1028
961.00 0.103
961.10 0.1031
961.20 0.1032
961.30 0.1034
961.40 0.1035
961.50 0.1036
961.60 0.1037
961.70 0.1038
961.80 0.1039
961.90 0.104
962.00 0.1042
962.10 0.1042
962.20 0.1043
962.30 0.1044
962.40 0.1045
962.50 0.1046
962.60 0.1047
962.70 0.1048
962.80 0.1049
962.90 0.105
963.00 0.1051
963.10 0.1052
963.20 0.1053
963.30 0.1054
963.40 0.1055
963.50 0.1055
963.60 0.1056
963.70 0.1057
963.80 0.1058
963.90 0.1058
964.00 0.1059
964.10 0.106
964.20 0.1061
964.30 0.1062
964.40 0.1062
964.50 0.1063
964.60 0.1063
964.70 0.1064
964.80 0.1064
964.90 0.1065
965.00 0.1066
965.10 0.1066
965.20 0.1067
965.30 0.1067
965.40 0.1068
965.50 0.1068
965.60 0.1069
965.70 0.1069
965.80 0.107
965.90 0.1071
966.00 0.1071
966.10 0.1072
966.20 0.1072
966.30 0.1073
966.40 0.1073
966.50 0.1074
966.60 0.1074
966.70 0.1074
966.80 0.1075
966.90 0.1075
967.00 0.1076
967.10 0.1076
967.20 0.1076
967.30 0.1077
967.40 0.1077
967.50 0.1077
967.60 0.1077
967.70 0.1078
967.80 0.1078
967.90 0.1078
968.00 0.1079
968.10 0.1079
968.20 0.1079
968.30 0.108
968.40 0.108
968.50 0.108
968.60 0.108
968.70 0.108
968.80 0.108
968.90 0.108
969.00 0.1081
969.10 0.1081
969.20 0.1081
969.30 0.1081
969.40 0.1081
969.50 0.1081
969.60 0.1081
969.70 0.1082
969.80 0.1082
969.90 0.1082
970.00 0.1082
970.10 0.1082
970.20 0.1082
970.30 0.1082
970.40 0.1082
970.50 0.1082
970.60 0.1082
970.70 0.1082
970.80 0.1082
970.90 0.1082
971.00 0.1082
971.10 0.1082
971.20 0.1082
971.30 0.1082
971.40 0.1082
971.50 0.1082
971.60 0.1082
971.70 0.1082
971.80 0.1082
971.90 0.1082
972.00 0.1082
972.10 0.1082
972.20 0.1082
972.30 0.1082
972.40 0.1082
972.50 0.1082
972.60 0.1082
972.70 0.1082
972.80 0.1081
972.90 0.1081
973.00 0.1081
973.10 0.1081
973.20 0.1081
973.30 0.1081
973.40 0.1081
973.50 0.1081
973.60 0.108
973.70 0.108
973.80 0.108
973.90 0.108
974.00 0.108
974.10 0.108
974.20 0.108
974.30 0.108
974.40 0.1079
974.50 0.1079
974.60 0.1079
974.70 0.1079
974.80 0.1078
974.90 0.1078
975.00 0.1078
975.10 0.1078
975.20 0.1077
975.30 0.1077
975.40 0.1077
975.50 0.1077
975.60 0.1076
975.70 0.1076
975.80 0.1076
975.90 0.1076
976.00 0.1075
976.10 0.1075
976.20 0.1075
976.30 0.1074
976.40 0.1074
976.50 0.1074
976.60 0.1074
976.70 0.1073
976.80 0.1073
976.90 0.1073
977.00 0.1073
977.10 0.1072
977.20 0.1072
977.30 0.1071
977.40 0.1071
977.50 0.1071
977.60 0.107
977.70 0.107
977.80 0.1069
977.90 0.1069
978.00 0.1068
978.10 0.1068
978.20 0.1068
978.30 0.1067
978.40 0.1067
978.50 0.1066
978.60 0.1066
978.70 0.1066
978.80 0.1065
978.90 0.1065
979.00 0.1064
979.10 0.1064
979.20 0.1063
979.30 0.1063
979.40 0.1063
979.50 0.1062
979.60 0.1062
979.70 0.1061
979.80 0.1061
979.90 0.106
980.00 0.106
980.10 0.106
980.20 0.1059
980.30 0.1059
980.40 0.1058
980.50 0.1058
980.60 0.1057
980.70 0.1057
980.80 0.1057
980.90 0.1056
981.00 0.1056
981.10 0.1055
981.20 0.1055
981.30 0.1055
981.40 0.1054
981.50 0.1054
981.60 0.1053
981.70 0.1053
981.80 0.1052
981.90 0.1052
982.00 0.1052
982.10 0.1051
982.20 0.105
982.30 0.105
982.40 0.1049
982.50 0.1049
982.60 0.1048
982.70 0.1047
982.80 0.1047
982.90 0.1046
983.00 0.1046
983.10 0.1045
983.20 0.1044
983.30 0.1044
983.40 0.1043
983.50 0.1043
983.60 0.1042
983.70 0.1042
983.80 0.1041
983.90 0.104
984.00 0.104
984.10 0.1039
984.20 0.1039
984.30 0.1038
984.40 0.1037
984.50 0.1037
984.60 0.1036
984.70 0.1035
984.80 0.1035
984.90 0.1034
985.00 0.1033
985.10 0.1033
985.20 0.1032
985.30 0.1031
985.40 0.103
985.50 0.103
985.60 0.1029
985.70 0.1028
985.80 0.1027
985.90 0.1027
986.00 0.1026
986.10 0.1025
986.20 0.1025
986.30 0.1024
986.40 0.1023
986.50 0.1022
986.60 0.1022
986.70 0.1021
986.80 0.102
986.90 0.1019
987.00 0.1019
987.10 0.1018
987.20 0.1017
987.30 0.1016
987.40 0.1015
987.50 0.1014
987.60 0.1014
987.70 0.1013
987.80 0.1012
987.90 0.1011
988.00 0.101
988.10 0.1009
988.20 0.1008
988.30 0.1008
988.40 0.1007
988.50 0.1006
988.60 0.1005
988.70 0.1004
988.80 0.1003
988.90 0.1002
989.00 0.1001
989.10 0.1
989.20 0.0999
989.30 0.0998
989.40 0.0997
989.50 0.0996
989.60 0.0995
989.70 0.0994
989.80 0.0993
989.90 0.09921
990.00 0.09911
990.10 0.09901
990.20 0.09891
990.30 0.09881
990.40 0.09871
990.50 0.09861
990.60 0.09851
990.70 0.0984
990.80 0.09829
990.90 0.09817
991.00 0.09806
991.10 0.09794
991.20 0.09783
991.30 0.09771
991.40 0.0976
991.50 0.09749
991.60 0.09737
991.70 0.09726
991.80 0.09714
991.90 0.09703
992.00 0.09692
992.10 0.09679
992.20 0.09667
992.30 0.09654
992.40 0.09642
992.50 0.09629
992.60 0.09617
992.70 0.09604
992.80 0.0959
992.90 0.09576
993.00 0.09562
993.10 0.09548
993.20 0.09535
993.30 0.09521
993.40 0.09507
993.50 0.09493
993.60 0.0948
993.70 0.09466
993.80 0.09452
993.90 0.09439
994.00 0.09425
994.10 0.09411
994.20 0.09397
994.30 0.09384
994.40 0.0937
994.50 0.09356
994.60 0.09343
994.70 0.09328
994.80 0.09312
994.90 0.09297
995.00 0.09281
995.10 0.09266
995.20 0.0925
995.30 0.09235
995.40 0.09219
995.50 0.09204
995.60 0.09189
995.70 0.09172
995.80 0.09155
995.90 0.09138
996.00 0.09121
996.10 0.09104
996.20 0.09087
996.30 0.09071
996.40 0.09054
996.50 0.09037
996.60 0.0902
996.70 0.09003
996.80 0.08986
996.90 0.08969
997.00 0.08952
997.10 0.08934
997.20 0.08916
997.30 0.08898
997.40 0.08879
997.50 0.08861
997.60 0.08843
997.70 0.08823
997.80 0.08803
997.90 0.08783
998.00 0.08763
998.10 0.08743
998.20 0.08723
998.30 0.08703
998.40 0.08683
998.50 0.08663
998.60 0.08643
998.70 0.08623
998.80 0.08603
998.90 0.08583
999.00 0.08563
999.10 0.08543
999.20 0.08523
999.30 0.08503
999.40 0.08483
999.50 0.08463
999.60 0.08443
999.70 0.08421
999.80 0.08399
999.90 0.08376
1000.00 0.08354
1000.10 0.08331
1000.20 0.08309
1000.30 0.08286
1000.40 0.08264
1000.50 0.08241
1000.60 0.08219
1000.70 0.08196
1000.80 0.08174
1000.90 0.08151
1001.00 0.08129
1001.10 0.08107
1001.20 0.08084
1001.30 0.08062
1001.40 0.08039
1001.50 0.08017
1001.60 0.07995
1001.70 0.07971
1001.80 0.07948
1001.90 0.07925
1002.00 0.07901
1002.10 0.07878
1002.20 0.07855
1002.30 0.07832
1002.40 0.07809
1002.50 0.07785
1002.60 0.07762
1002.70 0.07739
1002.80 0.07716
1002.90 0.07693
1003.00 0.0767
1003.10 0.07647
1003.20 0.07626
1003.30 0.07606
1003.40 0.07586
1003.50 0.07565
1003.60 0.07545
1003.70 0.07525
1003.80 0.07505
1003.90 0.07493
1004.00 0.07485
1004.10 0.07477
1004.20 0.07468
1004.30 0.07483
1004.40 0.07506
1004.50 0.07554
1004.60 0.07631
1004.70 0.07587
1004.80 0.07511
1004.90 0.07481
1005.00 0.07454
1005.10 0.0745
1005.20 0.07454
1005.30 0.07457
1005.40 0.07461
1005.50 0.07473
1005.60 0.07488
1005.70 0.07504
1005.80 0.07519
1005.90 0.07534
1006.00 0.07549
1006.10 0.07564
1006.20 0.07581
1006.30 0.07599
1006.40 0.07617
1006.50 0.07634
1006.60 0.07652
1006.70 0.0767
1006.80 0.07687
1006.90 0.07705
1007.00 0.07723
1007.10 0.0774
1007.20 0.07758
1007.30 0.07776
1007.40 0.07794
1007.50 0.07812
1007.60 0.07829
1007.70 0.07846
1007.80 0.07863
1007.90 0.07879
1008.00 0.07895
1008.10 0.07912
1008.20 0.07928
1008.30 0.07945
1008.40 0.07961
1008.50 0.07977
1008.60 0.07994
1008.70 0.0801
1008.80 0.08026
1008.90 0.08043
1009.00 0.08059
1009.10 0.08075
1009.20 0.08092
1009.30 0.08108
1009.40 0.08124
1009.50 0.08141
1009.60 0.08157
1009.70 0.08171
1009.80 0.08185
1009.90 0.08198
1010.00 0.08211
1010.10 0.08225
1010.20 0.08238
1010.30 0.08252
1010.40 0.08265
1010.50 0.08279
1010.60 0.08292
1010.70 0.08305
1010.80 0.08319
1010.90 0.08332
1011.00 0.08346
1011.10 0.08359
1011.20 0.08372
1011.30 0.08386
1011.40 0.08399
1011.50 0.08412
1011.60 0.08426
1011.70 0.08438
1011.80 0.08449
1011.90 0.08461
1012.00 0.08472
1012.10 0.08483
1012.20 0.08493
1012.30 0.08503
1012.40 0.08513
1012.50 0.08523
1012.60 0.08533
1012.70 0.08543
1012.80 0.08553
1012.90 0.08564
1013.00 0.08574
1013.10 0.08584
1013.20 0.08594
1013.30 0.08604
1013.40 0.08614
1013.50 0.08624
1013.60 0.08634
1013.70 0.08643
1013.80 0.08651
1013.90 0.08659
1014.00 0.08668
1014.10 0.08676
1014.20 0.08684
1014.30 0.08693
1014.40 0.08701
1014.50 0.08709
1014.60 0.08718
1014.70 0.08725
1014.80 0.08731
1014.90 0.08738
1015.00 0.08744
1015.10 0.08751
1015.20 0.08757
1015.30 0.08764
1015.40 0.0877
1015.50 0.08777
1015.60 0.08783
1015.70 0.0879
1015.80 0.08796
1015.90 0.08803
1016.00 0.08809
1016.10 0.08816
1016.20 0.08822
1016.30 0.08829
1016.40 0.08835
1016.50 0.08842
1016.60 0.08848
1016.70 0.08854
1016.80 0.08859
1016.90 0.08864
1017.00 0.08869
1017.10 0.08874
1017.20 0.08878
1017.30 0.08882
1017.40 0.08886
1017.50 0.08891
1017.60 0.08895
1017.70 0.08899
1017.80 0.08904
1017.90 0.08908
1018.00 0.08912
1018.10 0.08916
1018.20 0.08921
1018.30 0.08925
1018.40 0.08929
1018.50 0.08933
1018.60 0.08938
1018.70 0.08941
1018.80 0.08944
1018.90 0.08947
1019.00 0.08949
1019.10 0.08952
1019.20 0.08955
1019.30 0.08958
1019.40 0.08961
1019.50 0.08964
1019.60 0.08966
1019.70 0.08969
1019.80 0.08972
1019.90 0.08975
1020.00 0.08978
1020.10 0.0898
1020.20 0.08983
1020.30 0.08986
1020.40 0.08989
1020.50 0.08992
1020.60 0.08995
1020.70 0.08996
1020.80 0.08998
1020.90 0.09
1021.00 0.09001
1021.10 0.09003
1021.20 0.09005
1021.30 0.09006
1021.40 0.09008
1021.50 0.0901
1021.60 0.09011
1021.70 0.09013
1021.80 0.09014
1021.90 0.09016
1022.00 0.09018
1022.10 0.09018
1022.20 0.09019
1022.30 0.09019
1022.40 0.0902
1022.50 0.09021
1022.60 0.09021
1022.70 0.09022
1022.80 0.09022
1022.90 0.09023
1023.00 0.09024
1023.10 0.09024
1023.20 0.09025
1023.30 0.09025
1023.40 0.09026
1023.50 0.09027
1023.60 0.09027
1023.70 0.09028
1023.80 0.09028
1023.90 0.09029
1024.00 0.0903
1024.10 0.0903
1024.20 0.09031
1024.30 0.09031
1024.40 0.09032
1024.50 0.09033
1024.60 0.09033
1024.70 0.09033
1024.80 0.09033
1024.90 0.09032
1025.00 0.09032
1025.10 0.09031
1025.20 0.09031
1025.30 0.09031
1025.40 0.0903
1025.50 0.0903
1025.60 0.09029
1025.70 0.09029
1025.80 0.09028
1025.90 0.09028
1026.00 0.09028
1026.10 0.09027
1026.20 0.09027
1026.30 0.09026
1026.40 0.09026
1026.50 0.09025
1026.60 0.09025
1026.70 0.09025
1026.80 0.09024
1026.90 0.09024
1027.00 0.09023
1027.10 0.09022
1027.20 0.09021
1027.30 0.09019
1027.40 0.09018
1027.50 0.09016
1027.60 0.09015
1027.70 0.09014
1027.80 0.09012
1027.90 0.09011
1028.00 0.09009
1028.10 0.09008
1028.20 0.09007
1028.30 0.09005
1028.40 0.09004
1028.50 0.09002
1028.60 0.09001
1028.70 0.09
1028.80 0.08998
1028.90 0.08997
1029.00 0.08995
1029.10 0.08994
1029.20 0.08993
1029.30 0.08991
1029.40 0.0899
1029.50 0.08988
1029.60 0.08987
1029.70 0.08986
1029.80 0.08984
1029.90 0.08983
1030.00 0.08982
1030.10 0.0898
1030.20 0.08979
1030.30 0.08977
1030.40 0.08976
1030.50 0.08975
1030.60 0.08973
1030.70 0.08972
1030.80 0.0897
1030.90 0.08969
1031.00 0.08968
1031.10 0.08966
1031.20 0.08965
1031.30 0.08964
1031.40 0.08962
1031.50 0.08961
1031.60 0.08959
1031.70 0.08958
1031.80 0.08957
1031.90 0.08955
1032.00 0.08954
1032.10 0.08952
1032.20 0.08949
1032.30 0.08947
1032.40 0.08945
1032.50 0.08943
1032.60 0.08941
1032.70 0.08938
1032.80 0.08936
1032.90 0.08934
1033.00 0.08932
1033.10 0.0893
1033.20 0.08927
1033.30 0.08925
1033.40 0.08923
1033.50 0.08921
1033.60 0.08919
1033.70 0.08916
1033.80 0.08914
1033.90 0.08912
1034.00 0.0891
1034.10 0.08908
1034.20 0.08906
1034.30 0.08903
1034.40 0.08901
1034.50 0.08899
1034.60 0.08897
1034.70 0.08895
1034.80 0.08892
1034.90 0.0889
1035.00 0.08888
1035.10 0.08886
1035.20 0.08884
1035.30 0.08881
1035.40 0.08879
1035.50 0.08877
1035.60 0.08875
1035.70 0.08873
1035.80 0.08871
1035.90 0.08868
1036.00 0.08866
1036.10 0.08864
1036.20 0.08862
1036.30 0.0886
1036.40 0.08858
1036.50 0.08855
1036.60 0.08853
1036.70 0.08851
1036.80 0.08849
1036.90 0.08847
1037.00 0.08844
1037.10 0.08842
1037.20 0.08839
1037.30 0.08837
1037.40 0.08834
1037.50 0.08831
1037.60 0.08829
1037.70 0.08826
1037.80 0.08824
1037.90 0.08821
1038.00 0.08818
1038.10 0.08816
1038.20 0.08813
1038.30 0.08811
1038.40 0.08808
1038.50 0.08805
1038.60 0.08803
1038.70 0.088
1038.80 0.08798
1038.90 0.08795
1039.00 0.08792
1039.10 0.0879
1039.20 0.08787
1039.30 0.08785
1039.40 0.08782
1039.50 0.08779
1039.60 0.08777
1039.70 0.08774
1039.80 0.08772
1039.90 0.08769
1040.00 0.08766
1040.10 0.08764
1040.20 0.08761
1040.30 0.08759
1040.40 0.08756
1040.50 0.08753
1040.60 0.08751
1040.70 0.08748
1040.80 0.08746
1040.90 0.08743
1041.00 0.08741
1041.10 0.08738
1041.20 0.08735
1041.30 0.08733
1041.40 0.0873
1041.50 0.08728
1041.60 0.08725
1041.70 0.08723
1041.80 0.0872
1041.90 0.08717
1042.00 0.08715
1042.10 0.08712
1042.20 0.08709
1042.30 0.08706
1042.40 0.08703
1042.50 0.087
1042.60 0.08698
1042.70 0.08695
1042.80 0.08692
1042.90 0.08689
1043.00 0.08686
1043.10 0.08683
1043.20 0.08681
1043.30 0.08678
1043.40 0.08675
1043.50 0.08672
1043.60 0.08669
1043.70 0.08666
1043.80 0.08663
1043.90 0.08661
1044.00 0.08658
1044.10 0.08655
1044.20 0.08652
1044.30 0.08649
1044.40 0.08646
1044.50 0.08644
1044.60 0.08641
1044.70 0.08638
1044.80 0.08635
1044.90 0.08632
1045.00 0.08629
1045.10 0.08627
1045.20 0.08624
1045.30 0.08621
1045.40 0.08618
1045.50 0.08615
1045.60 0.08612
1045.70 0.0861
1045.80 0.08607
1045.90 0.08604
1046.00 0.08601
1046.10 0.08598
1046.20 0.08595
1046.30 0.08593
1046.40 0.0859
1046.50 0.08587
1046.60 0.08584
1046.70 0.08581
1046.80 0.08579
1046.90 0.08576
1047.00 0.08573
1047.10 0.0857
1047.20 0.08567
1047.30 0.08564
1047.40 0.08561
1047.50 0.08558
1047.60 0.08555
1047.70 0.08552
1047.80 0.08549
1047.90 0.08546
1048.00 0.08543
1048.10 0.0854
1048.20 0.08537
1048.30 0.08534
1048.40 0.08531
1048.50 0.08528
1048.60 0.08525
1048.70 0.08522
1048.80 0.08519
1048.90 0.08516
1049.00 0.08513
1049.10 0.0851
1049.20 0.08507
1049.30 0.08504
1049.40 0.08501
1049.50 0.08498
1049.60 0.08495
1049.70 0.08492
1049.80 0.08489
1049.90 0.08486
1050.00 0.08483
1050.10 0.0848
1050.20 0.08477
1050.30 0.08474
1050.40 0.08471
1050.50 0.08468
1050.60 0.08465
1050.70 0.08462
1050.80 0.08459
1050.90 0.08456
1051.00 0.08453
1051.10 0.0845
1051.20 0.08447
1051.30 0.08444
1051.40 0.08442
1051.50 0.08439
1051.60 0.08436
1051.70 0.08433
1051.80 0.0843
1051.90 0.08427
1052.00 0.08424
1052.10 0.08421
1052.20 0.08417
1052.30 0.08414
1052.40 0.08411
1052.50 0.08408
1052.60 0.08405
1052.70 0.08402
1052.80 0.08398
1052.90 0.08395
1053.00 0.08392
1053.10 0.08389
1053.20 0.08386
1053.30 0.08383
1053.40 0.0838
1053.50 0.08376
1053.60 0.08373
1053.70 0.0837
1053.80 0.08367
1053.90 0.08364
1054.00 0.08361
1054.10 0.08358
1054.20 0.08354
1054.30 0.08351
1054.40 0.08348
1054.50 0.08345
1054.60 0.08342
1054.70 0.08339
1054.80 0.08336
1054.90 0.08332
1055.00 0.08329
1055.10 0.08326
1055.20 0.08323
1055.30 0.0832
1055.40 0.08317
1055.50 0.08314
1055.60 0.08311
1055.70 0.08307
1055.80 0.08304
1055.90 0.08301
1056.00 0.08298
1056.10 0.08295
1056.20 0.08292
1056.30 0.08289
1056.40 0.08286
1056.50 0.08282
1056.60 0.08279
1056.70 0.08276
1056.80 0.08273
1056.90 0.0827
1057.00 0.08267
1057.10 0.08264
1057.20 0.0826
1057.30 0.08257
1057.40 0.08253
1057.50 0.0825
1057.60 0.08247
1057.70 0.08243
1057.80 0.0824
1057.90 0.08236
1058.00 0.08233
1058.10 0.0823
1058.20 0.08226
1058.30 0.08223
1058.40 0.08219
1058.50 0.08216
1058.60 0.08213
1058.70 0.08209
1058.80 0.08206
1058.90 0.08203
1059.00 0.08199
1059.10 0.08196
1059.20 0.08192
1059.30 0.08189
1059.40 0.08186
1059.50 0.08182
1059.60 0.08179
1059.70 0.08176
1059.80 0.08172
1059.90 0.08169
1060.00 0.08166
1060.10 0.08162
1060.20 0.08159
1060.30 0.08155
1060.40 0.08152
1060.50 0.08149
1060.60 0.08145
1060.70 0.08142
1060.80 0.08139
1060.90 0.08135
1061.00 0.08132
1061.10 0.08129
1061.20 0.08125
1061.30 0.08122
1061.40 0.08119
1061.50 0.08115
1061.60 0.08112
1061.70 0.08109
1061.80 0.08105
1061.90 0.08102
1062.00 0.08099
1062.10 0.08095
1062.20 0.08091
1062.30 0.08087
1062.40 0.08084
1062.50 0.0808
1062.60 0.08076
1062.70 0.08072
1062.80 0.08068
1062.90 0.08065
1063.00 0.08061
1063.10 0.08057
1063.20 0.08053
1063.30 0.0805
1063.40 0.08046
1063.50 0.08042
1063.60 0.08038
1063.70 0.08035
1063.80 0.08031
1063.90 0.08027
1064.00 0.08023
1064.10 0.0802
1064.20 0.08016
1064.30 0.08012
1064.40 0.08009
1064.50 0.08005
1064.60 0.08001
1064.70 0.07997
1064.80 0.07994
1064.90 0.0799
1065.00 0.07986
1065.10 0.07982
1065.20 0.07979
1065.30 0.07975
1065.40 0.07971
1065.50 0.07968
1065.60 0.07964
1065.70 0.0796
1065.80 0.07956
1065.90 0.07953
1066.00 0.07949
1066.10 0.07945
1066.20 0.07941
1066.30 0.07938
1066.40 0.07934
1066.50 0.0793
1066.60 0.07927
1066.70 0.07923
1066.80 0.07919
1066.90 0.07916
1067.00 0.07912
1067.10 0.07907
1067.20 0.07903
1067.30 0.07898
1067.40 0.07894
1067.50 0.0789
1067.60 0.07885
1067.70 0.07881
1067.80 0.07876
1067.90 0.07872
1068.00 0.07867
1068.10 0.07863
1068.20 0.07859
1068.30 0.07854
1068.40 0.0785
1068.50 0.07845
1068.60 0.07841
1068.70 0.07836
1068.80 0.07832
1068.90 0.07828
1069.00 0.07823
1069.10 0.07819
1069.20 0.07814
1069.30 0.0781
1069.40 0.07806
1069.50 0.07801
1069.60 0.07797
1069.70 0.07792
1069.80 0.07788
1069.90 0.07783
1070.00 0.07779
1070.10 0.07775
1070.20 0.0777
1070.30 0.07766
1070.40 0.07761
1070.50 0.07757
1070.60 0.07753
1070.70 0.07748
1070.80 0.07744
1070.90 0.07739
1071.00 0.07735
1071.10 0.07731
1071.20 0.07726
1071.30 0.07722
1071.40 0.07718
1071.50 0.07713
1071.60 0.07709
1071.70 0.07704
1071.80 0.077
1071.90 0.07696
1072.00 0.07691
1072.10 0.07686
1072.20 0.07681
1072.30 0.07676
1072.40 0.07671
1072.50 0.07665
1072.60 0.0766
1072.70 0.07655
1072.80 0.0765
1072.90 0.07645
1073.00 0.0764
1073.10 0.07634
1073.20 0.07629
1073.30 0.07624
1073.40 0.07619
1073.50 0.07613
1073.60 0.07608
1073.70 0.07602
1073.80 0.07596
1073.90 0.0759
1074.00 0.07584
1074.10 0.07578
1074.20 0.07572
1074.30 0.07566
1074.40 0.0756
1074.50 0.07554
1074.60 0.07548
1074.70 0.07542
1074.80 0.07536
1074.90 0.07531
1075.00 0.07525
1075.10 0.07519
1075.20 0.07513
1075.30 0.07507
1075.40 0.07501
1075.50 0.07495
1075.60 0.07489
1075.70 0.07483
1075.80 0.07478
1075.90 0.07472
1076.00 0.07466
1076.10 0.0746
1076.20 0.07454
1076.30 0.07448
1076.40 0.07442
1076.50 0.07436
1076.60 0.0743
1076.70 0.07425
1076.80 0.07419
1076.90 0.07413
1077.00 0.07407
1077.10 0.074
1077.20 0.07394
1077.30 0.07387
1077.40 0.0738
1077.50 0.07374
1077.60 0.07366
1077.70 0.07359
1077.80 0.07352
1077.90 0.07344
1078.00 0.07337
1078.10 0.0733
1078.20 0.07322
1078.30 0.07315
1078.40 0.07308
1078.50 0.07301
1078.60 0.07293
1078.70 0.07286
1078.80 0.07279
1078.90 0.07272
1079.00 0.07264
1079.10 0.07257
1079.20 0.0725
1079.30 0.07242
1079.40 0.07235
1079.50 0.07228
1079.60 0.07219
1079.70 0.07211
1079.80 0.07202
1079.90 0.07194
1080.00 0.07185
1080.10 0.07177
1080.20 0.07168
1080.30 0.0716
1080.40 0.07151
1080.50 0.07143
1080.60 0.07134
1080.70 0.07126
1080.80 0.07117
1080.90 0.07109
1081.00 0.07101
1081.10 0.07092
1081.20 0.07084
1081.30 0.07075
1081.40 0.07067
1081.50 0.07058
1081.60 0.07049
1081.70 0.0704
1081.80 0.07031
1081.90 0.07021
1082.00 0.07012
1082.10 0.07002
1082.20 0.06992
1082.30 0.06982
1082.40 0.06972
1082.50 0.06962
1082.60 0.06952
1082.70 0.06942
1082.80 0.06932
1082.90 0.06922
1083.00 0.06912
1083.10 0.06902
1083.20 0.06893
1083.30 0.06883
1083.40 0.06873
1083.50 0.06862
1083.60 0.06851
1083.70 0.0684
1083.80 0.06829
1083.90 0.06818
1084.00 0.06807
1084.10 0.06796
1084.20 0.06785
1084.30 0.06774
1084.40 0.06764
1084.50 0.06752
1084.60 0.0674
1084.70 0.06727
1084.80 0.06715
1084.90 0.06702
1085.00 0.0669
1085.10 0.06678
1085.20 0.06665
1085.30 0.06653
1085.40 0.06641
1085.50 0.06628
1085.60 0.06616
1085.70 0.06603
1085.80 0.06591
1085.90 0.06579
1086.00 0.06566
1086.10 0.06554
1086.20 0.06542
1086.30 0.06529
1086.40 0.06517
1086.50 0.06504
1086.60 0.06491
1086.70 0.06477
1086.80 0.06463
1086.90 0.0645
1087.00 0.06436
1087.10 0.06421
1087.20 0.06407
1087.30 0.06392
1087.40 0.06377
1087.50 0.06363
1087.60 0.06348
1087.70 0.06333
1087.80 0.06319
1087.90 0.06304
1088.00 0.06289
1088.10 0.06274
1088.20 0.0626
1088.30 0.06245
1088.40 0.0623
1088.50 0.06215
1088.60 0.06198
1088.70 0.06182
1088.80 0.06165
1088.90 0.06148
1089.00 0.06132
1089.10 0.06115
1089.20 0.06098
1089.30 0.06082
1089.40 0.06065
1089.50 0.06048
1089.60 0.06032
1089.70 0.06015
1089.80 0.05998
1089.90 0.05982
1090.00 0.05965
1090.10 0.05949
1090.20 0.05932
1090.30 0.05915
1090.40 0.05899
1090.50 0.05881
1090.60 0.05862
1090.70 0.05843
1090.80 0.05824
1090.90 0.05805
1091.00 0.05786
1091.10 0.05767
1091.20 0.05748
1091.30 0.05729
1091.40 0.0571
1091.50 0.05691
1091.60 0.05672
1091.70 0.05653
1091.80 0.05634
1091.90 0.05615
1092.00 0.05596
1092.10 0.05574
1092.20 0.05552
1092.30 0.0553
1092.40 0.05508
1092.50 0.05486
1092.60 0.05464
1092.70 0.05441
1092.80 0.05418
1092.90 0.05394
1093.00 0.05371
1093.10 0.0535
1093.20 0.05336
1093.30 0.05325
1093.40 0.05349
1093.50 0.05368
1093.60 0.05325
1093.70 0.05324
1093.80 0.05335
1093.90 0.05349
1094.00 0.05369
1094.10 0.05389
1094.20 0.05409
1094.30 0.05429
1094.40 0.05447
1094.50 0.05465
1094.60 0.05484
1094.70 0.05502
1094.80 0.05521
1094.90 0.05539
1095.00 0.05556
1095.10 0.05572
1095.20 0.05587
1095.30 0.05602
1095.40 0.05617
1095.50 0.05632
1095.60 0.05648
1095.70 0.05663
1095.80 0.05678
1095.90 0.05693
1096.00 0.05709
1096.10 0.05724
1096.20 0.05739
1096.30 0.05754
1096.40 0.05769
1096.50 0.05784
1096.60 0.05797
1096.70 0.05811
1096.80 0.05824
1096.90 0.05838
1097.00 0.05851
1097.10 0.05863
1097.20 0.05875
1097.30 0.05887
1097.40 0.059
1097.50 0.05912
1097.60 0.05924
1097.70 0.05936
1097.80 0.05948
1097.90 0.0596
1098.00 0.05972
1098.10 0.05984
1098.20 0.05996
1098.30 0.06008
1098.40 0.0602
1098.50 0.06031
1098.60 0.06041
1098.70 0.06051
1098.80 0.06061
1098.90 0.06071
1099.00 0.06081
1099.10 0.06091
1099.20 0.06101
1099.30 0.0611
1099.40 0.0612
1099.50 0.0613
1099.60 0.0614
1099.70 0.0615
1099.80 0.0616
1099.90 0.06169
1100.00 0.06179
1100.10 0.06189
1100.20 0.06199
1100.30 0.06209
1100.40 0.06219
1100.50 0.06228
1100.60 0.06236
1100.70 0.06243
1100.80 0.06251
1100.90 0.06259
1101.00 0.06267
1101.10 0.06275
1101.20 0.06282
1101.30 0.0629
1101.40 0.06298
1101.50 0.06306
1101.60 0.06314
1101.70 0.06321
1101.80 0.06329
1101.90 0.06337
1102.00 0.06345
1102.10 0.06351
1102.20 0.06358
1102.30 0.06365
1102.40 0.06371
1102.50 0.06378
1102.60 0.06384
1102.70 0.0639
1102.80 0.06396
1102.90 0.06402
1103.00 0.06408
1103.10 0.06414
1103.20 0.0642
1103.30 0.06426
1103.40 0.06432
1103.50 0.06438
1103.60 0.06443
1103.70 0.06447
1103.80 0.06452
1103.90 0.06457
1104.00 0.06462
1104.10 0.06466
1104.20 0.06471
1104.30 0.06476
1104.40 0.06481
1104.50 0.06485
1104.60 0.0649
1104.70 0.06495
1104.80 0.065
1104.90 0.06504
1105.00 0.06509
1105.10 0.06514
1105.20 0.06519
1105.30 0.06523
1105.40 0.06528
1105.50 0.06532
1105.60 0.06536
1105.70 0.06539
1105.80 0.06543
1105.90 0.06546
1106.00 0.0655
1106.10 0.06553
1106.20 0.06557
1106.30 0.0656
1106.40 0.06563
1106.50 0.06567
1106.60 0.0657
1106.70 0.06574
1106.80 0.06577
1106.90 0.06581
1107.00 0.06584
1107.10 0.06587
1107.20 0.0659
1107.30 0.06592
1107.40 0.06595
1107.50 0.06598
1107.60 0.066
1107.70 0.06602
1107.80 0.06604
1107.90 0.06606
1108.00 0.06608
1108.10 0.0661
1108.20 0.06612
1108.30 0.06615
1108.40 0.06617
1108.50 0.06619
1108.60 0.06621
1108.70 0.06623
1108.80 0.06625
1108.90 0.06627
1109.00 0.06629
1109.10 0.06631
1109.20 0.06634
1109.30 0.06636
1109.40 0.06638
1109.50 0.0664
1109.60 0.06641
1109.70 0.06642
1109.80 0.06643
1109.90 0.06644
1110.00 0.06645
1110.10 0.06646
1110.20 0.06647
1110.30 0.06649
1110.40 0.0665
1110.50 0.06651
1110.60 0.06652
1110.70 0.06653
1110.80 0.06654
1110.90 0.06655
1111.00 0.06656
1111.10 0.06658
1111.20 0.06659
1111.30 0.0666
1111.40 0.06661
1111.50 0.06662
1111.60 0.06663
1111.70 0.06664
1111.80 0.06665
1111.90 0.06667
1112.00 0.06668
1112.10 0.06668
1112.20 0.06668
1112.30 0.06669
1112.40 0.06669
1112.50 0.06669
1112.60 0.0667
1112.70 0.0667
1112.80 0.0667
1112.90 0.0667
1113.00 0.06671
1113.10 0.06671
1113.20 0.06671
1113.30 0.06672
1113.40 0.06672
1113.50 0.06672
1113.60 0.06672
1113.70 0.06672
1113.80 0.06671
1113.90 0.06671
1114.00 0.06671
1114.10 0.0667
1114.20 0.0667
1114.30 0.0667
1114.40 0.06669
1114.50 0.06669
1114.60 0.06669
1114.70 0.06669
1114.80 0.06668
1114.90 0.06668
1115.00 0.06668
1115.10 0.06667
1115.20 0.06667
1115.30 0.06667
1115.40 0.06667
1115.50 0.06666
1115.60 0.06666
1115.70 0.06666
1115.80 0.06665
1115.90 0.06665
1116.00 0.06665
1116.10 0.06664
1116.20 0.06664
1116.30 0.06664
1116.40 0.06664
1116.50 0.06663
1116.60 0.06663
1116.70 0.06663
1116.80 0.06662
1116.90 0.06662
1117.00 0.06662
1117.10 0.06661
1117.20 0.0666
1117.30 0.06659
1117.40 0.06658
1117.50 0.06657
1117.60 0.06656
1117.70 0.06655
1117.80 0.06653
1117.90 0.06652
1118.00 0.06651
1118.10 0.0665
1118.20 0.06649
1118.30 0.06648
1118.40 0.06647
1118.50 0.06646
1118.60 0.06645
1118.70 0.06644
1118.80 0.06643
1118.90 0.06642
1119.00 0.06641
1119.10 0.0664
1119.20 0.06639
1119.30 0.06638
1119.40 0.06637
1119.50 0.06636
1119.60 0.06635
1119.70 0.06634
1119.80 0.06633
1119.90 0.06632
1120.00 0.06631
1120.10 0.0663
1120.20 0.06629
1120.30 0.06628
1120.40 0.06627
1120.50 0.06626
1120.60 0.06625
1120.70 0.06624
1120.80 0.06623
1120.90 0.06622
1121.00 0.06621
1121.10 0.06619
1121.20 0.06618
1121.30 0.06617
1121.40 0.06616
1121.50 0.06615
1121.60 0.06614
1121.70 0.06613
1121.80 0.06612
1121.90 0.06611
1122.00 0.0661
1122.10 0.06609
1122.20 0.06607
1122.30 0.06606
1122.40 0.06604
1122.50 0.06603
1122.60 0.06601
1122.70 0.066
1122.80 0.06598
1122.90 0.06597
1123.00 0.06595
1123.10 0.06594
1123.20 0.06592
1123.30 0.06591
1123.40 0.06589
1123.50 0.06588
1123.60 0.06586
1123.70 0.06585
1123.80 0.06583
1123.90 0.06582
1124.00 0.0658
1124.10 0.06579
1124.20 0.06577
1124.30 0.06576
1124.40 0.06574
1124.50 0.06572
1124.60 0.06571
1124.70 0.06569
1124.80 0.06568
1124.90 0.06566
1125.00 0.06565
1125.10 0.06563
1125.20 0.06562
1125.30 0.0656
1125.40 0.06559
1125.50 0.06557
1125.60 0.06556
1125.70 0.06554
1125.80 0.06553
1125.90 0.06551
1126.00 0.0655
1126.10 0.06548
1126.20 0.06547
1126.30 0.06545
1126.40 0.06544
1126.50 0.06542
1126.60 0.06541
1126.70 0.06539
1126.80 0.06538
1126.90 0.06536
1127.00 0.06535
1127.10 0.06533
1127.20 0.06531
1127.30 0.0653
1127.40 0.06528
1127.50 0.06526
1127.60 0.06524
1127.70 0.06523
1127.80 0.06521
1127.90 0.06519
1128.00 0.06517
1128.10 0.06516
1128.20 0.06514
1128.30 0.06512
1128.40 0.06511
1128.50 0.06509
1128.60 0.06507
1128.70 0.06505
1128.80 0.06504
1128.90 0.06502
1129.00 0.065
1129.10 0.06498
1129.20 0.06497
1129.30 0.06495
1129.40 0.06493
1129.50 0.06491
1129.60 0.0649
1129.70 0.06488
1129.80 0.06486
1129.90 0.06484
1130.00 0.06483
1130.10 0.06481
1130.20 0.06479
1130.30 0.06477
1130.40 0.06476
1130.50 0.06474
1130.60 0.06472
1130.70 0.06471
1130.80 0.06469
1130.90 0.06467
1131.00 0.06465
1131.10 0.06464
1131.20 0.06462
1131.30 0.0646
1131.40 0.06458
1131.50 0.06457
1131.60 0.06455
1131.70 0.06453
1131.80 0.06452
1131.90 0.0645
1132.00 0.06448
1132.10 0.06446
1132.20 0.06444
1132.30 0.06442
1132.40 0.06441
1132.50 0.06439
1132.60 0.06437
1132.70 0.06435
1132.80 0.06433
1132.90 0.06431
1133.00 0.06429
1133.10 0.06428
1133.20 0.06426
1133.30 0.06424
1133.40 0.06422
1133.50 0.0642
1133.60 0.06418
1133.70 0.06416
1133.80 0.06415
1133.90 0.06413
1134.00 0.06411
1134.10 0.06409
1134.20 0.06407
1134.30 0.06405
1134.40 0.06404
1134.50 0.06402
1134.60 0.064
1134.70 0.06398
1134.80 0.06396
1134.90 0.06394
1135.00 0.06392
1135.10 0.06391
1135.20 0.06389
1135.30 0.06387
1135.40 0.06385
1135.50 0.06383
1135.60 0.06381
1135.70 0.06379
1135.80 0.06378
1135.90 0.06376
1136.00 0.06374
1136.10 0.06372
1136.20 0.0637
1136.30 0.06368
1136.40 0.06367
1136.50 0.06365
1136.60 0.06363
1136.70 0.06361
1136.80 0.06359
1136.90 0.06357
1137.00 0.06356
1137.10 0.06354
1137.20 0.06352
1137.30 0.0635
1137.40 0.06348
1137.50 0.06346
1137.60 0.06344
1137.70 0.06342
1137.80 0.0634
1137.90 0.06338
1138.00 0.06336
1138.10 0.06334
1138.20 0.06333
1138.30 0.06331
1138.40 0.06329
1138.50 0.06327
1138.60 0.06325
1138.70 0.06323
1138.80 0.06321
1138.90 0.06319
1139.00 0.06317
1139.10 0.06315
1139.20 0.06313
1139.30 0.06312
1139.40 0.0631
1139.50 0.06308
1139.60 0.06306
1139.70 0.06304
1139.80 0.06302
1139.90 0.063
1140.00 0.06298
1140.10 0.06296
1140.20 0.06294
1140.30 0.06293
1140.40 0.06291
1140.50 0.06289
1140.60 0.06287
1140.70 0.06285
1140.80 0.06283
1140.90 0.06281
1141.00 0.06279
1141.10 0.06277
1141.20 0.06275
1141.30 0.06274
1141.40 0.06272
1141.50 0.0627
1141.60 0.06268
1141.70 0.06266
1141.80 0.06264
1141.90 0.06262
1142.00 0.0626
1142.10 0.06258
1142.20 0.06257
1142.30 0.06255
1142.40 0.06253
1142.50 0.06251
1142.60 0.06249
1142.70 0.06247
1142.80 0.06245
1142.90 0.06243
1143.00 0.06241
1143.10 0.06239
1143.20 0.06237
1143.30 0.06235
1143.40 0.06233
1143.50 0.06231
1143.60 0.0623
1143.70 0.06228
1143.80 0.06226
1143.90 0.06224
1144.00 0.06222
1144.10 0.0622
1144.20 0.06218
1144.30 0.06216
1144.40 0.06214
1144.50 0.06212
1144.60 0.0621
1144.70 0.06208
1144.80 0.06207
1144.90 0.06205
1145.00 0.06203
1145.10 0.06201
1145.20 0.06199
1145.30 0.06197
1145.40 0.06195
1145.50 0.06193
1145.60 0.06191
1145.70 0.06189
1145.80 0.06187
1145.90 0.06186
1146.00 0.06184
1146.10 0.06182
1146.20 0.0618
1146.30 0.06178
1146.40 0.06176
1146.50 0.06174
1146.60 0.06172
1146.70 0.0617
1146.80 0.06168
1146.90 0.06166
1147.00 0.06165
1147.10 0.06163
1147.20 0.06161
1147.30 0.06159
1147.40 0.06157
1147.50 0.06155
1147.60 0.06153
1147.70 0.06151
1147.80 0.06149
1147.90 0.06147
1148.00 0.06145
1148.10 0.06143
1148.20 0.06142
1148.30 0.0614
1148.40 0.06138
1148.50 0.06136
1148.60 0.06134
1148.70 0.06132
1148.80 0.0613
1148.90 0.06128
1149.00 0.06126
1149.10 0.06124
1149.20 0.06122
1149.30 0.0612
1149.40 0.06119
1149.50 0.06117
1149.60 0.06115
1149.70 0.06113
1149.80 0.06111
1149.90 0.06109
1150.00 0.06107
1150.10 0.06105
1150.20 0.06103
1150.30 0.06101
1150.40 0.061
1150.50 0.06098
1150.60 0.06096
1150.70 0.06094
1150.80 0.06092
1150.90 0.0609
1151.00 0.06088
1151.10 0.06086
1151.20 0.06084
1151.30 0.06082
1151.40 0.06081
1151.50 0.06079
1151.60 0.06077
1151.70 0.06075
1151.80 0.06073
1151.90 0.06071
1152.00 0.06069
1152.10 0.06067
1152.20 0.06065
1152.30 0.06063
1152.40 0.06062
1152.50 0.0606
1152.60 0.06058
1152.70 0.06056
1152.80 0.06054
1152.90 0.06052
1153.00 0.0605
1153.10 0.06048
1153.20 0.06046
1153.30 0.06044
1153.40 0.06042
1153.50 0.06041
1153.60 0.06039
1153.70 0.06037
1153.80 0.06035
1153.90 0.06033
1154.00 0.06031
1154.10 0.06029
1154.20 0.06027
1154.30 0.06025
1154.40 0.06024
1154.50 0.06022
1154.60 0.0602
1154.70 0.06018
1154.80 0.06016
1154.90 0.06014
1155.00 0.06012
1155.10 0.0601
1155.20 0.06008
1155.30 0.06007
1155.40 0.06005
1155.50 0.06003
1155.60 0.06001
1155.70 0.05999
1155.80 0.05997
1155.90 0.05995
1156.00 0.05993
1156.10 0.05991
1156.20 0.0599
1156.30 0.05988
1156.40 0.05986
1156.50 0.05984
1156.60 0.05982
1156.70 0.0598
1156.80 0.05978
1156.90 0.05976
1157.00 0.05975
1157.10 0.05973
1157.20 0.05971
1157.30 0.05969
1157.40 0.05967
1157.50 0.05965
1157.60 0.05963
1157.70 0.05961
1157.80 0.05959
1157.90 0.05958
1158.00 0.05956
1158.10 0.05954
1158.20 0.05952
1158.30 0.0595
1158.40 0.05948
1158.50 0.05946
1158.60 0.05944
1158.70 0.05943
1158.80 0.05941
1158.90 0.05939
1159.00 0.05937
1159.10 0.05935
1159.20 0.05933
1159.30 0.05931
1159.40 0.0593
1159.50 0.05928
1159.60 0.05926
1159.70 0.05924
1159.80 0.05922
1159.90 0.0592
1160.00 0.05918
1160.10 0.05916
1160.20 0.05915
1160.30 0.05913
1160.40 0.05911
1160.50 0.05909
1160.60 0.05907
1160.70 0.05905
1160.80 0.05903
1160.90 0.05902
1161.00 0.059
1161.10 0.05898
1161.20 0.05896
1161.30 0.05894
1161.40 0.05892
1161.50 0.0589
1161.60 0.05889
1161.70 0.05887
1161.80 0.05885
1161.90 0.05883
1162.00 0.05881
1162.10 0.05879
1162.20 0.05877
1162.30 0.05876
1162.40 0.05874
1162.50 0.05872
1162.60 0.0587
1162.70 0.05868
1162.80 0.05866
1162.90 0.05864
1163.00 0.05863
1163.10 0.05861
1163.20 0.05859
1163.30 0.05857
1163.40 0.05855
1163.50 0.05853
1163.60 0.05851
1163.70 0.0585
1163.80 0.05848
1163.90 0.05846
1164.00 0.05844
1164.10 0.05842
1164.20 0.0584
1164.30 0.05839
1164.40 0.05837
1164.50 0.05835
1164.60 0.05833
1164.70 0.05831
1164.80 0.05829
1164.90 0.05828
1165.00 0.05826
1165.10 0.05824
1165.20 0.05822
1165.30 0.0582
1165.40 0.05818
1165.50 0.05816
1165.60 0.05815
1165.70 0.05813
1165.80 0.05811
1165.90 0.05809
1166.00 0.05807
1166.10 0.05805
1166.20 0.05804
1166.30 0.05802
1166.40 0.058
1166.50 0.05798
1166.60 0.05796
1166.70 0.05794
1166.80 0.05793
1166.90 0.05791
1167.00 0.05789
1167.10 0.05787
1167.20 0.05785
1167.30 0.05784
1167.40 0.05782
1167.50 0.0578
1167.60 0.05778
1167.70 0.05776
1167.80 0.05774
1167.90 0.05773
1168.00 0.05771
1168.10 0.05769
1168.20 0.05767
1168.30 0.05765
1168.40 0.05763
1168.50 0.05762
1168.60 0.0576
1168.70 0.05758
1168.80 0.05756
1168.90 0.05754
1169.00 0.05753
1169.10 0.05751
1169.20 0.05749
1169.30 0.05747
1169.40 0.05745
1169.50 0.05743
1169.60 0.05742
1169.70 0.0574
1169.80 0.05738
1169.90 0.05736
1170.00 0.05734
1170.10 0.05733
1170.20 0.05731
1170.30 0.05729
1170.40 0.05727
1170.50 0.05725
1170.60 0.05724
1170.70 0.05722
1170.80 0.0572
1170.90 0.05718
1171.00 0.05716
1171.10 0.05715
1171.20 0.05713
1171.30 0.05711
1171.40 0.05709
1171.50 0.05707
1171.60 0.05706
1171.70 0.05704
1171.80 0.05702
1171.90 0.057
1172.00 0.05698
1172.10 0.05697
1172.20 0.05695
1172.30 0.05693
1172.40 0.05691
1172.50 0.05689
1172.60 0.05688
1172.70 0.05686
1172.80 0.05684
1172.90 0.05682
1173.00 0.0568
1173.10 0.05679
1173.20 0.05677
1173.30 0.05675
1173.40 0.05673
1173.50 0.05671
1173.60 0.0567
1173.70 0.05668
1173.80 0.05666
1173.90 0.05664
1174.00 0.05662
1174.10 0.05661
1174.20 0.05659
1174.30 0.05657
1174.40 0.05655
1174.50 0.05654
1174.60 0.05652
1174.70 0.0565
1174.80 0.05648
1174.90 0.05646
1175.00 0.05645
1175.10 0.05643
1175.20 0.05641
1175.30 0.05639
1175.40 0.05637
1175.50 0.05636
1175.60 0.05634
1175.70 0.05632
1175.80 0.0563
1175.90 0.05629
1176.00 0.05627
1176.10 0.05625
1176.20 0.05623
1176.30 0.05621
1176.40 0.0562
1176.50 0.05618
1176.60 0.05616
1176.70 0.05614
1176.80 0.05613
1176.90 0.05611
1177.00 0.05609
1177.10 0.05607
1177.20 0.05605
1177.30 0.05604
1177.40 0.05602
1177.50 0.056
1177.60 0.05598
1177.70 0.05597
1177.80 0.05595
1177.90 0.05593
1178.00 0.05591
1178.10 0.0559
1178.20 0.05588
1178.30 0.05586
1178.40 0.05584
1178.50 0.05583
1178.60 0.05581
1178.70 0.05579
1178.80 0.05577
1178.90 0.05576
1179.00 0.05574
1179.10 0.05572
1179.20 0.0557
1179.30 0.05569
1179.40 0.05567
1179.50 0.05565
1179.60 0.05563
1179.70 0.05561
1179.80 0.0556
1179.90 0.05558
1180.00 0.05556
1180.10 0.05554
1180.20 0.05553
1180.30 0.05551
1180.40 0.05549
1180.50 0.05547
1180.60 0.05546
1180.70 0.05544
1180.80 0.05542
1180.90 0.0554
1181.00 0.05539
1181.10 0.05537
1181.20 0.05535
1181.30 0.05533
1181.40 0.05532
1181.50 0.0553
1181.60 0.05528
1181.70 0.05527
1181.80 0.05525
1181.90 0.05523
1182.00 0.05521
1182.10 0.0552
1182.20 0.05518
1182.30 0.05516
1182.40 0.05514
1182.50 0.05513
1182.60 0.05511
1182.70 0.05509
1182.80 0.05507
1182.90 0.05506
1183.00 0.05504
1183.10 0.05502
1183.20 0.055
1183.30 0.05499
1183.40 0.05497
1183.50 0.05495
1183.60 0.05494
1183.70 0.05492
1183.80 0.0549
1183.90 0.05488
1184.00 0.05487
1184.10 0.05485
1184.20 0.05483
1184.30 0.05481
1184.40 0.0548
1184.50 0.05478
1184.60 0.05476
1184.70 0.05475
1184.80 0.05473
1184.90 0.05471
1185.00 0.05469
1185.10 0.05468
1185.20 0.05466
1185.30 0.05464
1185.40 0.05462
1185.50 0.05461
1185.60 0.05459
1185.70 0.05457
1185.80 0.05456
1185.90 0.05454
1186.00 0.05452
1186.10 0.0545
1186.20 0.05449
1186.30 0.05447
1186.40 0.05445
1186.50 0.05444
1186.60 0.05442
1186.70 0.0544
1186.80 0.05438
1186.90 0.05437
1187.00 0.05435
1187.10 0.05433
1187.20 0.05432
1187.30 0.0543
1187.40 0.05428
1187.50 0.05426
1187.60 0.05425
1187.70 0.05423
1187.80 0.05421
1187.90 0.0542
1188.00 0.05418
1188.10 0.05416
1188.20 0.05414
1188.30 0.05413
1188.40 0.05411
1188.50 0.05409
1188.60 0.05408
1188.70 0.05406
1188.80 0.05404
1188.90 0.05403
1189.00 0.05401
1189.10 0.05399
1189.20 0.05397
1189.30 0.05396
1189.40 0.05394
1189.50 0.05392
1189.60 0.05391
1189.70 0.05389
1189.80 0.05387
1189.90 0.05386
1190.00 0.05384
1190.10 0.05382
1190.20 0.05381
1190.30 0.05379
1190.40 0.05377
1190.50 0.05375
1190.60 0.05374
1190.70 0.05372
1190.80 0.0537
1190.90 0.05369
1191.00 0.05367
1191.10 0.05365
1191.20 0.05364
1191.30 0.05362
1191.40 0.0536
1191.50 0.05359
1191.60 0.05357
1191.70 0.05355
1191.80 0.05353
1191.90 0.05352
1192.00 0.0535
1192.10 0.05348
1192.20 0.05347
1192.30 0.05345
1192.40 0.05343
1192.50 0.05342
1192.60 0.0534
1192.70 0.05338
1192.80 0.05337
1192.90 0.05335
1193.00 0.05333
1193.10 0.05332
1193.20 0.0533
1193.30 0.05328
1193.40 0.05327
1193.50 0.05325
1193.60 0.05323
1193.70 0.05322
1193.80 0.0532
1193.90 0.05318
1194.00 0.05317
1194.10 0.05315
1194.20 0.05313
1194.30 0.05312
1194.40 0.0531
1194.50 0.05308
1194.60 0.05307
1194.70 0.05305
1194.80 0.05303
1194.90 0.05302
1195.00 0.053
1195.10 0.05298
1195.20 0.05297
1195.30 0.05295
1195.40 0.05293
1195.50 0.05292
1195.60 0.0529
1195.70 0.05288
1195.80 0.05287
1195.90 0.05285
1196.00 0.05283
1196.10 0.05282
1196.20 0.0528
1196.30 0.05278
1196.40 0.05277
1196.50 0.05275
1196.60 0.05273
1196.70 0.05272
1196.80 0.0527
1196.90 0.05268
1197.00 0.05267
1197.10 0.05265
1197.20 0.05263
1197.30 0.05262
1197.40 0.0526
1197.50 0.05258
1197.60 0.05257
1197.70 0.05255
1197.80 0.05253
1197.90 0.05252
1198.00 0.0525
1198.10 0.05248
1198.20 0.05247
1198.30 0.05245
1198.40 0.05244
1198.50 0.05242
1198.60 0.0524
1198.70 0.05239
1198.80 0.05237
1198.90 0.05235
1199.00 0.05234
1199.10 0.05232
1199.20 0.0523
1199.30 0.05229
1199.40 0.05227
1199.50 0.05225
1199.60 0.05224
1199.70 0.05222
1199.80 0.0522
1199.90 0.05219
1200.00 0
