# Version 2.1 - nm, norm@500 to 1, cut digits, bergeron_4750_85.dat_4750
# Wavelength(nm)  Flambda(ergs/cm^s/s/nm)
300.00 0.3091
300.10 0.3096
300.20 0.31
300.30 0.3104
300.40 0.3109
300.50 0.3113
300.60 0.3117
300.70 0.3121
300.80 0.3126
300.90 0.313
301.00 0.3134
301.10 0.3139
301.20 0.3143
301.30 0.3147
301.40 0.3151
301.50 0.3156
301.60 0.316
301.70 0.3164
301.80 0.3168
301.90 0.3172
302.00 0.3177
302.10 0.3181
302.20 0.3185
302.30 0.319
302.40 0.3194
302.50 0.3198
302.60 0.3203
302.70 0.3207
302.80 0.3211
302.90 0.3216
303.00 0.322
303.10 0.3224
303.20 0.3228
303.30 0.3233
303.40 0.3237
303.50 0.3241
303.60 0.3245
303.70 0.325
303.80 0.3254
303.90 0.3258
304.00 0.3262
304.10 0.3267
304.20 0.3271
304.30 0.3276
304.40 0.328
304.50 0.3284
304.60 0.3289
304.70 0.3293
304.80 0.3297
304.90 0.3302
305.00 0.3306
305.10 0.331
305.20 0.3315
305.30 0.3319
305.40 0.3323
305.50 0.3327
305.60 0.3332
305.70 0.3336
305.80 0.334
305.90 0.3345
306.00 0.3349
306.10 0.3353
306.20 0.3358
306.30 0.3362
306.40 0.3366
306.50 0.3371
306.60 0.3375
306.70 0.3379
306.80 0.3384
306.90 0.3388
307.00 0.3392
307.10 0.3397
307.20 0.3401
307.30 0.3405
307.40 0.341
307.50 0.3414
307.60 0.3418
307.70 0.3423
307.80 0.3427
307.90 0.3431
308.00 0.3436
308.10 0.344
308.20 0.3444
308.30 0.3449
308.40 0.3453
308.50 0.3458
308.60 0.3462
308.70 0.3466
308.80 0.3471
308.90 0.3475
309.00 0.348
309.10 0.3484
309.20 0.3488
309.30 0.3493
309.40 0.3497
309.50 0.3501
309.60 0.3506
309.70 0.351
309.80 0.3514
309.90 0.3519
310.00 0.3523
310.10 0.3527
310.20 0.3532
310.30 0.3536
310.40 0.3541
310.50 0.3545
310.60 0.355
310.70 0.3554
310.80 0.3558
310.90 0.3563
311.00 0.3567
311.10 0.3572
311.20 0.3576
311.30 0.358
311.40 0.3585
311.50 0.3589
311.60 0.3593
311.70 0.3598
311.80 0.3602
311.90 0.3606
312.00 0.3611
312.10 0.3615
312.20 0.3619
312.30 0.3624
312.40 0.3628
312.50 0.3633
312.60 0.3637
312.70 0.3642
312.80 0.3646
312.90 0.365
313.00 0.3655
313.10 0.3659
313.20 0.3664
313.30 0.3668
313.40 0.3673
313.50 0.3677
313.60 0.3681
313.70 0.3686
313.80 0.369
313.90 0.3694
314.00 0.3699
314.10 0.3703
314.20 0.3708
314.30 0.3712
314.40 0.3717
314.50 0.3721
314.60 0.3726
314.70 0.373
314.80 0.3734
314.90 0.3739
315.00 0.3743
315.10 0.3748
315.20 0.3752
315.30 0.3757
315.40 0.3761
315.50 0.3765
315.60 0.377
315.70 0.3774
315.80 0.3778
315.90 0.3783
316.00 0.3787
316.10 0.3792
316.20 0.3796
316.30 0.3801
316.40 0.3805
316.50 0.381
316.60 0.3814
316.70 0.3819
316.80 0.3823
316.90 0.3827
317.00 0.3832
317.10 0.3836
317.20 0.3841
317.30 0.3845
317.40 0.385
317.50 0.3854
317.60 0.3858
317.70 0.3863
317.80 0.3867
317.90 0.3872
318.00 0.3876
318.10 0.3881
318.20 0.3885
318.30 0.389
318.40 0.3894
318.50 0.3899
318.60 0.3903
318.70 0.3907
318.80 0.3912
318.90 0.3916
319.00 0.3921
319.10 0.3925
319.20 0.393
319.30 0.3934
319.40 0.3939
319.50 0.3943
319.60 0.3947
319.70 0.3952
319.80 0.3956
319.90 0.3961
320.00 0.3965
320.10 0.397
320.20 0.3974
320.30 0.3979
320.40 0.3983
320.50 0.3988
320.60 0.3992
320.70 0.3997
320.80 0.4001
320.90 0.4006
321.00 0.401
321.10 0.4014
321.20 0.4019
321.30 0.4023
321.40 0.4028
321.50 0.4032
321.60 0.4037
321.70 0.4041
321.80 0.4046
321.90 0.405
322.00 0.4054
322.10 0.4059
322.20 0.4063
322.30 0.4068
322.40 0.4072
322.50 0.4077
322.60 0.4081
322.70 0.4086
322.80 0.409
322.90 0.4095
323.00 0.4099
323.10 0.4104
323.20 0.4108
323.30 0.4113
323.40 0.4117
323.50 0.4122
323.60 0.4126
323.70 0.4131
323.80 0.4135
323.90 0.4139
324.00 0.4144
324.10 0.4148
324.20 0.4153
324.30 0.4157
324.40 0.4162
324.50 0.4167
324.60 0.4171
324.70 0.4176
324.80 0.418
324.90 0.4185
325.00 0.4189
325.10 0.4194
325.20 0.4198
325.30 0.4202
325.40 0.4207
325.50 0.4211
325.60 0.4216
325.70 0.422
325.80 0.4225
325.90 0.4229
326.00 0.4234
326.10 0.4238
326.20 0.4243
326.30 0.4247
326.40 0.4252
326.50 0.4256
326.60 0.4261
326.70 0.4265
326.80 0.427
326.90 0.4274
327.00 0.4279
327.10 0.4283
327.20 0.4288
327.30 0.4292
327.40 0.4297
327.50 0.4301
327.60 0.4306
327.70 0.431
327.80 0.4314
327.90 0.4319
328.00 0.4323
328.10 0.4328
328.20 0.4332
328.30 0.4337
328.40 0.4342
328.50 0.4346
328.60 0.4351
328.70 0.4355
328.80 0.436
328.90 0.4364
329.00 0.4369
329.10 0.4373
329.20 0.4378
329.30 0.4382
329.40 0.4386
329.50 0.4391
329.60 0.4395
329.70 0.44
329.80 0.4404
329.90 0.4409
330.00 0.4413
330.10 0.4418
330.20 0.4422
330.30 0.4427
330.40 0.4431
330.50 0.4436
330.60 0.444
330.70 0.4445
330.80 0.4449
330.90 0.4454
331.00 0.4458
331.10 0.4463
331.20 0.4467
331.30 0.4472
331.40 0.4476
331.50 0.4481
331.60 0.4485
331.70 0.449
331.80 0.4494
331.90 0.4499
332.00 0.4503
332.10 0.4508
332.20 0.4512
332.30 0.4517
332.40 0.4521
332.50 0.4526
332.60 0.453
332.70 0.4535
332.80 0.4539
332.90 0.4544
333.00 0.4548
333.10 0.4553
333.20 0.4557
333.30 0.4562
333.40 0.4566
333.50 0.4571
333.60 0.4575
333.70 0.458
333.80 0.4584
333.90 0.4589
334.00 0.4593
334.10 0.4598
334.20 0.4602
334.30 0.4607
334.40 0.4611
334.50 0.4616
334.60 0.462
334.70 0.4625
334.80 0.4629
334.90 0.4634
335.00 0.4638
335.10 0.4643
335.20 0.4647
335.30 0.4652
335.40 0.4656
335.50 0.4661
335.60 0.4665
335.70 0.467
335.80 0.4674
335.90 0.4679
336.00 0.4683
336.10 0.4688
336.20 0.4692
336.30 0.4697
336.40 0.4701
336.50 0.4706
336.60 0.471
336.70 0.4715
336.80 0.4719
336.90 0.4724
337.00 0.4728
337.10 0.4733
337.20 0.4737
337.30 0.4742
337.40 0.4746
337.50 0.4751
337.60 0.4755
337.70 0.476
337.80 0.4764
337.90 0.4768
338.00 0.4773
338.10 0.4777
338.20 0.4782
338.30 0.4787
338.40 0.4791
338.50 0.4796
338.60 0.48
338.70 0.4805
338.80 0.4809
338.90 0.4814
339.00 0.4818
339.10 0.4823
339.20 0.4827
339.30 0.4832
339.40 0.4836
339.50 0.484
339.60 0.4845
339.70 0.4849
339.80 0.4854
339.90 0.4858
340.00 0.4863
340.10 0.4867
340.20 0.4872
340.30 0.4876
340.40 0.4881
340.50 0.4885
340.60 0.489
340.70 0.4894
340.80 0.4899
340.90 0.4903
341.00 0.4908
341.10 0.4912
341.20 0.4917
341.30 0.4921
341.40 0.4926
341.50 0.493
341.60 0.4935
341.70 0.4939
341.80 0.4944
341.90 0.4948
342.00 0.4952
342.10 0.4957
342.20 0.4961
342.30 0.4966
342.40 0.4971
342.50 0.4975
342.60 0.498
342.70 0.4984
342.80 0.4989
342.90 0.4993
343.00 0.4997
343.10 0.5002
343.20 0.5006
343.30 0.5011
343.40 0.5015
343.50 0.502
343.60 0.5024
343.70 0.5029
343.80 0.5033
343.90 0.5038
344.00 0.5042
344.10 0.5046
344.20 0.5051
344.30 0.5055
344.40 0.506
344.50 0.5064
344.60 0.5069
344.70 0.5073
344.80 0.5078
344.90 0.5082
345.00 0.5087
345.10 0.5091
345.20 0.5096
345.30 0.51
345.40 0.5105
345.50 0.5109
345.60 0.5114
345.70 0.5118
345.80 0.5122
345.90 0.5127
346.00 0.5131
346.10 0.5136
346.20 0.514
346.30 0.5145
346.40 0.5149
346.50 0.5154
346.60 0.5158
346.70 0.5163
346.80 0.5167
346.90 0.5172
347.00 0.5176
347.10 0.5181
347.20 0.5185
347.30 0.5189
347.40 0.5194
347.50 0.5198
347.60 0.5203
347.70 0.5207
347.80 0.5212
347.90 0.5216
348.00 0.522
348.10 0.5225
348.20 0.5229
348.30 0.5234
348.40 0.5238
348.50 0.5243
348.60 0.5247
348.70 0.5252
348.80 0.5256
348.90 0.5261
349.00 0.5265
349.10 0.527
349.20 0.5274
349.30 0.5279
349.40 0.5283
349.50 0.5287
349.60 0.5292
349.70 0.5296
349.80 0.5301
349.90 0.5305
350.00 0.5309
350.10 0.5314
350.20 0.5318
350.30 0.5323
350.40 0.5327
350.50 0.5332
350.60 0.5336
350.70 0.5341
350.80 0.5345
350.90 0.535
351.00 0.5354
351.10 0.5358
351.20 0.5363
351.30 0.5367
351.40 0.5372
351.50 0.5376
351.60 0.538
351.70 0.5385
351.80 0.5389
351.90 0.5394
352.00 0.5398
352.10 0.5402
352.20 0.5407
352.30 0.5411
352.40 0.5416
352.50 0.542
352.60 0.5425
352.70 0.5429
352.80 0.5434
352.90 0.5438
353.00 0.5442
353.10 0.5447
353.20 0.5451
353.30 0.5456
353.40 0.546
353.50 0.5464
353.60 0.5469
353.70 0.5473
353.80 0.5478
353.90 0.5482
354.00 0.5486
354.10 0.5491
354.20 0.5495
354.30 0.55
354.40 0.5504
354.50 0.5509
354.60 0.5513
354.70 0.5517
354.80 0.5522
354.90 0.5526
355.00 0.5531
355.10 0.5535
355.20 0.5539
355.30 0.5544
355.40 0.5548
355.50 0.5553
355.60 0.5557
355.70 0.5561
355.80 0.5566
355.90 0.557
356.00 0.5574
356.10 0.5579
356.20 0.5583
356.30 0.5588
356.40 0.5592
356.50 0.5596
356.60 0.5601
356.70 0.5605
356.80 0.561
356.90 0.5614
357.00 0.5618
357.10 0.5623
357.20 0.5627
357.30 0.5632
357.40 0.5636
357.50 0.564
357.60 0.5645
357.70 0.5649
357.80 0.5653
357.90 0.5658
358.00 0.5662
358.10 0.5666
358.20 0.5671
358.30 0.5675
358.40 0.568
358.50 0.5684
358.60 0.5688
358.70 0.5693
358.80 0.5697
358.90 0.5702
359.00 0.5706
359.10 0.571
359.20 0.5715
359.30 0.5719
359.40 0.5723
359.50 0.5728
359.60 0.5732
359.70 0.5736
359.80 0.5741
359.90 0.5745
360.00 0.5749
360.10 0.5754
360.20 0.5758
360.30 0.5762
360.40 0.5767
360.50 0.5771
360.60 0.5776
360.70 0.578
360.80 0.5784
360.90 0.5789
361.00 0.5793
361.10 0.5797
361.20 0.5802
361.30 0.5806
361.40 0.581
361.50 0.5815
361.60 0.5819
361.70 0.5823
361.80 0.5828
361.90 0.5832
362.00 0.5836
362.10 0.584
362.20 0.5845
362.30 0.5849
362.40 0.5853
362.50 0.5858
362.60 0.5862
362.70 0.5866
362.80 0.5871
362.90 0.5875
363.00 0.5879
363.10 0.5884
363.20 0.5888
363.30 0.5892
363.40 0.5897
363.50 0.5901
363.60 0.5905
363.70 0.591
363.80 0.5914
363.90 0.5918
364.00 0.5923
364.10 0.5927
364.20 0.5931
364.30 0.5936
364.40 0.594
364.50 0.5944
364.60 0.5948
364.70 0.5953
364.80 0.5957
364.90 0.5961
365.00 0.5966
365.10 0.597
365.20 0.5974
365.30 0.5979
365.40 0.5983
365.50 0.5987
365.60 0.5991
365.70 0.5996
365.80 0.6
365.90 0.6004
366.00 0.6008
366.10 0.6013
366.20 0.6017
366.30 0.6021
366.40 0.6026
366.50 0.603
366.60 0.6034
366.70 0.6039
366.80 0.6043
366.90 0.6047
367.00 0.6052
367.10 0.6056
367.20 0.606
367.30 0.6064
367.40 0.6069
367.50 0.6073
367.60 0.6077
367.70 0.6081
367.80 0.6086
367.90 0.609
368.00 0.6094
368.10 0.6098
368.20 0.6103
368.30 0.6107
368.40 0.6111
368.50 0.6116
368.60 0.612
368.70 0.6124
368.80 0.6128
368.90 0.6133
369.00 0.6137
369.10 0.6141
369.20 0.6145
369.30 0.615
369.40 0.6154
369.50 0.6158
369.60 0.6162
369.70 0.6166
369.80 0.6171
369.90 0.6175
370.00 0.6179
370.10 0.6183
370.20 0.6188
370.30 0.6192
370.40 0.6196
370.50 0.62
370.60 0.6205
370.70 0.6209
370.80 0.6213
370.90 0.6217
371.00 0.6222
371.10 0.6226
371.20 0.623
371.30 0.6234
371.40 0.6238
371.50 0.6243
371.60 0.6247
371.70 0.6251
371.80 0.6255
371.90 0.6259
372.00 0.6264
372.10 0.6268
372.20 0.6272
372.30 0.6276
372.40 0.6281
372.50 0.6285
372.60 0.6289
372.70 0.6293
372.80 0.6297
372.90 0.6302
373.00 0.6306
373.10 0.631
373.20 0.6314
373.30 0.6318
373.40 0.6323
373.50 0.6327
373.60 0.6331
373.70 0.6335
373.80 0.6339
373.90 0.6343
374.00 0.6347
374.10 0.6352
374.20 0.6356
374.30 0.636
374.40 0.6364
374.50 0.6369
374.60 0.6373
374.70 0.6377
374.80 0.6381
374.90 0.6385
375.00 0.6389
375.10 0.6394
375.20 0.6398
375.30 0.6402
375.40 0.6406
375.50 0.641
375.60 0.6414
375.70 0.6418
375.80 0.6423
375.90 0.6427
376.00 0.6431
376.10 0.6435
376.20 0.6439
376.30 0.6443
376.40 0.6447
376.50 0.6452
376.60 0.6456
376.70 0.646
376.80 0.6464
376.90 0.6468
377.00 0.6472
377.10 0.6476
377.20 0.6481
377.30 0.6485
377.40 0.6489
377.50 0.6493
377.60 0.6497
377.70 0.6501
377.80 0.6505
377.90 0.651
378.00 0.6514
378.10 0.6518
378.20 0.6522
378.30 0.6526
378.40 0.653
378.50 0.6534
378.60 0.6538
378.70 0.6543
378.80 0.6547
378.90 0.6551
379.00 0.6555
379.10 0.6559
379.20 0.6563
379.30 0.6567
379.40 0.6571
379.50 0.6575
379.60 0.6579
379.70 0.6584
379.80 0.6588
379.90 0.6592
380.00 0.6596
380.10 0.66
380.20 0.6604
380.30 0.6608
380.40 0.6612
380.50 0.6616
380.60 0.662
380.70 0.6624
380.80 0.6628
380.90 0.6633
381.00 0.6637
381.10 0.6641
381.20 0.6645
381.30 0.6649
381.40 0.6653
381.50 0.6657
381.60 0.6661
381.70 0.6665
381.80 0.6669
381.90 0.6673
382.00 0.6677
382.10 0.6681
382.20 0.6685
382.30 0.6689
382.40 0.6693
382.50 0.6698
382.60 0.6702
382.70 0.6706
382.80 0.671
382.90 0.6714
383.00 0.6718
383.10 0.6722
383.20 0.6726
383.30 0.673
383.40 0.6734
383.50 0.6738
383.60 0.6742
383.70 0.6746
383.80 0.675
383.90 0.6754
384.00 0.6758
384.10 0.6762
384.20 0.6766
384.30 0.677
384.40 0.6774
384.50 0.6778
384.60 0.6782
384.70 0.6786
384.80 0.679
384.90 0.6794
385.00 0.6798
385.10 0.6802
385.20 0.6806
385.30 0.681
385.40 0.6814
385.50 0.6818
385.60 0.6822
385.70 0.6826
385.80 0.683
385.90 0.6834
386.00 0.6838
386.10 0.6842
386.20 0.6846
386.30 0.685
386.40 0.6854
386.50 0.6858
386.60 0.6862
386.70 0.6866
386.80 0.687
386.90 0.6874
387.00 0.6878
387.10 0.6882
387.20 0.6886
387.30 0.689
387.40 0.6894
387.50 0.6898
387.60 0.6902
387.70 0.6906
387.80 0.691
387.90 0.6914
388.00 0.6918
388.10 0.6922
388.20 0.6926
388.30 0.693
388.40 0.6934
388.50 0.6938
388.60 0.6942
388.70 0.6945
388.80 0.6949
388.90 0.6953
389.00 0.6957
389.10 0.6961
389.20 0.6965
389.30 0.6969
389.40 0.6973
389.50 0.6977
389.60 0.6981
389.70 0.6985
389.80 0.6989
389.90 0.6993
390.00 0.6997
390.10 0.7001
390.20 0.7004
390.30 0.7008
390.40 0.7012
390.50 0.7016
390.60 0.702
390.70 0.7024
390.80 0.7028
390.90 0.7032
391.00 0.7036
391.10 0.704
391.20 0.7044
391.30 0.7047
391.40 0.7051
391.50 0.7055
391.60 0.7059
391.70 0.7063
391.80 0.7067
391.90 0.7071
392.00 0.7075
392.10 0.7079
392.20 0.7082
392.30 0.7086
392.40 0.709
392.50 0.7094
392.60 0.7098
392.70 0.7102
392.80 0.7106
392.90 0.711
393.00 0.7113
393.10 0.7117
393.20 0.7121
393.30 0.7125
393.40 0.7129
393.50 0.7133
393.60 0.7137
393.70 0.714
393.80 0.7144
393.90 0.7148
394.00 0.7152
394.10 0.7156
394.20 0.716
394.30 0.7163
394.40 0.7167
394.50 0.7171
394.60 0.7175
394.70 0.7179
394.80 0.7183
394.90 0.7186
395.00 0.719
395.10 0.7194
395.20 0.7198
395.30 0.7202
395.40 0.7206
395.50 0.7209
395.60 0.7213
395.70 0.7217
395.80 0.7221
395.90 0.7225
396.00 0.7229
396.10 0.7232
396.20 0.7236
396.30 0.724
396.40 0.7244
396.50 0.7248
396.60 0.7251
396.70 0.7255
396.80 0.7259
396.90 0.7263
397.00 0.7267
397.10 0.727
397.20 0.7274
397.30 0.7278
397.40 0.7282
397.50 0.7285
397.60 0.7289
397.70 0.7293
397.80 0.7297
397.90 0.7301
398.00 0.7304
398.10 0.7308
398.20 0.7312
398.30 0.7316
398.40 0.7319
398.50 0.7323
398.60 0.7327
398.70 0.7331
398.80 0.7334
398.90 0.7338
399.00 0.7342
399.10 0.7346
399.20 0.7349
399.30 0.7353
399.40 0.7357
399.50 0.7361
399.60 0.7364
399.70 0.7368
399.80 0.7372
399.90 0.7376
400.00 0.7379
400.10 0.7383
400.20 0.7387
400.30 0.7391
400.40 0.7394
400.50 0.7398
400.60 0.7402
400.70 0.7405
400.80 0.7409
400.90 0.7413
401.00 0.7417
401.10 0.742
401.20 0.7424
401.30 0.7428
401.40 0.7431
401.50 0.7435
401.60 0.7439
401.70 0.7443
401.80 0.7446
401.90 0.745
402.00 0.7454
402.10 0.7457
402.20 0.7461
402.30 0.7465
402.40 0.7468
402.50 0.7472
402.60 0.7476
402.70 0.7479
402.80 0.7483
402.90 0.7487
403.00 0.749
403.10 0.7494
403.20 0.7498
403.30 0.7501
403.40 0.7505
403.50 0.7509
403.60 0.7512
403.70 0.7516
403.80 0.752
403.90 0.7523
404.00 0.7527
404.10 0.7531
404.20 0.7534
404.30 0.7538
404.40 0.7542
404.50 0.7545
404.60 0.7549
404.70 0.7553
404.80 0.7556
404.90 0.756
405.00 0.7563
405.10 0.7567
405.20 0.7571
405.30 0.7574
405.40 0.7578
405.50 0.7582
405.60 0.7585
405.70 0.7589
405.80 0.7592
405.90 0.7596
406.00 0.76
406.10 0.7603
406.20 0.7607
406.30 0.761
406.40 0.7614
406.50 0.7618
406.60 0.7621
406.70 0.7625
406.80 0.7628
406.90 0.7632
407.00 0.7636
407.10 0.7639
407.20 0.7643
407.30 0.7646
407.40 0.765
407.50 0.7654
407.60 0.7657
407.70 0.7661
407.80 0.7664
407.90 0.7668
408.00 0.7672
408.10 0.7675
408.20 0.7678
408.30 0.7682
408.40 0.7686
408.50 0.7689
408.60 0.7693
408.70 0.7697
408.80 0.77
408.90 0.7703
409.00 0.7707
409.10 0.7711
409.20 0.7714
409.30 0.7718
409.40 0.7721
409.50 0.7725
409.60 0.7728
409.70 0.7732
409.80 0.7735
409.90 0.7739
410.00 0.7742
410.10 0.7746
410.20 0.7749
410.30 0.7753
410.40 0.7756
410.50 0.776
410.60 0.7763
410.70 0.7767
410.80 0.7771
410.90 0.7774
411.00 0.7777
411.10 0.7781
411.20 0.7784
411.30 0.7788
411.40 0.7792
411.50 0.7795
411.60 0.7798
411.70 0.7802
411.80 0.7805
411.90 0.7809
412.00 0.7813
412.10 0.7816
412.20 0.7819
412.30 0.7823
412.40 0.7827
412.50 0.783
412.60 0.7833
412.70 0.7837
412.80 0.784
412.90 0.7844
413.00 0.7847
413.10 0.7851
413.20 0.7855
413.30 0.7858
413.40 0.7861
413.50 0.7865
413.60 0.7868
413.70 0.7871
413.80 0.7875
413.90 0.7879
414.00 0.7882
414.10 0.7885
414.20 0.7889
414.30 0.7892
414.40 0.7895
414.50 0.7899
414.60 0.7902
414.70 0.7906
414.80 0.7909
414.90 0.7912
415.00 0.7916
415.10 0.792
415.20 0.7923
415.30 0.7926
415.40 0.793
415.50 0.7933
415.60 0.7937
415.70 0.794
415.80 0.7944
415.90 0.7947
416.00 0.795
416.10 0.7954
416.20 0.7957
416.30 0.796
416.40 0.7964
416.50 0.7967
416.60 0.7971
416.70 0.7974
416.80 0.7978
416.90 0.7981
417.00 0.7984
417.10 0.7987
417.20 0.7991
417.30 0.7994
417.40 0.7998
417.50 0.8001
417.60 0.8004
417.70 0.8008
417.80 0.8011
417.90 0.8014
418.00 0.8018
418.10 0.8021
418.20 0.8025
418.30 0.8028
418.40 0.8031
418.50 0.8034
418.60 0.8038
418.70 0.8041
418.80 0.8045
418.90 0.8048
419.00 0.8051
419.10 0.8054
419.20 0.8058
419.30 0.8061
419.40 0.8064
419.50 0.8068
419.60 0.8071
419.70 0.8075
419.80 0.8078
419.90 0.8081
420.00 0.8085
420.10 0.8087
420.20 0.8091
420.30 0.8094
420.40 0.8097
420.50 0.8101
420.60 0.8104
420.70 0.8108
420.80 0.8111
420.90 0.8114
421.00 0.8118
421.10 0.8121
421.20 0.8124
421.30 0.8128
421.40 0.8131
421.50 0.8134
421.60 0.8137
421.70 0.814
421.80 0.8143
421.90 0.8147
422.00 0.815
422.10 0.8153
422.20 0.8157
422.30 0.816
422.40 0.8163
422.50 0.8166
422.60 0.817
422.70 0.8173
422.80 0.8176
422.90 0.8179
423.00 0.8183
423.10 0.8186
423.20 0.8189
423.30 0.8192
423.40 0.8196
423.50 0.8199
423.60 0.8202
423.70 0.8205
423.80 0.8209
423.90 0.8212
424.00 0.8215
424.10 0.8218
424.20 0.8221
424.30 0.8225
424.40 0.8228
424.50 0.8231
424.60 0.8234
424.70 0.8237
424.80 0.8241
424.90 0.8244
425.00 0.8247
425.10 0.825
425.20 0.8253
425.30 0.8257
425.40 0.826
425.50 0.8263
425.60 0.8267
425.70 0.827
425.80 0.8273
425.90 0.8276
426.00 0.8279
426.10 0.8282
426.20 0.8285
426.30 0.8289
426.40 0.8292
426.50 0.8295
426.60 0.8298
426.70 0.8301
426.80 0.8305
426.90 0.8308
427.00 0.8311
427.10 0.8314
427.20 0.8317
427.30 0.832
427.40 0.8323
427.50 0.8326
427.60 0.8329
427.70 0.8333
427.80 0.8336
427.90 0.8339
428.00 0.8342
428.10 0.8345
428.20 0.8349
428.30 0.8352
428.40 0.8355
428.50 0.8358
428.60 0.8361
428.70 0.8364
428.80 0.8367
428.90 0.837
429.00 0.8374
429.10 0.8377
429.20 0.838
429.30 0.8383
429.40 0.8386
429.50 0.8389
429.60 0.8392
429.70 0.8395
429.80 0.8398
429.90 0.8401
430.00 0.8404
430.10 0.8407
430.20 0.841
430.30 0.8414
430.40 0.8417
430.50 0.842
430.60 0.8423
430.70 0.8426
430.80 0.8429
430.90 0.8432
431.00 0.8435
431.10 0.8438
431.20 0.8441
431.30 0.8444
431.40 0.8447
431.50 0.8451
431.60 0.8453
431.70 0.8456
431.80 0.8459
431.90 0.8462
432.00 0.8465
432.10 0.8469
432.20 0.8472
432.30 0.8475
432.40 0.8477
432.50 0.848
432.60 0.8483
432.70 0.8487
432.80 0.849
432.90 0.8493
433.00 0.8495
433.10 0.8498
433.20 0.8501
433.30 0.8504
433.40 0.8507
433.50 0.851
433.60 0.8513
433.70 0.8515
433.80 0.8518
433.90 0.8521
434.00 0.8523
434.10 0.8526
434.20 0.853
434.30 0.8533
434.40 0.8536
434.50 0.8539
434.60 0.8543
434.70 0.8546
434.80 0.8549
434.90 0.8552
435.00 0.8555
435.10 0.8558
435.20 0.8561
435.30 0.8564
435.40 0.8567
435.50 0.857
435.60 0.8573
435.70 0.8576
435.80 0.8579
435.90 0.8582
436.00 0.8585
436.10 0.8588
436.20 0.8591
436.30 0.8594
436.40 0.8597
436.50 0.86
436.60 0.8603
436.70 0.8606
436.80 0.8609
436.90 0.8612
437.00 0.8615
437.10 0.8618
437.20 0.862
437.30 0.8623
437.40 0.8626
437.50 0.8629
437.60 0.8632
437.70 0.8635
437.80 0.8638
437.90 0.8641
438.00 0.8644
438.10 0.8647
438.20 0.865
438.30 0.8653
438.40 0.8655
438.50 0.8658
438.60 0.8661
438.70 0.8664
438.80 0.8667
438.90 0.867
439.00 0.8673
439.10 0.8676
439.20 0.8679
439.30 0.8681
439.40 0.8684
439.50 0.8687
439.60 0.869
439.70 0.8693
439.80 0.8696
439.90 0.8698
440.00 0.8701
440.10 0.8704
440.20 0.8707
440.30 0.871
440.40 0.8713
440.50 0.8715
440.60 0.8719
440.70 0.8721
440.80 0.8724
440.90 0.8727
441.00 0.873
441.10 0.8733
441.20 0.8736
441.30 0.8738
441.40 0.8741
441.50 0.8744
441.60 0.8747
441.70 0.875
441.80 0.8752
441.90 0.8755
442.00 0.8758
442.10 0.8761
442.20 0.8764
442.30 0.8766
442.40 0.8769
442.50 0.8772
442.60 0.8775
442.70 0.8778
442.80 0.878
442.90 0.8783
443.00 0.8786
443.10 0.8789
443.20 0.8792
443.30 0.8794
443.40 0.8797
443.50 0.88
443.60 0.8803
443.70 0.8806
443.80 0.8808
443.90 0.8811
444.00 0.8814
444.10 0.8816
444.20 0.8819
444.30 0.8822
444.40 0.8825
444.50 0.8828
444.60 0.883
444.70 0.8833
444.80 0.8836
444.90 0.8839
445.00 0.8841
445.10 0.8844
445.20 0.8847
445.30 0.885
445.40 0.8852
445.50 0.8855
445.60 0.8858
445.70 0.8861
445.80 0.8863
445.90 0.8866
446.00 0.8869
446.10 0.8871
446.20 0.8874
446.30 0.8877
446.40 0.8879
446.50 0.8882
446.60 0.8885
446.70 0.8888
446.80 0.889
446.90 0.8893
447.00 0.8896
447.10 0.8899
447.20 0.8901
447.30 0.8904
447.40 0.8906
447.50 0.8909
447.60 0.8912
447.70 0.8915
447.80 0.8917
447.90 0.892
448.00 0.8922
448.10 0.8925
448.20 0.8928
448.30 0.893
448.40 0.8933
448.50 0.8936
448.60 0.8939
448.70 0.8941
448.80 0.8944
448.90 0.8946
449.00 0.8949
449.10 0.8952
449.20 0.8954
449.30 0.8957
449.40 0.896
449.50 0.8962
449.60 0.8965
449.70 0.8968
449.80 0.897
449.90 0.8973
450.00 0.8975
450.10 0.8978
450.20 0.898
450.30 0.8983
450.40 0.8986
450.50 0.8989
450.60 0.8991
450.70 0.8993
450.80 0.8996
450.90 0.8999
451.00 0.9001
451.10 0.9004
451.20 0.9007
451.30 0.901
451.40 0.9012
451.50 0.9014
451.60 0.9017
451.70 0.902
451.80 0.9022
451.90 0.9025
452.00 0.9028
452.10 0.903
452.20 0.9032
452.30 0.9035
452.40 0.9037
452.50 0.904
452.60 0.9043
452.70 0.9045
452.80 0.9048
452.90 0.905
453.00 0.9053
453.10 0.9056
453.20 0.9058
453.30 0.9061
453.40 0.9063
453.50 0.9066
453.60 0.9068
453.70 0.9071
453.80 0.9073
453.90 0.9076
454.00 0.9079
454.10 0.9081
454.20 0.9084
454.30 0.9086
454.40 0.9089
454.50 0.9091
454.60 0.9094
454.70 0.9096
454.80 0.9099
454.90 0.9101
455.00 0.9104
455.10 0.9106
455.20 0.9109
455.30 0.9111
455.40 0.9113
455.50 0.9116
455.60 0.9118
455.70 0.9121
455.80 0.9123
455.90 0.9126
456.00 0.9128
456.10 0.9131
456.20 0.9133
456.30 0.9136
456.40 0.9138
456.50 0.9141
456.60 0.9143
456.70 0.9146
456.80 0.9148
456.90 0.9151
457.00 0.9153
457.10 0.9156
457.20 0.9158
457.30 0.9161
457.40 0.9163
457.50 0.9165
457.60 0.9168
457.70 0.917
457.80 0.9173
457.90 0.9175
458.00 0.9178
458.10 0.918
458.20 0.9182
458.30 0.9185
458.40 0.9187
458.50 0.919
458.60 0.9192
458.70 0.9195
458.80 0.9197
458.90 0.9199
459.00 0.9202
459.10 0.9204
459.20 0.9207
459.30 0.9209
459.40 0.9211
459.50 0.9214
459.60 0.9216
459.70 0.9219
459.80 0.9221
459.90 0.9223
460.00 0.9226
460.10 0.9228
460.20 0.9231
460.30 0.9233
460.40 0.9235
460.50 0.9238
460.60 0.924
460.70 0.9243
460.80 0.9245
460.90 0.9247
461.00 0.925
461.10 0.9252
461.20 0.9255
461.30 0.9257
461.40 0.9259
461.50 0.9262
461.60 0.9264
461.70 0.9266
461.80 0.9269
461.90 0.9271
462.00 0.9273
462.10 0.9276
462.20 0.9278
462.30 0.928
462.40 0.9283
462.50 0.9285
462.60 0.9287
462.70 0.929
462.80 0.9292
462.90 0.9294
463.00 0.9297
463.10 0.9299
463.20 0.9301
463.30 0.9304
463.40 0.9306
463.50 0.9308
463.60 0.9311
463.70 0.9313
463.80 0.9315
463.90 0.9317
464.00 0.932
464.10 0.9322
464.20 0.9324
464.30 0.9326
464.40 0.9329
464.50 0.9331
464.60 0.9333
464.70 0.9336
464.80 0.9338
464.90 0.934
465.00 0.9343
465.10 0.9345
465.20 0.9347
465.30 0.9349
465.40 0.9352
465.50 0.9354
465.60 0.9356
465.70 0.9358
465.80 0.9361
465.90 0.9363
466.00 0.9365
466.10 0.9368
466.20 0.937
466.30 0.9372
466.40 0.9374
466.50 0.9377
466.60 0.9379
466.70 0.9381
466.80 0.9383
466.90 0.9385
467.00 0.9388
467.10 0.939
467.20 0.9392
467.30 0.9394
467.40 0.9397
467.50 0.9399
467.60 0.9401
467.70 0.9403
467.80 0.9405
467.90 0.9408
468.00 0.941
468.10 0.9412
468.20 0.9414
468.30 0.9416
468.40 0.9419
468.50 0.9421
468.60 0.9423
468.70 0.9425
468.80 0.9427
468.90 0.943
469.00 0.9432
469.10 0.9434
469.20 0.9436
469.30 0.9438
469.40 0.944
469.50 0.9443
469.60 0.9445
469.70 0.9447
469.80 0.9449
469.90 0.9451
470.00 0.9453
470.10 0.9456
470.20 0.9458
470.30 0.946
470.40 0.9462
470.50 0.9464
470.60 0.9466
470.70 0.9468
470.80 0.9471
470.90 0.9473
471.00 0.9475
471.10 0.9477
471.20 0.9479
471.30 0.9481
471.40 0.9483
471.50 0.9486
471.60 0.9488
471.70 0.949
471.80 0.9492
471.90 0.9494
472.00 0.9496
472.10 0.9498
472.20 0.9501
472.30 0.9503
472.40 0.9505
472.50 0.9507
472.60 0.9509
472.70 0.9511
472.80 0.9513
472.90 0.9515
473.00 0.9517
473.10 0.9519
473.20 0.9521
473.30 0.9523
473.40 0.9525
473.50 0.9528
473.60 0.953
473.70 0.9532
473.80 0.9534
473.90 0.9536
474.00 0.9538
474.10 0.954
474.20 0.9542
474.30 0.9544
474.40 0.9546
474.50 0.9548
474.60 0.955
474.70 0.9552
474.80 0.9554
474.90 0.9556
475.00 0.9559
475.10 0.9561
475.20 0.9563
475.30 0.9565
475.40 0.9567
475.50 0.9569
475.60 0.9571
475.70 0.9573
475.80 0.9575
475.90 0.9577
476.00 0.9579
476.10 0.9581
476.20 0.9583
476.30 0.9585
476.40 0.9587
476.50 0.9589
476.60 0.9591
476.70 0.9593
476.80 0.9595
476.90 0.9597
477.00 0.9599
477.10 0.9601
477.20 0.9603
477.30 0.9605
477.40 0.9607
477.50 0.9609
477.60 0.9611
477.70 0.9613
477.80 0.9615
477.90 0.9617
478.00 0.9619
478.10 0.9621
478.20 0.9622
478.30 0.9624
478.40 0.9626
478.50 0.9628
478.60 0.963
478.70 0.9632
478.80 0.9634
478.90 0.9636
479.00 0.9638
479.10 0.964
479.20 0.9642
479.30 0.9644
479.40 0.9646
479.50 0.9648
479.60 0.965
479.70 0.9652
479.80 0.9654
479.90 0.9656
480.00 0.9658
480.10 0.9659
480.20 0.9661
480.30 0.9663
480.40 0.9665
480.50 0.9667
480.60 0.9669
480.70 0.9671
480.80 0.9673
480.90 0.9675
481.00 0.9677
481.10 0.9679
481.20 0.9681
481.30 0.9683
481.40 0.9684
481.50 0.9686
481.60 0.9688
481.70 0.969
481.80 0.9692
481.90 0.9694
482.00 0.9696
482.10 0.9698
482.20 0.97
482.30 0.9701
482.40 0.9703
482.50 0.9705
482.60 0.9707
482.70 0.9709
482.80 0.9711
482.90 0.9712
483.00 0.9714
483.10 0.9716
483.20 0.9718
483.30 0.972
483.40 0.9722
483.50 0.9723
483.60 0.9725
483.70 0.9727
483.80 0.9729
483.90 0.9731
484.00 0.9732
484.10 0.9734
484.20 0.9736
484.30 0.9738
484.40 0.9739
484.50 0.9741
484.60 0.9743
484.70 0.9745
484.80 0.9746
484.90 0.9748
485.00 0.9749
485.10 0.9751
485.20 0.9752
485.30 0.9754
485.40 0.9755
485.50 0.9756
485.60 0.9757
485.70 0.9758
485.80 0.9758
485.90 0.9759
486.00 0.9759
486.10 0.9759
486.20 0.9761
486.30 0.9765
486.40 0.9768
486.50 0.9771
486.60 0.9774
486.70 0.9777
486.80 0.978
486.90 0.9782
487.00 0.9785
487.10 0.9787
487.20 0.9789
487.30 0.9791
487.40 0.9793
487.50 0.9795
487.60 0.9797
487.70 0.9799
487.80 0.9801
487.90 0.9803
488.00 0.9804
488.10 0.9806
488.20 0.9808
488.30 0.981
488.40 0.9812
488.50 0.9813
488.60 0.9815
488.70 0.9817
488.80 0.9819
488.90 0.982
489.00 0.9822
489.10 0.9824
489.20 0.9825
489.30 0.9827
489.40 0.9829
489.50 0.9831
489.60 0.9833
489.70 0.9834
489.80 0.9836
489.90 0.9838
490.00 0.984
490.10 0.9841
490.20 0.9843
490.30 0.9845
490.40 0.9847
490.50 0.9848
490.60 0.985
490.70 0.9852
490.80 0.9853
490.90 0.9855
491.00 0.9857
491.10 0.9859
491.20 0.986
491.30 0.9862
491.40 0.9863
491.50 0.9865
491.60 0.9867
491.70 0.9868
491.80 0.987
491.90 0.9872
492.00 0.9873
492.10 0.9875
492.20 0.9877
492.30 0.9878
492.40 0.988
492.50 0.9882
492.60 0.9883
492.70 0.9885
492.80 0.9887
492.90 0.9888
493.00 0.989
493.10 0.9892
493.20 0.9893
493.30 0.9895
493.40 0.9897
493.50 0.9898
493.60 0.99
493.70 0.9901
493.80 0.9903
493.90 0.9905
494.00 0.9906
494.10 0.9908
494.20 0.9909
494.30 0.9911
494.40 0.9913
494.50 0.9914
494.60 0.9916
494.70 0.9917
494.80 0.9919
494.90 0.9921
495.00 0.9922
495.10 0.9924
495.20 0.9925
495.30 0.9927
495.40 0.9929
495.50 0.993
495.60 0.9932
495.70 0.9933
495.80 0.9935
495.90 0.9937
496.00 0.9938
496.10 0.994
496.20 0.9941
496.30 0.9943
496.40 0.9945
496.50 0.9946
496.60 0.9948
496.70 0.9949
496.80 0.9951
496.90 0.9952
497.00 0.9954
497.10 0.9956
497.20 0.9957
497.30 0.9959
497.40 0.996
497.50 0.9962
497.60 0.9963
497.70 0.9965
497.80 0.9966
497.90 0.9968
498.00 0.997
498.10 0.9971
498.20 0.9973
498.30 0.9974
498.40 0.9976
498.50 0.9977
498.60 0.9979
498.70 0.998
498.80 0.9982
498.90 0.9983
499.00 0.9985
499.10 0.9986
499.20 0.9988
499.30 0.9989
499.40 0.9991
499.50 0.9992
499.60 0.9994
499.70 0.9995
499.80 0.9997
499.90 0.9998
500.00 1
500.10 1
500.20 1
500.30 1
500.40 1.001
500.50 1.001
500.60 1.001
500.70 1.001
500.80 1.001
500.90 1.001
501.00 1.001
501.10 1.002
501.20 1.002
501.30 1.002
501.40 1.002
501.50 1.002
501.60 1.002
501.70 1.002
501.80 1.003
501.90 1.003
502.00 1.003
502.10 1.003
502.20 1.003
502.30 1.003
502.40 1.004
502.50 1.004
502.60 1.004
502.70 1.004
502.80 1.004
502.90 1.004
503.00 1.004
503.10 1.005
503.20 1.005
503.30 1.005
503.40 1.005
503.50 1.005
503.60 1.005
503.70 1.005
503.80 1.005
503.90 1.006
504.00 1.006
504.10 1.006
504.20 1.006
504.30 1.006
504.40 1.006
504.50 1.006
504.60 1.007
504.70 1.007
504.80 1.007
504.90 1.007
505.00 1.007
505.10 1.007
505.20 1.007
505.30 1.008
505.40 1.008
505.50 1.008
505.60 1.008
505.70 1.008
505.80 1.008
505.90 1.008
506.00 1.009
506.10 1.009
506.20 1.009
506.30 1.009
506.40 1.009
506.50 1.009
506.60 1.009
506.70 1.01
506.80 1.01
506.90 1.01
507.00 1.01
507.10 1.01
507.20 1.01
507.30 1.01
507.40 1.01
507.50 1.011
507.60 1.011
507.70 1.011
507.80 1.011
507.90 1.011
508.00 1.011
508.10 1.011
508.20 1.012
508.30 1.012
508.40 1.012
508.50 1.012
508.60 1.012
508.70 1.012
508.80 1.012
508.90 1.012
509.00 1.013
509.10 1.013
509.20 1.013
509.30 1.013
509.40 1.013
509.50 1.013
509.60 1.013
509.70 1.013
509.80 1.014
509.90 1.014
510.00 1.014
510.10 1.014
510.20 1.014
510.30 1.014
510.40 1.014
510.50 1.015
510.60 1.015
510.70 1.015
510.80 1.015
510.90 1.015
511.00 1.015
511.10 1.015
511.20 1.015
511.30 1.016
511.40 1.016
511.50 1.016
511.60 1.016
511.70 1.016
511.80 1.016
511.90 1.016
512.00 1.016
512.10 1.017
512.20 1.017
512.30 1.017
512.40 1.017
512.50 1.017
512.60 1.017
512.70 1.017
512.80 1.017
512.90 1.017
513.00 1.018
513.10 1.018
513.20 1.018
513.30 1.018
513.40 1.018
513.50 1.018
513.60 1.018
513.70 1.018
513.80 1.019
513.90 1.019
514.00 1.019
514.10 1.019
514.20 1.019
514.30 1.019
514.40 1.019
514.50 1.019
514.60 1.02
514.70 1.02
514.80 1.02
514.90 1.02
515.00 1.02
515.10 1.02
515.20 1.02
515.30 1.02
515.40 1.021
515.50 1.021
515.60 1.021
515.70 1.021
515.80 1.021
515.90 1.021
516.00 1.021
516.10 1.021
516.20 1.021
516.30 1.022
516.40 1.022
516.50 1.022
516.60 1.022
516.70 1.022
516.80 1.022
516.90 1.022
517.00 1.022
517.10 1.022
517.20 1.023
517.30 1.023
517.40 1.023
517.50 1.023
517.60 1.023
517.70 1.023
517.80 1.023
517.90 1.023
518.00 1.023
518.10 1.024
518.20 1.024
518.30 1.024
518.40 1.024
518.50 1.024
518.60 1.024
518.70 1.024
518.80 1.024
518.90 1.024
519.00 1.025
519.10 1.025
519.20 1.025
519.30 1.025
519.40 1.025
519.50 1.025
519.60 1.025
519.70 1.025
519.80 1.025
519.90 1.026
520.00 1.026
520.10 1.026
520.20 1.026
520.30 1.026
520.40 1.026
520.50 1.026
520.60 1.026
520.70 1.026
520.80 1.027
520.90 1.027
521.00 1.027
521.10 1.027
521.20 1.027
521.30 1.027
521.40 1.027
521.50 1.027
521.60 1.027
521.70 1.027
521.80 1.028
521.90 1.028
522.00 1.028
522.10 1.028
522.20 1.028
522.30 1.028
522.40 1.028
522.50 1.028
522.60 1.028
522.70 1.029
522.80 1.029
522.90 1.029
523.00 1.029
523.10 1.029
523.20 1.029
523.30 1.029
523.40 1.029
523.50 1.029
523.60 1.029
523.70 1.03
523.80 1.03
523.90 1.03
524.00 1.03
524.10 1.03
524.20 1.03
524.30 1.03
524.40 1.03
524.50 1.03
524.60 1.03
524.70 1.031
524.80 1.031
524.90 1.031
525.00 1.031
525.10 1.031
525.20 1.031
525.30 1.031
525.40 1.031
525.50 1.031
525.60 1.031
525.70 1.032
525.80 1.032
525.90 1.032
526.00 1.032
526.10 1.032
526.20 1.032
526.30 1.032
526.40 1.032
526.50 1.032
526.60 1.032
526.70 1.033
526.80 1.033
526.90 1.033
527.00 1.033
527.10 1.033
527.20 1.033
527.30 1.033
527.40 1.033
527.50 1.033
527.60 1.033
527.70 1.033
527.80 1.034
527.90 1.034
528.00 1.034
528.10 1.034
528.20 1.034
528.30 1.034
528.40 1.034
528.50 1.034
528.60 1.034
528.70 1.034
528.80 1.034
528.90 1.035
529.00 1.035
529.10 1.035
529.20 1.035
529.30 1.035
529.40 1.035
529.50 1.035
529.60 1.035
529.70 1.035
529.80 1.035
529.90 1.035
530.00 1.036
530.10 1.036
530.20 1.036
530.30 1.036
530.40 1.036
530.50 1.036
530.60 1.036
530.70 1.036
530.80 1.036
530.90 1.036
531.00 1.036
531.10 1.037
531.20 1.037
531.30 1.037
531.40 1.037
531.50 1.037
531.60 1.037
531.70 1.037
531.80 1.037
531.90 1.037
532.00 1.037
532.10 1.037
532.20 1.037
532.30 1.038
532.40 1.038
532.50 1.038
532.60 1.038
532.70 1.038
532.80 1.038
532.90 1.038
533.00 1.038
533.10 1.038
533.20 1.038
533.30 1.038
533.40 1.038
533.50 1.039
533.60 1.039
533.70 1.039
533.80 1.039
533.90 1.039
534.00 1.039
534.10 1.039
534.20 1.039
534.30 1.039
534.40 1.039
534.50 1.039
534.60 1.039
534.70 1.04
534.80 1.04
534.90 1.04
535.00 1.04
535.10 1.04
535.20 1.04
535.30 1.04
535.40 1.04
535.50 1.04
535.60 1.04
535.70 1.04
535.80 1.04
535.90 1.04
536.00 1.041
536.10 1.041
536.20 1.041
536.30 1.041
536.40 1.041
536.50 1.041
536.60 1.041
536.70 1.041
536.80 1.041
536.90 1.041
537.00 1.041
537.10 1.041
537.20 1.041
537.30 1.042
537.40 1.042
537.50 1.042
537.60 1.042
537.70 1.042
537.80 1.042
537.90 1.042
538.00 1.042
538.10 1.042
538.20 1.042
538.30 1.042
538.40 1.042
538.50 1.042
538.60 1.043
538.70 1.043
538.80 1.043
538.90 1.043
539.00 1.043
539.10 1.043
539.20 1.043
539.30 1.043
539.40 1.043
539.50 1.043
539.60 1.043
539.70 1.043
539.80 1.043
539.90 1.043
540.00 1.044
540.10 1.044
540.20 1.044
540.30 1.044
540.40 1.044
540.50 1.044
540.60 1.044
540.70 1.044
540.80 1.044
540.90 1.044
541.00 1.044
541.10 1.044
541.20 1.044
541.30 1.044
541.40 1.045
541.50 1.045
541.60 1.045
541.70 1.045
541.80 1.045
541.90 1.045
542.00 1.045
542.10 1.045
542.20 1.045
542.30 1.045
542.40 1.045
542.50 1.045
542.60 1.045
542.70 1.045
542.80 1.045
542.90 1.046
543.00 1.046
543.10 1.046
543.20 1.046
543.30 1.046
543.40 1.046
543.50 1.046
543.60 1.046
543.70 1.046
543.80 1.046
543.90 1.046
544.00 1.046
544.10 1.046
544.20 1.046
544.30 1.046
544.40 1.046
544.50 1.047
544.60 1.047
544.70 1.047
544.80 1.047
544.90 1.047
545.00 1.047
545.10 1.047
545.20 1.047
545.30 1.047
545.40 1.047
545.50 1.047
545.60 1.047
545.70 1.047
545.80 1.047
545.90 1.047
546.00 1.047
546.10 1.048
546.20 1.048
546.30 1.048
546.40 1.048
546.50 1.048
546.60 1.048
546.70 1.048
546.80 1.048
546.90 1.048
547.00 1.048
547.10 1.048
547.20 1.048
547.30 1.048
547.40 1.048
547.50 1.048
547.60 1.048
547.70 1.048
547.80 1.049
547.90 1.049
548.00 1.049
548.10 1.049
548.20 1.049
548.30 1.049
548.40 1.049
548.50 1.049
548.60 1.049
548.70 1.049
548.80 1.049
548.90 1.049
549.00 1.049
549.10 1.049
549.20 1.049
549.30 1.049
549.40 1.049
549.50 1.049
549.60 1.05
549.70 1.05
549.80 1.05
549.90 1.05
550.00 1.05
550.10 1.05
550.20 1.05
550.30 1.05
550.40 1.05
550.50 1.05
550.60 1.05
550.70 1.05
550.80 1.05
550.90 1.05
551.00 1.05
551.10 1.05
551.20 1.05
551.30 1.05
551.40 1.05
551.50 1.051
551.60 1.051
551.70 1.051
551.80 1.051
551.90 1.051
552.00 1.051
552.10 1.051
552.20 1.051
552.30 1.051
552.40 1.051
552.50 1.051
552.60 1.051
552.70 1.051
552.80 1.051
552.90 1.051
553.00 1.051
553.10 1.051
553.20 1.051
553.30 1.051
553.40 1.051
553.50 1.052
553.60 1.052
553.70 1.052
553.80 1.052
553.90 1.052
554.00 1.052
554.10 1.052
554.20 1.052
554.30 1.052
554.40 1.052
554.50 1.052
554.60 1.052
554.70 1.052
554.80 1.052
554.90 1.052
555.00 1.052
555.10 1.052
555.20 1.052
555.30 1.052
555.40 1.052
555.50 1.052
555.60 1.052
555.70 1.053
555.80 1.053
555.90 1.053
556.00 1.053
556.10 1.053
556.20 1.053
556.30 1.053
556.40 1.053
556.50 1.053
556.60 1.053
556.70 1.053
556.80 1.053
556.90 1.053
557.00 1.053
557.10 1.053
557.20 1.053
557.30 1.053
557.40 1.053
557.50 1.053
557.60 1.053
557.70 1.053
557.80 1.053
557.90 1.053
558.00 1.053
558.10 1.054
558.20 1.054
558.30 1.054
558.40 1.054
558.50 1.054
558.60 1.054
558.70 1.054
558.80 1.054
558.90 1.054
559.00 1.054
559.10 1.054
559.20 1.054
559.30 1.054
559.40 1.054
559.50 1.054
559.60 1.054
559.70 1.054
559.80 1.054
559.90 1.054
560.00 1.054
560.10 1.054
560.20 1.054
560.30 1.054
560.40 1.054
560.50 1.054
560.60 1.054
560.70 1.055
560.80 1.055
560.90 1.055
561.00 1.055
561.10 1.055
561.20 1.055
561.30 1.055
561.40 1.055
561.50 1.055
561.60 1.055
561.70 1.055
561.80 1.055
561.90 1.055
562.00 1.055
562.10 1.055
562.20 1.055
562.30 1.055
562.40 1.055
562.50 1.055
562.60 1.055
562.70 1.055
562.80 1.055
562.90 1.055
563.00 1.055
563.10 1.055
563.20 1.055
563.30 1.055
563.40 1.055
563.50 1.055
563.60 1.056
563.70 1.056
563.80 1.056
563.90 1.056
564.00 1.056
564.10 1.056
564.20 1.056
564.30 1.056
564.40 1.056
564.50 1.056
564.60 1.056
564.70 1.056
564.80 1.056
564.90 1.056
565.00 1.056
565.10 1.056
565.20 1.056
565.30 1.056
565.40 1.056
565.50 1.056
565.60 1.056
565.70 1.056
565.80 1.056
565.90 1.056
566.00 1.056
566.10 1.056
566.20 1.056
566.30 1.056
566.40 1.056
566.50 1.056
566.60 1.056
566.70 1.056
566.80 1.056
566.90 1.056
567.00 1.056
567.10 1.057
567.20 1.057
567.30 1.057
567.40 1.057
567.50 1.057
567.60 1.057
567.70 1.057
567.80 1.057
567.90 1.057
568.00 1.057
568.10 1.057
568.20 1.057
568.30 1.057
568.40 1.057
568.50 1.057
568.60 1.057
568.70 1.057
568.80 1.057
568.90 1.057
569.00 1.057
569.10 1.057
569.20 1.057
569.30 1.057
569.40 1.057
569.50 1.057
569.60 1.057
569.70 1.057
569.80 1.057
569.90 1.057
570.00 1.057
570.10 1.057
570.20 1.057
570.30 1.057
570.40 1.057
570.50 1.057
570.60 1.057
570.70 1.057
570.80 1.057
570.90 1.057
571.00 1.057
571.10 1.057
571.20 1.057
571.30 1.057
571.40 1.057
571.50 1.058
571.60 1.058
571.70 1.058
571.80 1.058
571.90 1.058
572.00 1.058
572.10 1.058
572.20 1.058
572.30 1.058
572.40 1.058
572.50 1.058
572.60 1.058
572.70 1.058
572.80 1.058
572.90 1.058
573.00 1.058
573.10 1.058
573.20 1.058
573.30 1.058
573.40 1.058
573.50 1.058
573.60 1.058
573.70 1.058
573.80 1.058
573.90 1.058
574.00 1.058
574.10 1.058
574.20 1.058
574.30 1.058
574.40 1.058
574.50 1.058
574.60 1.058
574.70 1.058
574.80 1.058
574.90 1.058
575.00 1.058
575.10 1.058
575.20 1.058
575.30 1.058
575.40 1.058
575.50 1.058
575.60 1.058
575.70 1.058
575.80 1.058
575.90 1.058
576.00 1.058
576.10 1.058
576.20 1.058
576.30 1.058
576.40 1.058
576.50 1.058
576.60 1.058
576.70 1.058
576.80 1.058
576.90 1.058
577.00 1.058
577.10 1.058
577.20 1.058
577.30 1.058
577.40 1.058
577.50 1.058
577.60 1.058
577.70 1.058
577.80 1.058
577.90 1.058
578.00 1.058
578.10 1.058
578.20 1.058
578.30 1.059
578.40 1.059
578.50 1.059
578.60 1.059
578.70 1.059
578.80 1.059
578.90 1.059
579.00 1.059
579.10 1.059
579.20 1.059
579.30 1.059
579.40 1.059
579.50 1.059
579.60 1.059
579.70 1.059
579.80 1.059
579.90 1.059
580.00 1.059
580.10 1.059
580.20 1.059
580.30 1.059
580.40 1.059
580.50 1.059
580.60 1.059
580.70 1.059
580.80 1.059
580.90 1.059
581.00 1.059
581.10 1.059
581.20 1.059
581.30 1.059
581.40 1.059
581.50 1.059
581.60 1.059
581.70 1.059
581.80 1.059
581.90 1.059
582.00 1.059
582.10 1.059
582.20 1.059
582.30 1.059
582.40 1.059
582.50 1.059
582.60 1.059
582.70 1.059
582.80 1.059
582.90 1.059
583.00 1.059
583.10 1.059
583.20 1.059
583.30 1.059
583.40 1.059
583.50 1.059
583.60 1.059
583.70 1.059
583.80 1.059
583.90 1.059
584.00 1.059
584.10 1.059
584.20 1.059
584.30 1.059
584.40 1.059
584.50 1.059
584.60 1.059
584.70 1.059
584.80 1.059
584.90 1.059
585.00 1.059
585.10 1.059
585.20 1.059
585.30 1.059
585.40 1.059
585.50 1.059
585.60 1.059
585.70 1.059
585.80 1.059
585.90 1.059
586.00 1.059
586.10 1.059
586.20 1.059
586.30 1.059
586.40 1.059
586.50 1.059
586.60 1.059
586.70 1.059
586.80 1.059
586.90 1.059
587.00 1.059
587.10 1.059
587.20 1.059
587.30 1.059
587.40 1.059
587.50 1.059
587.60 1.059
587.70 1.059
587.80 1.059
587.90 1.059
588.00 1.059
588.10 1.059
588.20 1.059
588.30 1.059
588.40 1.059
588.50 1.059
588.60 1.059
588.70 1.059
588.80 1.059
588.90 1.059
589.00 1.059
589.10 1.059
589.20 1.059
589.30 1.059
589.40 1.059
589.50 1.059
589.60 1.059
589.70 1.059
589.80 1.059
589.90 1.059
590.00 1.059
590.10 1.059
590.20 1.059
590.30 1.059
590.40 1.059
590.50 1.059
590.60 1.059
590.70 1.059
590.80 1.059
590.90 1.059
591.00 1.059
591.10 1.059
591.20 1.059
591.30 1.059
591.40 1.059
591.50 1.059
591.60 1.059
591.70 1.059
591.80 1.059
591.90 1.059
592.00 1.059
592.10 1.059
592.20 1.059
592.30 1.059
592.40 1.058
592.50 1.058
592.60 1.058
592.70 1.058
592.80 1.058
592.90 1.058
593.00 1.058
593.10 1.058
593.20 1.058
593.30 1.058
593.40 1.058
593.50 1.058
593.60 1.058
593.70 1.058
593.80 1.058
593.90 1.058
594.00 1.058
594.10 1.058
594.20 1.058
594.30 1.058
594.40 1.058
594.50 1.058
594.60 1.058
594.70 1.058
594.80 1.058
594.90 1.058
595.00 1.058
595.10 1.058
595.20 1.058
595.30 1.058
595.40 1.058
595.50 1.058
595.60 1.058
595.70 1.058
595.80 1.058
595.90 1.058
596.00 1.058
596.10 1.058
596.20 1.058
596.30 1.058
596.40 1.058
596.50 1.058
596.60 1.058
596.70 1.058
596.80 1.058
596.90 1.058
597.00 1.058
597.10 1.058
597.20 1.058
597.30 1.058
597.40 1.058
597.50 1.058
597.60 1.058
597.70 1.058
597.80 1.058
597.90 1.058
598.00 1.058
598.10 1.058
598.20 1.058
598.30 1.058
598.40 1.058
598.50 1.058
598.60 1.058
598.70 1.058
598.80 1.058
598.90 1.058
599.00 1.058
599.10 1.058
599.20 1.058
599.30 1.058
599.40 1.058
599.50 1.057
599.60 1.057
599.70 1.057
599.80 1.057
599.90 1.057
600.00 1.057
600.10 1.057
600.20 1.057
600.30 1.057
600.40 1.057
600.50 1.057
600.60 1.057
600.70 1.057
600.80 1.057
600.90 1.057
601.00 1.057
601.10 1.057
601.20 1.057
601.30 1.057
601.40 1.057
601.50 1.057
601.60 1.057
601.70 1.057
601.80 1.057
601.90 1.057
602.00 1.057
602.10 1.057
602.20 1.057
602.30 1.057
602.40 1.057
602.50 1.057
602.60 1.057
602.70 1.057
602.80 1.057
602.90 1.057
603.00 1.057
603.10 1.057
603.20 1.057
603.30 1.057
603.40 1.057
603.50 1.057
603.60 1.057
603.70 1.057
603.80 1.057
603.90 1.057
604.00 1.057
604.10 1.057
604.20 1.056
604.30 1.056
604.40 1.056
604.50 1.056
604.60 1.056
604.70 1.056
604.80 1.056
604.90 1.056
605.00 1.056
605.10 1.056
605.20 1.056
605.30 1.056
605.40 1.056
605.50 1.056
605.60 1.056
605.70 1.056
605.80 1.056
605.90 1.056
606.00 1.056
606.10 1.056
606.20 1.056
606.30 1.056
606.40 1.056
606.50 1.056
606.60 1.056
606.70 1.056
606.80 1.056
606.90 1.056
607.00 1.056
607.10 1.056
607.20 1.056
607.30 1.056
607.40 1.056
607.50 1.056
607.60 1.056
607.70 1.056
607.80 1.056
607.90 1.056
608.00 1.056
608.10 1.055
608.20 1.055
608.30 1.055
608.40 1.055
608.50 1.055
608.60 1.055
608.70 1.055
608.80 1.055
608.90 1.055
609.00 1.055
609.10 1.055
609.20 1.055
609.30 1.055
609.40 1.055
609.50 1.055
609.60 1.055
609.70 1.055
609.80 1.055
609.90 1.055
610.00 1.055
610.10 1.055
610.20 1.055
610.30 1.055
610.40 1.055
610.50 1.055
610.60 1.055
610.70 1.055
610.80 1.055
610.90 1.055
611.00 1.055
611.10 1.055
611.20 1.055
611.30 1.054
611.40 1.054
611.50 1.054
611.60 1.054
611.70 1.054
611.80 1.054
611.90 1.054
612.00 1.054
612.10 1.054
612.20 1.054
612.30 1.054
612.40 1.054
612.50 1.054
612.60 1.054
612.70 1.054
612.80 1.054
612.90 1.054
613.00 1.054
613.10 1.054
613.20 1.054
613.30 1.054
613.40 1.054
613.50 1.054
613.60 1.054
613.70 1.054
613.80 1.054
613.90 1.054
614.00 1.054
614.10 1.054
614.20 1.054
614.30 1.053
614.40 1.053
614.50 1.053
614.60 1.053
614.70 1.053
614.80 1.053
614.90 1.053
615.00 1.053
615.10 1.053
615.20 1.053
615.30 1.053
615.40 1.053
615.50 1.053
615.60 1.053
615.70 1.053
615.80 1.053
615.90 1.053
616.00 1.053
616.10 1.053
616.20 1.053
616.30 1.053
616.40 1.053
616.50 1.053
616.60 1.053
616.70 1.053
616.80 1.053
616.90 1.053
617.00 1.052
617.10 1.052
617.20 1.052
617.30 1.052
617.40 1.052
617.50 1.052
617.60 1.052
617.70 1.052
617.80 1.052
617.90 1.052
618.00 1.052
618.10 1.052
618.20 1.052
618.30 1.052
618.40 1.052
618.50 1.052
618.60 1.052
618.70 1.052
618.80 1.052
618.90 1.052
619.00 1.052
619.10 1.052
619.20 1.052
619.30 1.052
619.40 1.052
619.50 1.051
619.60 1.051
619.70 1.051
619.80 1.051
619.90 1.051
620.00 1.051
620.10 1.051
620.20 1.051
620.30 1.051
620.40 1.051
620.50 1.051
620.60 1.051
620.70 1.051
620.80 1.051
620.90 1.051
621.00 1.051
621.10 1.051
621.20 1.051
621.30 1.051
621.40 1.051
621.50 1.051
621.60 1.051
621.70 1.051
621.80 1.051
621.90 1.05
622.00 1.05
622.10 1.05
622.20 1.05
622.30 1.05
622.40 1.05
622.50 1.05
622.60 1.05
622.70 1.05
622.80 1.05
622.90 1.05
623.00 1.05
623.10 1.05
623.20 1.05
623.30 1.05
623.40 1.05
623.50 1.05
623.60 1.05
623.70 1.05
623.80 1.05
623.90 1.05
624.00 1.05
624.10 1.05
624.20 1.049
624.30 1.049
624.40 1.049
624.50 1.049
624.60 1.049
624.70 1.049
624.80 1.049
624.90 1.049
625.00 1.049
625.10 1.049
625.20 1.049
625.30 1.049
625.40 1.049
625.50 1.049
625.60 1.049
625.70 1.049
625.80 1.049
625.90 1.049
626.00 1.049
626.10 1.049
626.20 1.049
626.30 1.048
626.40 1.048
626.50 1.048
626.60 1.048
626.70 1.048
626.80 1.048
626.90 1.048
627.00 1.048
627.10 1.048
627.20 1.048
627.30 1.048
627.40 1.048
627.50 1.048
627.60 1.048
627.70 1.048
627.80 1.048
627.90 1.048
628.00 1.048
628.10 1.048
628.20 1.048
628.30 1.047
628.40 1.047
628.50 1.047
628.60 1.047
628.70 1.047
628.80 1.047
628.90 1.047
629.00 1.047
629.10 1.047
629.20 1.047
629.30 1.047
629.40 1.047
629.50 1.047
629.60 1.047
629.70 1.047
629.80 1.047
629.90 1.047
630.00 1.047
630.10 1.047
630.20 1.047
630.30 1.046
630.40 1.046
630.50 1.046
630.60 1.046
630.70 1.046
630.80 1.046
630.90 1.046
631.00 1.046
631.10 1.046
631.20 1.046
631.30 1.046
631.40 1.046
631.50 1.046
631.60 1.046
631.70 1.046
631.80 1.046
631.90 1.046
632.00 1.046
632.10 1.046
632.20 1.045
632.30 1.045
632.40 1.045
632.50 1.045
632.60 1.045
632.70 1.045
632.80 1.045
632.90 1.045
633.00 1.045
633.10 1.045
633.20 1.045
633.30 1.045
633.40 1.045
633.50 1.045
633.60 1.045
633.70 1.045
633.80 1.045
633.90 1.045
634.00 1.044
634.10 1.044
634.20 1.044
634.30 1.044
634.40 1.044
634.50 1.044
634.60 1.044
634.70 1.044
634.80 1.044
634.90 1.044
635.00 1.044
635.10 1.044
635.20 1.044
635.30 1.044
635.40 1.044
635.50 1.044
635.60 1.044
635.70 1.044
635.80 1.043
635.90 1.043
636.00 1.043
636.10 1.043
636.20 1.043
636.30 1.043
636.40 1.043
636.50 1.043
636.60 1.043
636.70 1.043
636.80 1.043
636.90 1.043
637.00 1.043
637.10 1.043
637.20 1.043
637.30 1.043
637.40 1.043
637.50 1.042
637.60 1.042
637.70 1.042
637.80 1.042
637.90 1.042
638.00 1.042
638.10 1.042
638.20 1.042
638.30 1.042
638.40 1.042
638.50 1.042
638.60 1.042
638.70 1.042
638.80 1.042
638.90 1.042
639.00 1.042
639.10 1.042
639.20 1.041
639.30 1.041
639.40 1.041
639.50 1.041
639.60 1.041
639.70 1.041
639.80 1.041
639.90 1.041
640.00 1.041
640.10 1.041
640.20 1.041
640.30 1.041
640.40 1.041
640.50 1.041
640.60 1.041
640.70 1.041
640.80 1.041
640.90 1.04
641.00 1.04
641.10 1.04
641.20 1.04
641.30 1.04
641.40 1.04
641.50 1.04
641.60 1.04
641.70 1.04
641.80 1.04
641.90 1.04
642.00 1.04
642.10 1.04
642.20 1.04
642.30 1.04
642.40 1.04
642.50 1.039
642.60 1.039
642.70 1.039
642.80 1.039
642.90 1.039
643.00 1.039
643.10 1.039
643.20 1.039
643.30 1.039
643.40 1.039
643.50 1.039
643.60 1.039
643.70 1.039
643.80 1.039
643.90 1.039
644.00 1.039
644.10 1.038
644.20 1.038
644.30 1.038
644.40 1.038
644.50 1.038
644.60 1.038
644.70 1.038
644.80 1.038
644.90 1.038
645.00 1.038
645.10 1.038
645.20 1.038
645.30 1.038
645.40 1.038
645.50 1.038
645.60 1.037
645.70 1.037
645.80 1.037
645.90 1.037
646.00 1.037
646.10 1.037
646.20 1.037
646.30 1.037
646.40 1.037
646.50 1.037
646.60 1.037
646.70 1.037
646.80 1.037
646.90 1.037
647.00 1.037
647.10 1.036
647.20 1.036
647.30 1.036
647.40 1.036
647.50 1.036
647.60 1.036
647.70 1.036
647.80 1.036
647.90 1.036
648.00 1.036
648.10 1.036
648.20 1.036
648.30 1.036
648.40 1.036
648.50 1.035
648.60 1.035
648.70 1.035
648.80 1.035
648.90 1.035
649.00 1.035
649.10 1.035
649.20 1.035
649.30 1.035
649.40 1.035
649.50 1.035
649.60 1.035
649.70 1.035
649.80 1.035
649.90 1.034
650.00 1.034
650.10 1.034
650.20 1.034
650.30 1.034
650.40 1.034
650.50 1.034
650.60 1.034
650.70 1.034
650.80 1.034
650.90 1.034
651.00 1.034
651.10 1.034
651.20 1.034
651.30 1.033
651.40 1.033
651.50 1.033
651.60 1.033
651.70 1.033
651.80 1.033
651.90 1.033
652.00 1.033
652.10 1.033
652.20 1.033
652.30 1.033
652.40 1.033
652.50 1.033
652.60 1.032
652.70 1.032
652.80 1.032
652.90 1.032
653.00 1.032
653.10 1.032
653.20 1.032
653.30 1.032
653.40 1.032
653.50 1.032
653.60 1.032
653.70 1.031
653.80 1.031
653.90 1.031
654.00 1.031
654.10 1.031
654.20 1.031
654.30 1.031
654.40 1.031
654.50 1.031
654.60 1.03
654.70 1.03
654.80 1.03
654.90 1.03
655.00 1.03
655.10 1.029
655.20 1.029
655.30 1.029
655.40 1.029
655.50 1.028
655.60 1.028
655.70 1.028
655.80 1.027
655.90 1.027
656.00 1.026
656.10 1.025
656.20 1.025
656.30 1.025
656.40 1.025
656.50 1.025
656.60 1.026
656.70 1.026
656.80 1.027
656.90 1.027
657.00 1.027
657.10 1.027
657.20 1.028
657.30 1.028
657.40 1.028
657.50 1.028
657.60 1.028
657.70 1.028
657.80 1.028
657.90 1.028
658.00 1.028
658.10 1.028
658.20 1.028
658.30 1.028
658.40 1.028
658.50 1.028
658.60 1.028
658.70 1.028
658.80 1.028
658.90 1.028
659.00 1.028
659.10 1.028
659.20 1.028
659.30 1.027
659.40 1.027
659.50 1.027
659.60 1.027
659.70 1.027
659.80 1.027
659.90 1.027
660.00 1.027
660.10 1.027
660.20 1.027
660.30 1.027
660.40 1.027
660.50 1.027
660.60 1.027
660.70 1.027
660.80 1.026
660.90 1.026
661.00 1.026
661.10 1.026
661.20 1.026
661.30 1.026
661.40 1.026
661.50 1.026
661.60 1.026
661.70 1.026
661.80 1.026
661.90 1.026
662.00 1.026
662.10 1.025
662.20 1.025
662.30 1.025
662.40 1.025
662.50 1.025
662.60 1.025
662.70 1.025
662.80 1.025
662.90 1.025
663.00 1.025
663.10 1.025
663.20 1.025
663.30 1.025
663.40 1.024
663.50 1.024
663.60 1.024
663.70 1.024
663.80 1.024
663.90 1.024
664.00 1.024
664.10 1.024
664.20 1.024
664.30 1.024
664.40 1.024
664.50 1.024
664.60 1.024
664.70 1.023
664.80 1.023
664.90 1.023
665.00 1.023
665.10 1.023
665.20 1.023
665.30 1.023
665.40 1.023
665.50 1.023
665.60 1.023
665.70 1.023
665.80 1.023
665.90 1.023
666.00 1.022
666.10 1.022
666.20 1.022
666.30 1.022
666.40 1.022
666.50 1.022
666.60 1.022
666.70 1.022
666.80 1.022
666.90 1.022
667.00 1.022
667.10 1.022
667.20 1.021
667.30 1.021
667.40 1.021
667.50 1.021
667.60 1.021
667.70 1.021
667.80 1.021
667.90 1.021
668.00 1.021
668.10 1.021
668.20 1.021
668.30 1.021
668.40 1.02
668.50 1.02
668.60 1.02
668.70 1.02
668.80 1.02
668.90 1.02
669.00 1.02
669.10 1.02
669.20 1.02
669.30 1.02
669.40 1.02
669.50 1.02
669.60 1.019
669.70 1.019
669.80 1.019
669.90 1.019
670.00 1.019
670.10 1.019
670.20 1.019
670.30 1.019
670.40 1.019
670.50 1.019
670.60 1.019
670.70 1.019
670.80 1.018
670.90 1.018
671.00 1.018
671.10 1.018
671.20 1.018
671.30 1.018
671.40 1.018
671.50 1.018
671.60 1.018
671.70 1.018
671.80 1.018
671.90 1.018
672.00 1.017
672.10 1.017
672.20 1.017
672.30 1.017
672.40 1.017
672.50 1.017
672.60 1.017
672.70 1.017
672.80 1.017
672.90 1.017
673.00 1.017
673.10 1.017
673.20 1.016
673.30 1.016
673.40 1.016
673.50 1.016
673.60 1.016
673.70 1.016
673.80 1.016
673.90 1.016
674.00 1.016
674.10 1.016
674.20 1.016
674.30 1.015
674.40 1.015
674.50 1.015
674.60 1.015
674.70 1.015
674.80 1.015
674.90 1.015
675.00 1.015
675.10 1.015
675.20 1.015
675.30 1.015
675.40 1.015
675.50 1.014
675.60 1.014
675.70 1.014
675.80 1.014
675.90 1.014
676.00 1.014
676.10 1.014
676.20 1.014
676.30 1.014
676.40 1.014
676.50 1.014
676.60 1.013
676.70 1.013
676.80 1.013
676.90 1.013
677.00 1.013
677.10 1.013
677.20 1.013
677.30 1.013
677.40 1.013
677.50 1.013
677.60 1.013
677.70 1.013
677.80 1.012
677.90 1.012
678.00 1.012
678.10 1.012
678.20 1.012
678.30 1.012
678.40 1.012
678.50 1.012
678.60 1.012
678.70 1.012
678.80 1.012
678.90 1.011
679.00 1.011
679.10 1.011
679.20 1.011
679.30 1.011
679.40 1.011
679.50 1.011
679.60 1.011
679.70 1.011
679.80 1.011
679.90 1.011
680.00 1.01
680.10 1.01
680.20 1.01
680.30 1.01
680.40 1.01
680.50 1.01
680.60 1.01
680.70 1.01
680.80 1.01
680.90 1.01
681.00 1.01
681.10 1.009
681.20 1.009
681.30 1.009
681.40 1.009
681.50 1.009
681.60 1.009
681.70 1.009
681.80 1.009
681.90 1.009
682.00 1.009
682.10 1.009
682.20 1.008
682.30 1.008
682.40 1.008
682.50 1.008
682.60 1.008
682.70 1.008
682.80 1.008
682.90 1.008
683.00 1.008
683.10 1.008
683.20 1.008
683.30 1.007
683.40 1.007
683.50 1.007
683.60 1.007
683.70 1.007
683.80 1.007
683.90 1.007
684.00 1.007
684.10 1.007
684.20 1.007
684.30 1.007
684.40 1.006
684.50 1.006
684.60 1.006
684.70 1.006
684.80 1.006
684.90 1.006
685.00 1.006
685.10 1.006
685.20 1.006
685.30 1.006
685.40 1.006
685.50 1.005
685.60 1.005
685.70 1.005
685.80 1.005
685.90 1.005
686.00 1.005
686.10 1.005
686.20 1.005
686.30 1.005
686.40 1.005
686.50 1.004
686.60 1.004
686.70 1.004
686.80 1.004
686.90 1.004
687.00 1.004
687.10 1.004
687.20 1.004
687.30 1.004
687.40 1.004
687.50 1.004
687.60 1.003
687.70 1.003
687.80 1.003
687.90 1.003
688.00 1.003
688.10 1.003
688.20 1.003
688.30 1.003
688.40 1.003
688.50 1.003
688.60 1.002
688.70 1.002
688.80 1.002
688.90 1.002
689.00 1.002
689.10 1.002
689.20 1.002
689.30 1.002
689.40 1.002
689.50 1.002
689.60 1.002
689.70 1.001
689.80 1.001
689.90 1.001
690.00 1.001
690.10 1.001
690.20 1.001
690.30 1.001
690.40 1.001
690.50 1.001
690.60 1.001
690.70 1
690.80 1
690.90 1
691.00 1
691.10 1
691.20 1
691.30 0.9999
691.40 0.9998
691.50 0.9997
691.60 0.9996
691.70 0.9995
691.80 0.9994
691.90 0.9993
692.00 0.9992
692.10 0.9991
692.20 0.999
692.30 0.9989
692.40 0.9988
692.50 0.9987
692.60 0.9986
692.70 0.9985
692.80 0.9984
692.90 0.9983
693.00 0.9982
693.10 0.9981
693.20 0.998
693.30 0.9979
693.40 0.9978
693.50 0.9977
693.60 0.9976
693.70 0.9975
693.80 0.9974
693.90 0.9973
694.00 0.9972
694.10 0.9971
694.20 0.9971
694.30 0.997
694.40 0.9969
694.50 0.9968
694.60 0.9967
694.70 0.9966
694.80 0.9965
694.90 0.9964
695.00 0.9963
695.10 0.9962
695.20 0.9961
695.30 0.996
695.40 0.9959
695.50 0.9958
695.60 0.9957
695.70 0.9956
695.80 0.9955
695.90 0.9954
696.00 0.9953
696.10 0.9952
696.20 0.9951
696.30 0.995
696.40 0.9949
696.50 0.9948
696.60 0.9947
696.70 0.9946
696.80 0.9945
696.90 0.9944
697.00 0.9943
697.10 0.9942
697.20 0.9941
697.30 0.994
697.40 0.9939
697.50 0.9938
697.60 0.9937
697.70 0.9936
697.80 0.9935
697.90 0.9934
698.00 0.9933
698.10 0.9932
698.20 0.9931
698.30 0.993
698.40 0.9929
698.50 0.9928
698.60 0.9927
698.70 0.9926
698.80 0.9925
698.90 0.9924
699.00 0.9923
699.10 0.9922
699.20 0.9921
699.30 0.992
699.40 0.9919
699.50 0.9918
699.60 0.9917
699.70 0.9916
699.80 0.9915
699.90 0.9914
700.00 0.9913
700.10 0.9912
700.20 0.9911
700.30 0.991
700.40 0.9909
700.50 0.9908
700.60 0.9907
700.70 0.9906
700.80 0.9905
700.90 0.9904
701.00 0.9902
701.10 0.9901
701.20 0.99
701.30 0.9899
701.40 0.9898
701.50 0.9897
701.60 0.9896
701.70 0.9895
701.80 0.9894
701.90 0.9893
702.00 0.9892
702.10 0.9891
702.20 0.989
702.30 0.9889
702.40 0.9888
702.50 0.9887
702.60 0.9886
702.70 0.9885
702.80 0.9884
702.90 0.9883
703.00 0.9882
703.10 0.9881
703.20 0.988
703.30 0.9879
703.40 0.9878
703.50 0.9877
703.60 0.9876
703.70 0.9875
703.80 0.9874
703.90 0.9873
704.00 0.9872
704.10 0.9871
704.20 0.987
704.30 0.9869
704.40 0.9868
704.50 0.9867
704.60 0.9866
704.70 0.9865
704.80 0.9864
704.90 0.9863
705.00 0.9862
705.10 0.9861
705.20 0.9859
705.30 0.9858
705.40 0.9857
705.50 0.9856
705.60 0.9855
705.70 0.9854
705.80 0.9853
705.90 0.9852
706.00 0.9851
706.10 0.985
706.20 0.9849
706.30 0.9848
706.40 0.9847
706.50 0.9846
706.60 0.9845
706.70 0.9844
706.80 0.9843
706.90 0.9842
707.00 0.9841
707.10 0.984
707.20 0.9839
707.30 0.9838
707.40 0.9836
707.50 0.9835
707.60 0.9834
707.70 0.9833
707.80 0.9832
707.90 0.9831
708.00 0.983
708.10 0.9829
708.20 0.9828
708.30 0.9827
708.40 0.9826
708.50 0.9825
708.60 0.9824
708.70 0.9823
708.80 0.9822
708.90 0.9821
709.00 0.982
709.10 0.9819
709.20 0.9818
709.30 0.9817
709.40 0.9816
709.50 0.9815
709.60 0.9814
709.70 0.9812
709.80 0.9811
709.90 0.981
710.00 0.9809
710.10 0.9808
710.20 0.9807
710.30 0.9806
710.40 0.9805
710.50 0.9804
710.60 0.9803
710.70 0.9802
710.80 0.9801
710.90 0.98
711.00 0.9799
711.10 0.9798
711.20 0.9796
711.30 0.9795
711.40 0.9794
711.50 0.9793
711.60 0.9792
711.70 0.9791
711.80 0.979
711.90 0.9789
712.00 0.9788
712.10 0.9787
712.20 0.9786
712.30 0.9785
712.40 0.9784
712.50 0.9783
712.60 0.9781
712.70 0.978
712.80 0.9779
712.90 0.9778
713.00 0.9777
713.10 0.9776
713.20 0.9775
713.30 0.9774
713.40 0.9773
713.50 0.9772
713.60 0.9771
713.70 0.977
713.80 0.9769
713.90 0.9768
714.00 0.9767
714.10 0.9765
714.20 0.9764
714.30 0.9763
714.40 0.9762
714.50 0.9761
714.60 0.976
714.70 0.9759
714.80 0.9758
714.90 0.9757
715.00 0.9756
715.10 0.9755
715.20 0.9754
715.30 0.9753
715.40 0.9752
715.50 0.975
715.60 0.9749
715.70 0.9748
715.80 0.9747
715.90 0.9746
716.00 0.9745
716.10 0.9744
716.20 0.9743
716.30 0.9742
716.40 0.9741
716.50 0.974
716.60 0.9738
716.70 0.9737
716.80 0.9736
716.90 0.9735
717.00 0.9734
717.10 0.9733
717.20 0.9732
717.30 0.9731
717.40 0.973
717.50 0.9729
717.60 0.9728
717.70 0.9727
717.80 0.9725
717.90 0.9724
718.00 0.9723
718.10 0.9722
718.20 0.9721
718.30 0.972
718.40 0.9719
718.50 0.9718
718.60 0.9717
718.70 0.9716
718.80 0.9715
718.90 0.9714
719.00 0.9713
719.10 0.9711
719.20 0.971
719.30 0.9709
719.40 0.9708
719.50 0.9707
719.60 0.9706
719.70 0.9705
719.80 0.9704
719.90 0.9703
720.00 0.9702
720.10 0.9701
720.20 0.9699
720.30 0.9698
720.40 0.9697
720.50 0.9696
720.60 0.9695
720.70 0.9694
720.80 0.9693
720.90 0.9692
721.00 0.9691
721.10 0.9689
721.20 0.9688
721.30 0.9687
721.40 0.9686
721.50 0.9685
721.60 0.9684
721.70 0.9683
721.80 0.9682
721.90 0.9681
722.00 0.968
722.10 0.9678
722.20 0.9677
722.30 0.9676
722.40 0.9675
722.50 0.9674
722.60 0.9673
722.70 0.9672
722.80 0.9671
722.90 0.967
723.00 0.9668
723.10 0.9667
723.20 0.9666
723.30 0.9665
723.40 0.9664
723.50 0.9663
723.60 0.9662
723.70 0.9661
723.80 0.966
723.90 0.9659
724.00 0.9657
724.10 0.9656
724.20 0.9655
724.30 0.9654
724.40 0.9653
724.50 0.9652
724.60 0.9651
724.70 0.965
724.80 0.9649
724.90 0.9648
725.00 0.9646
725.10 0.9645
725.20 0.9644
725.30 0.9643
725.40 0.9642
725.50 0.9641
725.60 0.964
725.70 0.9638
725.80 0.9637
725.90 0.9636
726.00 0.9635
726.10 0.9634
726.20 0.9633
726.30 0.9632
726.40 0.9631
726.50 0.9629
726.60 0.9628
726.70 0.9627
726.80 0.9626
726.90 0.9625
727.00 0.9624
727.10 0.9623
727.20 0.9622
727.30 0.962
727.40 0.9619
727.50 0.9618
727.60 0.9617
727.70 0.9616
727.80 0.9615
727.90 0.9614
728.00 0.9612
728.10 0.9611
728.20 0.961
728.30 0.9609
728.40 0.9608
728.50 0.9607
728.60 0.9606
728.70 0.9605
728.80 0.9603
728.90 0.9602
729.00 0.9601
729.10 0.96
729.20 0.9599
729.30 0.9598
729.40 0.9597
729.50 0.9596
729.60 0.9594
729.70 0.9593
729.80 0.9592
729.90 0.9591
730.00 0.959
730.10 0.9589
730.20 0.9588
730.30 0.9587
730.40 0.9585
730.50 0.9584
730.60 0.9583
730.70 0.9582
730.80 0.9581
730.90 0.958
731.00 0.9578
731.10 0.9577
731.20 0.9576
731.30 0.9575
731.40 0.9574
731.50 0.9573
731.60 0.9571
731.70 0.957
731.80 0.9569
731.90 0.9568
732.00 0.9567
732.10 0.9566
732.20 0.9565
732.30 0.9563
732.40 0.9562
732.50 0.9561
732.60 0.956
732.70 0.9559
732.80 0.9558
732.90 0.9556
733.00 0.9555
733.10 0.9554
733.20 0.9553
733.30 0.9552
733.40 0.9551
733.50 0.955
733.60 0.9548
733.70 0.9547
733.80 0.9546
733.90 0.9545
734.00 0.9544
734.10 0.9543
734.20 0.9541
734.30 0.954
734.40 0.9539
734.50 0.9538
734.60 0.9537
734.70 0.9536
734.80 0.9535
734.90 0.9533
735.00 0.9532
735.10 0.9531
735.20 0.953
735.30 0.9529
735.40 0.9528
735.50 0.9527
735.60 0.9525
735.70 0.9524
735.80 0.9523
735.90 0.9522
736.00 0.9521
736.10 0.952
736.20 0.9519
736.30 0.9517
736.40 0.9516
736.50 0.9515
736.60 0.9514
736.70 0.9513
736.80 0.9512
736.90 0.951
737.00 0.9509
737.10 0.9508
737.20 0.9507
737.30 0.9506
737.40 0.9505
737.50 0.9504
737.60 0.9503
737.70 0.9501
737.80 0.95
737.90 0.9499
738.00 0.9498
738.10 0.9497
738.20 0.9496
738.30 0.9495
738.40 0.9493
738.50 0.9492
738.60 0.9491
738.70 0.949
738.80 0.9489
738.90 0.9488
739.00 0.9487
739.10 0.9485
739.20 0.9484
739.30 0.9483
739.40 0.9482
739.50 0.9481
739.60 0.948
739.70 0.9479
739.80 0.9477
739.90 0.9476
740.00 0.9475
740.10 0.9474
740.20 0.9473
740.30 0.9472
740.40 0.947
740.50 0.9469
740.60 0.9468
740.70 0.9467
740.80 0.9466
740.90 0.9465
741.00 0.9463
741.10 0.9462
741.20 0.9461
741.30 0.946
741.40 0.9459
741.50 0.9457
741.60 0.9456
741.70 0.9455
741.80 0.9454
741.90 0.9453
742.00 0.9451
742.10 0.945
742.20 0.9449
742.30 0.9448
742.40 0.9447
742.50 0.9446
742.60 0.9444
742.70 0.9443
742.80 0.9442
742.90 0.9441
743.00 0.944
743.10 0.9438
743.20 0.9437
743.30 0.9436
743.40 0.9435
743.50 0.9434
743.60 0.9433
743.70 0.9431
743.80 0.943
743.90 0.9429
744.00 0.9428
744.10 0.9427
744.20 0.9425
744.30 0.9424
744.40 0.9423
744.50 0.9422
744.60 0.9421
744.70 0.942
744.80 0.9418
744.90 0.9417
745.00 0.9416
745.10 0.9415
745.20 0.9414
745.30 0.9413
745.40 0.9411
745.50 0.941
745.60 0.9409
745.70 0.9408
745.80 0.9407
745.90 0.9405
746.00 0.9404
746.10 0.9403
746.20 0.9402
746.30 0.9401
746.40 0.94
746.50 0.9398
746.60 0.9397
746.70 0.9396
746.80 0.9395
746.90 0.9394
747.00 0.9393
747.10 0.9391
747.20 0.939
747.30 0.9389
747.40 0.9388
747.50 0.9387
747.60 0.9386
747.70 0.9384
747.80 0.9383
747.90 0.9382
748.00 0.9381
748.10 0.938
748.20 0.9379
748.30 0.9377
748.40 0.9376
748.50 0.9375
748.60 0.9374
748.70 0.9373
748.80 0.9372
748.90 0.937
749.00 0.9369
749.10 0.9368
749.20 0.9367
749.30 0.9366
749.40 0.9365
749.50 0.9363
749.60 0.9362
749.70 0.9361
749.80 0.936
749.90 0.9359
750.00 0.9358
750.10 0.9356
750.20 0.9355
750.30 0.9354
750.40 0.9353
750.50 0.9352
750.60 0.935
750.70 0.9349
750.80 0.9348
750.90 0.9347
751.00 0.9345
751.10 0.9344
751.20 0.9343
751.30 0.9342
751.40 0.9341
751.50 0.9339
751.60 0.9338
751.70 0.9337
751.80 0.9336
751.90 0.9335
752.00 0.9333
752.10 0.9332
752.20 0.9331
752.30 0.933
752.40 0.9329
752.50 0.9327
752.60 0.9326
752.70 0.9325
752.80 0.9324
752.90 0.9322
753.00 0.9321
753.10 0.932
753.20 0.9319
753.30 0.9318
753.40 0.9316
753.50 0.9315
753.60 0.9314
753.70 0.9313
753.80 0.9312
753.90 0.931
754.00 0.9309
754.10 0.9308
754.20 0.9307
754.30 0.9306
754.40 0.9304
754.50 0.9303
754.60 0.9302
754.70 0.9301
754.80 0.93
754.90 0.9298
755.00 0.9297
755.10 0.9296
755.20 0.9295
755.30 0.9294
755.40 0.9292
755.50 0.9291
755.60 0.929
755.70 0.9289
755.80 0.9288
755.90 0.9286
756.00 0.9285
756.10 0.9284
756.20 0.9283
756.30 0.9282
756.40 0.928
756.50 0.9279
756.60 0.9278
756.70 0.9277
756.80 0.9276
756.90 0.9274
757.00 0.9273
757.10 0.9272
757.20 0.9271
757.30 0.927
757.40 0.9269
757.50 0.9267
757.60 0.9266
757.70 0.9265
757.80 0.9264
757.90 0.9263
758.00 0.9261
758.10 0.926
758.20 0.9259
758.30 0.9258
758.40 0.9257
758.50 0.9255
758.60 0.9254
758.70 0.9253
758.80 0.9252
758.90 0.9251
759.00 0.9249
759.10 0.9248
759.20 0.9247
759.30 0.9246
759.40 0.9245
759.50 0.9244
759.60 0.9242
759.70 0.9241
759.80 0.924
759.90 0.9239
760.00 0.9238
760.10 0.9236
760.20 0.9235
760.30 0.9234
760.40 0.9233
760.50 0.9231
760.60 0.923
760.70 0.9229
760.80 0.9228
760.90 0.9226
761.00 0.9225
761.10 0.9224
761.20 0.9223
761.30 0.9222
761.40 0.922
761.50 0.9219
761.60 0.9218
761.70 0.9217
761.80 0.9215
761.90 0.9214
762.00 0.9213
762.10 0.9212
762.20 0.921
762.30 0.9209
762.40 0.9208
762.50 0.9207
762.60 0.9206
762.70 0.9204
762.80 0.9203
762.90 0.9202
763.00 0.9201
763.10 0.9199
763.20 0.9198
763.30 0.9197
763.40 0.9196
763.50 0.9194
763.60 0.9193
763.70 0.9192
763.80 0.9191
763.90 0.919
764.00 0.9188
764.10 0.9187
764.20 0.9186
764.30 0.9185
764.40 0.9183
764.50 0.9182
764.60 0.9181
764.70 0.918
764.80 0.9179
764.90 0.9177
765.00 0.9176
765.10 0.9175
765.20 0.9174
765.30 0.9172
765.40 0.9171
765.50 0.917
765.60 0.9169
765.70 0.9168
765.80 0.9166
765.90 0.9165
766.00 0.9164
766.10 0.9163
766.20 0.9162
766.30 0.916
766.40 0.9159
766.50 0.9158
766.60 0.9157
766.70 0.9155
766.80 0.9154
766.90 0.9153
767.00 0.9152
767.10 0.9151
767.20 0.9149
767.30 0.9148
767.40 0.9147
767.50 0.9146
767.60 0.9144
767.70 0.9143
767.80 0.9142
767.90 0.9141
768.00 0.914
768.10 0.9138
768.20 0.9137
768.30 0.9136
768.40 0.9135
768.50 0.9134
768.60 0.9132
768.70 0.9131
768.80 0.913
768.90 0.9129
769.00 0.9128
769.10 0.9126
769.20 0.9125
769.30 0.9124
769.40 0.9123
769.50 0.9122
769.60 0.912
769.70 0.9119
769.80 0.9118
769.90 0.9117
770.00 0.9115
770.10 0.9114
770.20 0.9113
770.30 0.9112
770.40 0.911
770.50 0.9109
770.60 0.9108
770.70 0.9107
770.80 0.9105
770.90 0.9104
771.00 0.9103
771.10 0.9102
771.20 0.91
771.30 0.9099
771.40 0.9098
771.50 0.9097
771.60 0.9095
771.70 0.9094
771.80 0.9093
771.90 0.9092
772.00 0.909
772.10 0.9089
772.20 0.9088
772.30 0.9087
772.40 0.9085
772.50 0.9084
772.60 0.9083
772.70 0.9082
772.80 0.908
772.90 0.9079
773.00 0.9078
773.10 0.9077
773.20 0.9075
773.30 0.9074
773.40 0.9073
773.50 0.9072
773.60 0.907
773.70 0.9069
773.80 0.9068
773.90 0.9067
774.00 0.9065
774.10 0.9064
774.20 0.9063
774.30 0.9062
774.40 0.9061
774.50 0.9059
774.60 0.9058
774.70 0.9057
774.80 0.9056
774.90 0.9054
775.00 0.9053
775.10 0.9052
775.20 0.9051
775.30 0.9049
775.40 0.9048
775.50 0.9047
775.60 0.9046
775.70 0.9044
775.80 0.9043
775.90 0.9042
776.00 0.9041
776.10 0.9039
776.20 0.9038
776.30 0.9037
776.40 0.9036
776.50 0.9035
776.60 0.9033
776.70 0.9032
776.80 0.9031
776.90 0.903
777.00 0.9028
777.10 0.9027
777.20 0.9026
777.30 0.9025
777.40 0.9023
777.50 0.9022
777.60 0.9021
777.70 0.902
777.80 0.9018
777.90 0.9017
778.00 0.9016
778.10 0.9015
778.20 0.9014
778.30 0.9012
778.40 0.9011
778.50 0.901
778.60 0.9009
778.70 0.9007
778.80 0.9006
778.90 0.9005
779.00 0.9004
779.10 0.9003
779.20 0.9001
779.30 0.9
779.40 0.8999
779.50 0.8998
779.60 0.8996
779.70 0.8995
779.80 0.8994
779.90 0.8993
780.00 0.8992
780.10 0.899
780.20 0.8989
780.30 0.8988
780.40 0.8986
780.50 0.8985
780.60 0.8984
780.70 0.8983
780.80 0.8981
780.90 0.898
781.00 0.8979
781.10 0.8978
781.20 0.8976
781.30 0.8975
781.40 0.8974
781.50 0.8973
781.60 0.8971
781.70 0.897
781.80 0.8969
781.90 0.8967
782.00 0.8966
782.10 0.8965
782.20 0.8964
782.30 0.8962
782.40 0.8961
782.50 0.896
782.60 0.8959
782.70 0.8957
782.80 0.8956
782.90 0.8955
783.00 0.8954
783.10 0.8952
783.20 0.8951
783.30 0.895
783.40 0.8949
783.50 0.8947
783.60 0.8946
783.70 0.8945
783.80 0.8944
783.90 0.8942
784.00 0.8941
784.10 0.894
784.20 0.8939
784.30 0.8937
784.40 0.8936
784.50 0.8935
784.60 0.8934
784.70 0.8932
784.80 0.8931
784.90 0.893
785.00 0.8929
785.10 0.8927
785.20 0.8926
785.30 0.8925
785.40 0.8924
785.50 0.8922
785.60 0.8921
785.70 0.892
785.80 0.8919
785.90 0.8917
786.00 0.8916
786.10 0.8915
786.20 0.8914
786.30 0.8912
786.40 0.8911
786.50 0.891
786.60 0.8909
786.70 0.8907
786.80 0.8906
786.90 0.8905
787.00 0.8904
787.10 0.8902
787.20 0.8901
787.30 0.89
787.40 0.8899
787.50 0.8897
787.60 0.8896
787.70 0.8895
787.80 0.8894
787.90 0.8892
788.00 0.8891
788.10 0.889
788.20 0.8889
788.30 0.8887
788.40 0.8886
788.50 0.8885
788.60 0.8884
788.70 0.8882
788.80 0.8881
788.90 0.888
789.00 0.8879
789.10 0.8877
789.20 0.8876
789.30 0.8875
789.40 0.8874
789.50 0.8873
789.60 0.8871
789.70 0.887
789.80 0.8869
789.90 0.8868
790.00 0.8866
790.10 0.8865
790.20 0.8864
790.30 0.8863
790.40 0.8861
790.50 0.886
790.60 0.8859
790.70 0.8857
790.80 0.8856
790.90 0.8855
791.00 0.8854
791.10 0.8852
791.20 0.8851
791.30 0.885
791.40 0.8848
791.50 0.8847
791.60 0.8846
791.70 0.8845
791.80 0.8843
791.90 0.8842
792.00 0.8841
792.10 0.884
792.20 0.8838
792.30 0.8837
792.40 0.8836
792.50 0.8834
792.60 0.8833
792.70 0.8832
792.80 0.8831
792.90 0.8829
793.00 0.8828
793.10 0.8827
793.20 0.8826
793.30 0.8824
793.40 0.8823
793.50 0.8822
793.60 0.882
793.70 0.8819
793.80 0.8818
793.90 0.8817
794.00 0.8815
794.10 0.8814
794.20 0.8813
794.30 0.8812
794.40 0.881
794.50 0.8809
794.60 0.8808
794.70 0.8807
794.80 0.8805
794.90 0.8804
795.00 0.8803
795.10 0.8802
795.20 0.88
795.30 0.8799
795.40 0.8798
795.50 0.8796
795.60 0.8795
795.70 0.8794
795.80 0.8793
795.90 0.8791
796.00 0.879
796.10 0.8789
796.20 0.8788
796.30 0.8786
796.40 0.8785
796.50 0.8784
796.60 0.8783
796.70 0.8781
796.80 0.878
796.90 0.8779
797.00 0.8778
797.10 0.8776
797.20 0.8775
797.30 0.8774
797.40 0.8773
797.50 0.8771
797.60 0.877
797.70 0.8769
797.80 0.8768
797.90 0.8766
798.00 0.8765
798.10 0.8764
798.20 0.8763
798.30 0.8761
798.40 0.876
798.50 0.8759
798.60 0.8758
798.70 0.8756
798.80 0.8755
798.90 0.8754
799.00 0.8753
799.10 0.8751
799.20 0.875
799.30 0.8749
799.40 0.8748
799.50 0.8746
799.60 0.8745
799.70 0.8744
799.80 0.8743
799.90 0.8741
800.00 0.874
800.10 0.8739
800.20 0.8737
800.30 0.8736
800.40 0.8735
800.50 0.8734
800.60 0.8732
800.70 0.8731
800.80 0.873
800.90 0.8728
801.00 0.8727
801.10 0.8726
801.20 0.8725
801.30 0.8723
801.40 0.8722
801.50 0.8721
801.60 0.8719
801.70 0.8718
801.80 0.8717
801.90 0.8716
802.00 0.8714
802.10 0.8713
802.20 0.8712
802.30 0.8711
802.40 0.8709
802.50 0.8708
802.60 0.8707
802.70 0.8705
802.80 0.8704
802.90 0.8703
803.00 0.8702
803.10 0.87
803.20 0.8699
803.30 0.8698
803.40 0.8696
803.50 0.8695
803.60 0.8694
803.70 0.8693
803.80 0.8691
803.90 0.869
804.00 0.8689
804.10 0.8688
804.20 0.8686
804.30 0.8685
804.40 0.8684
804.50 0.8682
804.60 0.8681
804.70 0.868
804.80 0.8679
804.90 0.8677
805.00 0.8676
805.10 0.8675
805.20 0.8674
805.30 0.8672
805.40 0.8671
805.50 0.867
805.60 0.8668
805.70 0.8667
805.80 0.8666
805.90 0.8665
806.00 0.8663
806.10 0.8662
806.20 0.8661
806.30 0.866
806.40 0.8658
806.50 0.8657
806.60 0.8656
806.70 0.8655
806.80 0.8653
806.90 0.8652
807.00 0.8651
807.10 0.8649
807.20 0.8648
807.30 0.8647
807.40 0.8646
807.50 0.8644
807.60 0.8643
807.70 0.8642
807.80 0.8641
807.90 0.8639
808.00 0.8638
808.10 0.8637
808.20 0.8636
808.30 0.8634
808.40 0.8633
808.50 0.8632
808.60 0.8631
808.70 0.8629
808.80 0.8628
808.90 0.8627
809.00 0.8626
809.10 0.8624
809.20 0.8623
809.30 0.8622
809.40 0.862
809.50 0.8619
809.60 0.8618
809.70 0.8617
809.80 0.8615
809.90 0.8614
810.00 0.8613
810.10 0.8612
810.20 0.861
810.30 0.8609
810.40 0.8608
810.50 0.8606
810.60 0.8605
810.70 0.8604
810.80 0.8603
810.90 0.8601
811.00 0.86
811.10 0.8599
811.20 0.8597
811.30 0.8596
811.40 0.8595
811.50 0.8594
811.60 0.8592
811.70 0.8591
811.80 0.859
811.90 0.8588
812.00 0.8587
812.10 0.8586
812.20 0.8585
812.30 0.8583
812.40 0.8582
812.50 0.8581
812.60 0.8579
812.70 0.8578
812.80 0.8577
812.90 0.8576
813.00 0.8574
813.10 0.8573
813.20 0.8572
813.30 0.857
813.40 0.8569
813.50 0.8568
813.60 0.8567
813.70 0.8565
813.80 0.8564
813.90 0.8563
814.00 0.8561
814.10 0.856
814.20 0.8559
814.30 0.8558
814.40 0.8556
814.50 0.8555
814.60 0.8554
814.70 0.8552
814.80 0.8551
814.90 0.855
815.00 0.8549
815.10 0.8547
815.20 0.8546
815.30 0.8545
815.40 0.8544
815.50 0.8542
815.60 0.8541
815.70 0.854
815.80 0.8538
815.90 0.8537
816.00 0.8536
816.10 0.8535
816.20 0.8533
816.30 0.8532
816.40 0.8531
816.50 0.853
816.60 0.8528
816.70 0.8527
816.80 0.8526
816.90 0.8524
817.00 0.8523
817.10 0.8522
817.20 0.8521
817.30 0.8519
817.40 0.8518
817.50 0.8517
817.60 0.8516
817.70 0.8514
817.80 0.8513
817.90 0.8512
818.00 0.8511
818.10 0.8509
818.20 0.8508
818.30 0.8507
818.40 0.8505
818.50 0.8504
818.60 0.8503
818.70 0.8502
818.80 0.85
818.90 0.8499
819.00 0.8498
819.10 0.8497
819.20 0.8495
819.30 0.8494
819.40 0.8493
819.50 0.8492
819.60 0.849
819.70 0.8489
819.80 0.8488
819.90 0.8487
820.00 0.8485
820.10 0.8484
820.20 0.8483
820.30 0.8481
820.40 0.848
820.50 0.8479
820.60 0.8478
820.70 0.8476
820.80 0.8475
820.90 0.8474
821.00 0.8472
821.10 0.8471
821.20 0.847
821.30 0.8469
821.40 0.8467
821.50 0.8466
821.60 0.8465
821.70 0.8464
821.80 0.8462
821.90 0.8461
822.00 0.846
822.10 0.8458
822.20 0.8457
822.30 0.8456
822.40 0.8455
822.50 0.8453
822.60 0.8452
822.70 0.8451
822.80 0.8449
822.90 0.8448
823.00 0.8447
823.10 0.8446
823.20 0.8444
823.30 0.8443
823.40 0.8442
823.50 0.844
823.60 0.8439
823.70 0.8438
823.80 0.8437
823.90 0.8435
824.00 0.8434
824.10 0.8433
824.20 0.8431
824.30 0.843
824.40 0.8429
824.50 0.8428
824.60 0.8426
824.70 0.8425
824.80 0.8424
824.90 0.8422
825.00 0.8421
825.10 0.842
825.20 0.8419
825.30 0.8417
825.40 0.8416
825.50 0.8415
825.60 0.8414
825.70 0.8412
825.80 0.8411
825.90 0.841
826.00 0.8408
826.10 0.8407
826.20 0.8406
826.30 0.8405
826.40 0.8403
826.50 0.8402
826.60 0.8401
826.70 0.84
826.80 0.8398
826.90 0.8397
827.00 0.8396
827.10 0.8394
827.20 0.8393
827.30 0.8392
827.40 0.8391
827.50 0.8389
827.60 0.8388
827.70 0.8387
827.80 0.8385
827.90 0.8384
828.00 0.8383
828.10 0.8382
828.20 0.838
828.30 0.8379
828.40 0.8378
828.50 0.8376
828.60 0.8375
828.70 0.8374
828.80 0.8372
828.90 0.8371
829.00 0.837
829.10 0.8369
829.20 0.8367
829.30 0.8366
829.40 0.8365
829.50 0.8363
829.60 0.8362
829.70 0.8361
829.80 0.836
829.90 0.8358
830.00 0.8357
830.10 0.8356
830.20 0.8355
830.30 0.8353
830.40 0.8352
830.50 0.8351
830.60 0.8349
830.70 0.8348
830.80 0.8347
830.90 0.8346
831.00 0.8344
831.10 0.8343
831.20 0.8342
831.30 0.834
831.40 0.8339
831.50 0.8338
831.60 0.8337
831.70 0.8335
831.80 0.8334
831.90 0.8333
832.00 0.8332
832.10 0.833
832.20 0.8329
832.30 0.8328
832.40 0.8326
832.50 0.8325
832.60 0.8324
832.70 0.8323
832.80 0.8321
832.90 0.832
833.00 0.8319
833.10 0.8317
833.20 0.8316
833.30 0.8315
833.40 0.8314
833.50 0.8312
833.60 0.8311
833.70 0.831
833.80 0.8308
833.90 0.8307
834.00 0.8306
834.10 0.8305
834.20 0.8303
834.30 0.8302
834.40 0.8301
834.50 0.8299
834.60 0.8298
834.70 0.8297
834.80 0.8296
834.90 0.8294
835.00 0.8293
835.10 0.8292
835.20 0.829
835.30 0.8289
835.40 0.8288
835.50 0.8287
835.60 0.8285
835.70 0.8284
835.80 0.8283
835.90 0.8282
836.00 0.828
836.10 0.8279
836.20 0.8278
836.30 0.8276
836.40 0.8275
836.50 0.8274
836.60 0.8273
836.70 0.8271
836.80 0.827
836.90 0.8269
837.00 0.8268
837.10 0.8266
837.20 0.8265
837.30 0.8264
837.40 0.8262
837.50 0.8261
837.60 0.826
837.70 0.8259
837.80 0.8257
837.90 0.8256
838.00 0.8255
838.10 0.8253
838.20 0.8252
838.30 0.8251
838.40 0.825
838.50 0.8248
838.60 0.8247
838.70 0.8246
838.80 0.8244
838.90 0.8243
839.00 0.8242
839.10 0.8241
839.20 0.8239
839.30 0.8238
839.40 0.8237
839.50 0.8235
839.60 0.8234
839.70 0.8233
839.80 0.8232
839.90 0.823
840.00 0.8229
840.10 0.8228
840.20 0.8226
840.30 0.8225
840.40 0.8224
840.50 0.8223
840.60 0.8221
840.70 0.822
840.80 0.8219
840.90 0.8217
841.00 0.8216
841.10 0.8215
841.20 0.8214
841.30 0.8212
841.40 0.8211
841.50 0.821
841.60 0.8209
841.70 0.8207
841.80 0.8206
841.90 0.8205
842.00 0.8203
842.10 0.8202
842.20 0.8201
842.30 0.82
842.40 0.8198
842.50 0.8197
842.60 0.8196
842.70 0.8194
842.80 0.8193
842.90 0.8192
843.00 0.8191
843.10 0.8189
843.20 0.8188
843.30 0.8187
843.40 0.8185
843.50 0.8184
843.60 0.8183
843.70 0.8182
843.80 0.818
843.90 0.8179
844.00 0.8178
844.10 0.8176
844.20 0.8175
844.30 0.8174
844.40 0.8173
844.50 0.8171
844.60 0.817
844.70 0.8169
844.80 0.8167
844.90 0.8166
845.00 0.8165
845.10 0.8164
845.20 0.8162
845.30 0.8161
845.40 0.816
845.50 0.8159
845.60 0.8157
845.70 0.8156
845.80 0.8155
845.90 0.8153
846.00 0.8152
846.10 0.8151
846.20 0.815
846.30 0.8148
846.40 0.8147
846.50 0.8146
846.60 0.8144
846.70 0.8143
846.80 0.8142
846.90 0.8141
847.00 0.8139
847.10 0.8138
847.20 0.8137
847.30 0.8136
847.40 0.8134
847.50 0.8133
847.60 0.8132
847.70 0.813
847.80 0.8129
847.90 0.8128
848.00 0.8127
848.10 0.8125
848.20 0.8124
848.30 0.8123
848.40 0.8121
848.50 0.812
848.60 0.8119
848.70 0.8118
848.80 0.8116
848.90 0.8115
849.00 0.8114
849.10 0.8112
849.20 0.8111
849.30 0.811
849.40 0.8109
849.50 0.8107
849.60 0.8106
849.70 0.8105
849.80 0.8103
849.90 0.8102
850.00 0.8101
850.10 0.81
850.20 0.8098
850.30 0.8097
850.40 0.8096
850.50 0.8094
850.60 0.8093
850.70 0.8092
850.80 0.8091
850.90 0.8089
851.00 0.8088
851.10 0.8087
851.20 0.8086
851.30 0.8084
851.40 0.8083
851.50 0.8082
851.60 0.808
851.70 0.8079
851.80 0.8078
851.90 0.8077
852.00 0.8075
852.10 0.8074
852.20 0.8073
852.30 0.8072
852.40 0.807
852.50 0.8069
852.60 0.8068
852.70 0.8066
852.80 0.8065
852.90 0.8064
853.00 0.8063
853.10 0.8061
853.20 0.806
853.30 0.8059
853.40 0.8057
853.50 0.8056
853.60 0.8055
853.70 0.8054
853.80 0.8052
853.90 0.8051
854.00 0.805
854.10 0.8048
854.20 0.8047
854.30 0.8046
854.40 0.8045
854.50 0.8043
854.60 0.8042
854.70 0.8041
854.80 0.8039
854.90 0.8038
855.00 0.8037
855.10 0.8036
855.20 0.8034
855.30 0.8033
855.40 0.8032
855.50 0.8031
855.60 0.8029
855.70 0.8028
855.80 0.8027
855.90 0.8025
856.00 0.8024
856.10 0.8023
856.20 0.8022
856.30 0.802
856.40 0.8019
856.50 0.8018
856.60 0.8017
856.70 0.8015
856.80 0.8014
856.90 0.8013
857.00 0.8011
857.10 0.801
857.20 0.8009
857.30 0.8008
857.40 0.8006
857.50 0.8005
857.60 0.8004
857.70 0.8002
857.80 0.8001
857.90 0.8
858.00 0.7999
858.10 0.7997
858.20 0.7996
858.30 0.7995
858.40 0.7993
858.50 0.7992
858.60 0.7991
858.70 0.799
858.80 0.7988
858.90 0.7987
859.00 0.7986
859.10 0.7984
859.20 0.7983
859.30 0.7982
859.40 0.7981
859.50 0.7979
859.60 0.7978
859.70 0.7977
859.80 0.7976
859.90 0.7974
860.00 0.7973
860.10 0.7972
860.20 0.797
860.30 0.7969
860.40 0.7968
860.50 0.7967
860.60 0.7965
860.70 0.7964
860.80 0.7963
860.90 0.7962
861.00 0.796
861.10 0.7959
861.20 0.7958
861.30 0.7956
861.40 0.7955
861.50 0.7954
861.60 0.7953
861.70 0.7951
861.80 0.795
861.90 0.7949
862.00 0.7948
862.10 0.7946
862.20 0.7945
862.30 0.7944
862.40 0.7942
862.50 0.7941
862.60 0.794
862.70 0.7939
862.80 0.7937
862.90 0.7936
863.00 0.7935
863.10 0.7933
863.20 0.7932
863.30 0.7931
863.40 0.793
863.50 0.7928
863.60 0.7927
863.70 0.7926
863.80 0.7925
863.90 0.7923
864.00 0.7922
864.10 0.7921
864.20 0.7919
864.30 0.7918
864.40 0.7917
864.50 0.7916
864.60 0.7914
864.70 0.7913
864.80 0.7912
864.90 0.7911
865.00 0.7909
865.10 0.7908
865.20 0.7907
865.30 0.7905
865.40 0.7904
865.50 0.7903
865.60 0.7902
865.70 0.79
865.80 0.7899
865.90 0.7898
866.00 0.7897
866.10 0.7895
866.20 0.7894
866.30 0.7893
866.40 0.7892
866.50 0.789
866.60 0.7889
866.70 0.7888
866.80 0.7886
866.90 0.7885
867.00 0.7884
867.10 0.7883
867.20 0.7881
867.30 0.788
867.40 0.7879
867.50 0.7878
867.60 0.7876
867.70 0.7875
867.80 0.7874
867.90 0.7872
868.00 0.7871
868.10 0.787
868.20 0.7869
868.30 0.7867
868.40 0.7866
868.50 0.7865
868.60 0.7863
868.70 0.7862
868.80 0.7861
868.90 0.786
869.00 0.7858
869.10 0.7857
869.20 0.7856
869.30 0.7855
869.40 0.7853
869.50 0.7852
869.60 0.7851
869.70 0.7849
869.80 0.7848
869.90 0.7847
870.00 0.7846
870.10 0.7844
870.20 0.7843
870.30 0.7842
870.40 0.7841
870.50 0.7839
870.60 0.7838
870.70 0.7837
870.80 0.7835
870.90 0.7834
871.00 0.7833
871.10 0.7832
871.20 0.783
871.30 0.7829
871.40 0.7828
871.50 0.7827
871.60 0.7825
871.70 0.7824
871.80 0.7823
871.90 0.7822
872.00 0.782
872.10 0.7819
872.20 0.7818
872.30 0.7816
872.40 0.7815
872.50 0.7814
872.60 0.7813
872.70 0.7811
872.80 0.781
872.90 0.7809
873.00 0.7808
873.10 0.7806
873.20 0.7805
873.30 0.7804
873.40 0.7802
873.50 0.7801
873.60 0.78
873.70 0.7799
873.80 0.7797
873.90 0.7796
874.00 0.7795
874.10 0.7794
874.20 0.7792
874.30 0.7791
874.40 0.779
874.50 0.7788
874.60 0.7787
874.70 0.7786
874.80 0.7785
874.90 0.7783
875.00 0.7782
875.10 0.7781
875.20 0.778
875.30 0.7778
875.40 0.7777
875.50 0.7776
875.60 0.7775
875.70 0.7773
875.80 0.7772
875.90 0.7771
876.00 0.7769
876.10 0.7768
876.20 0.7767
876.30 0.7766
876.40 0.7764
876.50 0.7763
876.60 0.7762
876.70 0.7761
876.80 0.7759
876.90 0.7758
877.00 0.7757
877.10 0.7756
877.20 0.7754
877.30 0.7753
877.40 0.7752
877.50 0.7751
877.60 0.7749
877.70 0.7748
877.80 0.7747
877.90 0.7745
878.00 0.7744
878.10 0.7743
878.20 0.7742
878.30 0.774
878.40 0.7739
878.50 0.7738
878.60 0.7737
878.70 0.7735
878.80 0.7734
878.90 0.7733
879.00 0.7731
879.10 0.773
879.20 0.7729
879.30 0.7728
879.40 0.7726
879.50 0.7725
879.60 0.7724
879.70 0.7723
879.80 0.7721
879.90 0.772
880.00 0.7719
880.10 0.7718
880.20 0.7716
880.30 0.7715
880.40 0.7714
880.50 0.7712
880.60 0.7711
880.70 0.771
880.80 0.7709
880.90 0.7707
881.00 0.7706
881.10 0.7705
881.20 0.7704
881.30 0.7702
881.40 0.7701
881.50 0.77
881.60 0.7699
881.70 0.7697
881.80 0.7696
881.90 0.7695
882.00 0.7694
882.10 0.7692
882.20 0.7691
882.30 0.769
882.40 0.7688
882.50 0.7687
882.60 0.7686
882.70 0.7685
882.80 0.7683
882.90 0.7682
883.00 0.7681
883.10 0.768
883.20 0.7678
883.30 0.7677
883.40 0.7676
883.50 0.7675
883.60 0.7673
883.70 0.7672
883.80 0.7671
883.90 0.7669
884.00 0.7668
884.10 0.7667
884.20 0.7666
884.30 0.7664
884.40 0.7663
884.50 0.7662
884.60 0.7661
884.70 0.7659
884.80 0.7658
884.90 0.7657
885.00 0.7656
885.10 0.7654
885.20 0.7653
885.30 0.7652
885.40 0.7651
885.50 0.7649
885.60 0.7648
885.70 0.7647
885.80 0.7645
885.90 0.7644
886.00 0.7643
886.10 0.7642
886.20 0.764
886.30 0.7639
886.40 0.7638
886.50 0.7637
886.60 0.7635
886.70 0.7634
886.80 0.7633
886.90 0.7632
887.00 0.763
887.10 0.7629
887.20 0.7628
887.30 0.7627
887.40 0.7625
887.50 0.7624
887.60 0.7623
887.70 0.7622
887.80 0.762
887.90 0.7619
888.00 0.7618
888.10 0.7616
888.20 0.7615
888.30 0.7614
888.40 0.7613
888.50 0.7611
888.60 0.761
888.70 0.7609
888.80 0.7608
888.90 0.7606
889.00 0.7605
889.10 0.7604
889.20 0.7603
889.30 0.7601
889.40 0.76
889.50 0.7599
889.60 0.7598
889.70 0.7596
889.80 0.7595
889.90 0.7594
890.00 0.7593
890.10 0.7591
890.20 0.759
890.30 0.7589
890.40 0.7588
890.50 0.7586
890.60 0.7585
890.70 0.7584
890.80 0.7583
890.90 0.7581
891.00 0.758
891.10 0.7579
891.20 0.7578
891.30 0.7576
891.40 0.7575
891.50 0.7574
891.60 0.7573
891.70 0.7571
891.80 0.757
891.90 0.7569
892.00 0.7568
892.10 0.7566
892.20 0.7565
892.30 0.7564
892.40 0.7562
892.50 0.7561
892.60 0.756
892.70 0.7559
892.80 0.7557
892.90 0.7556
893.00 0.7555
893.10 0.7554
893.20 0.7552
893.30 0.7551
893.40 0.755
893.50 0.7549
893.60 0.7547
893.70 0.7546
893.80 0.7545
893.90 0.7544
894.00 0.7542
894.10 0.7541
894.20 0.754
894.30 0.7539
894.40 0.7537
894.50 0.7536
894.60 0.7535
894.70 0.7534
894.80 0.7532
894.90 0.7531
895.00 0.753
895.10 0.7529
895.20 0.7527
895.30 0.7526
895.40 0.7525
895.50 0.7524
895.60 0.7522
895.70 0.7521
895.80 0.752
895.90 0.7519
896.00 0.7517
896.10 0.7516
896.20 0.7515
896.30 0.7514
896.40 0.7512
896.50 0.7511
896.60 0.751
896.70 0.7509
896.80 0.7507
896.90 0.7506
897.00 0.7505
897.10 0.7504
897.20 0.7502
897.30 0.7501
897.40 0.75
897.50 0.7499
897.60 0.7497
897.70 0.7496
897.80 0.7495
897.90 0.7494
898.00 0.7492
898.10 0.7491
898.20 0.749
898.30 0.7489
898.40 0.7487
898.50 0.7486
898.60 0.7485
898.70 0.7484
898.80 0.7482
898.90 0.7481
899.00 0.748
899.10 0.7479
899.20 0.7477
899.30 0.7476
899.40 0.7475
899.50 0.7473
899.60 0.7472
899.70 0.7471
899.80 0.747
899.90 0.7468
900.00 0.7467
900.10 0.7466
900.20 0.7465
900.30 0.7463
900.40 0.7462
900.50 0.7461
900.60 0.746
900.70 0.7458
900.80 0.7457
900.90 0.7456
901.00 0.7455
901.10 0.7454
901.20 0.7452
901.30 0.7451
901.40 0.745
901.50 0.7449
901.60 0.7447
901.70 0.7446
901.80 0.7445
901.90 0.7444
902.00 0.7442
902.10 0.7441
902.20 0.744
902.30 0.7439
902.40 0.7437
902.50 0.7436
902.60 0.7435
902.70 0.7433
902.80 0.7432
902.90 0.7431
903.00 0.743
903.10 0.7428
903.20 0.7427
903.30 0.7426
903.40 0.7425
903.50 0.7423
903.60 0.7422
903.70 0.7421
903.80 0.742
903.90 0.7418
904.00 0.7417
904.10 0.7416
904.20 0.7415
904.30 0.7413
904.40 0.7412
904.50 0.7411
904.60 0.741
904.70 0.7408
904.80 0.7407
904.90 0.7406
905.00 0.7405
905.10 0.7403
905.20 0.7402
905.30 0.7401
905.40 0.74
905.50 0.7398
905.60 0.7397
905.70 0.7396
905.80 0.7395
905.90 0.7393
906.00 0.7392
906.10 0.7391
906.20 0.739
906.30 0.7388
906.40 0.7387
906.50 0.7386
906.60 0.7385
906.70 0.7383
906.80 0.7382
906.90 0.7381
907.00 0.738
907.10 0.7378
907.20 0.7377
907.30 0.7376
907.40 0.7375
907.50 0.7373
907.60 0.7372
907.70 0.7371
907.80 0.7369
907.90 0.7368
908.00 0.7367
908.10 0.7366
908.20 0.7364
908.30 0.7363
908.40 0.7362
908.50 0.7361
908.60 0.7359
908.70 0.7358
908.80 0.7357
908.90 0.7356
909.00 0.7354
909.10 0.7353
909.20 0.7352
909.30 0.7351
909.40 0.735
909.50 0.7348
909.60 0.7347
909.70 0.7346
909.80 0.7345
909.90 0.7343
910.00 0.7342
910.10 0.7341
910.20 0.734
910.30 0.7338
910.40 0.7337
910.50 0.7336
910.60 0.7335
910.70 0.7333
910.80 0.7332
910.90 0.7331
911.00 0.733
911.10 0.7328
911.20 0.7327
911.30 0.7326
911.40 0.7325
911.50 0.7323
911.60 0.7322
911.70 0.7321
911.80 0.732
911.90 0.7318
912.00 0.7317
912.10 0.7316
912.20 0.7315
912.30 0.7313
912.40 0.7312
912.50 0.7311
912.60 0.731
912.70 0.7309
912.80 0.7307
912.90 0.7306
913.00 0.7305
913.10 0.7304
913.20 0.7302
913.30 0.7301
913.40 0.73
913.50 0.7299
913.60 0.7297
913.70 0.7296
913.80 0.7295
913.90 0.7294
914.00 0.7292
914.10 0.7291
914.20 0.729
914.30 0.7289
914.40 0.7287
914.50 0.7286
914.60 0.7285
914.70 0.7284
914.80 0.7283
914.90 0.7281
915.00 0.728
915.10 0.7279
915.20 0.7278
915.30 0.7276
915.40 0.7275
915.50 0.7274
915.60 0.7273
915.70 0.7271
915.80 0.727
915.90 0.7269
916.00 0.7268
916.10 0.7267
916.20 0.7265
916.30 0.7264
916.40 0.7263
916.50 0.7262
916.60 0.726
916.70 0.7259
916.80 0.7258
916.90 0.7257
917.00 0.7256
917.10 0.7254
917.20 0.7253
917.30 0.7252
917.40 0.7251
917.50 0.7249
917.60 0.7248
917.70 0.7247
917.80 0.7246
917.90 0.7244
918.00 0.7243
918.10 0.7242
918.20 0.7241
918.30 0.7239
918.40 0.7238
918.50 0.7237
918.60 0.7236
918.70 0.7234
918.80 0.7233
918.90 0.7232
919.00 0.7231
919.10 0.7229
919.20 0.7228
919.30 0.7227
919.40 0.7226
919.50 0.7225
919.60 0.7223
919.70 0.7222
919.80 0.7221
919.90 0.722
920.00 0.7218
920.10 0.7217
920.20 0.7216
920.30 0.7215
920.40 0.7213
920.50 0.7212
920.60 0.7211
920.70 0.721
920.80 0.7209
920.90 0.7207
921.00 0.7206
921.10 0.7205
921.20 0.7204
921.30 0.7202
921.40 0.7201
921.50 0.72
921.60 0.7199
921.70 0.7197
921.80 0.7196
921.90 0.7195
922.00 0.7194
922.10 0.7193
922.20 0.7191
922.30 0.719
922.40 0.7189
922.50 0.7188
922.60 0.7186
922.70 0.7185
922.80 0.7184
922.90 0.7183
923.00 0.7182
923.10 0.718
923.20 0.7179
923.30 0.7178
923.40 0.7177
923.50 0.7175
923.60 0.7174
923.70 0.7173
923.80 0.7172
923.90 0.717
924.00 0.7169
924.10 0.7168
924.20 0.7167
924.30 0.7166
924.40 0.7164
924.50 0.7163
924.60 0.7162
924.70 0.7161
924.80 0.7159
924.90 0.7158
925.00 0.7157
925.10 0.7156
925.20 0.7155
925.30 0.7153
925.40 0.7152
925.50 0.7151
925.60 0.715
925.70 0.7148
925.80 0.7147
925.90 0.7146
926.00 0.7145
926.10 0.7144
926.20 0.7142
926.30 0.7141
926.40 0.714
926.50 0.7139
926.60 0.7137
926.70 0.7136
926.80 0.7135
926.90 0.7134
927.00 0.7133
927.10 0.7131
927.20 0.713
927.30 0.7129
927.40 0.7128
927.50 0.7126
927.60 0.7125
927.70 0.7124
927.80 0.7123
927.90 0.7122
928.00 0.712
928.10 0.7119
928.20 0.7118
928.30 0.7117
928.40 0.7115
928.50 0.7114
928.60 0.7113
928.70 0.7112
928.80 0.711
928.90 0.7109
929.00 0.7108
929.10 0.7107
929.20 0.7106
929.30 0.7104
929.40 0.7103
929.50 0.7102
929.60 0.7101
929.70 0.7099
929.80 0.7098
929.90 0.7097
930.00 0.7096
930.10 0.7095
930.20 0.7093
930.30 0.7092
930.40 0.7091
930.50 0.709
930.60 0.7089
930.70 0.7087
930.80 0.7086
930.90 0.7085
931.00 0.7084
931.10 0.7082
931.20 0.7081
931.30 0.708
931.40 0.7079
931.50 0.7078
931.60 0.7076
931.70 0.7075
931.80 0.7074
931.90 0.7073
932.00 0.7072
932.10 0.707
932.20 0.7069
932.30 0.7068
932.40 0.7067
932.50 0.7065
932.60 0.7064
932.70 0.7063
932.80 0.7062
932.90 0.7061
933.00 0.7059
933.10 0.7058
933.20 0.7057
933.30 0.7056
933.40 0.7054
933.50 0.7053
933.60 0.7052
933.70 0.7051
933.80 0.705
933.90 0.7048
934.00 0.7047
934.10 0.7046
934.20 0.7045
934.30 0.7043
934.40 0.7042
934.50 0.7041
934.60 0.704
934.70 0.7039
934.80 0.7037
934.90 0.7036
935.00 0.7035
935.10 0.7034
935.20 0.7032
935.30 0.7031
935.40 0.703
935.50 0.7029
935.60 0.7028
935.70 0.7026
935.80 0.7025
935.90 0.7024
936.00 0.7023
936.10 0.7022
936.20 0.702
936.30 0.7019
936.40 0.7018
936.50 0.7017
936.60 0.7015
936.70 0.7014
936.80 0.7013
936.90 0.7012
937.00 0.7011
937.10 0.7009
937.20 0.7008
937.30 0.7007
937.40 0.7006
937.50 0.7005
937.60 0.7003
937.70 0.7002
937.80 0.7001
937.90 0.7
938.00 0.6999
938.10 0.6997
938.20 0.6996
938.30 0.6995
938.40 0.6994
938.50 0.6993
938.60 0.6991
938.70 0.699
938.80 0.6989
938.90 0.6988
939.00 0.6986
939.10 0.6985
939.20 0.6984
939.30 0.6983
939.40 0.6982
939.50 0.698
939.60 0.6979
939.70 0.6978
939.80 0.6977
939.90 0.6976
940.00 0.6974
940.10 0.6973
940.20 0.6972
940.30 0.6971
940.40 0.697
940.50 0.6968
940.60 0.6967
940.70 0.6966
940.80 0.6965
940.90 0.6963
941.00 0.6962
941.10 0.6961
941.20 0.696
941.30 0.6959
941.40 0.6957
941.50 0.6956
941.60 0.6955
941.70 0.6954
941.80 0.6953
941.90 0.6951
942.00 0.695
942.10 0.6949
942.20 0.6948
942.30 0.6947
942.40 0.6945
942.50 0.6944
942.60 0.6943
942.70 0.6942
942.80 0.6941
942.90 0.6939
943.00 0.6938
943.10 0.6937
943.20 0.6936
943.30 0.6935
943.40 0.6933
943.50 0.6932
943.60 0.6931
943.70 0.693
943.80 0.6929
943.90 0.6927
944.00 0.6926
944.10 0.6925
944.20 0.6924
944.30 0.6923
944.40 0.6921
944.50 0.692
944.60 0.6919
944.70 0.6918
944.80 0.6916
944.90 0.6915
945.00 0.6914
945.10 0.6913
945.20 0.6912
945.30 0.691
945.40 0.6909
945.50 0.6908
945.60 0.6907
945.70 0.6906
945.80 0.6904
945.90 0.6903
946.00 0.6902
946.10 0.6901
946.20 0.69
946.30 0.6898
946.40 0.6897
946.50 0.6896
946.60 0.6895
946.70 0.6894
946.80 0.6892
946.90 0.6891
947.00 0.689
947.10 0.6889
947.20 0.6888
947.30 0.6886
947.40 0.6885
947.50 0.6884
947.60 0.6883
947.70 0.6882
947.80 0.688
947.90 0.6879
948.00 0.6878
948.10 0.6877
948.20 0.6876
948.30 0.6874
948.40 0.6873
948.50 0.6872
948.60 0.6871
948.70 0.687
948.80 0.6868
948.90 0.6867
949.00 0.6866
949.10 0.6865
949.20 0.6864
949.30 0.6862
949.40 0.6861
949.50 0.686
949.60 0.6859
949.70 0.6858
949.80 0.6856
949.90 0.6855
950.00 0.6854
950.10 0.6853
950.20 0.6852
950.30 0.685
950.40 0.6849
950.50 0.6848
950.60 0.6847
950.70 0.6846
950.80 0.6844
950.90 0.6843
951.00 0.6842
951.10 0.6841
951.20 0.684
951.30 0.6838
951.40 0.6837
951.50 0.6836
951.60 0.6835
951.70 0.6834
951.80 0.6832
951.90 0.6831
952.00 0.683
952.10 0.6829
952.20 0.6828
952.30 0.6827
952.40 0.6825
952.50 0.6824
952.60 0.6823
952.70 0.6822
952.80 0.6821
952.90 0.6819
953.00 0.6818
953.10 0.6817
953.20 0.6816
953.30 0.6815
953.40 0.6813
953.50 0.6812
953.60 0.6811
953.70 0.681
953.80 0.6809
953.90 0.6807
954.00 0.6806
954.10 0.6805
954.20 0.6804
954.30 0.6803
954.40 0.6802
954.50 0.68
954.60 0.6799
954.70 0.6798
954.80 0.6797
954.90 0.6796
955.00 0.6794
955.10 0.6793
955.20 0.6792
955.30 0.6791
955.40 0.679
955.50 0.6788
955.60 0.6787
955.70 0.6786
955.80 0.6785
955.90 0.6784
956.00 0.6782
956.10 0.6781
956.20 0.678
956.30 0.6779
956.40 0.6778
956.50 0.6776
956.60 0.6775
956.70 0.6774
956.80 0.6773
956.90 0.6772
957.00 0.677
957.10 0.6769
957.20 0.6768
957.30 0.6767
957.40 0.6766
957.50 0.6765
957.60 0.6763
957.70 0.6762
957.80 0.6761
957.90 0.676
958.00 0.6759
958.10 0.6757
958.20 0.6756
958.30 0.6755
958.40 0.6754
958.50 0.6753
958.60 0.6752
958.70 0.675
958.80 0.6749
958.90 0.6748
959.00 0.6747
959.10 0.6746
959.20 0.6744
959.30 0.6743
959.40 0.6742
959.50 0.6741
959.60 0.674
959.70 0.6739
959.80 0.6737
959.90 0.6736
960.00 0.6735
960.10 0.6734
960.20 0.6733
960.30 0.6731
960.40 0.673
960.50 0.6729
960.60 0.6728
960.70 0.6727
960.80 0.6725
960.90 0.6724
961.00 0.6723
961.10 0.6722
961.20 0.6721
961.30 0.672
961.40 0.6718
961.50 0.6717
961.60 0.6716
961.70 0.6715
961.80 0.6714
961.90 0.6712
962.00 0.6711
962.10 0.671
962.20 0.6709
962.30 0.6708
962.40 0.6707
962.50 0.6705
962.60 0.6704
962.70 0.6703
962.80 0.6702
962.90 0.6701
963.00 0.6699
963.10 0.6698
963.20 0.6697
963.30 0.6696
963.40 0.6695
963.50 0.6694
963.60 0.6692
963.70 0.6691
963.80 0.669
963.90 0.6689
964.00 0.6688
964.10 0.6686
964.20 0.6685
964.30 0.6684
964.40 0.6683
964.50 0.6682
964.60 0.6681
964.70 0.6679
964.80 0.6678
964.90 0.6677
965.00 0.6676
965.10 0.6675
965.20 0.6673
965.30 0.6672
965.40 0.6671
965.50 0.667
965.60 0.6669
965.70 0.6668
965.80 0.6666
965.90 0.6665
966.00 0.6664
966.10 0.6663
966.20 0.6662
966.30 0.6661
966.40 0.6659
966.50 0.6658
966.60 0.6657
966.70 0.6656
966.80 0.6655
966.90 0.6654
967.00 0.6652
967.10 0.6651
967.20 0.665
967.30 0.6649
967.40 0.6648
967.50 0.6647
967.60 0.6645
967.70 0.6644
967.80 0.6643
967.90 0.6642
968.00 0.6641
968.10 0.6639
968.20 0.6638
968.30 0.6637
968.40 0.6636
968.50 0.6635
968.60 0.6634
968.70 0.6632
968.80 0.6631
968.90 0.663
969.00 0.6629
969.10 0.6628
969.20 0.6627
969.30 0.6625
969.40 0.6624
969.50 0.6623
969.60 0.6622
969.70 0.6621
969.80 0.662
969.90 0.6618
970.00 0.6617
970.10 0.6616
970.20 0.6615
970.30 0.6614
970.40 0.6613
970.50 0.6611
970.60 0.661
970.70 0.6609
970.80 0.6608
970.90 0.6607
971.00 0.6606
971.10 0.6604
971.20 0.6603
971.30 0.6602
971.40 0.6601
971.50 0.66
971.60 0.6599
971.70 0.6597
971.80 0.6596
971.90 0.6595
972.00 0.6594
972.10 0.6593
972.20 0.6592
972.30 0.659
972.40 0.6589
972.50 0.6588
972.60 0.6587
972.70 0.6586
972.80 0.6585
972.90 0.6583
973.00 0.6582
973.10 0.6581
973.20 0.658
973.30 0.6579
973.40 0.6578
973.50 0.6576
973.60 0.6575
973.70 0.6574
973.80 0.6573
973.90 0.6572
974.00 0.6571
974.10 0.6569
974.20 0.6568
974.30 0.6567
974.40 0.6566
974.50 0.6565
974.60 0.6564
974.70 0.6562
974.80 0.6561
974.90 0.656
975.00 0.6559
975.10 0.6558
975.20 0.6557
975.30 0.6555
975.40 0.6554
975.50 0.6553
975.60 0.6552
975.70 0.6551
975.80 0.655
975.90 0.6548
976.00 0.6547
976.10 0.6546
976.20 0.6545
976.30 0.6544
976.40 0.6543
976.50 0.6541
976.60 0.654
976.70 0.6539
976.80 0.6538
976.90 0.6537
977.00 0.6536
977.10 0.6534
977.20 0.6533
977.30 0.6532
977.40 0.6531
977.50 0.653
977.60 0.6529
977.70 0.6527
977.80 0.6526
977.90 0.6525
978.00 0.6524
978.10 0.6523
978.20 0.6522
978.30 0.652
978.40 0.6519
978.50 0.6518
978.60 0.6517
978.70 0.6516
978.80 0.6515
978.90 0.6514
979.00 0.6512
979.10 0.6511
979.20 0.651
979.30 0.6509
979.40 0.6508
979.50 0.6507
979.60 0.6505
979.70 0.6504
979.80 0.6503
979.90 0.6502
980.00 0.6501
980.10 0.65
980.20 0.6499
980.30 0.6497
980.40 0.6496
980.50 0.6495
980.60 0.6494
980.70 0.6493
980.80 0.6492
980.90 0.649
981.00 0.6489
981.10 0.6488
981.20 0.6487
981.30 0.6486
981.40 0.6485
981.50 0.6484
981.60 0.6482
981.70 0.6481
981.80 0.648
981.90 0.6479
982.00 0.6478
982.10 0.6477
982.20 0.6476
982.30 0.6474
982.40 0.6473
982.50 0.6472
982.60 0.6471
982.70 0.647
982.80 0.6469
982.90 0.6467
983.00 0.6466
983.10 0.6465
983.20 0.6464
983.30 0.6463
983.40 0.6462
983.50 0.6461
983.60 0.6459
983.70 0.6458
983.80 0.6457
983.90 0.6456
984.00 0.6455
984.10 0.6454
984.20 0.6453
984.30 0.6451
984.40 0.645
984.50 0.6449
984.60 0.6448
984.70 0.6447
984.80 0.6446
984.90 0.6444
985.00 0.6443
985.10 0.6442
985.20 0.6441
985.30 0.644
985.40 0.6439
985.50 0.6438
985.60 0.6436
985.70 0.6435
985.80 0.6434
985.90 0.6433
986.00 0.6432
986.10 0.6431
986.20 0.643
986.30 0.6428
986.40 0.6427
986.50 0.6426
986.60 0.6425
986.70 0.6424
986.80 0.6423
986.90 0.6422
987.00 0.642
987.10 0.6419
987.20 0.6418
987.30 0.6417
987.40 0.6416
987.50 0.6415
987.60 0.6414
987.70 0.6412
987.80 0.6411
987.90 0.641
988.00 0.6409
988.10 0.6408
988.20 0.6407
988.30 0.6406
988.40 0.6404
988.50 0.6403
988.60 0.6402
988.70 0.6401
988.80 0.64
988.90 0.6399
989.00 0.6398
989.10 0.6396
989.20 0.6395
989.30 0.6394
989.40 0.6393
989.50 0.6392
989.60 0.6391
989.70 0.639
989.80 0.6388
989.90 0.6387
990.00 0.6386
990.10 0.6385
990.20 0.6384
990.30 0.6383
990.40 0.6382
990.50 0.638
990.60 0.6379
990.70 0.6378
990.80 0.6377
990.90 0.6376
991.00 0.6375
991.10 0.6374
991.20 0.6372
991.30 0.6371
991.40 0.637
991.50 0.6369
991.60 0.6368
991.70 0.6367
991.80 0.6366
991.90 0.6365
992.00 0.6363
992.10 0.6362
992.20 0.6361
992.30 0.636
992.40 0.6359
992.50 0.6358
992.60 0.6357
992.70 0.6355
992.80 0.6354
992.90 0.6353
993.00 0.6352
993.10 0.6351
993.20 0.635
993.30 0.6349
993.40 0.6348
993.50 0.6346
993.60 0.6345
993.70 0.6344
993.80 0.6343
993.90 0.6342
994.00 0.6341
994.10 0.634
994.20 0.6339
994.30 0.6337
994.40 0.6336
994.50 0.6335
994.60 0.6334
994.70 0.6333
994.80 0.6332
994.90 0.6331
995.00 0.6329
995.10 0.6328
995.20 0.6327
995.30 0.6326
995.40 0.6325
995.50 0.6324
995.60 0.6323
995.70 0.6322
995.80 0.632
995.90 0.6319
996.00 0.6318
996.10 0.6317
996.20 0.6316
996.30 0.6315
996.40 0.6314
996.50 0.6313
996.60 0.6311
996.70 0.631
996.80 0.6309
996.90 0.6308
997.00 0.6307
997.10 0.6306
997.20 0.6305
997.30 0.6303
997.40 0.6302
997.50 0.6301
997.60 0.63
997.70 0.6299
997.80 0.6298
997.90 0.6297
998.00 0.6296
998.10 0.6294
998.20 0.6293
998.30 0.6292
998.40 0.6291
998.50 0.629
998.60 0.6289
998.70 0.6288
998.80 0.6287
998.90 0.6286
999.00 0.6284
999.10 0.6283
999.20 0.6282
999.30 0.6281
999.40 0.628
999.50 0.6279
999.60 0.6278
999.70 0.6277
999.80 0.6275
999.90 0.6274
1000.00 0.6273
1000.10 0.6272
1000.20 0.6271
1000.30 0.627
1000.40 0.6269
1000.50 0.6268
1000.60 0.6266
1000.70 0.6265
1000.80 0.6264
1000.90 0.6263
1001.00 0.6262
1001.10 0.6261
1001.20 0.626
1001.30 0.6259
1001.40 0.6257
1001.50 0.6256
1001.60 0.6255
1001.70 0.6254
1001.80 0.6253
1001.90 0.6252
1002.00 0.6251
1002.10 0.625
1002.20 0.6248
1002.30 0.6247
1002.40 0.6246
1002.50 0.6245
1002.60 0.6244
1002.70 0.6243
1002.80 0.6242
1002.90 0.6241
1003.00 0.624
1003.10 0.6238
1003.20 0.6237
1003.30 0.6236
1003.40 0.6235
1003.50 0.6234
1003.60 0.6233
1003.70 0.6232
1003.80 0.6231
1003.90 0.6229
1004.00 0.6228
1004.10 0.6227
1004.20 0.6226
1004.30 0.6225
1004.40 0.6224
1004.50 0.6223
1004.60 0.6222
1004.70 0.6221
1004.80 0.6219
1004.90 0.6218
1005.00 0.6217
1005.10 0.6216
1005.20 0.6215
1005.30 0.6214
1005.40 0.6213
1005.50 0.6212
1005.60 0.6211
1005.70 0.6209
1005.80 0.6208
1005.90 0.6207
1006.00 0.6206
1006.10 0.6205
1006.20 0.6204
1006.30 0.6203
1006.40 0.6202
1006.50 0.6201
1006.60 0.6199
1006.70 0.6198
1006.80 0.6197
1006.90 0.6196
1007.00 0.6195
1007.10 0.6194
1007.20 0.6193
1007.30 0.6192
1007.40 0.6191
1007.50 0.6189
1007.60 0.6188
1007.70 0.6187
1007.80 0.6186
1007.90 0.6185
1008.00 0.6184
1008.10 0.6183
1008.20 0.6182
1008.30 0.6181
1008.40 0.6179
1008.50 0.6178
1008.60 0.6177
1008.70 0.6176
1008.80 0.6175
1008.90 0.6174
1009.00 0.6173
1009.10 0.6172
1009.20 0.6171
1009.30 0.617
1009.40 0.6168
1009.50 0.6167
1009.60 0.6166
1009.70 0.6165
1009.80 0.6164
1009.90 0.6163
1010.00 0.6162
1010.10 0.6161
1010.20 0.616
1010.30 0.6158
1010.40 0.6157
1010.50 0.6156
1010.60 0.6155
1010.70 0.6154
1010.80 0.6153
1010.90 0.6152
1011.00 0.6151
1011.10 0.615
1011.20 0.6148
1011.30 0.6147
1011.40 0.6146
1011.50 0.6145
1011.60 0.6144
1011.70 0.6143
1011.80 0.6142
1011.90 0.6141
1012.00 0.614
1012.10 0.6139
1012.20 0.6138
1012.30 0.6136
1012.40 0.6135
1012.50 0.6134
1012.60 0.6133
1012.70 0.6132
1012.80 0.6131
1012.90 0.613
1013.00 0.6129
1013.10 0.6128
1013.20 0.6126
1013.30 0.6125
1013.40 0.6124
1013.50 0.6123
1013.60 0.6122
1013.70 0.6121
1013.80 0.612
1013.90 0.6119
1014.00 0.6118
1014.10 0.6117
1014.20 0.6116
1014.30 0.6114
1014.40 0.6113
1014.50 0.6112
1014.60 0.6111
1014.70 0.611
1014.80 0.6109
1014.90 0.6108
1015.00 0.6107
1015.10 0.6106
1015.20 0.6105
1015.30 0.6103
1015.40 0.6102
1015.50 0.6101
1015.60 0.61
1015.70 0.6099
1015.80 0.6098
1015.90 0.6097
1016.00 0.6096
1016.10 0.6095
1016.20 0.6094
1016.30 0.6092
1016.40 0.6091
1016.50 0.609
1016.60 0.6089
1016.70 0.6088
1016.80 0.6087
1016.90 0.6086
1017.00 0.6085
1017.10 0.6084
1017.20 0.6083
1017.30 0.6082
1017.40 0.608
1017.50 0.6079
1017.60 0.6078
1017.70 0.6077
1017.80 0.6076
1017.90 0.6075
1018.00 0.6074
1018.10 0.6073
1018.20 0.6072
1018.30 0.6071
1018.40 0.6069
1018.50 0.6068
1018.60 0.6067
1018.70 0.6066
1018.80 0.6065
1018.90 0.6064
1019.00 0.6063
1019.10 0.6062
1019.20 0.6061
1019.30 0.606
1019.40 0.6059
1019.50 0.6057
1019.60 0.6056
1019.70 0.6055
1019.80 0.6054
1019.90 0.6053
1020.00 0.6052
1020.10 0.6051
1020.20 0.605
1020.30 0.6049
1020.40 0.6048
1020.50 0.6047
1020.60 0.6045
1020.70 0.6044
1020.80 0.6043
1020.90 0.6042
1021.00 0.6041
1021.10 0.604
1021.20 0.6039
1021.30 0.6038
1021.40 0.6037
1021.50 0.6036
1021.60 0.6035
1021.70 0.6034
1021.80 0.6032
1021.90 0.6031
1022.00 0.603
1022.10 0.6029
1022.20 0.6028
1022.30 0.6027
1022.40 0.6026
1022.50 0.6025
1022.60 0.6024
1022.70 0.6023
1022.80 0.6022
1022.90 0.6021
1023.00 0.6019
1023.10 0.6018
1023.20 0.6017
1023.30 0.6016
1023.40 0.6015
1023.50 0.6014
1023.60 0.6013
1023.70 0.6012
1023.80 0.6011
1023.90 0.601
1024.00 0.6009
1024.10 0.6008
1024.20 0.6006
1024.30 0.6005
1024.40 0.6004
1024.50 0.6003
1024.60 0.6002
1024.70 0.6001
1024.80 0.6
1024.90 0.5999
1025.00 0.5998
1025.10 0.5997
1025.20 0.5996
1025.30 0.5995
1025.40 0.5994
1025.50 0.5992
1025.60 0.5991
1025.70 0.599
1025.80 0.5989
1025.90 0.5988
1026.00 0.5987
1026.10 0.5986
1026.20 0.5985
1026.30 0.5984
1026.40 0.5983
1026.50 0.5982
1026.60 0.5981
1026.70 0.598
1026.80 0.5978
1026.90 0.5977
1027.00 0.5976
1027.10 0.5975
1027.20 0.5974
1027.30 0.5973
1027.40 0.5972
1027.50 0.5971
1027.60 0.597
1027.70 0.5969
1027.80 0.5968
1027.90 0.5967
1028.00 0.5966
1028.10 0.5964
1028.20 0.5963
1028.30 0.5962
1028.40 0.5961
1028.50 0.596
1028.60 0.5959
1028.70 0.5958
1028.80 0.5957
1028.90 0.5956
1029.00 0.5955
1029.10 0.5954
1029.20 0.5953
1029.30 0.5952
1029.40 0.5951
1029.50 0.5949
1029.60 0.5948
1029.70 0.5947
1029.80 0.5946
1029.90 0.5945
1030.00 0.5944
1030.10 0.5943
1030.20 0.5942
1030.30 0.5941
1030.40 0.594
1030.50 0.5939
1030.60 0.5938
1030.70 0.5937
1030.80 0.5936
1030.90 0.5934
1031.00 0.5933
1031.10 0.5932
1031.20 0.5931
1031.30 0.593
1031.40 0.5929
1031.50 0.5928
1031.60 0.5927
1031.70 0.5926
1031.80 0.5925
1031.90 0.5924
1032.00 0.5923
1032.10 0.5922
1032.20 0.5921
1032.30 0.592
1032.40 0.5918
1032.50 0.5917
1032.60 0.5916
1032.70 0.5915
1032.80 0.5914
1032.90 0.5913
1033.00 0.5912
1033.10 0.5911
1033.20 0.591
1033.30 0.5909
1033.40 0.5908
1033.50 0.5907
1033.60 0.5906
1033.70 0.5905
1033.80 0.5904
1033.90 0.5902
1034.00 0.5901
1034.10 0.59
1034.20 0.5899
1034.30 0.5898
1034.40 0.5897
1034.50 0.5896
1034.60 0.5895
1034.70 0.5894
1034.80 0.5893
1034.90 0.5892
1035.00 0.5891
1035.10 0.589
1035.20 0.5889
1035.30 0.5888
1035.40 0.5886
1035.50 0.5885
1035.60 0.5884
1035.70 0.5883
1035.80 0.5882
1035.90 0.5881
1036.00 0.588
1036.10 0.5879
1036.20 0.5878
1036.30 0.5877
1036.40 0.5876
1036.50 0.5875
1036.60 0.5874
1036.70 0.5873
1036.80 0.5872
1036.90 0.5871
1037.00 0.587
1037.10 0.5868
1037.20 0.5867
1037.30 0.5866
1037.40 0.5865
1037.50 0.5864
1037.60 0.5863
1037.70 0.5862
1037.80 0.5861
1037.90 0.586
1038.00 0.5859
1038.10 0.5858
1038.20 0.5857
1038.30 0.5856
1038.40 0.5855
1038.50 0.5854
1038.60 0.5853
1038.70 0.5852
1038.80 0.5851
1038.90 0.5849
1039.00 0.5848
1039.10 0.5847
1039.20 0.5846
1039.30 0.5845
1039.40 0.5844
1039.50 0.5843
1039.60 0.5842
1039.70 0.5841
1039.80 0.584
1039.90 0.5839
1040.00 0.5838
1040.10 0.5837
1040.20 0.5836
1040.30 0.5835
1040.40 0.5834
1040.50 0.5833
1040.60 0.5832
1040.70 0.5831
1040.80 0.583
1040.90 0.5828
1041.00 0.5827
1041.10 0.5826
1041.20 0.5825
1041.30 0.5824
1041.40 0.5823
1041.50 0.5822
1041.60 0.5821
1041.70 0.582
1041.80 0.5819
1041.90 0.5818
1042.00 0.5817
1042.10 0.5816
1042.20 0.5815
1042.30 0.5814
1042.40 0.5813
1042.50 0.5812
1042.60 0.5811
1042.70 0.581
1042.80 0.5809
1042.90 0.5808
1043.00 0.5807
1043.10 0.5805
1043.20 0.5804
1043.30 0.5803
1043.40 0.5802
1043.50 0.5801
1043.60 0.58
1043.70 0.5799
1043.80 0.5798
1043.90 0.5797
1044.00 0.5796
1044.10 0.5795
1044.20 0.5794
1044.30 0.5793
1044.40 0.5792
1044.50 0.5791
1044.60 0.579
1044.70 0.5789
1044.80 0.5788
1044.90 0.5787
1045.00 0.5786
1045.10 0.5785
1045.20 0.5784
1045.30 0.5782
1045.40 0.5781
1045.50 0.578
1045.60 0.5779
1045.70 0.5778
1045.80 0.5777
1045.90 0.5776
1046.00 0.5775
1046.10 0.5774
1046.20 0.5773
1046.30 0.5772
1046.40 0.5771
1046.50 0.577
1046.60 0.5769
1046.70 0.5768
1046.80 0.5767
1046.90 0.5766
1047.00 0.5765
1047.10 0.5764
1047.20 0.5763
1047.30 0.5762
1047.40 0.5761
1047.50 0.576
1047.60 0.5759
1047.70 0.5758
1047.80 0.5756
1047.90 0.5755
1048.00 0.5754
1048.10 0.5753
1048.20 0.5752
1048.30 0.5751
1048.40 0.575
1048.50 0.5749
1048.60 0.5748
1048.70 0.5747
1048.80 0.5746
1048.90 0.5745
1049.00 0.5744
1049.10 0.5743
1049.20 0.5742
1049.30 0.5741
1049.40 0.574
1049.50 0.5739
1049.60 0.5738
1049.70 0.5737
1049.80 0.5736
1049.90 0.5735
1050.00 0.5734
1050.10 0.5733
1050.20 0.5732
1050.30 0.5731
1050.40 0.573
1050.50 0.5728
1050.60 0.5727
1050.70 0.5726
1050.80 0.5725
1050.90 0.5724
1051.00 0.5723
1051.10 0.5722
1051.20 0.5721
1051.30 0.572
1051.40 0.5719
1051.50 0.5718
1051.60 0.5717
1051.70 0.5716
1051.80 0.5715
1051.90 0.5714
1052.00 0.5713
1052.10 0.5712
1052.20 0.5711
1052.30 0.571
1052.40 0.5709
1052.50 0.5708
1052.60 0.5707
1052.70 0.5706
1052.80 0.5705
1052.90 0.5704
1053.00 0.5703
1053.10 0.5702
1053.20 0.5701
1053.30 0.57
1053.40 0.5699
1053.50 0.5698
1053.60 0.5697
1053.70 0.5696
1053.80 0.5695
1053.90 0.5693
1054.00 0.5692
1054.10 0.5691
1054.20 0.569
1054.30 0.5689
1054.40 0.5688
1054.50 0.5687
1054.60 0.5686
1054.70 0.5685
1054.80 0.5684
1054.90 0.5683
1055.00 0.5682
1055.10 0.5681
1055.20 0.568
1055.30 0.5679
1055.40 0.5678
1055.50 0.5677
1055.60 0.5676
1055.70 0.5675
1055.80 0.5674
1055.90 0.5673
1056.00 0.5672
1056.10 0.5671
1056.20 0.567
1056.30 0.5669
1056.40 0.5668
1056.50 0.5667
1056.60 0.5666
1056.70 0.5665
1056.80 0.5664
1056.90 0.5663
1057.00 0.5662
1057.10 0.5661
1057.20 0.566
1057.30 0.5659
1057.40 0.5658
1057.50 0.5657
1057.60 0.5656
1057.70 0.5655
1057.80 0.5654
1057.90 0.5653
1058.00 0.5652
1058.10 0.5651
1058.20 0.565
1058.30 0.5649
1058.40 0.5648
1058.50 0.5647
1058.60 0.5646
1058.70 0.5645
1058.80 0.5644
1058.90 0.5642
1059.00 0.5641
1059.10 0.564
1059.20 0.5639
1059.30 0.5638
1059.40 0.5637
1059.50 0.5636
1059.60 0.5635
1059.70 0.5634
1059.80 0.5633
1059.90 0.5632
1060.00 0.5631
1060.10 0.563
1060.20 0.5629
1060.30 0.5628
1060.40 0.5627
1060.50 0.5626
1060.60 0.5625
1060.70 0.5624
1060.80 0.5623
1060.90 0.5622
1061.00 0.5621
1061.10 0.562
1061.20 0.5619
1061.30 0.5618
1061.40 0.5617
1061.50 0.5616
1061.60 0.5615
1061.70 0.5614
1061.80 0.5613
1061.90 0.5612
1062.00 0.5611
1062.10 0.561
1062.20 0.5609
1062.30 0.5608
1062.40 0.5607
1062.50 0.5606
1062.60 0.5605
1062.70 0.5604
1062.80 0.5603
1062.90 0.5602
1063.00 0.5601
1063.10 0.56
1063.20 0.5599
1063.30 0.5598
1063.40 0.5597
1063.50 0.5596
1063.60 0.5595
1063.70 0.5594
1063.80 0.5593
1063.90 0.5592
1064.00 0.5591
1064.10 0.559
1064.20 0.5589
1064.30 0.5588
1064.40 0.5587
1064.50 0.5586
1064.60 0.5585
1064.70 0.5584
1064.80 0.5583
1064.90 0.5582
1065.00 0.5581
1065.10 0.558
1065.20 0.5579
1065.30 0.5578
1065.40 0.5577
1065.50 0.5576
1065.60 0.5575
1065.70 0.5574
1065.80 0.5573
1065.90 0.5572
1066.00 0.5571
1066.10 0.557
1066.20 0.5569
1066.30 0.5568
1066.40 0.5567
1066.50 0.5566
1066.60 0.5565
1066.70 0.5564
1066.80 0.5563
1066.90 0.5562
1067.00 0.5561
1067.10 0.556
1067.20 0.5559
1067.30 0.5558
1067.40 0.5557
1067.50 0.5556
1067.60 0.5555
1067.70 0.5554
1067.80 0.5553
1067.90 0.5552
1068.00 0.5551
1068.10 0.555
1068.20 0.5549
1068.30 0.5548
1068.40 0.5547
1068.50 0.5546
1068.60 0.5545
1068.70 0.5544
1068.80 0.5543
1068.90 0.5542
1069.00 0.5541
1069.10 0.554
1069.20 0.5539
1069.30 0.5538
1069.40 0.5537
1069.50 0.5536
1069.60 0.5535
1069.70 0.5534
1069.80 0.5533
1069.90 0.5532
1070.00 0.5531
1070.10 0.553
1070.20 0.5529
1070.30 0.5528
1070.40 0.5527
1070.50 0.5526
1070.60 0.5525
1070.70 0.5524
1070.80 0.5523
1070.90 0.5522
1071.00 0.5521
1071.10 0.552
1071.20 0.5519
1071.30 0.5518
1071.40 0.5517
1071.50 0.5516
1071.60 0.5515
1071.70 0.5514
1071.80 0.5513
1071.90 0.5512
1072.00 0.5511
1072.10 0.551
1072.20 0.5509
1072.30 0.5508
1072.40 0.5507
1072.50 0.5506
1072.60 0.5505
1072.70 0.5504
1072.80 0.5503
1072.90 0.5502
1073.00 0.5501
1073.10 0.55
1073.20 0.5499
1073.30 0.5498
1073.40 0.5497
1073.50 0.5496
1073.60 0.5495
1073.70 0.5494
1073.80 0.5493
1073.90 0.5492
1074.00 0.5491
1074.10 0.549
1074.20 0.5489
1074.30 0.5488
1074.40 0.5487
1074.50 0.5486
1074.60 0.5485
1074.70 0.5484
1074.80 0.5483
1074.90 0.5482
1075.00 0.5481
1075.10 0.548
1075.20 0.5479
1075.30 0.5478
1075.40 0.5477
1075.50 0.5476
1075.60 0.5475
1075.70 0.5474
1075.80 0.5473
1075.90 0.5472
1076.00 0.5471
1076.10 0.5471
1076.20 0.547
1076.30 0.5469
1076.40 0.5468
1076.50 0.5467
1076.60 0.5466
1076.70 0.5465
1076.80 0.5464
1076.90 0.5463
1077.00 0.5462
1077.10 0.5461
1077.20 0.546
1077.30 0.5459
1077.40 0.5458
1077.50 0.5457
1077.60 0.5456
1077.70 0.5455
1077.80 0.5454
1077.90 0.5453
1078.00 0.5452
1078.10 0.5451
1078.20 0.545
1078.30 0.5449
1078.40 0.5448
1078.50 0.5447
1078.60 0.5446
1078.70 0.5445
1078.80 0.5444
1078.90 0.5443
1079.00 0.5442
1079.10 0.5441
1079.20 0.544
1079.30 0.5439
1079.40 0.5438
1079.50 0.5437
1079.60 0.5436
1079.70 0.5435
1079.80 0.5434
1079.90 0.5433
1080.00 0.5432
1080.10 0.5431
1080.20 0.543
1080.30 0.5429
1080.40 0.5428
1080.50 0.5427
1080.60 0.5426
1080.70 0.5425
1080.80 0.5425
1080.90 0.5424
1081.00 0.5423
1081.10 0.5422
1081.20 0.5421
1081.30 0.542
1081.40 0.5419
1081.50 0.5418
1081.60 0.5417
1081.70 0.5416
1081.80 0.5415
1081.90 0.5414
1082.00 0.5413
1082.10 0.5412
1082.20 0.5411
1082.30 0.541
1082.40 0.5409
1082.50 0.5408
1082.60 0.5407
1082.70 0.5406
1082.80 0.5405
1082.90 0.5404
1083.00 0.5403
1083.10 0.5402
1083.20 0.5401
1083.30 0.54
1083.40 0.5399
1083.50 0.5398
1083.60 0.5397
1083.70 0.5396
1083.80 0.5395
1083.90 0.5394
1084.00 0.5393
1084.10 0.5392
1084.20 0.5391
1084.30 0.539
1084.40 0.539
1084.50 0.5389
1084.60 0.5388
1084.70 0.5387
1084.80 0.5386
1084.90 0.5385
1085.00 0.5384
1085.10 0.5383
1085.20 0.5382
1085.30 0.5381
1085.40 0.538
1085.50 0.5379
1085.60 0.5378
1085.70 0.5377
1085.80 0.5376
1085.90 0.5375
1086.00 0.5374
1086.10 0.5373
1086.20 0.5372
1086.30 0.5371
1086.40 0.537
1086.50 0.5369
1086.60 0.5368
1086.70 0.5367
1086.80 0.5366
1086.90 0.5365
1087.00 0.5364
1087.10 0.5363
1087.20 0.5362
1087.30 0.5361
1087.40 0.536
1087.50 0.5359
1087.60 0.5359
1087.70 0.5358
1087.80 0.5357
1087.90 0.5356
1088.00 0.5355
1088.10 0.5354
1088.20 0.5353
1088.30 0.5352
1088.40 0.5351
1088.50 0.535
1088.60 0.5349
1088.70 0.5348
1088.80 0.5347
1088.90 0.5346
1089.00 0.5345
1089.10 0.5344
1089.20 0.5343
1089.30 0.5342
1089.40 0.5341
1089.50 0.534
1089.60 0.5339
1089.70 0.5338
1089.80 0.5337
1089.90 0.5336
1090.00 0.5335
1090.10 0.5335
1090.20 0.5334
1090.30 0.5333
1090.40 0.5332
1090.50 0.5331
1090.60 0.533
1090.70 0.5329
1090.80 0.5328
1090.90 0.5327
1091.00 0.5326
1091.10 0.5325
1091.20 0.5324
1091.30 0.5323
1091.40 0.5322
1091.50 0.5321
1091.60 0.532
1091.70 0.5319
1091.80 0.5318
1091.90 0.5317
1092.00 0.5316
1092.10 0.5315
1092.20 0.5314
1092.30 0.5314
1092.40 0.5313
1092.50 0.5312
1092.60 0.5311
1092.70 0.531
1092.80 0.5309
1092.90 0.5308
1093.00 0.5307
1093.10 0.5306
1093.20 0.5305
1093.30 0.5304
1093.40 0.5303
1093.50 0.5302
1093.60 0.5301
1093.70 0.53
1093.80 0.5299
1093.90 0.5298
1094.00 0.5297
1094.10 0.5296
1094.20 0.5295
1094.30 0.5294
1094.40 0.5293
1094.50 0.5292
1094.60 0.5292
1094.70 0.5291
1094.80 0.529
1094.90 0.5289
1095.00 0.5288
1095.10 0.5287
1095.20 0.5286
1095.30 0.5285
1095.40 0.5284
1095.50 0.5283
1095.60 0.5282
1095.70 0.5281
1095.80 0.528
1095.90 0.5279
1096.00 0.5278
1096.10 0.5277
1096.20 0.5276
1096.30 0.5275
1096.40 0.5274
1096.50 0.5273
1096.60 0.5273
1096.70 0.5272
1096.80 0.5271
1096.90 0.527
1097.00 0.5269
1097.10 0.5268
1097.20 0.5267
1097.30 0.5266
1097.40 0.5265
1097.50 0.5264
1097.60 0.5263
1097.70 0.5262
1097.80 0.5261
1097.90 0.526
1098.00 0.5259
1098.10 0.5258
1098.20 0.5257
1098.30 0.5256
1098.40 0.5256
1098.50 0.5255
1098.60 0.5254
1098.70 0.5253
1098.80 0.5252
1098.90 0.5251
1099.00 0.525
1099.10 0.5249
1099.20 0.5248
1099.30 0.5247
1099.40 0.5246
1099.50 0.5245
1099.60 0.5244
1099.70 0.5243
1099.80 0.5242
1099.90 0.5241
1100.00 0.524
1100.10 0.5239
1100.20 0.5239
1100.30 0.5238
1100.40 0.5237
1100.50 0.5236
1100.60 0.5235
1100.70 0.5234
1100.80 0.5233
1100.90 0.5232
1101.00 0.5231
1101.10 0.523
1101.20 0.5229
1101.30 0.5228
1101.40 0.5227
1101.50 0.5226
1101.60 0.5225
1101.70 0.5224
1101.80 0.5223
1101.90 0.5223
1102.00 0.5222
1102.10 0.5221
1102.20 0.522
1102.30 0.5219
1102.40 0.5218
1102.50 0.5217
1102.60 0.5216
1102.70 0.5215
1102.80 0.5214
1102.90 0.5213
1103.00 0.5212
1103.10 0.5211
1103.20 0.521
1103.30 0.5209
1103.40 0.5208
1103.50 0.5208
1103.60 0.5207
1103.70 0.5206
1103.80 0.5205
1103.90 0.5204
1104.00 0.5203
1104.10 0.5202
1104.20 0.5201
1104.30 0.52
1104.40 0.5199
1104.50 0.5198
1104.60 0.5197
1104.70 0.5196
1104.80 0.5195
1104.90 0.5194
1105.00 0.5194
1105.10 0.5193
1105.20 0.5192
1105.30 0.5191
1105.40 0.519
1105.50 0.5189
1105.60 0.5188
1105.70 0.5187
1105.80 0.5186
1105.90 0.5185
1106.00 0.5184
1106.10 0.5183
1106.20 0.5182
1106.30 0.5181
1106.40 0.518
1106.50 0.518
1106.60 0.5179
1106.70 0.5178
1106.80 0.5177
1106.90 0.5176
1107.00 0.5175
1107.10 0.5174
1107.20 0.5173
1107.30 0.5172
1107.40 0.5171
1107.50 0.517
1107.60 0.5169
1107.70 0.5168
1107.80 0.5167
1107.90 0.5167
1108.00 0.5166
1108.10 0.5165
1108.20 0.5164
1108.30 0.5163
1108.40 0.5162
1108.50 0.5161
1108.60 0.516
1108.70 0.5159
1108.80 0.5158
1108.90 0.5157
1109.00 0.5156
1109.10 0.5155
1109.20 0.5154
1109.30 0.5153
1109.40 0.5153
1109.50 0.5152
1109.60 0.5151
1109.70 0.515
1109.80 0.5149
1109.90 0.5148
1110.00 0.5147
1110.10 0.5146
1110.20 0.5145
1110.30 0.5144
1110.40 0.5143
1110.50 0.5142
1110.60 0.5141
1110.70 0.5141
1110.80 0.514
1110.90 0.5139
1111.00 0.5138
1111.10 0.5137
1111.20 0.5136
1111.30 0.5135
1111.40 0.5134
1111.50 0.5133
1111.60 0.5132
1111.70 0.5131
1111.80 0.513
1111.90 0.513
1112.00 0.5129
1112.10 0.5128
1112.20 0.5127
1112.30 0.5126
1112.40 0.5125
1112.50 0.5124
1112.60 0.5123
1112.70 0.5122
1112.80 0.5121
1112.90 0.512
1113.00 0.5119
1113.10 0.5118
1113.20 0.5118
1113.30 0.5117
1113.40 0.5116
1113.50 0.5115
1113.60 0.5114
1113.70 0.5113
1113.80 0.5112
1113.90 0.5111
1114.00 0.511
1114.10 0.5109
1114.20 0.5108
1114.30 0.5107
1114.40 0.5107
1114.50 0.5106
1114.60 0.5105
1114.70 0.5104
1114.80 0.5103
1114.90 0.5102
1115.00 0.5101
1115.10 0.51
1115.20 0.5099
1115.30 0.5098
1115.40 0.5097
1115.50 0.5096
1115.60 0.5095
1115.70 0.5095
1115.80 0.5094
1115.90 0.5093
1116.00 0.5092
1116.10 0.5091
1116.20 0.509
1116.30 0.5089
1116.40 0.5088
1116.50 0.5087
1116.60 0.5086
1116.70 0.5085
1116.80 0.5085
1116.90 0.5084
1117.00 0.5083
1117.10 0.5082
1117.20 0.5081
1117.30 0.508
1117.40 0.5079
1117.50 0.5078
1117.60 0.5077
1117.70 0.5076
1117.80 0.5075
1117.90 0.5074
1118.00 0.5074
1118.10 0.5073
1118.20 0.5072
1118.30 0.5071
1118.40 0.507
1118.50 0.5069
1118.60 0.5068
1118.70 0.5067
1118.80 0.5066
1118.90 0.5065
1119.00 0.5064
1119.10 0.5064
1119.20 0.5063
1119.30 0.5062
1119.40 0.5061
1119.50 0.506
1119.60 0.5059
1119.70 0.5058
1119.80 0.5057
1119.90 0.5056
1120.00 0.5055
1120.10 0.5054
1120.20 0.5054
1120.30 0.5053
1120.40 0.5052
1120.50 0.5051
1120.60 0.505
1120.70 0.5049
1120.80 0.5048
1120.90 0.5047
1121.00 0.5046
1121.10 0.5045
1121.20 0.5044
1121.30 0.5044
1121.40 0.5043
1121.50 0.5042
1121.60 0.5041
1121.70 0.504
1121.80 0.5039
1121.90 0.5038
1122.00 0.5037
1122.10 0.5036
1122.20 0.5035
1122.30 0.5034
1122.40 0.5034
1122.50 0.5033
1122.60 0.5032
1122.70 0.5031
1122.80 0.503
1122.90 0.5029
1123.00 0.5028
1123.10 0.5027
1123.20 0.5026
1123.30 0.5025
1123.40 0.5025
1123.50 0.5024
1123.60 0.5023
1123.70 0.5022
1123.80 0.5021
1123.90 0.502
1124.00 0.5019
1124.10 0.5018
1124.20 0.5017
1124.30 0.5016
1124.40 0.5016
1124.50 0.5015
1124.60 0.5014
1124.70 0.5013
1124.80 0.5012
1124.90 0.5011
1125.00 0.501
1125.10 0.5009
1125.20 0.5008
1125.30 0.5007
1125.40 0.5007
1125.50 0.5006
1125.60 0.5005
1125.70 0.5004
1125.80 0.5003
1125.90 0.5002
1126.00 0.5001
1126.10 0.5
1126.20 0.4999
1126.30 0.4998
1126.40 0.4998
1126.50 0.4997
1126.60 0.4996
1126.70 0.4995
1126.80 0.4994
1126.90 0.4993
1127.00 0.4992
1127.10 0.4991
1127.20 0.499
1127.30 0.4989
1127.40 0.4989
1127.50 0.4988
1127.60 0.4987
1127.70 0.4986
1127.80 0.4985
1127.90 0.4984
1128.00 0.4983
1128.10 0.4982
1128.20 0.4981
1128.30 0.4981
1128.40 0.498
1128.50 0.4979
1128.60 0.4978
1128.70 0.4977
1128.80 0.4976
1128.90 0.4975
1129.00 0.4974
1129.10 0.4973
1129.20 0.4972
1129.30 0.4972
1129.40 0.4971
1129.50 0.497
1129.60 0.4969
1129.70 0.4968
1129.80 0.4967
1129.90 0.4966
1130.00 0.4965
1130.10 0.4964
1130.20 0.4964
1130.30 0.4963
1130.40 0.4962
1130.50 0.4961
1130.60 0.496
1130.70 0.4959
1130.80 0.4958
1130.90 0.4957
1131.00 0.4956
1131.10 0.4955
1131.20 0.4955
1131.30 0.4954
1131.40 0.4953
1131.50 0.4952
1131.60 0.4951
1131.70 0.495
1131.80 0.4949
1131.90 0.4948
1132.00 0.4947
1132.10 0.4947
1132.20 0.4946
1132.30 0.4945
1132.40 0.4944
1132.50 0.4943
1132.60 0.4942
1132.70 0.4941
1132.80 0.494
1132.90 0.4939
1133.00 0.4939
1133.10 0.4938
1133.20 0.4937
1133.30 0.4936
1133.40 0.4935
1133.50 0.4934
1133.60 0.4933
1133.70 0.4932
1133.80 0.4932
1133.90 0.4931
1134.00 0.493
1134.10 0.4929
1134.20 0.4928
1134.30 0.4927
1134.40 0.4926
1134.50 0.4925
1134.60 0.4924
1134.70 0.4924
1134.80 0.4923
1134.90 0.4922
1135.00 0.4921
1135.10 0.492
1135.20 0.4919
1135.30 0.4918
1135.40 0.4917
1135.50 0.4916
1135.60 0.4916
1135.70 0.4915
1135.80 0.4914
1135.90 0.4913
1136.00 0.4912
1136.10 0.4911
1136.20 0.491
1136.30 0.4909
1136.40 0.4909
1136.50 0.4908
1136.60 0.4907
1136.70 0.4906
1136.80 0.4905
1136.90 0.4904
1137.00 0.4903
1137.10 0.4902
1137.20 0.4902
1137.30 0.4901
1137.40 0.49
1137.50 0.4899
1137.60 0.4898
1137.70 0.4897
1137.80 0.4896
1137.90 0.4895
1138.00 0.4894
1138.10 0.4894
1138.20 0.4893
1138.30 0.4892
1138.40 0.4891
1138.50 0.489
1138.60 0.4889
1138.70 0.4888
1138.80 0.4887
1138.90 0.4887
1139.00 0.4886
1139.10 0.4885
1139.20 0.4884
1139.30 0.4883
1139.40 0.4882
1139.50 0.4881
1139.60 0.488
1139.70 0.488
1139.80 0.4879
1139.90 0.4878
1140.00 0.4877
1140.10 0.4876
1140.20 0.4875
1140.30 0.4874
1140.40 0.4873
1140.50 0.4872
1140.60 0.4872
1140.70 0.4871
1140.80 0.487
1140.90 0.4869
1141.00 0.4868
1141.10 0.4867
1141.20 0.4866
1141.30 0.4865
1141.40 0.4865
1141.50 0.4864
1141.60 0.4863
1141.70 0.4862
1141.80 0.4861
1141.90 0.486
1142.00 0.4859
1142.10 0.4858
1142.20 0.4858
1142.30 0.4857
1142.40 0.4856
1142.50 0.4855
1142.60 0.4854
1142.70 0.4853
1142.80 0.4852
1142.90 0.4852
1143.00 0.4851
1143.10 0.485
1143.20 0.4849
1143.30 0.4848
1143.40 0.4847
1143.50 0.4846
1143.60 0.4845
1143.70 0.4845
1143.80 0.4844
1143.90 0.4843
1144.00 0.4842
1144.10 0.4841
1144.20 0.484
1144.30 0.4839
1144.40 0.4838
1144.50 0.4838
1144.60 0.4837
1144.70 0.4836
1144.80 0.4835
1144.90 0.4834
1145.00 0.4833
1145.10 0.4832
1145.20 0.4832
1145.30 0.4831
1145.40 0.483
1145.50 0.4829
1145.60 0.4828
1145.70 0.4827
1145.80 0.4826
1145.90 0.4825
1146.00 0.4825
1146.10 0.4824
1146.20 0.4823
1146.30 0.4822
1146.40 0.4821
1146.50 0.482
1146.60 0.4819
1146.70 0.4819
1146.80 0.4818
1146.90 0.4817
1147.00 0.4816
1147.10 0.4815
1147.20 0.4814
1147.30 0.4813
1147.40 0.4812
1147.50 0.4812
1147.60 0.4811
1147.70 0.481
1147.80 0.4809
1147.90 0.4808
1148.00 0.4807
1148.10 0.4806
1148.20 0.4806
1148.30 0.4805
1148.40 0.4804
1148.50 0.4803
1148.60 0.4802
1148.70 0.4801
1148.80 0.48
1148.90 0.4799
1149.00 0.4799
1149.10 0.4798
1149.20 0.4797
1149.30 0.4796
1149.40 0.4795
1149.50 0.4794
1149.60 0.4793
1149.70 0.4793
1149.80 0.4792
1149.90 0.4791
1150.00 0.479
1150.10 0.4789
1150.20 0.4788
1150.30 0.4787
1150.40 0.4787
1150.50 0.4786
1150.60 0.4785
1150.70 0.4784
1150.80 0.4783
1150.90 0.4782
1151.00 0.4781
1151.10 0.4781
1151.20 0.478
1151.30 0.4779
1151.40 0.4778
1151.50 0.4777
1151.60 0.4776
1151.70 0.4775
1151.80 0.4774
1151.90 0.4774
1152.00 0.4773
1152.10 0.4772
1152.20 0.4771
1152.30 0.477
1152.40 0.4769
1152.50 0.4768
1152.60 0.4768
1152.70 0.4767
1152.80 0.4766
1152.90 0.4765
1153.00 0.4764
1153.10 0.4763
1153.20 0.4762
1153.30 0.4762
1153.40 0.4761
1153.50 0.476
1153.60 0.4759
1153.70 0.4758
1153.80 0.4757
1153.90 0.4756
1154.00 0.4756
1154.10 0.4755
1154.20 0.4754
1154.30 0.4753
1154.40 0.4752
1154.50 0.4751
1154.60 0.4751
1154.70 0.475
1154.80 0.4749
1154.90 0.4748
1155.00 0.4747
1155.10 0.4746
1155.20 0.4745
1155.30 0.4745
1155.40 0.4744
1155.50 0.4743
1155.60 0.4742
1155.70 0.4741
1155.80 0.474
1155.90 0.4739
1156.00 0.4739
1156.10 0.4738
1156.20 0.4737
1156.30 0.4736
1156.40 0.4735
1156.50 0.4734
1156.60 0.4733
1156.70 0.4733
1156.80 0.4732
1156.90 0.4731
1157.00 0.473
1157.10 0.4729
1157.20 0.4728
1157.30 0.4728
1157.40 0.4727
1157.50 0.4726
1157.60 0.4725
1157.70 0.4724
1157.80 0.4723
1157.90 0.4722
1158.00 0.4722
1158.10 0.4721
1158.20 0.472
1158.30 0.4719
1158.40 0.4718
1158.50 0.4717
1158.60 0.4716
1158.70 0.4716
1158.80 0.4715
1158.90 0.4714
1159.00 0.4713
1159.10 0.4712
1159.20 0.4711
1159.30 0.4711
1159.40 0.471
1159.50 0.4709
1159.60 0.4708
1159.70 0.4707
1159.80 0.4706
1159.90 0.4705
1160.00 0.4705
1160.10 0.4704
1160.20 0.4703
1160.30 0.4702
1160.40 0.4701
1160.50 0.47
1160.60 0.47
1160.70 0.4699
1160.80 0.4698
1160.90 0.4697
1161.00 0.4696
1161.10 0.4695
1161.20 0.4694
1161.30 0.4694
1161.40 0.4693
1161.50 0.4692
1161.60 0.4691
1161.70 0.469
1161.80 0.4689
1161.90 0.4689
1162.00 0.4688
1162.10 0.4687
1162.20 0.4686
1162.30 0.4685
1162.40 0.4684
1162.50 0.4683
1162.60 0.4683
1162.70 0.4682
1162.80 0.4681
1162.90 0.468
1163.00 0.4679
1163.10 0.4678
1163.20 0.4678
1163.30 0.4677
1163.40 0.4676
1163.50 0.4675
1163.60 0.4674
1163.70 0.4673
1163.80 0.4673
1163.90 0.4672
1164.00 0.4671
1164.10 0.467
1164.20 0.4669
1164.30 0.4668
1164.40 0.4667
1164.50 0.4667
1164.60 0.4666
1164.70 0.4665
1164.80 0.4664
1164.90 0.4663
1165.00 0.4662
1165.10 0.4662
1165.20 0.4661
1165.30 0.466
1165.40 0.4659
1165.50 0.4658
1165.60 0.4657
1165.70 0.4657
1165.80 0.4656
1165.90 0.4655
1166.00 0.4654
1166.10 0.4653
1166.20 0.4652
1166.30 0.4652
1166.40 0.4651
1166.50 0.465
1166.60 0.4649
1166.70 0.4648
1166.80 0.4647
1166.90 0.4647
1167.00 0.4646
1167.10 0.4645
1167.20 0.4644
1167.30 0.4643
1167.40 0.4642
1167.50 0.4642
1167.60 0.4641
1167.70 0.464
1167.80 0.4639
1167.90 0.4638
1168.00 0.4637
1168.10 0.4637
1168.20 0.4636
1168.30 0.4635
1168.40 0.4634
1168.50 0.4633
1168.60 0.4632
1168.70 0.4632
1168.80 0.4631
1168.90 0.463
1169.00 0.4629
1169.10 0.4628
1169.20 0.4627
1169.30 0.4627
1169.40 0.4626
1169.50 0.4625
1169.60 0.4624
1169.70 0.4623
1169.80 0.4622
1169.90 0.4622
1170.00 0.4621
1170.10 0.462
1170.20 0.4619
1170.30 0.4618
1170.40 0.4617
1170.50 0.4617
1170.60 0.4616
1170.70 0.4615
1170.80 0.4614
1170.90 0.4613
1171.00 0.4612
1171.10 0.4612
1171.20 0.4611
1171.30 0.461
1171.40 0.4609
1171.50 0.4608
1171.60 0.4607
1171.70 0.4607
1171.80 0.4606
1171.90 0.4605
1172.00 0.4604
1172.10 0.4603
1172.20 0.4602
1172.30 0.4602
1172.40 0.4601
1172.50 0.46
1172.60 0.4599
1172.70 0.4598
1172.80 0.4598
1172.90 0.4597
1173.00 0.4596
1173.10 0.4595
1173.20 0.4594
1173.30 0.4593
1173.40 0.4593
1173.50 0.4592
1173.60 0.4591
1173.70 0.459
1173.80 0.4589
1173.90 0.4588
1174.00 0.4588
1174.10 0.4587
1174.20 0.4586
1174.30 0.4585
1174.40 0.4584
1174.50 0.4583
1174.60 0.4583
1174.70 0.4582
1174.80 0.4581
1174.90 0.458
1175.00 0.4579
1175.10 0.4579
1175.20 0.4578
1175.30 0.4577
1175.40 0.4576
1175.50 0.4575
1175.60 0.4574
1175.70 0.4574
1175.80 0.4573
1175.90 0.4572
1176.00 0.4571
1176.10 0.457
1176.20 0.4569
1176.30 0.4569
1176.40 0.4568
1176.50 0.4567
1176.60 0.4566
1176.70 0.4565
1176.80 0.4565
1176.90 0.4564
1177.00 0.4563
1177.10 0.4562
1177.20 0.4561
1177.30 0.456
1177.40 0.456
1177.50 0.4559
1177.60 0.4558
1177.70 0.4557
1177.80 0.4556
1177.90 0.4555
1178.00 0.4555
1178.10 0.4554
1178.20 0.4553
1178.30 0.4552
1178.40 0.4551
1178.50 0.4551
1178.60 0.455
1178.70 0.4549
1178.80 0.4548
1178.90 0.4547
1179.00 0.4546
1179.10 0.4546
1179.20 0.4545
1179.30 0.4544
1179.40 0.4543
1179.50 0.4542
1179.60 0.4542
1179.70 0.4541
1179.80 0.454
1179.90 0.4539
1180.00 0.4538
1180.10 0.4537
1180.20 0.4537
1180.30 0.4536
1180.40 0.4535
1180.50 0.4534
1180.60 0.4533
1180.70 0.4533
1180.80 0.4532
1180.90 0.4531
1181.00 0.453
1181.10 0.4529
1181.20 0.4528
1181.30 0.4528
1181.40 0.4527
1181.50 0.4526
1181.60 0.4525
1181.70 0.4524
1181.80 0.4524
1181.90 0.4523
1182.00 0.4522
1182.10 0.4521
1182.20 0.452
1182.30 0.4519
1182.40 0.4519
1182.50 0.4518
1182.60 0.4517
1182.70 0.4516
1182.80 0.4515
1182.90 0.4515
1183.00 0.4514
1183.10 0.4513
1183.20 0.4512
1183.30 0.4511
1183.40 0.4511
1183.50 0.451
1183.60 0.4509
1183.70 0.4508
1183.80 0.4507
1183.90 0.4506
1184.00 0.4506
1184.10 0.4505
1184.20 0.4504
1184.30 0.4503
1184.40 0.4502
1184.50 0.4502
1184.60 0.4501
1184.70 0.45
1184.80 0.4499
1184.90 0.4498
1185.00 0.4498
1185.10 0.4497
1185.20 0.4496
1185.30 0.4495
1185.40 0.4494
1185.50 0.4494
1185.60 0.4493
1185.70 0.4492
1185.80 0.4491
1185.90 0.449
1186.00 0.449
1186.10 0.4489
1186.20 0.4488
1186.30 0.4487
1186.40 0.4486
1186.50 0.4485
1186.60 0.4485
1186.70 0.4484
1186.80 0.4483
1186.90 0.4482
1187.00 0.4481
1187.10 0.4481
1187.20 0.448
1187.30 0.4479
1187.40 0.4478
1187.50 0.4477
1187.60 0.4477
1187.70 0.4476
1187.80 0.4475
1187.90 0.4474
1188.00 0.4473
1188.10 0.4473
1188.20 0.4472
1188.30 0.4471
1188.40 0.447
1188.50 0.4469
1188.60 0.4469
1188.70 0.4468
1188.80 0.4467
1188.90 0.4466
1189.00 0.4465
1189.10 0.4465
1189.20 0.4464
1189.30 0.4463
1189.40 0.4462
1189.50 0.4461
1189.60 0.446
1189.70 0.446
1189.80 0.4459
1189.90 0.4458
1190.00 0.4457
1190.10 0.4456
1190.20 0.4456
1190.30 0.4455
1190.40 0.4454
1190.50 0.4453
1190.60 0.4452
1190.70 0.4452
1190.80 0.4451
1190.90 0.445
1191.00 0.4449
1191.10 0.4448
1191.20 0.4448
1191.30 0.4447
1191.40 0.4446
1191.50 0.4445
1191.60 0.4444
1191.70 0.4444
1191.80 0.4443
1191.90 0.4442
1192.00 0.4441
1192.10 0.444
1192.20 0.444
1192.30 0.4439
1192.40 0.4438
1192.50 0.4437
1192.60 0.4436
1192.70 0.4436
1192.80 0.4435
1192.90 0.4434
1193.00 0.4433
1193.10 0.4432
1193.20 0.4432
1193.30 0.4431
1193.40 0.443
1193.50 0.4429
1193.60 0.4428
1193.70 0.4428
1193.80 0.4427
1193.90 0.4426
1194.00 0.4425
1194.10 0.4424
1194.20 0.4424
1194.30 0.4423
1194.40 0.4422
1194.50 0.4421
1194.60 0.442
1194.70 0.442
1194.80 0.4419
1194.90 0.4418
1195.00 0.4417
1195.10 0.4416
1195.20 0.4416
1195.30 0.4415
1195.40 0.4414
1195.50 0.4413
1195.60 0.4412
1195.70 0.4412
1195.80 0.4411
1195.90 0.441
1196.00 0.4409
1196.10 0.4409
1196.20 0.4408
1196.30 0.4407
1196.40 0.4406
1196.50 0.4405
1196.60 0.4405
1196.70 0.4404
1196.80 0.4403
1196.90 0.4402
1197.00 0.4401
1197.10 0.4401
1197.20 0.44
1197.30 0.4399
1197.40 0.4398
1197.50 0.4397
1197.60 0.4397
1197.70 0.4396
1197.80 0.4395
1197.90 0.4394
1198.00 0.4393
1198.10 0.4393
1198.20 0.4392
1198.30 0.4391
1198.40 0.439
1198.50 0.4389
1198.60 0.4389
1198.70 0.4388
1198.80 0.4387
1198.90 0.4386
1199.00 0.4386
1199.10 0.4385
1199.20 0.4384
1199.30 0.4383
1199.40 0.4382
1199.50 0.4382
1199.60 0.4381
1199.70 0.438
1199.80 0.4379
1199.90 0.4378
1200.00 0
