# Version 2.1 - nm, norm@500 to 1, cut digits, bergeron_12000_90.dat_12000
# Wavelength(nm)  Flambda(ergs/cm^s/s/nm)
300.00 2.176
300.10 2.175
300.20 2.174
300.30 2.172
300.40 2.171
300.50 2.17
300.60 2.169
300.70 2.167
300.80 2.166
300.90 2.165
301.00 2.164
301.10 2.162
301.20 2.161
301.30 2.16
301.40 2.159
301.50 2.158
301.60 2.156
301.70 2.155
301.80 2.154
301.90 2.153
302.00 2.151
302.10 2.15
302.20 2.149
302.30 2.148
302.40 2.146
302.50 2.145
302.60 2.144
302.70 2.143
302.80 2.141
302.90 2.14
303.00 2.139
303.10 2.138
303.20 2.136
303.30 2.135
303.40 2.134
303.50 2.133
303.60 2.132
303.70 2.13
303.80 2.129
303.90 2.128
304.00 2.127
304.10 2.125
304.20 2.124
304.30 2.123
304.40 2.122
304.50 2.12
304.60 2.119
304.70 2.118
304.80 2.117
304.90 2.116
305.00 2.114
305.10 2.113
305.20 2.112
305.30 2.111
305.40 2.109
305.50 2.108
305.60 2.107
305.70 2.106
305.80 2.105
305.90 2.103
306.00 2.102
306.10 2.101
306.20 2.1
306.30 2.098
306.40 2.097
306.50 2.096
306.60 2.095
306.70 2.094
306.80 2.092
306.90 2.091
307.00 2.09
307.10 2.089
307.20 2.088
307.30 2.086
307.40 2.085
307.50 2.084
307.60 2.083
307.70 2.082
307.80 2.08
307.90 2.079
308.00 2.078
308.10 2.077
308.20 2.076
308.30 2.074
308.40 2.073
308.50 2.072
308.60 2.071
308.70 2.069
308.80 2.068
308.90 2.067
309.00 2.066
309.10 2.065
309.20 2.063
309.30 2.062
309.40 2.061
309.50 2.06
309.60 2.059
309.70 2.058
309.80 2.056
309.90 2.055
310.00 2.054
310.10 2.053
310.20 2.052
310.30 2.05
310.40 2.049
310.50 2.048
310.60 2.047
310.70 2.046
310.80 2.044
310.90 2.043
311.00 2.042
311.10 2.041
311.20 2.04
311.30 2.038
311.40 2.037
311.50 2.036
311.60 2.035
311.70 2.034
311.80 2.033
311.90 2.031
312.00 2.03
312.10 2.029
312.20 2.028
312.30 2.027
312.40 2.025
312.50 2.024
312.60 2.023
312.70 2.022
312.80 2.021
312.90 2.02
313.00 2.018
313.10 2.017
313.20 2.016
313.30 2.015
313.40 2.014
313.50 2.013
313.60 2.011
313.70 2.01
313.80 2.009
313.90 2.008
314.00 2.007
314.10 2.006
314.20 2.004
314.30 2.003
314.40 2.002
314.50 2.001
314.60 2
314.70 1.999
314.80 1.997
314.90 1.996
315.00 1.995
315.10 1.994
315.20 1.993
315.30 1.992
315.40 1.99
315.50 1.989
315.60 1.988
315.70 1.987
315.80 1.986
315.90 1.985
316.00 1.984
316.10 1.982
316.20 1.981
316.30 1.98
316.40 1.979
316.50 1.978
316.60 1.977
316.70 1.975
316.80 1.974
316.90 1.973
317.00 1.972
317.10 1.971
317.20 1.97
317.30 1.969
317.40 1.967
317.50 1.966
317.60 1.965
317.70 1.964
317.80 1.963
317.90 1.962
318.00 1.961
318.10 1.959
318.20 1.958
318.30 1.957
318.40 1.956
318.50 1.955
318.60 1.954
318.70 1.953
318.80 1.951
318.90 1.95
319.00 1.949
319.10 1.948
319.20 1.947
319.30 1.946
319.40 1.945
319.50 1.943
319.60 1.942
319.70 1.941
319.80 1.94
319.90 1.939
320.00 1.938
320.10 1.937
320.20 1.936
320.30 1.934
320.40 1.933
320.50 1.932
320.60 1.931
320.70 1.93
320.80 1.929
320.90 1.928
321.00 1.927
321.10 1.925
321.20 1.924
321.30 1.923
321.40 1.922
321.50 1.921
321.60 1.92
321.70 1.919
321.80 1.918
321.90 1.916
322.00 1.915
322.10 1.914
322.20 1.913
322.30 1.912
322.40 1.911
322.50 1.91
322.60 1.909
322.70 1.908
322.80 1.906
322.90 1.905
323.00 1.904
323.10 1.903
323.20 1.902
323.30 1.901
323.40 1.9
323.50 1.899
323.60 1.898
323.70 1.896
323.80 1.895
323.90 1.894
324.00 1.893
324.10 1.892
324.20 1.891
324.30 1.89
324.40 1.889
324.50 1.888
324.60 1.886
324.70 1.885
324.80 1.884
324.90 1.883
325.00 1.882
325.10 1.881
325.20 1.88
325.30 1.879
325.40 1.878
325.50 1.877
325.60 1.876
325.70 1.874
325.80 1.873
325.90 1.872
326.00 1.871
326.10 1.87
326.20 1.869
326.30 1.868
326.40 1.867
326.50 1.866
326.60 1.865
326.70 1.863
326.80 1.862
326.90 1.861
327.00 1.86
327.10 1.859
327.20 1.858
327.30 1.857
327.40 1.856
327.50 1.855
327.60 1.854
327.70 1.853
327.80 1.852
327.90 1.85
328.00 1.849
328.10 1.848
328.20 1.847
328.30 1.846
328.40 1.845
328.50 1.844
328.60 1.843
328.70 1.842
328.80 1.841
328.90 1.84
329.00 1.839
329.10 1.838
329.20 1.836
329.30 1.835
329.40 1.834
329.50 1.833
329.60 1.832
329.70 1.831
329.80 1.83
329.90 1.829
330.00 1.828
330.10 1.827
330.20 1.826
330.30 1.825
330.40 1.824
330.50 1.823
330.60 1.822
330.70 1.82
330.80 1.819
330.90 1.818
331.00 1.817
331.10 1.816
331.20 1.815
331.30 1.814
331.40 1.813
331.50 1.812
331.60 1.811
331.70 1.81
331.80 1.809
331.90 1.808
332.00 1.807
332.10 1.806
332.20 1.805
332.30 1.804
332.40 1.802
332.50 1.801
332.60 1.8
332.70 1.799
332.80 1.798
332.90 1.797
333.00 1.796
333.10 1.795
333.20 1.794
333.30 1.793
333.40 1.792
333.50 1.791
333.60 1.79
333.70 1.789
333.80 1.788
333.90 1.787
334.00 1.786
334.10 1.785
334.20 1.784
334.30 1.783
334.40 1.782
334.50 1.78
334.60 1.779
334.70 1.778
334.80 1.777
334.90 1.776
335.00 1.775
335.10 1.774
335.20 1.773
335.30 1.772
335.40 1.771
335.50 1.77
335.60 1.769
335.70 1.768
335.80 1.767
335.90 1.766
336.00 1.765
336.10 1.764
336.20 1.763
336.30 1.762
336.40 1.761
336.50 1.76
336.60 1.759
336.70 1.758
336.80 1.757
336.90 1.756
337.00 1.755
337.10 1.754
337.20 1.753
337.30 1.752
337.40 1.751
337.50 1.75
337.60 1.749
337.70 1.748
337.80 1.746
337.90 1.745
338.00 1.744
338.10 1.743
338.20 1.742
338.30 1.741
338.40 1.74
338.50 1.739
338.60 1.738
338.70 1.737
338.80 1.736
338.90 1.735
339.00 1.734
339.10 1.733
339.20 1.732
339.30 1.731
339.40 1.73
339.50 1.729
339.60 1.728
339.70 1.727
339.80 1.726
339.90 1.725
340.00 1.724
340.10 1.723
340.20 1.722
340.30 1.721
340.40 1.72
340.50 1.719
340.60 1.718
340.70 1.717
340.80 1.716
340.90 1.715
341.00 1.714
341.10 1.713
341.20 1.712
341.30 1.711
341.40 1.71
341.50 1.709
341.60 1.708
341.70 1.707
341.80 1.706
341.90 1.705
342.00 1.704
342.10 1.703
342.20 1.702
342.30 1.701
342.40 1.7
342.50 1.699
342.60 1.698
342.70 1.697
342.80 1.696
342.90 1.695
343.00 1.694
343.10 1.693
343.20 1.692
343.30 1.691
343.40 1.69
343.50 1.689
343.60 1.688
343.70 1.687
343.80 1.686
343.90 1.685
344.00 1.684
344.10 1.683
344.20 1.682
344.30 1.681
344.40 1.68
344.50 1.679
344.60 1.679
344.70 1.678
344.80 1.677
344.90 1.676
345.00 1.675
345.10 1.674
345.20 1.673
345.30 1.672
345.40 1.671
345.50 1.67
345.60 1.669
345.70 1.668
345.80 1.667
345.90 1.666
346.00 1.665
346.10 1.664
346.20 1.663
346.30 1.662
346.40 1.661
346.50 1.66
346.60 1.659
346.70 1.658
346.80 1.657
346.90 1.656
347.00 1.655
347.10 1.654
347.20 1.653
347.30 1.652
347.40 1.651
347.50 1.65
347.60 1.649
347.70 1.648
347.80 1.647
347.90 1.647
348.00 1.646
348.10 1.645
348.20 1.644
348.30 1.643
348.40 1.642
348.50 1.641
348.60 1.64
348.70 1.639
348.80 1.638
348.90 1.637
349.00 1.636
349.10 1.635
349.20 1.634
349.30 1.633
349.40 1.632
349.50 1.631
349.60 1.63
349.70 1.629
349.80 1.628
349.90 1.627
350.00 1.626
350.10 1.626
350.20 1.625
350.30 1.624
350.40 1.623
350.50 1.622
350.60 1.621
350.70 1.62
350.80 1.619
350.90 1.618
351.00 1.617
351.10 1.616
351.20 1.615
351.30 1.614
351.40 1.613
351.50 1.612
351.60 1.611
351.70 1.61
351.80 1.61
351.90 1.609
352.00 1.608
352.10 1.607
352.20 1.606
352.30 1.605
352.40 1.604
352.50 1.603
352.60 1.602
352.70 1.601
352.80 1.6
352.90 1.599
353.00 1.598
353.10 1.597
353.20 1.596
353.30 1.595
353.40 1.595
353.50 1.594
353.60 1.593
353.70 1.592
353.80 1.591
353.90 1.59
354.00 1.589
354.10 1.588
354.20 1.587
354.30 1.586
354.40 1.585
354.50 1.584
354.60 1.583
354.70 1.583
354.80 1.582
354.90 1.581
355.00 1.58
355.10 1.579
355.20 1.578
355.30 1.577
355.40 1.576
355.50 1.575
355.60 1.574
355.70 1.573
355.80 1.572
355.90 1.572
356.00 1.571
356.10 1.57
356.20 1.569
356.30 1.568
356.40 1.567
356.50 1.566
356.60 1.565
356.70 1.564
356.80 1.563
356.90 1.562
357.00 1.562
357.10 1.561
357.20 1.56
357.30 1.559
357.40 1.558
357.50 1.557
357.60 1.556
357.70 1.555
357.80 1.554
357.90 1.553
358.00 1.552
358.10 1.552
358.20 1.551
358.30 1.55
358.40 1.549
358.50 1.548
358.60 1.547
358.70 1.546
358.80 1.545
358.90 1.544
359.00 1.543
359.10 1.543
359.20 1.542
359.30 1.541
359.40 1.54
359.50 1.539
359.60 1.538
359.70 1.537
359.80 1.536
359.90 1.535
360.00 1.535
360.10 1.534
360.20 1.533
360.30 1.532
360.40 1.531
360.50 1.53
360.60 1.529
360.70 1.528
360.80 1.527
360.90 1.527
361.00 1.526
361.10 1.525
361.20 1.524
361.30 1.523
361.40 1.522
361.50 1.521
361.60 1.52
361.70 1.519
361.80 1.519
361.90 1.518
362.00 1.517
362.10 1.516
362.20 1.515
362.30 1.514
362.40 1.513
362.50 1.512
362.60 1.512
362.70 1.511
362.80 1.51
362.90 1.509
363.00 1.508
363.10 1.507
363.20 1.506
363.30 1.505
363.40 1.504
363.50 1.503
363.60 1.502
363.70 1.501
363.80 1.5
363.90 1.499
364.00 1.498
364.10 1.497
364.20 1.496
364.30 1.495
364.40 1.494
364.50 1.493
364.60 1.492
364.70 1.491
364.80 1.489
364.90 1.488
365.00 1.487
365.10 1.486
365.20 1.485
365.30 1.484
365.40 1.483
365.50 1.482
365.60 1.481
365.70 1.48
365.80 1.479
365.90 1.478
366.00 1.477
366.10 1.476
366.20 1.475
366.30 1.474
366.40 1.473
366.50 1.472
366.60 1.471
366.70 1.47
366.80 1.47
366.90 1.469
367.00 1.468
367.10 1.467
367.20 1.466
367.30 1.465
367.40 1.464
367.50 1.463
367.60 1.462
367.70 1.461
367.80 1.461
367.90 1.46
368.00 1.459
368.10 1.458
368.20 1.457
368.30 1.456
368.40 1.455
368.50 1.454
368.60 1.453
368.70 1.452
368.80 1.452
368.90 1.451
369.00 1.45
369.10 1.449
369.20 1.448
369.30 1.447
369.40 1.446
369.50 1.445
369.60 1.444
369.70 1.444
369.80 1.443
369.90 1.442
370.00 1.441
370.10 1.44
370.20 1.439
370.30 1.439
370.40 1.438
370.50 1.437
370.60 1.436
370.70 1.436
370.80 1.435
370.90 1.434
371.00 1.433
371.10 1.433
371.20 1.432
371.30 1.431
371.40 1.43
371.50 1.43
371.60 1.429
371.70 1.428
371.80 1.427
371.90 1.427
372.00 1.426
372.10 1.425
372.20 1.425
372.30 1.424
372.40 1.424
372.50 1.423
372.60 1.423
372.70 1.423
372.80 1.422
372.90 1.422
373.00 1.421
373.10 1.421
373.20 1.42
373.30 1.42
373.40 1.419
373.50 1.419
373.60 1.418
373.70 1.418
373.80 1.417
373.90 1.417
374.00 1.416
374.10 1.416
374.20 1.416
374.30 1.416
374.40 1.415
374.50 1.415
374.60 1.415
374.70 1.414
374.80 1.414
374.90 1.414
375.00 1.414
375.10 1.413
375.20 1.413
375.30 1.413
375.40 1.413
375.50 1.412
375.60 1.412
375.70 1.412
375.80 1.412
375.90 1.411
376.00 1.411
376.10 1.411
376.20 1.41
376.30 1.41
376.40 1.41
376.50 1.409
376.60 1.409
376.70 1.409
376.80 1.408
376.90 1.408
377.00 1.408
377.10 1.407
377.20 1.406
377.30 1.406
377.40 1.405
377.50 1.404
377.60 1.403
377.70 1.403
377.80 1.402
377.90 1.401
378.00 1.4
378.10 1.398
378.20 1.396
378.30 1.394
378.40 1.392
378.50 1.39
378.60 1.388
378.70 1.386
378.80 1.384
378.90 1.382
379.00 1.38
379.10 1.379
379.20 1.378
379.30 1.376
379.40 1.375
379.50 1.374
379.60 1.372
379.70 1.371
379.80 1.37
379.90 1.368
380.00 1.367
380.10 1.368
380.20 1.37
380.30 1.371
380.40 1.372
380.50 1.374
380.60 1.375
380.70 1.376
380.80 1.377
380.90 1.379
381.00 1.38
381.10 1.38
381.20 1.38
381.30 1.381
381.40 1.381
381.50 1.381
381.60 1.38
381.70 1.379
381.80 1.378
381.90 1.376
382.00 1.374
382.10 1.372
382.20 1.37
382.30 1.365
382.40 1.36
382.50 1.355
382.60 1.351
382.70 1.346
382.80 1.341
382.90 1.337
383.00 1.332
383.10 1.327
383.20 1.323
383.30 1.32
383.40 1.316
383.50 1.313
383.60 1.313
383.70 1.317
383.80 1.321
383.90 1.324
384.00 1.328
384.10 1.334
384.20 1.34
384.30 1.345
384.40 1.351
384.50 1.356
384.60 1.361
384.70 1.365
384.80 1.368
384.90 1.371
385.00 1.374
385.10 1.376
385.20 1.377
385.30 1.379
385.40 1.38
385.50 1.381
385.60 1.381
385.70 1.381
385.80 1.381
385.90 1.381
386.00 1.38
386.10 1.379
386.20 1.377
386.30 1.375
386.40 1.373
386.50 1.371
386.60 1.369
386.70 1.366
386.80 1.362
386.90 1.359
387.00 1.355
387.10 1.35
387.20 1.346
387.30 1.34
387.40 1.335
387.50 1.329
387.60 1.322
387.70 1.315
387.80 1.307
387.90 1.299
388.00 1.289
388.10 1.278
388.20 1.267
388.30 1.254
388.40 1.24
388.50 1.228
388.60 1.217
388.70 1.21
388.80 1.204
388.90 1.199
389.00 1.204
389.10 1.21
389.20 1.217
389.30 1.228
389.40 1.24
389.50 1.254
389.60 1.267
389.70 1.279
389.80 1.29
389.90 1.3
390.00 1.309
390.10 1.318
390.20 1.325
390.30 1.332
390.40 1.339
390.50 1.345
390.60 1.351
390.70 1.356
390.80 1.361
390.90 1.365
391.00 1.37
391.10 1.374
391.20 1.377
391.30 1.38
391.40 1.383
391.50 1.386
391.60 1.388
391.70 1.39
391.80 1.392
391.90 1.393
392.00 1.394
392.10 1.395
392.20 1.396
392.30 1.396
392.40 1.396
392.50 1.396
392.60 1.395
392.70 1.394
392.80 1.393
392.90 1.391
393.00 1.389
393.10 1.387
393.20 1.384
393.30 1.382
393.40 1.379
393.50 1.375
393.60 1.371
393.70 1.367
393.80 1.363
393.90 1.358
394.00 1.353
394.10 1.347
394.20 1.341
394.30 1.335
394.40 1.328
394.50 1.321
394.60 1.313
394.70 1.305
394.80 1.297
394.90 1.288
395.00 1.279
395.10 1.269
395.20 1.259
395.30 1.248
395.40 1.237
395.50 1.225
395.60 1.212
395.70 1.199
395.80 1.186
395.90 1.171
396.00 1.156
396.10 1.14
396.20 1.122
396.30 1.103
396.40 1.082
396.50 1.057
396.60 1.032
396.70 1.005
396.80 0.986
396.90 0.9674
397.00 0.9494
397.10 0.9659
397.20 0.9831
397.30 1.001
397.40 1.027
397.50 1.053
397.60 1.077
397.70 1.098
397.80 1.118
397.90 1.135
398.00 1.151
398.10 1.167
398.20 1.181
398.30 1.195
398.40 1.208
398.50 1.221
398.60 1.233
398.70 1.244
398.80 1.255
398.90 1.266
399.00 1.276
399.10 1.286
399.20 1.295
399.30 1.304
399.40 1.313
399.50 1.321
399.60 1.328
399.70 1.336
399.80 1.343
399.90 1.35
400.00 1.356
400.10 1.363
400.20 1.368
400.30 1.374
400.40 1.379
400.50 1.384
400.60 1.389
400.70 1.394
400.80 1.398
400.90 1.402
401.00 1.406
401.10 1.409
401.20 1.413
401.30 1.416
401.40 1.419
401.50 1.421
401.60 1.424
401.70 1.426
401.80 1.428
401.90 1.43
402.00 1.432
402.10 1.433
402.20 1.434
402.30 1.435
402.40 1.436
402.50 1.437
402.60 1.438
402.70 1.438
402.80 1.438
402.90 1.438
403.00 1.438
403.10 1.437
403.20 1.437
403.30 1.436
403.40 1.435
403.50 1.434
403.60 1.432
403.70 1.431
403.80 1.429
403.90 1.427
404.00 1.425
404.10 1.423
404.20 1.42
404.30 1.418
404.40 1.415
404.50 1.412
404.60 1.408
404.70 1.405
404.80 1.401
404.90 1.397
405.00 1.393
405.10 1.389
405.20 1.384
405.30 1.38
405.40 1.375
405.50 1.369
405.60 1.364
405.70 1.358
405.80 1.352
405.90 1.346
406.00 1.34
406.10 1.333
406.20 1.326
406.30 1.319
406.40 1.311
406.50 1.303
406.60 1.295
406.70 1.287
406.80 1.278
406.90 1.269
407.00 1.259
407.10 1.249
407.20 1.239
407.30 1.229
407.40 1.218
407.50 1.207
407.60 1.195
407.70 1.183
407.80 1.17
407.90 1.157
408.00 1.144
408.10 1.13
408.20 1.115
408.30 1.1
408.40 1.085
408.50 1.069
408.60 1.052
408.70 1.035
408.80 1.017
408.90 0.9987
409.00 0.98
409.10 0.9606
409.20 0.9407
409.30 0.9204
409.40 0.8988
409.50 0.8759
409.60 0.852
409.70 0.8243
409.80 0.795
409.90 0.7639
410.00 0.7388
410.10 0.7209
410.20 0.7101
410.30 0.7284
410.40 0.7513
410.50 0.779
410.60 0.8088
410.70 0.8364
410.80 0.8619
410.90 0.8842
411.00 0.9055
411.10 0.9258
411.20 0.9449
411.30 0.9637
411.40 0.982
411.50 0.9996
411.60 1.017
411.70 1.033
411.80 1.049
411.90 1.065
412.00 1.08
412.10 1.094
412.20 1.108
412.30 1.121
412.40 1.134
412.50 1.146
412.60 1.158
412.70 1.17
412.80 1.181
412.90 1.192
413.00 1.202
413.10 1.212
413.20 1.222
413.30 1.231
413.40 1.24
413.50 1.249
413.60 1.257
413.70 1.265
413.80 1.273
413.90 1.28
414.00 1.288
414.10 1.295
414.20 1.302
414.30 1.308
414.40 1.315
414.50 1.321
414.60 1.327
414.70 1.332
414.80 1.338
414.90 1.343
415.00 1.349
415.10 1.354
415.20 1.359
415.30 1.363
415.40 1.368
415.50 1.372
415.60 1.377
415.70 1.381
415.80 1.385
415.90 1.389
416.00 1.392
416.10 1.396
416.20 1.4
416.30 1.403
416.40 1.406
416.50 1.409
416.60 1.412
416.70 1.415
416.80 1.418
416.90 1.421
417.00 1.423
417.10 1.426
417.20 1.428
417.30 1.431
417.40 1.433
417.50 1.435
417.60 1.437
417.70 1.439
417.80 1.441
417.90 1.442
418.00 1.444
418.10 1.446
418.20 1.447
418.30 1.449
418.40 1.45
418.50 1.451
418.60 1.453
418.70 1.454
418.80 1.455
418.90 1.456
419.00 1.457
419.10 1.458
419.20 1.459
419.30 1.459
419.40 1.46
419.50 1.461
419.60 1.461
419.70 1.462
419.80 1.462
419.90 1.463
420.00 1.463
420.10 1.463
420.20 1.463
420.30 1.463
420.40 1.464
420.50 1.464
420.60 1.464
420.70 1.463
420.80 1.463
420.90 1.463
421.00 1.463
421.10 1.463
421.20 1.462
421.30 1.462
421.40 1.461
421.50 1.461
421.60 1.46
421.70 1.459
421.80 1.459
421.90 1.458
422.00 1.457
422.10 1.456
422.20 1.455
422.30 1.454
422.40 1.453
422.50 1.452
422.60 1.451
422.70 1.45
422.80 1.449
422.90 1.447
423.00 1.446
423.10 1.445
423.20 1.443
423.30 1.442
423.40 1.44
423.50 1.438
423.60 1.437
423.70 1.435
423.80 1.433
423.90 1.431
424.00 1.43
424.10 1.428
424.20 1.426
424.30 1.423
424.40 1.421
424.50 1.419
424.60 1.417
424.70 1.414
424.80 1.412
424.90 1.41
425.00 1.407
425.10 1.404
425.20 1.402
425.30 1.399
425.40 1.396
425.50 1.393
425.60 1.39
425.70 1.387
425.80 1.384
425.90 1.381
426.00 1.378
426.10 1.375
426.20 1.371
426.30 1.367
426.40 1.363
426.50 1.36
426.60 1.356
426.70 1.352
426.80 1.348
426.90 1.344
427.00 1.34
427.10 1.336
427.20 1.331
427.30 1.327
427.40 1.323
427.50 1.318
427.60 1.314
427.70 1.309
427.80 1.304
427.90 1.299
428.00 1.294
428.10 1.289
428.20 1.283
428.30 1.278
428.40 1.272
428.50 1.267
428.60 1.261
428.70 1.255
428.80 1.249
428.90 1.243
429.00 1.236
429.10 1.23
429.20 1.223
429.30 1.217
429.40 1.21
429.50 1.203
429.60 1.195
429.70 1.188
429.80 1.18
429.90 1.172
430.00 1.164
430.10 1.156
430.20 1.148
430.30 1.139
430.40 1.13
430.50 1.121
430.60 1.112
430.70 1.102
430.80 1.092
430.90 1.082
431.00 1.071
431.10 1.061
431.20 1.05
431.30 1.039
431.40 1.027
431.50 1.015
431.60 1.003
431.70 0.9904
431.80 0.9775
431.90 0.964
432.00 0.9501
432.10 0.9359
432.20 0.9208
432.30 0.9053
432.40 0.8893
432.50 0.8722
432.60 0.8546
432.70 0.8365
432.80 0.8175
432.90 0.7984
433.00 0.7792
433.10 0.7602
433.20 0.7414
433.30 0.723
433.40 0.7045
433.50 0.6852
433.60 0.6649
433.70 0.6394
433.80 0.6098
433.90 0.5762
434.00 0.5351
434.10 0.5358
434.20 0.5785
434.30 0.6113
434.40 0.64
434.50 0.6647
434.60 0.6842
434.70 0.7029
434.80 0.7207
434.90 0.7385
435.00 0.7566
435.10 0.7748
435.20 0.7933
435.30 0.8115
435.40 0.8295
435.50 0.8467
435.60 0.8633
435.70 0.8793
435.80 0.8942
435.90 0.9087
436.00 0.9227
436.10 0.9358
436.20 0.9486
436.30 0.9609
436.40 0.9726
436.50 0.984
436.60 0.9951
436.70 1.006
436.80 1.016
436.90 1.026
437.00 1.036
437.10 1.045
437.20 1.054
437.30 1.063
437.40 1.072
437.50 1.08
437.60 1.088
437.70 1.096
437.80 1.104
437.90 1.111
438.00 1.118
438.10 1.125
438.20 1.132
438.30 1.138
438.40 1.144
438.50 1.15
438.60 1.156
438.70 1.162
438.80 1.167
438.90 1.173
439.00 1.178
439.10 1.183
439.20 1.188
439.30 1.193
439.40 1.198
439.50 1.202
439.60 1.207
439.70 1.211
439.80 1.215
439.90 1.219
440.00 1.223
440.10 1.227
440.20 1.231
440.30 1.235
440.40 1.238
440.50 1.242
440.60 1.245
440.70 1.248
440.80 1.251
440.90 1.254
441.00 1.257
441.10 1.26
441.20 1.263
441.30 1.266
441.40 1.269
441.50 1.271
441.60 1.274
441.70 1.276
441.80 1.279
441.90 1.281
442.00 1.283
442.10 1.285
442.20 1.288
442.30 1.29
442.40 1.291
442.50 1.293
442.60 1.295
442.70 1.297
442.80 1.299
442.90 1.3
443.00 1.302
443.10 1.304
443.20 1.305
443.30 1.307
443.40 1.308
443.50 1.309
443.60 1.311
443.70 1.312
443.80 1.313
443.90 1.315
444.00 1.316
444.10 1.317
444.20 1.318
444.30 1.319
444.40 1.32
444.50 1.321
444.60 1.322
444.70 1.323
444.80 1.324
444.90 1.325
445.00 1.325
445.10 1.326
445.20 1.327
445.30 1.328
445.40 1.328
445.50 1.329
445.60 1.33
445.70 1.33
445.80 1.331
445.90 1.331
446.00 1.332
446.10 1.332
446.20 1.333
446.30 1.333
446.40 1.334
446.50 1.334
446.60 1.335
446.70 1.335
446.80 1.335
446.90 1.336
447.00 1.336
447.10 1.336
447.20 1.336
447.30 1.337
447.40 1.337
447.50 1.337
447.60 1.337
447.70 1.337
447.80 1.337
447.90 1.337
448.00 1.338
448.10 1.338
448.20 1.338
448.30 1.338
448.40 1.338
448.50 1.338
448.60 1.338
448.70 1.338
448.80 1.338
448.90 1.338
449.00 1.338
449.10 1.338
449.20 1.338
449.30 1.338
449.40 1.337
449.50 1.337
449.60 1.337
449.70 1.337
449.80 1.337
449.90 1.337
450.00 1.336
450.10 1.336
450.20 1.336
450.30 1.336
450.40 1.336
450.50 1.335
450.60 1.335
450.70 1.335
450.80 1.335
450.90 1.334
451.00 1.334
451.10 1.334
451.20 1.333
451.30 1.333
451.40 1.333
451.50 1.333
451.60 1.332
451.70 1.332
451.80 1.331
451.90 1.331
452.00 1.331
452.10 1.33
452.20 1.33
452.30 1.33
452.40 1.329
452.50 1.329
452.60 1.328
452.70 1.328
452.80 1.327
452.90 1.327
453.00 1.327
453.10 1.326
453.20 1.326
453.30 1.325
453.40 1.325
453.50 1.324
453.60 1.324
453.70 1.323
453.80 1.323
453.90 1.322
454.00 1.322
454.10 1.321
454.20 1.321
454.30 1.32
454.40 1.32
454.50 1.319
454.60 1.319
454.70 1.318
454.80 1.317
454.90 1.317
455.00 1.316
455.10 1.316
455.20 1.315
455.30 1.315
455.40 1.314
455.50 1.313
455.60 1.313
455.70 1.312
455.80 1.312
455.90 1.311
456.00 1.31
456.10 1.31
456.20 1.309
456.30 1.309
456.40 1.308
456.50 1.307
456.60 1.307
456.70 1.306
456.80 1.306
456.90 1.305
457.00 1.304
457.10 1.304
457.20 1.303
457.30 1.303
457.40 1.302
457.50 1.301
457.60 1.301
457.70 1.3
457.80 1.299
457.90 1.299
458.00 1.298
458.10 1.297
458.20 1.296
458.30 1.296
458.40 1.295
458.50 1.294
458.60 1.294
458.70 1.293
458.80 1.292
458.90 1.291
459.00 1.291
459.10 1.29
459.20 1.289
459.30 1.289
459.40 1.288
459.50 1.287
459.60 1.286
459.70 1.286
459.80 1.285
459.90 1.284
460.00 1.283
460.10 1.282
460.20 1.282
460.30 1.281
460.40 1.28
460.50 1.279
460.60 1.279
460.70 1.278
460.80 1.277
460.90 1.276
461.00 1.275
461.10 1.275
461.20 1.274
461.30 1.273
461.40 1.272
461.50 1.271
461.60 1.27
461.70 1.27
461.80 1.269
461.90 1.268
462.00 1.267
462.10 1.266
462.20 1.265
462.30 1.265
462.40 1.264
462.50 1.263
462.60 1.262
462.70 1.261
462.80 1.26
462.90 1.259
463.00 1.258
463.10 1.258
463.20 1.257
463.30 1.256
463.40 1.255
463.50 1.254
463.60 1.253
463.70 1.252
463.80 1.251
463.90 1.25
464.00 1.249
464.10 1.248
464.20 1.248
464.30 1.247
464.40 1.246
464.50 1.245
464.60 1.244
464.70 1.243
464.80 1.242
464.90 1.241
465.00 1.24
465.10 1.239
465.20 1.238
465.30 1.237
465.40 1.236
465.50 1.235
465.60 1.234
465.70 1.233
465.80 1.232
465.90 1.231
466.00 1.23
466.10 1.229
466.20 1.228
466.30 1.227
466.40 1.226
466.50 1.225
466.60 1.224
466.70 1.223
466.80 1.221
466.90 1.22
467.00 1.219
467.10 1.218
467.20 1.217
467.30 1.216
467.40 1.215
467.50 1.214
467.60 1.213
467.70 1.212
467.80 1.21
467.90 1.209
468.00 1.208
468.10 1.207
468.20 1.206
468.30 1.205
468.40 1.203
468.50 1.202
468.60 1.201
468.70 1.2
468.80 1.199
468.90 1.197
469.00 1.196
469.10 1.195
469.20 1.194
469.30 1.193
469.40 1.191
469.50 1.19
469.60 1.189
469.70 1.187
469.80 1.186
469.90 1.185
470.00 1.184
470.10 1.182
470.20 1.181
470.30 1.18
470.40 1.179
470.50 1.177
470.60 1.176
470.70 1.175
470.80 1.173
470.90 1.172
471.00 1.171
471.10 1.169
471.20 1.168
471.30 1.167
471.40 1.165
471.50 1.164
471.60 1.162
471.70 1.161
471.80 1.159
471.90 1.158
472.00 1.156
472.10 1.155
472.20 1.153
472.30 1.152
472.40 1.15
472.50 1.149
472.60 1.147
472.70 1.146
472.80 1.144
472.90 1.142
473.00 1.141
473.10 1.139
473.20 1.137
473.30 1.136
473.40 1.134
473.50 1.132
473.60 1.13
473.70 1.129
473.80 1.127
473.90 1.125
474.00 1.123
474.10 1.122
474.20 1.12
474.30 1.118
474.40 1.116
474.50 1.114
474.60 1.112
474.70 1.11
474.80 1.108
474.90 1.106
475.00 1.104
475.10 1.102
475.20 1.1
475.30 1.098
475.40 1.096
475.50 1.093
475.60 1.091
475.70 1.089
475.80 1.087
475.90 1.085
476.00 1.083
476.10 1.081
476.20 1.078
476.30 1.076
476.40 1.073
476.50 1.071
476.60 1.068
476.70 1.066
476.80 1.063
476.90 1.061
477.00 1.058
477.10 1.056
477.20 1.053
477.30 1.051
477.40 1.048
477.50 1.045
477.60 1.042
477.70 1.039
477.80 1.037
477.90 1.034
478.00 1.031
478.10 1.028
478.20 1.025
478.30 1.022
478.40 1.019
478.50 1.016
478.60 1.012
478.70 1.009
478.80 1.006
478.90 1.003
479.00 0.9994
479.10 0.9962
479.20 0.9926
479.30 0.9889
479.40 0.9852
479.50 0.9814
479.60 0.9777
479.70 0.974
479.80 0.9703
479.90 0.9666
480.00 0.9629
480.10 0.9592
480.20 0.955
480.30 0.9506
480.40 0.9462
480.50 0.9418
480.60 0.9374
480.70 0.933
480.80 0.9286
480.90 0.9243
481.00 0.9199
481.10 0.9155
481.20 0.9105
481.30 0.9052
481.40 0.8999
481.50 0.8946
481.60 0.8893
481.70 0.8841
481.80 0.8788
481.90 0.8735
482.00 0.8683
482.10 0.863
482.20 0.8568
482.30 0.8501
482.40 0.8435
482.50 0.8369
482.60 0.8302
482.70 0.8236
482.80 0.817
482.90 0.8104
483.00 0.8037
483.10 0.7971
483.20 0.789
483.30 0.7801
483.40 0.7713
483.50 0.7624
483.60 0.7536
483.70 0.7447
483.80 0.7359
483.90 0.7271
484.00 0.7182
484.10 0.7094
484.20 0.6988
484.30 0.6873
484.40 0.6757
484.50 0.6643
484.60 0.6528
484.70 0.6403
484.80 0.6273
484.90 0.6143
485.00 0.6014
485.10 0.5885
485.20 0.5758
485.30 0.5633
485.40 0.551
485.50 0.5388
485.60 0.5261
485.70 0.5131
485.80 0.4959
485.90 0.4767
486.00 0.4472
486.10 0.3921
486.20 0.4115
486.30 0.4595
486.40 0.482
486.50 0.5011
486.60 0.5158
486.70 0.5284
486.80 0.5404
486.90 0.5521
487.00 0.564
487.10 0.576
487.20 0.5882
487.30 0.6005
487.40 0.6128
487.50 0.6251
487.60 0.6374
487.70 0.6487
487.80 0.6594
487.90 0.6702
488.00 0.6809
488.10 0.6917
488.20 0.7006
488.30 0.7086
488.40 0.7165
488.50 0.7245
488.60 0.7325
488.70 0.7405
488.80 0.7484
488.90 0.7564
489.00 0.7644
489.10 0.7723
489.20 0.7787
489.30 0.7844
489.40 0.79
489.50 0.7957
489.60 0.8013
489.70 0.8069
489.80 0.8126
489.90 0.8182
490.00 0.8238
490.10 0.8294
490.20 0.8341
490.30 0.8383
490.40 0.8425
490.50 0.8468
490.60 0.851
490.70 0.8552
490.80 0.8594
490.90 0.8636
491.00 0.8678
491.10 0.872
491.20 0.8755
491.30 0.8788
491.40 0.882
491.50 0.8853
491.60 0.8885
491.70 0.8918
491.80 0.895
491.90 0.8982
492.00 0.9015
492.10 0.9047
492.20 0.9074
492.30 0.91
492.40 0.9125
492.50 0.915
492.60 0.9175
492.70 0.9201
492.80 0.9226
492.90 0.9251
493.00 0.9276
493.10 0.9301
493.20 0.9323
493.30 0.9343
493.40 0.9363
493.50 0.9384
493.60 0.9404
493.70 0.9424
493.80 0.9444
493.90 0.9464
494.00 0.9484
494.10 0.9505
494.20 0.9521
494.30 0.9536
494.40 0.9551
494.50 0.9566
494.60 0.9581
494.70 0.9596
494.80 0.9611
494.90 0.9626
495.00 0.9641
495.10 0.9656
495.20 0.9669
495.30 0.9681
495.40 0.9693
495.50 0.9705
495.60 0.9717
495.70 0.9728
495.80 0.974
495.90 0.9752
496.00 0.9764
496.10 0.9776
496.20 0.9785
496.30 0.9794
496.40 0.9802
496.50 0.9811
496.60 0.982
496.70 0.9828
496.80 0.9837
496.90 0.9845
497.00 0.9854
497.10 0.9862
497.20 0.987
497.30 0.9876
497.40 0.9883
497.50 0.9889
497.60 0.9896
497.70 0.9903
497.80 0.9909
497.90 0.9916
498.00 0.9922
498.10 0.9929
498.20 0.9934
498.30 0.9938
498.40 0.9943
498.50 0.9947
498.60 0.9952
498.70 0.9956
498.80 0.9961
498.90 0.9965
499.00 0.9969
499.10 0.9974
499.20 0.9977
499.30 0.998
499.40 0.9983
499.50 0.9986
499.60 0.9989
499.70 0.9992
499.80 0.9994
499.90 0.9997
500.00 1
500.10 1
500.20 1
500.30 1.001
500.40 1.001
500.50 1.001
500.60 1.001
500.70 1.001
500.80 1.001
500.90 1.001
501.00 1.002
501.10 1.002
501.20 1.002
501.30 1.002
501.40 1.002
501.50 1.002
501.60 1.002
501.70 1.002
501.80 1.002
501.90 1.002
502.00 1.002
502.10 1.002
502.20 1.002
502.30 1.002
502.40 1.002
502.50 1.002
502.60 1.002
502.70 1.002
502.80 1.002
502.90 1.002
503.00 1.002
503.10 1.002
503.20 1.002
503.30 1.002
503.40 1.002
503.50 1.002
503.60 1.002
503.70 1.001
503.80 1.001
503.90 1.001
504.00 1.001
504.10 1.001
504.20 1.001
504.30 1.001
504.40 1.001
504.50 1
504.60 1
504.70 1
504.80 1
504.90 0.9998
505.00 0.9997
505.10 0.9995
505.20 0.9993
505.30 0.9991
505.40 0.9989
505.50 0.9987
505.60 0.9985
505.70 0.9983
505.80 0.9981
505.90 0.9979
506.00 0.9977
506.10 0.9975
506.20 0.9972
506.30 0.997
506.40 0.9967
506.50 0.9964
506.60 0.9962
506.70 0.9959
506.80 0.9957
506.90 0.9954
507.00 0.9952
507.10 0.9949
507.20 0.9946
507.30 0.9943
507.40 0.994
507.50 0.9938
507.60 0.9935
507.70 0.9932
507.80 0.9929
507.90 0.9926
508.00 0.9923
508.10 0.992
508.20 0.9917
508.30 0.9914
508.40 0.991
508.50 0.9907
508.60 0.9904
508.70 0.9901
508.80 0.9897
508.90 0.9894
509.00 0.9891
509.10 0.9888
509.20 0.9884
509.30 0.9881
509.40 0.9877
509.50 0.9874
509.60 0.987
509.70 0.9867
509.80 0.9863
509.90 0.986
510.00 0.9856
510.10 0.9852
510.20 0.9849
510.30 0.9845
510.40 0.9841
510.50 0.9838
510.60 0.9834
510.70 0.983
510.80 0.9826
510.90 0.9823
511.00 0.9819
511.10 0.9815
511.20 0.9811
511.30 0.9807
511.40 0.9804
511.50 0.98
511.60 0.9796
511.70 0.9792
511.80 0.9788
511.90 0.9784
512.00 0.978
512.10 0.9776
512.20 0.9772
512.30 0.9768
512.40 0.9764
512.50 0.976
512.60 0.9756
512.70 0.9752
512.80 0.9748
512.90 0.9744
513.00 0.974
513.10 0.9736
513.20 0.9732
513.30 0.9727
513.40 0.9723
513.50 0.9719
513.60 0.9715
513.70 0.9711
513.80 0.9706
513.90 0.9702
514.00 0.9698
514.10 0.9694
514.20 0.969
514.30 0.9685
514.40 0.9681
514.50 0.9677
514.60 0.9673
514.70 0.9668
514.80 0.9664
514.90 0.966
515.00 0.9655
515.10 0.9651
515.20 0.9647
515.30 0.9643
515.40 0.9638
515.50 0.9634
515.60 0.9629
515.70 0.9625
515.80 0.9621
515.90 0.9616
516.00 0.9612
516.10 0.9608
516.20 0.9603
516.30 0.9599
516.40 0.9595
516.50 0.959
516.60 0.9586
516.70 0.9581
516.80 0.9577
516.90 0.9572
517.00 0.9568
517.10 0.9564
517.20 0.9559
517.30 0.9555
517.40 0.955
517.50 0.9546
517.60 0.9541
517.70 0.9537
517.80 0.9532
517.90 0.9528
518.00 0.9523
518.10 0.9519
518.20 0.9515
518.30 0.951
518.40 0.9505
518.50 0.9501
518.60 0.9496
518.70 0.9492
518.80 0.9487
518.90 0.9483
519.00 0.9478
519.10 0.9474
519.20 0.9469
519.30 0.9465
519.40 0.946
519.50 0.9456
519.60 0.9451
519.70 0.9447
519.80 0.9442
519.90 0.9438
520.00 0.9433
520.10 0.9428
520.20 0.9424
520.30 0.9419
520.40 0.9415
520.50 0.941
520.60 0.9406
520.70 0.9401
520.80 0.9397
520.90 0.9392
521.00 0.9387
521.10 0.9383
521.20 0.9378
521.30 0.9374
521.40 0.9369
521.50 0.9364
521.60 0.936
521.70 0.9355
521.80 0.9351
521.90 0.9346
522.00 0.9342
522.10 0.9337
522.20 0.9332
522.30 0.9328
522.40 0.9323
522.50 0.9319
522.60 0.9314
522.70 0.9309
522.80 0.9305
522.90 0.93
523.00 0.9296
523.10 0.9291
523.20 0.9286
523.30 0.9282
523.40 0.9277
523.50 0.9272
523.60 0.9268
523.70 0.9263
523.80 0.9259
523.90 0.9254
524.00 0.9249
524.10 0.9245
524.20 0.924
524.30 0.9235
524.40 0.9231
524.50 0.9226
524.60 0.9222
524.70 0.9217
524.80 0.9212
524.90 0.9208
525.00 0.9203
525.10 0.9198
525.20 0.9194
525.30 0.9189
525.40 0.9185
525.50 0.918
525.60 0.9175
525.70 0.9171
525.80 0.9166
525.90 0.9161
526.00 0.9157
526.10 0.9152
526.20 0.9148
526.30 0.9143
526.40 0.9138
526.50 0.9134
526.60 0.9129
526.70 0.9124
526.80 0.912
526.90 0.9115
527.00 0.9111
527.10 0.9106
527.20 0.9101
527.30 0.9097
527.40 0.9092
527.50 0.9087
527.60 0.9083
527.70 0.9078
527.80 0.9074
527.90 0.9069
528.00 0.9064
528.10 0.906
528.20 0.9055
528.30 0.905
528.40 0.9046
528.50 0.9041
528.60 0.9037
528.70 0.9032
528.80 0.9027
528.90 0.9023
529.00 0.9018
529.10 0.9014
529.20 0.9009
529.30 0.9004
529.40 0.9
529.50 0.8995
529.60 0.899
529.70 0.8986
529.80 0.8981
529.90 0.8977
530.00 0.8972
530.10 0.8967
530.20 0.8963
530.30 0.8958
530.40 0.8954
530.50 0.8949
530.60 0.8944
530.70 0.894
530.80 0.8935
530.90 0.8931
531.00 0.8926
531.10 0.8921
531.20 0.8917
531.30 0.8912
531.40 0.8908
531.50 0.8903
531.60 0.8898
531.70 0.8894
531.80 0.8889
531.90 0.8885
532.00 0.888
532.10 0.8876
532.20 0.8871
532.30 0.8866
532.40 0.8862
532.50 0.8857
532.60 0.8853
532.70 0.8848
532.80 0.8844
532.90 0.8839
533.00 0.8834
533.10 0.883
533.20 0.8825
533.30 0.8821
533.40 0.8816
533.50 0.8812
533.60 0.8807
533.70 0.8802
533.80 0.8798
533.90 0.8793
534.00 0.8789
534.10 0.8784
534.20 0.878
534.30 0.8775
534.40 0.8771
534.50 0.8766
534.60 0.8762
534.70 0.8757
534.80 0.8752
534.90 0.8748
535.00 0.8743
535.10 0.8739
535.20 0.8734
535.30 0.873
535.40 0.8725
535.50 0.8721
535.60 0.8716
535.70 0.8712
535.80 0.8707
535.90 0.8703
536.00 0.8698
536.10 0.8694
536.20 0.8689
536.30 0.8685
536.40 0.868
536.50 0.8676
536.60 0.8671
536.70 0.8667
536.80 0.8662
536.90 0.8658
537.00 0.8653
537.10 0.8649
537.20 0.8644
537.30 0.864
537.40 0.8635
537.50 0.8631
537.60 0.8626
537.70 0.8622
537.80 0.8617
537.90 0.8613
538.00 0.8608
538.10 0.8604
538.20 0.8599
538.30 0.8595
538.40 0.859
538.50 0.8586
538.60 0.8581
538.70 0.8577
538.80 0.8572
538.90 0.8568
539.00 0.8564
539.10 0.8559
539.20 0.8555
539.30 0.855
539.40 0.8546
539.50 0.8541
539.60 0.8537
539.70 0.8532
539.80 0.8528
539.90 0.8524
540.00 0.8519
540.10 0.8515
540.20 0.851
540.30 0.8506
540.40 0.8501
540.50 0.8497
540.60 0.8493
540.70 0.8488
540.80 0.8484
540.90 0.8479
541.00 0.8475
541.10 0.847
541.20 0.8466
541.30 0.8462
541.40 0.8457
541.50 0.8453
541.60 0.8448
541.70 0.8444
541.80 0.844
541.90 0.8435
542.00 0.8431
542.10 0.8426
542.20 0.8422
542.30 0.8418
542.40 0.8413
542.50 0.8409
542.60 0.8405
542.70 0.84
542.80 0.8396
542.90 0.8391
543.00 0.8387
543.10 0.8383
543.20 0.8378
543.30 0.8374
543.40 0.837
543.50 0.8365
543.60 0.8361
543.70 0.8357
543.80 0.8352
543.90 0.8348
544.00 0.8343
544.10 0.8339
544.20 0.8335
544.30 0.833
544.40 0.8326
544.50 0.8322
544.60 0.8317
544.70 0.8313
544.80 0.8309
544.90 0.8304
545.00 0.83
545.10 0.8296
545.20 0.8291
545.30 0.8287
545.40 0.8283
545.50 0.8279
545.60 0.8274
545.70 0.827
545.80 0.8266
545.90 0.8261
546.00 0.8257
546.10 0.8253
546.20 0.8249
546.30 0.8246
546.40 0.8243
546.50 0.824
546.60 0.8237
546.70 0.8234
546.80 0.823
546.90 0.8227
547.00 0.8224
547.10 0.8221
547.20 0.8217
547.30 0.8213
547.40 0.8209
547.50 0.8204
547.60 0.82
547.70 0.8196
547.80 0.8191
547.90 0.8187
548.00 0.8183
548.10 0.8178
548.20 0.8174
548.30 0.817
548.40 0.8165
548.50 0.8161
548.60 0.8157
548.70 0.8153
548.80 0.8148
548.90 0.8144
549.00 0.814
549.10 0.8135
549.20 0.8131
549.30 0.8127
549.40 0.8122
549.50 0.8118
549.60 0.8114
549.70 0.811
549.80 0.8105
549.90 0.8101
550.00 0.8097
550.10 0.8093
550.20 0.8088
550.30 0.8084
550.40 0.808
550.50 0.8076
550.60 0.8071
550.70 0.8067
550.80 0.8063
550.90 0.8059
551.00 0.8054
551.10 0.805
551.20 0.8046
551.30 0.8042
551.40 0.8037
551.50 0.8033
551.60 0.8029
551.70 0.8025
551.80 0.8021
551.90 0.8016
552.00 0.8012
552.10 0.8008
552.20 0.8004
552.30 0.8
552.40 0.7995
552.50 0.7991
552.60 0.7987
552.70 0.7983
552.80 0.7979
552.90 0.7974
553.00 0.797
553.10 0.7966
553.20 0.7962
553.30 0.7958
553.40 0.7954
553.50 0.7949
553.60 0.7945
553.70 0.7941
553.80 0.7937
553.90 0.7933
554.00 0.7928
554.10 0.7924
554.20 0.792
554.30 0.7916
554.40 0.7912
554.50 0.7908
554.60 0.7904
554.70 0.7899
554.80 0.7895
554.90 0.7891
555.00 0.7887
555.10 0.7883
555.20 0.7879
555.30 0.7875
555.40 0.7871
555.50 0.7866
555.60 0.7862
555.70 0.7858
555.80 0.7854
555.90 0.785
556.00 0.7846
556.10 0.7842
556.20 0.7838
556.30 0.7834
556.40 0.7829
556.50 0.7825
556.60 0.7821
556.70 0.7817
556.80 0.7813
556.90 0.7809
557.00 0.7805
557.10 0.7801
557.20 0.7797
557.30 0.7793
557.40 0.7789
557.50 0.7785
557.60 0.7781
557.70 0.7776
557.80 0.7772
557.90 0.7768
558.00 0.7764
558.10 0.776
558.20 0.7756
558.30 0.7752
558.40 0.7748
558.50 0.7744
558.60 0.774
558.70 0.7736
558.80 0.7732
558.90 0.7728
559.00 0.7724
559.10 0.772
559.20 0.7716
559.30 0.7712
559.40 0.7708
559.50 0.7704
559.60 0.77
559.70 0.7696
559.80 0.7692
559.90 0.7688
560.00 0.7684
560.10 0.768
560.20 0.7676
560.30 0.7672
560.40 0.7668
560.50 0.7664
560.60 0.766
560.70 0.7656
560.80 0.7652
560.90 0.7648
561.00 0.7644
561.10 0.764
561.20 0.7636
561.30 0.7632
561.40 0.7628
561.50 0.7624
561.60 0.762
561.70 0.7616
561.80 0.7612
561.90 0.7608
562.00 0.7604
562.10 0.76
562.20 0.7596
562.30 0.7592
562.40 0.7588
562.50 0.7584
562.60 0.758
562.70 0.7576
562.80 0.7573
562.90 0.7569
563.00 0.7565
563.10 0.7561
563.20 0.7557
563.30 0.7553
563.40 0.7549
563.50 0.7545
563.60 0.7541
563.70 0.7537
563.80 0.7533
563.90 0.7529
564.00 0.7525
564.10 0.7522
564.20 0.7518
564.30 0.7514
564.40 0.751
564.50 0.7506
564.60 0.7502
564.70 0.7498
564.80 0.7494
564.90 0.749
565.00 0.7487
565.10 0.7483
565.20 0.7479
565.30 0.7475
565.40 0.7471
565.50 0.7467
565.60 0.7463
565.70 0.7459
565.80 0.7456
565.90 0.7452
566.00 0.7448
566.10 0.7444
566.20 0.744
566.30 0.7436
566.40 0.7432
566.50 0.7429
566.60 0.7425
566.70 0.7421
566.80 0.7417
566.90 0.7413
567.00 0.7409
567.10 0.7406
567.20 0.7402
567.30 0.7398
567.40 0.7394
567.50 0.739
567.60 0.7386
567.70 0.7383
567.80 0.7379
567.90 0.7375
568.00 0.7371
568.10 0.7367
568.20 0.7363
568.30 0.736
568.40 0.7356
568.50 0.7352
568.60 0.7348
568.70 0.7345
568.80 0.7341
568.90 0.7337
569.00 0.7333
569.10 0.7329
569.20 0.7326
569.30 0.7322
569.40 0.7318
569.50 0.7314
569.60 0.731
569.70 0.7307
569.80 0.7303
569.90 0.7299
570.00 0.7295
570.10 0.7292
570.20 0.7288
570.30 0.7284
570.40 0.728
570.50 0.7277
570.60 0.7273
570.70 0.7269
570.80 0.7265
570.90 0.7262
571.00 0.7258
571.10 0.7254
571.20 0.725
571.30 0.7247
571.40 0.7243
571.50 0.7239
571.60 0.7235
571.70 0.7232
571.80 0.7228
571.90 0.7224
572.00 0.7221
572.10 0.7217
572.20 0.7213
572.30 0.7209
572.40 0.7206
572.50 0.7202
572.60 0.7198
572.70 0.7195
572.80 0.7191
572.90 0.7187
573.00 0.7184
573.10 0.718
573.20 0.7176
573.30 0.7172
573.40 0.7169
573.50 0.7165
573.60 0.7161
573.70 0.7158
573.80 0.7154
573.90 0.715
574.00 0.7147
574.10 0.7143
574.20 0.7139
574.30 0.7136
574.40 0.7132
574.50 0.7128
574.60 0.7125
574.70 0.7121
574.80 0.7117
574.90 0.7114
575.00 0.711
575.10 0.7106
575.20 0.7103
575.30 0.7099
575.40 0.7095
575.50 0.7092
575.60 0.7088
575.70 0.7085
575.80 0.7081
575.90 0.7077
576.00 0.7074
576.10 0.707
576.20 0.7066
576.30 0.7063
576.40 0.7059
576.50 0.7056
576.60 0.7052
576.70 0.7048
576.80 0.7045
576.90 0.7041
577.00 0.7037
577.10 0.7034
577.20 0.703
577.30 0.7027
577.40 0.7023
577.50 0.7019
577.60 0.7016
577.70 0.7012
577.80 0.7009
577.90 0.7005
578.00 0.7002
578.10 0.6998
578.20 0.6994
578.30 0.6991
578.40 0.6987
578.50 0.6984
578.60 0.698
578.70 0.6977
578.80 0.6973
578.90 0.6969
579.00 0.6966
579.10 0.6962
579.20 0.6959
579.30 0.6955
579.40 0.6952
579.50 0.6948
579.60 0.6944
579.70 0.6941
579.80 0.6937
579.90 0.6934
580.00 0.693
580.10 0.6927
580.20 0.6923
580.30 0.692
580.40 0.6916
580.50 0.6913
580.60 0.6909
580.70 0.6906
580.80 0.6902
580.90 0.6898
581.00 0.6895
581.10 0.6891
581.20 0.6888
581.30 0.6884
581.40 0.6881
581.50 0.6877
581.60 0.6874
581.70 0.687
581.80 0.6867
581.90 0.6863
582.00 0.686
582.10 0.6856
582.20 0.6853
582.30 0.6849
582.40 0.6846
582.50 0.6842
582.60 0.6839
582.70 0.6836
582.80 0.6832
582.90 0.6829
583.00 0.6825
583.10 0.6822
583.20 0.6818
583.30 0.6815
583.40 0.6811
583.50 0.6808
583.60 0.6804
583.70 0.6801
583.80 0.6797
583.90 0.6794
584.00 0.679
584.10 0.6787
584.20 0.6784
584.30 0.678
584.40 0.6777
584.50 0.6773
584.60 0.677
584.70 0.6766
584.80 0.6763
584.90 0.6759
585.00 0.6756
585.10 0.6753
585.20 0.6749
585.30 0.6746
585.40 0.6742
585.50 0.6739
585.60 0.6735
585.70 0.6732
585.80 0.6729
585.90 0.6725
586.00 0.6722
586.10 0.6718
586.20 0.6715
586.30 0.6712
586.40 0.6708
586.50 0.6705
586.60 0.6701
586.70 0.6698
586.80 0.6695
586.90 0.6691
587.00 0.6688
587.10 0.6684
587.20 0.6681
587.30 0.6678
587.40 0.6674
587.50 0.6671
587.60 0.6667
587.70 0.6664
587.80 0.6661
587.90 0.6657
588.00 0.6654
588.10 0.6651
588.20 0.6647
588.30 0.6644
588.40 0.664
588.50 0.6637
588.60 0.6634
588.70 0.663
588.80 0.6627
588.90 0.6624
589.00 0.662
589.10 0.6617
589.20 0.6614
589.30 0.661
589.40 0.6607
589.50 0.6604
589.60 0.66
589.70 0.6597
589.80 0.6594
589.90 0.659
590.00 0.6587
590.10 0.6584
590.20 0.658
590.30 0.6577
590.40 0.6574
590.50 0.657
590.60 0.6567
590.70 0.6564
590.80 0.656
590.90 0.6557
591.00 0.6554
591.10 0.655
591.20 0.6547
591.30 0.6544
591.40 0.6541
591.50 0.6537
591.60 0.6534
591.70 0.6531
591.80 0.6527
591.90 0.6524
592.00 0.6521
592.10 0.6517
592.20 0.6514
592.30 0.6511
592.40 0.6508
592.50 0.6504
592.60 0.6501
592.70 0.6498
592.80 0.6494
592.90 0.6491
593.00 0.6488
593.10 0.6485
593.20 0.6481
593.30 0.6478
593.40 0.6475
593.50 0.6472
593.60 0.6468
593.70 0.6465
593.80 0.6462
593.90 0.6459
594.00 0.6455
594.10 0.6452
594.20 0.6449
594.30 0.6446
594.40 0.6442
594.50 0.6439
594.60 0.6436
594.70 0.6433
594.80 0.6429
594.90 0.6426
595.00 0.6423
595.10 0.642
595.20 0.6416
595.30 0.6413
595.40 0.641
595.50 0.6407
595.60 0.6404
595.70 0.64
595.80 0.6397
595.90 0.6394
596.00 0.6391
596.10 0.6387
596.20 0.6383
596.30 0.6377
596.40 0.6371
596.50 0.6366
596.60 0.636
596.70 0.6355
596.80 0.6349
596.90 0.6343
597.00 0.6338
597.10 0.6332
597.20 0.6328
597.30 0.6325
597.40 0.6322
597.50 0.6319
597.60 0.6315
597.70 0.6312
597.80 0.6309
597.90 0.6306
598.00 0.6302
598.10 0.6299
598.20 0.6296
598.30 0.6293
598.40 0.6289
598.50 0.6286
598.60 0.6283
598.70 0.628
598.80 0.6276
598.90 0.6273
599.00 0.627
599.10 0.6267
599.20 0.6263
599.30 0.626
599.40 0.6257
599.50 0.6254
599.60 0.625
599.70 0.6247
599.80 0.6244
599.90 0.6241
600.00 0.6238
600.10 0.6234
600.20 0.6231
600.30 0.6228
600.40 0.6225
600.50 0.6222
600.60 0.6218
600.70 0.6215
600.80 0.6212
600.90 0.6209
601.00 0.6206
601.10 0.6202
601.20 0.6199
601.30 0.6196
601.40 0.6193
601.50 0.619
601.60 0.6186
601.70 0.6183
601.80 0.618
601.90 0.6177
602.00 0.6174
602.10 0.617
602.20 0.6167
602.30 0.6164
602.40 0.6161
602.50 0.6158
602.60 0.6154
602.70 0.6151
602.80 0.6148
602.90 0.6145
603.00 0.6142
603.10 0.6139
603.20 0.6135
603.30 0.6132
603.40 0.6129
603.50 0.6126
603.60 0.6123
603.70 0.612
603.80 0.6116
603.90 0.6113
604.00 0.611
604.10 0.6107
604.20 0.6104
604.30 0.6101
604.40 0.6097
604.50 0.6094
604.60 0.6091
604.70 0.6088
604.80 0.6085
604.90 0.6082
605.00 0.6078
605.10 0.6075
605.20 0.6072
605.30 0.6069
605.40 0.6066
605.50 0.6063
605.60 0.606
605.70 0.6056
605.80 0.6053
605.90 0.605
606.00 0.6047
606.10 0.6044
606.20 0.6041
606.30 0.6038
606.40 0.6034
606.50 0.6031
606.60 0.6028
606.70 0.6025
606.80 0.6022
606.90 0.6019
607.00 0.6016
607.10 0.6013
607.20 0.6009
607.30 0.6006
607.40 0.6003
607.50 0.6
607.60 0.5997
607.70 0.5994
607.80 0.5991
607.90 0.5988
608.00 0.5984
608.10 0.5981
608.20 0.5978
608.30 0.5975
608.40 0.5972
608.50 0.5969
608.60 0.5966
608.70 0.5963
608.80 0.596
608.90 0.5956
609.00 0.5953
609.10 0.595
609.20 0.5947
609.30 0.5944
609.40 0.5941
609.50 0.5938
609.60 0.5935
609.70 0.5932
609.80 0.5928
609.90 0.5925
610.00 0.5922
610.10 0.5919
610.20 0.5916
610.30 0.5913
610.40 0.591
610.50 0.5907
610.60 0.5904
610.70 0.5901
610.80 0.5897
610.90 0.5894
611.00 0.5891
611.10 0.5888
611.20 0.5885
611.30 0.5882
611.40 0.5879
611.50 0.5876
611.60 0.5873
611.70 0.587
611.80 0.5867
611.90 0.5863
612.00 0.586
612.10 0.5857
612.20 0.5854
612.30 0.5851
612.40 0.5848
612.50 0.5845
612.60 0.5842
612.70 0.5839
612.80 0.5836
612.90 0.5833
613.00 0.583
613.10 0.5826
613.20 0.5823
613.30 0.582
613.40 0.5817
613.50 0.5814
613.60 0.5811
613.70 0.5808
613.80 0.5805
613.90 0.5802
614.00 0.5799
614.10 0.5796
614.20 0.5793
614.30 0.5789
614.40 0.5786
614.50 0.5783
614.60 0.578
614.70 0.5777
614.80 0.5774
614.90 0.5771
615.00 0.5768
615.10 0.5765
615.20 0.5762
615.30 0.5759
615.40 0.5756
615.50 0.5753
615.60 0.5749
615.70 0.5746
615.80 0.5743
615.90 0.574
616.00 0.5737
616.10 0.5734
616.20 0.5731
616.30 0.5728
616.40 0.5725
616.50 0.5722
616.60 0.5719
616.70 0.5716
616.80 0.5713
616.90 0.5709
617.00 0.5706
617.10 0.5703
617.20 0.57
617.30 0.5697
617.40 0.5694
617.50 0.5691
617.60 0.5688
617.70 0.5685
617.80 0.5682
617.90 0.5679
618.00 0.5676
618.10 0.5673
618.20 0.5669
618.30 0.5666
618.40 0.5663
618.50 0.566
618.60 0.5657
618.70 0.5654
618.80 0.5651
618.90 0.5648
619.00 0.5645
619.10 0.5642
619.20 0.5639
619.30 0.5636
619.40 0.5632
619.50 0.5629
619.60 0.5626
619.70 0.5623
619.80 0.562
619.90 0.5617
620.00 0.5614
620.10 0.5611
620.20 0.5608
620.30 0.5605
620.40 0.5602
620.50 0.5598
620.60 0.5595
620.70 0.5592
620.80 0.5589
620.90 0.5586
621.00 0.5583
621.10 0.558
621.20 0.5577
621.30 0.5574
621.40 0.557
621.50 0.5567
621.60 0.5564
621.70 0.5561
621.80 0.5558
621.90 0.5555
622.00 0.5552
622.10 0.5549
622.20 0.5546
622.30 0.5542
622.40 0.5539
622.50 0.5536
622.60 0.5533
622.70 0.553
622.80 0.5527
622.90 0.5524
623.00 0.5521
623.10 0.5517
623.20 0.5514
623.30 0.5511
623.40 0.5508
623.50 0.5505
623.60 0.5502
623.70 0.5499
623.80 0.5495
623.90 0.5492
624.00 0.5489
624.10 0.5486
624.20 0.5483
624.30 0.548
624.40 0.5477
624.50 0.5473
624.60 0.547
624.70 0.5467
624.80 0.5464
624.90 0.5461
625.00 0.5458
625.10 0.5454
625.20 0.5451
625.30 0.5448
625.40 0.5445
625.50 0.5442
625.60 0.5438
625.70 0.5435
625.80 0.5432
625.90 0.5429
626.00 0.5426
626.10 0.5423
626.20 0.5419
626.30 0.5416
626.40 0.5413
626.50 0.541
626.60 0.5406
626.70 0.5403
626.80 0.54
626.90 0.5397
627.00 0.5394
627.10 0.539
627.20 0.5387
627.30 0.5384
627.40 0.5381
627.50 0.5377
627.60 0.5374
627.70 0.5371
627.80 0.5368
627.90 0.5364
628.00 0.5361
628.10 0.5358
628.20 0.5355
628.30 0.5351
628.40 0.5348
628.50 0.5345
628.60 0.5341
628.70 0.5338
628.80 0.5335
628.90 0.5332
629.00 0.5328
629.10 0.5325
629.20 0.5322
629.30 0.5318
629.40 0.5315
629.50 0.5312
629.60 0.5308
629.70 0.5305
629.80 0.5302
629.90 0.5298
630.00 0.5295
630.10 0.5292
630.20 0.5288
630.30 0.5285
630.40 0.5281
630.50 0.5278
630.60 0.5275
630.70 0.5271
630.80 0.5268
630.90 0.5264
631.00 0.5261
631.10 0.5258
631.20 0.5254
631.30 0.5251
631.40 0.5247
631.50 0.5244
631.60 0.524
631.70 0.5237
631.80 0.5233
631.90 0.523
632.00 0.5226
632.10 0.5223
632.20 0.5219
632.30 0.5216
632.40 0.5212
632.50 0.5209
632.60 0.5205
632.70 0.5201
632.80 0.5198
632.90 0.5194
633.00 0.5191
633.10 0.5187
633.20 0.5184
633.30 0.518
633.40 0.5176
633.50 0.5172
633.60 0.5169
633.70 0.5165
633.80 0.5161
633.90 0.5158
634.00 0.5154
634.10 0.515
634.20 0.5147
634.30 0.5143
634.40 0.5139
634.50 0.5135
634.60 0.5131
634.70 0.5128
634.80 0.5124
634.90 0.512
635.00 0.5116
635.10 0.5112
635.20 0.5109
635.30 0.5105
635.40 0.5101
635.50 0.5097
635.60 0.5093
635.70 0.5089
635.80 0.5085
635.90 0.5081
636.00 0.5077
636.10 0.5073
636.20 0.5069
636.30 0.5065
636.40 0.5061
636.50 0.5057
636.60 0.5053
636.70 0.5048
636.80 0.5044
636.90 0.504
637.00 0.5036
637.10 0.5032
637.20 0.5028
637.30 0.5024
637.40 0.5019
637.50 0.5015
637.60 0.5011
637.70 0.5006
637.80 0.5002
637.90 0.4997
638.00 0.4993
638.10 0.4989
638.20 0.4984
638.30 0.498
638.40 0.4976
638.50 0.4971
638.60 0.4966
638.70 0.4962
638.80 0.4957
638.90 0.4953
639.00 0.4948
639.10 0.4944
639.20 0.4939
639.30 0.4934
639.40 0.493
639.50 0.4925
639.60 0.492
639.70 0.4915
639.80 0.491
639.90 0.4906
640.00 0.4901
640.10 0.4896
640.20 0.4891
640.30 0.4886
640.40 0.4881
640.50 0.4876
640.60 0.4871
640.70 0.4866
640.80 0.4861
640.90 0.4856
641.00 0.4851
641.10 0.4846
641.20 0.4841
641.30 0.4835
641.40 0.483
641.50 0.4825
641.60 0.4819
641.70 0.4814
641.80 0.4808
641.90 0.4803
642.00 0.4798
642.10 0.4792
642.20 0.4787
642.30 0.4781
642.40 0.4775
642.50 0.477
642.60 0.4764
642.70 0.4758
642.80 0.4752
642.90 0.4746
643.00 0.474
643.10 0.4735
643.20 0.4729
643.30 0.4723
643.40 0.4717
643.50 0.471
643.60 0.4704
643.70 0.4697
643.80 0.4691
643.90 0.4685
644.00 0.4678
644.10 0.4672
644.20 0.4666
644.30 0.4659
644.40 0.4652
644.50 0.4645
644.60 0.4638
644.70 0.4631
644.80 0.4624
644.90 0.4617
645.00 0.461
645.10 0.4603
645.20 0.4596
645.30 0.4589
645.40 0.4582
645.50 0.4574
645.60 0.4566
645.70 0.4559
645.80 0.4551
645.90 0.4544
646.00 0.4536
646.10 0.4529
646.20 0.4521
646.30 0.4514
646.40 0.4505
646.50 0.4496
646.60 0.4488
646.70 0.4479
646.80 0.4471
646.90 0.4462
647.00 0.4454
647.10 0.4445
647.20 0.4436
647.30 0.4428
647.40 0.4418
647.50 0.4408
647.60 0.4399
647.70 0.4389
647.80 0.438
647.90 0.437
648.00 0.436
648.10 0.4351
648.20 0.4341
648.30 0.4331
648.40 0.432
648.50 0.4309
648.60 0.4298
648.70 0.4286
648.80 0.4275
648.90 0.4264
649.00 0.4253
649.10 0.4241
649.20 0.423
649.30 0.4219
649.40 0.4205
649.50 0.4192
649.60 0.4179
649.70 0.4166
649.80 0.4153
649.90 0.414
650.00 0.4127
650.10 0.4114
650.20 0.4101
650.30 0.4087
650.40 0.4071
650.50 0.4056
650.60 0.404
650.70 0.4025
650.80 0.4009
650.90 0.3994
651.00 0.3978
651.10 0.3963
651.20 0.3947
651.30 0.3931
651.40 0.3912
651.50 0.3894
651.60 0.3875
651.70 0.3857
651.80 0.3838
651.90 0.382
652.00 0.3801
652.10 0.3782
652.20 0.3764
652.30 0.3745
652.40 0.3721
652.50 0.3698
652.60 0.3675
652.70 0.3652
652.80 0.3629
652.90 0.3606
653.00 0.3583
653.10 0.356
653.20 0.3537
653.30 0.3513
653.40 0.3483
653.50 0.3453
653.60 0.3424
653.70 0.3394
653.80 0.3364
653.90 0.3335
654.00 0.3305
654.10 0.3276
654.20 0.3246
654.30 0.3216
654.40 0.3182
654.50 0.3148
654.60 0.3115
654.70 0.3081
654.80 0.3047
654.90 0.3013
655.00 0.2979
655.10 0.2945
655.20 0.2911
655.30 0.2877
655.40 0.2841
655.50 0.2805
655.60 0.2765
655.70 0.2723
655.80 0.2674
655.90 0.2617
656.00 0.2529
656.10 0.243
656.20 0.2196
656.30 0.2044
656.40 0.2308
656.50 0.247
656.60 0.2557
656.70 0.2636
656.80 0.2683
656.90 0.2728
657.00 0.2766
657.10 0.2802
657.20 0.2835
657.30 0.2868
657.40 0.29
657.50 0.2931
657.60 0.2963
657.70 0.2994
657.80 0.3026
657.90 0.3056
658.00 0.3087
658.10 0.3118
658.20 0.3149
658.30 0.3179
658.40 0.3205
658.50 0.3231
658.60 0.3258
658.70 0.3284
658.80 0.331
658.90 0.3337
659.00 0.3363
659.10 0.3389
659.20 0.3415
659.30 0.344
659.40 0.346
659.50 0.3479
659.60 0.3499
659.70 0.3518
659.80 0.3537
659.90 0.3557
660.00 0.3576
660.10 0.3596
660.20 0.3615
660.30 0.3633
660.40 0.3648
660.50 0.3663
660.60 0.3677
660.70 0.3692
660.80 0.3707
660.90 0.3721
661.00 0.3736
661.10 0.3751
661.20 0.3765
661.30 0.3779
661.40 0.3791
661.50 0.3802
661.60 0.3814
661.70 0.3825
661.80 0.3837
661.90 0.3848
662.00 0.3859
662.10 0.3871
662.20 0.3882
662.30 0.3893
662.40 0.3902
662.50 0.3911
662.60 0.392
662.70 0.3929
662.80 0.3937
662.90 0.3946
663.00 0.3955
663.10 0.3964
663.20 0.3973
663.30 0.3981
663.40 0.3988
663.50 0.3995
663.60 0.4002
663.70 0.4009
663.80 0.4015
663.90 0.4022
664.00 0.4029
664.10 0.4036
664.20 0.4043
664.30 0.4049
664.40 0.4055
664.50 0.406
664.60 0.4065
664.70 0.407
664.80 0.4075
664.90 0.408
665.00 0.4085
665.10 0.4091
665.20 0.4096
665.30 0.4101
665.40 0.4105
665.50 0.4109
665.60 0.4113
665.70 0.4117
665.80 0.4121
665.90 0.4125
666.00 0.4129
666.10 0.4133
666.20 0.4137
666.30 0.4141
666.40 0.4144
666.50 0.4147
666.60 0.415
666.70 0.4153
666.80 0.4156
666.90 0.4159
667.00 0.4162
667.10 0.4165
667.20 0.4168
667.30 0.417
667.40 0.4173
667.50 0.4175
667.60 0.4178
667.70 0.418
667.80 0.4182
667.90 0.4185
668.00 0.4187
668.10 0.4189
668.20 0.4192
668.30 0.4194
668.40 0.4196
668.50 0.4197
668.60 0.4199
668.70 0.4201
668.80 0.4202
668.90 0.4204
669.00 0.4206
669.10 0.4207
669.20 0.4209
669.30 0.4211
669.40 0.4212
669.50 0.4213
669.60 0.4214
669.70 0.4215
669.80 0.4216
669.90 0.4218
670.00 0.4219
670.10 0.422
670.20 0.4221
670.30 0.4222
670.40 0.4223
670.50 0.4223
670.60 0.4224
670.70 0.4225
670.80 0.4225
670.90 0.4226
671.00 0.4227
671.10 0.4228
671.20 0.4228
671.30 0.4229
671.40 0.4229
671.50 0.423
671.60 0.423
671.70 0.423
671.80 0.4231
671.90 0.4231
672.00 0.4231
672.10 0.4232
672.20 0.4232
672.30 0.4232
672.40 0.4232
672.50 0.4233
672.60 0.4233
672.70 0.4233
672.80 0.4233
672.90 0.4233
673.00 0.4233
673.10 0.4233
673.20 0.4233
673.30 0.4233
673.40 0.4233
673.50 0.4233
673.60 0.4232
673.70 0.4232
673.80 0.4232
673.90 0.4232
674.00 0.4232
674.10 0.4231
674.20 0.4231
674.30 0.4231
674.40 0.4231
674.50 0.423
674.60 0.423
674.70 0.4229
674.80 0.4229
674.90 0.4228
675.00 0.4228
675.10 0.4228
675.20 0.4227
675.30 0.4227
675.40 0.4226
675.50 0.4226
675.60 0.4225
675.70 0.4224
675.80 0.4224
675.90 0.4223
676.00 0.4222
676.10 0.4222
676.20 0.4221
676.30 0.4221
676.40 0.422
676.50 0.4219
676.60 0.4218
676.70 0.4217
676.80 0.4217
676.90 0.4216
677.00 0.4215
677.10 0.4214
677.20 0.4214
677.30 0.4213
677.40 0.4212
677.50 0.4211
677.60 0.421
677.70 0.4209
677.80 0.4208
677.90 0.4207
678.00 0.4206
678.10 0.4205
678.20 0.4204
678.30 0.4203
678.40 0.4202
678.50 0.4201
678.60 0.42
678.70 0.4199
678.80 0.4198
678.90 0.4197
679.00 0.4196
679.10 0.4195
679.20 0.4194
679.30 0.4193
679.40 0.4192
679.50 0.4191
679.60 0.4189
679.70 0.4188
679.80 0.4187
679.90 0.4186
680.00 0.4185
680.10 0.4184
680.20 0.4183
680.30 0.4181
680.40 0.418
680.50 0.4179
680.60 0.4178
680.70 0.4176
680.80 0.4175
680.90 0.4174
681.00 0.4173
681.10 0.4171
681.20 0.417
681.30 0.4169
681.40 0.4168
681.50 0.4166
681.60 0.4165
681.70 0.4164
681.80 0.4162
681.90 0.4161
682.00 0.416
682.10 0.4159
682.20 0.4157
682.30 0.4156
682.40 0.4155
682.50 0.4153
682.60 0.4152
682.70 0.415
682.80 0.4149
682.90 0.4148
683.00 0.4146
683.10 0.4145
683.20 0.4144
683.30 0.4142
683.40 0.4141
683.50 0.4139
683.60 0.4138
683.70 0.4136
683.80 0.4135
683.90 0.4134
684.00 0.4132
684.10 0.4131
684.20 0.4129
684.30 0.4128
684.40 0.4126
684.50 0.4125
684.60 0.4124
684.70 0.4122
684.80 0.4121
684.90 0.4119
685.00 0.4118
685.10 0.4116
685.20 0.4115
685.30 0.4113
685.40 0.4112
685.50 0.411
685.60 0.4109
685.70 0.4107
685.80 0.4106
685.90 0.4104
686.00 0.4103
686.10 0.4101
686.20 0.41
686.30 0.4098
686.40 0.4097
686.50 0.4095
686.60 0.4094
686.70 0.4092
686.80 0.4091
686.90 0.4089
687.00 0.4088
687.10 0.4086
687.20 0.4085
687.30 0.4083
687.40 0.4082
687.50 0.408
687.60 0.4078
687.70 0.4077
687.80 0.4075
687.90 0.4074
688.00 0.4072
688.10 0.4071
688.20 0.4069
688.30 0.4068
688.40 0.4066
688.50 0.4064
688.60 0.4063
688.70 0.4061
688.80 0.406
688.90 0.4058
689.00 0.4057
689.10 0.4055
689.20 0.4053
689.30 0.4052
689.40 0.405
689.50 0.4048
689.60 0.4047
689.70 0.4045
689.80 0.4043
689.90 0.4042
690.00 0.404
690.10 0.4038
690.20 0.4037
690.30 0.4035
690.40 0.4033
690.50 0.4032
690.60 0.403
690.70 0.4028
690.80 0.4027
690.90 0.4025
691.00 0.4023
691.10 0.4022
691.20 0.402
691.30 0.4018
691.40 0.4017
691.50 0.4015
691.60 0.4014
691.70 0.4012
691.80 0.401
691.90 0.4009
692.00 0.4007
692.10 0.4005
692.20 0.4004
692.30 0.4002
692.40 0.4
692.50 0.3999
692.60 0.3997
692.70 0.3995
692.80 0.3994
692.90 0.3992
693.00 0.399
693.10 0.3989
693.20 0.3987
693.30 0.3985
693.40 0.3984
693.50 0.3982
693.60 0.3981
693.70 0.3979
693.80 0.3977
693.90 0.3976
694.00 0.3974
694.10 0.3972
694.20 0.3971
694.30 0.3969
694.40 0.3967
694.50 0.3966
694.60 0.3964
694.70 0.3963
694.80 0.3961
694.90 0.3959
695.00 0.3958
695.10 0.3956
695.20 0.3954
695.30 0.3953
695.40 0.3951
695.50 0.395
695.60 0.3948
695.70 0.3946
695.80 0.3945
695.90 0.3943
696.00 0.3941
696.10 0.394
696.20 0.3938
696.30 0.3937
696.40 0.3935
696.50 0.3933
696.60 0.3932
696.70 0.393
696.80 0.3928
696.90 0.3927
697.00 0.3925
697.10 0.3924
697.20 0.3922
697.30 0.392
697.40 0.3919
697.50 0.3917
697.60 0.3916
697.70 0.3914
697.80 0.3912
697.90 0.3911
698.00 0.3909
698.10 0.3908
698.20 0.3906
698.30 0.3904
698.40 0.3903
698.50 0.3901
698.60 0.39
698.70 0.3898
698.80 0.3896
698.90 0.3895
699.00 0.3893
699.10 0.3892
699.20 0.389
699.30 0.3888
699.40 0.3887
699.50 0.3885
699.60 0.3884
699.70 0.3882
699.80 0.388
699.90 0.3879
700.00 0.3877
700.10 0.3876
700.20 0.3874
700.30 0.3873
700.40 0.3871
700.50 0.387
700.60 0.3868
700.70 0.3867
700.80 0.3865
700.90 0.3864
701.00 0.3862
701.10 0.3861
701.20 0.386
701.30 0.3858
701.40 0.3857
701.50 0.3855
701.60 0.3854
701.70 0.3852
701.80 0.3851
701.90 0.3849
702.00 0.3848
702.10 0.3846
702.20 0.3845
702.30 0.3843
702.40 0.3842
702.50 0.384
702.60 0.3839
702.70 0.3838
702.80 0.3836
702.90 0.3835
703.00 0.3833
703.10 0.3832
703.20 0.383
703.30 0.3829
703.40 0.3827
703.50 0.3826
703.60 0.3824
703.70 0.3823
703.80 0.3822
703.90 0.382
704.00 0.3819
704.10 0.3817
704.20 0.3816
704.30 0.3814
704.40 0.3813
704.50 0.3811
704.60 0.381
704.70 0.3809
704.80 0.3807
704.90 0.3806
705.00 0.3804
705.10 0.3803
705.20 0.3801
705.30 0.3799
705.40 0.3798
705.50 0.3796
705.60 0.3794
705.70 0.3793
705.80 0.3791
705.90 0.3789
706.00 0.3788
706.10 0.3786
706.20 0.3784
706.30 0.3783
706.40 0.3781
706.50 0.378
706.60 0.3778
706.70 0.3776
706.80 0.3775
706.90 0.3773
707.00 0.3771
707.10 0.377
707.20 0.3768
707.30 0.3766
707.40 0.3765
707.50 0.3763
707.60 0.3762
707.70 0.376
707.80 0.3758
707.90 0.3757
708.00 0.3755
708.10 0.3753
708.20 0.3752
708.30 0.375
708.40 0.3749
708.50 0.3747
708.60 0.3745
708.70 0.3744
708.80 0.3742
708.90 0.374
709.00 0.3739
709.10 0.3737
709.20 0.3736
709.30 0.3734
709.40 0.3732
709.50 0.3731
709.60 0.3729
709.70 0.3727
709.80 0.3726
709.90 0.3724
710.00 0.3723
710.10 0.3721
710.20 0.3719
710.30 0.3718
710.40 0.3716
710.50 0.3715
710.60 0.3713
710.70 0.3711
710.80 0.371
710.90 0.3708
711.00 0.3706
711.10 0.3705
711.20 0.3703
711.30 0.3702
711.40 0.37
711.50 0.3698
711.60 0.3697
711.70 0.3695
711.80 0.3694
711.90 0.3692
712.00 0.369
712.10 0.3689
712.20 0.3687
712.30 0.3686
712.40 0.3684
712.50 0.3682
712.60 0.3681
712.70 0.3679
712.80 0.3678
712.90 0.3676
713.00 0.3674
713.10 0.3673
713.20 0.3671
713.30 0.367
713.40 0.3668
713.50 0.3666
713.60 0.3665
713.70 0.3663
713.80 0.3662
713.90 0.366
714.00 0.3658
714.10 0.3657
714.20 0.3655
714.30 0.3654
714.40 0.3652
714.50 0.365
714.60 0.3649
714.70 0.3647
714.80 0.3646
714.90 0.3644
715.00 0.3642
715.10 0.3641
715.20 0.364
715.30 0.3638
715.40 0.3637
715.50 0.3635
715.60 0.3634
715.70 0.3632
715.80 0.3631
715.90 0.3629
716.00 0.3628
716.10 0.3626
716.20 0.3625
716.30 0.3623
716.40 0.3622
716.50 0.362
716.60 0.3619
716.70 0.3617
716.80 0.3616
716.90 0.3614
717.00 0.3613
717.10 0.3612
717.20 0.361
717.30 0.3609
717.40 0.3607
717.50 0.3606
717.60 0.3604
717.70 0.3603
717.80 0.3601
717.90 0.36
718.00 0.3598
718.10 0.3597
718.20 0.3595
718.30 0.3594
718.40 0.3593
718.50 0.3591
718.60 0.359
718.70 0.3588
718.80 0.3587
718.90 0.3585
719.00 0.3584
719.10 0.3582
719.20 0.3581
719.30 0.3579
719.40 0.3578
719.50 0.3576
719.60 0.3575
719.70 0.3574
719.80 0.3572
719.90 0.3571
720.00 0.3569
720.10 0.3568
720.20 0.3566
720.30 0.3565
720.40 0.3563
720.50 0.3561
720.60 0.356
720.70 0.3558
720.80 0.3557
720.90 0.3555
721.00 0.3554
721.10 0.3552
721.20 0.355
721.30 0.3549
721.40 0.3547
721.50 0.3546
721.60 0.3544
721.70 0.3543
721.80 0.3541
721.90 0.3539
722.00 0.3538
722.10 0.3536
722.20 0.3535
722.30 0.3533
722.40 0.3532
722.50 0.353
722.60 0.3528
722.70 0.3527
722.80 0.3525
722.90 0.3524
723.00 0.3522
723.10 0.3521
723.20 0.3519
723.30 0.3518
723.40 0.3516
723.50 0.3514
723.60 0.3513
723.70 0.3511
723.80 0.351
723.90 0.3508
724.00 0.3507
724.10 0.3505
724.20 0.3504
724.30 0.3502
724.40 0.3501
724.50 0.3499
724.60 0.3497
724.70 0.3496
724.80 0.3494
724.90 0.3493
725.00 0.3491
725.10 0.349
725.20 0.3488
725.30 0.3487
725.40 0.3485
725.50 0.3484
725.60 0.3482
725.70 0.3481
725.80 0.3479
725.90 0.3478
726.00 0.3476
726.10 0.3474
726.20 0.3473
726.30 0.3471
726.40 0.347
726.50 0.3468
726.60 0.3467
726.70 0.3465
726.80 0.3464
726.90 0.3462
727.00 0.3461
727.10 0.3459
727.20 0.3458
727.30 0.3456
727.40 0.3455
727.50 0.3453
727.60 0.3452
727.70 0.345
727.80 0.3449
727.90 0.3447
728.00 0.3446
728.10 0.3444
728.20 0.3443
728.30 0.3441
728.40 0.344
728.50 0.3438
728.60 0.3437
728.70 0.3435
728.80 0.3433
728.90 0.3432
729.00 0.343
729.10 0.3429
729.20 0.3427
729.30 0.3426
729.40 0.3424
729.50 0.3423
729.60 0.3421
729.70 0.342
729.80 0.3418
729.90 0.3417
730.00 0.3415
730.10 0.3414
730.20 0.3412
730.30 0.3411
730.40 0.3409
730.50 0.3408
730.60 0.3407
730.70 0.3405
730.80 0.3404
730.90 0.3402
731.00 0.3401
731.10 0.3399
731.20 0.3398
731.30 0.3396
731.40 0.3395
731.50 0.3393
731.60 0.3392
731.70 0.339
731.80 0.3389
731.90 0.3387
732.00 0.3386
732.10 0.3384
732.20 0.3383
732.30 0.3381
732.40 0.338
732.50 0.3378
732.60 0.3377
732.70 0.3375
732.80 0.3374
732.90 0.3372
733.00 0.3371
733.10 0.337
733.20 0.3368
733.30 0.3367
733.40 0.3365
733.50 0.3364
733.60 0.3362
733.70 0.3361
733.80 0.3359
733.90 0.3358
734.00 0.3356
734.10 0.3355
734.20 0.3353
734.30 0.3352
734.40 0.335
734.50 0.3349
734.60 0.3348
734.70 0.3346
734.80 0.3345
734.90 0.3343
735.00 0.3342
735.10 0.334
735.20 0.3339
735.30 0.3337
735.40 0.3336
735.50 0.3334
735.60 0.3333
735.70 0.3332
735.80 0.333
735.90 0.3329
736.00 0.3327
736.10 0.3326
736.20 0.3324
736.30 0.3323
736.40 0.3321
736.50 0.332
736.60 0.3319
736.70 0.3317
736.80 0.3316
736.90 0.3314
737.00 0.3313
737.10 0.3311
737.20 0.331
737.30 0.3308
737.40 0.3307
737.50 0.3306
737.60 0.3304
737.70 0.3303
737.80 0.3301
737.90 0.33
738.00 0.3298
738.10 0.3297
738.20 0.3295
738.30 0.3294
738.40 0.3293
738.50 0.3291
738.60 0.329
738.70 0.3288
738.80 0.3287
738.90 0.3285
739.00 0.3284
739.10 0.3283
739.20 0.3281
739.30 0.328
739.40 0.3278
739.50 0.3277
739.60 0.3275
739.70 0.3274
739.80 0.3273
739.90 0.3271
740.00 0.327
740.10 0.3268
740.20 0.3267
740.30 0.3265
740.40 0.3264
740.50 0.3263
740.60 0.3261
740.70 0.326
740.80 0.3258
740.90 0.3257
741.00 0.3256
741.10 0.3254
741.20 0.3253
741.30 0.3251
741.40 0.325
741.50 0.3249
741.60 0.3247
741.70 0.3246
741.80 0.3244
741.90 0.3243
742.00 0.3242
742.10 0.324
742.20 0.3239
742.30 0.3237
742.40 0.3236
742.50 0.3235
742.60 0.3233
742.70 0.3232
742.80 0.323
742.90 0.3229
743.00 0.3228
743.10 0.3226
743.20 0.3225
743.30 0.3223
743.40 0.3222
743.50 0.3221
743.60 0.3219
743.70 0.3218
743.80 0.3216
743.90 0.3215
744.00 0.3214
744.10 0.3212
744.20 0.3211
744.30 0.3209
744.40 0.3208
744.50 0.3207
744.60 0.3205
744.70 0.3204
744.80 0.3203
744.90 0.3201
745.00 0.32
745.10 0.3198
745.20 0.3197
745.30 0.3196
745.40 0.3194
745.50 0.3193
745.60 0.3192
745.70 0.319
745.80 0.3189
745.90 0.3187
746.00 0.3186
746.10 0.3185
746.20 0.3183
746.30 0.3182
746.40 0.3181
746.50 0.3179
746.60 0.3178
746.70 0.3176
746.80 0.3175
746.90 0.3174
747.00 0.3172
747.10 0.3171
747.20 0.317
747.30 0.3168
747.40 0.3167
747.50 0.3165
747.60 0.3164
747.70 0.3163
747.80 0.3161
747.90 0.316
748.00 0.3159
748.10 0.3157
748.20 0.3156
748.30 0.3155
748.40 0.3153
748.50 0.3152
748.60 0.315
748.70 0.3149
748.80 0.3148
748.90 0.3146
749.00 0.3145
749.10 0.3144
749.20 0.3142
749.30 0.3141
749.40 0.314
749.50 0.3138
749.60 0.3137
749.70 0.3136
749.80 0.3134
749.90 0.3133
750.00 0.3131
750.10 0.313
750.20 0.3129
750.30 0.3127
750.40 0.3126
750.50 0.3125
750.60 0.3123
750.70 0.3122
750.80 0.3121
750.90 0.3119
751.00 0.3118
751.10 0.3117
751.20 0.3115
751.30 0.3114
751.40 0.3113
751.50 0.3111
751.60 0.311
751.70 0.3109
751.80 0.3107
751.90 0.3106
752.00 0.3105
752.10 0.3103
752.20 0.3102
752.30 0.3101
752.40 0.3099
752.50 0.3098
752.60 0.3097
752.70 0.3095
752.80 0.3094
752.90 0.3093
753.00 0.3092
753.10 0.309
753.20 0.3089
753.30 0.3088
753.40 0.3086
753.50 0.3085
753.60 0.3084
753.70 0.3082
753.80 0.3081
753.90 0.308
754.00 0.3078
754.10 0.3077
754.20 0.3076
754.30 0.3074
754.40 0.3073
754.50 0.3072
754.60 0.307
754.70 0.3069
754.80 0.3068
754.90 0.3066
755.00 0.3065
755.10 0.3064
755.20 0.3063
755.30 0.3061
755.40 0.306
755.50 0.3059
755.60 0.3057
755.70 0.3056
755.80 0.3055
755.90 0.3053
756.00 0.3052
756.10 0.3051
756.20 0.3049
756.30 0.3048
756.40 0.3047
756.50 0.3046
756.60 0.3044
756.70 0.3043
756.80 0.3042
756.90 0.304
757.00 0.3039
757.10 0.3038
757.20 0.3036
757.30 0.3035
757.40 0.3034
757.50 0.3033
757.60 0.3031
757.70 0.303
757.80 0.3029
757.90 0.3027
758.00 0.3026
758.10 0.3025
758.20 0.3024
758.30 0.3022
758.40 0.3021
758.50 0.302
758.60 0.3018
758.70 0.3017
758.80 0.3016
758.90 0.3014
759.00 0.3013
759.10 0.3012
759.20 0.3011
759.30 0.3009
759.40 0.3008
759.50 0.3007
759.60 0.3005
759.70 0.3004
759.80 0.3003
759.90 0.3002
760.00 0.3
760.10 0.2999
760.20 0.2998
760.30 0.2997
760.40 0.2995
760.50 0.2994
760.60 0.2993
760.70 0.2991
760.80 0.299
760.90 0.2989
761.00 0.2988
761.10 0.2986
761.20 0.2985
761.30 0.2984
761.40 0.2983
761.50 0.2981
761.60 0.298
761.70 0.2979
761.80 0.2978
761.90 0.2976
762.00 0.2975
762.10 0.2974
762.20 0.2973
762.30 0.2971
762.40 0.297
762.50 0.2969
762.60 0.2967
762.70 0.2966
762.80 0.2965
762.90 0.2964
763.00 0.2962
763.10 0.2961
763.20 0.296
763.30 0.2959
763.40 0.2957
763.50 0.2956
763.60 0.2955
763.70 0.2954
763.80 0.2952
763.90 0.2951
764.00 0.295
764.10 0.2949
764.20 0.2947
764.30 0.2946
764.40 0.2945
764.50 0.2944
764.60 0.2942
764.70 0.2941
764.80 0.294
764.90 0.2939
765.00 0.2937
765.10 0.2936
765.20 0.2935
765.30 0.2934
765.40 0.2932
765.50 0.2931
765.60 0.293
765.70 0.2929
765.80 0.2928
765.90 0.2926
766.00 0.2925
766.10 0.2924
766.20 0.2923
766.30 0.2921
766.40 0.292
766.50 0.2919
766.60 0.2918
766.70 0.2916
766.80 0.2915
766.90 0.2914
767.00 0.2913
767.10 0.2911
767.20 0.291
767.30 0.2909
767.40 0.2908
767.50 0.2907
767.60 0.2905
767.70 0.2904
767.80 0.2903
767.90 0.2902
768.00 0.29
768.10 0.2899
768.20 0.2898
768.30 0.2897
768.40 0.2895
768.50 0.2894
768.60 0.2893
768.70 0.2892
768.80 0.2891
768.90 0.2889
769.00 0.2888
769.10 0.2887
769.20 0.2886
769.30 0.2884
769.40 0.2883
769.50 0.2882
769.60 0.2881
769.70 0.288
769.80 0.2878
769.90 0.2877
770.00 0.2876
770.10 0.2875
770.20 0.2874
770.30 0.2872
770.40 0.2871
770.50 0.287
770.60 0.2869
770.70 0.2868
770.80 0.2866
770.90 0.2865
771.00 0.2864
771.10 0.2863
771.20 0.2862
771.30 0.286
771.40 0.2859
771.50 0.2858
771.60 0.2857
771.70 0.2856
771.80 0.2854
771.90 0.2853
772.00 0.2852
772.10 0.2851
772.20 0.285
772.30 0.2848
772.40 0.2847
772.50 0.2846
772.60 0.2845
772.70 0.2844
772.80 0.2842
772.90 0.2841
773.00 0.284
773.10 0.2839
773.20 0.2838
773.30 0.2836
773.40 0.2835
773.50 0.2834
773.60 0.2833
773.70 0.2832
773.80 0.283
773.90 0.2829
774.00 0.2828
774.10 0.2827
774.20 0.2826
774.30 0.2825
774.40 0.2823
774.50 0.2822
774.60 0.2821
774.70 0.282
774.80 0.2819
774.90 0.2817
775.00 0.2816
775.10 0.2815
775.20 0.2814
775.30 0.2813
775.40 0.2811
775.50 0.281
775.60 0.2809
775.70 0.2808
775.80 0.2807
775.90 0.2806
776.00 0.2804
776.10 0.2803
776.20 0.2802
776.30 0.2801
776.40 0.28
776.50 0.2799
776.60 0.2797
776.70 0.2796
776.80 0.2795
776.90 0.2794
777.00 0.2793
777.10 0.2792
777.20 0.279
777.30 0.2789
777.40 0.2788
777.50 0.2787
777.60 0.2786
777.70 0.2784
777.80 0.2783
777.90 0.2782
778.00 0.2781
778.10 0.278
778.20 0.2779
778.30 0.2777
778.40 0.2776
778.50 0.2775
778.60 0.2774
778.70 0.2773
778.80 0.2772
778.90 0.2771
779.00 0.2769
779.10 0.2768
779.20 0.2767
779.30 0.2766
779.40 0.2765
779.50 0.2764
779.60 0.2762
779.70 0.2761
779.80 0.276
779.90 0.2759
780.00 0.2758
780.10 0.2757
780.20 0.2755
780.30 0.2754
780.40 0.2753
780.50 0.2752
780.60 0.2751
780.70 0.275
780.80 0.2749
780.90 0.2747
781.00 0.2746
781.10 0.2745
781.20 0.2744
781.30 0.2743
781.40 0.2742
781.50 0.2741
781.60 0.2739
781.70 0.2738
781.80 0.2737
781.90 0.2736
782.00 0.2735
782.10 0.2734
782.20 0.2733
782.30 0.2732
782.40 0.273
782.50 0.2729
782.60 0.2728
782.70 0.2727
782.80 0.2726
782.90 0.2725
783.00 0.2724
783.10 0.2722
783.20 0.2721
783.30 0.272
783.40 0.2719
783.50 0.2718
783.60 0.2717
783.70 0.2716
783.80 0.2715
783.90 0.2713
784.00 0.2712
784.10 0.2711
784.20 0.271
784.30 0.2709
784.40 0.2708
784.50 0.2707
784.60 0.2706
784.70 0.2704
784.80 0.2703
784.90 0.2702
785.00 0.2701
785.10 0.27
785.20 0.2699
785.30 0.2698
785.40 0.2697
785.50 0.2695
785.60 0.2694
785.70 0.2693
785.80 0.2692
785.90 0.2691
786.00 0.269
786.10 0.2689
786.20 0.2688
786.30 0.2687
786.40 0.2685
786.50 0.2684
786.60 0.2683
786.70 0.2682
786.80 0.2681
786.90 0.268
787.00 0.2679
787.10 0.2678
787.20 0.2676
787.30 0.2675
787.40 0.2674
787.50 0.2673
787.60 0.2672
787.70 0.2671
787.80 0.267
787.90 0.2669
788.00 0.2668
788.10 0.2667
788.20 0.2665
788.30 0.2664
788.40 0.2663
788.50 0.2662
788.60 0.2661
788.70 0.266
788.80 0.2659
788.90 0.2658
789.00 0.2657
789.10 0.2655
789.20 0.2654
789.30 0.2653
789.40 0.2652
789.50 0.2651
789.60 0.265
789.70 0.2649
789.80 0.2648
789.90 0.2647
790.00 0.2646
790.10 0.2644
790.20 0.2643
790.30 0.2642
790.40 0.2641
790.50 0.264
790.60 0.2639
790.70 0.2638
790.80 0.2637
790.90 0.2636
791.00 0.2635
791.10 0.2634
791.20 0.2633
791.30 0.2631
791.40 0.263
791.50 0.2629
791.60 0.2628
791.70 0.2627
791.80 0.2626
791.90 0.2625
792.00 0.2624
792.10 0.2623
792.20 0.2622
792.30 0.2621
792.40 0.262
792.50 0.2618
792.60 0.2617
792.70 0.2616
792.80 0.2615
792.90 0.2614
793.00 0.2613
793.10 0.2612
793.20 0.2611
793.30 0.261
793.40 0.2609
793.50 0.2608
793.60 0.2607
793.70 0.2606
793.80 0.2604
793.90 0.2603
794.00 0.2602
794.10 0.2601
794.20 0.26
794.30 0.2599
794.40 0.2598
794.50 0.2597
794.60 0.2596
794.70 0.2595
794.80 0.2594
794.90 0.2593
795.00 0.2592
795.10 0.2591
795.20 0.259
795.30 0.2588
795.40 0.2587
795.50 0.2586
795.60 0.2585
795.70 0.2584
795.80 0.2583
795.90 0.2582
796.00 0.2581
796.10 0.258
796.20 0.2579
796.30 0.2578
796.40 0.2577
796.50 0.2576
796.60 0.2575
796.70 0.2574
796.80 0.2573
796.90 0.2571
797.00 0.257
797.10 0.2569
797.20 0.2568
797.30 0.2567
797.40 0.2566
797.50 0.2565
797.60 0.2564
797.70 0.2563
797.80 0.2562
797.90 0.2561
798.00 0.256
798.10 0.2559
798.20 0.2558
798.30 0.2557
798.40 0.2556
798.50 0.2555
798.60 0.2554
798.70 0.2552
798.80 0.2551
798.90 0.255
799.00 0.2549
799.10 0.2548
799.20 0.2547
799.30 0.2546
799.40 0.2545
799.50 0.2544
799.60 0.2543
799.70 0.2542
799.80 0.2541
799.90 0.254
800.00 0.2539
800.10 0.2538
800.20 0.2537
800.30 0.2536
800.40 0.2535
800.50 0.2534
800.60 0.2533
800.70 0.2532
800.80 0.2531
800.90 0.253
801.00 0.2529
801.10 0.2528
801.20 0.2526
801.30 0.2525
801.40 0.2524
801.50 0.2523
801.60 0.2522
801.70 0.2521
801.80 0.252
801.90 0.2519
802.00 0.2518
802.10 0.2517
802.20 0.2516
802.30 0.2515
802.40 0.2514
802.50 0.2513
802.60 0.2512
802.70 0.2511
802.80 0.251
802.90 0.2509
803.00 0.2508
803.10 0.2507
803.20 0.2506
803.30 0.2505
803.40 0.2504
803.50 0.2503
803.60 0.2502
803.70 0.2501
803.80 0.25
803.90 0.2499
804.00 0.2498
804.10 0.2497
804.20 0.2496
804.30 0.2495
804.40 0.2494
804.50 0.2493
804.60 0.2492
804.70 0.2491
804.80 0.249
804.90 0.2489
805.00 0.2488
805.10 0.2487
805.20 0.2486
805.30 0.2485
805.40 0.2484
805.50 0.2483
805.60 0.2482
805.70 0.2481
805.80 0.248
805.90 0.2478
806.00 0.2477
806.10 0.2476
806.20 0.2475
806.30 0.2474
806.40 0.2473
806.50 0.2472
806.60 0.2471
806.70 0.247
806.80 0.2469
806.90 0.2468
807.00 0.2467
807.10 0.2466
807.20 0.2465
807.30 0.2464
807.40 0.2463
807.50 0.2462
807.60 0.2461
807.70 0.246
807.80 0.2459
807.90 0.2458
808.00 0.2457
808.10 0.2456
808.20 0.2455
808.30 0.2454
808.40 0.2453
808.50 0.2452
808.60 0.2451
808.70 0.245
808.80 0.2449
808.90 0.2448
809.00 0.2447
809.10 0.2446
809.20 0.2445
809.30 0.2444
809.40 0.2443
809.50 0.2442
809.60 0.2441
809.70 0.244
809.80 0.2439
809.90 0.2438
810.00 0.2437
810.10 0.2436
810.20 0.2435
810.30 0.2434
810.40 0.2433
810.50 0.2432
810.60 0.2431
810.70 0.2431
810.80 0.243
810.90 0.2429
811.00 0.2428
811.10 0.2427
811.20 0.2426
811.30 0.2425
811.40 0.2424
811.50 0.2423
811.60 0.2422
811.70 0.2421
811.80 0.242
811.90 0.2419
812.00 0.2418
812.10 0.2417
812.20 0.2416
812.30 0.2415
812.40 0.2414
812.50 0.2413
812.60 0.2412
812.70 0.2411
812.80 0.241
812.90 0.2409
813.00 0.2408
813.10 0.2407
813.20 0.2406
813.30 0.2405
813.40 0.2404
813.50 0.2403
813.60 0.2402
813.70 0.2401
813.80 0.24
813.90 0.2399
814.00 0.2398
814.10 0.2397
814.20 0.2396
814.30 0.2395
814.40 0.2394
814.50 0.2393
814.60 0.2393
814.70 0.2392
814.80 0.2391
814.90 0.239
815.00 0.2389
815.10 0.2388
815.20 0.2387
815.30 0.2386
815.40 0.2385
815.50 0.2384
815.60 0.2383
815.70 0.2382
815.80 0.2381
815.90 0.238
816.00 0.2379
816.10 0.2378
816.20 0.2377
816.30 0.2376
816.40 0.2375
816.50 0.2374
816.60 0.2373
816.70 0.2372
816.80 0.2371
816.90 0.237
817.00 0.2369
817.10 0.2368
817.20 0.2368
817.30 0.2367
817.40 0.2366
817.50 0.2365
817.60 0.2364
817.70 0.2363
817.80 0.2362
817.90 0.2361
818.00 0.236
818.10 0.2359
818.20 0.2358
818.30 0.2357
818.40 0.2356
818.50 0.2355
818.60 0.2354
818.70 0.2353
818.80 0.2352
818.90 0.2351
819.00 0.235
819.10 0.2349
819.20 0.2348
819.30 0.2348
819.40 0.2347
819.50 0.2346
819.60 0.2345
819.70 0.2344
819.80 0.2343
819.90 0.2342
820.00 0.2341
820.10 0.234
820.20 0.2339
820.30 0.2338
820.40 0.2337
820.50 0.2336
820.60 0.2336
820.70 0.2335
820.80 0.2334
820.90 0.2333
821.00 0.2332
821.10 0.2331
821.20 0.233
821.30 0.2329
821.40 0.2328
821.50 0.2327
821.60 0.2326
821.70 0.2325
821.80 0.2324
821.90 0.2323
822.00 0.2322
822.10 0.2321
822.20 0.2321
822.30 0.232
822.40 0.2319
822.50 0.2318
822.60 0.2317
822.70 0.2316
822.80 0.2315
822.90 0.2314
823.00 0.2313
823.10 0.2312
823.20 0.2311
823.30 0.231
823.40 0.2309
823.50 0.2309
823.60 0.2308
823.70 0.2307
823.80 0.2306
823.90 0.2305
824.00 0.2304
824.10 0.2303
824.20 0.2302
824.30 0.2301
824.40 0.23
824.50 0.2299
824.60 0.2298
824.70 0.2297
824.80 0.2297
824.90 0.2296
825.00 0.2295
825.10 0.2294
825.20 0.2293
825.30 0.2292
825.40 0.2291
825.50 0.229
825.60 0.2289
825.70 0.2288
825.80 0.2287
825.90 0.2286
826.00 0.2286
826.10 0.2285
826.20 0.2284
826.30 0.2283
826.40 0.2282
826.50 0.2281
826.60 0.228
826.70 0.2279
826.80 0.2278
826.90 0.2277
827.00 0.2276
827.10 0.2275
827.20 0.2275
827.30 0.2274
827.40 0.2273
827.50 0.2272
827.60 0.2271
827.70 0.227
827.80 0.2269
827.90 0.2268
828.00 0.2267
828.10 0.2266
828.20 0.2266
828.30 0.2265
828.40 0.2264
828.50 0.2263
828.60 0.2262
828.70 0.2261
828.80 0.226
828.90 0.2259
829.00 0.2258
829.10 0.2257
829.20 0.2257
829.30 0.2256
829.40 0.2255
829.50 0.2254
829.60 0.2253
829.70 0.2252
829.80 0.2251
829.90 0.225
830.00 0.2249
830.10 0.2248
830.20 0.2248
830.30 0.2247
830.40 0.2246
830.50 0.2245
830.60 0.2244
830.70 0.2243
830.80 0.2242
830.90 0.2241
831.00 0.224
831.10 0.2239
831.20 0.2239
831.30 0.2238
831.40 0.2237
831.50 0.2236
831.60 0.2235
831.70 0.2234
831.80 0.2233
831.90 0.2232
832.00 0.2231
832.10 0.2231
832.20 0.223
832.30 0.2229
832.40 0.2228
832.50 0.2227
832.60 0.2226
832.70 0.2225
832.80 0.2224
832.90 0.2223
833.00 0.2223
833.10 0.2222
833.20 0.2221
833.30 0.222
833.40 0.2219
833.50 0.2218
833.60 0.2217
833.70 0.2216
833.80 0.2216
833.90 0.2215
834.00 0.2214
834.10 0.2213
834.20 0.2212
834.30 0.2211
834.40 0.221
834.50 0.2209
834.60 0.2209
834.70 0.2208
834.80 0.2207
834.90 0.2206
835.00 0.2205
835.10 0.2204
835.20 0.2203
835.30 0.2202
835.40 0.2202
835.50 0.2201
835.60 0.22
835.70 0.2199
835.80 0.2198
835.90 0.2197
836.00 0.2196
836.10 0.2195
836.20 0.2195
836.30 0.2194
836.40 0.2193
836.50 0.2192
836.60 0.2191
836.70 0.219
836.80 0.2189
836.90 0.2188
837.00 0.2188
837.10 0.2187
837.20 0.2186
837.30 0.2185
837.40 0.2184
837.50 0.2183
837.60 0.2182
837.70 0.2182
837.80 0.2181
837.90 0.218
838.00 0.2179
838.10 0.2178
838.20 0.2177
838.30 0.2176
838.40 0.2176
838.50 0.2175
838.60 0.2174
838.70 0.2173
838.80 0.2172
838.90 0.2171
839.00 0.217
839.10 0.217
839.20 0.2169
839.30 0.2168
839.40 0.2167
839.50 0.2166
839.60 0.2165
839.70 0.2164
839.80 0.2164
839.90 0.2163
840.00 0.2162
840.10 0.2161
840.20 0.216
840.30 0.2159
840.40 0.2158
840.50 0.2158
840.60 0.2157
840.70 0.2156
840.80 0.2155
840.90 0.2154
841.00 0.2153
841.10 0.2152
841.20 0.2152
841.30 0.2151
841.40 0.215
841.50 0.2149
841.60 0.2148
841.70 0.2147
841.80 0.2147
841.90 0.2146
842.00 0.2145
842.10 0.2144
842.20 0.2143
842.30 0.2142
842.40 0.2141
842.50 0.2141
842.60 0.214
842.70 0.2139
842.80 0.2138
842.90 0.2137
843.00 0.2136
843.10 0.2136
843.20 0.2135
843.30 0.2134
843.40 0.2133
843.50 0.2132
843.60 0.2131
843.70 0.2131
843.80 0.213
843.90 0.2129
844.00 0.2128
844.10 0.2127
844.20 0.2126
844.30 0.2126
844.40 0.2125
844.50 0.2124
844.60 0.2123
844.70 0.2122
844.80 0.2121
844.90 0.2121
845.00 0.212
845.10 0.2119
845.20 0.2118
845.30 0.2117
845.40 0.2116
845.50 0.2116
845.60 0.2115
845.70 0.2114
845.80 0.2113
845.90 0.2112
846.00 0.2111
846.10 0.2111
846.20 0.211
846.30 0.2109
846.40 0.2108
846.50 0.2107
846.60 0.2106
846.70 0.2106
846.80 0.2105
846.90 0.2104
847.00 0.2103
847.10 0.2102
847.20 0.2101
847.30 0.2101
847.40 0.21
847.50 0.2099
847.60 0.2098
847.70 0.2097
847.80 0.2097
847.90 0.2096
848.00 0.2095
848.10 0.2094
848.20 0.2093
848.30 0.2093
848.40 0.2092
848.50 0.2091
848.60 0.209
848.70 0.2089
848.80 0.2088
848.90 0.2088
849.00 0.2087
849.10 0.2086
849.20 0.2085
849.30 0.2084
849.40 0.2084
849.50 0.2083
849.60 0.2082
849.70 0.2081
849.80 0.208
849.90 0.208
850.00 0.2079
850.10 0.2078
850.20 0.2077
850.30 0.2076
850.40 0.2076
850.50 0.2075
850.60 0.2074
850.70 0.2073
850.80 0.2072
850.90 0.2072
851.00 0.2071
851.10 0.207
851.20 0.2069
851.30 0.2068
851.40 0.2068
851.50 0.2067
851.60 0.2066
851.70 0.2065
851.80 0.2064
851.90 0.2064
852.00 0.2063
852.10 0.2062
852.20 0.2061
852.30 0.206
852.40 0.206
852.50 0.2059
852.60 0.2058
852.70 0.2057
852.80 0.2057
852.90 0.2056
853.00 0.2055
853.10 0.2054
853.20 0.2053
853.30 0.2053
853.40 0.2052
853.50 0.2051
853.60 0.205
853.70 0.2049
853.80 0.2049
853.90 0.2048
854.00 0.2047
854.10 0.2046
854.20 0.2046
854.30 0.2045
854.40 0.2044
854.50 0.2043
854.60 0.2042
854.70 0.2042
854.80 0.2041
854.90 0.204
855.00 0.2039
855.10 0.2038
855.20 0.2038
855.30 0.2037
855.40 0.2036
855.50 0.2035
855.60 0.2035
855.70 0.2034
855.80 0.2033
855.90 0.2032
856.00 0.2031
856.10 0.2031
856.20 0.203
856.30 0.2029
856.40 0.2028
856.50 0.2028
856.60 0.2027
856.70 0.2026
856.80 0.2025
856.90 0.2024
857.00 0.2024
857.10 0.2023
857.20 0.2022
857.30 0.2021
857.40 0.2021
857.50 0.202
857.60 0.2019
857.70 0.2018
857.80 0.2018
857.90 0.2017
858.00 0.2016
858.10 0.2015
858.20 0.2015
858.30 0.2014
858.40 0.2013
858.50 0.2012
858.60 0.2012
858.70 0.2011
858.80 0.201
858.90 0.2009
859.00 0.2008
859.10 0.2008
859.20 0.2007
859.30 0.2006
859.40 0.2005
859.50 0.2005
859.60 0.2004
859.70 0.2003
859.80 0.2002
859.90 0.2002
860.00 0.2001
860.10 0.2
860.20 0.1999
860.30 0.1999
860.40 0.1998
860.50 0.1997
860.60 0.1996
860.70 0.1996
860.80 0.1995
860.90 0.1994
861.00 0.1993
861.10 0.1993
861.20 0.1992
861.30 0.1991
861.40 0.199
861.50 0.199
861.60 0.1989
861.70 0.1988
861.80 0.1987
861.90 0.1987
862.00 0.1986
862.10 0.1985
862.20 0.1984
862.30 0.1984
862.40 0.1983
862.50 0.1982
862.60 0.1981
862.70 0.1981
862.80 0.198
862.90 0.1979
863.00 0.1979
863.10 0.1978
863.20 0.1977
863.30 0.1976
863.40 0.1976
863.50 0.1975
863.60 0.1974
863.70 0.1973
863.80 0.1973
863.90 0.1972
864.00 0.1971
864.10 0.197
864.20 0.197
864.30 0.1969
864.40 0.1968
864.50 0.1967
864.60 0.1967
864.70 0.1966
864.80 0.1965
864.90 0.1965
865.00 0.1964
865.10 0.1963
865.20 0.1962
865.30 0.1962
865.40 0.1961
865.50 0.196
865.60 0.1959
865.70 0.1959
865.80 0.1958
865.90 0.1957
866.00 0.1956
866.10 0.1956
866.20 0.1955
866.30 0.1954
866.40 0.1954
866.50 0.1953
866.60 0.1952
866.70 0.1951
866.80 0.1951
866.90 0.195
867.00 0.1949
867.10 0.1948
867.20 0.1948
867.30 0.1947
867.40 0.1946
867.50 0.1946
867.60 0.1945
867.70 0.1944
867.80 0.1944
867.90 0.1943
868.00 0.1942
868.10 0.1942
868.20 0.1941
868.30 0.194
868.40 0.1939
868.50 0.1939
868.60 0.1938
868.70 0.1937
868.80 0.1937
868.90 0.1936
869.00 0.1935
869.10 0.1935
869.20 0.1934
869.30 0.1933
869.40 0.1933
869.50 0.1932
869.60 0.1931
869.70 0.193
869.80 0.193
869.90 0.1929
870.00 0.1928
870.10 0.1928
870.20 0.1927
870.30 0.1926
870.40 0.1926
870.50 0.1925
870.60 0.1924
870.70 0.1924
870.80 0.1923
870.90 0.1922
871.00 0.1922
871.10 0.1921
871.20 0.192
871.30 0.192
871.40 0.1919
871.50 0.1918
871.60 0.1917
871.70 0.1917
871.80 0.1916
871.90 0.1915
872.00 0.1915
872.10 0.1914
872.20 0.1913
872.30 0.1913
872.40 0.1912
872.50 0.1911
872.60 0.1911
872.70 0.191
872.80 0.1909
872.90 0.1909
873.00 0.1908
873.10 0.1907
873.20 0.1907
873.30 0.1906
873.40 0.1905
873.50 0.1904
873.60 0.1904
873.70 0.1903
873.80 0.1902
873.90 0.1902
874.00 0.1901
874.10 0.19
874.20 0.19
874.30 0.1899
874.40 0.1898
874.50 0.1898
874.60 0.1897
874.70 0.1896
874.80 0.1896
874.90 0.1895
875.00 0.1894
875.10 0.1894
875.20 0.1893
875.30 0.1892
875.40 0.1892
875.50 0.1891
875.60 0.189
875.70 0.189
875.80 0.1889
875.90 0.1888
876.00 0.1887
876.10 0.1887
876.20 0.1886
876.30 0.1885
876.40 0.1885
876.50 0.1884
876.60 0.1883
876.70 0.1883
876.80 0.1882
876.90 0.1881
877.00 0.1881
877.10 0.188
877.20 0.1879
877.30 0.1879
877.40 0.1878
877.50 0.1878
877.60 0.1877
877.70 0.1876
877.80 0.1876
877.90 0.1875
878.00 0.1874
878.10 0.1874
878.20 0.1873
878.30 0.1872
878.40 0.1872
878.50 0.1871
878.60 0.1871
878.70 0.187
878.80 0.1869
878.90 0.1869
879.00 0.1868
879.10 0.1867
879.20 0.1867
879.30 0.1866
879.40 0.1865
879.50 0.1865
879.60 0.1864
879.70 0.1864
879.80 0.1863
879.90 0.1862
880.00 0.1862
880.10 0.1861
880.20 0.186
880.30 0.186
880.40 0.1859
880.50 0.1859
880.60 0.1858
880.70 0.1857
880.80 0.1857
880.90 0.1856
881.00 0.1855
881.10 0.1855
881.20 0.1854
881.30 0.1854
881.40 0.1853
881.50 0.1852
881.60 0.1852
881.70 0.1851
881.80 0.185
881.90 0.185
882.00 0.1849
882.10 0.1848
882.20 0.1848
882.30 0.1847
882.40 0.1846
882.50 0.1846
882.60 0.1845
882.70 0.1844
882.80 0.1844
882.90 0.1843
883.00 0.1842
883.10 0.1841
883.20 0.1841
883.30 0.184
883.40 0.1839
883.50 0.1839
883.60 0.1838
883.70 0.1837
883.80 0.1837
883.90 0.1836
884.00 0.1835
884.10 0.1834
884.20 0.1834
884.30 0.1833
884.40 0.1832
884.50 0.1832
884.60 0.1831
884.70 0.183
884.80 0.183
884.90 0.1829
885.00 0.1828
885.10 0.1827
885.20 0.1827
885.30 0.1826
885.40 0.1825
885.50 0.1825
885.60 0.1824
885.70 0.1823
885.80 0.1823
885.90 0.1822
886.00 0.1821
886.10 0.182
886.20 0.182
886.30 0.1819
886.40 0.1818
886.50 0.1818
886.60 0.1817
886.70 0.1816
886.80 0.1816
886.90 0.1815
887.00 0.1814
887.10 0.1814
887.20 0.1813
887.30 0.1813
887.40 0.1812
887.50 0.1812
887.60 0.1811
887.70 0.1811
887.80 0.181
887.90 0.181
888.00 0.1809
888.10 0.1808
888.20 0.1808
888.30 0.1807
888.40 0.1807
888.50 0.1806
888.60 0.1806
888.70 0.1805
888.80 0.1805
888.90 0.1804
889.00 0.1804
889.10 0.1803
889.20 0.1803
889.30 0.1802
889.40 0.1802
889.50 0.1801
889.60 0.1801
889.70 0.18
889.80 0.18
889.90 0.1799
890.00 0.1799
890.10 0.1798
890.20 0.1798
890.30 0.1797
890.40 0.1797
890.50 0.1796
890.60 0.1795
890.70 0.1795
890.80 0.1794
890.90 0.1794
891.00 0.1793
891.10 0.1793
891.20 0.1792
891.30 0.1792
891.40 0.1791
891.50 0.1791
891.60 0.179
891.70 0.179
891.80 0.1789
891.90 0.1789
892.00 0.1788
892.10 0.1788
892.20 0.1787
892.30 0.1786
892.40 0.1786
892.50 0.1785
892.60 0.1785
892.70 0.1784
892.80 0.1783
892.90 0.1783
893.00 0.1782
893.10 0.1782
893.20 0.1781
893.30 0.1781
893.40 0.178
893.50 0.1779
893.60 0.1779
893.70 0.1778
893.80 0.1778
893.90 0.1777
894.00 0.1776
894.10 0.1776
894.20 0.1775
894.30 0.1775
894.40 0.1774
894.50 0.1773
894.60 0.1773
894.70 0.1772
894.80 0.1772
894.90 0.1771
895.00 0.177
895.10 0.177
895.20 0.1769
895.30 0.1769
895.40 0.1768
895.50 0.1768
895.60 0.1767
895.70 0.1766
895.80 0.1766
895.90 0.1765
896.00 0.1765
896.10 0.1764
896.20 0.1763
896.30 0.1763
896.40 0.1762
896.50 0.1762
896.60 0.1761
896.70 0.176
896.80 0.176
896.90 0.1759
897.00 0.1759
897.10 0.1758
897.20 0.1757
897.30 0.1756
897.40 0.1755
897.50 0.1754
897.60 0.1754
897.70 0.1753
897.80 0.1752
897.90 0.1751
898.00 0.175
898.10 0.1749
898.20 0.1748
898.30 0.1748
898.40 0.1747
898.50 0.1746
898.60 0.1745
898.70 0.1744
898.80 0.1743
898.90 0.1743
899.00 0.1742
899.10 0.1741
899.20 0.174
899.30 0.1739
899.40 0.1738
899.50 0.1737
899.60 0.1737
899.70 0.1736
899.80 0.1735
899.90 0.1734
900.00 0.1733
900.10 0.1732
900.20 0.1732
900.30 0.1731
900.40 0.173
900.50 0.1729
900.60 0.1728
900.70 0.1727
900.80 0.1727
900.90 0.1726
901.00 0.1725
901.10 0.1724
901.20 0.1723
901.30 0.1722
901.40 0.1721
901.50 0.1721
901.60 0.172
901.70 0.1719
901.80 0.1718
901.90 0.1717
902.00 0.1716
902.10 0.1716
902.20 0.1716
902.30 0.1715
902.40 0.1715
902.50 0.1715
902.60 0.1714
902.70 0.1714
902.80 0.1714
902.90 0.1713
903.00 0.1713
903.10 0.1713
903.20 0.1712
903.30 0.1712
903.40 0.1712
903.50 0.1711
903.60 0.1711
903.70 0.1711
903.80 0.171
903.90 0.171
904.00 0.171
904.10 0.1709
904.20 0.1709
904.30 0.1709
904.40 0.1708
904.50 0.1708
904.60 0.1708
904.70 0.1707
904.80 0.1707
904.90 0.1707
905.00 0.1706
905.10 0.1706
905.20 0.1706
905.30 0.1705
905.40 0.1705
905.50 0.1705
905.60 0.1704
905.70 0.1704
905.80 0.1704
905.90 0.1703
906.00 0.1703
906.10 0.1703
906.20 0.1702
906.30 0.1702
906.40 0.1702
906.50 0.1701
906.60 0.1701
906.70 0.1701
906.80 0.17
906.90 0.17
907.00 0.17
907.10 0.1699
907.20 0.1699
907.30 0.1698
907.40 0.1698
907.50 0.1697
907.60 0.1697
907.70 0.1696
907.80 0.1696
907.90 0.1695
908.00 0.1695
908.10 0.1694
908.20 0.1694
908.30 0.1694
908.40 0.1693
908.50 0.1693
908.60 0.1692
908.70 0.1692
908.80 0.1691
908.90 0.1691
909.00 0.169
909.10 0.169
909.20 0.1689
909.30 0.1689
909.40 0.1688
909.50 0.1688
909.60 0.1687
909.70 0.1687
909.80 0.1686
909.90 0.1686
910.00 0.1686
910.10 0.1685
910.20 0.1685
910.30 0.1684
910.40 0.1684
910.50 0.1683
910.60 0.1683
910.70 0.1682
910.80 0.1682
910.90 0.1681
911.00 0.1681
911.10 0.168
911.20 0.168
911.30 0.1679
911.40 0.1679
911.50 0.1679
911.60 0.1678
911.70 0.1678
911.80 0.1677
911.90 0.1677
912.00 0.1676
912.10 0.1676
912.20 0.1675
912.30 0.1674
912.40 0.1674
912.50 0.1673
912.60 0.1672
912.70 0.1672
912.80 0.1671
912.90 0.1671
913.00 0.167
913.10 0.1669
913.20 0.1669
913.30 0.1668
913.40 0.1667
913.50 0.1667
913.60 0.1666
913.70 0.1666
913.80 0.1665
913.90 0.1664
914.00 0.1664
914.10 0.1663
914.20 0.1662
914.30 0.1662
914.40 0.1661
914.50 0.166
914.60 0.166
914.70 0.1659
914.80 0.1659
914.90 0.1658
915.00 0.1657
915.10 0.1657
915.20 0.1656
915.30 0.1655
915.40 0.1655
915.50 0.1654
915.60 0.1654
915.70 0.1653
915.80 0.1652
915.90 0.1652
916.00 0.1651
916.10 0.1651
916.20 0.165
916.30 0.1649
916.40 0.1649
916.50 0.1648
916.60 0.1647
916.70 0.1647
916.80 0.1646
916.90 0.1646
917.00 0.1645
917.10 0.1644
917.20 0.1643
917.30 0.1642
917.40 0.1641
917.50 0.164
917.60 0.1639
917.70 0.1638
917.80 0.1638
917.90 0.1637
918.00 0.1636
918.10 0.1635
918.20 0.1634
918.30 0.1633
918.40 0.1632
918.50 0.1631
918.60 0.163
918.70 0.1629
918.80 0.1628
918.90 0.1628
919.00 0.1627
919.10 0.1626
919.20 0.1625
919.30 0.1624
919.40 0.1623
919.50 0.1622
919.60 0.1621
919.70 0.162
919.80 0.1619
919.90 0.1618
920.00 0.1617
920.10 0.1617
920.20 0.1616
920.30 0.1615
920.40 0.1614
920.50 0.1613
920.60 0.1612
920.70 0.1611
920.80 0.161
920.90 0.1609
921.00 0.1608
921.10 0.1608
921.20 0.1607
921.30 0.1606
921.40 0.1605
921.50 0.1604
921.60 0.1603
921.70 0.1602
921.80 0.1601
921.90 0.16
922.00 0.1599
922.10 0.1599
922.20 0.1598
922.30 0.1597
922.40 0.1596
922.50 0.1595
922.60 0.1595
922.70 0.1594
922.80 0.1593
922.90 0.1592
923.00 0.1591
923.10 0.1591
923.20 0.159
923.30 0.1589
923.40 0.1588
923.50 0.1587
923.60 0.1587
923.70 0.1586
923.80 0.1585
923.90 0.1584
924.00 0.1583
924.10 0.1583
924.20 0.1582
924.30 0.1581
924.40 0.158
924.50 0.1579
924.60 0.1579
924.70 0.1578
924.80 0.1577
924.90 0.1576
925.00 0.1575
925.10 0.1575
925.20 0.1574
925.30 0.1573
925.40 0.1572
925.50 0.1571
925.60 0.1571
925.70 0.157
925.80 0.1569
925.90 0.1568
926.00 0.1567
926.10 0.1567
926.20 0.1566
926.30 0.1565
926.40 0.1564
926.50 0.1564
926.60 0.1563
926.70 0.1562
926.80 0.1561
926.90 0.156
927.00 0.156
927.10 0.156
927.20 0.156
927.30 0.156
927.40 0.156
927.50 0.156
927.60 0.156
927.70 0.156
927.80 0.156
927.90 0.156
928.00 0.156
928.10 0.156
928.20 0.156
928.30 0.156
928.40 0.156
928.50 0.156
928.60 0.156
928.70 0.156
928.80 0.156
928.90 0.156
929.00 0.156
929.10 0.156
929.20 0.156
929.30 0.156
929.40 0.156
929.50 0.156
929.60 0.156
929.70 0.156
929.80 0.156
929.90 0.156
930.00 0.156
930.10 0.156
930.20 0.156
930.30 0.156
930.40 0.156
930.50 0.156
930.60 0.156
930.70 0.156
930.80 0.156
930.90 0.156
931.00 0.156
931.10 0.156
931.20 0.156
931.30 0.156
931.40 0.156
931.50 0.156
931.60 0.156
931.70 0.156
931.80 0.156
931.90 0.156
932.00 0.156
932.10 0.156
932.20 0.156
932.30 0.156
932.40 0.1559
932.50 0.1559
932.60 0.1559
932.70 0.1559
932.80 0.1558
932.90 0.1558
933.00 0.1558
933.10 0.1558
933.20 0.1557
933.30 0.1557
933.40 0.1557
933.50 0.1556
933.60 0.1556
933.70 0.1556
933.80 0.1556
933.90 0.1555
934.00 0.1555
934.10 0.1555
934.20 0.1555
934.30 0.1554
934.40 0.1554
934.50 0.1554
934.60 0.1553
934.70 0.1553
934.80 0.1552
934.90 0.1552
935.00 0.1552
935.10 0.1551
935.20 0.1551
935.30 0.1551
935.40 0.155
935.50 0.155
935.60 0.1549
935.70 0.1549
935.80 0.1549
935.90 0.1548
936.00 0.1548
936.10 0.1547
936.20 0.1547
936.30 0.1547
936.40 0.1546
936.50 0.1546
936.60 0.1546
936.70 0.1545
936.80 0.1545
936.90 0.1544
937.00 0.1544
937.10 0.1544
937.20 0.1543
937.30 0.1543
937.40 0.1542
937.50 0.1542
937.60 0.1541
937.70 0.1541
937.80 0.154
937.90 0.154
938.00 0.1539
938.10 0.1539
938.20 0.1538
938.30 0.1538
938.40 0.1537
938.50 0.1537
938.60 0.1536
938.70 0.1536
938.80 0.1535
938.90 0.1535
939.00 0.1534
939.10 0.1534
939.20 0.1533
939.30 0.1533
939.40 0.1532
939.50 0.1532
939.60 0.1531
939.70 0.1531
939.80 0.153
939.90 0.153
940.00 0.1529
940.10 0.1529
940.20 0.1528
940.30 0.1528
940.40 0.1527
940.50 0.1526
940.60 0.1526
940.70 0.1525
940.80 0.1524
940.90 0.1524
941.00 0.1523
941.10 0.1523
941.20 0.1522
941.30 0.1521
941.40 0.1521
941.50 0.152
941.60 0.152
941.70 0.1519
941.80 0.1518
941.90 0.1518
942.00 0.1517
942.10 0.1517
942.20 0.1516
942.30 0.1515
942.40 0.1514
942.50 0.1514
942.60 0.1513
942.70 0.1512
942.80 0.1511
942.90 0.1511
943.00 0.151
943.10 0.1509
943.20 0.1508
943.30 0.1508
943.40 0.1507
943.50 0.1506
943.60 0.1505
943.70 0.1505
943.80 0.1504
943.90 0.1503
944.00 0.1502
944.10 0.1502
944.20 0.1501
944.30 0.15
944.40 0.1499
944.50 0.1498
944.60 0.1497
944.70 0.1497
944.80 0.1496
944.90 0.1495
945.00 0.1494
945.10 0.1493
945.20 0.1492
945.30 0.1491
945.40 0.149
945.50 0.1489
945.60 0.1488
945.70 0.1487
945.80 0.1486
945.90 0.1484
946.00 0.1483
946.10 0.1482
946.20 0.1481
946.30 0.148
946.40 0.1479
946.50 0.1478
946.60 0.1477
946.70 0.1476
946.80 0.1475
946.90 0.1473
947.00 0.1472
947.10 0.1471
947.20 0.147
947.30 0.1468
947.40 0.1467
947.50 0.1465
947.60 0.1464
947.70 0.1462
947.80 0.1461
947.90 0.1459
948.00 0.1458
948.10 0.1456
948.20 0.1455
948.30 0.1453
948.40 0.1452
948.50 0.145
948.60 0.1449
948.70 0.1447
948.80 0.1446
948.90 0.1444
949.00 0.1443
949.10 0.1441
949.20 0.144
949.30 0.1438
949.40 0.1437
949.50 0.1435
949.60 0.1433
949.70 0.1432
949.80 0.143
949.90 0.1428
950.00 0.1426
950.10 0.1425
950.20 0.1423
950.30 0.1421
950.40 0.1419
950.50 0.1418
950.60 0.1416
950.70 0.1414
950.80 0.1412
950.90 0.1411
951.00 0.1409
951.10 0.1407
951.20 0.1406
951.30 0.1404
951.40 0.1402
951.50 0.1401
951.60 0.1399
951.70 0.1398
951.80 0.1396
951.90 0.1395
952.00 0.1393
952.10 0.1392
952.20 0.1391
952.30 0.139
952.40 0.1389
952.50 0.1387
952.60 0.1386
952.70 0.1385
952.80 0.1384
952.90 0.1384
953.00 0.1384
953.10 0.1383
953.20 0.1383
953.30 0.1383
953.40 0.1383
953.50 0.1382
953.60 0.1386
953.70 0.1389
953.80 0.1392
953.90 0.1395
954.00 0.1399
954.10 0.1403
954.20 0.1406
954.30 0.1389
954.40 0.137
954.50 0.1366
954.60 0.1362
954.70 0.1358
954.80 0.1354
954.90 0.1351
955.00 0.1347
955.10 0.1344
955.20 0.1342
955.30 0.134
955.40 0.1338
955.50 0.1336
955.60 0.1334
955.70 0.1332
955.80 0.133
955.90 0.133
956.00 0.133
956.10 0.133
956.20 0.1329
956.30 0.1329
956.40 0.1329
956.50 0.1329
956.60 0.1328
956.70 0.1328
956.80 0.1328
956.90 0.1327
957.00 0.1327
957.10 0.1328
957.20 0.1328
957.30 0.1328
957.40 0.1329
957.50 0.133
957.60 0.133
957.70 0.1331
957.80 0.1332
957.90 0.1332
958.00 0.1333
958.10 0.1333
958.20 0.1334
958.30 0.1335
958.40 0.1335
958.50 0.1336
958.60 0.1337
958.70 0.1337
958.80 0.1338
958.90 0.1339
959.00 0.1339
959.10 0.134
959.20 0.134
959.30 0.1341
959.40 0.1342
959.50 0.1342
959.60 0.1343
959.70 0.1343
959.80 0.1344
959.90 0.1345
960.00 0.1345
960.10 0.1346
960.20 0.1347
960.30 0.1347
960.40 0.1348
960.50 0.1348
960.60 0.1349
960.70 0.135
960.80 0.135
960.90 0.1351
961.00 0.1351
961.10 0.1352
961.20 0.1353
961.30 0.1353
961.40 0.1354
961.50 0.1354
961.60 0.1355
961.70 0.1355
961.80 0.1356
961.90 0.1356
962.00 0.1357
962.10 0.1357
962.20 0.1358
962.30 0.1358
962.40 0.1358
962.50 0.1359
962.60 0.1359
962.70 0.1359
962.80 0.136
962.90 0.136
963.00 0.1361
963.10 0.1361
963.20 0.1361
963.30 0.1362
963.40 0.1362
963.50 0.1362
963.60 0.1363
963.70 0.1363
963.80 0.1363
963.90 0.1363
964.00 0.1364
964.10 0.1364
964.20 0.1364
964.30 0.1365
964.40 0.1365
964.50 0.1365
964.60 0.1365
964.70 0.1365
964.80 0.1365
964.90 0.1365
965.00 0.1366
965.10 0.1366
965.20 0.1366
965.30 0.1366
965.40 0.1366
965.50 0.1366
965.60 0.1366
965.70 0.1367
965.80 0.1367
965.90 0.1367
966.00 0.1367
966.10 0.1367
966.20 0.1367
966.30 0.1367
966.40 0.1367
966.50 0.1368
966.60 0.1368
966.70 0.1368
966.80 0.1368
966.90 0.1368
967.00 0.1368
967.10 0.1368
967.20 0.1368
967.30 0.1368
967.40 0.1368
967.50 0.1368
967.60 0.1368
967.70 0.1368
967.80 0.1368
967.90 0.1368
968.00 0.1368
968.10 0.1368
968.20 0.1367
968.30 0.1367
968.40 0.1367
968.50 0.1367
968.60 0.1367
968.70 0.1367
968.80 0.1367
968.90 0.1367
969.00 0.1367
969.10 0.1367
969.20 0.1366
969.30 0.1366
969.40 0.1366
969.50 0.1366
969.60 0.1366
969.70 0.1366
969.80 0.1366
969.90 0.1366
970.00 0.1365
970.10 0.1365
970.20 0.1365
970.30 0.1365
970.40 0.1365
970.50 0.1365
970.60 0.1365
970.70 0.1364
970.80 0.1364
970.90 0.1364
971.00 0.1364
971.10 0.1363
971.20 0.1363
971.30 0.1363
971.40 0.1363
971.50 0.1363
971.60 0.1362
971.70 0.1362
971.80 0.1362
971.90 0.1362
972.00 0.1362
972.10 0.1361
972.20 0.1361
972.30 0.1361
972.40 0.1361
972.50 0.136
972.60 0.136
972.70 0.136
972.80 0.1359
972.90 0.1359
973.00 0.1359
973.10 0.1359
973.20 0.1358
973.30 0.1358
973.40 0.1358
973.50 0.1357
973.60 0.1357
973.70 0.1357
973.80 0.1357
973.90 0.1356
974.00 0.1356
974.10 0.1356
974.20 0.1355
974.30 0.1355
974.40 0.1355
974.50 0.1354
974.60 0.1354
974.70 0.1354
974.80 0.1353
974.90 0.1353
975.00 0.1353
975.10 0.1352
975.20 0.1352
975.30 0.1351
975.40 0.1351
975.50 0.1351
975.60 0.135
975.70 0.135
975.80 0.135
975.90 0.1349
976.00 0.1349
976.10 0.1349
976.20 0.1348
976.30 0.1348
976.40 0.1347
976.50 0.1347
976.60 0.1347
976.70 0.1346
976.80 0.1346
976.90 0.1346
977.00 0.1345
977.10 0.1345
977.20 0.1344
977.30 0.1344
977.40 0.1343
977.50 0.1343
977.60 0.1342
977.70 0.1342
977.80 0.1341
977.90 0.1341
978.00 0.134
978.10 0.134
978.20 0.1339
978.30 0.1339
978.40 0.1338
978.50 0.1338
978.60 0.1337
978.70 0.1337
978.80 0.1336
978.90 0.1336
979.00 0.1335
979.10 0.1335
979.20 0.1334
979.30 0.1334
979.40 0.1333
979.50 0.1333
979.60 0.1333
979.70 0.1332
979.80 0.1332
979.90 0.1331
980.00 0.1331
980.10 0.133
980.20 0.133
980.30 0.1329
980.40 0.1329
980.50 0.1328
980.60 0.1328
980.70 0.1327
980.80 0.1327
980.90 0.1326
981.00 0.1326
981.10 0.1325
981.20 0.1325
981.30 0.1324
981.40 0.1324
981.50 0.1323
981.60 0.1323
981.70 0.1322
981.80 0.1322
981.90 0.1321
982.00 0.1321
982.10 0.132
982.20 0.132
982.30 0.1319
982.40 0.1318
982.50 0.1318
982.60 0.1317
982.70 0.1316
982.80 0.1316
982.90 0.1315
983.00 0.1315
983.10 0.1314
983.20 0.1313
983.30 0.1313
983.40 0.1312
983.50 0.1311
983.60 0.1311
983.70 0.131
983.80 0.1309
983.90 0.1309
984.00 0.1308
984.10 0.1308
984.20 0.1307
984.30 0.1306
984.40 0.1306
984.50 0.1305
984.60 0.1304
984.70 0.1304
984.80 0.1303
984.90 0.1302
985.00 0.1301
985.10 0.1301
985.20 0.13
985.30 0.1299
985.40 0.1298
985.50 0.1298
985.60 0.1297
985.70 0.1296
985.80 0.1295
985.90 0.1295
986.00 0.1294
986.10 0.1293
986.20 0.1292
986.30 0.1292
986.40 0.1291
986.50 0.129
986.60 0.1289
986.70 0.1289
986.80 0.1288
986.90 0.1287
987.00 0.1286
987.10 0.1286
987.20 0.1285
987.30 0.1284
987.40 0.1283
987.50 0.1282
987.60 0.1281
987.70 0.128
987.80 0.1279
987.90 0.1278
988.00 0.1278
988.10 0.1277
988.20 0.1276
988.30 0.1275
988.40 0.1274
988.50 0.1273
988.60 0.1272
988.70 0.1271
988.80 0.127
988.90 0.1269
989.00 0.1268
989.10 0.1267
989.20 0.1266
989.30 0.1265
989.40 0.1264
989.50 0.1263
989.60 0.1262
989.70 0.1261
989.80 0.126
989.90 0.1259
990.00 0.1258
990.10 0.1257
990.20 0.1256
990.30 0.1255
990.40 0.1254
990.50 0.1253
990.60 0.1252
990.70 0.1251
990.80 0.1249
990.90 0.1248
991.00 0.1247
991.10 0.1246
991.20 0.1245
991.30 0.1244
991.40 0.1242
991.50 0.1241
991.60 0.124
991.70 0.1239
991.80 0.1238
991.90 0.1236
992.00 0.1235
992.10 0.1234
992.20 0.1233
992.30 0.1231
992.40 0.123
992.50 0.1229
992.60 0.1227
992.70 0.1226
992.80 0.1225
992.90 0.1223
993.00 0.1222
993.10 0.122
993.20 0.1219
993.30 0.1217
993.40 0.1216
993.50 0.1214
993.60 0.1213
993.70 0.1212
993.80 0.121
993.90 0.1209
994.00 0.1207
994.10 0.1206
994.20 0.1204
994.30 0.1203
994.40 0.1201
994.50 0.12
994.60 0.1198
994.70 0.1197
994.80 0.1195
994.90 0.1194
995.00 0.1192
995.10 0.119
995.20 0.1189
995.30 0.1187
995.40 0.1185
995.50 0.1184
995.60 0.1182
995.70 0.118
995.80 0.1179
995.90 0.1177
996.00 0.1175
996.10 0.1173
996.20 0.1171
996.30 0.117
996.40 0.1168
996.50 0.1166
996.60 0.1164
996.70 0.1162
996.80 0.1161
996.90 0.1159
997.00 0.1157
997.10 0.1155
997.20 0.1153
997.30 0.1151
997.40 0.1149
997.50 0.1147
997.60 0.1145
997.70 0.1143
997.80 0.1141
997.90 0.1139
998.00 0.1137
998.10 0.1135
998.20 0.1133
998.30 0.1131
998.40 0.1129
998.50 0.1126
998.60 0.1124
998.70 0.1122
998.80 0.112
998.90 0.1118
999.00 0.1116
999.10 0.1114
999.20 0.1112
999.30 0.111
999.40 0.1108
999.50 0.1105
999.60 0.1103
999.70 0.1101
999.80 0.1099
999.90 0.1097
1000.00 0.1095
1000.10 0.1093
1000.20 0.1091
1000.30 0.1088
1000.40 0.1086
1000.50 0.1084
1000.60 0.1082
1000.70 0.108
1000.80 0.1078
1000.90 0.1076
1001.00 0.1073
1001.10 0.1071
1001.20 0.1069
1001.30 0.1067
1001.40 0.1065
1001.50 0.1063
1001.60 0.1061
1001.70 0.1059
1001.80 0.1057
1001.90 0.1055
1002.00 0.1053
1002.10 0.1052
1002.20 0.1051
1002.30 0.105
1002.40 0.1049
1002.50 0.1048
1002.60 0.1047
1002.70 0.1046
1002.80 0.1045
1002.90 0.1044
1003.00 0.1043
1003.10 0.1042
1003.20 0.1042
1003.30 0.1043
1003.40 0.1043
1003.50 0.1043
1003.60 0.1043
1003.70 0.1044
1003.80 0.1044
1003.90 0.1047
1004.00 0.1051
1004.10 0.1054
1004.20 0.1058
1004.30 0.1063
1004.40 0.1068
1004.50 0.1074
1004.60 0.1077
1004.70 0.1058
1004.80 0.1053
1004.90 0.1047
1005.00 0.1042
1005.10 0.1037
1005.20 0.1033
1005.30 0.1029
1005.40 0.1026
1005.50 0.1024
1005.60 0.1023
1005.70 0.1022
1005.80 0.1022
1005.90 0.1021
1006.00 0.102
1006.10 0.1019
1006.20 0.1019
1006.30 0.1019
1006.40 0.102
1006.50 0.102
1006.60 0.102
1006.70 0.102
1006.80 0.1021
1006.90 0.1021
1007.00 0.1021
1007.10 0.1022
1007.20 0.1022
1007.30 0.1023
1007.40 0.1024
1007.50 0.1024
1007.60 0.1025
1007.70 0.1026
1007.80 0.1027
1007.90 0.1028
1008.00 0.103
1008.10 0.1031
1008.20 0.1032
1008.30 0.1033
1008.40 0.1034
1008.50 0.1035
1008.60 0.1037
1008.70 0.1038
1008.80 0.1039
1008.90 0.104
1009.00 0.1041
1009.10 0.1042
1009.20 0.1044
1009.30 0.1045
1009.40 0.1046
1009.50 0.1047
1009.60 0.1048
1009.70 0.1049
1009.80 0.1051
1009.90 0.1052
1010.00 0.1053
1010.10 0.1054
1010.20 0.1055
1010.30 0.1056
1010.40 0.1057
1010.50 0.1058
1010.60 0.106
1010.70 0.1061
1010.80 0.1062
1010.90 0.1063
1011.00 0.1064
1011.10 0.1065
1011.20 0.1066
1011.30 0.1067
1011.40 0.1069
1011.50 0.107
1011.60 0.1071
1011.70 0.1072
1011.80 0.1073
1011.90 0.1074
1012.00 0.1075
1012.10 0.1076
1012.20 0.1077
1012.30 0.1077
1012.40 0.1078
1012.50 0.1079
1012.60 0.108
1012.70 0.1081
1012.80 0.1082
1012.90 0.1082
1013.00 0.1083
1013.10 0.1084
1013.20 0.1085
1013.30 0.1086
1013.40 0.1087
1013.50 0.1088
1013.60 0.1088
1013.70 0.1089
1013.80 0.109
1013.90 0.1091
1014.00 0.1091
1014.10 0.1092
1014.20 0.1093
1014.30 0.1093
1014.40 0.1094
1014.50 0.1095
1014.60 0.1095
1014.70 0.1096
1014.80 0.1097
1014.90 0.1097
1015.00 0.1098
1015.10 0.1098
1015.20 0.1099
1015.30 0.1099
1015.40 0.11
1015.50 0.11
1015.60 0.1101
1015.70 0.1101
1015.80 0.1102
1015.90 0.1102
1016.00 0.1103
1016.10 0.1104
1016.20 0.1104
1016.30 0.1105
1016.40 0.1105
1016.50 0.1106
1016.60 0.1106
1016.70 0.1107
1016.80 0.1107
1016.90 0.1108
1017.00 0.1108
1017.10 0.1108
1017.20 0.1109
1017.30 0.1109
1017.40 0.1109
1017.50 0.111
1017.60 0.111
1017.70 0.111
1017.80 0.1111
1017.90 0.1111
1018.00 0.1112
1018.10 0.1112
1018.20 0.1112
1018.30 0.1113
1018.40 0.1113
1018.50 0.1113
1018.60 0.1114
1018.70 0.1114
1018.80 0.1114
1018.90 0.1114
1019.00 0.1115
1019.10 0.1115
1019.20 0.1115
1019.30 0.1115
1019.40 0.1116
1019.50 0.1116
1019.60 0.1116
1019.70 0.1116
1019.80 0.1117
1019.90 0.1117
1020.00 0.1117
1020.10 0.1117
1020.20 0.1117
1020.30 0.1118
1020.40 0.1118
1020.50 0.1118
1020.60 0.1118
1020.70 0.1119
1020.80 0.1119
1020.90 0.1119
1021.00 0.1119
1021.10 0.1119
1021.20 0.1119
1021.30 0.1119
1021.40 0.112
1021.50 0.112
1021.60 0.112
1021.70 0.112
1021.80 0.112
1021.90 0.112
1022.00 0.112
1022.10 0.1121
1022.20 0.1121
1022.30 0.1121
1022.40 0.1121
1022.50 0.1121
1022.60 0.1121
1022.70 0.1121
1022.80 0.1121
1022.90 0.1121
1023.00 0.1121
1023.10 0.1121
1023.20 0.1121
1023.30 0.1121
1023.40 0.1121
1023.50 0.1121
1023.60 0.1121
1023.70 0.1121
1023.80 0.1122
1023.90 0.1122
1024.00 0.1122
1024.10 0.1122
1024.20 0.1122
1024.30 0.1122
1024.40 0.1122
1024.50 0.1122
1024.60 0.1122
1024.70 0.1122
1024.80 0.1122
1024.90 0.1122
1025.00 0.1122
1025.10 0.1122
1025.20 0.1122
1025.30 0.1122
1025.40 0.1122
1025.50 0.1122
1025.60 0.1122
1025.70 0.1122
1025.80 0.1122
1025.90 0.1122
1026.00 0.1122
1026.10 0.1122
1026.20 0.1121
1026.30 0.1121
1026.40 0.1121
1026.50 0.1121
1026.60 0.1121
1026.70 0.1121
1026.80 0.1121
1026.90 0.1121
1027.00 0.1121
1027.10 0.1121
1027.20 0.1121
1027.30 0.1121
1027.40 0.1121
1027.50 0.1121
1027.60 0.112
1027.70 0.112
1027.80 0.112
1027.90 0.112
1028.00 0.112
1028.10 0.112
1028.20 0.112
1028.30 0.112
1028.40 0.1119
1028.50 0.1119
1028.60 0.1119
1028.70 0.1119
1028.80 0.1119
1028.90 0.1119
1029.00 0.1119
1029.10 0.1118
1029.20 0.1118
1029.30 0.1118
1029.40 0.1118
1029.50 0.1118
1029.60 0.1118
1029.70 0.1118
1029.80 0.1118
1029.90 0.1117
1030.00 0.1117
1030.10 0.1117
1030.20 0.1117
1030.30 0.1117
1030.40 0.1117
1030.50 0.1117
1030.60 0.1117
1030.70 0.1116
1030.80 0.1116
1030.90 0.1116
1031.00 0.1116
1031.10 0.1116
1031.20 0.1116
1031.30 0.1116
1031.40 0.1116
1031.50 0.1115
1031.60 0.1115
1031.70 0.1115
1031.80 0.1115
1031.90 0.1115
1032.00 0.1115
1032.10 0.1115
1032.20 0.1114
1032.30 0.1114
1032.40 0.1114
1032.50 0.1114
1032.60 0.1113
1032.70 0.1113
1032.80 0.1113
1032.90 0.1113
1033.00 0.1113
1033.10 0.1112
1033.20 0.1112
1033.30 0.1112
1033.40 0.1112
1033.50 0.1111
1033.60 0.1111
1033.70 0.1111
1033.80 0.1111
1033.90 0.1111
1034.00 0.111
1034.10 0.111
1034.20 0.111
1034.30 0.111
1034.40 0.1109
1034.50 0.1109
1034.60 0.1109
1034.70 0.1109
1034.80 0.1109
1034.90 0.1108
1035.00 0.1108
1035.10 0.1108
1035.20 0.1108
1035.30 0.1108
1035.40 0.1107
1035.50 0.1107
1035.60 0.1107
1035.70 0.1107
1035.80 0.1106
1035.90 0.1106
1036.00 0.1106
1036.10 0.1106
1036.20 0.1106
1036.30 0.1105
1036.40 0.1105
1036.50 0.1105
1036.60 0.1105
1036.70 0.1104
1036.80 0.1104
1036.90 0.1104
1037.00 0.1104
1037.10 0.1104
1037.20 0.1103
1037.30 0.1103
1037.40 0.1103
1037.50 0.1102
1037.60 0.1102
1037.70 0.1102
1037.80 0.1102
1037.90 0.1101
1038.00 0.1101
1038.10 0.1101
1038.20 0.11
1038.30 0.11
1038.40 0.11
1038.50 0.11
1038.60 0.1099
1038.70 0.1099
1038.80 0.1099
1038.90 0.1098
1039.00 0.1098
1039.10 0.1098
1039.20 0.1098
1039.30 0.1097
1039.40 0.1097
1039.50 0.1097
1039.60 0.1097
1039.70 0.1096
1039.80 0.1096
1039.90 0.1096
1040.00 0.1095
1040.10 0.1095
1040.20 0.1095
1040.30 0.1095
1040.40 0.1094
1040.50 0.1094
1040.60 0.1094
1040.70 0.1093
1040.80 0.1093
1040.90 0.1093
1041.00 0.1093
1041.10 0.1092
1041.20 0.1092
1041.30 0.1092
1041.40 0.1092
1041.50 0.1091
1041.60 0.1091
1041.70 0.1091
1041.80 0.109
1041.90 0.109
1042.00 0.109
1042.10 0.109
1042.20 0.1089
1042.30 0.1089
1042.40 0.1089
1042.50 0.1088
1042.60 0.1088
1042.70 0.1088
1042.80 0.1087
1042.90 0.1087
1043.00 0.1087
1043.10 0.1086
1043.20 0.1086
1043.30 0.1086
1043.40 0.1085
1043.50 0.1085
1043.60 0.1085
1043.70 0.1084
1043.80 0.1084
1043.90 0.1084
1044.00 0.1083
1044.10 0.1083
1044.20 0.1083
1044.30 0.1082
1044.40 0.1082
1044.50 0.1082
1044.60 0.1081
1044.70 0.1081
1044.80 0.1081
1044.90 0.108
1045.00 0.108
1045.10 0.108
1045.20 0.1079
1045.30 0.1079
1045.40 0.1079
1045.50 0.1078
1045.60 0.1078
1045.70 0.1078
1045.80 0.1077
1045.90 0.1077
1046.00 0.1077
1046.10 0.1077
1046.20 0.1076
1046.30 0.1076
1046.40 0.1076
1046.50 0.1075
1046.60 0.1075
1046.70 0.1075
1046.80 0.1074
1046.90 0.1074
1047.00 0.1074
1047.10 0.1073
1047.20 0.1073
1047.30 0.1073
1047.40 0.1072
1047.50 0.1072
1047.60 0.1071
1047.70 0.1071
1047.80 0.1071
1047.90 0.107
1048.00 0.107
1048.10 0.107
1048.20 0.1069
1048.30 0.1069
1048.40 0.1069
1048.50 0.1068
1048.60 0.1068
1048.70 0.1067
1048.80 0.1067
1048.90 0.1067
1049.00 0.1066
1049.10 0.1066
1049.20 0.1066
1049.30 0.1065
1049.40 0.1065
1049.50 0.1065
1049.60 0.1064
1049.70 0.1064
1049.80 0.1063
1049.90 0.1063
1050.00 0.1063
1050.10 0.1062
1050.20 0.1062
1050.30 0.1062
1050.40 0.1061
1050.50 0.1061
1050.60 0.1061
1050.70 0.106
1050.80 0.106
1050.90 0.106
1051.00 0.1059
1051.10 0.1059
1051.20 0.1058
1051.30 0.1058
1051.40 0.1058
1051.50 0.1057
1051.60 0.1057
1051.70 0.1057
1051.80 0.1056
1051.90 0.1056
1052.00 0.1056
1052.10 0.1055
1052.20 0.1055
1052.30 0.1054
1052.40 0.1054
1052.50 0.1054
1052.60 0.1053
1052.70 0.1053
1052.80 0.1052
1052.90 0.1052
1053.00 0.1052
1053.10 0.1051
1053.20 0.1051
1053.30 0.105
1053.40 0.105
1053.50 0.105
1053.60 0.1049
1053.70 0.1049
1053.80 0.1048
1053.90 0.1048
1054.00 0.1048
1054.10 0.1047
1054.20 0.1047
1054.30 0.1046
1054.40 0.1046
1054.50 0.1046
1054.60 0.1045
1054.70 0.1045
1054.80 0.1044
1054.90 0.1044
1055.00 0.1044
1055.10 0.1043
1055.20 0.1043
1055.30 0.1042
1055.40 0.1042
1055.50 0.1042
1055.60 0.1041
1055.70 0.1041
1055.80 0.104
1055.90 0.104
1056.00 0.104
1056.10 0.1039
1056.20 0.1039
1056.30 0.1038
1056.40 0.1038
1056.50 0.1038
1056.60 0.1037
1056.70 0.1037
1056.80 0.1036
1056.90 0.1036
1057.00 0.1036
1057.10 0.1035
1057.20 0.1035
1057.30 0.1034
1057.40 0.1034
1057.50 0.1033
1057.60 0.1033
1057.70 0.1032
1057.80 0.1032
1057.90 0.1032
1058.00 0.1031
1058.10 0.1031
1058.20 0.103
1058.30 0.103
1058.40 0.1029
1058.50 0.1029
1058.60 0.1028
1058.70 0.1028
1058.80 0.1028
1058.90 0.1027
1059.00 0.1027
1059.10 0.1026
1059.20 0.1026
1059.30 0.1025
1059.40 0.1025
1059.50 0.1024
1059.60 0.1024
1059.70 0.1024
1059.80 0.1023
1059.90 0.1023
1060.00 0.1022
1060.10 0.1022
1060.20 0.1021
1060.30 0.1021
1060.40 0.102
1060.50 0.102
1060.60 0.102
1060.70 0.1019
1060.80 0.1019
1060.90 0.1018
1061.00 0.1018
1061.10 0.1017
1061.20 0.1017
1061.30 0.1016
1061.40 0.1016
1061.50 0.1016
1061.60 0.1015
1061.70 0.1015
1061.80 0.1014
1061.90 0.1014
1062.00 0.1013
1062.10 0.1013
1062.20 0.1012
1062.30 0.1012
1062.40 0.1011
1062.50 0.1011
1062.60 0.101
1062.70 0.101
1062.80 0.1009
1062.90 0.1009
1063.00 0.1008
1063.10 0.1008
1063.20 0.1007
1063.30 0.1007
1063.40 0.1006
1063.50 0.1006
1063.60 0.1005
1063.70 0.1005
1063.80 0.1004
1063.90 0.1004
1064.00 0.1003
1064.10 0.1003
1064.20 0.1002
1064.30 0.1002
1064.40 0.1001
1064.50 0.1
1064.60 0.1
1064.70 0.09995
1064.80 0.09989
1064.90 0.09984
1065.00 0.09979
1065.10 0.09974
1065.20 0.09969
1065.30 0.09964
1065.40 0.09959
1065.50 0.09954
1065.60 0.09949
1065.70 0.09944
1065.80 0.09939
1065.90 0.09933
1066.00 0.09928
1066.10 0.09923
1066.20 0.09918
1066.30 0.09913
1066.40 0.09908
1066.50 0.09903
1066.60 0.09898
1066.70 0.09893
1066.80 0.09888
1066.90 0.09883
1067.00 0.09878
1067.10 0.09872
1067.20 0.09865
1067.30 0.09859
1067.40 0.09853
1067.50 0.09847
1067.60 0.09841
1067.70 0.09835
1067.80 0.09829
1067.90 0.09823
1068.00 0.09817
1068.10 0.09811
1068.20 0.09805
1068.30 0.09799
1068.40 0.09792
1068.50 0.09786
1068.60 0.0978
1068.70 0.09774
1068.80 0.09768
1068.90 0.09762
1069.00 0.09756
1069.10 0.0975
1069.20 0.09744
1069.30 0.09738
1069.40 0.09732
1069.50 0.09726
1069.60 0.0972
1069.70 0.09714
1069.80 0.09708
1069.90 0.09702
1070.00 0.09696
1070.10 0.0969
1070.20 0.09684
1070.30 0.09678
1070.40 0.09672
1070.50 0.09666
1070.60 0.0966
1070.70 0.09653
1070.80 0.09647
1070.90 0.09641
1071.00 0.09635
1071.10 0.09629
1071.20 0.09623
1071.30 0.09617
1071.40 0.09611
1071.50 0.09605
1071.60 0.09599
1071.70 0.09593
1071.80 0.09587
1071.90 0.09581
1072.00 0.09575
1072.10 0.09569
1072.20 0.09562
1072.30 0.09555
1072.40 0.09548
1072.50 0.09541
1072.60 0.09534
1072.70 0.09527
1072.80 0.0952
1072.90 0.09514
1073.00 0.09507
1073.10 0.095
1073.20 0.09493
1073.30 0.09486
1073.40 0.09479
1073.50 0.09472
1073.60 0.09464
1073.70 0.09456
1073.80 0.09449
1073.90 0.09441
1074.00 0.09433
1074.10 0.09425
1074.20 0.09417
1074.30 0.09409
1074.40 0.09402
1074.50 0.09394
1074.60 0.09386
1074.70 0.09378
1074.80 0.0937
1074.90 0.09363
1075.00 0.09355
1075.10 0.09347
1075.20 0.09339
1075.30 0.09331
1075.40 0.09324
1075.50 0.09316
1075.60 0.09308
1075.70 0.093
1075.80 0.09293
1075.90 0.09285
1076.00 0.09277
1076.10 0.09269
1076.20 0.09262
1076.30 0.09254
1076.40 0.09246
1076.50 0.09238
1076.60 0.0923
1076.70 0.09223
1076.80 0.09215
1076.90 0.09207
1077.00 0.092
1077.10 0.09191
1077.20 0.09182
1077.30 0.09174
1077.40 0.09165
1077.50 0.09156
1077.60 0.09147
1077.70 0.09137
1077.80 0.09128
1077.90 0.09119
1078.00 0.0911
1078.10 0.091
1078.20 0.09091
1078.30 0.09082
1078.40 0.09073
1078.50 0.09063
1078.60 0.09054
1078.70 0.09045
1078.80 0.09036
1078.90 0.09026
1079.00 0.09017
1079.10 0.09008
1079.20 0.08999
1079.30 0.08989
1079.40 0.0898
1079.50 0.08971
1079.60 0.0896
1079.70 0.0895
1079.80 0.08939
1079.90 0.08928
1080.00 0.08918
1080.10 0.08907
1080.20 0.08897
1080.30 0.08886
1080.40 0.08876
1080.50 0.08865
1080.60 0.08855
1080.70 0.08844
1080.80 0.08834
1080.90 0.08823
1081.00 0.08813
1081.10 0.08802
1081.20 0.08792
1081.30 0.08782
1081.40 0.08771
1081.50 0.0876
1081.60 0.08749
1081.70 0.08738
1081.80 0.08726
1081.90 0.08715
1082.00 0.08703
1082.10 0.08691
1082.20 0.08679
1082.30 0.08666
1082.40 0.08654
1082.50 0.08642
1082.60 0.08629
1082.70 0.08617
1082.80 0.08605
1082.90 0.08593
1083.00 0.0858
1083.10 0.08568
1083.20 0.08556
1083.30 0.08543
1083.40 0.08531
1083.50 0.08518
1083.60 0.08505
1083.70 0.08491
1083.80 0.08478
1083.90 0.08464
1084.00 0.08451
1084.10 0.08437
1084.20 0.08424
1084.30 0.0841
1084.40 0.08397
1084.50 0.08382
1084.60 0.08367
1084.70 0.08352
1084.80 0.08336
1084.90 0.08321
1085.00 0.08306
1085.10 0.0829
1085.20 0.08275
1085.30 0.0826
1085.40 0.08245
1085.50 0.08229
1085.60 0.08214
1085.70 0.08199
1085.80 0.08183
1085.90 0.08168
1086.00 0.08153
1086.10 0.08138
1086.20 0.08122
1086.30 0.08107
1086.40 0.08092
1086.50 0.08076
1086.60 0.08059
1086.70 0.08042
1086.80 0.08025
1086.90 0.08008
1087.00 0.07992
1087.10 0.07973
1087.20 0.07955
1087.30 0.07937
1087.40 0.07919
1087.50 0.079
1087.60 0.07882
1087.70 0.07864
1087.80 0.07846
1087.90 0.07828
1088.00 0.07809
1088.10 0.07791
1088.20 0.07773
1088.30 0.07755
1088.40 0.07737
1088.50 0.07718
1088.60 0.07699
1088.70 0.07679
1088.80 0.0766
1088.90 0.0764
1089.00 0.07621
1089.10 0.07601
1089.20 0.07582
1089.30 0.07562
1089.40 0.07543
1089.50 0.07523
1089.60 0.07504
1089.70 0.07485
1089.80 0.07465
1089.90 0.07446
1090.00 0.07426
1090.10 0.07407
1090.20 0.07388
1090.30 0.07368
1090.40 0.07349
1090.50 0.0733
1090.60 0.07313
1090.70 0.07295
1090.80 0.07278
1090.90 0.07261
1091.00 0.07243
1091.10 0.07226
1091.20 0.07209
1091.30 0.07191
1091.40 0.07174
1091.50 0.07157
1091.60 0.07139
1091.70 0.07122
1091.80 0.07105
1091.90 0.07087
1092.00 0.07081
1092.10 0.07072
1092.20 0.07062
1092.30 0.07053
1092.40 0.07043
1092.50 0.07033
1092.60 0.07024
1092.70 0.0702
1092.80 0.07029
1092.90 0.07038
1093.00 0.07047
1093.10 0.07062
1093.20 0.07089
1093.30 0.07117
1093.40 0.07153
1093.50 0.07165
1093.60 0.07124
1093.70 0.0709
1093.80 0.07059
1093.90 0.07033
1094.00 0.0702
1094.10 0.07007
1094.20 0.06994
1094.30 0.06987
1094.40 0.06991
1094.50 0.06995
1094.60 0.06999
1094.70 0.07003
1094.80 0.07008
1094.90 0.07012
1095.00 0.07019
1095.10 0.07032
1095.20 0.07044
1095.30 0.07057
1095.40 0.0707
1095.50 0.07083
1095.60 0.07096
1095.70 0.07109
1095.80 0.07122
1095.90 0.07134
1096.00 0.07147
1096.10 0.0716
1096.20 0.07173
1096.30 0.07186
1096.40 0.07198
1096.50 0.07212
1096.60 0.07226
1096.70 0.07241
1096.80 0.07256
1096.90 0.0727
1097.00 0.07285
1097.10 0.073
1097.20 0.07314
1097.30 0.07328
1097.40 0.07343
1097.50 0.07357
1097.60 0.07371
1097.70 0.07386
1097.80 0.074
1097.90 0.07414
1098.00 0.07429
1098.10 0.07443
1098.20 0.07457
1098.30 0.07472
1098.40 0.07486
1098.50 0.075
1098.60 0.07512
1098.70 0.07525
1098.80 0.07537
1098.90 0.07549
1099.00 0.07562
1099.10 0.07574
1099.20 0.07587
1099.30 0.07599
1099.40 0.07612
1099.50 0.07624
1099.60 0.07636
1099.70 0.07649
1099.80 0.07661
1099.90 0.07674
1100.00 0.07686
1100.10 0.07698
1100.20 0.07711
1100.30 0.07723
1100.40 0.07736
1100.50 0.07747
1100.60 0.07757
1100.70 0.07767
1100.80 0.07777
1100.90 0.07787
1101.00 0.07797
1101.10 0.07807
1101.20 0.07817
1101.30 0.07827
1101.40 0.07837
1101.50 0.07847
1101.60 0.07857
1101.70 0.07867
1101.80 0.07876
1101.90 0.07886
1102.00 0.07896
1102.10 0.07905
1102.20 0.07914
1102.30 0.07922
1102.40 0.07931
1102.50 0.07939
1102.60 0.07947
1102.70 0.07955
1102.80 0.07962
1102.90 0.0797
1103.00 0.07978
1103.10 0.07986
1103.20 0.07993
1103.30 0.08001
1103.40 0.08009
1103.50 0.08016
1103.60 0.08022
1103.70 0.08028
1103.80 0.08035
1103.90 0.08041
1104.00 0.08047
1104.10 0.08053
1104.20 0.08059
1104.30 0.08066
1104.40 0.08072
1104.50 0.08078
1104.60 0.08084
1104.70 0.0809
1104.80 0.08096
1104.90 0.08103
1105.00 0.08109
1105.10 0.08115
1105.20 0.08121
1105.30 0.08127
1105.40 0.08134
1105.50 0.08139
1105.60 0.08144
1105.70 0.08149
1105.80 0.08153
1105.90 0.08158
1106.00 0.08163
1106.10 0.08167
1106.20 0.08172
1106.30 0.08177
1106.40 0.08182
1106.50 0.08186
1106.60 0.08191
1106.70 0.08196
1106.80 0.082
1106.90 0.08205
1107.00 0.0821
1107.10 0.08214
1107.20 0.08217
1107.30 0.08221
1107.40 0.08225
1107.50 0.08229
1107.60 0.08232
1107.70 0.08236
1107.80 0.08239
1107.90 0.08242
1108.00 0.08245
1108.10 0.08249
1108.20 0.08252
1108.30 0.08255
1108.40 0.08258
1108.50 0.08262
1108.60 0.08265
1108.70 0.08268
1108.80 0.08271
1108.90 0.08275
1109.00 0.08278
1109.10 0.08281
1109.20 0.08284
1109.30 0.08287
1109.40 0.08291
1109.50 0.08294
1109.60 0.08296
1109.70 0.08298
1109.80 0.083
1109.90 0.08302
1110.00 0.08304
1110.10 0.08306
1110.20 0.08308
1110.30 0.0831
1110.40 0.08313
1110.50 0.08315
1110.60 0.08317
1110.70 0.08319
1110.80 0.08321
1110.90 0.08323
1111.00 0.08325
1111.10 0.08327
1111.20 0.08329
1111.30 0.08331
1111.40 0.08334
1111.50 0.08336
1111.60 0.08338
1111.70 0.0834
1111.80 0.08342
1111.90 0.08344
1112.00 0.08346
1112.10 0.08347
1112.20 0.08349
1112.30 0.0835
1112.40 0.08351
1112.50 0.08353
1112.60 0.08354
1112.70 0.08355
1112.80 0.08357
1112.90 0.08358
1113.00 0.08359
1113.10 0.0836
1113.20 0.08362
1113.30 0.08363
1113.40 0.08364
1113.50 0.08365
1113.60 0.08366
1113.70 0.08366
1113.80 0.08367
1113.90 0.08368
1114.00 0.08368
1114.10 0.08369
1114.20 0.08369
1114.30 0.0837
1114.40 0.0837
1114.50 0.08371
1114.60 0.08371
1114.70 0.08372
1114.80 0.08372
1114.90 0.08373
1115.00 0.08374
1115.10 0.08374
1115.20 0.08375
1115.30 0.08375
1115.40 0.08376
1115.50 0.08376
1115.60 0.08377
1115.70 0.08377
1115.80 0.08378
1115.90 0.08378
1116.00 0.08379
1116.10 0.0838
1116.20 0.0838
1116.30 0.08381
1116.40 0.08381
1116.50 0.08382
1116.60 0.08382
1116.70 0.08383
1116.80 0.08383
1116.90 0.08384
1117.00 0.08384
1117.10 0.08384
1117.20 0.08384
1117.30 0.08383
1117.40 0.08383
1117.50 0.08382
1117.60 0.08382
1117.70 0.08381
1117.80 0.08381
1117.90 0.08381
1118.00 0.0838
1118.10 0.0838
1118.20 0.08379
1118.30 0.08379
1118.40 0.08379
1118.50 0.08378
1118.60 0.08378
1118.70 0.08377
1118.80 0.08377
1118.90 0.08377
1119.00 0.08376
1119.10 0.08376
1119.20 0.08375
1119.30 0.08375
1119.40 0.08375
1119.50 0.08374
1119.60 0.08374
1119.70 0.08373
1119.80 0.08373
1119.90 0.08372
1120.00 0.08372
1120.10 0.08372
1120.20 0.08371
1120.30 0.08371
1120.40 0.0837
1120.50 0.0837
1120.60 0.0837
1120.70 0.08369
1120.80 0.08369
1120.90 0.08368
1121.00 0.08368
1121.10 0.08368
1121.20 0.08367
1121.30 0.08367
1121.40 0.08366
1121.50 0.08366
1121.60 0.08366
1121.70 0.08365
1121.80 0.08365
1121.90 0.08364
1122.00 0.08364
1122.10 0.08363
1122.20 0.08362
1122.30 0.0836
1122.40 0.08359
1122.50 0.08358
1122.60 0.08357
1122.70 0.08356
1122.80 0.08355
1122.90 0.08354
1123.00 0.08353
1123.10 0.08351
1123.20 0.0835
1123.30 0.08349
1123.40 0.08348
1123.50 0.08347
1123.60 0.08346
1123.70 0.08345
1123.80 0.08344
1123.90 0.08342
1124.00 0.08341
1124.10 0.0834
1124.20 0.08339
1124.30 0.08338
1124.40 0.08337
1124.50 0.08336
1124.60 0.08335
1124.70 0.08333
1124.80 0.08332
1124.90 0.08331
1125.00 0.0833
1125.10 0.08329
1125.20 0.08328
1125.30 0.08327
1125.40 0.08326
1125.50 0.08324
1125.60 0.08323
1125.70 0.08322
1125.80 0.08321
1125.90 0.0832
1126.00 0.08319
1126.10 0.08318
1126.20 0.08317
1126.30 0.08316
1126.40 0.08314
1126.50 0.08313
1126.60 0.08312
1126.70 0.08311
1126.80 0.0831
1126.90 0.08309
1127.00 0.08308
1127.10 0.08306
1127.20 0.08305
1127.30 0.08303
1127.40 0.08301
1127.50 0.083
1127.60 0.08298
1127.70 0.08297
1127.80 0.08295
1127.90 0.08293
1128.00 0.08292
1128.10 0.0829
1128.20 0.08289
1128.30 0.08287
1128.40 0.08285
1128.50 0.08284
1128.60 0.08282
1128.70 0.08281
1128.80 0.08279
1128.90 0.08278
1129.00 0.08276
1129.10 0.08274
1129.20 0.08273
1129.30 0.08271
1129.40 0.0827
1129.50 0.08268
1129.60 0.08267
1129.70 0.08265
1129.80 0.08263
1129.90 0.08262
1130.00 0.0826
1130.10 0.08259
1130.20 0.08257
1130.30 0.08255
1130.40 0.08254
1130.50 0.08252
1130.60 0.08251
1130.70 0.08249
1130.80 0.08248
1130.90 0.08246
1131.00 0.08244
1131.10 0.08243
1131.20 0.08241
1131.30 0.0824
1131.40 0.08238
1131.50 0.08237
1131.60 0.08235
1131.70 0.08233
1131.80 0.08232
1131.90 0.0823
1132.00 0.08229
1132.10 0.08227
1132.20 0.08225
1132.30 0.08223
1132.40 0.08221
1132.50 0.0822
1132.60 0.08218
1132.70 0.08216
1132.80 0.08214
1132.90 0.08212
1133.00 0.0821
1133.10 0.08208
1133.20 0.08207
1133.30 0.08205
1133.40 0.08203
1133.50 0.08201
1133.60 0.08199
1133.70 0.08197
1133.80 0.08196
1133.90 0.08194
1134.00 0.08192
1134.10 0.0819
1134.20 0.08188
1134.30 0.08186
1134.40 0.08185
1134.50 0.08183
1134.60 0.08181
1134.70 0.08179
1134.80 0.08177
1134.90 0.08175
1135.00 0.08174
1135.10 0.08172
1135.20 0.0817
1135.30 0.08168
1135.40 0.08166
1135.50 0.08164
1135.60 0.08163
1135.70 0.08161
1135.80 0.08159
1135.90 0.08157
1136.00 0.08155
1136.10 0.08153
1136.20 0.08152
1136.30 0.0815
1136.40 0.08148
1136.50 0.08146
1136.60 0.08144
1136.70 0.08142
1136.80 0.08141
1136.90 0.08139
1137.00 0.08137
1137.10 0.08135
1137.20 0.08133
1137.30 0.08131
1137.40 0.08129
1137.50 0.08127
1137.60 0.08125
1137.70 0.08123
1137.80 0.08121
1137.90 0.08119
1138.00 0.08117
1138.10 0.08115
1138.20 0.08113
1138.30 0.08111
1138.40 0.08109
1138.50 0.08107
1138.60 0.08105
1138.70 0.08102
1138.80 0.081
1138.90 0.08098
1139.00 0.08096
1139.10 0.08094
1139.20 0.08092
1139.30 0.0809
1139.40 0.08088
1139.50 0.08086
1139.60 0.08084
1139.70 0.08082
1139.80 0.0808
1139.90 0.08078
1140.00 0.08076
1140.10 0.08074
1140.20 0.08072
1140.30 0.0807
1140.40 0.08068
1140.50 0.08066
1140.60 0.08064
1140.70 0.08062
1140.80 0.0806
1140.90 0.08058
1141.00 0.08056
1141.10 0.08054
1141.20 0.08052
1141.30 0.0805
1141.40 0.08048
1141.50 0.08046
1141.60 0.08044
1141.70 0.08042
1141.80 0.0804
1141.90 0.08038
1142.00 0.08036
1142.10 0.08034
1142.20 0.08032
1142.30 0.0803
1142.40 0.08028
1142.50 0.08025
1142.60 0.08023
1142.70 0.08021
1142.80 0.08019
1142.90 0.08017
1143.00 0.08015
1143.10 0.08013
1143.20 0.08011
1143.30 0.08009
1143.40 0.08006
1143.50 0.08004
1143.60 0.08002
1143.70 0.08
1143.80 0.07998
1143.90 0.07996
1144.00 0.07994
1144.10 0.07992
1144.20 0.0799
1144.30 0.07988
1144.40 0.07985
1144.50 0.07983
1144.60 0.07981
1144.70 0.07979
1144.80 0.07977
1144.90 0.07975
1145.00 0.07973
1145.10 0.07971
1145.20 0.07969
1145.30 0.07967
1145.40 0.07964
1145.50 0.07962
1145.60 0.0796
1145.70 0.07958
1145.80 0.07956
1145.90 0.07954
1146.00 0.07952
1146.10 0.0795
1146.20 0.07948
1146.30 0.07946
1146.40 0.07944
1146.50 0.07942
1146.60 0.07939
1146.70 0.07937
1146.80 0.07935
1146.90 0.07933
1147.00 0.07931
1147.10 0.07929
1147.20 0.07927
1147.30 0.07925
1147.40 0.07922
1147.50 0.0792
1147.60 0.07918
1147.70 0.07916
1147.80 0.07914
1147.90 0.07911
1148.00 0.07909
1148.10 0.07907
1148.20 0.07905
1148.30 0.07903
1148.40 0.079
1148.50 0.07898
1148.60 0.07896
1148.70 0.07894
1148.80 0.07892
1148.90 0.0789
1149.00 0.07887
1149.10 0.07885
1149.20 0.07883
1149.30 0.07881
1149.40 0.07879
1149.50 0.07876
1149.60 0.07874
1149.70 0.07872
1149.80 0.0787
1149.90 0.07868
1150.00 0.07866
1150.10 0.07863
1150.20 0.07861
1150.30 0.07859
1150.40 0.07857
1150.50 0.07855
1150.60 0.07852
1150.70 0.0785
1150.80 0.07848
1150.90 0.07846
1151.00 0.07844
1151.10 0.07842
1151.20 0.07839
1151.30 0.07837
1151.40 0.07835
1151.50 0.07833
1151.60 0.07831
1151.70 0.07829
1151.80 0.07826
1151.90 0.07824
1152.00 0.07822
1152.10 0.0782
1152.20 0.07818
1152.30 0.07816
1152.40 0.07813
1152.50 0.07811
1152.60 0.07809
1152.70 0.07807
1152.80 0.07804
1152.90 0.07802
1153.00 0.078
1153.10 0.07798
1153.20 0.07796
1153.30 0.07793
1153.40 0.07791
1153.50 0.07789
1153.60 0.07787
1153.70 0.07785
1153.80 0.07782
1153.90 0.0778
1154.00 0.07778
1154.10 0.07776
1154.20 0.07774
1154.30 0.07771
1154.40 0.07769
1154.50 0.07767
1154.60 0.07765
1154.70 0.07763
1154.80 0.07761
1154.90 0.07758
1155.00 0.07756
1155.10 0.07754
1155.20 0.07752
1155.30 0.0775
1155.40 0.07747
1155.50 0.07745
1155.60 0.07743
1155.70 0.07741
1155.80 0.07739
1155.90 0.07736
1156.00 0.07734
1156.10 0.07732
1156.20 0.0773
1156.30 0.07728
1156.40 0.07726
1156.50 0.07723
1156.60 0.07721
1156.70 0.07719
1156.80 0.07717
1156.90 0.07715
1157.00 0.07712
1157.10 0.0771
1157.20 0.07708
1157.30 0.07706
1157.40 0.07704
1157.50 0.07701
1157.60 0.07699
1157.70 0.07697
1157.80 0.07695
1157.90 0.07692
1158.00 0.0769
1158.10 0.07688
1158.20 0.07686
1158.30 0.07684
1158.40 0.07681
1158.50 0.07679
1158.60 0.07677
1158.70 0.07675
1158.80 0.07673
1158.90 0.0767
1159.00 0.07668
1159.10 0.07666
1159.20 0.07664
1159.30 0.07662
1159.40 0.07659
1159.50 0.07657
1159.60 0.07655
1159.70 0.07653
1159.80 0.0765
1159.90 0.07648
1160.00 0.07646
1160.10 0.07644
1160.20 0.07642
1160.30 0.07639
1160.40 0.07637
1160.50 0.07635
1160.60 0.07633
1160.70 0.07631
1160.80 0.07628
1160.90 0.07626
1161.00 0.07624
1161.10 0.07622
1161.20 0.0762
1161.30 0.07617
1161.40 0.07615
1161.50 0.07613
1161.60 0.07611
1161.70 0.07609
1161.80 0.07607
1161.90 0.07604
1162.00 0.07602
1162.10 0.076
1162.20 0.07598
1162.30 0.07596
1162.40 0.07593
1162.50 0.07591
1162.60 0.07589
1162.70 0.07587
1162.80 0.07584
1162.90 0.07582
1163.00 0.0758
1163.10 0.07578
1163.20 0.07576
1163.30 0.07573
1163.40 0.07571
1163.50 0.07569
1163.60 0.07567
1163.70 0.07565
1163.80 0.07562
1163.90 0.0756
1164.00 0.07558
1164.10 0.07556
1164.20 0.07554
1164.30 0.07551
1164.40 0.07549
1164.50 0.07547
1164.60 0.07545
1164.70 0.07543
1164.80 0.0754
1164.90 0.07538
1165.00 0.07536
1165.10 0.07534
1165.20 0.07532
1165.30 0.07529
1165.40 0.07527
1165.50 0.07525
1165.60 0.07523
1165.70 0.07521
1165.80 0.07519
1165.90 0.07516
1166.00 0.07514
1166.10 0.07512
1166.20 0.0751
1166.30 0.07508
1166.40 0.07505
1166.50 0.07503
1166.60 0.07501
1166.70 0.07499
1166.80 0.07497
1166.90 0.07495
1167.00 0.07492
1167.10 0.0749
1167.20 0.07488
1167.30 0.07486
1167.40 0.07483
1167.50 0.07481
1167.60 0.07479
1167.70 0.07477
1167.80 0.07475
1167.90 0.07472
1168.00 0.0747
1168.10 0.07468
1168.20 0.07466
1168.30 0.07464
1168.40 0.07461
1168.50 0.07459
1168.60 0.07457
1168.70 0.07455
1168.80 0.07453
1168.90 0.0745
1169.00 0.07448
1169.10 0.07446
1169.20 0.07444
1169.30 0.07442
1169.40 0.07439
1169.50 0.07437
1169.60 0.07435
1169.70 0.07433
1169.80 0.07431
1169.90 0.07429
1170.00 0.07426
1170.10 0.07424
1170.20 0.07422
1170.30 0.0742
1170.40 0.07418
1170.50 0.07415
1170.60 0.07413
1170.70 0.07411
1170.80 0.07409
1170.90 0.07407
1171.00 0.07404
1171.10 0.07402
1171.20 0.074
1171.30 0.07398
1171.40 0.07396
1171.50 0.07394
1171.60 0.07391
1171.70 0.07389
1171.80 0.07387
1171.90 0.07385
1172.00 0.07383
1172.10 0.0738
1172.20 0.07378
1172.30 0.07376
1172.40 0.07374
1172.50 0.07372
1172.60 0.0737
1172.70 0.07367
1172.80 0.07365
1172.90 0.07363
1173.00 0.07361
1173.10 0.07359
1173.20 0.07356
1173.30 0.07354
1173.40 0.07352
1173.50 0.0735
1173.60 0.07348
1173.70 0.07346
1173.80 0.07343
1173.90 0.07341
1174.00 0.07339
1174.10 0.07337
1174.20 0.07335
1174.30 0.07333
1174.40 0.0733
1174.50 0.07328
1174.60 0.07326
1174.70 0.07324
1174.80 0.07322
1174.90 0.0732
1175.00 0.07317
1175.10 0.07315
1175.20 0.07313
1175.30 0.07311
1175.40 0.07309
1175.50 0.07307
1175.60 0.07304
1175.70 0.07302
1175.80 0.073
1175.90 0.07298
1176.00 0.07296
1176.10 0.07294
1176.20 0.07291
1176.30 0.07289
1176.40 0.07287
1176.50 0.07285
1176.60 0.07283
1176.70 0.07281
1176.80 0.07278
1176.90 0.07276
1177.00 0.07274
1177.10 0.07272
1177.20 0.0727
1177.30 0.07268
1177.40 0.07265
1177.50 0.07263
1177.60 0.07261
1177.70 0.07259
1177.80 0.07257
1177.90 0.07255
1178.00 0.07253
1178.10 0.0725
1178.20 0.07248
1178.30 0.07246
1178.40 0.07244
1178.50 0.07242
1178.60 0.0724
1178.70 0.07237
1178.80 0.07235
1178.90 0.07233
1179.00 0.07231
1179.10 0.07229
1179.20 0.07227
1179.30 0.07224
1179.40 0.07222
1179.50 0.0722
1179.60 0.07218
1179.70 0.07216
1179.80 0.07214
1179.90 0.07212
1180.00 0.07209
1180.10 0.07207
1180.20 0.07205
1180.30 0.07203
1180.40 0.07201
1180.50 0.07199
1180.60 0.07197
1180.70 0.07194
1180.80 0.07192
1180.90 0.0719
1181.00 0.07188
1181.10 0.07186
1181.20 0.07184
1181.30 0.07182
1181.40 0.07179
1181.50 0.07177
1181.60 0.07175
1181.70 0.07173
1181.80 0.07171
1181.90 0.07169
1182.00 0.07167
1182.10 0.07164
1182.20 0.07162
1182.30 0.0716
1182.40 0.07158
1182.50 0.07156
1182.60 0.07154
1182.70 0.07152
1182.80 0.07149
1182.90 0.07147
1183.00 0.07145
1183.10 0.07143
1183.20 0.07141
1183.30 0.07139
1183.40 0.07137
1183.50 0.07134
1183.60 0.07132
1183.70 0.0713
1183.80 0.07128
1183.90 0.07126
1184.00 0.07124
1184.10 0.07122
1184.20 0.07119
1184.30 0.07117
1184.40 0.07115
1184.50 0.07113
1184.60 0.07111
1184.70 0.07109
1184.80 0.07107
1184.90 0.07105
1185.00 0.07102
1185.10 0.071
1185.20 0.07098
1185.30 0.07096
1185.40 0.07094
1185.50 0.07092
1185.60 0.0709
1185.70 0.07088
1185.80 0.07085
1185.90 0.07083
1186.00 0.07081
1186.10 0.07079
1186.20 0.07077
1186.30 0.07075
1186.40 0.07073
1186.50 0.07071
1186.60 0.07068
1186.70 0.07066
1186.80 0.07064
1186.90 0.07062
1187.00 0.0706
1187.10 0.07058
1187.20 0.07056
1187.30 0.07054
1187.40 0.07052
1187.50 0.07049
1187.60 0.07047
1187.70 0.07045
1187.80 0.07043
1187.90 0.07041
1188.00 0.07039
1188.10 0.07037
1188.20 0.07035
1188.30 0.07032
1188.40 0.0703
1188.50 0.07028
1188.60 0.07026
1188.70 0.07024
1188.80 0.07022
1188.90 0.0702
1189.00 0.07018
1189.10 0.07016
1189.20 0.07013
1189.30 0.07011
1189.40 0.07009
1189.50 0.07007
1189.60 0.07005
1189.70 0.07003
1189.80 0.07001
1189.90 0.06999
1190.00 0.06997
1190.10 0.06994
1190.20 0.06992
1190.30 0.0699
1190.40 0.06988
1190.50 0.06986
1190.60 0.06984
1190.70 0.06982
1190.80 0.0698
1190.90 0.06978
1191.00 0.06976
1191.10 0.06973
1191.20 0.06971
1191.30 0.06969
1191.40 0.06967
1191.50 0.06965
1191.60 0.06963
1191.70 0.06961
1191.80 0.06959
1191.90 0.06957
1192.00 0.06955
1192.10 0.06952
1192.20 0.0695
1192.30 0.06948
1192.40 0.06946
1192.50 0.06944
1192.60 0.06942
1192.70 0.0694
1192.80 0.06938
1192.90 0.06936
1193.00 0.06933
1193.10 0.06931
1193.20 0.06929
1193.30 0.06927
1193.40 0.06925
1193.50 0.06923
1193.60 0.06921
1193.70 0.06919
1193.80 0.06917
1193.90 0.06915
1194.00 0.06913
1194.10 0.0691
1194.20 0.06908
1194.30 0.06906
1194.40 0.06904
1194.50 0.06902
1194.60 0.069
1194.70 0.06898
1194.80 0.06896
1194.90 0.06894
1195.00 0.06892
1195.10 0.0689
1195.20 0.06887
1195.30 0.06885
1195.40 0.06883
1195.50 0.06881
1195.60 0.06879
1195.70 0.06877
1195.80 0.06875
1195.90 0.06873
1196.00 0.06871
1196.10 0.06869
1196.20 0.06867
1196.30 0.06864
1196.40 0.06862
1196.50 0.0686
1196.60 0.06858
1196.70 0.06856
1196.80 0.06854
1196.90 0.06852
1197.00 0.0685
1197.10 0.06848
1197.20 0.06846
1197.30 0.06844
1197.40 0.06842
1197.50 0.06839
1197.60 0.06837
1197.70 0.06835
1197.80 0.06833
1197.90 0.06831
1198.00 0.06829
1198.10 0.06827
1198.20 0.06825
1198.30 0.06823
1198.40 0.06821
1198.50 0.06819
1198.60 0.06817
1198.70 0.06814
1198.80 0.06812
1198.90 0.0681
1199.00 0.06808
1199.10 0.06806
1199.20 0.06804
1199.30 0.06802
1199.40 0.068
1199.50 0.06798
1199.60 0.06796
1199.70 0.06794
1199.80 0.06792
1199.90 0.0679
1200.00 0
