# Version 2.1 - nm, norm@500 to 1, cut digits, bergeron_8500_85.dat_8500
# Wavelength(nm)  Flambda(ergs/cm^s/s/nm)
300.00 1.539
300.10 1.539
300.20 1.539
300.30 1.539
300.40 1.539
300.50 1.539
300.60 1.538
300.70 1.538
300.80 1.538
300.90 1.538
301.00 1.538
301.10 1.538
301.20 1.538
301.30 1.537
301.40 1.537
301.50 1.537
301.60 1.537
301.70 1.537
301.80 1.537
301.90 1.536
302.00 1.536
302.10 1.536
302.20 1.536
302.30 1.536
302.40 1.536
302.50 1.535
302.60 1.535
302.70 1.535
302.80 1.535
302.90 1.535
303.00 1.535
303.10 1.534
303.20 1.534
303.30 1.534
303.40 1.534
303.50 1.534
303.60 1.534
303.70 1.533
303.80 1.533
303.90 1.533
304.00 1.533
304.10 1.533
304.20 1.532
304.30 1.532
304.40 1.532
304.50 1.532
304.60 1.532
304.70 1.532
304.80 1.531
304.90 1.531
305.00 1.531
305.10 1.531
305.20 1.531
305.30 1.53
305.40 1.53
305.50 1.53
305.60 1.53
305.70 1.53
305.80 1.53
305.90 1.529
306.00 1.529
306.10 1.529
306.20 1.529
306.30 1.529
306.40 1.528
306.50 1.528
306.60 1.528
306.70 1.528
306.80 1.528
306.90 1.528
307.00 1.527
307.10 1.527
307.20 1.527
307.30 1.527
307.40 1.527
307.50 1.526
307.60 1.526
307.70 1.526
307.80 1.526
307.90 1.526
308.00 1.525
308.10 1.525
308.20 1.525
308.30 1.525
308.40 1.525
308.50 1.524
308.60 1.524
308.70 1.524
308.80 1.524
308.90 1.524
309.00 1.523
309.10 1.523
309.20 1.523
309.30 1.523
309.40 1.523
309.50 1.522
309.60 1.522
309.70 1.522
309.80 1.522
309.90 1.522
310.00 1.521
310.10 1.521
310.20 1.521
310.30 1.521
310.40 1.521
310.50 1.52
310.60 1.52
310.70 1.52
310.80 1.52
310.90 1.519
311.00 1.519
311.10 1.519
311.20 1.519
311.30 1.519
311.40 1.518
311.50 1.518
311.60 1.518
311.70 1.518
311.80 1.518
311.90 1.517
312.00 1.517
312.10 1.517
312.20 1.517
312.30 1.516
312.40 1.516
312.50 1.516
312.60 1.516
312.70 1.516
312.80 1.515
312.90 1.515
313.00 1.515
313.10 1.515
313.20 1.515
313.30 1.514
313.40 1.514
313.50 1.514
313.60 1.514
313.70 1.513
313.80 1.513
313.90 1.513
314.00 1.513
314.10 1.513
314.20 1.512
314.30 1.512
314.40 1.512
314.50 1.512
314.60 1.511
314.70 1.511
314.80 1.511
314.90 1.511
315.00 1.51
315.10 1.51
315.20 1.51
315.30 1.51
315.40 1.51
315.50 1.509
315.60 1.509
315.70 1.509
315.80 1.509
315.90 1.508
316.00 1.508
316.10 1.508
316.20 1.508
316.30 1.507
316.40 1.507
316.50 1.507
316.60 1.507
316.70 1.507
316.80 1.506
316.90 1.506
317.00 1.506
317.10 1.506
317.20 1.505
317.30 1.505
317.40 1.505
317.50 1.505
317.60 1.504
317.70 1.504
317.80 1.504
317.90 1.504
318.00 1.503
318.10 1.503
318.20 1.503
318.30 1.503
318.40 1.502
318.50 1.502
318.60 1.502
318.70 1.502
318.80 1.501
318.90 1.501
319.00 1.501
319.10 1.501
319.20 1.5
319.30 1.5
319.40 1.5
319.50 1.5
319.60 1.499
319.70 1.499
319.80 1.499
319.90 1.499
320.00 1.498
320.10 1.498
320.20 1.498
320.30 1.498
320.40 1.497
320.50 1.497
320.60 1.497
320.70 1.497
320.80 1.496
320.90 1.496
321.00 1.496
321.10 1.496
321.20 1.495
321.30 1.495
321.40 1.495
321.50 1.495
321.60 1.494
321.70 1.494
321.80 1.494
321.90 1.494
322.00 1.493
322.10 1.493
322.20 1.493
322.30 1.493
322.40 1.492
322.50 1.492
322.60 1.492
322.70 1.492
322.80 1.491
322.90 1.491
323.00 1.491
323.10 1.491
323.20 1.49
323.30 1.49
323.40 1.49
323.50 1.489
323.60 1.489
323.70 1.489
323.80 1.489
323.90 1.488
324.00 1.488
324.10 1.488
324.20 1.488
324.30 1.487
324.40 1.487
324.50 1.487
324.60 1.487
324.70 1.486
324.80 1.486
324.90 1.486
325.00 1.485
325.10 1.485
325.20 1.485
325.30 1.485
325.40 1.484
325.50 1.484
325.60 1.484
325.70 1.484
325.80 1.483
325.90 1.483
326.00 1.483
326.10 1.483
326.20 1.482
326.30 1.482
326.40 1.482
326.50 1.481
326.60 1.481
326.70 1.481
326.80 1.481
326.90 1.48
327.00 1.48
327.10 1.48
327.20 1.479
327.30 1.479
327.40 1.479
327.50 1.479
327.60 1.478
327.70 1.478
327.80 1.478
327.90 1.478
328.00 1.477
328.10 1.477
328.20 1.477
328.30 1.476
328.40 1.476
328.50 1.476
328.60 1.476
328.70 1.475
328.80 1.475
328.90 1.475
329.00 1.474
329.10 1.474
329.20 1.474
329.30 1.474
329.40 1.473
329.50 1.473
329.60 1.473
329.70 1.472
329.80 1.472
329.90 1.472
330.00 1.472
330.10 1.471
330.20 1.471
330.30 1.471
330.40 1.47
330.50 1.47
330.60 1.47
330.70 1.47
330.80 1.469
330.90 1.469
331.00 1.469
331.10 1.468
331.20 1.468
331.30 1.468
331.40 1.468
331.50 1.467
331.60 1.467
331.70 1.467
331.80 1.466
331.90 1.466
332.00 1.466
332.10 1.466
332.20 1.465
332.30 1.465
332.40 1.465
332.50 1.464
332.60 1.464
332.70 1.464
332.80 1.463
332.90 1.463
333.00 1.463
333.10 1.463
333.20 1.462
333.30 1.462
333.40 1.462
333.50 1.461
333.60 1.461
333.70 1.461
333.80 1.461
333.90 1.46
334.00 1.46
334.10 1.46
334.20 1.459
334.30 1.459
334.40 1.459
334.50 1.458
334.60 1.458
334.70 1.458
334.80 1.458
334.90 1.457
335.00 1.457
335.10 1.457
335.20 1.456
335.30 1.456
335.40 1.456
335.50 1.455
335.60 1.455
335.70 1.455
335.80 1.455
335.90 1.454
336.00 1.454
336.10 1.454
336.20 1.453
336.30 1.453
336.40 1.453
336.50 1.452
336.60 1.452
336.70 1.452
336.80 1.451
336.90 1.451
337.00 1.451
337.10 1.451
337.20 1.45
337.30 1.45
337.40 1.45
337.50 1.449
337.60 1.449
337.70 1.449
337.80 1.448
337.90 1.448
338.00 1.448
338.10 1.447
338.20 1.447
338.30 1.447
338.40 1.446
338.50 1.446
338.60 1.446
338.70 1.446
338.80 1.445
338.90 1.445
339.00 1.445
339.10 1.444
339.20 1.444
339.30 1.444
339.40 1.443
339.50 1.443
339.60 1.443
339.70 1.442
339.80 1.442
339.90 1.442
340.00 1.441
340.10 1.441
340.20 1.441
340.30 1.441
340.40 1.44
340.50 1.44
340.60 1.44
340.70 1.439
340.80 1.439
340.90 1.439
341.00 1.438
341.10 1.438
341.20 1.438
341.30 1.437
341.40 1.437
341.50 1.437
341.60 1.436
341.70 1.436
341.80 1.436
341.90 1.435
342.00 1.435
342.10 1.435
342.20 1.435
342.30 1.434
342.40 1.434
342.50 1.434
342.60 1.433
342.70 1.433
342.80 1.433
342.90 1.432
343.00 1.432
343.10 1.432
343.20 1.431
343.30 1.431
343.40 1.431
343.50 1.43
343.60 1.43
343.70 1.43
343.80 1.429
343.90 1.429
344.00 1.429
344.10 1.428
344.20 1.428
344.30 1.428
344.40 1.427
344.50 1.427
344.60 1.427
344.70 1.426
344.80 1.426
344.90 1.426
345.00 1.425
345.10 1.425
345.20 1.425
345.30 1.424
345.40 1.424
345.50 1.424
345.60 1.423
345.70 1.423
345.80 1.423
345.90 1.422
346.00 1.422
346.10 1.422
346.20 1.421
346.30 1.421
346.40 1.421
346.50 1.42
346.60 1.42
346.70 1.42
346.80 1.42
346.90 1.419
347.00 1.419
347.10 1.419
347.20 1.418
347.30 1.418
347.40 1.418
347.50 1.417
347.60 1.417
347.70 1.417
347.80 1.416
347.90 1.416
348.00 1.416
348.10 1.415
348.20 1.415
348.30 1.415
348.40 1.414
348.50 1.414
348.60 1.414
348.70 1.413
348.80 1.413
348.90 1.413
349.00 1.412
349.10 1.412
349.20 1.412
349.30 1.411
349.40 1.411
349.50 1.411
349.60 1.41
349.70 1.41
349.80 1.41
349.90 1.409
350.00 1.409
350.10 1.409
350.20 1.408
350.30 1.408
350.40 1.407
350.50 1.407
350.60 1.407
350.70 1.406
350.80 1.406
350.90 1.406
351.00 1.405
351.10 1.405
351.20 1.405
351.30 1.404
351.40 1.404
351.50 1.404
351.60 1.403
351.70 1.403
351.80 1.403
351.90 1.402
352.00 1.402
352.10 1.402
352.20 1.401
352.30 1.401
352.40 1.401
352.50 1.4
352.60 1.4
352.70 1.4
352.80 1.399
352.90 1.399
353.00 1.399
353.10 1.398
353.20 1.398
353.30 1.398
353.40 1.397
353.50 1.397
353.60 1.397
353.70 1.396
353.80 1.396
353.90 1.396
354.00 1.395
354.10 1.395
354.20 1.394
354.30 1.394
354.40 1.394
354.50 1.393
354.60 1.393
354.70 1.393
354.80 1.392
354.90 1.392
355.00 1.392
355.10 1.391
355.20 1.391
355.30 1.391
355.40 1.39
355.50 1.39
355.60 1.39
355.70 1.389
355.80 1.389
355.90 1.389
356.00 1.388
356.10 1.388
356.20 1.388
356.30 1.387
356.40 1.387
356.50 1.387
356.60 1.386
356.70 1.386
356.80 1.385
356.90 1.385
357.00 1.385
357.10 1.384
357.20 1.384
357.30 1.384
357.40 1.383
357.50 1.383
357.60 1.383
357.70 1.382
357.80 1.382
357.90 1.382
358.00 1.381
358.10 1.381
358.20 1.381
358.30 1.38
358.40 1.38
358.50 1.38
358.60 1.379
358.70 1.379
358.80 1.378
358.90 1.378
359.00 1.378
359.10 1.377
359.20 1.377
359.30 1.377
359.40 1.376
359.50 1.376
359.60 1.376
359.70 1.375
359.80 1.375
359.90 1.375
360.00 1.374
360.10 1.374
360.20 1.374
360.30 1.373
360.40 1.373
360.50 1.372
360.60 1.372
360.70 1.372
360.80 1.371
360.90 1.371
361.00 1.371
361.10 1.37
361.20 1.37
361.30 1.37
361.40 1.369
361.50 1.369
361.60 1.369
361.70 1.368
361.80 1.368
361.90 1.368
362.00 1.367
362.10 1.367
362.20 1.366
362.30 1.366
362.40 1.366
362.50 1.365
362.60 1.365
362.70 1.365
362.80 1.364
362.90 1.364
363.00 1.364
363.10 1.363
363.20 1.363
363.30 1.362
363.40 1.362
363.50 1.362
363.60 1.361
363.70 1.361
363.80 1.36
363.90 1.36
364.00 1.36
364.10 1.359
364.20 1.359
364.30 1.359
364.40 1.358
364.50 1.358
364.60 1.357
364.70 1.357
364.80 1.357
364.90 1.356
365.00 1.356
365.10 1.355
365.20 1.355
365.30 1.354
365.40 1.354
365.50 1.354
365.60 1.353
365.70 1.353
365.80 1.352
365.90 1.352
366.00 1.352
366.10 1.351
366.20 1.351
366.30 1.351
366.40 1.35
366.50 1.35
366.60 1.349
366.70 1.349
366.80 1.349
366.90 1.348
367.00 1.348
367.10 1.348
367.20 1.347
367.30 1.347
367.40 1.346
367.50 1.346
367.60 1.346
367.70 1.345
367.80 1.345
367.90 1.345
368.00 1.344
368.10 1.344
368.20 1.344
368.30 1.343
368.40 1.343
368.50 1.343
368.60 1.342
368.70 1.342
368.80 1.342
368.90 1.341
369.00 1.341
369.10 1.341
369.20 1.34
369.30 1.34
369.40 1.34
369.50 1.339
369.60 1.339
369.70 1.338
369.80 1.338
369.90 1.338
370.00 1.337
370.10 1.337
370.20 1.337
370.30 1.337
370.40 1.336
370.50 1.336
370.60 1.336
370.70 1.336
370.80 1.335
370.90 1.335
371.00 1.335
371.10 1.335
371.20 1.334
371.30 1.334
371.40 1.334
371.50 1.334
371.60 1.333
371.70 1.333
371.80 1.333
371.90 1.333
372.00 1.332
372.10 1.332
372.20 1.332
372.30 1.332
372.40 1.332
372.50 1.332
372.60 1.332
372.70 1.332
372.80 1.332
372.90 1.332
373.00 1.332
373.10 1.332
373.20 1.331
373.30 1.331
373.40 1.331
373.50 1.331
373.60 1.331
373.70 1.331
373.80 1.331
373.90 1.331
374.00 1.331
374.10 1.331
374.20 1.331
374.30 1.331
374.40 1.331
374.50 1.331
374.60 1.331
374.70 1.332
374.80 1.332
374.90 1.332
375.00 1.332
375.10 1.332
375.20 1.332
375.30 1.332
375.40 1.332
375.50 1.332
375.60 1.332
375.70 1.333
375.80 1.333
375.90 1.333
376.00 1.333
376.10 1.333
376.20 1.333
376.30 1.333
376.40 1.333
376.50 1.333
376.60 1.333
376.70 1.333
376.80 1.333
376.90 1.334
377.00 1.334
377.10 1.333
377.20 1.333
377.30 1.333
377.40 1.333
377.50 1.333
377.60 1.332
377.70 1.332
377.80 1.332
377.90 1.332
378.00 1.332
378.10 1.33
378.20 1.328
378.30 1.326
378.40 1.325
378.50 1.323
378.60 1.321
378.70 1.32
378.80 1.318
378.90 1.316
379.00 1.315
379.10 1.311
379.20 1.308
379.30 1.305
379.40 1.302
379.50 1.299
379.60 1.295
379.70 1.292
379.80 1.289
379.90 1.286
380.00 1.283
380.10 1.287
380.20 1.291
380.30 1.295
380.40 1.3
380.50 1.304
380.60 1.308
380.70 1.312
380.80 1.316
380.90 1.321
381.00 1.325
381.10 1.325
381.20 1.326
381.30 1.327
381.40 1.327
381.50 1.328
381.60 1.328
381.70 1.327
381.80 1.326
381.90 1.325
382.00 1.324
382.10 1.322
382.20 1.32
382.30 1.313
382.40 1.306
382.50 1.299
382.60 1.292
382.70 1.285
382.80 1.278
382.90 1.271
383.00 1.264
383.10 1.257
383.20 1.251
383.30 1.235
383.40 1.216
383.50 1.196
383.60 1.2
383.70 1.221
383.80 1.24
383.90 1.255
384.00 1.267
384.10 1.278
384.20 1.288
384.30 1.296
384.40 1.303
384.50 1.309
384.60 1.314
384.70 1.318
384.80 1.322
384.90 1.325
385.00 1.327
385.10 1.329
385.20 1.331
385.30 1.332
385.40 1.333
385.50 1.334
385.60 1.335
385.70 1.335
385.80 1.335
385.90 1.335
386.00 1.335
386.10 1.335
386.20 1.334
386.30 1.333
386.40 1.332
386.50 1.331
386.60 1.329
386.70 1.327
386.80 1.325
386.90 1.323
387.00 1.32
387.10 1.317
387.20 1.314
387.30 1.31
387.40 1.306
387.50 1.301
387.60 1.296
387.70 1.29
387.80 1.282
387.90 1.274
388.00 1.264
388.10 1.252
388.20 1.238
388.30 1.222
388.40 1.201
388.50 1.178
388.60 1.152
388.70 1.118
388.80 1.082
388.90 1.044
389.00 1.08
389.10 1.115
389.20 1.149
389.30 1.176
389.40 1.199
389.50 1.221
389.60 1.237
389.70 1.252
389.80 1.264
389.90 1.274
390.00 1.283
390.10 1.29
390.20 1.297
390.30 1.303
390.40 1.308
390.50 1.312
390.60 1.316
390.70 1.32
390.80 1.323
390.90 1.326
391.00 1.329
391.10 1.332
391.20 1.334
391.30 1.336
391.40 1.338
391.50 1.34
391.60 1.341
391.70 1.342
391.80 1.344
391.90 1.345
392.00 1.345
392.10 1.346
392.20 1.347
392.30 1.347
392.40 1.347
392.50 1.347
392.60 1.347
392.70 1.347
392.80 1.347
392.90 1.346
393.00 1.345
393.10 1.345
393.20 1.343
393.30 1.342
393.40 1.341
393.50 1.34
393.60 1.338
393.70 1.336
393.80 1.334
393.90 1.332
394.00 1.33
394.10 1.327
394.20 1.324
394.30 1.321
394.40 1.318
394.50 1.314
394.60 1.31
394.70 1.306
394.80 1.301
394.90 1.296
395.00 1.291
395.10 1.285
395.20 1.279
395.30 1.272
395.40 1.265
395.50 1.257
395.60 1.248
395.70 1.239
395.80 1.229
395.90 1.217
396.00 1.203
396.10 1.189
396.20 1.17
396.30 1.148
396.40 1.124
396.50 1.09
396.60 1.05
396.70 1.005
396.80 0.9453
396.90 0.8773
397.00 0.8006
397.10 0.8706
397.20 0.936
397.30 0.9968
397.40 1.043
397.50 1.083
397.60 1.118
397.70 1.143
397.80 1.165
397.90 1.184
398.00 1.199
398.10 1.212
398.20 1.224
398.30 1.234
398.40 1.243
398.50 1.252
398.60 1.259
398.70 1.266
398.80 1.273
398.90 1.279
399.00 1.284
399.10 1.29
399.20 1.294
399.30 1.299
399.40 1.303
399.50 1.307
399.60 1.311
399.70 1.314
399.80 1.317
399.90 1.32
400.00 1.323
400.10 1.325
400.20 1.328
400.30 1.33
400.40 1.332
400.50 1.334
400.60 1.335
400.70 1.337
400.80 1.338
400.90 1.34
401.00 1.341
401.10 1.342
401.20 1.343
401.30 1.344
401.40 1.345
401.50 1.346
401.60 1.346
401.70 1.347
401.80 1.348
401.90 1.348
402.00 1.348
402.10 1.349
402.20 1.349
402.30 1.349
402.40 1.35
402.50 1.35
402.60 1.35
402.70 1.35
402.80 1.35
402.90 1.35
403.00 1.349
403.10 1.349
403.20 1.349
403.30 1.349
403.40 1.348
403.50 1.348
403.60 1.348
403.70 1.347
403.80 1.347
403.90 1.346
404.00 1.345
404.10 1.345
404.20 1.344
404.30 1.343
404.40 1.342
404.50 1.341
404.60 1.34
404.70 1.339
404.80 1.338
404.90 1.337
405.00 1.336
405.10 1.335
405.20 1.333
405.30 1.332
405.40 1.33
405.50 1.329
405.60 1.327
405.70 1.325
405.80 1.323
405.90 1.321
406.00 1.319
406.10 1.317
406.20 1.315
406.30 1.312
406.40 1.309
406.50 1.307
406.60 1.304
406.70 1.301
406.80 1.297
406.90 1.294
407.00 1.29
407.10 1.286
407.20 1.282
407.30 1.277
407.40 1.273
407.50 1.268
407.60 1.262
407.70 1.256
407.80 1.25
407.90 1.243
408.00 1.236
408.10 1.229
408.20 1.221
408.30 1.212
408.40 1.203
408.50 1.193
408.60 1.182
408.70 1.17
408.80 1.157
408.90 1.144
409.00 1.129
409.10 1.112
409.20 1.094
409.30 1.073
409.40 1.048
409.50 1.019
409.60 0.9848
409.70 0.9374
409.80 0.8805
409.90 0.8139
410.00 0.7257
410.10 0.6483
410.20 0.5815
410.30 0.6831
410.40 0.7735
410.50 0.8526
410.60 0.9115
410.70 0.9616
410.80 1.003
410.90 1.032
411.00 1.059
411.10 1.081
411.20 1.099
411.30 1.116
411.40 1.132
411.50 1.145
411.60 1.157
411.70 1.169
411.80 1.179
411.90 1.189
412.00 1.198
412.10 1.206
412.20 1.214
412.30 1.221
412.40 1.228
412.50 1.234
412.60 1.24
412.70 1.245
412.80 1.25
412.90 1.254
413.00 1.259
413.10 1.263
413.20 1.266
413.30 1.27
413.40 1.273
413.50 1.276
413.60 1.279
413.70 1.281
413.80 1.284
413.90 1.286
414.00 1.288
414.10 1.29
414.20 1.292
414.30 1.293
414.40 1.295
414.50 1.296
414.60 1.298
414.70 1.299
414.80 1.3
414.90 1.301
415.00 1.302
415.10 1.303
415.20 1.304
415.30 1.305
415.40 1.306
415.50 1.306
415.60 1.307
415.70 1.308
415.80 1.308
415.90 1.309
416.00 1.309
416.10 1.31
416.20 1.31
416.30 1.31
416.40 1.311
416.50 1.311
416.60 1.311
416.70 1.311
416.80 1.312
416.90 1.312
417.00 1.312
417.10 1.312
417.20 1.312
417.30 1.312
417.40 1.312
417.50 1.312
417.60 1.312
417.70 1.312
417.80 1.312
417.90 1.312
418.00 1.312
418.10 1.312
418.20 1.312
418.30 1.312
418.40 1.312
418.50 1.311
418.60 1.311
418.70 1.311
418.80 1.311
418.90 1.311
419.00 1.311
419.10 1.31
419.20 1.31
419.30 1.31
419.40 1.31
419.50 1.31
419.60 1.309
419.70 1.309
419.80 1.309
419.90 1.308
420.00 1.308
420.10 1.308
420.20 1.308
420.30 1.307
420.40 1.307
420.50 1.307
420.60 1.306
420.70 1.306
420.80 1.306
420.90 1.305
421.00 1.305
421.10 1.305
421.20 1.304
421.30 1.304
421.40 1.304
421.50 1.303
421.60 1.303
421.70 1.302
421.80 1.302
421.90 1.302
422.00 1.301
422.10 1.301
422.20 1.3
422.30 1.3
422.40 1.299
422.50 1.299
422.60 1.299
422.70 1.298
422.80 1.298
422.90 1.297
423.00 1.297
423.10 1.296
423.20 1.296
423.30 1.295
423.40 1.295
423.50 1.294
423.60 1.294
423.70 1.293
423.80 1.293
423.90 1.292
424.00 1.291
424.10 1.291
424.20 1.29
424.30 1.29
424.40 1.289
424.50 1.289
424.60 1.288
424.70 1.287
424.80 1.287
424.90 1.286
425.00 1.285
425.10 1.285
425.20 1.284
425.30 1.283
425.40 1.283
425.50 1.282
425.60 1.281
425.70 1.281
425.80 1.28
425.90 1.279
426.00 1.278
426.10 1.278
426.20 1.277
426.30 1.276
426.40 1.275
426.50 1.274
426.60 1.274
426.70 1.273
426.80 1.272
426.90 1.271
427.00 1.27
427.10 1.269
427.20 1.268
427.30 1.267
427.40 1.266
427.50 1.265
427.60 1.264
427.70 1.263
427.80 1.262
427.90 1.26
428.00 1.259
428.10 1.258
428.20 1.257
428.30 1.255
428.40 1.254
428.50 1.253
428.60 1.251
428.70 1.25
428.80 1.248
428.90 1.246
429.00 1.245
429.10 1.243
429.20 1.241
429.30 1.239
429.40 1.237
429.50 1.235
429.60 1.233
429.70 1.23
429.80 1.228
429.90 1.225
430.00 1.223
430.10 1.22
430.20 1.217
430.30 1.214
430.40 1.211
430.50 1.207
430.60 1.204
430.70 1.2
430.80 1.196
430.90 1.192
431.00 1.188
431.10 1.183
431.20 1.178
431.30 1.173
431.40 1.168
431.50 1.162
431.60 1.156
431.70 1.149
431.80 1.142
431.90 1.134
432.00 1.126
432.10 1.117
432.20 1.107
432.30 1.097
432.40 1.086
432.50 1.073
432.60 1.059
432.70 1.044
432.80 1.027
432.90 1.009
433.00 0.989
433.10 0.967
433.20 0.943
433.30 0.917
433.40 0.8839
433.50 0.8443
433.60 0.7982
433.70 0.7294
433.80 0.651
433.90 0.5629
434.00 0.4767
434.10 0.4792
434.20 0.5702
434.30 0.6574
434.40 0.7345
434.50 0.8014
434.60 0.8462
434.70 0.8846
434.80 0.9166
434.90 0.9417
435.00 0.9649
435.10 0.9861
435.20 1.005
435.30 1.022
435.40 1.039
435.50 1.053
435.60 1.066
435.70 1.078
435.80 1.088
435.90 1.098
436.00 1.107
436.10 1.114
436.20 1.122
436.30 1.129
436.40 1.135
436.50 1.141
436.60 1.146
436.70 1.151
436.80 1.155
436.90 1.16
437.00 1.164
437.10 1.167
437.20 1.171
437.30 1.174
437.40 1.177
437.50 1.18
437.60 1.183
437.70 1.185
437.80 1.188
437.90 1.19
438.00 1.192
438.10 1.194
438.20 1.195
438.30 1.197
438.40 1.199
438.50 1.2
438.60 1.201
438.70 1.203
438.80 1.204
438.90 1.205
439.00 1.206
439.10 1.207
439.20 1.208
439.30 1.208
439.40 1.209
439.50 1.21
439.60 1.21
439.70 1.211
439.80 1.212
439.90 1.212
440.00 1.213
440.10 1.213
440.20 1.213
440.30 1.214
440.40 1.214
440.50 1.214
440.60 1.214
440.70 1.215
440.80 1.215
440.90 1.215
441.00 1.215
441.10 1.215
441.20 1.215
441.30 1.215
441.40 1.216
441.50 1.216
441.60 1.216
441.70 1.216
441.80 1.216
441.90 1.216
442.00 1.216
442.10 1.215
442.20 1.215
442.30 1.215
442.40 1.215
442.50 1.215
442.60 1.215
442.70 1.215
442.80 1.215
442.90 1.215
443.00 1.215
443.10 1.214
443.20 1.214
443.30 1.214
443.40 1.214
443.50 1.214
443.60 1.214
443.70 1.213
443.80 1.213
443.90 1.213
444.00 1.213
444.10 1.212
444.20 1.212
444.30 1.212
444.40 1.212
444.50 1.212
444.60 1.211
444.70 1.211
444.80 1.211
444.90 1.211
445.00 1.21
445.10 1.21
445.20 1.21
445.30 1.209
445.40 1.209
445.50 1.209
445.60 1.209
445.70 1.208
445.80 1.208
445.90 1.208
446.00 1.207
446.10 1.207
446.20 1.207
446.30 1.206
446.40 1.206
446.50 1.206
446.60 1.205
446.70 1.205
446.80 1.205
446.90 1.204
447.00 1.204
447.10 1.204
447.20 1.203
447.30 1.203
447.40 1.203
447.50 1.202
447.60 1.202
447.70 1.202
447.80 1.201
447.90 1.201
448.00 1.201
448.10 1.2
448.20 1.2
448.30 1.2
448.40 1.199
448.50 1.199
448.60 1.199
448.70 1.198
448.80 1.198
448.90 1.197
449.00 1.197
449.10 1.197
449.20 1.196
449.30 1.196
449.40 1.196
449.50 1.195
449.60 1.195
449.70 1.195
449.80 1.194
449.90 1.194
450.00 1.193
450.10 1.193
450.20 1.193
450.30 1.192
450.40 1.192
450.50 1.192
450.60 1.191
450.70 1.191
450.80 1.19
450.90 1.19
451.00 1.19
451.10 1.189
451.20 1.189
451.30 1.189
451.40 1.188
451.50 1.188
451.60 1.187
451.70 1.187
451.80 1.187
451.90 1.186
452.00 1.186
452.10 1.185
452.20 1.185
452.30 1.185
452.40 1.184
452.50 1.184
452.60 1.183
452.70 1.183
452.80 1.183
452.90 1.182
453.00 1.182
453.10 1.182
453.20 1.181
453.30 1.181
453.40 1.18
453.50 1.18
453.60 1.18
453.70 1.179
453.80 1.179
453.90 1.178
454.00 1.178
454.10 1.178
454.20 1.177
454.30 1.177
454.40 1.176
454.50 1.176
454.60 1.176
454.70 1.175
454.80 1.175
454.90 1.174
455.00 1.174
455.10 1.174
455.20 1.173
455.30 1.173
455.40 1.172
455.50 1.172
455.60 1.172
455.70 1.171
455.80 1.171
455.90 1.171
456.00 1.17
456.10 1.17
456.20 1.169
456.30 1.169
456.40 1.169
456.50 1.168
456.60 1.168
456.70 1.167
456.80 1.167
456.90 1.167
457.00 1.166
457.10 1.166
457.20 1.165
457.30 1.165
457.40 1.165
457.50 1.164
457.60 1.164
457.70 1.163
457.80 1.163
457.90 1.163
458.00 1.162
458.10 1.162
458.20 1.161
458.30 1.161
458.40 1.161
458.50 1.16
458.60 1.16
458.70 1.159
458.80 1.159
458.90 1.159
459.00 1.158
459.10 1.158
459.20 1.157
459.30 1.157
459.40 1.157
459.50 1.156
459.60 1.156
459.70 1.155
459.80 1.155
459.90 1.155
460.00 1.154
460.10 1.154
460.20 1.153
460.30 1.153
460.40 1.153
460.50 1.152
460.60 1.152
460.70 1.151
460.80 1.151
460.90 1.15
461.00 1.15
461.10 1.15
461.20 1.149
461.30 1.149
461.40 1.148
461.50 1.148
461.60 1.148
461.70 1.147
461.80 1.147
461.90 1.146
462.00 1.146
462.10 1.146
462.20 1.145
462.30 1.145
462.40 1.144
462.50 1.144
462.60 1.144
462.70 1.143
462.80 1.143
462.90 1.142
463.00 1.142
463.10 1.142
463.20 1.141
463.30 1.141
463.40 1.14
463.50 1.14
463.60 1.14
463.70 1.139
463.80 1.139
463.90 1.138
464.00 1.138
464.10 1.138
464.20 1.137
464.30 1.137
464.40 1.136
464.50 1.136
464.60 1.135
464.70 1.135
464.80 1.135
464.90 1.134
465.00 1.134
465.10 1.133
465.20 1.133
465.30 1.133
465.40 1.132
465.50 1.132
465.60 1.131
465.70 1.131
465.80 1.131
465.90 1.13
466.00 1.13
466.10 1.129
466.20 1.129
466.30 1.128
466.40 1.128
466.50 1.128
466.60 1.127
466.70 1.127
466.80 1.126
466.90 1.126
467.00 1.126
467.10 1.125
467.20 1.125
467.30 1.124
467.40 1.124
467.50 1.123
467.60 1.123
467.70 1.123
467.80 1.122
467.90 1.122
468.00 1.121
468.10 1.121
468.20 1.121
468.30 1.12
468.40 1.12
468.50 1.119
468.60 1.119
468.70 1.118
468.80 1.118
468.90 1.118
469.00 1.117
469.10 1.117
469.20 1.116
469.30 1.116
469.40 1.115
469.50 1.115
469.60 1.115
469.70 1.114
469.80 1.114
469.90 1.113
470.00 1.113
470.10 1.112
470.20 1.112
470.30 1.112
470.40 1.111
470.50 1.111
470.60 1.11
470.70 1.11
470.80 1.109
470.90 1.109
471.00 1.109
471.10 1.108
471.20 1.108
471.30 1.107
471.40 1.107
471.50 1.106
471.60 1.106
471.70 1.105
471.80 1.105
471.90 1.105
472.00 1.104
472.10 1.104
472.20 1.103
472.30 1.103
472.40 1.102
472.50 1.102
472.60 1.101
472.70 1.101
472.80 1.1
472.90 1.1
473.00 1.099
473.10 1.099
473.20 1.098
473.30 1.098
473.40 1.097
473.50 1.097
473.60 1.096
473.70 1.096
473.80 1.095
473.90 1.095
474.00 1.095
474.10 1.094
474.20 1.093
474.30 1.093
474.40 1.092
474.50 1.092
474.60 1.091
474.70 1.091
474.80 1.09
474.90 1.09
475.00 1.089
475.10 1.089
475.20 1.088
475.30 1.087
475.40 1.087
475.50 1.086
475.60 1.086
475.70 1.085
475.80 1.084
475.90 1.084
476.00 1.083
476.10 1.083
476.20 1.082
476.30 1.081
476.40 1.081
476.50 1.08
476.60 1.079
476.70 1.079
476.80 1.078
476.90 1.077
477.00 1.076
477.10 1.076
477.20 1.075
477.30 1.074
477.40 1.074
477.50 1.073
477.60 1.072
477.70 1.071
477.80 1.07
477.90 1.07
478.00 1.069
478.10 1.068
478.20 1.067
478.30 1.066
478.40 1.065
478.50 1.065
478.60 1.064
478.70 1.063
478.80 1.062
478.90 1.061
479.00 1.06
479.10 1.059
479.20 1.058
479.30 1.057
479.40 1.056
479.50 1.055
479.60 1.054
479.70 1.052
479.80 1.051
479.90 1.05
480.00 1.049
480.10 1.048
480.20 1.047
480.30 1.045
480.40 1.044
480.50 1.042
480.60 1.041
480.70 1.039
480.80 1.038
480.90 1.036
481.00 1.035
481.10 1.033
481.20 1.031
481.30 1.029
481.40 1.027
481.50 1.025
481.60 1.023
481.70 1.021
481.80 1.018
481.90 1.016
482.00 1.014
482.10 1.012
482.20 1.009
482.30 1.006
482.40 1.002
482.50 0.9991
482.60 0.9957
482.70 0.9924
482.80 0.9891
482.90 0.9858
483.00 0.9824
483.10 0.9791
483.20 0.974
483.30 0.9681
483.40 0.9622
483.50 0.9563
483.60 0.9504
483.70 0.9444
483.80 0.9385
483.90 0.9326
484.00 0.9267
484.10 0.9209
484.20 0.9121
484.30 0.9021
484.40 0.8921
484.50 0.8821
484.60 0.8721
484.70 0.8582
484.80 0.8425
484.90 0.8269
485.00 0.8113
485.10 0.7956
485.20 0.7754
485.30 0.7529
485.40 0.7259
485.50 0.6968
485.60 0.6606
485.70 0.6211
485.80 0.5731
485.90 0.5212
486.00 0.4658
486.10 0.4032
486.20 0.4251
486.30 0.4852
486.40 0.5383
486.50 0.5901
486.60 0.6333
486.70 0.6725
486.80 0.7046
486.90 0.7333
487.00 0.7574
487.10 0.7793
487.20 0.7966
487.30 0.8116
487.40 0.8267
487.50 0.8417
487.60 0.8567
487.70 0.8679
487.80 0.8772
487.90 0.8865
488.00 0.8958
488.10 0.9051
488.20 0.9116
488.30 0.9168
488.40 0.922
488.50 0.9272
488.60 0.9323
488.70 0.9375
488.80 0.9426
488.90 0.9478
489.00 0.9529
489.10 0.9581
489.20 0.9615
489.30 0.964
489.40 0.9666
489.50 0.9691
489.60 0.9717
489.70 0.9742
489.80 0.9767
489.90 0.9793
490.00 0.9818
490.10 0.9844
490.20 0.9861
490.30 0.9874
490.40 0.9888
490.50 0.9901
490.60 0.9915
490.70 0.9928
490.80 0.9942
490.90 0.9955
491.00 0.9969
491.10 0.9982
491.20 0.9991
491.30 0.9998
491.40 1.001
491.50 1.001
491.60 1.002
491.70 1.003
491.80 1.003
491.90 1.004
492.00 1.005
492.10 1.006
492.20 1.006
492.30 1.006
492.40 1.007
492.50 1.007
492.60 1.007
492.70 1.008
492.80 1.008
492.90 1.008
493.00 1.009
493.10 1.009
493.20 1.009
493.30 1.009
493.40 1.009
493.50 1.01
493.60 1.01
493.70 1.01
493.80 1.01
493.90 1.01
494.00 1.01
494.10 1.01
494.20 1.01
494.30 1.01
494.40 1.01
494.50 1.01
494.60 1.01
494.70 1.01
494.80 1.01
494.90 1.01
495.00 1.01
495.10 1.01
495.20 1.01
495.30 1.01
495.40 1.01
495.50 1.01
495.60 1.01
495.70 1.01
495.80 1.01
495.90 1.009
496.00 1.009
496.10 1.009
496.20 1.009
496.30 1.009
496.40 1.009
496.50 1.009
496.60 1.008
496.70 1.008
496.80 1.008
496.90 1.008
497.00 1.008
497.10 1.008
497.20 1.007
497.30 1.007
497.40 1.007
497.50 1.007
497.60 1.006
497.70 1.006
497.80 1.006
497.90 1.006
498.00 1.006
498.10 1.005
498.20 1.005
498.30 1.005
498.40 1.005
498.50 1.004
498.60 1.004
498.70 1.004
498.80 1.003
498.90 1.003
499.00 1.003
499.10 1.003
499.20 1.002
499.30 1.002
499.40 1.002
499.50 1.001
499.60 1.001
499.70 1.001
499.80 1.001
499.90 1
500.00 1
500.10 0.9997
500.20 0.9994
500.30 0.9991
500.40 0.9988
500.50 0.9985
500.60 0.9982
500.70 0.9979
500.80 0.9976
500.90 0.9973
501.00 0.9969
501.10 0.9966
501.20 0.9963
501.30 0.996
501.40 0.9957
501.50 0.9954
501.60 0.995
501.70 0.9947
501.80 0.9944
501.90 0.9941
502.00 0.9938
502.10 0.9934
502.20 0.9931
502.30 0.9928
502.40 0.9925
502.50 0.9921
502.60 0.9918
502.70 0.9915
502.80 0.9912
502.90 0.9909
503.00 0.9905
503.10 0.9902
503.20 0.9899
503.30 0.9896
503.40 0.9892
503.50 0.9889
503.60 0.9886
503.70 0.9882
503.80 0.9879
503.90 0.9876
504.00 0.9872
504.10 0.9869
504.20 0.9866
504.30 0.9862
504.40 0.9859
504.50 0.9856
504.60 0.9852
504.70 0.9849
504.80 0.9846
504.90 0.9842
505.00 0.9839
505.10 0.9836
505.20 0.9832
505.30 0.9829
505.40 0.9826
505.50 0.9822
505.60 0.9819
505.70 0.9815
505.80 0.9812
505.90 0.9809
506.00 0.9805
506.10 0.9802
506.20 0.9799
506.30 0.9795
506.40 0.9792
506.50 0.9789
506.60 0.9785
506.70 0.9782
506.80 0.9778
506.90 0.9775
507.00 0.9772
507.10 0.9768
507.20 0.9765
507.30 0.9761
507.40 0.9758
507.50 0.9755
507.60 0.9751
507.70 0.9748
507.80 0.9744
507.90 0.9741
508.00 0.9738
508.10 0.9734
508.20 0.9731
508.30 0.9727
508.40 0.9724
508.50 0.9721
508.60 0.9717
508.70 0.9714
508.80 0.971
508.90 0.9707
509.00 0.9704
509.10 0.97
509.20 0.9697
509.30 0.9693
509.40 0.969
509.50 0.9687
509.60 0.9683
509.70 0.968
509.80 0.9676
509.90 0.9673
510.00 0.967
510.10 0.9666
510.20 0.9663
510.30 0.9659
510.40 0.9656
510.50 0.9653
510.60 0.9649
510.70 0.9646
510.80 0.9642
510.90 0.9639
511.00 0.9636
511.10 0.9632
511.20 0.9629
511.30 0.9625
511.40 0.9622
511.50 0.9618
511.60 0.9615
511.70 0.9612
511.80 0.9608
511.90 0.9605
512.00 0.9601
512.10 0.9598
512.20 0.9594
512.30 0.9591
512.40 0.9588
512.50 0.9584
512.60 0.9581
512.70 0.9577
512.80 0.9574
512.90 0.9571
513.00 0.9567
513.10 0.9564
513.20 0.956
513.30 0.9557
513.40 0.9554
513.50 0.955
513.60 0.9547
513.70 0.9543
513.80 0.954
513.90 0.9537
514.00 0.9533
514.10 0.953
514.20 0.9526
514.30 0.9523
514.40 0.952
514.50 0.9516
514.60 0.9513
514.70 0.9509
514.80 0.9506
514.90 0.9503
515.00 0.9499
515.10 0.9496
515.20 0.9492
515.30 0.9489
515.40 0.9486
515.50 0.9482
515.60 0.9479
515.70 0.9475
515.80 0.9472
515.90 0.9469
516.00 0.9465
516.10 0.9462
516.20 0.9459
516.30 0.9455
516.40 0.9452
516.50 0.9448
516.60 0.9445
516.70 0.9442
516.80 0.9438
516.90 0.9435
517.00 0.9432
517.10 0.9428
517.20 0.9425
517.30 0.9421
517.40 0.9418
517.50 0.9415
517.60 0.9411
517.70 0.9408
517.80 0.9405
517.90 0.9401
518.00 0.9398
518.10 0.9394
518.20 0.9391
518.30 0.9388
518.40 0.9384
518.50 0.9381
518.60 0.9378
518.70 0.9374
518.80 0.9371
518.90 0.9367
519.00 0.9364
519.10 0.9361
519.20 0.9357
519.30 0.9354
519.40 0.9351
519.50 0.9347
519.60 0.9344
519.70 0.9341
519.80 0.9337
519.90 0.9334
520.00 0.9331
520.10 0.9327
520.20 0.9324
520.30 0.9321
520.40 0.9317
520.50 0.9314
520.60 0.9311
520.70 0.9307
520.80 0.9304
520.90 0.9301
521.00 0.9297
521.10 0.9294
521.20 0.9291
521.30 0.9287
521.40 0.9284
521.50 0.9281
521.60 0.9277
521.70 0.9274
521.80 0.9271
521.90 0.9267
522.00 0.9264
522.10 0.9261
522.20 0.9257
522.30 0.9254
522.40 0.9251
522.50 0.9247
522.60 0.9244
522.70 0.9241
522.80 0.9237
522.90 0.9234
523.00 0.9231
523.10 0.9227
523.20 0.9224
523.30 0.9221
523.40 0.9217
523.50 0.9214
523.60 0.9211
523.70 0.9207
523.80 0.9204
523.90 0.9201
524.00 0.9197
524.10 0.9194
524.20 0.9191
524.30 0.9187
524.40 0.9184
524.50 0.9181
524.60 0.9177
524.70 0.9174
524.80 0.9171
524.90 0.9168
525.00 0.9164
525.10 0.9161
525.20 0.9158
525.30 0.9154
525.40 0.9151
525.50 0.9148
525.60 0.9144
525.70 0.9141
525.80 0.9138
525.90 0.9134
526.00 0.9131
526.10 0.9128
526.20 0.9125
526.30 0.9121
526.40 0.9118
526.50 0.9115
526.60 0.9111
526.70 0.9108
526.80 0.9105
526.90 0.9102
527.00 0.9098
527.10 0.9095
527.20 0.9092
527.30 0.9088
527.40 0.9085
527.50 0.9082
527.60 0.9079
527.70 0.9075
527.80 0.9072
527.90 0.9069
528.00 0.9066
528.10 0.9062
528.20 0.9059
528.30 0.9056
528.40 0.9052
528.50 0.9049
528.60 0.9046
528.70 0.9043
528.80 0.9039
528.90 0.9036
529.00 0.9033
529.10 0.9029
529.20 0.9026
529.30 0.9023
529.40 0.902
529.50 0.9016
529.60 0.9013
529.70 0.901
529.80 0.9007
529.90 0.9003
530.00 0.9
530.10 0.8997
530.20 0.8994
530.30 0.899
530.40 0.8987
530.50 0.8984
530.60 0.8981
530.70 0.8977
530.80 0.8974
530.90 0.8971
531.00 0.8968
531.10 0.8964
531.20 0.8961
531.30 0.8958
531.40 0.8955
531.50 0.8951
531.60 0.8948
531.70 0.8945
531.80 0.8942
531.90 0.8938
532.00 0.8935
532.10 0.8932
532.20 0.8929
532.30 0.8926
532.40 0.8922
532.50 0.8919
532.60 0.8916
532.70 0.8913
532.80 0.891
532.90 0.8906
533.00 0.8903
533.10 0.89
533.20 0.8897
533.30 0.8893
533.40 0.889
533.50 0.8887
533.60 0.8884
533.70 0.8881
533.80 0.8877
533.90 0.8874
534.00 0.8871
534.10 0.8868
534.20 0.8864
534.30 0.8861
534.40 0.8858
534.50 0.8855
534.60 0.8852
534.70 0.8848
534.80 0.8845
534.90 0.8842
535.00 0.8839
535.10 0.8836
535.20 0.8832
535.30 0.8829
535.40 0.8826
535.50 0.8823
535.60 0.882
535.70 0.8816
535.80 0.8813
535.90 0.881
536.00 0.8807
536.10 0.8804
536.20 0.88
536.30 0.8797
536.40 0.8794
536.50 0.8791
536.60 0.8788
536.70 0.8785
536.80 0.8781
536.90 0.8778
537.00 0.8775
537.10 0.8772
537.20 0.8769
537.30 0.8765
537.40 0.8762
537.50 0.8759
537.60 0.8756
537.70 0.8753
537.80 0.875
537.90 0.8747
538.00 0.8743
538.10 0.874
538.20 0.8737
538.30 0.8734
538.40 0.8731
538.50 0.8728
538.60 0.8724
538.70 0.8721
538.80 0.8718
538.90 0.8715
539.00 0.8712
539.10 0.8709
539.20 0.8705
539.30 0.8702
539.40 0.8699
539.50 0.8696
539.60 0.8693
539.70 0.869
539.80 0.8686
539.90 0.8683
540.00 0.868
540.10 0.8677
540.20 0.8674
540.30 0.8671
540.40 0.8668
540.50 0.8664
540.60 0.8661
540.70 0.8658
540.80 0.8655
540.90 0.8652
541.00 0.8649
541.10 0.8646
541.20 0.8642
541.30 0.8639
541.40 0.8636
541.50 0.8633
541.60 0.863
541.70 0.8627
541.80 0.8624
541.90 0.8621
542.00 0.8617
542.10 0.8614
542.20 0.8611
542.30 0.8608
542.40 0.8605
542.50 0.8602
542.60 0.8599
542.70 0.8596
542.80 0.8593
542.90 0.859
543.00 0.8586
543.10 0.8583
543.20 0.858
543.30 0.8577
543.40 0.8574
543.50 0.8571
543.60 0.8568
543.70 0.8565
543.80 0.8561
543.90 0.8558
544.00 0.8555
544.10 0.8552
544.20 0.8549
544.30 0.8546
544.40 0.8543
544.50 0.854
544.60 0.8537
544.70 0.8533
544.80 0.853
544.90 0.8527
545.00 0.8524
545.10 0.8521
545.20 0.8518
545.30 0.8515
545.40 0.8512
545.50 0.8509
545.60 0.8506
545.70 0.8503
545.80 0.8499
545.90 0.8496
546.00 0.8493
546.10 0.849
546.20 0.8487
546.30 0.8484
546.40 0.8481
546.50 0.8478
546.60 0.8475
546.70 0.8472
546.80 0.8469
546.90 0.8466
547.00 0.8463
547.10 0.846
547.20 0.8457
547.30 0.8454
547.40 0.8451
547.50 0.8448
547.60 0.8445
547.70 0.8442
547.80 0.8438
547.90 0.8435
548.00 0.8432
548.10 0.8429
548.20 0.8426
548.30 0.8423
548.40 0.842
548.50 0.8417
548.60 0.8414
548.70 0.8411
548.80 0.8408
548.90 0.8405
549.00 0.8402
549.10 0.8399
549.20 0.8396
549.30 0.8393
549.40 0.839
549.50 0.8387
549.60 0.8384
549.70 0.8381
549.80 0.8378
549.90 0.8375
550.00 0.8372
550.10 0.8369
550.20 0.8365
550.30 0.8362
550.40 0.8359
550.50 0.8356
550.60 0.8353
550.70 0.835
550.80 0.8347
550.90 0.8344
551.00 0.8341
551.10 0.8338
551.20 0.8335
551.30 0.8332
551.40 0.8329
551.50 0.8326
551.60 0.8323
551.70 0.832
551.80 0.8317
551.90 0.8314
552.00 0.8311
552.10 0.8308
552.20 0.8305
552.30 0.8302
552.40 0.8299
552.50 0.8296
552.60 0.8293
552.70 0.829
552.80 0.8287
552.90 0.8284
553.00 0.8281
553.10 0.8278
553.20 0.8275
553.30 0.8272
553.40 0.8269
553.50 0.8266
553.60 0.8263
553.70 0.826
553.80 0.8257
553.90 0.8254
554.00 0.8251
554.10 0.8248
554.20 0.8245
554.30 0.8242
554.40 0.8239
554.50 0.8236
554.60 0.8233
554.70 0.823
554.80 0.8227
554.90 0.8224
555.00 0.8221
555.10 0.8218
555.20 0.8215
555.30 0.8212
555.40 0.8209
555.50 0.8206
555.60 0.8203
555.70 0.82
555.80 0.8197
555.90 0.8194
556.00 0.8191
556.10 0.8188
556.20 0.8185
556.30 0.8182
556.40 0.8179
556.50 0.8176
556.60 0.8173
556.70 0.817
556.80 0.8167
556.90 0.8165
557.00 0.8162
557.10 0.8159
557.20 0.8156
557.30 0.8153
557.40 0.815
557.50 0.8147
557.60 0.8144
557.70 0.8141
557.80 0.8138
557.90 0.8135
558.00 0.8132
558.10 0.8129
558.20 0.8126
558.30 0.8123
558.40 0.812
558.50 0.8117
558.60 0.8114
558.70 0.8111
558.80 0.8108
558.90 0.8105
559.00 0.8102
559.10 0.8099
559.20 0.8096
559.30 0.8094
559.40 0.8091
559.50 0.8088
559.60 0.8085
559.70 0.8082
559.80 0.8079
559.90 0.8076
560.00 0.8073
560.10 0.807
560.20 0.8067
560.30 0.8064
560.40 0.8061
560.50 0.8058
560.60 0.8056
560.70 0.8053
560.80 0.805
560.90 0.8047
561.00 0.8044
561.10 0.8041
561.20 0.8038
561.30 0.8035
561.40 0.8032
561.50 0.8029
561.60 0.8026
561.70 0.8024
561.80 0.8021
561.90 0.8018
562.00 0.8015
562.10 0.8012
562.20 0.8009
562.30 0.8006
562.40 0.8003
562.50 0.8
562.60 0.7997
562.70 0.7995
562.80 0.7992
562.90 0.7989
563.00 0.7986
563.10 0.7983
563.20 0.798
563.30 0.7977
563.40 0.7974
563.50 0.7971
563.60 0.7968
563.70 0.7966
563.80 0.7963
563.90 0.796
564.00 0.7957
564.10 0.7954
564.20 0.7951
564.30 0.7948
564.40 0.7945
564.50 0.7942
564.60 0.794
564.70 0.7937
564.80 0.7934
564.90 0.7931
565.00 0.7928
565.10 0.7925
565.20 0.7922
565.30 0.7919
565.40 0.7916
565.50 0.7914
565.60 0.7911
565.70 0.7908
565.80 0.7905
565.90 0.7902
566.00 0.7899
566.10 0.7896
566.20 0.7894
566.30 0.7891
566.40 0.7888
566.50 0.7885
566.60 0.7882
566.70 0.7879
566.80 0.7877
566.90 0.7874
567.00 0.7871
567.10 0.7868
567.20 0.7865
567.30 0.7862
567.40 0.7859
567.50 0.7857
567.60 0.7854
567.70 0.7851
567.80 0.7848
567.90 0.7845
568.00 0.7842
568.10 0.7839
568.20 0.7837
568.30 0.7834
568.40 0.7831
568.50 0.7828
568.60 0.7825
568.70 0.7822
568.80 0.782
568.90 0.7817
569.00 0.7814
569.10 0.7811
569.20 0.7808
569.30 0.7805
569.40 0.7803
569.50 0.78
569.60 0.7797
569.70 0.7794
569.80 0.7791
569.90 0.7788
570.00 0.7786
570.10 0.7783
570.20 0.778
570.30 0.7777
570.40 0.7774
570.50 0.7772
570.60 0.7769
570.70 0.7766
570.80 0.7763
570.90 0.776
571.00 0.7758
571.10 0.7755
571.20 0.7752
571.30 0.7749
571.40 0.7746
571.50 0.7743
571.60 0.7741
571.70 0.7738
571.80 0.7735
571.90 0.7732
572.00 0.773
572.10 0.7727
572.20 0.7724
572.30 0.7721
572.40 0.7718
572.50 0.7715
572.60 0.7713
572.70 0.771
572.80 0.7707
572.90 0.7704
573.00 0.7701
573.10 0.7699
573.20 0.7696
573.30 0.7693
573.40 0.769
573.50 0.7688
573.60 0.7685
573.70 0.7682
573.80 0.7679
573.90 0.7676
574.00 0.7674
574.10 0.7671
574.20 0.7668
574.30 0.7665
574.40 0.7663
574.50 0.766
574.60 0.7657
574.70 0.7654
574.80 0.7651
574.90 0.7649
575.00 0.7646
575.10 0.7643
575.20 0.764
575.30 0.7638
575.40 0.7635
575.50 0.7632
575.60 0.7629
575.70 0.7627
575.80 0.7624
575.90 0.7621
576.00 0.7618
576.10 0.7615
576.20 0.7613
576.30 0.761
576.40 0.7607
576.50 0.7604
576.60 0.7602
576.70 0.7599
576.80 0.7596
576.90 0.7593
577.00 0.7591
577.10 0.7588
577.20 0.7585
577.30 0.7582
577.40 0.758
577.50 0.7577
577.60 0.7574
577.70 0.7572
577.80 0.7569
577.90 0.7566
578.00 0.7563
578.10 0.7561
578.20 0.7558
578.30 0.7555
578.40 0.7552
578.50 0.755
578.60 0.7547
578.70 0.7544
578.80 0.7542
578.90 0.7539
579.00 0.7536
579.10 0.7533
579.20 0.7531
579.30 0.7528
579.40 0.7525
579.50 0.7522
579.60 0.752
579.70 0.7517
579.80 0.7514
579.90 0.7511
580.00 0.7509
580.10 0.7506
580.20 0.7503
580.30 0.7501
580.40 0.7498
580.50 0.7495
580.60 0.7492
580.70 0.749
580.80 0.7487
580.90 0.7484
581.00 0.7482
581.10 0.7479
581.20 0.7476
581.30 0.7474
581.40 0.7471
581.50 0.7468
581.60 0.7465
581.70 0.7463
581.80 0.746
581.90 0.7457
582.00 0.7455
582.10 0.7452
582.20 0.7449
582.30 0.7447
582.40 0.7444
582.50 0.7441
582.60 0.7438
582.70 0.7436
582.80 0.7433
582.90 0.743
583.00 0.7428
583.10 0.7425
583.20 0.7422
583.30 0.742
583.40 0.7417
583.50 0.7414
583.60 0.7412
583.70 0.7409
583.80 0.7406
583.90 0.7404
584.00 0.7401
584.10 0.7398
584.20 0.7396
584.30 0.7393
584.40 0.739
584.50 0.7388
584.60 0.7385
584.70 0.7382
584.80 0.738
584.90 0.7377
585.00 0.7374
585.10 0.7372
585.20 0.7369
585.30 0.7366
585.40 0.7364
585.50 0.7361
585.60 0.7358
585.70 0.7356
585.80 0.7353
585.90 0.735
586.00 0.7348
586.10 0.7345
586.20 0.7342
586.30 0.734
586.40 0.7337
586.50 0.7334
586.60 0.7332
586.70 0.7329
586.80 0.7326
586.90 0.7324
587.00 0.7321
587.10 0.7319
587.20 0.7316
587.30 0.7313
587.40 0.7311
587.50 0.7308
587.60 0.7305
587.70 0.7303
587.80 0.73
587.90 0.7297
588.00 0.7295
588.10 0.7292
588.20 0.7289
588.30 0.7287
588.40 0.7284
588.50 0.7282
588.60 0.7279
588.70 0.7276
588.80 0.7274
588.90 0.7271
589.00 0.7269
589.10 0.7266
589.20 0.7263
589.30 0.7261
589.40 0.7258
589.50 0.7255
589.60 0.7253
589.70 0.725
589.80 0.7248
589.90 0.7245
590.00 0.7242
590.10 0.724
590.20 0.7237
590.30 0.7234
590.40 0.7232
590.50 0.7229
590.60 0.7227
590.70 0.7224
590.80 0.7221
590.90 0.7219
591.00 0.7216
591.10 0.7214
591.20 0.7211
591.30 0.7208
591.40 0.7206
591.50 0.7203
591.60 0.7201
591.70 0.7198
591.80 0.7195
591.90 0.7193
592.00 0.719
592.10 0.7188
592.20 0.7185
592.30 0.7182
592.40 0.718
592.50 0.7177
592.60 0.7175
592.70 0.7172
592.80 0.7169
592.90 0.7167
593.00 0.7164
593.10 0.7162
593.20 0.7159
593.30 0.7157
593.40 0.7154
593.50 0.7151
593.60 0.7149
593.70 0.7146
593.80 0.7144
593.90 0.7141
594.00 0.7139
594.10 0.7136
594.20 0.7133
594.30 0.7131
594.40 0.7128
594.50 0.7126
594.60 0.7123
594.70 0.712
594.80 0.7118
594.90 0.7115
595.00 0.7113
595.10 0.711
595.20 0.7108
595.30 0.7105
595.40 0.7102
595.50 0.71
595.60 0.7097
595.70 0.7095
595.80 0.7092
595.90 0.709
596.00 0.7087
596.10 0.7085
596.20 0.7082
596.30 0.7079
596.40 0.7077
596.50 0.7074
596.60 0.7071
596.70 0.7069
596.80 0.7066
596.90 0.7063
597.00 0.7061
597.10 0.7058
597.20 0.7055
597.30 0.7053
597.40 0.705
597.50 0.7048
597.60 0.7045
597.70 0.7043
597.80 0.704
597.90 0.7038
598.00 0.7035
598.10 0.7033
598.20 0.703
598.30 0.7027
598.40 0.7025
598.50 0.7022
598.60 0.702
598.70 0.7017
598.80 0.7015
598.90 0.7012
599.00 0.701
599.10 0.7007
599.20 0.7005
599.30 0.7002
599.40 0.7
599.50 0.6997
599.60 0.6995
599.70 0.6992
599.80 0.699
599.90 0.6987
600.00 0.6985
600.10 0.6982
600.20 0.698
600.30 0.6977
600.40 0.6975
600.50 0.6972
600.60 0.6969
600.70 0.6967
600.80 0.6964
600.90 0.6962
601.00 0.6959
601.10 0.6957
601.20 0.6954
601.30 0.6952
601.40 0.6949
601.50 0.6947
601.60 0.6944
601.70 0.6942
601.80 0.6939
601.90 0.6937
602.00 0.6934
602.10 0.6932
602.20 0.6929
602.30 0.6927
602.40 0.6924
602.50 0.6922
602.60 0.6919
602.70 0.6917
602.80 0.6914
602.90 0.6912
603.00 0.6909
603.10 0.6907
603.20 0.6904
603.30 0.6902
603.40 0.6899
603.50 0.6897
603.60 0.6894
603.70 0.6892
603.80 0.6889
603.90 0.6887
604.00 0.6884
604.10 0.6882
604.20 0.688
604.30 0.6877
604.40 0.6875
604.50 0.6872
604.60 0.687
604.70 0.6867
604.80 0.6865
604.90 0.6862
605.00 0.686
605.10 0.6857
605.20 0.6855
605.30 0.6852
605.40 0.685
605.50 0.6848
605.60 0.6845
605.70 0.6843
605.80 0.684
605.90 0.6838
606.00 0.6835
606.10 0.6833
606.20 0.683
606.30 0.6828
606.40 0.6825
606.50 0.6823
606.60 0.682
606.70 0.6818
606.80 0.6816
606.90 0.6813
607.00 0.6811
607.10 0.6808
607.20 0.6806
607.30 0.6803
607.40 0.6801
607.50 0.6798
607.60 0.6796
607.70 0.6793
607.80 0.6791
607.90 0.6789
608.00 0.6786
608.10 0.6784
608.20 0.6781
608.30 0.6779
608.40 0.6776
608.50 0.6774
608.60 0.6771
608.70 0.6769
608.80 0.6767
608.90 0.6764
609.00 0.6762
609.10 0.6759
609.20 0.6757
609.30 0.6754
609.40 0.6752
609.50 0.6749
609.60 0.6747
609.70 0.6745
609.80 0.6742
609.90 0.674
610.00 0.6737
610.10 0.6735
610.20 0.6733
610.30 0.673
610.40 0.6728
610.50 0.6725
610.60 0.6723
610.70 0.672
610.80 0.6718
610.90 0.6715
611.00 0.6713
611.10 0.6711
611.20 0.6708
611.30 0.6706
611.40 0.6703
611.50 0.6701
611.60 0.6699
611.70 0.6696
611.80 0.6694
611.90 0.6691
612.00 0.6689
612.10 0.6687
612.20 0.6684
612.30 0.6682
612.40 0.6679
612.50 0.6677
612.60 0.6675
612.70 0.6672
612.80 0.667
612.90 0.6667
613.00 0.6665
613.10 0.6663
613.20 0.666
613.30 0.6658
613.40 0.6655
613.50 0.6653
613.60 0.6651
613.70 0.6648
613.80 0.6646
613.90 0.6643
614.00 0.6641
614.10 0.6639
614.20 0.6636
614.30 0.6634
614.40 0.6631
614.50 0.6629
614.60 0.6627
614.70 0.6624
614.80 0.6622
614.90 0.6619
615.00 0.6617
615.10 0.6615
615.20 0.6612
615.30 0.661
615.40 0.6608
615.50 0.6605
615.60 0.6603
615.70 0.66
615.80 0.6598
615.90 0.6596
616.00 0.6593
616.10 0.6591
616.20 0.6588
616.30 0.6586
616.40 0.6584
616.50 0.6581
616.60 0.6579
616.70 0.6577
616.80 0.6574
616.90 0.6572
617.00 0.6569
617.10 0.6567
617.20 0.6565
617.30 0.6562
617.40 0.656
617.50 0.6558
617.60 0.6555
617.70 0.6553
617.80 0.6551
617.90 0.6548
618.00 0.6546
618.10 0.6543
618.20 0.6541
618.30 0.6539
618.40 0.6536
618.50 0.6534
618.60 0.6532
618.70 0.6529
618.80 0.6527
618.90 0.6525
619.00 0.6522
619.10 0.652
619.20 0.6518
619.30 0.6515
619.40 0.6513
619.50 0.6511
619.60 0.6508
619.70 0.6506
619.80 0.6504
619.90 0.6501
620.00 0.6499
620.10 0.6497
620.20 0.6494
620.30 0.6492
620.40 0.6489
620.50 0.6487
620.60 0.6485
620.70 0.6482
620.80 0.648
620.90 0.6478
621.00 0.6475
621.10 0.6473
621.20 0.6471
621.30 0.6468
621.40 0.6466
621.50 0.6464
621.60 0.6461
621.70 0.6459
621.80 0.6457
621.90 0.6454
622.00 0.6452
622.10 0.645
622.20 0.6447
622.30 0.6445
622.40 0.6443
622.50 0.644
622.60 0.6438
622.70 0.6436
622.80 0.6433
622.90 0.6431
623.00 0.6429
623.10 0.6426
623.20 0.6424
623.30 0.6422
623.40 0.6419
623.50 0.6417
623.60 0.6415
623.70 0.6412
623.80 0.641
623.90 0.6408
624.00 0.6405
624.10 0.6403
624.20 0.6401
624.30 0.6399
624.40 0.6396
624.50 0.6394
624.60 0.6392
624.70 0.6389
624.80 0.6387
624.90 0.6385
625.00 0.6382
625.10 0.638
625.20 0.6378
625.30 0.6375
625.40 0.6373
625.50 0.6371
625.60 0.6368
625.70 0.6366
625.80 0.6364
625.90 0.6362
626.00 0.6359
626.10 0.6357
626.20 0.6355
626.30 0.6352
626.40 0.635
626.50 0.6348
626.60 0.6345
626.70 0.6343
626.80 0.6341
626.90 0.6339
627.00 0.6336
627.10 0.6334
627.20 0.6332
627.30 0.6329
627.40 0.6327
627.50 0.6325
627.60 0.6323
627.70 0.632
627.80 0.6318
627.90 0.6316
628.00 0.6313
628.10 0.6311
628.20 0.6309
628.30 0.6307
628.40 0.6304
628.50 0.6302
628.60 0.63
628.70 0.6298
628.80 0.6295
628.90 0.6293
629.00 0.6291
629.10 0.6288
629.20 0.6286
629.30 0.6284
629.40 0.6282
629.50 0.6279
629.60 0.6277
629.70 0.6275
629.80 0.6272
629.90 0.627
630.00 0.6268
630.10 0.6266
630.20 0.6263
630.30 0.6261
630.40 0.6259
630.50 0.6257
630.60 0.6254
630.70 0.6252
630.80 0.625
630.90 0.6247
631.00 0.6245
631.10 0.6243
631.20 0.6241
631.30 0.6238
631.40 0.6236
631.50 0.6234
631.60 0.6231
631.70 0.6229
631.80 0.6227
631.90 0.6225
632.00 0.6222
632.10 0.622
632.20 0.6218
632.30 0.6215
632.40 0.6213
632.50 0.6211
632.60 0.6209
632.70 0.6206
632.80 0.6204
632.90 0.6202
633.00 0.6199
633.10 0.6197
633.20 0.6195
633.30 0.6192
633.40 0.619
633.50 0.6188
633.60 0.6186
633.70 0.6183
633.80 0.6181
633.90 0.6179
634.00 0.6176
634.10 0.6174
634.20 0.6172
634.30 0.617
634.40 0.6167
634.50 0.6165
634.60 0.6163
634.70 0.616
634.80 0.6158
634.90 0.6156
635.00 0.6153
635.10 0.6151
635.20 0.6149
635.30 0.6146
635.40 0.6144
635.50 0.6142
635.60 0.6139
635.70 0.6137
635.80 0.6134
635.90 0.6132
636.00 0.613
636.10 0.6127
636.20 0.6125
636.30 0.6123
636.40 0.612
636.50 0.6118
636.60 0.6115
636.70 0.6113
636.80 0.6111
636.90 0.6108
637.00 0.6106
637.10 0.6103
637.20 0.6101
637.30 0.6098
637.40 0.6096
637.50 0.6093
637.60 0.6091
637.70 0.6088
637.80 0.6086
637.90 0.6083
638.00 0.6081
638.10 0.6078
638.20 0.6076
638.30 0.6073
638.40 0.6071
638.50 0.6068
638.60 0.6065
638.70 0.6063
638.80 0.606
638.90 0.6057
639.00 0.6055
639.10 0.6052
639.20 0.6049
639.30 0.6047
639.40 0.6044
639.50 0.6041
639.60 0.6038
639.70 0.6036
639.80 0.6033
639.90 0.603
640.00 0.6027
640.10 0.6024
640.20 0.6022
640.30 0.6019
640.40 0.6016
640.50 0.6013
640.60 0.601
640.70 0.6007
640.80 0.6004
640.90 0.6001
641.00 0.5998
641.10 0.5995
641.20 0.5992
641.30 0.5989
641.40 0.5985
641.50 0.5982
641.60 0.5979
641.70 0.5976
641.80 0.5972
641.90 0.5969
642.00 0.5966
642.10 0.5962
642.20 0.5959
642.30 0.5956
642.40 0.5952
642.50 0.5948
642.60 0.5944
642.70 0.5941
642.80 0.5937
642.90 0.5933
643.00 0.5929
643.10 0.5925
643.20 0.5922
643.30 0.5918
643.40 0.5914
643.50 0.591
643.60 0.5906
643.70 0.5902
643.80 0.5898
643.90 0.5893
644.00 0.5889
644.10 0.5885
644.20 0.5881
644.30 0.5877
644.40 0.5873
644.50 0.5869
644.60 0.5865
644.70 0.5861
644.80 0.5856
644.90 0.5852
645.00 0.5848
645.10 0.5844
645.20 0.584
645.30 0.5836
645.40 0.5831
645.50 0.5827
645.60 0.5822
645.70 0.5818
645.80 0.5814
645.90 0.5809
646.00 0.5805
646.10 0.58
646.20 0.5796
646.30 0.5791
646.40 0.5787
646.50 0.5782
646.60 0.5778
646.70 0.5773
646.80 0.5768
646.90 0.5764
647.00 0.5759
647.10 0.5754
647.20 0.575
647.30 0.5745
647.40 0.5739
647.50 0.5733
647.60 0.5728
647.70 0.5722
647.80 0.5716
647.90 0.571
648.00 0.5705
648.10 0.5699
648.20 0.5693
648.30 0.5687
648.40 0.568
648.50 0.5674
648.60 0.5667
648.70 0.566
648.80 0.5653
648.90 0.5646
649.00 0.5639
649.10 0.5632
649.20 0.5625
649.30 0.5618
649.40 0.561
649.50 0.5601
649.60 0.5593
649.70 0.5584
649.80 0.5576
649.90 0.5567
650.00 0.5559
650.10 0.555
650.20 0.5542
650.30 0.5533
650.40 0.5521
650.50 0.551
650.60 0.5499
650.70 0.5488
650.80 0.5477
650.90 0.5466
651.00 0.5455
651.10 0.5444
651.20 0.5433
651.30 0.5421
651.40 0.5406
651.50 0.5391
651.60 0.5375
651.70 0.536
651.80 0.5345
651.90 0.533
652.00 0.5315
652.10 0.53
652.20 0.5284
652.30 0.5268
652.40 0.5245
652.50 0.5223
652.60 0.52
652.70 0.5178
652.80 0.5155
652.90 0.5133
653.00 0.5111
653.10 0.5088
653.20 0.5066
653.30 0.5041
653.40 0.5004
653.50 0.4968
653.60 0.4932
653.70 0.4895
653.80 0.4859
653.90 0.4823
654.00 0.4787
654.10 0.4751
654.20 0.4714
654.30 0.4674
654.40 0.4619
654.50 0.4563
654.60 0.4507
654.70 0.4452
654.80 0.4391
654.90 0.4313
655.00 0.4235
655.10 0.4157
655.20 0.4079
655.30 0.3998
655.40 0.3901
655.50 0.3803
655.60 0.3698
655.70 0.3592
655.80 0.3483
655.90 0.3371
656.00 0.3252
656.10 0.313
656.20 0.2967
656.30 0.2857
656.40 0.3038
656.50 0.3174
656.60 0.3292
656.70 0.3407
656.80 0.3515
656.90 0.3621
657.00 0.3723
657.10 0.3824
657.20 0.3918
657.30 0.4008
657.40 0.4083
657.50 0.4158
657.60 0.4232
657.70 0.4307
657.80 0.4378
657.90 0.443
658.00 0.4482
658.10 0.4534
658.20 0.4586
658.30 0.4635
658.40 0.4667
658.50 0.47
658.60 0.4732
658.70 0.4764
658.80 0.4797
658.90 0.4829
659.00 0.4862
659.10 0.4894
659.20 0.4926
659.30 0.4956
659.40 0.4974
659.50 0.4993
659.60 0.5011
659.70 0.503
659.80 0.5048
659.90 0.5066
660.00 0.5085
660.10 0.5103
660.20 0.5122
660.30 0.5138
660.40 0.515
660.50 0.5161
660.60 0.5172
660.70 0.5183
660.80 0.5194
660.90 0.5205
661.00 0.5216
661.10 0.5227
661.20 0.5238
661.30 0.5248
661.40 0.5255
661.50 0.5262
661.60 0.5269
661.70 0.5276
661.80 0.5283
661.90 0.529
662.00 0.5297
662.10 0.5304
662.20 0.531
662.30 0.5317
662.40 0.5321
662.50 0.5325
662.60 0.533
662.70 0.5334
662.80 0.5338
662.90 0.5343
663.00 0.5347
663.10 0.5351
663.20 0.5356
663.30 0.536
663.40 0.5362
663.50 0.5365
663.60 0.5368
663.70 0.537
663.80 0.5373
663.90 0.5376
664.00 0.5378
664.10 0.5381
664.20 0.5384
664.30 0.5386
664.40 0.5388
664.50 0.5389
664.60 0.5391
664.70 0.5393
664.80 0.5394
664.90 0.5396
665.00 0.5397
665.10 0.5399
665.20 0.54
665.30 0.5402
665.40 0.5402
665.50 0.5403
665.60 0.5403
665.70 0.5404
665.80 0.5404
665.90 0.5404
666.00 0.5405
666.10 0.5405
666.20 0.5406
666.30 0.5406
666.40 0.5407
666.50 0.5407
666.60 0.5407
666.70 0.5407
666.80 0.5408
666.90 0.5408
667.00 0.5408
667.10 0.5408
667.20 0.5409
667.30 0.5409
667.40 0.5409
667.50 0.5409
667.60 0.5409
667.70 0.5409
667.80 0.5409
667.90 0.5408
668.00 0.5408
668.10 0.5408
668.20 0.5408
668.30 0.5408
668.40 0.5408
668.50 0.5408
668.60 0.5408
668.70 0.5408
668.80 0.5407
668.90 0.5407
669.00 0.5407
669.10 0.5407
669.20 0.5407
669.30 0.5406
669.40 0.5406
669.50 0.5405
669.60 0.5405
669.70 0.5405
669.80 0.5404
669.90 0.5404
670.00 0.5403
670.10 0.5403
670.20 0.5402
670.30 0.5402
670.40 0.5401
670.50 0.54
670.60 0.5399
670.70 0.5398
670.80 0.5397
670.90 0.5396
671.00 0.5396
671.10 0.5395
671.20 0.5394
671.30 0.5393
671.40 0.5392
671.50 0.539
671.60 0.5389
671.70 0.5388
671.80 0.5387
671.90 0.5386
672.00 0.5385
672.10 0.5383
672.20 0.5382
672.30 0.5381
672.40 0.538
672.50 0.5378
672.60 0.5377
672.70 0.5376
672.80 0.5374
672.90 0.5373
673.00 0.5371
673.10 0.537
673.20 0.5369
673.30 0.5367
673.40 0.5366
673.50 0.5364
673.60 0.5363
673.70 0.5361
673.80 0.536
673.90 0.5358
674.00 0.5357
674.10 0.5355
674.20 0.5354
674.30 0.5352
674.40 0.5351
674.50 0.5349
674.60 0.5348
674.70 0.5346
674.80 0.5345
674.90 0.5343
675.00 0.5341
675.10 0.534
675.20 0.5338
675.30 0.5337
675.40 0.5335
675.50 0.5333
675.60 0.5332
675.70 0.533
675.80 0.5328
675.90 0.5326
676.00 0.5325
676.10 0.5323
676.20 0.5321
676.30 0.532
676.40 0.5318
676.50 0.5316
676.60 0.5315
676.70 0.5313
676.80 0.5311
676.90 0.5309
677.00 0.5308
677.10 0.5306
677.20 0.5304
677.30 0.5303
677.40 0.5301
677.50 0.5299
677.60 0.5297
677.70 0.5296
677.80 0.5294
677.90 0.5292
678.00 0.529
678.10 0.5289
678.20 0.5287
678.30 0.5285
678.40 0.5284
678.50 0.5282
678.60 0.528
678.70 0.5278
678.80 0.5276
678.90 0.5275
679.00 0.5273
679.10 0.5271
679.20 0.5269
679.30 0.5268
679.40 0.5266
679.50 0.5264
679.60 0.5262
679.70 0.5261
679.80 0.5259
679.90 0.5257
680.00 0.5255
680.10 0.5253
680.20 0.5252
680.30 0.525
680.40 0.5248
680.50 0.5246
680.60 0.5245
680.70 0.5243
680.80 0.5241
680.90 0.5239
681.00 0.5237
681.10 0.5236
681.20 0.5234
681.30 0.5232
681.40 0.523
681.50 0.5228
681.60 0.5227
681.70 0.5225
681.80 0.5223
681.90 0.5221
682.00 0.522
682.10 0.5218
682.20 0.5216
682.30 0.5214
682.40 0.5213
682.50 0.5211
682.60 0.5209
682.70 0.5207
682.80 0.5205
682.90 0.5204
683.00 0.5202
683.10 0.52
683.20 0.5198
683.30 0.5196
683.40 0.5195
683.50 0.5193
683.60 0.5191
683.70 0.5189
683.80 0.5188
683.90 0.5186
684.00 0.5184
684.10 0.5182
684.20 0.5181
684.30 0.5179
684.40 0.5177
684.50 0.5175
684.60 0.5174
684.70 0.5172
684.80 0.517
684.90 0.5168
685.00 0.5166
685.10 0.5165
685.20 0.5163
685.30 0.5161
685.40 0.5159
685.50 0.5158
685.60 0.5156
685.70 0.5154
685.80 0.5152
685.90 0.515
686.00 0.5149
686.10 0.5147
686.20 0.5145
686.30 0.5143
686.40 0.5142
686.50 0.514
686.60 0.5138
686.70 0.5136
686.80 0.5135
686.90 0.5133
687.00 0.5131
687.10 0.5129
687.20 0.5128
687.30 0.5126
687.40 0.5124
687.50 0.5122
687.60 0.5121
687.70 0.5119
687.80 0.5117
687.90 0.5115
688.00 0.5114
688.10 0.5112
688.20 0.511
688.30 0.5108
688.40 0.5107
688.50 0.5105
688.60 0.5103
688.70 0.5101
688.80 0.51
688.90 0.5098
689.00 0.5096
689.10 0.5094
689.20 0.5093
689.30 0.5091
689.40 0.5089
689.50 0.5087
689.60 0.5086
689.70 0.5084
689.80 0.5082
689.90 0.508
690.00 0.5079
690.10 0.5077
690.20 0.5075
690.30 0.5073
690.40 0.5072
690.50 0.507
690.60 0.5068
690.70 0.5066
690.80 0.5065
690.90 0.5063
691.00 0.5061
691.10 0.5059
691.20 0.5058
691.30 0.5056
691.40 0.5054
691.50 0.5052
691.60 0.5051
691.70 0.5049
691.80 0.5047
691.90 0.5045
692.00 0.5044
692.10 0.5042
692.20 0.504
692.30 0.5038
692.40 0.5037
692.50 0.5035
692.60 0.5033
692.70 0.5032
692.80 0.503
692.90 0.5028
693.00 0.5026
693.10 0.5025
693.20 0.5023
693.30 0.5021
693.40 0.5019
693.50 0.5018
693.60 0.5016
693.70 0.5014
693.80 0.5013
693.90 0.5011
694.00 0.5009
694.10 0.5007
694.20 0.5006
694.30 0.5004
694.40 0.5002
694.50 0.5001
694.60 0.4999
694.70 0.4997
694.80 0.4995
694.90 0.4994
695.00 0.4992
695.10 0.499
695.20 0.4989
695.30 0.4987
695.40 0.4985
695.50 0.4983
695.60 0.4982
695.70 0.498
695.80 0.4978
695.90 0.4977
696.00 0.4975
696.10 0.4973
696.20 0.4971
696.30 0.497
696.40 0.4968
696.50 0.4966
696.60 0.4965
696.70 0.4963
696.80 0.4961
696.90 0.496
697.00 0.4958
697.10 0.4956
697.20 0.4954
697.30 0.4953
697.40 0.4951
697.50 0.4949
697.60 0.4948
697.70 0.4946
697.80 0.4944
697.90 0.4943
698.00 0.4941
698.10 0.4939
698.20 0.4938
698.30 0.4936
698.40 0.4934
698.50 0.4932
698.60 0.4931
698.70 0.4929
698.80 0.4927
698.90 0.4926
699.00 0.4924
699.10 0.4922
699.20 0.4921
699.30 0.4919
699.40 0.4917
699.50 0.4916
699.60 0.4914
699.70 0.4912
699.80 0.4911
699.90 0.4909
700.00 0.4907
700.10 0.4906
700.20 0.4904
700.30 0.4903
700.40 0.4901
700.50 0.49
700.60 0.4898
700.70 0.4896
700.80 0.4895
700.90 0.4893
701.00 0.4892
701.10 0.489
701.20 0.4889
701.30 0.4887
701.40 0.4886
701.50 0.4884
701.60 0.4883
701.70 0.4881
701.80 0.4879
701.90 0.4878
702.00 0.4876
702.10 0.4875
702.20 0.4873
702.30 0.4872
702.40 0.487
702.50 0.4869
702.60 0.4867
702.70 0.4866
702.80 0.4864
702.90 0.4862
703.00 0.4861
703.10 0.4859
703.20 0.4858
703.30 0.4856
703.40 0.4855
703.50 0.4853
703.60 0.4852
703.70 0.485
703.80 0.4849
703.90 0.4847
704.00 0.4846
704.10 0.4844
704.20 0.4843
704.30 0.4841
704.40 0.484
704.50 0.4838
704.60 0.4836
704.70 0.4835
704.80 0.4833
704.90 0.4832
705.00 0.483
705.10 0.4829
705.20 0.4827
705.30 0.4825
705.40 0.4824
705.50 0.4822
705.60 0.482
705.70 0.4819
705.80 0.4817
705.90 0.4816
706.00 0.4814
706.10 0.4812
706.20 0.4811
706.30 0.4809
706.40 0.4807
706.50 0.4806
706.60 0.4804
706.70 0.4802
706.80 0.4801
706.90 0.4799
707.00 0.4797
707.10 0.4796
707.20 0.4794
707.30 0.4793
707.40 0.4791
707.50 0.4789
707.60 0.4788
707.70 0.4786
707.80 0.4784
707.90 0.4783
708.00 0.4781
708.10 0.4779
708.20 0.4778
708.30 0.4776
708.40 0.4775
708.50 0.4773
708.60 0.4771
708.70 0.477
708.80 0.4768
708.90 0.4766
709.00 0.4765
709.10 0.4763
709.20 0.4762
709.30 0.476
709.40 0.4758
709.50 0.4757
709.60 0.4755
709.70 0.4753
709.80 0.4752
709.90 0.475
710.00 0.4749
710.10 0.4747
710.20 0.4745
710.30 0.4744
710.40 0.4742
710.50 0.474
710.60 0.4739
710.70 0.4737
710.80 0.4736
710.90 0.4734
711.00 0.4732
711.10 0.4731
711.20 0.4729
711.30 0.4727
711.40 0.4726
711.50 0.4724
711.60 0.4723
711.70 0.4721
711.80 0.4719
711.90 0.4718
712.00 0.4716
712.10 0.4715
712.20 0.4713
712.30 0.4711
712.40 0.471
712.50 0.4708
712.60 0.4706
712.70 0.4705
712.80 0.4703
712.90 0.4702
713.00 0.47
713.10 0.4698
713.20 0.4697
713.30 0.4695
713.40 0.4694
713.50 0.4692
713.60 0.469
713.70 0.4689
713.80 0.4687
713.90 0.4686
714.00 0.4684
714.10 0.4682
714.20 0.4681
714.30 0.4679
714.40 0.4678
714.50 0.4676
714.60 0.4674
714.70 0.4673
714.80 0.4671
714.90 0.467
715.00 0.4668
715.10 0.4666
715.20 0.4665
715.30 0.4663
715.40 0.4662
715.50 0.466
715.60 0.4659
715.70 0.4657
715.80 0.4655
715.90 0.4654
716.00 0.4652
716.10 0.4651
716.20 0.4649
716.30 0.4648
716.40 0.4646
716.50 0.4644
716.60 0.4643
716.70 0.4641
716.80 0.464
716.90 0.4638
717.00 0.4636
717.10 0.4635
717.20 0.4633
717.30 0.4632
717.40 0.463
717.50 0.4629
717.60 0.4627
717.70 0.4625
717.80 0.4624
717.90 0.4622
718.00 0.4621
718.10 0.4619
718.20 0.4618
718.30 0.4616
718.40 0.4615
718.50 0.4613
718.60 0.4611
718.70 0.461
718.80 0.4608
718.90 0.4607
719.00 0.4605
719.10 0.4604
719.20 0.4602
719.30 0.46
719.40 0.4599
719.50 0.4597
719.60 0.4596
719.70 0.4594
719.80 0.4593
719.90 0.4591
720.00 0.459
720.10 0.4588
720.20 0.4586
720.30 0.4585
720.40 0.4583
720.50 0.4582
720.60 0.458
720.70 0.4579
720.80 0.4577
720.90 0.4576
721.00 0.4574
721.10 0.4572
721.20 0.4571
721.30 0.4569
721.40 0.4568
721.50 0.4566
721.60 0.4565
721.70 0.4563
721.80 0.4561
721.90 0.456
722.00 0.4558
722.10 0.4557
722.20 0.4555
722.30 0.4554
722.40 0.4552
722.50 0.4551
722.60 0.4549
722.70 0.4548
722.80 0.4546
722.90 0.4544
723.00 0.4543
723.10 0.4541
723.20 0.454
723.30 0.4538
723.40 0.4537
723.50 0.4535
723.60 0.4534
723.70 0.4532
723.80 0.4531
723.90 0.4529
724.00 0.4527
724.10 0.4526
724.20 0.4524
724.30 0.4523
724.40 0.4521
724.50 0.452
724.60 0.4518
724.70 0.4517
724.80 0.4515
724.90 0.4514
725.00 0.4512
725.10 0.4511
725.20 0.4509
725.30 0.4507
725.40 0.4506
725.50 0.4504
725.60 0.4503
725.70 0.4501
725.80 0.45
725.90 0.4498
726.00 0.4497
726.10 0.4495
726.20 0.4494
726.30 0.4492
726.40 0.4491
726.50 0.4489
726.60 0.4488
726.70 0.4486
726.80 0.4485
726.90 0.4483
727.00 0.4482
727.10 0.448
727.20 0.4479
727.30 0.4477
727.40 0.4475
727.50 0.4474
727.60 0.4472
727.70 0.4471
727.80 0.4469
727.90 0.4468
728.00 0.4466
728.10 0.4465
728.20 0.4463
728.30 0.4462
728.40 0.446
728.50 0.4459
728.60 0.4457
728.70 0.4456
728.80 0.4454
728.90 0.4453
729.00 0.4451
729.10 0.445
729.20 0.4448
729.30 0.4447
729.40 0.4445
729.50 0.4444
729.60 0.4442
729.70 0.4441
729.80 0.4439
729.90 0.4438
730.00 0.4436
730.10 0.4435
730.20 0.4433
730.30 0.4432
730.40 0.443
730.50 0.4429
730.60 0.4427
730.70 0.4426
730.80 0.4424
730.90 0.4423
731.00 0.4421
731.10 0.442
731.20 0.4418
731.30 0.4417
731.40 0.4415
731.50 0.4414
731.60 0.4412
731.70 0.4411
731.80 0.4409
731.90 0.4408
732.00 0.4406
732.10 0.4405
732.20 0.4403
732.30 0.4402
732.40 0.44
732.50 0.4399
732.60 0.4397
732.70 0.4396
732.80 0.4394
732.90 0.4393
733.00 0.4391
733.10 0.439
733.20 0.4388
733.30 0.4387
733.40 0.4385
733.50 0.4384
733.60 0.4382
733.70 0.4381
733.80 0.438
733.90 0.4378
734.00 0.4377
734.10 0.4375
734.20 0.4374
734.30 0.4372
734.40 0.4371
734.50 0.4369
734.60 0.4368
734.70 0.4366
734.80 0.4365
734.90 0.4363
735.00 0.4362
735.10 0.436
735.20 0.4359
735.30 0.4357
735.40 0.4356
735.50 0.4354
735.60 0.4353
735.70 0.4352
735.80 0.435
735.90 0.4349
736.00 0.4347
736.10 0.4346
736.20 0.4344
736.30 0.4343
736.40 0.4341
736.50 0.434
736.60 0.4338
736.70 0.4337
736.80 0.4335
736.90 0.4334
737.00 0.4332
737.10 0.4331
737.20 0.433
737.30 0.4328
737.40 0.4327
737.50 0.4325
737.60 0.4324
737.70 0.4322
737.80 0.4321
737.90 0.4319
738.00 0.4318
738.10 0.4316
738.20 0.4315
738.30 0.4314
738.40 0.4312
738.50 0.4311
738.60 0.4309
738.70 0.4308
738.80 0.4306
738.90 0.4305
739.00 0.4303
739.10 0.4302
739.20 0.4301
739.30 0.4299
739.40 0.4298
739.50 0.4296
739.60 0.4295
739.70 0.4293
739.80 0.4292
739.90 0.429
740.00 0.4289
740.10 0.4288
740.20 0.4286
740.30 0.4285
740.40 0.4283
740.50 0.4282
740.60 0.428
740.70 0.4279
740.80 0.4277
740.90 0.4276
741.00 0.4275
741.10 0.4273
741.20 0.4272
741.30 0.427
741.40 0.4269
741.50 0.4267
741.60 0.4266
741.70 0.4264
741.80 0.4263
741.90 0.4262
742.00 0.426
742.10 0.4259
742.20 0.4257
742.30 0.4256
742.40 0.4254
742.50 0.4253
742.60 0.4252
742.70 0.425
742.80 0.4249
742.90 0.4247
743.00 0.4246
743.10 0.4244
743.20 0.4243
743.30 0.4242
743.40 0.424
743.50 0.4239
743.60 0.4237
743.70 0.4236
743.80 0.4234
743.90 0.4233
744.00 0.4232
744.10 0.423
744.20 0.4229
744.30 0.4227
744.40 0.4226
744.50 0.4224
744.60 0.4223
744.70 0.4222
744.80 0.422
744.90 0.4219
745.00 0.4217
745.10 0.4216
745.20 0.4215
745.30 0.4213
745.40 0.4212
745.50 0.421
745.60 0.4209
745.70 0.4208
745.80 0.4206
745.90 0.4205
746.00 0.4203
746.10 0.4202
746.20 0.42
746.30 0.4199
746.40 0.4198
746.50 0.4196
746.60 0.4195
746.70 0.4193
746.80 0.4192
746.90 0.4191
747.00 0.4189
747.10 0.4188
747.20 0.4186
747.30 0.4185
747.40 0.4184
747.50 0.4182
747.60 0.4181
747.70 0.4179
747.80 0.4178
747.90 0.4177
748.00 0.4175
748.10 0.4174
748.20 0.4172
748.30 0.4171
748.40 0.417
748.50 0.4168
748.60 0.4167
748.70 0.4165
748.80 0.4164
748.90 0.4163
749.00 0.4161
749.10 0.416
749.20 0.4158
749.30 0.4157
749.40 0.4156
749.50 0.4154
749.60 0.4153
749.70 0.4152
749.80 0.415
749.90 0.4149
750.00 0.4147
750.10 0.4146
750.20 0.4145
750.30 0.4143
750.40 0.4142
750.50 0.414
750.60 0.4139
750.70 0.4138
750.80 0.4136
750.90 0.4135
751.00 0.4133
751.10 0.4132
751.20 0.4131
751.30 0.4129
751.40 0.4128
751.50 0.4127
751.60 0.4125
751.70 0.4124
751.80 0.4122
751.90 0.4121
752.00 0.412
752.10 0.4118
752.20 0.4117
752.30 0.4116
752.40 0.4114
752.50 0.4113
752.60 0.4111
752.70 0.411
752.80 0.4109
752.90 0.4107
753.00 0.4106
753.10 0.4105
753.20 0.4103
753.30 0.4102
753.40 0.41
753.50 0.4099
753.60 0.4098
753.70 0.4096
753.80 0.4095
753.90 0.4094
754.00 0.4092
754.10 0.4091
754.20 0.4089
754.30 0.4088
754.40 0.4087
754.50 0.4085
754.60 0.4084
754.70 0.4083
754.80 0.4081
754.90 0.408
755.00 0.4079
755.10 0.4077
755.20 0.4076
755.30 0.4074
755.40 0.4073
755.50 0.4072
755.60 0.407
755.70 0.4069
755.80 0.4068
755.90 0.4066
756.00 0.4065
756.10 0.4064
756.20 0.4062
756.30 0.4061
756.40 0.406
756.50 0.4058
756.60 0.4057
756.70 0.4055
756.80 0.4054
756.90 0.4053
757.00 0.4051
757.10 0.405
757.20 0.4049
757.30 0.4047
757.40 0.4046
757.50 0.4045
757.60 0.4043
757.70 0.4042
757.80 0.4041
757.90 0.4039
758.00 0.4038
758.10 0.4037
758.20 0.4035
758.30 0.4034
758.40 0.4033
758.50 0.4031
758.60 0.403
758.70 0.4029
758.80 0.4027
758.90 0.4026
759.00 0.4025
759.10 0.4023
759.20 0.4022
759.30 0.4021
759.40 0.4019
759.50 0.4018
759.60 0.4017
759.70 0.4015
759.80 0.4014
759.90 0.4013
760.00 0.4011
760.10 0.401
760.20 0.4009
760.30 0.4007
760.40 0.4006
760.50 0.4005
760.60 0.4003
760.70 0.4002
760.80 0.4001
760.90 0.3999
761.00 0.3998
761.10 0.3997
761.20 0.3995
761.30 0.3994
761.40 0.3993
761.50 0.3991
761.60 0.399
761.70 0.3989
761.80 0.3987
761.90 0.3986
762.00 0.3985
762.10 0.3983
762.20 0.3982
762.30 0.3981
762.40 0.3979
762.50 0.3978
762.60 0.3977
762.70 0.3975
762.80 0.3974
762.90 0.3973
763.00 0.3971
763.10 0.397
763.20 0.3969
763.30 0.3967
763.40 0.3966
763.50 0.3965
763.60 0.3963
763.70 0.3962
763.80 0.3961
763.90 0.396
764.00 0.3958
764.10 0.3957
764.20 0.3956
764.30 0.3954
764.40 0.3953
764.50 0.3952
764.60 0.395
764.70 0.3949
764.80 0.3948
764.90 0.3946
765.00 0.3945
765.10 0.3944
765.20 0.3942
765.30 0.3941
765.40 0.394
765.50 0.3939
765.60 0.3937
765.70 0.3936
765.80 0.3935
765.90 0.3933
766.00 0.3932
766.10 0.3931
766.20 0.3929
766.30 0.3928
766.40 0.3927
766.50 0.3926
766.60 0.3924
766.70 0.3923
766.80 0.3922
766.90 0.392
767.00 0.3919
767.10 0.3918
767.20 0.3916
767.30 0.3915
767.40 0.3914
767.50 0.3913
767.60 0.3911
767.70 0.391
767.80 0.3909
767.90 0.3907
768.00 0.3906
768.10 0.3905
768.20 0.3903
768.30 0.3902
768.40 0.3901
768.50 0.39
768.60 0.3898
768.70 0.3897
768.80 0.3896
768.90 0.3894
769.00 0.3893
769.10 0.3892
769.20 0.3891
769.30 0.3889
769.40 0.3888
769.50 0.3887
769.60 0.3885
769.70 0.3884
769.80 0.3883
769.90 0.3882
770.00 0.388
770.10 0.3879
770.20 0.3878
770.30 0.3876
770.40 0.3875
770.50 0.3874
770.60 0.3873
770.70 0.3871
770.80 0.387
770.90 0.3869
771.00 0.3868
771.10 0.3866
771.20 0.3865
771.30 0.3864
771.40 0.3862
771.50 0.3861
771.60 0.386
771.70 0.3859
771.80 0.3857
771.90 0.3856
772.00 0.3855
772.10 0.3853
772.20 0.3852
772.30 0.3851
772.40 0.385
772.50 0.3848
772.60 0.3847
772.70 0.3846
772.80 0.3845
772.90 0.3843
773.00 0.3842
773.10 0.3841
773.20 0.3839
773.30 0.3838
773.40 0.3837
773.50 0.3836
773.60 0.3834
773.70 0.3833
773.80 0.3832
773.90 0.3831
774.00 0.3829
774.10 0.3828
774.20 0.3827
774.30 0.3826
774.40 0.3824
774.50 0.3823
774.60 0.3822
774.70 0.3821
774.80 0.3819
774.90 0.3818
775.00 0.3817
775.10 0.3816
775.20 0.3814
775.30 0.3813
775.40 0.3812
775.50 0.381
775.60 0.3809
775.70 0.3808
775.80 0.3807
775.90 0.3805
776.00 0.3804
776.10 0.3803
776.20 0.3802
776.30 0.38
776.40 0.3799
776.50 0.3798
776.60 0.3797
776.70 0.3795
776.80 0.3794
776.90 0.3793
777.00 0.3792
777.10 0.379
777.20 0.3789
777.30 0.3788
777.40 0.3787
777.50 0.3785
777.60 0.3784
777.70 0.3783
777.80 0.3782
777.90 0.378
778.00 0.3779
778.10 0.3778
778.20 0.3777
778.30 0.3776
778.40 0.3774
778.50 0.3773
778.60 0.3772
778.70 0.3771
778.80 0.3769
778.90 0.3768
779.00 0.3767
779.10 0.3766
779.20 0.3764
779.30 0.3763
779.40 0.3762
779.50 0.3761
779.60 0.3759
779.70 0.3758
779.80 0.3757
779.90 0.3756
780.00 0.3755
780.10 0.3753
780.20 0.3752
780.30 0.3751
780.40 0.375
780.50 0.3748
780.60 0.3747
780.70 0.3746
780.80 0.3745
780.90 0.3743
781.00 0.3742
781.10 0.3741
781.20 0.374
781.30 0.3739
781.40 0.3737
781.50 0.3736
781.60 0.3735
781.70 0.3734
781.80 0.3732
781.90 0.3731
782.00 0.373
782.10 0.3729
782.20 0.3727
782.30 0.3726
782.40 0.3725
782.50 0.3724
782.60 0.3723
782.70 0.3721
782.80 0.372
782.90 0.3719
783.00 0.3718
783.10 0.3716
783.20 0.3715
783.30 0.3714
783.40 0.3713
783.50 0.3712
783.60 0.371
783.70 0.3709
783.80 0.3708
783.90 0.3707
784.00 0.3706
784.10 0.3704
784.20 0.3703
784.30 0.3702
784.40 0.3701
784.50 0.3699
784.60 0.3698
784.70 0.3697
784.80 0.3696
784.90 0.3695
785.00 0.3693
785.10 0.3692
785.20 0.3691
785.30 0.369
785.40 0.3689
785.50 0.3687
785.60 0.3686
785.70 0.3685
785.80 0.3684
785.90 0.3683
786.00 0.3681
786.10 0.368
786.20 0.3679
786.30 0.3678
786.40 0.3677
786.50 0.3675
786.60 0.3674
786.70 0.3673
786.80 0.3672
786.90 0.3671
787.00 0.3669
787.10 0.3668
787.20 0.3667
787.30 0.3666
787.40 0.3665
787.50 0.3663
787.60 0.3662
787.70 0.3661
787.80 0.366
787.90 0.3659
788.00 0.3657
788.10 0.3656
788.20 0.3655
788.30 0.3654
788.40 0.3653
788.50 0.3651
788.60 0.365
788.70 0.3649
788.80 0.3648
788.90 0.3647
789.00 0.3645
789.10 0.3644
789.20 0.3643
789.30 0.3642
789.40 0.3641
789.50 0.364
789.60 0.3638
789.70 0.3637
789.80 0.3636
789.90 0.3635
790.00 0.3634
790.10 0.3632
790.20 0.3631
790.30 0.363
790.40 0.3629
790.50 0.3628
790.60 0.3626
790.70 0.3625
790.80 0.3624
790.90 0.3623
791.00 0.3622
791.10 0.3621
791.20 0.3619
791.30 0.3618
791.40 0.3617
791.50 0.3616
791.60 0.3615
791.70 0.3613
791.80 0.3612
791.90 0.3611
792.00 0.361
792.10 0.3609
792.20 0.3608
792.30 0.3606
792.40 0.3605
792.50 0.3604
792.60 0.3603
792.70 0.3602
792.80 0.3601
792.90 0.3599
793.00 0.3598
793.10 0.3597
793.20 0.3596
793.30 0.3595
793.40 0.3594
793.50 0.3592
793.60 0.3591
793.70 0.359
793.80 0.3589
793.90 0.3588
794.00 0.3586
794.10 0.3585
794.20 0.3584
794.30 0.3583
794.40 0.3582
794.50 0.3581
794.60 0.3579
794.70 0.3578
794.80 0.3577
794.90 0.3576
795.00 0.3575
795.10 0.3574
795.20 0.3573
795.30 0.3571
795.40 0.357
795.50 0.3569
795.60 0.3568
795.70 0.3567
795.80 0.3566
795.90 0.3564
796.00 0.3563
796.10 0.3562
796.20 0.3561
796.30 0.356
796.40 0.3559
796.50 0.3557
796.60 0.3556
796.70 0.3555
796.80 0.3554
796.90 0.3553
797.00 0.3552
797.10 0.3551
797.20 0.3549
797.30 0.3548
797.40 0.3547
797.50 0.3546
797.60 0.3545
797.70 0.3544
797.80 0.3542
797.90 0.3541
798.00 0.354
798.10 0.3539
798.20 0.3538
798.30 0.3537
798.40 0.3536
798.50 0.3534
798.60 0.3533
798.70 0.3532
798.80 0.3531
798.90 0.353
799.00 0.3529
799.10 0.3528
799.20 0.3526
799.30 0.3525
799.40 0.3524
799.50 0.3523
799.60 0.3522
799.70 0.3521
799.80 0.352
799.90 0.3518
800.00 0.3517
800.10 0.3516
800.20 0.3515
800.30 0.3514
800.40 0.3513
800.50 0.3512
800.60 0.351
800.70 0.3509
800.80 0.3508
800.90 0.3507
801.00 0.3506
801.10 0.3505
801.20 0.3504
801.30 0.3502
801.40 0.3501
801.50 0.35
801.60 0.3499
801.70 0.3498
801.80 0.3497
801.90 0.3496
802.00 0.3495
802.10 0.3493
802.20 0.3492
802.30 0.3491
802.40 0.349
802.50 0.3489
802.60 0.3488
802.70 0.3487
802.80 0.3485
802.90 0.3484
803.00 0.3483
803.10 0.3482
803.20 0.3481
803.30 0.348
803.40 0.3479
803.50 0.3478
803.60 0.3476
803.70 0.3475
803.80 0.3474
803.90 0.3473
804.00 0.3472
804.10 0.3471
804.20 0.347
804.30 0.3469
804.40 0.3468
804.50 0.3466
804.60 0.3465
804.70 0.3464
804.80 0.3463
804.90 0.3462
805.00 0.3461
805.10 0.346
805.20 0.3459
805.30 0.3457
805.40 0.3456
805.50 0.3455
805.60 0.3454
805.70 0.3453
805.80 0.3452
805.90 0.3451
806.00 0.345
806.10 0.3449
806.20 0.3447
806.30 0.3446
806.40 0.3445
806.50 0.3444
806.60 0.3443
806.70 0.3442
806.80 0.3441
806.90 0.344
807.00 0.3439
807.10 0.3437
807.20 0.3436
807.30 0.3435
807.40 0.3434
807.50 0.3433
807.60 0.3432
807.70 0.3431
807.80 0.343
807.90 0.3429
808.00 0.3427
808.10 0.3426
808.20 0.3425
808.30 0.3424
808.40 0.3423
808.50 0.3422
808.60 0.3421
808.70 0.342
808.80 0.3419
808.90 0.3418
809.00 0.3416
809.10 0.3415
809.20 0.3414
809.30 0.3413
809.40 0.3412
809.50 0.3411
809.60 0.341
809.70 0.3409
809.80 0.3408
809.90 0.3407
810.00 0.3405
810.10 0.3404
810.20 0.3403
810.30 0.3402
810.40 0.3401
810.50 0.34
810.60 0.3399
810.70 0.3398
810.80 0.3397
810.90 0.3396
811.00 0.3395
811.10 0.3393
811.20 0.3392
811.30 0.3391
811.40 0.339
811.50 0.3389
811.60 0.3388
811.70 0.3387
811.80 0.3386
811.90 0.3385
812.00 0.3384
812.10 0.3383
812.20 0.3381
812.30 0.338
812.40 0.3379
812.50 0.3378
812.60 0.3377
812.70 0.3376
812.80 0.3375
812.90 0.3374
813.00 0.3373
813.10 0.3372
813.20 0.3371
813.30 0.3369
813.40 0.3368
813.50 0.3367
813.60 0.3366
813.70 0.3365
813.80 0.3364
813.90 0.3363
814.00 0.3362
814.10 0.3361
814.20 0.336
814.30 0.3359
814.40 0.3358
814.50 0.3356
814.60 0.3355
814.70 0.3354
814.80 0.3353
814.90 0.3352
815.00 0.3351
815.10 0.335
815.20 0.3349
815.30 0.3348
815.40 0.3347
815.50 0.3346
815.60 0.3345
815.70 0.3344
815.80 0.3342
815.90 0.3341
816.00 0.334
816.10 0.3339
816.20 0.3338
816.30 0.3337
816.40 0.3336
816.50 0.3335
816.60 0.3334
816.70 0.3333
816.80 0.3332
816.90 0.3331
817.00 0.333
817.10 0.3329
817.20 0.3327
817.30 0.3326
817.40 0.3325
817.50 0.3324
817.60 0.3323
817.70 0.3322
817.80 0.3321
817.90 0.332
818.00 0.3319
818.10 0.3318
818.20 0.3317
818.30 0.3316
818.40 0.3315
818.50 0.3314
818.60 0.3313
818.70 0.3312
818.80 0.331
818.90 0.3309
819.00 0.3308
819.10 0.3307
819.20 0.3306
819.30 0.3305
819.40 0.3304
819.50 0.3303
819.60 0.3302
819.70 0.3301
819.80 0.33
819.90 0.3299
820.00 0.3298
820.10 0.3297
820.20 0.3296
820.30 0.3295
820.40 0.3294
820.50 0.3293
820.60 0.3292
820.70 0.3291
820.80 0.329
820.90 0.3288
821.00 0.3287
821.10 0.3286
821.20 0.3285
821.30 0.3284
821.40 0.3283
821.50 0.3282
821.60 0.3281
821.70 0.328
821.80 0.3279
821.90 0.3278
822.00 0.3277
822.10 0.3276
822.20 0.3275
822.30 0.3274
822.40 0.3273
822.50 0.3272
822.60 0.3271
822.70 0.327
822.80 0.3269
822.90 0.3268
823.00 0.3266
823.10 0.3265
823.20 0.3264
823.30 0.3263
823.40 0.3262
823.50 0.3261
823.60 0.326
823.70 0.3259
823.80 0.3258
823.90 0.3257
824.00 0.3256
824.10 0.3255
824.20 0.3254
824.30 0.3253
824.40 0.3252
824.50 0.3251
824.60 0.325
824.70 0.3249
824.80 0.3248
824.90 0.3247
825.00 0.3246
825.10 0.3245
825.20 0.3244
825.30 0.3243
825.40 0.3241
825.50 0.324
825.60 0.3239
825.70 0.3238
825.80 0.3237
825.90 0.3236
826.00 0.3235
826.10 0.3234
826.20 0.3233
826.30 0.3232
826.40 0.3231
826.50 0.323
826.60 0.3229
826.70 0.3228
826.80 0.3227
826.90 0.3226
827.00 0.3225
827.10 0.3224
827.20 0.3223
827.30 0.3222
827.40 0.3221
827.50 0.322
827.60 0.3219
827.70 0.3218
827.80 0.3217
827.90 0.3216
828.00 0.3215
828.10 0.3214
828.20 0.3213
828.30 0.3212
828.40 0.3211
828.50 0.321
828.60 0.3209
828.70 0.3208
828.80 0.3207
828.90 0.3206
829.00 0.3205
829.10 0.3203
829.20 0.3202
829.30 0.3201
829.40 0.32
829.50 0.3199
829.60 0.3198
829.70 0.3197
829.80 0.3196
829.90 0.3195
830.00 0.3194
830.10 0.3193
830.20 0.3192
830.30 0.3191
830.40 0.319
830.50 0.3189
830.60 0.3188
830.70 0.3187
830.80 0.3186
830.90 0.3185
831.00 0.3184
831.10 0.3183
831.20 0.3182
831.30 0.3181
831.40 0.318
831.50 0.3179
831.60 0.3178
831.70 0.3177
831.80 0.3176
831.90 0.3175
832.00 0.3174
832.10 0.3173
832.20 0.3172
832.30 0.3171
832.40 0.317
832.50 0.3169
832.60 0.3168
832.70 0.3167
832.80 0.3166
832.90 0.3165
833.00 0.3164
833.10 0.3163
833.20 0.3162
833.30 0.3161
833.40 0.316
833.50 0.3159
833.60 0.3158
833.70 0.3157
833.80 0.3156
833.90 0.3155
834.00 0.3154
834.10 0.3153
834.20 0.3152
834.30 0.3151
834.40 0.315
834.50 0.3149
834.60 0.3148
834.70 0.3147
834.80 0.3146
834.90 0.3145
835.00 0.3144
835.10 0.3143
835.20 0.3142
835.30 0.3141
835.40 0.314
835.50 0.3139
835.60 0.3138
835.70 0.3137
835.80 0.3136
835.90 0.3135
836.00 0.3134
836.10 0.3133
836.20 0.3132
836.30 0.3131
836.40 0.313
836.50 0.3129
836.60 0.3128
836.70 0.3127
836.80 0.3126
836.90 0.3125
837.00 0.3124
837.10 0.3123
837.20 0.3122
837.30 0.3121
837.40 0.312
837.50 0.3119
837.60 0.3118
837.70 0.3117
837.80 0.3116
837.90 0.3115
838.00 0.3114
838.10 0.3113
838.20 0.3112
838.30 0.3111
838.40 0.311
838.50 0.3109
838.60 0.3108
838.70 0.3107
838.80 0.3106
838.90 0.3106
839.00 0.3105
839.10 0.3104
839.20 0.3103
839.30 0.3102
839.40 0.3101
839.50 0.31
839.60 0.3099
839.70 0.3098
839.80 0.3097
839.90 0.3096
840.00 0.3095
840.10 0.3094
840.20 0.3093
840.30 0.3092
840.40 0.3091
840.50 0.309
840.60 0.3089
840.70 0.3088
840.80 0.3087
840.90 0.3086
841.00 0.3085
841.10 0.3084
841.20 0.3083
841.30 0.3082
841.40 0.3081
841.50 0.308
841.60 0.3079
841.70 0.3078
841.80 0.3077
841.90 0.3076
842.00 0.3075
842.10 0.3074
842.20 0.3073
842.30 0.3072
842.40 0.3071
842.50 0.307
842.60 0.3069
842.70 0.3068
842.80 0.3067
842.90 0.3066
843.00 0.3066
843.10 0.3065
843.20 0.3064
843.30 0.3063
843.40 0.3062
843.50 0.3061
843.60 0.306
843.70 0.3059
843.80 0.3058
843.90 0.3057
844.00 0.3056
844.10 0.3055
844.20 0.3054
844.30 0.3053
844.40 0.3052
844.50 0.3051
844.60 0.305
844.70 0.3049
844.80 0.3048
844.90 0.3047
845.00 0.3046
845.10 0.3045
845.20 0.3044
845.30 0.3043
845.40 0.3042
845.50 0.3041
845.60 0.304
845.70 0.304
845.80 0.3039
845.90 0.3038
846.00 0.3037
846.10 0.3036
846.20 0.3035
846.30 0.3034
846.40 0.3033
846.50 0.3032
846.60 0.3031
846.70 0.303
846.80 0.3029
846.90 0.3028
847.00 0.3027
847.10 0.3026
847.20 0.3025
847.30 0.3024
847.40 0.3023
847.50 0.3022
847.60 0.3021
847.70 0.3021
847.80 0.302
847.90 0.3019
848.00 0.3018
848.10 0.3017
848.20 0.3016
848.30 0.3015
848.40 0.3014
848.50 0.3013
848.60 0.3012
848.70 0.3011
848.80 0.301
848.90 0.3009
849.00 0.3008
849.10 0.3007
849.20 0.3006
849.30 0.3005
849.40 0.3005
849.50 0.3004
849.60 0.3003
849.70 0.3002
849.80 0.3001
849.90 0.3
850.00 0.2999
850.10 0.2998
850.20 0.2997
850.30 0.2996
850.40 0.2995
850.50 0.2994
850.60 0.2993
850.70 0.2992
850.80 0.2991
850.90 0.2991
851.00 0.299
851.10 0.2989
851.20 0.2988
851.30 0.2987
851.40 0.2986
851.50 0.2985
851.60 0.2984
851.70 0.2983
851.80 0.2982
851.90 0.2981
852.00 0.298
852.10 0.2979
852.20 0.2978
852.30 0.2978
852.40 0.2977
852.50 0.2976
852.60 0.2975
852.70 0.2974
852.80 0.2973
852.90 0.2972
853.00 0.2971
853.10 0.297
853.20 0.2969
853.30 0.2968
853.40 0.2967
853.50 0.2966
853.60 0.2965
853.70 0.2965
853.80 0.2964
853.90 0.2963
854.00 0.2962
854.10 0.2961
854.20 0.296
854.30 0.2959
854.40 0.2958
854.50 0.2957
854.60 0.2956
854.70 0.2955
854.80 0.2954
854.90 0.2954
855.00 0.2953
855.10 0.2952
855.20 0.2951
855.30 0.295
855.40 0.2949
855.50 0.2948
855.60 0.2947
855.70 0.2946
855.80 0.2945
855.90 0.2944
856.00 0.2943
856.10 0.2943
856.20 0.2942
856.30 0.2941
856.40 0.294
856.50 0.2939
856.60 0.2938
856.70 0.2937
856.80 0.2936
856.90 0.2935
857.00 0.2934
857.10 0.2933
857.20 0.2932
857.30 0.2932
857.40 0.2931
857.50 0.293
857.60 0.2929
857.70 0.2928
857.80 0.2927
857.90 0.2926
858.00 0.2925
858.10 0.2924
858.20 0.2923
858.30 0.2922
858.40 0.2922
858.50 0.2921
858.60 0.292
858.70 0.2919
858.80 0.2918
858.90 0.2917
859.00 0.2916
859.10 0.2915
859.20 0.2914
859.30 0.2913
859.40 0.2912
859.50 0.2912
859.60 0.2911
859.70 0.291
859.80 0.2909
859.90 0.2908
860.00 0.2907
860.10 0.2906
860.20 0.2905
860.30 0.2904
860.40 0.2903
860.50 0.2903
860.60 0.2902
860.70 0.2901
860.80 0.29
860.90 0.2899
861.00 0.2898
861.10 0.2897
861.20 0.2896
861.30 0.2895
861.40 0.2894
861.50 0.2894
861.60 0.2893
861.70 0.2892
861.80 0.2891
861.90 0.289
862.00 0.2889
862.10 0.2888
862.20 0.2887
862.30 0.2886
862.40 0.2885
862.50 0.2884
862.60 0.2884
862.70 0.2883
862.80 0.2882
862.90 0.2881
863.00 0.288
863.10 0.2879
863.20 0.2878
863.30 0.2877
863.40 0.2876
863.50 0.2875
863.60 0.2874
863.70 0.2873
863.80 0.2872
863.90 0.2872
864.00 0.2871
864.10 0.287
864.20 0.2869
864.30 0.2868
864.40 0.2867
864.50 0.2866
864.60 0.2865
864.70 0.2864
864.80 0.2863
864.90 0.2862
865.00 0.2861
865.10 0.286
865.20 0.286
865.30 0.2859
865.40 0.2858
865.50 0.2857
865.60 0.2856
865.70 0.2855
865.80 0.2854
865.90 0.2853
866.00 0.2852
866.10 0.2851
866.20 0.285
866.30 0.2849
866.40 0.2849
866.50 0.2848
866.60 0.2847
866.70 0.2846
866.80 0.2845
866.90 0.2844
867.00 0.2843
867.10 0.2842
867.20 0.2841
867.30 0.2841
867.40 0.284
867.50 0.2839
867.60 0.2838
867.70 0.2837
867.80 0.2836
867.90 0.2836
868.00 0.2835
868.10 0.2834
868.20 0.2833
868.30 0.2832
868.40 0.2831
868.50 0.2831
868.60 0.283
868.70 0.2829
868.80 0.2828
868.90 0.2827
869.00 0.2826
869.10 0.2826
869.20 0.2825
869.30 0.2824
869.40 0.2823
869.50 0.2822
869.60 0.2821
869.70 0.2821
869.80 0.282
869.90 0.2819
870.00 0.2818
870.10 0.2817
870.20 0.2816
870.30 0.2816
870.40 0.2815
870.50 0.2814
870.60 0.2813
870.70 0.2812
870.80 0.2812
870.90 0.2811
871.00 0.281
871.10 0.2809
871.20 0.2808
871.30 0.2807
871.40 0.2807
871.50 0.2806
871.60 0.2805
871.70 0.2804
871.80 0.2803
871.90 0.2802
872.00 0.2802
872.10 0.2801
872.20 0.28
872.30 0.2799
872.40 0.2798
872.50 0.2797
872.60 0.2796
872.70 0.2796
872.80 0.2795
872.90 0.2794
873.00 0.2793
873.10 0.2792
873.20 0.2791
873.30 0.279
873.40 0.2789
873.50 0.2789
873.60 0.2788
873.70 0.2787
873.80 0.2786
873.90 0.2785
874.00 0.2784
874.10 0.2783
874.20 0.2782
874.30 0.2782
874.40 0.2781
874.50 0.278
874.60 0.2779
874.70 0.2778
874.80 0.2777
874.90 0.2776
875.00 0.2775
875.10 0.2775
875.20 0.2774
875.30 0.2773
875.40 0.2772
875.50 0.2771
875.60 0.277
875.70 0.2769
875.80 0.2769
875.90 0.2768
876.00 0.2767
876.10 0.2766
876.20 0.2765
876.30 0.2764
876.40 0.2763
876.50 0.2762
876.60 0.2762
876.70 0.2761
876.80 0.276
876.90 0.2759
877.00 0.2758
877.10 0.2757
877.20 0.2757
877.30 0.2756
877.40 0.2755
877.50 0.2754
877.60 0.2753
877.70 0.2753
877.80 0.2752
877.90 0.2751
878.00 0.275
878.10 0.2749
878.20 0.2749
878.30 0.2748
878.40 0.2747
878.50 0.2746
878.60 0.2745
878.70 0.2745
878.80 0.2744
878.90 0.2743
879.00 0.2742
879.10 0.2741
879.20 0.2741
879.30 0.274
879.40 0.2739
879.50 0.2738
879.60 0.2737
879.70 0.2737
879.80 0.2736
879.90 0.2735
880.00 0.2734
880.10 0.2733
880.20 0.2733
880.30 0.2732
880.40 0.2731
880.50 0.273
880.60 0.2729
880.70 0.2729
880.80 0.2728
880.90 0.2727
881.00 0.2726
881.10 0.2725
881.20 0.2725
881.30 0.2724
881.40 0.2723
881.50 0.2722
881.60 0.2721
881.70 0.2721
881.80 0.272
881.90 0.2719
882.00 0.2718
882.10 0.2717
882.20 0.2716
882.30 0.2715
882.40 0.2714
882.50 0.2713
882.60 0.2712
882.70 0.2711
882.80 0.271
882.90 0.2709
883.00 0.2708
883.10 0.2707
883.20 0.2706
883.30 0.2705
883.40 0.2704
883.50 0.2703
883.60 0.2702
883.70 0.2701
883.80 0.27
883.90 0.2699
884.00 0.2698
884.10 0.2697
884.20 0.2696
884.30 0.2695
884.40 0.2694
884.50 0.2693
884.60 0.2692
884.70 0.2691
884.80 0.269
884.90 0.2689
885.00 0.2688
885.10 0.2687
885.20 0.2686
885.30 0.2685
885.40 0.2684
885.50 0.2683
885.60 0.2682
885.70 0.2681
885.80 0.268
885.90 0.2679
886.00 0.2678
886.10 0.2677
886.20 0.2676
886.30 0.2675
886.40 0.2674
886.50 0.2673
886.60 0.2672
886.70 0.2671
886.80 0.267
886.90 0.2669
887.00 0.2668
887.10 0.2668
887.20 0.2667
887.30 0.2667
887.40 0.2666
887.50 0.2665
887.60 0.2665
887.70 0.2664
887.80 0.2664
887.90 0.2663
888.00 0.2662
888.10 0.2662
888.20 0.2661
888.30 0.2661
888.40 0.266
888.50 0.2659
888.60 0.2659
888.70 0.2658
888.80 0.2658
888.90 0.2657
889.00 0.2656
889.10 0.2656
889.20 0.2655
889.30 0.2655
889.40 0.2654
889.50 0.2653
889.60 0.2653
889.70 0.2652
889.80 0.2652
889.90 0.2651
890.00 0.2651
890.10 0.265
890.20 0.2649
890.30 0.2649
890.40 0.2648
890.50 0.2648
890.60 0.2647
890.70 0.2646
890.80 0.2646
890.90 0.2645
891.00 0.2645
891.10 0.2644
891.20 0.2643
891.30 0.2643
891.40 0.2642
891.50 0.2642
891.60 0.2641
891.70 0.264
891.80 0.264
891.90 0.2639
892.00 0.2639
892.10 0.2638
892.20 0.2637
892.30 0.2636
892.40 0.2635
892.50 0.2635
892.60 0.2634
892.70 0.2633
892.80 0.2632
892.90 0.2631
893.00 0.2631
893.10 0.263
893.20 0.2629
893.30 0.2628
893.40 0.2627
893.50 0.2626
893.60 0.2626
893.70 0.2625
893.80 0.2624
893.90 0.2623
894.00 0.2622
894.10 0.2622
894.20 0.2621
894.30 0.262
894.40 0.2619
894.50 0.2618
894.60 0.2618
894.70 0.2617
894.80 0.2616
894.90 0.2615
895.00 0.2614
895.10 0.2614
895.20 0.2613
895.30 0.2612
895.40 0.2611
895.50 0.261
895.60 0.261
895.70 0.2609
895.80 0.2608
895.90 0.2607
896.00 0.2606
896.10 0.2605
896.20 0.2605
896.30 0.2604
896.40 0.2603
896.50 0.2602
896.60 0.2601
896.70 0.2601
896.80 0.26
896.90 0.2599
897.00 0.2598
897.10 0.2597
897.20 0.2596
897.30 0.2595
897.40 0.2594
897.50 0.2592
897.60 0.2591
897.70 0.259
897.80 0.2589
897.90 0.2588
898.00 0.2587
898.10 0.2586
898.20 0.2584
898.30 0.2583
898.40 0.2582
898.50 0.2581
898.60 0.258
898.70 0.2579
898.80 0.2577
898.90 0.2576
899.00 0.2575
899.10 0.2574
899.20 0.2573
899.30 0.2572
899.40 0.2571
899.50 0.2569
899.60 0.2568
899.70 0.2567
899.80 0.2566
899.90 0.2565
900.00 0.2564
900.10 0.2562
900.20 0.2561
900.30 0.256
900.40 0.2559
900.50 0.2558
900.60 0.2557
900.70 0.2556
900.80 0.2554
900.90 0.2553
901.00 0.2552
901.10 0.2551
901.20 0.255
901.30 0.2549
901.40 0.2548
901.50 0.2546
901.60 0.2545
901.70 0.2544
901.80 0.2543
901.90 0.2542
902.00 0.2541
902.10 0.254
902.20 0.254
902.30 0.254
902.40 0.2539
902.50 0.2539
902.60 0.2539
902.70 0.2538
902.80 0.2538
902.90 0.2538
903.00 0.2537
903.10 0.2537
903.20 0.2537
903.30 0.2536
903.40 0.2536
903.50 0.2536
903.60 0.2535
903.70 0.2535
903.80 0.2534
903.90 0.2534
904.00 0.2534
904.10 0.2533
904.20 0.2533
904.30 0.2533
904.40 0.2532
904.50 0.2532
904.60 0.2532
904.70 0.2531
904.80 0.2531
904.90 0.2531
905.00 0.253
905.10 0.253
905.20 0.253
905.30 0.2529
905.40 0.2529
905.50 0.2529
905.60 0.2528
905.70 0.2528
905.80 0.2527
905.90 0.2527
906.00 0.2527
906.10 0.2526
906.20 0.2526
906.30 0.2526
906.40 0.2525
906.50 0.2525
906.60 0.2525
906.70 0.2524
906.80 0.2524
906.90 0.2524
907.00 0.2523
907.10 0.2523
907.20 0.2522
907.30 0.2521
907.40 0.2521
907.50 0.252
907.60 0.2519
907.70 0.2518
907.80 0.2518
907.90 0.2517
908.00 0.2516
908.10 0.2516
908.20 0.2515
908.30 0.2514
908.40 0.2514
908.50 0.2513
908.60 0.2512
908.70 0.2511
908.80 0.2511
908.90 0.251
909.00 0.2509
909.10 0.2509
909.20 0.2508
909.30 0.2507
909.40 0.2507
909.50 0.2506
909.60 0.2505
909.70 0.2504
909.80 0.2504
909.90 0.2503
910.00 0.2502
910.10 0.2502
910.20 0.2501
910.30 0.25
910.40 0.25
910.50 0.2499
910.60 0.2498
910.70 0.2497
910.80 0.2497
910.90 0.2496
911.00 0.2495
911.10 0.2495
911.20 0.2494
911.30 0.2493
911.40 0.2493
911.50 0.2492
911.60 0.2491
911.70 0.2491
911.80 0.249
911.90 0.2489
912.00 0.2488
912.10 0.2488
912.20 0.2487
912.30 0.2486
912.40 0.2485
912.50 0.2485
912.60 0.2484
912.70 0.2483
912.80 0.2482
912.90 0.2481
913.00 0.2481
913.10 0.248
913.20 0.2479
913.30 0.2478
913.40 0.2477
913.50 0.2477
913.60 0.2476
913.70 0.2475
913.80 0.2474
913.90 0.2473
914.00 0.2473
914.10 0.2472
914.20 0.2471
914.30 0.247
914.40 0.247
914.50 0.2469
914.60 0.2468
914.70 0.2467
914.80 0.2466
914.90 0.2466
915.00 0.2465
915.10 0.2464
915.20 0.2463
915.30 0.2462
915.40 0.2462
915.50 0.2461
915.60 0.246
915.70 0.2459
915.80 0.2459
915.90 0.2458
916.00 0.2457
916.10 0.2456
916.20 0.2455
916.30 0.2455
916.40 0.2454
916.50 0.2453
916.60 0.2452
916.70 0.2452
916.80 0.2451
916.90 0.245
917.00 0.2449
917.10 0.2448
917.20 0.2446
917.30 0.2445
917.40 0.2443
917.50 0.2442
917.60 0.244
917.70 0.2438
917.80 0.2437
917.90 0.2435
918.00 0.2434
918.10 0.2432
918.20 0.2431
918.30 0.2429
918.40 0.2428
918.50 0.2426
918.60 0.2425
918.70 0.2423
918.80 0.2422
918.90 0.242
919.00 0.2419
919.10 0.2417
919.20 0.2416
919.30 0.2414
919.40 0.2413
919.50 0.2411
919.60 0.241
919.70 0.2408
919.80 0.2406
919.90 0.2405
920.00 0.2403
920.10 0.2402
920.20 0.24
920.30 0.2399
920.40 0.2397
920.50 0.2396
920.60 0.2394
920.70 0.2393
920.80 0.2391
920.90 0.239
921.00 0.2388
921.10 0.2387
921.20 0.2385
921.30 0.2384
921.40 0.2382
921.50 0.2381
921.60 0.2379
921.70 0.2378
921.80 0.2376
921.90 0.2375
922.00 0.2373
922.10 0.2373
922.20 0.2373
922.30 0.2373
922.40 0.2372
922.50 0.2372
922.60 0.2372
922.70 0.2372
922.80 0.2372
922.90 0.2372
923.00 0.2371
923.10 0.2371
923.20 0.2371
923.30 0.2371
923.40 0.2371
923.50 0.237
923.60 0.237
923.70 0.237
923.80 0.237
923.90 0.237
924.00 0.2369
924.10 0.2369
924.20 0.2369
924.30 0.2369
924.40 0.2369
924.50 0.2368
924.60 0.2368
924.70 0.2368
924.80 0.2368
924.90 0.2368
925.00 0.2368
925.10 0.2367
925.20 0.2367
925.30 0.2367
925.40 0.2367
925.50 0.2367
925.60 0.2366
925.70 0.2366
925.80 0.2366
925.90 0.2366
926.00 0.2366
926.10 0.2365
926.20 0.2365
926.30 0.2365
926.40 0.2365
926.50 0.2365
926.60 0.2364
926.70 0.2364
926.80 0.2364
926.90 0.2364
927.00 0.2364
927.10 0.2363
927.20 0.2363
927.30 0.2362
927.40 0.2362
927.50 0.2361
927.60 0.2361
927.70 0.2361
927.80 0.236
927.90 0.236
928.00 0.2359
928.10 0.2359
928.20 0.2358
928.30 0.2358
928.40 0.2358
928.50 0.2357
928.60 0.2357
928.70 0.2356
928.80 0.2356
928.90 0.2355
929.00 0.2355
929.10 0.2354
929.20 0.2354
929.30 0.2354
929.40 0.2353
929.50 0.2353
929.60 0.2352
929.70 0.2352
929.80 0.2351
929.90 0.2351
930.00 0.235
930.10 0.235
930.20 0.235
930.30 0.2349
930.40 0.2349
930.50 0.2348
930.60 0.2348
930.70 0.2347
930.80 0.2347
930.90 0.2347
931.00 0.2346
931.10 0.2346
931.20 0.2345
931.30 0.2345
931.40 0.2344
931.50 0.2344
931.60 0.2343
931.70 0.2343
931.80 0.2343
931.90 0.2342
932.00 0.2342
932.10 0.2341
932.20 0.2341
932.30 0.234
932.40 0.2339
932.50 0.2339
932.60 0.2338
932.70 0.2338
932.80 0.2337
932.90 0.2336
933.00 0.2336
933.10 0.2335
933.20 0.2335
933.30 0.2334
933.40 0.2333
933.50 0.2333
933.60 0.2332
933.70 0.2332
933.80 0.2331
933.90 0.233
934.00 0.233
934.10 0.2329
934.20 0.2329
934.30 0.2328
934.40 0.2327
934.50 0.2327
934.60 0.2326
934.70 0.2326
934.80 0.2325
934.90 0.2324
935.00 0.2324
935.10 0.2323
935.20 0.2322
935.30 0.2322
935.40 0.2321
935.50 0.232
935.60 0.232
935.70 0.2319
935.80 0.2319
935.90 0.2318
936.00 0.2317
936.10 0.2317
936.20 0.2316
936.30 0.2315
936.40 0.2315
936.50 0.2314
936.60 0.2313
936.70 0.2313
936.80 0.2312
936.90 0.2312
937.00 0.2311
937.10 0.231
937.20 0.231
937.30 0.2309
937.40 0.2308
937.50 0.2308
937.60 0.2307
937.70 0.2306
937.80 0.2306
937.90 0.2305
938.00 0.2304
938.10 0.2304
938.20 0.2303
938.30 0.2302
938.40 0.2302
938.50 0.2301
938.60 0.23
938.70 0.2299
938.80 0.2299
938.90 0.2298
939.00 0.2297
939.10 0.2297
939.20 0.2296
939.30 0.2295
939.40 0.2295
939.50 0.2294
939.60 0.2293
939.70 0.2293
939.80 0.2292
939.90 0.2291
940.00 0.229
940.10 0.229
940.20 0.2289
940.30 0.2288
940.40 0.2288
940.50 0.2287
940.60 0.2286
940.70 0.2286
940.80 0.2285
940.90 0.2284
941.00 0.2283
941.10 0.2283
941.20 0.2282
941.30 0.2281
941.40 0.228
941.50 0.228
941.60 0.2279
941.70 0.2278
941.80 0.2278
941.90 0.2277
942.00 0.2276
942.10 0.2275
942.20 0.2275
942.30 0.2274
942.40 0.2273
942.50 0.2272
942.60 0.2272
942.70 0.2271
942.80 0.227
942.90 0.2269
943.00 0.2268
943.10 0.2268
943.20 0.2267
943.30 0.2266
943.40 0.2265
943.50 0.2264
943.60 0.2264
943.70 0.2263
943.80 0.2262
943.90 0.2261
944.00 0.2261
944.10 0.226
944.20 0.2259
944.30 0.2258
944.40 0.2257
944.50 0.2256
944.60 0.2256
944.70 0.2255
944.80 0.2254
944.90 0.2253
945.00 0.2252
945.10 0.2251
945.20 0.2251
945.30 0.225
945.40 0.2249
945.50 0.2248
945.60 0.2247
945.70 0.2246
945.80 0.2245
945.90 0.2244
946.00 0.2243
946.10 0.2242
946.20 0.2241
946.30 0.224
946.40 0.2239
946.50 0.2238
946.60 0.2238
946.70 0.2237
946.80 0.2236
946.90 0.2235
947.00 0.2234
947.10 0.2233
947.20 0.2232
947.30 0.2231
947.40 0.2229
947.50 0.2228
947.60 0.2227
947.70 0.2226
947.80 0.2225
947.90 0.2224
948.00 0.2222
948.10 0.2221
948.20 0.222
948.30 0.2219
948.40 0.2218
948.50 0.2217
948.60 0.2216
948.70 0.2214
948.80 0.2213
948.90 0.2212
949.00 0.2211
949.10 0.221
949.20 0.2209
949.30 0.2207
949.40 0.2206
949.50 0.2204
949.60 0.2203
949.70 0.2201
949.80 0.22
949.90 0.2198
950.00 0.2196
950.10 0.2195
950.20 0.2193
950.30 0.2192
950.40 0.219
950.50 0.2189
950.60 0.2187
950.70 0.2186
950.80 0.2184
950.90 0.2182
951.00 0.2181
951.10 0.2179
951.20 0.2178
951.30 0.2176
951.40 0.2174
951.50 0.2172
951.60 0.217
951.70 0.2168
951.80 0.2166
951.90 0.2164
952.00 0.2162
952.10 0.2159
952.20 0.2157
952.30 0.2154
952.40 0.2151
952.50 0.2149
952.60 0.2146
952.70 0.2143
952.80 0.2141
952.90 0.2138
953.00 0.2135
953.10 0.2133
953.20 0.213
953.30 0.2127
953.40 0.2124
953.50 0.2122
953.60 0.212
953.70 0.2118
953.80 0.2116
953.90 0.2114
954.00 0.2116
954.10 0.2117
954.20 0.2122
954.30 0.2129
954.40 0.2117
954.50 0.211
954.60 0.2108
954.70 0.2105
954.80 0.2106
954.90 0.2106
955.00 0.2107
955.10 0.2108
955.20 0.2109
955.30 0.211
955.40 0.2112
955.50 0.2113
955.60 0.2114
955.70 0.2116
955.80 0.2117
955.90 0.2118
956.00 0.2119
956.10 0.212
956.20 0.2121
956.30 0.2123
956.40 0.2124
956.50 0.2125
956.60 0.2126
956.70 0.2127
956.80 0.2128
956.90 0.2129
957.00 0.213
957.10 0.2131
957.20 0.2132
957.30 0.2132
957.40 0.2133
957.50 0.2133
957.60 0.2133
957.70 0.2134
957.80 0.2134
957.90 0.2134
958.00 0.2134
958.10 0.2135
958.20 0.2135
958.30 0.2135
958.40 0.2135
958.50 0.2136
958.60 0.2136
958.70 0.2136
958.80 0.2137
958.90 0.2137
959.00 0.2137
959.10 0.2137
959.20 0.2138
959.30 0.2138
959.40 0.2138
959.50 0.2138
959.60 0.2138
959.70 0.2137
959.80 0.2137
959.90 0.2137
960.00 0.2137
960.10 0.2137
960.20 0.2137
960.30 0.2137
960.40 0.2137
960.50 0.2137
960.60 0.2137
960.70 0.2137
960.80 0.2136
960.90 0.2136
961.00 0.2136
961.10 0.2136
961.20 0.2136
961.30 0.2136
961.40 0.2136
961.50 0.2136
961.60 0.2135
961.70 0.2135
961.80 0.2135
961.90 0.2135
962.00 0.2134
962.10 0.2134
962.20 0.2134
962.30 0.2133
962.40 0.2133
962.50 0.2133
962.60 0.2133
962.70 0.2132
962.80 0.2132
962.90 0.2132
963.00 0.2131
963.10 0.2131
963.20 0.2131
963.30 0.213
963.40 0.213
963.50 0.213
963.60 0.2129
963.70 0.2129
963.80 0.2129
963.90 0.2128
964.00 0.2128
964.10 0.2127
964.20 0.2127
964.30 0.2127
964.40 0.2126
964.50 0.2126
964.60 0.2125
964.70 0.2125
964.80 0.2125
964.90 0.2124
965.00 0.2124
965.10 0.2123
965.20 0.2123
965.30 0.2122
965.40 0.2122
965.50 0.2122
965.60 0.2121
965.70 0.2121
965.80 0.212
965.90 0.212
966.00 0.2119
966.10 0.2119
966.20 0.2119
966.30 0.2118
966.40 0.2118
966.50 0.2117
966.60 0.2117
966.70 0.2116
966.80 0.2116
966.90 0.2115
967.00 0.2115
967.10 0.2114
967.20 0.2114
967.30 0.2113
967.40 0.2113
967.50 0.2112
967.60 0.2112
967.70 0.2111
967.80 0.2111
967.90 0.211
968.00 0.211
968.10 0.2109
968.20 0.2109
968.30 0.2108
968.40 0.2108
968.50 0.2107
968.60 0.2107
968.70 0.2106
968.80 0.2106
968.90 0.2105
969.00 0.2105
969.10 0.2104
969.20 0.2104
969.30 0.2103
969.40 0.2103
969.50 0.2102
969.60 0.2102
969.70 0.2101
969.80 0.2101
969.90 0.21
970.00 0.2099
970.10 0.2099
970.20 0.2098
970.30 0.2098
970.40 0.2097
970.50 0.2097
970.60 0.2096
970.70 0.2096
970.80 0.2095
970.90 0.2095
971.00 0.2094
971.10 0.2094
971.20 0.2093
971.30 0.2092
971.40 0.2092
971.50 0.2091
971.60 0.2091
971.70 0.209
971.80 0.209
971.90 0.2089
972.00 0.2089
972.10 0.2088
972.20 0.2088
972.30 0.2087
972.40 0.2086
972.50 0.2086
972.60 0.2085
972.70 0.2085
972.80 0.2084
972.90 0.2084
973.00 0.2083
973.10 0.2082
973.20 0.2082
973.30 0.2081
973.40 0.2081
973.50 0.208
973.60 0.208
973.70 0.2079
973.80 0.2079
973.90 0.2078
974.00 0.2077
974.10 0.2077
974.20 0.2076
974.30 0.2076
974.40 0.2075
974.50 0.2075
974.60 0.2074
974.70 0.2073
974.80 0.2073
974.90 0.2072
975.00 0.2072
975.10 0.2071
975.20 0.2071
975.30 0.207
975.40 0.2069
975.50 0.2069
975.60 0.2068
975.70 0.2068
975.80 0.2067
975.90 0.2067
976.00 0.2066
976.10 0.2065
976.20 0.2065
976.30 0.2064
976.40 0.2064
976.50 0.2063
976.60 0.2063
976.70 0.2062
976.80 0.2061
976.90 0.2061
977.00 0.206
977.10 0.206
977.20 0.2059
977.30 0.2059
977.40 0.2058
977.50 0.2057
977.60 0.2057
977.70 0.2056
977.80 0.2056
977.90 0.2055
978.00 0.2054
978.10 0.2054
978.20 0.2053
978.30 0.2053
978.40 0.2052
978.50 0.2051
978.60 0.2051
978.70 0.205
978.80 0.205
978.90 0.2049
979.00 0.2048
979.10 0.2048
979.20 0.2047
979.30 0.2047
979.40 0.2046
979.50 0.2045
979.60 0.2045
979.70 0.2044
979.80 0.2044
979.90 0.2043
980.00 0.2043
980.10 0.2042
980.20 0.2041
980.30 0.2041
980.40 0.204
980.50 0.204
980.60 0.2039
980.70 0.2038
980.80 0.2038
980.90 0.2037
981.00 0.2037
981.10 0.2036
981.20 0.2035
981.30 0.2035
981.40 0.2034
981.50 0.2034
981.60 0.2033
981.70 0.2033
981.80 0.2032
981.90 0.2031
982.00 0.2031
982.10 0.203
982.20 0.203
982.30 0.2029
982.40 0.2028
982.50 0.2028
982.60 0.2027
982.70 0.2027
982.80 0.2026
982.90 0.2025
983.00 0.2025
983.10 0.2024
983.20 0.2023
983.30 0.2023
983.40 0.2022
983.50 0.2022
983.60 0.2021
983.70 0.202
983.80 0.202
983.90 0.2019
984.00 0.2019
984.10 0.2018
984.20 0.2017
984.30 0.2017
984.40 0.2016
984.50 0.2016
984.60 0.2015
984.70 0.2014
984.80 0.2014
984.90 0.2013
985.00 0.2012
985.10 0.2012
985.20 0.2011
985.30 0.2011
985.40 0.201
985.50 0.2009
985.60 0.2009
985.70 0.2008
985.80 0.2007
985.90 0.2007
986.00 0.2006
986.10 0.2006
986.20 0.2005
986.30 0.2004
986.40 0.2004
986.50 0.2003
986.60 0.2002
986.70 0.2002
986.80 0.2001
986.90 0.2
987.00 0.2
987.10 0.1999
987.20 0.1999
987.30 0.1998
987.40 0.1997
987.50 0.1997
987.60 0.1996
987.70 0.1995
987.80 0.1995
987.90 0.1994
988.00 0.1993
988.10 0.1993
988.20 0.1992
988.30 0.1991
988.40 0.1991
988.50 0.199
988.60 0.1989
988.70 0.1989
988.80 0.1988
988.90 0.1987
989.00 0.1987
989.10 0.1986
989.20 0.1985
989.30 0.1984
989.40 0.1984
989.50 0.1983
989.60 0.1982
989.70 0.1982
989.80 0.1981
989.90 0.198
990.00 0.198
990.10 0.1979
990.20 0.1978
990.30 0.1978
990.40 0.1977
990.50 0.1976
990.60 0.1975
990.70 0.1975
990.80 0.1974
990.90 0.1973
991.00 0.1972
991.10 0.1972
991.20 0.1971
991.30 0.197
991.40 0.1969
991.50 0.1969
991.60 0.1968
991.70 0.1967
991.80 0.1966
991.90 0.1966
992.00 0.1965
992.10 0.1964
992.20 0.1963
992.30 0.1963
992.40 0.1962
992.50 0.1961
992.60 0.196
992.70 0.1959
992.80 0.1959
992.90 0.1958
993.00 0.1957
993.10 0.1956
993.20 0.1955
993.30 0.1954
993.40 0.1953
993.50 0.1953
993.60 0.1952
993.70 0.1951
993.80 0.195
993.90 0.1949
994.00 0.1948
994.10 0.1948
994.20 0.1947
994.30 0.1946
994.40 0.1945
994.50 0.1944
994.60 0.1943
994.70 0.1942
994.80 0.1941
994.90 0.194
995.00 0.1939
995.10 0.1938
995.20 0.1938
995.30 0.1937
995.40 0.1936
995.50 0.1935
995.60 0.1934
995.70 0.1933
995.80 0.1931
995.90 0.193
996.00 0.1929
996.10 0.1928
996.20 0.1927
996.30 0.1926
996.40 0.1925
996.50 0.1924
996.60 0.1923
996.70 0.1922
996.80 0.1921
996.90 0.192
997.00 0.1919
997.10 0.1917
997.20 0.1916
997.30 0.1915
997.40 0.1914
997.50 0.1912
997.60 0.1911
997.70 0.191
997.80 0.1908
997.90 0.1907
998.00 0.1905
998.10 0.1904
998.20 0.1902
998.30 0.1901
998.40 0.1899
998.50 0.1898
998.60 0.1897
998.70 0.1895
998.80 0.1894
998.90 0.1892
999.00 0.1891
999.10 0.1889
999.20 0.1888
999.30 0.1886
999.40 0.1885
999.50 0.1883
999.60 0.1882
999.70 0.188
999.80 0.1878
999.90 0.1876
1000.00 0.1874
1000.10 0.1872
1000.20 0.1869
1000.30 0.1867
1000.40 0.1865
1000.50 0.1863
1000.60 0.1861
1000.70 0.1859
1000.80 0.1857
1000.90 0.1855
1001.00 0.1853
1001.10 0.185
1001.20 0.1848
1001.30 0.1846
1001.40 0.1844
1001.50 0.1842
1001.60 0.184
1001.70 0.1837
1001.80 0.1834
1001.90 0.1832
1002.00 0.1829
1002.10 0.1825
1002.20 0.1821
1002.30 0.1818
1002.40 0.1814
1002.50 0.181
1002.60 0.1807
1002.70 0.1803
1002.80 0.1799
1002.90 0.1795
1003.00 0.1792
1003.10 0.1788
1003.20 0.1783
1003.30 0.1778
1003.40 0.1773
1003.50 0.1768
1003.60 0.1762
1003.70 0.1757
1003.80 0.1752
1003.90 0.1748
1004.00 0.1745
1004.10 0.1741
1004.20 0.1738
1004.30 0.1737
1004.40 0.1736
1004.50 0.1742
1004.60 0.1757
1004.70 0.1747
1004.80 0.1735
1004.90 0.1734
1005.00 0.1733
1005.10 0.1735
1005.20 0.1737
1005.30 0.174
1005.40 0.1742
1005.50 0.1746
1005.60 0.175
1005.70 0.1754
1005.80 0.1758
1005.90 0.1763
1006.00 0.1767
1006.10 0.1771
1006.20 0.1774
1006.30 0.1777
1006.40 0.178
1006.50 0.1783
1006.60 0.1785
1006.70 0.1788
1006.80 0.1791
1006.90 0.1794
1007.00 0.1797
1007.10 0.1799
1007.20 0.18
1007.30 0.1802
1007.40 0.1804
1007.50 0.1806
1007.60 0.1808
1007.70 0.1809
1007.80 0.181
1007.90 0.1811
1008.00 0.1812
1008.10 0.1813
1008.20 0.1814
1008.30 0.1815
1008.40 0.1816
1008.50 0.1817
1008.60 0.1819
1008.70 0.182
1008.80 0.1821
1008.90 0.1822
1009.00 0.1823
1009.10 0.1824
1009.20 0.1825
1009.30 0.1826
1009.40 0.1827
1009.50 0.1828
1009.60 0.1829
1009.70 0.1829
1009.80 0.183
1009.90 0.183
1010.00 0.183
1010.10 0.1831
1010.20 0.1831
1010.30 0.1832
1010.40 0.1832
1010.50 0.1832
1010.60 0.1833
1010.70 0.1833
1010.80 0.1834
1010.90 0.1834
1011.00 0.1834
1011.10 0.1835
1011.20 0.1835
1011.30 0.1835
1011.40 0.1836
1011.50 0.1836
1011.60 0.1837
1011.70 0.1837
1011.80 0.1837
1011.90 0.1837
1012.00 0.1837
1012.10 0.1837
1012.20 0.1837
1012.30 0.1837
1012.40 0.1837
1012.50 0.1837
1012.60 0.1837
1012.70 0.1837
1012.80 0.1837
1012.90 0.1837
1013.00 0.1837
1013.10 0.1837
1013.20 0.1838
1013.30 0.1838
1013.40 0.1838
1013.50 0.1838
1013.60 0.1838
1013.70 0.1838
1013.80 0.1837
1013.90 0.1837
1014.00 0.1837
1014.10 0.1837
1014.20 0.1837
1014.30 0.1837
1014.40 0.1837
1014.50 0.1837
1014.60 0.1836
1014.70 0.1836
1014.80 0.1836
1014.90 0.1836
1015.00 0.1836
1015.10 0.1835
1015.20 0.1835
1015.30 0.1835
1015.40 0.1835
1015.50 0.1834
1015.60 0.1834
1015.70 0.1834
1015.80 0.1834
1015.90 0.1834
1016.00 0.1833
1016.10 0.1833
1016.20 0.1833
1016.30 0.1833
1016.40 0.1832
1016.50 0.1832
1016.60 0.1832
1016.70 0.1832
1016.80 0.1831
1016.90 0.1831
1017.00 0.1831
1017.10 0.1831
1017.20 0.183
1017.30 0.183
1017.40 0.183
1017.50 0.1829
1017.60 0.1829
1017.70 0.1829
1017.80 0.1828
1017.90 0.1828
1018.00 0.1828
1018.10 0.1827
1018.20 0.1827
1018.30 0.1827
1018.40 0.1826
1018.50 0.1826
1018.60 0.1826
1018.70 0.1825
1018.80 0.1825
1018.90 0.1825
1019.00 0.1824
1019.10 0.1824
1019.20 0.1824
1019.30 0.1823
1019.40 0.1823
1019.50 0.1822
1019.60 0.1822
1019.70 0.1822
1019.80 0.1821
1019.90 0.1821
1020.00 0.1821
1020.10 0.182
1020.20 0.182
1020.30 0.1819
1020.40 0.1819
1020.50 0.1819
1020.60 0.1818
1020.70 0.1818
1020.80 0.1818
1020.90 0.1817
1021.00 0.1817
1021.10 0.1816
1021.20 0.1816
1021.30 0.1816
1021.40 0.1815
1021.50 0.1815
1021.60 0.1814
1021.70 0.1814
1021.80 0.1813
1021.90 0.1813
1022.00 0.1813
1022.10 0.1812
1022.20 0.1812
1022.30 0.1811
1022.40 0.1811
1022.50 0.1811
1022.60 0.181
1022.70 0.181
1022.80 0.1809
1022.90 0.1809
1023.00 0.1808
1023.10 0.1808
1023.20 0.1808
1023.30 0.1807
1023.40 0.1807
1023.50 0.1806
1023.60 0.1806
1023.70 0.1805
1023.80 0.1805
1023.90 0.1805
1024.00 0.1804
1024.10 0.1804
1024.20 0.1803
1024.30 0.1803
1024.40 0.1802
1024.50 0.1802
1024.60 0.1802
1024.70 0.1801
1024.80 0.1801
1024.90 0.18
1025.00 0.18
1025.10 0.1799
1025.20 0.1799
1025.30 0.1798
1025.40 0.1798
1025.50 0.1798
1025.60 0.1797
1025.70 0.1797
1025.80 0.1796
1025.90 0.1796
1026.00 0.1795
1026.10 0.1795
1026.20 0.1794
1026.30 0.1794
1026.40 0.1793
1026.50 0.1793
1026.60 0.1793
1026.70 0.1792
1026.80 0.1792
1026.90 0.1791
1027.00 0.1791
1027.10 0.179
1027.20 0.179
1027.30 0.1789
1027.40 0.1789
1027.50 0.1788
1027.60 0.1788
1027.70 0.1788
1027.80 0.1787
1027.90 0.1787
1028.00 0.1786
1028.10 0.1786
1028.20 0.1785
1028.30 0.1785
1028.40 0.1784
1028.50 0.1784
1028.60 0.1783
1028.70 0.1783
1028.80 0.1782
1028.90 0.1782
1029.00 0.1782
1029.10 0.1781
1029.20 0.1781
1029.30 0.178
1029.40 0.178
1029.50 0.1779
1029.60 0.1779
1029.70 0.1778
1029.80 0.1778
1029.90 0.1777
1030.00 0.1777
1030.10 0.1776
1030.20 0.1776
1030.30 0.1776
1030.40 0.1775
1030.50 0.1775
1030.60 0.1774
1030.70 0.1774
1030.80 0.1773
1030.90 0.1773
1031.00 0.1772
1031.10 0.1772
1031.20 0.1771
1031.30 0.1771
1031.40 0.177
1031.50 0.177
1031.60 0.177
1031.70 0.1769
1031.80 0.1769
1031.90 0.1768
1032.00 0.1768
1032.10 0.1767
1032.20 0.1767
1032.30 0.1766
1032.40 0.1766
1032.50 0.1765
1032.60 0.1765
1032.70 0.1764
1032.80 0.1764
1032.90 0.1763
1033.00 0.1763
1033.10 0.1763
1033.20 0.1762
1033.30 0.1762
1033.40 0.1761
1033.50 0.1761
1033.60 0.176
1033.70 0.176
1033.80 0.1759
1033.90 0.1759
1034.00 0.1758
1034.10 0.1758
1034.20 0.1757
1034.30 0.1757
1034.40 0.1756
1034.50 0.1756
1034.60 0.1755
1034.70 0.1755
1034.80 0.1755
1034.90 0.1754
1035.00 0.1754
1035.10 0.1753
1035.20 0.1753
1035.30 0.1752
1035.40 0.1752
1035.50 0.1751
1035.60 0.1751
1035.70 0.175
1035.80 0.175
1035.90 0.1749
1036.00 0.1749
1036.10 0.1748
1036.20 0.1748
1036.30 0.1748
1036.40 0.1747
1036.50 0.1747
1036.60 0.1746
1036.70 0.1746
1036.80 0.1745
1036.90 0.1745
1037.00 0.1744
1037.10 0.1744
1037.20 0.1743
1037.30 0.1743
1037.40 0.1742
1037.50 0.1742
1037.60 0.1741
1037.70 0.1741
1037.80 0.1741
1037.90 0.174
1038.00 0.174
1038.10 0.1739
1038.20 0.1739
1038.30 0.1738
1038.40 0.1738
1038.50 0.1737
1038.60 0.1737
1038.70 0.1736
1038.80 0.1736
1038.90 0.1735
1039.00 0.1735
1039.10 0.1734
1039.20 0.1734
1039.30 0.1733
1039.40 0.1733
1039.50 0.1733
1039.60 0.1732
1039.70 0.1732
1039.80 0.1731
1039.90 0.1731
1040.00 0.173
1040.10 0.173
1040.20 0.1729
1040.30 0.1729
1040.40 0.1728
1040.50 0.1728
1040.60 0.1727
1040.70 0.1727
1040.80 0.1727
1040.90 0.1726
1041.00 0.1726
1041.10 0.1725
1041.20 0.1725
1041.30 0.1724
1041.40 0.1724
1041.50 0.1723
1041.60 0.1723
1041.70 0.1722
1041.80 0.1722
1041.90 0.1721
1042.00 0.1721
1042.10 0.172
1042.20 0.172
1042.30 0.172
1042.40 0.1719
1042.50 0.1719
1042.60 0.1718
1042.70 0.1718
1042.80 0.1717
1042.90 0.1717
1043.00 0.1716
1043.10 0.1716
1043.20 0.1715
1043.30 0.1715
1043.40 0.1714
1043.50 0.1714
1043.60 0.1713
1043.70 0.1713
1043.80 0.1713
1043.90 0.1712
1044.00 0.1712
1044.10 0.1711
1044.20 0.1711
1044.30 0.171
1044.40 0.171
1044.50 0.1709
1044.60 0.1709
1044.70 0.1708
1044.80 0.1708
1044.90 0.1707
1045.00 0.1707
1045.10 0.1707
1045.20 0.1706
1045.30 0.1706
1045.40 0.1705
1045.50 0.1705
1045.60 0.1704
1045.70 0.1704
1045.80 0.1703
1045.90 0.1703
1046.00 0.1702
1046.10 0.1702
1046.20 0.1701
1046.30 0.1701
1046.40 0.17
1046.50 0.17
1046.60 0.17
1046.70 0.1699
1046.80 0.1699
1046.90 0.1698
1047.00 0.1698
1047.10 0.1697
1047.20 0.1697
1047.30 0.1696
1047.40 0.1696
1047.50 0.1695
1047.60 0.1695
1047.70 0.1694
1047.80 0.1694
1047.90 0.1694
1048.00 0.1693
1048.10 0.1693
1048.20 0.1692
1048.30 0.1692
1048.40 0.1691
1048.50 0.1691
1048.60 0.169
1048.70 0.169
1048.80 0.1689
1048.90 0.1689
1049.00 0.1688
1049.10 0.1688
1049.20 0.1688
1049.30 0.1687
1049.40 0.1687
1049.50 0.1686
1049.60 0.1686
1049.70 0.1685
1049.80 0.1685
1049.90 0.1684
1050.00 0.1684
1050.10 0.1683
1050.20 0.1683
1050.30 0.1683
1050.40 0.1682
1050.50 0.1682
1050.60 0.1681
1050.70 0.1681
1050.80 0.168
1050.90 0.168
1051.00 0.1679
1051.10 0.1679
1051.20 0.1678
1051.30 0.1678
1051.40 0.1678
1051.50 0.1677
1051.60 0.1677
1051.70 0.1676
1051.80 0.1676
1051.90 0.1675
1052.00 0.1675
1052.10 0.1674
1052.20 0.1674
1052.30 0.1673
1052.40 0.1673
1052.50 0.1672
1052.60 0.1672
1052.70 0.1672
1052.80 0.1671
1052.90 0.1671
1053.00 0.167
1053.10 0.167
1053.20 0.1669
1053.30 0.1669
1053.40 0.1668
1053.50 0.1668
1053.60 0.1667
1053.70 0.1667
1053.80 0.1667
1053.90 0.1666
1054.00 0.1666
1054.10 0.1665
1054.20 0.1665
1054.30 0.1664
1054.40 0.1664
1054.50 0.1663
1054.60 0.1663
1054.70 0.1662
1054.80 0.1662
1054.90 0.1662
1055.00 0.1661
1055.10 0.1661
1055.20 0.166
1055.30 0.166
1055.40 0.1659
1055.50 0.1659
1055.60 0.1658
1055.70 0.1658
1055.80 0.1657
1055.90 0.1657
1056.00 0.1657
1056.10 0.1656
1056.20 0.1656
1056.30 0.1655
1056.40 0.1655
1056.50 0.1654
1056.60 0.1654
1056.70 0.1653
1056.80 0.1653
1056.90 0.1652
1057.00 0.1652
1057.10 0.1652
1057.20 0.1651
1057.30 0.1651
1057.40 0.165
1057.50 0.165
1057.60 0.1649
1057.70 0.1649
1057.80 0.1648
1057.90 0.1648
1058.00 0.1647
1058.10 0.1647
1058.20 0.1647
1058.30 0.1646
1058.40 0.1646
1058.50 0.1645
1058.60 0.1645
1058.70 0.1644
1058.80 0.1644
1058.90 0.1643
1059.00 0.1643
1059.10 0.1642
1059.20 0.1642
1059.30 0.1642
1059.40 0.1641
1059.50 0.1641
1059.60 0.164
1059.70 0.164
1059.80 0.1639
1059.90 0.1639
1060.00 0.1638
1060.10 0.1638
1060.20 0.1637
1060.30 0.1637
1060.40 0.1637
1060.50 0.1636
1060.60 0.1636
1060.70 0.1635
1060.80 0.1635
1060.90 0.1634
1061.00 0.1634
1061.10 0.1633
1061.20 0.1633
1061.30 0.1632
1061.40 0.1632
1061.50 0.1632
1061.60 0.1631
1061.70 0.1631
1061.80 0.163
1061.90 0.163
1062.00 0.1629
1062.10 0.1629
1062.20 0.1628
1062.30 0.1628
1062.40 0.1628
1062.50 0.1627
1062.60 0.1627
1062.70 0.1626
1062.80 0.1626
1062.90 0.1625
1063.00 0.1625
1063.10 0.1624
1063.20 0.1624
1063.30 0.1623
1063.40 0.1623
1063.50 0.1622
1063.60 0.1622
1063.70 0.1622
1063.80 0.1621
1063.90 0.1621
1064.00 0.162
1064.10 0.162
1064.20 0.1619
1064.30 0.1619
1064.40 0.1618
1064.50 0.1618
1064.60 0.1617
1064.70 0.1617
1064.80 0.1617
1064.90 0.1616
1065.00 0.1616
1065.10 0.1615
1065.20 0.1615
1065.30 0.1614
1065.40 0.1614
1065.50 0.1613
1065.60 0.1613
1065.70 0.1612
1065.80 0.1612
1065.90 0.1612
1066.00 0.1611
1066.10 0.1611
1066.20 0.161
1066.30 0.161
1066.40 0.1609
1066.50 0.1609
1066.60 0.1608
1066.70 0.1608
1066.80 0.1608
1066.90 0.1607
1067.00 0.1607
1067.10 0.1606
1067.20 0.1606
1067.30 0.1605
1067.40 0.1605
1067.50 0.1604
1067.60 0.1604
1067.70 0.1603
1067.80 0.1603
1067.90 0.1602
1068.00 0.1602
1068.10 0.1601
1068.20 0.1601
1068.30 0.1601
1068.40 0.16
1068.50 0.16
1068.60 0.1599
1068.70 0.1599
1068.80 0.1598
1068.90 0.1598
1069.00 0.1597
1069.10 0.1597
1069.20 0.1596
1069.30 0.1596
1069.40 0.1595
1069.50 0.1595
1069.60 0.1594
1069.70 0.1594
1069.80 0.1594
1069.90 0.1593
1070.00 0.1593
1070.10 0.1592
1070.20 0.1592
1070.30 0.1591
1070.40 0.1591
1070.50 0.159
1070.60 0.159
1070.70 0.1589
1070.80 0.1589
1070.90 0.1588
1071.00 0.1588
1071.10 0.1587
1071.20 0.1587
1071.30 0.1587
1071.40 0.1586
1071.50 0.1586
1071.60 0.1585
1071.70 0.1585
1071.80 0.1584
1071.90 0.1584
1072.00 0.1583
1072.10 0.1583
1072.20 0.1582
1072.30 0.1582
1072.40 0.1581
1072.50 0.1581
1072.60 0.158
1072.70 0.158
1072.80 0.1579
1072.90 0.1579
1073.00 0.1578
1073.10 0.1578
1073.20 0.1578
1073.30 0.1577
1073.40 0.1577
1073.50 0.1576
1073.60 0.1576
1073.70 0.1575
1073.80 0.1575
1073.90 0.1574
1074.00 0.1574
1074.10 0.1573
1074.20 0.1572
1074.30 0.1572
1074.40 0.1571
1074.50 0.1571
1074.60 0.157
1074.70 0.157
1074.80 0.1569
1074.90 0.1569
1075.00 0.1568
1075.10 0.1568
1075.20 0.1567
1075.30 0.1567
1075.40 0.1566
1075.50 0.1566
1075.60 0.1565
1075.70 0.1565
1075.80 0.1564
1075.90 0.1564
1076.00 0.1563
1076.10 0.1563
1076.20 0.1562
1076.30 0.1562
1076.40 0.1561
1076.50 0.1561
1076.60 0.156
1076.70 0.156
1076.80 0.1559
1076.90 0.1559
1077.00 0.1558
1077.10 0.1558
1077.20 0.1557
1077.30 0.1557
1077.40 0.1556
1077.50 0.1556
1077.60 0.1555
1077.70 0.1554
1077.80 0.1554
1077.90 0.1553
1078.00 0.1553
1078.10 0.1552
1078.20 0.1552
1078.30 0.1551
1078.40 0.155
1078.50 0.155
1078.60 0.1549
1078.70 0.1549
1078.80 0.1548
1078.90 0.1548
1079.00 0.1547
1079.10 0.1546
1079.20 0.1546
1079.30 0.1545
1079.40 0.1545
1079.50 0.1544
1079.60 0.1544
1079.70 0.1543
1079.80 0.1542
1079.90 0.1542
1080.00 0.1541
1080.10 0.154
1080.20 0.154
1080.30 0.1539
1080.40 0.1538
1080.50 0.1538
1080.60 0.1537
1080.70 0.1537
1080.80 0.1536
1080.90 0.1535
1081.00 0.1535
1081.10 0.1534
1081.20 0.1533
1081.30 0.1533
1081.40 0.1532
1081.50 0.1531
1081.60 0.1531
1081.70 0.153
1081.80 0.1529
1081.90 0.1529
1082.00 0.1528
1082.10 0.1527
1082.20 0.1526
1082.30 0.1526
1082.40 0.1525
1082.50 0.1524
1082.60 0.1523
1082.70 0.1523
1082.80 0.1522
1082.90 0.1521
1083.00 0.152
1083.10 0.152
1083.20 0.1519
1083.30 0.1518
1083.40 0.1517
1083.50 0.1516
1083.60 0.1516
1083.70 0.1515
1083.80 0.1514
1083.90 0.1513
1084.00 0.1512
1084.10 0.1511
1084.20 0.151
1084.30 0.151
1084.40 0.1509
1084.50 0.1508
1084.60 0.1507
1084.70 0.1506
1084.80 0.1505
1084.90 0.1504
1085.00 0.1502
1085.10 0.1501
1085.20 0.15
1085.30 0.1499
1085.40 0.1498
1085.50 0.1497
1085.60 0.1496
1085.70 0.1495
1085.80 0.1494
1085.90 0.1493
1086.00 0.1492
1086.10 0.1491
1086.20 0.149
1086.30 0.1489
1086.40 0.1488
1086.50 0.1486
1086.60 0.1485
1086.70 0.1484
1086.80 0.1483
1086.90 0.1481
1087.00 0.148
1087.10 0.1478
1087.20 0.1477
1087.30 0.1475
1087.40 0.1474
1087.50 0.1472
1087.60 0.1471
1087.70 0.1469
1087.80 0.1467
1087.90 0.1466
1088.00 0.1464
1088.10 0.1463
1088.20 0.1461
1088.30 0.146
1088.40 0.1458
1088.50 0.1456
1088.60 0.1454
1088.70 0.1451
1088.80 0.1449
1088.90 0.1447
1089.00 0.1444
1089.10 0.1442
1089.20 0.144
1089.30 0.1437
1089.40 0.1435
1089.50 0.1432
1089.60 0.143
1089.70 0.1428
1089.80 0.1425
1089.90 0.1423
1090.00 0.1421
1090.10 0.1418
1090.20 0.1416
1090.30 0.1413
1090.40 0.1411
1090.50 0.1408
1090.60 0.1404
1090.70 0.1399
1090.80 0.1395
1090.90 0.139
1091.00 0.1386
1091.10 0.1381
1091.20 0.1377
1091.30 0.1373
1091.40 0.1368
1091.50 0.1364
1091.60 0.1359
1091.70 0.1355
1091.80 0.135
1091.90 0.1346
1092.00 0.1341
1092.10 0.1333
1092.20 0.1326
1092.30 0.1318
1092.40 0.131
1092.50 0.1303
1092.60 0.1295
1092.70 0.1287
1092.80 0.1279
1092.90 0.127
1093.00 0.1261
1093.10 0.1254
1093.20 0.1251
1093.30 0.1248
1093.40 0.1256
1093.50 0.1263
1093.60 0.1247
1093.70 0.1248
1093.80 0.1251
1093.90 0.1255
1094.00 0.1263
1094.10 0.1271
1094.20 0.1279
1094.30 0.1287
1094.40 0.1294
1094.50 0.13
1094.60 0.1307
1094.70 0.1314
1094.80 0.1321
1094.90 0.1328
1095.00 0.1334
1095.10 0.1337
1095.20 0.1341
1095.30 0.1345
1095.40 0.1348
1095.50 0.1352
1095.60 0.1355
1095.70 0.1359
1095.80 0.1363
1095.90 0.1366
1096.00 0.137
1096.10 0.1374
1096.20 0.1377
1096.30 0.1381
1096.40 0.1385
1096.50 0.1388
1096.60 0.139
1096.70 0.1392
1096.80 0.1394
1096.90 0.1396
1097.00 0.1398
1097.10 0.14
1097.20 0.1401
1097.30 0.1402
1097.40 0.1404
1097.50 0.1405
1097.60 0.1407
1097.70 0.1408
1097.80 0.1409
1097.90 0.1411
1098.00 0.1412
1098.10 0.1414
1098.20 0.1415
1098.30 0.1416
1098.40 0.1418
1098.50 0.1419
1098.60 0.142
1098.70 0.142
1098.80 0.1421
1098.90 0.1422
1099.00 0.1422
1099.10 0.1423
1099.20 0.1424
1099.30 0.1424
1099.40 0.1425
1099.50 0.1426
1099.60 0.1427
1099.70 0.1427
1099.80 0.1428
1099.90 0.1429
1100.00 0.1429
1100.10 0.143
1100.20 0.1431
1100.30 0.1431
1100.40 0.1432
1100.50 0.1433
1100.60 0.1433
1100.70 0.1433
1100.80 0.1433
1100.90 0.1434
1101.00 0.1434
1101.10 0.1434
1101.20 0.1435
1101.30 0.1435
1101.40 0.1435
1101.50 0.1435
1101.60 0.1436
1101.70 0.1436
1101.80 0.1436
1101.90 0.1437
1102.00 0.1437
1102.10 0.1437
1102.20 0.1437
1102.30 0.1437
1102.40 0.1438
1102.50 0.1438
1102.60 0.1438
1102.70 0.1438
1102.80 0.1438
1102.90 0.1438
1103.00 0.1438
1103.10 0.1438
1103.20 0.1438
1103.30 0.1438
1103.40 0.1438
1103.50 0.1438
1103.60 0.1438
1103.70 0.1438
1103.80 0.1438
1103.90 0.1438
1104.00 0.1438
1104.10 0.1438
1104.20 0.1438
1104.30 0.1438
1104.40 0.1438
1104.50 0.1438
1104.60 0.1438
1104.70 0.1438
1104.80 0.1438
1104.90 0.1438
1105.00 0.1437
1105.10 0.1437
1105.20 0.1437
1105.30 0.1437
1105.40 0.1437
1105.50 0.1437
1105.60 0.1437
1105.70 0.1437
1105.80 0.1437
1105.90 0.1437
1106.00 0.1436
1106.10 0.1436
1106.20 0.1436
1106.30 0.1436
1106.40 0.1436
1106.50 0.1436
1106.60 0.1435
1106.70 0.1435
1106.80 0.1435
1106.90 0.1435
1107.00 0.1435
1107.10 0.1435
1107.20 0.1434
1107.30 0.1434
1107.40 0.1434
1107.50 0.1434
1107.60 0.1434
1107.70 0.1433
1107.80 0.1433
1107.90 0.1433
1108.00 0.1433
1108.10 0.1432
1108.20 0.1432
1108.30 0.1432
1108.40 0.1432
1108.50 0.1432
1108.60 0.1431
1108.70 0.1431
1108.80 0.1431
1108.90 0.1431
1109.00 0.143
1109.10 0.143
1109.20 0.143
1109.30 0.143
1109.40 0.143
1109.50 0.1429
1109.60 0.1429
1109.70 0.1429
1109.80 0.1428
1109.90 0.1428
1110.00 0.1428
1110.10 0.1428
1110.20 0.1427
1110.30 0.1427
1110.40 0.1427
1110.50 0.1427
1110.60 0.1426
1110.70 0.1426
1110.80 0.1426
1110.90 0.1425
1111.00 0.1425
1111.10 0.1425
1111.20 0.1425
1111.30 0.1424
1111.40 0.1424
1111.50 0.1424
1111.60 0.1424
1111.70 0.1423
1111.80 0.1423
1111.90 0.1423
1112.00 0.1422
1112.10 0.1422
1112.20 0.1422
1112.30 0.1422
1112.40 0.1421
1112.50 0.1421
1112.60 0.1421
1112.70 0.142
1112.80 0.142
1112.90 0.142
1113.00 0.1419
1113.10 0.1419
1113.20 0.1419
1113.30 0.1419
1113.40 0.1418
1113.50 0.1418
1113.60 0.1418
1113.70 0.1417
1113.80 0.1417
1113.90 0.1417
1114.00 0.1416
1114.10 0.1416
1114.20 0.1416
1114.30 0.1415
1114.40 0.1415
1114.50 0.1415
1114.60 0.1414
1114.70 0.1414
1114.80 0.1414
1114.90 0.1413
1115.00 0.1413
1115.10 0.1413
1115.20 0.1412
1115.30 0.1412
1115.40 0.1412
1115.50 0.1412
1115.60 0.1411
1115.70 0.1411
1115.80 0.1411
1115.90 0.141
1116.00 0.141
1116.10 0.141
1116.20 0.1409
1116.30 0.1409
1116.40 0.1409
1116.50 0.1408
1116.60 0.1408
1116.70 0.1408
1116.80 0.1407
1116.90 0.1407
1117.00 0.1407
1117.10 0.1406
1117.20 0.1406
1117.30 0.1406
1117.40 0.1405
1117.50 0.1405
1117.60 0.1405
1117.70 0.1404
1117.80 0.1404
1117.90 0.1404
1118.00 0.1403
1118.10 0.1403
1118.20 0.1403
1118.30 0.1402
1118.40 0.1402
1118.50 0.1402
1118.60 0.1401
1118.70 0.1401
1118.80 0.1401
1118.90 0.14
1119.00 0.14
1119.10 0.14
1119.20 0.1399
1119.30 0.1399
1119.40 0.1399
1119.50 0.1398
1119.60 0.1398
1119.70 0.1398
1119.80 0.1397
1119.90 0.1397
1120.00 0.1397
1120.10 0.1396
1120.20 0.1396
1120.30 0.1396
1120.40 0.1395
1120.50 0.1395
1120.60 0.1395
1120.70 0.1394
1120.80 0.1394
1120.90 0.1394
1121.00 0.1393
1121.10 0.1393
1121.20 0.1393
1121.30 0.1392
1121.40 0.1392
1121.50 0.1392
1121.60 0.1391
1121.70 0.1391
1121.80 0.1391
1121.90 0.139
1122.00 0.139
1122.10 0.139
1122.20 0.1389
1122.30 0.1389
1122.40 0.1389
1122.50 0.1388
1122.60 0.1388
1122.70 0.1388
1122.80 0.1387
1122.90 0.1387
1123.00 0.1387
1123.10 0.1386
1123.20 0.1386
1123.30 0.1385
1123.40 0.1385
1123.50 0.1385
1123.60 0.1384
1123.70 0.1384
1123.80 0.1384
1123.90 0.1383
1124.00 0.1383
1124.10 0.1383
1124.20 0.1382
1124.30 0.1382
1124.40 0.1382
1124.50 0.1381
1124.60 0.1381
1124.70 0.1381
1124.80 0.138
1124.90 0.138
1125.00 0.138
1125.10 0.1379
1125.20 0.1379
1125.30 0.1379
1125.40 0.1378
1125.50 0.1378
1125.60 0.1378
1125.70 0.1377
1125.80 0.1377
1125.90 0.1377
1126.00 0.1376
1126.10 0.1376
1126.20 0.1376
1126.30 0.1375
1126.40 0.1375
1126.50 0.1374
1126.60 0.1374
1126.70 0.1374
1126.80 0.1373
1126.90 0.1373
1127.00 0.1373
1127.10 0.1372
1127.20 0.1372
1127.30 0.1372
1127.40 0.1371
1127.50 0.1371
1127.60 0.1371
1127.70 0.137
1127.80 0.137
1127.90 0.137
1128.00 0.1369
1128.10 0.1369
1128.20 0.1369
1128.30 0.1368
1128.40 0.1368
1128.50 0.1368
1128.60 0.1367
1128.70 0.1367
1128.80 0.1367
1128.90 0.1366
1129.00 0.1366
1129.10 0.1366
1129.20 0.1365
1129.30 0.1365
1129.40 0.1365
1129.50 0.1364
1129.60 0.1364
1129.70 0.1363
1129.80 0.1363
1129.90 0.1363
1130.00 0.1362
1130.10 0.1362
1130.20 0.1362
1130.30 0.1361
1130.40 0.1361
1130.50 0.1361
1130.60 0.136
1130.70 0.136
1130.80 0.136
1130.90 0.1359
1131.00 0.1359
1131.10 0.1359
1131.20 0.1358
1131.30 0.1358
1131.40 0.1358
1131.50 0.1357
1131.60 0.1357
1131.70 0.1357
1131.80 0.1356
1131.90 0.1356
1132.00 0.1356
1132.10 0.1355
1132.20 0.1355
1132.30 0.1355
1132.40 0.1354
1132.50 0.1354
1132.60 0.1354
1132.70 0.1353
1132.80 0.1353
1132.90 0.1353
1133.00 0.1352
1133.10 0.1352
1133.20 0.1352
1133.30 0.1351
1133.40 0.1351
1133.50 0.1351
1133.60 0.135
1133.70 0.135
1133.80 0.1349
1133.90 0.1349
1134.00 0.1349
1134.10 0.1348
1134.20 0.1348
1134.30 0.1348
1134.40 0.1347
1134.50 0.1347
1134.60 0.1347
1134.70 0.1346
1134.80 0.1346
1134.90 0.1346
1135.00 0.1345
1135.10 0.1345
1135.20 0.1345
1135.30 0.1344
1135.40 0.1344
1135.50 0.1344
1135.60 0.1343
1135.70 0.1343
1135.80 0.1343
1135.90 0.1342
1136.00 0.1342
1136.10 0.1342
1136.20 0.1341
1136.30 0.1341
1136.40 0.1341
1136.50 0.134
1136.60 0.134
1136.70 0.134
1136.80 0.1339
1136.90 0.1339
1137.00 0.1339
1137.10 0.1338
1137.20 0.1338
1137.30 0.1338
1137.40 0.1337
1137.50 0.1337
1137.60 0.1337
1137.70 0.1336
1137.80 0.1336
1137.90 0.1336
1138.00 0.1335
1138.10 0.1335
1138.20 0.1334
1138.30 0.1334
1138.40 0.1334
1138.50 0.1333
1138.60 0.1333
1138.70 0.1333
1138.80 0.1332
1138.90 0.1332
1139.00 0.1332
1139.10 0.1331
1139.20 0.1331
1139.30 0.1331
1139.40 0.133
1139.50 0.133
1139.60 0.133
1139.70 0.1329
1139.80 0.1329
1139.90 0.1329
1140.00 0.1328
1140.10 0.1328
1140.20 0.1328
1140.30 0.1327
1140.40 0.1327
1140.50 0.1327
1140.60 0.1326
1140.70 0.1326
1140.80 0.1326
1140.90 0.1325
1141.00 0.1325
1141.10 0.1325
1141.20 0.1324
1141.30 0.1324
1141.40 0.1324
1141.50 0.1323
1141.60 0.1323
1141.70 0.1323
1141.80 0.1322
1141.90 0.1322
1142.00 0.1322
1142.10 0.1321
1142.20 0.1321
1142.30 0.1321
1142.40 0.132
1142.50 0.132
1142.60 0.132
1142.70 0.1319
1142.80 0.1319
1142.90 0.1319
1143.00 0.1318
1143.10 0.1318
1143.20 0.1318
1143.30 0.1317
1143.40 0.1317
1143.50 0.1317
1143.60 0.1316
1143.70 0.1316
1143.80 0.1316
1143.90 0.1315
1144.00 0.1315
1144.10 0.1315
1144.20 0.1314
1144.30 0.1314
1144.40 0.1314
1144.50 0.1313
1144.60 0.1313
1144.70 0.1313
1144.80 0.1312
1144.90 0.1312
1145.00 0.1312
1145.10 0.1311
1145.20 0.1311
1145.30 0.1311
1145.40 0.131
1145.50 0.131
1145.60 0.131
1145.70 0.1309
1145.80 0.1309
1145.90 0.1309
1146.00 0.1308
1146.10 0.1308
1146.20 0.1308
1146.30 0.1307
1146.40 0.1307
1146.50 0.1307
1146.60 0.1306
1146.70 0.1306
1146.80 0.1306
1146.90 0.1305
1147.00 0.1305
1147.10 0.1305
1147.20 0.1304
1147.30 0.1304
1147.40 0.1304
1147.50 0.1303
1147.60 0.1303
1147.70 0.1303
1147.80 0.1302
1147.90 0.1302
1148.00 0.1302
1148.10 0.1301
1148.20 0.1301
1148.30 0.1301
1148.40 0.13
1148.50 0.13
1148.60 0.13
1148.70 0.1299
1148.80 0.1299
1148.90 0.1299
1149.00 0.1298
1149.10 0.1298
1149.20 0.1298
1149.30 0.1297
1149.40 0.1297
1149.50 0.1297
1149.60 0.1296
1149.70 0.1296
1149.80 0.1296
1149.90 0.1295
1150.00 0.1295
1150.10 0.1295
1150.20 0.1294
1150.30 0.1294
1150.40 0.1294
1150.50 0.1294
1150.60 0.1293
1150.70 0.1293
1150.80 0.1293
1150.90 0.1292
1151.00 0.1292
1151.10 0.1292
1151.20 0.1291
1151.30 0.1291
1151.40 0.1291
1151.50 0.129
1151.60 0.129
1151.70 0.129
1151.80 0.1289
1151.90 0.1289
1152.00 0.1289
1152.10 0.1288
1152.20 0.1288
1152.30 0.1288
1152.40 0.1287
1152.50 0.1287
1152.60 0.1287
1152.70 0.1286
1152.80 0.1286
1152.90 0.1286
1153.00 0.1285
1153.10 0.1285
1153.20 0.1285
1153.30 0.1284
1153.40 0.1284
1153.50 0.1284
1153.60 0.1283
1153.70 0.1283
1153.80 0.1283
1153.90 0.1282
1154.00 0.1282
1154.10 0.1282
1154.20 0.1281
1154.30 0.1281
1154.40 0.1281
1154.50 0.128
1154.60 0.128
1154.70 0.128
1154.80 0.1279
1154.90 0.1279
1155.00 0.1279
1155.10 0.1279
1155.20 0.1278
1155.30 0.1278
1155.40 0.1278
1155.50 0.1277
1155.60 0.1277
1155.70 0.1277
1155.80 0.1276
1155.90 0.1276
1156.00 0.1276
1156.10 0.1275
1156.20 0.1275
1156.30 0.1275
1156.40 0.1274
1156.50 0.1274
1156.60 0.1274
1156.70 0.1273
1156.80 0.1273
1156.90 0.1273
1157.00 0.1272
1157.10 0.1272
1157.20 0.1272
1157.30 0.1271
1157.40 0.1271
1157.50 0.1271
1157.60 0.127
1157.70 0.127
1157.80 0.127
1157.90 0.127
1158.00 0.1269
1158.10 0.1269
1158.20 0.1269
1158.30 0.1268
1158.40 0.1268
1158.50 0.1268
1158.60 0.1267
1158.70 0.1267
1158.80 0.1267
1158.90 0.1266
1159.00 0.1266
1159.10 0.1266
1159.20 0.1265
1159.30 0.1265
1159.40 0.1265
1159.50 0.1264
1159.60 0.1264
1159.70 0.1264
1159.80 0.1263
1159.90 0.1263
1160.00 0.1263
1160.10 0.1262
1160.20 0.1262
1160.30 0.1262
1160.40 0.1262
1160.50 0.1261
1160.60 0.1261
1160.70 0.1261
1160.80 0.126
1160.90 0.126
1161.00 0.126
1161.10 0.1259
1161.20 0.1259
1161.30 0.1259
1161.40 0.1258
1161.50 0.1258
1161.60 0.1258
1161.70 0.1257
1161.80 0.1257
1161.90 0.1257
1162.00 0.1256
1162.10 0.1256
1162.20 0.1256
1162.30 0.1255
1162.40 0.1255
1162.50 0.1255
1162.60 0.1255
1162.70 0.1254
1162.80 0.1254
1162.90 0.1254
1163.00 0.1253
1163.10 0.1253
1163.20 0.1253
1163.30 0.1252
1163.40 0.1252
1163.50 0.1252
1163.60 0.1251
1163.70 0.1251
1163.80 0.1251
1163.90 0.125
1164.00 0.125
1164.10 0.125
1164.20 0.125
1164.30 0.1249
1164.40 0.1249
1164.50 0.1249
1164.60 0.1248
1164.70 0.1248
1164.80 0.1248
1164.90 0.1247
1165.00 0.1247
1165.10 0.1247
1165.20 0.1246
1165.30 0.1246
1165.40 0.1246
1165.50 0.1245
1165.60 0.1245
1165.70 0.1245
1165.80 0.1244
1165.90 0.1244
1166.00 0.1244
1166.10 0.1244
1166.20 0.1243
1166.30 0.1243
1166.40 0.1243
1166.50 0.1242
1166.60 0.1242
1166.70 0.1242
1166.80 0.1241
1166.90 0.1241
1167.00 0.1241
1167.10 0.124
1167.20 0.124
1167.30 0.124
1167.40 0.124
1167.50 0.1239
1167.60 0.1239
1167.70 0.1239
1167.80 0.1238
1167.90 0.1238
1168.00 0.1238
1168.10 0.1237
1168.20 0.1237
1168.30 0.1237
1168.40 0.1236
1168.50 0.1236
1168.60 0.1236
1168.70 0.1235
1168.80 0.1235
1168.90 0.1235
1169.00 0.1235
1169.10 0.1234
1169.20 0.1234
1169.30 0.1234
1169.40 0.1233
1169.50 0.1233
1169.60 0.1233
1169.70 0.1232
1169.80 0.1232
1169.90 0.1232
1170.00 0.1231
1170.10 0.1231
1170.20 0.1231
1170.30 0.1231
1170.40 0.123
1170.50 0.123
1170.60 0.123
1170.70 0.1229
1170.80 0.1229
1170.90 0.1229
1171.00 0.1228
1171.10 0.1228
1171.20 0.1228
1171.30 0.1227
1171.40 0.1227
1171.50 0.1227
1171.60 0.1227
1171.70 0.1226
1171.80 0.1226
1171.90 0.1226
1172.00 0.1225
1172.10 0.1225
1172.20 0.1225
1172.30 0.1224
1172.40 0.1224
1172.50 0.1224
1172.60 0.1223
1172.70 0.1223
1172.80 0.1223
1172.90 0.1223
1173.00 0.1222
1173.10 0.1222
1173.20 0.1222
1173.30 0.1221
1173.40 0.1221
1173.50 0.1221
1173.60 0.122
1173.70 0.122
1173.80 0.122
1173.90 0.1219
1174.00 0.1219
1174.10 0.1219
1174.20 0.1219
1174.30 0.1218
1174.40 0.1218
1174.50 0.1218
1174.60 0.1217
1174.70 0.1217
1174.80 0.1217
1174.90 0.1216
1175.00 0.1216
1175.10 0.1216
1175.20 0.1215
1175.30 0.1215
1175.40 0.1215
1175.50 0.1215
1175.60 0.1214
1175.70 0.1214
1175.80 0.1214
1175.90 0.1213
1176.00 0.1213
1176.10 0.1213
1176.20 0.1212
1176.30 0.1212
1176.40 0.1212
1176.50 0.1212
1176.60 0.1211
1176.70 0.1211
1176.80 0.1211
1176.90 0.121
1177.00 0.121
1177.10 0.121
1177.20 0.1209
1177.30 0.1209
1177.40 0.1209
1177.50 0.1208
1177.60 0.1208
1177.70 0.1208
1177.80 0.1208
1177.90 0.1207
1178.00 0.1207
1178.10 0.1207
1178.20 0.1206
1178.30 0.1206
1178.40 0.1206
1178.50 0.1205
1178.60 0.1205
1178.70 0.1205
1178.80 0.1205
1178.90 0.1204
1179.00 0.1204
1179.10 0.1204
1179.20 0.1203
1179.30 0.1203
1179.40 0.1203
1179.50 0.1202
1179.60 0.1202
1179.70 0.1202
1179.80 0.1202
1179.90 0.1201
1180.00 0.1201
1180.10 0.1201
1180.20 0.12
1180.30 0.12
1180.40 0.12
1180.50 0.12
1180.60 0.1199
1180.70 0.1199
1180.80 0.1199
1180.90 0.1198
1181.00 0.1198
1181.10 0.1198
1181.20 0.1197
1181.30 0.1197
1181.40 0.1197
1181.50 0.1197
1181.60 0.1196
1181.70 0.1196
1181.80 0.1196
1181.90 0.1195
1182.00 0.1195
1182.10 0.1195
1182.20 0.1194
1182.30 0.1194
1182.40 0.1194
1182.50 0.1194
1182.60 0.1193
1182.70 0.1193
1182.80 0.1193
1182.90 0.1192
1183.00 0.1192
1183.10 0.1192
1183.20 0.1191
1183.30 0.1191
1183.40 0.1191
1183.50 0.1191
1183.60 0.119
1183.70 0.119
1183.80 0.119
1183.90 0.1189
1184.00 0.1189
1184.10 0.1189
1184.20 0.1188
1184.30 0.1188
1184.40 0.1188
1184.50 0.1188
1184.60 0.1187
1184.70 0.1187
1184.80 0.1187
1184.90 0.1186
1185.00 0.1186
1185.10 0.1186
1185.20 0.1186
1185.30 0.1185
1185.40 0.1185
1185.50 0.1185
1185.60 0.1184
1185.70 0.1184
1185.80 0.1184
1185.90 0.1183
1186.00 0.1183
1186.10 0.1183
1186.20 0.1183
1186.30 0.1182
1186.40 0.1182
1186.50 0.1182
1186.60 0.1181
1186.70 0.1181
1186.80 0.1181
1186.90 0.1181
1187.00 0.118
1187.10 0.118
1187.20 0.118
1187.30 0.1179
1187.40 0.1179
1187.50 0.1179
1187.60 0.1178
1187.70 0.1178
1187.80 0.1178
1187.90 0.1178
1188.00 0.1177
1188.10 0.1177
1188.20 0.1177
1188.30 0.1176
1188.40 0.1176
1188.50 0.1176
1188.60 0.1176
1188.70 0.1175
1188.80 0.1175
1188.90 0.1175
1189.00 0.1174
1189.10 0.1174
1189.20 0.1174
1189.30 0.1174
1189.40 0.1173
1189.50 0.1173
1189.60 0.1173
1189.70 0.1172
1189.80 0.1172
1189.90 0.1172
1190.00 0.1171
1190.10 0.1171
1190.20 0.1171
1190.30 0.1171
1190.40 0.117
1190.50 0.117
1190.60 0.117
1190.70 0.1169
1190.80 0.1169
1190.90 0.1169
1191.00 0.1169
1191.10 0.1168
1191.20 0.1168
1191.30 0.1168
1191.40 0.1167
1191.50 0.1167
1191.60 0.1167
1191.70 0.1167
1191.80 0.1166
1191.90 0.1166
1192.00 0.1166
1192.10 0.1165
1192.20 0.1165
1192.30 0.1165
1192.40 0.1165
1192.50 0.1164
1192.60 0.1164
1192.70 0.1164
1192.80 0.1163
1192.90 0.1163
1193.00 0.1163
1193.10 0.1163
1193.20 0.1162
1193.30 0.1162
1193.40 0.1162
1193.50 0.1161
1193.60 0.1161
1193.70 0.1161
1193.80 0.116
1193.90 0.116
1194.00 0.116
1194.10 0.116
1194.20 0.1159
1194.30 0.1159
1194.40 0.1159
1194.50 0.1158
1194.60 0.1158
1194.70 0.1158
1194.80 0.1158
1194.90 0.1157
1195.00 0.1157
1195.10 0.1157
1195.20 0.1156
1195.30 0.1156
1195.40 0.1156
1195.50 0.1156
1195.60 0.1155
1195.70 0.1155
1195.80 0.1155
1195.90 0.1154
1196.00 0.1154
1196.10 0.1154
1196.20 0.1154
1196.30 0.1153
1196.40 0.1153
1196.50 0.1153
1196.60 0.1152
1196.70 0.1152
1196.80 0.1152
1196.90 0.1152
1197.00 0.1151
1197.10 0.1151
1197.20 0.1151
1197.30 0.115
1197.40 0.115
1197.50 0.115
1197.60 0.115
1197.70 0.1149
1197.80 0.1149
1197.90 0.1149
1198.00 0.1148
1198.10 0.1148
1198.20 0.1148
1198.30 0.1148
1198.40 0.1147
1198.50 0.1147
1198.60 0.1147
1198.70 0.1147
1198.80 0.1146
1198.90 0.1146
1199.00 0.1146
1199.10 0.1145
1199.20 0.1145
1199.30 0.1145
1199.40 0.1145
1199.50 0.1144
1199.60 0.1144
1199.70 0.1144
1199.80 0.1143
1199.90 0.1143
1200.00 0
