# Version 2.1 - nm, norm@500 to 1, cut digits, bergeron_14500_85.dat_14500
# Wavelength(nm)  Flambda(ergs/cm^s/s/nm)
300.00 2.339
300.10 2.338
300.20 2.336
300.30 2.334
300.40 2.332
300.50 2.33
300.60 2.329
300.70 2.327
300.80 2.325
300.90 2.323
301.00 2.322
301.10 2.32
301.20 2.318
301.30 2.316
301.40 2.314
301.50 2.313
301.60 2.311
301.70 2.309
301.80 2.307
301.90 2.306
302.00 2.304
302.10 2.302
302.20 2.3
302.30 2.299
302.40 2.297
302.50 2.295
302.60 2.293
302.70 2.292
302.80 2.29
302.90 2.288
303.00 2.286
303.10 2.285
303.20 2.283
303.30 2.281
303.40 2.279
303.50 2.278
303.60 2.276
303.70 2.274
303.80 2.273
303.90 2.271
304.00 2.269
304.10 2.267
304.20 2.266
304.30 2.264
304.40 2.262
304.50 2.261
304.60 2.259
304.70 2.257
304.80 2.255
304.90 2.254
305.00 2.252
305.10 2.25
305.20 2.249
305.30 2.247
305.40 2.245
305.50 2.244
305.60 2.242
305.70 2.24
305.80 2.238
305.90 2.237
306.00 2.235
306.10 2.233
306.20 2.232
306.30 2.23
306.40 2.228
306.50 2.227
306.60 2.225
306.70 2.223
306.80 2.222
306.90 2.22
307.00 2.218
307.10 2.217
307.20 2.215
307.30 2.213
307.40 2.212
307.50 2.21
307.60 2.208
307.70 2.207
307.80 2.205
307.90 2.203
308.00 2.202
308.10 2.2
308.20 2.198
308.30 2.197
308.40 2.195
308.50 2.193
308.60 2.192
308.70 2.19
308.80 2.189
308.90 2.187
309.00 2.185
309.10 2.184
309.20 2.182
309.30 2.18
309.40 2.179
309.50 2.177
309.60 2.175
309.70 2.174
309.80 2.172
309.90 2.171
310.00 2.169
310.10 2.167
310.20 2.166
310.30 2.164
310.40 2.162
310.50 2.161
310.60 2.159
310.70 2.158
310.80 2.156
310.90 2.154
311.00 2.153
311.10 2.151
311.20 2.15
311.30 2.148
311.40 2.146
311.50 2.145
311.60 2.143
311.70 2.142
311.80 2.14
311.90 2.138
312.00 2.137
312.10 2.135
312.20 2.134
312.30 2.132
312.40 2.131
312.50 2.129
312.60 2.127
312.70 2.126
312.80 2.124
312.90 2.123
313.00 2.121
313.10 2.12
313.20 2.118
313.30 2.116
313.40 2.115
313.50 2.113
313.60 2.112
313.70 2.11
313.80 2.109
313.90 2.107
314.00 2.105
314.10 2.104
314.20 2.102
314.30 2.101
314.40 2.099
314.50 2.098
314.60 2.096
314.70 2.095
314.80 2.093
314.90 2.091
315.00 2.09
315.10 2.088
315.20 2.087
315.30 2.085
315.40 2.084
315.50 2.082
315.60 2.081
315.70 2.079
315.80 2.078
315.90 2.076
316.00 2.075
316.10 2.073
316.20 2.072
316.30 2.07
316.40 2.068
316.50 2.067
316.60 2.065
316.70 2.064
316.80 2.062
316.90 2.061
317.00 2.059
317.10 2.058
317.20 2.056
317.30 2.055
317.40 2.053
317.50 2.052
317.60 2.05
317.70 2.049
317.80 2.047
317.90 2.046
318.00 2.044
318.10 2.043
318.20 2.041
318.30 2.04
318.40 2.038
318.50 2.037
318.60 2.035
318.70 2.034
318.80 2.032
318.90 2.031
319.00 2.029
319.10 2.028
319.20 2.026
319.30 2.025
319.40 2.024
319.50 2.022
319.60 2.021
319.70 2.019
319.80 2.018
319.90 2.016
320.00 2.015
320.10 2.013
320.20 2.012
320.30 2.01
320.40 2.009
320.50 2.007
320.60 2.006
320.70 2.004
320.80 2.003
320.90 2.001
321.00 2
321.10 1.999
321.20 1.997
321.30 1.996
321.40 1.994
321.50 1.993
321.60 1.991
321.70 1.99
321.80 1.988
321.90 1.987
322.00 1.986
322.10 1.984
322.20 1.983
322.30 1.981
322.40 1.98
322.50 1.978
322.60 1.977
322.70 1.975
322.80 1.974
322.90 1.973
323.00 1.971
323.10 1.97
323.20 1.968
323.30 1.967
323.40 1.965
323.50 1.964
323.60 1.963
323.70 1.961
323.80 1.96
323.90 1.958
324.00 1.957
324.10 1.956
324.20 1.954
324.30 1.953
324.40 1.951
324.50 1.95
324.60 1.949
324.70 1.947
324.80 1.946
324.90 1.944
325.00 1.943
325.10 1.942
325.20 1.94
325.30 1.939
325.40 1.937
325.50 1.936
325.60 1.935
325.70 1.933
325.80 1.932
325.90 1.93
326.00 1.929
326.10 1.928
326.20 1.926
326.30 1.925
326.40 1.923
326.50 1.922
326.60 1.921
326.70 1.919
326.80 1.918
326.90 1.917
327.00 1.915
327.10 1.914
327.20 1.912
327.30 1.911
327.40 1.91
327.50 1.908
327.60 1.907
327.70 1.906
327.80 1.904
327.90 1.903
328.00 1.901
328.10 1.9
328.20 1.899
328.30 1.897
328.40 1.896
328.50 1.895
328.60 1.893
328.70 1.892
328.80 1.891
328.90 1.889
329.00 1.888
329.10 1.887
329.20 1.885
329.30 1.884
329.40 1.883
329.50 1.881
329.60 1.88
329.70 1.878
329.80 1.877
329.90 1.876
330.00 1.874
330.10 1.873
330.20 1.872
330.30 1.87
330.40 1.869
330.50 1.868
330.60 1.866
330.70 1.865
330.80 1.864
330.90 1.862
331.00 1.861
331.10 1.86
331.20 1.859
331.30 1.857
331.40 1.856
331.50 1.855
331.60 1.853
331.70 1.852
331.80 1.851
331.90 1.849
332.00 1.848
332.10 1.847
332.20 1.845
332.30 1.844
332.40 1.843
332.50 1.841
332.60 1.84
332.70 1.839
332.80 1.838
332.90 1.836
333.00 1.835
333.10 1.834
333.20 1.832
333.30 1.831
333.40 1.83
333.50 1.828
333.60 1.827
333.70 1.826
333.80 1.825
333.90 1.823
334.00 1.822
334.10 1.821
334.20 1.819
334.30 1.818
334.40 1.817
334.50 1.816
334.60 1.814
334.70 1.813
334.80 1.812
334.90 1.81
335.00 1.809
335.10 1.808
335.20 1.807
335.30 1.805
335.40 1.804
335.50 1.803
335.60 1.802
335.70 1.8
335.80 1.799
335.90 1.798
336.00 1.796
336.10 1.795
336.20 1.794
336.30 1.793
336.40 1.791
336.50 1.79
336.60 1.789
336.70 1.788
336.80 1.786
336.90 1.785
337.00 1.784
337.10 1.783
337.20 1.781
337.30 1.78
337.40 1.779
337.50 1.778
337.60 1.776
337.70 1.775
337.80 1.774
337.90 1.773
338.00 1.771
338.10 1.77
338.20 1.769
338.30 1.768
338.40 1.766
338.50 1.765
338.60 1.764
338.70 1.763
338.80 1.761
338.90 1.76
339.00 1.759
339.10 1.758
339.20 1.757
339.30 1.755
339.40 1.754
339.50 1.753
339.60 1.752
339.70 1.75
339.80 1.749
339.90 1.748
340.00 1.747
340.10 1.746
340.20 1.744
340.30 1.743
340.40 1.742
340.50 1.741
340.60 1.739
340.70 1.738
340.80 1.737
340.90 1.736
341.00 1.735
341.10 1.733
341.20 1.732
341.30 1.731
341.40 1.73
341.50 1.729
341.60 1.727
341.70 1.726
341.80 1.725
341.90 1.724
342.00 1.723
342.10 1.721
342.20 1.72
342.30 1.719
342.40 1.718
342.50 1.717
342.60 1.715
342.70 1.714
342.80 1.713
342.90 1.712
343.00 1.711
343.10 1.709
343.20 1.708
343.30 1.707
343.40 1.706
343.50 1.705
343.60 1.704
343.70 1.702
343.80 1.701
343.90 1.7
344.00 1.699
344.10 1.698
344.20 1.696
344.30 1.695
344.40 1.694
344.50 1.693
344.60 1.692
344.70 1.691
344.80 1.689
344.90 1.688
345.00 1.687
345.10 1.686
345.20 1.685
345.30 1.684
345.40 1.682
345.50 1.681
345.60 1.68
345.70 1.679
345.80 1.678
345.90 1.677
346.00 1.676
346.10 1.674
346.20 1.673
346.30 1.672
346.40 1.671
346.50 1.67
346.60 1.669
346.70 1.667
346.80 1.666
346.90 1.665
347.00 1.664
347.10 1.663
347.20 1.662
347.30 1.661
347.40 1.659
347.50 1.658
347.60 1.657
347.70 1.656
347.80 1.655
347.90 1.654
348.00 1.653
348.10 1.651
348.20 1.65
348.30 1.649
348.40 1.648
348.50 1.647
348.60 1.646
348.70 1.645
348.80 1.644
348.90 1.642
349.00 1.641
349.10 1.64
349.20 1.639
349.30 1.638
349.40 1.637
349.50 1.636
349.60 1.635
349.70 1.633
349.80 1.632
349.90 1.631
350.00 1.63
350.10 1.629
350.20 1.628
350.30 1.627
350.40 1.626
350.50 1.625
350.60 1.623
350.70 1.622
350.80 1.621
350.90 1.62
351.00 1.619
351.10 1.618
351.20 1.617
351.30 1.616
351.40 1.615
351.50 1.613
351.60 1.612
351.70 1.611
351.80 1.61
351.90 1.609
352.00 1.608
352.10 1.607
352.20 1.606
352.30 1.605
352.40 1.604
352.50 1.602
352.60 1.601
352.70 1.6
352.80 1.599
352.90 1.598
353.00 1.597
353.10 1.596
353.20 1.595
353.30 1.594
353.40 1.593
353.50 1.592
353.60 1.591
353.70 1.589
353.80 1.588
353.90 1.587
354.00 1.586
354.10 1.585
354.20 1.584
354.30 1.583
354.40 1.582
354.50 1.581
354.60 1.58
354.70 1.579
354.80 1.578
354.90 1.577
355.00 1.575
355.10 1.574
355.20 1.573
355.30 1.572
355.40 1.571
355.50 1.57
355.60 1.569
355.70 1.568
355.80 1.567
355.90 1.566
356.00 1.565
356.10 1.564
356.20 1.563
356.30 1.562
356.40 1.561
356.50 1.56
356.60 1.559
356.70 1.557
356.80 1.556
356.90 1.555
357.00 1.554
357.10 1.553
357.20 1.552
357.30 1.551
357.40 1.55
357.50 1.549
357.60 1.548
357.70 1.547
357.80 1.546
357.90 1.545
358.00 1.544
358.10 1.543
358.20 1.542
358.30 1.541
358.40 1.54
358.50 1.539
358.60 1.538
358.70 1.537
358.80 1.536
358.90 1.535
359.00 1.534
359.10 1.532
359.20 1.531
359.30 1.53
359.40 1.529
359.50 1.528
359.60 1.527
359.70 1.526
359.80 1.525
359.90 1.524
360.00 1.523
360.10 1.522
360.20 1.521
360.30 1.52
360.40 1.519
360.50 1.518
360.60 1.517
360.70 1.516
360.80 1.515
360.90 1.514
361.00 1.513
361.10 1.512
361.20 1.511
361.30 1.51
361.40 1.509
361.50 1.508
361.60 1.507
361.70 1.506
361.80 1.505
361.90 1.504
362.00 1.503
362.10 1.502
362.20 1.501
362.30 1.5
362.40 1.499
362.50 1.498
362.60 1.497
362.70 1.496
362.80 1.495
362.90 1.494
363.00 1.493
363.10 1.492
363.20 1.491
363.30 1.49
363.40 1.488
363.50 1.487
363.60 1.486
363.70 1.485
363.80 1.484
363.90 1.483
364.00 1.482
364.10 1.481
364.20 1.479
364.30 1.478
364.40 1.477
364.50 1.476
364.60 1.475
364.70 1.474
364.80 1.473
364.90 1.471
365.00 1.47
365.10 1.469
365.20 1.468
365.30 1.467
365.40 1.466
365.50 1.464
365.60 1.463
365.70 1.462
365.80 1.461
365.90 1.46
366.00 1.459
366.10 1.458
366.20 1.457
366.30 1.456
366.40 1.455
366.50 1.454
366.60 1.453
366.70 1.452
366.80 1.451
366.90 1.45
367.00 1.448
367.10 1.447
367.20 1.446
367.30 1.445
367.40 1.444
367.50 1.443
367.60 1.442
367.70 1.441
367.80 1.44
367.90 1.439
368.00 1.438
368.10 1.437
368.20 1.436
368.30 1.435
368.40 1.435
368.50 1.434
368.60 1.433
368.70 1.432
368.80 1.431
368.90 1.43
369.00 1.429
369.10 1.428
369.20 1.427
369.30 1.426
369.40 1.425
369.50 1.424
369.60 1.423
369.70 1.422
369.80 1.421
369.90 1.42
370.00 1.419
370.10 1.418
370.20 1.418
370.30 1.417
370.40 1.416
370.50 1.415
370.60 1.415
370.70 1.414
370.80 1.413
370.90 1.413
371.00 1.412
371.10 1.411
371.20 1.41
371.30 1.41
371.40 1.409
371.50 1.408
371.60 1.407
371.70 1.407
371.80 1.406
371.90 1.405
372.00 1.404
372.10 1.404
372.20 1.404
372.30 1.403
372.40 1.403
372.50 1.403
372.60 1.402
372.70 1.402
372.80 1.402
372.90 1.402
373.00 1.401
373.10 1.401
373.20 1.401
373.30 1.4
373.40 1.4
373.50 1.4
373.60 1.399
373.70 1.399
373.80 1.399
373.90 1.398
374.00 1.398
374.10 1.398
374.20 1.398
374.30 1.398
374.40 1.398
374.50 1.398
374.60 1.398
374.70 1.398
374.80 1.398
374.90 1.398
375.00 1.398
375.10 1.398
375.20 1.398
375.30 1.398
375.40 1.398
375.50 1.398
375.60 1.398
375.70 1.398
375.80 1.398
375.90 1.398
376.00 1.398
376.10 1.397
376.20 1.397
376.30 1.397
376.40 1.397
376.50 1.397
376.60 1.397
376.70 1.397
376.80 1.396
376.90 1.396
377.00 1.396
377.10 1.395
377.20 1.394
377.30 1.394
377.40 1.393
377.50 1.392
377.60 1.391
377.70 1.391
377.80 1.39
377.90 1.389
378.00 1.388
378.10 1.385
378.20 1.383
378.30 1.38
378.40 1.377
378.50 1.374
378.60 1.371
378.70 1.369
378.80 1.366
378.90 1.363
379.00 1.36
379.10 1.358
379.20 1.357
379.30 1.355
379.40 1.353
379.50 1.351
379.60 1.349
379.70 1.347
379.80 1.345
379.90 1.343
380.00 1.342
380.10 1.344
380.20 1.346
380.30 1.348
380.40 1.351
380.50 1.353
380.60 1.355
380.70 1.357
380.80 1.36
380.90 1.362
381.00 1.364
381.10 1.364
381.20 1.365
381.30 1.365
381.40 1.366
381.50 1.366
381.60 1.366
381.70 1.364
381.80 1.363
381.90 1.36
382.00 1.358
382.10 1.354
382.20 1.351
382.30 1.344
382.40 1.337
382.50 1.33
382.60 1.323
382.70 1.316
382.80 1.31
382.90 1.303
383.00 1.296
383.10 1.289
383.20 1.282
383.30 1.278
383.40 1.273
383.50 1.267
383.60 1.268
383.70 1.274
383.80 1.279
383.90 1.284
384.00 1.29
384.10 1.299
384.20 1.307
384.30 1.316
384.40 1.324
384.50 1.332
384.60 1.339
384.70 1.345
384.80 1.35
384.90 1.354
385.00 1.358
385.10 1.361
385.20 1.364
385.30 1.366
385.40 1.367
385.50 1.368
385.60 1.369
385.70 1.369
385.80 1.369
385.90 1.368
386.00 1.367
386.10 1.365
386.20 1.363
386.30 1.361
386.40 1.358
386.50 1.354
386.60 1.351
386.70 1.346
386.80 1.342
386.90 1.337
387.00 1.331
387.10 1.325
387.20 1.319
387.30 1.312
387.40 1.304
387.50 1.296
387.60 1.287
387.70 1.277
387.80 1.266
387.90 1.255
388.00 1.242
388.10 1.228
388.20 1.212
388.30 1.196
388.40 1.178
388.50 1.162
388.60 1.147
388.70 1.137
388.80 1.129
388.90 1.122
389.00 1.128
389.10 1.137
389.20 1.146
389.30 1.161
389.40 1.177
389.50 1.195
389.60 1.212
389.70 1.228
389.80 1.243
389.90 1.257
390.00 1.269
390.10 1.281
390.20 1.291
390.30 1.301
390.40 1.311
390.50 1.319
390.60 1.328
390.70 1.335
390.80 1.343
390.90 1.349
391.00 1.356
391.10 1.362
391.20 1.367
391.30 1.373
391.40 1.377
391.50 1.382
391.60 1.386
391.70 1.39
391.80 1.393
391.90 1.396
392.00 1.398
392.10 1.4
392.20 1.401
392.30 1.402
392.40 1.402
392.50 1.403
392.60 1.402
392.70 1.401
392.80 1.4
392.90 1.398
393.00 1.396
393.10 1.393
393.20 1.39
393.30 1.386
393.40 1.382
393.50 1.377
393.60 1.372
393.70 1.366
393.80 1.36
393.90 1.353
394.00 1.346
394.10 1.338
394.20 1.33
394.30 1.322
394.40 1.312
394.50 1.303
394.60 1.293
394.70 1.282
394.80 1.271
394.90 1.26
395.00 1.248
395.10 1.236
395.20 1.223
395.30 1.21
395.40 1.196
395.50 1.182
395.60 1.167
395.70 1.152
395.80 1.137
395.90 1.12
396.00 1.103
396.10 1.086
396.20 1.066
396.30 1.045
396.40 1.023
396.50 0.9962
396.60 0.969
396.70 0.9411
396.80 0.9204
396.90 0.8995
397.00 0.8785
397.10 0.8975
397.20 0.9166
397.30 0.9358
397.40 0.9628
397.50 0.9895
397.60 1.016
397.70 1.038
397.80 1.059
397.90 1.078
398.00 1.095
398.10 1.112
398.20 1.128
398.30 1.143
398.40 1.158
398.50 1.173
398.60 1.187
398.70 1.201
398.80 1.214
398.90 1.227
399.00 1.24
399.10 1.252
399.20 1.264
399.30 1.276
399.40 1.288
399.50 1.299
399.60 1.31
399.70 1.32
399.80 1.331
399.90 1.34
400.00 1.35
400.10 1.359
400.20 1.368
400.30 1.377
400.40 1.385
400.50 1.393
400.60 1.4
400.70 1.407
400.80 1.414
400.90 1.421
401.00 1.427
401.10 1.433
401.20 1.439
401.30 1.444
401.40 1.449
401.50 1.454
401.60 1.458
401.70 1.462
401.80 1.466
401.90 1.47
402.00 1.473
402.10 1.476
402.20 1.479
402.30 1.481
402.40 1.483
402.50 1.485
402.60 1.486
402.70 1.488
402.80 1.489
402.90 1.489
403.00 1.49
403.10 1.49
403.20 1.489
403.30 1.489
403.40 1.488
403.50 1.487
403.60 1.486
403.70 1.484
403.80 1.482
403.90 1.48
404.00 1.477
404.10 1.474
404.20 1.471
404.30 1.468
404.40 1.464
404.50 1.46
404.60 1.455
404.70 1.451
404.80 1.446
404.90 1.441
405.00 1.435
405.10 1.429
405.20 1.423
405.30 1.417
405.40 1.41
405.50 1.403
405.60 1.396
405.70 1.388
405.80 1.38
405.90 1.372
406.00 1.364
406.10 1.355
406.20 1.346
406.30 1.336
406.40 1.326
406.50 1.316
406.60 1.306
406.70 1.295
406.80 1.284
406.90 1.273
407.00 1.262
407.10 1.25
407.20 1.238
407.30 1.225
407.40 1.212
407.50 1.199
407.60 1.185
407.70 1.171
407.80 1.157
407.90 1.143
408.00 1.128
408.10 1.113
408.20 1.098
408.30 1.083
408.40 1.067
408.50 1.051
408.60 1.034
408.70 1.018
408.80 1.001
408.90 0.9835
409.00 0.9661
409.10 0.9485
409.20 0.9306
409.30 0.9125
409.40 0.8931
409.50 0.8723
409.60 0.8502
409.70 0.8243
409.80 0.7968
409.90 0.7677
410.00 0.7403
410.10 0.7186
410.20 0.7027
410.30 0.7275
410.40 0.7537
410.50 0.7815
410.60 0.8091
410.70 0.8347
410.80 0.8584
410.90 0.8785
411.00 0.8974
411.10 0.9153
411.20 0.9322
411.30 0.949
411.40 0.9655
411.50 0.9817
411.60 0.9977
411.70 1.014
411.80 1.029
411.90 1.044
412.00 1.059
412.10 1.073
412.20 1.088
412.30 1.102
412.40 1.115
412.50 1.129
412.60 1.142
412.70 1.155
412.80 1.167
412.90 1.18
413.00 1.192
413.10 1.203
413.20 1.215
413.30 1.226
413.40 1.237
413.50 1.248
413.60 1.258
413.70 1.268
413.80 1.278
413.90 1.288
414.00 1.297
414.10 1.306
414.20 1.315
414.30 1.324
414.40 1.332
414.50 1.341
414.60 1.349
414.70 1.357
414.80 1.364
414.90 1.372
415.00 1.379
415.10 1.386
415.20 1.393
415.30 1.4
415.40 1.407
415.50 1.413
415.60 1.419
415.70 1.425
415.80 1.431
415.90 1.437
416.00 1.443
416.10 1.448
416.20 1.453
416.30 1.458
416.40 1.463
416.50 1.468
416.60 1.473
416.70 1.477
416.80 1.482
416.90 1.486
417.00 1.49
417.10 1.494
417.20 1.498
417.30 1.502
417.40 1.505
417.50 1.509
417.60 1.512
417.70 1.515
417.80 1.518
417.90 1.521
418.00 1.524
418.10 1.526
418.20 1.529
418.30 1.532
418.40 1.534
418.50 1.536
418.60 1.538
418.70 1.54
418.80 1.542
418.90 1.544
419.00 1.546
419.10 1.547
419.20 1.549
419.30 1.55
419.40 1.551
419.50 1.553
419.60 1.554
419.70 1.555
419.80 1.556
419.90 1.557
420.00 1.557
420.10 1.558
420.20 1.558
420.30 1.559
420.40 1.559
420.50 1.56
420.60 1.56
420.70 1.56
420.80 1.56
420.90 1.56
421.00 1.56
421.10 1.559
421.20 1.559
421.30 1.559
421.40 1.558
421.50 1.558
421.60 1.557
421.70 1.556
421.80 1.555
421.90 1.555
422.00 1.554
422.10 1.552
422.20 1.551
422.30 1.55
422.40 1.549
422.50 1.547
422.60 1.546
422.70 1.544
422.80 1.543
422.90 1.541
423.00 1.539
423.10 1.537
423.20 1.535
423.30 1.533
423.40 1.531
423.50 1.529
423.60 1.526
423.70 1.524
423.80 1.522
423.90 1.519
424.00 1.517
424.10 1.514
424.20 1.511
424.30 1.508
424.40 1.505
424.50 1.502
424.60 1.499
424.70 1.496
424.80 1.492
424.90 1.489
425.00 1.485
425.10 1.482
425.20 1.478
425.30 1.474
425.40 1.47
425.50 1.466
425.60 1.462
425.70 1.458
425.80 1.454
425.90 1.449
426.00 1.445
426.10 1.44
426.20 1.435
426.30 1.429
426.40 1.425
426.50 1.419
426.60 1.414
426.70 1.409
426.80 1.404
426.90 1.399
427.00 1.393
427.10 1.387
427.20 1.382
427.30 1.376
427.40 1.37
427.50 1.364
427.60 1.358
427.70 1.351
427.80 1.345
427.90 1.338
428.00 1.332
428.10 1.325
428.20 1.318
428.30 1.311
428.40 1.304
428.50 1.296
428.60 1.289
428.70 1.282
428.80 1.274
428.90 1.266
429.00 1.258
429.10 1.25
429.20 1.242
429.30 1.233
429.40 1.225
429.50 1.216
429.60 1.208
429.70 1.199
429.80 1.189
429.90 1.18
430.00 1.171
430.10 1.161
430.20 1.152
430.30 1.142
430.40 1.132
430.50 1.122
430.60 1.111
430.70 1.101
430.80 1.09
430.90 1.079
431.00 1.068
431.10 1.057
431.20 1.045
431.30 1.034
431.40 1.022
431.50 1.01
431.60 0.9975
431.70 0.9851
431.80 0.9725
431.90 0.9595
432.00 0.9463
432.10 0.933
432.20 0.9191
432.30 0.905
432.40 0.8907
432.50 0.8756
432.60 0.8602
432.70 0.8445
432.80 0.8284
432.90 0.8123
433.00 0.7962
433.10 0.7806
433.20 0.7651
433.30 0.7498
433.40 0.7334
433.50 0.7158
433.60 0.6967
433.70 0.6716
433.80 0.6426
433.90 0.6096
434.00 0.5622
434.10 0.563
434.20 0.6118
434.30 0.6438
434.40 0.6718
434.50 0.6959
434.60 0.714
434.70 0.7308
434.80 0.7463
434.90 0.7609
435.00 0.7756
435.10 0.7903
435.20 0.8055
435.30 0.8206
435.40 0.8358
435.50 0.8505
435.60 0.8648
435.70 0.8787
435.80 0.8919
435.90 0.9048
436.00 0.9175
436.10 0.9296
436.20 0.9415
436.30 0.9533
436.40 0.9646
436.50 0.9757
436.60 0.9867
436.70 0.9973
436.80 1.008
436.90 1.018
437.00 1.028
437.10 1.038
437.20 1.047
437.30 1.057
437.40 1.066
437.50 1.075
437.60 1.084
437.70 1.092
437.80 1.101
437.90 1.109
438.00 1.117
438.10 1.125
438.20 1.133
438.30 1.141
438.40 1.148
438.50 1.155
438.60 1.163
438.70 1.17
438.80 1.176
438.90 1.183
439.00 1.19
439.10 1.196
439.20 1.202
439.30 1.208
439.40 1.214
439.50 1.22
439.60 1.226
439.70 1.232
439.80 1.237
439.90 1.242
440.00 1.248
440.10 1.253
440.20 1.258
440.30 1.263
440.40 1.267
440.50 1.272
440.60 1.277
440.70 1.281
440.80 1.285
440.90 1.29
441.00 1.294
441.10 1.298
441.20 1.302
441.30 1.306
441.40 1.309
441.50 1.313
441.60 1.317
441.70 1.32
441.80 1.323
441.90 1.327
442.00 1.33
442.10 1.333
442.20 1.336
442.30 1.339
442.40 1.342
442.50 1.345
442.60 1.347
442.70 1.35
442.80 1.353
442.90 1.355
443.00 1.357
443.10 1.36
443.20 1.362
443.30 1.364
443.40 1.366
443.50 1.368
443.60 1.37
443.70 1.372
443.80 1.374
443.90 1.376
444.00 1.378
444.10 1.38
444.20 1.381
444.30 1.383
444.40 1.385
444.50 1.386
444.60 1.387
444.70 1.389
444.80 1.39
444.90 1.392
445.00 1.393
445.10 1.394
445.20 1.395
445.30 1.396
445.40 1.397
445.50 1.398
445.60 1.399
445.70 1.4
445.80 1.401
445.90 1.402
446.00 1.403
446.10 1.404
446.20 1.405
446.30 1.405
446.40 1.406
446.50 1.407
446.60 1.407
446.70 1.408
446.80 1.408
446.90 1.409
447.00 1.409
447.10 1.41
447.20 1.41
447.30 1.411
447.40 1.411
447.50 1.411
447.60 1.412
447.70 1.412
447.80 1.412
447.90 1.412
448.00 1.413
448.10 1.413
448.20 1.413
448.30 1.413
448.40 1.413
448.50 1.413
448.60 1.413
448.70 1.413
448.80 1.413
448.90 1.413
449.00 1.414
449.10 1.414
449.20 1.414
449.30 1.414
449.40 1.414
449.50 1.414
449.60 1.413
449.70 1.413
449.80 1.413
449.90 1.413
450.00 1.413
450.10 1.413
450.20 1.412
450.30 1.412
450.40 1.412
450.50 1.412
450.60 1.411
450.70 1.411
450.80 1.411
450.90 1.41
451.00 1.41
451.10 1.41
451.20 1.409
451.30 1.409
451.40 1.409
451.50 1.408
451.60 1.408
451.70 1.407
451.80 1.407
451.90 1.406
452.00 1.406
452.10 1.406
452.20 1.405
452.30 1.405
452.40 1.404
452.50 1.404
452.60 1.403
452.70 1.402
452.80 1.402
452.90 1.401
453.00 1.401
453.10 1.4
453.20 1.4
453.30 1.399
453.40 1.399
453.50 1.398
453.60 1.397
453.70 1.397
453.80 1.396
453.90 1.395
454.00 1.395
454.10 1.394
454.20 1.393
454.30 1.393
454.40 1.392
454.50 1.391
454.60 1.391
454.70 1.39
454.80 1.389
454.90 1.389
455.00 1.388
455.10 1.387
455.20 1.386
455.30 1.386
455.40 1.385
455.50 1.384
455.60 1.383
455.70 1.383
455.80 1.382
455.90 1.381
456.00 1.38
456.10 1.379
456.20 1.379
456.30 1.378
456.40 1.377
456.50 1.376
456.60 1.376
456.70 1.375
456.80 1.374
456.90 1.373
457.00 1.373
457.10 1.372
457.20 1.371
457.30 1.37
457.40 1.37
457.50 1.369
457.60 1.368
457.70 1.367
457.80 1.366
457.90 1.365
458.00 1.364
458.10 1.363
458.20 1.363
458.30 1.362
458.40 1.361
458.50 1.36
458.60 1.359
458.70 1.358
458.80 1.357
458.90 1.356
459.00 1.355
459.10 1.354
459.20 1.353
459.30 1.352
459.40 1.351
459.50 1.35
459.60 1.349
459.70 1.348
459.80 1.348
459.90 1.347
460.00 1.346
460.10 1.345
460.20 1.344
460.30 1.343
460.40 1.342
460.50 1.341
460.60 1.34
460.70 1.339
460.80 1.338
460.90 1.337
461.00 1.336
461.10 1.334
461.20 1.333
461.30 1.332
461.40 1.331
461.50 1.33
461.60 1.329
461.70 1.328
461.80 1.327
461.90 1.326
462.00 1.325
462.10 1.324
462.20 1.323
462.30 1.322
462.40 1.321
462.50 1.32
462.60 1.318
462.70 1.317
462.80 1.316
462.90 1.315
463.00 1.314
463.10 1.313
463.20 1.312
463.30 1.311
463.40 1.31
463.50 1.308
463.60 1.307
463.70 1.306
463.80 1.305
463.90 1.304
464.00 1.303
464.10 1.301
464.20 1.3
464.30 1.299
464.40 1.298
464.50 1.297
464.60 1.295
464.70 1.294
464.80 1.293
464.90 1.292
465.00 1.291
465.10 1.289
465.20 1.288
465.30 1.287
465.40 1.286
465.50 1.284
465.60 1.283
465.70 1.282
465.80 1.281
465.90 1.279
466.00 1.278
466.10 1.277
466.20 1.276
466.30 1.274
466.40 1.273
466.50 1.272
466.60 1.27
466.70 1.269
466.80 1.268
466.90 1.266
467.00 1.265
467.10 1.264
467.20 1.262
467.30 1.261
467.40 1.259
467.50 1.258
467.60 1.257
467.70 1.255
467.80 1.254
467.90 1.252
468.00 1.251
468.10 1.25
468.20 1.248
468.30 1.247
468.40 1.245
468.50 1.244
468.60 1.242
468.70 1.241
468.80 1.239
468.90 1.238
469.00 1.236
469.10 1.235
469.20 1.233
469.30 1.231
469.40 1.23
469.50 1.228
469.60 1.227
469.70 1.225
469.80 1.223
469.90 1.222
470.00 1.22
470.10 1.219
470.20 1.217
470.30 1.215
470.40 1.214
470.50 1.212
470.60 1.21
470.70 1.209
470.80 1.207
470.90 1.205
471.00 1.204
471.10 1.202
471.20 1.2
471.30 1.198
471.40 1.197
471.50 1.195
471.60 1.193
471.70 1.191
471.80 1.189
471.90 1.187
472.00 1.185
472.10 1.184
472.20 1.182
472.30 1.18
472.40 1.178
472.50 1.176
472.60 1.174
472.70 1.171
472.80 1.169
472.90 1.167
473.00 1.165
473.10 1.163
473.20 1.161
473.30 1.159
473.40 1.157
473.50 1.155
473.60 1.152
473.70 1.15
473.80 1.148
473.90 1.146
474.00 1.143
474.10 1.141
474.20 1.139
474.30 1.136
474.40 1.134
474.50 1.131
474.60 1.129
474.70 1.126
474.80 1.124
474.90 1.122
475.00 1.119
475.10 1.117
475.20 1.114
475.30 1.111
475.40 1.108
475.50 1.106
475.60 1.103
475.70 1.1
475.80 1.098
475.90 1.095
476.00 1.092
476.10 1.089
476.20 1.086
476.30 1.083
476.40 1.08
476.50 1.077
476.60 1.074
476.70 1.071
476.80 1.068
476.90 1.065
477.00 1.062
477.10 1.059
477.20 1.056
477.30 1.052
477.40 1.049
477.50 1.045
477.60 1.042
477.70 1.039
477.80 1.035
477.90 1.032
478.00 1.028
478.10 1.025
478.20 1.021
478.30 1.017
478.40 1.014
478.50 1.01
478.60 1.006
478.70 1.002
478.80 0.9981
478.90 0.9943
479.00 0.9905
479.10 0.9866
479.20 0.9824
479.30 0.9781
479.40 0.9738
479.50 0.9694
479.60 0.9651
479.70 0.9608
479.80 0.9565
479.90 0.9522
480.00 0.9479
480.10 0.9435
480.20 0.9388
480.30 0.9339
480.40 0.929
480.50 0.9241
480.60 0.9192
480.70 0.9143
480.80 0.9095
480.90 0.9046
481.00 0.8997
481.10 0.8948
481.20 0.8894
481.30 0.8838
481.40 0.8782
481.50 0.8725
481.60 0.8669
481.70 0.8613
481.80 0.8557
481.90 0.8501
482.00 0.8445
482.10 0.8389
482.20 0.8326
482.30 0.826
482.40 0.8195
482.50 0.8129
482.60 0.8063
482.70 0.7998
482.80 0.7932
482.90 0.7867
483.00 0.7802
483.10 0.7736
483.20 0.7661
483.30 0.7581
483.40 0.7501
483.50 0.7422
483.60 0.7342
483.70 0.7262
483.80 0.7183
483.90 0.7103
484.00 0.7024
484.10 0.6945
484.20 0.6856
484.30 0.6762
484.40 0.6668
484.50 0.6575
484.60 0.6481
484.70 0.6382
484.80 0.628
484.90 0.6178
485.00 0.6076
485.10 0.5975
485.20 0.5872
485.30 0.577
485.40 0.5663
485.50 0.5555
485.60 0.5436
485.70 0.5312
485.80 0.5142
485.90 0.4951
486.00 0.4657
486.10 0.4055
486.20 0.4289
486.30 0.4778
486.40 0.5002
486.50 0.5192
486.60 0.5333
486.70 0.5453
486.80 0.5561
486.90 0.5663
487.00 0.5762
487.10 0.5859
487.20 0.5954
487.30 0.6049
487.40 0.6144
487.50 0.6239
487.60 0.6334
487.70 0.6423
487.80 0.6509
487.90 0.6594
488.00 0.668
488.10 0.6766
488.20 0.6841
488.30 0.6912
488.40 0.6982
488.50 0.7053
488.60 0.7123
488.70 0.7194
488.80 0.7264
488.90 0.7334
489.00 0.7404
489.10 0.7475
489.20 0.7535
489.30 0.759
489.40 0.7645
489.50 0.7699
489.60 0.7754
489.70 0.7809
489.80 0.7864
489.90 0.7919
490.00 0.7974
490.10 0.8028
490.20 0.8076
490.30 0.812
490.40 0.8165
490.50 0.8209
490.60 0.8253
490.70 0.8298
490.80 0.8342
490.90 0.8386
491.00 0.843
491.10 0.8474
491.20 0.8513
491.30 0.8549
491.40 0.8585
491.50 0.8621
491.60 0.8657
491.70 0.8692
491.80 0.8728
491.90 0.8764
492.00 0.88
492.10 0.8835
492.20 0.8867
492.30 0.8896
492.40 0.8925
492.50 0.8955
492.60 0.8984
492.70 0.9013
492.80 0.9042
492.90 0.9072
493.00 0.9101
493.10 0.913
493.20 0.9156
493.30 0.918
493.40 0.9204
493.50 0.9228
493.60 0.9252
493.70 0.9276
493.80 0.93
493.90 0.9324
494.00 0.9347
494.10 0.9371
494.20 0.9392
494.30 0.9411
494.40 0.943
494.50 0.9448
494.60 0.9467
494.70 0.9486
494.80 0.9505
494.90 0.9524
495.00 0.9542
495.10 0.9561
495.20 0.9577
495.30 0.9592
495.40 0.9606
495.50 0.9621
495.60 0.9636
495.70 0.965
495.80 0.9665
495.90 0.968
496.00 0.9694
496.10 0.9709
496.20 0.9721
496.30 0.9733
496.40 0.9744
496.50 0.9755
496.60 0.9767
496.70 0.9778
496.80 0.9789
496.90 0.98
497.00 0.9812
497.10 0.9823
497.20 0.9832
497.30 0.9841
497.40 0.9849
497.50 0.9857
497.60 0.9865
497.70 0.9874
497.80 0.9882
497.90 0.989
498.00 0.9898
498.10 0.9906
498.20 0.9913
498.30 0.9919
498.40 0.9925
498.50 0.9931
498.60 0.9937
498.70 0.9942
498.80 0.9948
498.90 0.9954
499.00 0.996
499.10 0.9966
499.20 0.997
499.30 0.9974
499.40 0.9978
499.50 0.9981
499.60 0.9985
499.70 0.9989
499.80 0.9993
499.90 0.9996
500.00 1
500.10 1
500.20 1.001
500.30 1.001
500.40 1.001
500.50 1.001
500.60 1.001
500.70 1.002
500.80 1.002
500.90 1.002
501.00 1.002
501.10 1.003
501.20 1.003
501.30 1.003
501.40 1.003
501.50 1.003
501.60 1.003
501.70 1.003
501.80 1.003
501.90 1.003
502.00 1.003
502.10 1.003
502.20 1.003
502.30 1.003
502.40 1.003
502.50 1.003
502.60 1.003
502.70 1.003
502.80 1.003
502.90 1.003
503.00 1.003
503.10 1.003
503.20 1.003
503.30 1.003
503.40 1.003
503.50 1.003
503.60 1.002
503.70 1.002
503.80 1.002
503.90 1.002
504.00 1.002
504.10 1.002
504.20 1.002
504.30 1.001
504.40 1.001
504.50 1.001
504.60 1.001
504.70 1.001
504.80 1
504.90 1
505.00 1
505.10 0.9999
505.20 0.9996
505.30 0.9994
505.40 0.9991
505.50 0.9988
505.60 0.9985
505.70 0.9983
505.80 0.998
505.90 0.9977
506.00 0.9975
506.10 0.9972
506.20 0.9969
506.30 0.9966
506.40 0.9963
506.50 0.996
506.60 0.9957
506.70 0.9953
506.80 0.995
506.90 0.9947
507.00 0.9944
507.10 0.9941
507.20 0.9937
507.30 0.9934
507.40 0.993
507.50 0.9926
507.60 0.9923
507.70 0.9919
507.80 0.9916
507.90 0.9912
508.00 0.9908
508.10 0.9905
508.20 0.9901
508.30 0.9897
508.40 0.9893
508.50 0.9889
508.60 0.9885
508.70 0.9881
508.80 0.9877
508.90 0.9873
509.00 0.9869
509.10 0.9865
509.20 0.9861
509.30 0.9857
509.40 0.9852
509.50 0.9848
509.60 0.9844
509.70 0.984
509.80 0.9836
509.90 0.9831
510.00 0.9827
510.10 0.9823
510.20 0.9818
510.30 0.9814
510.40 0.9809
510.50 0.9805
510.60 0.98
510.70 0.9796
510.80 0.9791
510.90 0.9787
511.00 0.9782
511.10 0.9778
511.20 0.9773
511.30 0.9768
511.40 0.9764
511.50 0.9759
511.60 0.9754
511.70 0.9749
511.80 0.9745
511.90 0.974
512.00 0.9735
512.10 0.9731
512.20 0.9726
512.30 0.9721
512.40 0.9716
512.50 0.9711
512.60 0.9707
512.70 0.9702
512.80 0.9697
512.90 0.9692
513.00 0.9687
513.10 0.9683
513.20 0.9678
513.30 0.9673
513.40 0.9668
513.50 0.9663
513.60 0.9658
513.70 0.9653
513.80 0.9648
513.90 0.9643
514.00 0.9638
514.10 0.9633
514.20 0.9628
514.30 0.9623
514.40 0.9618
514.50 0.9613
514.60 0.9608
514.70 0.9603
514.80 0.9598
514.90 0.9593
515.00 0.9588
515.10 0.9583
515.20 0.9577
515.30 0.9572
515.40 0.9567
515.50 0.9562
515.60 0.9557
515.70 0.9551
515.80 0.9546
515.90 0.9541
516.00 0.9536
516.10 0.9531
516.20 0.9526
516.30 0.9521
516.40 0.9515
516.50 0.951
516.60 0.9505
516.70 0.95
516.80 0.9495
516.90 0.949
517.00 0.9485
517.10 0.9479
517.20 0.9474
517.30 0.9469
517.40 0.9464
517.50 0.9458
517.60 0.9453
517.70 0.9448
517.80 0.9443
517.90 0.9437
518.00 0.9432
518.10 0.9427
518.20 0.9421
518.30 0.9416
518.40 0.9411
518.50 0.9405
518.60 0.94
518.70 0.9395
518.80 0.9389
518.90 0.9384
519.00 0.9379
519.10 0.9373
519.20 0.9368
519.30 0.9363
519.40 0.9358
519.50 0.9352
519.60 0.9347
519.70 0.9342
519.80 0.9336
519.90 0.9331
520.00 0.9326
520.10 0.9321
520.20 0.9315
520.30 0.931
520.40 0.9304
520.50 0.9299
520.60 0.9294
520.70 0.9288
520.80 0.9283
520.90 0.9278
521.00 0.9272
521.10 0.9267
521.20 0.9262
521.30 0.9256
521.40 0.9251
521.50 0.9246
521.60 0.924
521.70 0.9235
521.80 0.923
521.90 0.9225
522.00 0.9219
522.10 0.9214
522.20 0.9209
522.30 0.9203
522.40 0.9198
522.50 0.9193
522.60 0.9187
522.70 0.9182
522.80 0.9176
522.90 0.9171
523.00 0.9166
523.10 0.916
523.20 0.9155
523.30 0.915
523.40 0.9144
523.50 0.9139
523.60 0.9134
523.70 0.9128
523.80 0.9123
523.90 0.9118
524.00 0.9112
524.10 0.9107
524.20 0.9102
524.30 0.9096
524.40 0.9091
524.50 0.9086
524.60 0.908
524.70 0.9075
524.80 0.9069
524.90 0.9064
525.00 0.9059
525.10 0.9053
525.20 0.9048
525.30 0.9043
525.40 0.9038
525.50 0.9032
525.60 0.9027
525.70 0.9022
525.80 0.9017
525.90 0.9011
526.00 0.9006
526.10 0.9001
526.20 0.8995
526.30 0.899
526.40 0.8985
526.50 0.8979
526.60 0.8974
526.70 0.8968
526.80 0.8963
526.90 0.8958
527.00 0.8952
527.10 0.8947
527.20 0.8942
527.30 0.8936
527.40 0.8931
527.50 0.8926
527.60 0.892
527.70 0.8915
527.80 0.891
527.90 0.8905
528.00 0.8899
528.10 0.8894
528.20 0.8889
528.30 0.8884
528.40 0.8878
528.50 0.8873
528.60 0.8868
528.70 0.8862
528.80 0.8857
528.90 0.8852
529.00 0.8846
529.10 0.8841
529.20 0.8836
529.30 0.883
529.40 0.8825
529.50 0.882
529.60 0.8815
529.70 0.881
529.80 0.8804
529.90 0.8799
530.00 0.8794
530.10 0.8789
530.20 0.8784
530.30 0.8778
530.40 0.8773
530.50 0.8768
530.60 0.8763
530.70 0.8757
530.80 0.8752
530.90 0.8747
531.00 0.8742
531.10 0.8736
531.20 0.8731
531.30 0.8726
531.40 0.8721
531.50 0.8715
531.60 0.871
531.70 0.8705
531.80 0.87
531.90 0.8694
532.00 0.8689
532.10 0.8684
532.20 0.8679
532.30 0.8674
532.40 0.8668
532.50 0.8663
532.60 0.8658
532.70 0.8653
532.80 0.8648
532.90 0.8643
533.00 0.8637
533.10 0.8632
533.20 0.8627
533.30 0.8622
533.40 0.8616
533.50 0.8611
533.60 0.8606
533.70 0.8601
533.80 0.8596
533.90 0.859
534.00 0.8585
534.10 0.858
534.20 0.8575
534.30 0.857
534.40 0.8564
534.50 0.8559
534.60 0.8554
534.70 0.8549
534.80 0.8544
534.90 0.8539
535.00 0.8534
535.10 0.8529
535.20 0.8524
535.30 0.8518
535.40 0.8513
535.50 0.8508
535.60 0.8503
535.70 0.8498
535.80 0.8493
535.90 0.8488
536.00 0.8483
536.10 0.8478
536.20 0.8473
536.30 0.8468
536.40 0.8462
536.50 0.8457
536.60 0.8452
536.70 0.8447
536.80 0.8442
536.90 0.8437
537.00 0.8432
537.10 0.8427
537.20 0.8422
537.30 0.8417
537.40 0.8412
537.50 0.8407
537.60 0.8402
537.70 0.8396
537.80 0.8391
537.90 0.8386
538.00 0.8381
538.10 0.8376
538.20 0.8371
538.30 0.8366
538.40 0.8361
538.50 0.8356
538.60 0.8351
538.70 0.8346
538.80 0.8341
538.90 0.8336
539.00 0.8331
539.10 0.8326
539.20 0.8321
539.30 0.8316
539.40 0.8311
539.50 0.8306
539.60 0.8301
539.70 0.8296
539.80 0.8291
539.90 0.8286
540.00 0.8281
540.10 0.8276
540.20 0.8271
540.30 0.8267
540.40 0.8262
540.50 0.8257
540.60 0.8252
540.70 0.8247
540.80 0.8242
540.90 0.8237
541.00 0.8232
541.10 0.8227
541.20 0.8222
541.30 0.8217
541.40 0.8212
541.50 0.8207
541.60 0.8202
541.70 0.8197
541.80 0.8192
541.90 0.8187
542.00 0.8182
542.10 0.8177
542.20 0.8172
542.30 0.8167
542.40 0.8163
542.50 0.8158
542.60 0.8153
542.70 0.8148
542.80 0.8143
542.90 0.8138
543.00 0.8133
543.10 0.8129
543.20 0.8124
543.30 0.8119
543.40 0.8114
543.50 0.8109
543.60 0.8104
543.70 0.8099
543.80 0.8095
543.90 0.809
544.00 0.8085
544.10 0.808
544.20 0.8075
544.30 0.807
544.40 0.8066
544.50 0.8061
544.60 0.8056
544.70 0.8051
544.80 0.8046
544.90 0.8042
545.00 0.8037
545.10 0.8032
545.20 0.8027
545.30 0.8022
545.40 0.8017
545.50 0.8013
545.60 0.8008
545.70 0.8003
545.80 0.7998
545.90 0.7993
546.00 0.7988
546.10 0.7983
546.20 0.7979
546.30 0.7976
546.40 0.7972
546.50 0.7968
546.60 0.7965
546.70 0.7961
546.80 0.7957
546.90 0.7954
547.00 0.795
547.10 0.7946
547.20 0.7942
547.30 0.7937
547.40 0.7932
547.50 0.7927
547.60 0.7923
547.70 0.7918
547.80 0.7913
547.90 0.7908
548.00 0.7903
548.10 0.7899
548.20 0.7894
548.30 0.7889
548.40 0.7884
548.50 0.788
548.60 0.7875
548.70 0.787
548.80 0.7866
548.90 0.7861
549.00 0.7856
549.10 0.7852
549.20 0.7847
549.30 0.7842
549.40 0.7837
549.50 0.7833
549.60 0.7828
549.70 0.7823
549.80 0.7818
549.90 0.7814
550.00 0.7809
550.10 0.7804
550.20 0.7799
550.30 0.7795
550.40 0.779
550.50 0.7786
550.60 0.7781
550.70 0.7776
550.80 0.7772
550.90 0.7767
551.00 0.7762
551.10 0.7758
551.20 0.7753
551.30 0.7748
551.40 0.7744
551.50 0.7739
551.60 0.7734
551.70 0.773
551.80 0.7725
551.90 0.772
552.00 0.7716
552.10 0.7711
552.20 0.7706
552.30 0.7702
552.40 0.7697
552.50 0.7692
552.60 0.7688
552.70 0.7683
552.80 0.7679
552.90 0.7674
553.00 0.767
553.10 0.7665
553.20 0.766
553.30 0.7656
553.40 0.7651
553.50 0.7647
553.60 0.7642
553.70 0.7637
553.80 0.7633
553.90 0.7628
554.00 0.7623
554.10 0.7619
554.20 0.7614
554.30 0.761
554.40 0.7605
554.50 0.7601
554.60 0.7596
554.70 0.7592
554.80 0.7587
554.90 0.7583
555.00 0.7578
555.10 0.7573
555.20 0.7569
555.30 0.7564
555.40 0.756
555.50 0.7555
555.60 0.7551
555.70 0.7546
555.80 0.7542
555.90 0.7537
556.00 0.7533
556.10 0.7529
556.20 0.7524
556.30 0.752
556.40 0.7515
556.50 0.7511
556.60 0.7506
556.70 0.7502
556.80 0.7497
556.90 0.7493
557.00 0.7488
557.10 0.7484
557.20 0.7479
557.30 0.7475
557.40 0.747
557.50 0.7466
557.60 0.7462
557.70 0.7457
557.80 0.7453
557.90 0.7448
558.00 0.7444
558.10 0.7439
558.20 0.7435
558.30 0.743
558.40 0.7426
558.50 0.7422
558.60 0.7417
558.70 0.7413
558.80 0.7408
558.90 0.7404
559.00 0.74
559.10 0.7395
559.20 0.7391
559.30 0.7386
559.40 0.7382
559.50 0.7378
559.60 0.7373
559.70 0.7369
559.80 0.7364
559.90 0.736
560.00 0.7356
560.10 0.7351
560.20 0.7347
560.30 0.7343
560.40 0.7338
560.50 0.7334
560.60 0.733
560.70 0.7325
560.80 0.7321
560.90 0.7317
561.00 0.7313
561.10 0.7308
561.20 0.7304
561.30 0.73
561.40 0.7295
561.50 0.7291
561.60 0.7287
561.70 0.7282
561.80 0.7278
561.90 0.7274
562.00 0.7269
562.10 0.7265
562.20 0.7261
562.30 0.7256
562.40 0.7252
562.50 0.7248
562.60 0.7244
562.70 0.7239
562.80 0.7235
562.90 0.7231
563.00 0.7227
563.10 0.7222
563.20 0.7218
563.30 0.7214
563.40 0.721
563.50 0.7205
563.60 0.7201
563.70 0.7197
563.80 0.7193
563.90 0.7188
564.00 0.7184
564.10 0.718
564.20 0.7176
564.30 0.7171
564.40 0.7167
564.50 0.7163
564.60 0.7159
564.70 0.7154
564.80 0.715
564.90 0.7146
565.00 0.7142
565.10 0.7138
565.20 0.7133
565.30 0.7129
565.40 0.7125
565.50 0.7121
565.60 0.7117
565.70 0.7112
565.80 0.7108
565.90 0.7104
566.00 0.71
566.10 0.7096
566.20 0.7092
566.30 0.7087
566.40 0.7083
566.50 0.7079
566.60 0.7075
566.70 0.7071
566.80 0.7067
566.90 0.7063
567.00 0.7058
567.10 0.7054
567.20 0.705
567.30 0.7046
567.40 0.7042
567.50 0.7038
567.60 0.7034
567.70 0.7029
567.80 0.7025
567.90 0.7021
568.00 0.7017
568.10 0.7013
568.20 0.7009
568.30 0.7005
568.40 0.7001
568.50 0.6997
568.60 0.6992
568.70 0.6988
568.80 0.6984
568.90 0.698
569.00 0.6976
569.10 0.6972
569.20 0.6968
569.30 0.6964
569.40 0.696
569.50 0.6956
569.60 0.6952
569.70 0.6948
569.80 0.6944
569.90 0.694
570.00 0.6935
570.10 0.6931
570.20 0.6927
570.30 0.6923
570.40 0.6919
570.50 0.6915
570.60 0.6911
570.70 0.6907
570.80 0.6903
570.90 0.6899
571.00 0.6895
571.10 0.6891
571.20 0.6887
571.30 0.6883
571.40 0.6879
571.50 0.6875
571.60 0.6871
571.70 0.6867
571.80 0.6863
571.90 0.6859
572.00 0.6855
572.10 0.6851
572.20 0.6847
572.30 0.6843
572.40 0.6839
572.50 0.6835
572.60 0.6831
572.70 0.6827
572.80 0.6823
572.90 0.6819
573.00 0.6815
573.10 0.6811
573.20 0.6807
573.30 0.6803
573.40 0.6799
573.50 0.6795
573.60 0.6791
573.70 0.6788
573.80 0.6784
573.90 0.678
574.00 0.6776
574.10 0.6772
574.20 0.6768
574.30 0.6764
574.40 0.676
574.50 0.6756
574.60 0.6752
574.70 0.6748
574.80 0.6744
574.90 0.674
575.00 0.6736
575.10 0.6733
575.20 0.6729
575.30 0.6725
575.40 0.6721
575.50 0.6717
575.60 0.6713
575.70 0.6709
575.80 0.6705
575.90 0.6701
576.00 0.6698
576.10 0.6694
576.20 0.669
576.30 0.6686
576.40 0.6682
576.50 0.6678
576.60 0.6674
576.70 0.6671
576.80 0.6667
576.90 0.6663
577.00 0.6659
577.10 0.6655
577.20 0.6651
577.30 0.6647
577.40 0.6644
577.50 0.664
577.60 0.6636
577.70 0.6632
577.80 0.6628
577.90 0.6624
578.00 0.6621
578.10 0.6617
578.20 0.6613
578.30 0.6609
578.40 0.6605
578.50 0.6601
578.60 0.6598
578.70 0.6594
578.80 0.659
578.90 0.6586
579.00 0.6582
579.10 0.6579
579.20 0.6575
579.30 0.6571
579.40 0.6567
579.50 0.6564
579.60 0.656
579.70 0.6556
579.80 0.6552
579.90 0.6548
580.00 0.6545
580.10 0.6541
580.20 0.6537
580.30 0.6533
580.40 0.653
580.50 0.6526
580.60 0.6522
580.70 0.6518
580.80 0.6515
580.90 0.6511
581.00 0.6507
581.10 0.6503
581.20 0.65
581.30 0.6496
581.40 0.6492
581.50 0.6488
581.60 0.6485
581.70 0.6481
581.80 0.6477
581.90 0.6474
582.00 0.647
582.10 0.6466
582.20 0.6462
582.30 0.6459
582.40 0.6455
582.50 0.6451
582.60 0.6448
582.70 0.6444
582.80 0.644
582.90 0.6437
583.00 0.6433
583.10 0.6429
583.20 0.6425
583.30 0.6422
583.40 0.6418
583.50 0.6414
583.60 0.6411
583.70 0.6407
583.80 0.6403
583.90 0.64
584.00 0.6396
584.10 0.6392
584.20 0.6389
584.30 0.6385
584.40 0.6382
584.50 0.6378
584.60 0.6374
584.70 0.6371
584.80 0.6367
584.90 0.6363
585.00 0.636
585.10 0.6356
585.20 0.6352
585.30 0.6349
585.40 0.6345
585.50 0.6342
585.60 0.6338
585.70 0.6334
585.80 0.6331
585.90 0.6327
586.00 0.6323
586.10 0.632
586.20 0.6316
586.30 0.6313
586.40 0.6309
586.50 0.6305
586.60 0.6302
586.70 0.6298
586.80 0.6295
586.90 0.6291
587.00 0.6287
587.10 0.6284
587.20 0.628
587.30 0.6277
587.40 0.6273
587.50 0.627
587.60 0.6266
587.70 0.6262
587.80 0.6259
587.90 0.6255
588.00 0.6252
588.10 0.6248
588.20 0.6245
588.30 0.6241
588.40 0.6238
588.50 0.6234
588.60 0.623
588.70 0.6227
588.80 0.6223
588.90 0.622
589.00 0.6216
589.10 0.6213
589.20 0.6209
589.30 0.6206
589.40 0.6202
589.50 0.6199
589.60 0.6195
589.70 0.6192
589.80 0.6188
589.90 0.6185
590.00 0.6181
590.10 0.6178
590.20 0.6174
590.30 0.6171
590.40 0.6167
590.50 0.6164
590.60 0.616
590.70 0.6157
590.80 0.6153
590.90 0.615
591.00 0.6146
591.10 0.6143
591.20 0.6139
591.30 0.6136
591.40 0.6132
591.50 0.6129
591.60 0.6125
591.70 0.6122
591.80 0.6118
591.90 0.6115
592.00 0.6112
592.10 0.6108
592.20 0.6105
592.30 0.6101
592.40 0.6098
592.50 0.6094
592.60 0.6091
592.70 0.6087
592.80 0.6084
592.90 0.6081
593.00 0.6077
593.10 0.6074
593.20 0.607
593.30 0.6067
593.40 0.6063
593.50 0.606
593.60 0.6057
593.70 0.6053
593.80 0.605
593.90 0.6046
594.00 0.6043
594.10 0.6039
594.20 0.6036
594.30 0.6033
594.40 0.6029
594.50 0.6026
594.60 0.6022
594.70 0.6019
594.80 0.6016
594.90 0.6012
595.00 0.6009
595.10 0.6006
595.20 0.6002
595.30 0.5999
595.40 0.5995
595.50 0.5992
595.60 0.5989
595.70 0.5985
595.80 0.5982
595.90 0.5979
596.00 0.5975
596.10 0.5972
596.20 0.5967
596.30 0.5962
596.40 0.5956
596.50 0.5951
596.60 0.5946
596.70 0.594
596.80 0.5935
596.90 0.593
597.00 0.5924
597.10 0.5919
597.20 0.5915
597.30 0.5912
597.40 0.5908
597.50 0.5905
597.60 0.5902
597.70 0.5898
597.80 0.5895
597.90 0.5892
598.00 0.5888
598.10 0.5885
598.20 0.5881
598.30 0.5878
598.40 0.5875
598.50 0.5871
598.60 0.5868
598.70 0.5865
598.80 0.5861
598.90 0.5858
599.00 0.5855
599.10 0.5851
599.20 0.5848
599.30 0.5844
599.40 0.5841
599.50 0.5838
599.60 0.5834
599.70 0.5831
599.80 0.5828
599.90 0.5824
600.00 0.5821
600.10 0.5818
600.20 0.5814
600.30 0.5811
600.40 0.5808
600.50 0.5804
600.60 0.5801
600.70 0.5798
600.80 0.5795
600.90 0.5791
601.00 0.5788
601.10 0.5785
601.20 0.5781
601.30 0.5778
601.40 0.5775
601.50 0.5771
601.60 0.5768
601.70 0.5765
601.80 0.5761
601.90 0.5758
602.00 0.5755
602.10 0.5752
602.20 0.5748
602.30 0.5745
602.40 0.5742
602.50 0.5738
602.60 0.5735
602.70 0.5732
602.80 0.5729
602.90 0.5725
603.00 0.5722
603.10 0.5719
603.20 0.5715
603.30 0.5712
603.40 0.5709
603.50 0.5706
603.60 0.5702
603.70 0.5699
603.80 0.5696
603.90 0.5693
604.00 0.5689
604.10 0.5686
604.20 0.5683
604.30 0.568
604.40 0.5676
604.50 0.5673
604.60 0.567
604.70 0.5667
604.80 0.5663
604.90 0.566
605.00 0.5657
605.10 0.5654
605.20 0.565
605.30 0.5647
605.40 0.5644
605.50 0.5641
605.60 0.5638
605.70 0.5634
605.80 0.5631
605.90 0.5628
606.00 0.5625
606.10 0.5621
606.20 0.5618
606.30 0.5615
606.40 0.5612
606.50 0.5609
606.60 0.5605
606.70 0.5602
606.80 0.5599
606.90 0.5596
607.00 0.5592
607.10 0.5589
607.20 0.5586
607.30 0.5583
607.40 0.558
607.50 0.5576
607.60 0.5573
607.70 0.557
607.80 0.5567
607.90 0.5564
608.00 0.556
608.10 0.5557
608.20 0.5554
608.30 0.5551
608.40 0.5548
608.50 0.5545
608.60 0.5541
608.70 0.5538
608.80 0.5535
608.90 0.5532
609.00 0.5529
609.10 0.5525
609.20 0.5522
609.30 0.5519
609.40 0.5516
609.50 0.5513
609.60 0.551
609.70 0.5506
609.80 0.5503
609.90 0.55
610.00 0.5497
610.10 0.5494
610.20 0.5491
610.30 0.5487
610.40 0.5484
610.50 0.5481
610.60 0.5478
610.70 0.5475
610.80 0.5472
610.90 0.5469
611.00 0.5465
611.10 0.5462
611.20 0.5459
611.30 0.5456
611.40 0.5453
611.50 0.545
611.60 0.5446
611.70 0.5443
611.80 0.544
611.90 0.5437
612.00 0.5434
612.10 0.5431
612.20 0.5428
612.30 0.5425
612.40 0.5421
612.50 0.5418
612.60 0.5415
612.70 0.5412
612.80 0.5409
612.90 0.5406
613.00 0.5403
613.10 0.5399
613.20 0.5396
613.30 0.5393
613.40 0.539
613.50 0.5387
613.60 0.5384
613.70 0.5381
613.80 0.5378
613.90 0.5375
614.00 0.5371
614.10 0.5368
614.20 0.5365
614.30 0.5362
614.40 0.5359
614.50 0.5356
614.60 0.5353
614.70 0.535
614.80 0.5346
614.90 0.5343
615.00 0.534
615.10 0.5337
615.20 0.5334
615.30 0.5331
615.40 0.5328
615.50 0.5325
615.60 0.5322
615.70 0.5318
615.80 0.5315
615.90 0.5312
616.00 0.5309
616.10 0.5306
616.20 0.5303
616.30 0.53
616.40 0.5297
616.50 0.5294
616.60 0.5291
616.70 0.5287
616.80 0.5284
616.90 0.5281
617.00 0.5278
617.10 0.5275
617.20 0.5272
617.30 0.5269
617.40 0.5266
617.50 0.5263
617.60 0.526
617.70 0.5256
617.80 0.5253
617.90 0.525
618.00 0.5247
618.10 0.5244
618.20 0.5241
618.30 0.5238
618.40 0.5235
618.50 0.5232
618.60 0.5229
618.70 0.5225
618.80 0.5222
618.90 0.5219
619.00 0.5216
619.10 0.5213
619.20 0.521
619.30 0.5207
619.40 0.5204
619.50 0.5201
619.60 0.5198
619.70 0.5194
619.80 0.5191
619.90 0.5188
620.00 0.5185
620.10 0.5182
620.20 0.5179
620.30 0.5176
620.40 0.5173
620.50 0.517
620.60 0.5167
620.70 0.5163
620.80 0.516
620.90 0.5157
621.00 0.5154
621.10 0.5151
621.20 0.5148
621.30 0.5145
621.40 0.5142
621.50 0.5139
621.60 0.5135
621.70 0.5132
621.80 0.5129
621.90 0.5126
622.00 0.5123
622.10 0.512
622.20 0.5117
622.30 0.5114
622.40 0.5111
622.50 0.5108
622.60 0.5104
622.70 0.5101
622.80 0.5098
622.90 0.5095
623.00 0.5092
623.10 0.5089
623.20 0.5086
623.30 0.5083
623.40 0.5079
623.50 0.5076
623.60 0.5073
623.70 0.507
623.80 0.5067
623.90 0.5064
624.00 0.5061
624.10 0.5058
624.20 0.5054
624.30 0.5051
624.40 0.5048
624.50 0.5045
624.60 0.5042
624.70 0.5039
624.80 0.5036
624.90 0.5033
625.00 0.5029
625.10 0.5026
625.20 0.5023
625.30 0.502
625.40 0.5017
625.50 0.5014
625.60 0.5011
625.70 0.5007
625.80 0.5004
625.90 0.5001
626.00 0.4998
626.10 0.4995
626.20 0.4992
626.30 0.4988
626.40 0.4985
626.50 0.4982
626.60 0.4979
626.70 0.4976
626.80 0.4973
626.90 0.4969
627.00 0.4966
627.10 0.4963
627.20 0.496
627.30 0.4957
627.40 0.4954
627.50 0.495
627.60 0.4947
627.70 0.4944
627.80 0.4941
627.90 0.4938
628.00 0.4934
628.10 0.4931
628.20 0.4928
628.30 0.4925
628.40 0.4922
628.50 0.4918
628.60 0.4915
628.70 0.4912
628.80 0.4909
628.90 0.4905
629.00 0.4902
629.10 0.4899
629.20 0.4896
629.30 0.4892
629.40 0.4889
629.50 0.4886
629.60 0.4883
629.70 0.4879
629.80 0.4876
629.90 0.4873
630.00 0.487
630.10 0.4866
630.20 0.4863
630.30 0.486
630.40 0.4856
630.50 0.4853
630.60 0.485
630.70 0.4846
630.80 0.4843
630.90 0.484
631.00 0.4836
631.10 0.4833
631.20 0.483
631.30 0.4826
631.40 0.4823
631.50 0.482
631.60 0.4816
631.70 0.4813
631.80 0.481
631.90 0.4806
632.00 0.4803
632.10 0.4799
632.20 0.4796
632.30 0.4793
632.40 0.4789
632.50 0.4786
632.60 0.4782
632.70 0.4779
632.80 0.4775
632.90 0.4772
633.00 0.4768
633.10 0.4765
633.20 0.4761
633.30 0.4758
633.40 0.4754
633.50 0.4751
633.60 0.4747
633.70 0.4744
633.80 0.474
633.90 0.4737
634.00 0.4733
634.10 0.4729
634.20 0.4726
634.30 0.4722
634.40 0.4719
634.50 0.4715
634.60 0.4711
634.70 0.4708
634.80 0.4704
634.90 0.47
635.00 0.4697
635.10 0.4693
635.20 0.4689
635.30 0.4686
635.40 0.4682
635.50 0.4678
635.60 0.4674
635.70 0.467
635.80 0.4667
635.90 0.4663
636.00 0.4659
636.10 0.4655
636.20 0.4651
636.30 0.4648
636.40 0.4644
636.50 0.464
636.60 0.4636
636.70 0.4632
636.80 0.4628
636.90 0.4624
637.00 0.462
637.10 0.4616
637.20 0.4612
637.30 0.4608
637.40 0.4604
637.50 0.46
637.60 0.4596
637.70 0.4591
637.80 0.4587
637.90 0.4583
638.00 0.4579
638.10 0.4575
638.20 0.4571
638.30 0.4567
638.40 0.4562
638.50 0.4558
638.60 0.4554
638.70 0.4549
638.80 0.4545
638.90 0.454
639.00 0.4536
639.10 0.4532
639.20 0.4527
639.30 0.4523
639.40 0.4518
639.50 0.4514
639.60 0.4509
639.70 0.4505
639.80 0.45
639.90 0.4495
640.00 0.4491
640.10 0.4486
640.20 0.4482
640.30 0.4477
640.40 0.4472
640.50 0.4467
640.60 0.4462
640.70 0.4458
640.80 0.4453
640.90 0.4448
641.00 0.4443
641.10 0.4438
641.20 0.4433
641.30 0.4428
641.40 0.4423
641.50 0.4418
641.60 0.4413
641.70 0.4407
641.80 0.4402
641.90 0.4397
642.00 0.4392
642.10 0.4387
642.20 0.4381
642.30 0.4376
642.40 0.437
642.50 0.4365
642.60 0.4359
642.70 0.4354
642.80 0.4348
642.90 0.4342
643.00 0.4337
643.10 0.4331
643.20 0.4326
643.30 0.432
643.40 0.4314
643.50 0.4308
643.60 0.4302
643.70 0.4296
643.80 0.429
643.90 0.4283
644.00 0.4277
644.10 0.4271
644.20 0.4265
644.30 0.4259
644.40 0.4252
644.50 0.4246
644.60 0.4239
644.70 0.4233
644.80 0.4226
644.90 0.4219
645.00 0.4213
645.10 0.4206
645.20 0.4199
645.30 0.4193
645.40 0.4185
645.50 0.4178
645.60 0.4171
645.70 0.4164
645.80 0.4156
645.90 0.4149
646.00 0.4142
646.10 0.4135
646.20 0.4127
646.30 0.412
646.40 0.4112
646.50 0.4104
646.60 0.4096
646.70 0.4088
646.80 0.408
646.90 0.4072
647.00 0.4064
647.10 0.4056
647.20 0.4048
647.30 0.4039
647.40 0.403
647.50 0.4021
647.60 0.4012
647.70 0.4003
647.80 0.3994
647.90 0.3985
648.00 0.3976
648.10 0.3967
648.20 0.3958
648.30 0.3949
648.40 0.3938
648.50 0.3928
648.60 0.3917
648.70 0.3907
648.80 0.3897
648.90 0.3886
649.00 0.3876
649.10 0.3866
649.20 0.3855
649.30 0.3845
649.40 0.3833
649.50 0.3821
649.60 0.3809
649.70 0.3797
649.80 0.3785
649.90 0.3773
650.00 0.3762
650.10 0.375
650.20 0.3738
650.30 0.3726
650.40 0.3712
650.50 0.3698
650.60 0.3685
650.70 0.3671
650.80 0.3657
650.90 0.3643
651.00 0.363
651.10 0.3616
651.20 0.3602
651.30 0.3588
651.40 0.3573
651.50 0.3557
651.60 0.3541
651.70 0.3525
651.80 0.3509
651.90 0.3493
652.00 0.3477
652.10 0.3462
652.20 0.3446
652.30 0.3429
652.40 0.3411
652.50 0.3392
652.60 0.3374
652.70 0.3355
652.80 0.3336
652.90 0.3318
653.00 0.3299
653.10 0.3281
653.20 0.3262
653.30 0.3243
653.40 0.322
653.50 0.3198
653.60 0.3176
653.70 0.3153
653.80 0.3131
653.90 0.3109
654.00 0.3086
654.10 0.3064
654.20 0.3042
654.30 0.3019
654.40 0.2994
654.50 0.2968
654.60 0.2943
654.70 0.2918
654.80 0.2892
654.90 0.2864
655.00 0.2836
655.10 0.2808
655.20 0.278
655.30 0.2751
655.40 0.272
655.50 0.2688
655.60 0.2652
655.70 0.2615
655.80 0.2569
655.90 0.2517
656.00 0.2437
656.10 0.2347
656.20 0.212
656.30 0.1918
656.40 0.2235
656.50 0.2382
656.60 0.2461
656.70 0.2533
656.80 0.2576
656.90 0.2617
657.00 0.2651
657.10 0.2683
657.20 0.2712
657.30 0.274
657.40 0.2766
657.50 0.2791
657.60 0.2816
657.70 0.2842
657.80 0.2867
657.90 0.2889
658.00 0.2911
658.10 0.2934
658.20 0.2956
658.30 0.2978
658.40 0.2997
658.50 0.3016
658.60 0.3036
658.70 0.3055
658.80 0.3074
658.90 0.3093
659.00 0.3113
659.10 0.3132
659.20 0.3151
659.30 0.3169
659.40 0.3184
659.50 0.32
659.60 0.3215
659.70 0.323
659.80 0.3245
659.90 0.326
660.00 0.3275
660.10 0.329
660.20 0.3305
660.30 0.332
660.40 0.3332
660.50 0.3344
660.60 0.3356
660.70 0.3368
660.80 0.338
660.90 0.3392
661.00 0.3404
661.10 0.3416
661.20 0.3428
661.30 0.344
661.40 0.345
661.50 0.3459
661.60 0.3469
661.70 0.3479
661.80 0.3488
661.90 0.3498
662.00 0.3508
662.10 0.3517
662.20 0.3527
662.30 0.3536
662.40 0.3544
662.50 0.3552
662.60 0.356
662.70 0.3567
662.80 0.3575
662.90 0.3583
663.00 0.359
663.10 0.3598
663.20 0.3606
663.30 0.3613
663.40 0.3619
663.50 0.3625
663.60 0.3631
663.70 0.3637
663.80 0.3643
663.90 0.3649
664.00 0.3655
664.10 0.3661
664.20 0.3667
664.30 0.3673
664.40 0.3678
664.50 0.3682
664.60 0.3687
664.70 0.3692
664.80 0.3696
664.90 0.3701
665.00 0.3705
665.10 0.371
665.20 0.3715
665.30 0.3719
665.40 0.3722
665.50 0.3726
665.60 0.373
665.70 0.3733
665.80 0.3737
665.90 0.374
666.00 0.3744
666.10 0.3747
666.20 0.3751
666.30 0.3754
666.40 0.3757
666.50 0.3759
666.60 0.3762
666.70 0.3765
666.80 0.3767
666.90 0.377
667.00 0.3772
667.10 0.3775
667.20 0.3778
667.30 0.378
667.40 0.3782
667.50 0.3784
667.60 0.3786
667.70 0.3788
667.80 0.379
667.90 0.3792
668.00 0.3794
668.10 0.3796
668.20 0.3798
668.30 0.38
668.40 0.3801
668.50 0.3803
668.60 0.3804
668.70 0.3805
668.80 0.3807
668.90 0.3808
669.00 0.381
669.10 0.3811
669.20 0.3812
669.30 0.3814
669.40 0.3814
669.50 0.3815
669.60 0.3816
669.70 0.3817
669.80 0.3818
669.90 0.3819
670.00 0.382
670.10 0.382
670.20 0.3821
670.30 0.3822
670.40 0.3823
670.50 0.3823
670.60 0.3823
670.70 0.3824
670.80 0.3824
670.90 0.3825
671.00 0.3825
671.10 0.3826
671.20 0.3826
671.30 0.3827
671.40 0.3827
671.50 0.3827
671.60 0.3827
671.70 0.3827
671.80 0.3827
671.90 0.3827
672.00 0.3827
672.10 0.3827
672.20 0.3828
672.30 0.3828
672.40 0.3827
672.50 0.3827
672.60 0.3827
672.70 0.3827
672.80 0.3827
672.90 0.3826
673.00 0.3826
673.10 0.3826
673.20 0.3826
673.30 0.3826
673.40 0.3825
673.50 0.3825
673.60 0.3824
673.70 0.3824
673.80 0.3824
673.90 0.3823
674.00 0.3823
674.10 0.3822
674.20 0.3822
674.30 0.3821
674.40 0.3821
674.50 0.382
674.60 0.3819
674.70 0.3819
674.80 0.3818
674.90 0.3818
675.00 0.3817
675.10 0.3816
675.20 0.3816
675.30 0.3815
675.40 0.3814
675.50 0.3813
675.60 0.3813
675.70 0.3812
675.80 0.3811
675.90 0.381
676.00 0.3809
676.10 0.3808
676.20 0.3808
676.30 0.3807
676.40 0.3806
676.50 0.3805
676.60 0.3804
676.70 0.3803
676.80 0.3802
676.90 0.3801
677.00 0.38
677.10 0.3799
677.20 0.3798
677.30 0.3797
677.40 0.3796
677.50 0.3795
677.60 0.3794
677.70 0.3793
677.80 0.3792
677.90 0.3791
678.00 0.379
678.10 0.3789
678.20 0.3787
678.30 0.3786
678.40 0.3785
678.50 0.3784
678.60 0.3783
678.70 0.3782
678.80 0.378
678.90 0.3779
679.00 0.3778
679.10 0.3777
679.20 0.3776
679.30 0.3774
679.40 0.3773
679.50 0.3772
679.60 0.3771
679.70 0.3769
679.80 0.3768
679.90 0.3767
680.00 0.3766
680.10 0.3764
680.20 0.3763
680.30 0.3762
680.40 0.376
680.50 0.3759
680.60 0.3758
680.70 0.3756
680.80 0.3755
680.90 0.3754
681.00 0.3752
681.10 0.3751
681.20 0.375
681.30 0.3748
681.40 0.3747
681.50 0.3746
681.60 0.3744
681.70 0.3743
681.80 0.3741
681.90 0.374
682.00 0.3739
682.10 0.3737
682.20 0.3736
682.30 0.3734
682.40 0.3733
682.50 0.3732
682.60 0.373
682.70 0.3729
682.80 0.3727
682.90 0.3726
683.00 0.3724
683.10 0.3723
683.20 0.3721
683.30 0.372
683.40 0.3718
683.50 0.3717
683.60 0.3716
683.70 0.3714
683.80 0.3713
683.90 0.3711
684.00 0.371
684.10 0.3708
684.20 0.3707
684.30 0.3705
684.40 0.3704
684.50 0.3702
684.60 0.3701
684.70 0.3699
684.80 0.3698
684.90 0.3696
685.00 0.3695
685.10 0.3693
685.20 0.3692
685.30 0.369
685.40 0.3688
685.50 0.3687
685.60 0.3685
685.70 0.3684
685.80 0.3682
685.90 0.3681
686.00 0.3679
686.10 0.3678
686.20 0.3676
686.30 0.3675
686.40 0.3673
686.50 0.3672
686.60 0.367
686.70 0.3668
686.80 0.3667
686.90 0.3665
687.00 0.3664
687.10 0.3662
687.20 0.3661
687.30 0.3659
687.40 0.3658
687.50 0.3656
687.60 0.3654
687.70 0.3653
687.80 0.3651
687.90 0.365
688.00 0.3648
688.10 0.3646
688.20 0.3645
688.30 0.3643
688.40 0.3642
688.50 0.364
688.60 0.3639
688.70 0.3637
688.80 0.3635
688.90 0.3634
689.00 0.3632
689.10 0.3631
689.20 0.3629
689.30 0.3627
689.40 0.3626
689.50 0.3624
689.60 0.3622
689.70 0.3621
689.80 0.3619
689.90 0.3617
690.00 0.3616
690.10 0.3614
690.20 0.3613
690.30 0.3611
690.40 0.3609
690.50 0.3608
690.60 0.3606
690.70 0.3604
690.80 0.3603
690.90 0.3601
691.00 0.3599
691.10 0.3598
691.20 0.3596
691.30 0.3594
691.40 0.3593
691.50 0.3591
691.60 0.3589
691.70 0.3588
691.80 0.3586
691.90 0.3585
692.00 0.3583
692.10 0.3581
692.20 0.358
692.30 0.3578
692.40 0.3576
692.50 0.3575
692.60 0.3573
692.70 0.3571
692.80 0.357
692.90 0.3568
693.00 0.3567
693.10 0.3565
693.20 0.3563
693.30 0.3562
693.40 0.356
693.50 0.3558
693.60 0.3557
693.70 0.3555
693.80 0.3553
693.90 0.3552
694.00 0.355
694.10 0.3549
694.20 0.3547
694.30 0.3545
694.40 0.3544
694.50 0.3542
694.60 0.3541
694.70 0.3539
694.80 0.3537
694.90 0.3536
695.00 0.3534
695.10 0.3532
695.20 0.3531
695.30 0.3529
695.40 0.3528
695.50 0.3526
695.60 0.3524
695.70 0.3523
695.80 0.3521
695.90 0.352
696.00 0.3518
696.10 0.3516
696.20 0.3515
696.30 0.3513
696.40 0.3512
696.50 0.351
696.60 0.3508
696.70 0.3507
696.80 0.3505
696.90 0.3503
697.00 0.3502
697.10 0.35
697.20 0.3499
697.30 0.3497
697.40 0.3495
697.50 0.3494
697.60 0.3492
697.70 0.3491
697.80 0.3489
697.90 0.3488
698.00 0.3486
698.10 0.3484
698.20 0.3483
698.30 0.3481
698.40 0.348
698.50 0.3478
698.60 0.3476
698.70 0.3475
698.80 0.3473
698.90 0.3472
699.00 0.347
699.10 0.3468
699.20 0.3467
699.30 0.3465
699.40 0.3464
699.50 0.3462
699.60 0.3461
699.70 0.3459
699.80 0.3457
699.90 0.3456
700.00 0.3454
700.10 0.3453
700.20 0.3451
700.30 0.345
700.40 0.3448
700.50 0.3447
700.60 0.3445
700.70 0.3444
700.80 0.3442
700.90 0.3441
701.00 0.3439
701.10 0.3438
701.20 0.3436
701.30 0.3435
701.40 0.3433
701.50 0.3432
701.60 0.343
701.70 0.3429
701.80 0.3427
701.90 0.3426
702.00 0.3424
702.10 0.3423
702.20 0.3421
702.30 0.342
702.40 0.3418
702.50 0.3417
702.60 0.3415
702.70 0.3414
702.80 0.3412
702.90 0.3411
703.00 0.3409
703.10 0.3408
703.20 0.3406
703.30 0.3405
703.40 0.3404
703.50 0.3402
703.60 0.3401
703.70 0.3399
703.80 0.3398
703.90 0.3396
704.00 0.3395
704.10 0.3393
704.20 0.3392
704.30 0.339
704.40 0.3389
704.50 0.3387
704.60 0.3386
704.70 0.3384
704.80 0.3383
704.90 0.3381
705.00 0.338
705.10 0.3378
705.20 0.3377
705.30 0.3375
705.40 0.3374
705.50 0.3372
705.60 0.337
705.70 0.3369
705.80 0.3367
705.90 0.3366
706.00 0.3364
706.10 0.3362
706.20 0.3361
706.30 0.3359
706.40 0.3358
706.50 0.3356
706.60 0.3354
706.70 0.3353
706.80 0.3351
706.90 0.335
707.00 0.3348
707.10 0.3347
707.20 0.3345
707.30 0.3343
707.40 0.3342
707.50 0.334
707.60 0.3339
707.70 0.3337
707.80 0.3335
707.90 0.3334
708.00 0.3332
708.10 0.3331
708.20 0.3329
708.30 0.3328
708.40 0.3326
708.50 0.3324
708.60 0.3323
708.70 0.3321
708.80 0.332
708.90 0.3318
709.00 0.3317
709.10 0.3315
709.20 0.3313
709.30 0.3312
709.40 0.331
709.50 0.3309
709.60 0.3307
709.70 0.3306
709.80 0.3304
709.90 0.3303
710.00 0.3301
710.10 0.3299
710.20 0.3298
710.30 0.3296
710.40 0.3295
710.50 0.3293
710.60 0.3292
710.70 0.329
710.80 0.3288
710.90 0.3287
711.00 0.3285
711.10 0.3284
711.20 0.3282
711.30 0.3281
711.40 0.3279
711.50 0.3278
711.60 0.3276
711.70 0.3274
711.80 0.3273
711.90 0.3271
712.00 0.327
712.10 0.3268
712.20 0.3267
712.30 0.3265
712.40 0.3264
712.50 0.3262
712.60 0.3261
712.70 0.3259
712.80 0.3257
712.90 0.3256
713.00 0.3254
713.10 0.3253
713.20 0.3251
713.30 0.325
713.40 0.3248
713.50 0.3247
713.60 0.3245
713.70 0.3244
713.80 0.3242
713.90 0.3241
714.00 0.3239
714.10 0.3238
714.20 0.3236
714.30 0.3234
714.40 0.3233
714.50 0.3231
714.60 0.323
714.70 0.3228
714.80 0.3227
714.90 0.3225
715.00 0.3224
715.10 0.3222
715.20 0.3221
715.30 0.3219
715.40 0.3218
715.50 0.3217
715.60 0.3215
715.70 0.3214
715.80 0.3212
715.90 0.3211
716.00 0.3209
716.10 0.3208
716.20 0.3206
716.30 0.3205
716.40 0.3204
716.50 0.3202
716.60 0.3201
716.70 0.3199
716.80 0.3198
716.90 0.3196
717.00 0.3195
717.10 0.3193
717.20 0.3192
717.30 0.3191
717.40 0.3189
717.50 0.3188
717.60 0.3186
717.70 0.3185
717.80 0.3183
717.90 0.3182
718.00 0.3181
718.10 0.3179
718.20 0.3178
718.30 0.3176
718.40 0.3175
718.50 0.3173
718.60 0.3172
718.70 0.3171
718.80 0.3169
718.90 0.3168
719.00 0.3166
719.10 0.3165
719.20 0.3163
719.30 0.3162
719.40 0.3161
719.50 0.3159
719.60 0.3158
719.70 0.3156
719.80 0.3155
719.90 0.3154
720.00 0.3152
720.10 0.3151
720.20 0.3149
720.30 0.3148
720.40 0.3146
720.50 0.3145
720.60 0.3143
720.70 0.3142
720.80 0.314
720.90 0.3139
721.00 0.3137
721.10 0.3136
721.20 0.3134
721.30 0.3133
721.40 0.3131
721.50 0.313
721.60 0.3128
721.70 0.3127
721.80 0.3125
721.90 0.3124
722.00 0.3122
722.10 0.3121
722.20 0.3119
722.30 0.3118
722.40 0.3116
722.50 0.3115
722.60 0.3113
722.70 0.3112
722.80 0.311
722.90 0.3109
723.00 0.3107
723.10 0.3106
723.20 0.3104
723.30 0.3103
723.40 0.3102
723.50 0.31
723.60 0.3099
723.70 0.3097
723.80 0.3096
723.90 0.3094
724.00 0.3093
724.10 0.3091
724.20 0.309
724.30 0.3088
724.40 0.3087
724.50 0.3085
724.60 0.3084
724.70 0.3082
724.80 0.3081
724.90 0.3079
725.00 0.3078
725.10 0.3077
725.20 0.3075
725.30 0.3074
725.40 0.3072
725.50 0.3071
725.60 0.3069
725.70 0.3068
725.80 0.3066
725.90 0.3065
726.00 0.3063
726.10 0.3062
726.20 0.3061
726.30 0.3059
726.40 0.3058
726.50 0.3056
726.60 0.3055
726.70 0.3053
726.80 0.3052
726.90 0.305
727.00 0.3049
727.10 0.3048
727.20 0.3046
727.30 0.3045
727.40 0.3043
727.50 0.3042
727.60 0.304
727.70 0.3039
727.80 0.3038
727.90 0.3036
728.00 0.3035
728.10 0.3033
728.20 0.3032
728.30 0.303
728.40 0.3029
728.50 0.3027
728.60 0.3026
728.70 0.3025
728.80 0.3023
728.90 0.3022
729.00 0.302
729.10 0.3019
729.20 0.3017
729.30 0.3016
729.40 0.3015
729.50 0.3013
729.60 0.3012
729.70 0.301
729.80 0.3009
729.90 0.3007
730.00 0.3006
730.10 0.3005
730.20 0.3003
730.30 0.3002
730.40 0.3
730.50 0.2999
730.60 0.2998
730.70 0.2996
730.80 0.2995
730.90 0.2993
731.00 0.2992
731.10 0.2991
731.20 0.2989
731.30 0.2988
731.40 0.2986
731.50 0.2985
731.60 0.2984
731.70 0.2982
731.80 0.2981
731.90 0.2979
732.00 0.2978
732.10 0.2977
732.20 0.2975
732.30 0.2974
732.40 0.2972
732.50 0.2971
732.60 0.297
732.70 0.2968
732.80 0.2967
732.90 0.2966
733.00 0.2964
733.10 0.2963
733.20 0.2961
733.30 0.296
733.40 0.2959
733.50 0.2957
733.60 0.2956
733.70 0.2954
733.80 0.2953
733.90 0.2952
734.00 0.295
734.10 0.2949
734.20 0.2947
734.30 0.2946
734.40 0.2945
734.50 0.2943
734.60 0.2942
734.70 0.2941
734.80 0.2939
734.90 0.2938
735.00 0.2936
735.10 0.2935
735.20 0.2934
735.30 0.2932
735.40 0.2931
735.50 0.293
735.60 0.2928
735.70 0.2927
735.80 0.2925
735.90 0.2924
736.00 0.2923
736.10 0.2921
736.20 0.292
736.30 0.2919
736.40 0.2917
736.50 0.2916
736.60 0.2915
736.70 0.2913
736.80 0.2912
736.90 0.291
737.00 0.2909
737.10 0.2908
737.20 0.2906
737.30 0.2905
737.40 0.2904
737.50 0.2902
737.60 0.2901
737.70 0.29
737.80 0.2898
737.90 0.2897
738.00 0.2895
738.10 0.2894
738.20 0.2893
738.30 0.2891
738.40 0.289
738.50 0.2889
738.60 0.2887
738.70 0.2886
738.80 0.2885
738.90 0.2883
739.00 0.2882
739.10 0.2881
739.20 0.2879
739.30 0.2878
739.40 0.2877
739.50 0.2875
739.60 0.2874
739.70 0.2873
739.80 0.2871
739.90 0.287
740.00 0.2868
740.10 0.2867
740.20 0.2866
740.30 0.2864
740.40 0.2863
740.50 0.2862
740.60 0.2861
740.70 0.2859
740.80 0.2858
740.90 0.2857
741.00 0.2855
741.10 0.2854
741.20 0.2853
741.30 0.2851
741.40 0.285
741.50 0.2849
741.60 0.2847
741.70 0.2846
741.80 0.2845
741.90 0.2843
742.00 0.2842
742.10 0.2841
742.20 0.2839
742.30 0.2838
742.40 0.2837
742.50 0.2835
742.60 0.2834
742.70 0.2833
742.80 0.2832
742.90 0.283
743.00 0.2829
743.10 0.2828
743.20 0.2826
743.30 0.2825
743.40 0.2824
743.50 0.2822
743.60 0.2821
743.70 0.282
743.80 0.2818
743.90 0.2817
744.00 0.2816
744.10 0.2815
744.20 0.2813
744.30 0.2812
744.40 0.2811
744.50 0.2809
744.60 0.2808
744.70 0.2807
744.80 0.2805
744.90 0.2804
745.00 0.2803
745.10 0.2802
745.20 0.28
745.30 0.2799
745.40 0.2798
745.50 0.2796
745.60 0.2795
745.70 0.2794
745.80 0.2792
745.90 0.2791
746.00 0.279
746.10 0.2789
746.20 0.2787
746.30 0.2786
746.40 0.2785
746.50 0.2783
746.60 0.2782
746.70 0.2781
746.80 0.278
746.90 0.2778
747.00 0.2777
747.10 0.2776
747.20 0.2774
747.30 0.2773
747.40 0.2772
747.50 0.2771
747.60 0.2769
747.70 0.2768
747.80 0.2767
747.90 0.2765
748.00 0.2764
748.10 0.2763
748.20 0.2762
748.30 0.276
748.40 0.2759
748.50 0.2758
748.60 0.2757
748.70 0.2755
748.80 0.2754
748.90 0.2753
749.00 0.2751
749.10 0.275
749.20 0.2749
749.30 0.2748
749.40 0.2746
749.50 0.2745
749.60 0.2744
749.70 0.2743
749.80 0.2741
749.90 0.274
750.00 0.2739
750.10 0.2737
750.20 0.2736
750.30 0.2735
750.40 0.2734
750.50 0.2732
750.60 0.2731
750.70 0.273
750.80 0.2729
750.90 0.2727
751.00 0.2726
751.10 0.2725
751.20 0.2724
751.30 0.2722
751.40 0.2721
751.50 0.272
751.60 0.2719
751.70 0.2717
751.80 0.2716
751.90 0.2715
752.00 0.2714
752.10 0.2713
752.20 0.2711
752.30 0.271
752.40 0.2709
752.50 0.2708
752.60 0.2706
752.70 0.2705
752.80 0.2704
752.90 0.2703
753.00 0.2701
753.10 0.27
753.20 0.2699
753.30 0.2698
753.40 0.2696
753.50 0.2695
753.60 0.2694
753.70 0.2693
753.80 0.2691
753.90 0.269
754.00 0.2689
754.10 0.2688
754.20 0.2687
754.30 0.2685
754.40 0.2684
754.50 0.2683
754.60 0.2682
754.70 0.268
754.80 0.2679
754.90 0.2678
755.00 0.2677
755.10 0.2676
755.20 0.2674
755.30 0.2673
755.40 0.2672
755.50 0.2671
755.60 0.2669
755.70 0.2668
755.80 0.2667
755.90 0.2666
756.00 0.2665
756.10 0.2663
756.20 0.2662
756.30 0.2661
756.40 0.266
756.50 0.2658
756.60 0.2657
756.70 0.2656
756.80 0.2655
756.90 0.2654
757.00 0.2652
757.10 0.2651
757.20 0.265
757.30 0.2649
757.40 0.2647
757.50 0.2646
757.60 0.2645
757.70 0.2644
757.80 0.2643
757.90 0.2641
758.00 0.264
758.10 0.2639
758.20 0.2638
758.30 0.2637
758.40 0.2635
758.50 0.2634
758.60 0.2633
758.70 0.2632
758.80 0.2631
758.90 0.2629
759.00 0.2628
759.10 0.2627
759.20 0.2626
759.30 0.2625
759.40 0.2623
759.50 0.2622
759.60 0.2621
759.70 0.262
759.80 0.2619
759.90 0.2617
760.00 0.2616
760.10 0.2615
760.20 0.2614
760.30 0.2613
760.40 0.2611
760.50 0.261
760.60 0.2609
760.70 0.2608
760.80 0.2607
760.90 0.2606
761.00 0.2604
761.10 0.2603
761.20 0.2602
761.30 0.2601
761.40 0.26
761.50 0.2598
761.60 0.2597
761.70 0.2596
761.80 0.2595
761.90 0.2594
762.00 0.2593
762.10 0.2591
762.20 0.259
762.30 0.2589
762.40 0.2588
762.50 0.2587
762.60 0.2586
762.70 0.2584
762.80 0.2583
762.90 0.2582
763.00 0.2581
763.10 0.258
763.20 0.2579
763.30 0.2577
763.40 0.2576
763.50 0.2575
763.60 0.2574
763.70 0.2573
763.80 0.2572
763.90 0.257
764.00 0.2569
764.10 0.2568
764.20 0.2567
764.30 0.2566
764.40 0.2565
764.50 0.2563
764.60 0.2562
764.70 0.2561
764.80 0.256
764.90 0.2559
765.00 0.2558
765.10 0.2557
765.20 0.2555
765.30 0.2554
765.40 0.2553
765.50 0.2552
765.60 0.2551
765.70 0.255
765.80 0.2548
765.90 0.2547
766.00 0.2546
766.10 0.2545
766.20 0.2544
766.30 0.2543
766.40 0.2542
766.50 0.254
766.60 0.2539
766.70 0.2538
766.80 0.2537
766.90 0.2536
767.00 0.2535
767.10 0.2534
767.20 0.2532
767.30 0.2531
767.40 0.253
767.50 0.2529
767.60 0.2528
767.70 0.2527
767.80 0.2525
767.90 0.2524
768.00 0.2523
768.10 0.2522
768.20 0.2521
768.30 0.252
768.40 0.2519
768.50 0.2518
768.60 0.2516
768.70 0.2515
768.80 0.2514
768.90 0.2513
769.00 0.2512
769.10 0.2511
769.20 0.251
769.30 0.2508
769.40 0.2507
769.50 0.2506
769.60 0.2505
769.70 0.2504
769.80 0.2503
769.90 0.2502
770.00 0.25
770.10 0.2499
770.20 0.2498
770.30 0.2497
770.40 0.2496
770.50 0.2495
770.60 0.2494
770.70 0.2493
770.80 0.2492
770.90 0.249
771.00 0.2489
771.10 0.2488
771.20 0.2487
771.30 0.2486
771.40 0.2485
771.50 0.2484
771.60 0.2483
771.70 0.2482
771.80 0.248
771.90 0.2479
772.00 0.2478
772.10 0.2477
772.20 0.2476
772.30 0.2475
772.40 0.2474
772.50 0.2473
772.60 0.2472
772.70 0.247
772.80 0.2469
772.90 0.2468
773.00 0.2467
773.10 0.2466
773.20 0.2465
773.30 0.2464
773.40 0.2463
773.50 0.2462
773.60 0.2461
773.70 0.2459
773.80 0.2458
773.90 0.2457
774.00 0.2456
774.10 0.2455
774.20 0.2454
774.30 0.2453
774.40 0.2452
774.50 0.2451
774.60 0.245
774.70 0.2448
774.80 0.2447
774.90 0.2446
775.00 0.2445
775.10 0.2444
775.20 0.2443
775.30 0.2442
775.40 0.2441
775.50 0.244
775.60 0.2439
775.70 0.2438
775.80 0.2436
775.90 0.2435
776.00 0.2434
776.10 0.2433
776.20 0.2432
776.30 0.2431
776.40 0.243
776.50 0.2429
776.60 0.2428
776.70 0.2427
776.80 0.2426
776.90 0.2425
777.00 0.2423
777.10 0.2422
777.20 0.2421
777.30 0.242
777.40 0.2419
777.50 0.2418
777.60 0.2417
777.70 0.2416
777.80 0.2415
777.90 0.2414
778.00 0.2413
778.10 0.2412
778.20 0.241
778.30 0.2409
778.40 0.2408
778.50 0.2407
778.60 0.2406
778.70 0.2405
778.80 0.2404
778.90 0.2403
779.00 0.2402
779.10 0.2401
779.20 0.24
779.30 0.2399
779.40 0.2398
779.50 0.2396
779.60 0.2395
779.70 0.2394
779.80 0.2393
779.90 0.2392
780.00 0.2391
780.10 0.239
780.20 0.2389
780.30 0.2388
780.40 0.2387
780.50 0.2386
780.60 0.2385
780.70 0.2384
780.80 0.2383
780.90 0.2382
781.00 0.2381
781.10 0.238
781.20 0.2378
781.30 0.2377
781.40 0.2376
781.50 0.2375
781.60 0.2374
781.70 0.2373
781.80 0.2372
781.90 0.2371
782.00 0.237
782.10 0.2369
782.20 0.2368
782.30 0.2367
782.40 0.2366
782.50 0.2365
782.60 0.2364
782.70 0.2363
782.80 0.2362
782.90 0.2361
783.00 0.236
783.10 0.2359
783.20 0.2358
783.30 0.2356
783.40 0.2355
783.50 0.2354
783.60 0.2353
783.70 0.2352
783.80 0.2351
783.90 0.235
784.00 0.2349
784.10 0.2348
784.20 0.2347
784.30 0.2346
784.40 0.2345
784.50 0.2344
784.60 0.2343
784.70 0.2342
784.80 0.2341
784.90 0.234
785.00 0.2339
785.10 0.2338
785.20 0.2337
785.30 0.2336
785.40 0.2335
785.50 0.2334
785.60 0.2333
785.70 0.2332
785.80 0.2331
785.90 0.233
786.00 0.2329
786.10 0.2327
786.20 0.2326
786.30 0.2325
786.40 0.2324
786.50 0.2323
786.60 0.2322
786.70 0.2321
786.80 0.232
786.90 0.2319
787.00 0.2318
787.10 0.2317
787.20 0.2316
787.30 0.2315
787.40 0.2314
787.50 0.2313
787.60 0.2312
787.70 0.2311
787.80 0.231
787.90 0.2309
788.00 0.2308
788.10 0.2307
788.20 0.2306
788.30 0.2305
788.40 0.2304
788.50 0.2303
788.60 0.2302
788.70 0.2301
788.80 0.23
788.90 0.2299
789.00 0.2298
789.10 0.2297
789.20 0.2296
789.30 0.2295
789.40 0.2294
789.50 0.2293
789.60 0.2292
789.70 0.2291
789.80 0.229
789.90 0.2289
790.00 0.2288
790.10 0.2287
790.20 0.2286
790.30 0.2285
790.40 0.2284
790.50 0.2283
790.60 0.2282
790.70 0.2281
790.80 0.228
790.90 0.2279
791.00 0.2278
791.10 0.2277
791.20 0.2276
791.30 0.2275
791.40 0.2274
791.50 0.2273
791.60 0.2272
791.70 0.2271
791.80 0.227
791.90 0.2269
792.00 0.2268
792.10 0.2267
792.20 0.2266
792.30 0.2265
792.40 0.2264
792.50 0.2263
792.60 0.2262
792.70 0.2261
792.80 0.226
792.90 0.2259
793.00 0.2258
793.10 0.2257
793.20 0.2256
793.30 0.2255
793.40 0.2254
793.50 0.2253
793.60 0.2252
793.70 0.2251
793.80 0.225
793.90 0.2249
794.00 0.2248
794.10 0.2247
794.20 0.2246
794.30 0.2245
794.40 0.2244
794.50 0.2243
794.60 0.2242
794.70 0.2241
794.80 0.224
794.90 0.2239
795.00 0.2238
795.10 0.2237
795.20 0.2236
795.30 0.2235
795.40 0.2234
795.50 0.2233
795.60 0.2232
795.70 0.2231
795.80 0.223
795.90 0.2229
796.00 0.2228
796.10 0.2227
796.20 0.2227
796.30 0.2226
796.40 0.2225
796.50 0.2224
796.60 0.2223
796.70 0.2222
796.80 0.2221
796.90 0.222
797.00 0.2219
797.10 0.2218
797.20 0.2217
797.30 0.2216
797.40 0.2215
797.50 0.2214
797.60 0.2213
797.70 0.2212
797.80 0.2211
797.90 0.221
798.00 0.2209
798.10 0.2208
798.20 0.2207
798.30 0.2206
798.40 0.2205
798.50 0.2204
798.60 0.2203
798.70 0.2202
798.80 0.2201
798.90 0.22
799.00 0.2199
799.10 0.2198
799.20 0.2197
799.30 0.2197
799.40 0.2196
799.50 0.2195
799.60 0.2194
799.70 0.2193
799.80 0.2192
799.90 0.2191
800.00 0.219
800.10 0.2189
800.20 0.2188
800.30 0.2187
800.40 0.2186
800.50 0.2185
800.60 0.2184
800.70 0.2183
800.80 0.2182
800.90 0.2181
801.00 0.218
801.10 0.2179
801.20 0.2178
801.30 0.2178
801.40 0.2177
801.50 0.2176
801.60 0.2175
801.70 0.2174
801.80 0.2173
801.90 0.2172
802.00 0.2171
802.10 0.217
802.20 0.2169
802.30 0.2168
802.40 0.2167
802.50 0.2166
802.60 0.2165
802.70 0.2164
802.80 0.2163
802.90 0.2163
803.00 0.2162
803.10 0.2161
803.20 0.216
803.30 0.2159
803.40 0.2158
803.50 0.2157
803.60 0.2156
803.70 0.2155
803.80 0.2154
803.90 0.2153
804.00 0.2152
804.10 0.2151
804.20 0.215
804.30 0.2149
804.40 0.2149
804.50 0.2148
804.60 0.2147
804.70 0.2146
804.80 0.2145
804.90 0.2144
805.00 0.2143
805.10 0.2142
805.20 0.2141
805.30 0.214
805.40 0.2139
805.50 0.2138
805.60 0.2137
805.70 0.2136
805.80 0.2136
805.90 0.2135
806.00 0.2134
806.10 0.2133
806.20 0.2132
806.30 0.2131
806.40 0.213
806.50 0.2129
806.60 0.2128
806.70 0.2127
806.80 0.2126
806.90 0.2125
807.00 0.2124
807.10 0.2124
807.20 0.2123
807.30 0.2122
807.40 0.2121
807.50 0.212
807.60 0.2119
807.70 0.2118
807.80 0.2117
807.90 0.2116
808.00 0.2115
808.10 0.2114
808.20 0.2113
808.30 0.2113
808.40 0.2112
808.50 0.2111
808.60 0.211
808.70 0.2109
808.80 0.2108
808.90 0.2107
809.00 0.2106
809.10 0.2105
809.20 0.2104
809.30 0.2103
809.40 0.2103
809.50 0.2102
809.60 0.2101
809.70 0.21
809.80 0.2099
809.90 0.2098
810.00 0.2097
810.10 0.2096
810.20 0.2095
810.30 0.2094
810.40 0.2094
810.50 0.2093
810.60 0.2092
810.70 0.2091
810.80 0.209
810.90 0.2089
811.00 0.2088
811.10 0.2087
811.20 0.2086
811.30 0.2085
811.40 0.2085
811.50 0.2084
811.60 0.2083
811.70 0.2082
811.80 0.2081
811.90 0.208
812.00 0.2079
812.10 0.2078
812.20 0.2077
812.30 0.2077
812.40 0.2076
812.50 0.2075
812.60 0.2074
812.70 0.2073
812.80 0.2072
812.90 0.2071
813.00 0.207
813.10 0.2069
813.20 0.2069
813.30 0.2068
813.40 0.2067
813.50 0.2066
813.60 0.2065
813.70 0.2064
813.80 0.2063
813.90 0.2062
814.00 0.2062
814.10 0.2061
814.20 0.206
814.30 0.2059
814.40 0.2058
814.50 0.2057
814.60 0.2056
814.70 0.2055
814.80 0.2054
814.90 0.2054
815.00 0.2053
815.10 0.2052
815.20 0.2051
815.30 0.205
815.40 0.2049
815.50 0.2048
815.60 0.2047
815.70 0.2047
815.80 0.2046
815.90 0.2045
816.00 0.2044
816.10 0.2043
816.20 0.2042
816.30 0.2041
816.40 0.204
816.50 0.204
816.60 0.2039
816.70 0.2038
816.80 0.2037
816.90 0.2036
817.00 0.2035
817.10 0.2034
817.20 0.2034
817.30 0.2033
817.40 0.2032
817.50 0.2031
817.60 0.203
817.70 0.2029
817.80 0.2028
817.90 0.2027
818.00 0.2027
818.10 0.2026
818.20 0.2025
818.30 0.2024
818.40 0.2023
818.50 0.2022
818.60 0.2021
818.70 0.2021
818.80 0.202
818.90 0.2019
819.00 0.2018
819.10 0.2017
819.20 0.2016
819.30 0.2015
819.40 0.2014
819.50 0.2014
819.60 0.2013
819.70 0.2012
819.80 0.2011
819.90 0.201
820.00 0.2009
820.10 0.2008
820.20 0.2008
820.30 0.2007
820.40 0.2006
820.50 0.2005
820.60 0.2004
820.70 0.2003
820.80 0.2003
820.90 0.2002
821.00 0.2001
821.10 0.2
821.20 0.1999
821.30 0.1998
821.40 0.1997
821.50 0.1997
821.60 0.1996
821.70 0.1995
821.80 0.1994
821.90 0.1993
822.00 0.1992
822.10 0.1992
822.20 0.1991
822.30 0.199
822.40 0.1989
822.50 0.1988
822.60 0.1987
822.70 0.1987
822.80 0.1986
822.90 0.1985
823.00 0.1984
823.10 0.1983
823.20 0.1982
823.30 0.1981
823.40 0.1981
823.50 0.198
823.60 0.1979
823.70 0.1978
823.80 0.1977
823.90 0.1976
824.00 0.1976
824.10 0.1975
824.20 0.1974
824.30 0.1973
824.40 0.1972
824.50 0.1971
824.60 0.1971
824.70 0.197
824.80 0.1969
824.90 0.1968
825.00 0.1967
825.10 0.1966
825.20 0.1966
825.30 0.1965
825.40 0.1964
825.50 0.1963
825.60 0.1962
825.70 0.1961
825.80 0.1961
825.90 0.196
826.00 0.1959
826.10 0.1958
826.20 0.1957
826.30 0.1956
826.40 0.1956
826.50 0.1955
826.60 0.1954
826.70 0.1953
826.80 0.1952
826.90 0.1951
827.00 0.1951
827.10 0.195
827.20 0.1949
827.30 0.1948
827.40 0.1947
827.50 0.1947
827.60 0.1946
827.70 0.1945
827.80 0.1944
827.90 0.1943
828.00 0.1942
828.10 0.1942
828.20 0.1941
828.30 0.194
828.40 0.1939
828.50 0.1938
828.60 0.1938
828.70 0.1937
828.80 0.1936
828.90 0.1935
829.00 0.1934
829.10 0.1933
829.20 0.1933
829.30 0.1932
829.40 0.1931
829.50 0.193
829.60 0.1929
829.70 0.1929
829.80 0.1928
829.90 0.1927
830.00 0.1926
830.10 0.1925
830.20 0.1925
830.30 0.1924
830.40 0.1923
830.50 0.1922
830.60 0.1921
830.70 0.192
830.80 0.192
830.90 0.1919
831.00 0.1918
831.10 0.1917
831.20 0.1916
831.30 0.1916
831.40 0.1915
831.50 0.1914
831.60 0.1913
831.70 0.1912
831.80 0.1912
831.90 0.1911
832.00 0.191
832.10 0.1909
832.20 0.1908
832.30 0.1908
832.40 0.1907
832.50 0.1906
832.60 0.1905
832.70 0.1904
832.80 0.1904
832.90 0.1903
833.00 0.1902
833.10 0.1901
833.20 0.19
833.30 0.19
833.40 0.1899
833.50 0.1898
833.60 0.1897
833.70 0.1896
833.80 0.1896
833.90 0.1895
834.00 0.1894
834.10 0.1893
834.20 0.1892
834.30 0.1892
834.40 0.1891
834.50 0.189
834.60 0.1889
834.70 0.1889
834.80 0.1888
834.90 0.1887
835.00 0.1886
835.10 0.1885
835.20 0.1885
835.30 0.1884
835.40 0.1883
835.50 0.1882
835.60 0.1881
835.70 0.1881
835.80 0.188
835.90 0.1879
836.00 0.1878
836.10 0.1877
836.20 0.1877
836.30 0.1876
836.40 0.1875
836.50 0.1874
836.60 0.1874
836.70 0.1873
836.80 0.1872
836.90 0.1871
837.00 0.187
837.10 0.187
837.20 0.1869
837.30 0.1868
837.40 0.1867
837.50 0.1867
837.60 0.1866
837.70 0.1865
837.80 0.1864
837.90 0.1863
838.00 0.1863
838.10 0.1862
838.20 0.1861
838.30 0.186
838.40 0.186
838.50 0.1859
838.60 0.1858
838.70 0.1857
838.80 0.1856
838.90 0.1856
839.00 0.1855
839.10 0.1854
839.20 0.1853
839.30 0.1853
839.40 0.1852
839.50 0.1851
839.60 0.185
839.70 0.1849
839.80 0.1849
839.90 0.1848
840.00 0.1847
840.10 0.1846
840.20 0.1846
840.30 0.1845
840.40 0.1844
840.50 0.1843
840.60 0.1843
840.70 0.1842
840.80 0.1841
840.90 0.184
841.00 0.1839
841.10 0.1839
841.20 0.1838
841.30 0.1837
841.40 0.1836
841.50 0.1836
841.60 0.1835
841.70 0.1834
841.80 0.1833
841.90 0.1833
842.00 0.1832
842.10 0.1831
842.20 0.183
842.30 0.183
842.40 0.1829
842.50 0.1828
842.60 0.1827
842.70 0.1827
842.80 0.1826
842.90 0.1825
843.00 0.1824
843.10 0.1823
843.20 0.1823
843.30 0.1822
843.40 0.1821
843.50 0.182
843.60 0.182
843.70 0.1819
843.80 0.1818
843.90 0.1817
844.00 0.1817
844.10 0.1816
844.20 0.1815
844.30 0.1814
844.40 0.1814
844.50 0.1813
844.60 0.1812
844.70 0.1811
844.80 0.1811
844.90 0.181
845.00 0.1809
845.10 0.1808
845.20 0.1808
845.30 0.1807
845.40 0.1806
845.50 0.1805
845.60 0.1805
845.70 0.1804
845.80 0.1803
845.90 0.1802
846.00 0.1802
846.10 0.1801
846.20 0.18
846.30 0.1799
846.40 0.1799
846.50 0.1798
846.60 0.1797
846.70 0.1796
846.80 0.1796
846.90 0.1795
847.00 0.1794
847.10 0.1794
847.20 0.1793
847.30 0.1792
847.40 0.1791
847.50 0.1791
847.60 0.179
847.70 0.1789
847.80 0.1789
847.90 0.1788
848.00 0.1787
848.10 0.1786
848.20 0.1786
848.30 0.1785
848.40 0.1784
848.50 0.1784
848.60 0.1783
848.70 0.1782
848.80 0.1781
848.90 0.1781
849.00 0.178
849.10 0.1779
849.20 0.1779
849.30 0.1778
849.40 0.1777
849.50 0.1776
849.60 0.1776
849.70 0.1775
849.80 0.1774
849.90 0.1774
850.00 0.1773
850.10 0.1772
850.20 0.1771
850.30 0.1771
850.40 0.177
850.50 0.1769
850.60 0.1769
850.70 0.1768
850.80 0.1767
850.90 0.1766
851.00 0.1766
851.10 0.1765
851.20 0.1764
851.30 0.1764
851.40 0.1763
851.50 0.1762
851.60 0.1761
851.70 0.1761
851.80 0.176
851.90 0.1759
852.00 0.1759
852.10 0.1758
852.20 0.1757
852.30 0.1757
852.40 0.1756
852.50 0.1755
852.60 0.1754
852.70 0.1754
852.80 0.1753
852.90 0.1752
853.00 0.1752
853.10 0.1751
853.20 0.175
853.30 0.175
853.40 0.1749
853.50 0.1748
853.60 0.1748
853.70 0.1747
853.80 0.1746
853.90 0.1745
854.00 0.1745
854.10 0.1744
854.20 0.1743
854.30 0.1743
854.40 0.1742
854.50 0.1741
854.60 0.1741
854.70 0.174
854.80 0.1739
854.90 0.1739
855.00 0.1738
855.10 0.1737
855.20 0.1736
855.30 0.1736
855.40 0.1735
855.50 0.1734
855.60 0.1734
855.70 0.1733
855.80 0.1732
855.90 0.1732
856.00 0.1731
856.10 0.173
856.20 0.173
856.30 0.1729
856.40 0.1728
856.50 0.1728
856.60 0.1727
856.70 0.1726
856.80 0.1725
856.90 0.1725
857.00 0.1724
857.10 0.1723
857.20 0.1723
857.30 0.1722
857.40 0.1721
857.50 0.1721
857.60 0.172
857.70 0.1719
857.80 0.1719
857.90 0.1718
858.00 0.1717
858.10 0.1717
858.20 0.1716
858.30 0.1715
858.40 0.1715
858.50 0.1714
858.60 0.1714
858.70 0.1713
858.80 0.1712
858.90 0.1712
859.00 0.1711
859.10 0.171
859.20 0.171
859.30 0.1709
859.40 0.1708
859.50 0.1708
859.60 0.1707
859.70 0.1706
859.80 0.1706
859.90 0.1705
860.00 0.1704
860.10 0.1704
860.20 0.1703
860.30 0.1702
860.40 0.1702
860.50 0.1701
860.60 0.17
860.70 0.17
860.80 0.1699
860.90 0.1698
861.00 0.1698
861.10 0.1697
861.20 0.1696
861.30 0.1696
861.40 0.1695
861.50 0.1694
861.60 0.1694
861.70 0.1693
861.80 0.1692
861.90 0.1692
862.00 0.1691
862.10 0.1691
862.20 0.169
862.30 0.1689
862.40 0.1689
862.50 0.1688
862.60 0.1687
862.70 0.1687
862.80 0.1686
862.90 0.1685
863.00 0.1685
863.10 0.1684
863.20 0.1683
863.30 0.1683
863.40 0.1682
863.50 0.1682
863.60 0.1681
863.70 0.168
863.80 0.168
863.90 0.1679
864.00 0.1678
864.10 0.1678
864.20 0.1677
864.30 0.1676
864.40 0.1676
864.50 0.1675
864.60 0.1675
864.70 0.1674
864.80 0.1673
864.90 0.1673
865.00 0.1672
865.10 0.1671
865.20 0.1671
865.30 0.167
865.40 0.1669
865.50 0.1669
865.60 0.1668
865.70 0.1667
865.80 0.1667
865.90 0.1666
866.00 0.1666
866.10 0.1665
866.20 0.1664
866.30 0.1664
866.40 0.1663
866.50 0.1662
866.60 0.1662
866.70 0.1661
866.80 0.1661
866.90 0.166
867.00 0.1659
867.10 0.1659
867.20 0.1658
867.30 0.1658
867.40 0.1657
867.50 0.1656
867.60 0.1656
867.70 0.1655
867.80 0.1655
867.90 0.1654
868.00 0.1653
868.10 0.1653
868.20 0.1652
868.30 0.1652
868.40 0.1651
868.50 0.1651
868.60 0.165
868.70 0.1649
868.80 0.1649
868.90 0.1648
869.00 0.1648
869.10 0.1647
869.20 0.1647
869.30 0.1646
869.40 0.1645
869.50 0.1645
869.60 0.1644
869.70 0.1644
869.80 0.1643
869.90 0.1642
870.00 0.1642
870.10 0.1641
870.20 0.1641
870.30 0.164
870.40 0.164
870.50 0.1639
870.60 0.1638
870.70 0.1638
870.80 0.1637
870.90 0.1637
871.00 0.1636
871.10 0.1636
871.20 0.1635
871.30 0.1634
871.40 0.1634
871.50 0.1633
871.60 0.1633
871.70 0.1632
871.80 0.1632
871.90 0.1631
872.00 0.163
872.10 0.163
872.20 0.1629
872.30 0.1629
872.40 0.1628
872.50 0.1628
872.60 0.1627
872.70 0.1626
872.80 0.1626
872.90 0.1625
873.00 0.1625
873.10 0.1624
873.20 0.1623
873.30 0.1623
873.40 0.1622
873.50 0.1622
873.60 0.1621
873.70 0.1621
873.80 0.162
873.90 0.1619
874.00 0.1619
874.10 0.1618
874.20 0.1618
874.30 0.1617
874.40 0.1617
874.50 0.1616
874.60 0.1615
874.70 0.1615
874.80 0.1614
874.90 0.1614
875.00 0.1613
875.10 0.1612
875.20 0.1612
875.30 0.1611
875.40 0.1611
875.50 0.161
875.60 0.161
875.70 0.1609
875.80 0.1608
875.90 0.1608
876.00 0.1607
876.10 0.1607
876.20 0.1606
876.30 0.1606
876.40 0.1605
876.50 0.1604
876.60 0.1604
876.70 0.1603
876.80 0.1603
876.90 0.1602
877.00 0.1602
877.10 0.1601
877.20 0.1601
877.30 0.16
877.40 0.16
877.50 0.1599
877.60 0.1598
877.70 0.1598
877.80 0.1597
877.90 0.1597
878.00 0.1596
878.10 0.1596
878.20 0.1595
878.30 0.1595
878.40 0.1594
878.50 0.1594
878.60 0.1593
878.70 0.1593
878.80 0.1592
878.90 0.1592
879.00 0.1591
879.10 0.1591
879.20 0.159
879.30 0.159
879.40 0.1589
879.50 0.1589
879.60 0.1588
879.70 0.1588
879.80 0.1587
879.90 0.1587
880.00 0.1586
880.10 0.1586
880.20 0.1585
880.30 0.1585
880.40 0.1584
880.50 0.1584
880.60 0.1583
880.70 0.1583
880.80 0.1582
880.90 0.1582
881.00 0.1581
881.10 0.1581
881.20 0.158
881.30 0.158
881.40 0.1579
881.50 0.1579
881.60 0.1578
881.70 0.1578
881.80 0.1577
881.90 0.1577
882.00 0.1576
882.10 0.1575
882.20 0.1575
882.30 0.1574
882.40 0.1573
882.50 0.1573
882.60 0.1572
882.70 0.1571
882.80 0.1571
882.90 0.157
883.00 0.1569
883.10 0.1569
883.20 0.1568
883.30 0.1567
883.40 0.1567
883.50 0.1566
883.60 0.1565
883.70 0.1565
883.80 0.1564
883.90 0.1563
884.00 0.1562
884.10 0.1562
884.20 0.1561
884.30 0.156
884.40 0.156
884.50 0.1559
884.60 0.1558
884.70 0.1558
884.80 0.1557
884.90 0.1556
885.00 0.1556
885.10 0.1555
885.20 0.1554
885.30 0.1554
885.40 0.1553
885.50 0.1552
885.60 0.1552
885.70 0.1551
885.80 0.155
885.90 0.155
886.00 0.1549
886.10 0.1548
886.20 0.1548
886.30 0.1547
886.40 0.1546
886.50 0.1545
886.60 0.1545
886.70 0.1544
886.80 0.1543
886.90 0.1543
887.00 0.1542
887.10 0.1542
887.20 0.1541
887.30 0.1541
887.40 0.1541
887.50 0.154
887.60 0.154
887.70 0.154
887.80 0.1539
887.90 0.1539
888.00 0.1539
888.10 0.1539
888.20 0.1538
888.30 0.1538
888.40 0.1538
888.50 0.1537
888.60 0.1537
888.70 0.1537
888.80 0.1536
888.90 0.1536
889.00 0.1536
889.10 0.1535
889.20 0.1535
889.30 0.1535
889.40 0.1534
889.50 0.1534
889.60 0.1534
889.70 0.1533
889.80 0.1533
889.90 0.1533
890.00 0.1532
890.10 0.1532
890.20 0.1532
890.30 0.1531
890.40 0.1531
890.50 0.1531
890.60 0.153
890.70 0.153
890.80 0.153
890.90 0.1529
891.00 0.1529
891.10 0.1529
891.20 0.1529
891.30 0.1528
891.40 0.1528
891.50 0.1528
891.60 0.1527
891.70 0.1527
891.80 0.1527
891.90 0.1526
892.00 0.1526
892.10 0.1525
892.20 0.1525
892.30 0.1524
892.40 0.1524
892.50 0.1523
892.60 0.1523
892.70 0.1522
892.80 0.1522
892.90 0.1521
893.00 0.1521
893.10 0.152
893.20 0.152
893.30 0.1519
893.40 0.1519
893.50 0.1518
893.60 0.1518
893.70 0.1517
893.80 0.1517
893.90 0.1516
894.00 0.1516
894.10 0.1515
894.20 0.1515
894.30 0.1514
894.40 0.1514
894.50 0.1513
894.60 0.1513
894.70 0.1512
894.80 0.1512
894.90 0.1511
895.00 0.1511
895.10 0.151
895.20 0.151
895.30 0.1509
895.40 0.1509
895.50 0.1508
895.60 0.1508
895.70 0.1507
895.80 0.1507
895.90 0.1506
896.00 0.1506
896.10 0.1505
896.20 0.1505
896.30 0.1504
896.40 0.1504
896.50 0.1503
896.60 0.1503
896.70 0.1502
896.80 0.1502
896.90 0.1501
897.00 0.1501
897.10 0.15
897.20 0.1499
897.30 0.1498
897.40 0.1497
897.50 0.1496
897.60 0.1495
897.70 0.1494
897.80 0.1493
897.90 0.1492
898.00 0.1491
898.10 0.149
898.20 0.1489
898.30 0.1488
898.40 0.1487
898.50 0.1486
898.60 0.1486
898.70 0.1485
898.80 0.1484
898.90 0.1483
899.00 0.1482
899.10 0.1481
899.20 0.148
899.30 0.1479
899.40 0.1478
899.50 0.1477
899.60 0.1476
899.70 0.1475
899.80 0.1474
899.90 0.1473
900.00 0.1472
900.10 0.1471
900.20 0.147
900.30 0.147
900.40 0.1469
900.50 0.1468
900.60 0.1467
900.70 0.1466
900.80 0.1465
900.90 0.1464
901.00 0.1463
901.10 0.1462
901.20 0.1461
901.30 0.146
901.40 0.1459
901.50 0.1458
901.60 0.1457
901.70 0.1456
901.80 0.1455
901.90 0.1455
902.00 0.1454
902.10 0.1454
902.20 0.1454
902.30 0.1453
902.40 0.1453
902.50 0.1453
902.60 0.1453
902.70 0.1453
902.80 0.1453
902.90 0.1453
903.00 0.1453
903.10 0.1453
903.20 0.1453
903.30 0.1453
903.40 0.1453
903.50 0.1453
903.60 0.1453
903.70 0.1453
903.80 0.1453
903.90 0.1453
904.00 0.1452
904.10 0.1452
904.20 0.1452
904.30 0.1452
904.40 0.1452
904.50 0.1452
904.60 0.1452
904.70 0.1452
904.80 0.1452
904.90 0.1452
905.00 0.1452
905.10 0.1452
905.20 0.1452
905.30 0.1452
905.40 0.1452
905.50 0.1452
905.60 0.1452
905.70 0.1451
905.80 0.1451
905.90 0.1451
906.00 0.1451
906.10 0.1451
906.20 0.1451
906.30 0.1451
906.40 0.1451
906.50 0.1451
906.60 0.1451
906.70 0.1451
906.80 0.1451
906.90 0.1451
907.00 0.1451
907.10 0.145
907.20 0.145
907.30 0.145
907.40 0.1449
907.50 0.1449
907.60 0.1449
907.70 0.1449
907.80 0.1448
907.90 0.1448
908.00 0.1448
908.10 0.1447
908.20 0.1447
908.30 0.1447
908.40 0.1446
908.50 0.1446
908.60 0.1446
908.70 0.1445
908.80 0.1445
908.90 0.1445
909.00 0.1444
909.10 0.1444
909.20 0.1444
909.30 0.1443
909.40 0.1443
909.50 0.1443
909.60 0.1443
909.70 0.1442
909.80 0.1442
909.90 0.1442
910.00 0.1441
910.10 0.1441
910.20 0.1441
910.30 0.144
910.40 0.144
910.50 0.144
910.60 0.1439
910.70 0.1439
910.80 0.1439
910.90 0.1438
911.00 0.1438
911.10 0.1438
911.20 0.1438
911.30 0.1437
911.40 0.1437
911.50 0.1437
911.60 0.1436
911.70 0.1436
911.80 0.1436
911.90 0.1435
912.00 0.1435
912.10 0.1434
912.20 0.1434
912.30 0.1433
912.40 0.1433
912.50 0.1432
912.60 0.1431
912.70 0.1431
912.80 0.143
912.90 0.1429
913.00 0.1429
913.10 0.1428
913.20 0.1427
913.30 0.1427
913.40 0.1426
913.50 0.1426
913.60 0.1425
913.70 0.1424
913.80 0.1424
913.90 0.1423
914.00 0.1422
914.10 0.1422
914.20 0.1421
914.30 0.1421
914.40 0.142
914.50 0.1419
914.60 0.1419
914.70 0.1418
914.80 0.1417
914.90 0.1417
915.00 0.1416
915.10 0.1416
915.20 0.1415
915.30 0.1414
915.40 0.1414
915.50 0.1413
915.60 0.1412
915.70 0.1412
915.80 0.1411
915.90 0.1411
916.00 0.141
916.10 0.1409
916.20 0.1409
916.30 0.1408
916.40 0.1407
916.50 0.1407
916.60 0.1406
916.70 0.1406
916.80 0.1405
916.90 0.1404
917.00 0.1404
917.10 0.1403
917.20 0.1401
917.30 0.14
917.40 0.1399
917.50 0.1398
917.60 0.1397
917.70 0.1396
917.80 0.1394
917.90 0.1393
918.00 0.1392
918.10 0.1391
918.20 0.139
918.30 0.1389
918.40 0.1388
918.50 0.1386
918.60 0.1385
918.70 0.1384
918.80 0.1383
918.90 0.1382
919.00 0.1381
919.10 0.1379
919.20 0.1378
919.30 0.1377
919.40 0.1376
919.50 0.1375
919.60 0.1374
919.70 0.1373
919.80 0.1371
919.90 0.137
920.00 0.1369
920.10 0.1368
920.20 0.1367
920.30 0.1366
920.40 0.1365
920.50 0.1363
920.60 0.1362
920.70 0.1361
920.80 0.136
920.90 0.1359
921.00 0.1358
921.10 0.1357
921.20 0.1355
921.30 0.1354
921.40 0.1353
921.50 0.1352
921.60 0.1351
921.70 0.135
921.80 0.1349
921.90 0.1348
922.00 0.1346
922.10 0.1346
922.20 0.1345
922.30 0.1344
922.40 0.1343
922.50 0.1343
922.60 0.1342
922.70 0.1341
922.80 0.1341
922.90 0.134
923.00 0.1339
923.10 0.1338
923.20 0.1338
923.30 0.1337
923.40 0.1336
923.50 0.1335
923.60 0.1335
923.70 0.1334
923.80 0.1333
923.90 0.1332
924.00 0.1332
924.10 0.1331
924.20 0.133
924.30 0.133
924.40 0.1329
924.50 0.1328
924.60 0.1327
924.70 0.1327
924.80 0.1326
924.90 0.1325
925.00 0.1324
925.10 0.1324
925.20 0.1323
925.30 0.1322
925.40 0.1322
925.50 0.1321
925.60 0.132
925.70 0.1319
925.80 0.1319
925.90 0.1318
926.00 0.1317
926.10 0.1317
926.20 0.1316
926.30 0.1315
926.40 0.1314
926.50 0.1314
926.60 0.1313
926.70 0.1312
926.80 0.1311
926.90 0.1311
927.00 0.131
927.10 0.131
927.20 0.1311
927.30 0.1311
927.40 0.1312
927.50 0.1312
927.60 0.1312
927.70 0.1313
927.80 0.1313
927.90 0.1314
928.00 0.1314
928.10 0.1314
928.20 0.1315
928.30 0.1315
928.40 0.1315
928.50 0.1316
928.60 0.1316
928.70 0.1317
928.80 0.1317
928.90 0.1317
929.00 0.1318
929.10 0.1318
929.20 0.1319
929.30 0.1319
929.40 0.1319
929.50 0.132
929.60 0.132
929.70 0.132
929.80 0.1321
929.90 0.1321
930.00 0.1322
930.10 0.1322
930.20 0.1322
930.30 0.1323
930.40 0.1323
930.50 0.1324
930.60 0.1324
930.70 0.1324
930.80 0.1325
930.90 0.1325
931.00 0.1325
931.10 0.1326
931.20 0.1326
931.30 0.1327
931.40 0.1327
931.50 0.1327
931.60 0.1328
931.70 0.1328
931.80 0.1329
931.90 0.1329
932.00 0.1329
932.10 0.1329
932.20 0.1329
932.30 0.1329
932.40 0.1329
932.50 0.1329
932.60 0.1329
932.70 0.1329
932.80 0.1329
932.90 0.1329
933.00 0.1329
933.10 0.1329
933.20 0.1329
933.30 0.1329
933.40 0.1328
933.50 0.1328
933.60 0.1328
933.70 0.1328
933.80 0.1328
933.90 0.1328
934.00 0.1328
934.10 0.1328
934.20 0.1328
934.30 0.1328
934.40 0.1328
934.50 0.1327
934.60 0.1327
934.70 0.1327
934.80 0.1327
934.90 0.1326
935.00 0.1326
935.10 0.1326
935.20 0.1326
935.30 0.1325
935.40 0.1325
935.50 0.1325
935.60 0.1325
935.70 0.1324
935.80 0.1324
935.90 0.1324
936.00 0.1323
936.10 0.1323
936.20 0.1323
936.30 0.1323
936.40 0.1322
936.50 0.1322
936.60 0.1322
936.70 0.1322
936.80 0.1321
936.90 0.1321
937.00 0.1321
937.10 0.1321
937.20 0.132
937.30 0.132
937.40 0.1319
937.50 0.1319
937.60 0.1319
937.70 0.1318
937.80 0.1318
937.90 0.1317
938.00 0.1317
938.10 0.1317
938.20 0.1316
938.30 0.1316
938.40 0.1315
938.50 0.1315
938.60 0.1315
938.70 0.1314
938.80 0.1314
938.90 0.1313
939.00 0.1313
939.10 0.1312
939.20 0.1312
939.30 0.1311
939.40 0.1311
939.50 0.131
939.60 0.131
939.70 0.1309
939.80 0.1309
939.90 0.1308
940.00 0.1308
940.10 0.1307
940.20 0.1307
940.30 0.1306
940.40 0.1306
940.50 0.1305
940.60 0.1305
940.70 0.1304
940.80 0.1303
940.90 0.1303
941.00 0.1302
941.10 0.1302
941.20 0.1301
941.30 0.13
941.40 0.13
941.50 0.1299
941.60 0.1298
941.70 0.1298
941.80 0.1297
941.90 0.1297
942.00 0.1296
942.10 0.1295
942.20 0.1295
942.30 0.1294
942.40 0.1293
942.50 0.1292
942.60 0.1291
942.70 0.1291
942.80 0.129
942.90 0.1289
943.00 0.1288
943.10 0.1287
943.20 0.1286
943.30 0.1286
943.40 0.1285
943.50 0.1284
943.60 0.1283
943.70 0.1282
943.80 0.1281
943.90 0.1281
944.00 0.128
944.10 0.1279
944.20 0.1278
944.30 0.1277
944.40 0.1276
944.50 0.1275
944.60 0.1274
944.70 0.1273
944.80 0.1272
944.90 0.1271
945.00 0.127
945.10 0.1269
945.20 0.1268
945.30 0.1267
945.40 0.1265
945.50 0.1264
945.60 0.1262
945.70 0.1261
945.80 0.126
945.90 0.1258
946.00 0.1257
946.10 0.1256
946.20 0.1254
946.30 0.1253
946.40 0.1252
946.50 0.125
946.60 0.1249
946.70 0.1247
946.80 0.1246
946.90 0.1245
947.00 0.1243
947.10 0.1242
947.20 0.124
947.30 0.1239
947.40 0.1237
947.50 0.1235
947.60 0.1233
947.70 0.1231
947.80 0.1229
947.90 0.1227
948.00 0.1225
948.10 0.1223
948.20 0.1221
948.30 0.1219
948.40 0.1217
948.50 0.1215
948.60 0.1213
948.70 0.1212
948.80 0.121
948.90 0.1208
949.00 0.1206
949.10 0.1204
949.20 0.1202
949.30 0.12
949.40 0.1198
949.50 0.1195
949.60 0.1193
949.70 0.1191
949.80 0.1189
949.90 0.1186
950.00 0.1184
950.10 0.1182
950.20 0.118
950.30 0.1177
950.40 0.1175
950.50 0.1173
950.60 0.1171
950.70 0.1168
950.80 0.1166
950.90 0.1164
951.00 0.1162
951.10 0.1159
951.20 0.1157
951.30 0.1155
951.40 0.1153
951.50 0.1151
951.60 0.1149
951.70 0.1147
951.80 0.1145
951.90 0.1143
952.00 0.1141
952.10 0.1139
952.20 0.1138
952.30 0.1136
952.40 0.1135
952.50 0.1133
952.60 0.1132
952.70 0.113
952.80 0.1129
952.90 0.1129
953.00 0.1128
953.10 0.1128
953.20 0.1127
953.30 0.1127
953.40 0.1127
953.50 0.1126
953.60 0.113
953.70 0.1133
953.80 0.1136
953.90 0.1139
954.00 0.1146
954.10 0.1153
954.20 0.116
954.30 0.1138
954.40 0.1112
954.50 0.1106
954.60 0.11
954.70 0.1093
954.80 0.1089
954.90 0.1085
955.00 0.1081
955.10 0.1078
955.20 0.1076
955.30 0.1075
955.40 0.1073
955.50 0.1072
955.60 0.107
955.70 0.1069
955.80 0.1068
955.90 0.1068
956.00 0.1068
956.10 0.1068
956.20 0.1069
956.30 0.1069
956.40 0.1069
956.50 0.1069
956.60 0.107
956.70 0.107
956.80 0.107
956.90 0.107
957.00 0.107
957.10 0.1071
957.20 0.1072
957.30 0.1073
957.40 0.1074
957.50 0.1075
957.60 0.1076
957.70 0.1077
957.80 0.1078
957.90 0.1079
958.00 0.108
958.10 0.1081
958.20 0.1082
958.30 0.1083
958.40 0.1084
958.50 0.1085
958.60 0.1086
958.70 0.1087
958.80 0.1088
958.90 0.1089
959.00 0.109
959.10 0.1091
959.20 0.1092
959.30 0.1093
959.40 0.1094
959.50 0.1095
959.60 0.1096
959.70 0.1097
959.80 0.1098
959.90 0.1099
960.00 0.11
960.10 0.1101
960.20 0.1102
960.30 0.1103
960.40 0.1104
960.50 0.1105
960.60 0.1106
960.70 0.1107
960.80 0.1108
960.90 0.1109
961.00 0.111
961.10 0.1111
961.20 0.1112
961.30 0.1113
961.40 0.1113
961.50 0.1114
961.60 0.1115
961.70 0.1116
961.80 0.1117
961.90 0.1118
962.00 0.1118
962.10 0.1119
962.20 0.112
962.30 0.1121
962.40 0.1121
962.50 0.1122
962.60 0.1123
962.70 0.1124
962.80 0.1124
962.90 0.1125
963.00 0.1126
963.10 0.1126
963.20 0.1127
963.30 0.1128
963.40 0.1129
963.50 0.1129
963.60 0.113
963.70 0.113
963.80 0.1131
963.90 0.1132
964.00 0.1132
964.10 0.1133
964.20 0.1133
964.30 0.1134
964.40 0.1134
964.50 0.1135
964.60 0.1135
964.70 0.1136
964.80 0.1136
964.90 0.1137
965.00 0.1137
965.10 0.1138
965.20 0.1138
965.30 0.1138
965.40 0.1139
965.50 0.1139
965.60 0.114
965.70 0.114
965.80 0.1141
965.90 0.1141
966.00 0.1141
966.10 0.1142
966.20 0.1142
966.30 0.1143
966.40 0.1143
966.50 0.1143
966.60 0.1144
966.70 0.1144
966.80 0.1144
966.90 0.1145
967.00 0.1145
967.10 0.1145
967.20 0.1145
967.30 0.1146
967.40 0.1146
967.50 0.1146
967.60 0.1146
967.70 0.1147
967.80 0.1147
967.90 0.1147
968.00 0.1147
968.10 0.1147
968.20 0.1148
968.30 0.1148
968.40 0.1148
968.50 0.1148
968.60 0.1148
968.70 0.1148
968.80 0.1148
968.90 0.1148
969.00 0.1149
969.10 0.1149
969.20 0.1149
969.30 0.1149
969.40 0.1149
969.50 0.1149
969.60 0.1149
969.70 0.1149
969.80 0.1149
969.90 0.1149
970.00 0.115
970.10 0.115
970.20 0.115
970.30 0.115
970.40 0.115
970.50 0.115
970.60 0.115
970.70 0.115
970.80 0.115
970.90 0.115
971.00 0.115
971.10 0.115
971.20 0.1149
971.30 0.1149
971.40 0.1149
971.50 0.1149
971.60 0.1149
971.70 0.1149
971.80 0.1149
971.90 0.1149
972.00 0.1149
972.10 0.1149
972.20 0.1149
972.30 0.1149
972.40 0.1149
972.50 0.1148
972.60 0.1148
972.70 0.1148
972.80 0.1148
972.90 0.1148
973.00 0.1148
973.10 0.1148
973.20 0.1147
973.30 0.1147
973.40 0.1147
973.50 0.1147
973.60 0.1147
973.70 0.1147
973.80 0.1146
973.90 0.1146
974.00 0.1146
974.10 0.1146
974.20 0.1146
974.30 0.1146
974.40 0.1145
974.50 0.1145
974.60 0.1145
974.70 0.1145
974.80 0.1144
974.90 0.1144
975.00 0.1144
975.10 0.1144
975.20 0.1143
975.30 0.1143
975.40 0.1143
975.50 0.1142
975.60 0.1142
975.70 0.1142
975.80 0.1142
975.90 0.1141
976.00 0.1141
976.10 0.1141
976.20 0.114
976.30 0.114
976.40 0.114
976.50 0.114
976.60 0.1139
976.70 0.1139
976.80 0.1139
976.90 0.1139
977.00 0.1138
977.10 0.1138
977.20 0.1137
977.30 0.1137
977.40 0.1136
977.50 0.1136
977.60 0.1136
977.70 0.1135
977.80 0.1135
977.90 0.1134
978.00 0.1134
978.10 0.1133
978.20 0.1133
978.30 0.1132
978.40 0.1132
978.50 0.1131
978.60 0.1131
978.70 0.1131
978.80 0.113
978.90 0.113
979.00 0.1129
979.10 0.1129
979.20 0.1128
979.30 0.1128
979.40 0.1127
979.50 0.1127
979.60 0.1127
979.70 0.1126
979.80 0.1126
979.90 0.1125
980.00 0.1125
980.10 0.1124
980.20 0.1124
980.30 0.1123
980.40 0.1123
980.50 0.1122
980.60 0.1122
980.70 0.1122
980.80 0.1121
980.90 0.1121
981.00 0.112
981.10 0.112
981.20 0.1119
981.30 0.1119
981.40 0.1118
981.50 0.1118
981.60 0.1118
981.70 0.1117
981.80 0.1117
981.90 0.1116
982.00 0.1116
982.10 0.1115
982.20 0.1114
982.30 0.1114
982.40 0.1113
982.50 0.1113
982.60 0.1112
982.70 0.1111
982.80 0.1111
982.90 0.111
983.00 0.1109
983.10 0.1109
983.20 0.1108
983.30 0.1107
983.40 0.1107
983.50 0.1106
983.60 0.1105
983.70 0.1105
983.80 0.1104
983.90 0.1104
984.00 0.1103
984.10 0.1102
984.20 0.1102
984.30 0.1101
984.40 0.11
984.50 0.11
984.60 0.1099
984.70 0.1098
984.80 0.1098
984.90 0.1097
985.00 0.1096
985.10 0.1095
985.20 0.1094
985.30 0.1094
985.40 0.1093
985.50 0.1092
985.60 0.1091
985.70 0.109
985.80 0.109
985.90 0.1089
986.00 0.1088
986.10 0.1087
986.20 0.1086
986.30 0.1086
986.40 0.1085
986.50 0.1084
986.60 0.1083
986.70 0.1082
986.80 0.1082
986.90 0.1081
987.00 0.108
987.10 0.1079
987.20 0.1078
987.30 0.1077
987.40 0.1076
987.50 0.1075
987.60 0.1074
987.70 0.1073
987.80 0.1072
987.90 0.1071
988.00 0.107
988.10 0.107
988.20 0.1069
988.30 0.1068
988.40 0.1067
988.50 0.1066
988.60 0.1065
988.70 0.1064
988.80 0.1063
988.90 0.1061
989.00 0.106
989.10 0.1059
989.20 0.1058
989.30 0.1057
989.40 0.1056
989.50 0.1055
989.60 0.1054
989.70 0.1053
989.80 0.1052
989.90 0.105
990.00 0.1049
990.10 0.1048
990.20 0.1047
990.30 0.1046
990.40 0.1045
990.50 0.1044
990.60 0.1043
990.70 0.1041
990.80 0.104
990.90 0.1039
991.00 0.1038
991.10 0.1036
991.20 0.1035
991.30 0.1034
991.40 0.1033
991.50 0.1031
991.60 0.103
991.70 0.1029
991.80 0.1028
991.90 0.1026
992.00 0.1025
992.10 0.1024
992.20 0.1022
992.30 0.1021
992.40 0.102
992.50 0.1018
992.60 0.1017
992.70 0.1015
992.80 0.1014
992.90 0.1012
993.00 0.1011
993.10 0.1009
993.20 0.1008
993.30 0.1006
993.40 0.1005
993.50 0.1003
993.60 0.1002
993.70 0.1
993.80 0.09989
993.90 0.09974
994.00 0.09959
994.10 0.09944
994.20 0.09929
994.30 0.09914
994.40 0.09899
994.50 0.09884
994.60 0.09869
994.70 0.09853
994.80 0.09837
994.90 0.0982
995.00 0.09804
995.10 0.09787
995.20 0.09771
995.30 0.09754
995.40 0.09738
995.50 0.09722
995.60 0.09705
995.70 0.09688
995.80 0.0967
995.90 0.09652
996.00 0.09635
996.10 0.09617
996.20 0.09599
996.30 0.09582
996.40 0.09564
996.50 0.09547
996.60 0.09529
996.70 0.09511
996.80 0.09494
996.90 0.09476
997.00 0.09458
997.10 0.0944
997.20 0.09421
997.30 0.09403
997.40 0.09384
997.50 0.09365
997.60 0.09347
997.70 0.09327
997.80 0.09308
997.90 0.09288
998.00 0.09268
998.10 0.09248
998.20 0.09229
998.30 0.09209
998.40 0.09189
998.50 0.0917
998.60 0.0915
998.70 0.0913
998.80 0.09111
998.90 0.09091
999.00 0.09071
999.10 0.09052
999.20 0.09032
999.30 0.09012
999.40 0.08993
999.50 0.08973
999.60 0.08954
999.70 0.08933
999.80 0.08913
999.90 0.08892
1000.00 0.08872
1000.10 0.08852
1000.20 0.08831
1000.30 0.08811
1000.40 0.0879
1000.50 0.0877
1000.60 0.0875
1000.70 0.08729
1000.80 0.08709
1000.90 0.08689
1001.00 0.08668
1001.10 0.08648
1001.20 0.08627
1001.30 0.08607
1001.40 0.08587
1001.50 0.08567
1001.60 0.08546
1001.70 0.08527
1001.80 0.08507
1001.90 0.08488
1002.00 0.08468
1002.10 0.08451
1002.20 0.08435
1002.30 0.08418
1002.40 0.08401
1002.50 0.08384
1002.60 0.08367
1002.70 0.0835
1002.80 0.08333
1002.90 0.08317
1003.00 0.083
1003.10 0.08283
1003.20 0.08276
1003.30 0.08273
1003.40 0.0827
1003.50 0.08267
1003.60 0.08264
1003.70 0.0826
1003.80 0.08257
1003.90 0.0827
1004.00 0.08287
1004.10 0.08305
1004.20 0.08323
1004.30 0.0836
1004.40 0.08403
1004.50 0.08459
1004.60 0.08512
1004.70 0.08435
1004.80 0.08373
1004.90 0.08325
1005.00 0.08278
1005.10 0.08251
1005.20 0.0823
1005.30 0.08209
1005.40 0.08188
1005.50 0.08183
1005.60 0.08183
1005.70 0.08182
1005.80 0.08182
1005.90 0.08181
1006.00 0.08181
1006.10 0.08181
1006.20 0.08188
1006.30 0.08199
1006.40 0.08209
1006.50 0.08219
1006.60 0.08229
1006.70 0.08239
1006.80 0.0825
1006.90 0.0826
1007.00 0.0827
1007.10 0.08283
1007.20 0.08296
1007.30 0.08309
1007.40 0.08322
1007.50 0.08335
1007.60 0.08348
1007.70 0.08361
1007.80 0.08375
1007.90 0.08389
1008.00 0.08402
1008.10 0.08416
1008.20 0.08429
1008.30 0.08443
1008.40 0.08456
1008.50 0.0847
1008.60 0.08483
1008.70 0.08497
1008.80 0.0851
1008.90 0.08524
1009.00 0.08537
1009.10 0.08551
1009.20 0.08564
1009.30 0.08578
1009.40 0.08591
1009.50 0.08605
1009.60 0.08618
1009.70 0.08631
1009.80 0.08643
1009.90 0.08655
1010.00 0.08667
1010.10 0.08679
1010.20 0.08691
1010.30 0.08703
1010.40 0.08715
1010.50 0.08727
1010.60 0.08739
1010.70 0.08751
1010.80 0.08763
1010.90 0.08775
1011.00 0.08787
1011.10 0.08799
1011.20 0.08811
1011.30 0.08823
1011.40 0.08835
1011.50 0.08847
1011.60 0.08859
1011.70 0.0887
1011.80 0.0888
1011.90 0.08891
1012.00 0.08901
1012.10 0.08911
1012.20 0.0892
1012.30 0.0893
1012.40 0.08939
1012.50 0.08949
1012.60 0.08958
1012.70 0.08968
1012.80 0.08977
1012.90 0.08987
1013.00 0.08996
1013.10 0.09005
1013.20 0.09015
1013.30 0.09024
1013.40 0.09034
1013.50 0.09043
1013.60 0.09053
1013.70 0.09061
1013.80 0.09069
1013.90 0.09077
1014.00 0.09085
1014.10 0.09093
1014.20 0.09101
1014.30 0.09109
1014.40 0.09117
1014.50 0.09125
1014.60 0.09133
1014.70 0.09139
1014.80 0.09146
1014.90 0.09152
1015.00 0.09159
1015.10 0.09165
1015.20 0.09172
1015.30 0.09178
1015.40 0.09185
1015.50 0.09191
1015.60 0.09198
1015.70 0.09204
1015.80 0.09211
1015.90 0.09217
1016.00 0.09224
1016.10 0.0923
1016.20 0.09237
1016.30 0.09243
1016.40 0.09249
1016.50 0.09256
1016.60 0.09262
1016.70 0.09268
1016.80 0.09273
1016.90 0.09279
1017.00 0.09284
1017.10 0.09289
1017.20 0.09293
1017.30 0.09298
1017.40 0.09303
1017.50 0.09307
1017.60 0.09312
1017.70 0.09316
1017.80 0.09321
1017.90 0.09326
1018.00 0.0933
1018.10 0.09335
1018.20 0.09339
1018.30 0.09344
1018.40 0.09348
1018.50 0.09353
1018.60 0.09358
1018.70 0.09361
1018.80 0.09365
1018.90 0.09368
1019.00 0.09371
1019.10 0.09374
1019.20 0.09378
1019.30 0.09381
1019.40 0.09384
1019.50 0.09388
1019.60 0.09391
1019.70 0.09394
1019.80 0.09397
1019.90 0.09401
1020.00 0.09404
1020.10 0.09407
1020.20 0.09411
1020.30 0.09414
1020.40 0.09417
1020.50 0.0942
1020.60 0.09424
1020.70 0.09426
1020.80 0.09429
1020.90 0.09431
1021.00 0.09433
1021.10 0.09435
1021.20 0.09438
1021.30 0.0944
1021.40 0.09442
1021.50 0.09444
1021.60 0.09447
1021.70 0.09449
1021.80 0.09451
1021.90 0.09453
1022.00 0.09456
1022.10 0.09457
1022.20 0.09458
1022.30 0.0946
1022.40 0.09461
1022.50 0.09462
1022.60 0.09463
1022.70 0.09465
1022.80 0.09466
1022.90 0.09467
1023.00 0.09468
1023.10 0.0947
1023.20 0.09471
1023.30 0.09472
1023.40 0.09474
1023.50 0.09475
1023.60 0.09476
1023.70 0.09477
1023.80 0.09479
1023.90 0.0948
1024.00 0.09481
1024.10 0.09482
1024.20 0.09484
1024.30 0.09485
1024.40 0.09486
1024.50 0.09487
1024.60 0.09489
1024.70 0.09489
1024.80 0.09489
1024.90 0.0949
1025.00 0.0949
1025.10 0.0949
1025.20 0.09491
1025.30 0.09491
1025.40 0.09491
1025.50 0.09491
1025.60 0.09492
1025.70 0.09492
1025.80 0.09492
1025.90 0.09492
1026.00 0.09493
1026.10 0.09493
1026.20 0.09493
1026.30 0.09493
1026.40 0.09494
1026.50 0.09494
1026.60 0.09494
1026.70 0.09495
1026.80 0.09495
1026.90 0.09495
1027.00 0.09495
1027.10 0.09494
1027.20 0.09494
1027.30 0.09493
1027.40 0.09492
1027.50 0.09491
1027.60 0.0949
1027.70 0.0949
1027.80 0.09489
1027.90 0.09488
1028.00 0.09487
1028.10 0.09486
1028.20 0.09485
1028.30 0.09485
1028.40 0.09484
1028.50 0.09483
1028.60 0.09482
1028.70 0.09481
1028.80 0.0948
1028.90 0.0948
1029.00 0.09479
1029.10 0.09478
1029.20 0.09477
1029.30 0.09476
1029.40 0.09475
1029.50 0.09475
1029.60 0.09474
1029.70 0.09473
1029.80 0.09472
1029.90 0.09471
1030.00 0.09471
1030.10 0.0947
1030.20 0.09469
1030.30 0.09468
1030.40 0.09467
1030.50 0.09466
1030.60 0.09466
1030.70 0.09465
1030.80 0.09464
1030.90 0.09463
1031.00 0.09462
1031.10 0.09461
1031.20 0.09461
1031.30 0.0946
1031.40 0.09459
1031.50 0.09458
1031.60 0.09457
1031.70 0.09457
1031.80 0.09456
1031.90 0.09455
1032.00 0.09454
1032.10 0.09452
1032.20 0.0945
1032.30 0.09449
1032.40 0.09447
1032.50 0.09445
1032.60 0.09443
1032.70 0.09441
1032.80 0.0944
1032.90 0.09438
1033.00 0.09436
1033.10 0.09434
1033.20 0.09432
1033.30 0.09431
1033.40 0.09429
1033.50 0.09427
1033.60 0.09425
1033.70 0.09423
1033.80 0.09422
1033.90 0.0942
1034.00 0.09418
1034.10 0.09416
1034.20 0.09414
1034.30 0.09413
1034.40 0.09411
1034.50 0.09409
1034.60 0.09407
1034.70 0.09405
1034.80 0.09404
1034.90 0.09402
1035.00 0.094
1035.10 0.09398
1035.20 0.09397
1035.30 0.09395
1035.40 0.09393
1035.50 0.09391
1035.60 0.09389
1035.70 0.09388
1035.80 0.09386
1035.90 0.09384
1036.00 0.09382
1036.10 0.0938
1036.20 0.09379
1036.30 0.09377
1036.40 0.09375
1036.50 0.09373
1036.60 0.09372
1036.70 0.0937
1036.80 0.09368
1036.90 0.09366
1037.00 0.09364
1037.10 0.09362
1037.20 0.0936
1037.30 0.09357
1037.40 0.09355
1037.50 0.09352
1037.60 0.0935
1037.70 0.09347
1037.80 0.09345
1037.90 0.09342
1038.00 0.0934
1038.10 0.09338
1038.20 0.09335
1038.30 0.09333
1038.40 0.0933
1038.50 0.09328
1038.60 0.09326
1038.70 0.09323
1038.80 0.09321
1038.90 0.09318
1039.00 0.09316
1039.10 0.09313
1039.20 0.09311
1039.30 0.09309
1039.40 0.09306
1039.50 0.09304
1039.60 0.09301
1039.70 0.09299
1039.80 0.09296
1039.90 0.09294
1040.00 0.09292
1040.10 0.09289
1040.20 0.09287
1040.30 0.09284
1040.40 0.09282
1040.50 0.0928
1040.60 0.09277
1040.70 0.09275
1040.80 0.09272
1040.90 0.0927
1041.00 0.09268
1041.10 0.09265
1041.20 0.09263
1041.30 0.0926
1041.40 0.09258
1041.50 0.09256
1041.60 0.09253
1041.70 0.09251
1041.80 0.09248
1041.90 0.09246
1042.00 0.09244
1042.10 0.09241
1042.20 0.09238
1042.30 0.09235
1042.40 0.09232
1042.50 0.09229
1042.60 0.09227
1042.70 0.09224
1042.80 0.09221
1042.90 0.09218
1043.00 0.09215
1043.10 0.09212
1043.20 0.0921
1043.30 0.09207
1043.40 0.09204
1043.50 0.09201
1043.60 0.09198
1043.70 0.09196
1043.80 0.09193
1043.90 0.0919
1044.00 0.09187
1044.10 0.09184
1044.20 0.09182
1044.30 0.09179
1044.40 0.09176
1044.50 0.09173
1044.60 0.0917
1044.70 0.09167
1044.80 0.09165
1044.90 0.09162
1045.00 0.09159
1045.10 0.09156
1045.20 0.09153
1045.30 0.09151
1045.40 0.09148
1045.50 0.09145
1045.60 0.09142
1045.70 0.09139
1045.80 0.09137
1045.90 0.09134
1046.00 0.09131
1046.10 0.09128
1046.20 0.09126
1046.30 0.09123
1046.40 0.0912
1046.50 0.09117
1046.60 0.09114
1046.70 0.09112
1046.80 0.09109
1046.90 0.09106
1047.00 0.09103
1047.10 0.091
1047.20 0.09097
1047.30 0.09094
1047.40 0.0909
1047.50 0.09087
1047.60 0.09084
1047.70 0.09081
1047.80 0.09078
1047.90 0.09074
1048.00 0.09071
1048.10 0.09068
1048.20 0.09065
1048.30 0.09062
1048.40 0.09058
1048.50 0.09055
1048.60 0.09052
1048.70 0.09049
1048.80 0.09046
1048.90 0.09042
1049.00 0.09039
1049.10 0.09036
1049.20 0.09033
1049.30 0.0903
1049.40 0.09027
1049.50 0.09023
1049.60 0.0902
1049.70 0.09017
1049.80 0.09014
1049.90 0.09011
1050.00 0.09008
1050.10 0.09004
1050.20 0.09001
1050.30 0.08998
1050.40 0.08995
1050.50 0.08992
1050.60 0.08988
1050.70 0.08985
1050.80 0.08982
1050.90 0.08979
1051.00 0.08976
1051.10 0.08973
1051.20 0.0897
1051.30 0.08966
1051.40 0.08963
1051.50 0.0896
1051.60 0.08957
1051.70 0.08954
1051.80 0.08951
1051.90 0.08947
1052.00 0.08944
1052.10 0.08941
1052.20 0.08937
1052.30 0.08934
1052.40 0.0893
1052.50 0.08927
1052.60 0.08923
1052.70 0.0892
1052.80 0.08916
1052.90 0.08913
1053.00 0.08909
1053.10 0.08906
1053.20 0.08902
1053.30 0.08899
1053.40 0.08895
1053.50 0.08892
1053.60 0.08888
1053.70 0.08885
1053.80 0.08881
1053.90 0.08878
1054.00 0.08874
1054.10 0.08871
1054.20 0.08867
1054.30 0.08864
1054.40 0.0886
1054.50 0.08857
1054.60 0.08853
1054.70 0.0885
1054.80 0.08846
1054.90 0.08843
1055.00 0.08839
1055.10 0.08836
1055.20 0.08832
1055.30 0.08829
1055.40 0.08825
1055.50 0.08822
1055.60 0.08818
1055.70 0.08815
1055.80 0.08812
1055.90 0.08808
1056.00 0.08805
1056.10 0.08801
1056.20 0.08798
1056.30 0.08794
1056.40 0.08791
1056.50 0.08787
1056.60 0.08784
1056.70 0.0878
1056.80 0.08777
1056.90 0.08773
1057.00 0.0877
1057.10 0.08766
1057.20 0.08762
1057.30 0.08758
1057.40 0.08754
1057.50 0.0875
1057.60 0.08746
1057.70 0.08743
1057.80 0.08739
1057.90 0.08735
1058.00 0.08731
1058.10 0.08727
1058.20 0.08723
1058.30 0.08719
1058.40 0.08715
1058.50 0.08711
1058.60 0.08707
1058.70 0.08703
1058.80 0.087
1058.90 0.08696
1059.00 0.08692
1059.10 0.08688
1059.20 0.08684
1059.30 0.0868
1059.40 0.08676
1059.50 0.08672
1059.60 0.08668
1059.70 0.08664
1059.80 0.08661
1059.90 0.08657
1060.00 0.08653
1060.10 0.08649
1060.20 0.08645
1060.30 0.08641
1060.40 0.08637
1060.50 0.08633
1060.60 0.08629
1060.70 0.08626
1060.80 0.08622
1060.90 0.08618
1061.00 0.08614
1061.10 0.0861
1061.20 0.08606
1061.30 0.08602
1061.40 0.08598
1061.50 0.08595
1061.60 0.08591
1061.70 0.08587
1061.80 0.08583
1061.90 0.08579
1062.00 0.08575
1062.10 0.08571
1062.20 0.08566
1062.30 0.08562
1062.40 0.08557
1062.50 0.08553
1062.60 0.08549
1062.70 0.08544
1062.80 0.0854
1062.90 0.08535
1063.00 0.08531
1063.10 0.08526
1063.20 0.08522
1063.30 0.08517
1063.40 0.08513
1063.50 0.08508
1063.60 0.08504
1063.70 0.085
1063.80 0.08495
1063.90 0.08491
1064.00 0.08486
1064.10 0.08482
1064.20 0.08477
1064.30 0.08473
1064.40 0.08469
1064.50 0.08464
1064.60 0.0846
1064.70 0.08455
1064.80 0.08451
1064.90 0.08446
1065.00 0.08442
1065.10 0.08438
1065.20 0.08433
1065.30 0.08429
1065.40 0.08424
1065.50 0.0842
1065.60 0.08415
1065.70 0.08411
1065.80 0.08407
1065.90 0.08402
1066.00 0.08398
1066.10 0.08393
1066.20 0.08389
1066.30 0.08385
1066.40 0.0838
1066.50 0.08376
1066.60 0.08371
1066.70 0.08367
1066.80 0.08363
1066.90 0.08358
1067.00 0.08354
1067.10 0.08348
1067.20 0.08343
1067.30 0.08338
1067.40 0.08332
1067.50 0.08327
1067.60 0.08322
1067.70 0.08316
1067.80 0.08311
1067.90 0.08305
1068.00 0.083
1068.10 0.08295
1068.20 0.08289
1068.30 0.08284
1068.40 0.08279
1068.50 0.08273
1068.60 0.08268
1068.70 0.08263
1068.80 0.08257
1068.90 0.08252
1069.00 0.08246
1069.10 0.08241
1069.20 0.08236
1069.30 0.0823
1069.40 0.08225
1069.50 0.0822
1069.60 0.08214
1069.70 0.08209
1069.80 0.08204
1069.90 0.08198
1070.00 0.08193
1070.10 0.08188
1070.20 0.08182
1070.30 0.08177
1070.40 0.08172
1070.50 0.08166
1070.60 0.08161
1070.70 0.08156
1070.80 0.0815
1070.90 0.08145
1071.00 0.0814
1071.10 0.08135
1071.20 0.08129
1071.30 0.08124
1071.40 0.08119
1071.50 0.08113
1071.60 0.08108
1071.70 0.08103
1071.80 0.08097
1071.90 0.08092
1072.00 0.08087
1072.10 0.08081
1072.20 0.08075
1072.30 0.08069
1072.40 0.08063
1072.50 0.08056
1072.60 0.0805
1072.70 0.08044
1072.80 0.08038
1072.90 0.08032
1073.00 0.08026
1073.10 0.0802
1073.20 0.08014
1073.30 0.08008
1073.40 0.08002
1073.50 0.07996
1073.60 0.07989
1073.70 0.07982
1073.80 0.07975
1073.90 0.07968
1074.00 0.07961
1074.10 0.07954
1074.20 0.07947
1074.30 0.0794
1074.40 0.07933
1074.50 0.07926
1074.60 0.07919
1074.70 0.07912
1074.80 0.07905
1074.90 0.07898
1075.00 0.07892
1075.10 0.07885
1075.20 0.07878
1075.30 0.07871
1075.40 0.07864
1075.50 0.07857
1075.60 0.0785
1075.70 0.07843
1075.80 0.07836
1075.90 0.07829
1076.00 0.07822
1076.10 0.07816
1076.20 0.07809
1076.30 0.07802
1076.40 0.07795
1076.50 0.07788
1076.60 0.07781
1076.70 0.07774
1076.80 0.07767
1076.90 0.0776
1077.00 0.07754
1077.10 0.07746
1077.20 0.07738
1077.30 0.07731
1077.40 0.07723
1077.50 0.07715
1077.60 0.07707
1077.70 0.07699
1077.80 0.0769
1077.90 0.07682
1078.00 0.07674
1078.10 0.07666
1078.20 0.07658
1078.30 0.07649
1078.40 0.07641
1078.50 0.07633
1078.60 0.07625
1078.70 0.07616
1078.80 0.07608
1078.90 0.076
1079.00 0.07592
1079.10 0.07584
1079.20 0.07575
1079.30 0.07567
1079.40 0.07559
1079.50 0.0755
1079.60 0.07541
1079.70 0.07532
1079.80 0.07523
1079.90 0.07513
1080.00 0.07504
1080.10 0.07495
1080.20 0.07486
1080.30 0.07476
1080.40 0.07467
1080.50 0.07458
1080.60 0.07449
1080.70 0.07439
1080.80 0.0743
1080.90 0.07421
1081.00 0.07412
1081.10 0.07402
1081.20 0.07393
1081.30 0.07384
1081.40 0.07375
1081.50 0.07365
1081.60 0.07355
1081.70 0.07345
1081.80 0.07335
1081.90 0.07325
1082.00 0.07315
1082.10 0.07304
1082.20 0.07293
1082.30 0.07283
1082.40 0.07272
1082.50 0.07261
1082.60 0.07251
1082.70 0.0724
1082.80 0.07229
1082.90 0.07218
1083.00 0.07208
1083.10 0.07197
1083.20 0.07186
1083.30 0.07176
1083.40 0.07165
1083.50 0.07154
1083.60 0.07142
1083.70 0.07131
1083.80 0.07119
1083.90 0.07108
1084.00 0.07096
1084.10 0.07084
1084.20 0.07073
1084.30 0.07061
1084.40 0.07049
1084.50 0.07037
1084.60 0.07025
1084.70 0.07012
1084.80 0.06999
1084.90 0.06986
1085.00 0.06973
1085.10 0.0696
1085.20 0.06947
1085.30 0.06934
1085.40 0.06921
1085.50 0.06908
1085.60 0.06896
1085.70 0.06883
1085.80 0.0687
1085.90 0.06857
1086.00 0.06844
1086.10 0.06831
1086.20 0.06818
1086.30 0.06806
1086.40 0.06793
1086.50 0.06779
1086.60 0.06765
1086.70 0.06751
1086.80 0.06737
1086.90 0.06723
1087.00 0.06709
1087.10 0.06694
1087.20 0.06679
1087.30 0.06664
1087.40 0.06649
1087.50 0.06634
1087.60 0.06619
1087.70 0.06604
1087.80 0.0659
1087.90 0.06575
1088.00 0.0656
1088.10 0.06545
1088.20 0.0653
1088.30 0.06515
1088.40 0.065
1088.50 0.06485
1088.60 0.06468
1088.70 0.06452
1088.80 0.06436
1088.90 0.06419
1089.00 0.06403
1089.10 0.06387
1089.20 0.0637
1089.30 0.06354
1089.40 0.06338
1089.50 0.06322
1089.60 0.06305
1089.70 0.06289
1089.80 0.06273
1089.90 0.06257
1090.00 0.0624
1090.10 0.06224
1090.20 0.06208
1090.30 0.06192
1090.40 0.06176
1090.50 0.06159
1090.60 0.06142
1090.70 0.06125
1090.80 0.06108
1090.90 0.06091
1091.00 0.06074
1091.10 0.06057
1091.20 0.0604
1091.30 0.06023
1091.40 0.06006
1091.50 0.05989
1091.60 0.05973
1091.70 0.05956
1091.80 0.05939
1091.90 0.05922
1092.00 0.05905
1092.10 0.05889
1092.20 0.05873
1092.30 0.05857
1092.40 0.05841
1092.50 0.05825
1092.60 0.05809
1092.70 0.05795
1092.80 0.05784
1092.90 0.05774
1093.00 0.05764
1093.10 0.0576
1093.20 0.05768
1093.30 0.0578
1093.40 0.05819
1093.50 0.05832
1093.60 0.05789
1093.70 0.05764
1093.80 0.05752
1093.90 0.05746
1094.00 0.05753
1094.10 0.05759
1094.20 0.05766
1094.30 0.05775
1094.40 0.05787
1094.50 0.05799
1094.60 0.05812
1094.70 0.05824
1094.80 0.05837
1094.90 0.05849
1095.00 0.05862
1095.10 0.05875
1095.20 0.05888
1095.30 0.05901
1095.40 0.05914
1095.50 0.05927
1095.60 0.0594
1095.70 0.05953
1095.80 0.05966
1095.90 0.05979
1096.00 0.05992
1096.10 0.06005
1096.20 0.06018
1096.30 0.06031
1096.40 0.06044
1096.50 0.06057
1096.60 0.0607
1096.70 0.06082
1096.80 0.06095
1096.90 0.06107
1097.00 0.0612
1097.10 0.06132
1097.20 0.06144
1097.30 0.06155
1097.40 0.06167
1097.50 0.06179
1097.60 0.06191
1097.70 0.06202
1097.80 0.06214
1097.90 0.06226
1098.00 0.06238
1098.10 0.06249
1098.20 0.06261
1098.30 0.06273
1098.40 0.06284
1098.50 0.06296
1098.60 0.06306
1098.70 0.06316
1098.80 0.06326
1098.90 0.06336
1099.00 0.06346
1099.10 0.06356
1099.20 0.06366
1099.30 0.06376
1099.40 0.06386
1099.50 0.06396
1099.60 0.06406
1099.70 0.06416
1099.80 0.06426
1099.90 0.06436
1100.00 0.06446
1100.10 0.06456
1100.20 0.06466
1100.30 0.06476
1100.40 0.06486
1100.50 0.06496
1100.60 0.06504
1100.70 0.06512
1100.80 0.0652
1100.90 0.06529
1101.00 0.06537
1101.10 0.06545
1101.20 0.06553
1101.30 0.06561
1101.40 0.06569
1101.50 0.06578
1101.60 0.06586
1101.70 0.06594
1101.80 0.06602
1101.90 0.0661
1102.00 0.06618
1102.10 0.06626
1102.20 0.06633
1102.30 0.0664
1102.40 0.06647
1102.50 0.06654
1102.60 0.06661
1102.70 0.06668
1102.80 0.06674
1102.90 0.06681
1103.00 0.06687
1103.10 0.06694
1103.20 0.067
1103.30 0.06707
1103.40 0.06714
1103.50 0.0672
1103.60 0.06725
1103.70 0.06731
1103.80 0.06736
1103.90 0.06741
1104.00 0.06747
1104.10 0.06752
1104.20 0.06757
1104.30 0.06763
1104.40 0.06768
1104.50 0.06774
1104.60 0.06779
1104.70 0.06784
1104.80 0.0679
1104.90 0.06795
1105.00 0.068
1105.10 0.06806
1105.20 0.06811
1105.30 0.06816
1105.40 0.06822
1105.50 0.06827
1105.60 0.06831
1105.70 0.06835
1105.80 0.06839
1105.90 0.06843
1106.00 0.06847
1106.10 0.06852
1106.20 0.06856
1106.30 0.0686
1106.40 0.06864
1106.50 0.06868
1106.60 0.06872
1106.70 0.06876
1106.80 0.0688
1106.90 0.06885
1107.00 0.06889
1107.10 0.06892
1107.20 0.06896
1107.30 0.06899
1107.40 0.06903
1107.50 0.06906
1107.60 0.06909
1107.70 0.06912
1107.80 0.06915
1107.90 0.06918
1108.00 0.0692
1108.10 0.06923
1108.20 0.06926
1108.30 0.06929
1108.40 0.06932
1108.50 0.06935
1108.60 0.06938
1108.70 0.06941
1108.80 0.06943
1108.90 0.06946
1109.00 0.06949
1109.10 0.06952
1109.20 0.06955
1109.30 0.06958
1109.40 0.06961
1109.50 0.06963
1109.60 0.06965
1109.70 0.06967
1109.80 0.06969
1109.90 0.06971
1110.00 0.06972
1110.10 0.06974
1110.20 0.06976
1110.30 0.06978
1110.40 0.0698
1110.50 0.06982
1110.60 0.06984
1110.70 0.06986
1110.80 0.06987
1110.90 0.06989
1111.00 0.06991
1111.10 0.06993
1111.20 0.06995
1111.30 0.06997
1111.40 0.06999
1111.50 0.07
1111.60 0.07002
1111.70 0.07004
1111.80 0.07006
1111.90 0.07008
1112.00 0.0701
1112.10 0.07011
1112.20 0.07012
1112.30 0.07013
1112.40 0.07014
1112.50 0.07016
1112.60 0.07017
1112.70 0.07018
1112.80 0.07019
1112.90 0.0702
1113.00 0.07021
1113.10 0.07023
1113.20 0.07024
1113.30 0.07025
1113.40 0.07026
1113.50 0.07027
1113.60 0.07027
1113.70 0.07028
1113.80 0.07028
1113.90 0.07029
1114.00 0.07029
1114.10 0.0703
1114.20 0.0703
1114.30 0.0703
1114.40 0.07031
1114.50 0.07031
1114.60 0.07032
1114.70 0.07032
1114.80 0.07033
1114.90 0.07033
1115.00 0.07033
1115.10 0.07034
1115.20 0.07034
1115.30 0.07035
1115.40 0.07035
1115.50 0.07035
1115.60 0.07036
1115.70 0.07036
1115.80 0.07037
1115.90 0.07037
1116.00 0.07038
1116.10 0.07038
1116.20 0.07038
1116.30 0.07039
1116.40 0.07039
1116.50 0.0704
1116.60 0.0704
1116.70 0.0704
1116.80 0.07041
1116.90 0.07041
1117.00 0.07042
1117.10 0.07041
1117.20 0.07041
1117.30 0.0704
1117.40 0.0704
1117.50 0.07039
1117.60 0.07039
1117.70 0.07038
1117.80 0.07038
1117.90 0.07038
1118.00 0.07037
1118.10 0.07037
1118.20 0.07036
1118.30 0.07036
1118.40 0.07035
1118.50 0.07035
1118.60 0.07034
1118.70 0.07034
1118.80 0.07033
1118.90 0.07033
1119.00 0.07033
1119.10 0.07032
1119.20 0.07032
1119.30 0.07031
1119.40 0.07031
1119.50 0.0703
1119.60 0.0703
1119.70 0.07029
1119.80 0.07029
1119.90 0.07028
1120.00 0.07028
1120.10 0.07028
1120.20 0.07027
1120.30 0.07027
1120.40 0.07026
1120.50 0.07026
1120.60 0.07025
1120.70 0.07025
1120.80 0.07024
1120.90 0.07024
1121.00 0.07023
1121.10 0.07023
1121.20 0.07023
1121.30 0.07022
1121.40 0.07022
1121.50 0.07021
1121.60 0.07021
1121.70 0.0702
1121.80 0.0702
1121.90 0.07019
1122.00 0.07019
1122.10 0.07018
1122.20 0.07017
1122.30 0.07016
1122.40 0.07014
1122.50 0.07013
1122.60 0.07012
1122.70 0.07011
1122.80 0.0701
1122.90 0.07009
1123.00 0.07008
1123.10 0.07007
1123.20 0.07006
1123.30 0.07005
1123.40 0.07003
1123.50 0.07002
1123.60 0.07001
1123.70 0.07
1123.80 0.06999
1123.90 0.06998
1124.00 0.06997
1124.10 0.06996
1124.20 0.06995
1124.30 0.06993
1124.40 0.06992
1124.50 0.06991
1124.60 0.0699
1124.70 0.06989
1124.80 0.06988
1124.90 0.06987
1125.00 0.06986
1125.10 0.06985
1125.20 0.06984
1125.30 0.06982
1125.40 0.06981
1125.50 0.0698
1125.60 0.06979
1125.70 0.06978
1125.80 0.06977
1125.90 0.06976
1126.00 0.06975
1126.10 0.06974
1126.20 0.06973
1126.30 0.06971
1126.40 0.0697
1126.50 0.06969
1126.60 0.06968
1126.70 0.06967
1126.80 0.06966
1126.90 0.06965
1127.00 0.06964
1127.10 0.06962
1127.20 0.06961
1127.30 0.06959
1127.40 0.06958
1127.50 0.06956
1127.60 0.06955
1127.70 0.06953
1127.80 0.06952
1127.90 0.0695
1128.00 0.06949
1128.10 0.06947
1128.20 0.06946
1128.30 0.06944
1128.40 0.06943
1128.50 0.06941
1128.60 0.0694
1128.70 0.06938
1128.80 0.06937
1128.90 0.06935
1129.00 0.06934
1129.10 0.06932
1129.20 0.06931
1129.30 0.06929
1129.40 0.06928
1129.50 0.06926
1129.60 0.06925
1129.70 0.06923
1129.80 0.06921
1129.90 0.0692
1130.00 0.06918
1130.10 0.06917
1130.20 0.06915
1130.30 0.06914
1130.40 0.06912
1130.50 0.06911
1130.60 0.06909
1130.70 0.06908
1130.80 0.06906
1130.90 0.06905
1131.00 0.06903
1131.10 0.06902
1131.20 0.069
1131.30 0.06899
1131.40 0.06897
1131.50 0.06896
1131.60 0.06894
1131.70 0.06893
1131.80 0.06891
1131.90 0.0689
1132.00 0.06888
1132.10 0.06887
1132.20 0.06885
1132.30 0.06883
1132.40 0.06882
1132.50 0.0688
1132.60 0.06878
1132.70 0.06876
1132.80 0.06875
1132.90 0.06873
1133.00 0.06871
1133.10 0.0687
1133.20 0.06868
1133.30 0.06866
1133.40 0.06864
1133.50 0.06863
1133.60 0.06861
1133.70 0.06859
1133.80 0.06858
1133.90 0.06856
1134.00 0.06854
1134.10 0.06852
1134.20 0.06851
1134.30 0.06849
1134.40 0.06847
1134.50 0.06846
1134.60 0.06844
1134.70 0.06842
1134.80 0.0684
1134.90 0.06839
1135.00 0.06837
1135.10 0.06835
1135.20 0.06834
1135.30 0.06832
1135.40 0.0683
1135.50 0.06829
1135.60 0.06827
1135.70 0.06825
1135.80 0.06823
1135.90 0.06822
1136.00 0.0682
1136.10 0.06818
1136.20 0.06817
1136.30 0.06815
1136.40 0.06813
1136.50 0.06812
1136.60 0.0681
1136.70 0.06808
1136.80 0.06806
1136.90 0.06805
1137.00 0.06803
1137.10 0.06801
1137.20 0.06799
1137.30 0.06797
1137.40 0.06796
1137.50 0.06794
1137.60 0.06792
1137.70 0.0679
1137.80 0.06788
1137.90 0.06786
1138.00 0.06784
1138.10 0.06783
1138.20 0.06781
1138.30 0.06779
1138.40 0.06777
1138.50 0.06775
1138.60 0.06773
1138.70 0.06771
1138.80 0.0677
1138.90 0.06768
1139.00 0.06766
1139.10 0.06764
1139.20 0.06762
1139.30 0.0676
1139.40 0.06758
1139.50 0.06757
1139.60 0.06755
1139.70 0.06753
1139.80 0.06751
1139.90 0.06749
1140.00 0.06747
1140.10 0.06746
1140.20 0.06744
1140.30 0.06742
1140.40 0.0674
1140.50 0.06738
1140.60 0.06736
1140.70 0.06734
1140.80 0.06733
1140.90 0.06731
1141.00 0.06729
1141.10 0.06727
1141.20 0.06725
1141.30 0.06723
1141.40 0.06722
1141.50 0.0672
1141.60 0.06718
1141.70 0.06716
1141.80 0.06714
1141.90 0.06712
1142.00 0.06711
1142.10 0.06709
1142.20 0.06707
1142.30 0.06705
1142.40 0.06703
1142.50 0.06701
1142.60 0.06699
1142.70 0.06697
1142.80 0.06695
1142.90 0.06693
1143.00 0.06691
1143.10 0.06689
1143.20 0.06688
1143.30 0.06686
1143.40 0.06684
1143.50 0.06682
1143.60 0.0668
1143.70 0.06678
1143.80 0.06676
1143.90 0.06674
1144.00 0.06672
1144.10 0.0667
1144.20 0.06668
1144.30 0.06667
1144.40 0.06665
1144.50 0.06663
1144.60 0.06661
1144.70 0.06659
1144.80 0.06657
1144.90 0.06655
1145.00 0.06653
1145.10 0.06651
1145.20 0.06649
1145.30 0.06648
1145.40 0.06646
1145.50 0.06644
1145.60 0.06642
1145.70 0.0664
1145.80 0.06638
1145.90 0.06636
1146.00 0.06634
1146.10 0.06632
1146.20 0.0663
1146.30 0.06629
1146.40 0.06627
1146.50 0.06625
1146.60 0.06623
1146.70 0.06621
1146.80 0.06619
1146.90 0.06617
1147.00 0.06615
1147.10 0.06613
1147.20 0.06611
1147.30 0.06609
1147.40 0.06607
1147.50 0.06605
1147.60 0.06604
1147.70 0.06602
1147.80 0.066
1147.90 0.06598
1148.00 0.06596
1148.10 0.06594
1148.20 0.06592
1148.30 0.0659
1148.40 0.06588
1148.50 0.06586
1148.60 0.06584
1148.70 0.06582
1148.80 0.0658
1148.90 0.06578
1149.00 0.06576
1149.10 0.06574
1149.20 0.06572
1149.30 0.0657
1149.40 0.06568
1149.50 0.06566
1149.60 0.06564
1149.70 0.06563
1149.80 0.06561
1149.90 0.06559
1150.00 0.06557
1150.10 0.06555
1150.20 0.06553
1150.30 0.06551
1150.40 0.06549
1150.50 0.06547
1150.60 0.06545
1150.70 0.06543
1150.80 0.06541
1150.90 0.06539
1151.00 0.06537
1151.10 0.06535
1151.20 0.06533
1151.30 0.06531
1151.40 0.0653
1151.50 0.06528
1151.60 0.06526
1151.70 0.06524
1151.80 0.06522
1151.90 0.0652
1152.00 0.06518
1152.10 0.06516
1152.20 0.06514
1152.30 0.06512
1152.40 0.0651
1152.50 0.06508
1152.60 0.06506
1152.70 0.06504
1152.80 0.06502
1152.90 0.065
1153.00 0.06498
1153.10 0.06496
1153.20 0.06494
1153.30 0.06493
1153.40 0.06491
1153.50 0.06489
1153.60 0.06487
1153.70 0.06485
1153.80 0.06483
1153.90 0.06481
1154.00 0.06479
1154.10 0.06477
1154.20 0.06475
1154.30 0.06473
1154.40 0.06471
1154.50 0.06469
1154.60 0.06467
1154.70 0.06465
1154.80 0.06463
1154.90 0.06461
1155.00 0.06459
1155.10 0.06457
1155.20 0.06456
1155.30 0.06454
1155.40 0.06452
1155.50 0.0645
1155.60 0.06448
1155.70 0.06446
1155.80 0.06444
1155.90 0.06442
1156.00 0.0644
1156.10 0.06438
1156.20 0.06436
1156.30 0.06434
1156.40 0.06432
1156.50 0.0643
1156.60 0.06428
1156.70 0.06426
1156.80 0.06425
1156.90 0.06423
1157.00 0.06421
1157.10 0.06419
1157.20 0.06417
1157.30 0.06415
1157.40 0.06413
1157.50 0.06411
1157.60 0.06409
1157.70 0.06407
1157.80 0.06405
1157.90 0.06403
1158.00 0.06401
1158.10 0.06399
1158.20 0.06397
1158.30 0.06395
1158.40 0.06393
1158.50 0.06391
1158.60 0.06389
1158.70 0.06387
1158.80 0.06385
1158.90 0.06383
1159.00 0.06381
1159.10 0.0638
1159.20 0.06378
1159.30 0.06376
1159.40 0.06374
1159.50 0.06372
1159.60 0.0637
1159.70 0.06368
1159.80 0.06366
1159.90 0.06364
1160.00 0.06362
1160.10 0.0636
1160.20 0.06358
1160.30 0.06356
1160.40 0.06354
1160.50 0.06352
1160.60 0.0635
1160.70 0.06348
1160.80 0.06346
1160.90 0.06344
1161.00 0.06343
1161.10 0.06341
1161.20 0.06339
1161.30 0.06337
1161.40 0.06335
1161.50 0.06333
1161.60 0.06331
1161.70 0.06329
1161.80 0.06327
1161.90 0.06325
1162.00 0.06323
1162.10 0.06321
1162.20 0.06319
1162.30 0.06317
1162.40 0.06315
1162.50 0.06313
1162.60 0.06311
1162.70 0.0631
1162.80 0.06308
1162.90 0.06306
1163.00 0.06304
1163.10 0.06302
1163.20 0.063
1163.30 0.06298
1163.40 0.06296
1163.50 0.06294
1163.60 0.06292
1163.70 0.0629
1163.80 0.06288
1163.90 0.06286
1164.00 0.06284
1164.10 0.06282
1164.20 0.0628
1164.30 0.06278
1164.40 0.06277
1164.50 0.06275
1164.60 0.06273
1164.70 0.06271
1164.80 0.06269
1164.90 0.06267
1165.00 0.06265
1165.10 0.06263
1165.20 0.06261
1165.30 0.06259
1165.40 0.06257
1165.50 0.06255
1165.60 0.06253
1165.70 0.06251
1165.80 0.0625
1165.90 0.06248
1166.00 0.06246
1166.10 0.06244
1166.20 0.06242
1166.30 0.0624
1166.40 0.06238
1166.50 0.06236
1166.60 0.06234
1166.70 0.06232
1166.80 0.0623
1166.90 0.06228
1167.00 0.06226
1167.10 0.06225
1167.20 0.06223
1167.30 0.06221
1167.40 0.06219
1167.50 0.06217
1167.60 0.06215
1167.70 0.06213
1167.80 0.06211
1167.90 0.06209
1168.00 0.06207
1168.10 0.06205
1168.20 0.06203
1168.30 0.06201
1168.40 0.062
1168.50 0.06198
1168.60 0.06196
1168.70 0.06194
1168.80 0.06192
1168.90 0.0619
1169.00 0.06188
1169.10 0.06186
1169.20 0.06184
1169.30 0.06182
1169.40 0.0618
1169.50 0.06178
1169.60 0.06177
1169.70 0.06175
1169.80 0.06173
1169.90 0.06171
1170.00 0.06169
1170.10 0.06167
1170.20 0.06165
1170.30 0.06163
1170.40 0.06161
1170.50 0.06159
1170.60 0.06157
1170.70 0.06156
1170.80 0.06154
1170.90 0.06152
1171.00 0.0615
1171.10 0.06148
1171.20 0.06146
1171.30 0.06144
1171.40 0.06142
1171.50 0.0614
1171.60 0.06138
1171.70 0.06136
1171.80 0.06135
1171.90 0.06133
1172.00 0.06131
1172.10 0.06129
1172.20 0.06127
1172.30 0.06125
1172.40 0.06123
1172.50 0.06121
1172.60 0.06119
1172.70 0.06117
1172.80 0.06116
1172.90 0.06114
1173.00 0.06112
1173.10 0.0611
1173.20 0.06108
1173.30 0.06106
1173.40 0.06104
1173.50 0.06102
1173.60 0.061
1173.70 0.06098
1173.80 0.06097
1173.90 0.06095
1174.00 0.06093
1174.10 0.06091
1174.20 0.06089
1174.30 0.06087
1174.40 0.06085
1174.50 0.06083
1174.60 0.06081
1174.70 0.0608
1174.80 0.06078
1174.90 0.06076
1175.00 0.06074
1175.10 0.06072
1175.20 0.0607
1175.30 0.06068
1175.40 0.06066
1175.50 0.06064
1175.60 0.06063
1175.70 0.06061
1175.80 0.06059
1175.90 0.06057
1176.00 0.06055
1176.10 0.06053
1176.20 0.06051
1176.30 0.06049
1176.40 0.06047
1176.50 0.06046
1176.60 0.06044
1176.70 0.06042
1176.80 0.0604
1176.90 0.06038
1177.00 0.06036
1177.10 0.06034
1177.20 0.06032
1177.30 0.06031
1177.40 0.06029
1177.50 0.06027
1177.60 0.06025
1177.70 0.06023
1177.80 0.06021
1177.90 0.06019
1178.00 0.06017
1178.10 0.06016
1178.20 0.06014
1178.30 0.06012
1178.40 0.0601
1178.50 0.06008
1178.60 0.06006
1178.70 0.06004
1178.80 0.06002
1178.90 0.06001
1179.00 0.05999
1179.10 0.05997
1179.20 0.05995
1179.30 0.05993
1179.40 0.05991
1179.50 0.05989
1179.60 0.05987
1179.70 0.05986
1179.80 0.05984
1179.90 0.05982
1180.00 0.0598
1180.10 0.05978
1180.20 0.05976
1180.30 0.05974
1180.40 0.05973
1180.50 0.05971
1180.60 0.05969
1180.70 0.05967
1180.80 0.05965
1180.90 0.05963
1181.00 0.05961
1181.10 0.0596
1181.20 0.05958
1181.30 0.05956
1181.40 0.05954
1181.50 0.05952
1181.60 0.0595
1181.70 0.05948
1181.80 0.05947
1181.90 0.05945
1182.00 0.05943
1182.10 0.05941
1182.20 0.05939
1182.30 0.05937
1182.40 0.05935
1182.50 0.05934
1182.60 0.05932
1182.70 0.0593
1182.80 0.05928
1182.90 0.05926
1183.00 0.05924
1183.10 0.05923
1183.20 0.05921
1183.30 0.05919
1183.40 0.05917
1183.50 0.05915
1183.60 0.05913
1183.70 0.05911
1183.80 0.0591
1183.90 0.05908
1184.00 0.05906
1184.10 0.05904
1184.20 0.05902
1184.30 0.059
1184.40 0.05899
1184.50 0.05897
1184.60 0.05895
1184.70 0.05893
1184.80 0.05891
1184.90 0.05889
1185.00 0.05887
1185.10 0.05886
1185.20 0.05884
1185.30 0.05882
1185.40 0.0588
1185.50 0.05878
1185.60 0.05876
1185.70 0.05875
1185.80 0.05873
1185.90 0.05871
1186.00 0.05869
1186.10 0.05867
1186.20 0.05865
1186.30 0.05864
1186.40 0.05862
1186.50 0.0586
1186.60 0.05858
1186.70 0.05856
1186.80 0.05854
1186.90 0.05853
1187.00 0.05851
1187.10 0.05849
1187.20 0.05847
1187.30 0.05845
1187.40 0.05844
1187.50 0.05842
1187.60 0.0584
1187.70 0.05838
1187.80 0.05836
1187.90 0.05834
1188.00 0.05833
1188.10 0.05831
1188.20 0.05829
1188.30 0.05827
1188.40 0.05825
1188.50 0.05823
1188.60 0.05822
1188.70 0.0582
1188.80 0.05818
1188.90 0.05816
1189.00 0.05814
1189.10 0.05812
1189.20 0.05811
1189.30 0.05809
1189.40 0.05807
1189.50 0.05805
1189.60 0.05803
1189.70 0.05802
1189.80 0.058
1189.90 0.05798
1190.00 0.05796
1190.10 0.05794
1190.20 0.05792
1190.30 0.05791
1190.40 0.05789
1190.50 0.05787
1190.60 0.05785
1190.70 0.05783
1190.80 0.05782
1190.90 0.0578
1191.00 0.05778
1191.10 0.05776
1191.20 0.05774
1191.30 0.05773
1191.40 0.05771
1191.50 0.05769
1191.60 0.05767
1191.70 0.05765
1191.80 0.05764
1191.90 0.05762
1192.00 0.0576
1192.10 0.05758
1192.20 0.05756
1192.30 0.05755
1192.40 0.05753
1192.50 0.05751
1192.60 0.05749
1192.70 0.05747
1192.80 0.05745
1192.90 0.05744
1193.00 0.05742
1193.10 0.0574
1193.20 0.05738
1193.30 0.05736
1193.40 0.05735
1193.50 0.05733
1193.60 0.05731
1193.70 0.05729
1193.80 0.05727
1193.90 0.05726
1194.00 0.05724
1194.10 0.05722
1194.20 0.0572
1194.30 0.05718
1194.40 0.05717
1194.50 0.05715
1194.60 0.05713
1194.70 0.05711
1194.80 0.0571
1194.90 0.05708
1195.00 0.05706
1195.10 0.05704
1195.20 0.05702
1195.30 0.05701
1195.40 0.05699
1195.50 0.05697
1195.60 0.05695
1195.70 0.05693
1195.80 0.05692
1195.90 0.0569
1196.00 0.05688
1196.10 0.05686
1196.20 0.05684
1196.30 0.05683
1196.40 0.05681
1196.50 0.05679
1196.60 0.05677
1196.70 0.05676
1196.80 0.05674
1196.90 0.05672
1197.00 0.0567
1197.10 0.05668
1197.20 0.05667
1197.30 0.05665
1197.40 0.05663
1197.50 0.05661
1197.60 0.05659
1197.70 0.05658
1197.80 0.05656
1197.90 0.05654
1198.00 0.05652
1198.10 0.05651
1198.20 0.05649
1198.30 0.05647
1198.40 0.05645
1198.50 0.05643
1198.60 0.05642
1198.70 0.0564
1198.80 0.05638
1198.90 0.05636
1199.00 0.05635
1199.10 0.05633
1199.20 0.05631
1199.30 0.05629
1199.40 0.05627
1199.50 0.05626
1199.60 0.05624
1199.70 0.05622
1199.80 0.0562
1199.90 0.05619
1200.00 0
