# Version 2.1 - nm, norm@500 to 1, cut digits, bergeron_9500_90.dat_9500
# Wavelength(nm)  Flambda(ergs/cm^s/s/nm)
300.00 1.796
300.10 1.795
300.20 1.795
300.30 1.794
300.40 1.794
300.50 1.794
300.60 1.793
300.70 1.793
300.80 1.792
300.90 1.792
301.00 1.791
301.10 1.791
301.20 1.79
301.30 1.79
301.40 1.789
301.50 1.789
301.60 1.788
301.70 1.788
301.80 1.787
301.90 1.787
302.00 1.786
302.10 1.786
302.20 1.785
302.30 1.785
302.40 1.784
302.50 1.784
302.60 1.783
302.70 1.783
302.80 1.782
302.90 1.782
303.00 1.781
303.10 1.781
303.20 1.78
303.30 1.78
303.40 1.779
303.50 1.779
303.60 1.778
303.70 1.778
303.80 1.777
303.90 1.777
304.00 1.776
304.10 1.776
304.20 1.775
304.30 1.775
304.40 1.774
304.50 1.774
304.60 1.773
304.70 1.773
304.80 1.772
304.90 1.772
305.00 1.771
305.10 1.771
305.20 1.77
305.30 1.77
305.40 1.769
305.50 1.769
305.60 1.768
305.70 1.768
305.80 1.767
305.90 1.767
306.00 1.766
306.10 1.766
306.20 1.765
306.30 1.765
306.40 1.764
306.50 1.764
306.60 1.763
306.70 1.763
306.80 1.762
306.90 1.762
307.00 1.761
307.10 1.761
307.20 1.76
307.30 1.76
307.40 1.759
307.50 1.759
307.60 1.758
307.70 1.758
307.80 1.757
307.90 1.757
308.00 1.756
308.10 1.756
308.20 1.755
308.30 1.755
308.40 1.754
308.50 1.754
308.60 1.753
308.70 1.753
308.80 1.752
308.90 1.751
309.00 1.751
309.10 1.75
309.20 1.75
309.30 1.749
309.40 1.749
309.50 1.748
309.60 1.748
309.70 1.747
309.80 1.747
309.90 1.746
310.00 1.746
310.10 1.745
310.20 1.745
310.30 1.744
310.40 1.744
310.50 1.743
310.60 1.743
310.70 1.742
310.80 1.742
310.90 1.741
311.00 1.741
311.10 1.74
311.20 1.74
311.30 1.739
311.40 1.739
311.50 1.738
311.60 1.738
311.70 1.737
311.80 1.737
311.90 1.736
312.00 1.736
312.10 1.735
312.20 1.734
312.30 1.734
312.40 1.733
312.50 1.733
312.60 1.732
312.70 1.732
312.80 1.731
312.90 1.731
313.00 1.73
313.10 1.73
313.20 1.729
313.30 1.729
313.40 1.728
313.50 1.728
313.60 1.727
313.70 1.727
313.80 1.726
313.90 1.726
314.00 1.725
314.10 1.725
314.20 1.724
314.30 1.723
314.40 1.723
314.50 1.722
314.60 1.722
314.70 1.721
314.80 1.721
314.90 1.72
315.00 1.72
315.10 1.719
315.20 1.719
315.30 1.718
315.40 1.718
315.50 1.717
315.60 1.717
315.70 1.716
315.80 1.716
315.90 1.715
316.00 1.715
316.10 1.714
316.20 1.713
316.30 1.713
316.40 1.712
316.50 1.712
316.60 1.711
316.70 1.711
316.80 1.71
316.90 1.71
317.00 1.709
317.10 1.709
317.20 1.708
317.30 1.708
317.40 1.707
317.50 1.707
317.60 1.706
317.70 1.705
317.80 1.705
317.90 1.704
318.00 1.704
318.10 1.703
318.20 1.703
318.30 1.702
318.40 1.702
318.50 1.701
318.60 1.701
318.70 1.7
318.80 1.7
318.90 1.699
319.00 1.698
319.10 1.698
319.20 1.697
319.30 1.697
319.40 1.696
319.50 1.696
319.60 1.695
319.70 1.695
319.80 1.694
319.90 1.694
320.00 1.693
320.10 1.693
320.20 1.692
320.30 1.692
320.40 1.691
320.50 1.69
320.60 1.69
320.70 1.689
320.80 1.689
320.90 1.688
321.00 1.688
321.10 1.687
321.20 1.687
321.30 1.686
321.40 1.686
321.50 1.685
321.60 1.685
321.70 1.684
321.80 1.683
321.90 1.683
322.00 1.682
322.10 1.682
322.20 1.681
322.30 1.681
322.40 1.68
322.50 1.68
322.60 1.679
322.70 1.679
322.80 1.678
322.90 1.677
323.00 1.677
323.10 1.676
323.20 1.676
323.30 1.675
323.40 1.675
323.50 1.674
323.60 1.674
323.70 1.673
323.80 1.673
323.90 1.672
324.00 1.672
324.10 1.671
324.20 1.67
324.30 1.67
324.40 1.669
324.50 1.669
324.60 1.668
324.70 1.668
324.80 1.667
324.90 1.667
325.00 1.666
325.10 1.666
325.20 1.665
325.30 1.664
325.40 1.664
325.50 1.663
325.60 1.663
325.70 1.662
325.80 1.662
325.90 1.661
326.00 1.661
326.10 1.66
326.20 1.66
326.30 1.659
326.40 1.658
326.50 1.658
326.60 1.657
326.70 1.657
326.80 1.656
326.90 1.656
327.00 1.655
327.10 1.655
327.20 1.654
327.30 1.653
327.40 1.653
327.50 1.652
327.60 1.652
327.70 1.651
327.80 1.651
327.90 1.65
328.00 1.65
328.10 1.649
328.20 1.649
328.30 1.648
328.40 1.647
328.50 1.647
328.60 1.646
328.70 1.646
328.80 1.645
328.90 1.645
329.00 1.644
329.10 1.644
329.20 1.643
329.30 1.643
329.40 1.642
329.50 1.641
329.60 1.641
329.70 1.64
329.80 1.64
329.90 1.639
330.00 1.639
330.10 1.638
330.20 1.638
330.30 1.637
330.40 1.637
330.50 1.636
330.60 1.635
330.70 1.635
330.80 1.634
330.90 1.634
331.00 1.633
331.10 1.633
331.20 1.632
331.30 1.632
331.40 1.631
331.50 1.63
331.60 1.63
331.70 1.629
331.80 1.629
331.90 1.628
332.00 1.628
332.10 1.627
332.20 1.627
332.30 1.626
332.40 1.625
332.50 1.625
332.60 1.624
332.70 1.624
332.80 1.623
332.90 1.623
333.00 1.622
333.10 1.622
333.20 1.621
333.30 1.62
333.40 1.62
333.50 1.619
333.60 1.619
333.70 1.618
333.80 1.618
333.90 1.617
334.00 1.617
334.10 1.616
334.20 1.615
334.30 1.615
334.40 1.614
334.50 1.614
334.60 1.613
334.70 1.613
334.80 1.612
334.90 1.612
335.00 1.611
335.10 1.61
335.20 1.61
335.30 1.609
335.40 1.609
335.50 1.608
335.60 1.608
335.70 1.607
335.80 1.607
335.90 1.606
336.00 1.606
336.10 1.605
336.20 1.604
336.30 1.604
336.40 1.603
336.50 1.603
336.60 1.602
336.70 1.602
336.80 1.601
336.90 1.601
337.00 1.6
337.10 1.599
337.20 1.599
337.30 1.598
337.40 1.598
337.50 1.597
337.60 1.597
337.70 1.596
337.80 1.596
337.90 1.595
338.00 1.594
338.10 1.594
338.20 1.593
338.30 1.593
338.40 1.592
338.50 1.592
338.60 1.591
338.70 1.59
338.80 1.59
338.90 1.589
339.00 1.589
339.10 1.588
339.20 1.588
339.30 1.587
339.40 1.587
339.50 1.586
339.60 1.585
339.70 1.585
339.80 1.584
339.90 1.584
340.00 1.583
340.10 1.583
340.20 1.582
340.30 1.582
340.40 1.581
340.50 1.58
340.60 1.58
340.70 1.579
340.80 1.579
340.90 1.578
341.00 1.578
341.10 1.577
341.20 1.577
341.30 1.576
341.40 1.575
341.50 1.575
341.60 1.574
341.70 1.574
341.80 1.573
341.90 1.573
342.00 1.572
342.10 1.572
342.20 1.571
342.30 1.57
342.40 1.57
342.50 1.569
342.60 1.569
342.70 1.568
342.80 1.568
342.90 1.567
343.00 1.567
343.10 1.566
343.20 1.565
343.30 1.565
343.40 1.564
343.50 1.564
343.60 1.563
343.70 1.563
343.80 1.562
343.90 1.562
344.00 1.561
344.10 1.56
344.20 1.56
344.30 1.559
344.40 1.559
344.50 1.558
344.60 1.558
344.70 1.557
344.80 1.556
344.90 1.556
345.00 1.555
345.10 1.555
345.20 1.554
345.30 1.554
345.40 1.553
345.50 1.553
345.60 1.552
345.70 1.551
345.80 1.551
345.90 1.55
346.00 1.55
346.10 1.549
346.20 1.549
346.30 1.548
346.40 1.548
346.50 1.547
346.60 1.546
346.70 1.546
346.80 1.545
346.90 1.545
347.00 1.544
347.10 1.544
347.20 1.543
347.30 1.543
347.40 1.542
347.50 1.541
347.60 1.541
347.70 1.54
347.80 1.54
347.90 1.539
348.00 1.539
348.10 1.538
348.20 1.538
348.30 1.537
348.40 1.536
348.50 1.536
348.60 1.535
348.70 1.535
348.80 1.534
348.90 1.534
349.00 1.533
349.10 1.532
349.20 1.532
349.30 1.531
349.40 1.531
349.50 1.53
349.60 1.53
349.70 1.529
349.80 1.529
349.90 1.528
350.00 1.527
350.10 1.527
350.20 1.526
350.30 1.526
350.40 1.525
350.50 1.525
350.60 1.524
350.70 1.524
350.80 1.523
350.90 1.522
351.00 1.522
351.10 1.521
351.20 1.521
351.30 1.52
351.40 1.52
351.50 1.519
351.60 1.519
351.70 1.518
351.80 1.517
351.90 1.517
352.00 1.516
352.10 1.516
352.20 1.515
352.30 1.515
352.40 1.514
352.50 1.513
352.60 1.513
352.70 1.512
352.80 1.512
352.90 1.511
353.00 1.511
353.10 1.51
353.20 1.51
353.30 1.509
353.40 1.508
353.50 1.508
353.60 1.507
353.70 1.507
353.80 1.506
353.90 1.506
354.00 1.505
354.10 1.505
354.20 1.504
354.30 1.503
354.40 1.503
354.50 1.502
354.60 1.502
354.70 1.501
354.80 1.501
354.90 1.5
355.00 1.5
355.10 1.499
355.20 1.498
355.30 1.498
355.40 1.497
355.50 1.497
355.60 1.496
355.70 1.496
355.80 1.495
355.90 1.495
356.00 1.494
356.10 1.493
356.20 1.493
356.30 1.492
356.40 1.492
356.50 1.491
356.60 1.491
356.70 1.49
356.80 1.49
356.90 1.489
357.00 1.488
357.10 1.488
357.20 1.487
357.30 1.487
357.40 1.486
357.50 1.486
357.60 1.485
357.70 1.485
357.80 1.484
357.90 1.483
358.00 1.483
358.10 1.482
358.20 1.482
358.30 1.481
358.40 1.481
358.50 1.48
358.60 1.48
358.70 1.479
358.80 1.478
358.90 1.478
359.00 1.477
359.10 1.477
359.20 1.476
359.30 1.476
359.40 1.475
359.50 1.475
359.60 1.474
359.70 1.473
359.80 1.473
359.90 1.472
360.00 1.472
360.10 1.471
360.20 1.471
360.30 1.47
360.40 1.47
360.50 1.469
360.60 1.468
360.70 1.468
360.80 1.467
360.90 1.467
361.00 1.466
361.10 1.466
361.20 1.465
361.30 1.465
361.40 1.464
361.50 1.463
361.60 1.463
361.70 1.462
361.80 1.462
361.90 1.461
362.00 1.461
362.10 1.46
362.20 1.46
362.30 1.459
362.40 1.458
362.50 1.458
362.60 1.457
362.70 1.457
362.80 1.456
362.90 1.456
363.00 1.455
363.10 1.455
363.20 1.454
363.30 1.453
363.40 1.453
363.50 1.452
363.60 1.451
363.70 1.451
363.80 1.45
363.90 1.45
364.00 1.449
364.10 1.448
364.20 1.448
364.30 1.447
364.40 1.446
364.50 1.446
364.60 1.445
364.70 1.445
364.80 1.444
364.90 1.443
365.00 1.443
365.10 1.442
365.20 1.441
365.30 1.441
365.40 1.44
365.50 1.439
365.60 1.439
365.70 1.438
365.80 1.438
365.90 1.437
366.00 1.436
366.10 1.436
366.20 1.435
366.30 1.435
366.40 1.434
366.50 1.433
366.60 1.433
366.70 1.432
366.80 1.432
366.90 1.431
367.00 1.431
367.10 1.43
367.20 1.429
367.30 1.429
367.40 1.428
367.50 1.428
367.60 1.427
367.70 1.427
367.80 1.426
367.90 1.425
368.00 1.425
368.10 1.424
368.20 1.424
368.30 1.423
368.40 1.423
368.50 1.422
368.60 1.422
368.70 1.421
368.80 1.42
368.90 1.42
369.00 1.419
369.10 1.419
369.20 1.418
369.30 1.418
369.40 1.417
369.50 1.417
369.60 1.416
369.70 1.415
369.80 1.415
369.90 1.414
370.00 1.414
370.10 1.413
370.20 1.413
370.30 1.412
370.40 1.412
370.50 1.412
370.60 1.411
370.70 1.411
370.80 1.41
370.90 1.41
371.00 1.409
371.10 1.409
371.20 1.408
371.30 1.408
371.40 1.407
371.50 1.407
371.60 1.406
371.70 1.406
371.80 1.406
371.90 1.405
372.00 1.405
372.10 1.404
372.20 1.404
372.30 1.404
372.40 1.404
372.50 1.403
372.60 1.403
372.70 1.403
372.80 1.402
372.90 1.402
373.00 1.402
373.10 1.402
373.20 1.401
373.30 1.401
373.40 1.401
373.50 1.4
373.60 1.4
373.70 1.4
373.80 1.4
373.90 1.399
374.00 1.399
374.10 1.399
374.20 1.399
374.30 1.399
374.40 1.399
374.50 1.398
374.60 1.398
374.70 1.398
374.80 1.398
374.90 1.398
375.00 1.398
375.10 1.398
375.20 1.397
375.30 1.397
375.40 1.397
375.50 1.397
375.60 1.397
375.70 1.397
375.80 1.397
375.90 1.396
376.00 1.396
376.10 1.396
376.20 1.396
376.30 1.396
376.40 1.396
376.50 1.395
376.60 1.395
376.70 1.395
376.80 1.395
376.90 1.395
377.00 1.395
377.10 1.394
377.20 1.394
377.30 1.393
377.40 1.392
377.50 1.392
377.60 1.391
377.70 1.391
377.80 1.39
377.90 1.39
378.00 1.389
378.10 1.388
378.20 1.386
378.30 1.384
378.40 1.382
378.50 1.38
378.60 1.378
378.70 1.376
378.80 1.374
378.90 1.372
379.00 1.37
379.10 1.368
379.20 1.366
379.30 1.364
379.40 1.362
379.50 1.36
379.60 1.358
379.70 1.356
379.80 1.354
379.90 1.352
380.00 1.35
380.10 1.353
380.20 1.356
380.30 1.358
380.40 1.361
380.50 1.363
380.60 1.366
380.70 1.369
380.80 1.371
380.90 1.374
381.00 1.376
381.10 1.377
381.20 1.377
381.30 1.378
381.40 1.379
381.50 1.379
381.60 1.379
381.70 1.378
381.80 1.377
381.90 1.376
382.00 1.375
382.10 1.373
382.20 1.37
382.30 1.365
382.40 1.359
382.50 1.353
382.60 1.347
382.70 1.342
382.80 1.336
382.90 1.33
383.00 1.325
383.10 1.319
383.20 1.313
383.30 1.306
383.40 1.298
383.50 1.291
383.60 1.292
383.70 1.3
383.80 1.308
383.90 1.315
384.00 1.323
384.10 1.331
384.20 1.338
384.30 1.346
384.40 1.352
384.50 1.358
384.60 1.362
384.70 1.366
384.80 1.37
384.90 1.373
385.00 1.375
385.10 1.377
385.20 1.378
385.30 1.38
385.40 1.38
385.50 1.381
385.60 1.382
385.70 1.382
385.80 1.382
385.90 1.382
386.00 1.381
386.10 1.38
386.20 1.38
386.30 1.379
386.40 1.377
386.50 1.376
386.60 1.374
386.70 1.372
386.80 1.37
386.90 1.368
387.00 1.365
387.10 1.362
387.20 1.359
387.30 1.355
387.40 1.351
387.50 1.346
387.60 1.341
387.70 1.335
387.80 1.328
387.90 1.319
388.00 1.31
388.10 1.298
388.20 1.285
388.30 1.27
388.40 1.252
388.50 1.235
388.60 1.216
388.70 1.199
388.80 1.185
388.90 1.172
389.00 1.184
389.10 1.198
389.20 1.215
389.30 1.233
389.40 1.251
389.50 1.269
389.60 1.284
389.70 1.298
389.80 1.31
389.90 1.32
390.00 1.328
390.10 1.336
390.20 1.342
390.30 1.347
390.40 1.352
390.50 1.357
390.60 1.361
390.70 1.364
390.80 1.367
390.90 1.37
391.00 1.373
391.10 1.375
391.20 1.378
391.30 1.38
391.40 1.381
391.50 1.383
391.60 1.384
391.70 1.385
391.80 1.386
391.90 1.387
392.00 1.387
392.10 1.388
392.20 1.388
392.30 1.388
392.40 1.388
392.50 1.388
392.60 1.387
392.70 1.387
392.80 1.386
392.90 1.385
393.00 1.384
393.10 1.383
393.20 1.381
393.30 1.379
393.40 1.378
393.50 1.375
393.60 1.373
393.70 1.371
393.80 1.368
393.90 1.365
394.00 1.362
394.10 1.359
394.20 1.355
394.30 1.352
394.40 1.347
394.50 1.343
394.60 1.338
394.70 1.333
394.80 1.328
394.90 1.322
395.00 1.316
395.10 1.31
395.20 1.303
395.30 1.295
395.40 1.287
395.50 1.279
395.60 1.27
395.70 1.26
395.80 1.249
395.90 1.236
396.00 1.222
396.10 1.207
396.20 1.189
396.30 1.167
396.40 1.143
396.50 1.111
396.60 1.076
396.70 1.037
396.80 1.001
396.90 0.9646
397.00 0.9297
397.10 0.9613
397.20 0.9952
397.30 1.031
397.40 1.07
397.50 1.105
397.60 1.137
397.70 1.162
397.80 1.184
397.90 1.203
398.00 1.218
398.10 1.232
398.20 1.244
398.30 1.255
398.40 1.265
398.50 1.274
398.60 1.283
398.70 1.29
398.80 1.298
398.90 1.305
399.00 1.311
399.10 1.317
399.20 1.323
399.30 1.328
399.40 1.333
399.50 1.338
399.60 1.343
399.70 1.347
399.80 1.351
399.90 1.354
400.00 1.358
400.10 1.361
400.20 1.364
400.30 1.367
400.40 1.37
400.50 1.373
400.60 1.375
400.70 1.377
400.80 1.379
400.90 1.381
401.00 1.383
401.10 1.385
401.20 1.387
401.30 1.388
401.40 1.389
401.50 1.391
401.60 1.392
401.70 1.393
401.80 1.394
401.90 1.394
402.00 1.395
402.10 1.396
402.20 1.396
402.30 1.397
402.40 1.397
402.50 1.397
402.60 1.397
402.70 1.397
402.80 1.397
402.90 1.397
403.00 1.397
403.10 1.397
403.20 1.396
403.30 1.396
403.40 1.395
403.50 1.394
403.60 1.394
403.70 1.393
403.80 1.392
403.90 1.391
404.00 1.39
404.10 1.389
404.20 1.387
404.30 1.386
404.40 1.384
404.50 1.383
404.60 1.381
404.70 1.379
404.80 1.377
404.90 1.375
405.00 1.373
405.10 1.371
405.20 1.369
405.30 1.366
405.40 1.363
405.50 1.361
405.60 1.358
405.70 1.355
405.80 1.352
405.90 1.348
406.00 1.345
406.10 1.341
406.20 1.337
406.30 1.333
406.40 1.329
406.50 1.324
406.60 1.32
406.70 1.315
406.80 1.31
406.90 1.304
407.00 1.299
407.10 1.293
407.20 1.287
407.30 1.28
407.40 1.273
407.50 1.266
407.60 1.258
407.70 1.25
407.80 1.242
407.90 1.233
408.00 1.224
408.10 1.214
408.20 1.204
408.30 1.193
408.40 1.181
408.50 1.168
408.60 1.155
408.70 1.142
408.80 1.126
408.90 1.11
409.00 1.094
409.10 1.075
409.20 1.054
409.30 1.032
409.40 1.006
409.50 0.9764
409.60 0.9432
409.70 0.8994
409.80 0.8497
409.90 0.7941
410.00 0.739
410.10 0.6977
410.20 0.6703
410.30 0.7166
410.40 0.768
410.50 0.8244
410.60 0.8758
410.70 0.921
410.80 0.96
410.90 0.9898
411.00 1.016
411.10 1.04
411.20 1.06
411.30 1.079
411.40 1.096
411.50 1.112
411.60 1.127
411.70 1.14
411.80 1.153
411.90 1.165
412.00 1.176
412.10 1.187
412.20 1.197
412.30 1.206
412.40 1.215
412.50 1.223
412.60 1.231
412.70 1.238
412.80 1.245
412.90 1.252
413.00 1.258
413.10 1.264
413.20 1.27
413.30 1.275
413.40 1.28
413.50 1.285
413.60 1.29
413.70 1.294
413.80 1.298
413.90 1.302
414.00 1.306
414.10 1.309
414.20 1.313
414.30 1.316
414.40 1.319
414.50 1.322
414.60 1.325
414.70 1.327
414.80 1.33
414.90 1.332
415.00 1.335
415.10 1.337
415.20 1.339
415.30 1.341
415.40 1.343
415.50 1.344
415.60 1.346
415.70 1.348
415.80 1.349
415.90 1.351
416.00 1.352
416.10 1.353
416.20 1.355
416.30 1.356
416.40 1.357
416.50 1.358
416.60 1.359
416.70 1.36
416.80 1.361
416.90 1.361
417.00 1.362
417.10 1.363
417.20 1.364
417.30 1.364
417.40 1.365
417.50 1.365
417.60 1.366
417.70 1.366
417.80 1.367
417.90 1.367
418.00 1.367
418.10 1.368
418.20 1.368
418.30 1.368
418.40 1.368
418.50 1.369
418.60 1.369
418.70 1.369
418.80 1.369
418.90 1.369
419.00 1.369
419.10 1.369
419.20 1.369
419.30 1.369
419.40 1.369
419.50 1.369
419.60 1.369
419.70 1.369
419.80 1.369
419.90 1.368
420.00 1.368
420.10 1.368
420.20 1.368
420.30 1.368
420.40 1.367
420.50 1.367
420.60 1.367
420.70 1.366
420.80 1.366
420.90 1.366
421.00 1.365
421.10 1.365
421.20 1.365
421.30 1.364
421.40 1.364
421.50 1.363
421.60 1.363
421.70 1.362
421.80 1.362
421.90 1.361
422.00 1.361
422.10 1.36
422.20 1.36
422.30 1.359
422.40 1.358
422.50 1.358
422.60 1.357
422.70 1.357
422.80 1.356
422.90 1.355
423.00 1.354
423.10 1.354
423.20 1.353
423.30 1.352
423.40 1.351
423.50 1.351
423.60 1.35
423.70 1.349
423.80 1.348
423.90 1.347
424.00 1.346
424.10 1.345
424.20 1.344
424.30 1.343
424.40 1.342
424.50 1.341
424.60 1.34
424.70 1.339
424.80 1.338
424.90 1.337
425.00 1.336
425.10 1.335
425.20 1.334
425.30 1.332
425.40 1.331
425.50 1.33
425.60 1.328
425.70 1.327
425.80 1.326
425.90 1.324
426.00 1.323
426.10 1.322
426.20 1.32
426.30 1.318
426.40 1.317
426.50 1.315
426.60 1.313
426.70 1.312
426.80 1.31
426.90 1.308
427.00 1.306
427.10 1.304
427.20 1.302
427.30 1.3
427.40 1.298
427.50 1.296
427.60 1.294
427.70 1.292
427.80 1.29
427.90 1.287
428.00 1.285
428.10 1.283
428.20 1.28
428.30 1.277
428.40 1.275
428.50 1.272
428.60 1.269
428.70 1.266
428.80 1.263
428.90 1.26
429.00 1.257
429.10 1.253
429.20 1.25
429.30 1.246
429.40 1.242
429.50 1.239
429.60 1.235
429.70 1.23
429.80 1.226
429.90 1.222
430.00 1.217
430.10 1.212
430.20 1.207
430.30 1.202
430.40 1.197
430.50 1.191
430.60 1.185
430.70 1.179
430.80 1.173
430.90 1.166
431.00 1.159
431.10 1.152
431.20 1.145
431.30 1.137
431.40 1.128
431.50 1.12
431.60 1.111
431.70 1.101
431.80 1.091
431.90 1.081
432.00 1.069
432.10 1.058
432.20 1.045
432.30 1.031
432.40 1.017
432.50 1.001
432.60 0.9838
432.70 0.9657
432.80 0.9454
432.90 0.924
433.00 0.9015
433.10 0.877
433.20 0.8511
433.30 0.8239
433.40 0.792
433.50 0.756
433.60 0.716
433.70 0.6624
433.80 0.6063
433.90 0.5476
434.00 0.4975
434.10 0.4989
434.20 0.5517
434.30 0.6104
434.40 0.6659
434.50 0.7183
434.60 0.7573
434.70 0.7922
434.80 0.8232
434.90 0.8496
435.00 0.8747
435.10 0.8984
435.20 0.92
435.30 0.9405
435.40 0.9599
435.50 0.977
435.60 0.9931
435.70 1.008
435.80 1.021
435.90 1.034
436.00 1.046
436.10 1.057
436.20 1.067
436.30 1.077
436.40 1.086
436.50 1.094
436.60 1.102
436.70 1.11
436.80 1.117
436.90 1.124
437.00 1.13
437.10 1.136
437.20 1.142
437.30 1.148
437.40 1.153
437.50 1.158
437.60 1.163
437.70 1.167
437.80 1.172
437.90 1.176
438.00 1.18
438.10 1.184
438.20 1.187
438.30 1.191
438.40 1.194
438.50 1.197
438.60 1.2
438.70 1.203
438.80 1.205
438.90 1.208
439.00 1.21
439.10 1.213
439.20 1.215
439.30 1.217
439.40 1.219
439.50 1.221
439.60 1.223
439.70 1.224
439.80 1.226
439.90 1.228
440.00 1.229
440.10 1.23
440.20 1.232
440.30 1.233
440.40 1.234
440.50 1.235
440.60 1.237
440.70 1.238
440.80 1.239
440.90 1.24
441.00 1.24
441.10 1.241
441.20 1.242
441.30 1.243
441.40 1.244
441.50 1.244
441.60 1.245
441.70 1.246
441.80 1.246
441.90 1.247
442.00 1.247
442.10 1.248
442.20 1.248
442.30 1.249
442.40 1.249
442.50 1.249
442.60 1.25
442.70 1.25
442.80 1.25
442.90 1.25
443.00 1.251
443.10 1.251
443.20 1.251
443.30 1.251
443.40 1.251
443.50 1.252
443.60 1.252
443.70 1.252
443.80 1.252
443.90 1.252
444.00 1.252
444.10 1.252
444.20 1.252
444.30 1.252
444.40 1.252
444.50 1.252
444.60 1.252
444.70 1.252
444.80 1.252
444.90 1.252
445.00 1.252
445.10 1.252
445.20 1.251
445.30 1.251
445.40 1.251
445.50 1.251
445.60 1.251
445.70 1.251
445.80 1.251
445.90 1.25
446.00 1.25
446.10 1.25
446.20 1.25
446.30 1.25
446.40 1.249
446.50 1.249
446.60 1.249
446.70 1.249
446.80 1.248
446.90 1.248
447.00 1.248
447.10 1.248
447.20 1.247
447.30 1.247
447.40 1.247
447.50 1.246
447.60 1.246
447.70 1.246
447.80 1.246
447.90 1.245
448.00 1.245
448.10 1.245
448.20 1.244
448.30 1.244
448.40 1.244
448.50 1.243
448.60 1.243
448.70 1.243
448.80 1.242
448.90 1.242
449.00 1.241
449.10 1.241
449.20 1.241
449.30 1.24
449.40 1.24
449.50 1.24
449.60 1.239
449.70 1.239
449.80 1.238
449.90 1.238
450.00 1.238
450.10 1.237
450.20 1.237
450.30 1.237
450.40 1.236
450.50 1.236
450.60 1.235
450.70 1.235
450.80 1.234
450.90 1.234
451.00 1.234
451.10 1.233
451.20 1.233
451.30 1.232
451.40 1.232
451.50 1.232
451.60 1.231
451.70 1.231
451.80 1.23
451.90 1.23
452.00 1.229
452.10 1.229
452.20 1.228
452.30 1.228
452.40 1.228
452.50 1.227
452.60 1.227
452.70 1.226
452.80 1.226
452.90 1.225
453.00 1.225
453.10 1.224
453.20 1.224
453.30 1.224
453.40 1.223
453.50 1.223
453.60 1.222
453.70 1.222
453.80 1.221
453.90 1.221
454.00 1.22
454.10 1.22
454.20 1.219
454.30 1.219
454.40 1.218
454.50 1.218
454.60 1.217
454.70 1.217
454.80 1.217
454.90 1.216
455.00 1.216
455.10 1.215
455.20 1.215
455.30 1.214
455.40 1.214
455.50 1.213
455.60 1.213
455.70 1.212
455.80 1.212
455.90 1.211
456.00 1.211
456.10 1.21
456.20 1.21
456.30 1.209
456.40 1.209
456.50 1.208
456.60 1.208
456.70 1.207
456.80 1.207
456.90 1.207
457.00 1.206
457.10 1.206
457.20 1.205
457.30 1.205
457.40 1.204
457.50 1.204
457.60 1.203
457.70 1.203
457.80 1.202
457.90 1.202
458.00 1.201
458.10 1.201
458.20 1.2
458.30 1.2
458.40 1.199
458.50 1.199
458.60 1.198
458.70 1.198
458.80 1.197
458.90 1.197
459.00 1.196
459.10 1.196
459.20 1.195
459.30 1.195
459.40 1.194
459.50 1.194
459.60 1.193
459.70 1.193
459.80 1.192
459.90 1.192
460.00 1.191
460.10 1.191
460.20 1.19
460.30 1.19
460.40 1.189
460.50 1.189
460.60 1.188
460.70 1.188
460.80 1.187
460.90 1.186
461.00 1.186
461.10 1.185
461.20 1.185
461.30 1.184
461.40 1.184
461.50 1.183
461.60 1.183
461.70 1.182
461.80 1.182
461.90 1.181
462.00 1.181
462.10 1.18
462.20 1.18
462.30 1.179
462.40 1.179
462.50 1.178
462.60 1.178
462.70 1.177
462.80 1.177
462.90 1.176
463.00 1.176
463.10 1.175
463.20 1.174
463.30 1.174
463.40 1.173
463.50 1.173
463.60 1.172
463.70 1.172
463.80 1.171
463.90 1.171
464.00 1.17
464.10 1.17
464.20 1.169
464.30 1.169
464.40 1.168
464.50 1.168
464.60 1.167
464.70 1.166
464.80 1.166
464.90 1.165
465.00 1.165
465.10 1.164
465.20 1.164
465.30 1.163
465.40 1.163
465.50 1.162
465.60 1.162
465.70 1.161
465.80 1.16
465.90 1.16
466.00 1.159
466.10 1.159
466.20 1.158
466.30 1.158
466.40 1.157
466.50 1.157
466.60 1.156
466.70 1.155
466.80 1.155
466.90 1.154
467.00 1.154
467.10 1.153
467.20 1.153
467.30 1.152
467.40 1.151
467.50 1.151
467.60 1.15
467.70 1.15
467.80 1.149
467.90 1.149
468.00 1.148
468.10 1.147
468.20 1.147
468.30 1.146
468.40 1.146
468.50 1.145
468.60 1.144
468.70 1.144
468.80 1.143
468.90 1.143
469.00 1.142
469.10 1.141
469.20 1.141
469.30 1.14
469.40 1.14
469.50 1.139
469.60 1.138
469.70 1.138
469.80 1.137
469.90 1.137
470.00 1.136
470.10 1.135
470.20 1.135
470.30 1.134
470.40 1.133
470.50 1.133
470.60 1.132
470.70 1.131
470.80 1.131
470.90 1.13
471.00 1.13
471.10 1.129
471.20 1.128
471.30 1.128
471.40 1.127
471.50 1.126
471.60 1.126
471.70 1.125
471.80 1.124
471.90 1.124
472.00 1.123
472.10 1.122
472.20 1.121
472.30 1.121
472.40 1.12
472.50 1.119
472.60 1.119
472.70 1.118
472.80 1.117
472.90 1.116
473.00 1.116
473.10 1.115
473.20 1.114
473.30 1.113
473.40 1.112
473.50 1.112
473.60 1.111
473.70 1.11
473.80 1.109
473.90 1.108
474.00 1.108
474.10 1.107
474.20 1.106
474.30 1.105
474.40 1.104
474.50 1.103
474.60 1.102
474.70 1.102
474.80 1.101
474.90 1.1
475.00 1.099
475.10 1.098
475.20 1.097
475.30 1.096
475.40 1.095
475.50 1.094
475.60 1.093
475.70 1.092
475.80 1.091
475.90 1.09
476.00 1.089
476.10 1.088
476.20 1.087
476.30 1.086
476.40 1.084
476.50 1.083
476.60 1.082
476.70 1.081
476.80 1.08
476.90 1.079
477.00 1.077
477.10 1.076
477.20 1.075
477.30 1.074
477.40 1.072
477.50 1.071
477.60 1.069
477.70 1.068
477.80 1.067
477.90 1.065
478.00 1.064
478.10 1.063
478.20 1.061
478.30 1.059
478.40 1.058
478.50 1.056
478.60 1.055
478.70 1.053
478.80 1.051
478.90 1.05
479.00 1.048
479.10 1.046
479.20 1.045
479.30 1.042
479.40 1.04
479.50 1.038
479.60 1.036
479.70 1.034
479.80 1.032
479.90 1.03
480.00 1.028
480.10 1.026
480.20 1.024
480.30 1.021
480.40 1.019
480.50 1.016
480.60 1.014
480.70 1.011
480.80 1.009
480.90 1.006
481.00 1.003
481.10 1.001
481.20 0.9977
481.30 0.9942
481.40 0.9907
481.50 0.9873
481.60 0.9838
481.70 0.9804
481.80 0.9769
481.90 0.9735
482.00 0.97
482.10 0.9666
482.20 0.9621
482.30 0.9572
482.40 0.9523
482.50 0.9473
482.60 0.9424
482.70 0.9375
482.80 0.9326
482.90 0.9277
483.00 0.9227
483.10 0.9178
483.20 0.9109
483.30 0.903
483.40 0.8952
483.50 0.8873
483.60 0.8794
483.70 0.8716
483.80 0.8637
483.90 0.8559
484.00 0.8481
484.10 0.8402
484.20 0.8294
484.30 0.817
484.40 0.8047
484.50 0.7924
484.60 0.7801
484.70 0.7639
484.80 0.746
484.90 0.7281
485.00 0.7102
485.10 0.6924
485.20 0.6709
485.30 0.6478
485.40 0.6228
485.50 0.5969
485.60 0.5701
485.70 0.5427
485.80 0.5137
485.90 0.4838
486.00 0.4509
486.10 0.4061
486.20 0.4233
486.30 0.4625
486.40 0.4933
486.50 0.523
486.60 0.5508
486.70 0.5778
486.80 0.6037
486.90 0.6291
487.00 0.6526
487.10 0.6752
487.20 0.6942
487.30 0.7114
487.40 0.7287
487.50 0.746
487.60 0.7632
487.70 0.7766
487.80 0.7882
487.90 0.7998
488.00 0.8114
488.10 0.8229
488.20 0.8314
488.30 0.8385
488.40 0.8456
488.50 0.8526
488.60 0.8596
488.70 0.8667
488.80 0.8737
488.90 0.8807
489.00 0.8877
489.10 0.8947
489.20 0.8997
489.30 0.9038
489.40 0.9078
489.50 0.9119
489.60 0.9159
489.70 0.92
489.80 0.924
489.90 0.9281
490.00 0.9321
490.10 0.9361
490.20 0.9391
490.30 0.9417
490.40 0.9442
490.50 0.9468
490.60 0.9493
490.70 0.9519
490.80 0.9544
490.90 0.9569
491.00 0.9595
491.10 0.962
491.20 0.9639
491.30 0.9656
491.40 0.9672
491.50 0.9689
491.60 0.9705
491.70 0.9721
491.80 0.9738
491.90 0.9754
492.00 0.9771
492.10 0.9787
492.20 0.9799
492.30 0.981
492.40 0.982
492.50 0.9831
492.60 0.9842
492.70 0.9852
492.80 0.9863
492.90 0.9873
493.00 0.9884
493.10 0.9895
493.20 0.9903
493.30 0.991
493.40 0.9917
493.50 0.9923
493.60 0.993
493.70 0.9937
493.80 0.9944
493.90 0.9951
494.00 0.9958
494.10 0.9965
494.20 0.997
494.30 0.9974
494.40 0.9978
494.50 0.9982
494.60 0.9987
494.70 0.9991
494.80 0.9995
494.90 0.9999
495.00 1
495.10 1.001
495.20 1.001
495.30 1.001
495.40 1.001
495.50 1.002
495.60 1.002
495.70 1.002
495.80 1.002
495.90 1.003
496.00 1.003
496.10 1.003
496.20 1.003
496.30 1.003
496.40 1.003
496.50 1.003
496.60 1.003
496.70 1.003
496.80 1.003
496.90 1.004
497.00 1.004
497.10 1.004
497.20 1.004
497.30 1.004
497.40 1.004
497.50 1.003
497.60 1.003
497.70 1.003
497.80 1.003
497.90 1.003
498.00 1.003
498.10 1.003
498.20 1.003
498.30 1.003
498.40 1.003
498.50 1.003
498.60 1.002
498.70 1.002
498.80 1.002
498.90 1.002
499.00 1.002
499.10 1.002
499.20 1.002
499.30 1.001
499.40 1.001
499.50 1.001
499.60 1.001
499.70 1.001
499.80 1
499.90 1
500.00 1
500.10 0.9998
500.20 0.9996
500.30 0.9993
500.40 0.9991
500.50 0.9988
500.60 0.9986
500.70 0.9983
500.80 0.9981
500.90 0.9978
501.00 0.9976
501.10 0.9974
501.20 0.9971
501.30 0.9968
501.40 0.9965
501.50 0.9963
501.60 0.996
501.70 0.9957
501.80 0.9954
501.90 0.9951
502.00 0.9949
502.10 0.9946
502.20 0.9943
502.30 0.994
502.40 0.9937
502.50 0.9934
502.60 0.9931
502.70 0.9928
502.80 0.9925
502.90 0.9922
503.00 0.9919
503.10 0.9916
503.20 0.9913
503.30 0.9909
503.40 0.9906
503.50 0.9903
503.60 0.99
503.70 0.9897
503.80 0.9893
503.90 0.989
504.00 0.9887
504.10 0.9884
504.20 0.988
504.30 0.9877
504.40 0.9874
504.50 0.987
504.60 0.9867
504.70 0.9864
504.80 0.986
504.90 0.9857
505.00 0.9853
505.10 0.985
505.20 0.9847
505.30 0.9843
505.40 0.984
505.50 0.9836
505.60 0.9833
505.70 0.9829
505.80 0.9826
505.90 0.9822
506.00 0.9819
506.10 0.9815
506.20 0.9812
506.30 0.9808
506.40 0.9805
506.50 0.9801
506.60 0.9798
506.70 0.9794
506.80 0.979
506.90 0.9787
507.00 0.9783
507.10 0.978
507.20 0.9776
507.30 0.9772
507.40 0.9769
507.50 0.9765
507.60 0.9762
507.70 0.9758
507.80 0.9754
507.90 0.9751
508.00 0.9747
508.10 0.9743
508.20 0.974
508.30 0.9736
508.40 0.9732
508.50 0.9729
508.60 0.9725
508.70 0.9721
508.80 0.9717
508.90 0.9714
509.00 0.971
509.10 0.9706
509.20 0.9703
509.30 0.9699
509.40 0.9695
509.50 0.9691
509.60 0.9688
509.70 0.9684
509.80 0.968
509.90 0.9677
510.00 0.9673
510.10 0.9669
510.20 0.9665
510.30 0.9662
510.40 0.9658
510.50 0.9654
510.60 0.965
510.70 0.9646
510.80 0.9643
510.90 0.9639
511.00 0.9635
511.10 0.9631
511.20 0.9628
511.30 0.9624
511.40 0.962
511.50 0.9616
511.60 0.9612
511.70 0.9609
511.80 0.9605
511.90 0.9601
512.00 0.9597
512.10 0.9594
512.20 0.959
512.30 0.9586
512.40 0.9582
512.50 0.9578
512.60 0.9574
512.70 0.9571
512.80 0.9567
512.90 0.9563
513.00 0.9559
513.10 0.9555
513.20 0.9552
513.30 0.9548
513.40 0.9544
513.50 0.954
513.60 0.9536
513.70 0.9533
513.80 0.9529
513.90 0.9525
514.00 0.9521
514.10 0.9517
514.20 0.9513
514.30 0.951
514.40 0.9506
514.50 0.9502
514.60 0.9498
514.70 0.9494
514.80 0.949
514.90 0.9487
515.00 0.9483
515.10 0.9479
515.20 0.9475
515.30 0.9471
515.40 0.9467
515.50 0.9464
515.60 0.946
515.70 0.9456
515.80 0.9452
515.90 0.9448
516.00 0.9445
516.10 0.9441
516.20 0.9437
516.30 0.9433
516.40 0.9429
516.50 0.9425
516.60 0.9422
516.70 0.9418
516.80 0.9414
516.90 0.941
517.00 0.9406
517.10 0.9402
517.20 0.9399
517.30 0.9395
517.40 0.9391
517.50 0.9387
517.60 0.9383
517.70 0.9379
517.80 0.9376
517.90 0.9372
518.00 0.9368
518.10 0.9364
518.20 0.936
518.30 0.9356
518.40 0.9353
518.50 0.9349
518.60 0.9345
518.70 0.9341
518.80 0.9337
518.90 0.9334
519.00 0.933
519.10 0.9326
519.20 0.9322
519.30 0.9318
519.40 0.9314
519.50 0.9311
519.60 0.9307
519.70 0.9303
519.80 0.9299
519.90 0.9295
520.00 0.9292
520.10 0.9288
520.20 0.9284
520.30 0.928
520.40 0.9276
520.50 0.9272
520.60 0.9269
520.70 0.9265
520.80 0.9261
520.90 0.9257
521.00 0.9253
521.10 0.925
521.20 0.9246
521.30 0.9242
521.40 0.9238
521.50 0.9234
521.60 0.9231
521.70 0.9227
521.80 0.9223
521.90 0.9219
522.00 0.9215
522.10 0.9212
522.20 0.9208
522.30 0.9204
522.40 0.92
522.50 0.9196
522.60 0.9193
522.70 0.9189
522.80 0.9185
522.90 0.9181
523.00 0.9177
523.10 0.9174
523.20 0.917
523.30 0.9166
523.40 0.9162
523.50 0.9158
523.60 0.9155
523.70 0.9151
523.80 0.9147
523.90 0.9143
524.00 0.914
524.10 0.9136
524.20 0.9132
524.30 0.9128
524.40 0.9124
524.50 0.9121
524.60 0.9117
524.70 0.9113
524.80 0.9109
524.90 0.9106
525.00 0.9102
525.10 0.9098
525.20 0.9094
525.30 0.9091
525.40 0.9087
525.50 0.9083
525.60 0.9079
525.70 0.9076
525.80 0.9072
525.90 0.9068
526.00 0.9064
526.10 0.9061
526.20 0.9057
526.30 0.9053
526.40 0.9049
526.50 0.9046
526.60 0.9042
526.70 0.9038
526.80 0.9034
526.90 0.9031
527.00 0.9027
527.10 0.9023
527.20 0.9019
527.30 0.9016
527.40 0.9012
527.50 0.9008
527.60 0.9004
527.70 0.9001
527.80 0.8997
527.90 0.8993
528.00 0.8989
528.10 0.8986
528.20 0.8982
528.30 0.8978
528.40 0.8975
528.50 0.8971
528.60 0.8967
528.70 0.8963
528.80 0.896
528.90 0.8956
529.00 0.8952
529.10 0.8949
529.20 0.8945
529.30 0.8941
529.40 0.8937
529.50 0.8934
529.60 0.893
529.70 0.8926
529.80 0.8923
529.90 0.8919
530.00 0.8915
530.10 0.8911
530.20 0.8908
530.30 0.8904
530.40 0.89
530.50 0.8897
530.60 0.8893
530.70 0.8889
530.80 0.8885
530.90 0.8882
531.00 0.8878
531.10 0.8874
531.20 0.8871
531.30 0.8867
531.40 0.8863
531.50 0.886
531.60 0.8856
531.70 0.8852
531.80 0.8849
531.90 0.8845
532.00 0.8841
532.10 0.8838
532.20 0.8834
532.30 0.883
532.40 0.8827
532.50 0.8823
532.60 0.8819
532.70 0.8816
532.80 0.8812
532.90 0.8808
533.00 0.8805
533.10 0.8801
533.20 0.8797
533.30 0.8794
533.40 0.879
533.50 0.8786
533.60 0.8783
533.70 0.8779
533.80 0.8775
533.90 0.8772
534.00 0.8768
534.10 0.8764
534.20 0.8761
534.30 0.8757
534.40 0.8753
534.50 0.875
534.60 0.8746
534.70 0.8743
534.80 0.8739
534.90 0.8735
535.00 0.8732
535.10 0.8728
535.20 0.8724
535.30 0.8721
535.40 0.8717
535.50 0.8714
535.60 0.871
535.70 0.8706
535.80 0.8703
535.90 0.8699
536.00 0.8695
536.10 0.8692
536.20 0.8688
536.30 0.8685
536.40 0.8681
536.50 0.8677
536.60 0.8674
536.70 0.867
536.80 0.8667
536.90 0.8663
537.00 0.8659
537.10 0.8656
537.20 0.8652
537.30 0.8649
537.40 0.8645
537.50 0.8641
537.60 0.8638
537.70 0.8634
537.80 0.8631
537.90 0.8627
538.00 0.8623
538.10 0.862
538.20 0.8616
538.30 0.8613
538.40 0.8609
538.50 0.8605
538.60 0.8602
538.70 0.8598
538.80 0.8595
538.90 0.8591
539.00 0.8588
539.10 0.8584
539.20 0.858
539.30 0.8577
539.40 0.8573
539.50 0.857
539.60 0.8566
539.70 0.8563
539.80 0.8559
539.90 0.8556
540.00 0.8552
540.10 0.8548
540.20 0.8545
540.30 0.8541
540.40 0.8538
540.50 0.8534
540.60 0.8531
540.70 0.8527
540.80 0.8524
540.90 0.852
541.00 0.8517
541.10 0.8513
541.20 0.851
541.30 0.8506
541.40 0.8502
541.50 0.8499
541.60 0.8495
541.70 0.8492
541.80 0.8488
541.90 0.8485
542.00 0.8481
542.10 0.8478
542.20 0.8474
542.30 0.8471
542.40 0.8467
542.50 0.8464
542.60 0.846
542.70 0.8457
542.80 0.8453
542.90 0.845
543.00 0.8446
543.10 0.8443
543.20 0.8439
543.30 0.8436
543.40 0.8432
543.50 0.8429
543.60 0.8425
543.70 0.8422
543.80 0.8418
543.90 0.8415
544.00 0.8411
544.10 0.8408
544.20 0.8404
544.30 0.8401
544.40 0.8397
544.50 0.8394
544.60 0.839
544.70 0.8387
544.80 0.8383
544.90 0.838
545.00 0.8376
545.10 0.8373
545.20 0.8369
545.30 0.8366
545.40 0.8362
545.50 0.8359
545.60 0.8355
545.70 0.8352
545.80 0.8348
545.90 0.8345
546.00 0.8341
546.10 0.8338
546.20 0.8334
546.30 0.8331
546.40 0.8328
546.50 0.8325
546.60 0.8321
546.70 0.8318
546.80 0.8315
546.90 0.8312
547.00 0.8309
547.10 0.8305
547.20 0.8302
547.30 0.8298
547.40 0.8295
547.50 0.8291
547.60 0.8288
547.70 0.8285
547.80 0.8281
547.90 0.8278
548.00 0.8274
548.10 0.8271
548.20 0.8267
548.30 0.8264
548.40 0.826
548.50 0.8257
548.60 0.8253
548.70 0.825
548.80 0.8247
548.90 0.8243
549.00 0.824
549.10 0.8236
549.20 0.8233
549.30 0.8229
549.40 0.8226
549.50 0.8223
549.60 0.8219
549.70 0.8216
549.80 0.8212
549.90 0.8209
550.00 0.8206
550.10 0.8202
550.20 0.8199
550.30 0.8195
550.40 0.8192
550.50 0.8189
550.60 0.8185
550.70 0.8182
550.80 0.8178
550.90 0.8175
551.00 0.8172
551.10 0.8168
551.20 0.8165
551.30 0.8161
551.40 0.8158
551.50 0.8155
551.60 0.8151
551.70 0.8148
551.80 0.8144
551.90 0.8141
552.00 0.8138
552.10 0.8134
552.20 0.8131
552.30 0.8127
552.40 0.8124
552.50 0.8121
552.60 0.8117
552.70 0.8114
552.80 0.8111
552.90 0.8107
553.00 0.8104
553.10 0.8101
553.20 0.8097
553.30 0.8094
553.40 0.809
553.50 0.8087
553.60 0.8084
553.70 0.808
553.80 0.8077
553.90 0.8074
554.00 0.807
554.10 0.8067
554.20 0.8064
554.30 0.806
554.40 0.8057
554.50 0.8054
554.60 0.805
554.70 0.8047
554.80 0.8044
554.90 0.804
555.00 0.8037
555.10 0.8034
555.20 0.803
555.30 0.8027
555.40 0.8024
555.50 0.802
555.60 0.8017
555.70 0.8014
555.80 0.801
555.90 0.8007
556.00 0.8004
556.10 0.8
556.20 0.7997
556.30 0.7994
556.40 0.799
556.50 0.7987
556.60 0.7984
556.70 0.798
556.80 0.7977
556.90 0.7974
557.00 0.797
557.10 0.7967
557.20 0.7964
557.30 0.7961
557.40 0.7957
557.50 0.7954
557.60 0.7951
557.70 0.7947
557.80 0.7944
557.90 0.7941
558.00 0.7938
558.10 0.7934
558.20 0.7931
558.30 0.7928
558.40 0.7924
558.50 0.7921
558.60 0.7918
558.70 0.7914
558.80 0.7911
558.90 0.7908
559.00 0.7905
559.10 0.7901
559.20 0.7898
559.30 0.7895
559.40 0.7892
559.50 0.7888
559.60 0.7885
559.70 0.7882
559.80 0.7878
559.90 0.7875
560.00 0.7872
560.10 0.7869
560.20 0.7865
560.30 0.7862
560.40 0.7859
560.50 0.7856
560.60 0.7852
560.70 0.7849
560.80 0.7846
560.90 0.7843
561.00 0.7839
561.10 0.7836
561.20 0.7833
561.30 0.783
561.40 0.7826
561.50 0.7823
561.60 0.782
561.70 0.7817
561.80 0.7814
561.90 0.781
562.00 0.7807
562.10 0.7804
562.20 0.7801
562.30 0.7798
562.40 0.7794
562.50 0.7791
562.60 0.7788
562.70 0.7785
562.80 0.7781
562.90 0.7778
563.00 0.7775
563.10 0.7772
563.20 0.7769
563.30 0.7765
563.40 0.7762
563.50 0.7759
563.60 0.7756
563.70 0.7752
563.80 0.7749
563.90 0.7746
564.00 0.7743
564.10 0.774
564.20 0.7736
564.30 0.7733
564.40 0.773
564.50 0.7727
564.60 0.7724
564.70 0.772
564.80 0.7717
564.90 0.7714
565.00 0.7711
565.10 0.7708
565.20 0.7704
565.30 0.7701
565.40 0.7698
565.50 0.7695
565.60 0.7692
565.70 0.7689
565.80 0.7685
565.90 0.7682
566.00 0.7679
566.10 0.7676
566.20 0.7673
566.30 0.767
566.40 0.7666
566.50 0.7663
566.60 0.766
566.70 0.7657
566.80 0.7654
566.90 0.7651
567.00 0.7647
567.10 0.7644
567.20 0.7641
567.30 0.7638
567.40 0.7635
567.50 0.7632
567.60 0.7629
567.70 0.7625
567.80 0.7622
567.90 0.7619
568.00 0.7616
568.10 0.7613
568.20 0.761
568.30 0.7607
568.40 0.7603
568.50 0.76
568.60 0.7597
568.70 0.7594
568.80 0.7591
568.90 0.7588
569.00 0.7585
569.10 0.7582
569.20 0.7578
569.30 0.7575
569.40 0.7572
569.50 0.7569
569.60 0.7566
569.70 0.7563
569.80 0.756
569.90 0.7557
570.00 0.7553
570.10 0.755
570.20 0.7547
570.30 0.7544
570.40 0.7541
570.50 0.7538
570.60 0.7535
570.70 0.7532
570.80 0.7529
570.90 0.7526
571.00 0.7522
571.10 0.7519
571.20 0.7516
571.30 0.7513
571.40 0.751
571.50 0.7507
571.60 0.7504
571.70 0.7501
571.80 0.7498
571.90 0.7495
572.00 0.7492
572.10 0.7488
572.20 0.7485
572.30 0.7482
572.40 0.7479
572.50 0.7476
572.60 0.7473
572.70 0.747
572.80 0.7467
572.90 0.7464
573.00 0.7461
573.10 0.7458
573.20 0.7455
573.30 0.7451
573.40 0.7448
573.50 0.7445
573.60 0.7442
573.70 0.7439
573.80 0.7436
573.90 0.7433
574.00 0.743
574.10 0.7427
574.20 0.7424
574.30 0.7421
574.40 0.7418
574.50 0.7415
574.60 0.7412
574.70 0.7409
574.80 0.7406
574.90 0.7403
575.00 0.74
575.10 0.7397
575.20 0.7394
575.30 0.739
575.40 0.7387
575.50 0.7384
575.60 0.7381
575.70 0.7378
575.80 0.7375
575.90 0.7372
576.00 0.7369
576.10 0.7366
576.20 0.7363
576.30 0.736
576.40 0.7357
576.50 0.7354
576.60 0.7351
576.70 0.7348
576.80 0.7345
576.90 0.7342
577.00 0.7339
577.10 0.7336
577.20 0.7333
577.30 0.733
577.40 0.7327
577.50 0.7324
577.60 0.7321
577.70 0.7318
577.80 0.7315
577.90 0.7312
578.00 0.7309
578.10 0.7306
578.20 0.7303
578.30 0.73
578.40 0.7297
578.50 0.7294
578.60 0.7291
578.70 0.7288
578.80 0.7285
578.90 0.7282
579.00 0.7279
579.10 0.7276
579.20 0.7273
579.30 0.727
579.40 0.7267
579.50 0.7264
579.60 0.7261
579.70 0.7258
579.80 0.7255
579.90 0.7252
580.00 0.7249
580.10 0.7246
580.20 0.7243
580.30 0.724
580.40 0.7237
580.50 0.7234
580.60 0.7232
580.70 0.7229
580.80 0.7226
580.90 0.7223
581.00 0.722
581.10 0.7217
581.20 0.7214
581.30 0.7211
581.40 0.7208
581.50 0.7205
581.60 0.7202
581.70 0.7199
581.80 0.7196
581.90 0.7193
582.00 0.719
582.10 0.7187
582.20 0.7184
582.30 0.7181
582.40 0.7178
582.50 0.7175
582.60 0.7172
582.70 0.7169
582.80 0.7167
582.90 0.7164
583.00 0.7161
583.10 0.7158
583.20 0.7155
583.30 0.7152
583.40 0.7149
583.50 0.7146
583.60 0.7143
583.70 0.714
583.80 0.7137
583.90 0.7134
584.00 0.7132
584.10 0.7129
584.20 0.7126
584.30 0.7123
584.40 0.712
584.50 0.7117
584.60 0.7114
584.70 0.7111
584.80 0.7108
584.90 0.7105
585.00 0.7102
585.10 0.71
585.20 0.7097
585.30 0.7094
585.40 0.7091
585.50 0.7088
585.60 0.7085
585.70 0.7082
585.80 0.7079
585.90 0.7076
586.00 0.7073
586.10 0.7071
586.20 0.7068
586.30 0.7065
586.40 0.7062
586.50 0.7059
586.60 0.7056
586.70 0.7053
586.80 0.705
586.90 0.7048
587.00 0.7045
587.10 0.7042
587.20 0.7039
587.30 0.7036
587.40 0.7033
587.50 0.703
587.60 0.7027
587.70 0.7025
587.80 0.7022
587.90 0.7019
588.00 0.7016
588.10 0.7013
588.20 0.701
588.30 0.7007
588.40 0.7005
588.50 0.7002
588.60 0.6999
588.70 0.6996
588.80 0.6993
588.90 0.699
589.00 0.6987
589.10 0.6984
589.20 0.6982
589.30 0.6979
589.40 0.6976
589.50 0.6973
589.60 0.697
589.70 0.6967
589.80 0.6965
589.90 0.6962
590.00 0.6959
590.10 0.6956
590.20 0.6953
590.30 0.695
590.40 0.6948
590.50 0.6945
590.60 0.6942
590.70 0.6939
590.80 0.6936
590.90 0.6933
591.00 0.6931
591.10 0.6928
591.20 0.6925
591.30 0.6922
591.40 0.6919
591.50 0.6917
591.60 0.6914
591.70 0.6911
591.80 0.6908
591.90 0.6905
592.00 0.6903
592.10 0.69
592.20 0.6897
592.30 0.6894
592.40 0.6891
592.50 0.6888
592.60 0.6886
592.70 0.6883
592.80 0.688
592.90 0.6877
593.00 0.6874
593.10 0.6872
593.20 0.6869
593.30 0.6866
593.40 0.6863
593.50 0.686
593.60 0.6858
593.70 0.6855
593.80 0.6852
593.90 0.6849
594.00 0.6847
594.10 0.6844
594.20 0.6841
594.30 0.6838
594.40 0.6835
594.50 0.6833
594.60 0.683
594.70 0.6827
594.80 0.6824
594.90 0.6822
595.00 0.6819
595.10 0.6816
595.20 0.6813
595.30 0.681
595.40 0.6808
595.50 0.6805
595.60 0.6802
595.70 0.6799
595.80 0.6797
595.90 0.6794
596.00 0.6791
596.10 0.6788
596.20 0.6785
596.30 0.6782
596.40 0.6779
596.50 0.6776
596.60 0.6772
596.70 0.6769
596.80 0.6766
596.90 0.6763
597.00 0.676
597.10 0.6756
597.20 0.6754
597.30 0.6751
597.40 0.6748
597.50 0.6745
597.60 0.6742
597.70 0.674
597.80 0.6737
597.90 0.6734
598.00 0.6731
598.10 0.6729
598.20 0.6726
598.30 0.6723
598.40 0.672
598.50 0.6718
598.60 0.6715
598.70 0.6712
598.80 0.6709
598.90 0.6707
599.00 0.6704
599.10 0.6701
599.20 0.6699
599.30 0.6696
599.40 0.6693
599.50 0.669
599.60 0.6688
599.70 0.6685
599.80 0.6682
599.90 0.6679
600.00 0.6677
600.10 0.6674
600.20 0.6671
600.30 0.6668
600.40 0.6666
600.50 0.6663
600.60 0.666
600.70 0.6658
600.80 0.6655
600.90 0.6652
601.00 0.665
601.10 0.6647
601.20 0.6644
601.30 0.6641
601.40 0.6639
601.50 0.6636
601.60 0.6633
601.70 0.6631
601.80 0.6628
601.90 0.6625
602.00 0.6622
602.10 0.662
602.20 0.6617
602.30 0.6614
602.40 0.6612
602.50 0.6609
602.60 0.6606
602.70 0.6604
602.80 0.6601
602.90 0.6598
603.00 0.6595
603.10 0.6593
603.20 0.659
603.30 0.6587
603.40 0.6585
603.50 0.6582
603.60 0.6579
603.70 0.6577
603.80 0.6574
603.90 0.6571
604.00 0.6569
604.10 0.6566
604.20 0.6563
604.30 0.6561
604.40 0.6558
604.50 0.6555
604.60 0.6553
604.70 0.655
604.80 0.6547
604.90 0.6545
605.00 0.6542
605.10 0.6539
605.20 0.6537
605.30 0.6534
605.40 0.6531
605.50 0.6529
605.60 0.6526
605.70 0.6523
605.80 0.6521
605.90 0.6518
606.00 0.6515
606.10 0.6513
606.20 0.651
606.30 0.6507
606.40 0.6505
606.50 0.6502
606.60 0.6499
606.70 0.6497
606.80 0.6494
606.90 0.6491
607.00 0.6489
607.10 0.6486
607.20 0.6483
607.30 0.6481
607.40 0.6478
607.50 0.6475
607.60 0.6473
607.70 0.647
607.80 0.6467
607.90 0.6465
608.00 0.6462
608.10 0.646
608.20 0.6457
608.30 0.6454
608.40 0.6452
608.50 0.6449
608.60 0.6446
608.70 0.6444
608.80 0.6441
608.90 0.6438
609.00 0.6436
609.10 0.6433
609.20 0.6431
609.30 0.6428
609.40 0.6425
609.50 0.6423
609.60 0.642
609.70 0.6418
609.80 0.6415
609.90 0.6412
610.00 0.641
610.10 0.6407
610.20 0.6404
610.30 0.6402
610.40 0.6399
610.50 0.6397
610.60 0.6394
610.70 0.6391
610.80 0.6389
610.90 0.6386
611.00 0.6384
611.10 0.6381
611.20 0.6378
611.30 0.6376
611.40 0.6373
611.50 0.6371
611.60 0.6368
611.70 0.6365
611.80 0.6363
611.90 0.636
612.00 0.6358
612.10 0.6355
612.20 0.6352
612.30 0.635
612.40 0.6347
612.50 0.6345
612.60 0.6342
612.70 0.6339
612.80 0.6337
612.90 0.6334
613.00 0.6332
613.10 0.6329
613.20 0.6326
613.30 0.6324
613.40 0.6321
613.50 0.6319
613.60 0.6316
613.70 0.6314
613.80 0.6311
613.90 0.6308
614.00 0.6306
614.10 0.6303
614.20 0.6301
614.30 0.6298
614.40 0.6295
614.50 0.6293
614.60 0.629
614.70 0.6288
614.80 0.6285
614.90 0.6283
615.00 0.628
615.10 0.6277
615.20 0.6275
615.30 0.6272
615.40 0.627
615.50 0.6267
615.60 0.6265
615.70 0.6262
615.80 0.6259
615.90 0.6257
616.00 0.6254
616.10 0.6252
616.20 0.6249
616.30 0.6247
616.40 0.6244
616.50 0.6241
616.60 0.6239
616.70 0.6236
616.80 0.6234
616.90 0.6231
617.00 0.6229
617.10 0.6226
617.20 0.6224
617.30 0.6221
617.40 0.6218
617.50 0.6216
617.60 0.6213
617.70 0.6211
617.80 0.6208
617.90 0.6206
618.00 0.6203
618.10 0.62
618.20 0.6198
618.30 0.6195
618.40 0.6193
618.50 0.619
618.60 0.6188
618.70 0.6185
618.80 0.6183
618.90 0.618
619.00 0.6178
619.10 0.6175
619.20 0.6172
619.30 0.617
619.40 0.6167
619.50 0.6165
619.60 0.6162
619.70 0.616
619.80 0.6157
619.90 0.6155
620.00 0.6152
620.10 0.615
620.20 0.6147
620.30 0.6144
620.40 0.6142
620.50 0.6139
620.60 0.6137
620.70 0.6134
620.80 0.6132
620.90 0.6129
621.00 0.6127
621.10 0.6124
621.20 0.6122
621.30 0.6119
621.40 0.6117
621.50 0.6114
621.60 0.6111
621.70 0.6109
621.80 0.6106
621.90 0.6104
622.00 0.6101
622.10 0.6099
622.20 0.6096
622.30 0.6094
622.40 0.6091
622.50 0.6089
622.60 0.6086
622.70 0.6084
622.80 0.6081
622.90 0.6079
623.00 0.6076
623.10 0.6073
623.20 0.6071
623.30 0.6068
623.40 0.6066
623.50 0.6063
623.60 0.6061
623.70 0.6058
623.80 0.6056
623.90 0.6053
624.00 0.6051
624.10 0.6048
624.20 0.6046
624.30 0.6043
624.40 0.6041
624.50 0.6038
624.60 0.6036
624.70 0.6033
624.80 0.6031
624.90 0.6028
625.00 0.6026
625.10 0.6023
625.20 0.602
625.30 0.6018
625.40 0.6015
625.50 0.6013
625.60 0.601
625.70 0.6008
625.80 0.6005
625.90 0.6003
626.00 0.6
626.10 0.5998
626.20 0.5995
626.30 0.5993
626.40 0.599
626.50 0.5988
626.60 0.5985
626.70 0.5983
626.80 0.598
626.90 0.5978
627.00 0.5975
627.10 0.5973
627.20 0.597
627.30 0.5967
627.40 0.5965
627.50 0.5962
627.60 0.596
627.70 0.5957
627.80 0.5955
627.90 0.5952
628.00 0.595
628.10 0.5947
628.20 0.5945
628.30 0.5942
628.40 0.594
628.50 0.5937
628.60 0.5935
628.70 0.5932
628.80 0.593
628.90 0.5927
629.00 0.5925
629.10 0.5922
629.20 0.592
629.30 0.5917
629.40 0.5914
629.50 0.5912
629.60 0.5909
629.70 0.5907
629.80 0.5904
629.90 0.5902
630.00 0.5899
630.10 0.5897
630.20 0.5894
630.30 0.5891
630.40 0.5889
630.50 0.5886
630.60 0.5884
630.70 0.5881
630.80 0.5879
630.90 0.5876
631.00 0.5874
631.10 0.5871
631.20 0.5868
631.30 0.5866
631.40 0.5863
631.50 0.5861
631.60 0.5858
631.70 0.5855
631.80 0.5853
631.90 0.585
632.00 0.5848
632.10 0.5845
632.20 0.5843
632.30 0.584
632.40 0.5837
632.50 0.5835
632.60 0.5832
632.70 0.583
632.80 0.5827
632.90 0.5824
633.00 0.5822
633.10 0.5819
633.20 0.5817
633.30 0.5814
633.40 0.5811
633.50 0.5809
633.60 0.5806
633.70 0.5803
633.80 0.5801
633.90 0.5798
634.00 0.5795
634.10 0.5793
634.20 0.579
634.30 0.5788
634.40 0.5785
634.50 0.5782
634.60 0.5779
634.70 0.5777
634.80 0.5774
634.90 0.5771
635.00 0.5769
635.10 0.5766
635.20 0.5763
635.30 0.5761
635.40 0.5758
635.50 0.5755
635.60 0.5752
635.70 0.575
635.80 0.5747
635.90 0.5744
636.00 0.5741
636.10 0.5738
636.20 0.5736
636.30 0.5733
636.40 0.573
636.50 0.5727
636.60 0.5724
636.70 0.5721
636.80 0.5719
636.90 0.5716
637.00 0.5713
637.10 0.571
637.20 0.5707
637.30 0.5704
637.40 0.5701
637.50 0.5698
637.60 0.5695
637.70 0.5692
637.80 0.5689
637.90 0.5686
638.00 0.5683
638.10 0.568
638.20 0.5677
638.30 0.5674
638.40 0.5671
638.50 0.5667
638.60 0.5664
638.70 0.5661
638.80 0.5658
638.90 0.5655
639.00 0.5651
639.10 0.5648
639.20 0.5645
639.30 0.5642
639.40 0.5638
639.50 0.5635
639.60 0.5631
639.70 0.5628
639.80 0.5624
639.90 0.5621
640.00 0.5618
640.10 0.5614
640.20 0.5611
640.30 0.5607
640.40 0.5603
640.50 0.56
640.60 0.5596
640.70 0.5592
640.80 0.5588
640.90 0.5584
641.00 0.5581
641.10 0.5577
641.20 0.5573
641.30 0.5569
641.40 0.5565
641.50 0.556
641.60 0.5556
641.70 0.5551
641.80 0.5547
641.90 0.5542
642.00 0.5538
642.10 0.5533
642.20 0.5529
642.30 0.5524
642.40 0.552
642.50 0.5515
642.60 0.551
642.70 0.5506
642.80 0.5501
642.90 0.5496
643.00 0.5491
643.10 0.5487
643.20 0.5482
643.30 0.5477
643.40 0.5472
643.50 0.5468
643.60 0.5463
643.70 0.5458
643.80 0.5453
643.90 0.5448
644.00 0.5443
644.10 0.5438
644.20 0.5433
644.30 0.5428
644.40 0.5423
644.50 0.5417
644.60 0.5411
644.70 0.5406
644.80 0.54
644.90 0.5395
645.00 0.5389
645.10 0.5383
645.20 0.5378
645.30 0.5372
645.40 0.5366
645.50 0.536
645.60 0.5354
645.70 0.5347
645.80 0.5341
645.90 0.5335
646.00 0.5329
646.10 0.5323
646.20 0.5317
646.30 0.5311
646.40 0.5304
646.50 0.5297
646.60 0.5291
646.70 0.5284
646.80 0.5278
646.90 0.5271
647.00 0.5264
647.10 0.5258
647.20 0.5251
647.30 0.5244
647.40 0.5237
647.50 0.5229
647.60 0.5222
647.70 0.5214
647.80 0.5207
647.90 0.5199
648.00 0.5192
648.10 0.5184
648.20 0.5177
648.30 0.5169
648.40 0.516
648.50 0.5151
648.60 0.5141
648.70 0.5132
648.80 0.5123
648.90 0.5114
649.00 0.5104
649.10 0.5095
649.20 0.5086
649.30 0.5076
649.40 0.5065
649.50 0.5054
649.60 0.5043
649.70 0.5032
649.80 0.502
649.90 0.5009
650.00 0.4998
650.10 0.4987
650.20 0.4976
650.30 0.4964
650.40 0.495
650.50 0.4936
650.60 0.4922
650.70 0.4908
650.80 0.4894
650.90 0.488
651.00 0.4866
651.10 0.4852
651.20 0.4839
651.30 0.4824
651.40 0.4805
651.50 0.4787
651.60 0.4769
651.70 0.4751
651.80 0.4732
651.90 0.4714
652.00 0.4696
652.10 0.4678
652.20 0.4659
652.30 0.464
652.40 0.4614
652.50 0.4589
652.60 0.4564
652.70 0.4538
652.80 0.4513
652.90 0.4488
653.00 0.4462
653.10 0.4437
653.20 0.4412
653.30 0.4384
653.40 0.4347
653.50 0.4309
653.60 0.4271
653.70 0.4234
653.80 0.4196
653.90 0.4159
654.00 0.4121
654.10 0.4084
654.20 0.4047
654.30 0.4006
654.40 0.3955
654.50 0.3903
654.60 0.3852
654.70 0.38
654.80 0.3747
654.90 0.3686
655.00 0.3625
655.10 0.3563
655.20 0.3502
655.30 0.3441
655.40 0.3377
655.50 0.3312
655.60 0.3247
655.70 0.3182
655.80 0.3112
655.90 0.304
656.00 0.2955
656.10 0.2867
656.20 0.2708
656.30 0.258
656.40 0.2785
656.50 0.2899
656.60 0.2982
656.70 0.3062
656.80 0.3129
656.90 0.3195
657.00 0.3258
657.10 0.332
657.20 0.3382
657.30 0.3443
657.40 0.3501
657.50 0.356
657.60 0.3618
657.70 0.3676
657.80 0.3732
657.90 0.378
658.00 0.3829
658.10 0.3877
658.20 0.3925
658.30 0.397
658.40 0.4004
658.50 0.4038
658.60 0.4072
658.70 0.4106
658.80 0.414
658.90 0.4174
659.00 0.4208
659.10 0.4241
659.20 0.4275
659.30 0.4306
659.40 0.4328
659.50 0.4349
659.60 0.4371
659.70 0.4392
659.80 0.4414
659.90 0.4435
660.00 0.4456
660.10 0.4478
660.20 0.4499
660.30 0.4519
660.40 0.4533
660.50 0.4547
660.60 0.4561
660.70 0.4576
660.80 0.459
660.90 0.4604
661.00 0.4618
661.10 0.4632
661.20 0.4646
661.30 0.466
661.40 0.4669
661.50 0.4679
661.60 0.4689
661.70 0.4699
661.80 0.4708
661.90 0.4718
662.00 0.4728
662.10 0.4737
662.20 0.4747
662.30 0.4756
662.40 0.4763
662.50 0.477
662.60 0.4777
662.70 0.4784
662.80 0.4791
662.90 0.4798
663.00 0.4805
663.10 0.4811
663.20 0.4818
663.30 0.4825
663.40 0.483
663.50 0.4835
663.60 0.484
663.70 0.4844
663.80 0.4849
663.90 0.4854
664.00 0.4859
664.10 0.4864
664.20 0.4869
664.30 0.4874
664.40 0.4877
664.50 0.488
664.60 0.4883
664.70 0.4886
664.80 0.4889
664.90 0.4893
665.00 0.4896
665.10 0.4899
665.20 0.4902
665.30 0.4905
665.40 0.4907
665.50 0.491
665.60 0.4912
665.70 0.4914
665.80 0.4916
665.90 0.4919
666.00 0.4921
666.10 0.4923
666.20 0.4926
666.30 0.4928
666.40 0.4929
666.50 0.4931
666.60 0.4933
666.70 0.4935
666.80 0.4936
666.90 0.4938
667.00 0.494
667.10 0.4941
667.20 0.4943
667.30 0.4945
667.40 0.4946
667.50 0.4947
667.60 0.4948
667.70 0.4949
667.80 0.4951
667.90 0.4952
668.00 0.4953
668.10 0.4954
668.20 0.4956
668.30 0.4957
668.40 0.4957
668.50 0.4958
668.60 0.4958
668.70 0.4959
668.80 0.4959
668.90 0.496
669.00 0.496
669.10 0.496
669.20 0.4961
669.30 0.4961
669.40 0.4962
669.50 0.4962
669.60 0.4962
669.70 0.4962
669.80 0.4963
669.90 0.4963
670.00 0.4963
670.10 0.4963
670.20 0.4964
670.30 0.4964
670.40 0.4964
670.50 0.4964
670.60 0.4964
670.70 0.4964
670.80 0.4964
670.90 0.4964
671.00 0.4964
671.10 0.4964
671.20 0.4964
671.30 0.4964
671.40 0.4963
671.50 0.4963
671.60 0.4962
671.70 0.4961
671.80 0.4961
671.90 0.496
672.00 0.496
672.10 0.4959
672.20 0.4958
672.30 0.4958
672.40 0.4957
672.50 0.4956
672.60 0.4955
672.70 0.4954
672.80 0.4953
672.90 0.4952
673.00 0.4951
673.10 0.495
673.20 0.4949
673.30 0.4948
673.40 0.4947
673.50 0.4946
673.60 0.4945
673.70 0.4944
673.80 0.4943
673.90 0.4942
674.00 0.494
674.10 0.4939
674.20 0.4938
674.30 0.4937
674.40 0.4936
674.50 0.4934
674.60 0.4933
674.70 0.4932
674.80 0.4931
674.90 0.4929
675.00 0.4928
675.10 0.4927
675.20 0.4925
675.30 0.4924
675.40 0.4923
675.50 0.4921
675.60 0.492
675.70 0.4918
675.80 0.4917
675.90 0.4915
676.00 0.4914
676.10 0.4913
676.20 0.4911
676.30 0.491
676.40 0.4908
676.50 0.4907
676.60 0.4905
676.70 0.4904
676.80 0.4902
676.90 0.4901
677.00 0.4899
677.10 0.4898
677.20 0.4896
677.30 0.4895
677.40 0.4893
677.50 0.4891
677.60 0.489
677.70 0.4888
677.80 0.4887
677.90 0.4885
678.00 0.4884
678.10 0.4882
678.20 0.488
678.30 0.4879
678.40 0.4877
678.50 0.4876
678.60 0.4874
678.70 0.4872
678.80 0.4871
678.90 0.4869
679.00 0.4867
679.10 0.4866
679.20 0.4864
679.30 0.4863
679.40 0.4861
679.50 0.4859
679.60 0.4858
679.70 0.4856
679.80 0.4854
679.90 0.4853
680.00 0.4851
680.10 0.4849
680.20 0.4848
680.30 0.4846
680.40 0.4844
680.50 0.4843
680.60 0.4841
680.70 0.4839
680.80 0.4838
680.90 0.4836
681.00 0.4834
681.10 0.4833
681.20 0.4831
681.30 0.4829
681.40 0.4828
681.50 0.4826
681.60 0.4824
681.70 0.4823
681.80 0.4821
681.90 0.4819
682.00 0.4818
682.10 0.4816
682.20 0.4814
682.30 0.4813
682.40 0.4811
682.50 0.4809
682.60 0.4807
682.70 0.4806
682.80 0.4804
682.90 0.4802
683.00 0.4801
683.10 0.4799
683.20 0.4797
683.30 0.4796
683.40 0.4794
683.50 0.4792
683.60 0.479
683.70 0.4789
683.80 0.4787
683.90 0.4785
684.00 0.4784
684.10 0.4782
684.20 0.478
684.30 0.4778
684.40 0.4777
684.50 0.4775
684.60 0.4773
684.70 0.4772
684.80 0.477
684.90 0.4768
685.00 0.4766
685.10 0.4765
685.20 0.4763
685.30 0.4761
685.40 0.476
685.50 0.4758
685.60 0.4756
685.70 0.4754
685.80 0.4753
685.90 0.4751
686.00 0.4749
686.10 0.4747
686.20 0.4746
686.30 0.4744
686.40 0.4742
686.50 0.4741
686.60 0.4739
686.70 0.4737
686.80 0.4735
686.90 0.4734
687.00 0.4732
687.10 0.473
687.20 0.4728
687.30 0.4727
687.40 0.4725
687.50 0.4723
687.60 0.4722
687.70 0.472
687.80 0.4718
687.90 0.4716
688.00 0.4715
688.10 0.4713
688.20 0.4711
688.30 0.471
688.40 0.4708
688.50 0.4706
688.60 0.4704
688.70 0.4703
688.80 0.4701
688.90 0.4699
689.00 0.4697
689.10 0.4696
689.20 0.4694
689.30 0.4692
689.40 0.4691
689.50 0.4689
689.60 0.4687
689.70 0.4685
689.80 0.4684
689.90 0.4682
690.00 0.468
690.10 0.4678
690.20 0.4677
690.30 0.4675
690.40 0.4673
690.50 0.4671
690.60 0.467
690.70 0.4668
690.80 0.4666
690.90 0.4664
691.00 0.4663
691.10 0.4661
691.20 0.4659
691.30 0.4657
691.40 0.4656
691.50 0.4654
691.60 0.4652
691.70 0.4651
691.80 0.4649
691.90 0.4647
692.00 0.4645
692.10 0.4644
692.20 0.4642
692.30 0.464
692.40 0.4638
692.50 0.4637
692.60 0.4635
692.70 0.4633
692.80 0.4632
692.90 0.463
693.00 0.4628
693.10 0.4626
693.20 0.4625
693.30 0.4623
693.40 0.4621
693.50 0.4619
693.60 0.4618
693.70 0.4616
693.80 0.4614
693.90 0.4613
694.00 0.4611
694.10 0.4609
694.20 0.4607
694.30 0.4606
694.40 0.4604
694.50 0.4602
694.60 0.4601
694.70 0.4599
694.80 0.4597
694.90 0.4596
695.00 0.4594
695.10 0.4592
695.20 0.459
695.30 0.4589
695.40 0.4587
695.50 0.4585
695.60 0.4584
695.70 0.4582
695.80 0.458
695.90 0.4579
696.00 0.4577
696.10 0.4575
696.20 0.4573
696.30 0.4572
696.40 0.457
696.50 0.4568
696.60 0.4567
696.70 0.4565
696.80 0.4563
696.90 0.4562
697.00 0.456
697.10 0.4558
697.20 0.4557
697.30 0.4555
697.40 0.4553
697.50 0.4551
697.60 0.455
697.70 0.4548
697.80 0.4546
697.90 0.4545
698.00 0.4543
698.10 0.4541
698.20 0.454
698.30 0.4538
698.40 0.4536
698.50 0.4535
698.60 0.4533
698.70 0.4531
698.80 0.453
698.90 0.4528
699.00 0.4526
699.10 0.4525
699.20 0.4523
699.30 0.4521
699.40 0.452
699.50 0.4518
699.60 0.4516
699.70 0.4515
699.80 0.4513
699.90 0.4511
700.00 0.451
700.10 0.4508
700.20 0.4507
700.30 0.4505
700.40 0.4503
700.50 0.4502
700.60 0.45
700.70 0.4499
700.80 0.4497
700.90 0.4496
701.00 0.4494
701.10 0.4493
701.20 0.4491
701.30 0.449
701.40 0.4488
701.50 0.4487
701.60 0.4485
701.70 0.4484
701.80 0.4482
701.90 0.4481
702.00 0.4479
702.10 0.4478
702.20 0.4476
702.30 0.4475
702.40 0.4473
702.50 0.4472
702.60 0.447
702.70 0.4469
702.80 0.4467
702.90 0.4466
703.00 0.4464
703.10 0.4463
703.20 0.4461
703.30 0.446
703.40 0.4458
703.50 0.4457
703.60 0.4455
703.70 0.4454
703.80 0.4452
703.90 0.4451
704.00 0.4449
704.10 0.4448
704.20 0.4446
704.30 0.4445
704.40 0.4443
704.50 0.4442
704.60 0.444
704.70 0.4439
704.80 0.4437
704.90 0.4436
705.00 0.4435
705.10 0.4433
705.20 0.4431
705.30 0.443
705.40 0.4428
705.50 0.4426
705.60 0.4425
705.70 0.4423
705.80 0.4421
705.90 0.442
706.00 0.4418
706.10 0.4416
706.20 0.4415
706.30 0.4413
706.40 0.4411
706.50 0.441
706.60 0.4408
706.70 0.4406
706.80 0.4405
706.90 0.4403
707.00 0.4401
707.10 0.44
707.20 0.4398
707.30 0.4396
707.40 0.4395
707.50 0.4393
707.60 0.4392
707.70 0.439
707.80 0.4388
707.90 0.4387
708.00 0.4385
708.10 0.4383
708.20 0.4382
708.30 0.438
708.40 0.4378
708.50 0.4377
708.60 0.4375
708.70 0.4374
708.80 0.4372
708.90 0.437
709.00 0.4369
709.10 0.4367
709.20 0.4365
709.30 0.4364
709.40 0.4362
709.50 0.436
709.60 0.4359
709.70 0.4357
709.80 0.4356
709.90 0.4354
710.00 0.4352
710.10 0.4351
710.20 0.4349
710.30 0.4347
710.40 0.4346
710.50 0.4344
710.60 0.4343
710.70 0.4341
710.80 0.4339
710.90 0.4338
711.00 0.4336
711.10 0.4334
711.20 0.4333
711.30 0.4331
711.40 0.433
711.50 0.4328
711.60 0.4326
711.70 0.4325
711.80 0.4323
711.90 0.4322
712.00 0.432
712.10 0.4318
712.20 0.4317
712.30 0.4315
712.40 0.4313
712.50 0.4312
712.60 0.431
712.70 0.4309
712.80 0.4307
712.90 0.4305
713.00 0.4304
713.10 0.4302
713.20 0.4301
713.30 0.4299
713.40 0.4297
713.50 0.4296
713.60 0.4294
713.70 0.4293
713.80 0.4291
713.90 0.4289
714.00 0.4288
714.10 0.4286
714.20 0.4285
714.30 0.4283
714.40 0.4281
714.50 0.428
714.60 0.4278
714.70 0.4277
714.80 0.4275
714.90 0.4273
715.00 0.4272
715.10 0.427
715.20 0.4269
715.30 0.4267
715.40 0.4266
715.50 0.4264
715.60 0.4262
715.70 0.4261
715.80 0.4259
715.90 0.4258
716.00 0.4256
716.10 0.4255
716.20 0.4253
716.30 0.4252
716.40 0.425
716.50 0.4248
716.60 0.4247
716.70 0.4245
716.80 0.4244
716.90 0.4242
717.00 0.4241
717.10 0.4239
717.20 0.4238
717.30 0.4236
717.40 0.4234
717.50 0.4233
717.60 0.4231
717.70 0.423
717.80 0.4228
717.90 0.4227
718.00 0.4225
718.10 0.4224
718.20 0.4222
718.30 0.4221
718.40 0.4219
718.50 0.4217
718.60 0.4216
718.70 0.4214
718.80 0.4213
718.90 0.4211
719.00 0.421
719.10 0.4208
719.20 0.4207
719.30 0.4205
719.40 0.4204
719.50 0.4202
719.60 0.4201
719.70 0.4199
719.80 0.4197
719.90 0.4196
720.00 0.4194
720.10 0.4193
720.20 0.4191
720.30 0.419
720.40 0.4188
720.50 0.4187
720.60 0.4185
720.70 0.4183
720.80 0.4182
720.90 0.418
721.00 0.4179
721.10 0.4177
721.20 0.4176
721.30 0.4174
721.40 0.4172
721.50 0.4171
721.60 0.4169
721.70 0.4168
721.80 0.4166
721.90 0.4165
722.00 0.4163
722.10 0.4162
722.20 0.416
722.30 0.4159
722.40 0.4157
722.50 0.4155
722.60 0.4154
722.70 0.4152
722.80 0.4151
722.90 0.4149
723.00 0.4148
723.10 0.4146
723.20 0.4145
723.30 0.4143
723.40 0.4141
723.50 0.414
723.60 0.4138
723.70 0.4137
723.80 0.4135
723.90 0.4134
724.00 0.4132
724.10 0.4131
724.20 0.4129
724.30 0.4128
724.40 0.4126
724.50 0.4125
724.60 0.4123
724.70 0.4121
724.80 0.412
724.90 0.4118
725.00 0.4117
725.10 0.4115
725.20 0.4114
725.30 0.4112
725.40 0.4111
725.50 0.4109
725.60 0.4108
725.70 0.4106
725.80 0.4105
725.90 0.4103
726.00 0.4102
726.10 0.41
726.20 0.4099
726.30 0.4097
726.40 0.4095
726.50 0.4094
726.60 0.4092
726.70 0.4091
726.80 0.4089
726.90 0.4088
727.00 0.4086
727.10 0.4085
727.20 0.4083
727.30 0.4082
727.40 0.408
727.50 0.4079
727.60 0.4077
727.70 0.4076
727.80 0.4074
727.90 0.4073
728.00 0.4071
728.10 0.407
728.20 0.4068
728.30 0.4067
728.40 0.4065
728.50 0.4064
728.60 0.4062
728.70 0.4061
728.80 0.4059
728.90 0.4058
729.00 0.4056
729.10 0.4055
729.20 0.4053
729.30 0.4052
729.40 0.405
729.50 0.4049
729.60 0.4047
729.70 0.4046
729.80 0.4044
729.90 0.4043
730.00 0.4041
730.10 0.404
730.20 0.4038
730.30 0.4037
730.40 0.4035
730.50 0.4034
730.60 0.4032
730.70 0.4031
730.80 0.4029
730.90 0.4028
731.00 0.4026
731.10 0.4025
731.20 0.4023
731.30 0.4022
731.40 0.402
731.50 0.4019
731.60 0.4017
731.70 0.4016
731.80 0.4014
731.90 0.4013
732.00 0.4011
732.10 0.401
732.20 0.4008
732.30 0.4007
732.40 0.4005
732.50 0.4004
732.60 0.4002
732.70 0.4001
732.80 0.4
732.90 0.3998
733.00 0.3997
733.10 0.3995
733.20 0.3994
733.30 0.3992
733.40 0.3991
733.50 0.3989
733.60 0.3988
733.70 0.3986
733.80 0.3985
733.90 0.3983
734.00 0.3982
734.10 0.398
734.20 0.3979
734.30 0.3977
734.40 0.3976
734.50 0.3974
734.60 0.3973
734.70 0.3972
734.80 0.397
734.90 0.3969
735.00 0.3967
735.10 0.3966
735.20 0.3964
735.30 0.3963
735.40 0.3961
735.50 0.396
735.60 0.3958
735.70 0.3957
735.80 0.3955
735.90 0.3954
736.00 0.3953
736.10 0.3951
736.20 0.395
736.30 0.3948
736.40 0.3947
736.50 0.3945
736.60 0.3944
736.70 0.3942
736.80 0.3941
736.90 0.3939
737.00 0.3938
737.10 0.3936
737.20 0.3935
737.30 0.3934
737.40 0.3932
737.50 0.3931
737.60 0.3929
737.70 0.3928
737.80 0.3926
737.90 0.3925
738.00 0.3923
738.10 0.3922
738.20 0.3921
738.30 0.3919
738.40 0.3918
738.50 0.3916
738.60 0.3915
738.70 0.3913
738.80 0.3912
738.90 0.391
739.00 0.3909
739.10 0.3908
739.20 0.3906
739.30 0.3905
739.40 0.3903
739.50 0.3902
739.60 0.39
739.70 0.3899
739.80 0.3898
739.90 0.3896
740.00 0.3895
740.10 0.3893
740.20 0.3892
740.30 0.389
740.40 0.3889
740.50 0.3888
740.60 0.3886
740.70 0.3885
740.80 0.3883
740.90 0.3882
741.00 0.388
741.10 0.3879
741.20 0.3878
741.30 0.3876
741.40 0.3875
741.50 0.3873
741.60 0.3872
741.70 0.387
741.80 0.3869
741.90 0.3868
742.00 0.3866
742.10 0.3865
742.20 0.3863
742.30 0.3862
742.40 0.386
742.50 0.3859
742.60 0.3858
742.70 0.3856
742.80 0.3855
742.90 0.3853
743.00 0.3852
743.10 0.3851
743.20 0.3849
743.30 0.3848
743.40 0.3846
743.50 0.3845
743.60 0.3843
743.70 0.3842
743.80 0.3841
743.90 0.3839
744.00 0.3838
744.10 0.3836
744.20 0.3835
744.30 0.3834
744.40 0.3832
744.50 0.3831
744.60 0.3829
744.70 0.3828
744.80 0.3827
744.90 0.3825
745.00 0.3824
745.10 0.3822
745.20 0.3821
745.30 0.382
745.40 0.3818
745.50 0.3817
745.60 0.3815
745.70 0.3814
745.80 0.3813
745.90 0.3811
746.00 0.381
746.10 0.3808
746.20 0.3807
746.30 0.3806
746.40 0.3804
746.50 0.3803
746.60 0.3801
746.70 0.38
746.80 0.3799
746.90 0.3797
747.00 0.3796
747.10 0.3795
747.20 0.3793
747.30 0.3792
747.40 0.379
747.50 0.3789
747.60 0.3788
747.70 0.3786
747.80 0.3785
747.90 0.3783
748.00 0.3782
748.10 0.3781
748.20 0.3779
748.30 0.3778
748.40 0.3777
748.50 0.3775
748.60 0.3774
748.70 0.3772
748.80 0.3771
748.90 0.377
749.00 0.3768
749.10 0.3767
749.20 0.3765
749.30 0.3764
749.40 0.3763
749.50 0.3761
749.60 0.376
749.70 0.3759
749.80 0.3757
749.90 0.3756
750.00 0.3754
750.10 0.3753
750.20 0.3752
750.30 0.375
750.40 0.3749
750.50 0.3748
750.60 0.3746
750.70 0.3745
750.80 0.3744
750.90 0.3742
751.00 0.3741
751.10 0.3739
751.20 0.3738
751.30 0.3737
751.40 0.3735
751.50 0.3734
751.60 0.3733
751.70 0.3731
751.80 0.373
751.90 0.3729
752.00 0.3727
752.10 0.3726
752.20 0.3724
752.30 0.3723
752.40 0.3722
752.50 0.372
752.60 0.3719
752.70 0.3718
752.80 0.3716
752.90 0.3715
753.00 0.3714
753.10 0.3712
753.20 0.3711
753.30 0.371
753.40 0.3708
753.50 0.3707
753.60 0.3706
753.70 0.3704
753.80 0.3703
753.90 0.3701
754.00 0.37
754.10 0.3699
754.20 0.3697
754.30 0.3696
754.40 0.3695
754.50 0.3693
754.60 0.3692
754.70 0.3691
754.80 0.3689
754.90 0.3688
755.00 0.3687
755.10 0.3685
755.20 0.3684
755.30 0.3683
755.40 0.3681
755.50 0.368
755.60 0.3679
755.70 0.3677
755.80 0.3676
755.90 0.3675
756.00 0.3673
756.10 0.3672
756.20 0.3671
756.30 0.3669
756.40 0.3668
756.50 0.3667
756.60 0.3665
756.70 0.3664
756.80 0.3663
756.90 0.3661
757.00 0.366
757.10 0.3659
757.20 0.3657
757.30 0.3656
757.40 0.3655
757.50 0.3653
757.60 0.3652
757.70 0.3651
757.80 0.3649
757.90 0.3648
758.00 0.3647
758.10 0.3645
758.20 0.3644
758.30 0.3643
758.40 0.3641
758.50 0.364
758.60 0.3639
758.70 0.3637
758.80 0.3636
758.90 0.3635
759.00 0.3633
759.10 0.3632
759.20 0.3631
759.30 0.3629
759.40 0.3628
759.50 0.3627
759.60 0.3626
759.70 0.3624
759.80 0.3623
759.90 0.3622
760.00 0.362
760.10 0.3619
760.20 0.3618
760.30 0.3616
760.40 0.3615
760.50 0.3614
760.60 0.3612
760.70 0.3611
760.80 0.361
760.90 0.3609
761.00 0.3607
761.10 0.3606
761.20 0.3605
761.30 0.3603
761.40 0.3602
761.50 0.3601
761.60 0.3599
761.70 0.3598
761.80 0.3597
761.90 0.3595
762.00 0.3594
762.10 0.3593
762.20 0.3592
762.30 0.359
762.40 0.3589
762.50 0.3588
762.60 0.3586
762.70 0.3585
762.80 0.3584
762.90 0.3583
763.00 0.3581
763.10 0.358
763.20 0.3579
763.30 0.3577
763.40 0.3576
763.50 0.3575
763.60 0.3573
763.70 0.3572
763.80 0.3571
763.90 0.357
764.00 0.3568
764.10 0.3567
764.20 0.3566
764.30 0.3564
764.40 0.3563
764.50 0.3562
764.60 0.3561
764.70 0.3559
764.80 0.3558
764.90 0.3557
765.00 0.3555
765.10 0.3554
765.20 0.3553
765.30 0.3552
765.40 0.355
765.50 0.3549
765.60 0.3548
765.70 0.3546
765.80 0.3545
765.90 0.3544
766.00 0.3543
766.10 0.3541
766.20 0.354
766.30 0.3539
766.40 0.3538
766.50 0.3536
766.60 0.3535
766.70 0.3534
766.80 0.3532
766.90 0.3531
767.00 0.353
767.10 0.3529
767.20 0.3527
767.30 0.3526
767.40 0.3525
767.50 0.3524
767.60 0.3522
767.70 0.3521
767.80 0.352
767.90 0.3518
768.00 0.3517
768.10 0.3516
768.20 0.3515
768.30 0.3513
768.40 0.3512
768.50 0.3511
768.60 0.351
768.70 0.3508
768.80 0.3507
768.90 0.3506
769.00 0.3505
769.10 0.3503
769.20 0.3502
769.30 0.3501
769.40 0.35
769.50 0.3498
769.60 0.3497
769.70 0.3496
769.80 0.3494
769.90 0.3493
770.00 0.3492
770.10 0.3491
770.20 0.3489
770.30 0.3488
770.40 0.3487
770.50 0.3486
770.60 0.3484
770.70 0.3483
770.80 0.3482
770.90 0.3481
771.00 0.3479
771.10 0.3478
771.20 0.3477
771.30 0.3476
771.40 0.3474
771.50 0.3473
771.60 0.3472
771.70 0.3471
771.80 0.3469
771.90 0.3468
772.00 0.3467
772.10 0.3466
772.20 0.3464
772.30 0.3463
772.40 0.3462
772.50 0.3461
772.60 0.3459
772.70 0.3458
772.80 0.3457
772.90 0.3456
773.00 0.3455
773.10 0.3453
773.20 0.3452
773.30 0.3451
773.40 0.345
773.50 0.3448
773.60 0.3447
773.70 0.3446
773.80 0.3445
773.90 0.3443
774.00 0.3442
774.10 0.3441
774.20 0.344
774.30 0.3438
774.40 0.3437
774.50 0.3436
774.60 0.3435
774.70 0.3434
774.80 0.3432
774.90 0.3431
775.00 0.343
775.10 0.3429
775.20 0.3427
775.30 0.3426
775.40 0.3425
775.50 0.3424
775.60 0.3422
775.70 0.3421
775.80 0.342
775.90 0.3419
776.00 0.3418
776.10 0.3416
776.20 0.3415
776.30 0.3414
776.40 0.3413
776.50 0.3411
776.60 0.341
776.70 0.3409
776.80 0.3408
776.90 0.3407
777.00 0.3405
777.10 0.3404
777.20 0.3403
777.30 0.3402
777.40 0.34
777.50 0.3399
777.60 0.3398
777.70 0.3397
777.80 0.3396
777.90 0.3394
778.00 0.3393
778.10 0.3392
778.20 0.3391
778.30 0.339
778.40 0.3388
778.50 0.3387
778.60 0.3386
778.70 0.3385
778.80 0.3383
778.90 0.3382
779.00 0.3381
779.10 0.338
779.20 0.3379
779.30 0.3377
779.40 0.3376
779.50 0.3375
779.60 0.3374
779.70 0.3373
779.80 0.3371
779.90 0.337
780.00 0.3369
780.10 0.3368
780.20 0.3367
780.30 0.3365
780.40 0.3364
780.50 0.3363
780.60 0.3362
780.70 0.3361
780.80 0.3359
780.90 0.3358
781.00 0.3357
781.10 0.3356
781.20 0.3355
781.30 0.3353
781.40 0.3352
781.50 0.3351
781.60 0.335
781.70 0.3349
781.80 0.3347
781.90 0.3346
782.00 0.3345
782.10 0.3344
782.20 0.3343
782.30 0.3341
782.40 0.334
782.50 0.3339
782.60 0.3338
782.70 0.3337
782.80 0.3336
782.90 0.3334
783.00 0.3333
783.10 0.3332
783.20 0.3331
783.30 0.333
783.40 0.3328
783.50 0.3327
783.60 0.3326
783.70 0.3325
783.80 0.3324
783.90 0.3323
784.00 0.3321
784.10 0.332
784.20 0.3319
784.30 0.3318
784.40 0.3317
784.50 0.3315
784.60 0.3314
784.70 0.3313
784.80 0.3312
784.90 0.3311
785.00 0.331
785.10 0.3308
785.20 0.3307
785.30 0.3306
785.40 0.3305
785.50 0.3304
785.60 0.3302
785.70 0.3301
785.80 0.33
785.90 0.3299
786.00 0.3298
786.10 0.3297
786.20 0.3295
786.30 0.3294
786.40 0.3293
786.50 0.3292
786.60 0.3291
786.70 0.329
786.80 0.3288
786.90 0.3287
787.00 0.3286
787.10 0.3285
787.20 0.3284
787.30 0.3283
787.40 0.3281
787.50 0.328
787.60 0.3279
787.70 0.3278
787.80 0.3277
787.90 0.3276
788.00 0.3274
788.10 0.3273
788.20 0.3272
788.30 0.3271
788.40 0.327
788.50 0.3269
788.60 0.3267
788.70 0.3266
788.80 0.3265
788.90 0.3264
789.00 0.3263
789.10 0.3262
789.20 0.3261
789.30 0.3259
789.40 0.3258
789.50 0.3257
789.60 0.3256
789.70 0.3255
789.80 0.3254
789.90 0.3252
790.00 0.3251
790.10 0.325
790.20 0.3249
790.30 0.3248
790.40 0.3247
790.50 0.3246
790.60 0.3244
790.70 0.3243
790.80 0.3242
790.90 0.3241
791.00 0.324
791.10 0.3239
791.20 0.3238
791.30 0.3236
791.40 0.3235
791.50 0.3234
791.60 0.3233
791.70 0.3232
791.80 0.3231
791.90 0.323
792.00 0.3228
792.10 0.3227
792.20 0.3226
792.30 0.3225
792.40 0.3224
792.50 0.3223
792.60 0.3222
792.70 0.322
792.80 0.3219
792.90 0.3218
793.00 0.3217
793.10 0.3216
793.20 0.3215
793.30 0.3214
793.40 0.3212
793.50 0.3211
793.60 0.321
793.70 0.3209
793.80 0.3208
793.90 0.3207
794.00 0.3206
794.10 0.3204
794.20 0.3203
794.30 0.3202
794.40 0.3201
794.50 0.32
794.60 0.3199
794.70 0.3198
794.80 0.3197
794.90 0.3195
795.00 0.3194
795.10 0.3193
795.20 0.3192
795.30 0.3191
795.40 0.319
795.50 0.3189
795.60 0.3188
795.70 0.3186
795.80 0.3185
795.90 0.3184
796.00 0.3183
796.10 0.3182
796.20 0.3181
796.30 0.318
796.40 0.3179
796.50 0.3177
796.60 0.3176
796.70 0.3175
796.80 0.3174
796.90 0.3173
797.00 0.3172
797.10 0.3171
797.20 0.317
797.30 0.3169
797.40 0.3167
797.50 0.3166
797.60 0.3165
797.70 0.3164
797.80 0.3163
797.90 0.3162
798.00 0.3161
798.10 0.316
798.20 0.3158
798.30 0.3157
798.40 0.3156
798.50 0.3155
798.60 0.3154
798.70 0.3153
798.80 0.3152
798.90 0.3151
799.00 0.315
799.10 0.3148
799.20 0.3147
799.30 0.3146
799.40 0.3145
799.50 0.3144
799.60 0.3143
799.70 0.3142
799.80 0.3141
799.90 0.314
800.00 0.3139
800.10 0.3137
800.20 0.3136
800.30 0.3135
800.40 0.3134
800.50 0.3133
800.60 0.3132
800.70 0.3131
800.80 0.313
800.90 0.3129
801.00 0.3127
801.10 0.3126
801.20 0.3125
801.30 0.3124
801.40 0.3123
801.50 0.3122
801.60 0.3121
801.70 0.312
801.80 0.3119
801.90 0.3118
802.00 0.3117
802.10 0.3115
802.20 0.3114
802.30 0.3113
802.40 0.3112
802.50 0.3111
802.60 0.311
802.70 0.3109
802.80 0.3108
802.90 0.3107
803.00 0.3106
803.10 0.3105
803.20 0.3103
803.30 0.3102
803.40 0.3101
803.50 0.31
803.60 0.3099
803.70 0.3098
803.80 0.3097
803.90 0.3096
804.00 0.3095
804.10 0.3094
804.20 0.3093
804.30 0.3092
804.40 0.309
804.50 0.3089
804.60 0.3088
804.70 0.3087
804.80 0.3086
804.90 0.3085
805.00 0.3084
805.10 0.3083
805.20 0.3082
805.30 0.3081
805.40 0.308
805.50 0.3079
805.60 0.3077
805.70 0.3076
805.80 0.3075
805.90 0.3074
806.00 0.3073
806.10 0.3072
806.20 0.3071
806.30 0.307
806.40 0.3069
806.50 0.3068
806.60 0.3067
806.70 0.3066
806.80 0.3065
806.90 0.3063
807.00 0.3062
807.10 0.3061
807.20 0.306
807.30 0.3059
807.40 0.3058
807.50 0.3057
807.60 0.3056
807.70 0.3055
807.80 0.3054
807.90 0.3053
808.00 0.3052
808.10 0.3051
808.20 0.305
808.30 0.3049
808.40 0.3047
808.50 0.3046
808.60 0.3045
808.70 0.3044
808.80 0.3043
808.90 0.3042
809.00 0.3041
809.10 0.304
809.20 0.3039
809.30 0.3038
809.40 0.3037
809.50 0.3036
809.60 0.3035
809.70 0.3034
809.80 0.3033
809.90 0.3032
810.00 0.303
810.10 0.3029
810.20 0.3028
810.30 0.3027
810.40 0.3026
810.50 0.3025
810.60 0.3024
810.70 0.3023
810.80 0.3022
810.90 0.3021
811.00 0.302
811.10 0.3019
811.20 0.3018
811.30 0.3017
811.40 0.3016
811.50 0.3015
811.60 0.3014
811.70 0.3013
811.80 0.3011
811.90 0.301
812.00 0.3009
812.10 0.3008
812.20 0.3007
812.30 0.3006
812.40 0.3005
812.50 0.3004
812.60 0.3003
812.70 0.3002
812.80 0.3001
812.90 0.3
813.00 0.2999
813.10 0.2998
813.20 0.2997
813.30 0.2996
813.40 0.2995
813.50 0.2994
813.60 0.2993
813.70 0.2992
813.80 0.2991
813.90 0.299
814.00 0.2989
814.10 0.2987
814.20 0.2986
814.30 0.2985
814.40 0.2984
814.50 0.2983
814.60 0.2982
814.70 0.2981
814.80 0.298
814.90 0.2979
815.00 0.2978
815.10 0.2977
815.20 0.2976
815.30 0.2975
815.40 0.2974
815.50 0.2973
815.60 0.2972
815.70 0.2971
815.80 0.297
815.90 0.2969
816.00 0.2968
816.10 0.2967
816.20 0.2966
816.30 0.2965
816.40 0.2964
816.50 0.2963
816.60 0.2962
816.70 0.2961
816.80 0.296
816.90 0.2959
817.00 0.2958
817.10 0.2956
817.20 0.2955
817.30 0.2954
817.40 0.2953
817.50 0.2952
817.60 0.2951
817.70 0.295
817.80 0.2949
817.90 0.2948
818.00 0.2947
818.10 0.2946
818.20 0.2945
818.30 0.2944
818.40 0.2943
818.50 0.2942
818.60 0.2941
818.70 0.294
818.80 0.2939
818.90 0.2938
819.00 0.2937
819.10 0.2936
819.20 0.2935
819.30 0.2934
819.40 0.2933
819.50 0.2932
819.60 0.2931
819.70 0.293
819.80 0.2929
819.90 0.2928
820.00 0.2927
820.10 0.2926
820.20 0.2925
820.30 0.2924
820.40 0.2923
820.50 0.2922
820.60 0.2921
820.70 0.292
820.80 0.2919
820.90 0.2918
821.00 0.2917
821.10 0.2916
821.20 0.2915
821.30 0.2914
821.40 0.2913
821.50 0.2912
821.60 0.2911
821.70 0.291
821.80 0.2909
821.90 0.2908
822.00 0.2907
822.10 0.2906
822.20 0.2905
822.30 0.2904
822.40 0.2903
822.50 0.2902
822.60 0.2901
822.70 0.29
822.80 0.2899
822.90 0.2898
823.00 0.2897
823.10 0.2896
823.20 0.2895
823.30 0.2894
823.40 0.2893
823.50 0.2892
823.60 0.2891
823.70 0.289
823.80 0.2889
823.90 0.2888
824.00 0.2887
824.10 0.2886
824.20 0.2885
824.30 0.2884
824.40 0.2883
824.50 0.2882
824.60 0.2881
824.70 0.288
824.80 0.2879
824.90 0.2878
825.00 0.2877
825.10 0.2876
825.20 0.2875
825.30 0.2874
825.40 0.2873
825.50 0.2872
825.60 0.2871
825.70 0.287
825.80 0.2869
825.90 0.2868
826.00 0.2867
826.10 0.2866
826.20 0.2865
826.30 0.2864
826.40 0.2863
826.50 0.2862
826.60 0.2861
826.70 0.286
826.80 0.2859
826.90 0.2858
827.00 0.2857
827.10 0.2856
827.20 0.2855
827.30 0.2854
827.40 0.2853
827.50 0.2852
827.60 0.2851
827.70 0.285
827.80 0.2849
827.90 0.2848
828.00 0.2847
828.10 0.2846
828.20 0.2845
828.30 0.2844
828.40 0.2843
828.50 0.2842
828.60 0.2841
828.70 0.284
828.80 0.284
828.90 0.2839
829.00 0.2838
829.10 0.2837
829.20 0.2836
829.30 0.2835
829.40 0.2834
829.50 0.2833
829.60 0.2832
829.70 0.2831
829.80 0.283
829.90 0.2829
830.00 0.2828
830.10 0.2827
830.20 0.2826
830.30 0.2825
830.40 0.2824
830.50 0.2823
830.60 0.2822
830.70 0.2821
830.80 0.282
830.90 0.2819
831.00 0.2818
831.10 0.2817
831.20 0.2816
831.30 0.2815
831.40 0.2814
831.50 0.2813
831.60 0.2812
831.70 0.2811
831.80 0.281
831.90 0.2809
832.00 0.2808
832.10 0.2808
832.20 0.2807
832.30 0.2806
832.40 0.2805
832.50 0.2804
832.60 0.2803
832.70 0.2802
832.80 0.2801
832.90 0.28
833.00 0.2799
833.10 0.2798
833.20 0.2797
833.30 0.2796
833.40 0.2795
833.50 0.2794
833.60 0.2793
833.70 0.2792
833.80 0.2791
833.90 0.279
834.00 0.2789
834.10 0.2788
834.20 0.2787
834.30 0.2786
834.40 0.2785
834.50 0.2784
834.60 0.2784
834.70 0.2783
834.80 0.2782
834.90 0.2781
835.00 0.278
835.10 0.2779
835.20 0.2778
835.30 0.2777
835.40 0.2776
835.50 0.2775
835.60 0.2774
835.70 0.2773
835.80 0.2772
835.90 0.2771
836.00 0.277
836.10 0.2769
836.20 0.2768
836.30 0.2767
836.40 0.2766
836.50 0.2765
836.60 0.2765
836.70 0.2764
836.80 0.2763
836.90 0.2762
837.00 0.2761
837.10 0.276
837.20 0.2759
837.30 0.2758
837.40 0.2757
837.50 0.2756
837.60 0.2755
837.70 0.2754
837.80 0.2753
837.90 0.2752
838.00 0.2751
838.10 0.275
838.20 0.2749
838.30 0.2749
838.40 0.2748
838.50 0.2747
838.60 0.2746
838.70 0.2745
838.80 0.2744
838.90 0.2743
839.00 0.2742
839.10 0.2741
839.20 0.274
839.30 0.2739
839.40 0.2738
839.50 0.2737
839.60 0.2736
839.70 0.2735
839.80 0.2734
839.90 0.2734
840.00 0.2733
840.10 0.2732
840.20 0.2731
840.30 0.273
840.40 0.2729
840.50 0.2728
840.60 0.2727
840.70 0.2726
840.80 0.2725
840.90 0.2724
841.00 0.2723
841.10 0.2722
841.20 0.2721
841.30 0.272
841.40 0.272
841.50 0.2719
841.60 0.2718
841.70 0.2717
841.80 0.2716
841.90 0.2715
842.00 0.2714
842.10 0.2713
842.20 0.2712
842.30 0.2711
842.40 0.271
842.50 0.2709
842.60 0.2708
842.70 0.2708
842.80 0.2707
842.90 0.2706
843.00 0.2705
843.10 0.2704
843.20 0.2703
843.30 0.2702
843.40 0.2701
843.50 0.27
843.60 0.2699
843.70 0.2698
843.80 0.2697
843.90 0.2696
844.00 0.2696
844.10 0.2695
844.20 0.2694
844.30 0.2693
844.40 0.2692
844.50 0.2691
844.60 0.269
844.70 0.2689
844.80 0.2688
844.90 0.2687
845.00 0.2686
845.10 0.2685
845.20 0.2685
845.30 0.2684
845.40 0.2683
845.50 0.2682
845.60 0.2681
845.70 0.268
845.80 0.2679
845.90 0.2678
846.00 0.2677
846.10 0.2676
846.20 0.2675
846.30 0.2675
846.40 0.2674
846.50 0.2673
846.60 0.2672
846.70 0.2671
846.80 0.267
846.90 0.2669
847.00 0.2668
847.10 0.2667
847.20 0.2666
847.30 0.2666
847.40 0.2665
847.50 0.2664
847.60 0.2663
847.70 0.2662
847.80 0.2661
847.90 0.266
848.00 0.2659
848.10 0.2658
848.20 0.2657
848.30 0.2657
848.40 0.2656
848.50 0.2655
848.60 0.2654
848.70 0.2653
848.80 0.2652
848.90 0.2651
849.00 0.265
849.10 0.2649
849.20 0.2649
849.30 0.2648
849.40 0.2647
849.50 0.2646
849.60 0.2645
849.70 0.2644
849.80 0.2643
849.90 0.2642
850.00 0.2641
850.10 0.264
850.20 0.264
850.30 0.2639
850.40 0.2638
850.50 0.2637
850.60 0.2636
850.70 0.2635
850.80 0.2634
850.90 0.2633
851.00 0.2633
851.10 0.2632
851.20 0.2631
851.30 0.263
851.40 0.2629
851.50 0.2628
851.60 0.2627
851.70 0.2626
851.80 0.2625
851.90 0.2625
852.00 0.2624
852.10 0.2623
852.20 0.2622
852.30 0.2621
852.40 0.262
852.50 0.2619
852.60 0.2618
852.70 0.2618
852.80 0.2617
852.90 0.2616
853.00 0.2615
853.10 0.2614
853.20 0.2613
853.30 0.2612
853.40 0.2611
853.50 0.2611
853.60 0.261
853.70 0.2609
853.80 0.2608
853.90 0.2607
854.00 0.2606
854.10 0.2605
854.20 0.2604
854.30 0.2604
854.40 0.2603
854.50 0.2602
854.60 0.2601
854.70 0.26
854.80 0.2599
854.90 0.2598
855.00 0.2597
855.10 0.2597
855.20 0.2596
855.30 0.2595
855.40 0.2594
855.50 0.2593
855.60 0.2592
855.70 0.2591
855.80 0.259
855.90 0.259
856.00 0.2589
856.10 0.2588
856.20 0.2587
856.30 0.2586
856.40 0.2585
856.50 0.2584
856.60 0.2584
856.70 0.2583
856.80 0.2582
856.90 0.2581
857.00 0.258
857.10 0.2579
857.20 0.2578
857.30 0.2578
857.40 0.2577
857.50 0.2576
857.60 0.2575
857.70 0.2574
857.80 0.2573
857.90 0.2572
858.00 0.2572
858.10 0.2571
858.20 0.257
858.30 0.2569
858.40 0.2568
858.50 0.2567
858.60 0.2566
858.70 0.2566
858.80 0.2565
858.90 0.2564
859.00 0.2563
859.10 0.2562
859.20 0.2561
859.30 0.256
859.40 0.256
859.50 0.2559
859.60 0.2558
859.70 0.2557
859.80 0.2556
859.90 0.2555
860.00 0.2554
860.10 0.2554
860.20 0.2553
860.30 0.2552
860.40 0.2551
860.50 0.255
860.60 0.2549
860.70 0.2548
860.80 0.2548
860.90 0.2547
861.00 0.2546
861.10 0.2545
861.20 0.2544
861.30 0.2543
861.40 0.2543
861.50 0.2542
861.60 0.2541
861.70 0.254
861.80 0.2539
861.90 0.2538
862.00 0.2538
862.10 0.2537
862.20 0.2536
862.30 0.2535
862.40 0.2534
862.50 0.2533
862.60 0.2532
862.70 0.2532
862.80 0.2531
862.90 0.253
863.00 0.2529
863.10 0.2528
863.20 0.2527
863.30 0.2526
863.40 0.2526
863.50 0.2525
863.60 0.2524
863.70 0.2523
863.80 0.2522
863.90 0.2521
864.00 0.252
864.10 0.252
864.20 0.2519
864.30 0.2518
864.40 0.2517
864.50 0.2516
864.60 0.2515
864.70 0.2515
864.80 0.2514
864.90 0.2513
865.00 0.2512
865.10 0.2511
865.20 0.251
865.30 0.2509
865.40 0.2509
865.50 0.2508
865.60 0.2507
865.70 0.2506
865.80 0.2505
865.90 0.2504
866.00 0.2504
866.10 0.2503
866.20 0.2502
866.30 0.2501
866.40 0.25
866.50 0.2499
866.60 0.2499
866.70 0.2498
866.80 0.2497
866.90 0.2496
867.00 0.2495
867.10 0.2494
867.20 0.2494
867.30 0.2493
867.40 0.2492
867.50 0.2491
867.60 0.249
867.70 0.249
867.80 0.2489
867.90 0.2488
868.00 0.2487
868.10 0.2486
868.20 0.2486
868.30 0.2485
868.40 0.2484
868.50 0.2483
868.60 0.2482
868.70 0.2482
868.80 0.2481
868.90 0.248
869.00 0.2479
869.10 0.2478
869.20 0.2478
869.30 0.2477
869.40 0.2476
869.50 0.2475
869.60 0.2474
869.70 0.2474
869.80 0.2473
869.90 0.2472
870.00 0.2471
870.10 0.247
870.20 0.247
870.30 0.2469
870.40 0.2468
870.50 0.2467
870.60 0.2466
870.70 0.2466
870.80 0.2465
870.90 0.2464
871.00 0.2463
871.10 0.2463
871.20 0.2462
871.30 0.2461
871.40 0.246
871.50 0.2459
871.60 0.2459
871.70 0.2458
871.80 0.2457
871.90 0.2456
872.00 0.2455
872.10 0.2455
872.20 0.2454
872.30 0.2453
872.40 0.2452
872.50 0.2451
872.60 0.2451
872.70 0.245
872.80 0.2449
872.90 0.2448
873.00 0.2447
873.10 0.2446
873.20 0.2446
873.30 0.2445
873.40 0.2444
873.50 0.2443
873.60 0.2442
873.70 0.2442
873.80 0.2441
873.90 0.244
874.00 0.2439
874.10 0.2438
874.20 0.2438
874.30 0.2437
874.40 0.2436
874.50 0.2435
874.60 0.2434
874.70 0.2433
874.80 0.2433
874.90 0.2432
875.00 0.2431
875.10 0.243
875.20 0.2429
875.30 0.2429
875.40 0.2428
875.50 0.2427
875.60 0.2426
875.70 0.2425
875.80 0.2425
875.90 0.2424
876.00 0.2423
876.10 0.2422
876.20 0.2421
876.30 0.2421
876.40 0.242
876.50 0.2419
876.60 0.2418
876.70 0.2417
876.80 0.2417
876.90 0.2416
877.00 0.2415
877.10 0.2414
877.20 0.2413
877.30 0.2413
877.40 0.2412
877.50 0.2411
877.60 0.241
877.70 0.241
877.80 0.2409
877.90 0.2408
878.00 0.2407
878.10 0.2407
878.20 0.2406
878.30 0.2405
878.40 0.2404
878.50 0.2404
878.60 0.2403
878.70 0.2402
878.80 0.2401
878.90 0.2401
879.00 0.24
879.10 0.2399
879.20 0.2398
879.30 0.2398
879.40 0.2397
879.50 0.2396
879.60 0.2395
879.70 0.2395
879.80 0.2394
879.90 0.2393
880.00 0.2392
880.10 0.2391
880.20 0.2391
880.30 0.239
880.40 0.2389
880.50 0.2388
880.60 0.2388
880.70 0.2387
880.80 0.2386
880.90 0.2385
881.00 0.2385
881.10 0.2384
881.20 0.2383
881.30 0.2382
881.40 0.2382
881.50 0.2381
881.60 0.238
881.70 0.2379
881.80 0.2379
881.90 0.2378
882.00 0.2377
882.10 0.2376
882.20 0.2375
882.30 0.2375
882.40 0.2374
882.50 0.2373
882.60 0.2372
882.70 0.2371
882.80 0.237
882.90 0.2369
883.00 0.2368
883.10 0.2367
883.20 0.2367
883.30 0.2366
883.40 0.2365
883.50 0.2364
883.60 0.2363
883.70 0.2362
883.80 0.2361
883.90 0.236
884.00 0.2359
884.10 0.2359
884.20 0.2358
884.30 0.2357
884.40 0.2356
884.50 0.2355
884.60 0.2354
884.70 0.2353
884.80 0.2352
884.90 0.2351
885.00 0.2351
885.10 0.235
885.20 0.2349
885.30 0.2348
885.40 0.2347
885.50 0.2346
885.60 0.2345
885.70 0.2344
885.80 0.2343
885.90 0.2343
886.00 0.2342
886.10 0.2341
886.20 0.234
886.30 0.2339
886.40 0.2338
886.50 0.2337
886.60 0.2336
886.70 0.2336
886.80 0.2335
886.90 0.2334
887.00 0.2333
887.10 0.2332
887.20 0.2332
887.30 0.2331
887.40 0.233
887.50 0.233
887.60 0.2329
887.70 0.2329
887.80 0.2328
887.90 0.2327
888.00 0.2327
888.10 0.2326
888.20 0.2326
888.30 0.2325
888.40 0.2324
888.50 0.2324
888.60 0.2323
888.70 0.2323
888.80 0.2322
888.90 0.2321
889.00 0.2321
889.10 0.232
889.20 0.2319
889.30 0.2319
889.40 0.2318
889.50 0.2318
889.60 0.2317
889.70 0.2316
889.80 0.2316
889.90 0.2315
890.00 0.2315
890.10 0.2314
890.20 0.2313
890.30 0.2313
890.40 0.2312
890.50 0.2312
890.60 0.2311
890.70 0.231
890.80 0.231
890.90 0.2309
891.00 0.2309
891.10 0.2308
891.20 0.2307
891.30 0.2307
891.40 0.2306
891.50 0.2306
891.60 0.2305
891.70 0.2304
891.80 0.2304
891.90 0.2303
892.00 0.2303
892.10 0.2302
892.20 0.2301
892.30 0.23
892.40 0.2299
892.50 0.2299
892.60 0.2298
892.70 0.2297
892.80 0.2296
892.90 0.2296
893.00 0.2295
893.10 0.2294
893.20 0.2293
893.30 0.2293
893.40 0.2292
893.50 0.2291
893.60 0.229
893.70 0.229
893.80 0.2289
893.90 0.2288
894.00 0.2287
894.10 0.2287
894.20 0.2286
894.30 0.2285
894.40 0.2284
894.50 0.2284
894.60 0.2283
894.70 0.2282
894.80 0.2281
894.90 0.2281
895.00 0.228
895.10 0.2279
895.20 0.2279
895.30 0.2278
895.40 0.2277
895.50 0.2276
895.60 0.2276
895.70 0.2275
895.80 0.2274
895.90 0.2273
896.00 0.2273
896.10 0.2272
896.20 0.2271
896.30 0.227
896.40 0.227
896.50 0.2269
896.60 0.2268
896.70 0.2267
896.80 0.2267
896.90 0.2266
897.00 0.2265
897.10 0.2264
897.20 0.2263
897.30 0.2262
897.40 0.2261
897.50 0.226
897.60 0.2259
897.70 0.2258
897.80 0.2257
897.90 0.2256
898.00 0.2255
898.10 0.2254
898.20 0.2253
898.30 0.2252
898.40 0.2251
898.50 0.225
898.60 0.2249
898.70 0.2248
898.80 0.2247
898.90 0.2246
899.00 0.2245
899.10 0.2244
899.20 0.2243
899.30 0.2242
899.40 0.2241
899.50 0.224
899.60 0.2239
899.70 0.2238
899.80 0.2237
899.90 0.2236
900.00 0.2235
900.10 0.2234
900.20 0.2233
900.30 0.2232
900.40 0.2231
900.50 0.223
900.60 0.2229
900.70 0.2228
900.80 0.2227
900.90 0.2226
901.00 0.2225
901.10 0.2224
901.20 0.2223
901.30 0.2222
901.40 0.2221
901.50 0.222
901.60 0.2219
901.70 0.2218
901.80 0.2217
901.90 0.2216
902.00 0.2215
902.10 0.2214
902.20 0.2214
902.30 0.2213
902.40 0.2213
902.50 0.2213
902.60 0.2212
902.70 0.2212
902.80 0.2211
902.90 0.2211
903.00 0.221
903.10 0.221
903.20 0.221
903.30 0.2209
903.40 0.2209
903.50 0.2208
903.60 0.2208
903.70 0.2208
903.80 0.2207
903.90 0.2207
904.00 0.2206
904.10 0.2206
904.20 0.2206
904.30 0.2205
904.40 0.2205
904.50 0.2204
904.60 0.2204
904.70 0.2203
904.80 0.2203
904.90 0.2203
905.00 0.2202
905.10 0.2202
905.20 0.2201
905.30 0.2201
905.40 0.2201
905.50 0.22
905.60 0.22
905.70 0.2199
905.80 0.2199
905.90 0.2199
906.00 0.2198
906.10 0.2198
906.20 0.2197
906.30 0.2197
906.40 0.2196
906.50 0.2196
906.60 0.2196
906.70 0.2195
906.80 0.2195
906.90 0.2194
907.00 0.2194
907.10 0.2193
907.20 0.2193
907.30 0.2192
907.40 0.2192
907.50 0.2191
907.60 0.219
907.70 0.219
907.80 0.2189
907.90 0.2188
908.00 0.2188
908.10 0.2187
908.20 0.2187
908.30 0.2186
908.40 0.2185
908.50 0.2185
908.60 0.2184
908.70 0.2183
908.80 0.2183
908.90 0.2182
909.00 0.2182
909.10 0.2181
909.20 0.218
909.30 0.218
909.40 0.2179
909.50 0.2179
909.60 0.2178
909.70 0.2177
909.80 0.2177
909.90 0.2176
910.00 0.2175
910.10 0.2175
910.20 0.2174
910.30 0.2174
910.40 0.2173
910.50 0.2172
910.60 0.2172
910.70 0.2171
910.80 0.2171
910.90 0.217
911.00 0.2169
911.10 0.2169
911.20 0.2168
911.30 0.2167
911.40 0.2167
911.50 0.2166
911.60 0.2166
911.70 0.2165
911.80 0.2164
911.90 0.2164
912.00 0.2163
912.10 0.2162
912.20 0.2162
912.30 0.2161
912.40 0.216
912.50 0.2159
912.60 0.2159
912.70 0.2158
912.80 0.2157
912.90 0.2156
913.00 0.2155
913.10 0.2155
913.20 0.2154
913.30 0.2153
913.40 0.2152
913.50 0.2152
913.60 0.2151
913.70 0.215
913.80 0.2149
913.90 0.2148
914.00 0.2148
914.10 0.2147
914.20 0.2146
914.30 0.2145
914.40 0.2145
914.50 0.2144
914.60 0.2143
914.70 0.2142
914.80 0.2142
914.90 0.2141
915.00 0.214
915.10 0.2139
915.20 0.2139
915.30 0.2138
915.40 0.2137
915.50 0.2136
915.60 0.2135
915.70 0.2135
915.80 0.2134
915.90 0.2133
916.00 0.2132
916.10 0.2132
916.20 0.2131
916.30 0.213
916.40 0.2129
916.50 0.2129
916.60 0.2128
916.70 0.2127
916.80 0.2126
916.90 0.2126
917.00 0.2125
917.10 0.2124
917.20 0.2122
917.30 0.2121
917.40 0.212
917.50 0.2119
917.60 0.2118
917.70 0.2116
917.80 0.2115
917.90 0.2114
918.00 0.2113
918.10 0.2112
918.20 0.211
918.30 0.2109
918.40 0.2108
918.50 0.2107
918.60 0.2106
918.70 0.2104
918.80 0.2103
918.90 0.2102
919.00 0.2101
919.10 0.21
919.20 0.2098
919.30 0.2097
919.40 0.2096
919.50 0.2095
919.60 0.2094
919.70 0.2092
919.80 0.2091
919.90 0.209
920.00 0.2089
920.10 0.2088
920.20 0.2086
920.30 0.2085
920.40 0.2084
920.50 0.2083
920.60 0.2082
920.70 0.208
920.80 0.2079
920.90 0.2078
921.00 0.2077
921.10 0.2076
921.20 0.2075
921.30 0.2073
921.40 0.2072
921.50 0.2071
921.60 0.207
921.70 0.2069
921.80 0.2067
921.90 0.2066
922.00 0.2065
922.10 0.2065
922.20 0.2064
922.30 0.2064
922.40 0.2063
922.50 0.2063
922.60 0.2063
922.70 0.2062
922.80 0.2062
922.90 0.2062
923.00 0.2061
923.10 0.2061
923.20 0.206
923.30 0.206
923.40 0.206
923.50 0.2059
923.60 0.2059
923.70 0.2058
923.80 0.2058
923.90 0.2058
924.00 0.2057
924.10 0.2057
924.20 0.2056
924.30 0.2056
924.40 0.2056
924.50 0.2055
924.60 0.2055
924.70 0.2054
924.80 0.2054
924.90 0.2054
925.00 0.2053
925.10 0.2053
925.20 0.2053
925.30 0.2052
925.40 0.2052
925.50 0.2051
925.60 0.2051
925.70 0.2051
925.80 0.205
925.90 0.205
926.00 0.2049
926.10 0.2049
926.20 0.2049
926.30 0.2048
926.40 0.2048
926.50 0.2047
926.60 0.2047
926.70 0.2047
926.80 0.2046
926.90 0.2046
927.00 0.2046
927.10 0.2045
927.20 0.2045
927.30 0.2045
927.40 0.2044
927.50 0.2044
927.60 0.2044
927.70 0.2043
927.80 0.2043
927.90 0.2043
928.00 0.2042
928.10 0.2042
928.20 0.2042
928.30 0.2041
928.40 0.2041
928.50 0.2041
928.60 0.204
928.70 0.204
928.80 0.204
928.90 0.2039
929.00 0.2039
929.10 0.2039
929.20 0.2038
929.30 0.2038
929.40 0.2038
929.50 0.2037
929.60 0.2037
929.70 0.2037
929.80 0.2036
929.90 0.2036
930.00 0.2036
930.10 0.2035
930.20 0.2035
930.30 0.2035
930.40 0.2034
930.50 0.2034
930.60 0.2034
930.70 0.2033
930.80 0.2033
930.90 0.2033
931.00 0.2032
931.10 0.2032
931.20 0.2032
931.30 0.2031
931.40 0.2031
931.50 0.2031
931.60 0.203
931.70 0.203
931.80 0.203
931.90 0.2029
932.00 0.2029
932.10 0.2029
932.20 0.2028
932.30 0.2028
932.40 0.2027
932.50 0.2027
932.60 0.2026
932.70 0.2026
932.80 0.2025
932.90 0.2025
933.00 0.2024
933.10 0.2024
933.20 0.2023
933.30 0.2022
933.40 0.2022
933.50 0.2021
933.60 0.2021
933.70 0.202
933.80 0.202
933.90 0.2019
934.00 0.2019
934.10 0.2018
934.20 0.2018
934.30 0.2017
934.40 0.2017
934.50 0.2016
934.60 0.2016
934.70 0.2015
934.80 0.2015
934.90 0.2014
935.00 0.2013
935.10 0.2013
935.20 0.2012
935.30 0.2012
935.40 0.2011
935.50 0.2011
935.60 0.201
935.70 0.2009
935.80 0.2009
935.90 0.2008
936.00 0.2008
936.10 0.2007
936.20 0.2007
936.30 0.2006
936.40 0.2005
936.50 0.2005
936.60 0.2004
936.70 0.2004
936.80 0.2003
936.90 0.2003
937.00 0.2002
937.10 0.2001
937.20 0.2001
937.30 0.2
937.40 0.2
937.50 0.1999
937.60 0.1998
937.70 0.1998
937.80 0.1997
937.90 0.1997
938.00 0.1996
938.10 0.1995
938.20 0.1995
938.30 0.1994
938.40 0.1994
938.50 0.1993
938.60 0.1992
938.70 0.1992
938.80 0.1991
938.90 0.199
939.00 0.199
939.10 0.1989
939.20 0.1988
939.30 0.1988
939.40 0.1987
939.50 0.1987
939.60 0.1986
939.70 0.1985
939.80 0.1985
939.90 0.1984
940.00 0.1983
940.10 0.1983
940.20 0.1982
940.30 0.1982
940.40 0.1981
940.50 0.198
940.60 0.198
940.70 0.1979
940.80 0.1978
940.90 0.1977
941.00 0.1977
941.10 0.1976
941.20 0.1975
941.30 0.1975
941.40 0.1974
941.50 0.1973
941.60 0.1973
941.70 0.1972
941.80 0.1971
941.90 0.1971
942.00 0.197
942.10 0.1969
942.20 0.1969
942.30 0.1968
942.40 0.1967
942.50 0.1966
942.60 0.1966
942.70 0.1965
942.80 0.1964
942.90 0.1964
943.00 0.1963
943.10 0.1962
943.20 0.1961
943.30 0.1961
943.40 0.196
943.50 0.1959
943.60 0.1958
943.70 0.1958
943.80 0.1957
943.90 0.1956
944.00 0.1955
944.10 0.1955
944.20 0.1954
944.30 0.1953
944.40 0.1952
944.50 0.1951
944.60 0.1951
944.70 0.195
944.80 0.1949
944.90 0.1948
945.00 0.1947
945.10 0.1947
945.20 0.1946
945.30 0.1945
945.40 0.1944
945.50 0.1943
945.60 0.1942
945.70 0.1941
945.80 0.194
945.90 0.1939
946.00 0.1938
946.10 0.1938
946.20 0.1937
946.30 0.1936
946.40 0.1935
946.50 0.1934
946.60 0.1933
946.70 0.1932
946.80 0.1931
946.90 0.193
947.00 0.1929
947.10 0.1928
947.20 0.1927
947.30 0.1926
947.40 0.1925
947.50 0.1924
947.60 0.1923
947.70 0.1921
947.80 0.192
947.90 0.1919
948.00 0.1918
948.10 0.1917
948.20 0.1915
948.30 0.1914
948.40 0.1913
948.50 0.1912
948.60 0.1911
948.70 0.1909
948.80 0.1908
948.90 0.1907
949.00 0.1906
949.10 0.1905
949.20 0.1904
949.30 0.1902
949.40 0.1901
949.50 0.1899
949.60 0.1897
949.70 0.1896
949.80 0.1894
949.90 0.1893
950.00 0.1891
950.10 0.1889
950.20 0.1888
950.30 0.1886
950.40 0.1885
950.50 0.1883
950.60 0.1881
950.70 0.188
950.80 0.1878
950.90 0.1876
951.00 0.1875
951.10 0.1873
951.20 0.1872
951.30 0.187
951.40 0.1868
951.50 0.1866
951.60 0.1864
951.70 0.1862
951.80 0.186
951.90 0.1858
952.00 0.1857
952.10 0.1855
952.20 0.1853
952.30 0.1851
952.40 0.1849
952.50 0.1847
952.60 0.1845
952.70 0.1843
952.80 0.1841
952.90 0.184
953.00 0.1839
953.10 0.1839
953.20 0.1838
953.30 0.1837
953.40 0.1836
953.50 0.1835
953.60 0.1835
953.70 0.1836
953.80 0.1836
953.90 0.1836
954.00 0.184
954.10 0.1844
954.20 0.1848
954.30 0.1848
954.40 0.184
954.50 0.1835
954.60 0.183
954.70 0.1825
954.80 0.1824
954.90 0.1823
955.00 0.1821
955.10 0.182
955.20 0.182
955.30 0.1819
955.40 0.1819
955.50 0.1819
955.60 0.1819
955.70 0.1819
955.80 0.1819
955.90 0.1819
956.00 0.182
956.10 0.182
956.20 0.182
956.30 0.1821
956.40 0.1821
956.50 0.1822
956.60 0.1822
956.70 0.1823
956.80 0.1823
956.90 0.1824
957.00 0.1824
957.10 0.1825
957.20 0.1826
957.30 0.1826
957.40 0.1827
957.50 0.1827
957.60 0.1828
957.70 0.1828
957.80 0.1829
957.90 0.1829
958.00 0.1829
958.10 0.183
958.20 0.183
958.30 0.1831
958.40 0.1831
958.50 0.1832
958.60 0.1832
958.70 0.1832
958.80 0.1833
958.90 0.1833
959.00 0.1834
959.10 0.1834
959.20 0.1835
959.30 0.1835
959.40 0.1835
959.50 0.1835
959.60 0.1835
959.70 0.1835
959.80 0.1835
959.90 0.1835
960.00 0.1835
960.10 0.1836
960.20 0.1836
960.30 0.1836
960.40 0.1836
960.50 0.1836
960.60 0.1836
960.70 0.1836
960.80 0.1836
960.90 0.1836
961.00 0.1836
961.10 0.1836
961.20 0.1836
961.30 0.1836
961.40 0.1836
961.50 0.1836
961.60 0.1836
961.70 0.1836
961.80 0.1836
961.90 0.1836
962.00 0.1836
962.10 0.1835
962.20 0.1835
962.30 0.1835
962.40 0.1835
962.50 0.1835
962.60 0.1834
962.70 0.1834
962.80 0.1834
962.90 0.1834
963.00 0.1834
963.10 0.1834
963.20 0.1833
963.30 0.1833
963.40 0.1833
963.50 0.1833
963.60 0.1832
963.70 0.1832
963.80 0.1832
963.90 0.1832
964.00 0.1831
964.10 0.1831
964.20 0.1831
964.30 0.1831
964.40 0.183
964.50 0.183
964.60 0.183
964.70 0.1829
964.80 0.1829
964.90 0.1829
965.00 0.1828
965.10 0.1828
965.20 0.1828
965.30 0.1827
965.40 0.1827
965.50 0.1827
965.60 0.1826
965.70 0.1826
965.80 0.1826
965.90 0.1825
966.00 0.1825
966.10 0.1825
966.20 0.1824
966.30 0.1824
966.40 0.1824
966.50 0.1823
966.60 0.1823
966.70 0.1823
966.80 0.1822
966.90 0.1822
967.00 0.1822
967.10 0.1821
967.20 0.1821
967.30 0.182
967.40 0.182
967.50 0.182
967.60 0.1819
967.70 0.1819
967.80 0.1818
967.90 0.1818
968.00 0.1818
968.10 0.1817
968.20 0.1817
968.30 0.1816
968.40 0.1816
968.50 0.1815
968.60 0.1815
968.70 0.1815
968.80 0.1814
968.90 0.1814
969.00 0.1813
969.10 0.1813
969.20 0.1812
969.30 0.1812
969.40 0.1811
969.50 0.1811
969.60 0.1811
969.70 0.181
969.80 0.181
969.90 0.1809
970.00 0.1809
970.10 0.1808
970.20 0.1808
970.30 0.1808
970.40 0.1807
970.50 0.1807
970.60 0.1806
970.70 0.1806
970.80 0.1805
970.90 0.1805
971.00 0.1804
971.10 0.1804
971.20 0.1803
971.30 0.1803
971.40 0.1802
971.50 0.1802
971.60 0.1801
971.70 0.1801
971.80 0.18
971.90 0.18
972.00 0.18
972.10 0.1799
972.20 0.1799
972.30 0.1798
972.40 0.1798
972.50 0.1797
972.60 0.1797
972.70 0.1796
972.80 0.1796
972.90 0.1795
973.00 0.1795
973.10 0.1794
973.20 0.1794
973.30 0.1793
973.40 0.1793
973.50 0.1792
973.60 0.1792
973.70 0.1791
973.80 0.1791
973.90 0.179
974.00 0.179
974.10 0.1789
974.20 0.1789
974.30 0.1788
974.40 0.1788
974.50 0.1787
974.60 0.1787
974.70 0.1786
974.80 0.1786
974.90 0.1785
975.00 0.1785
975.10 0.1784
975.20 0.1784
975.30 0.1783
975.40 0.1783
975.50 0.1782
975.60 0.1781
975.70 0.1781
975.80 0.178
975.90 0.178
976.00 0.1779
976.10 0.1779
976.20 0.1778
976.30 0.1778
976.40 0.1777
976.50 0.1777
976.60 0.1776
976.70 0.1776
976.80 0.1775
976.90 0.1775
977.00 0.1774
977.10 0.1774
977.20 0.1773
977.30 0.1773
977.40 0.1772
977.50 0.1772
977.60 0.1771
977.70 0.1771
977.80 0.177
977.90 0.1769
978.00 0.1769
978.10 0.1768
978.20 0.1768
978.30 0.1767
978.40 0.1767
978.50 0.1766
978.60 0.1766
978.70 0.1765
978.80 0.1765
978.90 0.1764
979.00 0.1764
979.10 0.1763
979.20 0.1762
979.30 0.1762
979.40 0.1761
979.50 0.1761
979.60 0.176
979.70 0.176
979.80 0.1759
979.90 0.1759
980.00 0.1758
980.10 0.1758
980.20 0.1757
980.30 0.1757
980.40 0.1756
980.50 0.1755
980.60 0.1755
980.70 0.1754
980.80 0.1754
980.90 0.1753
981.00 0.1753
981.10 0.1752
981.20 0.1752
981.30 0.1751
981.40 0.1751
981.50 0.175
981.60 0.175
981.70 0.1749
981.80 0.1749
981.90 0.1748
982.00 0.1747
982.10 0.1747
982.20 0.1746
982.30 0.1746
982.40 0.1745
982.50 0.1745
982.60 0.1744
982.70 0.1743
982.80 0.1743
982.90 0.1742
983.00 0.1742
983.10 0.1741
983.20 0.1741
983.30 0.174
983.40 0.1739
983.50 0.1739
983.60 0.1738
983.70 0.1738
983.80 0.1737
983.90 0.1737
984.00 0.1736
984.10 0.1735
984.20 0.1735
984.30 0.1734
984.40 0.1734
984.50 0.1733
984.60 0.1733
984.70 0.1732
984.80 0.1731
984.90 0.1731
985.00 0.173
985.10 0.173
985.20 0.1729
985.30 0.1728
985.40 0.1728
985.50 0.1727
985.60 0.1727
985.70 0.1726
985.80 0.1725
985.90 0.1725
986.00 0.1724
986.10 0.1724
986.20 0.1723
986.30 0.1722
986.40 0.1722
986.50 0.1721
986.60 0.1721
986.70 0.172
986.80 0.1719
986.90 0.1719
987.00 0.1718
987.10 0.1718
987.20 0.1717
987.30 0.1716
987.40 0.1716
987.50 0.1715
987.60 0.1714
987.70 0.1714
987.80 0.1713
987.90 0.1712
988.00 0.1712
988.10 0.1711
988.20 0.171
988.30 0.171
988.40 0.1709
988.50 0.1709
988.60 0.1708
988.70 0.1707
988.80 0.1707
988.90 0.1706
989.00 0.1705
989.10 0.1704
989.20 0.1704
989.30 0.1703
989.40 0.1702
989.50 0.1702
989.60 0.1701
989.70 0.17
989.80 0.17
989.90 0.1699
990.00 0.1698
990.10 0.1697
990.20 0.1697
990.30 0.1696
990.40 0.1695
990.50 0.1695
990.60 0.1694
990.70 0.1693
990.80 0.1692
990.90 0.1692
991.00 0.1691
991.10 0.169
991.20 0.1689
991.30 0.1689
991.40 0.1688
991.50 0.1687
991.60 0.1686
991.70 0.1685
991.80 0.1685
991.90 0.1684
992.00 0.1683
992.10 0.1682
992.20 0.1681
992.30 0.1681
992.40 0.168
992.50 0.1679
992.60 0.1678
992.70 0.1677
992.80 0.1676
992.90 0.1675
993.00 0.1674
993.10 0.1674
993.20 0.1673
993.30 0.1672
993.40 0.1671
993.50 0.167
993.60 0.1669
993.70 0.1668
993.80 0.1667
993.90 0.1666
994.00 0.1665
994.10 0.1664
994.20 0.1663
994.30 0.1662
994.40 0.1661
994.50 0.166
994.60 0.166
994.70 0.1658
994.80 0.1657
994.90 0.1656
995.00 0.1655
995.10 0.1654
995.20 0.1653
995.30 0.1652
995.40 0.1651
995.50 0.165
995.60 0.1649
995.70 0.1648
995.80 0.1646
995.90 0.1645
996.00 0.1644
996.10 0.1643
996.20 0.1642
996.30 0.164
996.40 0.1639
996.50 0.1638
996.60 0.1637
996.70 0.1635
996.80 0.1634
996.90 0.1633
997.00 0.1632
997.10 0.163
997.20 0.1629
997.30 0.1628
997.40 0.1626
997.50 0.1625
997.60 0.1624
997.70 0.1622
997.80 0.162
997.90 0.1619
998.00 0.1617
998.10 0.1615
998.20 0.1614
998.30 0.1612
998.40 0.161
998.50 0.1609
998.60 0.1607
998.70 0.1606
998.80 0.1604
998.90 0.1602
999.00 0.1601
999.10 0.1599
999.20 0.1597
999.30 0.1596
999.40 0.1594
999.50 0.1592
999.60 0.1591
999.70 0.1589
999.80 0.1586
999.90 0.1584
1000.00 0.1582
1000.10 0.158
1000.20 0.1577
1000.30 0.1575
1000.40 0.1573
1000.50 0.157
1000.60 0.1568
1000.70 0.1566
1000.80 0.1564
1000.90 0.1561
1001.00 0.1559
1001.10 0.1557
1001.20 0.1554
1001.30 0.1552
1001.40 0.155
1001.50 0.1548
1001.60 0.1545
1001.70 0.1543
1001.80 0.154
1001.90 0.1537
1002.00 0.1534
1002.10 0.1531
1002.20 0.1528
1002.30 0.1525
1002.40 0.1522
1002.50 0.1519
1002.60 0.1516
1002.70 0.1513
1002.80 0.151
1002.90 0.1507
1003.00 0.1504
1003.10 0.1501
1003.20 0.1499
1003.30 0.1497
1003.40 0.1495
1003.50 0.1493
1003.60 0.1492
1003.70 0.149
1003.80 0.1488
1003.90 0.1489
1004.00 0.149
1004.10 0.1491
1004.20 0.1492
1004.30 0.1496
1004.40 0.1501
1004.50 0.1508
1004.60 0.1516
1004.70 0.1501
1004.80 0.1491
1004.90 0.1486
1005.00 0.148
1005.10 0.1477
1005.20 0.1475
1005.30 0.1473
1005.40 0.1471
1005.50 0.1471
1005.60 0.1472
1005.70 0.1473
1005.80 0.1474
1005.90 0.1475
1006.00 0.1476
1006.10 0.1477
1006.20 0.1479
1006.30 0.1481
1006.40 0.1482
1006.50 0.1484
1006.60 0.1486
1006.70 0.1488
1006.80 0.1489
1006.90 0.1491
1007.00 0.1493
1007.10 0.1495
1007.20 0.1497
1007.30 0.1498
1007.40 0.15
1007.50 0.1502
1007.60 0.1504
1007.70 0.1505
1007.80 0.1506
1007.90 0.1508
1008.00 0.1509
1008.10 0.151
1008.20 0.1511
1008.30 0.1512
1008.40 0.1513
1008.50 0.1515
1008.60 0.1516
1008.70 0.1517
1008.80 0.1518
1008.90 0.1519
1009.00 0.152
1009.10 0.1522
1009.20 0.1523
1009.30 0.1524
1009.40 0.1525
1009.50 0.1526
1009.60 0.1527
1009.70 0.1528
1009.80 0.1529
1009.90 0.1529
1010.00 0.153
1010.10 0.153
1010.20 0.1531
1010.30 0.1532
1010.40 0.1532
1010.50 0.1533
1010.60 0.1533
1010.70 0.1534
1010.80 0.1535
1010.90 0.1535
1011.00 0.1536
1011.10 0.1536
1011.20 0.1537
1011.30 0.1538
1011.40 0.1538
1011.50 0.1539
1011.60 0.1539
1011.70 0.154
1011.80 0.154
1011.90 0.1541
1012.00 0.1541
1012.10 0.1541
1012.20 0.1541
1012.30 0.1542
1012.40 0.1542
1012.50 0.1542
1012.60 0.1542
1012.70 0.1543
1012.80 0.1543
1012.90 0.1543
1013.00 0.1543
1013.10 0.1544
1013.20 0.1544
1013.30 0.1544
1013.40 0.1544
1013.50 0.1545
1013.60 0.1545
1013.70 0.1545
1013.80 0.1545
1013.90 0.1545
1014.00 0.1545
1014.10 0.1546
1014.20 0.1546
1014.30 0.1546
1014.40 0.1546
1014.50 0.1546
1014.60 0.1546
1014.70 0.1546
1014.80 0.1546
1014.90 0.1546
1015.00 0.1546
1015.10 0.1546
1015.20 0.1546
1015.30 0.1546
1015.40 0.1546
1015.50 0.1546
1015.60 0.1546
1015.70 0.1546
1015.80 0.1546
1015.90 0.1546
1016.00 0.1546
1016.10 0.1546
1016.20 0.1546
1016.30 0.1546
1016.40 0.1546
1016.50 0.1546
1016.60 0.1546
1016.70 0.1546
1016.80 0.1546
1016.90 0.1546
1017.00 0.1546
1017.10 0.1546
1017.20 0.1546
1017.30 0.1546
1017.40 0.1546
1017.50 0.1545
1017.60 0.1545
1017.70 0.1545
1017.80 0.1545
1017.90 0.1545
1018.00 0.1545
1018.10 0.1545
1018.20 0.1545
1018.30 0.1544
1018.40 0.1544
1018.50 0.1544
1018.60 0.1544
1018.70 0.1544
1018.80 0.1544
1018.90 0.1544
1019.00 0.1543
1019.10 0.1543
1019.20 0.1543
1019.30 0.1543
1019.40 0.1543
1019.50 0.1542
1019.60 0.1542
1019.70 0.1542
1019.80 0.1542
1019.90 0.1542
1020.00 0.1541
1020.10 0.1541
1020.20 0.1541
1020.30 0.1541
1020.40 0.1541
1020.50 0.154
1020.60 0.154
1020.70 0.154
1020.80 0.154
1020.90 0.154
1021.00 0.1539
1021.10 0.1539
1021.20 0.1539
1021.30 0.1539
1021.40 0.1538
1021.50 0.1538
1021.60 0.1538
1021.70 0.1538
1021.80 0.1537
1021.90 0.1537
1022.00 0.1537
1022.10 0.1537
1022.20 0.1536
1022.30 0.1536
1022.40 0.1536
1022.50 0.1536
1022.60 0.1535
1022.70 0.1535
1022.80 0.1535
1022.90 0.1534
1023.00 0.1534
1023.10 0.1534
1023.20 0.1534
1023.30 0.1533
1023.40 0.1533
1023.50 0.1533
1023.60 0.1532
1023.70 0.1532
1023.80 0.1532
1023.90 0.1532
1024.00 0.1531
1024.10 0.1531
1024.20 0.1531
1024.30 0.153
1024.40 0.153
1024.50 0.153
1024.60 0.153
1024.70 0.1529
1024.80 0.1529
1024.90 0.1529
1025.00 0.1528
1025.10 0.1528
1025.20 0.1528
1025.30 0.1527
1025.40 0.1527
1025.50 0.1527
1025.60 0.1526
1025.70 0.1526
1025.80 0.1526
1025.90 0.1525
1026.00 0.1525
1026.10 0.1525
1026.20 0.1524
1026.30 0.1524
1026.40 0.1524
1026.50 0.1523
1026.60 0.1523
1026.70 0.1523
1026.80 0.1522
1026.90 0.1522
1027.00 0.1522
1027.10 0.1521
1027.20 0.1521
1027.30 0.1521
1027.40 0.152
1027.50 0.152
1027.60 0.152
1027.70 0.1519
1027.80 0.1519
1027.90 0.1518
1028.00 0.1518
1028.10 0.1518
1028.20 0.1517
1028.30 0.1517
1028.40 0.1517
1028.50 0.1516
1028.60 0.1516
1028.70 0.1516
1028.80 0.1515
1028.90 0.1515
1029.00 0.1514
1029.10 0.1514
1029.20 0.1514
1029.30 0.1513
1029.40 0.1513
1029.50 0.1513
1029.60 0.1512
1029.70 0.1512
1029.80 0.1512
1029.90 0.1511
1030.00 0.1511
1030.10 0.151
1030.20 0.151
1030.30 0.151
1030.40 0.1509
1030.50 0.1509
1030.60 0.1509
1030.70 0.1508
1030.80 0.1508
1030.90 0.1508
1031.00 0.1507
1031.10 0.1507
1031.20 0.1506
1031.30 0.1506
1031.40 0.1506
1031.50 0.1505
1031.60 0.1505
1031.70 0.1505
1031.80 0.1504
1031.90 0.1504
1032.00 0.1504
1032.10 0.1503
1032.20 0.1503
1032.30 0.1502
1032.40 0.1502
1032.50 0.1502
1032.60 0.1501
1032.70 0.1501
1032.80 0.15
1032.90 0.15
1033.00 0.15
1033.10 0.1499
1033.20 0.1499
1033.30 0.1498
1033.40 0.1498
1033.50 0.1498
1033.60 0.1497
1033.70 0.1497
1033.80 0.1497
1033.90 0.1496
1034.00 0.1496
1034.10 0.1495
1034.20 0.1495
1034.30 0.1495
1034.40 0.1494
1034.50 0.1494
1034.60 0.1493
1034.70 0.1493
1034.80 0.1493
1034.90 0.1492
1035.00 0.1492
1035.10 0.1491
1035.20 0.1491
1035.30 0.1491
1035.40 0.149
1035.50 0.149
1035.60 0.1489
1035.70 0.1489
1035.80 0.1489
1035.90 0.1488
1036.00 0.1488
1036.10 0.1488
1036.20 0.1487
1036.30 0.1487
1036.40 0.1486
1036.50 0.1486
1036.60 0.1486
1036.70 0.1485
1036.80 0.1485
1036.90 0.1484
1037.00 0.1484
1037.10 0.1484
1037.20 0.1483
1037.30 0.1483
1037.40 0.1482
1037.50 0.1482
1037.60 0.1482
1037.70 0.1481
1037.80 0.1481
1037.90 0.148
1038.00 0.148
1038.10 0.148
1038.20 0.1479
1038.30 0.1479
1038.40 0.1478
1038.50 0.1478
1038.60 0.1477
1038.70 0.1477
1038.80 0.1477
1038.90 0.1476
1039.00 0.1476
1039.10 0.1475
1039.20 0.1475
1039.30 0.1475
1039.40 0.1474
1039.50 0.1474
1039.60 0.1473
1039.70 0.1473
1039.80 0.1473
1039.90 0.1472
1040.00 0.1472
1040.10 0.1471
1040.20 0.1471
1040.30 0.1471
1040.40 0.147
1040.50 0.147
1040.60 0.1469
1040.70 0.1469
1040.80 0.1469
1040.90 0.1468
1041.00 0.1468
1041.10 0.1467
1041.20 0.1467
1041.30 0.1467
1041.40 0.1466
1041.50 0.1466
1041.60 0.1465
1041.70 0.1465
1041.80 0.1465
1041.90 0.1464
1042.00 0.1464
1042.10 0.1463
1042.20 0.1463
1042.30 0.1462
1042.40 0.1462
1042.50 0.1462
1042.60 0.1461
1042.70 0.1461
1042.80 0.146
1042.90 0.146
1043.00 0.146
1043.10 0.1459
1043.20 0.1459
1043.30 0.1458
1043.40 0.1458
1043.50 0.1457
1043.60 0.1457
1043.70 0.1457
1043.80 0.1456
1043.90 0.1456
1044.00 0.1455
1044.10 0.1455
1044.20 0.1455
1044.30 0.1454
1044.40 0.1454
1044.50 0.1453
1044.60 0.1453
1044.70 0.1453
1044.80 0.1452
1044.90 0.1452
1045.00 0.1451
1045.10 0.1451
1045.20 0.145
1045.30 0.145
1045.40 0.145
1045.50 0.1449
1045.60 0.1449
1045.70 0.1448
1045.80 0.1448
1045.90 0.1448
1046.00 0.1447
1046.10 0.1447
1046.20 0.1446
1046.30 0.1446
1046.40 0.1445
1046.50 0.1445
1046.60 0.1445
1046.70 0.1444
1046.80 0.1444
1046.90 0.1443
1047.00 0.1443
1047.10 0.1443
1047.20 0.1442
1047.30 0.1442
1047.40 0.1441
1047.50 0.1441
1047.60 0.144
1047.70 0.144
1047.80 0.144
1047.90 0.1439
1048.00 0.1439
1048.10 0.1438
1048.20 0.1438
1048.30 0.1438
1048.40 0.1437
1048.50 0.1437
1048.60 0.1436
1048.70 0.1436
1048.80 0.1435
1048.90 0.1435
1049.00 0.1435
1049.10 0.1434
1049.20 0.1434
1049.30 0.1433
1049.40 0.1433
1049.50 0.1433
1049.60 0.1432
1049.70 0.1432
1049.80 0.1431
1049.90 0.1431
1050.00 0.143
1050.10 0.143
1050.20 0.143
1050.30 0.1429
1050.40 0.1429
1050.50 0.1428
1050.60 0.1428
1050.70 0.1428
1050.80 0.1427
1050.90 0.1427
1051.00 0.1426
1051.10 0.1426
1051.20 0.1425
1051.30 0.1425
1051.40 0.1425
1051.50 0.1424
1051.60 0.1424
1051.70 0.1423
1051.80 0.1423
1051.90 0.1423
1052.00 0.1422
1052.10 0.1422
1052.20 0.1421
1052.30 0.1421
1052.40 0.142
1052.50 0.142
1052.60 0.142
1052.70 0.1419
1052.80 0.1419
1052.90 0.1418
1053.00 0.1418
1053.10 0.1417
1053.20 0.1417
1053.30 0.1417
1053.40 0.1416
1053.50 0.1416
1053.60 0.1415
1053.70 0.1415
1053.80 0.1414
1053.90 0.1414
1054.00 0.1414
1054.10 0.1413
1054.20 0.1413
1054.30 0.1412
1054.40 0.1412
1054.50 0.1411
1054.60 0.1411
1054.70 0.1411
1054.80 0.141
1054.90 0.141
1055.00 0.1409
1055.10 0.1409
1055.20 0.1409
1055.30 0.1408
1055.40 0.1408
1055.50 0.1407
1055.60 0.1407
1055.70 0.1406
1055.80 0.1406
1055.90 0.1406
1056.00 0.1405
1056.10 0.1405
1056.20 0.1404
1056.30 0.1404
1056.40 0.1403
1056.50 0.1403
1056.60 0.1403
1056.70 0.1402
1056.80 0.1402
1056.90 0.1401
1057.00 0.1401
1057.10 0.14
1057.20 0.14
1057.30 0.14
1057.40 0.1399
1057.50 0.1399
1057.60 0.1398
1057.70 0.1398
1057.80 0.1397
1057.90 0.1397
1058.00 0.1397
1058.10 0.1396
1058.20 0.1396
1058.30 0.1395
1058.40 0.1395
1058.50 0.1394
1058.60 0.1394
1058.70 0.1393
1058.80 0.1393
1058.90 0.1393
1059.00 0.1392
1059.10 0.1392
1059.20 0.1391
1059.30 0.1391
1059.40 0.139
1059.50 0.139
1059.60 0.139
1059.70 0.1389
1059.80 0.1389
1059.90 0.1388
1060.00 0.1388
1060.10 0.1387
1060.20 0.1387
1060.30 0.1386
1060.40 0.1386
1060.50 0.1386
1060.60 0.1385
1060.70 0.1385
1060.80 0.1384
1060.90 0.1384
1061.00 0.1383
1061.10 0.1383
1061.20 0.1383
1061.30 0.1382
1061.40 0.1382
1061.50 0.1381
1061.60 0.1381
1061.70 0.138
1061.80 0.138
1061.90 0.138
1062.00 0.1379
1062.10 0.1379
1062.20 0.1378
1062.30 0.1378
1062.40 0.1377
1062.50 0.1377
1062.60 0.1376
1062.70 0.1376
1062.80 0.1375
1062.90 0.1375
1063.00 0.1375
1063.10 0.1374
1063.20 0.1374
1063.30 0.1373
1063.40 0.1373
1063.50 0.1372
1063.60 0.1372
1063.70 0.1371
1063.80 0.1371
1063.90 0.137
1064.00 0.137
1064.10 0.1369
1064.20 0.1369
1064.30 0.1369
1064.40 0.1368
1064.50 0.1368
1064.60 0.1367
1064.70 0.1367
1064.80 0.1366
1064.90 0.1366
1065.00 0.1365
1065.10 0.1365
1065.20 0.1364
1065.30 0.1364
1065.40 0.1364
1065.50 0.1363
1065.60 0.1363
1065.70 0.1362
1065.80 0.1362
1065.90 0.1361
1066.00 0.1361
1066.10 0.136
1066.20 0.136
1066.30 0.136
1066.40 0.1359
1066.50 0.1359
1066.60 0.1358
1066.70 0.1358
1066.80 0.1357
1066.90 0.1357
1067.00 0.1356
1067.10 0.1356
1067.20 0.1355
1067.30 0.1355
1067.40 0.1354
1067.50 0.1354
1067.60 0.1353
1067.70 0.1353
1067.80 0.1352
1067.90 0.1352
1068.00 0.1351
1068.10 0.1351
1068.20 0.135
1068.30 0.135
1068.40 0.1349
1068.50 0.1349
1068.60 0.1348
1068.70 0.1348
1068.80 0.1347
1068.90 0.1347
1069.00 0.1346
1069.10 0.1346
1069.20 0.1345
1069.30 0.1345
1069.40 0.1344
1069.50 0.1344
1069.60 0.1343
1069.70 0.1343
1069.80 0.1342
1069.90 0.1342
1070.00 0.1341
1070.10 0.1341
1070.20 0.134
1070.30 0.134
1070.40 0.1339
1070.50 0.1339
1070.60 0.1338
1070.70 0.1338
1070.80 0.1337
1070.90 0.1337
1071.00 0.1336
1071.10 0.1336
1071.20 0.1335
1071.30 0.1335
1071.40 0.1334
1071.50 0.1334
1071.60 0.1333
1071.70 0.1333
1071.80 0.1332
1071.90 0.1332
1072.00 0.1331
1072.10 0.1331
1072.20 0.133
1072.30 0.133
1072.40 0.1329
1072.50 0.1329
1072.60 0.1328
1072.70 0.1328
1072.80 0.1327
1072.90 0.1327
1073.00 0.1326
1073.10 0.1325
1073.20 0.1325
1073.30 0.1324
1073.40 0.1324
1073.50 0.1323
1073.60 0.1323
1073.70 0.1322
1073.80 0.1322
1073.90 0.1321
1074.00 0.132
1074.10 0.132
1074.20 0.1319
1074.30 0.1319
1074.40 0.1318
1074.50 0.1317
1074.60 0.1317
1074.70 0.1316
1074.80 0.1316
1074.90 0.1315
1075.00 0.1314
1075.10 0.1314
1075.20 0.1313
1075.30 0.1313
1075.40 0.1312
1075.50 0.1311
1075.60 0.1311
1075.70 0.131
1075.80 0.131
1075.90 0.1309
1076.00 0.1308
1076.10 0.1308
1076.20 0.1307
1076.30 0.1307
1076.40 0.1306
1076.50 0.1305
1076.60 0.1305
1076.70 0.1304
1076.80 0.1304
1076.90 0.1303
1077.00 0.1303
1077.10 0.1302
1077.20 0.1301
1077.30 0.1301
1077.40 0.13
1077.50 0.1299
1077.60 0.1298
1077.70 0.1298
1077.80 0.1297
1077.90 0.1296
1078.00 0.1296
1078.10 0.1295
1078.20 0.1294
1078.30 0.1294
1078.40 0.1293
1078.50 0.1292
1078.60 0.1291
1078.70 0.1291
1078.80 0.129
1078.90 0.1289
1079.00 0.1289
1079.10 0.1288
1079.20 0.1287
1079.30 0.1287
1079.40 0.1286
1079.50 0.1285
1079.60 0.1284
1079.70 0.1284
1079.80 0.1283
1079.90 0.1282
1080.00 0.1281
1080.10 0.128
1080.20 0.128
1080.30 0.1279
1080.40 0.1278
1080.50 0.1277
1080.60 0.1276
1080.70 0.1275
1080.80 0.1275
1080.90 0.1274
1081.00 0.1273
1081.10 0.1272
1081.20 0.1271
1081.30 0.1271
1081.40 0.127
1081.50 0.1269
1081.60 0.1268
1081.70 0.1267
1081.80 0.1266
1081.90 0.1266
1082.00 0.1265
1082.10 0.1264
1082.20 0.1263
1082.30 0.1262
1082.40 0.1261
1082.50 0.126
1082.60 0.1259
1082.70 0.1258
1082.80 0.1257
1082.90 0.1256
1083.00 0.1255
1083.10 0.1254
1083.20 0.1253
1083.30 0.1252
1083.40 0.1251
1083.50 0.125
1083.60 0.1249
1083.70 0.1248
1083.80 0.1247
1083.90 0.1246
1084.00 0.1245
1084.10 0.1244
1084.20 0.1242
1084.30 0.1241
1084.40 0.124
1084.50 0.1239
1084.60 0.1238
1084.70 0.1237
1084.80 0.1235
1084.90 0.1234
1085.00 0.1233
1085.10 0.1231
1085.20 0.123
1085.30 0.1229
1085.40 0.1228
1085.50 0.1226
1085.60 0.1225
1085.70 0.1224
1085.80 0.1222
1085.90 0.1221
1086.00 0.122
1086.10 0.1218
1086.20 0.1217
1086.30 0.1216
1086.40 0.1215
1086.50 0.1213
1086.60 0.1212
1086.70 0.121
1086.80 0.1209
1086.90 0.1207
1087.00 0.1206
1087.10 0.1204
1087.20 0.1202
1087.30 0.12
1087.40 0.1198
1087.50 0.1197
1087.60 0.1195
1087.70 0.1193
1087.80 0.1191
1087.90 0.119
1088.00 0.1188
1088.10 0.1186
1088.20 0.1184
1088.30 0.1182
1088.40 0.1181
1088.50 0.1179
1088.60 0.1176
1088.70 0.1173
1088.80 0.1171
1088.90 0.1168
1089.00 0.1166
1089.10 0.1163
1089.20 0.1161
1089.30 0.1158
1089.40 0.1156
1089.50 0.1153
1089.60 0.1151
1089.70 0.1148
1089.80 0.1145
1089.90 0.1143
1090.00 0.114
1090.10 0.1138
1090.20 0.1135
1090.30 0.1133
1090.40 0.113
1090.50 0.1127
1090.60 0.1124
1090.70 0.112
1090.80 0.1116
1090.90 0.1113
1091.00 0.1109
1091.10 0.1106
1091.20 0.1102
1091.30 0.1098
1091.40 0.1095
1091.50 0.1091
1091.60 0.1088
1091.70 0.1084
1091.80 0.108
1091.90 0.1077
1092.00 0.1073
1092.10 0.107
1092.20 0.1066
1092.30 0.1063
1092.40 0.1059
1092.50 0.1056
1092.60 0.1052
1092.70 0.105
1092.80 0.1048
1092.90 0.1047
1093.00 0.1045
1093.10 0.1045
1093.20 0.1049
1093.30 0.1053
1093.40 0.1062
1093.50 0.1065
1093.60 0.1056
1093.70 0.1049
1093.80 0.1045
1093.90 0.1042
1094.00 0.1043
1094.10 0.1044
1094.20 0.1045
1094.30 0.1046
1094.40 0.1049
1094.50 0.1052
1094.60 0.1055
1094.70 0.1058
1094.80 0.1061
1094.90 0.1064
1095.00 0.1066
1095.10 0.1069
1095.20 0.1072
1095.30 0.1075
1095.40 0.1078
1095.50 0.1081
1095.60 0.1084
1095.70 0.1087
1095.80 0.109
1095.90 0.1093
1096.00 0.1096
1096.10 0.1099
1096.20 0.1102
1096.30 0.1105
1096.40 0.1108
1096.50 0.111
1096.60 0.1113
1096.70 0.1115
1096.80 0.1117
1096.90 0.112
1097.00 0.1122
1097.10 0.1124
1097.20 0.1125
1097.30 0.1127
1097.40 0.1129
1097.50 0.113
1097.60 0.1132
1097.70 0.1134
1097.80 0.1136
1097.90 0.1137
1098.00 0.1139
1098.10 0.1141
1098.20 0.1142
1098.30 0.1144
1098.40 0.1146
1098.50 0.1147
1098.60 0.1148
1098.70 0.1149
1098.80 0.115
1098.90 0.1151
1099.00 0.1152
1099.10 0.1153
1099.20 0.1154
1099.30 0.1155
1099.40 0.1156
1099.50 0.1157
1099.60 0.1158
1099.70 0.1159
1099.80 0.116
1099.90 0.1161
1100.00 0.1162
1100.10 0.1163
1100.20 0.1164
1100.30 0.1165
1100.40 0.1166
1100.50 0.1167
1100.60 0.1168
1100.70 0.1168
1100.80 0.1169
1100.90 0.117
1101.00 0.117
1101.10 0.1171
1101.20 0.1171
1101.30 0.1172
1101.40 0.1173
1101.50 0.1173
1101.60 0.1174
1101.70 0.1174
1101.80 0.1175
1101.90 0.1176
1102.00 0.1176
1102.10 0.1177
1102.20 0.1177
1102.30 0.1178
1102.40 0.1178
1102.50 0.1178
1102.60 0.1179
1102.70 0.1179
1102.80 0.118
1102.90 0.118
1103.00 0.118
1103.10 0.1181
1103.20 0.1181
1103.30 0.1181
1103.40 0.1182
1103.50 0.1182
1103.60 0.1182
1103.70 0.1182
1103.80 0.1183
1103.90 0.1183
1104.00 0.1183
1104.10 0.1183
1104.20 0.1184
1104.30 0.1184
1104.40 0.1184
1104.50 0.1184
1104.60 0.1184
1104.70 0.1185
1104.80 0.1185
1104.90 0.1185
1105.00 0.1185
1105.10 0.1186
1105.20 0.1186
1105.30 0.1186
1105.40 0.1186
1105.50 0.1186
1105.60 0.1187
1105.70 0.1187
1105.80 0.1187
1105.90 0.1187
1106.00 0.1187
1106.10 0.1187
1106.20 0.1187
1106.30 0.1187
1106.40 0.1187
1106.50 0.1187
1106.60 0.1187
1106.70 0.1187
1106.80 0.1188
1106.90 0.1188
1107.00 0.1188
1107.10 0.1188
1107.20 0.1188
1107.30 0.1188
1107.40 0.1188
1107.50 0.1188
1107.60 0.1188
1107.70 0.1188
1107.80 0.1188
1107.90 0.1188
1108.00 0.1188
1108.10 0.1188
1108.20 0.1188
1108.30 0.1188
1108.40 0.1188
1108.50 0.1188
1108.60 0.1188
1108.70 0.1188
1108.80 0.1188
1108.90 0.1188
1109.00 0.1188
1109.10 0.1188
1109.20 0.1188
1109.30 0.1188
1109.40 0.1188
1109.50 0.1188
1109.60 0.1187
1109.70 0.1187
1109.80 0.1187
1109.90 0.1187
1110.00 0.1187
1110.10 0.1187
1110.20 0.1187
1110.30 0.1187
1110.40 0.1187
1110.50 0.1187
1110.60 0.1186
1110.70 0.1186
1110.80 0.1186
1110.90 0.1186
1111.00 0.1186
1111.10 0.1186
1111.20 0.1186
1111.30 0.1186
1111.40 0.1186
1111.50 0.1186
1111.60 0.1185
1111.70 0.1185
1111.80 0.1185
1111.90 0.1185
1112.00 0.1185
1112.10 0.1185
1112.20 0.1185
1112.30 0.1185
1112.40 0.1184
1112.50 0.1184
1112.60 0.1184
1112.70 0.1184
1112.80 0.1184
1112.90 0.1184
1113.00 0.1184
1113.10 0.1183
1113.20 0.1183
1113.30 0.1183
1113.40 0.1183
1113.50 0.1183
1113.60 0.1183
1113.70 0.1182
1113.80 0.1182
1113.90 0.1182
1114.00 0.1182
1114.10 0.1182
1114.20 0.1181
1114.30 0.1181
1114.40 0.1181
1114.50 0.1181
1114.60 0.1181
1114.70 0.118
1114.80 0.118
1114.90 0.118
1115.00 0.118
1115.10 0.118
1115.20 0.1179
1115.30 0.1179
1115.40 0.1179
1115.50 0.1179
1115.60 0.1179
1115.70 0.1178
1115.80 0.1178
1115.90 0.1178
1116.00 0.1178
1116.10 0.1178
1116.20 0.1177
1116.30 0.1177
1116.40 0.1177
1116.50 0.1177
1116.60 0.1177
1116.70 0.1177
1116.80 0.1176
1116.90 0.1176
1117.00 0.1176
1117.10 0.1176
1117.20 0.1175
1117.30 0.1175
1117.40 0.1175
1117.50 0.1175
1117.60 0.1175
1117.70 0.1174
1117.80 0.1174
1117.90 0.1174
1118.00 0.1174
1118.10 0.1173
1118.20 0.1173
1118.30 0.1173
1118.40 0.1173
1118.50 0.1172
1118.60 0.1172
1118.70 0.1172
1118.80 0.1172
1118.90 0.1171
1119.00 0.1171
1119.10 0.1171
1119.20 0.1171
1119.30 0.117
1119.40 0.117
1119.50 0.117
1119.60 0.117
1119.70 0.1169
1119.80 0.1169
1119.90 0.1169
1120.00 0.1169
1120.10 0.1168
1120.20 0.1168
1120.30 0.1168
1120.40 0.1168
1120.50 0.1168
1120.60 0.1167
1120.70 0.1167
1120.80 0.1167
1120.90 0.1167
1121.00 0.1166
1121.10 0.1166
1121.20 0.1166
1121.30 0.1166
1121.40 0.1165
1121.50 0.1165
1121.60 0.1165
1121.70 0.1165
1121.80 0.1164
1121.90 0.1164
1122.00 0.1164
1122.10 0.1164
1122.20 0.1163
1122.30 0.1163
1122.40 0.1163
1122.50 0.1163
1122.60 0.1162
1122.70 0.1162
1122.80 0.1162
1122.90 0.1162
1123.00 0.1161
1123.10 0.1161
1123.20 0.1161
1123.30 0.116
1123.40 0.116
1123.50 0.116
1123.60 0.116
1123.70 0.1159
1123.80 0.1159
1123.90 0.1159
1124.00 0.1159
1124.10 0.1158
1124.20 0.1158
1124.30 0.1158
1124.40 0.1157
1124.50 0.1157
1124.60 0.1157
1124.70 0.1157
1124.80 0.1156
1124.90 0.1156
1125.00 0.1156
1125.10 0.1156
1125.20 0.1155
1125.30 0.1155
1125.40 0.1155
1125.50 0.1155
1125.60 0.1154
1125.70 0.1154
1125.80 0.1154
1125.90 0.1153
1126.00 0.1153
1126.10 0.1153
1126.20 0.1153
1126.30 0.1152
1126.40 0.1152
1126.50 0.1152
1126.60 0.1152
1126.70 0.1151
1126.80 0.1151
1126.90 0.1151
1127.00 0.115
1127.10 0.115
1127.20 0.115
1127.30 0.115
1127.40 0.1149
1127.50 0.1149
1127.60 0.1149
1127.70 0.1149
1127.80 0.1148
1127.90 0.1148
1128.00 0.1148
1128.10 0.1147
1128.20 0.1147
1128.30 0.1147
1128.40 0.1147
1128.50 0.1146
1128.60 0.1146
1128.70 0.1146
1128.80 0.1145
1128.90 0.1145
1129.00 0.1145
1129.10 0.1145
1129.20 0.1144
1129.30 0.1144
1129.40 0.1144
1129.50 0.1143
1129.60 0.1143
1129.70 0.1143
1129.80 0.1143
1129.90 0.1142
1130.00 0.1142
1130.10 0.1142
1130.20 0.1141
1130.30 0.1141
1130.40 0.1141
1130.50 0.1141
1130.60 0.114
1130.70 0.114
1130.80 0.114
1130.90 0.1139
1131.00 0.1139
1131.10 0.1139
1131.20 0.1139
1131.30 0.1138
1131.40 0.1138
1131.50 0.1138
1131.60 0.1138
1131.70 0.1137
1131.80 0.1137
1131.90 0.1137
1132.00 0.1136
1132.10 0.1136
1132.20 0.1136
1132.30 0.1136
1132.40 0.1135
1132.50 0.1135
1132.60 0.1135
1132.70 0.1134
1132.80 0.1134
1132.90 0.1134
1133.00 0.1133
1133.10 0.1133
1133.20 0.1133
1133.30 0.1133
1133.40 0.1132
1133.50 0.1132
1133.60 0.1132
1133.70 0.1131
1133.80 0.1131
1133.90 0.1131
1134.00 0.1131
1134.10 0.113
1134.20 0.113
1134.30 0.113
1134.40 0.1129
1134.50 0.1129
1134.60 0.1129
1134.70 0.1129
1134.80 0.1128
1134.90 0.1128
1135.00 0.1128
1135.10 0.1127
1135.20 0.1127
1135.30 0.1127
1135.40 0.1126
1135.50 0.1126
1135.60 0.1126
1135.70 0.1126
1135.80 0.1125
1135.90 0.1125
1136.00 0.1125
1136.10 0.1124
1136.20 0.1124
1136.30 0.1124
1136.40 0.1124
1136.50 0.1123
1136.60 0.1123
1136.70 0.1123
1136.80 0.1122
1136.90 0.1122
1137.00 0.1122
1137.10 0.1122
1137.20 0.1121
1137.30 0.1121
1137.40 0.1121
1137.50 0.112
1137.60 0.112
1137.70 0.112
1137.80 0.112
1137.90 0.1119
1138.00 0.1119
1138.10 0.1119
1138.20 0.1118
1138.30 0.1118
1138.40 0.1118
1138.50 0.1117
1138.60 0.1117
1138.70 0.1117
1138.80 0.1117
1138.90 0.1116
1139.00 0.1116
1139.10 0.1116
1139.20 0.1115
1139.30 0.1115
1139.40 0.1115
1139.50 0.1115
1139.60 0.1114
1139.70 0.1114
1139.80 0.1114
1139.90 0.1113
1140.00 0.1113
1140.10 0.1113
1140.20 0.1113
1140.30 0.1112
1140.40 0.1112
1140.50 0.1112
1140.60 0.1111
1140.70 0.1111
1140.80 0.1111
1140.90 0.1111
1141.00 0.111
1141.10 0.111
1141.20 0.111
1141.30 0.1109
1141.40 0.1109
1141.50 0.1109
1141.60 0.1109
1141.70 0.1108
1141.80 0.1108
1141.90 0.1108
1142.00 0.1107
1142.10 0.1107
1142.20 0.1107
1142.30 0.1106
1142.40 0.1106
1142.50 0.1106
1142.60 0.1106
1142.70 0.1105
1142.80 0.1105
1142.90 0.1105
1143.00 0.1104
1143.10 0.1104
1143.20 0.1104
1143.30 0.1104
1143.40 0.1103
1143.50 0.1103
1143.60 0.1103
1143.70 0.1102
1143.80 0.1102
1143.90 0.1102
1144.00 0.1102
1144.10 0.1101
1144.20 0.1101
1144.30 0.1101
1144.40 0.11
1144.50 0.11
1144.60 0.11
1144.70 0.11
1144.80 0.1099
1144.90 0.1099
1145.00 0.1099
1145.10 0.1098
1145.20 0.1098
1145.30 0.1098
1145.40 0.1097
1145.50 0.1097
1145.60 0.1097
1145.70 0.1097
1145.80 0.1096
1145.90 0.1096
1146.00 0.1096
1146.10 0.1095
1146.20 0.1095
1146.30 0.1095
1146.40 0.1095
1146.50 0.1094
1146.60 0.1094
1146.70 0.1094
1146.80 0.1093
1146.90 0.1093
1147.00 0.1093
1147.10 0.1093
1147.20 0.1092
1147.30 0.1092
1147.40 0.1092
1147.50 0.1091
1147.60 0.1091
1147.70 0.1091
1147.80 0.1091
1147.90 0.109
1148.00 0.109
1148.10 0.109
1148.20 0.1089
1148.30 0.1089
1148.40 0.1089
1148.50 0.1089
1148.60 0.1088
1148.70 0.1088
1148.80 0.1088
1148.90 0.1087
1149.00 0.1087
1149.10 0.1087
1149.20 0.1087
1149.30 0.1086
1149.40 0.1086
1149.50 0.1086
1149.60 0.1085
1149.70 0.1085
1149.80 0.1085
1149.90 0.1084
1150.00 0.1084
1150.10 0.1084
1150.20 0.1084
1150.30 0.1083
1150.40 0.1083
1150.50 0.1083
1150.60 0.1082
1150.70 0.1082
1150.80 0.1082
1150.90 0.1082
1151.00 0.1081
1151.10 0.1081
1151.20 0.1081
1151.30 0.108
1151.40 0.108
1151.50 0.108
1151.60 0.108
1151.70 0.1079
1151.80 0.1079
1151.90 0.1079
1152.00 0.1078
1152.10 0.1078
1152.20 0.1078
1152.30 0.1078
1152.40 0.1077
1152.50 0.1077
1152.60 0.1077
1152.70 0.1076
1152.80 0.1076
1152.90 0.1076
1153.00 0.1076
1153.10 0.1075
1153.20 0.1075
1153.30 0.1075
1153.40 0.1074
1153.50 0.1074
1153.60 0.1074
1153.70 0.1074
1153.80 0.1073
1153.90 0.1073
1154.00 0.1073
1154.10 0.1072
1154.20 0.1072
1154.30 0.1072
1154.40 0.1072
1154.50 0.1071
1154.60 0.1071
1154.70 0.1071
1154.80 0.107
1154.90 0.107
1155.00 0.107
1155.10 0.107
1155.20 0.1069
1155.30 0.1069
1155.40 0.1069
1155.50 0.1068
1155.60 0.1068
1155.70 0.1068
1155.80 0.1068
1155.90 0.1067
1156.00 0.1067
1156.10 0.1067
1156.20 0.1066
1156.30 0.1066
1156.40 0.1066
1156.50 0.1066
1156.60 0.1065
1156.70 0.1065
1156.80 0.1065
1156.90 0.1064
1157.00 0.1064
1157.10 0.1064
1157.20 0.1064
1157.30 0.1063
1157.40 0.1063
1157.50 0.1063
1157.60 0.1063
1157.70 0.1062
1157.80 0.1062
1157.90 0.1062
1158.00 0.1061
1158.10 0.1061
1158.20 0.1061
1158.30 0.1061
1158.40 0.106
1158.50 0.106
1158.60 0.106
1158.70 0.1059
1158.80 0.1059
1158.90 0.1059
1159.00 0.1059
1159.10 0.1058
1159.20 0.1058
1159.30 0.1058
1159.40 0.1057
1159.50 0.1057
1159.60 0.1057
1159.70 0.1057
1159.80 0.1056
1159.90 0.1056
1160.00 0.1056
1160.10 0.1055
1160.20 0.1055
1160.30 0.1055
1160.40 0.1055
1160.50 0.1054
1160.60 0.1054
1160.70 0.1054
1160.80 0.1053
1160.90 0.1053
1161.00 0.1053
1161.10 0.1053
1161.20 0.1052
1161.30 0.1052
1161.40 0.1052
1161.50 0.1052
1161.60 0.1051
1161.70 0.1051
1161.80 0.1051
1161.90 0.105
1162.00 0.105
1162.10 0.105
1162.20 0.105
1162.30 0.1049
1162.40 0.1049
1162.50 0.1049
1162.60 0.1048
1162.70 0.1048
1162.80 0.1048
1162.90 0.1048
1163.00 0.1047
1163.10 0.1047
1163.20 0.1047
1163.30 0.1047
1163.40 0.1046
1163.50 0.1046
1163.60 0.1046
1163.70 0.1045
1163.80 0.1045
1163.90 0.1045
1164.00 0.1045
1164.10 0.1044
1164.20 0.1044
1164.30 0.1044
1164.40 0.1043
1164.50 0.1043
1164.60 0.1043
1164.70 0.1043
1164.80 0.1042
1164.90 0.1042
1165.00 0.1042
1165.10 0.1042
1165.20 0.1041
1165.30 0.1041
1165.40 0.1041
1165.50 0.104
1165.60 0.104
1165.70 0.104
1165.80 0.104
1165.90 0.1039
1166.00 0.1039
1166.10 0.1039
1166.20 0.1038
1166.30 0.1038
1166.40 0.1038
1166.50 0.1038
1166.60 0.1037
1166.70 0.1037
1166.80 0.1037
1166.90 0.1037
1167.00 0.1036
1167.10 0.1036
1167.20 0.1036
1167.30 0.1035
1167.40 0.1035
1167.50 0.1035
1167.60 0.1035
1167.70 0.1034
1167.80 0.1034
1167.90 0.1034
1168.00 0.1034
1168.10 0.1033
1168.20 0.1033
1168.30 0.1033
1168.40 0.1032
1168.50 0.1032
1168.60 0.1032
1168.70 0.1032
1168.80 0.1031
1168.90 0.1031
1169.00 0.1031
1169.10 0.103
1169.20 0.103
1169.30 0.103
1169.40 0.103
1169.50 0.1029
1169.60 0.1029
1169.70 0.1029
1169.80 0.1029
1169.90 0.1028
1170.00 0.1028
1170.10 0.1028
1170.20 0.1027
1170.30 0.1027
1170.40 0.1027
1170.50 0.1027
1170.60 0.1026
1170.70 0.1026
1170.80 0.1026
1170.90 0.1026
1171.00 0.1025
1171.10 0.1025
1171.20 0.1025
1171.30 0.1024
1171.40 0.1024
1171.50 0.1024
1171.60 0.1024
1171.70 0.1023
1171.80 0.1023
1171.90 0.1023
1172.00 0.1023
1172.10 0.1022
1172.20 0.1022
1172.30 0.1022
1172.40 0.1021
1172.50 0.1021
1172.60 0.1021
1172.70 0.1021
1172.80 0.102
1172.90 0.102
1173.00 0.102
1173.10 0.102
1173.20 0.1019
1173.30 0.1019
1173.40 0.1019
1173.50 0.1018
1173.60 0.1018
1173.70 0.1018
1173.80 0.1018
1173.90 0.1017
1174.00 0.1017
1174.10 0.1017
1174.20 0.1017
1174.30 0.1016
1174.40 0.1016
1174.50 0.1016
1174.60 0.1016
1174.70 0.1015
1174.80 0.1015
1174.90 0.1015
1175.00 0.1014
1175.10 0.1014
1175.20 0.1014
1175.30 0.1014
1175.40 0.1013
1175.50 0.1013
1175.60 0.1013
1175.70 0.1013
1175.80 0.1012
1175.90 0.1012
1176.00 0.1012
1176.10 0.1011
1176.20 0.1011
1176.30 0.1011
1176.40 0.1011
1176.50 0.101
1176.60 0.101
1176.70 0.101
1176.80 0.101
1176.90 0.1009
1177.00 0.1009
1177.10 0.1009
1177.20 0.1009
1177.30 0.1008
1177.40 0.1008
1177.50 0.1008
1177.60 0.1007
1177.70 0.1007
1177.80 0.1007
1177.90 0.1007
1178.00 0.1006
1178.10 0.1006
1178.20 0.1006
1178.30 0.1006
1178.40 0.1005
1178.50 0.1005
1178.60 0.1005
1178.70 0.1005
1178.80 0.1004
1178.90 0.1004
1179.00 0.1004
1179.10 0.1003
1179.20 0.1003
1179.30 0.1003
1179.40 0.1003
1179.50 0.1002
1179.60 0.1002
1179.70 0.1002
1179.80 0.1002
1179.90 0.1001
1180.00 0.1001
1180.10 0.1001
1180.20 0.1001
1180.30 0.1
1180.40 0.1
1180.50 0.09997
1180.60 0.09995
1180.70 0.09992
1180.80 0.09989
1180.90 0.09987
1181.00 0.09984
1181.10 0.09981
1181.20 0.09979
1181.30 0.09976
1181.40 0.09973
1181.50 0.09971
1181.60 0.09968
1181.70 0.09965
1181.80 0.09963
1181.90 0.0996
1182.00 0.09957
1182.10 0.09955
1182.20 0.09952
1182.30 0.0995
1182.40 0.09947
1182.50 0.09944
1182.60 0.09942
1182.70 0.09939
1182.80 0.09936
1182.90 0.09934
1183.00 0.09931
1183.10 0.09928
1183.20 0.09926
1183.30 0.09923
1183.40 0.09921
1183.50 0.09918
1183.60 0.09915
1183.70 0.09913
1183.80 0.0991
1183.90 0.09907
1184.00 0.09905
1184.10 0.09902
1184.20 0.099
1184.30 0.09897
1184.40 0.09894
1184.50 0.09892
1184.60 0.09889
1184.70 0.09887
1184.80 0.09884
1184.90 0.09881
1185.00 0.09879
1185.10 0.09876
1185.20 0.09873
1185.30 0.09871
1185.40 0.09868
1185.50 0.09866
1185.60 0.09863
1185.70 0.0986
1185.80 0.09858
1185.90 0.09855
1186.00 0.09853
1186.10 0.0985
1186.20 0.09847
1186.30 0.09845
1186.40 0.09842
1186.50 0.0984
1186.60 0.09837
1186.70 0.09834
1186.80 0.09832
1186.90 0.09829
1187.00 0.09827
1187.10 0.09824
1187.20 0.09821
1187.30 0.09819
1187.40 0.09816
1187.50 0.09814
1187.60 0.09811
1187.70 0.09808
1187.80 0.09806
1187.90 0.09803
1188.00 0.09801
1188.10 0.09798
1188.20 0.09795
1188.30 0.09793
1188.40 0.0979
1188.50 0.09788
1188.60 0.09785
1188.70 0.09782
1188.80 0.0978
1188.90 0.09777
1189.00 0.09775
1189.10 0.09772
1189.20 0.09769
1189.30 0.09767
1189.40 0.09764
1189.50 0.09762
1189.60 0.09759
1189.70 0.09757
1189.80 0.09754
1189.90 0.09751
1190.00 0.09749
1190.10 0.09746
1190.20 0.09744
1190.30 0.09741
1190.40 0.09739
1190.50 0.09736
1190.60 0.09733
1190.70 0.09731
1190.80 0.09728
1190.90 0.09726
1191.00 0.09723
1191.10 0.0972
1191.20 0.09718
1191.30 0.09715
1191.40 0.09713
1191.50 0.0971
1191.60 0.09708
1191.70 0.09705
1191.80 0.09703
1191.90 0.097
1192.00 0.09697
1192.10 0.09695
1192.20 0.09692
1192.30 0.0969
1192.40 0.09687
1192.50 0.09685
1192.60 0.09682
1192.70 0.09679
1192.80 0.09677
1192.90 0.09674
1193.00 0.09672
1193.10 0.09669
1193.20 0.09667
1193.30 0.09664
1193.40 0.09661
1193.50 0.09659
1193.60 0.09656
1193.70 0.09654
1193.80 0.09651
1193.90 0.09649
1194.00 0.09646
1194.10 0.09644
1194.20 0.09641
1194.30 0.09638
1194.40 0.09636
1194.50 0.09633
1194.60 0.09631
1194.70 0.09628
1194.80 0.09626
1194.90 0.09623
1195.00 0.09621
1195.10 0.09618
1195.20 0.09615
1195.30 0.09613
1195.40 0.0961
1195.50 0.09608
1195.60 0.09605
1195.70 0.09603
1195.80 0.096
1195.90 0.09598
1196.00 0.09595
1196.10 0.09592
1196.20 0.0959
1196.30 0.09587
1196.40 0.09585
1196.50 0.09582
1196.60 0.0958
1196.70 0.09577
1196.80 0.09575
1196.90 0.09572
1197.00 0.0957
1197.10 0.09567
1197.20 0.09565
1197.30 0.09562
1197.40 0.0956
1197.50 0.09557
1197.60 0.09554
1197.70 0.09552
1197.80 0.09549
1197.90 0.09547
1198.00 0.09544
1198.10 0.09542
1198.20 0.09539
1198.30 0.09537
1198.40 0.09534
1198.50 0.09532
1198.60 0.09529
1198.70 0.09527
1198.80 0.09524
1198.90 0.09522
1199.00 0.09519
1199.10 0.09517
1199.20 0.09514
1199.30 0.09512
1199.40 0.09509
1199.50 0.09507
1199.60 0.09504
1199.70 0.09502
1199.80 0.09499
1199.90 0.09497
1200.00 0
