# Version 2.1 - nm, norm@500 to 1, cut digits, bergeron_2750_75.dat_2750
# Wavelength(nm)  Flambda(ergs/cm^s/s/nm)
300.00 0.06658
300.10 0.06677
300.20 0.06697
300.30 0.06716
300.40 0.06736
300.50 0.06756
300.60 0.06775
300.70 0.06795
300.80 0.06814
300.90 0.06833
301.00 0.06853
301.10 0.06872
301.20 0.06892
301.30 0.06911
301.40 0.0693
301.50 0.06949
301.60 0.06969
301.70 0.06988
301.80 0.07007
301.90 0.07027
302.00 0.07046
302.10 0.07066
302.20 0.07086
302.30 0.07107
302.40 0.07127
302.50 0.07147
302.60 0.07167
302.70 0.07188
302.80 0.07208
302.90 0.07228
303.00 0.07248
303.10 0.07268
303.20 0.07288
303.30 0.07308
303.40 0.07328
303.50 0.07348
303.60 0.07368
303.70 0.07388
303.80 0.07408
303.90 0.07428
304.00 0.07448
304.10 0.07469
304.20 0.0749
304.30 0.07511
304.40 0.07532
304.50 0.07553
304.60 0.07574
304.70 0.07595
304.80 0.07616
304.90 0.07637
305.00 0.07658
305.10 0.07678
305.20 0.07699
305.30 0.0772
305.40 0.07741
305.50 0.07761
305.60 0.07782
305.70 0.07803
305.80 0.07823
305.90 0.07844
306.00 0.07865
306.10 0.07887
306.20 0.07908
306.30 0.0793
306.40 0.07952
306.50 0.07974
306.60 0.07995
306.70 0.08017
306.80 0.08039
306.90 0.0806
307.00 0.08082
307.10 0.08103
307.20 0.08125
307.30 0.08147
307.40 0.08168
307.50 0.08189
307.60 0.08211
307.70 0.08232
307.80 0.08254
307.90 0.08275
308.00 0.08297
308.10 0.08319
308.20 0.08341
308.30 0.08364
308.40 0.08386
308.50 0.08409
308.60 0.08431
308.70 0.08454
308.80 0.08476
308.90 0.08499
309.00 0.08521
309.10 0.08543
309.20 0.08566
309.30 0.08588
309.40 0.0861
309.50 0.08632
309.60 0.08654
309.70 0.08676
309.80 0.08699
309.90 0.08721
310.00 0.08744
310.10 0.08766
310.20 0.08789
310.30 0.08813
310.40 0.08836
310.50 0.08859
310.60 0.08883
310.70 0.08906
310.80 0.08929
310.90 0.08952
311.00 0.08976
311.10 0.08999
311.20 0.09022
311.30 0.09045
311.40 0.09068
311.50 0.09091
311.60 0.09114
311.70 0.09137
311.80 0.0916
311.90 0.09182
312.00 0.09205
312.10 0.09228
312.20 0.09251
312.30 0.09275
312.40 0.09299
312.50 0.09323
312.60 0.09347
312.70 0.09371
312.80 0.09395
312.90 0.09419
313.00 0.09443
313.10 0.09467
313.20 0.09491
313.30 0.09514
313.40 0.09538
313.50 0.09562
313.60 0.09585
313.70 0.09609
313.80 0.09633
313.90 0.09657
314.00 0.09681
314.10 0.09705
314.20 0.0973
314.30 0.09755
314.40 0.09779
314.50 0.09804
314.60 0.09829
314.70 0.09854
314.80 0.09878
314.90 0.09903
315.00 0.09927
315.10 0.09952
315.20 0.09977
315.30 0.1
315.40 0.1003
315.50 0.1005
315.60 0.1007
315.70 0.101
315.80 0.1012
315.90 0.1015
316.00 0.1017
316.10 0.102
316.20 0.1022
316.30 0.1025
316.40 0.1027
316.50 0.103
316.60 0.1032
316.70 0.1035
316.80 0.1038
316.90 0.104
317.00 0.1043
317.10 0.1045
317.20 0.1048
317.30 0.105
317.40 0.1053
317.50 0.1055
317.60 0.1058
317.70 0.106
317.80 0.1063
317.90 0.1065
318.00 0.1068
318.10 0.107
318.20 0.1073
318.30 0.1076
318.40 0.1078
318.50 0.1081
318.60 0.1084
318.70 0.1086
318.80 0.1089
318.90 0.1091
319.00 0.1094
319.10 0.1097
319.20 0.1099
319.30 0.1102
319.40 0.1104
319.50 0.1107
319.60 0.111
319.70 0.1112
319.80 0.1115
319.90 0.1117
320.00 0.112
320.10 0.1123
320.20 0.1125
320.30 0.1128
320.40 0.1131
320.50 0.1134
320.60 0.1136
320.70 0.1139
320.80 0.1142
320.90 0.1144
321.00 0.1147
321.10 0.115
321.20 0.1152
321.30 0.1155
321.40 0.1158
321.50 0.116
321.60 0.1163
321.70 0.1166
321.80 0.1168
321.90 0.1171
322.00 0.1174
322.10 0.1177
322.20 0.1179
322.30 0.1182
322.40 0.1185
322.50 0.1188
322.60 0.119
322.70 0.1193
322.80 0.1196
322.90 0.1199
323.00 0.1201
323.10 0.1204
323.20 0.1207
323.30 0.121
323.40 0.1212
323.50 0.1215
323.60 0.1218
323.70 0.1221
323.80 0.1223
323.90 0.1226
324.00 0.1229
324.10 0.1232
324.20 0.1235
324.30 0.1237
324.40 0.124
324.50 0.1243
324.60 0.1246
324.70 0.1249
324.80 0.1252
324.90 0.1255
325.00 0.1257
325.10 0.126
325.20 0.1263
325.30 0.1266
325.40 0.1269
325.50 0.1272
325.60 0.1274
325.70 0.1277
325.80 0.128
325.90 0.1283
326.00 0.1286
326.10 0.1289
326.20 0.1292
326.30 0.1294
326.40 0.1297
326.50 0.13
326.60 0.1303
326.70 0.1306
326.80 0.1309
326.90 0.1312
327.00 0.1315
327.10 0.1318
327.20 0.1321
327.30 0.1324
327.40 0.1327
327.50 0.1329
327.60 0.1332
327.70 0.1335
327.80 0.1338
327.90 0.1341
328.00 0.1344
328.10 0.1347
328.20 0.135
328.30 0.1353
328.40 0.1356
328.50 0.1359
328.60 0.1362
328.70 0.1365
328.80 0.1368
328.90 0.1371
329.00 0.1374
329.10 0.1377
329.20 0.138
329.30 0.1383
329.40 0.1386
329.50 0.1389
329.60 0.1392
329.70 0.1395
329.80 0.1398
329.90 0.1401
330.00 0.1404
330.10 0.1407
330.20 0.141
330.30 0.1413
330.40 0.1416
330.50 0.1419
330.60 0.1422
330.70 0.1425
330.80 0.1428
330.90 0.1431
331.00 0.1434
331.10 0.1438
331.20 0.1441
331.30 0.1444
331.40 0.1447
331.50 0.145
331.60 0.1453
331.70 0.1456
331.80 0.1459
331.90 0.1462
332.00 0.1465
332.10 0.1468
332.20 0.1471
332.30 0.1474
332.40 0.1478
332.50 0.1481
332.60 0.1484
332.70 0.1487
332.80 0.149
332.90 0.1493
333.00 0.1496
333.10 0.15
333.20 0.1503
333.30 0.1506
333.40 0.1509
333.50 0.1512
333.60 0.1515
333.70 0.1518
333.80 0.1521
333.90 0.1525
334.00 0.1528
334.10 0.1531
334.20 0.1534
334.30 0.1537
334.40 0.1541
334.50 0.1544
334.60 0.1547
334.70 0.155
334.80 0.1554
334.90 0.1557
335.00 0.156
335.10 0.1563
335.20 0.1566
335.30 0.157
335.40 0.1573
335.50 0.1576
335.60 0.1579
335.70 0.1582
335.80 0.1586
335.90 0.1589
336.00 0.1592
336.10 0.1595
336.20 0.1599
336.30 0.1602
336.40 0.1605
336.50 0.1609
336.60 0.1612
336.70 0.1615
336.80 0.1618
336.90 0.1622
337.00 0.1625
337.10 0.1628
337.20 0.1632
337.30 0.1635
337.40 0.1638
337.50 0.1641
337.60 0.1645
337.70 0.1648
337.80 0.1651
337.90 0.1654
338.00 0.1658
338.10 0.1661
338.20 0.1664
338.30 0.1668
338.40 0.1671
338.50 0.1675
338.60 0.1678
338.70 0.1681
338.80 0.1685
338.90 0.1688
339.00 0.1692
339.10 0.1695
339.20 0.1698
339.30 0.1702
339.40 0.1705
339.50 0.1708
339.60 0.1712
339.70 0.1715
339.80 0.1718
339.90 0.1722
340.00 0.1725
340.10 0.1728
340.20 0.1732
340.30 0.1735
340.40 0.1739
340.50 0.1742
340.60 0.1746
340.70 0.1749
340.80 0.1753
340.90 0.1756
341.00 0.176
341.10 0.1763
341.20 0.1766
341.30 0.177
341.40 0.1773
341.50 0.1777
341.60 0.178
341.70 0.1783
341.80 0.1787
341.90 0.179
342.00 0.1794
342.10 0.1797
342.20 0.1801
342.30 0.1804
342.40 0.1808
342.50 0.1811
342.60 0.1815
342.70 0.1818
342.80 0.1822
342.90 0.1825
343.00 0.1829
343.10 0.1832
343.20 0.1836
343.30 0.1839
343.40 0.1843
343.50 0.1846
343.60 0.185
343.70 0.1853
343.80 0.1857
343.90 0.186
344.00 0.1864
344.10 0.1867
344.20 0.1871
344.30 0.1875
344.40 0.1878
344.50 0.1882
344.60 0.1886
344.70 0.1889
344.80 0.1893
344.90 0.1896
345.00 0.19
345.10 0.1903
345.20 0.1907
345.30 0.1911
345.40 0.1914
345.50 0.1918
345.60 0.1921
345.70 0.1925
345.80 0.1928
345.90 0.1932
346.00 0.1936
346.10 0.1939
346.20 0.1943
346.30 0.1947
346.40 0.195
346.50 0.1954
346.60 0.1958
346.70 0.1961
346.80 0.1965
346.90 0.1969
347.00 0.1972
347.10 0.1976
347.20 0.198
347.30 0.1983
347.40 0.1987
347.50 0.1991
347.60 0.1994
347.70 0.1998
347.80 0.2001
347.90 0.2005
348.00 0.2009
348.10 0.2012
348.20 0.2016
348.30 0.202
348.40 0.2024
348.50 0.2027
348.60 0.2031
348.70 0.2035
348.80 0.2039
348.90 0.2042
349.00 0.2046
349.10 0.205
349.20 0.2054
349.30 0.2057
349.40 0.2061
349.50 0.2065
349.60 0.2068
349.70 0.2072
349.80 0.2076
349.90 0.208
350.00 0.2083
350.10 0.2087
350.20 0.2091
350.30 0.2095
350.40 0.2099
350.50 0.2102
350.60 0.2106
350.70 0.211
350.80 0.2114
350.90 0.2118
351.00 0.2121
351.10 0.2125
351.20 0.2129
351.30 0.2133
351.40 0.2137
351.50 0.214
351.60 0.2144
351.70 0.2148
351.80 0.2152
351.90 0.2155
352.00 0.2159
352.10 0.2163
352.20 0.2167
352.30 0.2171
352.40 0.2175
352.50 0.2179
352.60 0.2183
352.70 0.2186
352.80 0.219
352.90 0.2194
353.00 0.2198
353.10 0.2202
353.20 0.2206
353.30 0.221
353.40 0.2213
353.50 0.2217
353.60 0.2221
353.70 0.2225
353.80 0.2229
353.90 0.2233
354.00 0.2236
354.10 0.224
354.20 0.2244
354.30 0.2248
354.40 0.2252
354.50 0.2256
354.60 0.226
354.70 0.2264
354.80 0.2268
354.90 0.2272
355.00 0.2276
355.10 0.228
355.20 0.2284
355.30 0.2288
355.40 0.2292
355.50 0.2296
355.60 0.23
355.70 0.2304
355.80 0.2307
355.90 0.2311
356.00 0.2315
356.10 0.2319
356.20 0.2323
356.30 0.2327
356.40 0.2331
356.50 0.2335
356.60 0.2339
356.70 0.2343
356.80 0.2347
356.90 0.2351
357.00 0.2355
357.10 0.2359
357.20 0.2363
357.30 0.2367
357.40 0.2371
357.50 0.2375
357.60 0.2379
357.70 0.2383
357.80 0.2387
357.90 0.2391
358.00 0.2395
358.10 0.2399
358.20 0.2403
358.30 0.2408
358.40 0.2412
358.50 0.2416
358.60 0.242
358.70 0.2424
358.80 0.2428
358.90 0.2432
359.00 0.2436
359.10 0.244
359.20 0.2444
359.30 0.2448
359.40 0.2452
359.50 0.2457
359.60 0.2461
359.70 0.2465
359.80 0.2469
359.90 0.2473
360.00 0.2477
360.10 0.2481
360.20 0.2485
360.30 0.2489
360.40 0.2493
360.50 0.2498
360.60 0.2502
360.70 0.2506
360.80 0.251
360.90 0.2514
361.00 0.2518
361.10 0.2522
361.20 0.2527
361.30 0.2531
361.40 0.2535
361.50 0.2539
361.60 0.2543
361.70 0.2547
361.80 0.2551
361.90 0.2555
362.00 0.2559
362.10 0.2564
362.20 0.2568
362.30 0.2572
362.40 0.2576
362.50 0.258
362.60 0.2585
362.70 0.2589
362.80 0.2593
362.90 0.2597
363.00 0.2601
363.10 0.2606
363.20 0.261
363.30 0.2614
363.40 0.2618
363.50 0.2623
363.60 0.2627
363.70 0.2631
363.80 0.2635
363.90 0.264
364.00 0.2644
364.10 0.2648
364.20 0.2652
364.30 0.2656
364.40 0.2661
364.50 0.2665
364.60 0.2669
364.70 0.2673
364.80 0.2678
364.90 0.2682
365.00 0.2686
365.10 0.2691
365.20 0.2695
365.30 0.2699
365.40 0.2703
365.50 0.2708
365.60 0.2712
365.70 0.2716
365.80 0.272
365.90 0.2725
366.00 0.2729
366.10 0.2733
366.20 0.2738
366.30 0.2742
366.40 0.2746
366.50 0.2751
366.60 0.2755
366.70 0.2759
366.80 0.2764
366.90 0.2768
367.00 0.2772
367.10 0.2777
367.20 0.2781
367.30 0.2785
367.40 0.279
367.50 0.2794
367.60 0.2798
367.70 0.2803
367.80 0.2807
367.90 0.2811
368.00 0.2815
368.10 0.282
368.20 0.2824
368.30 0.2829
368.40 0.2833
368.50 0.2838
368.60 0.2842
368.70 0.2846
368.80 0.2851
368.90 0.2855
369.00 0.286
369.10 0.2864
369.20 0.2868
369.30 0.2873
369.40 0.2877
369.50 0.2882
369.60 0.2886
369.70 0.289
369.80 0.2895
369.90 0.2899
370.00 0.2903
370.10 0.2908
370.20 0.2912
370.30 0.2917
370.40 0.2921
370.50 0.2926
370.60 0.293
370.70 0.2935
370.80 0.2939
370.90 0.2944
371.00 0.2948
371.10 0.2953
371.20 0.2957
371.30 0.2962
371.40 0.2966
371.50 0.297
371.60 0.2975
371.70 0.2979
371.80 0.2984
371.90 0.2988
372.00 0.2992
372.10 0.2997
372.20 0.3002
372.30 0.3006
372.40 0.3011
372.50 0.3015
372.60 0.302
372.70 0.3024
372.80 0.3029
372.90 0.3033
373.00 0.3038
373.10 0.3042
373.20 0.3047
373.30 0.3051
373.40 0.3056
373.50 0.306
373.60 0.3065
373.70 0.3069
373.80 0.3074
373.90 0.3078
374.00 0.3083
374.10 0.3087
374.20 0.3092
374.30 0.3097
374.40 0.3101
374.50 0.3106
374.60 0.311
374.70 0.3115
374.80 0.312
374.90 0.3124
375.00 0.3129
375.10 0.3133
375.20 0.3138
375.30 0.3142
375.40 0.3147
375.50 0.3152
375.60 0.3156
375.70 0.3161
375.80 0.3165
375.90 0.317
376.00 0.3174
376.10 0.3179
376.20 0.3184
376.30 0.3188
376.40 0.3193
376.50 0.3197
376.60 0.3202
376.70 0.3207
376.80 0.3211
376.90 0.3216
377.00 0.322
377.10 0.3225
377.20 0.323
377.30 0.3234
377.40 0.3239
377.50 0.3244
377.60 0.3248
377.70 0.3253
377.80 0.3258
377.90 0.3262
378.00 0.3267
378.10 0.3272
378.20 0.3276
378.30 0.3281
378.40 0.3286
378.50 0.329
378.60 0.3295
378.70 0.33
378.80 0.3304
378.90 0.3309
379.00 0.3314
379.10 0.3318
379.20 0.3323
379.30 0.3328
379.40 0.3332
379.50 0.3337
379.60 0.3342
379.70 0.3347
379.80 0.3351
379.90 0.3356
380.00 0.3361
380.10 0.3365
380.20 0.337
380.30 0.3375
380.40 0.338
380.50 0.3384
380.60 0.3389
380.70 0.3394
380.80 0.3398
380.90 0.3403
381.00 0.3408
381.10 0.3413
381.20 0.3417
381.30 0.3422
381.40 0.3427
381.50 0.3432
381.60 0.3436
381.70 0.3441
381.80 0.3446
381.90 0.3451
382.00 0.3455
382.10 0.346
382.20 0.3465
382.30 0.347
382.40 0.3475
382.50 0.3479
382.60 0.3484
382.70 0.3489
382.80 0.3494
382.90 0.3499
383.00 0.3503
383.10 0.3508
383.20 0.3513
383.30 0.3518
383.40 0.3522
383.50 0.3527
383.60 0.3532
383.70 0.3537
383.80 0.3542
383.90 0.3547
384.00 0.3551
384.10 0.3556
384.20 0.3561
384.30 0.3566
384.40 0.3571
384.50 0.3576
384.60 0.358
384.70 0.3585
384.80 0.359
384.90 0.3595
385.00 0.36
385.10 0.3605
385.20 0.3609
385.30 0.3614
385.40 0.3619
385.50 0.3624
385.60 0.3629
385.70 0.3634
385.80 0.3639
385.90 0.3643
386.00 0.3648
386.10 0.3653
386.20 0.3658
386.30 0.3663
386.40 0.3668
386.50 0.3673
386.60 0.3678
386.70 0.3683
386.80 0.3687
386.90 0.3692
387.00 0.3697
387.10 0.3702
387.20 0.3707
387.30 0.3712
387.40 0.3717
387.50 0.3722
387.60 0.3727
387.70 0.3732
387.80 0.3736
387.90 0.3741
388.00 0.3746
388.10 0.3751
388.20 0.3756
388.30 0.3761
388.40 0.3766
388.50 0.3771
388.60 0.3776
388.70 0.3781
388.80 0.3786
388.90 0.3791
389.00 0.3796
389.10 0.3801
389.20 0.3806
389.30 0.3811
389.40 0.3816
389.50 0.382
389.60 0.3825
389.70 0.383
389.80 0.3835
389.90 0.384
390.00 0.3845
390.10 0.385
390.20 0.3855
390.30 0.386
390.40 0.3865
390.50 0.387
390.60 0.3875
390.70 0.388
390.80 0.3885
390.90 0.389
391.00 0.3895
391.10 0.39
391.20 0.3905
391.30 0.391
391.40 0.3915
391.50 0.392
391.60 0.3925
391.70 0.393
391.80 0.3935
391.90 0.394
392.00 0.3945
392.10 0.395
392.20 0.3955
392.30 0.396
392.40 0.3965
392.50 0.397
392.60 0.3975
392.70 0.398
392.80 0.3986
392.90 0.3991
393.00 0.3996
393.10 0.4001
393.20 0.4006
393.30 0.4011
393.40 0.4016
393.50 0.4021
393.60 0.4026
393.70 0.4031
393.80 0.4036
393.90 0.4041
394.00 0.4046
394.10 0.4051
394.20 0.4056
394.30 0.4061
394.40 0.4066
394.50 0.4072
394.60 0.4077
394.70 0.4082
394.80 0.4087
394.90 0.4092
395.00 0.4097
395.10 0.4102
395.20 0.4107
395.30 0.4112
395.40 0.4117
395.50 0.4122
395.60 0.4128
395.70 0.4133
395.80 0.4138
395.90 0.4143
396.00 0.4148
396.10 0.4153
396.20 0.4158
396.30 0.4163
396.40 0.4168
396.50 0.4174
396.60 0.4179
396.70 0.4184
396.80 0.4189
396.90 0.4194
397.00 0.4199
397.10 0.4204
397.20 0.4209
397.30 0.4215
397.40 0.422
397.50 0.4225
397.60 0.423
397.70 0.4235
397.80 0.424
397.90 0.4245
398.00 0.4251
398.10 0.4256
398.20 0.4261
398.30 0.4266
398.40 0.4271
398.50 0.4276
398.60 0.4282
398.70 0.4287
398.80 0.4292
398.90 0.4297
399.00 0.4302
399.10 0.4308
399.20 0.4313
399.30 0.4318
399.40 0.4323
399.50 0.4328
399.60 0.4333
399.70 0.4339
399.80 0.4344
399.90 0.4349
400.00 0.4354
400.10 0.4359
400.20 0.4365
400.30 0.437
400.40 0.4375
400.50 0.438
400.60 0.4385
400.70 0.4391
400.80 0.4396
400.90 0.4401
401.00 0.4406
401.10 0.4412
401.20 0.4417
401.30 0.4422
401.40 0.4427
401.50 0.4432
401.60 0.4438
401.70 0.4443
401.80 0.4448
401.90 0.4453
402.00 0.4459
402.10 0.4464
402.20 0.4469
402.30 0.4474
402.40 0.448
402.50 0.4485
402.60 0.449
402.70 0.4495
402.80 0.4501
402.90 0.4506
403.00 0.4511
403.10 0.4516
403.20 0.4522
403.30 0.4527
403.40 0.4532
403.50 0.4537
403.60 0.4543
403.70 0.4548
403.80 0.4553
403.90 0.4558
404.00 0.4564
404.10 0.4569
404.20 0.4574
404.30 0.458
404.40 0.4585
404.50 0.459
404.60 0.4595
404.70 0.4601
404.80 0.4606
404.90 0.4611
405.00 0.4617
405.10 0.4622
405.20 0.4627
405.30 0.4633
405.40 0.4638
405.50 0.4643
405.60 0.4648
405.70 0.4654
405.80 0.4659
405.90 0.4664
406.00 0.467
406.10 0.4675
406.20 0.468
406.30 0.4686
406.40 0.4691
406.50 0.4696
406.60 0.4702
406.70 0.4707
406.80 0.4712
406.90 0.4718
407.00 0.4723
407.10 0.4728
407.20 0.4734
407.30 0.4739
407.40 0.4744
407.50 0.475
407.60 0.4755
407.70 0.476
407.80 0.4766
407.90 0.4771
408.00 0.4776
408.10 0.4782
408.20 0.4787
408.30 0.4793
408.40 0.4798
408.50 0.4803
408.60 0.4809
408.70 0.4814
408.80 0.4819
408.90 0.4825
409.00 0.483
409.10 0.4835
409.20 0.4841
409.30 0.4846
409.40 0.4852
409.50 0.4857
409.60 0.4862
409.70 0.4868
409.80 0.4873
409.90 0.4878
410.00 0.4884
410.10 0.4889
410.20 0.4895
410.30 0.49
410.40 0.4905
410.50 0.4911
410.60 0.4916
410.70 0.4922
410.80 0.4927
410.90 0.4932
411.00 0.4938
411.10 0.4943
411.20 0.4949
411.30 0.4954
411.40 0.4959
411.50 0.4965
411.60 0.497
411.70 0.4976
411.80 0.4981
411.90 0.4987
412.00 0.4992
412.10 0.4997
412.20 0.5003
412.30 0.5008
412.40 0.5014
412.50 0.5019
412.60 0.5024
412.70 0.503
412.80 0.5035
412.90 0.5041
413.00 0.5046
413.10 0.5052
413.20 0.5057
413.30 0.5063
413.40 0.5068
413.50 0.5073
413.60 0.5079
413.70 0.5084
413.80 0.509
413.90 0.5095
414.00 0.5101
414.10 0.5106
414.20 0.5112
414.30 0.5117
414.40 0.5122
414.50 0.5128
414.60 0.5133
414.70 0.5139
414.80 0.5144
414.90 0.515
415.00 0.5155
415.10 0.5161
415.20 0.5166
415.30 0.5172
415.40 0.5177
415.50 0.5183
415.60 0.5188
415.70 0.5194
415.80 0.5199
415.90 0.5205
416.00 0.521
416.10 0.5216
416.20 0.5221
416.30 0.5226
416.40 0.5232
416.50 0.5237
416.60 0.5243
416.70 0.5248
416.80 0.5254
416.90 0.5259
417.00 0.5265
417.10 0.527
417.20 0.5276
417.30 0.5281
417.40 0.5287
417.50 0.5292
417.60 0.5298
417.70 0.5303
417.80 0.5309
417.90 0.5314
418.00 0.532
418.10 0.5325
418.20 0.5331
418.30 0.5336
418.40 0.5342
418.50 0.5348
418.60 0.5353
418.70 0.5359
418.80 0.5364
418.90 0.537
419.00 0.5375
419.10 0.5381
419.20 0.5386
419.30 0.5392
419.40 0.5397
419.50 0.5403
419.60 0.5408
419.70 0.5414
419.80 0.542
419.90 0.5425
420.00 0.5431
420.10 0.5436
420.20 0.5442
420.30 0.5447
420.40 0.5453
420.50 0.5458
420.60 0.5464
420.70 0.5469
420.80 0.5475
420.90 0.5481
421.00 0.5486
421.10 0.5492
421.20 0.5497
421.30 0.5503
421.40 0.5508
421.50 0.5514
421.60 0.5519
421.70 0.5525
421.80 0.553
421.90 0.5536
422.00 0.5542
422.10 0.5547
422.20 0.5553
422.30 0.5558
422.40 0.5564
422.50 0.5569
422.60 0.5575
422.70 0.5581
422.80 0.5586
422.90 0.5592
423.00 0.5597
423.10 0.5603
423.20 0.5609
423.30 0.5614
423.40 0.562
423.50 0.5625
423.60 0.5631
423.70 0.5636
423.80 0.5642
423.90 0.5648
424.00 0.5653
424.10 0.5659
424.20 0.5664
424.30 0.567
424.40 0.5676
424.50 0.5681
424.60 0.5687
424.70 0.5692
424.80 0.5698
424.90 0.5704
425.00 0.5709
425.10 0.5715
425.20 0.5721
425.30 0.5726
425.40 0.5731
425.50 0.5737
425.60 0.5743
425.70 0.5748
425.80 0.5754
425.90 0.576
426.00 0.5765
426.10 0.5771
426.20 0.5777
426.30 0.5782
426.40 0.5788
426.50 0.5793
426.60 0.5799
426.70 0.5804
426.80 0.581
426.90 0.5816
427.00 0.5821
427.10 0.5827
427.20 0.5833
427.30 0.5838
427.40 0.5844
427.50 0.5849
427.60 0.5855
427.70 0.5861
427.80 0.5866
427.90 0.5872
428.00 0.5878
428.10 0.5884
428.20 0.5889
428.30 0.5895
428.40 0.59
428.50 0.5906
428.60 0.5912
428.70 0.5917
428.80 0.5923
428.90 0.5928
429.00 0.5934
429.10 0.594
429.20 0.5945
429.30 0.5951
429.40 0.5957
429.50 0.5962
429.60 0.5968
429.70 0.5974
429.80 0.5979
429.90 0.5985
430.00 0.5991
430.10 0.5997
430.20 0.6002
430.30 0.6008
430.40 0.6013
430.50 0.6019
430.60 0.6025
430.70 0.603
430.80 0.6036
430.90 0.6042
431.00 0.6047
431.10 0.6053
431.20 0.6059
431.30 0.6065
431.40 0.607
431.50 0.6075
431.60 0.6081
431.70 0.6087
431.80 0.6093
431.90 0.6098
432.00 0.6104
432.10 0.611
432.20 0.6115
432.30 0.6121
432.40 0.6127
432.50 0.6133
432.60 0.6138
432.70 0.6144
432.80 0.615
432.90 0.6155
433.00 0.6161
433.10 0.6166
433.20 0.6172
433.30 0.6178
433.40 0.6184
433.50 0.6189
433.60 0.6195
433.70 0.6201
433.80 0.6206
433.90 0.6212
434.00 0.6218
434.10 0.6224
434.20 0.6229
434.30 0.6235
434.40 0.6241
434.50 0.6246
434.60 0.6252
434.70 0.6258
434.80 0.6263
434.90 0.6269
435.00 0.6275
435.10 0.628
435.20 0.6286
435.30 0.6292
435.40 0.6298
435.50 0.6303
435.60 0.6309
435.70 0.6315
435.80 0.632
435.90 0.6326
436.00 0.6332
436.10 0.6338
436.20 0.6343
436.30 0.6349
436.40 0.6355
436.50 0.6361
436.60 0.6366
436.70 0.6372
436.80 0.6378
436.90 0.6383
437.00 0.6389
437.10 0.6395
437.20 0.64
437.30 0.6406
437.40 0.6412
437.50 0.6417
437.60 0.6423
437.70 0.6429
437.80 0.6435
437.90 0.6441
438.00 0.6446
438.10 0.6452
438.20 0.6458
438.30 0.6463
438.40 0.6469
438.50 0.6475
438.60 0.648
438.70 0.6486
438.80 0.6492
438.90 0.6498
439.00 0.6503
439.10 0.6509
439.20 0.6515
439.30 0.652
439.40 0.6526
439.50 0.6532
439.60 0.6538
439.70 0.6544
439.80 0.6549
439.90 0.6555
440.00 0.6561
440.10 0.6566
440.20 0.6572
440.30 0.6578
440.40 0.6584
440.50 0.659
440.60 0.6595
440.70 0.6601
440.80 0.6607
440.90 0.6612
441.00 0.6618
441.10 0.6624
441.20 0.663
441.30 0.6635
441.40 0.6641
441.50 0.6647
441.60 0.6653
441.70 0.6658
441.80 0.6664
441.90 0.667
442.00 0.6676
442.10 0.6681
442.20 0.6687
442.30 0.6693
442.40 0.6699
442.50 0.6705
442.60 0.671
442.70 0.6716
442.80 0.6722
442.90 0.6727
443.00 0.6733
443.10 0.6739
443.20 0.6745
443.30 0.675
443.40 0.6756
443.50 0.6762
443.60 0.6768
443.70 0.6773
443.80 0.6779
443.90 0.6785
444.00 0.6791
444.10 0.6796
444.20 0.6802
444.30 0.6808
444.40 0.6814
444.50 0.682
444.60 0.6825
444.70 0.6831
444.80 0.6837
444.90 0.6843
445.00 0.6848
445.10 0.6854
445.20 0.686
445.30 0.6866
445.40 0.6872
445.50 0.6877
445.60 0.6883
445.70 0.6889
445.80 0.6894
445.90 0.69
446.00 0.6906
446.10 0.6912
446.20 0.6918
446.30 0.6923
446.40 0.6929
446.50 0.6935
446.60 0.6941
446.70 0.6946
446.80 0.6952
446.90 0.6958
447.00 0.6964
447.10 0.6969
447.20 0.6975
447.30 0.6981
447.40 0.6987
447.50 0.6993
447.60 0.6998
447.70 0.7004
447.80 0.701
447.90 0.7016
448.00 0.7022
448.10 0.7027
448.20 0.7033
448.30 0.7039
448.40 0.7045
448.50 0.705
448.60 0.7056
448.70 0.7062
448.80 0.7068
448.90 0.7073
449.00 0.7079
449.10 0.7085
449.20 0.7091
449.30 0.7097
449.40 0.7103
449.50 0.7108
449.60 0.7114
449.70 0.712
449.80 0.7126
449.90 0.7131
450.00 0.7137
450.10 0.7143
450.20 0.7149
450.30 0.7154
450.40 0.716
450.50 0.7166
450.60 0.7172
450.70 0.7178
450.80 0.7184
450.90 0.7189
451.00 0.7195
451.10 0.7201
451.20 0.7206
451.30 0.7212
451.40 0.7218
451.50 0.7224
451.60 0.7229
451.70 0.7236
451.80 0.7241
451.90 0.7247
452.00 0.7253
452.10 0.7259
452.20 0.7264
452.30 0.727
452.40 0.7276
452.50 0.7282
452.60 0.7287
452.70 0.7293
452.80 0.7299
452.90 0.7305
453.00 0.7311
453.10 0.7316
453.20 0.7322
453.30 0.7328
453.40 0.7334
453.50 0.734
453.60 0.7345
453.70 0.7351
453.80 0.7357
453.90 0.7363
454.00 0.7369
454.10 0.7374
454.20 0.738
454.30 0.7386
454.40 0.7392
454.50 0.7398
454.60 0.7403
454.70 0.7409
454.80 0.7415
454.90 0.7421
455.00 0.7427
455.10 0.7432
455.20 0.7438
455.30 0.7444
455.40 0.745
455.50 0.7456
455.60 0.7461
455.70 0.7467
455.80 0.7473
455.90 0.7479
456.00 0.7485
456.10 0.749
456.20 0.7496
456.30 0.7502
456.40 0.7508
456.50 0.7514
456.60 0.7519
456.70 0.7525
456.80 0.7531
456.90 0.7537
457.00 0.7543
457.10 0.7548
457.20 0.7554
457.30 0.756
457.40 0.7566
457.50 0.7572
457.60 0.7577
457.70 0.7583
457.80 0.7589
457.90 0.7595
458.00 0.7601
458.10 0.7606
458.20 0.7612
458.30 0.7618
458.40 0.7624
458.50 0.763
458.60 0.7635
458.70 0.7641
458.80 0.7647
458.90 0.7653
459.00 0.7659
459.10 0.7664
459.20 0.767
459.30 0.7676
459.40 0.7682
459.50 0.7688
459.60 0.7693
459.70 0.7699
459.80 0.7705
459.90 0.7711
460.00 0.7717
460.10 0.7722
460.20 0.7728
460.30 0.7734
460.40 0.774
460.50 0.7746
460.60 0.7751
460.70 0.7757
460.80 0.7763
460.90 0.7769
461.00 0.7774
461.10 0.778
461.20 0.7786
461.30 0.7792
461.40 0.7798
461.50 0.7803
461.60 0.7809
461.70 0.7815
461.80 0.7821
461.90 0.7827
462.00 0.7832
462.10 0.7838
462.20 0.7844
462.30 0.785
462.40 0.7856
462.50 0.7861
462.60 0.7867
462.70 0.7873
462.80 0.7879
462.90 0.7884
463.00 0.789
463.10 0.7896
463.20 0.7902
463.30 0.7908
463.40 0.7913
463.50 0.7919
463.60 0.7925
463.70 0.7931
463.80 0.7936
463.90 0.7942
464.00 0.7948
464.10 0.7954
464.20 0.796
464.30 0.7965
464.40 0.7971
464.50 0.7977
464.60 0.7983
464.70 0.7989
464.80 0.7994
464.90 0.8
465.00 0.8006
465.10 0.8012
465.20 0.8017
465.30 0.8023
465.40 0.8029
465.50 0.8035
465.60 0.8041
465.70 0.8046
465.80 0.8052
465.90 0.8058
466.00 0.8064
466.10 0.807
466.20 0.8075
466.30 0.8081
466.40 0.8087
466.50 0.8093
466.60 0.8099
466.70 0.8104
466.80 0.811
466.90 0.8116
467.00 0.8122
467.10 0.8128
467.20 0.8133
467.30 0.8139
467.40 0.8145
467.50 0.8151
467.60 0.8157
467.70 0.8162
467.80 0.8168
467.90 0.8174
468.00 0.8179
468.10 0.8185
468.20 0.8191
468.30 0.8197
468.40 0.8203
468.50 0.8208
468.60 0.8214
468.70 0.822
468.80 0.8226
468.90 0.8231
469.00 0.8237
469.10 0.8243
469.20 0.8249
469.30 0.8255
469.40 0.826
469.50 0.8266
469.60 0.8272
469.70 0.8278
469.80 0.8284
469.90 0.8289
470.00 0.8295
470.10 0.8301
470.20 0.8307
470.30 0.8312
470.40 0.8318
470.50 0.8324
470.60 0.833
470.70 0.8336
470.80 0.8341
470.90 0.8347
471.00 0.8353
471.10 0.8359
471.20 0.8364
471.30 0.837
471.40 0.8376
471.50 0.8382
471.60 0.8388
471.70 0.8393
471.80 0.8399
471.90 0.8405
472.00 0.8411
472.10 0.8416
472.20 0.8422
472.30 0.8428
472.40 0.8434
472.50 0.8439
472.60 0.8445
472.70 0.8451
472.80 0.8457
472.90 0.8463
473.00 0.8468
473.10 0.8474
473.20 0.848
473.30 0.8486
473.40 0.8491
473.50 0.8497
473.60 0.8503
473.70 0.8509
473.80 0.8515
473.90 0.852
474.00 0.8526
474.10 0.8532
474.20 0.8538
474.30 0.8543
474.40 0.8549
474.50 0.8555
474.60 0.8561
474.70 0.8566
474.80 0.8572
474.90 0.8578
475.00 0.8583
475.10 0.8589
475.20 0.8595
475.30 0.8601
475.40 0.8606
475.50 0.8612
475.60 0.8618
475.70 0.8624
475.80 0.863
475.90 0.8635
476.00 0.8641
476.10 0.8647
476.20 0.8652
476.30 0.8658
476.40 0.8664
476.50 0.867
476.60 0.8675
476.70 0.8681
476.80 0.8687
476.90 0.8693
477.00 0.8698
477.10 0.8704
477.20 0.871
477.30 0.8716
477.40 0.8721
477.50 0.8727
477.60 0.8733
477.70 0.8739
477.80 0.8745
477.90 0.875
478.00 0.8756
478.10 0.8762
478.20 0.8768
478.30 0.8773
478.40 0.8779
478.50 0.8785
478.60 0.879
478.70 0.8796
478.80 0.8802
478.90 0.8808
479.00 0.8813
479.10 0.8819
479.20 0.8825
479.30 0.883
479.40 0.8836
479.50 0.8842
479.60 0.8848
479.70 0.8853
479.80 0.8859
479.90 0.8865
480.00 0.8871
480.10 0.8876
480.20 0.8882
480.30 0.8888
480.40 0.8894
480.50 0.8899
480.60 0.8905
480.70 0.8911
480.80 0.8916
480.90 0.8922
481.00 0.8928
481.10 0.8933
481.20 0.8939
481.30 0.8945
481.40 0.8951
481.50 0.8956
481.60 0.8962
481.70 0.8968
481.80 0.8974
481.90 0.8979
482.00 0.8985
482.10 0.8991
482.20 0.8997
482.30 0.9002
482.40 0.9008
482.50 0.9014
482.60 0.9019
482.70 0.9025
482.80 0.9031
482.90 0.9036
483.00 0.9042
483.10 0.9048
483.20 0.9053
483.30 0.9059
483.40 0.9065
483.50 0.9071
483.60 0.9076
483.70 0.9082
483.80 0.9088
483.90 0.9093
484.00 0.9099
484.10 0.9105
484.20 0.911
484.30 0.9116
484.40 0.9122
484.50 0.9128
484.60 0.9133
484.70 0.9139
484.80 0.9145
484.90 0.915
485.00 0.9156
485.10 0.9162
485.20 0.9167
485.30 0.9173
485.40 0.9179
485.50 0.9185
485.60 0.919
485.70 0.9196
485.80 0.9202
485.90 0.9207
486.00 0.9213
486.10 0.9219
486.20 0.9224
486.30 0.923
486.40 0.9236
486.50 0.9242
486.60 0.9247
486.70 0.9253
486.80 0.9259
486.90 0.9264
487.00 0.927
487.10 0.9275
487.20 0.9281
487.30 0.9287
487.40 0.9292
487.50 0.9298
487.60 0.9304
487.70 0.9309
487.80 0.9315
487.90 0.9321
488.00 0.9327
488.10 0.9332
488.20 0.9338
488.30 0.9344
488.40 0.9349
488.50 0.9355
488.60 0.9361
488.70 0.9366
488.80 0.9372
488.90 0.9377
489.00 0.9383
489.10 0.9389
489.20 0.9394
489.30 0.94
489.40 0.9406
489.50 0.9411
489.60 0.9417
489.70 0.9423
489.80 0.9429
489.90 0.9434
490.00 0.944
490.10 0.9446
490.20 0.9451
490.30 0.9457
490.40 0.9463
490.50 0.9468
490.60 0.9474
490.70 0.9479
490.80 0.9485
490.90 0.9491
491.00 0.9496
491.10 0.9502
491.20 0.9508
491.30 0.9513
491.40 0.9519
491.50 0.9525
491.60 0.953
491.70 0.9536
491.80 0.9541
491.90 0.9547
492.00 0.9553
492.10 0.9558
492.20 0.9564
492.30 0.957
492.40 0.9575
492.50 0.9581
492.60 0.9587
492.70 0.9592
492.80 0.9598
492.90 0.9603
493.00 0.9609
493.10 0.9615
493.20 0.962
493.30 0.9626
493.40 0.9631
493.50 0.9637
493.60 0.9643
493.70 0.9648
493.80 0.9654
493.90 0.9659
494.00 0.9665
494.10 0.967
494.20 0.9676
494.30 0.9682
494.40 0.9687
494.50 0.9693
494.60 0.9699
494.70 0.9704
494.80 0.971
494.90 0.9715
495.00 0.9721
495.10 0.9727
495.20 0.9732
495.30 0.9738
495.40 0.9743
495.50 0.9749
495.60 0.9755
495.70 0.976
495.80 0.9766
495.90 0.9771
496.00 0.9777
496.10 0.9783
496.20 0.9788
496.30 0.9794
496.40 0.9799
496.50 0.9805
496.60 0.9811
496.70 0.9816
496.80 0.9822
496.90 0.9827
497.00 0.9833
497.10 0.9838
497.20 0.9844
497.30 0.985
497.40 0.9855
497.50 0.9861
497.60 0.9866
497.70 0.9872
497.80 0.9878
497.90 0.9883
498.00 0.9889
498.10 0.9894
498.20 0.99
498.30 0.9905
498.40 0.9911
498.50 0.9917
498.60 0.9922
498.70 0.9928
498.80 0.9933
498.90 0.9939
499.00 0.9944
499.10 0.995
499.20 0.9955
499.30 0.9961
499.40 0.9967
499.50 0.9972
499.60 0.9978
499.70 0.9983
499.80 0.9989
499.90 0.9994
500.00 1
500.10 1.001
500.20 1.001
500.30 1.002
500.40 1.002
500.50 1.003
500.60 1.003
500.70 1.004
500.80 1.004
500.90 1.005
501.00 1.006
501.10 1.006
501.20 1.007
501.30 1.007
501.40 1.008
501.50 1.008
501.60 1.009
501.70 1.009
501.80 1.01
501.90 1.011
502.00 1.011
502.10 1.012
502.20 1.012
502.30 1.013
502.40 1.013
502.50 1.014
502.60 1.014
502.70 1.015
502.80 1.015
502.90 1.016
503.00 1.017
503.10 1.017
503.20 1.018
503.30 1.018
503.40 1.019
503.50 1.019
503.60 1.02
503.70 1.02
503.80 1.021
503.90 1.022
504.00 1.022
504.10 1.023
504.20 1.023
504.30 1.024
504.40 1.024
504.50 1.025
504.60 1.025
504.70 1.026
504.80 1.026
504.90 1.027
505.00 1.028
505.10 1.028
505.20 1.029
505.30 1.029
505.40 1.03
505.50 1.03
505.60 1.031
505.70 1.031
505.80 1.032
505.90 1.033
506.00 1.033
506.10 1.034
506.20 1.034
506.30 1.035
506.40 1.035
506.50 1.036
506.60 1.036
506.70 1.037
506.80 1.037
506.90 1.038
507.00 1.039
507.10 1.039
507.20 1.04
507.30 1.04
507.40 1.041
507.50 1.041
507.60 1.042
507.70 1.042
507.80 1.043
507.90 1.043
508.00 1.044
508.10 1.045
508.20 1.045
508.30 1.046
508.40 1.046
508.50 1.047
508.60 1.047
508.70 1.048
508.80 1.048
508.90 1.049
509.00 1.049
509.10 1.05
509.20 1.051
509.30 1.051
509.40 1.052
509.50 1.052
509.60 1.053
509.70 1.053
509.80 1.054
509.90 1.054
510.00 1.055
510.10 1.055
510.20 1.056
510.30 1.056
510.40 1.057
510.50 1.058
510.60 1.058
510.70 1.059
510.80 1.059
510.90 1.06
511.00 1.06
511.10 1.061
511.20 1.061
511.30 1.062
511.40 1.062
511.50 1.063
511.60 1.064
511.70 1.064
511.80 1.065
511.90 1.065
512.00 1.066
512.10 1.066
512.20 1.067
512.30 1.067
512.40 1.068
512.50 1.068
512.60 1.069
512.70 1.069
512.80 1.07
512.90 1.071
513.00 1.071
513.10 1.072
513.20 1.072
513.30 1.073
513.40 1.073
513.50 1.074
513.60 1.074
513.70 1.075
513.80 1.075
513.90 1.076
514.00 1.076
514.10 1.077
514.20 1.077
514.30 1.078
514.40 1.079
514.50 1.079
514.60 1.08
514.70 1.08
514.80 1.081
514.90 1.081
515.00 1.082
515.10 1.082
515.20 1.083
515.30 1.083
515.40 1.084
515.50 1.084
515.60 1.085
515.70 1.086
515.80 1.086
515.90 1.087
516.00 1.087
516.10 1.088
516.20 1.088
516.30 1.089
516.40 1.089
516.50 1.09
516.60 1.09
516.70 1.091
516.80 1.091
516.90 1.092
517.00 1.092
517.10 1.093
517.20 1.094
517.30 1.094
517.40 1.095
517.50 1.095
517.60 1.096
517.70 1.096
517.80 1.097
517.90 1.097
518.00 1.098
518.10 1.098
518.20 1.099
518.30 1.099
518.40 1.1
518.50 1.1
518.60 1.101
518.70 1.101
518.80 1.102
518.90 1.103
519.00 1.103
519.10 1.104
519.20 1.104
519.30 1.105
519.40 1.105
519.50 1.106
519.60 1.106
519.70 1.107
519.80 1.107
519.90 1.108
520.00 1.108
520.10 1.109
520.20 1.109
520.30 1.11
520.40 1.11
520.50 1.111
520.60 1.112
520.70 1.112
520.80 1.113
520.90 1.113
521.00 1.114
521.10 1.114
521.20 1.115
521.30 1.115
521.40 1.116
521.50 1.116
521.60 1.117
521.70 1.117
521.80 1.118
521.90 1.118
522.00 1.119
522.10 1.119
522.20 1.12
522.30 1.12
522.40 1.121
522.50 1.121
522.60 1.122
522.70 1.123
522.80 1.123
522.90 1.124
523.00 1.124
523.10 1.125
523.20 1.125
523.30 1.126
523.40 1.126
523.50 1.127
523.60 1.127
523.70 1.128
523.80 1.128
523.90 1.129
524.00 1.129
524.10 1.13
524.20 1.13
524.30 1.131
524.40 1.131
524.50 1.132
524.60 1.132
524.70 1.133
524.80 1.133
524.90 1.134
525.00 1.135
525.10 1.135
525.20 1.136
525.30 1.136
525.40 1.137
525.50 1.137
525.60 1.138
525.70 1.138
525.80 1.139
525.90 1.139
526.00 1.14
526.10 1.14
526.20 1.141
526.30 1.141
526.40 1.142
526.50 1.142
526.60 1.143
526.70 1.143
526.80 1.144
526.90 1.144
527.00 1.145
527.10 1.145
527.20 1.146
527.30 1.146
527.40 1.147
527.50 1.147
527.60 1.148
527.70 1.148
527.80 1.149
527.90 1.15
528.00 1.15
528.10 1.151
528.20 1.151
528.30 1.152
528.40 1.152
528.50 1.153
528.60 1.153
528.70 1.154
528.80 1.154
528.90 1.155
529.00 1.155
529.10 1.156
529.20 1.156
529.30 1.157
529.40 1.157
529.50 1.158
529.60 1.158
529.70 1.159
529.80 1.159
529.90 1.16
530.00 1.16
530.10 1.161
530.20 1.161
530.30 1.162
530.40 1.162
530.50 1.163
530.60 1.163
530.70 1.164
530.80 1.164
530.90 1.165
531.00 1.165
531.10 1.166
531.20 1.166
531.30 1.167
531.40 1.167
531.50 1.168
531.60 1.168
531.70 1.169
531.80 1.169
531.90 1.17
532.00 1.17
532.10 1.171
532.20 1.171
532.30 1.172
532.40 1.172
532.50 1.173
532.60 1.173
532.70 1.174
532.80 1.174
532.90 1.175
533.00 1.176
533.10 1.176
533.20 1.177
533.30 1.177
533.40 1.178
533.50 1.178
533.60 1.179
533.70 1.179
533.80 1.18
533.90 1.18
534.00 1.181
534.10 1.181
534.20 1.182
534.30 1.182
534.40 1.183
534.50 1.183
534.60 1.184
534.70 1.184
534.80 1.185
534.90 1.185
535.00 1.186
535.10 1.186
535.20 1.187
535.30 1.187
535.40 1.188
535.50 1.188
535.60 1.189
535.70 1.189
535.80 1.19
535.90 1.19
536.00 1.191
536.10 1.191
536.20 1.192
536.30 1.192
536.40 1.193
536.50 1.193
536.60 1.194
536.70 1.194
536.80 1.195
536.90 1.195
537.00 1.196
537.10 1.196
537.20 1.197
537.30 1.197
537.40 1.198
537.50 1.198
537.60 1.199
537.70 1.199
537.80 1.2
537.90 1.2
538.00 1.201
538.10 1.201
538.20 1.202
538.30 1.202
538.40 1.203
538.50 1.203
538.60 1.204
538.70 1.204
538.80 1.204
538.90 1.205
539.00 1.205
539.10 1.206
539.20 1.206
539.30 1.207
539.40 1.207
539.50 1.208
539.60 1.208
539.70 1.209
539.80 1.209
539.90 1.21
540.00 1.21
540.10 1.211
540.20 1.211
540.30 1.212
540.40 1.212
540.50 1.213
540.60 1.213
540.70 1.214
540.80 1.214
540.90 1.215
541.00 1.215
541.10 1.216
541.20 1.216
541.30 1.217
541.40 1.217
541.50 1.218
541.60 1.218
541.70 1.219
541.80 1.219
541.90 1.22
542.00 1.22
542.10 1.221
542.20 1.221
542.30 1.222
542.40 1.222
542.50 1.223
542.60 1.223
542.70 1.224
542.80 1.224
542.90 1.225
543.00 1.225
543.10 1.226
543.20 1.226
543.30 1.227
543.40 1.227
543.50 1.227
543.60 1.228
543.70 1.228
543.80 1.229
543.90 1.229
544.00 1.23
544.10 1.23
544.20 1.231
544.30 1.231
544.40 1.232
544.50 1.232
544.60 1.233
544.70 1.233
544.80 1.234
544.90 1.234
545.00 1.235
545.10 1.235
545.20 1.236
545.30 1.236
545.40 1.237
545.50 1.237
545.60 1.238
545.70 1.238
545.80 1.239
545.90 1.239
546.00 1.24
546.10 1.24
546.20 1.24
546.30 1.241
546.40 1.241
546.50 1.242
546.60 1.242
546.70 1.243
546.80 1.243
546.90 1.244
547.00 1.244
547.10 1.245
547.20 1.245
547.30 1.246
547.40 1.246
547.50 1.247
547.60 1.247
547.70 1.248
547.80 1.248
547.90 1.249
548.00 1.249
548.10 1.25
548.20 1.25
548.30 1.251
548.40 1.251
548.50 1.251
548.60 1.252
548.70 1.252
548.80 1.253
548.90 1.253
549.00 1.254
549.10 1.254
549.20 1.255
549.30 1.255
549.40 1.256
549.50 1.256
549.60 1.257
549.70 1.257
549.80 1.258
549.90 1.258
550.00 1.259
550.10 1.259
550.20 1.26
550.30 1.26
550.40 1.26
550.50 1.261
550.60 1.261
550.70 1.262
550.80 1.262
550.90 1.263
551.00 1.263
551.10 1.264
551.20 1.264
551.30 1.265
551.40 1.265
551.50 1.266
551.60 1.266
551.70 1.267
551.80 1.267
551.90 1.267
552.00 1.268
552.10 1.268
552.20 1.269
552.30 1.269
552.40 1.27
552.50 1.27
552.60 1.271
552.70 1.271
552.80 1.272
552.90 1.272
553.00 1.273
553.10 1.273
553.20 1.274
553.30 1.274
553.40 1.274
553.50 1.275
553.60 1.275
553.70 1.276
553.80 1.276
553.90 1.277
554.00 1.277
554.10 1.278
554.20 1.278
554.30 1.279
554.40 1.279
554.50 1.28
554.60 1.28
554.70 1.28
554.80 1.281
554.90 1.281
555.00 1.282
555.10 1.282
555.20 1.283
555.30 1.283
555.40 1.284
555.50 1.284
555.60 1.285
555.70 1.285
555.80 1.286
555.90 1.286
556.00 1.286
556.10 1.287
556.20 1.287
556.30 1.288
556.40 1.288
556.50 1.289
556.60 1.289
556.70 1.29
556.80 1.29
556.90 1.291
557.00 1.291
557.10 1.291
557.20 1.292
557.30 1.292
557.40 1.293
557.50 1.293
557.60 1.294
557.70 1.294
557.80 1.295
557.90 1.295
558.00 1.296
558.10 1.296
558.20 1.296
558.30 1.297
558.40 1.297
558.50 1.298
558.60 1.298
558.70 1.299
558.80 1.299
558.90 1.3
559.00 1.3
559.10 1.301
559.20 1.301
559.30 1.301
559.40 1.302
559.50 1.302
559.60 1.303
559.70 1.303
559.80 1.304
559.90 1.304
560.00 1.305
560.10 1.305
560.20 1.305
560.30 1.306
560.40 1.306
560.50 1.307
560.60 1.307
560.70 1.308
560.80 1.308
560.90 1.309
561.00 1.309
561.10 1.309
561.20 1.31
561.30 1.31
561.40 1.311
561.50 1.311
561.60 1.312
561.70 1.312
561.80 1.313
561.90 1.313
562.00 1.313
562.10 1.314
562.20 1.314
562.30 1.315
562.40 1.315
562.50 1.316
562.60 1.316
562.70 1.317
562.80 1.317
562.90 1.317
563.00 1.318
563.10 1.318
563.20 1.319
563.30 1.319
563.40 1.32
563.50 1.32
563.60 1.321
563.70 1.321
563.80 1.321
563.90 1.322
564.00 1.322
564.10 1.323
564.20 1.323
564.30 1.324
564.40 1.324
564.50 1.325
564.60 1.325
564.70 1.325
564.80 1.326
564.90 1.326
565.00 1.327
565.10 1.327
565.20 1.328
565.30 1.328
565.40 1.328
565.50 1.329
565.60 1.329
565.70 1.33
565.80 1.33
565.90 1.331
566.00 1.331
566.10 1.331
566.20 1.332
566.30 1.332
566.40 1.333
566.50 1.333
566.60 1.334
566.70 1.334
566.80 1.335
566.90 1.335
567.00 1.335
567.10 1.336
567.20 1.336
567.30 1.337
567.40 1.337
567.50 1.338
567.60 1.338
567.70 1.338
567.80 1.339
567.90 1.339
568.00 1.34
568.10 1.34
568.20 1.341
568.30 1.341
568.40 1.341
568.50 1.342
568.60 1.342
568.70 1.343
568.80 1.343
568.90 1.344
569.00 1.344
569.10 1.344
569.20 1.345
569.30 1.345
569.40 1.346
569.50 1.346
569.60 1.347
569.70 1.347
569.80 1.347
569.90 1.348
570.00 1.348
570.10 1.349
570.20 1.349
570.30 1.349
570.40 1.35
570.50 1.35
570.60 1.351
570.70 1.351
570.80 1.352
570.90 1.352
571.00 1.352
571.10 1.353
571.20 1.353
571.30 1.354
571.40 1.354
571.50 1.355
571.60 1.355
571.70 1.355
571.80 1.356
571.90 1.356
572.00 1.357
572.10 1.357
572.20 1.357
572.30 1.358
572.40 1.358
572.50 1.359
572.60 1.359
572.70 1.36
572.80 1.36
572.90 1.36
573.00 1.361
573.10 1.361
573.20 1.362
573.30 1.362
573.40 1.362
573.50 1.363
573.60 1.363
573.70 1.364
573.80 1.364
573.90 1.365
574.00 1.365
574.10 1.365
574.20 1.366
574.30 1.366
574.40 1.367
574.50 1.367
574.60 1.367
574.70 1.368
574.80 1.368
574.90 1.369
575.00 1.369
575.10 1.37
575.20 1.37
575.30 1.37
575.40 1.371
575.50 1.371
575.60 1.372
575.70 1.372
575.80 1.372
575.90 1.373
576.00 1.373
576.10 1.374
576.20 1.374
576.30 1.374
576.40 1.375
576.50 1.375
576.60 1.376
576.70 1.376
576.80 1.376
576.90 1.377
577.00 1.377
577.10 1.378
577.20 1.378
577.30 1.378
577.40 1.379
577.50 1.379
577.60 1.38
577.70 1.38
577.80 1.381
577.90 1.381
578.00 1.381
578.10 1.382
578.20 1.382
578.30 1.383
578.40 1.383
578.50 1.383
578.60 1.384
578.70 1.384
578.80 1.385
578.90 1.385
579.00 1.385
579.10 1.386
579.20 1.386
579.30 1.387
579.40 1.387
579.50 1.387
579.60 1.388
579.70 1.388
579.80 1.389
579.90 1.389
580.00 1.389
580.10 1.39
580.20 1.39
580.30 1.391
580.40 1.391
580.50 1.391
580.60 1.392
580.70 1.392
580.80 1.392
580.90 1.393
581.00 1.393
581.10 1.394
581.20 1.394
581.30 1.394
581.40 1.395
581.50 1.395
581.60 1.396
581.70 1.396
581.80 1.396
581.90 1.397
582.00 1.397
582.10 1.398
582.20 1.398
582.30 1.398
582.40 1.399
582.50 1.399
582.60 1.4
582.70 1.4
582.80 1.4
582.90 1.401
583.00 1.401
583.10 1.401
583.20 1.402
583.30 1.402
583.40 1.403
583.50 1.403
583.60 1.403
583.70 1.404
583.80 1.404
583.90 1.405
584.00 1.405
584.10 1.405
584.20 1.406
584.30 1.406
584.40 1.407
584.50 1.407
584.60 1.407
584.70 1.408
584.80 1.408
584.90 1.408
585.00 1.409
585.10 1.409
585.20 1.41
585.30 1.41
585.40 1.41
585.50 1.411
585.60 1.411
585.70 1.411
585.80 1.412
585.90 1.412
586.00 1.413
586.10 1.413
586.20 1.413
586.30 1.414
586.40 1.414
586.50 1.415
586.60 1.415
586.70 1.415
586.80 1.416
586.90 1.416
587.00 1.416
587.10 1.417
587.20 1.417
587.30 1.418
587.40 1.418
587.50 1.418
587.60 1.419
587.70 1.419
587.80 1.419
587.90 1.42
588.00 1.42
588.10 1.421
588.20 1.421
588.30 1.421
588.40 1.422
588.50 1.422
588.60 1.422
588.70 1.423
588.80 1.423
588.90 1.424
589.00 1.424
589.10 1.424
589.20 1.425
589.30 1.425
589.40 1.425
589.50 1.426
589.60 1.426
589.70 1.426
589.80 1.427
589.90 1.427
590.00 1.428
590.10 1.428
590.20 1.428
590.30 1.429
590.40 1.429
590.50 1.429
590.60 1.43
590.70 1.43
590.80 1.431
590.90 1.431
591.00 1.431
591.10 1.432
591.20 1.432
591.30 1.432
591.40 1.433
591.50 1.433
591.60 1.433
591.70 1.434
591.80 1.434
591.90 1.435
592.00 1.435
592.10 1.435
592.20 1.436
592.30 1.436
592.40 1.436
592.50 1.437
592.60 1.437
592.70 1.437
592.80 1.438
592.90 1.438
593.00 1.438
593.10 1.439
593.20 1.439
593.30 1.44
593.40 1.44
593.50 1.44
593.60 1.441
593.70 1.441
593.80 1.441
593.90 1.442
594.00 1.442
594.10 1.442
594.20 1.443
594.30 1.443
594.40 1.443
594.50 1.444
594.60 1.444
594.70 1.445
594.80 1.445
594.90 1.445
595.00 1.446
595.10 1.446
595.20 1.446
595.30 1.447
595.40 1.447
595.50 1.447
595.60 1.448
595.70 1.448
595.80 1.448
595.90 1.449
596.00 1.449
596.10 1.449
596.20 1.45
596.30 1.45
596.40 1.45
596.50 1.451
596.60 1.451
596.70 1.452
596.80 1.452
596.90 1.452
597.00 1.453
597.10 1.453
597.20 1.453
597.30 1.454
597.40 1.454
597.50 1.454
597.60 1.455
597.70 1.455
597.80 1.455
597.90 1.456
598.00 1.456
598.10 1.456
598.20 1.457
598.30 1.457
598.40 1.457
598.50 1.458
598.60 1.458
598.70 1.458
598.80 1.459
598.90 1.459
599.00 1.459
599.10 1.46
599.20 1.46
599.30 1.46
599.40 1.461
599.50 1.461
599.60 1.461
599.70 1.462
599.80 1.462
599.90 1.462
600.00 1.463
600.10 1.463
600.20 1.463
600.30 1.464
600.40 1.464
600.50 1.464
600.60 1.465
600.70 1.465
600.80 1.465
600.90 1.466
601.00 1.466
601.10 1.466
601.20 1.467
601.30 1.467
601.40 1.467
601.50 1.468
601.60 1.468
601.70 1.468
601.80 1.469
601.90 1.469
602.00 1.469
602.10 1.47
602.20 1.47
602.30 1.47
602.40 1.471
602.50 1.471
602.60 1.471
602.70 1.472
602.80 1.472
602.90 1.472
603.00 1.473
603.10 1.473
603.20 1.473
603.30 1.474
603.40 1.474
603.50 1.474
603.60 1.475
603.70 1.475
603.80 1.475
603.90 1.476
604.00 1.476
604.10 1.476
604.20 1.477
604.30 1.477
604.40 1.477
604.50 1.478
604.60 1.478
604.70 1.478
604.80 1.478
604.90 1.479
605.00 1.479
605.10 1.479
605.20 1.48
605.30 1.48
605.40 1.48
605.50 1.481
605.60 1.481
605.70 1.481
605.80 1.482
605.90 1.482
606.00 1.482
606.10 1.483
606.20 1.483
606.30 1.483
606.40 1.484
606.50 1.484
606.60 1.484
606.70 1.484
606.80 1.485
606.90 1.485
607.00 1.485
607.10 1.486
607.20 1.486
607.30 1.486
607.40 1.487
607.50 1.487
607.60 1.487
607.70 1.488
607.80 1.488
607.90 1.488
608.00 1.489
608.10 1.489
608.20 1.489
608.30 1.489
608.40 1.49
608.50 1.49
608.60 1.49
608.70 1.491
608.80 1.491
608.90 1.491
609.00 1.492
609.10 1.492
609.20 1.492
609.30 1.492
609.40 1.493
609.50 1.493
609.60 1.493
609.70 1.494
609.80 1.494
609.90 1.494
610.00 1.495
610.10 1.495
610.20 1.495
610.30 1.496
610.40 1.496
610.50 1.496
610.60 1.496
610.70 1.497
610.80 1.497
610.90 1.497
611.00 1.498
611.10 1.498
611.20 1.498
611.30 1.498
611.40 1.499
611.50 1.499
611.60 1.499
611.70 1.5
611.80 1.5
611.90 1.5
612.00 1.501
612.10 1.501
612.20 1.501
612.30 1.501
612.40 1.502
612.50 1.502
612.60 1.502
612.70 1.503
612.80 1.503
612.90 1.503
613.00 1.503
613.10 1.504
613.20 1.504
613.30 1.504
613.40 1.505
613.50 1.505
613.60 1.505
613.70 1.505
613.80 1.506
613.90 1.506
614.00 1.506
614.10 1.507
614.20 1.507
614.30 1.507
614.40 1.507
614.50 1.508
614.60 1.508
614.70 1.508
614.80 1.509
614.90 1.509
615.00 1.509
615.10 1.509
615.20 1.51
615.30 1.51
615.40 1.51
615.50 1.511
615.60 1.511
615.70 1.511
615.80 1.511
615.90 1.512
616.00 1.512
616.10 1.512
616.20 1.512
616.30 1.513
616.40 1.513
616.50 1.513
616.60 1.514
616.70 1.514
616.80 1.514
616.90 1.514
617.00 1.515
617.10 1.515
617.20 1.515
617.30 1.515
617.40 1.516
617.50 1.516
617.60 1.516
617.70 1.516
617.80 1.517
617.90 1.517
618.00 1.517
618.10 1.518
618.20 1.518
618.30 1.518
618.40 1.518
618.50 1.519
618.60 1.519
618.70 1.519
618.80 1.519
618.90 1.52
619.00 1.52
619.10 1.52
619.20 1.52
619.30 1.521
619.40 1.521
619.50 1.521
619.60 1.522
619.70 1.522
619.80 1.522
619.90 1.522
620.00 1.523
620.10 1.523
620.20 1.523
620.30 1.523
620.40 1.524
620.50 1.524
620.60 1.524
620.70 1.524
620.80 1.525
620.90 1.525
621.00 1.525
621.10 1.525
621.20 1.526
621.30 1.526
621.40 1.526
621.50 1.526
621.60 1.527
621.70 1.527
621.80 1.527
621.90 1.527
622.00 1.528
622.10 1.528
622.20 1.528
622.30 1.528
622.40 1.529
622.50 1.529
622.60 1.529
622.70 1.529
622.80 1.53
622.90 1.53
623.00 1.53
623.10 1.53
623.20 1.531
623.30 1.531
623.40 1.531
623.50 1.531
623.60 1.532
623.70 1.532
623.80 1.532
623.90 1.532
624.00 1.533
624.10 1.533
624.20 1.533
624.30 1.533
624.40 1.533
624.50 1.534
624.60 1.534
624.70 1.534
624.80 1.534
624.90 1.535
625.00 1.535
625.10 1.535
625.20 1.535
625.30 1.536
625.40 1.536
625.50 1.536
625.60 1.536
625.70 1.537
625.80 1.537
625.90 1.537
626.00 1.537
626.10 1.537
626.20 1.538
626.30 1.538
626.40 1.538
626.50 1.538
626.60 1.539
626.70 1.539
626.80 1.539
626.90 1.539
627.00 1.54
627.10 1.54
627.20 1.54
627.30 1.54
627.40 1.54
627.50 1.541
627.60 1.541
627.70 1.541
627.80 1.541
627.90 1.542
628.00 1.542
628.10 1.542
628.20 1.542
628.30 1.542
628.40 1.543
628.50 1.543
628.60 1.543
628.70 1.543
628.80 1.544
628.90 1.544
629.00 1.544
629.10 1.544
629.20 1.544
629.30 1.545
629.40 1.545
629.50 1.545
629.60 1.545
629.70 1.545
629.80 1.546
629.90 1.546
630.00 1.546
630.10 1.546
630.20 1.547
630.30 1.547
630.40 1.547
630.50 1.547
630.60 1.547
630.70 1.548
630.80 1.548
630.90 1.548
631.00 1.548
631.10 1.548
631.20 1.549
631.30 1.549
631.40 1.549
631.50 1.549
631.60 1.549
631.70 1.55
631.80 1.55
631.90 1.55
632.00 1.55
632.10 1.55
632.20 1.551
632.30 1.551
632.40 1.551
632.50 1.551
632.60 1.551
632.70 1.552
632.80 1.552
632.90 1.552
633.00 1.552
633.10 1.552
633.20 1.553
633.30 1.553
633.40 1.553
633.50 1.553
633.60 1.553
633.70 1.554
633.80 1.554
633.90 1.554
634.00 1.554
634.10 1.554
634.20 1.554
634.30 1.555
634.40 1.555
634.50 1.555
634.60 1.555
634.70 1.555
634.80 1.556
634.90 1.556
635.00 1.556
635.10 1.556
635.20 1.556
635.30 1.557
635.40 1.557
635.50 1.557
635.60 1.557
635.70 1.557
635.80 1.557
635.90 1.558
636.00 1.558
636.10 1.558
636.20 1.558
636.30 1.558
636.40 1.559
636.50 1.559
636.60 1.559
636.70 1.559
636.80 1.559
636.90 1.559
637.00 1.56
637.10 1.56
637.20 1.56
637.30 1.56
637.40 1.56
637.50 1.56
637.60 1.561
637.70 1.561
637.80 1.561
637.90 1.561
638.00 1.561
638.10 1.561
638.20 1.562
638.30 1.562
638.40 1.562
638.50 1.562
638.60 1.562
638.70 1.562
638.80 1.563
638.90 1.563
639.00 1.563
639.10 1.563
639.20 1.563
639.30 1.563
639.40 1.564
639.50 1.564
639.60 1.564
639.70 1.564
639.80 1.564
639.90 1.564
640.00 1.564
640.10 1.565
640.20 1.565
640.30 1.565
640.40 1.565
640.50 1.565
640.60 1.565
640.70 1.566
640.80 1.566
640.90 1.566
641.00 1.566
641.10 1.566
641.20 1.566
641.30 1.566
641.40 1.567
641.50 1.567
641.60 1.567
641.70 1.567
641.80 1.567
641.90 1.567
642.00 1.567
642.10 1.568
642.20 1.568
642.30 1.568
642.40 1.568
642.50 1.568
642.60 1.568
642.70 1.568
642.80 1.569
642.90 1.569
643.00 1.569
643.10 1.569
643.20 1.569
643.30 1.569
643.40 1.569
643.50 1.569
643.60 1.57
643.70 1.57
643.80 1.57
643.90 1.57
644.00 1.57
644.10 1.57
644.20 1.57
644.30 1.57
644.40 1.571
644.50 1.571
644.60 1.571
644.70 1.571
644.80 1.571
644.90 1.571
645.00 1.571
645.10 1.571
645.20 1.572
645.30 1.572
645.40 1.572
645.50 1.572
645.60 1.572
645.70 1.572
645.80 1.572
645.90 1.572
646.00 1.572
646.10 1.573
646.20 1.573
646.30 1.573
646.40 1.573
646.50 1.573
646.60 1.573
646.70 1.573
646.80 1.573
646.90 1.574
647.00 1.574
647.10 1.574
647.20 1.574
647.30 1.574
647.40 1.574
647.50 1.574
647.60 1.574
647.70 1.574
647.80 1.574
647.90 1.575
648.00 1.575
648.10 1.575
648.20 1.575
648.30 1.575
648.40 1.575
648.50 1.575
648.60 1.575
648.70 1.575
648.80 1.575
648.90 1.576
649.00 1.576
649.10 1.576
649.20 1.576
649.30 1.576
649.40 1.576
649.50 1.576
649.60 1.576
649.70 1.576
649.80 1.576
649.90 1.576
650.00 1.576
650.10 1.577
650.20 1.577
650.30 1.577
650.40 1.577
650.50 1.577
650.60 1.577
650.70 1.577
650.80 1.577
650.90 1.577
651.00 1.577
651.10 1.577
651.20 1.577
651.30 1.578
651.40 1.578
651.50 1.578
651.60 1.578
651.70 1.578
651.80 1.578
651.90 1.578
652.00 1.578
652.10 1.578
652.20 1.578
652.30 1.578
652.40 1.578
652.50 1.578
652.60 1.578
652.70 1.578
652.80 1.579
652.90 1.579
653.00 1.579
653.10 1.579
653.20 1.579
653.30 1.579
653.40 1.579
653.50 1.579
653.60 1.579
653.70 1.579
653.80 1.579
653.90 1.579
654.00 1.579
654.10 1.579
654.20 1.579
654.30 1.579
654.40 1.579
654.50 1.579
654.60 1.579
654.70 1.58
654.80 1.58
654.90 1.58
655.00 1.58
655.10 1.58
655.20 1.58
655.30 1.58
655.40 1.58
655.50 1.58
655.60 1.58
655.70 1.58
655.80 1.58
655.90 1.58
656.00 1.58
656.10 1.58
656.20 1.58
656.30 1.58
656.40 1.58
656.50 1.58
656.60 1.58
656.70 1.58
656.80 1.58
656.90 1.58
657.00 1.58
657.10 1.58
657.20 1.58
657.30 1.58
657.40 1.58
657.50 1.58
657.60 1.581
657.70 1.581
657.80 1.581
657.90 1.581
658.00 1.581
658.10 1.581
658.20 1.581
658.30 1.581
658.40 1.581
658.50 1.581
658.60 1.581
658.70 1.581
658.80 1.581
658.90 1.581
659.00 1.581
659.10 1.581
659.20 1.581
659.30 1.581
659.40 1.581
659.50 1.581
659.60 1.581
659.70 1.581
659.80 1.581
659.90 1.581
660.00 1.581
660.10 1.581
660.20 1.581
660.30 1.581
660.40 1.581
660.50 1.581
660.60 1.581
660.70 1.581
660.80 1.581
660.90 1.581
661.00 1.581
661.10 1.581
661.20 1.581
661.30 1.581
661.40 1.581
661.50 1.581
661.60 1.581
661.70 1.581
661.80 1.581
661.90 1.58
662.00 1.58
662.10 1.58
662.20 1.58
662.30 1.58
662.40 1.58
662.50 1.58
662.60 1.58
662.70 1.58
662.80 1.58
662.90 1.58
663.00 1.58
663.10 1.58
663.20 1.58
663.30 1.58
663.40 1.58
663.50 1.58
663.60 1.58
663.70 1.58
663.80 1.58
663.90 1.58
664.00 1.58
664.10 1.58
664.20 1.58
664.30 1.58
664.40 1.58
664.50 1.58
664.60 1.58
664.70 1.579
664.80 1.579
664.90 1.579
665.00 1.579
665.10 1.579
665.20 1.579
665.30 1.579
665.40 1.579
665.50 1.579
665.60 1.579
665.70 1.579
665.80 1.579
665.90 1.579
666.00 1.579
666.10 1.579
666.20 1.579
666.30 1.579
666.40 1.578
666.50 1.578
666.60 1.578
666.70 1.578
666.80 1.578
666.90 1.578
667.00 1.578
667.10 1.578
667.20 1.578
667.30 1.578
667.40 1.578
667.50 1.578
667.60 1.578
667.70 1.577
667.80 1.577
667.90 1.577
668.00 1.577
668.10 1.577
668.20 1.577
668.30 1.577
668.40 1.577
668.50 1.577
668.60 1.577
668.70 1.577
668.80 1.576
668.90 1.576
669.00 1.576
669.10 1.576
669.20 1.576
669.30 1.576
669.40 1.576
669.50 1.576
669.60 1.576
669.70 1.576
669.80 1.575
669.90 1.575
670.00 1.575
670.10 1.575
670.20 1.575
670.30 1.575
670.40 1.575
670.50 1.575
670.60 1.574
670.70 1.574
670.80 1.574
670.90 1.574
671.00 1.574
671.10 1.574
671.20 1.574
671.30 1.574
671.40 1.573
671.50 1.573
671.60 1.573
671.70 1.573
671.80 1.573
671.90 1.573
672.00 1.573
672.10 1.573
672.20 1.572
672.30 1.572
672.40 1.572
672.50 1.572
672.60 1.572
672.70 1.572
672.80 1.571
672.90 1.571
673.00 1.571
673.10 1.571
673.20 1.571
673.30 1.571
673.40 1.571
673.50 1.57
673.60 1.57
673.70 1.57
673.80 1.57
673.90 1.57
674.00 1.57
674.10 1.569
674.20 1.569
674.30 1.569
674.40 1.569
674.50 1.569
674.60 1.569
674.70 1.568
674.80 1.568
674.90 1.568
675.00 1.568
675.10 1.568
675.20 1.568
675.30 1.567
675.40 1.567
675.50 1.567
675.60 1.567
675.70 1.567
675.80 1.566
675.90 1.566
676.00 1.566
676.10 1.566
676.20 1.566
676.30 1.565
676.40 1.565
676.50 1.565
676.60 1.565
676.70 1.565
676.80 1.564
676.90 1.564
677.00 1.564
677.10 1.564
677.20 1.564
677.30 1.563
677.40 1.563
677.50 1.563
677.60 1.563
677.70 1.562
677.80 1.562
677.90 1.562
678.00 1.562
678.10 1.562
678.20 1.561
678.30 1.561
678.40 1.561
678.50 1.561
678.60 1.56
678.70 1.56
678.80 1.56
678.90 1.56
679.00 1.559
679.10 1.559
679.20 1.559
679.30 1.559
679.40 1.559
679.50 1.558
679.60 1.558
679.70 1.558
679.80 1.558
679.90 1.557
680.00 1.557
680.10 1.557
680.20 1.557
680.30 1.556
680.40 1.556
680.50 1.556
680.60 1.555
680.70 1.555
680.80 1.555
680.90 1.555
681.00 1.554
681.10 1.554
681.20 1.554
681.30 1.554
681.40 1.553
681.50 1.553
681.60 1.553
681.70 1.552
681.80 1.552
681.90 1.552
682.00 1.552
682.10 1.551
682.20 1.551
682.30 1.551
682.40 1.55
682.50 1.55
682.60 1.55
682.70 1.55
682.80 1.549
682.90 1.549
683.00 1.549
683.10 1.548
683.20 1.548
683.30 1.548
683.40 1.547
683.50 1.547
683.60 1.547
683.70 1.546
683.80 1.546
683.90 1.546
684.00 1.545
684.10 1.545
684.20 1.545
684.30 1.544
684.40 1.544
684.50 1.544
684.60 1.543
684.70 1.543
684.80 1.543
684.90 1.542
685.00 1.542
685.10 1.542
685.20 1.541
685.30 1.541
685.40 1.541
685.50 1.54
685.60 1.54
685.70 1.54
685.80 1.539
685.90 1.539
686.00 1.539
686.10 1.538
686.20 1.538
686.30 1.538
686.40 1.537
686.50 1.537
686.60 1.536
686.70 1.536
686.80 1.536
686.90 1.535
687.00 1.535
687.10 1.535
687.20 1.534
687.30 1.534
687.40 1.533
687.50 1.533
687.60 1.533
687.70 1.532
687.80 1.532
687.90 1.531
688.00 1.531
688.10 1.531
688.20 1.53
688.30 1.53
688.40 1.53
688.50 1.529
688.60 1.529
688.70 1.528
688.80 1.528
688.90 1.527
689.00 1.527
689.10 1.527
689.20 1.526
689.30 1.526
689.40 1.525
689.50 1.525
689.60 1.524
689.70 1.524
689.80 1.523
689.90 1.523
690.00 1.522
690.10 1.522
690.20 1.521
690.30 1.521
690.40 1.52
690.50 1.52
690.60 1.52
690.70 1.519
690.80 1.519
690.90 1.518
691.00 1.518
691.10 1.517
691.20 1.517
691.30 1.516
691.40 1.516
691.50 1.515
691.60 1.515
691.70 1.514
691.80 1.514
691.90 1.513
692.00 1.513
692.10 1.512
692.20 1.512
692.30 1.511
692.40 1.511
692.50 1.51
692.60 1.51
692.70 1.509
692.80 1.509
692.90 1.509
693.00 1.508
693.10 1.508
693.20 1.507
693.30 1.507
693.40 1.506
693.50 1.506
693.60 1.505
693.70 1.505
693.80 1.504
693.90 1.504
694.00 1.503
694.10 1.503
694.20 1.502
694.30 1.502
694.40 1.501
694.50 1.501
694.60 1.5
694.70 1.5
694.80 1.5
694.90 1.499
695.00 1.499
695.10 1.498
695.20 1.497
695.30 1.497
695.40 1.496
695.50 1.496
695.60 1.495
695.70 1.494
695.80 1.494
695.90 1.493
696.00 1.493
696.10 1.492
696.20 1.492
696.30 1.491
696.40 1.49
696.50 1.49
696.60 1.489
696.70 1.489
696.80 1.488
696.90 1.488
697.00 1.487
697.10 1.486
697.20 1.486
697.30 1.485
697.40 1.485
697.50 1.484
697.60 1.483
697.70 1.483
697.80 1.482
697.90 1.482
698.00 1.481
698.10 1.481
698.20 1.48
698.30 1.479
698.40 1.479
698.50 1.478
698.60 1.478
698.70 1.477
698.80 1.477
698.90 1.476
699.00 1.475
699.10 1.475
699.20 1.474
699.30 1.474
699.40 1.473
699.50 1.473
699.60 1.472
699.70 1.471
699.80 1.471
699.90 1.47
700.00 1.47
700.10 1.469
700.20 1.468
700.30 1.468
700.40 1.467
700.50 1.466
700.60 1.466
700.70 1.465
700.80 1.464
700.90 1.464
701.00 1.463
701.10 1.462
701.20 1.462
701.30 1.461
701.40 1.46
701.50 1.46
701.60 1.459
701.70 1.458
701.80 1.458
701.90 1.457
702.00 1.456
702.10 1.456
702.20 1.455
702.30 1.454
702.40 1.454
702.50 1.453
702.60 1.452
702.70 1.451
702.80 1.451
702.90 1.45
703.00 1.449
703.10 1.449
703.20 1.448
703.30 1.447
703.40 1.447
703.50 1.446
703.60 1.445
703.70 1.445
703.80 1.444
703.90 1.443
704.00 1.443
704.10 1.442
704.20 1.441
704.30 1.441
704.40 1.44
704.50 1.439
704.60 1.439
704.70 1.438
704.80 1.437
704.90 1.437
705.00 1.436
705.10 1.435
705.20 1.435
705.30 1.434
705.40 1.433
705.50 1.432
705.60 1.432
705.70 1.431
705.80 1.43
705.90 1.429
706.00 1.429
706.10 1.428
706.20 1.427
706.30 1.426
706.40 1.426
706.50 1.425
706.60 1.424
706.70 1.423
706.80 1.423
706.90 1.422
707.00 1.421
707.10 1.42
707.20 1.42
707.30 1.419
707.40 1.418
707.50 1.417
707.60 1.417
707.70 1.416
707.80 1.415
707.90 1.414
708.00 1.414
708.10 1.413
708.20 1.412
708.30 1.411
708.40 1.411
708.50 1.41
708.60 1.409
708.70 1.408
708.80 1.408
708.90 1.407
709.00 1.406
709.10 1.405
709.20 1.405
709.30 1.404
709.40 1.403
709.50 1.402
709.60 1.402
709.70 1.401
709.80 1.4
709.90 1.399
710.00 1.399
710.10 1.398
710.20 1.397
710.30 1.396
710.40 1.395
710.50 1.395
710.60 1.394
710.70 1.393
710.80 1.392
710.90 1.391
711.00 1.39
711.10 1.39
711.20 1.389
711.30 1.388
711.40 1.387
711.50 1.386
711.60 1.386
711.70 1.385
711.80 1.384
711.90 1.383
712.00 1.382
712.10 1.382
712.20 1.381
712.30 1.38
712.40 1.379
712.50 1.378
712.60 1.377
712.70 1.377
712.80 1.376
712.90 1.375
713.00 1.374
713.10 1.373
713.20 1.373
713.30 1.372
713.40 1.371
713.50 1.37
713.60 1.369
713.70 1.369
713.80 1.368
713.90 1.367
714.00 1.366
714.10 1.365
714.20 1.365
714.30 1.364
714.40 1.363
714.50 1.362
714.60 1.361
714.70 1.361
714.80 1.36
714.90 1.359
715.00 1.358
715.10 1.357
715.20 1.356
715.30 1.356
715.40 1.355
715.50 1.354
715.60 1.353
715.70 1.352
715.80 1.351
715.90 1.35
716.00 1.35
716.10 1.349
716.20 1.348
716.30 1.347
716.40 1.346
716.50 1.345
716.60 1.344
716.70 1.344
716.80 1.343
716.90 1.342
717.00 1.341
717.10 1.34
717.20 1.339
717.30 1.338
717.40 1.338
717.50 1.337
717.60 1.336
717.70 1.335
717.80 1.334
717.90 1.333
718.00 1.332
718.10 1.332
718.20 1.331
718.30 1.33
718.40 1.329
718.50 1.328
718.60 1.327
718.70 1.326
718.80 1.326
718.90 1.325
719.00 1.324
719.10 1.323
719.20 1.322
719.30 1.321
719.40 1.321
719.50 1.32
719.60 1.319
719.70 1.318
719.80 1.317
719.90 1.316
720.00 1.316
720.10 1.315
720.20 1.314
720.30 1.313
720.40 1.312
720.50 1.311
720.60 1.31
720.70 1.309
720.80 1.309
720.90 1.308
721.00 1.307
721.10 1.306
721.20 1.305
721.30 1.304
721.40 1.303
721.50 1.303
721.60 1.302
721.70 1.301
721.80 1.3
721.90 1.299
722.00 1.298
722.10 1.297
722.20 1.297
722.30 1.296
722.40 1.295
722.50 1.294
722.60 1.293
722.70 1.292
722.80 1.291
722.90 1.291
723.00 1.29
723.10 1.289
723.20 1.288
723.30 1.287
723.40 1.286
723.50 1.286
723.60 1.285
723.70 1.284
723.80 1.283
723.90 1.282
724.00 1.281
724.10 1.28
724.20 1.28
724.30 1.279
724.40 1.278
724.50 1.277
724.60 1.276
724.70 1.275
724.80 1.274
724.90 1.274
725.00 1.273
725.10 1.272
725.20 1.271
725.30 1.27
725.40 1.269
725.50 1.269
725.60 1.268
725.70 1.267
725.80 1.266
725.90 1.265
726.00 1.264
726.10 1.264
726.20 1.263
726.30 1.262
726.40 1.261
726.50 1.26
726.60 1.259
726.70 1.259
726.80 1.258
726.90 1.257
727.00 1.256
727.10 1.255
727.20 1.255
727.30 1.254
727.40 1.253
727.50 1.252
727.60 1.251
727.70 1.25
727.80 1.25
727.90 1.249
728.00 1.248
728.10 1.247
728.20 1.246
728.30 1.245
728.40 1.245
728.50 1.244
728.60 1.243
728.70 1.242
728.80 1.241
728.90 1.241
729.00 1.24
729.10 1.239
729.20 1.238
729.30 1.237
729.40 1.236
729.50 1.236
729.60 1.235
729.70 1.234
729.80 1.233
729.90 1.232
730.00 1.232
730.10 1.231
730.20 1.23
730.30 1.229
730.40 1.229
730.50 1.228
730.60 1.227
730.70 1.226
730.80 1.226
730.90 1.225
731.00 1.224
731.10 1.224
731.20 1.223
731.30 1.222
731.40 1.221
731.50 1.221
731.60 1.22
731.70 1.219
731.80 1.218
731.90 1.218
732.00 1.217
732.10 1.216
732.20 1.216
732.30 1.215
732.40 1.214
732.50 1.213
732.60 1.213
732.70 1.212
732.80 1.211
732.90 1.211
733.00 1.21
733.10 1.209
733.20 1.208
733.30 1.208
733.40 1.207
733.50 1.206
733.60 1.206
733.70 1.205
733.80 1.204
733.90 1.203
734.00 1.203
734.10 1.202
734.20 1.201
734.30 1.201
734.40 1.2
734.50 1.199
734.60 1.198
734.70 1.198
734.80 1.197
734.90 1.196
735.00 1.196
735.10 1.195
735.20 1.194
735.30 1.193
735.40 1.193
735.50 1.192
735.60 1.191
735.70 1.191
735.80 1.19
735.90 1.189
736.00 1.188
736.10 1.188
736.20 1.187
736.30 1.186
736.40 1.186
736.50 1.185
736.60 1.184
736.70 1.184
736.80 1.183
736.90 1.182
737.00 1.181
737.10 1.181
737.20 1.18
737.30 1.179
737.40 1.179
737.50 1.178
737.60 1.177
737.70 1.176
737.80 1.176
737.90 1.175
738.00 1.174
738.10 1.174
738.20 1.173
738.30 1.172
738.40 1.172
738.50 1.171
738.60 1.17
738.70 1.169
738.80 1.169
738.90 1.168
739.00 1.167
739.10 1.167
739.20 1.166
739.30 1.165
739.40 1.165
739.50 1.164
739.60 1.163
739.70 1.163
739.80 1.162
739.90 1.161
740.00 1.16
740.10 1.16
740.20 1.159
740.30 1.159
740.40 1.158
740.50 1.158
740.60 1.157
740.70 1.157
740.80 1.156
740.90 1.156
741.00 1.155
741.10 1.155
741.20 1.154
741.30 1.153
741.40 1.153
741.50 1.152
741.60 1.152
741.70 1.151
741.80 1.151
741.90 1.15
742.00 1.15
742.10 1.149
742.20 1.149
742.30 1.148
742.40 1.148
742.50 1.147
742.60 1.147
742.70 1.146
742.80 1.145
742.90 1.145
743.00 1.144
743.10 1.144
743.20 1.143
743.30 1.143
743.40 1.142
743.50 1.142
743.60 1.141
743.70 1.141
743.80 1.14
743.90 1.14
744.00 1.139
744.10 1.139
744.20 1.138
744.30 1.137
744.40 1.137
744.50 1.136
744.60 1.136
744.70 1.135
744.80 1.135
744.90 1.134
745.00 1.134
745.10 1.133
745.20 1.133
745.30 1.132
745.40 1.132
745.50 1.131
745.60 1.131
745.70 1.13
745.80 1.13
745.90 1.129
746.00 1.129
746.10 1.128
746.20 1.127
746.30 1.127
746.40 1.126
746.50 1.126
746.60 1.125
746.70 1.125
746.80 1.124
746.90 1.124
747.00 1.123
747.10 1.123
747.20 1.122
747.30 1.122
747.40 1.121
747.50 1.121
747.60 1.12
747.70 1.12
747.80 1.119
747.90 1.119
748.00 1.118
748.10 1.118
748.20 1.117
748.30 1.117
748.40 1.116
748.50 1.116
748.60 1.115
748.70 1.114
748.80 1.114
748.90 1.113
749.00 1.113
749.10 1.112
749.20 1.112
749.30 1.111
749.40 1.111
749.50 1.11
749.60 1.11
749.70 1.109
749.80 1.109
749.90 1.108
750.00 1.108
750.10 1.107
750.20 1.107
750.30 1.107
750.40 1.106
750.50 1.106
750.60 1.105
750.70 1.105
750.80 1.105
750.90 1.104
751.00 1.104
751.10 1.103
751.20 1.103
751.30 1.103
751.40 1.102
751.50 1.102
751.60 1.101
751.70 1.101
751.80 1.101
751.90 1.1
752.00 1.1
752.10 1.099
752.20 1.099
752.30 1.099
752.40 1.098
752.50 1.098
752.60 1.097
752.70 1.097
752.80 1.097
752.90 1.096
753.00 1.096
753.10 1.095
753.20 1.095
753.30 1.095
753.40 1.094
753.50 1.094
753.60 1.093
753.70 1.093
753.80 1.093
753.90 1.092
754.00 1.092
754.10 1.091
754.20 1.091
754.30 1.091
754.40 1.09
754.50 1.09
754.60 1.089
754.70 1.089
754.80 1.089
754.90 1.088
755.00 1.088
755.10 1.087
755.20 1.087
755.30 1.087
755.40 1.086
755.50 1.086
755.60 1.085
755.70 1.085
755.80 1.085
755.90 1.084
756.00 1.084
756.10 1.083
756.20 1.083
756.30 1.083
756.40 1.082
756.50 1.082
756.60 1.081
756.70 1.081
756.80 1.081
756.90 1.08
757.00 1.08
757.10 1.079
757.20 1.079
757.30 1.079
757.40 1.078
757.50 1.078
757.60 1.078
757.70 1.077
757.80 1.077
757.90 1.076
758.00 1.076
758.10 1.076
758.20 1.075
758.30 1.075
758.40 1.074
758.50 1.074
758.60 1.074
758.70 1.073
758.80 1.073
758.90 1.072
759.00 1.072
759.10 1.072
759.20 1.071
759.30 1.071
759.40 1.071
759.50 1.07
759.60 1.07
759.70 1.069
759.80 1.069
759.90 1.069
760.00 1.068
760.10 1.068
760.20 1.068
760.30 1.067
760.40 1.067
760.50 1.067
760.60 1.066
760.70 1.066
760.80 1.066
760.90 1.065
761.00 1.065
761.10 1.065
761.20 1.064
761.30 1.064
761.40 1.064
761.50 1.063
761.60 1.063
761.70 1.063
761.80 1.062
761.90 1.062
762.00 1.062
762.10 1.062
762.20 1.061
762.30 1.061
762.40 1.061
762.50 1.06
762.60 1.06
762.70 1.06
762.80 1.059
762.90 1.059
763.00 1.059
763.10 1.058
763.20 1.058
763.30 1.058
763.40 1.057
763.50 1.057
763.60 1.057
763.70 1.057
763.80 1.056
763.90 1.056
764.00 1.056
764.10 1.055
764.20 1.055
764.30 1.055
764.40 1.054
764.50 1.054
764.60 1.054
764.70 1.053
764.80 1.053
764.90 1.053
765.00 1.052
765.10 1.052
765.20 1.052
765.30 1.052
765.40 1.051
765.50 1.051
765.60 1.051
765.70 1.05
765.80 1.05
765.90 1.05
766.00 1.049
766.10 1.049
766.20 1.049
766.30 1.048
766.40 1.048
766.50 1.048
766.60 1.047
766.70 1.047
766.80 1.047
766.90 1.047
767.00 1.046
767.10 1.046
767.20 1.046
767.30 1.045
767.40 1.045
767.50 1.045
767.60 1.044
767.70 1.044
767.80 1.044
767.90 1.043
768.00 1.043
768.10 1.043
768.20 1.043
768.30 1.042
768.40 1.042
768.50 1.042
768.60 1.041
768.70 1.041
768.80 1.041
768.90 1.04
769.00 1.04
769.10 1.04
769.20 1.039
769.30 1.039
769.40 1.039
769.50 1.039
769.60 1.038
769.70 1.038
769.80 1.038
769.90 1.037
770.00 1.037
770.10 1.037
770.20 1.037
770.30 1.036
770.40 1.036
770.50 1.036
770.60 1.036
770.70 1.036
770.80 1.035
770.90 1.035
771.00 1.035
771.10 1.035
771.20 1.035
771.30 1.034
771.40 1.034
771.50 1.034
771.60 1.034
771.70 1.034
771.80 1.033
771.90 1.033
772.00 1.033
772.10 1.033
772.20 1.033
772.30 1.032
772.40 1.032
772.50 1.032
772.60 1.032
772.70 1.031
772.80 1.031
772.90 1.031
773.00 1.031
773.10 1.031
773.20 1.03
773.30 1.03
773.40 1.03
773.50 1.03
773.60 1.03
773.70 1.029
773.80 1.029
773.90 1.029
774.00 1.029
774.10 1.029
774.20 1.028
774.30 1.028
774.40 1.028
774.50 1.028
774.60 1.028
774.70 1.027
774.80 1.027
774.90 1.027
775.00 1.027
775.10 1.027
775.20 1.026
775.30 1.026
775.40 1.026
775.50 1.026
775.60 1.026
775.70 1.025
775.80 1.025
775.90 1.025
776.00 1.025
776.10 1.025
776.20 1.024
776.30 1.024
776.40 1.024
776.50 1.024
776.60 1.024
776.70 1.023
776.80 1.023
776.90 1.023
777.00 1.023
777.10 1.023
777.20 1.022
777.30 1.022
777.40 1.022
777.50 1.022
777.60 1.022
777.70 1.021
777.80 1.021
777.90 1.021
778.00 1.021
778.10 1.021
778.20 1.02
778.30 1.02
778.40 1.02
778.50 1.02
778.60 1.02
778.70 1.019
778.80 1.019
778.90 1.019
779.00 1.019
779.10 1.019
779.20 1.018
779.30 1.018
779.40 1.018
779.50 1.018
779.60 1.018
779.70 1.017
779.80 1.017
779.90 1.017
780.00 1.017
780.10 1.017
780.20 1.017
780.30 1.017
780.40 1.016
780.50 1.016
780.60 1.016
780.70 1.016
780.80 1.016
780.90 1.016
781.00 1.016
781.10 1.016
781.20 1.016
781.30 1.016
781.40 1.016
781.50 1.016
781.60 1.016
781.70 1.015
781.80 1.015
781.90 1.015
782.00 1.015
782.10 1.015
782.20 1.015
782.30 1.015
782.40 1.015
782.50 1.015
782.60 1.015
782.70 1.015
782.80 1.015
782.90 1.014
783.00 1.014
783.10 1.014
783.20 1.014
783.30 1.014
783.40 1.014
783.50 1.014
783.60 1.014
783.70 1.014
783.80 1.014
783.90 1.014
784.00 1.014
784.10 1.014
784.20 1.013
784.30 1.013
784.40 1.013
784.50 1.013
784.60 1.013
784.70 1.013
784.80 1.013
784.90 1.013
785.00 1.013
785.10 1.013
785.20 1.013
785.30 1.013
785.40 1.013
785.50 1.012
785.60 1.012
785.70 1.012
785.80 1.012
785.90 1.012
786.00 1.012
786.10 1.012
786.20 1.012
786.30 1.012
786.40 1.012
786.50 1.012
786.60 1.012
786.70 1.011
786.80 1.011
786.90 1.011
787.00 1.011
787.10 1.011
787.20 1.011
787.30 1.011
787.40 1.011
787.50 1.011
787.60 1.011
787.70 1.011
787.80 1.011
787.90 1.011
788.00 1.01
788.10 1.01
788.20 1.01
788.30 1.01
788.40 1.01
788.50 1.01
788.60 1.01
788.70 1.01
788.80 1.01
788.90 1.01
789.00 1.01
789.10 1.01
789.20 1.01
789.30 1.009
789.40 1.009
789.50 1.009
789.60 1.009
789.70 1.009
789.80 1.009
789.90 1.009
790.00 1.009
790.10 1.009
790.20 1.009
790.30 1.009
790.40 1.009
790.50 1.009
790.60 1.009
790.70 1.009
790.80 1.009
790.90 1.009
791.00 1.009
791.10 1.008
791.20 1.008
791.30 1.008
791.40 1.008
791.50 1.008
791.60 1.008
791.70 1.008
791.80 1.008
791.90 1.008
792.00 1.008
792.10 1.008
792.20 1.008
792.30 1.008
792.40 1.008
792.50 1.008
792.60 1.008
792.70 1.008
792.80 1.008
792.90 1.008
793.00 1.008
793.10 1.008
793.20 1.008
793.30 1.008
793.40 1.008
793.50 1.008
793.60 1.008
793.70 1.007
793.80 1.007
793.90 1.007
794.00 1.007
794.10 1.007
794.20 1.007
794.30 1.007
794.40 1.007
794.50 1.007
794.60 1.007
794.70 1.007
794.80 1.007
794.90 1.007
795.00 1.007
795.10 1.007
795.20 1.007
795.30 1.007
795.40 1.007
795.50 1.007
795.60 1.007
795.70 1.007
795.80 1.007
795.90 1.007
796.00 1.007
796.10 1.007
796.20 1.006
796.30 1.006
796.40 1.006
796.50 1.006
796.60 1.006
796.70 1.006
796.80 1.006
796.90 1.006
797.00 1.006
797.10 1.006
797.20 1.006
797.30 1.006
797.40 1.006
797.50 1.006
797.60 1.006
797.70 1.006
797.80 1.006
797.90 1.006
798.00 1.006
798.10 1.006
798.20 1.006
798.30 1.006
798.40 1.006
798.50 1.006
798.60 1.006
798.70 1.006
798.80 1.005
798.90 1.005
799.00 1.005
799.10 1.005
799.20 1.005
799.30 1.005
799.40 1.005
799.50 1.005
799.60 1.005
799.70 1.005
799.80 1.005
799.90 1.005
800.00 1.005
800.10 1.005
800.20 1.005
800.30 1.005
800.40 1.005
800.50 1.004
800.60 1.004
800.70 1.004
800.80 1.004
800.90 1.004
801.00 1.004
801.10 1.004
801.20 1.004
801.30 1.004
801.40 1.004
801.50 1.003
801.60 1.003
801.70 1.003
801.80 1.003
801.90 1.003
802.00 1.003
802.10 1.003
802.20 1.003
802.30 1.003
802.40 1.002
802.50 1.002
802.60 1.002
802.70 1.002
802.80 1.002
802.90 1.002
803.00 1.002
803.10 1.002
803.20 1.002
803.30 1.002
803.40 1.001
803.50 1.001
803.60 1.001
803.70 1.001
803.80 1.001
803.90 1.001
804.00 1.001
804.10 1.001
804.20 1.001
804.30 1
804.40 1
804.50 1
804.60 1
804.70 1
804.80 0.9999
804.90 0.9998
805.00 0.9997
805.10 0.9996
805.20 0.9995
805.30 0.9994
805.40 0.9993
805.50 0.9992
805.60 0.9991
805.70 0.999
805.80 0.9989
805.90 0.9988
806.00 0.9987
806.10 0.9986
806.20 0.9985
806.30 0.9984
806.40 0.9983
806.50 0.9981
806.60 0.998
806.70 0.9979
806.80 0.9978
806.90 0.9977
807.00 0.9976
807.10 0.9975
807.20 0.9974
807.30 0.9973
807.40 0.9972
807.50 0.9971
807.60 0.997
807.70 0.9969
807.80 0.9968
807.90 0.9967
808.00 0.9966
808.10 0.9965
808.20 0.9964
808.30 0.9963
808.40 0.9962
808.50 0.9961
808.60 0.996
808.70 0.9958
808.80 0.9957
808.90 0.9956
809.00 0.9955
809.10 0.9954
809.20 0.9953
809.30 0.9952
809.40 0.9951
809.50 0.995
809.60 0.9949
809.70 0.9948
809.80 0.9947
809.90 0.9946
810.00 0.9945
810.10 0.9943
810.20 0.9941
810.30 0.9939
810.40 0.9937
810.50 0.9935
810.60 0.9933
810.70 0.9931
810.80 0.9929
810.90 0.9927
811.00 0.9925
811.10 0.9923
811.20 0.9921
811.30 0.9919
811.40 0.9917
811.50 0.9916
811.60 0.9914
811.70 0.9912
811.80 0.991
811.90 0.9908
812.00 0.9906
812.10 0.9904
812.20 0.9902
812.30 0.99
812.40 0.9898
812.50 0.9896
812.60 0.9894
812.70 0.9892
812.80 0.989
812.90 0.9888
813.00 0.9886
813.10 0.9884
813.20 0.9882
813.30 0.988
813.40 0.9878
813.50 0.9877
813.60 0.9875
813.70 0.9873
813.80 0.9871
813.90 0.9869
814.00 0.9867
814.10 0.9865
814.20 0.9863
814.30 0.9861
814.40 0.9859
814.50 0.9857
814.60 0.9855
814.70 0.9853
814.80 0.9851
814.90 0.9849
815.00 0.9847
815.10 0.9846
815.20 0.9844
815.30 0.9842
815.40 0.984
815.50 0.9838
815.60 0.9836
815.70 0.9834
815.80 0.9832
815.90 0.983
816.00 0.9828
816.10 0.9826
816.20 0.9824
816.30 0.9822
816.40 0.9821
816.50 0.9819
816.60 0.9817
816.70 0.9815
816.80 0.9813
816.90 0.9811
817.00 0.9809
817.10 0.9807
817.20 0.9805
817.30 0.9803
817.40 0.9801
817.50 0.9799
817.60 0.9797
817.70 0.9796
817.80 0.9794
817.90 0.9792
818.00 0.979
818.10 0.9788
818.20 0.9786
818.30 0.9784
818.40 0.9782
818.50 0.978
818.60 0.9778
818.70 0.9776
818.80 0.9775
818.90 0.9773
819.00 0.9771
819.10 0.9769
819.20 0.9767
819.30 0.9765
819.40 0.9763
819.50 0.9761
819.60 0.9759
819.70 0.9757
819.80 0.9755
819.90 0.9754
820.00 0.9752
820.10 0.975
820.20 0.9748
820.30 0.9745
820.40 0.9743
820.50 0.9741
820.60 0.9739
820.70 0.9736
820.80 0.9734
820.90 0.9732
821.00 0.9729
821.10 0.9727
821.20 0.9725
821.30 0.9723
821.40 0.972
821.50 0.9718
821.60 0.9716
821.70 0.9714
821.80 0.9711
821.90 0.9709
822.00 0.9707
822.10 0.9704
822.20 0.9702
822.30 0.97
822.40 0.9697
822.50 0.9695
822.60 0.9692
822.70 0.969
822.80 0.9688
822.90 0.9685
823.00 0.9683
823.10 0.968
823.20 0.9678
823.30 0.9675
823.40 0.9673
823.50 0.9671
823.60 0.9668
823.70 0.9666
823.80 0.9663
823.90 0.9661
824.00 0.9659
824.10 0.9656
824.20 0.9654
824.30 0.9651
824.40 0.9649
824.50 0.9647
824.60 0.9644
824.70 0.9642
824.80 0.9639
824.90 0.9637
825.00 0.9635
825.10 0.9632
825.20 0.963
825.30 0.9627
825.40 0.9625
825.50 0.9623
825.60 0.962
825.70 0.9618
825.80 0.9615
825.90 0.9613
826.00 0.9611
826.10 0.9608
826.20 0.9606
826.30 0.9603
826.40 0.9601
826.50 0.9599
826.60 0.9596
826.70 0.9594
826.80 0.9592
826.90 0.9589
827.00 0.9587
827.10 0.9584
827.20 0.9582
827.30 0.9579
827.40 0.9577
827.50 0.9574
827.60 0.9572
827.70 0.9569
827.80 0.9566
827.90 0.9564
828.00 0.9561
828.10 0.9559
828.20 0.9556
828.30 0.9554
828.40 0.9551
828.50 0.9549
828.60 0.9546
828.70 0.9544
828.80 0.9541
828.90 0.9539
829.00 0.9536
829.10 0.9534
829.20 0.9531
829.30 0.9529
829.40 0.9526
829.50 0.9524
829.60 0.9521
829.70 0.9519
829.80 0.9516
829.90 0.9514
830.00 0.9511
830.10 0.9508
830.20 0.9506
830.30 0.9503
830.40 0.9501
830.50 0.9498
830.60 0.9496
830.70 0.9493
830.80 0.9491
830.90 0.9488
831.00 0.9486
831.10 0.9483
831.20 0.9481
831.30 0.9478
831.40 0.9476
831.50 0.9473
831.60 0.9471
831.70 0.9468
831.80 0.9466
831.90 0.9463
832.00 0.9461
832.10 0.9458
832.20 0.9456
832.30 0.9453
832.40 0.9451
832.50 0.9448
832.60 0.9445
832.70 0.9443
832.80 0.944
832.90 0.9438
833.00 0.9435
833.10 0.9433
833.20 0.943
833.30 0.9427
833.40 0.9425
833.50 0.9422
833.60 0.942
833.70 0.9417
833.80 0.9415
833.90 0.9412
834.00 0.9409
834.10 0.9407
834.20 0.9404
834.30 0.9402
834.40 0.9399
834.50 0.9397
834.60 0.9394
834.70 0.9391
834.80 0.9389
834.90 0.9386
835.00 0.9384
835.10 0.9381
835.20 0.9379
835.30 0.9376
835.40 0.9373
835.50 0.9371
835.60 0.9368
835.70 0.9366
835.80 0.9363
835.90 0.9361
836.00 0.9358
836.10 0.9356
836.20 0.9353
836.30 0.9351
836.40 0.9348
836.50 0.9345
836.60 0.9343
836.70 0.934
836.80 0.9338
836.90 0.9335
837.00 0.9333
837.10 0.933
837.20 0.9327
837.30 0.9325
837.40 0.9322
837.50 0.932
837.60 0.9317
837.70 0.9314
837.80 0.9312
837.90 0.9309
838.00 0.9306
838.10 0.9304
838.20 0.9301
838.30 0.9298
838.40 0.9296
838.50 0.9293
838.60 0.9291
838.70 0.9288
838.80 0.9285
838.90 0.9283
839.00 0.928
839.10 0.9277
839.20 0.9275
839.30 0.9272
839.40 0.927
839.50 0.9267
839.60 0.9264
839.70 0.9262
839.80 0.9259
839.90 0.9257
840.00 0.9254
840.10 0.9251
840.20 0.9249
840.30 0.9246
840.40 0.9244
840.50 0.9241
840.60 0.9238
840.70 0.9236
840.80 0.9233
840.90 0.9231
841.00 0.9228
841.10 0.9225
841.20 0.9223
841.30 0.922
841.40 0.9218
841.50 0.9215
841.60 0.9212
841.70 0.921
841.80 0.9207
841.90 0.9205
842.00 0.9202
842.10 0.9199
842.20 0.9197
842.30 0.9194
842.40 0.9191
842.50 0.9189
842.60 0.9186
842.70 0.9183
842.80 0.9181
842.90 0.9178
843.00 0.9175
843.10 0.9173
843.20 0.917
843.30 0.9167
843.40 0.9165
843.50 0.9162
843.60 0.9159
843.70 0.9157
843.80 0.9154
843.90 0.9151
844.00 0.9149
844.10 0.9146
844.20 0.9143
844.30 0.9141
844.40 0.9138
844.50 0.9135
844.60 0.9133
844.70 0.913
844.80 0.9127
844.90 0.9125
845.00 0.9122
845.10 0.912
845.20 0.9117
845.30 0.9114
845.40 0.9112
845.50 0.9109
845.60 0.9106
845.70 0.9104
845.80 0.9101
845.90 0.9098
846.00 0.9096
846.10 0.9093
846.20 0.9091
846.30 0.9088
846.40 0.9085
846.50 0.9083
846.60 0.908
846.70 0.9077
846.80 0.9075
846.90 0.9072
847.00 0.907
847.10 0.9067
847.20 0.9064
847.30 0.9061
847.40 0.9059
847.50 0.9056
847.60 0.9053
847.70 0.905
847.80 0.9048
847.90 0.9045
848.00 0.9042
848.10 0.904
848.20 0.9037
848.30 0.9034
848.40 0.9032
848.50 0.9029
848.60 0.9026
848.70 0.9023
848.80 0.9021
848.90 0.9018
849.00 0.9015
849.10 0.9013
849.20 0.901
849.30 0.9007
849.40 0.9004
849.50 0.9002
849.60 0.8999
849.70 0.8996
849.80 0.8994
849.90 0.8991
850.00 0.8988
850.10 0.8986
850.20 0.8983
850.30 0.898
850.40 0.8978
850.50 0.8975
850.60 0.8972
850.70 0.8969
850.80 0.8967
850.90 0.8964
851.00 0.8961
851.10 0.8959
851.20 0.8956
851.30 0.8953
851.40 0.8951
851.50 0.8948
851.60 0.8945
851.70 0.8943
851.80 0.894
851.90 0.8937
852.00 0.8935
852.10 0.8932
852.20 0.8929
852.30 0.8926
852.40 0.8923
852.50 0.8921
852.60 0.8918
852.70 0.8915
852.80 0.8912
852.90 0.8909
853.00 0.8907
853.10 0.8904
853.20 0.8901
853.30 0.8898
853.40 0.8895
853.50 0.8893
853.60 0.889
853.70 0.8887
853.80 0.8884
853.90 0.8881
854.00 0.8879
854.10 0.8876
854.20 0.8873
854.30 0.887
854.40 0.8867
854.50 0.8865
854.60 0.8862
854.70 0.8859
854.80 0.8856
854.90 0.8853
855.00 0.8851
855.10 0.8848
855.20 0.8845
855.30 0.8842
855.40 0.8839
855.50 0.8837
855.60 0.8834
855.70 0.8831
855.80 0.8828
855.90 0.8826
856.00 0.8823
856.10 0.882
856.20 0.8817
856.30 0.8814
856.40 0.8812
856.50 0.8809
856.60 0.8806
856.70 0.8803
856.80 0.8801
856.90 0.8798
857.00 0.8795
857.10 0.8792
857.20 0.8789
857.30 0.8786
857.40 0.8783
857.50 0.8781
857.60 0.8778
857.70 0.8775
857.80 0.8772
857.90 0.8769
858.00 0.8766
858.10 0.8763
858.20 0.876
858.30 0.8757
858.40 0.8755
858.50 0.8752
858.60 0.8749
858.70 0.8746
858.80 0.8743
858.90 0.874
859.00 0.8737
859.10 0.8734
859.20 0.8732
859.30 0.8729
859.40 0.8726
859.50 0.8723
859.60 0.872
859.70 0.8717
859.80 0.8714
859.90 0.8711
860.00 0.8709
860.10 0.8706
860.20 0.8703
860.30 0.87
860.40 0.8697
860.50 0.8694
860.60 0.8691
860.70 0.8688
860.80 0.8686
860.90 0.8683
861.00 0.868
861.10 0.8677
861.20 0.8674
861.30 0.8671
861.40 0.8668
861.50 0.8666
861.60 0.8663
861.70 0.866
861.80 0.8657
861.90 0.8654
862.00 0.8651
862.10 0.8648
862.20 0.8645
862.30 0.8642
862.40 0.8639
862.50 0.8636
862.60 0.8633
862.70 0.863
862.80 0.8627
862.90 0.8624
863.00 0.8621
863.10 0.8618
863.20 0.8615
863.30 0.8612
863.40 0.8609
863.50 0.8606
863.60 0.8603
863.70 0.86
863.80 0.8597
863.90 0.8594
864.00 0.8591
864.10 0.8588
864.20 0.8585
864.30 0.8582
864.40 0.8579
864.50 0.8577
864.60 0.8574
864.70 0.8571
864.80 0.8568
864.90 0.8565
865.00 0.8562
865.10 0.8559
865.20 0.8556
865.30 0.8553
865.40 0.855
865.50 0.8547
865.60 0.8544
865.70 0.8541
865.80 0.8538
865.90 0.8535
866.00 0.8532
866.10 0.8529
866.20 0.8526
866.30 0.8523
866.40 0.852
866.50 0.8517
866.60 0.8514
866.70 0.8511
866.80 0.8508
866.90 0.8505
867.00 0.8502
867.10 0.8499
867.20 0.8496
867.30 0.8493
867.40 0.849
867.50 0.8486
867.60 0.8483
867.70 0.848
867.80 0.8477
867.90 0.8474
868.00 0.847
868.10 0.8467
868.20 0.8464
868.30 0.8461
868.40 0.8458
868.50 0.8454
868.60 0.8451
868.70 0.8448
868.80 0.8445
868.90 0.8442
869.00 0.8439
869.10 0.8435
869.20 0.8432
869.30 0.8429
869.40 0.8426
869.50 0.8423
869.60 0.8419
869.70 0.8416
869.80 0.8413
869.90 0.841
870.00 0.8407
870.10 0.8404
870.20 0.84
870.30 0.8397
870.40 0.8394
870.50 0.8391
870.60 0.8388
870.70 0.8385
870.80 0.8381
870.90 0.8378
871.00 0.8375
871.10 0.8372
871.20 0.8369
871.30 0.8366
871.40 0.8363
871.50 0.8359
871.60 0.8356
871.70 0.8353
871.80 0.835
871.90 0.8347
872.00 0.8344
872.10 0.834
872.20 0.8337
872.30 0.8334
872.40 0.833
872.50 0.8327
872.60 0.8323
872.70 0.832
872.80 0.8317
872.90 0.8313
873.00 0.831
873.10 0.8307
873.20 0.8303
873.30 0.83
873.40 0.8296
873.50 0.8293
873.60 0.829
873.70 0.8286
873.80 0.8283
873.90 0.828
874.00 0.8276
874.10 0.8273
874.20 0.827
874.30 0.8266
874.40 0.8263
874.50 0.826
874.60 0.8256
874.70 0.8253
874.80 0.825
874.90 0.8246
875.00 0.8243
875.10 0.8239
875.20 0.8236
875.30 0.8233
875.40 0.8229
875.50 0.8226
875.60 0.8223
875.70 0.8219
875.80 0.8216
875.90 0.8213
876.00 0.8209
876.10 0.8206
876.20 0.8203
876.30 0.8199
876.40 0.8196
876.50 0.8193
876.60 0.819
876.70 0.8186
876.80 0.8183
876.90 0.818
877.00 0.8176
877.10 0.8173
877.20 0.8169
877.30 0.8165
877.40 0.8162
877.50 0.8158
877.60 0.8155
877.70 0.8151
877.80 0.8147
877.90 0.8144
878.00 0.814
878.10 0.8137
878.20 0.8133
878.30 0.8129
878.40 0.8126
878.50 0.8122
878.60 0.8119
878.70 0.8115
878.80 0.8111
878.90 0.8108
879.00 0.8104
879.10 0.8101
879.20 0.8097
879.30 0.8094
879.40 0.809
879.50 0.8086
879.60 0.8083
879.70 0.8079
879.80 0.8076
879.90 0.8072
880.00 0.8069
880.10 0.8065
880.20 0.8061
880.30 0.8058
880.40 0.8054
880.50 0.8051
880.60 0.8047
880.70 0.8044
880.80 0.804
880.90 0.8036
881.00 0.8033
881.10 0.8029
881.20 0.8026
881.30 0.8022
881.40 0.8019
881.50 0.8015
881.60 0.8012
881.70 0.8008
881.80 0.8004
881.90 0.8001
882.00 0.7997
882.10 0.7994
882.20 0.799
882.30 0.7986
882.40 0.7982
882.50 0.7978
882.60 0.7974
882.70 0.797
882.80 0.7967
882.90 0.7963
883.00 0.7959
883.10 0.7955
883.20 0.7951
883.30 0.7947
883.40 0.7944
883.50 0.794
883.60 0.7936
883.70 0.7932
883.80 0.7928
883.90 0.7924
884.00 0.7921
884.10 0.7917
884.20 0.7913
884.30 0.7909
884.40 0.7905
884.50 0.7902
884.60 0.7898
884.70 0.7894
884.80 0.789
884.90 0.7886
885.00 0.7883
885.10 0.7879
885.20 0.7875
885.30 0.7871
885.40 0.7867
885.50 0.7863
885.60 0.786
885.70 0.7856
885.80 0.7852
885.90 0.7848
886.00 0.7845
886.10 0.7841
886.20 0.7837
886.30 0.7833
886.40 0.7829
886.50 0.7826
886.60 0.7822
886.70 0.7818
886.80 0.7814
886.90 0.781
887.00 0.7807
887.10 0.7803
887.20 0.7799
887.30 0.7794
887.40 0.779
887.50 0.7786
887.60 0.7782
887.70 0.7778
887.80 0.7774
887.90 0.777
888.00 0.7766
888.10 0.7762
888.20 0.7758
888.30 0.7754
888.40 0.775
888.50 0.7746
888.60 0.7742
888.70 0.7738
888.80 0.7734
888.90 0.773
889.00 0.7726
889.10 0.7722
889.20 0.7718
889.30 0.7714
889.40 0.771
889.50 0.7706
889.60 0.7702
889.70 0.7697
889.80 0.7693
889.90 0.7689
890.00 0.7685
890.10 0.7681
890.20 0.7677
890.30 0.7673
890.40 0.7669
890.50 0.7665
890.60 0.7661
890.70 0.7657
890.80 0.7653
890.90 0.7649
891.00 0.7645
891.10 0.7641
891.20 0.7637
891.30 0.7633
891.40 0.7629
891.50 0.7625
891.60 0.7621
891.70 0.7617
891.80 0.7613
891.90 0.7609
892.00 0.7605
892.10 0.7601
892.20 0.7597
892.30 0.7593
892.40 0.7588
892.50 0.7584
892.60 0.758
892.70 0.7575
892.80 0.7571
892.90 0.7567
893.00 0.7563
893.10 0.7558
893.20 0.7554
893.30 0.755
893.40 0.7546
893.50 0.7541
893.60 0.7537
893.70 0.7533
893.80 0.7529
893.90 0.7524
894.00 0.752
894.10 0.7516
894.20 0.7512
894.30 0.7507
894.40 0.7503
894.50 0.7499
894.60 0.7495
894.70 0.749
894.80 0.7486
894.90 0.7482
895.00 0.7478
895.10 0.7474
895.20 0.7469
895.30 0.7465
895.40 0.7461
895.50 0.7457
895.60 0.7452
895.70 0.7448
895.80 0.7444
895.90 0.744
896.00 0.7436
896.10 0.7431
896.20 0.7427
896.30 0.7423
896.40 0.7419
896.50 0.7414
896.60 0.741
896.70 0.7406
896.80 0.7402
896.90 0.7398
897.00 0.7394
897.10 0.7389
897.20 0.7385
897.30 0.738
897.40 0.7376
897.50 0.7371
897.60 0.7367
897.70 0.7362
897.80 0.7358
897.90 0.7353
898.00 0.7349
898.10 0.7344
898.20 0.734
898.30 0.7335
898.40 0.7331
898.50 0.7326
898.60 0.7322
898.70 0.7318
898.80 0.7313
898.90 0.7309
899.00 0.7304
899.10 0.73
899.20 0.7295
899.30 0.7291
899.40 0.7286
899.50 0.7282
899.60 0.7278
899.70 0.7273
899.80 0.7269
899.90 0.7264
900.00 0.726
900.10 0.7255
900.20 0.7251
900.30 0.7247
900.40 0.7242
900.50 0.7238
900.60 0.7233
900.70 0.7229
900.80 0.7224
900.90 0.722
901.00 0.7216
901.10 0.7211
901.20 0.7207
901.30 0.7202
901.40 0.7198
901.50 0.7194
901.60 0.7189
901.70 0.7185
901.80 0.718
901.90 0.7176
902.00 0.7172
902.10 0.7167
902.20 0.7162
902.30 0.7158
902.40 0.7153
902.50 0.7149
902.60 0.7144
902.70 0.7139
902.80 0.7135
902.90 0.713
903.00 0.7126
903.10 0.7121
903.20 0.7116
903.30 0.7112
903.40 0.7107
903.50 0.7103
903.60 0.7098
903.70 0.7093
903.80 0.7089
903.90 0.7084
904.00 0.708
904.10 0.7075
904.20 0.7071
904.30 0.7066
904.40 0.7061
904.50 0.7057
904.60 0.7052
904.70 0.7048
904.80 0.7043
904.90 0.7039
905.00 0.7034
905.10 0.7029
905.20 0.7025
905.30 0.702
905.40 0.7016
905.50 0.7011
905.60 0.7007
905.70 0.7002
905.80 0.6998
905.90 0.6993
906.00 0.6989
906.10 0.6984
906.20 0.6979
906.30 0.6975
906.40 0.697
906.50 0.6966
906.60 0.6961
906.70 0.6957
906.80 0.6952
906.90 0.6948
907.00 0.6943
907.10 0.6939
907.20 0.6934
907.30 0.6929
907.40 0.6924
907.50 0.692
907.60 0.6915
907.70 0.691
907.80 0.6905
907.90 0.6901
908.00 0.6896
908.10 0.6891
908.20 0.6886
908.30 0.6882
908.40 0.6877
908.50 0.6872
908.60 0.6868
908.70 0.6863
908.80 0.6858
908.90 0.6853
909.00 0.6849
909.10 0.6844
909.20 0.6839
909.30 0.6835
909.40 0.683
909.50 0.6825
909.60 0.682
909.70 0.6816
909.80 0.6811
909.90 0.6806
910.00 0.6802
910.10 0.6797
910.20 0.6792
910.30 0.6788
910.40 0.6783
910.50 0.6778
910.60 0.6774
910.70 0.6769
910.80 0.6764
910.90 0.676
911.00 0.6755
911.10 0.675
911.20 0.6746
911.30 0.6741
911.40 0.6736
911.50 0.6732
911.60 0.6727
911.70 0.6722
911.80 0.6718
911.90 0.6713
912.00 0.6708
912.10 0.6703
912.20 0.6698
912.30 0.6694
912.40 0.6689
912.50 0.6684
912.60 0.6679
912.70 0.6674
912.80 0.6669
912.90 0.6664
913.00 0.6659
913.10 0.6654
913.20 0.665
913.30 0.6645
913.40 0.664
913.50 0.6635
913.60 0.663
913.70 0.6625
913.80 0.662
913.90 0.6615
914.00 0.6611
914.10 0.6606
914.20 0.6601
914.30 0.6596
914.40 0.6591
914.50 0.6586
914.60 0.6581
914.70 0.6577
914.80 0.6572
914.90 0.6567
915.00 0.6562
915.10 0.6557
915.20 0.6552
915.30 0.6548
915.40 0.6543
915.50 0.6538
915.60 0.6533
915.70 0.6528
915.80 0.6523
915.90 0.6519
916.00 0.6514
916.10 0.6509
916.20 0.6504
916.30 0.6499
916.40 0.6494
916.50 0.649
916.60 0.6485
916.70 0.648
916.80 0.6475
916.90 0.647
917.00 0.6466
917.10 0.6461
917.20 0.6456
917.30 0.6451
917.40 0.6446
917.50 0.6441
917.60 0.6436
917.70 0.6431
917.80 0.6426
917.90 0.6421
918.00 0.6416
918.10 0.6411
918.20 0.6406
918.30 0.6401
918.40 0.6396
918.50 0.6391
918.60 0.6386
918.70 0.6382
918.80 0.6377
918.90 0.6372
919.00 0.6367
919.10 0.6362
919.20 0.6357
919.30 0.6352
919.40 0.6347
919.50 0.6342
919.60 0.6337
919.70 0.6332
919.80 0.6327
919.90 0.6323
920.00 0.6318
920.10 0.6313
920.20 0.6308
920.30 0.6303
920.40 0.6298
920.50 0.6293
920.60 0.6288
920.70 0.6283
920.80 0.6278
920.90 0.6274
921.00 0.6269
921.10 0.6264
921.20 0.6259
921.30 0.6254
921.40 0.6249
921.50 0.6244
921.60 0.6239
921.70 0.6235
921.80 0.623
921.90 0.6225
922.00 0.622
922.10 0.6215
922.20 0.621
922.30 0.6205
922.40 0.62
922.50 0.6195
922.60 0.619
922.70 0.6185
922.80 0.618
922.90 0.6175
923.00 0.617
923.10 0.6165
923.20 0.616
923.30 0.6155
923.40 0.615
923.50 0.6145
923.60 0.614
923.70 0.6135
923.80 0.613
923.90 0.6125
924.00 0.612
924.10 0.6115
924.20 0.6111
924.30 0.6106
924.40 0.6101
924.50 0.6096
924.60 0.6091
924.70 0.6086
924.80 0.6081
924.90 0.6076
925.00 0.6071
925.10 0.6066
925.20 0.6061
925.30 0.6056
925.40 0.6051
925.50 0.6046
925.60 0.6041
925.70 0.6037
925.80 0.6032
925.90 0.6027
926.00 0.6022
926.10 0.6017
926.20 0.6012
926.30 0.6007
926.40 0.6002
926.50 0.5997
926.60 0.5992
926.70 0.5987
926.80 0.5983
926.90 0.5978
927.00 0.5973
927.10 0.5968
927.20 0.5963
927.30 0.5958
927.40 0.5953
927.50 0.5948
927.60 0.5943
927.70 0.5938
927.80 0.5933
927.90 0.5928
928.00 0.5923
928.10 0.5918
928.20 0.5913
928.30 0.5908
928.40 0.5903
928.50 0.5898
928.60 0.5893
928.70 0.5888
928.80 0.5883
928.90 0.5878
929.00 0.5873
929.10 0.5868
929.20 0.5863
929.30 0.5858
929.40 0.5853
929.50 0.5848
929.60 0.5843
929.70 0.5838
929.80 0.5833
929.90 0.5828
930.00 0.5823
930.10 0.5818
930.20 0.5813
930.30 0.5808
930.40 0.5803
930.50 0.5798
930.60 0.5793
930.70 0.5788
930.80 0.5783
930.90 0.5778
931.00 0.5773
931.10 0.5768
931.20 0.5763
931.30 0.5758
931.40 0.5753
931.50 0.5749
931.60 0.5744
931.70 0.5739
931.80 0.5734
931.90 0.5729
932.00 0.5724
932.10 0.5719
932.20 0.5714
932.30 0.5709
932.40 0.5704
932.50 0.5699
932.60 0.5694
932.70 0.5689
932.80 0.5684
932.90 0.5679
933.00 0.5674
933.10 0.5669
933.20 0.5664
933.30 0.5659
933.40 0.5654
933.50 0.565
933.60 0.5645
933.70 0.564
933.80 0.5635
933.90 0.563
934.00 0.5625
934.10 0.562
934.20 0.5615
934.30 0.561
934.40 0.5605
934.50 0.56
934.60 0.5595
934.70 0.559
934.80 0.5585
934.90 0.558
935.00 0.5575
935.10 0.557
935.20 0.5566
935.30 0.5561
935.40 0.5556
935.50 0.5551
935.60 0.5546
935.70 0.5541
935.80 0.5536
935.90 0.5531
936.00 0.5526
936.10 0.5521
936.20 0.5516
936.30 0.5511
936.40 0.5506
936.50 0.5501
936.60 0.5497
936.70 0.5492
936.80 0.5487
936.90 0.5482
937.00 0.5477
937.10 0.5472
937.20 0.5467
937.30 0.5462
937.40 0.5457
937.50 0.5452
937.60 0.5447
937.70 0.5442
937.80 0.5437
937.90 0.5433
938.00 0.5428
938.10 0.5423
938.20 0.5418
938.30 0.5413
938.40 0.5408
938.50 0.5403
938.60 0.5398
938.70 0.5393
938.80 0.5388
938.90 0.5383
939.00 0.5378
939.10 0.5373
939.20 0.5368
939.30 0.5363
939.40 0.5358
939.50 0.5353
939.60 0.5348
939.70 0.5344
939.80 0.5339
939.90 0.5334
940.00 0.5329
940.10 0.5324
940.20 0.5319
940.30 0.5314
940.40 0.5309
940.50 0.5304
940.60 0.5299
940.70 0.5294
940.80 0.529
940.90 0.5285
941.00 0.528
941.10 0.5275
941.20 0.527
941.30 0.5265
941.40 0.526
941.50 0.5255
941.60 0.5251
941.70 0.5246
941.80 0.5241
941.90 0.5236
942.00 0.5231
942.10 0.5226
942.20 0.5221
942.30 0.5217
942.40 0.5212
942.50 0.5207
942.60 0.5202
942.70 0.5197
942.80 0.5192
942.90 0.5188
943.00 0.5183
943.10 0.5178
943.20 0.5173
943.30 0.5168
943.40 0.5163
943.50 0.5159
943.60 0.5154
943.70 0.5149
943.80 0.5144
943.90 0.5139
944.00 0.5134
944.10 0.513
944.20 0.5125
944.30 0.512
944.40 0.5115
944.50 0.511
944.60 0.5106
944.70 0.5101
944.80 0.5096
944.90 0.5091
945.00 0.5086
945.10 0.5082
945.20 0.5077
945.30 0.5072
945.40 0.5067
945.50 0.5062
945.60 0.5058
945.70 0.5053
945.80 0.5048
945.90 0.5043
946.00 0.5038
946.10 0.5034
946.20 0.5029
946.30 0.5024
946.40 0.5019
946.50 0.5015
946.60 0.501
946.70 0.5005
946.80 0.5
946.90 0.4995
947.00 0.4991
947.10 0.4986
947.20 0.4981
947.30 0.4976
947.40 0.4972
947.50 0.4967
947.60 0.4962
947.70 0.4957
947.80 0.4952
947.90 0.4948
948.00 0.4943
948.10 0.4938
948.20 0.4933
948.30 0.4929
948.40 0.4924
948.50 0.4919
948.60 0.4914
948.70 0.4909
948.80 0.4905
948.90 0.49
949.00 0.4895
949.10 0.489
949.20 0.4886
949.30 0.4881
949.40 0.4876
949.50 0.4871
949.60 0.4867
949.70 0.4862
949.80 0.4857
949.90 0.4853
950.00 0.4848
950.10 0.4843
950.20 0.4839
950.30 0.4834
950.40 0.4829
950.50 0.4824
950.60 0.482
950.70 0.4815
950.80 0.481
950.90 0.4806
951.00 0.4801
951.10 0.4796
951.20 0.4792
951.30 0.4787
951.40 0.4783
951.50 0.4778
951.60 0.4773
951.70 0.4769
951.80 0.4764
951.90 0.4759
952.00 0.4755
952.10 0.475
952.20 0.4745
952.30 0.4741
952.40 0.4736
952.50 0.4732
952.60 0.4727
952.70 0.4722
952.80 0.4718
952.90 0.4713
953.00 0.4708
953.10 0.4704
953.20 0.4699
953.30 0.4695
953.40 0.469
953.50 0.4686
953.60 0.4681
953.70 0.4676
953.80 0.4672
953.90 0.4667
954.00 0.4663
954.10 0.4658
954.20 0.4653
954.30 0.4649
954.40 0.4644
954.50 0.464
954.60 0.4635
954.70 0.4631
954.80 0.4626
954.90 0.4621
955.00 0.4617
955.10 0.4612
955.20 0.4608
955.30 0.4603
955.40 0.4599
955.50 0.4594
955.60 0.459
955.70 0.4585
955.80 0.4581
955.90 0.4576
956.00 0.4571
956.10 0.4567
956.20 0.4562
956.30 0.4557
956.40 0.4553
956.50 0.4548
956.60 0.4543
956.70 0.4539
956.80 0.4534
956.90 0.453
957.00 0.4525
957.10 0.452
957.20 0.4516
957.30 0.4511
957.40 0.4507
957.50 0.4503
957.60 0.4498
957.70 0.4494
957.80 0.4489
957.90 0.4485
958.00 0.448
958.10 0.4476
958.20 0.4471
958.30 0.4467
958.40 0.4462
958.50 0.4458
958.60 0.4454
958.70 0.4449
958.80 0.4445
958.90 0.444
959.00 0.4436
959.10 0.4431
959.20 0.4427
959.30 0.4423
959.40 0.4418
959.50 0.4414
959.60 0.4409
959.70 0.4405
959.80 0.4401
959.90 0.4396
960.00 0.4392
960.10 0.4388
960.20 0.4383
960.30 0.4379
960.40 0.4374
960.50 0.437
960.60 0.4366
960.70 0.4361
960.80 0.4357
960.90 0.4353
961.00 0.4348
961.10 0.4344
961.20 0.434
961.30 0.4335
961.40 0.4331
961.50 0.4327
961.60 0.4322
961.70 0.4318
961.80 0.4314
961.90 0.4309
962.00 0.4305
962.10 0.4301
962.20 0.4296
962.30 0.4292
962.40 0.4288
962.50 0.4283
962.60 0.4279
962.70 0.4275
962.80 0.4271
962.90 0.4266
963.00 0.4262
963.10 0.4258
963.20 0.4254
963.30 0.4249
963.40 0.4245
963.50 0.4241
963.60 0.4237
963.70 0.4232
963.80 0.4228
963.90 0.4224
964.00 0.422
964.10 0.4215
964.20 0.4211
964.30 0.4207
964.40 0.4203
964.50 0.4198
964.60 0.4194
964.70 0.419
964.80 0.4186
964.90 0.4181
965.00 0.4177
965.10 0.4173
965.20 0.4169
965.30 0.4164
965.40 0.416
965.50 0.4156
965.60 0.4152
965.70 0.4147
965.80 0.4143
965.90 0.4139
966.00 0.4135
966.10 0.413
966.20 0.4126
966.30 0.4122
966.40 0.4118
966.50 0.4114
966.60 0.4109
966.70 0.4105
966.80 0.4101
966.90 0.4097
967.00 0.4093
967.10 0.4089
967.20 0.4085
967.30 0.4081
967.40 0.4077
967.50 0.4072
967.60 0.4068
967.70 0.4064
967.80 0.406
967.90 0.4056
968.00 0.4052
968.10 0.4048
968.20 0.4044
968.30 0.404
968.40 0.4036
968.50 0.4032
968.60 0.4028
968.70 0.4024
968.80 0.402
968.90 0.4016
969.00 0.4012
969.10 0.4008
969.20 0.4004
969.30 0.4
969.40 0.3996
969.50 0.3992
969.60 0.3988
969.70 0.3984
969.80 0.398
969.90 0.3976
970.00 0.3972
970.10 0.3968
970.20 0.3964
970.30 0.396
970.40 0.3956
970.50 0.3952
970.60 0.3948
970.70 0.3944
970.80 0.394
970.90 0.3936
971.00 0.3932
971.10 0.3928
971.20 0.3925
971.30 0.3921
971.40 0.3917
971.50 0.3913
971.60 0.3909
971.70 0.3905
971.80 0.3901
971.90 0.3897
972.00 0.3893
972.10 0.3889
972.20 0.3886
972.30 0.3882
972.40 0.3878
972.50 0.3874
972.60 0.387
972.70 0.3866
972.80 0.3863
972.90 0.3859
973.00 0.3855
973.10 0.3851
973.20 0.3847
973.30 0.3843
973.40 0.384
973.50 0.3836
973.60 0.3832
973.70 0.3828
973.80 0.3824
973.90 0.382
974.00 0.3817
974.10 0.3813
974.20 0.3809
974.30 0.3805
974.40 0.3801
974.50 0.3798
974.60 0.3794
974.70 0.379
974.80 0.3786
974.90 0.3783
975.00 0.3779
975.10 0.3775
975.20 0.3771
975.30 0.3768
975.40 0.3764
975.50 0.376
975.60 0.3756
975.70 0.3753
975.80 0.3749
975.90 0.3745
976.00 0.3741
976.10 0.3738
976.20 0.3734
976.30 0.373
976.40 0.3726
976.50 0.3723
976.60 0.3719
976.70 0.3715
976.80 0.3712
976.90 0.3708
977.00 0.3704
977.10 0.3701
977.20 0.3697
977.30 0.3693
977.40 0.369
977.50 0.3686
977.60 0.3683
977.70 0.3679
977.80 0.3676
977.90 0.3672
978.00 0.3668
978.10 0.3665
978.20 0.3661
978.30 0.3658
978.40 0.3654
978.50 0.3651
978.60 0.3647
978.70 0.3644
978.80 0.364
978.90 0.3637
979.00 0.3633
979.10 0.3629
979.20 0.3626
979.30 0.3622
979.40 0.3619
979.50 0.3615
979.60 0.3612
979.70 0.3608
979.80 0.3605
979.90 0.3601
980.00 0.3598
980.10 0.3594
980.20 0.3591
980.30 0.3587
980.40 0.3584
980.50 0.358
980.60 0.3577
980.70 0.3573
980.80 0.357
980.90 0.3566
981.00 0.3562
981.10 0.3559
981.20 0.3555
981.30 0.3552
981.40 0.3548
981.50 0.3545
981.60 0.3541
981.70 0.3538
981.80 0.3534
981.90 0.3531
982.00 0.3527
982.10 0.3524
982.20 0.3521
982.30 0.3517
982.40 0.3514
982.50 0.3511
982.60 0.3507
982.70 0.3504
982.80 0.35
982.90 0.3497
983.00 0.3494
983.10 0.349
983.20 0.3487
983.30 0.3484
983.40 0.348
983.50 0.3477
983.60 0.3474
983.70 0.347
983.80 0.3467
983.90 0.3464
984.00 0.346
984.10 0.3457
984.20 0.3453
984.30 0.345
984.40 0.3447
984.50 0.3443
984.60 0.344
984.70 0.3437
984.80 0.3434
984.90 0.3431
985.00 0.3428
985.10 0.3424
985.20 0.3421
985.30 0.3418
985.40 0.3415
985.50 0.3412
985.60 0.3409
985.70 0.3406
985.80 0.3403
985.90 0.3399
986.00 0.3396
986.10 0.3393
986.20 0.339
986.30 0.3387
986.40 0.3384
986.50 0.3381
986.60 0.3378
986.70 0.3374
986.80 0.3371
986.90 0.3368
987.00 0.3365
987.10 0.3362
987.20 0.3359
987.30 0.3355
987.40 0.3352
987.50 0.3349
987.60 0.3346
987.70 0.3342
987.80 0.3339
987.90 0.3336
988.00 0.3333
988.10 0.3329
988.20 0.3326
988.30 0.3323
988.40 0.332
988.50 0.3316
988.60 0.3313
988.70 0.331
988.80 0.3307
988.90 0.3303
989.00 0.33
989.10 0.3297
989.20 0.3294
989.30 0.3291
989.40 0.3287
989.50 0.3284
989.60 0.3281
989.70 0.3278
989.80 0.3274
989.90 0.3271
990.00 0.3268
990.10 0.3265
990.20 0.3262
990.30 0.3258
990.40 0.3255
990.50 0.3252
990.60 0.3249
990.70 0.3245
990.80 0.3242
990.90 0.3239
991.00 0.3236
991.10 0.3233
991.20 0.3229
991.30 0.3226
991.40 0.3223
991.50 0.322
991.60 0.3217
991.70 0.3213
991.80 0.321
991.90 0.3207
992.00 0.3204
992.10 0.3201
992.20 0.3197
992.30 0.3194
992.40 0.3191
992.50 0.3188
992.60 0.3185
992.70 0.3181
992.80 0.3178
992.90 0.3175
993.00 0.3172
993.10 0.3169
993.20 0.3166
993.30 0.3162
993.40 0.3159
993.50 0.3156
993.60 0.3153
993.70 0.315
993.80 0.3146
993.90 0.3143
994.00 0.314
994.10 0.3137
994.20 0.3134
994.30 0.3131
994.40 0.3127
994.50 0.3124
994.60 0.3121
994.70 0.3117
994.80 0.3114
994.90 0.311
995.00 0.3106
995.10 0.3102
995.20 0.3098
995.30 0.3094
995.40 0.309
995.50 0.3087
995.60 0.3083
995.70 0.3079
995.80 0.3076
995.90 0.3073
996.00 0.307
996.10 0.3067
996.20 0.3064
996.30 0.3061
996.40 0.3058
996.50 0.3055
996.60 0.3052
996.70 0.3049
996.80 0.3046
996.90 0.3043
997.00 0.304
997.10 0.3037
997.20 0.3034
997.30 0.3031
997.40 0.3028
997.50 0.3025
997.60 0.3022
997.70 0.3019
997.80 0.3016
997.90 0.3013
998.00 0.301
998.10 0.3007
998.20 0.3004
998.30 0.3001
998.40 0.2998
998.50 0.2995
998.60 0.2992
998.70 0.2989
998.80 0.2987
998.90 0.2984
999.00 0.2981
999.10 0.2978
999.20 0.2975
999.30 0.2972
999.40 0.2969
999.50 0.2966
999.60 0.2963
999.70 0.296
999.80 0.2958
999.90 0.2955
1000.00 0.2952
1000.10 0.2949
1000.20 0.2946
1000.30 0.2944
1000.40 0.2941
1000.50 0.2938
1000.60 0.2935
1000.70 0.2933
1000.80 0.293
1000.90 0.2927
1001.00 0.2924
1001.10 0.2921
1001.20 0.2919
1001.30 0.2916
1001.40 0.2913
1001.50 0.291
1001.60 0.2908
1001.70 0.2905
1001.80 0.2902
1001.90 0.2899
1002.00 0.2897
1002.10 0.2894
1002.20 0.2891
1002.30 0.2889
1002.40 0.2886
1002.50 0.2883
1002.60 0.2881
1002.70 0.2878
1002.80 0.2875
1002.90 0.2873
1003.00 0.287
1003.10 0.2867
1003.20 0.2865
1003.30 0.2862
1003.40 0.2859
1003.50 0.2857
1003.60 0.2854
1003.70 0.2852
1003.80 0.2849
1003.90 0.2846
1004.00 0.2844
1004.10 0.2841
1004.20 0.2839
1004.30 0.2836
1004.40 0.2834
1004.50 0.2831
1004.60 0.2829
1004.70 0.2826
1004.80 0.2823
1004.90 0.282
1005.00 0.2817
1005.10 0.2814
1005.20 0.2812
1005.30 0.2809
1005.40 0.2807
1005.50 0.2804
1005.60 0.2802
1005.70 0.2799
1005.80 0.2797
1005.90 0.2794
1006.00 0.2792
1006.10 0.2789
1006.20 0.2787
1006.30 0.2784
1006.40 0.2782
1006.50 0.278
1006.60 0.2777
1006.70 0.2775
1006.80 0.2772
1006.90 0.277
1007.00 0.2768
1007.10 0.2765
1007.20 0.2763
1007.30 0.2761
1007.40 0.2758
1007.50 0.2756
1007.60 0.2753
1007.70 0.2751
1007.80 0.2749
1007.90 0.2747
1008.00 0.2744
1008.10 0.2742
1008.20 0.274
1008.30 0.2738
1008.40 0.2735
1008.50 0.2733
1008.60 0.2731
1008.70 0.2728
1008.80 0.2726
1008.90 0.2724
1009.00 0.2722
1009.10 0.2719
1009.20 0.2717
1009.30 0.2715
1009.40 0.2713
1009.50 0.271
1009.60 0.2708
1009.70 0.2706
1009.80 0.2704
1009.90 0.2702
1010.00 0.27
1010.10 0.2697
1010.20 0.2695
1010.30 0.2693
1010.40 0.2691
1010.50 0.2689
1010.60 0.2687
1010.70 0.2685
1010.80 0.2682
1010.90 0.268
1011.00 0.2678
1011.10 0.2676
1011.20 0.2674
1011.30 0.2672
1011.40 0.267
1011.50 0.2667
1011.60 0.2665
1011.70 0.2663
1011.80 0.2661
1011.90 0.2659
1012.00 0.2657
1012.10 0.2655
1012.20 0.2653
1012.30 0.2651
1012.40 0.2649
1012.50 0.2647
1012.60 0.2645
1012.70 0.2643
1012.80 0.2641
1012.90 0.2639
1013.00 0.2637
1013.10 0.2635
1013.20 0.2633
1013.30 0.2631
1013.40 0.2629
1013.50 0.2627
1013.60 0.2625
1013.70 0.2623
1013.80 0.2621
1013.90 0.2619
1014.00 0.2617
1014.10 0.2615
1014.20 0.2614
1014.30 0.2612
1014.40 0.261
1014.50 0.2608
1014.60 0.2606
1014.70 0.2604
1014.80 0.2603
1014.90 0.2601
1015.00 0.2599
1015.10 0.2598
1015.20 0.2596
1015.30 0.2594
1015.40 0.2593
1015.50 0.2591
1015.60 0.2589
1015.70 0.2588
1015.80 0.2586
1015.90 0.2584
1016.00 0.2583
1016.10 0.2581
1016.20 0.2579
1016.30 0.2578
1016.40 0.2576
1016.50 0.2575
1016.60 0.2573
1016.70 0.2571
1016.80 0.2569
1016.90 0.2568
1017.00 0.2566
1017.10 0.2564
1017.20 0.2562
1017.30 0.256
1017.40 0.2559
1017.50 0.2557
1017.60 0.2555
1017.70 0.2553
1017.80 0.2552
1017.90 0.255
1018.00 0.2548
1018.10 0.2546
1018.20 0.2544
1018.30 0.2543
1018.40 0.2541
1018.50 0.2539
1018.60 0.2537
1018.70 0.2536
1018.80 0.2534
1018.90 0.2532
1019.00 0.253
1019.10 0.2529
1019.20 0.2527
1019.30 0.2525
1019.40 0.2524
1019.50 0.2522
1019.60 0.252
1019.70 0.2518
1019.80 0.2517
1019.90 0.2515
1020.00 0.2513
1020.10 0.2512
1020.20 0.251
1020.30 0.2508
1020.40 0.2506
1020.50 0.2505
1020.60 0.2503
1020.70 0.2501
1020.80 0.25
1020.90 0.2498
1021.00 0.2496
1021.10 0.2495
1021.20 0.2493
1021.30 0.2491
1021.40 0.249
1021.50 0.2488
1021.60 0.2486
1021.70 0.2485
1021.80 0.2483
1021.90 0.2481
1022.00 0.248
1022.10 0.2478
1022.20 0.2476
1022.30 0.2475
1022.40 0.2473
1022.50 0.2471
1022.60 0.247
1022.70 0.2468
1022.80 0.2467
1022.90 0.2465
1023.00 0.2463
1023.10 0.2462
1023.20 0.246
1023.30 0.2459
1023.40 0.2457
1023.50 0.2455
1023.60 0.2454
1023.70 0.2452
1023.80 0.245
1023.90 0.2449
1024.00 0.2447
1024.10 0.2446
1024.20 0.2444
1024.30 0.2442
1024.40 0.2441
1024.50 0.2439
1024.60 0.2438
1024.70 0.2436
1024.80 0.2434
1024.90 0.2433
1025.00 0.2431
1025.10 0.243
1025.20 0.2428
1025.30 0.2427
1025.40 0.2425
1025.50 0.2423
1025.60 0.2422
1025.70 0.242
1025.80 0.2419
1025.90 0.2417
1026.00 0.2416
1026.10 0.2414
1026.20 0.2412
1026.30 0.2411
1026.40 0.2409
1026.50 0.2408
1026.60 0.2406
1026.70 0.2405
1026.80 0.2403
1026.90 0.2401
1027.00 0.24
1027.10 0.2398
1027.20 0.2397
1027.30 0.2396
1027.40 0.2394
1027.50 0.2393
1027.60 0.2391
1027.70 0.239
1027.80 0.2388
1027.90 0.2387
1028.00 0.2385
1028.10 0.2384
1028.20 0.2382
1028.30 0.2381
1028.40 0.238
1028.50 0.2378
1028.60 0.2377
1028.70 0.2375
1028.80 0.2374
1028.90 0.2372
1029.00 0.2371
1029.10 0.2369
1029.20 0.2368
1029.30 0.2367
1029.40 0.2365
1029.50 0.2364
1029.60 0.2362
1029.70 0.2361
1029.80 0.2359
1029.90 0.2358
1030.00 0.2356
1030.10 0.2355
1030.20 0.2354
1030.30 0.2352
1030.40 0.2351
1030.50 0.2349
1030.60 0.2348
1030.70 0.2346
1030.80 0.2345
1030.90 0.2344
1031.00 0.2342
1031.10 0.2341
1031.20 0.2339
1031.30 0.2338
1031.40 0.2336
1031.50 0.2335
1031.60 0.2333
1031.70 0.2332
1031.80 0.2331
1031.90 0.2329
1032.00 0.2328
1032.10 0.2326
1032.20 0.2325
1032.30 0.2324
1032.40 0.2322
1032.50 0.2321
1032.60 0.232
1032.70 0.2318
1032.80 0.2317
1032.90 0.2316
1033.00 0.2314
1033.10 0.2313
1033.20 0.2312
1033.30 0.2311
1033.40 0.2309
1033.50 0.2308
1033.60 0.2307
1033.70 0.2305
1033.80 0.2304
1033.90 0.2303
1034.00 0.2301
1034.10 0.23
1034.20 0.2299
1034.30 0.2297
1034.40 0.2296
1034.50 0.2295
1034.60 0.2293
1034.70 0.2292
1034.80 0.2291
1034.90 0.2289
1035.00 0.2288
1035.10 0.2287
1035.20 0.2285
1035.30 0.2284
1035.40 0.2283
1035.50 0.2281
1035.60 0.228
1035.70 0.2279
1035.80 0.2278
1035.90 0.2276
1036.00 0.2275
1036.10 0.2274
1036.20 0.2272
1036.30 0.2271
1036.40 0.227
1036.50 0.2268
1036.60 0.2267
1036.70 0.2266
1036.80 0.2264
1036.90 0.2263
1037.00 0.2262
1037.10 0.2261
1037.20 0.2259
1037.30 0.2258
1037.40 0.2257
1037.50 0.2256
1037.60 0.2255
1037.70 0.2254
1037.80 0.2252
1037.90 0.2251
1038.00 0.225
1038.10 0.2249
1038.20 0.2248
1038.30 0.2247
1038.40 0.2245
1038.50 0.2244
1038.60 0.2243
1038.70 0.2242
1038.80 0.2241
1038.90 0.2239
1039.00 0.2238
1039.10 0.2237
1039.20 0.2236
1039.30 0.2235
1039.40 0.2234
1039.50 0.2232
1039.60 0.2231
1039.70 0.223
1039.80 0.2229
1039.90 0.2228
1040.00 0.2227
1040.10 0.2225
1040.20 0.2224
1040.30 0.2223
1040.40 0.2222
1040.50 0.2221
1040.60 0.222
1040.70 0.2218
1040.80 0.2217
1040.90 0.2216
1041.00 0.2215
1041.10 0.2214
1041.20 0.2213
1041.30 0.2211
1041.40 0.221
1041.50 0.2209
1041.60 0.2208
1041.70 0.2207
1041.80 0.2206
1041.90 0.2204
1042.00 0.2203
1042.10 0.2202
1042.20 0.2201
1042.30 0.22
1042.40 0.2199
1042.50 0.2198
1042.60 0.2197
1042.70 0.2196
1042.80 0.2195
1042.90 0.2194
1043.00 0.2193
1043.10 0.2192
1043.20 0.2191
1043.30 0.219
1043.40 0.2189
1043.50 0.2188
1043.60 0.2187
1043.70 0.2186
1043.80 0.2185
1043.90 0.2183
1044.00 0.2182
1044.10 0.2181
1044.20 0.218
1044.30 0.2179
1044.40 0.2178
1044.50 0.2177
1044.60 0.2176
1044.70 0.2175
1044.80 0.2174
1044.90 0.2173
1045.00 0.2172
1045.10 0.2171
1045.20 0.217
1045.30 0.2169
1045.40 0.2168
1045.50 0.2167
1045.60 0.2166
1045.70 0.2165
1045.80 0.2164
1045.90 0.2163
1046.00 0.2162
1046.10 0.2161
1046.20 0.216
1046.30 0.2159
1046.40 0.2158
1046.50 0.2157
1046.60 0.2156
1046.70 0.2154
1046.80 0.2153
1046.90 0.2152
1047.00 0.2151
1047.10 0.215
1047.20 0.215
1047.30 0.2149
1047.40 0.2148
1047.50 0.2147
1047.60 0.2146
1047.70 0.2145
1047.80 0.2144
1047.90 0.2143
1048.00 0.2142
1048.10 0.2141
1048.20 0.214
1048.30 0.2139
1048.40 0.2139
1048.50 0.2138
1048.60 0.2137
1048.70 0.2136
1048.80 0.2135
1048.90 0.2134
1049.00 0.2133
1049.10 0.2132
1049.20 0.2131
1049.30 0.213
1049.40 0.2129
1049.50 0.2129
1049.60 0.2128
1049.70 0.2127
1049.80 0.2126
1049.90 0.2125
1050.00 0.2124
1050.10 0.2123
1050.20 0.2122
1050.30 0.2121
1050.40 0.212
1050.50 0.2119
1050.60 0.2119
1050.70 0.2118
1050.80 0.2117
1050.90 0.2116
1051.00 0.2115
1051.10 0.2114
1051.20 0.2113
1051.30 0.2112
1051.40 0.2111
1051.50 0.211
1051.60 0.2109
1051.70 0.2109
1051.80 0.2108
1051.90 0.2107
1052.00 0.2106
1052.10 0.2105
1052.20 0.2104
1052.30 0.2104
1052.40 0.2103
1052.50 0.2102
1052.60 0.2101
1052.70 0.21
1052.80 0.21
1052.90 0.2099
1053.00 0.2098
1053.10 0.2097
1053.20 0.2096
1053.30 0.2096
1053.40 0.2095
1053.50 0.2094
1053.60 0.2093
1053.70 0.2092
1053.80 0.2092
1053.90 0.2091
1054.00 0.209
1054.10 0.2089
1054.20 0.2089
1054.30 0.2088
1054.40 0.2087
1054.50 0.2086
1054.60 0.2085
1054.70 0.2085
1054.80 0.2084
1054.90 0.2083
1055.00 0.2082
1055.10 0.2082
1055.20 0.2081
1055.30 0.208
1055.40 0.2079
1055.50 0.2078
1055.60 0.2078
1055.70 0.2077
1055.80 0.2076
1055.90 0.2075
1056.00 0.2074
1056.10 0.2074
1056.20 0.2073
1056.30 0.2072
1056.40 0.2071
1056.50 0.2071
1056.60 0.207
1056.70 0.2069
1056.80 0.2068
1056.90 0.2067
1057.00 0.2067
1057.10 0.2066
1057.20 0.2065
1057.30 0.2065
1057.40 0.2064
1057.50 0.2063
1057.60 0.2063
1057.70 0.2062
1057.80 0.2061
1057.90 0.2061
1058.00 0.206
1058.10 0.2059
1058.20 0.2059
1058.30 0.2058
1058.40 0.2057
1058.50 0.2057
1058.60 0.2056
1058.70 0.2055
1058.80 0.2055
1058.90 0.2054
1059.00 0.2053
1059.10 0.2053
1059.20 0.2052
1059.30 0.2051
1059.40 0.2051
1059.50 0.205
1059.60 0.2049
1059.70 0.2049
1059.80 0.2048
1059.90 0.2047
1060.00 0.2047
1060.10 0.2046
1060.20 0.2045
1060.30 0.2045
1060.40 0.2044
1060.50 0.2043
1060.60 0.2043
1060.70 0.2042
1060.80 0.2041
1060.90 0.2041
1061.00 0.204
1061.10 0.2039
1061.20 0.2039
1061.30 0.2038
1061.40 0.2037
1061.50 0.2037
1061.60 0.2036
1061.70 0.2035
1061.80 0.2035
1061.90 0.2034
1062.00 0.2033
1062.10 0.2033
1062.20 0.2032
1062.30 0.2032
1062.40 0.2031
1062.50 0.203
1062.60 0.203
1062.70 0.2029
1062.80 0.2029
1062.90 0.2028
1063.00 0.2028
1063.10 0.2027
1063.20 0.2027
1063.30 0.2026
1063.40 0.2025
1063.50 0.2025
1063.60 0.2024
1063.70 0.2024
1063.80 0.2023
1063.90 0.2023
1064.00 0.2022
1064.10 0.2021
1064.20 0.2021
1064.30 0.202
1064.40 0.202
1064.50 0.2019
1064.60 0.2019
1064.70 0.2018
1064.80 0.2018
1064.90 0.2017
1065.00 0.2016
1065.10 0.2016
1065.20 0.2015
1065.30 0.2015
1065.40 0.2014
1065.50 0.2014
1065.60 0.2013
1065.70 0.2012
1065.80 0.2012
1065.90 0.2011
1066.00 0.2011
1066.10 0.201
1066.20 0.201
1066.30 0.2009
1066.40 0.2009
1066.50 0.2008
1066.60 0.2007
1066.70 0.2007
1066.80 0.2006
1066.90 0.2006
1067.00 0.2005
1067.10 0.2005
1067.20 0.2004
1067.30 0.2004
1067.40 0.2003
1067.50 0.2003
1067.60 0.2002
1067.70 0.2002
1067.80 0.2002
1067.90 0.2001
1068.00 0.2001
1068.10 0.2
1068.20 0.2
1068.30 0.1999
1068.40 0.1999
1068.50 0.1998
1068.60 0.1998
1068.70 0.1997
1068.80 0.1997
1068.90 0.1996
1069.00 0.1996
1069.10 0.1996
1069.20 0.1995
1069.30 0.1995
1069.40 0.1994
1069.50 0.1994
1069.60 0.1993
1069.70 0.1993
1069.80 0.1992
1069.90 0.1992
1070.00 0.1991
1070.10 0.1991
1070.20 0.1991
1070.30 0.199
1070.40 0.199
1070.50 0.1989
1070.60 0.1989
1070.70 0.1988
1070.80 0.1988
1070.90 0.1987
1071.00 0.1987
1071.10 0.1986
1071.20 0.1986
1071.30 0.1986
1071.40 0.1985
1071.50 0.1985
1071.60 0.1984
1071.70 0.1984
1071.80 0.1983
1071.90 0.1983
1072.00 0.1982
1072.10 0.1982
1072.20 0.1982
1072.30 0.1981
1072.40 0.1981
1072.50 0.198
1072.60 0.198
1072.70 0.198
1072.80 0.1979
1072.90 0.1979
1073.00 0.1978
1073.10 0.1978
1073.20 0.1978
1073.30 0.1977
1073.40 0.1977
1073.50 0.1976
1073.60 0.1976
1073.70 0.1976
1073.80 0.1975
1073.90 0.1975
1074.00 0.1975
1074.10 0.1974
1074.20 0.1974
1074.30 0.1974
1074.40 0.1973
1074.50 0.1973
1074.60 0.1973
1074.70 0.1972
1074.80 0.1972
1074.90 0.1972
1075.00 0.1971
1075.10 0.1971
1075.20 0.197
1075.30 0.197
1075.40 0.197
1075.50 0.1969
1075.60 0.1969
1075.70 0.1969
1075.80 0.1968
1075.90 0.1968
1076.00 0.1968
1076.10 0.1967
1076.20 0.1967
1076.30 0.1967
1076.40 0.1966
1076.50 0.1966
1076.60 0.1966
1076.70 0.1965
1076.80 0.1965
1076.90 0.1965
1077.00 0.1964
1077.10 0.1964
1077.20 0.1964
1077.30 0.1963
1077.40 0.1963
1077.50 0.1963
1077.60 0.1962
1077.70 0.1962
1077.80 0.1962
1077.90 0.1961
1078.00 0.1961
1078.10 0.1961
1078.20 0.1961
1078.30 0.196
1078.40 0.196
1078.50 0.196
1078.60 0.1959
1078.70 0.1959
1078.80 0.1959
1078.90 0.1959
1079.00 0.1958
1079.10 0.1958
1079.20 0.1958
1079.30 0.1957
1079.40 0.1957
1079.50 0.1957
1079.60 0.1957
1079.70 0.1956
1079.80 0.1956
1079.90 0.1956
1080.00 0.1956
1080.10 0.1955
1080.20 0.1955
1080.30 0.1955
1080.40 0.1955
1080.50 0.1954
1080.60 0.1954
1080.70 0.1954
1080.80 0.1954
1080.90 0.1954
1081.00 0.1953
1081.10 0.1953
1081.20 0.1953
1081.30 0.1953
1081.40 0.1952
1081.50 0.1952
1081.60 0.1952
1081.70 0.1952
1081.80 0.1951
1081.90 0.1951
1082.00 0.1951
1082.10 0.1951
1082.20 0.1951
1082.30 0.195
1082.40 0.195
1082.50 0.195
1082.60 0.195
1082.70 0.195
1082.80 0.1949
1082.90 0.1949
1083.00 0.1949
1083.10 0.1949
1083.20 0.1948
1083.30 0.1948
1083.40 0.1948
1083.50 0.1948
1083.60 0.1948
1083.70 0.1947
1083.80 0.1947
1083.90 0.1947
1084.00 0.1947
1084.10 0.1947
1084.20 0.1946
1084.30 0.1946
1084.40 0.1946
1084.50 0.1946
1084.60 0.1946
1084.70 0.1945
1084.80 0.1945
1084.90 0.1945
1085.00 0.1945
1085.10 0.1945
1085.20 0.1945
1085.30 0.1944
1085.40 0.1944
1085.50 0.1944
1085.60 0.1944
1085.70 0.1944
1085.80 0.1944
1085.90 0.1943
1086.00 0.1943
1086.10 0.1943
1086.20 0.1943
1086.30 0.1943
1086.40 0.1942
1086.50 0.1942
1086.60 0.1942
1086.70 0.1942
1086.80 0.1942
1086.90 0.1942
1087.00 0.1941
1087.10 0.1941
1087.20 0.1941
1087.30 0.1941
1087.40 0.1941
1087.50 0.1941
1087.60 0.1941
1087.70 0.1941
1087.80 0.194
1087.90 0.194
1088.00 0.194
1088.10 0.194
1088.20 0.194
1088.30 0.194
1088.40 0.194
1088.50 0.1939
1088.60 0.1939
1088.70 0.1939
1088.80 0.1939
1088.90 0.1939
1089.00 0.1939
1089.10 0.1939
1089.20 0.1939
1089.30 0.1938
1089.40 0.1938
1089.50 0.1938
1089.60 0.1938
1089.70 0.1938
1089.80 0.1938
1089.90 0.1938
1090.00 0.1938
1090.10 0.1938
1090.20 0.1937
1090.30 0.1937
1090.40 0.1937
1090.50 0.1937
1090.60 0.1937
1090.70 0.1937
1090.80 0.1937
1090.90 0.1937
1091.00 0.1937
1091.10 0.1937
1091.20 0.1937
1091.30 0.1936
1091.40 0.1936
1091.50 0.1936
1091.60 0.1936
1091.70 0.1936
1091.80 0.1936
1091.90 0.1936
1092.00 0.1936
1092.10 0.1936
1092.20 0.1936
1092.30 0.1936
1092.40 0.1936
1092.50 0.1935
1092.60 0.1935
1092.70 0.1935
1092.80 0.1936
1092.90 0.1936
1093.00 0.1936
1093.10 0.1936
1093.20 0.1936
1093.30 0.1936
1093.40 0.1936
1093.50 0.1936
1093.60 0.1936
1093.70 0.1936
1093.80 0.1935
1093.90 0.1935
1094.00 0.1935
1094.10 0.1935
1094.20 0.1935
1094.30 0.1935
1094.40 0.1935
1094.50 0.1935
1094.60 0.1935
1094.70 0.1935
1094.80 0.1935
1094.90 0.1935
1095.00 0.1935
1095.10 0.1935
1095.20 0.1935
1095.30 0.1935
1095.40 0.1935
1095.50 0.1935
1095.60 0.1935
1095.70 0.1935
1095.80 0.1935
1095.90 0.1935
1096.00 0.1935
1096.10 0.1934
1096.20 0.1934
1096.30 0.1934
1096.40 0.1934
1096.50 0.1934
1096.60 0.1934
1096.70 0.1934
1096.80 0.1934
1096.90 0.1934
1097.00 0.1934
1097.10 0.1934
1097.20 0.1934
1097.30 0.1934
1097.40 0.1934
1097.50 0.1934
1097.60 0.1934
1097.70 0.1934
1097.80 0.1934
1097.90 0.1934
1098.00 0.1934
1098.10 0.1934
1098.20 0.1934
1098.30 0.1934
1098.40 0.1934
1098.50 0.1934
1098.60 0.1934
1098.70 0.1934
1098.80 0.1934
1098.90 0.1934
1099.00 0.1934
1099.10 0.1934
1099.20 0.1934
1099.30 0.1934
1099.40 0.1934
1099.50 0.1934
1099.60 0.1934
1099.70 0.1934
1099.80 0.1934
1099.90 0.1934
1100.00 0.1934
1100.10 0.1934
1100.20 0.1934
1100.30 0.1934
1100.40 0.1934
1100.50 0.1934
1100.60 0.1934
1100.70 0.1934
1100.80 0.1934
1100.90 0.1934
1101.00 0.1934
1101.10 0.1934
1101.20 0.1934
1101.30 0.1934
1101.40 0.1934
1101.50 0.1934
1101.60 0.1934
1101.70 0.1934
1101.80 0.1934
1101.90 0.1934
1102.00 0.1934
1102.10 0.1934
1102.20 0.1934
1102.30 0.1934
1102.40 0.1934
1102.50 0.1934
1102.60 0.1934
1102.70 0.1934
1102.80 0.1934
1102.90 0.1934
1103.00 0.1934
1103.10 0.1934
1103.20 0.1935
1103.30 0.1935
1103.40 0.1935
1103.50 0.1935
1103.60 0.1935
1103.70 0.1935
1103.80 0.1935
1103.90 0.1935
1104.00 0.1935
1104.10 0.1935
1104.20 0.1935
1104.30 0.1935
1104.40 0.1935
1104.50 0.1935
1104.60 0.1935
1104.70 0.1935
1104.80 0.1936
1104.90 0.1936
1105.00 0.1936
1105.10 0.1936
1105.20 0.1936
1105.30 0.1936
1105.40 0.1936
1105.50 0.1936
1105.60 0.1936
1105.70 0.1936
1105.80 0.1936
1105.90 0.1936
1106.00 0.1936
1106.10 0.1936
1106.20 0.1936
1106.30 0.1936
1106.40 0.1937
1106.50 0.1937
1106.60 0.1937
1106.70 0.1937
1106.80 0.1937
1106.90 0.1937
1107.00 0.1937
1107.10 0.1937
1107.20 0.1937
1107.30 0.1937
1107.40 0.1937
1107.50 0.1937
1107.60 0.1937
1107.70 0.1937
1107.80 0.1937
1107.90 0.1938
1108.00 0.1938
1108.10 0.1938
1108.20 0.1938
1108.30 0.1938
1108.40 0.1938
1108.50 0.1938
1108.60 0.1938
1108.70 0.1938
1108.80 0.1938
1108.90 0.1938
1109.00 0.1938
1109.10 0.1938
1109.20 0.1938
1109.30 0.1939
1109.40 0.1939
1109.50 0.1939
1109.60 0.1939
1109.70 0.1939
1109.80 0.1939
1109.90 0.1939
1110.00 0.1939
1110.10 0.1939
1110.20 0.1939
1110.30 0.1939
1110.40 0.1939
1110.50 0.194
1110.60 0.194
1110.70 0.194
1110.80 0.194
1110.90 0.194
1111.00 0.194
1111.10 0.194
1111.20 0.194
1111.30 0.194
1111.40 0.194
1111.50 0.194
1111.60 0.194
1111.70 0.1941
1111.80 0.1941
1111.90 0.1941
1112.00 0.1941
1112.10 0.1941
1112.20 0.1941
1112.30 0.1941
1112.40 0.1941
1112.50 0.1941
1112.60 0.1941
1112.70 0.1942
1112.80 0.1942
1112.90 0.1942
1113.00 0.1942
1113.10 0.1942
1113.20 0.1942
1113.30 0.1942
1113.40 0.1942
1113.50 0.1942
1113.60 0.1942
1113.70 0.1943
1113.80 0.1943
1113.90 0.1943
1114.00 0.1943
1114.10 0.1943
1114.20 0.1943
1114.30 0.1943
1114.40 0.1943
1114.50 0.1943
1114.60 0.1944
1114.70 0.1944
1114.80 0.1944
1114.90 0.1944
1115.00 0.1944
1115.10 0.1944
1115.20 0.1944
1115.30 0.1944
1115.40 0.1945
1115.50 0.1945
1115.60 0.1945
1115.70 0.1945
1115.80 0.1945
1115.90 0.1945
1116.00 0.1945
1116.10 0.1945
1116.20 0.1945
1116.30 0.1946
1116.40 0.1946
1116.50 0.1946
1116.60 0.1946
1116.70 0.1946
1116.80 0.1946
1116.90 0.1946
1117.00 0.1946
1117.10 0.1947
1117.20 0.1947
1117.30 0.1947
1117.40 0.1947
1117.50 0.1947
1117.60 0.1947
1117.70 0.1947
1117.80 0.1948
1117.90 0.1948
1118.00 0.1948
1118.10 0.1948
1118.20 0.1948
1118.30 0.1948
1118.40 0.1948
1118.50 0.1949
1118.60 0.1949
1118.70 0.1949
1118.80 0.1949
1118.90 0.1949
1119.00 0.1949
1119.10 0.1949
1119.20 0.195
1119.30 0.195
1119.40 0.195
1119.50 0.195
1119.60 0.195
1119.70 0.195
1119.80 0.195
1119.90 0.1951
1120.00 0.1951
1120.10 0.1951
1120.20 0.1951
1120.30 0.1951
1120.40 0.1951
1120.50 0.1952
1120.60 0.1952
1120.70 0.1952
1120.80 0.1952
1120.90 0.1952
1121.00 0.1952
1121.10 0.1952
1121.20 0.1953
1121.30 0.1953
1121.40 0.1953
1121.50 0.1953
1121.60 0.1953
1121.70 0.1953
1121.80 0.1953
1121.90 0.1954
1122.00 0.1954
1122.10 0.1954
1122.20 0.1954
1122.30 0.1954
1122.40 0.1954
1122.50 0.1954
1122.60 0.1955
1122.70 0.1955
1122.80 0.1955
1122.90 0.1955
1123.00 0.1955
1123.10 0.1955
1123.20 0.1956
1123.30 0.1956
1123.40 0.1956
1123.50 0.1956
1123.60 0.1956
1123.70 0.1956
1123.80 0.1956
1123.90 0.1957
1124.00 0.1957
1124.10 0.1957
1124.20 0.1957
1124.30 0.1957
1124.40 0.1957
1124.50 0.1957
1124.60 0.1958
1124.70 0.1958
1124.80 0.1958
1124.90 0.1958
1125.00 0.1958
1125.10 0.1958
1125.20 0.1958
1125.30 0.1959
1125.40 0.1959
1125.50 0.1959
1125.60 0.1959
1125.70 0.1959
1125.80 0.1959
1125.90 0.196
1126.00 0.196
1126.10 0.196
1126.20 0.196
1126.30 0.196
1126.40 0.196
1126.50 0.196
1126.60 0.1961
1126.70 0.1961
1126.80 0.1961
1126.90 0.1961
1127.00 0.1961
1127.10 0.1961
1127.20 0.1962
1127.30 0.1962
1127.40 0.1962
1127.50 0.1962
1127.60 0.1962
1127.70 0.1962
1127.80 0.1963
1127.90 0.1963
1128.00 0.1963
1128.10 0.1963
1128.20 0.1963
1128.30 0.1964
1128.40 0.1964
1128.50 0.1964
1128.60 0.1964
1128.70 0.1964
1128.80 0.1965
1128.90 0.1965
1129.00 0.1965
1129.10 0.1965
1129.20 0.1965
1129.30 0.1965
1129.40 0.1966
1129.50 0.1966
1129.60 0.1966
1129.70 0.1966
1129.80 0.1966
1129.90 0.1967
1130.00 0.1967
1130.10 0.1967
1130.20 0.1967
1130.30 0.1967
1130.40 0.1968
1130.50 0.1968
1130.60 0.1968
1130.70 0.1968
1130.80 0.1968
1130.90 0.1968
1131.00 0.1969
1131.10 0.1969
1131.20 0.1969
1131.30 0.1969
1131.40 0.1969
1131.50 0.197
1131.60 0.197
1131.70 0.197
1131.80 0.197
1131.90 0.197
1132.00 0.1971
1132.10 0.1971
1132.20 0.1971
1132.30 0.1971
1132.40 0.1971
1132.50 0.1971
1132.60 0.1971
1132.70 0.1972
1132.80 0.1972
1132.90 0.1972
1133.00 0.1972
1133.10 0.1972
1133.20 0.1972
1133.30 0.1973
1133.40 0.1973
1133.50 0.1973
1133.60 0.1973
1133.70 0.1973
1133.80 0.1973
1133.90 0.1973
1134.00 0.1974
1134.10 0.1974
1134.20 0.1974
1134.30 0.1974
1134.40 0.1974
1134.50 0.1974
1134.60 0.1974
1134.70 0.1975
1134.80 0.1975
1134.90 0.1975
1135.00 0.1975
1135.10 0.1975
1135.20 0.1975
1135.30 0.1976
1135.40 0.1976
1135.50 0.1976
1135.60 0.1976
1135.70 0.1976
1135.80 0.1976
1135.90 0.1976
1136.00 0.1977
1136.10 0.1977
1136.20 0.1977
1136.30 0.1977
1136.40 0.1977
1136.50 0.1977
1136.60 0.1978
1136.70 0.1978
1136.80 0.1978
1136.90 0.1978
1137.00 0.1978
1137.10 0.1978
1137.20 0.1978
1137.30 0.1979
1137.40 0.1979
1137.50 0.1979
1137.60 0.1979
1137.70 0.1979
1137.80 0.1979
1137.90 0.1979
1138.00 0.198
1138.10 0.198
1138.20 0.198
1138.30 0.198
1138.40 0.198
1138.50 0.198
1138.60 0.198
1138.70 0.198
1138.80 0.1981
1138.90 0.1981
1139.00 0.1981
1139.10 0.1981
1139.20 0.1981
1139.30 0.1981
1139.40 0.1981
1139.50 0.1982
1139.60 0.1982
1139.70 0.1982
1139.80 0.1982
1139.90 0.1982
1140.00 0.1982
1140.10 0.1982
1140.20 0.1983
1140.30 0.1983
1140.40 0.1983
1140.50 0.1983
1140.60 0.1983
1140.70 0.1983
1140.80 0.1983
1140.90 0.1983
1141.00 0.1984
1141.10 0.1984
1141.20 0.1984
1141.30 0.1984
1141.40 0.1984
1141.50 0.1984
1141.60 0.1984
1141.70 0.1985
1141.80 0.1985
1141.90 0.1985
1142.00 0.1985
1142.10 0.1985
1142.20 0.1985
1142.30 0.1985
1142.40 0.1986
1142.50 0.1986
1142.60 0.1986
1142.70 0.1986
1142.80 0.1986
1142.90 0.1986
1143.00 0.1986
1143.10 0.1986
1143.20 0.1987
1143.30 0.1987
1143.40 0.1987
1143.50 0.1987
1143.60 0.1987
1143.70 0.1987
1143.80 0.1987
1143.90 0.1988
1144.00 0.1988
1144.10 0.1988
1144.20 0.1988
1144.30 0.1988
1144.40 0.1988
1144.50 0.1988
1144.60 0.1989
1144.70 0.1989
1144.80 0.1989
1144.90 0.1989
1145.00 0.1989
1145.10 0.1989
1145.20 0.1989
1145.30 0.1989
1145.40 0.199
1145.50 0.199
1145.60 0.199
1145.70 0.199
1145.80 0.199
1145.90 0.199
1146.00 0.199
1146.10 0.1991
1146.20 0.1991
1146.30 0.1991
1146.40 0.1991
1146.50 0.1991
1146.60 0.1991
1146.70 0.1991
1146.80 0.1991
1146.90 0.1992
1147.00 0.1992
1147.10 0.1992
1147.20 0.1992
1147.30 0.1992
1147.40 0.1992
1147.50 0.1992
1147.60 0.1992
1147.70 0.1992
1147.80 0.1992
1147.90 0.1992
1148.00 0.1992
1148.10 0.1993
1148.20 0.1993
1148.30 0.1993
1148.40 0.1993
1148.50 0.1993
1148.60 0.1993
1148.70 0.1993
1148.80 0.1993
1148.90 0.1993
1149.00 0.1993
1149.10 0.1993
1149.20 0.1993
1149.30 0.1993
1149.40 0.1993
1149.50 0.1994
1149.60 0.1994
1149.70 0.1994
1149.80 0.1994
1149.90 0.1994
1150.00 0.1994
1150.10 0.1994
1150.20 0.1994
1150.30 0.1994
1150.40 0.1994
1150.50 0.1994
1150.60 0.1994
1150.70 0.1994
1150.80 0.1994
1150.90 0.1995
1151.00 0.1995
1151.10 0.1995
1151.20 0.1995
1151.30 0.1995
1151.40 0.1995
1151.50 0.1995
1151.60 0.1995
1151.70 0.1995
1151.80 0.1995
1151.90 0.1995
1152.00 0.1995
1152.10 0.1995
1152.20 0.1995
1152.30 0.1995
1152.40 0.1996
1152.50 0.1996
1152.60 0.1996
1152.70 0.1996
1152.80 0.1996
1152.90 0.1996
1153.00 0.1996
1153.10 0.1996
1153.20 0.1996
1153.30 0.1996
1153.40 0.1996
1153.50 0.1996
1153.60 0.1996
1153.70 0.1996
1153.80 0.1996
1153.90 0.1996
1154.00 0.1996
1154.10 0.1996
1154.20 0.1996
1154.30 0.1996
1154.40 0.1996
1154.50 0.1997
1154.60 0.1997
1154.70 0.1997
1154.80 0.1997
1154.90 0.1997
1155.00 0.1997
1155.10 0.1997
1155.20 0.1997
1155.30 0.1997
1155.40 0.1997
1155.50 0.1997
1155.60 0.1997
1155.70 0.1997
1155.80 0.1997
1155.90 0.1997
1156.00 0.1997
1156.10 0.1997
1156.20 0.1997
1156.30 0.1997
1156.40 0.1997
1156.50 0.1997
1156.60 0.1998
1156.70 0.1998
1156.80 0.1998
1156.90 0.1998
1157.00 0.1998
1157.10 0.1998
1157.20 0.1998
1157.30 0.1998
1157.40 0.1998
1157.50 0.1998
1157.60 0.1998
1157.70 0.1998
1157.80 0.1998
1157.90 0.1997
1158.00 0.1997
1158.10 0.1997
1158.20 0.1997
1158.30 0.1997
1158.40 0.1997
1158.50 0.1997
1158.60 0.1997
1158.70 0.1997
1158.80 0.1997
1158.90 0.1997
1159.00 0.1997
1159.10 0.1997
1159.20 0.1997
1159.30 0.1997
1159.40 0.1997
1159.50 0.1997
1159.60 0.1997
1159.70 0.1997
1159.80 0.1997
1159.90 0.1997
1160.00 0.1997
1160.10 0.1997
1160.20 0.1997
1160.30 0.1997
1160.40 0.1997
1160.50 0.1997
1160.60 0.1997
1160.70 0.1997
1160.80 0.1997
1160.90 0.1997
1161.00 0.1997
1161.10 0.1997
1161.20 0.1997
1161.30 0.1997
1161.40 0.1997
1161.50 0.1997
1161.60 0.1997
1161.70 0.1997
1161.80 0.1997
1161.90 0.1997
1162.00 0.1996
1162.10 0.1996
1162.20 0.1996
1162.30 0.1996
1162.40 0.1996
1162.50 0.1996
1162.60 0.1996
1162.70 0.1996
1162.80 0.1996
1162.90 0.1996
1163.00 0.1996
1163.10 0.1996
1163.20 0.1995
1163.30 0.1995
1163.40 0.1995
1163.50 0.1995
1163.60 0.1995
1163.70 0.1995
1163.80 0.1995
1163.90 0.1995
1164.00 0.1995
1164.10 0.1995
1164.20 0.1995
1164.30 0.1995
1164.40 0.1994
1164.50 0.1994
1164.60 0.1994
1164.70 0.1994
1164.80 0.1994
1164.90 0.1994
1165.00 0.1994
1165.10 0.1994
1165.20 0.1994
1165.30 0.1994
1165.40 0.1994
1165.50 0.1994
1165.60 0.1993
1165.70 0.1993
1165.80 0.1993
1165.90 0.1993
1166.00 0.1993
1166.10 0.1993
1166.20 0.1993
1166.30 0.1993
1166.40 0.1993
1166.50 0.1993
1166.60 0.1993
1166.70 0.1993
1166.80 0.1992
1166.90 0.1992
1167.00 0.1992
1167.10 0.1992
1167.20 0.1992
1167.30 0.1992
1167.40 0.1992
1167.50 0.1992
1167.60 0.1992
1167.70 0.1991
1167.80 0.1991
1167.90 0.1991
1168.00 0.1991
1168.10 0.1991
1168.20 0.1991
1168.30 0.1991
1168.40 0.199
1168.50 0.199
1168.60 0.199
1168.70 0.199
1168.80 0.199
1168.90 0.199
1169.00 0.199
1169.10 0.199
1169.20 0.1989
1169.30 0.1989
1169.40 0.1989
1169.50 0.1989
1169.60 0.1989
1169.70 0.1989
1169.80 0.1989
1169.90 0.1988
1170.00 0.1988
1170.10 0.1988
1170.20 0.1988
1170.30 0.1988
1170.40 0.1988
1170.50 0.1988
1170.60 0.1988
1170.70 0.1987
1170.80 0.1987
1170.90 0.1987
1171.00 0.1987
1171.10 0.1987
1171.20 0.1987
1171.30 0.1987
1171.40 0.1986
1171.50 0.1986
1171.60 0.1986
1171.70 0.1986
1171.80 0.1986
1171.90 0.1986
1172.00 0.1986
1172.10 0.1985
1172.20 0.1985
1172.30 0.1985
1172.40 0.1985
1172.50 0.1985
1172.60 0.1984
1172.70 0.1984
1172.80 0.1984
1172.90 0.1984
1173.00 0.1984
1173.10 0.1983
1173.20 0.1983
1173.30 0.1983
1173.40 0.1983
1173.50 0.1983
1173.60 0.1982
1173.70 0.1982
1173.80 0.1982
1173.90 0.1982
1174.00 0.1982
1174.10 0.1981
1174.20 0.1981
1174.30 0.1981
1174.40 0.1981
1174.50 0.1981
1174.60 0.198
1174.70 0.198
1174.80 0.198
1174.90 0.198
1175.00 0.198
1175.10 0.1979
1175.20 0.1979
1175.30 0.1979
1175.40 0.1979
1175.50 0.1979
1175.60 0.1978
1175.70 0.1978
1175.80 0.1978
1175.90 0.1978
1176.00 0.1978
1176.10 0.1977
1176.20 0.1977
1176.30 0.1977
1176.40 0.1977
1176.50 0.1977
1176.60 0.1976
1176.70 0.1976
1176.80 0.1976
1176.90 0.1976
1177.00 0.1976
1177.10 0.1975
1177.20 0.1975
1177.30 0.1975
1177.40 0.1975
1177.50 0.1974
1177.60 0.1974
1177.70 0.1974
1177.80 0.1974
1177.90 0.1973
1178.00 0.1973
1178.10 0.1973
1178.20 0.1973
1178.30 0.1972
1178.40 0.1972
1178.50 0.1972
1178.60 0.1972
1178.70 0.1971
1178.80 0.1971
1178.90 0.1971
1179.00 0.197
1179.10 0.197
1179.20 0.197
1179.30 0.197
1179.40 0.1969
1179.50 0.1969
1179.60 0.1969
1179.70 0.1969
1179.80 0.1968
1179.90 0.1968
1180.00 0.1968
1180.10 0.1968
1180.20 0.1967
1180.30 0.1967
1180.40 0.1967
1180.50 0.1967
1180.60 0.1966
1180.70 0.1966
1180.80 0.1966
1180.90 0.1966
1181.00 0.1965
1181.10 0.1965
1181.20 0.1965
1181.30 0.1965
1181.40 0.1964
1181.50 0.1964
1181.60 0.1964
1181.70 0.1964
1181.80 0.1963
1181.90 0.1963
1182.00 0.1963
1182.10 0.1962
1182.20 0.1962
1182.30 0.1962
1182.40 0.1961
1182.50 0.1961
1182.60 0.1961
1182.70 0.196
1182.80 0.196
1182.90 0.196
1183.00 0.1959
1183.10 0.1959
1183.20 0.1959
1183.30 0.1958
1183.40 0.1958
1183.50 0.1958
1183.60 0.1957
1183.70 0.1957
1183.80 0.1957
1183.90 0.1956
1184.00 0.1956
1184.10 0.1956
1184.20 0.1955
1184.30 0.1955
1184.40 0.1955
1184.50 0.1954
1184.60 0.1954
1184.70 0.1954
1184.80 0.1953
1184.90 0.1953
1185.00 0.1953
1185.10 0.1952
1185.20 0.1952
1185.30 0.1952
1185.40 0.1951
1185.50 0.1951
1185.60 0.1951
1185.70 0.195
1185.80 0.195
1185.90 0.195
1186.00 0.1949
1186.10 0.1949
1186.20 0.1949
1186.30 0.1948
1186.40 0.1948
1186.50 0.1948
1186.60 0.1947
1186.70 0.1947
1186.80 0.1947
1186.90 0.1946
1187.00 0.1946
1187.10 0.1946
1187.20 0.1945
1187.30 0.1945
1187.40 0.1945
1187.50 0.1944
1187.60 0.1944
1187.70 0.1944
1187.80 0.1943
1187.90 0.1943
1188.00 0.1943
1188.10 0.1942
1188.20 0.1942
1188.30 0.1942
1188.40 0.1941
1188.50 0.1941
1188.60 0.1941
1188.70 0.194
1188.80 0.194
1188.90 0.194
1189.00 0.1939
1189.10 0.1939
1189.20 0.1939
1189.30 0.1938
1189.40 0.1938
1189.50 0.1938
1189.60 0.1937
1189.70 0.1937
1189.80 0.1937
1189.90 0.1936
1190.00 0.1936
1190.10 0.1936
1190.20 0.1935
1190.30 0.1935
1190.40 0.1935
1190.50 0.1934
1190.60 0.1934
1190.70 0.1934
1190.80 0.1933
1190.90 0.1933
1191.00 0.1933
1191.10 0.1932
1191.20 0.1932
1191.30 0.1932
1191.40 0.1931
1191.50 0.1931
1191.60 0.1931
1191.70 0.193
1191.80 0.193
1191.90 0.193
1192.00 0.1929
1192.10 0.1929
1192.20 0.1929
1192.30 0.1928
1192.40 0.1928
1192.50 0.1927
1192.60 0.1927
1192.70 0.1927
1192.80 0.1926
1192.90 0.1926
1193.00 0.1926
1193.10 0.1925
1193.20 0.1925
1193.30 0.1925
1193.40 0.1924
1193.50 0.1924
1193.60 0.1924
1193.70 0.1923
1193.80 0.1923
1193.90 0.1922
1194.00 0.1922
1194.10 0.1922
1194.20 0.1921
1194.30 0.1921
1194.40 0.1921
1194.50 0.192
1194.60 0.192
1194.70 0.192
1194.80 0.1919
1194.90 0.1919
1195.00 0.1919
1195.10 0.1918
1195.20 0.1918
1195.30 0.1917
1195.40 0.1917
1195.50 0.1917
1195.60 0.1916
1195.70 0.1916
1195.80 0.1916
1195.90 0.1915
1196.00 0.1915
1196.10 0.1915
1196.20 0.1914
1196.30 0.1914
1196.40 0.1914
1196.50 0.1913
1196.60 0.1913
1196.70 0.1912
1196.80 0.1912
1196.90 0.1912
1197.00 0.1911
1197.10 0.1911
1197.20 0.1911
1197.30 0.191
1197.40 0.191
1197.50 0.1909
1197.60 0.1909
1197.70 0.1909
1197.80 0.1908
1197.90 0.1908
1198.00 0.1907
1198.10 0.1907
1198.20 0.1907
1198.30 0.1906
1198.40 0.1906
1198.50 0.1905
1198.60 0.1905
1198.70 0.1904
1198.80 0.1904
1198.90 0.1904
1199.00 0.1903
1199.10 0.1903
1199.20 0.1902
1199.30 0.1902
1199.40 0.1902
1199.50 0.1901
1199.60 0.1901
1199.70 0.19
1199.80 0.19
1199.90 0.19
1200.00 0
