# Version 2.1 - nm, norm@500 to 1, cut digits, bergeron_3500_95.dat_3500
# Wavelength(nm)  Flambda(ergs/cm^s/s/nm)
300.00 0.1817
300.10 0.182
300.20 0.1824
300.30 0.1827
300.40 0.183
300.50 0.1834
300.60 0.1837
300.70 0.184
300.80 0.1844
300.90 0.1847
301.00 0.185
301.10 0.1854
301.20 0.1857
301.30 0.186
301.40 0.1864
301.50 0.1867
301.60 0.187
301.70 0.1874
301.80 0.1877
301.90 0.188
302.00 0.1884
302.10 0.1887
302.20 0.1891
302.30 0.1894
302.40 0.1897
302.50 0.1901
302.60 0.1904
302.70 0.1908
302.80 0.1911
302.90 0.1915
303.00 0.1918
303.10 0.1921
303.20 0.1925
303.30 0.1928
303.40 0.1931
303.50 0.1935
303.60 0.1938
303.70 0.1942
303.80 0.1945
303.90 0.1948
304.00 0.1952
304.10 0.1955
304.20 0.1959
304.30 0.1962
304.40 0.1966
304.50 0.1969
304.60 0.1973
304.70 0.1976
304.80 0.198
304.90 0.1983
305.00 0.1986
305.10 0.199
305.20 0.1993
305.30 0.1997
305.40 0.2
305.50 0.2004
305.60 0.2007
305.70 0.2011
305.80 0.2014
305.90 0.2017
306.00 0.2021
306.10 0.2024
306.20 0.2028
306.30 0.2031
306.40 0.2035
306.50 0.2039
306.60 0.2042
306.70 0.2046
306.80 0.2049
306.90 0.2053
307.00 0.2056
307.10 0.206
307.20 0.2063
307.30 0.2067
307.40 0.207
307.50 0.2074
307.60 0.2077
307.70 0.2081
307.80 0.2084
307.90 0.2088
308.00 0.2091
308.10 0.2095
308.20 0.2098
308.30 0.2102
308.40 0.2106
308.50 0.2109
308.60 0.2113
308.70 0.2116
308.80 0.212
308.90 0.2123
309.00 0.2127
309.10 0.2131
309.20 0.2134
309.30 0.2138
309.40 0.2141
309.50 0.2145
309.60 0.2148
309.70 0.2152
309.80 0.2155
309.90 0.2159
310.00 0.2163
310.10 0.2166
310.20 0.217
310.30 0.2173
310.40 0.2177
310.50 0.2181
310.60 0.2184
310.70 0.2188
310.80 0.2192
310.90 0.2195
311.00 0.2199
311.10 0.2203
311.20 0.2206
311.30 0.221
311.40 0.2213
311.50 0.2217
311.60 0.2221
311.70 0.2224
311.80 0.2228
311.90 0.2231
312.00 0.2235
312.10 0.2239
312.20 0.2242
312.30 0.2246
312.40 0.225
312.50 0.2253
312.60 0.2257
312.70 0.2261
312.80 0.2264
312.90 0.2268
313.00 0.2272
313.10 0.2276
313.20 0.2279
313.30 0.2283
313.40 0.2287
313.50 0.229
313.60 0.2294
313.70 0.2297
313.80 0.2301
313.90 0.2305
314.00 0.2309
314.10 0.2312
314.20 0.2316
314.30 0.232
314.40 0.2323
314.50 0.2327
314.60 0.2331
314.70 0.2335
314.80 0.2338
314.90 0.2342
315.00 0.2346
315.10 0.235
315.20 0.2353
315.30 0.2357
315.40 0.2361
315.50 0.2364
315.60 0.2368
315.70 0.2372
315.80 0.2376
315.90 0.2379
316.00 0.2383
316.10 0.2387
316.20 0.2391
316.30 0.2394
316.40 0.2398
316.50 0.2402
316.60 0.2406
316.70 0.241
316.80 0.2413
316.90 0.2417
317.00 0.2421
317.10 0.2425
317.20 0.2428
317.30 0.2432
317.40 0.2436
317.50 0.244
317.60 0.2443
317.70 0.2447
317.80 0.2451
317.90 0.2455
318.00 0.2458
318.10 0.2462
318.20 0.2466
318.30 0.247
318.40 0.2474
318.50 0.2478
318.60 0.2482
318.70 0.2485
318.80 0.2489
318.90 0.2493
319.00 0.2497
319.10 0.2501
319.20 0.2505
319.30 0.2508
319.40 0.2512
319.50 0.2516
319.60 0.252
319.70 0.2524
319.80 0.2527
319.90 0.2531
320.00 0.2535
320.10 0.2539
320.20 0.2543
320.30 0.2547
320.40 0.2551
320.50 0.2554
320.60 0.2558
320.70 0.2562
320.80 0.2566
320.90 0.257
321.00 0.2574
321.10 0.2578
321.20 0.2582
321.30 0.2585
321.40 0.2589
321.50 0.2593
321.60 0.2597
321.70 0.2601
321.80 0.2605
321.90 0.2608
322.00 0.2612
322.10 0.2616
322.20 0.262
322.30 0.2624
322.40 0.2628
322.50 0.2632
322.60 0.2636
322.70 0.264
322.80 0.2644
322.90 0.2648
323.00 0.2652
323.10 0.2656
323.20 0.266
323.30 0.2663
323.40 0.2667
323.50 0.2671
323.60 0.2675
323.70 0.2679
323.80 0.2683
323.90 0.2687
324.00 0.2691
324.10 0.2695
324.20 0.2699
324.30 0.2703
324.40 0.2707
324.50 0.2711
324.60 0.2715
324.70 0.2719
324.80 0.2723
324.90 0.2726
325.00 0.273
325.10 0.2734
325.20 0.2738
325.30 0.2742
325.40 0.2746
325.50 0.275
325.60 0.2754
325.70 0.2758
325.80 0.2762
325.90 0.2766
326.00 0.277
326.10 0.2774
326.20 0.2778
326.30 0.2782
326.40 0.2786
326.50 0.279
326.60 0.2794
326.70 0.2798
326.80 0.2802
326.90 0.2806
327.00 0.281
327.10 0.2814
327.20 0.2818
327.30 0.2822
327.40 0.2826
327.50 0.283
327.60 0.2834
327.70 0.2838
327.80 0.2842
327.90 0.2846
328.00 0.285
328.10 0.2854
328.20 0.2858
328.30 0.2862
328.40 0.2866
328.50 0.287
328.60 0.2874
328.70 0.2878
328.80 0.2882
328.90 0.2887
329.00 0.2891
329.10 0.2895
329.20 0.2899
329.30 0.2903
329.40 0.2907
329.50 0.2911
329.60 0.2915
329.70 0.2919
329.80 0.2923
329.90 0.2927
330.00 0.2931
330.10 0.2935
330.20 0.2939
330.30 0.2943
330.40 0.2947
330.50 0.2951
330.60 0.2955
330.70 0.296
330.80 0.2964
330.90 0.2968
331.00 0.2972
331.10 0.2976
331.20 0.298
331.30 0.2984
331.40 0.2988
331.50 0.2992
331.60 0.2996
331.70 0.3
331.80 0.3004
331.90 0.3008
332.00 0.3012
332.10 0.3017
332.20 0.3021
332.30 0.3025
332.40 0.3029
332.50 0.3033
332.60 0.3037
332.70 0.3042
332.80 0.3046
332.90 0.305
333.00 0.3054
333.10 0.3058
333.20 0.3062
333.30 0.3066
333.40 0.307
333.50 0.3074
333.60 0.3079
333.70 0.3083
333.80 0.3087
333.90 0.3091
334.00 0.3095
334.10 0.3099
334.20 0.3103
334.30 0.3107
334.40 0.3112
334.50 0.3116
334.60 0.312
334.70 0.3124
334.80 0.3128
334.90 0.3133
335.00 0.3137
335.10 0.3141
335.20 0.3145
335.30 0.3149
335.40 0.3153
335.50 0.3157
335.60 0.3162
335.70 0.3166
335.80 0.317
335.90 0.3174
336.00 0.3178
336.10 0.3182
336.20 0.3187
336.30 0.3191
336.40 0.3195
336.50 0.3199
336.60 0.3204
336.70 0.3208
336.80 0.3212
336.90 0.3216
337.00 0.322
337.10 0.3225
337.20 0.3229
337.30 0.3233
337.40 0.3237
337.50 0.3241
337.60 0.3245
337.70 0.325
337.80 0.3254
337.90 0.3258
338.00 0.3262
338.10 0.3266
338.20 0.3271
338.30 0.3275
338.40 0.3279
338.50 0.3283
338.60 0.3288
338.70 0.3292
338.80 0.3296
338.90 0.33
339.00 0.3305
339.10 0.3309
339.20 0.3313
339.30 0.3317
339.40 0.3321
339.50 0.3326
339.60 0.333
339.70 0.3334
339.80 0.3338
339.90 0.3342
340.00 0.3347
340.10 0.3351
340.20 0.3355
340.30 0.3359
340.40 0.3364
340.50 0.3368
340.60 0.3372
340.70 0.3377
340.80 0.3381
340.90 0.3385
341.00 0.339
341.10 0.3394
341.20 0.3398
341.30 0.3402
341.40 0.3407
341.50 0.3411
341.60 0.3415
341.70 0.3419
341.80 0.3424
341.90 0.3428
342.00 0.3432
342.10 0.3436
342.20 0.3441
342.30 0.3445
342.40 0.3449
342.50 0.3454
342.60 0.3458
342.70 0.3462
342.80 0.3467
342.90 0.3471
343.00 0.3475
343.10 0.3479
343.20 0.3484
343.30 0.3488
343.40 0.3492
343.50 0.3496
343.60 0.3501
343.70 0.3505
343.80 0.3509
343.90 0.3513
344.00 0.3518
344.10 0.3522
344.20 0.3526
344.30 0.3531
344.40 0.3535
344.50 0.354
344.60 0.3544
344.70 0.3548
344.80 0.3553
344.90 0.3557
345.00 0.3561
345.10 0.3566
345.20 0.357
345.30 0.3574
345.40 0.3579
345.50 0.3583
345.60 0.3587
345.70 0.3591
345.80 0.3596
345.90 0.36
346.00 0.3604
346.10 0.3609
346.20 0.3613
346.30 0.3618
346.40 0.3622
346.50 0.3626
346.60 0.3631
346.70 0.3635
346.80 0.3639
346.90 0.3644
347.00 0.3648
347.10 0.3652
347.20 0.3657
347.30 0.3661
347.40 0.3665
347.50 0.367
347.60 0.3674
347.70 0.3678
347.80 0.3683
347.90 0.3687
348.00 0.3691
348.10 0.3696
348.20 0.37
348.30 0.3705
348.40 0.3709
348.50 0.3713
348.60 0.3718
348.70 0.3722
348.80 0.3727
348.90 0.3731
349.00 0.3735
349.10 0.374
349.20 0.3744
349.30 0.3749
349.40 0.3753
349.50 0.3757
349.60 0.3762
349.70 0.3766
349.80 0.377
349.90 0.3775
350.00 0.3779
350.10 0.3783
350.20 0.3788
350.30 0.3792
350.40 0.3797
350.50 0.3801
350.60 0.3806
350.70 0.381
350.80 0.3814
350.90 0.3819
351.00 0.3823
351.10 0.3828
351.20 0.3832
351.30 0.3836
351.40 0.3841
351.50 0.3845
351.60 0.385
351.70 0.3854
351.80 0.3858
351.90 0.3863
352.00 0.3867
352.10 0.3871
352.20 0.3876
352.30 0.388
352.40 0.3885
352.50 0.3889
352.60 0.3894
352.70 0.3898
352.80 0.3903
352.90 0.3907
353.00 0.3912
353.10 0.3916
353.20 0.392
353.30 0.3925
353.40 0.3929
353.50 0.3934
353.60 0.3938
353.70 0.3942
353.80 0.3947
353.90 0.3951
354.00 0.3956
354.10 0.396
354.20 0.3965
354.30 0.3969
354.40 0.3974
354.50 0.3978
354.60 0.3983
354.70 0.3987
354.80 0.3991
354.90 0.3996
355.00 0.4
355.10 0.4005
355.20 0.4009
355.30 0.4014
355.40 0.4018
355.50 0.4022
355.60 0.4027
355.70 0.4031
355.80 0.4036
355.90 0.404
356.00 0.4044
356.10 0.4049
356.20 0.4053
356.30 0.4058
356.40 0.4063
356.50 0.4067
356.60 0.4072
356.70 0.4076
356.80 0.4081
356.90 0.4085
357.00 0.4089
357.10 0.4094
357.20 0.4098
357.30 0.4103
357.40 0.4107
357.50 0.4112
357.60 0.4116
357.70 0.4121
357.80 0.4125
357.90 0.413
358.00 0.4134
358.10 0.4138
358.20 0.4143
358.30 0.4148
358.40 0.4152
358.50 0.4157
358.60 0.4161
358.70 0.4166
358.80 0.417
358.90 0.4175
359.00 0.4179
359.10 0.4184
359.20 0.4188
359.30 0.4193
359.40 0.4197
359.50 0.4202
359.60 0.4206
359.70 0.421
359.80 0.4215
359.90 0.4219
360.00 0.4224
360.10 0.4228
360.20 0.4233
360.30 0.4237
360.40 0.4242
360.50 0.4247
360.60 0.4251
360.70 0.4256
360.80 0.426
360.90 0.4265
361.00 0.4269
361.10 0.4274
361.20 0.4278
361.30 0.4283
361.40 0.4287
361.50 0.4292
361.60 0.4296
361.70 0.4301
361.80 0.4305
361.90 0.4309
362.00 0.4314
362.10 0.4318
362.20 0.4323
362.30 0.4328
362.40 0.4332
362.50 0.4337
362.60 0.4341
362.70 0.4346
362.80 0.435
362.90 0.4355
363.00 0.4359
363.10 0.4364
363.20 0.4368
363.30 0.4373
363.40 0.4377
363.50 0.4382
363.60 0.4386
363.70 0.4391
363.80 0.4395
363.90 0.44
364.00 0.4404
364.10 0.4409
364.20 0.4413
364.30 0.4418
364.40 0.4422
364.50 0.4427
364.60 0.4432
364.70 0.4436
364.80 0.4441
364.90 0.4445
365.00 0.445
365.10 0.4454
365.20 0.4459
365.30 0.4464
365.40 0.4468
365.50 0.4473
365.60 0.4477
365.70 0.4482
365.80 0.4486
365.90 0.4491
366.00 0.4495
366.10 0.45
366.20 0.4504
366.30 0.4509
366.40 0.4514
366.50 0.4518
366.60 0.4523
366.70 0.4527
366.80 0.4532
366.90 0.4536
367.00 0.4541
367.10 0.4546
367.20 0.455
367.30 0.4555
367.40 0.4559
367.50 0.4564
367.60 0.4568
367.70 0.4573
367.80 0.4577
367.90 0.4582
368.00 0.4586
368.10 0.4591
368.20 0.4595
368.30 0.46
368.40 0.4605
368.50 0.4609
368.60 0.4614
368.70 0.4618
368.80 0.4623
368.90 0.4628
369.00 0.4632
369.10 0.4637
369.20 0.4641
369.30 0.4646
369.40 0.465
369.50 0.4655
369.60 0.4659
369.70 0.4664
369.80 0.4668
369.90 0.4673
370.00 0.4677
370.10 0.4682
370.20 0.4687
370.30 0.4691
370.40 0.4696
370.50 0.4701
370.60 0.4705
370.70 0.471
370.80 0.4714
370.90 0.4719
371.00 0.4723
371.10 0.4728
371.20 0.4733
371.30 0.4737
371.40 0.4742
371.50 0.4746
371.60 0.4751
371.70 0.4755
371.80 0.476
371.90 0.4764
372.00 0.4769
372.10 0.4774
372.20 0.4778
372.30 0.4783
372.40 0.4787
372.50 0.4792
372.60 0.4797
372.70 0.4801
372.80 0.4806
372.90 0.481
373.00 0.4815
373.10 0.482
373.20 0.4824
373.30 0.4829
373.40 0.4833
373.50 0.4838
373.60 0.4842
373.70 0.4847
373.80 0.4851
373.90 0.4856
374.00 0.4861
374.10 0.4865
374.20 0.487
374.30 0.4874
374.40 0.4879
374.50 0.4884
374.60 0.4888
374.70 0.4893
374.80 0.4898
374.90 0.4902
375.00 0.4907
375.10 0.4911
375.20 0.4916
375.30 0.492
375.40 0.4925
375.50 0.493
375.60 0.4934
375.70 0.4939
375.80 0.4943
375.90 0.4948
376.00 0.4952
376.10 0.4957
376.20 0.4962
376.30 0.4966
376.40 0.4971
376.50 0.4975
376.60 0.498
376.70 0.4985
376.80 0.4989
376.90 0.4994
377.00 0.4998
377.10 0.5003
377.20 0.5007
377.30 0.5012
377.40 0.5017
377.50 0.5021
377.60 0.5026
377.70 0.5031
377.80 0.5035
377.90 0.504
378.00 0.5044
378.10 0.5049
378.20 0.5053
378.30 0.5058
378.40 0.5063
378.50 0.5067
378.60 0.5072
378.70 0.5076
378.80 0.5081
378.90 0.5086
379.00 0.509
379.10 0.5095
379.20 0.5099
379.30 0.5104
379.40 0.5109
379.50 0.5113
379.60 0.5118
379.70 0.5122
379.80 0.5127
379.90 0.5132
380.00 0.5136
380.10 0.5141
380.20 0.5145
380.30 0.515
380.40 0.5155
380.50 0.5159
380.60 0.5164
380.70 0.5168
380.80 0.5173
380.90 0.5178
381.00 0.5182
381.10 0.5187
381.20 0.5191
381.30 0.5196
381.40 0.5201
381.50 0.5205
381.60 0.521
381.70 0.5214
381.80 0.5219
381.90 0.5224
382.00 0.5228
382.10 0.5233
382.20 0.5238
382.30 0.5242
382.40 0.5247
382.50 0.5251
382.60 0.5256
382.70 0.5261
382.80 0.5265
382.90 0.527
383.00 0.5274
383.10 0.5279
383.20 0.5283
383.30 0.5288
383.40 0.5293
383.50 0.5297
383.60 0.5302
383.70 0.5306
383.80 0.5311
383.90 0.5316
384.00 0.532
384.10 0.5325
384.20 0.533
384.30 0.5334
384.40 0.5339
384.50 0.5343
384.60 0.5348
384.70 0.5353
384.80 0.5357
384.90 0.5362
385.00 0.5366
385.10 0.5371
385.20 0.5376
385.30 0.538
385.40 0.5385
385.50 0.5389
385.60 0.5394
385.70 0.5399
385.80 0.5403
385.90 0.5408
386.00 0.5412
386.10 0.5417
386.20 0.5422
386.30 0.5426
386.40 0.5431
386.50 0.5435
386.60 0.544
386.70 0.5445
386.80 0.5449
386.90 0.5454
387.00 0.5458
387.10 0.5463
387.20 0.5468
387.30 0.5472
387.40 0.5477
387.50 0.5481
387.60 0.5486
387.70 0.5491
387.80 0.5495
387.90 0.55
388.00 0.5504
388.10 0.5509
388.20 0.5514
388.30 0.5518
388.40 0.5523
388.50 0.5528
388.60 0.5532
388.70 0.5537
388.80 0.5541
388.90 0.5546
389.00 0.555
389.10 0.5555
389.20 0.556
389.30 0.5564
389.40 0.5569
389.50 0.5573
389.60 0.5578
389.70 0.5583
389.80 0.5587
389.90 0.5592
390.00 0.5596
390.10 0.5601
390.20 0.5606
390.30 0.561
390.40 0.5615
390.50 0.5619
390.60 0.5624
390.70 0.5629
390.80 0.5633
390.90 0.5638
391.00 0.5642
391.10 0.5647
391.20 0.5652
391.30 0.5656
391.40 0.5661
391.50 0.5665
391.60 0.567
391.70 0.5675
391.80 0.5679
391.90 0.5684
392.00 0.5688
392.10 0.5693
392.20 0.5698
392.30 0.5702
392.40 0.5707
392.50 0.5711
392.60 0.5716
392.70 0.5721
392.80 0.5725
392.90 0.573
393.00 0.5734
393.10 0.5739
393.20 0.5744
393.30 0.5748
393.40 0.5753
393.50 0.5757
393.60 0.5762
393.70 0.5766
393.80 0.5771
393.90 0.5776
394.00 0.578
394.10 0.5785
394.20 0.5789
394.30 0.5794
394.40 0.5799
394.50 0.5803
394.60 0.5808
394.70 0.5812
394.80 0.5817
394.90 0.5821
395.00 0.5826
395.10 0.5831
395.20 0.5835
395.30 0.584
395.40 0.5844
395.50 0.5849
395.60 0.5854
395.70 0.5858
395.80 0.5863
395.90 0.5867
396.00 0.5872
396.10 0.5876
396.20 0.5881
396.30 0.5886
396.40 0.589
396.50 0.5895
396.60 0.5899
396.70 0.5904
396.80 0.5909
396.90 0.5913
397.00 0.5918
397.10 0.5922
397.20 0.5927
397.30 0.5932
397.40 0.5936
397.50 0.5941
397.60 0.5945
397.70 0.595
397.80 0.5954
397.90 0.5959
398.00 0.5964
398.10 0.5968
398.20 0.5973
398.30 0.5977
398.40 0.5982
398.50 0.5986
398.60 0.5991
398.70 0.5995
398.80 0.6
398.90 0.6005
399.00 0.6009
399.10 0.6014
399.20 0.6018
399.30 0.6023
399.40 0.6028
399.50 0.6032
399.60 0.6037
399.70 0.6041
399.80 0.6046
399.90 0.605
400.00 0.6055
400.10 0.6059
400.20 0.6064
400.30 0.6069
400.40 0.6073
400.50 0.6078
400.60 0.6082
400.70 0.6087
400.80 0.6091
400.90 0.6096
401.00 0.6101
401.10 0.6105
401.20 0.611
401.30 0.6114
401.40 0.6119
401.50 0.6123
401.60 0.6128
401.70 0.6132
401.80 0.6137
401.90 0.6141
402.00 0.6146
402.10 0.6151
402.20 0.6155
402.30 0.616
402.40 0.6164
402.50 0.6169
402.60 0.6173
402.70 0.6178
402.80 0.6182
402.90 0.6187
403.00 0.6192
403.10 0.6196
403.20 0.6201
403.30 0.6205
403.40 0.621
403.50 0.6214
403.60 0.6219
403.70 0.6223
403.80 0.6228
403.90 0.6233
404.00 0.6237
404.10 0.6242
404.20 0.6246
404.30 0.6251
404.40 0.6255
404.50 0.626
404.60 0.6264
404.70 0.6269
404.80 0.6273
404.90 0.6278
405.00 0.6282
405.10 0.6287
405.20 0.6292
405.30 0.6296
405.40 0.6301
405.50 0.6305
405.60 0.631
405.70 0.6314
405.80 0.6319
405.90 0.6323
406.00 0.6328
406.10 0.6332
406.20 0.6337
406.30 0.6341
406.40 0.6346
406.50 0.6351
406.60 0.6355
406.70 0.6359
406.80 0.6364
406.90 0.6369
407.00 0.6373
407.10 0.6378
407.20 0.6382
407.30 0.6387
407.40 0.6391
407.50 0.6396
407.60 0.64
407.70 0.6405
407.80 0.6409
407.90 0.6414
408.00 0.6418
408.10 0.6423
408.20 0.6427
408.30 0.6432
408.40 0.6436
408.50 0.6441
408.60 0.6445
408.70 0.645
408.80 0.6454
408.90 0.6459
409.00 0.6463
409.10 0.6468
409.20 0.6472
409.30 0.6477
409.40 0.6481
409.50 0.6486
409.60 0.649
409.70 0.6495
409.80 0.65
409.90 0.6504
410.00 0.6509
410.10 0.6513
410.20 0.6517
410.30 0.6522
410.40 0.6526
410.50 0.6531
410.60 0.6535
410.70 0.654
410.80 0.6544
410.90 0.6549
411.00 0.6553
411.10 0.6558
411.20 0.6562
411.30 0.6567
411.40 0.6571
411.50 0.6576
411.60 0.658
411.70 0.6585
411.80 0.6589
411.90 0.6594
412.00 0.6598
412.10 0.6603
412.20 0.6607
412.30 0.6612
412.40 0.6616
412.50 0.6621
412.60 0.6625
412.70 0.663
412.80 0.6634
412.90 0.6639
413.00 0.6643
413.10 0.6648
413.20 0.6652
413.30 0.6657
413.40 0.6661
413.50 0.6665
413.60 0.667
413.70 0.6674
413.80 0.6679
413.90 0.6683
414.00 0.6688
414.10 0.6692
414.20 0.6697
414.30 0.6701
414.40 0.6706
414.50 0.671
414.60 0.6715
414.70 0.6719
414.80 0.6724
414.90 0.6728
415.00 0.6732
415.10 0.6737
415.20 0.6741
415.30 0.6746
415.40 0.675
415.50 0.6755
415.60 0.6759
415.70 0.6764
415.80 0.6768
415.90 0.6773
416.00 0.6777
416.10 0.6782
416.20 0.6786
416.30 0.679
416.40 0.6795
416.50 0.6799
416.60 0.6804
416.70 0.6808
416.80 0.6813
416.90 0.6817
417.00 0.6822
417.10 0.6826
417.20 0.683
417.30 0.6835
417.40 0.6839
417.50 0.6844
417.60 0.6848
417.70 0.6853
417.80 0.6857
417.90 0.6861
418.00 0.6866
418.10 0.687
418.20 0.6875
418.30 0.6879
418.40 0.6884
418.50 0.6888
418.60 0.6892
418.70 0.6897
418.80 0.6901
418.90 0.6906
419.00 0.691
419.10 0.6915
419.20 0.6919
419.30 0.6923
419.40 0.6928
419.50 0.6932
419.60 0.6937
419.70 0.6941
419.80 0.6945
419.90 0.695
420.00 0.6954
420.10 0.6959
420.20 0.6963
420.30 0.6968
420.40 0.6972
420.50 0.6976
420.60 0.6981
420.70 0.6985
420.80 0.699
420.90 0.6994
421.00 0.6998
421.10 0.7003
421.20 0.7007
421.30 0.7012
421.40 0.7016
421.50 0.702
421.60 0.7025
421.70 0.7029
421.80 0.7034
421.90 0.7038
422.00 0.7042
422.10 0.7047
422.20 0.7051
422.30 0.7055
422.40 0.706
422.50 0.7064
422.60 0.7069
422.70 0.7073
422.80 0.7077
422.90 0.7082
423.00 0.7086
423.10 0.7091
423.20 0.7095
423.30 0.7099
423.40 0.7104
423.50 0.7108
423.60 0.7112
423.70 0.7117
423.80 0.7121
423.90 0.7126
424.00 0.713
424.10 0.7134
424.20 0.7139
424.30 0.7143
424.40 0.7147
424.50 0.7152
424.60 0.7156
424.70 0.716
424.80 0.7165
424.90 0.7169
425.00 0.7174
425.10 0.7178
425.20 0.7182
425.30 0.7187
425.40 0.7191
425.50 0.7195
425.60 0.72
425.70 0.7204
425.80 0.7208
425.90 0.7213
426.00 0.7217
426.10 0.7221
426.20 0.7226
426.30 0.723
426.40 0.7234
426.50 0.7239
426.60 0.7243
426.70 0.7247
426.80 0.7252
426.90 0.7256
427.00 0.7261
427.10 0.7265
427.20 0.7269
427.30 0.7274
427.40 0.7278
427.50 0.7282
427.60 0.7286
427.70 0.7291
427.80 0.7295
427.90 0.7299
428.00 0.7304
428.10 0.7308
428.20 0.7312
428.30 0.7317
428.40 0.7321
428.50 0.7325
428.60 0.733
428.70 0.7334
428.80 0.7338
428.90 0.7343
429.00 0.7347
429.10 0.7351
429.20 0.7356
429.30 0.736
429.40 0.7364
429.50 0.7368
429.60 0.7373
429.70 0.7377
429.80 0.7381
429.90 0.7386
430.00 0.739
430.10 0.7394
430.20 0.7399
430.30 0.7403
430.40 0.7407
430.50 0.7411
430.60 0.7416
430.70 0.742
430.80 0.7424
430.90 0.7429
431.00 0.7433
431.10 0.7437
431.20 0.7441
431.30 0.7446
431.40 0.745
431.50 0.7454
431.60 0.7459
431.70 0.7463
431.80 0.7467
431.90 0.7471
432.00 0.7476
432.10 0.748
432.20 0.7484
432.30 0.7488
432.40 0.7493
432.50 0.7497
432.60 0.7501
432.70 0.7506
432.80 0.751
432.90 0.7514
433.00 0.7518
433.10 0.7523
433.20 0.7527
433.30 0.7531
433.40 0.7535
433.50 0.7539
433.60 0.7544
433.70 0.7548
433.80 0.7552
433.90 0.7557
434.00 0.7561
434.10 0.7565
434.20 0.7569
434.30 0.7574
434.40 0.7578
434.50 0.7582
434.60 0.7586
434.70 0.759
434.80 0.7595
434.90 0.7599
435.00 0.7603
435.10 0.7607
435.20 0.7612
435.30 0.7616
435.40 0.762
435.50 0.7624
435.60 0.7629
435.70 0.7633
435.80 0.7637
435.90 0.7641
436.00 0.7645
436.10 0.765
436.20 0.7654
436.30 0.7658
436.40 0.7662
436.50 0.7666
436.60 0.7671
436.70 0.7675
436.80 0.7679
436.90 0.7683
437.00 0.7687
437.10 0.7692
437.20 0.7696
437.30 0.77
437.40 0.7704
437.50 0.7709
437.60 0.7713
437.70 0.7717
437.80 0.7721
437.90 0.7725
438.00 0.773
438.10 0.7734
438.20 0.7738
438.30 0.7742
438.40 0.7746
438.50 0.775
438.60 0.7755
438.70 0.7759
438.80 0.7763
438.90 0.7767
439.00 0.7771
439.10 0.7776
439.20 0.778
439.30 0.7784
439.40 0.7788
439.50 0.7792
439.60 0.7796
439.70 0.7801
439.80 0.7805
439.90 0.7809
440.00 0.7813
440.10 0.7817
440.20 0.7821
440.30 0.7826
440.40 0.783
440.50 0.7834
440.60 0.7838
440.70 0.7842
440.80 0.7846
440.90 0.785
441.00 0.7855
441.10 0.7859
441.20 0.7863
441.30 0.7867
441.40 0.7871
441.50 0.7875
441.60 0.788
441.70 0.7884
441.80 0.7888
441.90 0.7892
442.00 0.7896
442.10 0.79
442.20 0.7904
442.30 0.7908
442.40 0.7913
442.50 0.7917
442.60 0.7921
442.70 0.7925
442.80 0.7929
442.90 0.7933
443.00 0.7937
443.10 0.7941
443.20 0.7946
443.30 0.795
443.40 0.7954
443.50 0.7958
443.60 0.7962
443.70 0.7966
443.80 0.797
443.90 0.7974
444.00 0.7978
444.10 0.7983
444.20 0.7987
444.30 0.7991
444.40 0.7995
444.50 0.7999
444.60 0.8003
444.70 0.8007
444.80 0.8011
444.90 0.8015
445.00 0.8019
445.10 0.8023
445.20 0.8028
445.30 0.8032
445.40 0.8036
445.50 0.804
445.60 0.8044
445.70 0.8048
445.80 0.8052
445.90 0.8056
446.00 0.806
446.10 0.8064
446.20 0.8068
446.30 0.8072
446.40 0.8076
446.50 0.808
446.60 0.8085
446.70 0.8089
446.80 0.8093
446.90 0.8097
447.00 0.8101
447.10 0.8105
447.20 0.8109
447.30 0.8113
447.40 0.8117
447.50 0.8121
447.60 0.8125
447.70 0.8129
447.80 0.8133
447.90 0.8137
448.00 0.8141
448.10 0.8145
448.20 0.8149
448.30 0.8153
448.40 0.8157
448.50 0.8161
448.60 0.8165
448.70 0.817
448.80 0.8174
448.90 0.8178
449.00 0.8182
449.10 0.8186
449.20 0.819
449.30 0.8194
449.40 0.8198
449.50 0.8202
449.60 0.8206
449.70 0.821
449.80 0.8214
449.90 0.8218
450.00 0.8222
450.10 0.8226
450.20 0.823
450.30 0.8234
450.40 0.8238
450.50 0.8242
450.60 0.8246
450.70 0.825
450.80 0.8254
450.90 0.8258
451.00 0.8262
451.10 0.8266
451.20 0.827
451.30 0.8274
451.40 0.8278
451.50 0.8282
451.60 0.8286
451.70 0.829
451.80 0.8294
451.90 0.8298
452.00 0.8302
452.10 0.8306
452.20 0.831
452.30 0.8314
452.40 0.8318
452.50 0.8322
452.60 0.8326
452.70 0.833
452.80 0.8333
452.90 0.8337
453.00 0.8341
453.10 0.8345
453.20 0.8349
453.30 0.8353
453.40 0.8357
453.50 0.8361
453.60 0.8365
453.70 0.8369
453.80 0.8373
453.90 0.8377
454.00 0.8381
454.10 0.8385
454.20 0.8389
454.30 0.8393
454.40 0.8397
454.50 0.8401
454.60 0.8404
454.70 0.8408
454.80 0.8412
454.90 0.8416
455.00 0.842
455.10 0.8424
455.20 0.8428
455.30 0.8432
455.40 0.8436
455.50 0.844
455.60 0.8444
455.70 0.8448
455.80 0.8452
455.90 0.8456
456.00 0.8459
456.10 0.8463
456.20 0.8467
456.30 0.8471
456.40 0.8475
456.50 0.8479
456.60 0.8483
456.70 0.8487
456.80 0.8491
456.90 0.8495
457.00 0.8498
457.10 0.8502
457.20 0.8506
457.30 0.851
457.40 0.8514
457.50 0.8518
457.60 0.8522
457.70 0.8526
457.80 0.853
457.90 0.8533
458.00 0.8537
458.10 0.8541
458.20 0.8545
458.30 0.8549
458.40 0.8553
458.50 0.8557
458.60 0.856
458.70 0.8564
458.80 0.8568
458.90 0.8572
459.00 0.8576
459.10 0.858
459.20 0.8584
459.30 0.8587
459.40 0.8591
459.50 0.8595
459.60 0.8599
459.70 0.8603
459.80 0.8607
459.90 0.8611
460.00 0.8614
460.10 0.8618
460.20 0.8622
460.30 0.8626
460.40 0.863
460.50 0.8634
460.60 0.8637
460.70 0.8641
460.80 0.8645
460.90 0.8649
461.00 0.8653
461.10 0.8657
461.20 0.866
461.30 0.8664
461.40 0.8668
461.50 0.8672
461.60 0.8676
461.70 0.8679
461.80 0.8683
461.90 0.8687
462.00 0.8691
462.10 0.8695
462.20 0.8699
462.30 0.8702
462.40 0.8706
462.50 0.871
462.60 0.8714
462.70 0.8718
462.80 0.8721
462.90 0.8725
463.00 0.8729
463.10 0.8733
463.20 0.8737
463.30 0.874
463.40 0.8744
463.50 0.8748
463.60 0.8752
463.70 0.8755
463.80 0.8759
463.90 0.8763
464.00 0.8767
464.10 0.8771
464.20 0.8774
464.30 0.8778
464.40 0.8782
464.50 0.8786
464.60 0.8789
464.70 0.8793
464.80 0.8797
464.90 0.8801
465.00 0.8804
465.10 0.8808
465.20 0.8812
465.30 0.8816
465.40 0.8819
465.50 0.8823
465.60 0.8827
465.70 0.8831
465.80 0.8834
465.90 0.8838
466.00 0.8842
466.10 0.8845
466.20 0.8849
466.30 0.8853
466.40 0.8857
466.50 0.886
466.60 0.8864
466.70 0.8868
466.80 0.8872
466.90 0.8875
467.00 0.8879
467.10 0.8883
467.20 0.8886
467.30 0.889
467.40 0.8894
467.50 0.8898
467.60 0.8901
467.70 0.8905
467.80 0.8909
467.90 0.8912
468.00 0.8916
468.10 0.892
468.20 0.8923
468.30 0.8927
468.40 0.8931
468.50 0.8935
468.60 0.8938
468.70 0.8942
468.80 0.8946
468.90 0.8949
469.00 0.8953
469.10 0.8957
469.20 0.896
469.30 0.8964
469.40 0.8968
469.50 0.8971
469.60 0.8975
469.70 0.8979
469.80 0.8982
469.90 0.8986
470.00 0.899
470.10 0.8993
470.20 0.8997
470.30 0.9001
470.40 0.9004
470.50 0.9008
470.60 0.9012
470.70 0.9015
470.80 0.9019
470.90 0.9022
471.00 0.9026
471.10 0.903
471.20 0.9033
471.30 0.9037
471.40 0.9041
471.50 0.9044
471.60 0.9048
471.70 0.9052
471.80 0.9055
471.90 0.9059
472.00 0.9062
472.10 0.9066
472.20 0.907
472.30 0.9073
472.40 0.9077
472.50 0.9081
472.60 0.9084
472.70 0.9088
472.80 0.9091
472.90 0.9095
473.00 0.9099
473.10 0.9102
473.20 0.9106
473.30 0.9109
473.40 0.9113
473.50 0.9117
473.60 0.912
473.70 0.9124
473.80 0.9127
473.90 0.9131
474.00 0.9134
474.10 0.9138
474.20 0.9142
474.30 0.9145
474.40 0.9149
474.50 0.9152
474.60 0.9156
474.70 0.916
474.80 0.9163
474.90 0.9167
475.00 0.917
475.10 0.9174
475.20 0.9177
475.30 0.9181
475.40 0.9184
475.50 0.9188
475.60 0.9192
475.70 0.9195
475.80 0.9199
475.90 0.9202
476.00 0.9206
476.10 0.9209
476.20 0.9213
476.30 0.9216
476.40 0.922
476.50 0.9224
476.60 0.9227
476.70 0.9231
476.80 0.9234
476.90 0.9238
477.00 0.9241
477.10 0.9245
477.20 0.9248
477.30 0.9252
477.40 0.9255
477.50 0.9259
477.60 0.9262
477.70 0.9266
477.80 0.9269
477.90 0.9273
478.00 0.9276
478.10 0.928
478.20 0.9283
478.30 0.9287
478.40 0.929
478.50 0.9294
478.60 0.9297
478.70 0.9301
478.80 0.9304
478.90 0.9308
479.00 0.9311
479.10 0.9315
479.20 0.9318
479.30 0.9322
479.40 0.9325
479.50 0.9329
479.60 0.9332
479.70 0.9336
479.80 0.9339
479.90 0.9343
480.00 0.9346
480.10 0.935
480.20 0.9353
480.30 0.9357
480.40 0.936
480.50 0.9364
480.60 0.9367
480.70 0.937
480.80 0.9374
480.90 0.9377
481.00 0.9381
481.10 0.9384
481.20 0.9388
481.30 0.9391
481.40 0.9395
481.50 0.9398
481.60 0.9401
481.70 0.9405
481.80 0.9408
481.90 0.9412
482.00 0.9415
482.10 0.9419
482.20 0.9422
482.30 0.9425
482.40 0.9429
482.50 0.9432
482.60 0.9436
482.70 0.9439
482.80 0.9443
482.90 0.9446
483.00 0.9449
483.10 0.9453
483.20 0.9456
483.30 0.946
483.40 0.9463
483.50 0.9466
483.60 0.947
483.70 0.9473
483.80 0.9477
483.90 0.948
484.00 0.9483
484.10 0.9487
484.20 0.949
484.30 0.9494
484.40 0.9497
484.50 0.95
484.60 0.9504
484.70 0.9507
484.80 0.951
484.90 0.9514
485.00 0.9517
485.10 0.9521
485.20 0.9524
485.30 0.9527
485.40 0.9531
485.50 0.9534
485.60 0.9537
485.70 0.9541
485.80 0.9544
485.90 0.9547
486.00 0.9551
486.10 0.9554
486.20 0.9557
486.30 0.9561
486.40 0.9564
486.50 0.9568
486.60 0.9571
486.70 0.9574
486.80 0.9578
486.90 0.9581
487.00 0.9584
487.10 0.9587
487.20 0.9591
487.30 0.9594
487.40 0.9597
487.50 0.9601
487.60 0.9604
487.70 0.9607
487.80 0.9611
487.90 0.9614
488.00 0.9617
488.10 0.9621
488.20 0.9624
488.30 0.9627
488.40 0.9631
488.50 0.9634
488.60 0.9637
488.70 0.9641
488.80 0.9644
488.90 0.9647
489.00 0.965
489.10 0.9654
489.20 0.9657
489.30 0.966
489.40 0.9664
489.50 0.9667
489.60 0.967
489.70 0.9673
489.80 0.9677
489.90 0.968
490.00 0.9683
490.10 0.9687
490.20 0.969
490.30 0.9693
490.40 0.9696
490.50 0.97
490.60 0.9703
490.70 0.9706
490.80 0.9709
490.90 0.9713
491.00 0.9716
491.10 0.9719
491.20 0.9722
491.30 0.9726
491.40 0.9729
491.50 0.9732
491.60 0.9735
491.70 0.9739
491.80 0.9742
491.90 0.9745
492.00 0.9748
492.10 0.9751
492.20 0.9755
492.30 0.9758
492.40 0.9761
492.50 0.9764
492.60 0.9768
492.70 0.9771
492.80 0.9774
492.90 0.9777
493.00 0.978
493.10 0.9784
493.20 0.9787
493.30 0.979
493.40 0.9793
493.50 0.9796
493.60 0.98
493.70 0.9803
493.80 0.9806
493.90 0.9809
494.00 0.9812
494.10 0.9816
494.20 0.9819
494.30 0.9822
494.40 0.9825
494.50 0.9828
494.60 0.9831
494.70 0.9835
494.80 0.9838
494.90 0.9841
495.00 0.9844
495.10 0.9847
495.20 0.985
495.30 0.9854
495.40 0.9857
495.50 0.986
495.60 0.9863
495.70 0.9866
495.80 0.9869
495.90 0.9873
496.00 0.9876
496.10 0.9879
496.20 0.9882
496.30 0.9885
496.40 0.9888
496.50 0.9891
496.60 0.9895
496.70 0.9898
496.80 0.9901
496.90 0.9904
497.00 0.9907
497.10 0.991
497.20 0.9913
497.30 0.9916
497.40 0.992
497.50 0.9923
497.60 0.9926
497.70 0.9929
497.80 0.9932
497.90 0.9935
498.00 0.9938
498.10 0.9941
498.20 0.9945
498.30 0.9948
498.40 0.9951
498.50 0.9954
498.60 0.9957
498.70 0.996
498.80 0.9963
498.90 0.9966
499.00 0.9969
499.10 0.9972
499.20 0.9975
499.30 0.9979
499.40 0.9982
499.50 0.9985
499.60 0.9988
499.70 0.9991
499.80 0.9994
499.90 0.9997
500.00 1
500.10 1
500.20 1.001
500.30 1.001
500.40 1.001
500.50 1.002
500.60 1.002
500.70 1.002
500.80 1.002
500.90 1.003
501.00 1.003
501.10 1.003
501.20 1.004
501.30 1.004
501.40 1.004
501.50 1.005
501.60 1.005
501.70 1.005
501.80 1.005
501.90 1.006
502.00 1.006
502.10 1.006
502.20 1.007
502.30 1.007
502.40 1.007
502.50 1.008
502.60 1.008
502.70 1.008
502.80 1.009
502.90 1.009
503.00 1.009
503.10 1.009
503.20 1.01
503.30 1.01
503.40 1.01
503.50 1.011
503.60 1.011
503.70 1.011
503.80 1.012
503.90 1.012
504.00 1.012
504.10 1.012
504.20 1.013
504.30 1.013
504.40 1.013
504.50 1.014
504.60 1.014
504.70 1.014
504.80 1.014
504.90 1.015
505.00 1.015
505.10 1.015
505.20 1.016
505.30 1.016
505.40 1.016
505.50 1.017
505.60 1.017
505.70 1.017
505.80 1.017
505.90 1.018
506.00 1.018
506.10 1.018
506.20 1.019
506.30 1.019
506.40 1.019
506.50 1.019
506.60 1.02
506.70 1.02
506.80 1.02
506.90 1.021
507.00 1.021
507.10 1.021
507.20 1.022
507.30 1.022
507.40 1.022
507.50 1.022
507.60 1.023
507.70 1.023
507.80 1.023
507.90 1.024
508.00 1.024
508.10 1.024
508.20 1.024
508.30 1.025
508.40 1.025
508.50 1.025
508.60 1.026
508.70 1.026
508.80 1.026
508.90 1.026
509.00 1.027
509.10 1.027
509.20 1.027
509.30 1.028
509.40 1.028
509.50 1.028
509.60 1.028
509.70 1.029
509.80 1.029
509.90 1.029
510.00 1.03
510.10 1.03
510.20 1.03
510.30 1.03
510.40 1.031
510.50 1.031
510.60 1.031
510.70 1.032
510.80 1.032
510.90 1.032
511.00 1.032
511.10 1.033
511.20 1.033
511.30 1.033
511.40 1.034
511.50 1.034
511.60 1.034
511.70 1.034
511.80 1.035
511.90 1.035
512.00 1.035
512.10 1.036
512.20 1.036
512.30 1.036
512.40 1.036
512.50 1.037
512.60 1.037
512.70 1.037
512.80 1.038
512.90 1.038
513.00 1.038
513.10 1.038
513.20 1.039
513.30 1.039
513.40 1.039
513.50 1.039
513.60 1.04
513.70 1.04
513.80 1.04
513.90 1.041
514.00 1.041
514.10 1.041
514.20 1.041
514.30 1.042
514.40 1.042
514.50 1.042
514.60 1.043
514.70 1.043
514.80 1.043
514.90 1.043
515.00 1.044
515.10 1.044
515.20 1.044
515.30 1.044
515.40 1.045
515.50 1.045
515.60 1.045
515.70 1.046
515.80 1.046
515.90 1.046
516.00 1.046
516.10 1.047
516.20 1.047
516.30 1.047
516.40 1.047
516.50 1.048
516.60 1.048
516.70 1.048
516.80 1.049
516.90 1.049
517.00 1.049
517.10 1.049
517.20 1.05
517.30 1.05
517.40 1.05
517.50 1.05
517.60 1.051
517.70 1.051
517.80 1.051
517.90 1.052
518.00 1.052
518.10 1.052
518.20 1.052
518.30 1.053
518.40 1.053
518.50 1.053
518.60 1.053
518.70 1.054
518.80 1.054
518.90 1.054
519.00 1.054
519.10 1.055
519.20 1.055
519.30 1.055
519.40 1.056
519.50 1.056
519.60 1.056
519.70 1.056
519.80 1.057
519.90 1.057
520.00 1.057
520.10 1.057
520.20 1.058
520.30 1.058
520.40 1.058
520.50 1.058
520.60 1.059
520.70 1.059
520.80 1.059
520.90 1.06
521.00 1.06
521.10 1.06
521.20 1.06
521.30 1.061
521.40 1.061
521.50 1.061
521.60 1.061
521.70 1.062
521.80 1.062
521.90 1.062
522.00 1.062
522.10 1.063
522.20 1.063
522.30 1.063
522.40 1.063
522.50 1.064
522.60 1.064
522.70 1.064
522.80 1.064
522.90 1.065
523.00 1.065
523.10 1.065
523.20 1.065
523.30 1.066
523.40 1.066
523.50 1.066
523.60 1.067
523.70 1.067
523.80 1.067
523.90 1.067
524.00 1.068
524.10 1.068
524.20 1.068
524.30 1.068
524.40 1.069
524.50 1.069
524.60 1.069
524.70 1.069
524.80 1.07
524.90 1.07
525.00 1.07
525.10 1.07
525.20 1.071
525.30 1.071
525.40 1.071
525.50 1.071
525.60 1.072
525.70 1.072
525.80 1.072
525.90 1.072
526.00 1.073
526.10 1.073
526.20 1.073
526.30 1.073
526.40 1.074
526.50 1.074
526.60 1.074
526.70 1.074
526.80 1.075
526.90 1.075
527.00 1.075
527.10 1.075
527.20 1.076
527.30 1.076
527.40 1.076
527.50 1.076
527.60 1.077
527.70 1.077
527.80 1.077
527.90 1.077
528.00 1.078
528.10 1.078
528.20 1.078
528.30 1.078
528.40 1.079
528.50 1.079
528.60 1.079
528.70 1.079
528.80 1.08
528.90 1.08
529.00 1.08
529.10 1.08
529.20 1.081
529.30 1.081
529.40 1.081
529.50 1.081
529.60 1.082
529.70 1.082
529.80 1.082
529.90 1.082
530.00 1.083
530.10 1.083
530.20 1.083
530.30 1.083
530.40 1.083
530.50 1.084
530.60 1.084
530.70 1.084
530.80 1.084
530.90 1.085
531.00 1.085
531.10 1.085
531.20 1.085
531.30 1.086
531.40 1.086
531.50 1.086
531.60 1.086
531.70 1.087
531.80 1.087
531.90 1.087
532.00 1.087
532.10 1.088
532.20 1.088
532.30 1.088
532.40 1.088
532.50 1.089
532.60 1.089
532.70 1.089
532.80 1.089
532.90 1.089
533.00 1.09
533.10 1.09
533.20 1.09
533.30 1.09
533.40 1.091
533.50 1.091
533.60 1.091
533.70 1.091
533.80 1.092
533.90 1.092
534.00 1.092
534.10 1.092
534.20 1.093
534.30 1.093
534.40 1.093
534.50 1.093
534.60 1.093
534.70 1.094
534.80 1.094
534.90 1.094
535.00 1.094
535.10 1.095
535.20 1.095
535.30 1.095
535.40 1.095
535.50 1.096
535.60 1.096
535.70 1.096
535.80 1.096
535.90 1.097
536.00 1.097
536.10 1.097
536.20 1.097
536.30 1.097
536.40 1.098
536.50 1.098
536.60 1.098
536.70 1.098
536.80 1.099
536.90 1.099
537.00 1.099
537.10 1.099
537.20 1.099
537.30 1.1
537.40 1.1
537.50 1.1
537.60 1.1
537.70 1.101
537.80 1.101
537.90 1.101
538.00 1.101
538.10 1.102
538.20 1.102
538.30 1.102
538.40 1.102
538.50 1.102
538.60 1.103
538.70 1.103
538.80 1.103
538.90 1.103
539.00 1.104
539.10 1.104
539.20 1.104
539.30 1.104
539.40 1.104
539.50 1.105
539.60 1.105
539.70 1.105
539.80 1.105
539.90 1.106
540.00 1.106
540.10 1.106
540.20 1.106
540.30 1.106
540.40 1.107
540.50 1.107
540.60 1.107
540.70 1.107
540.80 1.108
540.90 1.108
541.00 1.108
541.10 1.108
541.20 1.108
541.30 1.109
541.40 1.109
541.50 1.109
541.60 1.109
541.70 1.11
541.80 1.11
541.90 1.11
542.00 1.11
542.10 1.11
542.20 1.111
542.30 1.111
542.40 1.111
542.50 1.111
542.60 1.111
542.70 1.112
542.80 1.112
542.90 1.112
543.00 1.112
543.10 1.113
543.20 1.113
543.30 1.113
543.40 1.113
543.50 1.113
543.60 1.114
543.70 1.114
543.80 1.114
543.90 1.114
544.00 1.115
544.10 1.115
544.20 1.115
544.30 1.115
544.40 1.115
544.50 1.116
544.60 1.116
544.70 1.116
544.80 1.116
544.90 1.116
545.00 1.117
545.10 1.117
545.20 1.117
545.30 1.117
545.40 1.117
545.50 1.118
545.60 1.118
545.70 1.118
545.80 1.118
545.90 1.119
546.00 1.119
546.10 1.119
546.20 1.119
546.30 1.119
546.40 1.12
546.50 1.12
546.60 1.12
546.70 1.12
546.80 1.12
546.90 1.121
547.00 1.121
547.10 1.121
547.20 1.121
547.30 1.121
547.40 1.122
547.50 1.122
547.60 1.122
547.70 1.122
547.80 1.122
547.90 1.123
548.00 1.123
548.10 1.123
548.20 1.123
548.30 1.123
548.40 1.124
548.50 1.124
548.60 1.124
548.70 1.124
548.80 1.125
548.90 1.125
549.00 1.125
549.10 1.125
549.20 1.125
549.30 1.126
549.40 1.126
549.50 1.126
549.60 1.126
549.70 1.126
549.80 1.127
549.90 1.127
550.00 1.127
550.10 1.127
550.20 1.127
550.30 1.128
550.40 1.128
550.50 1.128
550.60 1.128
550.70 1.128
550.80 1.129
550.90 1.129
551.00 1.129
551.10 1.129
551.20 1.129
551.30 1.13
551.40 1.13
551.50 1.13
551.60 1.13
551.70 1.13
551.80 1.131
551.90 1.131
552.00 1.131
552.10 1.131
552.20 1.131
552.30 1.132
552.40 1.132
552.50 1.132
552.60 1.132
552.70 1.132
552.80 1.133
552.90 1.133
553.00 1.133
553.10 1.133
553.20 1.133
553.30 1.133
553.40 1.134
553.50 1.134
553.60 1.134
553.70 1.134
553.80 1.134
553.90 1.135
554.00 1.135
554.10 1.135
554.20 1.135
554.30 1.135
554.40 1.136
554.50 1.136
554.60 1.136
554.70 1.136
554.80 1.136
554.90 1.137
555.00 1.137
555.10 1.137
555.20 1.137
555.30 1.137
555.40 1.138
555.50 1.138
555.60 1.138
555.70 1.138
555.80 1.138
555.90 1.138
556.00 1.139
556.10 1.139
556.20 1.139
556.30 1.139
556.40 1.139
556.50 1.14
556.60 1.14
556.70 1.14
556.80 1.14
556.90 1.14
557.00 1.141
557.10 1.141
557.20 1.141
557.30 1.141
557.40 1.141
557.50 1.141
557.60 1.142
557.70 1.142
557.80 1.142
557.90 1.142
558.00 1.142
558.10 1.143
558.20 1.143
558.30 1.143
558.40 1.143
558.50 1.143
558.60 1.143
558.70 1.144
558.80 1.144
558.90 1.144
559.00 1.144
559.10 1.144
559.20 1.145
559.30 1.145
559.40 1.145
559.50 1.145
559.60 1.145
559.70 1.145
559.80 1.146
559.90 1.146
560.00 1.146
560.10 1.146
560.20 1.146
560.30 1.147
560.40 1.147
560.50 1.147
560.60 1.147
560.70 1.147
560.80 1.147
560.90 1.148
561.00 1.148
561.10 1.148
561.20 1.148
561.30 1.148
561.40 1.148
561.50 1.149
561.60 1.149
561.70 1.149
561.80 1.149
561.90 1.149
562.00 1.149
562.10 1.15
562.20 1.15
562.30 1.15
562.40 1.15
562.50 1.15
562.60 1.151
562.70 1.151
562.80 1.151
562.90 1.151
563.00 1.151
563.10 1.151
563.20 1.152
563.30 1.152
563.40 1.152
563.50 1.152
563.60 1.152
563.70 1.152
563.80 1.153
563.90 1.153
564.00 1.153
564.10 1.153
564.20 1.153
564.30 1.153
564.40 1.154
564.50 1.154
564.60 1.154
564.70 1.154
564.80 1.154
564.90 1.154
565.00 1.155
565.10 1.155
565.20 1.155
565.30 1.155
565.40 1.155
565.50 1.156
565.60 1.156
565.70 1.156
565.80 1.156
565.90 1.156
566.00 1.156
566.10 1.157
566.20 1.157
566.30 1.157
566.40 1.157
566.50 1.157
566.60 1.157
566.70 1.158
566.80 1.158
566.90 1.158
567.00 1.158
567.10 1.158
567.20 1.158
567.30 1.159
567.40 1.159
567.50 1.159
567.60 1.159
567.70 1.159
567.80 1.159
567.90 1.16
568.00 1.16
568.10 1.16
568.20 1.16
568.30 1.16
568.40 1.16
568.50 1.16
568.60 1.161
568.70 1.161
568.80 1.161
568.90 1.161
569.00 1.161
569.10 1.161
569.20 1.162
569.30 1.162
569.40 1.162
569.50 1.162
569.60 1.162
569.70 1.162
569.80 1.163
569.90 1.163
570.00 1.163
570.10 1.163
570.20 1.163
570.30 1.163
570.40 1.163
570.50 1.164
570.60 1.164
570.70 1.164
570.80 1.164
570.90 1.164
571.00 1.164
571.10 1.165
571.20 1.165
571.30 1.165
571.40 1.165
571.50 1.165
571.60 1.165
571.70 1.166
571.80 1.166
571.90 1.166
572.00 1.166
572.10 1.166
572.20 1.166
572.30 1.166
572.40 1.167
572.50 1.167
572.60 1.167
572.70 1.167
572.80 1.167
572.90 1.167
573.00 1.168
573.10 1.168
573.20 1.168
573.30 1.168
573.40 1.168
573.50 1.168
573.60 1.168
573.70 1.169
573.80 1.169
573.90 1.169
574.00 1.169
574.10 1.169
574.20 1.169
574.30 1.169
574.40 1.17
574.50 1.17
574.60 1.17
574.70 1.17
574.80 1.17
574.90 1.17
575.00 1.171
575.10 1.171
575.20 1.171
575.30 1.171
575.40 1.171
575.50 1.171
575.60 1.171
575.70 1.172
575.80 1.172
575.90 1.172
576.00 1.172
576.10 1.172
576.20 1.172
576.30 1.172
576.40 1.173
576.50 1.173
576.60 1.173
576.70 1.173
576.80 1.173
576.90 1.173
577.00 1.173
577.10 1.174
577.20 1.174
577.30 1.174
577.40 1.174
577.50 1.174
577.60 1.174
577.70 1.174
577.80 1.175
577.90 1.175
578.00 1.175
578.10 1.175
578.20 1.175
578.30 1.175
578.40 1.175
578.50 1.176
578.60 1.176
578.70 1.176
578.80 1.176
578.90 1.176
579.00 1.176
579.10 1.176
579.20 1.177
579.30 1.177
579.40 1.177
579.50 1.177
579.60 1.177
579.70 1.177
579.80 1.177
579.90 1.178
580.00 1.178
580.10 1.178
580.20 1.178
580.30 1.178
580.40 1.178
580.50 1.178
580.60 1.179
580.70 1.179
580.80 1.179
580.90 1.179
581.00 1.179
581.10 1.179
581.20 1.179
581.30 1.179
581.40 1.18
581.50 1.18
581.60 1.18
581.70 1.18
581.80 1.18
581.90 1.18
582.00 1.18
582.10 1.181
582.20 1.181
582.30 1.181
582.40 1.181
582.50 1.181
582.60 1.181
582.70 1.181
582.80 1.181
582.90 1.182
583.00 1.182
583.10 1.182
583.20 1.182
583.30 1.182
583.40 1.182
583.50 1.182
583.60 1.182
583.70 1.183
583.80 1.183
583.90 1.183
584.00 1.183
584.10 1.183
584.20 1.183
584.30 1.183
584.40 1.184
584.50 1.184
584.60 1.184
584.70 1.184
584.80 1.184
584.90 1.184
585.00 1.184
585.10 1.184
585.20 1.185
585.30 1.185
585.40 1.185
585.50 1.185
585.60 1.185
585.70 1.185
585.80 1.185
585.90 1.185
586.00 1.186
586.10 1.186
586.20 1.186
586.30 1.186
586.40 1.186
586.50 1.186
586.60 1.186
586.70 1.186
586.80 1.187
586.90 1.187
587.00 1.187
587.10 1.187
587.20 1.187
587.30 1.187
587.40 1.187
587.50 1.187
587.60 1.188
587.70 1.188
587.80 1.188
587.90 1.188
588.00 1.188
588.10 1.188
588.20 1.188
588.30 1.188
588.40 1.189
588.50 1.189
588.60 1.189
588.70 1.189
588.80 1.189
588.90 1.189
589.00 1.189
589.10 1.189
589.20 1.189
589.30 1.19
589.40 1.19
589.50 1.19
589.60 1.19
589.70 1.19
589.80 1.19
589.90 1.19
590.00 1.19
590.10 1.19
590.20 1.191
590.30 1.191
590.40 1.191
590.50 1.191
590.60 1.191
590.70 1.191
590.80 1.191
590.90 1.191
591.00 1.191
591.10 1.192
591.20 1.192
591.30 1.192
591.40 1.192
591.50 1.192
591.60 1.192
591.70 1.192
591.80 1.192
591.90 1.193
592.00 1.193
592.10 1.193
592.20 1.193
592.30 1.193
592.40 1.193
592.50 1.193
592.60 1.193
592.70 1.193
592.80 1.194
592.90 1.194
593.00 1.194
593.10 1.194
593.20 1.194
593.30 1.194
593.40 1.194
593.50 1.194
593.60 1.194
593.70 1.195
593.80 1.195
593.90 1.195
594.00 1.195
594.10 1.195
594.20 1.195
594.30 1.195
594.40 1.195
594.50 1.195
594.60 1.195
594.70 1.196
594.80 1.196
594.90 1.196
595.00 1.196
595.10 1.196
595.20 1.196
595.30 1.196
595.40 1.196
595.50 1.196
595.60 1.197
595.70 1.197
595.80 1.197
595.90 1.197
596.00 1.197
596.10 1.197
596.20 1.197
596.30 1.197
596.40 1.197
596.50 1.197
596.60 1.198
596.70 1.198
596.80 1.198
596.90 1.198
597.00 1.198
597.10 1.198
597.20 1.198
597.30 1.198
597.40 1.198
597.50 1.199
597.60 1.199
597.70 1.199
597.80 1.199
597.90 1.199
598.00 1.199
598.10 1.199
598.20 1.199
598.30 1.199
598.40 1.199
598.50 1.2
598.60 1.2
598.70 1.2
598.80 1.2
598.90 1.2
599.00 1.2
599.10 1.2
599.20 1.2
599.30 1.2
599.40 1.2
599.50 1.2
599.60 1.201
599.70 1.201
599.80 1.201
599.90 1.201
600.00 1.201
600.10 1.201
600.20 1.201
600.30 1.201
600.40 1.201
600.50 1.201
600.60 1.202
600.70 1.202
600.80 1.202
600.90 1.202
601.00 1.202
601.10 1.202
601.20 1.202
601.30 1.202
601.40 1.202
601.50 1.202
601.60 1.202
601.70 1.203
601.80 1.203
601.90 1.203
602.00 1.203
602.10 1.203
602.20 1.203
602.30 1.203
602.40 1.203
602.50 1.203
602.60 1.203
602.70 1.203
602.80 1.204
602.90 1.204
603.00 1.204
603.10 1.204
603.20 1.204
603.30 1.204
603.40 1.204
603.50 1.204
603.60 1.204
603.70 1.204
603.80 1.204
603.90 1.205
604.00 1.205
604.10 1.205
604.20 1.205
604.30 1.205
604.40 1.205
604.50 1.205
604.60 1.205
604.70 1.205
604.80 1.205
604.90 1.205
605.00 1.206
605.10 1.206
605.20 1.206
605.30 1.206
605.40 1.206
605.50 1.206
605.60 1.206
605.70 1.206
605.80 1.206
605.90 1.206
606.00 1.206
606.10 1.206
606.20 1.206
606.30 1.207
606.40 1.207
606.50 1.207
606.60 1.207
606.70 1.207
606.80 1.207
606.90 1.207
607.00 1.207
607.10 1.207
607.20 1.207
607.30 1.207
607.40 1.207
607.50 1.208
607.60 1.208
607.70 1.208
607.80 1.208
607.90 1.208
608.00 1.208
608.10 1.208
608.20 1.208
608.30 1.208
608.40 1.208
608.50 1.208
608.60 1.208
608.70 1.208
608.80 1.209
608.90 1.209
609.00 1.209
609.10 1.209
609.20 1.209
609.30 1.209
609.40 1.209
609.50 1.209
609.60 1.209
609.70 1.209
609.80 1.209
609.90 1.209
610.00 1.209
610.10 1.209
610.20 1.21
610.30 1.21
610.40 1.21
610.50 1.21
610.60 1.21
610.70 1.21
610.80 1.21
610.90 1.21
611.00 1.21
611.10 1.21
611.20 1.21
611.30 1.21
611.40 1.21
611.50 1.211
611.60 1.211
611.70 1.211
611.80 1.211
611.90 1.211
612.00 1.211
612.10 1.211
612.20 1.211
612.30 1.211
612.40 1.211
612.50 1.211
612.60 1.211
612.70 1.211
612.80 1.211
612.90 1.211
613.00 1.212
613.10 1.212
613.20 1.212
613.30 1.212
613.40 1.212
613.50 1.212
613.60 1.212
613.70 1.212
613.80 1.212
613.90 1.212
614.00 1.212
614.10 1.212
614.20 1.212
614.30 1.212
614.40 1.213
614.50 1.213
614.60 1.213
614.70 1.213
614.80 1.213
614.90 1.213
615.00 1.213
615.10 1.213
615.20 1.213
615.30 1.213
615.40 1.213
615.50 1.213
615.60 1.213
615.70 1.213
615.80 1.213
615.90 1.213
616.00 1.214
616.10 1.214
616.20 1.214
616.30 1.214
616.40 1.214
616.50 1.214
616.60 1.214
616.70 1.214
616.80 1.214
616.90 1.214
617.00 1.214
617.10 1.214
617.20 1.214
617.30 1.214
617.40 1.214
617.50 1.214
617.60 1.214
617.70 1.214
617.80 1.215
617.90 1.215
618.00 1.215
618.10 1.215
618.20 1.215
618.30 1.215
618.40 1.215
618.50 1.215
618.60 1.215
618.70 1.215
618.80 1.215
618.90 1.215
619.00 1.215
619.10 1.215
619.20 1.215
619.30 1.215
619.40 1.215
619.50 1.215
619.60 1.216
619.70 1.216
619.80 1.216
619.90 1.216
620.00 1.216
620.10 1.216
620.20 1.216
620.30 1.216
620.40 1.216
620.50 1.216
620.60 1.216
620.70 1.216
620.80 1.216
620.90 1.216
621.00 1.216
621.10 1.216
621.20 1.216
621.30 1.216
621.40 1.216
621.50 1.217
621.60 1.217
621.70 1.217
621.80 1.217
621.90 1.217
622.00 1.217
622.10 1.217
622.20 1.217
622.30 1.217
622.40 1.217
622.50 1.217
622.60 1.217
622.70 1.217
622.80 1.217
622.90 1.217
623.00 1.217
623.10 1.217
623.20 1.217
623.30 1.217
623.40 1.217
623.50 1.217
623.60 1.218
623.70 1.218
623.80 1.218
623.90 1.218
624.00 1.218
624.10 1.218
624.20 1.218
624.30 1.218
624.40 1.218
624.50 1.218
624.60 1.218
624.70 1.218
624.80 1.218
624.90 1.218
625.00 1.218
625.10 1.218
625.20 1.218
625.30 1.218
625.40 1.218
625.50 1.218
625.60 1.218
625.70 1.218
625.80 1.218
625.90 1.218
626.00 1.218
626.10 1.219
626.20 1.219
626.30 1.219
626.40 1.219
626.50 1.219
626.60 1.219
626.70 1.219
626.80 1.219
626.90 1.219
627.00 1.219
627.10 1.219
627.20 1.219
627.30 1.219
627.40 1.219
627.50 1.219
627.60 1.219
627.70 1.219
627.80 1.219
627.90 1.219
628.00 1.219
628.10 1.219
628.20 1.219
628.30 1.219
628.40 1.219
628.50 1.219
628.60 1.219
628.70 1.219
628.80 1.219
628.90 1.22
629.00 1.22
629.10 1.22
629.20 1.22
629.30 1.22
629.40 1.22
629.50 1.22
629.60 1.22
629.70 1.22
629.80 1.22
629.90 1.22
630.00 1.22
630.10 1.22
630.20 1.22
630.30 1.22
630.40 1.22
630.50 1.22
630.60 1.22
630.70 1.22
630.80 1.22
630.90 1.22
631.00 1.22
631.10 1.22
631.20 1.22
631.30 1.22
631.40 1.22
631.50 1.22
631.60 1.22
631.70 1.22
631.80 1.22
631.90 1.22
632.00 1.22
632.10 1.22
632.20 1.22
632.30 1.22
632.40 1.22
632.50 1.22
632.60 1.221
632.70 1.221
632.80 1.221
632.90 1.221
633.00 1.221
633.10 1.221
633.20 1.221
633.30 1.221
633.40 1.221
633.50 1.221
633.60 1.221
633.70 1.221
633.80 1.221
633.90 1.221
634.00 1.221
634.10 1.221
634.20 1.221
634.30 1.221
634.40 1.221
634.50 1.221
634.60 1.221
634.70 1.221
634.80 1.221
634.90 1.221
635.00 1.221
635.10 1.221
635.20 1.221
635.30 1.221
635.40 1.221
635.50 1.221
635.60 1.221
635.70 1.221
635.80 1.221
635.90 1.221
636.00 1.221
636.10 1.221
636.20 1.221
636.30 1.221
636.40 1.221
636.50 1.221
636.60 1.221
636.70 1.221
636.80 1.221
636.90 1.221
637.00 1.221
637.10 1.221
637.20 1.221
637.30 1.221
637.40 1.221
637.50 1.221
637.60 1.221
637.70 1.221
637.80 1.221
637.90 1.221
638.00 1.221
638.10 1.221
638.20 1.221
638.30 1.221
638.40 1.221
638.50 1.221
638.60 1.221
638.70 1.221
638.80 1.221
638.90 1.221
639.00 1.221
639.10 1.221
639.20 1.221
639.30 1.221
639.40 1.222
639.50 1.222
639.60 1.222
639.70 1.222
639.80 1.222
639.90 1.222
640.00 1.222
640.10 1.222
640.20 1.222
640.30 1.222
640.40 1.222
640.50 1.222
640.60 1.222
640.70 1.222
640.80 1.222
640.90 1.222
641.00 1.222
641.10 1.222
641.20 1.222
641.30 1.222
641.40 1.222
641.50 1.222
641.60 1.222
641.70 1.222
641.80 1.222
641.90 1.222
642.00 1.222
642.10 1.222
642.20 1.222
642.30 1.222
642.40 1.222
642.50 1.222
642.60 1.222
642.70 1.222
642.80 1.222
642.90 1.222
643.00 1.222
643.10 1.222
643.20 1.222
643.30 1.222
643.40 1.222
643.50 1.222
643.60 1.222
643.70 1.222
643.80 1.222
643.90 1.222
644.00 1.222
644.10 1.222
644.20 1.222
644.30 1.222
644.40 1.222
644.50 1.222
644.60 1.222
644.70 1.222
644.80 1.222
644.90 1.222
645.00 1.221
645.10 1.221
645.20 1.221
645.30 1.221
645.40 1.221
645.50 1.221
645.60 1.221
645.70 1.221
645.80 1.221
645.90 1.221
646.00 1.221
646.10 1.221
646.20 1.221
646.30 1.221
646.40 1.221
646.50 1.221
646.60 1.221
646.70 1.221
646.80 1.221
646.90 1.221
647.00 1.221
647.10 1.221
647.20 1.221
647.30 1.221
647.40 1.221
647.50 1.221
647.60 1.221
647.70 1.221
647.80 1.221
647.90 1.221
648.00 1.221
648.10 1.221
648.20 1.221
648.30 1.221
648.40 1.221
648.50 1.221
648.60 1.221
648.70 1.221
648.80 1.221
648.90 1.221
649.00 1.221
649.10 1.221
649.20 1.221
649.30 1.221
649.40 1.221
649.50 1.221
649.60 1.221
649.70 1.221
649.80 1.221
649.90 1.221
650.00 1.221
650.10 1.221
650.20 1.221
650.30 1.221
650.40 1.221
650.50 1.221
650.60 1.221
650.70 1.221
650.80 1.221
650.90 1.22
651.00 1.22
651.10 1.22
651.20 1.22
651.30 1.22
651.40 1.22
651.50 1.22
651.60 1.22
651.70 1.22
651.80 1.22
651.90 1.22
652.00 1.22
652.10 1.22
652.20 1.22
652.30 1.22
652.40 1.22
652.50 1.22
652.60 1.22
652.70 1.22
652.80 1.22
652.90 1.22
653.00 1.22
653.10 1.22
653.20 1.22
653.30 1.22
653.40 1.22
653.50 1.22
653.60 1.22
653.70 1.22
653.80 1.22
653.90 1.22
654.00 1.22
654.10 1.22
654.20 1.22
654.30 1.22
654.40 1.219
654.50 1.219
654.60 1.219
654.70 1.219
654.80 1.219
654.90 1.219
655.00 1.219
655.10 1.219
655.20 1.219
655.30 1.219
655.40 1.219
655.50 1.219
655.60 1.219
655.70 1.219
655.80 1.219
655.90 1.219
656.00 1.219
656.10 1.219
656.20 1.219
656.30 1.219
656.40 1.219
656.50 1.219
656.60 1.219
656.70 1.219
656.80 1.218
656.90 1.218
657.00 1.218
657.10 1.218
657.20 1.218
657.30 1.218
657.40 1.218
657.50 1.218
657.60 1.218
657.70 1.218
657.80 1.218
657.90 1.218
658.00 1.218
658.10 1.218
658.20 1.218
658.30 1.218
658.40 1.218
658.50 1.218
658.60 1.218
658.70 1.218
658.80 1.218
658.90 1.218
659.00 1.217
659.10 1.217
659.20 1.217
659.30 1.217
659.40 1.217
659.50 1.217
659.60 1.217
659.70 1.217
659.80 1.217
659.90 1.217
660.00 1.217
660.10 1.217
660.20 1.217
660.30 1.217
660.40 1.217
660.50 1.217
660.60 1.217
660.70 1.217
660.80 1.217
660.90 1.217
661.00 1.216
661.10 1.216
661.20 1.216
661.30 1.216
661.40 1.216
661.50 1.216
661.60 1.216
661.70 1.216
661.80 1.216
661.90 1.216
662.00 1.216
662.10 1.216
662.20 1.216
662.30 1.216
662.40 1.216
662.50 1.216
662.60 1.215
662.70 1.215
662.80 1.215
662.90 1.215
663.00 1.215
663.10 1.215
663.20 1.215
663.30 1.215
663.40 1.215
663.50 1.215
663.60 1.215
663.70 1.215
663.80 1.215
663.90 1.215
664.00 1.215
664.10 1.215
664.20 1.215
664.30 1.214
664.40 1.214
664.50 1.214
664.60 1.214
664.70 1.214
664.80 1.214
664.90 1.214
665.00 1.214
665.10 1.214
665.20 1.214
665.30 1.214
665.40 1.214
665.50 1.214
665.60 1.214
665.70 1.213
665.80 1.213
665.90 1.213
666.00 1.213
666.10 1.213
666.20 1.213
666.30 1.213
666.40 1.213
666.50 1.213
666.60 1.213
666.70 1.213
666.80 1.213
666.90 1.213
667.00 1.212
667.10 1.212
667.20 1.212
667.30 1.212
667.40 1.212
667.50 1.212
667.60 1.212
667.70 1.212
667.80 1.212
667.90 1.212
668.00 1.212
668.10 1.212
668.20 1.212
668.30 1.211
668.40 1.211
668.50 1.211
668.60 1.211
668.70 1.211
668.80 1.211
668.90 1.211
669.00 1.211
669.10 1.211
669.20 1.211
669.30 1.211
669.40 1.211
669.50 1.21
669.60 1.21
669.70 1.21
669.80 1.21
669.90 1.21
670.00 1.21
670.10 1.21
670.20 1.21
670.30 1.21
670.40 1.21
670.50 1.21
670.60 1.209
670.70 1.209
670.80 1.209
670.90 1.209
671.00 1.209
671.10 1.209
671.20 1.209
671.30 1.209
671.40 1.209
671.50 1.209
671.60 1.209
671.70 1.208
671.80 1.208
671.90 1.208
672.00 1.208
672.10 1.208
672.20 1.208
672.30 1.208
672.40 1.208
672.50 1.208
672.60 1.208
672.70 1.207
672.80 1.207
672.90 1.207
673.00 1.207
673.10 1.207
673.20 1.207
673.30 1.207
673.40 1.207
673.50 1.207
673.60 1.207
673.70 1.206
673.80 1.206
673.90 1.206
674.00 1.206
674.10 1.206
674.20 1.206
674.30 1.206
674.40 1.206
674.50 1.206
674.60 1.205
674.70 1.205
674.80 1.205
674.90 1.205
675.00 1.205
675.10 1.205
675.20 1.205
675.30 1.205
675.40 1.205
675.50 1.205
675.60 1.204
675.70 1.204
675.80 1.204
675.90 1.204
676.00 1.204
676.10 1.204
676.20 1.204
676.30 1.204
676.40 1.203
676.50 1.203
676.60 1.203
676.70 1.203
676.80 1.203
676.90 1.203
677.00 1.203
677.10 1.203
677.20 1.203
677.30 1.202
677.40 1.202
677.50 1.202
677.60 1.202
677.70 1.202
677.80 1.202
677.90 1.202
678.00 1.202
678.10 1.202
678.20 1.201
678.30 1.201
678.40 1.201
678.50 1.201
678.60 1.201
678.70 1.201
678.80 1.201
678.90 1.201
679.00 1.2
679.10 1.2
679.20 1.2
679.30 1.2
679.40 1.2
679.50 1.2
679.60 1.2
679.70 1.199
679.80 1.199
679.90 1.199
680.00 1.199
680.10 1.199
680.20 1.199
680.30 1.199
680.40 1.199
680.50 1.198
680.60 1.198
680.70 1.198
680.80 1.198
680.90 1.198
681.00 1.198
681.10 1.198
681.20 1.197
681.30 1.197
681.40 1.197
681.50 1.197
681.60 1.197
681.70 1.197
681.80 1.197
681.90 1.196
682.00 1.196
682.10 1.196
682.20 1.196
682.30 1.196
682.40 1.196
682.50 1.196
682.60 1.195
682.70 1.195
682.80 1.195
682.90 1.195
683.00 1.195
683.10 1.195
683.20 1.195
683.30 1.194
683.40 1.194
683.50 1.194
683.60 1.194
683.70 1.194
683.80 1.194
683.90 1.194
684.00 1.193
684.10 1.193
684.20 1.193
684.30 1.193
684.40 1.193
684.50 1.193
684.60 1.193
684.70 1.192
684.80 1.192
684.90 1.192
685.00 1.192
685.10 1.192
685.20 1.192
685.30 1.191
685.40 1.191
685.50 1.191
685.60 1.191
685.70 1.191
685.80 1.191
685.90 1.19
686.00 1.19
686.10 1.19
686.20 1.19
686.30 1.19
686.40 1.19
686.50 1.189
686.60 1.189
686.70 1.189
686.80 1.189
686.90 1.189
687.00 1.189
687.10 1.188
687.20 1.188
687.30 1.188
687.40 1.188
687.50 1.188
687.60 1.188
687.70 1.187
687.80 1.187
687.90 1.187
688.00 1.187
688.10 1.187
688.20 1.187
688.30 1.186
688.40 1.186
688.50 1.186
688.60 1.186
688.70 1.186
688.80 1.186
688.90 1.185
689.00 1.185
689.10 1.185
689.20 1.185
689.30 1.185
689.40 1.184
689.50 1.184
689.60 1.184
689.70 1.184
689.80 1.184
689.90 1.183
690.00 1.183
690.10 1.183
690.20 1.183
690.30 1.183
690.40 1.182
690.50 1.182
690.60 1.182
690.70 1.182
690.80 1.182
690.90 1.181
691.00 1.181
691.10 1.181
691.20 1.181
691.30 1.181
691.40 1.18
691.50 1.18
691.60 1.18
691.70 1.18
691.80 1.18
691.90 1.18
692.00 1.179
692.10 1.179
692.20 1.179
692.30 1.179
692.40 1.179
692.50 1.178
692.60 1.178
692.70 1.178
692.80 1.178
692.90 1.178
693.00 1.177
693.10 1.177
693.20 1.177
693.30 1.177
693.40 1.177
693.50 1.176
693.60 1.176
693.70 1.176
693.80 1.176
693.90 1.176
694.00 1.175
694.10 1.175
694.20 1.175
694.30 1.175
694.40 1.175
694.50 1.174
694.60 1.174
694.70 1.174
694.80 1.174
694.90 1.174
695.00 1.173
695.10 1.173
695.20 1.173
695.30 1.173
695.40 1.173
695.50 1.172
695.60 1.172
695.70 1.172
695.80 1.172
695.90 1.171
696.00 1.171
696.10 1.171
696.20 1.171
696.30 1.17
696.40 1.17
696.50 1.17
696.60 1.17
696.70 1.17
696.80 1.169
696.90 1.169
697.00 1.169
697.10 1.169
697.20 1.168
697.30 1.168
697.40 1.168
697.50 1.168
697.60 1.168
697.70 1.167
697.80 1.167
697.90 1.167
698.00 1.167
698.10 1.166
698.20 1.166
698.30 1.166
698.40 1.166
698.50 1.166
698.60 1.165
698.70 1.165
698.80 1.165
698.90 1.165
699.00 1.164
699.10 1.164
699.20 1.164
699.30 1.164
699.40 1.164
699.50 1.163
699.60 1.163
699.70 1.163
699.80 1.163
699.90 1.162
700.00 1.162
700.10 1.162
700.20 1.162
700.30 1.161
700.40 1.161
700.50 1.161
700.60 1.161
700.70 1.16
700.80 1.16
700.90 1.16
701.00 1.16
701.10 1.159
701.20 1.159
701.30 1.159
701.40 1.159
701.50 1.158
701.60 1.158
701.70 1.158
701.80 1.158
701.90 1.157
702.00 1.157
702.10 1.157
702.20 1.157
702.30 1.156
702.40 1.156
702.50 1.156
702.60 1.156
702.70 1.155
702.80 1.155
702.90 1.155
703.00 1.155
703.10 1.154
703.20 1.154
703.30 1.154
703.40 1.154
703.50 1.153
703.60 1.153
703.70 1.153
703.80 1.153
703.90 1.152
704.00 1.152
704.10 1.152
704.20 1.152
704.30 1.151
704.40 1.151
704.50 1.151
704.60 1.15
704.70 1.15
704.80 1.15
704.90 1.15
705.00 1.149
705.10 1.149
705.20 1.149
705.30 1.149
705.40 1.148
705.50 1.148
705.60 1.148
705.70 1.148
705.80 1.147
705.90 1.147
706.00 1.147
706.10 1.146
706.20 1.146
706.30 1.146
706.40 1.146
706.50 1.145
706.60 1.145
706.70 1.145
706.80 1.144
706.90 1.144
707.00 1.144
707.10 1.144
707.20 1.143
707.30 1.143
707.40 1.143
707.50 1.142
707.60 1.142
707.70 1.142
707.80 1.142
707.90 1.141
708.00 1.141
708.10 1.141
708.20 1.141
708.30 1.14
708.40 1.14
708.50 1.14
708.60 1.139
708.70 1.139
708.80 1.139
708.90 1.139
709.00 1.138
709.10 1.138
709.20 1.138
709.30 1.137
709.40 1.137
709.50 1.137
709.60 1.137
709.70 1.136
709.80 1.136
709.90 1.136
710.00 1.136
710.10 1.135
710.20 1.135
710.30 1.135
710.40 1.134
710.50 1.134
710.60 1.134
710.70 1.133
710.80 1.133
710.90 1.133
711.00 1.133
711.10 1.132
711.20 1.132
711.30 1.132
711.40 1.131
711.50 1.131
711.60 1.131
711.70 1.13
711.80 1.13
711.90 1.13
712.00 1.13
712.10 1.129
712.20 1.129
712.30 1.129
712.40 1.128
712.50 1.128
712.60 1.128
712.70 1.127
712.80 1.127
712.90 1.127
713.00 1.127
713.10 1.126
713.20 1.126
713.30 1.126
713.40 1.125
713.50 1.125
713.60 1.125
713.70 1.124
713.80 1.124
713.90 1.124
714.00 1.124
714.10 1.123
714.20 1.123
714.30 1.123
714.40 1.122
714.50 1.122
714.60 1.122
714.70 1.121
714.80 1.121
714.90 1.121
715.00 1.121
715.10 1.12
715.20 1.12
715.30 1.12
715.40 1.119
715.50 1.119
715.60 1.119
715.70 1.118
715.80 1.118
715.90 1.118
716.00 1.117
716.10 1.117
716.20 1.117
716.30 1.116
716.40 1.116
716.50 1.116
716.60 1.115
716.70 1.115
716.80 1.115
716.90 1.115
717.00 1.114
717.10 1.114
717.20 1.114
717.30 1.113
717.40 1.113
717.50 1.113
717.60 1.112
717.70 1.112
717.80 1.112
717.90 1.111
718.00 1.111
718.10 1.111
718.20 1.11
718.30 1.11
718.40 1.11
718.50 1.109
718.60 1.109
718.70 1.109
718.80 1.108
718.90 1.108
719.00 1.108
719.10 1.108
719.20 1.107
719.30 1.107
719.40 1.107
719.50 1.106
719.60 1.106
719.70 1.106
719.80 1.105
719.90 1.105
720.00 1.105
720.10 1.104
720.20 1.104
720.30 1.104
720.40 1.103
720.50 1.103
720.60 1.103
720.70 1.102
720.80 1.102
720.90 1.102
721.00 1.101
721.10 1.101
721.20 1.101
721.30 1.1
721.40 1.1
721.50 1.1
721.60 1.099
721.70 1.099
721.80 1.099
721.90 1.098
722.00 1.098
722.10 1.098
722.20 1.098
722.30 1.097
722.40 1.097
722.50 1.097
722.60 1.096
722.70 1.096
722.80 1.096
722.90 1.095
723.00 1.095
723.10 1.095
723.20 1.094
723.30 1.094
723.40 1.094
723.50 1.093
723.60 1.093
723.70 1.093
723.80 1.092
723.90 1.092
724.00 1.092
724.10 1.091
724.20 1.091
724.30 1.091
724.40 1.09
724.50 1.09
724.60 1.09
724.70 1.089
724.80 1.089
724.90 1.089
725.00 1.088
725.10 1.088
725.20 1.088
725.30 1.088
725.40 1.087
725.50 1.087
725.60 1.087
725.70 1.086
725.80 1.086
725.90 1.086
726.00 1.085
726.10 1.085
726.20 1.085
726.30 1.084
726.40 1.084
726.50 1.084
726.60 1.083
726.70 1.083
726.80 1.083
726.90 1.082
727.00 1.082
727.10 1.082
727.20 1.081
727.30 1.081
727.40 1.081
727.50 1.08
727.60 1.08
727.70 1.08
727.80 1.079
727.90 1.079
728.00 1.079
728.10 1.078
728.20 1.078
728.30 1.078
728.40 1.077
728.50 1.077
728.60 1.077
728.70 1.077
728.80 1.076
728.90 1.076
729.00 1.076
729.10 1.075
729.20 1.075
729.30 1.075
729.40 1.074
729.50 1.074
729.60 1.074
729.70 1.073
729.80 1.073
729.90 1.073
730.00 1.072
730.10 1.072
730.20 1.072
730.30 1.071
730.40 1.071
730.50 1.071
730.60 1.071
730.70 1.07
730.80 1.07
730.90 1.07
731.00 1.069
731.10 1.069
731.20 1.069
731.30 1.068
731.40 1.068
731.50 1.068
731.60 1.067
731.70 1.067
731.80 1.067
731.90 1.067
732.00 1.066
732.10 1.066
732.20 1.066
732.30 1.065
732.40 1.065
732.50 1.065
732.60 1.064
732.70 1.064
732.80 1.064
732.90 1.064
733.00 1.063
733.10 1.063
733.20 1.063
733.30 1.062
733.40 1.062
733.50 1.062
733.60 1.061
733.70 1.061
733.80 1.061
733.90 1.061
734.00 1.06
734.10 1.06
734.20 1.06
734.30 1.059
734.40 1.059
734.50 1.059
734.60 1.058
734.70 1.058
734.80 1.058
734.90 1.057
735.00 1.057
735.10 1.057
735.20 1.057
735.30 1.056
735.40 1.056
735.50 1.056
735.60 1.055
735.70 1.055
735.80 1.055
735.90 1.055
736.00 1.054
736.10 1.054
736.20 1.054
736.30 1.053
736.40 1.053
736.50 1.053
736.60 1.052
736.70 1.052
736.80 1.052
736.90 1.052
737.00 1.051
737.10 1.051
737.20 1.051
737.30 1.05
737.40 1.05
737.50 1.05
737.60 1.049
737.70 1.049
737.80 1.049
737.90 1.049
738.00 1.048
738.10 1.048
738.20 1.048
738.30 1.047
738.40 1.047
738.50 1.047
738.60 1.046
738.70 1.046
738.80 1.046
738.90 1.046
739.00 1.045
739.10 1.045
739.20 1.045
739.30 1.044
739.40 1.044
739.50 1.044
739.60 1.044
739.70 1.043
739.80 1.043
739.90 1.043
740.00 1.042
740.10 1.042
740.20 1.042
740.30 1.042
740.40 1.041
740.50 1.041
740.60 1.041
740.70 1.041
740.80 1.04
740.90 1.04
741.00 1.04
741.10 1.039
741.20 1.039
741.30 1.039
741.40 1.039
741.50 1.038
741.60 1.038
741.70 1.038
741.80 1.038
741.90 1.037
742.00 1.037
742.10 1.037
742.20 1.037
742.30 1.036
742.40 1.036
742.50 1.036
742.60 1.036
742.70 1.035
742.80 1.035
742.90 1.035
743.00 1.034
743.10 1.034
743.20 1.034
743.30 1.034
743.40 1.033
743.50 1.033
743.60 1.033
743.70 1.033
743.80 1.032
743.90 1.032
744.00 1.032
744.10 1.032
744.20 1.031
744.30 1.031
744.40 1.031
744.50 1.031
744.60 1.03
744.70 1.03
744.80 1.03
744.90 1.03
745.00 1.029
745.10 1.029
745.20 1.029
745.30 1.029
745.40 1.028
745.50 1.028
745.60 1.028
745.70 1.027
745.80 1.027
745.90 1.027
746.00 1.027
746.10 1.026
746.20 1.026
746.30 1.026
746.40 1.026
746.50 1.025
746.60 1.025
746.70 1.025
746.80 1.025
746.90 1.024
747.00 1.024
747.10 1.024
747.20 1.024
747.30 1.023
747.40 1.023
747.50 1.023
747.60 1.023
747.70 1.022
747.80 1.022
747.90 1.022
748.00 1.022
748.10 1.021
748.20 1.021
748.30 1.021
748.40 1.021
748.50 1.02
748.60 1.02
748.70 1.02
748.80 1.02
748.90 1.019
749.00 1.019
749.10 1.019
749.20 1.019
749.30 1.018
749.40 1.018
749.50 1.018
749.60 1.017
749.70 1.017
749.80 1.017
749.90 1.017
750.00 1.016
750.10 1.016
750.20 1.016
750.30 1.016
750.40 1.016
750.50 1.015
750.60 1.015
750.70 1.015
750.80 1.015
750.90 1.014
751.00 1.014
751.10 1.014
751.20 1.014
751.30 1.013
751.40 1.013
751.50 1.013
751.60 1.013
751.70 1.013
751.80 1.012
751.90 1.012
752.00 1.012
752.10 1.012
752.20 1.011
752.30 1.011
752.40 1.011
752.50 1.011
752.60 1.011
752.70 1.01
752.80 1.01
752.90 1.01
753.00 1.01
753.10 1.009
753.20 1.009
753.30 1.009
753.40 1.009
753.50 1.008
753.60 1.008
753.70 1.008
753.80 1.008
753.90 1.008
754.00 1.007
754.10 1.007
754.20 1.007
754.30 1.007
754.40 1.006
754.50 1.006
754.60 1.006
754.70 1.006
754.80 1.006
754.90 1.005
755.00 1.005
755.10 1.005
755.20 1.005
755.30 1.004
755.40 1.004
755.50 1.004
755.60 1.004
755.70 1.004
755.80 1.003
755.90 1.003
756.00 1.003
756.10 1.003
756.20 1.002
756.30 1.002
756.40 1.002
756.50 1.002
756.60 1.002
756.70 1.001
756.80 1.001
756.90 1.001
757.00 1.001
757.10 1
757.20 1
757.30 1
757.40 0.9997
757.50 0.9995
757.60 0.9993
757.70 0.9991
757.80 0.9988
757.90 0.9986
758.00 0.9984
758.10 0.9982
758.20 0.998
758.30 0.9977
758.40 0.9975
758.50 0.9973
758.60 0.9971
758.70 0.9968
758.80 0.9966
758.90 0.9964
759.00 0.9962
759.10 0.996
759.20 0.9957
759.30 0.9955
759.40 0.9953
759.50 0.9951
759.60 0.9949
759.70 0.9946
759.80 0.9944
759.90 0.9942
760.00 0.994
760.10 0.9938
760.20 0.9936
760.30 0.9934
760.40 0.9932
760.50 0.9929
760.60 0.9927
760.70 0.9925
760.80 0.9923
760.90 0.9921
761.00 0.9919
761.10 0.9917
761.20 0.9915
761.30 0.9913
761.40 0.9911
761.50 0.9909
761.60 0.9907
761.70 0.9905
761.80 0.9903
761.90 0.9901
762.00 0.9899
762.10 0.9897
762.20 0.9895
762.30 0.9893
762.40 0.9891
762.50 0.9889
762.60 0.9887
762.70 0.9885
762.80 0.9883
762.90 0.9881
763.00 0.9879
763.10 0.9877
763.20 0.9875
763.30 0.9873
763.40 0.9871
763.50 0.9869
763.60 0.9867
763.70 0.9865
763.80 0.9863
763.90 0.9861
764.00 0.9859
764.10 0.9857
764.20 0.9855
764.30 0.9853
764.40 0.9851
764.50 0.9849
764.60 0.9847
764.70 0.9845
764.80 0.9843
764.90 0.9841
765.00 0.9839
765.10 0.9837
765.20 0.9835
765.30 0.9833
765.40 0.9831
765.50 0.9829
765.60 0.9827
765.70 0.9825
765.80 0.9823
765.90 0.9821
766.00 0.9819
766.10 0.9817
766.20 0.9815
766.30 0.9813
766.40 0.9811
766.50 0.9809
766.60 0.9807
766.70 0.9805
766.80 0.9803
766.90 0.9801
767.00 0.9799
767.10 0.9797
767.20 0.9795
767.30 0.9793
767.40 0.9791
767.50 0.9789
767.60 0.9787
767.70 0.9785
767.80 0.9783
767.90 0.9781
768.00 0.9779
768.10 0.9777
768.20 0.9775
768.30 0.9773
768.40 0.9771
768.50 0.9769
768.60 0.9767
768.70 0.9765
768.80 0.9763
768.90 0.9761
769.00 0.9759
769.10 0.9757
769.20 0.9755
769.30 0.9753
769.40 0.9751
769.50 0.9749
769.60 0.9747
769.70 0.9745
769.80 0.9743
769.90 0.9741
770.00 0.9739
770.10 0.9738
770.20 0.9736
770.30 0.9734
770.40 0.9732
770.50 0.9731
770.60 0.9729
770.70 0.9727
770.80 0.9725
770.90 0.9724
771.00 0.9722
771.10 0.972
771.20 0.9719
771.30 0.9717
771.40 0.9715
771.50 0.9713
771.60 0.9712
771.70 0.971
771.80 0.9708
771.90 0.9707
772.00 0.9705
772.10 0.9703
772.20 0.9701
772.30 0.97
772.40 0.9698
772.50 0.9696
772.60 0.9695
772.70 0.9693
772.80 0.9691
772.90 0.9689
773.00 0.9688
773.10 0.9686
773.20 0.9684
773.30 0.9683
773.40 0.9681
773.50 0.9679
773.60 0.9677
773.70 0.9676
773.80 0.9674
773.90 0.9672
774.00 0.9671
774.10 0.9669
774.20 0.9667
774.30 0.9665
774.40 0.9664
774.50 0.9662
774.60 0.966
774.70 0.9659
774.80 0.9657
774.90 0.9655
775.00 0.9654
775.10 0.9652
775.20 0.965
775.30 0.9648
775.40 0.9647
775.50 0.9645
775.60 0.9643
775.70 0.9642
775.80 0.964
775.90 0.9638
776.00 0.9637
776.10 0.9635
776.20 0.9633
776.30 0.9631
776.40 0.963
776.50 0.9628
776.60 0.9626
776.70 0.9625
776.80 0.9623
776.90 0.9621
777.00 0.962
777.10 0.9618
777.20 0.9616
777.30 0.9615
777.40 0.9613
777.50 0.9611
777.60 0.9609
777.70 0.9608
777.80 0.9606
777.90 0.9604
778.00 0.9603
778.10 0.9601
778.20 0.9599
778.30 0.9598
778.40 0.9596
778.50 0.9594
778.60 0.9593
778.70 0.9591
778.80 0.9589
778.90 0.9588
779.00 0.9586
779.10 0.9584
779.20 0.9583
779.30 0.9581
779.40 0.9579
779.50 0.9577
779.60 0.9576
779.70 0.9574
779.80 0.9572
779.90 0.9571
780.00 0.9569
780.10 0.9568
780.20 0.9566
780.30 0.9565
780.40 0.9563
780.50 0.9562
780.60 0.9561
780.70 0.9559
780.80 0.9558
780.90 0.9556
781.00 0.9555
781.10 0.9554
781.20 0.9552
781.30 0.9551
781.40 0.9549
781.50 0.9548
781.60 0.9547
781.70 0.9545
781.80 0.9544
781.90 0.9542
782.00 0.9541
782.10 0.954
782.20 0.9538
782.30 0.9537
782.40 0.9536
782.50 0.9534
782.60 0.9533
782.70 0.9531
782.80 0.953
782.90 0.9529
783.00 0.9527
783.10 0.9526
783.20 0.9524
783.30 0.9523
783.40 0.9522
783.50 0.952
783.60 0.9519
783.70 0.9517
783.80 0.9516
783.90 0.9515
784.00 0.9513
784.10 0.9512
784.20 0.951
784.30 0.9509
784.40 0.9508
784.50 0.9506
784.60 0.9505
784.70 0.9504
784.80 0.9502
784.90 0.9501
785.00 0.9499
785.10 0.9498
785.20 0.9497
785.30 0.9495
785.40 0.9494
785.50 0.9492
785.60 0.9491
785.70 0.949
785.80 0.9488
785.90 0.9487
786.00 0.9486
786.10 0.9484
786.20 0.9483
786.30 0.9481
786.40 0.948
786.50 0.9479
786.60 0.9477
786.70 0.9476
786.80 0.9475
786.90 0.9473
787.00 0.9472
787.10 0.947
787.20 0.9469
787.30 0.9468
787.40 0.9466
787.50 0.9465
787.60 0.9464
787.70 0.9462
787.80 0.9461
787.90 0.9459
788.00 0.9458
788.10 0.9457
788.20 0.9455
788.30 0.9454
788.40 0.9453
788.50 0.9451
788.60 0.945
788.70 0.9448
788.80 0.9447
788.90 0.9446
789.00 0.9444
789.10 0.9443
789.20 0.9442
789.30 0.944
789.40 0.9439
789.50 0.9438
789.60 0.9436
789.70 0.9435
789.80 0.9433
789.90 0.9432
790.00 0.9431
790.10 0.9429
790.20 0.9428
790.30 0.9427
790.40 0.9425
790.50 0.9424
790.60 0.9423
790.70 0.9421
790.80 0.942
790.90 0.9419
791.00 0.9417
791.10 0.9416
791.20 0.9414
791.30 0.9413
791.40 0.9412
791.50 0.941
791.60 0.9409
791.70 0.9408
791.80 0.9406
791.90 0.9405
792.00 0.9404
792.10 0.9402
792.20 0.9401
792.30 0.94
792.40 0.9398
792.50 0.9397
792.60 0.9396
792.70 0.9394
792.80 0.9393
792.90 0.9392
793.00 0.939
793.10 0.9389
793.20 0.9388
793.30 0.9386
793.40 0.9385
793.50 0.9384
793.60 0.9382
793.70 0.9381
793.80 0.938
793.90 0.9378
794.00 0.9377
794.10 0.9376
794.20 0.9374
794.30 0.9373
794.40 0.9372
794.50 0.937
794.60 0.9369
794.70 0.9368
794.80 0.9366
794.90 0.9365
795.00 0.9364
795.10 0.9362
795.20 0.9361
795.30 0.936
795.40 0.9358
795.50 0.9357
795.60 0.9356
795.70 0.9354
795.80 0.9353
795.90 0.9352
796.00 0.935
796.10 0.9349
796.20 0.9348
796.30 0.9346
796.40 0.9345
796.50 0.9344
796.60 0.9342
796.70 0.9341
796.80 0.934
796.90 0.9338
797.00 0.9337
797.10 0.9336
797.20 0.9334
797.30 0.9333
797.40 0.9332
797.50 0.933
797.60 0.9329
797.70 0.9328
797.80 0.9326
797.90 0.9325
798.00 0.9324
798.10 0.9322
798.20 0.9321
798.30 0.932
798.40 0.9318
798.50 0.9317
798.60 0.9316
798.70 0.9314
798.80 0.9313
798.90 0.9312
799.00 0.931
799.10 0.9309
799.20 0.9308
799.30 0.9306
799.40 0.9305
799.50 0.9304
799.60 0.9303
799.70 0.9301
799.80 0.93
799.90 0.9299
800.00 0.9297
800.10 0.9296
800.20 0.9294
800.30 0.9292
800.40 0.9291
800.50 0.9289
800.60 0.9288
800.70 0.9286
800.80 0.9284
800.90 0.9283
801.00 0.9281
801.10 0.9279
801.20 0.9278
801.30 0.9276
801.40 0.9275
801.50 0.9273
801.60 0.9271
801.70 0.927
801.80 0.9268
801.90 0.9267
802.00 0.9265
802.10 0.9263
802.20 0.9262
802.30 0.926
802.40 0.9258
802.50 0.9257
802.60 0.9255
802.70 0.9254
802.80 0.9252
802.90 0.925
803.00 0.9249
803.10 0.9247
803.20 0.9246
803.30 0.9244
803.40 0.9242
803.50 0.9241
803.60 0.9239
803.70 0.9238
803.80 0.9236
803.90 0.9234
804.00 0.9233
804.10 0.9231
804.20 0.923
804.30 0.9228
804.40 0.9226
804.50 0.9225
804.60 0.9223
804.70 0.9222
804.80 0.922
804.90 0.9218
805.00 0.9217
805.10 0.9215
805.20 0.9214
805.30 0.9212
805.40 0.921
805.50 0.9209
805.60 0.9207
805.70 0.9206
805.80 0.9204
805.90 0.9202
806.00 0.9201
806.10 0.9199
806.20 0.9198
806.30 0.9196
806.40 0.9195
806.50 0.9193
806.60 0.9191
806.70 0.919
806.80 0.9188
806.90 0.9187
807.00 0.9185
807.10 0.9183
807.20 0.9182
807.30 0.918
807.40 0.9179
807.50 0.9177
807.60 0.9176
807.70 0.9174
807.80 0.9172
807.90 0.9171
808.00 0.9169
808.10 0.9168
808.20 0.9166
808.30 0.9164
808.40 0.9163
808.50 0.9161
808.60 0.916
808.70 0.9158
808.80 0.9157
808.90 0.9155
809.00 0.9153
809.10 0.9152
809.20 0.915
809.30 0.9149
809.40 0.9147
809.50 0.9146
809.60 0.9144
809.70 0.9142
809.80 0.9141
809.90 0.9139
810.00 0.9138
810.10 0.9136
810.20 0.9134
810.30 0.9132
810.40 0.913
810.50 0.9128
810.60 0.9126
810.70 0.9124
810.80 0.9122
810.90 0.912
811.00 0.9118
811.10 0.9116
811.20 0.9114
811.30 0.9112
811.40 0.911
811.50 0.9108
811.60 0.9106
811.70 0.9104
811.80 0.9102
811.90 0.9101
812.00 0.9099
812.10 0.9097
812.20 0.9095
812.30 0.9093
812.40 0.9091
812.50 0.9089
812.60 0.9087
812.70 0.9085
812.80 0.9083
812.90 0.9081
813.00 0.9079
813.10 0.9077
813.20 0.9075
813.30 0.9073
813.40 0.9071
813.50 0.9069
813.60 0.9068
813.70 0.9066
813.80 0.9064
813.90 0.9062
814.00 0.906
814.10 0.9058
814.20 0.9056
814.30 0.9054
814.40 0.9052
814.50 0.905
814.60 0.9048
814.70 0.9046
814.80 0.9044
814.90 0.9042
815.00 0.904
815.10 0.9039
815.20 0.9037
815.30 0.9035
815.40 0.9033
815.50 0.9031
815.60 0.9029
815.70 0.9027
815.80 0.9025
815.90 0.9023
816.00 0.9021
816.10 0.9019
816.20 0.9017
816.30 0.9015
816.40 0.9014
816.50 0.9012
816.60 0.901
816.70 0.9008
816.80 0.9006
816.90 0.9004
817.00 0.9002
817.10 0.9
817.20 0.8998
817.30 0.8996
817.40 0.8994
817.50 0.8992
817.60 0.8991
817.70 0.8989
817.80 0.8987
817.90 0.8985
818.00 0.8983
818.10 0.8981
818.20 0.8979
818.30 0.8977
818.40 0.8975
818.50 0.8973
818.60 0.8972
818.70 0.897
818.80 0.8968
818.90 0.8966
819.00 0.8964
819.10 0.8962
819.20 0.896
819.30 0.8958
819.40 0.8956
819.50 0.8954
819.60 0.8953
819.70 0.8951
819.80 0.8949
819.90 0.8947
820.00 0.8945
820.10 0.8943
820.20 0.8941
820.30 0.8939
820.40 0.8937
820.50 0.8935
820.60 0.8933
820.70 0.8931
820.80 0.8929
820.90 0.8927
821.00 0.8925
821.10 0.8923
821.20 0.892
821.30 0.8918
821.40 0.8916
821.50 0.8914
821.60 0.8912
821.70 0.891
821.80 0.8908
821.90 0.8906
822.00 0.8904
822.10 0.8902
822.20 0.8899
822.30 0.8897
822.40 0.8895
822.50 0.8893
822.60 0.8891
822.70 0.8889
822.80 0.8886
822.90 0.8884
823.00 0.8882
823.10 0.888
823.20 0.8878
823.30 0.8876
823.40 0.8873
823.50 0.8871
823.60 0.8869
823.70 0.8867
823.80 0.8865
823.90 0.8863
824.00 0.8861
824.10 0.8858
824.20 0.8856
824.30 0.8854
824.40 0.8852
824.50 0.885
824.60 0.8848
824.70 0.8845
824.80 0.8843
824.90 0.8841
825.00 0.8839
825.10 0.8837
825.20 0.8835
825.30 0.8833
825.40 0.883
825.50 0.8828
825.60 0.8826
825.70 0.8824
825.80 0.8822
825.90 0.882
826.00 0.8818
826.10 0.8816
826.20 0.8813
826.30 0.8811
826.40 0.8809
826.50 0.8807
826.60 0.8805
826.70 0.8803
826.80 0.8801
826.90 0.8798
827.00 0.8796
827.10 0.8794
827.20 0.8792
827.30 0.879
827.40 0.8787
827.50 0.8785
827.60 0.8783
827.70 0.8781
827.80 0.8778
827.90 0.8776
828.00 0.8774
828.10 0.8772
828.20 0.8769
828.30 0.8767
828.40 0.8765
828.50 0.8763
828.60 0.8761
828.70 0.8758
828.80 0.8756
828.90 0.8754
829.00 0.8752
829.10 0.8749
829.20 0.8747
829.30 0.8745
829.40 0.8743
829.50 0.874
829.60 0.8738
829.70 0.8736
829.80 0.8734
829.90 0.8732
830.00 0.8729
830.10 0.8727
830.20 0.8725
830.30 0.8723
830.40 0.872
830.50 0.8718
830.60 0.8716
830.70 0.8714
830.80 0.8712
830.90 0.8709
831.00 0.8707
831.10 0.8705
831.20 0.8703
831.30 0.8701
831.40 0.8698
831.50 0.8696
831.60 0.8694
831.70 0.8692
831.80 0.869
831.90 0.8687
832.00 0.8685
832.10 0.8683
832.20 0.868
832.30 0.8678
832.40 0.8676
832.50 0.8674
832.60 0.8671
832.70 0.8669
832.80 0.8667
832.90 0.8664
833.00 0.8662
833.10 0.866
833.20 0.8657
833.30 0.8655
833.40 0.8653
833.50 0.865
833.60 0.8648
833.70 0.8646
833.80 0.8643
833.90 0.8641
834.00 0.8639
834.10 0.8637
834.20 0.8634
834.30 0.8632
834.40 0.863
834.50 0.8627
834.60 0.8625
834.70 0.8623
834.80 0.862
834.90 0.8618
835.00 0.8616
835.10 0.8614
835.20 0.8611
835.30 0.8609
835.40 0.8607
835.50 0.8604
835.60 0.8602
835.70 0.86
835.80 0.8598
835.90 0.8595
836.00 0.8593
836.10 0.8591
836.20 0.8588
836.30 0.8586
836.40 0.8584
836.50 0.8582
836.60 0.8579
836.70 0.8577
836.80 0.8575
836.90 0.8572
837.00 0.857
837.10 0.8568
837.20 0.8565
837.30 0.8563
837.40 0.8561
837.50 0.8558
837.60 0.8556
837.70 0.8553
837.80 0.8551
837.90 0.8549
838.00 0.8546
838.10 0.8544
838.20 0.8542
838.30 0.8539
838.40 0.8537
838.50 0.8534
838.60 0.8532
838.70 0.853
838.80 0.8527
838.90 0.8525
839.00 0.8523
839.10 0.852
839.20 0.8518
839.30 0.8516
839.40 0.8513
839.50 0.8511
839.60 0.8508
839.70 0.8506
839.80 0.8504
839.90 0.8501
840.00 0.8499
840.10 0.8497
840.20 0.8494
840.30 0.8492
840.40 0.849
840.50 0.8487
840.60 0.8485
840.70 0.8483
840.80 0.848
840.90 0.8478
841.00 0.8476
841.10 0.8473
841.20 0.8471
841.30 0.8468
841.40 0.8466
841.50 0.8464
841.60 0.8461
841.70 0.8459
841.80 0.8457
841.90 0.8454
842.00 0.8452
842.10 0.845
842.20 0.8447
842.30 0.8445
842.40 0.8442
842.50 0.844
842.60 0.8437
842.70 0.8435
842.80 0.8433
842.90 0.843
843.00 0.8428
843.10 0.8425
843.20 0.8423
843.30 0.842
843.40 0.8418
843.50 0.8416
843.60 0.8413
843.70 0.8411
843.80 0.8408
843.90 0.8406
844.00 0.8403
844.10 0.8401
844.20 0.8399
844.30 0.8396
844.40 0.8394
844.50 0.8391
844.60 0.8389
844.70 0.8386
844.80 0.8384
844.90 0.8382
845.00 0.8379
845.10 0.8377
845.20 0.8374
845.30 0.8372
845.40 0.837
845.50 0.8367
845.60 0.8365
845.70 0.8362
845.80 0.836
845.90 0.8357
846.00 0.8355
846.10 0.8353
846.20 0.835
846.30 0.8348
846.40 0.8345
846.50 0.8343
846.60 0.8341
846.70 0.8338
846.80 0.8336
846.90 0.8333
847.00 0.8331
847.10 0.8329
847.20 0.8326
847.30 0.8324
847.40 0.8321
847.50 0.8319
847.60 0.8316
847.70 0.8314
847.80 0.8311
847.90 0.8309
848.00 0.8306
848.10 0.8304
848.20 0.8302
848.30 0.8299
848.40 0.8297
848.50 0.8294
848.60 0.8292
848.70 0.8289
848.80 0.8287
848.90 0.8284
849.00 0.8282
849.10 0.8279
849.20 0.8277
849.30 0.8275
849.40 0.8272
849.50 0.827
849.60 0.8267
849.70 0.8265
849.80 0.8262
849.90 0.826
850.00 0.8258
850.10 0.8255
850.20 0.8253
850.30 0.825
850.40 0.8248
850.50 0.8245
850.60 0.8243
850.70 0.8241
850.80 0.8238
850.90 0.8236
851.00 0.8233
851.10 0.8231
851.20 0.8228
851.30 0.8226
851.40 0.8224
851.50 0.8221
851.60 0.8219
851.70 0.8216
851.80 0.8214
851.90 0.8211
852.00 0.8209
852.10 0.8206
852.20 0.8204
852.30 0.8201
852.40 0.8199
852.50 0.8196
852.60 0.8194
852.70 0.8191
852.80 0.8189
852.90 0.8186
853.00 0.8184
853.10 0.8181
853.20 0.8179
853.30 0.8176
853.40 0.8174
853.50 0.8171
853.60 0.8169
853.70 0.8166
853.80 0.8164
853.90 0.8161
854.00 0.8159
854.10 0.8156
854.20 0.8154
854.30 0.8152
854.40 0.8149
854.50 0.8147
854.60 0.8144
854.70 0.8142
854.80 0.8139
854.90 0.8137
855.00 0.8134
855.10 0.8132
855.20 0.8129
855.30 0.8127
855.40 0.8124
855.50 0.8122
855.60 0.8119
855.70 0.8117
855.80 0.8114
855.90 0.8112
856.00 0.8109
856.10 0.8107
856.20 0.8104
856.30 0.8102
856.40 0.8099
856.50 0.8097
856.60 0.8095
856.70 0.8092
856.80 0.809
856.90 0.8087
857.00 0.8085
857.10 0.8082
857.20 0.808
857.30 0.8077
857.40 0.8074
857.50 0.8072
857.60 0.8069
857.70 0.8067
857.80 0.8064
857.90 0.8062
858.00 0.8059
858.10 0.8057
858.20 0.8054
858.30 0.8051
858.40 0.8049
858.50 0.8046
858.60 0.8044
858.70 0.8041
858.80 0.8039
858.90 0.8036
859.00 0.8034
859.10 0.8031
859.20 0.8028
859.30 0.8026
859.40 0.8023
859.50 0.8021
859.60 0.8018
859.70 0.8016
859.80 0.8013
859.90 0.8011
860.00 0.8008
860.10 0.8006
860.20 0.8003
860.30 0.8001
860.40 0.7998
860.50 0.7996
860.60 0.7993
860.70 0.799
860.80 0.7988
860.90 0.7985
861.00 0.7983
861.10 0.798
861.20 0.7978
861.30 0.7975
861.40 0.7973
861.50 0.797
861.60 0.7968
861.70 0.7965
861.80 0.7963
861.90 0.796
862.00 0.7958
862.10 0.7955
862.20 0.7952
862.30 0.795
862.40 0.7947
862.50 0.7945
862.60 0.7942
862.70 0.7939
862.80 0.7937
862.90 0.7934
863.00 0.7932
863.10 0.7929
863.20 0.7926
863.30 0.7924
863.40 0.7921
863.50 0.7919
863.60 0.7916
863.70 0.7913
863.80 0.7911
863.90 0.7908
864.00 0.7906
864.10 0.7903
864.20 0.79
864.30 0.7898
864.40 0.7895
864.50 0.7893
864.60 0.789
864.70 0.7887
864.80 0.7885
864.90 0.7882
865.00 0.788
865.10 0.7877
865.20 0.7874
865.30 0.7872
865.40 0.7869
865.50 0.7867
865.60 0.7864
865.70 0.7862
865.80 0.7859
865.90 0.7856
866.00 0.7854
866.10 0.7851
866.20 0.7849
866.30 0.7846
866.40 0.7844
866.50 0.7841
866.60 0.7838
866.70 0.7836
866.80 0.7833
866.90 0.7831
867.00 0.7828
867.10 0.7825
867.20 0.7823
867.30 0.782
867.40 0.7817
867.50 0.7815
867.60 0.7812
867.70 0.7809
867.80 0.7807
867.90 0.7804
868.00 0.7801
868.10 0.7799
868.20 0.7796
868.30 0.7793
868.40 0.7791
868.50 0.7788
868.60 0.7785
868.70 0.7783
868.80 0.778
868.90 0.7777
869.00 0.7775
869.10 0.7772
869.20 0.7769
869.30 0.7767
869.40 0.7764
869.50 0.7761
869.60 0.7759
869.70 0.7756
869.80 0.7753
869.90 0.7751
870.00 0.7748
870.10 0.7745
870.20 0.7743
870.30 0.774
870.40 0.7737
870.50 0.7735
870.60 0.7732
870.70 0.7729
870.80 0.7727
870.90 0.7724
871.00 0.7721
871.10 0.7719
871.20 0.7716
871.30 0.7713
871.40 0.7711
871.50 0.7708
871.60 0.7705
871.70 0.7703
871.80 0.77
871.90 0.7697
872.00 0.7695
872.10 0.7692
872.20 0.7689
872.30 0.7687
872.40 0.7684
872.50 0.7681
872.60 0.7678
872.70 0.7675
872.80 0.7673
872.90 0.767
873.00 0.7667
873.10 0.7664
873.20 0.7662
873.30 0.7659
873.40 0.7656
873.50 0.7653
873.60 0.765
873.70 0.7648
873.80 0.7645
873.90 0.7642
874.00 0.7639
874.10 0.7637
874.20 0.7634
874.30 0.7631
874.40 0.7628
874.50 0.7626
874.60 0.7623
874.70 0.762
874.80 0.7617
874.90 0.7615
875.00 0.7612
875.10 0.7609
875.20 0.7606
875.30 0.7604
875.40 0.7601
875.50 0.7598
875.60 0.7595
875.70 0.7593
875.80 0.759
875.90 0.7587
876.00 0.7584
876.10 0.7582
876.20 0.7579
876.30 0.7576
876.40 0.7573
876.50 0.7571
876.60 0.7568
876.70 0.7565
876.80 0.7563
876.90 0.756
877.00 0.7557
877.10 0.7554
877.20 0.7551
877.30 0.7548
877.40 0.7546
877.50 0.7543
877.60 0.754
877.70 0.7537
877.80 0.7534
877.90 0.7531
878.00 0.7528
878.10 0.7525
878.20 0.7523
878.30 0.752
878.40 0.7517
878.50 0.7514
878.60 0.7511
878.70 0.7508
878.80 0.7505
878.90 0.7502
879.00 0.75
879.10 0.7497
879.20 0.7494
879.30 0.7491
879.40 0.7488
879.50 0.7485
879.60 0.7482
879.70 0.748
879.80 0.7477
879.90 0.7474
880.00 0.7471
880.10 0.7468
880.20 0.7465
880.30 0.7462
880.40 0.746
880.50 0.7457
880.60 0.7454
880.70 0.7451
880.80 0.7448
880.90 0.7445
881.00 0.7443
881.10 0.744
881.20 0.7437
881.30 0.7434
881.40 0.7431
881.50 0.7428
881.60 0.7426
881.70 0.7423
881.80 0.742
881.90 0.7417
882.00 0.7414
882.10 0.7411
882.20 0.7408
882.30 0.7405
882.40 0.7402
882.50 0.7399
882.60 0.7396
882.70 0.7393
882.80 0.739
882.90 0.7387
883.00 0.7384
883.10 0.7381
883.20 0.7378
883.30 0.7375
883.40 0.7372
883.50 0.7369
883.60 0.7366
883.70 0.7363
883.80 0.736
883.90 0.7357
884.00 0.7354
884.10 0.7351
884.20 0.7348
884.30 0.7345
884.40 0.7342
884.50 0.7339
884.60 0.7336
884.70 0.7333
884.80 0.733
884.90 0.7327
885.00 0.7324
885.10 0.7321
885.20 0.7318
885.30 0.7315
885.40 0.7312
885.50 0.7309
885.60 0.7306
885.70 0.7303
885.80 0.73
885.90 0.7297
886.00 0.7294
886.10 0.7291
886.20 0.7288
886.30 0.7285
886.40 0.7282
886.50 0.7279
886.60 0.7276
886.70 0.7274
886.80 0.7271
886.90 0.7268
887.00 0.7265
887.10 0.7261
887.20 0.7258
887.30 0.7255
887.40 0.7252
887.50 0.7249
887.60 0.7246
887.70 0.7242
887.80 0.7239
887.90 0.7236
888.00 0.7233
888.10 0.723
888.20 0.7227
888.30 0.7224
888.40 0.722
888.50 0.7217
888.60 0.7214
888.70 0.7211
888.80 0.7208
888.90 0.7205
889.00 0.7202
889.10 0.7198
889.20 0.7195
889.30 0.7192
889.40 0.7189
889.50 0.7186
889.60 0.7183
889.70 0.718
889.80 0.7176
889.90 0.7173
890.00 0.717
890.10 0.7167
890.20 0.7164
890.30 0.7161
890.40 0.7158
890.50 0.7155
890.60 0.7151
890.70 0.7148
890.80 0.7145
890.90 0.7142
891.00 0.7139
891.10 0.7136
891.20 0.7133
891.30 0.713
891.40 0.7126
891.50 0.7123
891.60 0.712
891.70 0.7117
891.80 0.7114
891.90 0.7111
892.00 0.7108
892.10 0.7105
892.20 0.7102
892.30 0.7099
892.40 0.7096
892.50 0.7093
892.60 0.709
892.70 0.7088
892.80 0.7085
892.90 0.7082
893.00 0.7079
893.10 0.7076
893.20 0.7073
893.30 0.707
893.40 0.7067
893.50 0.7064
893.60 0.7062
893.70 0.7059
893.80 0.7056
893.90 0.7053
894.00 0.705
894.10 0.7047
894.20 0.7044
894.30 0.7042
894.40 0.7039
894.50 0.7036
894.60 0.7033
894.70 0.703
894.80 0.7027
894.90 0.7024
895.00 0.7021
895.10 0.7019
895.20 0.7016
895.30 0.7013
895.40 0.701
895.50 0.7007
895.60 0.7004
895.70 0.7001
895.80 0.6999
895.90 0.6996
896.00 0.6993
896.10 0.699
896.20 0.6987
896.30 0.6984
896.40 0.6981
896.50 0.6979
896.60 0.6976
896.70 0.6973
896.80 0.697
896.90 0.6967
897.00 0.6964
897.10 0.6961
897.20 0.6957
897.30 0.6954
897.40 0.6951
897.50 0.6947
897.60 0.6944
897.70 0.694
897.80 0.6937
897.90 0.6933
898.00 0.693
898.10 0.6926
898.20 0.6923
898.30 0.6919
898.40 0.6916
898.50 0.6912
898.60 0.6909
898.70 0.6906
898.80 0.6902
898.90 0.6899
899.00 0.6895
899.10 0.6892
899.20 0.6888
899.30 0.6885
899.40 0.6881
899.50 0.6878
899.60 0.6875
899.70 0.6871
899.80 0.6868
899.90 0.6864
900.00 0.6861
900.10 0.6857
900.20 0.6854
900.30 0.6851
900.40 0.6847
900.50 0.6844
900.60 0.684
900.70 0.6837
900.80 0.6833
900.90 0.683
901.00 0.6827
901.10 0.6823
901.20 0.682
901.30 0.6816
901.40 0.6813
901.50 0.6809
901.60 0.6806
901.70 0.6803
901.80 0.6799
901.90 0.6796
902.00 0.6792
902.10 0.6788
902.20 0.6784
902.30 0.6779
902.40 0.6775
902.50 0.6771
902.60 0.6767
902.70 0.6762
902.80 0.6758
902.90 0.6754
903.00 0.6749
903.10 0.6745
903.20 0.6741
903.30 0.6736
903.40 0.6732
903.50 0.6728
903.60 0.6723
903.70 0.6719
903.80 0.6715
903.90 0.6711
904.00 0.6706
904.10 0.6702
904.20 0.6698
904.30 0.6693
904.40 0.6689
904.50 0.6685
904.60 0.6681
904.70 0.6676
904.80 0.6672
904.90 0.6668
905.00 0.6663
905.10 0.6659
905.20 0.6655
905.30 0.6651
905.40 0.6646
905.50 0.6642
905.60 0.6638
905.70 0.6634
905.80 0.6629
905.90 0.6625
906.00 0.6621
906.10 0.6617
906.20 0.6612
906.30 0.6608
906.40 0.6604
906.50 0.66
906.60 0.6595
906.70 0.6591
906.80 0.6587
906.90 0.6583
907.00 0.6578
907.10 0.6575
907.20 0.6571
907.30 0.6567
907.40 0.6564
907.50 0.656
907.60 0.6556
907.70 0.6552
907.80 0.6549
907.90 0.6545
908.00 0.6541
908.10 0.6538
908.20 0.6534
908.30 0.653
908.40 0.6526
908.50 0.6523
908.60 0.6519
908.70 0.6515
908.80 0.6512
908.90 0.6508
909.00 0.6504
909.10 0.6501
909.20 0.6497
909.30 0.6493
909.40 0.6489
909.50 0.6486
909.60 0.6482
909.70 0.6478
909.80 0.6475
909.90 0.6471
910.00 0.6467
910.10 0.6464
910.20 0.646
910.30 0.6456
910.40 0.6453
910.50 0.6449
910.60 0.6445
910.70 0.6442
910.80 0.6438
910.90 0.6434
911.00 0.6431
911.10 0.6427
911.20 0.6423
911.30 0.642
911.40 0.6416
911.50 0.6412
911.60 0.6409
911.70 0.6405
911.80 0.6401
911.90 0.6398
912.00 0.6394
912.10 0.6391
912.20 0.6387
912.30 0.6384
912.40 0.6381
912.50 0.6378
912.60 0.6374
912.70 0.6371
912.80 0.6368
912.90 0.6364
913.00 0.6361
913.10 0.6358
913.20 0.6354
913.30 0.6351
913.40 0.6348
913.50 0.6344
913.60 0.6341
913.70 0.6338
913.80 0.6335
913.90 0.6331
914.00 0.6328
914.10 0.6325
914.20 0.6321
914.30 0.6318
914.40 0.6315
914.50 0.6312
914.60 0.6308
914.70 0.6305
914.80 0.6302
914.90 0.6298
915.00 0.6295
915.10 0.6292
915.20 0.6289
915.30 0.6285
915.40 0.6282
915.50 0.6279
915.60 0.6276
915.70 0.6272
915.80 0.6269
915.90 0.6266
916.00 0.6262
916.10 0.6259
916.20 0.6256
916.30 0.6253
916.40 0.6249
916.50 0.6246
916.60 0.6243
916.70 0.624
916.80 0.6236
916.90 0.6233
917.00 0.623
917.10 0.6226
917.20 0.6223
917.30 0.6219
917.40 0.6216
917.50 0.6212
917.60 0.6208
917.70 0.6205
917.80 0.6201
917.90 0.6198
918.00 0.6194
918.10 0.6191
918.20 0.6187
918.30 0.6183
918.40 0.618
918.50 0.6176
918.60 0.6173
918.70 0.6169
918.80 0.6166
918.90 0.6162
919.00 0.6159
919.10 0.6155
919.20 0.6151
919.30 0.6148
919.40 0.6144
919.50 0.6141
919.60 0.6137
919.70 0.6134
919.80 0.613
919.90 0.6127
920.00 0.6123
920.10 0.612
920.20 0.6116
920.30 0.6112
920.40 0.6109
920.50 0.6105
920.60 0.6102
920.70 0.6098
920.80 0.6095
920.90 0.6091
921.00 0.6088
921.10 0.6084
921.20 0.6081
921.30 0.6077
921.40 0.6074
921.50 0.607
921.60 0.6067
921.70 0.6063
921.80 0.606
921.90 0.6056
922.00 0.6053
922.10 0.6049
922.20 0.6045
922.30 0.6042
922.40 0.6038
922.50 0.6035
922.60 0.6031
922.70 0.6027
922.80 0.6024
922.90 0.602
923.00 0.6017
923.10 0.6013
923.20 0.601
923.30 0.6006
923.40 0.6002
923.50 0.5999
923.60 0.5995
923.70 0.5992
923.80 0.5988
923.90 0.5985
924.00 0.5981
924.10 0.5977
924.20 0.5974
924.30 0.597
924.40 0.5967
924.50 0.5963
924.60 0.596
924.70 0.5956
924.80 0.5953
924.90 0.5949
925.00 0.5945
925.10 0.5942
925.20 0.5938
925.30 0.5935
925.40 0.5931
925.50 0.5928
925.60 0.5924
925.70 0.5921
925.80 0.5917
925.90 0.5914
926.00 0.591
926.10 0.5907
926.20 0.5903
926.30 0.5899
926.40 0.5896
926.50 0.5892
926.60 0.5889
926.70 0.5885
926.80 0.5882
926.90 0.5878
927.00 0.5875
927.10 0.5871
927.20 0.5868
927.30 0.5864
927.40 0.586
927.50 0.5857
927.60 0.5853
927.70 0.585
927.80 0.5846
927.90 0.5843
928.00 0.5839
928.10 0.5835
928.20 0.5832
928.30 0.5828
928.40 0.5825
928.50 0.5821
928.60 0.5817
928.70 0.5814
928.80 0.581
928.90 0.5807
929.00 0.5803
929.10 0.58
929.20 0.5796
929.30 0.5793
929.40 0.5789
929.50 0.5785
929.60 0.5782
929.70 0.5778
929.80 0.5775
929.90 0.5771
930.00 0.5768
930.10 0.5764
930.20 0.5761
930.30 0.5757
930.40 0.5753
930.50 0.575
930.60 0.5746
930.70 0.5743
930.80 0.5739
930.90 0.5736
931.00 0.5732
931.10 0.5729
931.20 0.5725
931.30 0.5722
931.40 0.5718
931.50 0.5715
931.60 0.5711
931.70 0.5708
931.80 0.5704
931.90 0.57
932.00 0.5697
932.10 0.5693
932.20 0.569
932.30 0.5686
932.40 0.5683
932.50 0.5679
932.60 0.5676
932.70 0.5672
932.80 0.5668
932.90 0.5665
933.00 0.5661
933.10 0.5658
933.20 0.5654
933.30 0.5651
933.40 0.5647
933.50 0.5643
933.60 0.564
933.70 0.5636
933.80 0.5633
933.90 0.5629
934.00 0.5626
934.10 0.5622
934.20 0.5619
934.30 0.5615
934.40 0.5611
934.50 0.5608
934.60 0.5604
934.70 0.5601
934.80 0.5597
934.90 0.5593
935.00 0.559
935.10 0.5586
935.20 0.5583
935.30 0.5579
935.40 0.5576
935.50 0.5572
935.60 0.5568
935.70 0.5565
935.80 0.5561
935.90 0.5558
936.00 0.5554
936.10 0.5551
936.20 0.5547
936.30 0.5543
936.40 0.554
936.50 0.5536
936.60 0.5533
936.70 0.5529
936.80 0.5526
936.90 0.5522
937.00 0.5518
937.10 0.5515
937.20 0.5511
937.30 0.5508
937.40 0.5504
937.50 0.5501
937.60 0.5497
937.70 0.5493
937.80 0.549
937.90 0.5486
938.00 0.5483
938.10 0.5479
938.20 0.5476
938.30 0.5472
938.40 0.5469
938.50 0.5465
938.60 0.5461
938.70 0.5458
938.80 0.5454
938.90 0.5451
939.00 0.5447
939.10 0.5443
939.20 0.544
939.30 0.5436
939.40 0.5433
939.50 0.5429
939.60 0.5425
939.70 0.5422
939.80 0.5418
939.90 0.5415
940.00 0.5411
940.10 0.5407
940.20 0.5404
940.30 0.54
940.40 0.5397
940.50 0.5393
940.60 0.539
940.70 0.5386
940.80 0.5382
940.90 0.5379
941.00 0.5375
941.10 0.5372
941.20 0.5368
941.30 0.5365
941.40 0.5361
941.50 0.5358
941.60 0.5354
941.70 0.5351
941.80 0.5347
941.90 0.5343
942.00 0.534
942.10 0.5336
942.20 0.5333
942.30 0.5329
942.40 0.5326
942.50 0.5322
942.60 0.5319
942.70 0.5315
942.80 0.5312
942.90 0.5308
943.00 0.5305
943.10 0.5301
943.20 0.5298
943.30 0.5294
943.40 0.529
943.50 0.5287
943.60 0.5283
943.70 0.528
943.80 0.5276
943.90 0.5273
944.00 0.5269
944.10 0.5266
944.20 0.5262
944.30 0.5259
944.40 0.5255
944.50 0.5252
944.60 0.5248
944.70 0.5245
944.80 0.5241
944.90 0.5238
945.00 0.5234
945.10 0.5231
945.20 0.5227
945.30 0.5224
945.40 0.522
945.50 0.5217
945.60 0.5213
945.70 0.521
945.80 0.5206
945.90 0.5203
946.00 0.5199
946.10 0.5196
946.20 0.5192
946.30 0.5189
946.40 0.5185
946.50 0.5182
946.60 0.5178
946.70 0.5175
946.80 0.5171
946.90 0.5168
947.00 0.5164
947.10 0.5161
947.20 0.5157
947.30 0.5154
947.40 0.515
947.50 0.5147
947.60 0.5143
947.70 0.514
947.80 0.5136
947.90 0.5132
948.00 0.5129
948.10 0.5125
948.20 0.5122
948.30 0.5118
948.40 0.5115
948.50 0.5111
948.60 0.5108
948.70 0.5104
948.80 0.5101
948.90 0.5097
949.00 0.5094
949.10 0.509
949.20 0.5087
949.30 0.5083
949.40 0.508
949.50 0.5076
949.60 0.5073
949.70 0.5069
949.80 0.5066
949.90 0.5062
950.00 0.5059
950.10 0.5056
950.20 0.5052
950.30 0.5049
950.40 0.5045
950.50 0.5042
950.60 0.5038
950.70 0.5035
950.80 0.5031
950.90 0.5028
951.00 0.5025
951.10 0.5021
951.20 0.5018
951.30 0.5014
951.40 0.5011
951.50 0.5007
951.60 0.5004
951.70 0.5
951.80 0.4997
951.90 0.4994
952.00 0.499
952.10 0.4987
952.20 0.4983
952.30 0.498
952.40 0.4976
952.50 0.4973
952.60 0.4969
952.70 0.4966
952.80 0.4963
952.90 0.4959
953.00 0.4956
953.10 0.4952
953.20 0.4949
953.30 0.4945
953.40 0.4942
953.50 0.4939
953.60 0.4935
953.70 0.4932
953.80 0.4929
953.90 0.4925
954.00 0.4922
954.10 0.4918
954.20 0.4915
954.30 0.4912
954.40 0.4908
954.50 0.4905
954.60 0.4901
954.70 0.4898
954.80 0.4894
954.90 0.4891
955.00 0.4888
955.10 0.4884
955.20 0.4881
955.30 0.4877
955.40 0.4874
955.50 0.4871
955.60 0.4867
955.70 0.4864
955.80 0.4861
955.90 0.4857
956.00 0.4854
956.10 0.485
956.20 0.4847
956.30 0.4843
956.40 0.484
956.50 0.4837
956.60 0.4833
956.70 0.483
956.80 0.4826
956.90 0.4823
957.00 0.4819
957.10 0.4816
957.20 0.4813
957.30 0.4809
957.40 0.4806
957.50 0.4803
957.60 0.4799
957.70 0.4796
957.80 0.4793
957.90 0.4789
958.00 0.4786
958.10 0.4783
958.20 0.4779
958.30 0.4776
958.40 0.4773
958.50 0.4769
958.60 0.4766
958.70 0.4763
958.80 0.4759
958.90 0.4756
959.00 0.4753
959.10 0.4749
959.20 0.4746
959.30 0.4743
959.40 0.474
959.50 0.4736
959.60 0.4733
959.70 0.473
959.80 0.4726
959.90 0.4723
960.00 0.472
960.10 0.4716
960.20 0.4713
960.30 0.471
960.40 0.4707
960.50 0.4703
960.60 0.47
960.70 0.4697
960.80 0.4693
960.90 0.469
961.00 0.4687
961.10 0.4684
961.20 0.468
961.30 0.4677
961.40 0.4674
961.50 0.467
961.60 0.4667
961.70 0.4664
961.80 0.4661
961.90 0.4657
962.00 0.4654
962.10 0.4651
962.20 0.4648
962.30 0.4644
962.40 0.4641
962.50 0.4638
962.60 0.4635
962.70 0.4631
962.80 0.4628
962.90 0.4625
963.00 0.4622
963.10 0.4618
963.20 0.4615
963.30 0.4612
963.40 0.4609
963.50 0.4605
963.60 0.4602
963.70 0.4599
963.80 0.4596
963.90 0.4592
964.00 0.4589
964.10 0.4586
964.20 0.4583
964.30 0.458
964.40 0.4576
964.50 0.4573
964.60 0.457
964.70 0.4567
964.80 0.4563
964.90 0.456
965.00 0.4557
965.10 0.4554
965.20 0.4551
965.30 0.4547
965.40 0.4544
965.50 0.4541
965.60 0.4538
965.70 0.4535
965.80 0.4531
965.90 0.4528
966.00 0.4525
966.10 0.4522
966.20 0.4518
966.30 0.4515
966.40 0.4512
966.50 0.4509
966.60 0.4506
966.70 0.4503
966.80 0.4499
966.90 0.4496
967.00 0.4493
967.10 0.449
967.20 0.4487
967.30 0.4484
967.40 0.448
967.50 0.4477
967.60 0.4474
967.70 0.4471
967.80 0.4468
967.90 0.4465
968.00 0.4462
968.10 0.4458
968.20 0.4455
968.30 0.4452
968.40 0.4449
968.50 0.4446
968.60 0.4443
968.70 0.444
968.80 0.4437
968.90 0.4434
969.00 0.4431
969.10 0.4428
969.20 0.4424
969.30 0.4421
969.40 0.4418
969.50 0.4415
969.60 0.4412
969.70 0.4409
969.80 0.4406
969.90 0.4403
970.00 0.44
970.10 0.4397
970.20 0.4394
970.30 0.4391
970.40 0.4388
970.50 0.4385
970.60 0.4382
970.70 0.4378
970.80 0.4375
970.90 0.4372
971.00 0.4369
971.10 0.4366
971.20 0.4363
971.30 0.436
971.40 0.4357
971.50 0.4354
971.60 0.4351
971.70 0.4348
971.80 0.4345
971.90 0.4342
972.00 0.4339
972.10 0.4336
972.20 0.4333
972.30 0.433
972.40 0.4327
972.50 0.4324
972.60 0.4321
972.70 0.4318
972.80 0.4315
972.90 0.4312
973.00 0.4309
973.10 0.4306
973.20 0.4303
973.30 0.43
973.40 0.4297
973.50 0.4294
973.60 0.4291
973.70 0.4288
973.80 0.4285
973.90 0.4282
974.00 0.4279
974.10 0.4276
974.20 0.4273
974.30 0.427
974.40 0.4267
974.50 0.4265
974.60 0.4262
974.70 0.4259
974.80 0.4256
974.90 0.4253
975.00 0.425
975.10 0.4247
975.20 0.4244
975.30 0.4241
975.40 0.4238
975.50 0.4235
975.60 0.4232
975.70 0.4229
975.80 0.4226
975.90 0.4223
976.00 0.422
976.10 0.4218
976.20 0.4215
976.30 0.4212
976.40 0.4209
976.50 0.4206
976.60 0.4203
976.70 0.42
976.80 0.4197
976.90 0.4194
977.00 0.4191
977.10 0.4188
977.20 0.4186
977.30 0.4183
977.40 0.418
977.50 0.4177
977.60 0.4174
977.70 0.4171
977.80 0.4169
977.90 0.4166
978.00 0.4163
978.10 0.416
978.20 0.4157
978.30 0.4155
978.40 0.4152
978.50 0.4149
978.60 0.4146
978.70 0.4143
978.80 0.4141
978.90 0.4138
979.00 0.4135
979.10 0.4132
979.20 0.4129
979.30 0.4127
979.40 0.4124
979.50 0.4121
979.60 0.4118
979.70 0.4115
979.80 0.4113
979.90 0.411
980.00 0.4107
980.10 0.4104
980.20 0.4101
980.30 0.4099
980.40 0.4096
980.50 0.4093
980.60 0.409
980.70 0.4087
980.80 0.4085
980.90 0.4082
981.00 0.4079
981.10 0.4076
981.20 0.4074
981.30 0.4071
981.40 0.4068
981.50 0.4065
981.60 0.4062
981.70 0.406
981.80 0.4057
981.90 0.4054
982.00 0.4051
982.10 0.4049
982.20 0.4046
982.30 0.4043
982.40 0.4041
982.50 0.4038
982.60 0.4035
982.70 0.4032
982.80 0.403
982.90 0.4027
983.00 0.4024
983.10 0.4022
983.20 0.4019
983.30 0.4016
983.40 0.4014
983.50 0.4011
983.60 0.4008
983.70 0.4005
983.80 0.4003
983.90 0.4
984.00 0.3997
984.10 0.3995
984.20 0.3992
984.30 0.3989
984.40 0.3987
984.50 0.3984
984.60 0.3981
984.70 0.3979
984.80 0.3976
984.90 0.3974
985.00 0.3971
985.10 0.3968
985.20 0.3966
985.30 0.3963
985.40 0.3961
985.50 0.3958
985.60 0.3956
985.70 0.3953
985.80 0.3951
985.90 0.3948
986.00 0.3945
986.10 0.3943
986.20 0.394
986.30 0.3938
986.40 0.3935
986.50 0.3933
986.60 0.393
986.70 0.3928
986.80 0.3925
986.90 0.3923
987.00 0.392
987.10 0.3917
987.20 0.3915
987.30 0.3912
987.40 0.391
987.50 0.3907
987.60 0.3904
987.70 0.3902
987.80 0.3899
987.90 0.3896
988.00 0.3894
988.10 0.3891
988.20 0.3889
988.30 0.3886
988.40 0.3883
988.50 0.3881
988.60 0.3878
988.70 0.3876
988.80 0.3873
988.90 0.387
989.00 0.3868
989.10 0.3865
989.20 0.3863
989.30 0.386
989.40 0.3857
989.50 0.3855
989.60 0.3852
989.70 0.385
989.80 0.3847
989.90 0.3844
990.00 0.3842
990.10 0.3839
990.20 0.3837
990.30 0.3834
990.40 0.3831
990.50 0.3829
990.60 0.3826
990.70 0.3824
990.80 0.3821
990.90 0.3819
991.00 0.3816
991.10 0.3813
991.20 0.3811
991.30 0.3808
991.40 0.3806
991.50 0.3803
991.60 0.38
991.70 0.3798
991.80 0.3795
991.90 0.3793
992.00 0.379
992.10 0.3788
992.20 0.3785
992.30 0.3782
992.40 0.378
992.50 0.3777
992.60 0.3775
992.70 0.3772
992.80 0.377
992.90 0.3767
993.00 0.3764
993.10 0.3762
993.20 0.3759
993.30 0.3757
993.40 0.3754
993.50 0.3751
993.60 0.3749
993.70 0.3746
993.80 0.3744
993.90 0.3741
994.00 0.3739
994.10 0.3736
994.20 0.3733
994.30 0.3731
994.40 0.3728
994.50 0.3726
994.60 0.3723
994.70 0.372
994.80 0.3717
994.90 0.3714
995.00 0.3711
995.10 0.3708
995.20 0.3705
995.30 0.3702
995.40 0.3699
995.50 0.3696
995.60 0.3693
995.70 0.3691
995.80 0.3688
995.90 0.3686
996.00 0.3683
996.10 0.3681
996.20 0.3678
996.30 0.3676
996.40 0.3673
996.50 0.3671
996.60 0.3668
996.70 0.3666
996.80 0.3663
996.90 0.3661
997.00 0.3658
997.10 0.3656
997.20 0.3653
997.30 0.3651
997.40 0.3648
997.50 0.3646
997.60 0.3643
997.70 0.3641
997.80 0.3639
997.90 0.3636
998.00 0.3634
998.10 0.3631
998.20 0.3629
998.30 0.3627
998.40 0.3624
998.50 0.3622
998.60 0.3619
998.70 0.3617
998.80 0.3615
998.90 0.3612
999.00 0.361
999.10 0.3607
999.20 0.3605
999.30 0.3603
999.40 0.36
999.50 0.3598
999.60 0.3596
999.70 0.3593
999.80 0.3591
999.90 0.3588
1000.00 0.3586
1000.10 0.3584
1000.20 0.3581
1000.30 0.3579
1000.40 0.3577
1000.50 0.3575
1000.60 0.3572
1000.70 0.357
1000.80 0.3568
1000.90 0.3565
1001.00 0.3563
1001.10 0.3561
1001.20 0.3558
1001.30 0.3556
1001.40 0.3554
1001.50 0.3551
1001.60 0.3549
1001.70 0.3547
1001.80 0.3544
1001.90 0.3542
1002.00 0.354
1002.10 0.3537
1002.20 0.3535
1002.30 0.3533
1002.40 0.3531
1002.50 0.3528
1002.60 0.3526
1002.70 0.3524
1002.80 0.3522
1002.90 0.3519
1003.00 0.3517
1003.10 0.3515
1003.20 0.3513
1003.30 0.3511
1003.40 0.3508
1003.50 0.3506
1003.60 0.3504
1003.70 0.3502
1003.80 0.3499
1003.90 0.3497
1004.00 0.3495
1004.10 0.3493
1004.20 0.3491
1004.30 0.3489
1004.40 0.3487
1004.50 0.3484
1004.60 0.3482
1004.70 0.348
1004.80 0.3478
1004.90 0.3475
1005.00 0.3473
1005.10 0.347
1005.20 0.3468
1005.30 0.3466
1005.40 0.3464
1005.50 0.3462
1005.60 0.346
1005.70 0.3458
1005.80 0.3456
1005.90 0.3453
1006.00 0.3451
1006.10 0.3449
1006.20 0.3447
1006.30 0.3445
1006.40 0.3443
1006.50 0.3441
1006.60 0.3439
1006.70 0.3437
1006.80 0.3435
1006.90 0.3433
1007.00 0.343
1007.10 0.3428
1007.20 0.3426
1007.30 0.3424
1007.40 0.3422
1007.50 0.342
1007.60 0.3418
1007.70 0.3416
1007.80 0.3414
1007.90 0.3412
1008.00 0.341
1008.10 0.3408
1008.20 0.3406
1008.30 0.3404
1008.40 0.3402
1008.50 0.34
1008.60 0.3398
1008.70 0.3396
1008.80 0.3394
1008.90 0.3392
1009.00 0.339
1009.10 0.3388
1009.20 0.3386
1009.30 0.3384
1009.40 0.3382
1009.50 0.338
1009.60 0.3378
1009.70 0.3377
1009.80 0.3375
1009.90 0.3373
1010.00 0.3371
1010.10 0.3369
1010.20 0.3367
1010.30 0.3365
1010.40 0.3363
1010.50 0.3361
1010.60 0.336
1010.70 0.3358
1010.80 0.3356
1010.90 0.3354
1011.00 0.3352
1011.10 0.335
1011.20 0.3348
1011.30 0.3346
1011.40 0.3345
1011.50 0.3343
1011.60 0.3341
1011.70 0.3339
1011.80 0.3337
1011.90 0.3335
1012.00 0.3333
1012.10 0.3331
1012.20 0.333
1012.30 0.3328
1012.40 0.3326
1012.50 0.3324
1012.60 0.3323
1012.70 0.3321
1012.80 0.3319
1012.90 0.3317
1013.00 0.3315
1013.10 0.3314
1013.20 0.3312
1013.30 0.331
1013.40 0.3308
1013.50 0.3306
1013.60 0.3305
1013.70 0.3303
1013.80 0.3301
1013.90 0.3299
1014.00 0.3298
1014.10 0.3296
1014.20 0.3294
1014.30 0.3293
1014.40 0.3291
1014.50 0.3289
1014.60 0.3287
1014.70 0.3286
1014.80 0.3284
1014.90 0.3283
1015.00 0.3281
1015.10 0.328
1015.20 0.3278
1015.30 0.3276
1015.40 0.3275
1015.50 0.3273
1015.60 0.3272
1015.70 0.327
1015.80 0.3269
1015.90 0.3267
1016.00 0.3266
1016.10 0.3264
1016.20 0.3262
1016.30 0.3261
1016.40 0.3259
1016.50 0.3258
1016.60 0.3256
1016.70 0.3255
1016.80 0.3253
1016.90 0.3251
1017.00 0.325
1017.10 0.3248
1017.20 0.3246
1017.30 0.3245
1017.40 0.3243
1017.50 0.3242
1017.60 0.324
1017.70 0.3238
1017.80 0.3237
1017.90 0.3235
1018.00 0.3233
1018.10 0.3232
1018.20 0.323
1018.30 0.3229
1018.40 0.3227
1018.50 0.3225
1018.60 0.3224
1018.70 0.3222
1018.80 0.3221
1018.90 0.3219
1019.00 0.3217
1019.10 0.3216
1019.20 0.3214
1019.30 0.3213
1019.40 0.3211
1019.50 0.3209
1019.60 0.3208
1019.70 0.3206
1019.80 0.3205
1019.90 0.3203
1020.00 0.3201
1020.10 0.32
1020.20 0.3198
1020.30 0.3197
1020.40 0.3195
1020.50 0.3194
1020.60 0.3192
1020.70 0.319
1020.80 0.3189
1020.90 0.3187
1021.00 0.3186
1021.10 0.3184
1021.20 0.3183
1021.30 0.3181
1021.40 0.318
1021.50 0.3178
1021.60 0.3177
1021.70 0.3175
1021.80 0.3173
1021.90 0.3172
1022.00 0.317
1022.10 0.3169
1022.20 0.3167
1022.30 0.3166
1022.40 0.3164
1022.50 0.3163
1022.60 0.3161
1022.70 0.316
1022.80 0.3158
1022.90 0.3157
1023.00 0.3155
1023.10 0.3154
1023.20 0.3152
1023.30 0.3151
1023.40 0.3149
1023.50 0.3148
1023.60 0.3146
1023.70 0.3145
1023.80 0.3143
1023.90 0.3142
1024.00 0.314
1024.10 0.3139
1024.20 0.3137
1024.30 0.3136
1024.40 0.3134
1024.50 0.3133
1024.60 0.3131
1024.70 0.313
1024.80 0.3128
1024.90 0.3127
1025.00 0.3125
1025.10 0.3124
1025.20 0.3122
1025.30 0.3121
1025.40 0.312
1025.50 0.3118
1025.60 0.3117
1025.70 0.3115
1025.80 0.3114
1025.90 0.3112
1026.00 0.3111
1026.10 0.3109
1026.20 0.3108
1026.30 0.3106
1026.40 0.3105
1026.50 0.3103
1026.60 0.3102
1026.70 0.3101
1026.80 0.3099
1026.90 0.3098
1027.00 0.3096
1027.10 0.3095
1027.20 0.3093
1027.30 0.3092
1027.40 0.3091
1027.50 0.3089
1027.60 0.3088
1027.70 0.3087
1027.80 0.3085
1027.90 0.3084
1028.00 0.3082
1028.10 0.3081
1028.20 0.308
1028.30 0.3078
1028.40 0.3077
1028.50 0.3076
1028.60 0.3074
1028.70 0.3073
1028.80 0.3071
1028.90 0.307
1029.00 0.3069
1029.10 0.3067
1029.20 0.3066
1029.30 0.3065
1029.40 0.3063
1029.50 0.3062
1029.60 0.3061
1029.70 0.3059
1029.80 0.3058
1029.90 0.3056
1030.00 0.3055
1030.10 0.3054
1030.20 0.3052
1030.30 0.3051
1030.40 0.305
1030.50 0.3048
1030.60 0.3047
1030.70 0.3046
1030.80 0.3044
1030.90 0.3043
1031.00 0.3042
1031.10 0.304
1031.20 0.3039
1031.30 0.3037
1031.40 0.3036
1031.50 0.3035
1031.60 0.3033
1031.70 0.3032
1031.80 0.3031
1031.90 0.3029
1032.00 0.3028
1032.10 0.3027
1032.20 0.3025
1032.30 0.3024
1032.40 0.3023
1032.50 0.3022
1032.60 0.302
1032.70 0.3019
1032.80 0.3018
1032.90 0.3017
1033.00 0.3015
1033.10 0.3014
1033.20 0.3013
1033.30 0.3012
1033.40 0.301
1033.50 0.3009
1033.60 0.3008
1033.70 0.3007
1033.80 0.3005
1033.90 0.3004
1034.00 0.3003
1034.10 0.3001
1034.20 0.3
1034.30 0.2999
1034.40 0.2998
1034.50 0.2996
1034.60 0.2995
1034.70 0.2994
1034.80 0.2993
1034.90 0.2991
1035.00 0.299
1035.10 0.2989
1035.20 0.2988
1035.30 0.2986
1035.40 0.2985
1035.50 0.2984
1035.60 0.2983
1035.70 0.2981
1035.80 0.298
1035.90 0.2979
1036.00 0.2978
1036.10 0.2976
1036.20 0.2975
1036.30 0.2974
1036.40 0.2973
1036.50 0.2971
1036.60 0.297
1036.70 0.2969
1036.80 0.2968
1036.90 0.2966
1037.00 0.2965
1037.10 0.2964
1037.20 0.2963
1037.30 0.2962
1037.40 0.2961
1037.50 0.2959
1037.60 0.2958
1037.70 0.2957
1037.80 0.2956
1037.90 0.2955
1038.00 0.2954
1038.10 0.2953
1038.20 0.2951
1038.30 0.295
1038.40 0.2949
1038.50 0.2948
1038.60 0.2947
1038.70 0.2946
1038.80 0.2945
1038.90 0.2943
1039.00 0.2942
1039.10 0.2941
1039.20 0.294
1039.30 0.2939
1039.40 0.2938
1039.50 0.2937
1039.60 0.2935
1039.70 0.2934
1039.80 0.2933
1039.90 0.2932
1040.00 0.2931
1040.10 0.293
1040.20 0.2929
1040.30 0.2927
1040.40 0.2926
1040.50 0.2925
1040.60 0.2924
1040.70 0.2923
1040.80 0.2922
1040.90 0.2921
1041.00 0.2919
1041.10 0.2918
1041.20 0.2917
1041.30 0.2916
1041.40 0.2915
1041.50 0.2914
1041.60 0.2913
1041.70 0.2912
1041.80 0.291
1041.90 0.2909
1042.00 0.2908
1042.10 0.2907
1042.20 0.2906
1042.30 0.2905
1042.40 0.2904
1042.50 0.2903
1042.60 0.2902
1042.70 0.2901
1042.80 0.29
1042.90 0.2899
1043.00 0.2898
1043.10 0.2897
1043.20 0.2896
1043.30 0.2895
1043.40 0.2894
1043.50 0.2893
1043.60 0.2892
1043.70 0.289
1043.80 0.2889
1043.90 0.2888
1044.00 0.2887
1044.10 0.2886
1044.20 0.2885
1044.30 0.2884
1044.40 0.2883
1044.50 0.2882
1044.60 0.2881
1044.70 0.288
1044.80 0.2879
1044.90 0.2878
1045.00 0.2877
1045.10 0.2876
1045.20 0.2875
1045.30 0.2874
1045.40 0.2873
1045.50 0.2872
1045.60 0.2871
1045.70 0.287
1045.80 0.2869
1045.90 0.2868
1046.00 0.2867
1046.10 0.2866
1046.20 0.2865
1046.30 0.2864
1046.40 0.2863
1046.50 0.2862
1046.60 0.2861
1046.70 0.286
1046.80 0.2859
1046.90 0.2857
1047.00 0.2856
1047.10 0.2856
1047.20 0.2855
1047.30 0.2854
1047.40 0.2853
1047.50 0.2852
1047.60 0.2851
1047.70 0.285
1047.80 0.2849
1047.90 0.2848
1048.00 0.2847
1048.10 0.2846
1048.20 0.2845
1048.30 0.2844
1048.40 0.2843
1048.50 0.2842
1048.60 0.2841
1048.70 0.2841
1048.80 0.284
1048.90 0.2839
1049.00 0.2838
1049.10 0.2837
1049.20 0.2836
1049.30 0.2835
1049.40 0.2834
1049.50 0.2833
1049.60 0.2832
1049.70 0.2831
1049.80 0.283
1049.90 0.2829
1050.00 0.2828
1050.10 0.2827
1050.20 0.2827
1050.30 0.2826
1050.40 0.2825
1050.50 0.2824
1050.60 0.2823
1050.70 0.2822
1050.80 0.2821
1050.90 0.282
1051.00 0.2819
1051.10 0.2818
1051.20 0.2817
1051.30 0.2816
1051.40 0.2815
1051.50 0.2814
1051.60 0.2814
1051.70 0.2813
1051.80 0.2812
1051.90 0.2811
1052.00 0.281
1052.10 0.2809
1052.20 0.2808
1052.30 0.2807
1052.40 0.2807
1052.50 0.2806
1052.60 0.2805
1052.70 0.2804
1052.80 0.2803
1052.90 0.2802
1053.00 0.2801
1053.10 0.2801
1053.20 0.28
1053.30 0.2799
1053.40 0.2798
1053.50 0.2797
1053.60 0.2796
1053.70 0.2796
1053.80 0.2795
1053.90 0.2794
1054.00 0.2793
1054.10 0.2792
1054.20 0.2791
1054.30 0.2791
1054.40 0.279
1054.50 0.2789
1054.60 0.2788
1054.70 0.2787
1054.80 0.2787
1054.90 0.2786
1055.00 0.2785
1055.10 0.2784
1055.20 0.2783
1055.30 0.2782
1055.40 0.2782
1055.50 0.2781
1055.60 0.278
1055.70 0.2779
1055.80 0.2778
1055.90 0.2777
1056.00 0.2777
1056.10 0.2776
1056.20 0.2775
1056.30 0.2774
1056.40 0.2773
1056.50 0.2772
1056.60 0.2772
1056.70 0.2771
1056.80 0.277
1056.90 0.2769
1057.00 0.2768
1057.10 0.2768
1057.20 0.2767
1057.30 0.2766
1057.40 0.2765
1057.50 0.2765
1057.60 0.2764
1057.70 0.2763
1057.80 0.2762
1057.90 0.2762
1058.00 0.2761
1058.10 0.276
1058.20 0.2759
1058.30 0.2759
1058.40 0.2758
1058.50 0.2757
1058.60 0.2757
1058.70 0.2756
1058.80 0.2755
1058.90 0.2754
1059.00 0.2754
1059.10 0.2753
1059.20 0.2752
1059.30 0.2751
1059.40 0.2751
1059.50 0.275
1059.60 0.2749
1059.70 0.2748
1059.80 0.2748
1059.90 0.2747
1060.00 0.2746
1060.10 0.2745
1060.20 0.2745
1060.30 0.2744
1060.40 0.2743
1060.50 0.2743
1060.60 0.2742
1060.70 0.2741
1060.80 0.274
1060.90 0.274
1061.00 0.2739
1061.10 0.2738
1061.20 0.2737
1061.30 0.2737
1061.40 0.2736
1061.50 0.2735
1061.60 0.2735
1061.70 0.2734
1061.80 0.2733
1061.90 0.2732
1062.00 0.2732
1062.10 0.2731
1062.20 0.273
1062.30 0.273
1062.40 0.2729
1062.50 0.2728
1062.60 0.2728
1062.70 0.2727
1062.80 0.2726
1062.90 0.2726
1063.00 0.2725
1063.10 0.2724
1063.20 0.2724
1063.30 0.2723
1063.40 0.2722
1063.50 0.2722
1063.60 0.2721
1063.70 0.272
1063.80 0.272
1063.90 0.2719
1064.00 0.2719
1064.10 0.2718
1064.20 0.2717
1064.30 0.2717
1064.40 0.2716
1064.50 0.2715
1064.60 0.2715
1064.70 0.2714
1064.80 0.2713
1064.90 0.2713
1065.00 0.2712
1065.10 0.2711
1065.20 0.2711
1065.30 0.271
1065.40 0.2709
1065.50 0.2709
1065.60 0.2708
1065.70 0.2707
1065.80 0.2707
1065.90 0.2706
1066.00 0.2706
1066.10 0.2705
1066.20 0.2704
1066.30 0.2704
1066.40 0.2703
1066.50 0.2702
1066.60 0.2702
1066.70 0.2701
1066.80 0.27
1066.90 0.27
1067.00 0.2699
1067.10 0.2699
1067.20 0.2698
1067.30 0.2697
1067.40 0.2697
1067.50 0.2696
1067.60 0.2696
1067.70 0.2695
1067.80 0.2695
1067.90 0.2694
1068.00 0.2693
1068.10 0.2693
1068.20 0.2692
1068.30 0.2692
1068.40 0.2691
1068.50 0.2691
1068.60 0.269
1068.70 0.269
1068.80 0.2689
1068.90 0.2688
1069.00 0.2688
1069.10 0.2687
1069.20 0.2687
1069.30 0.2686
1069.40 0.2686
1069.50 0.2685
1069.60 0.2685
1069.70 0.2684
1069.80 0.2683
1069.90 0.2683
1070.00 0.2682
1070.10 0.2682
1070.20 0.2681
1070.30 0.2681
1070.40 0.268
1070.50 0.2679
1070.60 0.2679
1070.70 0.2678
1070.80 0.2678
1070.90 0.2677
1071.00 0.2677
1071.10 0.2676
1071.20 0.2676
1071.30 0.2675
1071.40 0.2674
1071.50 0.2674
1071.60 0.2673
1071.70 0.2673
1071.80 0.2672
1071.90 0.2672
1072.00 0.2671
1072.10 0.2671
1072.20 0.267
1072.30 0.267
1072.40 0.2669
1072.50 0.2669
1072.60 0.2668
1072.70 0.2667
1072.80 0.2667
1072.90 0.2666
1073.00 0.2666
1073.10 0.2665
1073.20 0.2665
1073.30 0.2664
1073.40 0.2664
1073.50 0.2663
1073.60 0.2663
1073.70 0.2662
1073.80 0.2662
1073.90 0.2661
1074.00 0.2661
1074.10 0.266
1074.20 0.266
1074.30 0.2659
1074.40 0.2659
1074.50 0.2658
1074.60 0.2658
1074.70 0.2657
1074.80 0.2657
1074.90 0.2656
1075.00 0.2656
1075.10 0.2655
1075.20 0.2655
1075.30 0.2654
1075.40 0.2654
1075.50 0.2653
1075.60 0.2653
1075.70 0.2652
1075.80 0.2652
1075.90 0.2651
1076.00 0.2651
1076.10 0.265
1076.20 0.265
1076.30 0.2649
1076.40 0.2649
1076.50 0.2648
1076.60 0.2648
1076.70 0.2647
1076.80 0.2647
1076.90 0.2646
1077.00 0.2646
1077.10 0.2645
1077.20 0.2645
1077.30 0.2644
1077.40 0.2644
1077.50 0.2644
1077.60 0.2643
1077.70 0.2643
1077.80 0.2642
1077.90 0.2642
1078.00 0.2641
1078.10 0.2641
1078.20 0.264
1078.30 0.264
1078.40 0.2639
1078.50 0.2639
1078.60 0.2639
1078.70 0.2638
1078.80 0.2638
1078.90 0.2637
1079.00 0.2637
1079.10 0.2636
1079.20 0.2636
1079.30 0.2635
1079.40 0.2635
1079.50 0.2634
1079.60 0.2634
1079.70 0.2634
1079.80 0.2633
1079.90 0.2633
1080.00 0.2632
1080.10 0.2632
1080.20 0.2632
1080.30 0.2631
1080.40 0.2631
1080.50 0.263
1080.60 0.263
1080.70 0.2629
1080.80 0.2629
1080.90 0.2629
1081.00 0.2628
1081.10 0.2628
1081.20 0.2627
1081.30 0.2627
1081.40 0.2626
1081.50 0.2626
1081.60 0.2626
1081.70 0.2625
1081.80 0.2625
1081.90 0.2624
1082.00 0.2624
1082.10 0.2624
1082.20 0.2623
1082.30 0.2623
1082.40 0.2622
1082.50 0.2622
1082.60 0.2621
1082.70 0.2621
1082.80 0.2621
1082.90 0.262
1083.00 0.262
1083.10 0.2619
1083.20 0.2619
1083.30 0.2619
1083.40 0.2618
1083.50 0.2618
1083.60 0.2617
1083.70 0.2617
1083.80 0.2617
1083.90 0.2616
1084.00 0.2616
1084.10 0.2615
1084.20 0.2615
1084.30 0.2615
1084.40 0.2614
1084.50 0.2614
1084.60 0.2613
1084.70 0.2613
1084.80 0.2613
1084.90 0.2612
1085.00 0.2612
1085.10 0.2612
1085.20 0.2611
1085.30 0.2611
1085.40 0.261
1085.50 0.261
1085.60 0.261
1085.70 0.2609
1085.80 0.2609
1085.90 0.2608
1086.00 0.2608
1086.10 0.2608
1086.20 0.2607
1086.30 0.2607
1086.40 0.2607
1086.50 0.2606
1086.60 0.2606
1086.70 0.2605
1086.80 0.2605
1086.90 0.2605
1087.00 0.2604
1087.10 0.2604
1087.20 0.2604
1087.30 0.2603
1087.40 0.2603
1087.50 0.2602
1087.60 0.2602
1087.70 0.2602
1087.80 0.2601
1087.90 0.2601
1088.00 0.2601
1088.10 0.26
1088.20 0.26
1088.30 0.26
1088.40 0.2599
1088.50 0.2599
1088.60 0.2598
1088.70 0.2598
1088.80 0.2598
1088.90 0.2597
1089.00 0.2597
1089.10 0.2597
1089.20 0.2596
1089.30 0.2596
1089.40 0.2596
1089.50 0.2595
1089.60 0.2595
1089.70 0.2595
1089.80 0.2594
1089.90 0.2594
1090.00 0.2594
1090.10 0.2593
1090.20 0.2593
1090.30 0.2593
1090.40 0.2592
1090.50 0.2592
1090.60 0.2592
1090.70 0.2591
1090.80 0.2591
1090.90 0.2591
1091.00 0.259
1091.10 0.259
1091.20 0.259
1091.30 0.2589
1091.40 0.2589
1091.50 0.2589
1091.60 0.2588
1091.70 0.2588
1091.80 0.2588
1091.90 0.2587
1092.00 0.2587
1092.10 0.2587
1092.20 0.2586
1092.30 0.2586
1092.40 0.2586
1092.50 0.2585
1092.60 0.2585
1092.70 0.2585
1092.80 0.2584
1092.90 0.2584
1093.00 0.2584
1093.10 0.2584
1093.20 0.2584
1093.30 0.2583
1093.40 0.2583
1093.50 0.2583
1093.60 0.2582
1093.70 0.2582
1093.80 0.2582
1093.90 0.2581
1094.00 0.2581
1094.10 0.2581
1094.20 0.258
1094.30 0.258
1094.40 0.258
1094.50 0.258
1094.60 0.2579
1094.70 0.2579
1094.80 0.2579
1094.90 0.2578
1095.00 0.2578
1095.10 0.2578
1095.20 0.2577
1095.30 0.2577
1095.40 0.2577
1095.50 0.2576
1095.60 0.2576
1095.70 0.2576
1095.80 0.2576
1095.90 0.2575
1096.00 0.2575
1096.10 0.2575
1096.20 0.2574
1096.30 0.2574
1096.40 0.2574
1096.50 0.2573
1096.60 0.2573
1096.70 0.2573
1096.80 0.2573
1096.90 0.2572
1097.00 0.2572
1097.10 0.2572
1097.20 0.2571
1097.30 0.2571
1097.40 0.2571
1097.50 0.2571
1097.60 0.257
1097.70 0.257
1097.80 0.257
1097.90 0.2569
1098.00 0.2569
1098.10 0.2569
1098.20 0.2569
1098.30 0.2568
1098.40 0.2568
1098.50 0.2568
1098.60 0.2567
1098.70 0.2567
1098.80 0.2567
1098.90 0.2567
1099.00 0.2566
1099.10 0.2566
1099.20 0.2566
1099.30 0.2565
1099.40 0.2565
1099.50 0.2565
1099.60 0.2565
1099.70 0.2564
1099.80 0.2564
1099.90 0.2564
1100.00 0.2563
1100.10 0.2563
1100.20 0.2563
1100.30 0.2563
1100.40 0.2562
1100.50 0.2562
1100.60 0.2562
1100.70 0.2562
1100.80 0.2561
1100.90 0.2561
1101.00 0.2561
1101.10 0.256
1101.20 0.256
1101.30 0.256
1101.40 0.256
1101.50 0.2559
1101.60 0.2559
1101.70 0.2559
1101.80 0.2559
1101.90 0.2558
1102.00 0.2558
1102.10 0.2558
1102.20 0.2557
1102.30 0.2557
1102.40 0.2557
1102.50 0.2557
1102.60 0.2556
1102.70 0.2556
1102.80 0.2556
1102.90 0.2556
1103.00 0.2555
1103.10 0.2555
1103.20 0.2555
1103.30 0.2555
1103.40 0.2554
1103.50 0.2554
1103.60 0.2554
1103.70 0.2554
1103.80 0.2553
1103.90 0.2553
1104.00 0.2553
1104.10 0.2553
1104.20 0.2552
1104.30 0.2552
1104.40 0.2552
1104.50 0.2552
1104.60 0.2551
1104.70 0.2551
1104.80 0.2551
1104.90 0.2551
1105.00 0.2551
1105.10 0.255
1105.20 0.255
1105.30 0.255
1105.40 0.255
1105.50 0.2549
1105.60 0.2549
1105.70 0.2549
1105.80 0.2549
1105.90 0.2548
1106.00 0.2548
1106.10 0.2548
1106.20 0.2548
1106.30 0.2547
1106.40 0.2547
1106.50 0.2547
1106.60 0.2547
1106.70 0.2546
1106.80 0.2546
1106.90 0.2546
1107.00 0.2546
1107.10 0.2545
1107.20 0.2545
1107.30 0.2545
1107.40 0.2545
1107.50 0.2544
1107.60 0.2544
1107.70 0.2544
1107.80 0.2544
1107.90 0.2543
1108.00 0.2543
1108.10 0.2543
1108.20 0.2543
1108.30 0.2543
1108.40 0.2542
1108.50 0.2542
1108.60 0.2542
1108.70 0.2542
1108.80 0.2541
1108.90 0.2541
1109.00 0.2541
1109.10 0.2541
1109.20 0.254
1109.30 0.254
1109.40 0.254
1109.50 0.254
1109.60 0.2539
1109.70 0.2539
1109.80 0.2539
1109.90 0.2539
1110.00 0.2538
1110.10 0.2538
1110.20 0.2538
1110.30 0.2538
1110.40 0.2538
1110.50 0.2537
1110.60 0.2537
1110.70 0.2537
1110.80 0.2537
1110.90 0.2536
1111.00 0.2536
1111.10 0.2536
1111.20 0.2536
1111.30 0.2535
1111.40 0.2535
1111.50 0.2535
1111.60 0.2535
1111.70 0.2535
1111.80 0.2534
1111.90 0.2534
1112.00 0.2534
1112.10 0.2534
1112.20 0.2533
1112.30 0.2533
1112.40 0.2533
1112.50 0.2533
1112.60 0.2532
1112.70 0.2532
1112.80 0.2532
1112.90 0.2532
1113.00 0.2532
1113.10 0.2531
1113.20 0.2531
1113.30 0.2531
1113.40 0.2531
1113.50 0.253
1113.60 0.253
1113.70 0.253
1113.80 0.253
1113.90 0.253
1114.00 0.2529
1114.10 0.2529
1114.20 0.2529
1114.30 0.2529
1114.40 0.2528
1114.50 0.2528
1114.60 0.2528
1114.70 0.2528
1114.80 0.2528
1114.90 0.2527
1115.00 0.2527
1115.10 0.2527
1115.20 0.2527
1115.30 0.2527
1115.40 0.2526
1115.50 0.2526
1115.60 0.2526
1115.70 0.2526
1115.80 0.2525
1115.90 0.2525
1116.00 0.2525
1116.10 0.2525
1116.20 0.2525
1116.30 0.2524
1116.40 0.2524
1116.50 0.2524
1116.60 0.2524
1116.70 0.2523
1116.80 0.2523
1116.90 0.2523
1117.00 0.2523
1117.10 0.2523
1117.20 0.2522
1117.30 0.2522
1117.40 0.2522
1117.50 0.2522
1117.60 0.2522
1117.70 0.2521
1117.80 0.2521
1117.90 0.2521
1118.00 0.2521
1118.10 0.2521
1118.20 0.252
1118.30 0.252
1118.40 0.252
1118.50 0.252
1118.60 0.252
1118.70 0.2519
1118.80 0.2519
1118.90 0.2519
1119.00 0.2519
1119.10 0.2519
1119.20 0.2518
1119.30 0.2518
1119.40 0.2518
1119.50 0.2518
1119.60 0.2518
1119.70 0.2517
1119.80 0.2517
1119.90 0.2517
1120.00 0.2517
1120.10 0.2517
1120.20 0.2516
1120.30 0.2516
1120.40 0.2516
1120.50 0.2516
1120.60 0.2516
1120.70 0.2515
1120.80 0.2515
1120.90 0.2515
1121.00 0.2515
1121.10 0.2515
1121.20 0.2514
1121.30 0.2514
1121.40 0.2514
1121.50 0.2514
1121.60 0.2514
1121.70 0.2513
1121.80 0.2513
1121.90 0.2513
1122.00 0.2513
1122.10 0.2513
1122.20 0.2512
1122.30 0.2512
1122.40 0.2512
1122.50 0.2512
1122.60 0.2511
1122.70 0.2511
1122.80 0.2511
1122.90 0.2511
1123.00 0.2511
1123.10 0.251
1123.20 0.251
1123.30 0.251
1123.40 0.251
1123.50 0.251
1123.60 0.2509
1123.70 0.2509
1123.80 0.2509
1123.90 0.2509
1124.00 0.2508
1124.10 0.2508
1124.20 0.2508
1124.30 0.2508
1124.40 0.2508
1124.50 0.2507
1124.60 0.2507
1124.70 0.2507
1124.80 0.2507
1124.90 0.2507
1125.00 0.2506
1125.10 0.2506
1125.20 0.2506
1125.30 0.2506
1125.40 0.2506
1125.50 0.2505
1125.60 0.2505
1125.70 0.2505
1125.80 0.2505
1125.90 0.2504
1126.00 0.2504
1126.10 0.2504
1126.20 0.2504
1126.30 0.2504
1126.40 0.2503
1126.50 0.2503
1126.60 0.2503
1126.70 0.2503
1126.80 0.2503
1126.90 0.2502
1127.00 0.2502
1127.10 0.2502
1127.20 0.2502
1127.30 0.2502
1127.40 0.2501
1127.50 0.2501
1127.60 0.2501
1127.70 0.2501
1127.80 0.2501
1127.90 0.25
1128.00 0.25
1128.10 0.25
1128.20 0.25
1128.30 0.25
1128.40 0.2499
1128.50 0.2499
1128.60 0.2499
1128.70 0.2499
1128.80 0.2499
1128.90 0.2498
1129.00 0.2498
1129.10 0.2498
1129.20 0.2498
1129.30 0.2498
1129.40 0.2497
1129.50 0.2497
1129.60 0.2497
1129.70 0.2497
1129.80 0.2497
1129.90 0.2496
1130.00 0.2496
1130.10 0.2496
1130.20 0.2496
1130.30 0.2496
1130.40 0.2495
1130.50 0.2495
1130.60 0.2495
1130.70 0.2495
1130.80 0.2495
1130.90 0.2495
1131.00 0.2494
1131.10 0.2494
1131.20 0.2494
1131.30 0.2494
1131.40 0.2494
1131.50 0.2493
1131.60 0.2493
1131.70 0.2493
1131.80 0.2493
1131.90 0.2493
1132.00 0.2492
1132.10 0.2492
1132.20 0.2492
1132.30 0.2492
1132.40 0.2491
1132.50 0.2491
1132.60 0.2491
1132.70 0.2491
1132.80 0.2491
1132.90 0.249
1133.00 0.249
1133.10 0.249
1133.20 0.249
1133.30 0.2489
1133.40 0.2489
1133.50 0.2489
1133.60 0.2489
1133.70 0.2489
1133.80 0.2488
1133.90 0.2488
1134.00 0.2488
1134.10 0.2488
1134.20 0.2487
1134.30 0.2487
1134.40 0.2487
1134.50 0.2487
1134.60 0.2486
1134.70 0.2486
1134.80 0.2486
1134.90 0.2486
1135.00 0.2486
1135.10 0.2485
1135.20 0.2485
1135.30 0.2485
1135.40 0.2485
1135.50 0.2484
1135.60 0.2484
1135.70 0.2484
1135.80 0.2484
1135.90 0.2484
1136.00 0.2483
1136.10 0.2483
1136.20 0.2483
1136.30 0.2483
1136.40 0.2482
1136.50 0.2482
1136.60 0.2482
1136.70 0.2482
1136.80 0.2482
1136.90 0.2481
1137.00 0.2481
1137.10 0.2481
1137.20 0.2481
1137.30 0.248
1137.40 0.248
1137.50 0.248
1137.60 0.248
1137.70 0.2479
1137.80 0.2479
1137.90 0.2479
1138.00 0.2479
1138.10 0.2478
1138.20 0.2478
1138.30 0.2478
1138.40 0.2478
1138.50 0.2477
1138.60 0.2477
1138.70 0.2477
1138.80 0.2477
1138.90 0.2476
1139.00 0.2476
1139.10 0.2476
1139.20 0.2476
1139.30 0.2475
1139.40 0.2475
1139.50 0.2475
1139.60 0.2475
1139.70 0.2475
1139.80 0.2474
1139.90 0.2474
1140.00 0.2474
1140.10 0.2474
1140.20 0.2473
1140.30 0.2473
1140.40 0.2473
1140.50 0.2473
1140.60 0.2472
1140.70 0.2472
1140.80 0.2472
1140.90 0.2472
1141.00 0.2471
1141.10 0.2471
1141.20 0.2471
1141.30 0.2471
1141.40 0.247
1141.50 0.247
1141.60 0.247
1141.70 0.247
1141.80 0.2469
1141.90 0.2469
1142.00 0.2469
1142.10 0.2469
1142.20 0.2468
1142.30 0.2468
1142.40 0.2468
1142.50 0.2468
1142.60 0.2467
1142.70 0.2467
1142.80 0.2467
1142.90 0.2467
1143.00 0.2466
1143.10 0.2466
1143.20 0.2466
1143.30 0.2466
1143.40 0.2465
1143.50 0.2465
1143.60 0.2465
1143.70 0.2465
1143.80 0.2464
1143.90 0.2464
1144.00 0.2464
1144.10 0.2464
1144.20 0.2463
1144.30 0.2463
1144.40 0.2463
1144.50 0.2463
1144.60 0.2462
1144.70 0.2462
1144.80 0.2462
1144.90 0.2462
1145.00 0.2461
1145.10 0.2461
1145.20 0.2461
1145.30 0.2461
1145.40 0.246
1145.50 0.246
1145.60 0.246
1145.70 0.246
1145.80 0.2459
1145.90 0.2459
1146.00 0.2459
1146.10 0.2459
1146.20 0.2458
1146.30 0.2458
1146.40 0.2458
1146.50 0.2458
1146.60 0.2457
1146.70 0.2457
1146.80 0.2457
1146.90 0.2457
1147.00 0.2456
1147.10 0.2456
1147.20 0.2456
1147.30 0.2455
1147.40 0.2455
1147.50 0.2455
1147.60 0.2455
1147.70 0.2454
1147.80 0.2454
1147.90 0.2454
1148.00 0.2453
1148.10 0.2453
1148.20 0.2453
1148.30 0.2453
1148.40 0.2452
1148.50 0.2452
1148.60 0.2452
1148.70 0.2451
1148.80 0.2451
1148.90 0.2451
1149.00 0.2451
1149.10 0.245
1149.20 0.245
1149.30 0.245
1149.40 0.2449
1149.50 0.2449
1149.60 0.2449
1149.70 0.2449
1149.80 0.2448
1149.90 0.2448
1150.00 0.2448
1150.10 0.2447
1150.20 0.2447
1150.30 0.2447
1150.40 0.2447
1150.50 0.2446
1150.60 0.2446
1150.70 0.2446
1150.80 0.2445
1150.90 0.2445
1151.00 0.2445
1151.10 0.2445
1151.20 0.2444
1151.30 0.2444
1151.40 0.2444
1151.50 0.2443
1151.60 0.2443
1151.70 0.2443
1151.80 0.2443
1151.90 0.2442
1152.00 0.2442
1152.10 0.2442
1152.20 0.2441
1152.30 0.2441
1152.40 0.2441
1152.50 0.244
1152.60 0.244
1152.70 0.244
1152.80 0.244
1152.90 0.2439
1153.00 0.2439
1153.10 0.2439
1153.20 0.2438
1153.30 0.2438
1153.40 0.2438
1153.50 0.2437
1153.60 0.2437
1153.70 0.2437
1153.80 0.2437
1153.90 0.2436
1154.00 0.2436
1154.10 0.2436
1154.20 0.2435
1154.30 0.2435
1154.40 0.2435
1154.50 0.2434
1154.60 0.2434
1154.70 0.2434
1154.80 0.2434
1154.90 0.2433
1155.00 0.2433
1155.10 0.2433
1155.20 0.2432
1155.30 0.2432
1155.40 0.2432
1155.50 0.2431
1155.60 0.2431
1155.70 0.2431
1155.80 0.2431
1155.90 0.243
1156.00 0.243
1156.10 0.243
1156.20 0.2429
1156.30 0.2429
1156.40 0.2429
1156.50 0.2428
1156.60 0.2428
1156.70 0.2428
1156.80 0.2428
1156.90 0.2427
1157.00 0.2427
1157.10 0.2427
1157.20 0.2426
1157.30 0.2426
1157.40 0.2426
1157.50 0.2425
1157.60 0.2425
1157.70 0.2425
1157.80 0.2424
1157.90 0.2424
1158.00 0.2424
1158.10 0.2423
1158.20 0.2423
1158.30 0.2423
1158.40 0.2422
1158.50 0.2422
1158.60 0.2422
1158.70 0.2421
1158.80 0.2421
1158.90 0.242
1159.00 0.242
1159.10 0.242
1159.20 0.2419
1159.30 0.2419
1159.40 0.2419
1159.50 0.2418
1159.60 0.2418
1159.70 0.2418
1159.80 0.2417
1159.90 0.2417
1160.00 0.2417
1160.10 0.2416
1160.20 0.2416
1160.30 0.2416
1160.40 0.2415
1160.50 0.2415
1160.60 0.2415
1160.70 0.2414
1160.80 0.2414
1160.90 0.2414
1161.00 0.2413
1161.10 0.2413
1161.20 0.2413
1161.30 0.2412
1161.40 0.2412
1161.50 0.2412
1161.60 0.2411
1161.70 0.2411
1161.80 0.2411
1161.90 0.241
1162.00 0.241
1162.10 0.241
1162.20 0.2409
1162.30 0.2409
1162.40 0.2408
1162.50 0.2408
1162.60 0.2408
1162.70 0.2407
1162.80 0.2407
1162.90 0.2407
1163.00 0.2406
1163.10 0.2406
1163.20 0.2405
1163.30 0.2405
1163.40 0.2405
1163.50 0.2404
1163.60 0.2404
1163.70 0.2404
1163.80 0.2403
1163.90 0.2403
1164.00 0.2402
1164.10 0.2402
1164.20 0.2402
1164.30 0.2401
1164.40 0.2401
1164.50 0.2401
1164.60 0.24
1164.70 0.24
1164.80 0.24
1164.90 0.2399
1165.00 0.2399
1165.10 0.2398
1165.20 0.2398
1165.30 0.2398
1165.40 0.2397
1165.50 0.2397
1165.60 0.2397
1165.70 0.2396
1165.80 0.2396
1165.90 0.2395
1166.00 0.2395
1166.10 0.2395
1166.20 0.2394
1166.30 0.2394
1166.40 0.2394
1166.50 0.2393
1166.60 0.2393
1166.70 0.2392
1166.80 0.2392
1166.90 0.2392
1167.00 0.2391
1167.10 0.2391
1167.20 0.2391
1167.30 0.239
1167.40 0.239
1167.50 0.2389
1167.60 0.2389
1167.70 0.2389
1167.80 0.2388
1167.90 0.2388
1168.00 0.2387
1168.10 0.2387
1168.20 0.2386
1168.30 0.2386
1168.40 0.2386
1168.50 0.2385
1168.60 0.2385
1168.70 0.2384
1168.80 0.2384
1168.90 0.2384
1169.00 0.2383
1169.10 0.2383
1169.20 0.2382
1169.30 0.2382
1169.40 0.2382
1169.50 0.2381
1169.60 0.2381
1169.70 0.238
1169.80 0.238
1169.90 0.238
1170.00 0.2379
1170.10 0.2379
1170.20 0.2378
1170.30 0.2378
1170.40 0.2378
1170.50 0.2377
1170.60 0.2377
1170.70 0.2376
1170.80 0.2376
1170.90 0.2376
1171.00 0.2375
1171.10 0.2375
1171.20 0.2374
1171.30 0.2374
1171.40 0.2374
1171.50 0.2373
1171.60 0.2373
1171.70 0.2372
1171.80 0.2372
1171.90 0.2372
1172.00 0.2371
1172.10 0.2371
1172.20 0.237
1172.30 0.237
1172.40 0.2369
1172.50 0.2369
1172.60 0.2369
1172.70 0.2368
1172.80 0.2368
1172.90 0.2367
1173.00 0.2367
1173.10 0.2366
1173.20 0.2366
1173.30 0.2366
1173.40 0.2365
1173.50 0.2365
1173.60 0.2364
1173.70 0.2364
1173.80 0.2363
1173.90 0.2363
1174.00 0.2363
1174.10 0.2362
1174.20 0.2362
1174.30 0.2361
1174.40 0.2361
1174.50 0.236
1174.60 0.236
1174.70 0.236
1174.80 0.2359
1174.90 0.2359
1175.00 0.2358
1175.10 0.2358
1175.20 0.2357
1175.30 0.2357
1175.40 0.2357
1175.50 0.2356
1175.60 0.2356
1175.70 0.2355
1175.80 0.2355
1175.90 0.2354
1176.00 0.2354
1176.10 0.2354
1176.20 0.2353
1176.30 0.2353
1176.40 0.2352
1176.50 0.2352
1176.60 0.2351
1176.70 0.2351
1176.80 0.2351
1176.90 0.235
1177.00 0.235
1177.10 0.2349
1177.20 0.2349
1177.30 0.2348
1177.40 0.2348
1177.50 0.2348
1177.60 0.2347
1177.70 0.2347
1177.80 0.2346
1177.90 0.2346
1178.00 0.2345
1178.10 0.2345
1178.20 0.2344
1178.30 0.2344
1178.40 0.2343
1178.50 0.2343
1178.60 0.2343
1178.70 0.2342
1178.80 0.2342
1178.90 0.2341
1179.00 0.2341
1179.10 0.234
1179.20 0.234
1179.30 0.2339
1179.40 0.2339
1179.50 0.2338
1179.60 0.2338
1179.70 0.2338
1179.80 0.2337
1179.90 0.2337
1180.00 0.2336
1180.10 0.2336
1180.20 0.2335
1180.30 0.2335
1180.40 0.2334
1180.50 0.2334
1180.60 0.2333
1180.70 0.2333
1180.80 0.2333
1180.90 0.2332
1181.00 0.2332
1181.10 0.2331
1181.20 0.2331
1181.30 0.233
1181.40 0.233
1181.50 0.2329
1181.60 0.2329
1181.70 0.2329
1181.80 0.2328
1181.90 0.2328
1182.00 0.2327
1182.10 0.2327
1182.20 0.2326
1182.30 0.2326
1182.40 0.2325
1182.50 0.2325
1182.60 0.2324
1182.70 0.2324
1182.80 0.2323
1182.90 0.2323
1183.00 0.2322
1183.10 0.2322
1183.20 0.2321
1183.30 0.2321
1183.40 0.232
1183.50 0.232
1183.60 0.2319
1183.70 0.2319
1183.80 0.2318
1183.90 0.2318
1184.00 0.2317
1184.10 0.2317
1184.20 0.2317
1184.30 0.2316
1184.40 0.2316
1184.50 0.2315
1184.60 0.2315
1184.70 0.2314
1184.80 0.2314
1184.90 0.2313
1185.00 0.2313
1185.10 0.2312
1185.20 0.2312
1185.30 0.2311
1185.40 0.2311
1185.50 0.231
1185.60 0.231
1185.70 0.2309
1185.80 0.2309
1185.90 0.2308
1186.00 0.2308
1186.10 0.2307
1186.20 0.2307
1186.30 0.2306
1186.40 0.2306
1186.50 0.2305
1186.60 0.2305
1186.70 0.2305
1186.80 0.2304
1186.90 0.2304
1187.00 0.2303
1187.10 0.2303
1187.20 0.2302
1187.30 0.2302
1187.40 0.2301
1187.50 0.2301
1187.60 0.23
1187.70 0.23
1187.80 0.2299
1187.90 0.2299
1188.00 0.2298
1188.10 0.2298
1188.20 0.2297
1188.30 0.2297
1188.40 0.2296
1188.50 0.2296
1188.60 0.2295
1188.70 0.2295
1188.80 0.2294
1188.90 0.2294
1189.00 0.2293
1189.10 0.2293
1189.20 0.2292
1189.30 0.2292
1189.40 0.2291
1189.50 0.2291
1189.60 0.229
1189.70 0.229
1189.80 0.2289
1189.90 0.2289
1190.00 0.2288
1190.10 0.2288
1190.20 0.2287
1190.30 0.2287
1190.40 0.2287
1190.50 0.2286
1190.60 0.2286
1190.70 0.2285
1190.80 0.2285
1190.90 0.2284
1191.00 0.2284
1191.10 0.2283
1191.20 0.2283
1191.30 0.2282
1191.40 0.2282
1191.50 0.2281
1191.60 0.2281
1191.70 0.228
1191.80 0.228
1191.90 0.2279
1192.00 0.2279
1192.10 0.2278
1192.20 0.2278
1192.30 0.2277
1192.40 0.2277
1192.50 0.2276
1192.60 0.2276
1192.70 0.2275
1192.80 0.2275
1192.90 0.2274
1193.00 0.2274
1193.10 0.2273
1193.20 0.2273
1193.30 0.2272
1193.40 0.2272
1193.50 0.2271
1193.60 0.2271
1193.70 0.227
1193.80 0.227
1193.90 0.2269
1194.00 0.2269
1194.10 0.2268
1194.20 0.2268
1194.30 0.2267
1194.40 0.2267
1194.50 0.2266
1194.60 0.2266
1194.70 0.2265
1194.80 0.2265
1194.90 0.2264
1195.00 0.2264
1195.10 0.2263
1195.20 0.2263
1195.30 0.2262
1195.40 0.2262
1195.50 0.2261
1195.60 0.2261
1195.70 0.226
1195.80 0.226
1195.90 0.2259
1196.00 0.2259
1196.10 0.2258
1196.20 0.2258
1196.30 0.2257
1196.40 0.2257
1196.50 0.2256
1196.60 0.2256
1196.70 0.2255
1196.80 0.2255
1196.90 0.2254
1197.00 0.2254
1197.10 0.2253
1197.20 0.2253
1197.30 0.2252
1197.40 0.2252
1197.50 0.2251
1197.60 0.2251
1197.70 0.225
1197.80 0.225
1197.90 0.2249
1198.00 0.2249
1198.10 0.2248
1198.20 0.2248
1198.30 0.2247
1198.40 0.2247
1198.50 0.2246
1198.60 0.2246
1198.70 0.2245
1198.80 0.2245
1198.90 0.2244
1199.00 0.2243
1199.10 0.2243
1199.20 0.2242
1199.30 0.2242
1199.40 0.2241
1199.50 0.2241
1199.60 0.224
1199.70 0.224
1199.80 0.2239
1199.90 0.2239
1200.00 0
