# Version 2.1 - nm, norm@500 to 1, cut digits, bergeron_5500_65.dat_5500
# Wavelength(nm)  Flambda(ergs/cm^s/s/nm)
300.00 0.5234
300.10 0.5239
300.20 0.5244
300.30 0.5249
300.40 0.5253
300.50 0.5258
300.60 0.5263
300.70 0.5268
300.80 0.5273
300.90 0.5278
301.00 0.5283
301.10 0.5288
301.20 0.5293
301.30 0.5298
301.40 0.5302
301.50 0.5307
301.60 0.5312
301.70 0.5317
301.80 0.5322
301.90 0.5327
302.00 0.5331
302.10 0.5336
302.20 0.5341
302.30 0.5346
302.40 0.5351
302.50 0.5356
302.60 0.5361
302.70 0.5366
302.80 0.5371
302.90 0.5375
303.00 0.538
303.10 0.5385
303.20 0.539
303.30 0.5395
303.40 0.54
303.50 0.5404
303.60 0.5409
303.70 0.5414
303.80 0.5419
303.90 0.5424
304.00 0.5429
304.10 0.5433
304.20 0.5438
304.30 0.5443
304.40 0.5448
304.50 0.5453
304.60 0.5458
304.70 0.5463
304.80 0.5467
304.90 0.5472
305.00 0.5477
305.10 0.5482
305.20 0.5487
305.30 0.5492
305.40 0.5496
305.50 0.5501
305.60 0.5506
305.70 0.5511
305.80 0.5516
305.90 0.552
306.00 0.5525
306.10 0.553
306.20 0.5535
306.30 0.554
306.40 0.5544
306.50 0.5549
306.60 0.5554
306.70 0.5559
306.80 0.5564
306.90 0.5569
307.00 0.5573
307.10 0.5578
307.20 0.5583
307.30 0.5588
307.40 0.5592
307.50 0.5597
307.60 0.5602
307.70 0.5607
307.80 0.5612
307.90 0.5616
308.00 0.5621
308.10 0.5626
308.20 0.5631
308.30 0.5635
308.40 0.564
308.50 0.5645
308.60 0.565
308.70 0.5655
308.80 0.5659
308.90 0.5664
309.00 0.5669
309.10 0.5674
309.20 0.5678
309.30 0.5683
309.40 0.5688
309.50 0.5693
309.60 0.5697
309.70 0.5702
309.80 0.5707
309.90 0.5712
310.00 0.5716
310.10 0.5721
310.20 0.5726
310.30 0.5731
310.40 0.5735
310.50 0.574
310.60 0.5745
310.70 0.575
310.80 0.5754
310.90 0.5759
311.00 0.5764
311.10 0.5769
311.20 0.5773
311.30 0.5778
311.40 0.5783
311.50 0.5787
311.60 0.5792
311.70 0.5797
311.80 0.5801
311.90 0.5806
312.00 0.5811
312.10 0.5815
312.20 0.582
312.30 0.5825
312.40 0.583
312.50 0.5834
312.60 0.5839
312.70 0.5844
312.80 0.5848
312.90 0.5853
313.00 0.5858
313.10 0.5863
313.20 0.5867
313.30 0.5872
313.40 0.5877
313.50 0.5881
313.60 0.5886
313.70 0.5891
313.80 0.5895
313.90 0.59
314.00 0.5905
314.10 0.5909
314.20 0.5914
314.30 0.5919
314.40 0.5923
314.50 0.5928
314.60 0.5933
314.70 0.5937
314.80 0.5942
314.90 0.5947
315.00 0.5951
315.10 0.5956
315.20 0.5961
315.30 0.5965
315.40 0.597
315.50 0.5975
315.60 0.5979
315.70 0.5984
315.80 0.5988
315.90 0.5993
316.00 0.5998
316.10 0.6002
316.20 0.6007
316.30 0.6012
316.40 0.6016
316.50 0.6021
316.60 0.6025
316.70 0.603
316.80 0.6035
316.90 0.6039
317.00 0.6044
317.10 0.6049
317.20 0.6053
317.30 0.6058
317.40 0.6062
317.50 0.6067
317.60 0.6071
317.70 0.6076
317.80 0.608
317.90 0.6085
318.00 0.609
318.10 0.6094
318.20 0.6099
318.30 0.6103
318.40 0.6108
318.50 0.6113
318.60 0.6117
318.70 0.6122
318.80 0.6126
318.90 0.6131
319.00 0.6136
319.10 0.614
319.20 0.6145
319.30 0.6149
319.40 0.6154
319.50 0.6158
319.60 0.6163
319.70 0.6167
319.80 0.6172
319.90 0.6177
320.00 0.6181
320.10 0.6186
320.20 0.619
320.30 0.6195
320.40 0.6199
320.50 0.6204
320.60 0.6208
320.70 0.6213
320.80 0.6218
320.90 0.6222
321.00 0.6227
321.10 0.6231
321.20 0.6236
321.30 0.624
321.40 0.6245
321.50 0.6249
321.60 0.6254
321.70 0.6258
321.80 0.6263
321.90 0.6267
322.00 0.6272
322.10 0.6276
322.20 0.6281
322.30 0.6285
322.40 0.629
322.50 0.6294
322.60 0.6299
322.70 0.6303
322.80 0.6308
322.90 0.6312
323.00 0.6317
323.10 0.6321
323.20 0.6326
323.30 0.633
323.40 0.6334
323.50 0.6339
323.60 0.6343
323.70 0.6348
323.80 0.6352
323.90 0.6357
324.00 0.6361
324.10 0.6366
324.20 0.637
324.30 0.6375
324.40 0.6379
324.50 0.6384
324.60 0.6388
324.70 0.6392
324.80 0.6397
324.90 0.6401
325.00 0.6406
325.10 0.641
325.20 0.6415
325.30 0.6419
325.40 0.6424
325.50 0.6428
325.60 0.6432
325.70 0.6437
325.80 0.6441
325.90 0.6446
326.00 0.645
326.10 0.6455
326.20 0.6459
326.30 0.6463
326.40 0.6468
326.50 0.6472
326.60 0.6477
326.70 0.6481
326.80 0.6485
326.90 0.649
327.00 0.6494
327.10 0.6499
327.20 0.6503
327.30 0.6507
327.40 0.6512
327.50 0.6516
327.60 0.652
327.70 0.6525
327.80 0.6529
327.90 0.6533
328.00 0.6538
328.10 0.6542
328.20 0.6546
328.30 0.6551
328.40 0.6555
328.50 0.6559
328.60 0.6564
328.70 0.6568
328.80 0.6573
328.90 0.6577
329.00 0.6581
329.10 0.6586
329.20 0.659
329.30 0.6594
329.40 0.6598
329.50 0.6603
329.60 0.6607
329.70 0.6611
329.80 0.6616
329.90 0.662
330.00 0.6624
330.10 0.6629
330.20 0.6633
330.30 0.6637
330.40 0.6642
330.50 0.6646
330.60 0.665
330.70 0.6655
330.80 0.6659
330.90 0.6663
331.00 0.6668
331.10 0.6672
331.20 0.6676
331.30 0.6681
331.40 0.6685
331.50 0.6689
331.60 0.6693
331.70 0.6698
331.80 0.6702
331.90 0.6706
332.00 0.671
332.10 0.6715
332.20 0.6719
332.30 0.6723
332.40 0.6728
332.50 0.6732
332.60 0.6736
332.70 0.674
332.80 0.6745
332.90 0.6749
333.00 0.6753
333.10 0.6757
333.20 0.6762
333.30 0.6766
333.40 0.677
333.50 0.6774
333.60 0.6778
333.70 0.6783
333.80 0.6787
333.90 0.6791
334.00 0.6795
334.10 0.6799
334.20 0.6804
334.30 0.6808
334.40 0.6812
334.50 0.6816
334.60 0.6821
334.70 0.6825
334.80 0.6829
334.90 0.6833
335.00 0.6837
335.10 0.6842
335.20 0.6846
335.30 0.685
335.40 0.6854
335.50 0.6858
335.60 0.6862
335.70 0.6867
335.80 0.6871
335.90 0.6875
336.00 0.6879
336.10 0.6883
336.20 0.6887
336.30 0.6892
336.40 0.6896
336.50 0.69
336.60 0.6904
336.70 0.6908
336.80 0.6912
336.90 0.6916
337.00 0.6921
337.10 0.6925
337.20 0.6929
337.30 0.6933
337.40 0.6937
337.50 0.6941
337.60 0.6945
337.70 0.6949
337.80 0.6953
337.90 0.6957
338.00 0.6961
338.10 0.6966
338.20 0.697
338.30 0.6974
338.40 0.6978
338.50 0.6982
338.60 0.6986
338.70 0.699
338.80 0.6994
338.90 0.6998
339.00 0.7003
339.10 0.7007
339.20 0.7011
339.30 0.7015
339.40 0.7019
339.50 0.7023
339.60 0.7027
339.70 0.7031
339.80 0.7035
339.90 0.7039
340.00 0.7043
340.10 0.7047
340.20 0.7051
340.30 0.7055
340.40 0.7059
340.50 0.7063
340.60 0.7068
340.70 0.7072
340.80 0.7076
340.90 0.708
341.00 0.7084
341.10 0.7088
341.20 0.7092
341.30 0.7096
341.40 0.71
341.50 0.7104
341.60 0.7108
341.70 0.7112
341.80 0.7116
341.90 0.712
342.00 0.7124
342.10 0.7128
342.20 0.7132
342.30 0.7136
342.40 0.714
342.50 0.7144
342.60 0.7148
342.70 0.7152
342.80 0.7156
342.90 0.716
343.00 0.7164
343.10 0.7168
343.20 0.7172
343.30 0.7176
343.40 0.718
343.50 0.7184
343.60 0.7187
343.70 0.7191
343.80 0.7195
343.90 0.7199
344.00 0.7203
344.10 0.7207
344.20 0.7211
344.30 0.7215
344.40 0.7219
344.50 0.7223
344.60 0.7227
344.70 0.7231
344.80 0.7235
344.90 0.7239
345.00 0.7243
345.10 0.7246
345.20 0.725
345.30 0.7254
345.40 0.7258
345.50 0.7262
345.60 0.7266
345.70 0.727
345.80 0.7274
345.90 0.7277
346.00 0.7281
346.10 0.7285
346.20 0.7289
346.30 0.7293
346.40 0.7297
346.50 0.7301
346.60 0.7305
346.70 0.7309
346.80 0.7312
346.90 0.7316
347.00 0.732
347.10 0.7324
347.20 0.7328
347.30 0.7332
347.40 0.7336
347.50 0.7339
347.60 0.7343
347.70 0.7347
347.80 0.7351
347.90 0.7355
348.00 0.7359
348.10 0.7362
348.20 0.7366
348.30 0.737
348.40 0.7374
348.50 0.7378
348.60 0.7382
348.70 0.7385
348.80 0.7389
348.90 0.7393
349.00 0.7397
349.10 0.7401
349.20 0.7404
349.30 0.7408
349.40 0.7412
349.50 0.7416
349.60 0.742
349.70 0.7423
349.80 0.7427
349.90 0.7431
350.00 0.7435
350.10 0.7438
350.20 0.7442
350.30 0.7446
350.40 0.745
350.50 0.7454
350.60 0.7457
350.70 0.7461
350.80 0.7465
350.90 0.7469
351.00 0.7472
351.10 0.7476
351.20 0.748
351.30 0.7483
351.40 0.7487
351.50 0.7491
351.60 0.7495
351.70 0.7498
351.80 0.7502
351.90 0.7506
352.00 0.7509
352.10 0.7513
352.20 0.7517
352.30 0.7521
352.40 0.7524
352.50 0.7528
352.60 0.7532
352.70 0.7536
352.80 0.7539
352.90 0.7543
353.00 0.7547
353.10 0.755
353.20 0.7554
353.30 0.7558
353.40 0.7561
353.50 0.7565
353.60 0.7569
353.70 0.7573
353.80 0.7576
353.90 0.758
354.00 0.7583
354.10 0.7587
354.20 0.7591
354.30 0.7594
354.40 0.7598
354.50 0.7602
354.60 0.7605
354.70 0.7609
354.80 0.7613
354.90 0.7616
355.00 0.762
355.10 0.7624
355.20 0.7627
355.30 0.7631
355.40 0.7634
355.50 0.7638
355.60 0.7642
355.70 0.7645
355.80 0.7649
355.90 0.7652
356.00 0.7656
356.10 0.7659
356.20 0.7663
356.30 0.7667
356.40 0.767
356.50 0.7674
356.60 0.7677
356.70 0.7681
356.80 0.7685
356.90 0.7688
357.00 0.7692
357.10 0.7695
357.20 0.7699
357.30 0.7702
357.40 0.7706
357.50 0.771
357.60 0.7713
357.70 0.7717
357.80 0.772
357.90 0.7724
358.00 0.7727
358.10 0.7731
358.20 0.7734
358.30 0.7738
358.40 0.7741
358.50 0.7745
358.60 0.7749
358.70 0.7752
358.80 0.7756
358.90 0.7759
359.00 0.7763
359.10 0.7766
359.20 0.777
359.30 0.7773
359.40 0.7777
359.50 0.778
359.60 0.7784
359.70 0.7787
359.80 0.7791
359.90 0.7794
360.00 0.7798
360.10 0.7801
360.20 0.7805
360.30 0.7808
360.40 0.7812
360.50 0.7815
360.60 0.7819
360.70 0.7822
360.80 0.7826
360.90 0.7829
361.00 0.7832
361.10 0.7836
361.20 0.7839
361.30 0.7843
361.40 0.7846
361.50 0.785
361.60 0.7853
361.70 0.7857
361.80 0.786
361.90 0.7863
362.00 0.7867
362.10 0.787
362.20 0.7874
362.30 0.7877
362.40 0.788
362.50 0.7884
362.60 0.7887
362.70 0.789
362.80 0.7894
362.90 0.7897
363.00 0.79
363.10 0.7904
363.20 0.7907
363.30 0.7911
363.40 0.7914
363.50 0.7917
363.60 0.7921
363.70 0.7924
363.80 0.7928
363.90 0.7931
364.00 0.7934
364.10 0.7938
364.20 0.7941
364.30 0.7944
364.40 0.7948
364.50 0.7951
364.60 0.7955
364.70 0.7958
364.80 0.7961
364.90 0.7964
365.00 0.7968
365.10 0.7971
365.20 0.7974
365.30 0.7978
365.40 0.7981
365.50 0.7984
365.60 0.7988
365.70 0.7991
365.80 0.7994
365.90 0.7997
366.00 0.8001
366.10 0.8004
366.20 0.8007
366.30 0.8011
366.40 0.8014
366.50 0.8017
366.60 0.802
366.70 0.8024
366.80 0.8027
366.90 0.803
367.00 0.8034
367.10 0.8037
367.20 0.804
367.30 0.8043
367.40 0.8047
367.50 0.805
367.60 0.8053
367.70 0.8056
367.80 0.806
367.90 0.8063
368.00 0.8066
368.10 0.8069
368.20 0.8073
368.30 0.8076
368.40 0.8079
368.50 0.8082
368.60 0.8086
368.70 0.8089
368.80 0.8092
368.90 0.8095
369.00 0.8098
369.10 0.8102
369.20 0.8105
369.30 0.8108
369.40 0.8111
369.50 0.8115
369.60 0.8118
369.70 0.8121
369.80 0.8124
369.90 0.8127
370.00 0.813
370.10 0.8134
370.20 0.8137
370.30 0.814
370.40 0.8143
370.50 0.8147
370.60 0.815
370.70 0.8153
370.80 0.8156
370.90 0.816
371.00 0.8163
371.10 0.8166
371.20 0.8169
371.30 0.8172
371.40 0.8176
371.50 0.8179
371.60 0.8182
371.70 0.8185
371.80 0.8188
371.90 0.8192
372.00 0.8195
372.10 0.8198
372.20 0.8202
372.30 0.8205
372.40 0.8208
372.50 0.8212
372.60 0.8215
372.70 0.8218
372.80 0.8222
372.90 0.8225
373.00 0.8229
373.10 0.8232
373.20 0.8235
373.30 0.8239
373.40 0.8242
373.50 0.8245
373.60 0.8249
373.70 0.8252
373.80 0.8255
373.90 0.8259
374.00 0.8262
374.10 0.8265
374.20 0.8269
374.30 0.8273
374.40 0.8276
374.50 0.828
374.60 0.8283
374.70 0.8287
374.80 0.829
374.90 0.8294
375.00 0.8297
375.10 0.8301
375.20 0.8304
375.30 0.8308
375.40 0.8311
375.50 0.8315
375.60 0.8318
375.70 0.8322
375.80 0.8325
375.90 0.8329
376.00 0.8332
376.10 0.8336
376.20 0.8339
376.30 0.8343
376.40 0.8346
376.50 0.835
376.60 0.8353
376.70 0.8357
376.80 0.836
376.90 0.8364
377.00 0.8367
377.10 0.837
377.20 0.8374
377.30 0.8377
377.40 0.838
377.50 0.8384
377.60 0.8387
377.70 0.8391
377.80 0.8394
377.90 0.8397
378.00 0.8401
378.10 0.8403
378.20 0.8406
378.30 0.8409
378.40 0.8412
378.50 0.8415
378.60 0.8417
378.70 0.842
378.80 0.8423
378.90 0.8426
379.00 0.8429
379.10 0.8425
379.20 0.8422
379.30 0.8418
379.40 0.8415
379.50 0.8412
379.60 0.8408
379.70 0.8405
379.80 0.8401
379.90 0.8398
380.00 0.8395
380.10 0.8405
380.20 0.8415
380.30 0.8426
380.40 0.8436
380.50 0.8446
380.60 0.8456
380.70 0.8466
380.80 0.8477
380.90 0.8487
381.00 0.8497
381.10 0.85
381.20 0.8504
381.30 0.8507
381.40 0.851
381.50 0.8514
381.60 0.8517
381.70 0.852
381.80 0.8523
381.90 0.8526
382.00 0.8529
382.10 0.8532
382.20 0.8535
382.30 0.8532
382.40 0.853
382.50 0.8527
382.60 0.8525
382.70 0.8522
382.80 0.852
382.90 0.8517
383.00 0.8515
383.10 0.8512
383.20 0.851
383.30 0.8467
383.40 0.8365
383.50 0.8102
383.60 0.8185
383.70 0.8406
383.80 0.8496
383.90 0.8537
384.00 0.856
384.10 0.8573
384.20 0.8583
384.30 0.859
384.40 0.8596
384.50 0.86
384.60 0.8605
384.70 0.8608
384.80 0.8612
384.90 0.8616
385.00 0.8619
385.10 0.8622
385.20 0.8625
385.30 0.8629
385.40 0.8632
385.50 0.8635
385.60 0.8638
385.70 0.8641
385.80 0.8644
385.90 0.8646
386.00 0.8649
386.10 0.8652
386.20 0.8655
386.30 0.8658
386.40 0.8661
386.50 0.8664
386.60 0.8666
386.70 0.8669
386.80 0.8672
386.90 0.8674
387.00 0.8677
387.10 0.8679
387.20 0.8682
387.30 0.8684
387.40 0.8687
387.50 0.8689
387.60 0.8691
387.70 0.8693
387.80 0.8694
387.90 0.8695
388.00 0.8696
388.10 0.8695
388.20 0.8693
388.30 0.8689
388.40 0.8677
388.50 0.8655
388.60 0.8621
388.70 0.8498
388.80 0.8163
388.90 0.7617
389.00 0.8152
389.10 0.849
389.20 0.8631
389.30 0.8673
389.40 0.8703
389.50 0.8721
389.60 0.873
389.70 0.8738
389.80 0.8745
389.90 0.875
390.00 0.8754
390.10 0.8758
390.20 0.8762
390.30 0.8765
390.40 0.8768
390.50 0.8771
390.60 0.8774
390.70 0.8778
390.80 0.878
390.90 0.8783
391.00 0.8786
391.10 0.8789
391.20 0.8792
391.30 0.8794
391.40 0.8797
391.50 0.88
391.60 0.8803
391.70 0.8805
391.80 0.8808
391.90 0.8811
392.00 0.8813
392.10 0.8816
392.20 0.8818
392.30 0.8821
392.40 0.8824
392.50 0.8826
392.60 0.8829
392.70 0.8831
392.80 0.8834
392.90 0.8837
393.00 0.8839
393.10 0.8842
393.20 0.8844
393.30 0.8847
393.40 0.8849
393.50 0.8852
393.60 0.8854
393.70 0.8857
393.80 0.8859
393.90 0.8861
394.00 0.8864
394.10 0.8866
394.20 0.8869
394.30 0.8871
394.40 0.8874
394.50 0.8876
394.60 0.8878
394.70 0.8881
394.80 0.8883
394.90 0.8885
395.00 0.8887
395.10 0.8889
395.20 0.8892
395.30 0.8894
395.40 0.8896
395.50 0.8898
395.60 0.8899
395.70 0.8901
395.80 0.8902
395.90 0.8902
396.00 0.8902
396.10 0.8902
396.20 0.8899
396.30 0.8895
396.40 0.8888
396.50 0.8871
396.60 0.8839
396.70 0.879
396.80 0.8611
396.90 0.8044
397.00 0.709
397.10 0.8013
397.20 0.8581
397.30 0.8793
397.40 0.8851
397.50 0.8892
397.60 0.8915
397.70 0.8927
397.80 0.8937
397.90 0.8945
398.00 0.895
398.10 0.8955
398.20 0.896
398.30 0.8963
398.40 0.8967
398.50 0.897
398.60 0.8973
398.70 0.8976
398.80 0.8979
398.90 0.8982
399.00 0.8984
399.10 0.8987
399.20 0.8989
399.30 0.8992
399.40 0.8995
399.50 0.8997
399.60 0.9
399.70 0.9002
399.80 0.9004
399.90 0.9007
400.00 0.9009
400.10 0.9011
400.20 0.9014
400.30 0.9016
400.40 0.9019
400.50 0.9021
400.60 0.9023
400.70 0.9026
400.80 0.9028
400.90 0.903
401.00 0.9033
401.10 0.9035
401.20 0.9037
401.30 0.904
401.40 0.9042
401.50 0.9044
401.60 0.9046
401.70 0.9049
401.80 0.9051
401.90 0.9053
402.00 0.9056
402.10 0.9058
402.20 0.906
402.30 0.9062
402.40 0.9065
402.50 0.9067
402.60 0.9069
402.70 0.9071
402.80 0.9073
402.90 0.9076
403.00 0.9078
403.10 0.908
403.20 0.9082
403.30 0.9085
403.40 0.9087
403.50 0.9089
403.60 0.9091
403.70 0.9093
403.80 0.9096
403.90 0.9098
404.00 0.91
404.10 0.9102
404.20 0.9104
404.30 0.9106
404.40 0.9108
404.50 0.9111
404.60 0.9113
404.70 0.9115
404.80 0.9117
404.90 0.9119
405.00 0.9121
405.10 0.9123
405.20 0.9126
405.30 0.9128
405.40 0.913
405.50 0.9132
405.60 0.9134
405.70 0.9136
405.80 0.9138
405.90 0.914
406.00 0.9142
406.10 0.9144
406.20 0.9147
406.30 0.9149
406.40 0.9151
406.50 0.9153
406.60 0.9155
406.70 0.9157
406.80 0.9159
406.90 0.9161
407.00 0.9163
407.10 0.9165
407.20 0.9167
407.30 0.9169
407.40 0.9171
407.50 0.9173
407.60 0.9174
407.70 0.9176
407.80 0.9178
407.90 0.918
408.00 0.9182
408.10 0.9183
408.20 0.9185
408.30 0.9186
408.40 0.9188
408.50 0.9189
408.60 0.9191
408.70 0.9192
408.80 0.9192
408.90 0.9193
409.00 0.9193
409.10 0.9192
409.20 0.919
409.30 0.9187
409.40 0.9182
409.50 0.9173
409.60 0.916
409.70 0.913
409.80 0.9072
409.90 0.8986
410.00 0.8624
410.10 0.7917
410.20 0.6867
410.30 0.8124
410.40 0.8857
410.50 0.9065
410.60 0.9125
410.70 0.9169
410.80 0.9194
410.90 0.9208
411.00 0.9218
411.10 0.9227
411.20 0.9232
411.30 0.9238
411.40 0.9242
411.50 0.9246
411.60 0.9249
411.70 0.9252
411.80 0.9255
411.90 0.9258
412.00 0.9261
412.10 0.9263
412.20 0.9265
412.30 0.9267
412.40 0.927
412.50 0.9272
412.60 0.9274
412.70 0.9276
412.80 0.9279
412.90 0.9281
413.00 0.9283
413.10 0.9285
413.20 0.9287
413.30 0.9289
413.40 0.9291
413.50 0.9293
413.60 0.9295
413.70 0.9297
413.80 0.9299
413.90 0.9301
414.00 0.9303
414.10 0.9305
414.20 0.9307
414.30 0.9308
414.40 0.931
414.50 0.9312
414.60 0.9314
414.70 0.9316
414.80 0.9318
414.90 0.932
415.00 0.9322
415.10 0.9324
415.20 0.9326
415.30 0.9328
415.40 0.9329
415.50 0.9331
415.60 0.9333
415.70 0.9335
415.80 0.9337
415.90 0.9339
416.00 0.9341
416.10 0.9342
416.20 0.9344
416.30 0.9346
416.40 0.9348
416.50 0.935
416.60 0.9352
416.70 0.9353
416.80 0.9355
416.90 0.9357
417.00 0.9359
417.10 0.9361
417.20 0.9362
417.30 0.9364
417.40 0.9366
417.50 0.9368
417.60 0.937
417.70 0.9371
417.80 0.9373
417.90 0.9375
418.00 0.9377
418.10 0.9379
418.20 0.938
418.30 0.9382
418.40 0.9384
418.50 0.9386
418.60 0.9387
418.70 0.9389
418.80 0.9391
418.90 0.9393
419.00 0.9394
419.10 0.9396
419.20 0.9398
419.30 0.94
419.40 0.9401
419.50 0.9403
419.60 0.9405
419.70 0.9406
419.80 0.9408
419.90 0.941
420.00 0.9412
420.10 0.9413
420.20 0.9415
420.30 0.9417
420.40 0.9419
420.50 0.942
420.60 0.9422
420.70 0.9424
420.80 0.9425
420.90 0.9427
421.00 0.9429
421.10 0.943
421.20 0.9432
421.30 0.9434
421.40 0.9435
421.50 0.9437
421.60 0.9439
421.70 0.944
421.80 0.9442
421.90 0.9444
422.00 0.9445
422.10 0.9447
422.20 0.9449
422.30 0.945
422.40 0.9452
422.50 0.9454
422.60 0.9455
422.70 0.9457
422.80 0.9459
422.90 0.946
423.00 0.9462
423.10 0.9464
423.20 0.9465
423.30 0.9467
423.40 0.9468
423.50 0.947
423.60 0.9471
423.70 0.9473
423.80 0.9475
423.90 0.9476
424.00 0.9478
424.10 0.948
424.20 0.9481
424.30 0.9483
424.40 0.9484
424.50 0.9486
424.60 0.9488
424.70 0.9489
424.80 0.9491
424.90 0.9492
425.00 0.9494
425.10 0.9495
425.20 0.9497
425.30 0.9498
425.40 0.95
425.50 0.9502
425.60 0.9503
425.70 0.9505
425.80 0.9506
425.90 0.9508
426.00 0.9509
426.10 0.9511
426.20 0.9512
426.30 0.9514
426.40 0.9515
426.50 0.9517
426.60 0.9518
426.70 0.952
426.80 0.9521
426.90 0.9523
427.00 0.9524
427.10 0.9526
427.20 0.9527
427.30 0.9529
427.40 0.953
427.50 0.9532
427.60 0.9533
427.70 0.9535
427.80 0.9536
427.90 0.9538
428.00 0.9539
428.10 0.9541
428.20 0.9542
428.30 0.9543
428.40 0.9545
428.50 0.9546
428.60 0.9548
428.70 0.9549
428.80 0.9551
428.90 0.9552
429.00 0.9554
429.10 0.9555
429.20 0.9556
429.30 0.9558
429.40 0.9559
429.50 0.956
429.60 0.9562
429.70 0.9563
429.80 0.9565
429.90 0.9566
430.00 0.9567
430.10 0.9569
430.20 0.957
430.30 0.9571
430.40 0.9573
430.50 0.9574
430.60 0.9575
430.70 0.9576
430.80 0.9578
430.90 0.9579
431.00 0.958
431.10 0.9581
431.20 0.9582
431.30 0.9584
431.40 0.9585
431.50 0.9586
431.60 0.9587
431.70 0.9588
431.80 0.9589
431.90 0.9589
432.00 0.959
432.10 0.9591
432.20 0.9591
432.30 0.9592
432.40 0.9592
432.50 0.9592
432.60 0.9591
432.70 0.959
432.80 0.9589
432.90 0.9587
433.00 0.9584
433.10 0.9578
433.20 0.9571
433.30 0.9561
433.40 0.9542
433.50 0.9513
433.60 0.9473
433.70 0.9368
433.80 0.9122
433.90 0.8733
434.00 0.6522
434.10 0.6545
434.20 0.8798
434.30 0.9159
434.40 0.9389
434.50 0.949
434.60 0.9531
434.70 0.9562
434.80 0.9583
434.90 0.9595
435.00 0.9605
435.10 0.9612
435.20 0.9618
435.30 0.9623
435.40 0.9627
435.50 0.963
435.60 0.9633
435.70 0.9636
435.80 0.9638
435.90 0.9641
436.00 0.9643
436.10 0.9645
436.20 0.9647
436.30 0.9649
436.40 0.965
436.50 0.9652
436.60 0.9654
436.70 0.9655
436.80 0.9657
436.90 0.9659
437.00 0.966
437.10 0.9661
437.20 0.9663
437.30 0.9664
437.40 0.9666
437.50 0.9667
437.60 0.9668
437.70 0.967
437.80 0.9671
437.90 0.9672
438.00 0.9674
438.10 0.9675
438.20 0.9676
438.30 0.9678
438.40 0.9679
438.50 0.968
438.60 0.9682
438.70 0.9683
438.80 0.9684
438.90 0.9685
439.00 0.9687
439.10 0.9688
439.20 0.9689
439.30 0.969
439.40 0.9692
439.50 0.9693
439.60 0.9694
439.70 0.9695
439.80 0.9696
439.90 0.9698
440.00 0.9699
440.10 0.97
440.20 0.9701
440.30 0.9702
440.40 0.9704
440.50 0.9705
440.60 0.9706
440.70 0.9707
440.80 0.9708
440.90 0.971
441.00 0.9711
441.10 0.9712
441.20 0.9713
441.30 0.9714
441.40 0.9715
441.50 0.9717
441.60 0.9718
441.70 0.9719
441.80 0.972
441.90 0.9721
442.00 0.9722
442.10 0.9724
442.20 0.9725
442.30 0.9726
442.40 0.9727
442.50 0.9728
442.60 0.9729
442.70 0.973
442.80 0.9731
442.90 0.9733
443.00 0.9734
443.10 0.9735
443.20 0.9736
443.30 0.9737
443.40 0.9738
443.50 0.9739
443.60 0.974
443.70 0.9741
443.80 0.9742
443.90 0.9743
444.00 0.9744
444.10 0.9746
444.20 0.9747
444.30 0.9748
444.40 0.9749
444.50 0.975
444.60 0.9751
444.70 0.9752
444.80 0.9753
444.90 0.9754
445.00 0.9755
445.10 0.9756
445.20 0.9757
445.30 0.9758
445.40 0.9759
445.50 0.976
445.60 0.9761
445.70 0.9762
445.80 0.9763
445.90 0.9765
446.00 0.9766
446.10 0.9767
446.20 0.9768
446.30 0.9769
446.40 0.977
446.50 0.9771
446.60 0.9772
446.70 0.9773
446.80 0.9774
446.90 0.9775
447.00 0.9776
447.10 0.9777
447.20 0.9778
447.30 0.9779
447.40 0.978
447.50 0.9781
447.60 0.9782
447.70 0.9783
447.80 0.9784
447.90 0.9785
448.00 0.9786
448.10 0.9787
448.20 0.9788
448.30 0.9789
448.40 0.9789
448.50 0.979
448.60 0.9791
448.70 0.9792
448.80 0.9793
448.90 0.9794
449.00 0.9795
449.10 0.9796
449.20 0.9797
449.30 0.9798
449.40 0.9799
449.50 0.98
449.60 0.9801
449.70 0.9802
449.80 0.9803
449.90 0.9804
450.00 0.9805
450.10 0.9805
450.20 0.9806
450.30 0.9807
450.40 0.9808
450.50 0.9809
450.60 0.981
450.70 0.9811
450.80 0.9812
450.90 0.9813
451.00 0.9814
451.10 0.9815
451.20 0.9816
451.30 0.9816
451.40 0.9817
451.50 0.9818
451.60 0.9819
451.70 0.982
451.80 0.9821
451.90 0.9822
452.00 0.9823
452.10 0.9824
452.20 0.9824
452.30 0.9825
452.40 0.9826
452.50 0.9827
452.60 0.9828
452.70 0.9829
452.80 0.983
452.90 0.9831
453.00 0.9831
453.10 0.9832
453.20 0.9833
453.30 0.9834
453.40 0.9835
453.50 0.9836
453.60 0.9837
453.70 0.9837
453.80 0.9838
453.90 0.9839
454.00 0.984
454.10 0.9841
454.20 0.9841
454.30 0.9842
454.40 0.9843
454.50 0.9844
454.60 0.9845
454.70 0.9846
454.80 0.9846
454.90 0.9847
455.00 0.9848
455.10 0.9849
455.20 0.985
455.30 0.985
455.40 0.9851
455.50 0.9852
455.60 0.9853
455.70 0.9854
455.80 0.9854
455.90 0.9855
456.00 0.9856
456.10 0.9857
456.20 0.9858
456.30 0.9858
456.40 0.9859
456.50 0.986
456.60 0.9861
456.70 0.9861
456.80 0.9862
456.90 0.9863
457.00 0.9864
457.10 0.9865
457.20 0.9865
457.30 0.9866
457.40 0.9867
457.50 0.9868
457.60 0.9868
457.70 0.9869
457.80 0.987
457.90 0.9871
458.00 0.9871
458.10 0.9872
458.20 0.9873
458.30 0.9874
458.40 0.9874
458.50 0.9875
458.60 0.9876
458.70 0.9877
458.80 0.9877
458.90 0.9878
459.00 0.9879
459.10 0.9879
459.20 0.988
459.30 0.9881
459.40 0.9882
459.50 0.9882
459.60 0.9883
459.70 0.9884
459.80 0.9884
459.90 0.9885
460.00 0.9886
460.10 0.9886
460.20 0.9887
460.30 0.9888
460.40 0.9888
460.50 0.9889
460.60 0.989
460.70 0.989
460.80 0.9891
460.90 0.9892
461.00 0.9892
461.10 0.9893
461.20 0.9894
461.30 0.9895
461.40 0.9895
461.50 0.9896
461.60 0.9897
461.70 0.9897
461.80 0.9898
461.90 0.9899
462.00 0.9899
462.10 0.99
462.20 0.9901
462.30 0.9901
462.40 0.9902
462.50 0.9902
462.60 0.9903
462.70 0.9904
462.80 0.9904
462.90 0.9905
463.00 0.9906
463.10 0.9906
463.20 0.9907
463.30 0.9907
463.40 0.9908
463.50 0.9909
463.60 0.9909
463.70 0.991
463.80 0.9911
463.90 0.9911
464.00 0.9912
464.10 0.9912
464.20 0.9913
464.30 0.9914
464.40 0.9914
464.50 0.9915
464.60 0.9915
464.70 0.9916
464.80 0.9917
464.90 0.9917
465.00 0.9918
465.10 0.9918
465.20 0.9919
465.30 0.992
465.40 0.992
465.50 0.9921
465.60 0.9921
465.70 0.9922
465.80 0.9922
465.90 0.9923
466.00 0.9923
466.10 0.9924
466.20 0.9925
466.30 0.9925
466.40 0.9926
466.50 0.9926
466.60 0.9927
466.70 0.9927
466.80 0.9928
466.90 0.9928
467.00 0.9929
467.10 0.9929
467.20 0.993
467.30 0.993
467.40 0.9931
467.50 0.9932
467.60 0.9932
467.70 0.9933
467.80 0.9933
467.90 0.9934
468.00 0.9934
468.10 0.9935
468.20 0.9935
468.30 0.9936
468.40 0.9936
468.50 0.9937
468.60 0.9937
468.70 0.9938
468.80 0.9938
468.90 0.9939
469.00 0.9939
469.10 0.994
469.20 0.994
469.30 0.9941
469.40 0.9941
469.50 0.9942
469.60 0.9942
469.70 0.9943
469.80 0.9943
469.90 0.9944
470.00 0.9944
470.10 0.9945
470.20 0.9945
470.30 0.9946
470.40 0.9946
470.50 0.9947
470.60 0.9947
470.70 0.9948
470.80 0.9948
470.90 0.9948
471.00 0.9949
471.10 0.9949
471.20 0.995
471.30 0.995
471.40 0.9951
471.50 0.9951
471.60 0.9952
471.70 0.9952
471.80 0.9953
471.90 0.9953
472.00 0.9953
472.10 0.9954
472.20 0.9954
472.30 0.9955
472.40 0.9955
472.50 0.9956
472.60 0.9956
472.70 0.9957
472.80 0.9957
472.90 0.9957
473.00 0.9958
473.10 0.9958
473.20 0.9959
473.30 0.9959
473.40 0.9959
473.50 0.996
473.60 0.996
473.70 0.9961
473.80 0.9961
473.90 0.9961
474.00 0.9962
474.10 0.9962
474.20 0.9963
474.30 0.9963
474.40 0.9963
474.50 0.9964
474.60 0.9964
474.70 0.9965
474.80 0.9965
474.90 0.9965
475.00 0.9966
475.10 0.9966
475.20 0.9966
475.30 0.9967
475.40 0.9967
475.50 0.9968
475.60 0.9968
475.70 0.9968
475.80 0.9969
475.90 0.9969
476.00 0.9969
476.10 0.997
476.20 0.997
476.30 0.997
476.40 0.9971
476.50 0.9971
476.60 0.9971
476.70 0.9972
476.80 0.9972
476.90 0.9972
477.00 0.9973
477.10 0.9973
477.20 0.9973
477.30 0.9974
477.40 0.9974
477.50 0.9974
477.60 0.9975
477.70 0.9975
477.80 0.9975
477.90 0.9975
478.00 0.9976
478.10 0.9976
478.20 0.9976
478.30 0.9977
478.40 0.9977
478.50 0.9977
478.60 0.9977
478.70 0.9978
478.80 0.9978
478.90 0.9978
479.00 0.9978
479.10 0.9979
479.20 0.9979
479.30 0.9979
479.40 0.9979
479.50 0.998
479.60 0.998
479.70 0.998
479.80 0.998
479.90 0.9981
480.00 0.9981
480.10 0.9981
480.20 0.9981
480.30 0.9981
480.40 0.9981
480.50 0.9982
480.60 0.9982
480.70 0.9982
480.80 0.9982
480.90 0.9982
481.00 0.9982
481.10 0.9983
481.20 0.9983
481.30 0.9983
481.40 0.9983
481.50 0.9983
481.60 0.9983
481.70 0.9983
481.80 0.9983
481.90 0.9983
482.00 0.9983
482.10 0.9983
482.20 0.9983
482.30 0.9983
482.40 0.9983
482.50 0.9983
482.60 0.9983
482.70 0.9983
482.80 0.9983
482.90 0.9982
483.00 0.9982
483.10 0.9982
483.20 0.9982
483.30 0.9981
483.40 0.998
483.50 0.9979
483.60 0.9979
483.70 0.9978
483.80 0.9977
483.90 0.9976
484.00 0.9976
484.10 0.9975
484.20 0.9973
484.30 0.9971
484.40 0.9968
484.50 0.9966
484.60 0.9964
484.70 0.9958
484.80 0.9951
484.90 0.9944
485.00 0.9937
485.10 0.993
485.20 0.9915
485.30 0.9898
485.40 0.9868
485.50 0.9832
485.60 0.976
485.70 0.9672
485.80 0.9437
485.90 0.9133
486.00 0.8444
486.10 0.5854
486.20 0.723
486.30 0.8786
486.40 0.9228
486.50 0.9542
486.60 0.9704
486.70 0.9794
486.80 0.9847
486.90 0.9884
487.00 0.9907
487.10 0.9925
487.20 0.9936
487.30 0.9943
487.40 0.9951
487.50 0.9958
487.60 0.9966
487.70 0.997
487.80 0.9972
487.90 0.9975
488.00 0.9978
488.10 0.9981
488.20 0.9982
488.30 0.9983
488.40 0.9984
488.50 0.9985
488.60 0.9986
488.70 0.9987
488.80 0.9989
488.90 0.999
489.00 0.9991
489.10 0.9992
489.20 0.9992
489.30 0.9993
489.40 0.9993
489.50 0.9994
489.60 0.9994
489.70 0.9994
489.80 0.9995
489.90 0.9995
490.00 0.9996
490.10 0.9996
490.20 0.9996
490.30 0.9997
490.40 0.9997
490.50 0.9997
490.60 0.9997
490.70 0.9998
490.80 0.9998
490.90 0.9998
491.00 0.9998
491.10 0.9999
491.20 0.9999
491.30 0.9999
491.40 0.9999
491.50 0.9999
491.60 0.9999
491.70 1
491.80 1
491.90 1
492.00 1
492.10 1
492.20 1
492.30 1
492.40 1
492.50 1
492.60 1
492.70 1
492.80 1
492.90 1
493.00 1
493.10 1
493.20 1
493.30 1
493.40 1
493.50 1
493.60 1
493.70 1
493.80 1
493.90 1
494.00 1
494.10 1
494.20 1
494.30 1
494.40 1
494.50 1
494.60 1
494.70 1
494.80 1
494.90 1
495.00 1
495.10 1
495.20 1
495.30 1
495.40 1
495.50 1
495.60 1
495.70 1
495.80 1
495.90 1
496.00 1
496.10 1
496.20 1
496.30 1
496.40 1
496.50 1
496.60 1
496.70 1
496.80 1
496.90 1
497.00 1
497.10 1
497.20 1
497.30 1
497.40 1
497.50 1
497.60 1
497.70 1
497.80 1
497.90 1
498.00 1
498.10 1
498.20 1
498.30 1
498.40 1
498.50 1
498.60 1
498.70 1
498.80 1
498.90 1
499.00 1
499.10 1
499.20 1
499.30 1
499.40 1
499.50 1
499.60 1
499.70 1
499.80 1
499.90 1
500.00 1
500.10 1
500.20 1
500.30 1
500.40 1
500.50 1
500.60 0.9999
500.70 0.9999
500.80 0.9999
500.90 0.9999
501.00 0.9999
501.10 0.9999
501.20 0.9999
501.30 0.9999
501.40 0.9999
501.50 0.9999
501.60 0.9999
501.70 0.9998
501.80 0.9998
501.90 0.9998
502.00 0.9998
502.10 0.9998
502.20 0.9998
502.30 0.9998
502.40 0.9998
502.50 0.9997
502.60 0.9997
502.70 0.9997
502.80 0.9997
502.90 0.9997
503.00 0.9997
503.10 0.9997
503.20 0.9996
503.30 0.9996
503.40 0.9996
503.50 0.9996
503.60 0.9996
503.70 0.9996
503.80 0.9996
503.90 0.9995
504.00 0.9995
504.10 0.9995
504.20 0.9995
504.30 0.9995
504.40 0.9995
504.50 0.9994
504.60 0.9994
504.70 0.9994
504.80 0.9994
504.90 0.9994
505.00 0.9994
505.10 0.9993
505.20 0.9993
505.30 0.9993
505.40 0.9993
505.50 0.9993
505.60 0.9993
505.70 0.9992
505.80 0.9992
505.90 0.9992
506.00 0.9992
506.10 0.9992
506.20 0.9992
506.30 0.9991
506.40 0.9991
506.50 0.9991
506.60 0.9991
506.70 0.9991
506.80 0.999
506.90 0.999
507.00 0.999
507.10 0.999
507.20 0.999
507.30 0.9989
507.40 0.9989
507.50 0.9989
507.60 0.9989
507.70 0.9989
507.80 0.9988
507.90 0.9988
508.00 0.9988
508.10 0.9988
508.20 0.9988
508.30 0.9987
508.40 0.9987
508.50 0.9987
508.60 0.9987
508.70 0.9987
508.80 0.9986
508.90 0.9986
509.00 0.9986
509.10 0.9986
509.20 0.9985
509.30 0.9985
509.40 0.9985
509.50 0.9985
509.60 0.9984
509.70 0.9984
509.80 0.9984
509.90 0.9984
510.00 0.9984
510.10 0.9983
510.20 0.9983
510.30 0.9983
510.40 0.9982
510.50 0.9982
510.60 0.9982
510.70 0.9982
510.80 0.9981
510.90 0.9981
511.00 0.9981
511.10 0.9981
511.20 0.998
511.30 0.998
511.40 0.998
511.50 0.998
511.60 0.9979
511.70 0.9979
511.80 0.9979
511.90 0.9978
512.00 0.9978
512.10 0.9978
512.20 0.9978
512.30 0.9977
512.40 0.9977
512.50 0.9977
512.60 0.9977
512.70 0.9976
512.80 0.9976
512.90 0.9976
513.00 0.9975
513.10 0.9975
513.20 0.9975
513.30 0.9975
513.40 0.9974
513.50 0.9974
513.60 0.9974
513.70 0.9973
513.80 0.9973
513.90 0.9973
514.00 0.9973
514.10 0.9972
514.20 0.9972
514.30 0.9972
514.40 0.9971
514.50 0.9971
514.60 0.9971
514.70 0.997
514.80 0.997
514.90 0.997
515.00 0.9969
515.10 0.9969
515.20 0.9969
515.30 0.9968
515.40 0.9968
515.50 0.9968
515.60 0.9967
515.70 0.9967
515.80 0.9967
515.90 0.9966
516.00 0.9966
516.10 0.9966
516.20 0.9965
516.30 0.9965
516.40 0.9965
516.50 0.9964
516.60 0.9964
516.70 0.9964
516.80 0.9963
516.90 0.9963
517.00 0.9963
517.10 0.9962
517.20 0.9962
517.30 0.9962
517.40 0.9961
517.50 0.9961
517.60 0.9961
517.70 0.996
517.80 0.996
517.90 0.9959
518.00 0.9959
518.10 0.9959
518.20 0.9958
518.30 0.9958
518.40 0.9958
518.50 0.9957
518.60 0.9957
518.70 0.9957
518.80 0.9956
518.90 0.9956
519.00 0.9955
519.10 0.9955
519.20 0.9955
519.30 0.9954
519.40 0.9954
519.50 0.9954
519.60 0.9953
519.70 0.9953
519.80 0.9952
519.90 0.9952
520.00 0.9952
520.10 0.9951
520.20 0.9951
520.30 0.995
520.40 0.995
520.50 0.995
520.60 0.9949
520.70 0.9949
520.80 0.9948
520.90 0.9948
521.00 0.9948
521.10 0.9947
521.20 0.9947
521.30 0.9946
521.40 0.9946
521.50 0.9946
521.60 0.9945
521.70 0.9945
521.80 0.9944
521.90 0.9944
522.00 0.9944
522.10 0.9943
522.20 0.9943
522.30 0.9942
522.40 0.9942
522.50 0.9941
522.60 0.9941
522.70 0.9941
522.80 0.994
522.90 0.994
523.00 0.9939
523.10 0.9939
523.20 0.9938
523.30 0.9938
523.40 0.9938
523.50 0.9937
523.60 0.9937
523.70 0.9936
523.80 0.9936
523.90 0.9935
524.00 0.9935
524.10 0.9935
524.20 0.9934
524.30 0.9934
524.40 0.9933
524.50 0.9933
524.60 0.9932
524.70 0.9932
524.80 0.9931
524.90 0.9931
525.00 0.993
525.10 0.993
525.20 0.9929
525.30 0.9929
525.40 0.9928
525.50 0.9928
525.60 0.9927
525.70 0.9927
525.80 0.9927
525.90 0.9926
526.00 0.9926
526.10 0.9925
526.20 0.9925
526.30 0.9924
526.40 0.9924
526.50 0.9923
526.60 0.9923
526.70 0.9922
526.80 0.9922
526.90 0.9921
527.00 0.9921
527.10 0.992
527.20 0.992
527.30 0.9919
527.40 0.9919
527.50 0.9918
527.60 0.9918
527.70 0.9917
527.80 0.9917
527.90 0.9916
528.00 0.9916
528.10 0.9915
528.20 0.9915
528.30 0.9914
528.40 0.9914
528.50 0.9913
528.60 0.9913
528.70 0.9912
528.80 0.9912
528.90 0.9911
529.00 0.9911
529.10 0.991
529.20 0.991
529.30 0.9909
529.40 0.9909
529.50 0.9908
529.60 0.9908
529.70 0.9907
529.80 0.9907
529.90 0.9906
530.00 0.9906
530.10 0.9905
530.20 0.9905
530.30 0.9904
530.40 0.9904
530.50 0.9903
530.60 0.9902
530.70 0.9902
530.80 0.9901
530.90 0.9901
531.00 0.99
531.10 0.99
531.20 0.9899
531.30 0.9899
531.40 0.9898
531.50 0.9898
531.60 0.9897
531.70 0.9897
531.80 0.9896
531.90 0.9896
532.00 0.9895
532.10 0.9895
532.20 0.9894
532.30 0.9893
532.40 0.9893
532.50 0.9892
532.60 0.9892
532.70 0.9891
532.80 0.9891
532.90 0.989
533.00 0.989
533.10 0.9889
533.20 0.9888
533.30 0.9888
533.40 0.9887
533.50 0.9887
533.60 0.9886
533.70 0.9885
533.80 0.9885
533.90 0.9884
534.00 0.9884
534.10 0.9883
534.20 0.9883
534.30 0.9882
534.40 0.9881
534.50 0.9881
534.60 0.988
534.70 0.988
534.80 0.9879
534.90 0.9879
535.00 0.9878
535.10 0.9878
535.20 0.9877
535.30 0.9876
535.40 0.9876
535.50 0.9875
535.60 0.9875
535.70 0.9874
535.80 0.9873
535.90 0.9873
536.00 0.9872
536.10 0.9871
536.20 0.9871
536.30 0.987
536.40 0.987
536.50 0.9869
536.60 0.9868
536.70 0.9868
536.80 0.9867
536.90 0.9867
537.00 0.9866
537.10 0.9865
537.20 0.9865
537.30 0.9864
537.40 0.9864
537.50 0.9863
537.60 0.9862
537.70 0.9862
537.80 0.9861
537.90 0.9861
538.00 0.986
538.10 0.9859
538.20 0.9859
538.30 0.9858
538.40 0.9857
538.50 0.9857
538.60 0.9856
538.70 0.9855
538.80 0.9855
538.90 0.9854
539.00 0.9854
539.10 0.9853
539.20 0.9852
539.30 0.9852
539.40 0.9851
539.50 0.985
539.60 0.985
539.70 0.9849
539.80 0.9849
539.90 0.9848
540.00 0.9847
540.10 0.9847
540.20 0.9846
540.30 0.9845
540.40 0.9845
540.50 0.9844
540.60 0.9843
540.70 0.9843
540.80 0.9842
540.90 0.9841
541.00 0.9841
541.10 0.984
541.20 0.984
541.30 0.9839
541.40 0.9838
541.50 0.9838
541.60 0.9837
541.70 0.9836
541.80 0.9836
541.90 0.9835
542.00 0.9834
542.10 0.9833
542.20 0.9833
542.30 0.9832
542.40 0.9831
542.50 0.9831
542.60 0.983
542.70 0.9829
542.80 0.9829
542.90 0.9828
543.00 0.9827
543.10 0.9827
543.20 0.9826
543.30 0.9825
543.40 0.9825
543.50 0.9824
543.60 0.9823
543.70 0.9823
543.80 0.9822
543.90 0.9821
544.00 0.9821
544.10 0.982
544.20 0.9819
544.30 0.9819
544.40 0.9818
544.50 0.9817
544.60 0.9816
544.70 0.9816
544.80 0.9815
544.90 0.9814
545.00 0.9814
545.10 0.9813
545.20 0.9812
545.30 0.9811
545.40 0.9811
545.50 0.981
545.60 0.9809
545.70 0.9809
545.80 0.9808
545.90 0.9807
546.00 0.9807
546.10 0.9806
546.20 0.9805
546.30 0.9804
546.40 0.9804
546.50 0.9803
546.60 0.9802
546.70 0.9802
546.80 0.9801
546.90 0.98
547.00 0.9799
547.10 0.9799
547.20 0.9798
547.30 0.9797
547.40 0.9797
547.50 0.9796
547.60 0.9795
547.70 0.9794
547.80 0.9794
547.90 0.9793
548.00 0.9792
548.10 0.9791
548.20 0.9791
548.30 0.979
548.40 0.9789
548.50 0.9789
548.60 0.9788
548.70 0.9787
548.80 0.9786
548.90 0.9786
549.00 0.9785
549.10 0.9784
549.20 0.9783
549.30 0.9783
549.40 0.9782
549.50 0.9781
549.60 0.978
549.70 0.978
549.80 0.9779
549.90 0.9778
550.00 0.9777
550.10 0.9777
550.20 0.9776
550.30 0.9775
550.40 0.9774
550.50 0.9774
550.60 0.9773
550.70 0.9772
550.80 0.9771
550.90 0.977
551.00 0.977
551.10 0.9769
551.20 0.9768
551.30 0.9767
551.40 0.9767
551.50 0.9766
551.60 0.9765
551.70 0.9764
551.80 0.9764
551.90 0.9763
552.00 0.9762
552.10 0.9761
552.20 0.976
552.30 0.976
552.40 0.9759
552.50 0.9758
552.60 0.9757
552.70 0.9757
552.80 0.9756
552.90 0.9755
553.00 0.9754
553.10 0.9753
553.20 0.9753
553.30 0.9752
553.40 0.9751
553.50 0.975
553.60 0.9749
553.70 0.9749
553.80 0.9748
553.90 0.9747
554.00 0.9746
554.10 0.9746
554.20 0.9745
554.30 0.9744
554.40 0.9743
554.50 0.9742
554.60 0.9742
554.70 0.9741
554.80 0.974
554.90 0.9739
555.00 0.9738
555.10 0.9738
555.20 0.9737
555.30 0.9736
555.40 0.9735
555.50 0.9734
555.60 0.9734
555.70 0.9733
555.80 0.9732
555.90 0.9731
556.00 0.973
556.10 0.973
556.20 0.9729
556.30 0.9728
556.40 0.9727
556.50 0.9726
556.60 0.9725
556.70 0.9725
556.80 0.9724
556.90 0.9723
557.00 0.9722
557.10 0.9721
557.20 0.972
557.30 0.972
557.40 0.9719
557.50 0.9718
557.60 0.9717
557.70 0.9716
557.80 0.9716
557.90 0.9715
558.00 0.9714
558.10 0.9713
558.20 0.9712
558.30 0.9711
558.40 0.9711
558.50 0.971
558.60 0.9709
558.70 0.9708
558.80 0.9707
558.90 0.9706
559.00 0.9706
559.10 0.9705
559.20 0.9704
559.30 0.9703
559.40 0.9702
559.50 0.9701
559.60 0.9701
559.70 0.97
559.80 0.9699
559.90 0.9698
560.00 0.9697
560.10 0.9696
560.20 0.9695
560.30 0.9695
560.40 0.9694
560.50 0.9693
560.60 0.9692
560.70 0.9691
560.80 0.969
560.90 0.9689
561.00 0.9689
561.10 0.9688
561.20 0.9687
561.30 0.9686
561.40 0.9685
561.50 0.9684
561.60 0.9683
561.70 0.9682
561.80 0.9682
561.90 0.9681
562.00 0.968
562.10 0.9679
562.20 0.9678
562.30 0.9677
562.40 0.9676
562.50 0.9675
562.60 0.9675
562.70 0.9674
562.80 0.9673
562.90 0.9672
563.00 0.9671
563.10 0.967
563.20 0.9669
563.30 0.9668
563.40 0.9668
563.50 0.9667
563.60 0.9666
563.70 0.9665
563.80 0.9664
563.90 0.9663
564.00 0.9662
564.10 0.9661
564.20 0.9661
564.30 0.966
564.40 0.9659
564.50 0.9658
564.60 0.9657
564.70 0.9656
564.80 0.9655
564.90 0.9654
565.00 0.9653
565.10 0.9653
565.20 0.9652
565.30 0.9651
565.40 0.965
565.50 0.9649
565.60 0.9648
565.70 0.9647
565.80 0.9646
565.90 0.9645
566.00 0.9644
566.10 0.9643
566.20 0.9643
566.30 0.9642
566.40 0.9641
566.50 0.964
566.60 0.9639
566.70 0.9638
566.80 0.9637
566.90 0.9636
567.00 0.9635
567.10 0.9634
567.20 0.9633
567.30 0.9633
567.40 0.9632
567.50 0.9631
567.60 0.963
567.70 0.9629
567.80 0.9628
567.90 0.9627
568.00 0.9626
568.10 0.9625
568.20 0.9624
568.30 0.9623
568.40 0.9623
568.50 0.9622
568.60 0.9621
568.70 0.962
568.80 0.9619
568.90 0.9618
569.00 0.9617
569.10 0.9616
569.20 0.9615
569.30 0.9614
569.40 0.9613
569.50 0.9612
569.60 0.9611
569.70 0.961
569.80 0.9609
569.90 0.9608
570.00 0.9608
570.10 0.9607
570.20 0.9606
570.30 0.9605
570.40 0.9604
570.50 0.9603
570.60 0.9602
570.70 0.9601
570.80 0.96
570.90 0.9599
571.00 0.9598
571.10 0.9597
571.20 0.9596
571.30 0.9595
571.40 0.9594
571.50 0.9593
571.60 0.9592
571.70 0.9591
571.80 0.9591
571.90 0.959
572.00 0.9589
572.10 0.9588
572.20 0.9587
572.30 0.9586
572.40 0.9585
572.50 0.9584
572.60 0.9583
572.70 0.9582
572.80 0.9581
572.90 0.958
573.00 0.9579
573.10 0.9578
573.20 0.9577
573.30 0.9576
573.40 0.9575
573.50 0.9574
573.60 0.9573
573.70 0.9572
573.80 0.9571
573.90 0.957
574.00 0.9569
574.10 0.9568
574.20 0.9568
574.30 0.9567
574.40 0.9566
574.50 0.9565
574.60 0.9564
574.70 0.9563
574.80 0.9562
574.90 0.9561
575.00 0.956
575.10 0.9559
575.20 0.9558
575.30 0.9557
575.40 0.9556
575.50 0.9555
575.60 0.9554
575.70 0.9553
575.80 0.9552
575.90 0.9551
576.00 0.955
576.10 0.9549
576.20 0.9548
576.30 0.9547
576.40 0.9546
576.50 0.9545
576.60 0.9544
576.70 0.9543
576.80 0.9542
576.90 0.9541
577.00 0.954
577.10 0.9539
577.20 0.9538
577.30 0.9537
577.40 0.9536
577.50 0.9535
577.60 0.9534
577.70 0.9533
577.80 0.9532
577.90 0.9531
578.00 0.953
578.10 0.9529
578.20 0.9528
578.30 0.9527
578.40 0.9526
578.50 0.9525
578.60 0.9524
578.70 0.9523
578.80 0.9522
578.90 0.9521
579.00 0.952
579.10 0.9519
579.20 0.9518
579.30 0.9517
579.40 0.9516
579.50 0.9515
579.60 0.9514
579.70 0.9513
579.80 0.9512
579.90 0.9511
580.00 0.951
580.10 0.9509
580.20 0.9508
580.30 0.9507
580.40 0.9506
580.50 0.9505
580.60 0.9504
580.70 0.9503
580.80 0.9502
580.90 0.9501
581.00 0.95
581.10 0.9499
581.20 0.9498
581.30 0.9496
581.40 0.9495
581.50 0.9494
581.60 0.9493
581.70 0.9492
581.80 0.9491
581.90 0.949
582.00 0.9489
582.10 0.9488
582.20 0.9487
582.30 0.9486
582.40 0.9485
582.50 0.9484
582.60 0.9483
582.70 0.9482
582.80 0.9481
582.90 0.948
583.00 0.9479
583.10 0.9478
583.20 0.9477
583.30 0.9476
583.40 0.9475
583.50 0.9474
583.60 0.9473
583.70 0.9472
583.80 0.9471
583.90 0.947
584.00 0.9469
584.10 0.9468
584.20 0.9467
584.30 0.9465
584.40 0.9464
584.50 0.9463
584.60 0.9462
584.70 0.9461
584.80 0.946
584.90 0.9459
585.00 0.9458
585.10 0.9457
585.20 0.9456
585.30 0.9455
585.40 0.9454
585.50 0.9453
585.60 0.9452
585.70 0.9451
585.80 0.945
585.90 0.9449
586.00 0.9448
586.10 0.9447
586.20 0.9445
586.30 0.9444
586.40 0.9443
586.50 0.9442
586.60 0.9441
586.70 0.944
586.80 0.9439
586.90 0.9438
587.00 0.9437
587.10 0.9436
587.20 0.9435
587.30 0.9434
587.40 0.9433
587.50 0.9432
587.60 0.9431
587.70 0.9429
587.80 0.9428
587.90 0.9427
588.00 0.9426
588.10 0.9425
588.20 0.9424
588.30 0.9423
588.40 0.9422
588.50 0.9421
588.60 0.942
588.70 0.9419
588.80 0.9418
588.90 0.9417
589.00 0.9415
589.10 0.9414
589.20 0.9413
589.30 0.9412
589.40 0.9411
589.50 0.941
589.60 0.9409
589.70 0.9408
589.80 0.9407
589.90 0.9406
590.00 0.9405
590.10 0.9404
590.20 0.9403
590.30 0.9401
590.40 0.94
590.50 0.9399
590.60 0.9398
590.70 0.9397
590.80 0.9396
590.90 0.9395
591.00 0.9394
591.10 0.9393
591.20 0.9392
591.30 0.9391
591.40 0.939
591.50 0.9388
591.60 0.9387
591.70 0.9386
591.80 0.9385
591.90 0.9384
592.00 0.9383
592.10 0.9382
592.20 0.9381
592.30 0.938
592.40 0.9379
592.50 0.9377
592.60 0.9376
592.70 0.9375
592.80 0.9374
592.90 0.9373
593.00 0.9372
593.10 0.9371
593.20 0.937
593.30 0.9369
593.40 0.9368
593.50 0.9366
593.60 0.9365
593.70 0.9364
593.80 0.9363
593.90 0.9362
594.00 0.9361
594.10 0.936
594.20 0.9359
594.30 0.9358
594.40 0.9356
594.50 0.9355
594.60 0.9354
594.70 0.9353
594.80 0.9352
594.90 0.9351
595.00 0.935
595.10 0.9349
595.20 0.9348
595.30 0.9346
595.40 0.9345
595.50 0.9344
595.60 0.9343
595.70 0.9342
595.80 0.9341
595.90 0.934
596.00 0.9339
596.10 0.9337
596.20 0.9336
596.30 0.9335
596.40 0.9334
596.50 0.9333
596.60 0.9332
596.70 0.9331
596.80 0.933
596.90 0.9328
597.00 0.9327
597.10 0.9326
597.20 0.9325
597.30 0.9324
597.40 0.9323
597.50 0.9322
597.60 0.932
597.70 0.9319
597.80 0.9318
597.90 0.9317
598.00 0.9316
598.10 0.9315
598.20 0.9314
598.30 0.9313
598.40 0.9311
598.50 0.931
598.60 0.9309
598.70 0.9308
598.80 0.9307
598.90 0.9306
599.00 0.9305
599.10 0.9304
599.20 0.9302
599.30 0.9301
599.40 0.93
599.50 0.9299
599.60 0.9298
599.70 0.9297
599.80 0.9296
599.90 0.9294
600.00 0.9293
600.10 0.9292
600.20 0.9291
600.30 0.929
600.40 0.9289
600.50 0.9288
600.60 0.9286
600.70 0.9285
600.80 0.9284
600.90 0.9283
601.00 0.9282
601.10 0.9281
601.20 0.9279
601.30 0.9278
601.40 0.9277
601.50 0.9276
601.60 0.9275
601.70 0.9274
601.80 0.9273
601.90 0.9271
602.00 0.927
602.10 0.9269
602.20 0.9268
602.30 0.9267
602.40 0.9266
602.50 0.9265
602.60 0.9263
602.70 0.9262
602.80 0.9261
602.90 0.926
603.00 0.9259
603.10 0.9258
603.20 0.9256
603.30 0.9255
603.40 0.9254
603.50 0.9253
603.60 0.9252
603.70 0.9251
603.80 0.9249
603.90 0.9248
604.00 0.9247
604.10 0.9246
604.20 0.9245
604.30 0.9244
604.40 0.9242
604.50 0.9241
604.60 0.924
604.70 0.9239
604.80 0.9238
604.90 0.9237
605.00 0.9235
605.10 0.9234
605.20 0.9233
605.30 0.9232
605.40 0.9231
605.50 0.9229
605.60 0.9228
605.70 0.9227
605.80 0.9226
605.90 0.9225
606.00 0.9224
606.10 0.9222
606.20 0.9221
606.30 0.922
606.40 0.9219
606.50 0.9218
606.60 0.9217
606.70 0.9215
606.80 0.9214
606.90 0.9213
607.00 0.9212
607.10 0.9211
607.20 0.921
607.30 0.9208
607.40 0.9207
607.50 0.9206
607.60 0.9205
607.70 0.9204
607.80 0.9202
607.90 0.9201
608.00 0.92
608.10 0.9199
608.20 0.9198
608.30 0.9196
608.40 0.9195
608.50 0.9194
608.60 0.9193
608.70 0.9192
608.80 0.9191
608.90 0.9189
609.00 0.9188
609.10 0.9187
609.20 0.9186
609.30 0.9185
609.40 0.9183
609.50 0.9182
609.60 0.9181
609.70 0.918
609.80 0.9179
609.90 0.9177
610.00 0.9176
610.10 0.9175
610.20 0.9174
610.30 0.9173
610.40 0.9171
610.50 0.917
610.60 0.9169
610.70 0.9168
610.80 0.9167
610.90 0.9165
611.00 0.9164
611.10 0.9163
611.20 0.9162
611.30 0.9161
611.40 0.9159
611.50 0.9158
611.60 0.9157
611.70 0.9156
611.80 0.9155
611.90 0.9153
612.00 0.9152
612.10 0.9151
612.20 0.915
612.30 0.9149
612.40 0.9147
612.50 0.9146
612.60 0.9145
612.70 0.9144
612.80 0.9142
612.90 0.9141
613.00 0.914
613.10 0.9139
613.20 0.9138
613.30 0.9136
613.40 0.9135
613.50 0.9134
613.60 0.9133
613.70 0.9132
613.80 0.913
613.90 0.9129
614.00 0.9128
614.10 0.9127
614.20 0.9126
614.30 0.9124
614.40 0.9123
614.50 0.9122
614.60 0.9121
614.70 0.912
614.80 0.9118
614.90 0.9117
615.00 0.9116
615.10 0.9115
615.20 0.9113
615.30 0.9112
615.40 0.9111
615.50 0.911
615.60 0.9108
615.70 0.9107
615.80 0.9106
615.90 0.9105
616.00 0.9104
616.10 0.9102
616.20 0.9101
616.30 0.91
616.40 0.9099
616.50 0.9097
616.60 0.9096
616.70 0.9095
616.80 0.9094
616.90 0.9093
617.00 0.9091
617.10 0.909
617.20 0.9089
617.30 0.9088
617.40 0.9086
617.50 0.9085
617.60 0.9084
617.70 0.9083
617.80 0.9082
617.90 0.908
618.00 0.9079
618.10 0.9078
618.20 0.9077
618.30 0.9075
618.40 0.9074
618.50 0.9073
618.60 0.9072
618.70 0.907
618.80 0.9069
618.90 0.9068
619.00 0.9067
619.10 0.9065
619.20 0.9064
619.30 0.9063
619.40 0.9062
619.50 0.9061
619.60 0.9059
619.70 0.9058
619.80 0.9057
619.90 0.9056
620.00 0.9054
620.10 0.9053
620.20 0.9052
620.30 0.9051
620.40 0.9049
620.50 0.9048
620.60 0.9047
620.70 0.9046
620.80 0.9044
620.90 0.9043
621.00 0.9042
621.10 0.9041
621.20 0.9039
621.30 0.9038
621.40 0.9037
621.50 0.9036
621.60 0.9034
621.70 0.9033
621.80 0.9032
621.90 0.9031
622.00 0.9029
622.10 0.9028
622.20 0.9027
622.30 0.9026
622.40 0.9024
622.50 0.9023
622.60 0.9022
622.70 0.9021
622.80 0.9019
622.90 0.9018
623.00 0.9017
623.10 0.9016
623.20 0.9014
623.30 0.9013
623.40 0.9012
623.50 0.9011
623.60 0.9009
623.70 0.9008
623.80 0.9007
623.90 0.9006
624.00 0.9004
624.10 0.9003
624.20 0.9002
624.30 0.9001
624.40 0.8999
624.50 0.8998
624.60 0.8997
624.70 0.8996
624.80 0.8994
624.90 0.8993
625.00 0.8992
625.10 0.8991
625.20 0.8989
625.30 0.8988
625.40 0.8987
625.50 0.8986
625.60 0.8984
625.70 0.8983
625.80 0.8982
625.90 0.898
626.00 0.8979
626.10 0.8978
626.20 0.8977
626.30 0.8975
626.40 0.8974
626.50 0.8973
626.60 0.8972
626.70 0.897
626.80 0.8969
626.90 0.8968
627.00 0.8967
627.10 0.8965
627.20 0.8964
627.30 0.8963
627.40 0.8961
627.50 0.896
627.60 0.8959
627.70 0.8958
627.80 0.8956
627.90 0.8955
628.00 0.8954
628.10 0.8953
628.20 0.8951
628.30 0.895
628.40 0.8949
628.50 0.8947
628.60 0.8946
628.70 0.8945
628.80 0.8944
628.90 0.8942
629.00 0.8941
629.10 0.894
629.20 0.8939
629.30 0.8937
629.40 0.8936
629.50 0.8935
629.60 0.8933
629.70 0.8932
629.80 0.8931
629.90 0.893
630.00 0.8928
630.10 0.8927
630.20 0.8926
630.30 0.8925
630.40 0.8923
630.50 0.8922
630.60 0.8921
630.70 0.8919
630.80 0.8918
630.90 0.8917
631.00 0.8916
631.10 0.8914
631.20 0.8913
631.30 0.8912
631.40 0.891
631.50 0.8909
631.60 0.8908
631.70 0.8907
631.80 0.8905
631.90 0.8904
632.00 0.8903
632.10 0.8901
632.20 0.89
632.30 0.8899
632.40 0.8898
632.50 0.8896
632.60 0.8895
632.70 0.8894
632.80 0.8892
632.90 0.8891
633.00 0.889
633.10 0.8889
633.20 0.8887
633.30 0.8886
633.40 0.8885
633.50 0.8883
633.60 0.8882
633.70 0.8881
633.80 0.8879
633.90 0.8878
634.00 0.8877
634.10 0.8876
634.20 0.8874
634.30 0.8873
634.40 0.8872
634.50 0.887
634.60 0.8869
634.70 0.8868
634.80 0.8866
634.90 0.8865
635.00 0.8864
635.10 0.8863
635.20 0.8861
635.30 0.886
635.40 0.8859
635.50 0.8857
635.60 0.8856
635.70 0.8855
635.80 0.8854
635.90 0.8852
636.00 0.8851
636.10 0.885
636.20 0.8848
636.30 0.8847
636.40 0.8846
636.50 0.8844
636.60 0.8843
636.70 0.8842
636.80 0.8841
636.90 0.8839
637.00 0.8838
637.10 0.8837
637.20 0.8835
637.30 0.8834
637.40 0.8833
637.50 0.8831
637.60 0.883
637.70 0.8829
637.80 0.8828
637.90 0.8826
638.00 0.8825
638.10 0.8824
638.20 0.8822
638.30 0.8821
638.40 0.882
638.50 0.8818
638.60 0.8817
638.70 0.8816
638.80 0.8814
638.90 0.8813
639.00 0.8812
639.10 0.8811
639.20 0.8809
639.30 0.8808
639.40 0.8807
639.50 0.8805
639.60 0.8804
639.70 0.8803
639.80 0.8801
639.90 0.88
640.00 0.8799
640.10 0.8797
640.20 0.8796
640.30 0.8795
640.40 0.8794
640.50 0.8792
640.60 0.8791
640.70 0.879
640.80 0.8788
640.90 0.8787
641.00 0.8786
641.10 0.8784
641.20 0.8783
641.30 0.8782
641.40 0.878
641.50 0.8779
641.60 0.8778
641.70 0.8777
641.80 0.8775
641.90 0.8774
642.00 0.8773
642.10 0.8771
642.20 0.877
642.30 0.8769
642.40 0.8767
642.50 0.8766
642.60 0.8765
642.70 0.8763
642.80 0.8762
642.90 0.8761
643.00 0.8759
643.10 0.8758
643.20 0.8757
643.30 0.8755
643.40 0.8754
643.50 0.8753
643.60 0.8751
643.70 0.875
643.80 0.8749
643.90 0.8747
644.00 0.8746
644.10 0.8744
644.20 0.8743
644.30 0.8742
644.40 0.874
644.50 0.8739
644.60 0.8738
644.70 0.8736
644.80 0.8735
644.90 0.8733
645.00 0.8732
645.10 0.8731
645.20 0.8729
645.30 0.8728
645.40 0.8726
645.50 0.8725
645.60 0.8724
645.70 0.8722
645.80 0.8721
645.90 0.8719
646.00 0.8718
646.10 0.8716
646.20 0.8715
646.30 0.8714
646.40 0.8712
646.50 0.8711
646.60 0.8709
646.70 0.8708
646.80 0.8707
646.90 0.8705
647.00 0.8704
647.10 0.8702
647.20 0.8701
647.30 0.87
647.40 0.8698
647.50 0.8697
647.60 0.8695
647.70 0.8694
647.80 0.8692
647.90 0.869
648.00 0.8689
648.10 0.8687
648.20 0.8686
648.30 0.8684
648.40 0.8683
648.50 0.8681
648.60 0.868
648.70 0.8678
648.80 0.8676
648.90 0.8675
649.00 0.8673
649.10 0.8672
649.20 0.867
649.30 0.8669
649.40 0.8667
649.50 0.8665
649.60 0.8664
649.70 0.8662
649.80 0.866
649.90 0.8659
650.00 0.8657
650.10 0.8655
650.20 0.8654
650.30 0.8652
650.40 0.865
650.50 0.8648
650.60 0.8646
650.70 0.8645
650.80 0.8643
650.90 0.8641
651.00 0.8639
651.10 0.8637
651.20 0.8635
651.30 0.8633
651.40 0.8631
651.50 0.8629
651.60 0.8627
651.70 0.8625
651.80 0.8622
651.90 0.862
652.00 0.8618
652.10 0.8616
652.20 0.8614
652.30 0.8611
652.40 0.8608
652.50 0.8605
652.60 0.8602
652.70 0.8599
652.80 0.8596
652.90 0.8592
653.00 0.8589
653.10 0.8586
653.20 0.8583
653.30 0.8579
653.40 0.8573
653.50 0.8567
653.60 0.8561
653.70 0.8555
653.80 0.8549
653.90 0.8542
654.00 0.8536
654.10 0.853
654.20 0.8524
654.30 0.8516
654.40 0.8503
654.50 0.849
654.60 0.8476
654.70 0.8463
654.80 0.8446
654.90 0.8415
655.00 0.8385
655.10 0.8355
655.20 0.8325
655.30 0.8288
655.40 0.8228
655.50 0.8159
655.60 0.8058
655.70 0.794
655.80 0.7753
655.90 0.752
656.00 0.7104
656.10 0.6631
656.20 0.548
656.30 0.3957
656.40 0.6044
656.50 0.6839
656.60 0.7257
656.70 0.7628
656.80 0.7813
656.90 0.7982
657.00 0.808
657.10 0.8171
657.20 0.8229
657.30 0.8281
657.40 0.8308
657.50 0.8336
657.60 0.8364
657.70 0.8391
657.80 0.8415
657.90 0.8426
658.00 0.8437
658.10 0.8447
658.20 0.8458
658.30 0.8467
658.40 0.8471
658.50 0.8474
658.60 0.8478
658.70 0.8481
658.80 0.8484
658.90 0.8488
659.00 0.8491
659.10 0.8495
659.20 0.8498
659.30 0.8501
659.40 0.8501
659.50 0.8502
659.60 0.8502
659.70 0.8502
659.80 0.8503
659.90 0.8503
660.00 0.8504
660.10 0.8504
660.20 0.8504
660.30 0.8505
660.40 0.8504
660.50 0.8504
660.60 0.8503
660.70 0.8503
660.80 0.8502
660.90 0.8502
661.00 0.8501
661.10 0.8501
661.20 0.85
661.30 0.8499
661.40 0.8499
661.50 0.8498
661.60 0.8497
661.70 0.8496
661.80 0.8495
661.90 0.8494
662.00 0.8493
662.10 0.8492
662.20 0.8492
662.30 0.8491
662.40 0.849
662.50 0.8489
662.60 0.8488
662.70 0.8486
662.80 0.8485
662.90 0.8484
663.00 0.8483
663.10 0.8482
663.20 0.8481
663.30 0.848
663.40 0.8479
663.50 0.8478
663.60 0.8477
663.70 0.8476
663.80 0.8474
663.90 0.8473
664.00 0.8472
664.10 0.8471
664.20 0.847
664.30 0.8469
664.40 0.8468
664.50 0.8466
664.60 0.8465
664.70 0.8464
664.80 0.8463
664.90 0.8462
665.00 0.8461
665.10 0.8459
665.20 0.8458
665.30 0.8457
665.40 0.8456
665.50 0.8454
665.60 0.8453
665.70 0.8452
665.80 0.845
665.90 0.8449
666.00 0.8448
666.10 0.8446
666.20 0.8445
666.30 0.8444
666.40 0.8443
666.50 0.8441
666.60 0.844
666.70 0.8439
666.80 0.8438
666.90 0.8436
667.00 0.8435
667.10 0.8434
667.20 0.8433
667.30 0.8431
667.40 0.843
667.50 0.8429
667.60 0.8427
667.70 0.8426
667.80 0.8425
667.90 0.8423
668.00 0.8422
668.10 0.8421
668.20 0.8419
668.30 0.8418
668.40 0.8417
668.50 0.8415
668.60 0.8414
668.70 0.8413
668.80 0.8411
668.90 0.841
669.00 0.8409
669.10 0.8407
669.20 0.8406
669.30 0.8405
669.40 0.8403
669.50 0.8402
669.60 0.8401
669.70 0.8399
669.80 0.8398
669.90 0.8396
670.00 0.8395
670.10 0.8394
670.20 0.8392
670.30 0.8391
670.40 0.839
670.50 0.8388
670.60 0.8387
670.70 0.8385
670.80 0.8384
670.90 0.8383
671.00 0.8381
671.10 0.838
671.20 0.8379
671.30 0.8377
671.40 0.8376
671.50 0.8375
671.60 0.8373
671.70 0.8372
671.80 0.837
671.90 0.8369
672.00 0.8368
672.10 0.8366
672.20 0.8365
672.30 0.8364
672.40 0.8362
672.50 0.8361
672.60 0.8359
672.70 0.8358
672.80 0.8357
672.90 0.8355
673.00 0.8354
673.10 0.8353
673.20 0.8351
673.30 0.835
673.40 0.8348
673.50 0.8347
673.60 0.8346
673.70 0.8344
673.80 0.8343
673.90 0.8341
674.00 0.834
674.10 0.8339
674.20 0.8337
674.30 0.8336
674.40 0.8335
674.50 0.8333
674.60 0.8332
674.70 0.833
674.80 0.8329
674.90 0.8328
675.00 0.8326
675.10 0.8325
675.20 0.8324
675.30 0.8322
675.40 0.8321
675.50 0.8319
675.60 0.8318
675.70 0.8317
675.80 0.8315
675.90 0.8314
676.00 0.8313
676.10 0.8311
676.20 0.831
676.30 0.8308
676.40 0.8307
676.50 0.8306
676.60 0.8304
676.70 0.8303
676.80 0.8301
676.90 0.83
677.00 0.8299
677.10 0.8297
677.20 0.8296
677.30 0.8295
677.40 0.8293
677.50 0.8292
677.60 0.829
677.70 0.8289
677.80 0.8288
677.90 0.8286
678.00 0.8285
678.10 0.8284
678.20 0.8282
678.30 0.8281
678.40 0.8279
678.50 0.8278
678.60 0.8277
678.70 0.8275
678.80 0.8274
678.90 0.8272
679.00 0.8271
679.10 0.827
679.20 0.8268
679.30 0.8267
679.40 0.8265
679.50 0.8264
679.60 0.8263
679.70 0.8261
679.80 0.826
679.90 0.8259
680.00 0.8257
680.10 0.8256
680.20 0.8254
680.30 0.8253
680.40 0.8252
680.50 0.825
680.60 0.8249
680.70 0.8248
680.80 0.8246
680.90 0.8245
681.00 0.8243
681.10 0.8242
681.20 0.8241
681.30 0.8239
681.40 0.8238
681.50 0.8236
681.60 0.8235
681.70 0.8234
681.80 0.8232
681.90 0.8231
682.00 0.823
682.10 0.8228
682.20 0.8227
682.30 0.8225
682.40 0.8224
682.50 0.8223
682.60 0.8221
682.70 0.822
682.80 0.8218
682.90 0.8217
683.00 0.8216
683.10 0.8214
683.20 0.8213
683.30 0.8211
683.40 0.821
683.50 0.8209
683.60 0.8207
683.70 0.8206
683.80 0.8204
683.90 0.8203
684.00 0.8202
684.10 0.82
684.20 0.8199
684.30 0.8198
684.40 0.8196
684.50 0.8195
684.60 0.8193
684.70 0.8192
684.80 0.8191
684.90 0.8189
685.00 0.8188
685.10 0.8186
685.20 0.8185
685.30 0.8184
685.40 0.8182
685.50 0.8181
685.60 0.818
685.70 0.8178
685.80 0.8177
685.90 0.8175
686.00 0.8174
686.10 0.8173
686.20 0.8171
686.30 0.817
686.40 0.8168
686.50 0.8167
686.60 0.8166
686.70 0.8164
686.80 0.8163
686.90 0.8161
687.00 0.816
687.10 0.8159
687.20 0.8157
687.30 0.8156
687.40 0.8154
687.50 0.8153
687.60 0.8152
687.70 0.815
687.80 0.8149
687.90 0.8148
688.00 0.8146
688.10 0.8145
688.20 0.8143
688.30 0.8142
688.40 0.8141
688.50 0.8139
688.60 0.8138
688.70 0.8136
688.80 0.8135
688.90 0.8134
689.00 0.8132
689.10 0.8131
689.20 0.8129
689.30 0.8128
689.40 0.8127
689.50 0.8125
689.60 0.8124
689.70 0.8122
689.80 0.8121
689.90 0.812
690.00 0.8118
690.10 0.8117
690.20 0.8115
690.30 0.8114
690.40 0.8113
690.50 0.8111
690.60 0.811
690.70 0.8108
690.80 0.8107
690.90 0.8106
691.00 0.8104
691.10 0.8103
691.20 0.8101
691.30 0.81
691.40 0.8099
691.50 0.8097
691.60 0.8096
691.70 0.8094
691.80 0.8093
691.90 0.8092
692.00 0.809
692.10 0.8089
692.20 0.8087
692.30 0.8086
692.40 0.8085
692.50 0.8083
692.60 0.8082
692.70 0.808
692.80 0.8079
692.90 0.8078
693.00 0.8076
693.10 0.8075
693.20 0.8074
693.30 0.8072
693.40 0.8071
693.50 0.8069
693.60 0.8068
693.70 0.8067
693.80 0.8065
693.90 0.8064
694.00 0.8062
694.10 0.8061
694.20 0.806
694.30 0.8058
694.40 0.8057
694.50 0.8056
694.60 0.8054
694.70 0.8053
694.80 0.8051
694.90 0.805
695.00 0.8049
695.10 0.8047
695.20 0.8046
695.30 0.8044
695.40 0.8043
695.50 0.8042
695.60 0.804
695.70 0.8039
695.80 0.8037
695.90 0.8036
696.00 0.8035
696.10 0.8033
696.20 0.8032
696.30 0.803
696.40 0.8029
696.50 0.8028
696.60 0.8026
696.70 0.8025
696.80 0.8023
696.90 0.8022
697.00 0.8021
697.10 0.8019
697.20 0.8018
697.30 0.8016
697.40 0.8015
697.50 0.8014
697.60 0.8012
697.70 0.8011
697.80 0.8009
697.90 0.8008
698.00 0.8007
698.10 0.8005
698.20 0.8004
698.30 0.8002
698.40 0.8001
698.50 0.8
698.60 0.7998
698.70 0.7997
698.80 0.7995
698.90 0.7994
699.00 0.7993
699.10 0.7991
699.20 0.799
699.30 0.7988
699.40 0.7987
699.50 0.7986
699.60 0.7984
699.70 0.7983
699.80 0.7982
699.90 0.798
700.00 0.7979
700.10 0.7977
700.20 0.7976
700.30 0.7975
700.40 0.7973
700.50 0.7972
700.60 0.797
700.70 0.7969
700.80 0.7967
700.90 0.7966
701.00 0.7965
701.10 0.7963
701.20 0.7962
701.30 0.796
701.40 0.7959
701.50 0.7958
701.60 0.7956
701.70 0.7955
701.80 0.7953
701.90 0.7952
702.00 0.7951
702.10 0.7949
702.20 0.7948
702.30 0.7946
702.40 0.7945
702.50 0.7944
702.60 0.7942
702.70 0.7941
702.80 0.7939
702.90 0.7938
703.00 0.7937
703.10 0.7935
703.20 0.7934
703.30 0.7933
703.40 0.7931
703.50 0.793
703.60 0.7928
703.70 0.7927
703.80 0.7926
703.90 0.7924
704.00 0.7923
704.10 0.7921
704.20 0.792
704.30 0.7919
704.40 0.7917
704.50 0.7916
704.60 0.7914
704.70 0.7913
704.80 0.7912
704.90 0.791
705.00 0.7909
705.10 0.7907
705.20 0.7906
705.30 0.7905
705.40 0.7903
705.50 0.7902
705.60 0.79
705.70 0.7899
705.80 0.7898
705.90 0.7896
706.00 0.7895
706.10 0.7893
706.20 0.7892
706.30 0.7891
706.40 0.7889
706.50 0.7888
706.60 0.7886
706.70 0.7885
706.80 0.7884
706.90 0.7882
707.00 0.7881
707.10 0.7879
707.20 0.7878
707.30 0.7877
707.40 0.7875
707.50 0.7874
707.60 0.7872
707.70 0.7871
707.80 0.787
707.90 0.7868
708.00 0.7867
708.10 0.7865
708.20 0.7864
708.30 0.7863
708.40 0.7861
708.50 0.786
708.60 0.7859
708.70 0.7857
708.80 0.7856
708.90 0.7854
709.00 0.7853
709.10 0.7852
709.20 0.785
709.30 0.7849
709.40 0.7847
709.50 0.7846
709.60 0.7845
709.70 0.7843
709.80 0.7842
709.90 0.784
710.00 0.7839
710.10 0.7838
710.20 0.7836
710.30 0.7835
710.40 0.7833
710.50 0.7832
710.60 0.7831
710.70 0.7829
710.80 0.7828
710.90 0.7826
711.00 0.7825
711.10 0.7824
711.20 0.7822
711.30 0.7821
711.40 0.7819
711.50 0.7818
711.60 0.7817
711.70 0.7815
711.80 0.7814
711.90 0.7812
712.00 0.7811
712.10 0.781
712.20 0.7808
712.30 0.7807
712.40 0.7805
712.50 0.7804
712.60 0.7803
712.70 0.7801
712.80 0.78
712.90 0.7798
713.00 0.7797
713.10 0.7796
713.20 0.7794
713.30 0.7793
713.40 0.7791
713.50 0.779
713.60 0.7789
713.70 0.7787
713.80 0.7786
713.90 0.7784
714.00 0.7783
714.10 0.7782
714.20 0.778
714.30 0.7779
714.40 0.7778
714.50 0.7776
714.60 0.7775
714.70 0.7773
714.80 0.7772
714.90 0.7771
715.00 0.7769
715.10 0.7768
715.20 0.7766
715.30 0.7765
715.40 0.7764
715.50 0.7762
715.60 0.7761
715.70 0.7759
715.80 0.7758
715.90 0.7757
716.00 0.7755
716.10 0.7754
716.20 0.7752
716.30 0.7751
716.40 0.775
716.50 0.7748
716.60 0.7747
716.70 0.7745
716.80 0.7744
716.90 0.7743
717.00 0.7741
717.10 0.774
717.20 0.7738
717.30 0.7737
717.40 0.7736
717.50 0.7734
717.60 0.7733
717.70 0.7731
717.80 0.773
717.90 0.7729
718.00 0.7727
718.10 0.7726
718.20 0.7724
718.30 0.7723
718.40 0.7722
718.50 0.772
718.60 0.7719
718.70 0.7717
718.80 0.7716
718.90 0.7715
719.00 0.7713
719.10 0.7712
719.20 0.771
719.30 0.7709
719.40 0.7708
719.50 0.7706
719.60 0.7705
719.70 0.7704
719.80 0.7702
719.90 0.7701
720.00 0.7699
720.10 0.7698
720.20 0.7697
720.30 0.7695
720.40 0.7694
720.50 0.7692
720.60 0.7691
720.70 0.769
720.80 0.7688
720.90 0.7687
721.00 0.7685
721.10 0.7684
721.20 0.7683
721.30 0.7681
721.40 0.768
721.50 0.7678
721.60 0.7677
721.70 0.7676
721.80 0.7674
721.90 0.7673
722.00 0.7671
722.10 0.767
722.20 0.7669
722.30 0.7667
722.40 0.7666
722.50 0.7664
722.60 0.7663
722.70 0.7662
722.80 0.766
722.90 0.7659
723.00 0.7657
723.10 0.7656
723.20 0.7655
723.30 0.7653
723.40 0.7652
723.50 0.765
723.60 0.7649
723.70 0.7648
723.80 0.7646
723.90 0.7645
724.00 0.7643
724.10 0.7642
724.20 0.7641
724.30 0.7639
724.40 0.7638
724.50 0.7637
724.60 0.7635
724.70 0.7634
724.80 0.7632
724.90 0.7631
725.00 0.763
725.10 0.7628
725.20 0.7627
725.30 0.7625
725.40 0.7624
725.50 0.7623
725.60 0.7621
725.70 0.762
725.80 0.7618
725.90 0.7617
726.00 0.7616
726.10 0.7614
726.20 0.7613
726.30 0.7611
726.40 0.761
726.50 0.7609
726.60 0.7607
726.70 0.7606
726.80 0.7604
726.90 0.7603
727.00 0.7602
727.10 0.76
727.20 0.7599
727.30 0.7597
727.40 0.7596
727.50 0.7595
727.60 0.7593
727.70 0.7592
727.80 0.759
727.90 0.7589
728.00 0.7588
728.10 0.7586
728.20 0.7585
728.30 0.7584
728.40 0.7582
728.50 0.7581
728.60 0.7579
728.70 0.7578
728.80 0.7577
728.90 0.7575
729.00 0.7574
729.10 0.7572
729.20 0.7571
729.30 0.757
729.40 0.7568
729.50 0.7567
729.60 0.7566
729.70 0.7564
729.80 0.7563
729.90 0.7561
730.00 0.756
730.10 0.7559
730.20 0.7557
730.30 0.7556
730.40 0.7554
730.50 0.7553
730.60 0.7552
730.70 0.755
730.80 0.7549
730.90 0.7547
731.00 0.7546
731.10 0.7544
731.20 0.7543
731.30 0.7542
731.40 0.754
731.50 0.7539
731.60 0.7537
731.70 0.7536
731.80 0.7535
731.90 0.7533
732.00 0.7532
732.10 0.753
732.20 0.7529
732.30 0.7528
732.40 0.7526
732.50 0.7525
732.60 0.7523
732.70 0.7522
732.80 0.7521
732.90 0.7519
733.00 0.7518
733.10 0.7516
733.20 0.7515
733.30 0.7514
733.40 0.7512
733.50 0.7511
733.60 0.751
733.70 0.7508
733.80 0.7507
733.90 0.7505
734.00 0.7504
734.10 0.7503
734.20 0.7501
734.30 0.75
734.40 0.7498
734.50 0.7497
734.60 0.7496
734.70 0.7494
734.80 0.7493
734.90 0.7491
735.00 0.749
735.10 0.7489
735.20 0.7487
735.30 0.7486
735.40 0.7485
735.50 0.7483
735.60 0.7482
735.70 0.748
735.80 0.7479
735.90 0.7478
736.00 0.7476
736.10 0.7475
736.20 0.7473
736.30 0.7472
736.40 0.7471
736.50 0.7469
736.60 0.7468
736.70 0.7467
736.80 0.7465
736.90 0.7464
737.00 0.7462
737.10 0.7461
737.20 0.746
737.30 0.7458
737.40 0.7457
737.50 0.7456
737.60 0.7454
737.70 0.7453
737.80 0.7451
737.90 0.745
738.00 0.7449
738.10 0.7447
738.20 0.7446
738.30 0.7445
738.40 0.7443
738.50 0.7442
738.60 0.744
738.70 0.7439
738.80 0.7438
738.90 0.7436
739.00 0.7435
739.10 0.7434
739.20 0.7432
739.30 0.7431
739.40 0.7429
739.50 0.7428
739.60 0.7427
739.70 0.7425
739.80 0.7424
739.90 0.7423
740.00 0.7421
740.10 0.742
740.20 0.7418
740.30 0.7417
740.40 0.7416
740.50 0.7414
740.60 0.7413
740.70 0.7411
740.80 0.741
740.90 0.7409
741.00 0.7407
741.10 0.7406
741.20 0.7404
741.30 0.7403
741.40 0.7402
741.50 0.74
741.60 0.7399
741.70 0.7397
741.80 0.7396
741.90 0.7395
742.00 0.7393
742.10 0.7392
742.20 0.7391
742.30 0.7389
742.40 0.7388
742.50 0.7386
742.60 0.7385
742.70 0.7384
742.80 0.7382
742.90 0.7381
743.00 0.7379
743.10 0.7378
743.20 0.7377
743.30 0.7375
743.40 0.7374
743.50 0.7372
743.60 0.7371
743.70 0.737
743.80 0.7368
743.90 0.7367
744.00 0.7366
744.10 0.7364
744.20 0.7363
744.30 0.7361
744.40 0.736
744.50 0.7359
744.60 0.7357
744.70 0.7356
744.80 0.7354
744.90 0.7353
745.00 0.7352
745.10 0.735
745.20 0.7349
745.30 0.7348
745.40 0.7346
745.50 0.7345
745.60 0.7343
745.70 0.7342
745.80 0.7341
745.90 0.7339
746.00 0.7338
746.10 0.7337
746.20 0.7335
746.30 0.7334
746.40 0.7332
746.50 0.7331
746.60 0.733
746.70 0.7328
746.80 0.7327
746.90 0.7326
747.00 0.7324
747.10 0.7323
747.20 0.7321
747.30 0.732
747.40 0.7319
747.50 0.7317
747.60 0.7316
747.70 0.7315
747.80 0.7313
747.90 0.7312
748.00 0.7311
748.10 0.7309
748.20 0.7308
748.30 0.7306
748.40 0.7305
748.50 0.7304
748.60 0.7302
748.70 0.7301
748.80 0.73
748.90 0.7298
749.00 0.7297
749.10 0.7296
749.20 0.7294
749.30 0.7293
749.40 0.7291
749.50 0.729
749.60 0.7289
749.70 0.7287
749.80 0.7286
749.90 0.7285
750.00 0.7283
750.10 0.7282
750.20 0.7281
750.30 0.7279
750.40 0.7278
750.50 0.7276
750.60 0.7275
750.70 0.7274
750.80 0.7272
750.90 0.7271
751.00 0.7269
751.10 0.7268
751.20 0.7267
751.30 0.7265
751.40 0.7264
751.50 0.7262
751.60 0.7261
751.70 0.726
751.80 0.7258
751.90 0.7257
752.00 0.7256
752.10 0.7254
752.20 0.7253
752.30 0.7251
752.40 0.725
752.50 0.7249
752.60 0.7247
752.70 0.7246
752.80 0.7244
752.90 0.7243
753.00 0.7242
753.10 0.724
753.20 0.7239
753.30 0.7238
753.40 0.7236
753.50 0.7235
753.60 0.7233
753.70 0.7232
753.80 0.7231
753.90 0.7229
754.00 0.7228
754.10 0.7227
754.20 0.7225
754.30 0.7224
754.40 0.7222
754.50 0.7221
754.60 0.722
754.70 0.7218
754.80 0.7217
754.90 0.7216
755.00 0.7214
755.10 0.7213
755.20 0.7212
755.30 0.721
755.40 0.7209
755.50 0.7207
755.60 0.7206
755.70 0.7205
755.80 0.7203
755.90 0.7202
756.00 0.7201
756.10 0.7199
756.20 0.7198
756.30 0.7196
756.40 0.7195
756.50 0.7194
756.60 0.7192
756.70 0.7191
756.80 0.719
756.90 0.7188
757.00 0.7187
757.10 0.7186
757.20 0.7184
757.30 0.7183
757.40 0.7182
757.50 0.718
757.60 0.7179
757.70 0.7177
757.80 0.7176
757.90 0.7175
758.00 0.7173
758.10 0.7172
758.20 0.7171
758.30 0.7169
758.40 0.7168
758.50 0.7167
758.60 0.7165
758.70 0.7164
758.80 0.7163
758.90 0.7161
759.00 0.716
759.10 0.7158
759.20 0.7157
759.30 0.7156
759.40 0.7154
759.50 0.7153
759.60 0.7152
759.70 0.715
759.80 0.7149
759.90 0.7148
760.00 0.7146
760.10 0.7145
760.20 0.7144
760.30 0.7142
760.40 0.7141
760.50 0.7139
760.60 0.7138
760.70 0.7137
760.80 0.7135
760.90 0.7134
761.00 0.7133
761.10 0.7131
761.20 0.713
761.30 0.7128
761.40 0.7127
761.50 0.7126
761.60 0.7124
761.70 0.7123
761.80 0.7122
761.90 0.712
762.00 0.7119
762.10 0.7117
762.20 0.7116
762.30 0.7115
762.40 0.7113
762.50 0.7112
762.60 0.7111
762.70 0.7109
762.80 0.7108
762.90 0.7107
763.00 0.7105
763.10 0.7104
763.20 0.7102
763.30 0.7101
763.40 0.71
763.50 0.7098
763.60 0.7097
763.70 0.7096
763.80 0.7094
763.90 0.7093
764.00 0.7091
764.10 0.709
764.20 0.7089
764.30 0.7087
764.40 0.7086
764.50 0.7085
764.60 0.7083
764.70 0.7082
764.80 0.7081
764.90 0.7079
765.00 0.7078
765.10 0.7077
765.20 0.7075
765.30 0.7074
765.40 0.7072
765.50 0.7071
765.60 0.707
765.70 0.7068
765.80 0.7067
765.90 0.7066
766.00 0.7064
766.10 0.7063
766.20 0.7062
766.30 0.706
766.40 0.7059
766.50 0.7058
766.60 0.7056
766.70 0.7055
766.80 0.7054
766.90 0.7052
767.00 0.7051
767.10 0.7049
767.20 0.7048
767.30 0.7047
767.40 0.7045
767.50 0.7044
767.60 0.7043
767.70 0.7041
767.80 0.704
767.90 0.7039
768.00 0.7037
768.10 0.7036
768.20 0.7035
768.30 0.7033
768.40 0.7032
768.50 0.7031
768.60 0.7029
768.70 0.7028
768.80 0.7027
768.90 0.7025
769.00 0.7024
769.10 0.7023
769.20 0.7021
769.30 0.702
769.40 0.7019
769.50 0.7017
769.60 0.7016
769.70 0.7015
769.80 0.7013
769.90 0.7012
770.00 0.7011
770.10 0.7009
770.20 0.7008
770.30 0.7006
770.40 0.7005
770.50 0.7004
770.60 0.7002
770.70 0.7001
770.80 0.7
770.90 0.6998
771.00 0.6997
771.10 0.6996
771.20 0.6994
771.30 0.6993
771.40 0.6992
771.50 0.699
771.60 0.6989
771.70 0.6987
771.80 0.6986
771.90 0.6985
772.00 0.6983
772.10 0.6982
772.20 0.6981
772.30 0.6979
772.40 0.6978
772.50 0.6977
772.60 0.6975
772.70 0.6974
772.80 0.6973
772.90 0.6971
773.00 0.697
773.10 0.6968
773.20 0.6967
773.30 0.6966
773.40 0.6964
773.50 0.6963
773.60 0.6962
773.70 0.696
773.80 0.6959
773.90 0.6958
774.00 0.6956
774.10 0.6955
774.20 0.6954
774.30 0.6952
774.40 0.6951
774.50 0.695
774.60 0.6948
774.70 0.6947
774.80 0.6946
774.90 0.6944
775.00 0.6943
775.10 0.6942
775.20 0.694
775.30 0.6939
775.40 0.6937
775.50 0.6936
775.60 0.6935
775.70 0.6933
775.80 0.6932
775.90 0.6931
776.00 0.6929
776.10 0.6928
776.20 0.6927
776.30 0.6925
776.40 0.6924
776.50 0.6923
776.60 0.6921
776.70 0.692
776.80 0.6919
776.90 0.6917
777.00 0.6916
777.10 0.6915
777.20 0.6913
777.30 0.6912
777.40 0.6911
777.50 0.6909
777.60 0.6908
777.70 0.6907
777.80 0.6905
777.90 0.6904
778.00 0.6903
778.10 0.6901
778.20 0.69
778.30 0.6899
778.40 0.6897
778.50 0.6896
778.60 0.6895
778.70 0.6893
778.80 0.6892
778.90 0.6891
779.00 0.6889
779.10 0.6888
779.20 0.6887
779.30 0.6886
779.40 0.6884
779.50 0.6883
779.60 0.6882
779.70 0.688
779.80 0.6879
779.90 0.6878
780.00 0.6876
780.10 0.6875
780.20 0.6874
780.30 0.6872
780.40 0.6871
780.50 0.6869
780.60 0.6868
780.70 0.6867
780.80 0.6865
780.90 0.6864
781.00 0.6863
781.10 0.6861
781.20 0.686
781.30 0.6859
781.40 0.6857
781.50 0.6856
781.60 0.6855
781.70 0.6853
781.80 0.6852
781.90 0.6851
782.00 0.6849
782.10 0.6848
782.20 0.6847
782.30 0.6845
782.40 0.6844
782.50 0.6843
782.60 0.6841
782.70 0.684
782.80 0.6839
782.90 0.6837
783.00 0.6836
783.10 0.6835
783.20 0.6833
783.30 0.6832
783.40 0.6831
783.50 0.6829
783.60 0.6828
783.70 0.6827
783.80 0.6825
783.90 0.6824
784.00 0.6823
784.10 0.6821
784.20 0.682
784.30 0.6819
784.40 0.6817
784.50 0.6816
784.60 0.6815
784.70 0.6813
784.80 0.6812
784.90 0.6811
785.00 0.6809
785.10 0.6808
785.20 0.6807
785.30 0.6805
785.40 0.6804
785.50 0.6803
785.60 0.6801
785.70 0.68
785.80 0.6799
785.90 0.6797
786.00 0.6796
786.10 0.6795
786.20 0.6793
786.30 0.6792
786.40 0.6791
786.50 0.6789
786.60 0.6788
786.70 0.6787
786.80 0.6785
786.90 0.6784
787.00 0.6783
787.10 0.6781
787.20 0.678
787.30 0.6779
787.40 0.6777
787.50 0.6776
787.60 0.6775
787.70 0.6774
787.80 0.6772
787.90 0.6771
788.00 0.677
788.10 0.6768
788.20 0.6767
788.30 0.6766
788.40 0.6764
788.50 0.6763
788.60 0.6762
788.70 0.676
788.80 0.6759
788.90 0.6758
789.00 0.6756
789.10 0.6755
789.20 0.6754
789.30 0.6753
789.40 0.6751
789.50 0.675
789.60 0.6749
789.70 0.6747
789.80 0.6746
789.90 0.6745
790.00 0.6743
790.10 0.6742
790.20 0.6741
790.30 0.6739
790.40 0.6738
790.50 0.6737
790.60 0.6735
790.70 0.6734
790.80 0.6733
790.90 0.6731
791.00 0.673
791.10 0.6729
791.20 0.6727
791.30 0.6726
791.40 0.6725
791.50 0.6723
791.60 0.6722
791.70 0.6721
791.80 0.6719
791.90 0.6718
792.00 0.6717
792.10 0.6715
792.20 0.6714
792.30 0.6713
792.40 0.6711
792.50 0.671
792.60 0.6709
792.70 0.6707
792.80 0.6706
792.90 0.6705
793.00 0.6703
793.10 0.6702
793.20 0.6701
793.30 0.67
793.40 0.6698
793.50 0.6697
793.60 0.6696
793.70 0.6694
793.80 0.6693
793.90 0.6692
794.00 0.669
794.10 0.6689
794.20 0.6688
794.30 0.6686
794.40 0.6685
794.50 0.6684
794.60 0.6682
794.70 0.6681
794.80 0.668
794.90 0.6678
795.00 0.6677
795.10 0.6676
795.20 0.6675
795.30 0.6673
795.40 0.6672
795.50 0.6671
795.60 0.6669
795.70 0.6668
795.80 0.6667
795.90 0.6665
796.00 0.6664
796.10 0.6663
796.20 0.6661
796.30 0.666
796.40 0.6659
796.50 0.6657
796.60 0.6656
796.70 0.6655
796.80 0.6654
796.90 0.6652
797.00 0.6651
797.10 0.665
797.20 0.6648
797.30 0.6647
797.40 0.6646
797.50 0.6644
797.60 0.6643
797.70 0.6642
797.80 0.6641
797.90 0.6639
798.00 0.6638
798.10 0.6637
798.20 0.6635
798.30 0.6634
798.40 0.6633
798.50 0.6631
798.60 0.663
798.70 0.6629
798.80 0.6628
798.90 0.6626
799.00 0.6625
799.10 0.6624
799.20 0.6622
799.30 0.6621
799.40 0.662
799.50 0.6618
799.60 0.6617
799.70 0.6616
799.80 0.6615
799.90 0.6613
800.00 0.6612
800.10 0.6611
800.20 0.6609
800.30 0.6608
800.40 0.6607
800.50 0.6605
800.60 0.6604
800.70 0.6603
800.80 0.6602
800.90 0.66
801.00 0.6599
801.10 0.6598
801.20 0.6596
801.30 0.6595
801.40 0.6594
801.50 0.6592
801.60 0.6591
801.70 0.659
801.80 0.6588
801.90 0.6587
802.00 0.6586
802.10 0.6584
802.20 0.6583
802.30 0.6582
802.40 0.6581
802.50 0.6579
802.60 0.6578
802.70 0.6577
802.80 0.6575
802.90 0.6574
803.00 0.6573
803.10 0.6571
803.20 0.657
803.30 0.6569
803.40 0.6567
803.50 0.6566
803.60 0.6565
803.70 0.6564
803.80 0.6562
803.90 0.6561
804.00 0.656
804.10 0.6558
804.20 0.6557
804.30 0.6556
804.40 0.6554
804.50 0.6553
804.60 0.6552
804.70 0.6551
804.80 0.6549
804.90 0.6548
805.00 0.6547
805.10 0.6545
805.20 0.6544
805.30 0.6543
805.40 0.6542
805.50 0.654
805.60 0.6539
805.70 0.6538
805.80 0.6536
805.90 0.6535
806.00 0.6534
806.10 0.6532
806.20 0.6531
806.30 0.653
806.40 0.6529
806.50 0.6527
806.60 0.6526
806.70 0.6525
806.80 0.6523
806.90 0.6522
807.00 0.6521
807.10 0.652
807.20 0.6518
807.30 0.6517
807.40 0.6516
807.50 0.6514
807.60 0.6513
807.70 0.6512
807.80 0.6511
807.90 0.6509
808.00 0.6508
808.10 0.6507
808.20 0.6505
808.30 0.6504
808.40 0.6503
808.50 0.6502
808.60 0.65
808.70 0.6499
808.80 0.6498
808.90 0.6496
809.00 0.6495
809.10 0.6494
809.20 0.6493
809.30 0.6491
809.40 0.649
809.50 0.6489
809.60 0.6488
809.70 0.6486
809.80 0.6485
809.90 0.6484
810.00 0.6482
810.10 0.6481
810.20 0.648
810.30 0.6479
810.40 0.6477
810.50 0.6476
810.60 0.6475
810.70 0.6473
810.80 0.6472
810.90 0.6471
811.00 0.6469
811.10 0.6468
811.20 0.6467
811.30 0.6466
811.40 0.6464
811.50 0.6463
811.60 0.6462
811.70 0.646
811.80 0.6459
811.90 0.6458
812.00 0.6457
812.10 0.6455
812.20 0.6454
812.30 0.6453
812.40 0.6451
812.50 0.645
812.60 0.6449
812.70 0.6448
812.80 0.6446
812.90 0.6445
813.00 0.6444
813.10 0.6442
813.20 0.6441
813.30 0.644
813.40 0.6439
813.50 0.6437
813.60 0.6436
813.70 0.6435
813.80 0.6433
813.90 0.6432
814.00 0.6431
814.10 0.643
814.20 0.6428
814.30 0.6427
814.40 0.6426
814.50 0.6424
814.60 0.6423
814.70 0.6422
814.80 0.6421
814.90 0.6419
815.00 0.6418
815.10 0.6417
815.20 0.6415
815.30 0.6414
815.40 0.6413
815.50 0.6412
815.60 0.641
815.70 0.6409
815.80 0.6408
815.90 0.6407
816.00 0.6405
816.10 0.6404
816.20 0.6403
816.30 0.6401
816.40 0.64
816.50 0.6399
816.60 0.6398
816.70 0.6396
816.80 0.6395
816.90 0.6394
817.00 0.6393
817.10 0.6391
817.20 0.639
817.30 0.6389
817.40 0.6387
817.50 0.6386
817.60 0.6385
817.70 0.6384
817.80 0.6382
817.90 0.6381
818.00 0.638
818.10 0.6379
818.20 0.6377
818.30 0.6376
818.40 0.6375
818.50 0.6374
818.60 0.6372
818.70 0.6371
818.80 0.637
818.90 0.6368
819.00 0.6367
819.10 0.6366
819.20 0.6365
819.30 0.6363
819.40 0.6362
819.50 0.6361
819.60 0.636
819.70 0.6358
819.80 0.6357
819.90 0.6356
820.00 0.6355
820.10 0.6353
820.20 0.6352
820.30 0.6351
820.40 0.635
820.50 0.6348
820.60 0.6347
820.70 0.6346
820.80 0.6345
820.90 0.6343
821.00 0.6342
821.10 0.6341
821.20 0.6339
821.30 0.6338
821.40 0.6337
821.50 0.6336
821.60 0.6334
821.70 0.6333
821.80 0.6332
821.90 0.6331
822.00 0.6329
822.10 0.6328
822.20 0.6327
822.30 0.6325
822.40 0.6324
822.50 0.6323
822.60 0.6322
822.70 0.632
822.80 0.6319
822.90 0.6318
823.00 0.6317
823.10 0.6315
823.20 0.6314
823.30 0.6313
823.40 0.6312
823.50 0.631
823.60 0.6309
823.70 0.6308
823.80 0.6306
823.90 0.6305
824.00 0.6304
824.10 0.6303
824.20 0.6301
824.30 0.63
824.40 0.6299
824.50 0.6298
824.60 0.6296
824.70 0.6295
824.80 0.6294
824.90 0.6293
825.00 0.6291
825.10 0.629
825.20 0.6289
825.30 0.6288
825.40 0.6286
825.50 0.6285
825.60 0.6284
825.70 0.6283
825.80 0.6281
825.90 0.628
826.00 0.6279
826.10 0.6278
826.20 0.6276
826.30 0.6275
826.40 0.6274
826.50 0.6273
826.60 0.6271
826.70 0.627
826.80 0.6269
826.90 0.6268
827.00 0.6266
827.10 0.6265
827.20 0.6264
827.30 0.6262
827.40 0.6261
827.50 0.626
827.60 0.6259
827.70 0.6257
827.80 0.6256
827.90 0.6255
828.00 0.6254
828.10 0.6252
828.20 0.6251
828.30 0.625
828.40 0.6249
828.50 0.6247
828.60 0.6246
828.70 0.6245
828.80 0.6244
828.90 0.6242
829.00 0.6241
829.10 0.624
829.20 0.6239
829.30 0.6237
829.40 0.6236
829.50 0.6235
829.60 0.6234
829.70 0.6232
829.80 0.6231
829.90 0.623
830.00 0.6229
830.10 0.6227
830.20 0.6226
830.30 0.6225
830.40 0.6224
830.50 0.6222
830.60 0.6221
830.70 0.622
830.80 0.6219
830.90 0.6217
831.00 0.6216
831.10 0.6215
831.20 0.6214
831.30 0.6212
831.40 0.6211
831.50 0.621
831.60 0.6209
831.70 0.6207
831.80 0.6206
831.90 0.6205
832.00 0.6204
832.10 0.6202
832.20 0.6201
832.30 0.62
832.40 0.6199
832.50 0.6197
832.60 0.6196
832.70 0.6195
832.80 0.6194
832.90 0.6192
833.00 0.6191
833.10 0.619
833.20 0.6189
833.30 0.6187
833.40 0.6186
833.50 0.6185
833.60 0.6184
833.70 0.6182
833.80 0.6181
833.90 0.618
834.00 0.6179
834.10 0.6178
834.20 0.6176
834.30 0.6175
834.40 0.6174
834.50 0.6173
834.60 0.6171
834.70 0.617
834.80 0.6169
834.90 0.6168
835.00 0.6166
835.10 0.6165
835.20 0.6164
835.30 0.6163
835.40 0.6161
835.50 0.616
835.60 0.6159
835.70 0.6158
835.80 0.6156
835.90 0.6155
836.00 0.6154
836.10 0.6153
836.20 0.6152
836.30 0.615
836.40 0.6149
836.50 0.6148
836.60 0.6147
836.70 0.6145
836.80 0.6144
836.90 0.6143
837.00 0.6142
837.10 0.614
837.20 0.6139
837.30 0.6138
837.40 0.6137
837.50 0.6135
837.60 0.6134
837.70 0.6133
837.80 0.6132
837.90 0.613
838.00 0.6129
838.10 0.6128
838.20 0.6127
838.30 0.6126
838.40 0.6124
838.50 0.6123
838.60 0.6122
838.70 0.6121
838.80 0.6119
838.90 0.6118
839.00 0.6117
839.10 0.6116
839.20 0.6114
839.30 0.6113
839.40 0.6112
839.50 0.6111
839.60 0.611
839.70 0.6108
839.80 0.6107
839.90 0.6106
840.00 0.6105
840.10 0.6103
840.20 0.6102
840.30 0.6101
840.40 0.61
840.50 0.6098
840.60 0.6097
840.70 0.6096
840.80 0.6095
840.90 0.6094
841.00 0.6092
841.10 0.6091
841.20 0.609
841.30 0.6089
841.40 0.6087
841.50 0.6086
841.60 0.6085
841.70 0.6084
841.80 0.6083
841.90 0.6081
842.00 0.608
842.10 0.6079
842.20 0.6078
842.30 0.6076
842.40 0.6075
842.50 0.6074
842.60 0.6073
842.70 0.6071
842.80 0.607
842.90 0.6069
843.00 0.6068
843.10 0.6067
843.20 0.6065
843.30 0.6064
843.40 0.6063
843.50 0.6062
843.60 0.606
843.70 0.6059
843.80 0.6058
843.90 0.6057
844.00 0.6055
844.10 0.6054
844.20 0.6053
844.30 0.6052
844.40 0.605
844.50 0.6049
844.60 0.6048
844.70 0.6047
844.80 0.6046
844.90 0.6044
845.00 0.6043
845.10 0.6042
845.20 0.6041
845.30 0.6039
845.40 0.6038
845.50 0.6037
845.60 0.6036
845.70 0.6035
845.80 0.6033
845.90 0.6032
846.00 0.6031
846.10 0.603
846.20 0.6028
846.30 0.6027
846.40 0.6026
846.50 0.6025
846.60 0.6024
846.70 0.6022
846.80 0.6021
846.90 0.602
847.00 0.6019
847.10 0.6017
847.20 0.6016
847.30 0.6015
847.40 0.6014
847.50 0.6013
847.60 0.6011
847.70 0.601
847.80 0.6009
847.90 0.6008
848.00 0.6007
848.10 0.6005
848.20 0.6004
848.30 0.6003
848.40 0.6002
848.50 0.6001
848.60 0.5999
848.70 0.5998
848.80 0.5997
848.90 0.5996
849.00 0.5995
849.10 0.5993
849.20 0.5992
849.30 0.5991
849.40 0.599
849.50 0.5989
849.60 0.5987
849.70 0.5986
849.80 0.5985
849.90 0.5984
850.00 0.5983
850.10 0.5981
850.20 0.598
850.30 0.5979
850.40 0.5978
850.50 0.5977
850.60 0.5975
850.70 0.5974
850.80 0.5973
850.90 0.5972
851.00 0.5971
851.10 0.5969
851.20 0.5968
851.30 0.5967
851.40 0.5966
851.50 0.5965
851.60 0.5963
851.70 0.5962
851.80 0.5961
851.90 0.596
852.00 0.5959
852.10 0.5957
852.20 0.5956
852.30 0.5955
852.40 0.5954
852.50 0.5953
852.60 0.5951
852.70 0.595
852.80 0.5949
852.90 0.5948
853.00 0.5947
853.10 0.5945
853.20 0.5944
853.30 0.5943
853.40 0.5942
853.50 0.5941
853.60 0.5939
853.70 0.5938
853.80 0.5937
853.90 0.5936
854.00 0.5935
854.10 0.5933
854.20 0.5932
854.30 0.5931
854.40 0.593
854.50 0.5929
854.60 0.5927
854.70 0.5926
854.80 0.5925
854.90 0.5924
855.00 0.5923
855.10 0.5921
855.20 0.592
855.30 0.5919
855.40 0.5918
855.50 0.5917
855.60 0.5915
855.70 0.5914
855.80 0.5913
855.90 0.5912
856.00 0.5911
856.10 0.5909
856.20 0.5908
856.30 0.5907
856.40 0.5906
856.50 0.5905
856.60 0.5903
856.70 0.5902
856.80 0.5901
856.90 0.59
857.00 0.5899
857.10 0.5897
857.20 0.5896
857.30 0.5895
857.40 0.5894
857.50 0.5893
857.60 0.5891
857.70 0.589
857.80 0.5889
857.90 0.5888
858.00 0.5887
858.10 0.5885
858.20 0.5884
858.30 0.5883
858.40 0.5882
858.50 0.5881
858.60 0.5879
858.70 0.5878
858.80 0.5877
858.90 0.5876
859.00 0.5875
859.10 0.5874
859.20 0.5872
859.30 0.5871
859.40 0.587
859.50 0.5869
859.60 0.5868
859.70 0.5866
859.80 0.5865
859.90 0.5864
860.00 0.5863
860.10 0.5862
860.20 0.586
860.30 0.5859
860.40 0.5858
860.50 0.5857
860.60 0.5856
860.70 0.5854
860.80 0.5853
860.90 0.5852
861.00 0.5851
861.10 0.585
861.20 0.5849
861.30 0.5847
861.40 0.5846
861.50 0.5845
861.60 0.5844
861.70 0.5843
861.80 0.5841
861.90 0.584
862.00 0.5839
862.10 0.5838
862.20 0.5837
862.30 0.5836
862.40 0.5834
862.50 0.5833
862.60 0.5832
862.70 0.5831
862.80 0.583
862.90 0.5828
863.00 0.5827
863.10 0.5826
863.20 0.5825
863.30 0.5824
863.40 0.5822
863.50 0.5821
863.60 0.582
863.70 0.5819
863.80 0.5818
863.90 0.5817
864.00 0.5815
864.10 0.5814
864.20 0.5813
864.30 0.5812
864.40 0.5811
864.50 0.581
864.60 0.5808
864.70 0.5807
864.80 0.5806
864.90 0.5805
865.00 0.5804
865.10 0.5802
865.20 0.5801
865.30 0.58
865.40 0.5799
865.50 0.5798
865.60 0.5797
865.70 0.5795
865.80 0.5794
865.90 0.5793
866.00 0.5792
866.10 0.5791
866.20 0.579
866.30 0.5788
866.40 0.5787
866.50 0.5786
866.60 0.5785
866.70 0.5784
866.80 0.5782
866.90 0.5781
867.00 0.578
867.10 0.5779
867.20 0.5778
867.30 0.5777
867.40 0.5775
867.50 0.5774
867.60 0.5773
867.70 0.5772
867.80 0.5771
867.90 0.577
868.00 0.5768
868.10 0.5767
868.20 0.5766
868.30 0.5765
868.40 0.5764
868.50 0.5763
868.60 0.5761
868.70 0.576
868.80 0.5759
868.90 0.5758
869.00 0.5757
869.10 0.5755
869.20 0.5754
869.30 0.5753
869.40 0.5752
869.50 0.5751
869.60 0.575
869.70 0.5748
869.80 0.5747
869.90 0.5746
870.00 0.5745
870.10 0.5744
870.20 0.5743
870.30 0.5741
870.40 0.574
870.50 0.5739
870.60 0.5738
870.70 0.5737
870.80 0.5736
870.90 0.5735
871.00 0.5733
871.10 0.5732
871.20 0.5731
871.30 0.573
871.40 0.5729
871.50 0.5728
871.60 0.5726
871.70 0.5725
871.80 0.5724
871.90 0.5723
872.00 0.5722
872.10 0.5721
872.20 0.5719
872.30 0.5718
872.40 0.5717
872.50 0.5716
872.60 0.5715
872.70 0.5714
872.80 0.5712
872.90 0.5711
873.00 0.571
873.10 0.5709
873.20 0.5708
873.30 0.5707
873.40 0.5705
873.50 0.5704
873.60 0.5703
873.70 0.5702
873.80 0.5701
873.90 0.57
874.00 0.5698
874.10 0.5697
874.20 0.5696
874.30 0.5695
874.40 0.5694
874.50 0.5693
874.60 0.5692
874.70 0.569
874.80 0.5689
874.90 0.5688
875.00 0.5687
875.10 0.5686
875.20 0.5685
875.30 0.5683
875.40 0.5682
875.50 0.5681
875.60 0.568
875.70 0.5679
875.80 0.5678
875.90 0.5676
876.00 0.5675
876.10 0.5674
876.20 0.5673
876.30 0.5672
876.40 0.5671
876.50 0.567
876.60 0.5668
876.70 0.5667
876.80 0.5666
876.90 0.5665
877.00 0.5664
877.10 0.5663
877.20 0.5662
877.30 0.566
877.40 0.5659
877.50 0.5658
877.60 0.5657
877.70 0.5656
877.80 0.5655
877.90 0.5653
878.00 0.5652
878.10 0.5651
878.20 0.565
878.30 0.5649
878.40 0.5648
878.50 0.5647
878.60 0.5645
878.70 0.5644
878.80 0.5643
878.90 0.5642
879.00 0.5641
879.10 0.564
879.20 0.5638
879.30 0.5637
879.40 0.5636
879.50 0.5635
879.60 0.5634
879.70 0.5633
879.80 0.5632
879.90 0.563
880.00 0.5629
880.10 0.5628
880.20 0.5627
880.30 0.5626
880.40 0.5625
880.50 0.5624
880.60 0.5622
880.70 0.5621
880.80 0.562
880.90 0.5619
881.00 0.5618
881.10 0.5617
881.20 0.5616
881.30 0.5614
881.40 0.5613
881.50 0.5612
881.60 0.5611
881.70 0.561
881.80 0.5609
881.90 0.5608
882.00 0.5606
882.10 0.5605
882.20 0.5604
882.30 0.5603
882.40 0.5602
882.50 0.5601
882.60 0.56
882.70 0.5598
882.80 0.5597
882.90 0.5596
883.00 0.5595
883.10 0.5594
883.20 0.5593
883.30 0.5592
883.40 0.559
883.50 0.5589
883.60 0.5588
883.70 0.5587
883.80 0.5586
883.90 0.5585
884.00 0.5584
884.10 0.5582
884.20 0.5581
884.30 0.558
884.40 0.5579
884.50 0.5578
884.60 0.5577
884.70 0.5576
884.80 0.5574
884.90 0.5573
885.00 0.5572
885.10 0.5571
885.20 0.557
885.30 0.5569
885.40 0.5568
885.50 0.5566
885.60 0.5565
885.70 0.5564
885.80 0.5563
885.90 0.5562
886.00 0.5561
886.10 0.556
886.20 0.5558
886.30 0.5557
886.40 0.5556
886.50 0.5555
886.60 0.5554
886.70 0.5553
886.80 0.5552
886.90 0.555
887.00 0.5549
887.10 0.5548
887.20 0.5547
887.30 0.5546
887.40 0.5545
887.50 0.5544
887.60 0.5543
887.70 0.5541
887.80 0.554
887.90 0.5539
888.00 0.5538
888.10 0.5537
888.20 0.5536
888.30 0.5535
888.40 0.5534
888.50 0.5532
888.60 0.5531
888.70 0.553
888.80 0.5529
888.90 0.5528
889.00 0.5527
889.10 0.5526
889.20 0.5525
889.30 0.5524
889.40 0.5522
889.50 0.5521
889.60 0.552
889.70 0.5519
889.80 0.5518
889.90 0.5517
890.00 0.5516
890.10 0.5515
890.20 0.5513
890.30 0.5512
890.40 0.5511
890.50 0.551
890.60 0.5509
890.70 0.5508
890.80 0.5507
890.90 0.5506
891.00 0.5505
891.10 0.5503
891.20 0.5502
891.30 0.5501
891.40 0.55
891.50 0.5499
891.60 0.5498
891.70 0.5497
891.80 0.5496
891.90 0.5495
892.00 0.5493
892.10 0.5492
892.20 0.5491
892.30 0.549
892.40 0.5489
892.50 0.5488
892.60 0.5487
892.70 0.5486
892.80 0.5484
892.90 0.5483
893.00 0.5482
893.10 0.5481
893.20 0.548
893.30 0.5479
893.40 0.5478
893.50 0.5477
893.60 0.5475
893.70 0.5474
893.80 0.5473
893.90 0.5472
894.00 0.5471
894.10 0.547
894.20 0.5469
894.30 0.5468
894.40 0.5467
894.50 0.5465
894.60 0.5464
894.70 0.5463
894.80 0.5462
894.90 0.5461
895.00 0.546
895.10 0.5459
895.20 0.5458
895.30 0.5456
895.40 0.5455
895.50 0.5454
895.60 0.5453
895.70 0.5452
895.80 0.5451
895.90 0.545
896.00 0.5449
896.10 0.5448
896.20 0.5446
896.30 0.5445
896.40 0.5444
896.50 0.5443
896.60 0.5442
896.70 0.5441
896.80 0.544
896.90 0.5439
897.00 0.5438
897.10 0.5436
897.20 0.5435
897.30 0.5434
897.40 0.5433
897.50 0.5432
897.60 0.5431
897.70 0.543
897.80 0.5429
897.90 0.5427
898.00 0.5426
898.10 0.5425
898.20 0.5424
898.30 0.5423
898.40 0.5422
898.50 0.5421
898.60 0.542
898.70 0.5418
898.80 0.5417
898.90 0.5416
899.00 0.5415
899.10 0.5414
899.20 0.5413
899.30 0.5412
899.40 0.5411
899.50 0.5409
899.60 0.5408
899.70 0.5407
899.80 0.5406
899.90 0.5405
900.00 0.5404
900.10 0.5403
900.20 0.5402
900.30 0.54
900.40 0.5399
900.50 0.5398
900.60 0.5397
900.70 0.5396
900.80 0.5395
900.90 0.5394
901.00 0.5393
901.10 0.5391
901.20 0.539
901.30 0.5389
901.40 0.5388
901.50 0.5387
901.60 0.5386
901.70 0.5385
901.80 0.5384
901.90 0.5383
902.00 0.5381
902.10 0.538
902.20 0.5379
902.30 0.5378
902.40 0.5377
902.50 0.5376
902.60 0.5375
902.70 0.5374
902.80 0.5373
902.90 0.5372
903.00 0.5371
903.10 0.537
903.20 0.5368
903.30 0.5367
903.40 0.5366
903.50 0.5365
903.60 0.5364
903.70 0.5363
903.80 0.5362
903.90 0.5361
904.00 0.536
904.10 0.5359
904.20 0.5358
904.30 0.5357
904.40 0.5356
904.50 0.5354
904.60 0.5353
904.70 0.5352
904.80 0.5351
904.90 0.535
905.00 0.5349
905.10 0.5348
905.20 0.5347
905.30 0.5346
905.40 0.5345
905.50 0.5344
905.60 0.5343
905.70 0.5342
905.80 0.534
905.90 0.5339
906.00 0.5338
906.10 0.5337
906.20 0.5336
906.30 0.5335
906.40 0.5334
906.50 0.5333
906.60 0.5332
906.70 0.5331
906.80 0.533
906.90 0.5329
907.00 0.5328
907.10 0.5327
907.20 0.5325
907.30 0.5324
907.40 0.5323
907.50 0.5322
907.60 0.5321
907.70 0.532
907.80 0.5319
907.90 0.5318
908.00 0.5317
908.10 0.5316
908.20 0.5315
908.30 0.5313
908.40 0.5312
908.50 0.5311
908.60 0.531
908.70 0.5309
908.80 0.5308
908.90 0.5307
909.00 0.5306
909.10 0.5305
909.20 0.5304
909.30 0.5303
909.40 0.5302
909.50 0.53
909.60 0.5299
909.70 0.5298
909.80 0.5297
909.90 0.5296
910.00 0.5295
910.10 0.5294
910.20 0.5293
910.30 0.5292
910.40 0.5291
910.50 0.529
910.60 0.5289
910.70 0.5287
910.80 0.5286
910.90 0.5285
911.00 0.5284
911.10 0.5283
911.20 0.5282
911.30 0.5281
911.40 0.528
911.50 0.5279
911.60 0.5278
911.70 0.5277
911.80 0.5276
911.90 0.5275
912.00 0.5273
912.10 0.5272
912.20 0.5271
912.30 0.527
912.40 0.5269
912.50 0.5268
912.60 0.5267
912.70 0.5266
912.80 0.5265
912.90 0.5264
913.00 0.5263
913.10 0.5262
913.20 0.5261
913.30 0.5259
913.40 0.5258
913.50 0.5257
913.60 0.5256
913.70 0.5255
913.80 0.5254
913.90 0.5253
914.00 0.5252
914.10 0.5251
914.20 0.525
914.30 0.5249
914.40 0.5248
914.50 0.5247
914.60 0.5245
914.70 0.5244
914.80 0.5243
914.90 0.5242
915.00 0.5241
915.10 0.524
915.20 0.5239
915.30 0.5238
915.40 0.5237
915.50 0.5236
915.60 0.5235
915.70 0.5234
915.80 0.5233
915.90 0.5232
916.00 0.523
916.10 0.5229
916.20 0.5228
916.30 0.5227
916.40 0.5226
916.50 0.5225
916.60 0.5224
916.70 0.5223
916.80 0.5222
916.90 0.5221
917.00 0.522
917.10 0.5219
917.20 0.5218
917.30 0.5216
917.40 0.5215
917.50 0.5214
917.60 0.5213
917.70 0.5212
917.80 0.5211
917.90 0.521
918.00 0.5209
918.10 0.5208
918.20 0.5206
918.30 0.5205
918.40 0.5204
918.50 0.5203
918.60 0.5202
918.70 0.5201
918.80 0.52
918.90 0.5199
919.00 0.5197
919.10 0.5196
919.20 0.5195
919.30 0.5194
919.40 0.5193
919.50 0.5192
919.60 0.5191
919.70 0.519
919.80 0.5189
919.90 0.5187
920.00 0.5186
920.10 0.5185
920.20 0.5184
920.30 0.5183
920.40 0.5182
920.50 0.5181
920.60 0.518
920.70 0.5179
920.80 0.5177
920.90 0.5176
921.00 0.5175
921.10 0.5174
921.20 0.5173
921.30 0.5172
921.40 0.5171
921.50 0.517
921.60 0.5169
921.70 0.5168
921.80 0.5166
921.90 0.5165
922.00 0.5164
922.10 0.5163
922.20 0.5162
922.30 0.5161
922.40 0.516
922.50 0.5159
922.60 0.5158
922.70 0.5157
922.80 0.5156
922.90 0.5155
923.00 0.5154
923.10 0.5153
923.20 0.5152
923.30 0.5151
923.40 0.515
923.50 0.5149
923.60 0.5148
923.70 0.5147
923.80 0.5146
923.90 0.5145
924.00 0.5144
924.10 0.5143
924.20 0.5142
924.30 0.5141
924.40 0.514
924.50 0.5139
924.60 0.5138
924.70 0.5137
924.80 0.5136
924.90 0.5135
925.00 0.5134
925.10 0.5133
925.20 0.5132
925.30 0.5131
925.40 0.513
925.50 0.5129
925.60 0.5128
925.70 0.5127
925.80 0.5126
925.90 0.5125
926.00 0.5124
926.10 0.5123
926.20 0.5122
926.30 0.5121
926.40 0.512
926.50 0.5119
926.60 0.5118
926.70 0.5117
926.80 0.5116
926.90 0.5115
927.00 0.5114
927.10 0.5113
927.20 0.5112
927.30 0.5111
927.40 0.511
927.50 0.5109
927.60 0.5108
927.70 0.5107
927.80 0.5106
927.90 0.5105
928.00 0.5104
928.10 0.5103
928.20 0.5102
928.30 0.5101
928.40 0.5099
928.50 0.5098
928.60 0.5097
928.70 0.5096
928.80 0.5095
928.90 0.5094
929.00 0.5093
929.10 0.5092
929.20 0.5091
929.30 0.509
929.40 0.5089
929.50 0.5088
929.60 0.5087
929.70 0.5086
929.80 0.5085
929.90 0.5084
930.00 0.5083
930.10 0.5082
930.20 0.5081
930.30 0.508
930.40 0.5079
930.50 0.5078
930.60 0.5077
930.70 0.5076
930.80 0.5075
930.90 0.5073
931.00 0.5072
931.10 0.5071
931.20 0.507
931.30 0.5069
931.40 0.5068
931.50 0.5067
931.60 0.5066
931.70 0.5065
931.80 0.5064
931.90 0.5063
932.00 0.5062
932.10 0.5061
932.20 0.506
932.30 0.5059
932.40 0.5058
932.50 0.5057
932.60 0.5056
932.70 0.5055
932.80 0.5054
932.90 0.5053
933.00 0.5052
933.10 0.5051
933.20 0.505
933.30 0.5049
933.40 0.5048
933.50 0.5047
933.60 0.5046
933.70 0.5045
933.80 0.5044
933.90 0.5042
934.00 0.5041
934.10 0.504
934.20 0.5039
934.30 0.5038
934.40 0.5037
934.50 0.5036
934.60 0.5035
934.70 0.5034
934.80 0.5033
934.90 0.5032
935.00 0.5031
935.10 0.503
935.20 0.5029
935.30 0.5028
935.40 0.5027
935.50 0.5026
935.60 0.5025
935.70 0.5024
935.80 0.5023
935.90 0.5022
936.00 0.5021
936.10 0.502
936.20 0.5019
936.30 0.5018
936.40 0.5017
936.50 0.5016
936.60 0.5015
936.70 0.5014
936.80 0.5013
936.90 0.5012
937.00 0.5011
937.10 0.501
937.20 0.5009
937.30 0.5008
937.40 0.5007
937.50 0.5005
937.60 0.5004
937.70 0.5003
937.80 0.5002
937.90 0.5001
938.00 0.5
938.10 0.4999
938.20 0.4998
938.30 0.4997
938.40 0.4996
938.50 0.4995
938.60 0.4994
938.70 0.4993
938.80 0.4992
938.90 0.4991
939.00 0.499
939.10 0.4989
939.20 0.4988
939.30 0.4987
939.40 0.4986
939.50 0.4985
939.60 0.4984
939.70 0.4983
939.80 0.4982
939.90 0.4981
940.00 0.498
940.10 0.4979
940.20 0.4978
940.30 0.4977
940.40 0.4976
940.50 0.4975
940.60 0.4974
940.70 0.4973
940.80 0.4972
940.90 0.4971
941.00 0.497
941.10 0.4969
941.20 0.4968
941.30 0.4967
941.40 0.4966
941.50 0.4965
941.60 0.4964
941.70 0.4963
941.80 0.4962
941.90 0.4961
942.00 0.496
942.10 0.4959
942.20 0.4958
942.30 0.4957
942.40 0.4956
942.50 0.4955
942.60 0.4954
942.70 0.4953
942.80 0.4952
942.90 0.4951
943.00 0.495
943.10 0.4949
943.20 0.4947
943.30 0.4946
943.40 0.4945
943.50 0.4944
943.60 0.4943
943.70 0.4942
943.80 0.4941
943.90 0.494
944.00 0.4939
944.10 0.4938
944.20 0.4937
944.30 0.4936
944.40 0.4935
944.50 0.4934
944.60 0.4933
944.70 0.4932
944.80 0.4931
944.90 0.493
945.00 0.4929
945.10 0.4928
945.20 0.4927
945.30 0.4926
945.40 0.4925
945.50 0.4924
945.60 0.4923
945.70 0.4922
945.80 0.4921
945.90 0.492
946.00 0.4919
946.10 0.4918
946.20 0.4917
946.30 0.4916
946.40 0.4915
946.50 0.4914
946.60 0.4913
946.70 0.4912
946.80 0.4911
946.90 0.491
947.00 0.4909
947.10 0.4908
947.20 0.4907
947.30 0.4906
947.40 0.4905
947.50 0.4904
947.60 0.4903
947.70 0.4902
947.80 0.4901
947.90 0.49
948.00 0.4899
948.10 0.4898
948.20 0.4897
948.30 0.4896
948.40 0.4895
948.50 0.4894
948.60 0.4893
948.70 0.4892
948.80 0.4891
948.90 0.489
949.00 0.4889
949.10 0.4888
949.20 0.4887
949.30 0.4886
949.40 0.4885
949.50 0.4884
949.60 0.4883
949.70 0.4882
949.80 0.4881
949.90 0.488
950.00 0.4879
950.10 0.4878
950.20 0.4877
950.30 0.4876
950.40 0.4875
950.50 0.4874
950.60 0.4873
950.70 0.4872
950.80 0.4871
950.90 0.487
951.00 0.4869
951.10 0.4868
951.20 0.4867
951.30 0.4866
951.40 0.4865
951.50 0.4864
951.60 0.4863
951.70 0.4862
951.80 0.4861
951.90 0.486
952.00 0.4859
952.10 0.4858
952.20 0.4857
952.30 0.4856
952.40 0.4855
952.50 0.4854
952.60 0.4853
952.70 0.4852
952.80 0.4851
952.90 0.485
953.00 0.4849
953.10 0.4847
953.20 0.4846
953.30 0.4845
953.40 0.4844
953.50 0.4843
953.60 0.484
953.70 0.4838
953.80 0.4835
953.90 0.4833
954.00 0.4826
954.10 0.4818
954.20 0.4804
954.30 0.4788
954.40 0.4802
954.50 0.4814
954.60 0.482
954.70 0.4825
954.80 0.4826
954.90 0.4826
955.00 0.4826
955.10 0.4827
955.20 0.4826
955.30 0.4825
955.40 0.4825
955.50 0.4824
955.60 0.4823
955.70 0.4822
955.80 0.4821
955.90 0.482
956.00 0.4819
956.10 0.4818
956.20 0.4818
956.30 0.4817
956.40 0.4816
956.50 0.4815
956.60 0.4814
956.70 0.4813
956.80 0.4812
956.90 0.4811
957.00 0.481
957.10 0.4809
957.20 0.4808
957.30 0.4807
957.40 0.4806
957.50 0.4805
957.60 0.4804
957.70 0.4803
957.80 0.4802
957.90 0.4801
958.00 0.48
958.10 0.4799
958.20 0.4798
958.30 0.4797
958.40 0.4796
958.50 0.4795
958.60 0.4794
958.70 0.4793
958.80 0.4792
958.90 0.4791
959.00 0.479
959.10 0.4789
959.20 0.4788
959.30 0.4787
959.40 0.4786
959.50 0.4785
959.60 0.4784
959.70 0.4783
959.80 0.4782
959.90 0.4781
960.00 0.478
960.10 0.4779
960.20 0.4778
960.30 0.4778
960.40 0.4777
960.50 0.4776
960.60 0.4775
960.70 0.4774
960.80 0.4773
960.90 0.4772
961.00 0.4771
961.10 0.477
961.20 0.4769
961.30 0.4768
961.40 0.4767
961.50 0.4766
961.60 0.4765
961.70 0.4764
961.80 0.4763
961.90 0.4762
962.00 0.4761
962.10 0.476
962.20 0.4759
962.30 0.4758
962.40 0.4757
962.50 0.4756
962.60 0.4755
962.70 0.4754
962.80 0.4753
962.90 0.4752
963.00 0.4751
963.10 0.475
963.20 0.4749
963.30 0.4748
963.40 0.4747
963.50 0.4746
963.60 0.4745
963.70 0.4745
963.80 0.4744
963.90 0.4743
964.00 0.4742
964.10 0.4741
964.20 0.474
964.30 0.4739
964.40 0.4738
964.50 0.4737
964.60 0.4736
964.70 0.4735
964.80 0.4734
964.90 0.4733
965.00 0.4732
965.10 0.4731
965.20 0.473
965.30 0.4729
965.40 0.4728
965.50 0.4727
965.60 0.4726
965.70 0.4725
965.80 0.4724
965.90 0.4723
966.00 0.4722
966.10 0.4721
966.20 0.472
966.30 0.4719
966.40 0.4718
966.50 0.4717
966.60 0.4716
966.70 0.4716
966.80 0.4715
966.90 0.4714
967.00 0.4713
967.10 0.4712
967.20 0.4711
967.30 0.471
967.40 0.4709
967.50 0.4708
967.60 0.4707
967.70 0.4706
967.80 0.4705
967.90 0.4704
968.00 0.4703
968.10 0.4702
968.20 0.4701
968.30 0.47
968.40 0.4699
968.50 0.4698
968.60 0.4697
968.70 0.4696
968.80 0.4695
968.90 0.4694
969.00 0.4693
969.10 0.4692
969.20 0.4692
969.30 0.4691
969.40 0.469
969.50 0.4689
969.60 0.4688
969.70 0.4687
969.80 0.4686
969.90 0.4685
970.00 0.4684
970.10 0.4683
970.20 0.4682
970.30 0.4681
970.40 0.468
970.50 0.4679
970.60 0.4678
970.70 0.4677
970.80 0.4676
970.90 0.4675
971.00 0.4674
971.10 0.4673
971.20 0.4672
971.30 0.4671
971.40 0.4671
971.50 0.467
971.60 0.4669
971.70 0.4668
971.80 0.4667
971.90 0.4666
972.00 0.4665
972.10 0.4664
972.20 0.4663
972.30 0.4662
972.40 0.4661
972.50 0.466
972.60 0.4659
972.70 0.4658
972.80 0.4657
972.90 0.4656
973.00 0.4655
973.10 0.4654
973.20 0.4653
973.30 0.4652
973.40 0.4651
973.50 0.4651
973.60 0.465
973.70 0.4649
973.80 0.4648
973.90 0.4647
974.00 0.4646
974.10 0.4645
974.20 0.4644
974.30 0.4643
974.40 0.4642
974.50 0.4641
974.60 0.464
974.70 0.4639
974.80 0.4638
974.90 0.4637
975.00 0.4636
975.10 0.4635
975.20 0.4634
975.30 0.4634
975.40 0.4633
975.50 0.4632
975.60 0.4631
975.70 0.463
975.80 0.4629
975.90 0.4628
976.00 0.4627
976.10 0.4626
976.20 0.4625
976.30 0.4624
976.40 0.4623
976.50 0.4622
976.60 0.4621
976.70 0.462
976.80 0.4619
976.90 0.4618
977.00 0.4617
977.10 0.4617
977.20 0.4616
977.30 0.4615
977.40 0.4614
977.50 0.4613
977.60 0.4612
977.70 0.4611
977.80 0.461
977.90 0.4609
978.00 0.4608
978.10 0.4607
978.20 0.4606
978.30 0.4605
978.40 0.4604
978.50 0.4603
978.60 0.4602
978.70 0.4601
978.80 0.4601
978.90 0.46
979.00 0.4599
979.10 0.4598
979.20 0.4597
979.30 0.4596
979.40 0.4595
979.50 0.4594
979.60 0.4593
979.70 0.4592
979.80 0.4591
979.90 0.459
980.00 0.4589
980.10 0.4588
980.20 0.4587
980.30 0.4587
980.40 0.4586
980.50 0.4585
980.60 0.4584
980.70 0.4583
980.80 0.4582
980.90 0.4581
981.00 0.458
981.10 0.4579
981.20 0.4578
981.30 0.4577
981.40 0.4576
981.50 0.4575
981.60 0.4574
981.70 0.4573
981.80 0.4573
981.90 0.4572
982.00 0.4571
982.10 0.457
982.20 0.4569
982.30 0.4568
982.40 0.4567
982.50 0.4566
982.60 0.4565
982.70 0.4564
982.80 0.4563
982.90 0.4562
983.00 0.4561
983.10 0.456
983.20 0.456
983.30 0.4559
983.40 0.4558
983.50 0.4557
983.60 0.4556
983.70 0.4555
983.80 0.4554
983.90 0.4553
984.00 0.4552
984.10 0.4551
984.20 0.455
984.30 0.4549
984.40 0.4548
984.50 0.4547
984.60 0.4547
984.70 0.4546
984.80 0.4545
984.90 0.4544
985.00 0.4543
985.10 0.4542
985.20 0.4541
985.30 0.454
985.40 0.4539
985.50 0.4538
985.60 0.4537
985.70 0.4536
985.80 0.4535
985.90 0.4535
986.00 0.4534
986.10 0.4533
986.20 0.4532
986.30 0.4531
986.40 0.453
986.50 0.4529
986.60 0.4528
986.70 0.4527
986.80 0.4526
986.90 0.4525
987.00 0.4524
987.10 0.4523
987.20 0.4523
987.30 0.4522
987.40 0.4521
987.50 0.452
987.60 0.4519
987.70 0.4518
987.80 0.4517
987.90 0.4516
988.00 0.4515
988.10 0.4514
988.20 0.4513
988.30 0.4512
988.40 0.4512
988.50 0.4511
988.60 0.451
988.70 0.4509
988.80 0.4508
988.90 0.4507
989.00 0.4506
989.10 0.4505
989.20 0.4504
989.30 0.4503
989.40 0.4502
989.50 0.4501
989.60 0.4501
989.70 0.45
989.80 0.4499
989.90 0.4498
990.00 0.4497
990.10 0.4496
990.20 0.4495
990.30 0.4494
990.40 0.4493
990.50 0.4492
990.60 0.4491
990.70 0.449
990.80 0.449
990.90 0.4489
991.00 0.4488
991.10 0.4487
991.20 0.4486
991.30 0.4485
991.40 0.4484
991.50 0.4483
991.60 0.4482
991.70 0.4481
991.80 0.448
991.90 0.4479
992.00 0.4479
992.10 0.4478
992.20 0.4477
992.30 0.4476
992.40 0.4475
992.50 0.4474
992.60 0.4473
992.70 0.4472
992.80 0.4471
992.90 0.447
993.00 0.4469
993.10 0.4469
993.20 0.4468
993.30 0.4467
993.40 0.4466
993.50 0.4465
993.60 0.4464
993.70 0.4463
993.80 0.4462
993.90 0.4461
994.00 0.446
994.10 0.4459
994.20 0.4459
994.30 0.4458
994.40 0.4457
994.50 0.4456
994.60 0.4455
994.70 0.4454
994.80 0.4453
994.90 0.4452
995.00 0.4451
995.10 0.445
995.20 0.445
995.30 0.4449
995.40 0.4448
995.50 0.4447
995.60 0.4446
995.70 0.4445
995.80 0.4444
995.90 0.4443
996.00 0.4442
996.10 0.4441
996.20 0.4441
996.30 0.444
996.40 0.4439
996.50 0.4438
996.60 0.4437
996.70 0.4436
996.80 0.4435
996.90 0.4434
997.00 0.4433
997.10 0.4432
997.20 0.4431
997.30 0.4431
997.40 0.443
997.50 0.4429
997.60 0.4428
997.70 0.4427
997.80 0.4426
997.90 0.4425
998.00 0.4424
998.10 0.4423
998.20 0.4423
998.30 0.4422
998.40 0.4421
998.50 0.442
998.60 0.4419
998.70 0.4418
998.80 0.4417
998.90 0.4416
999.00 0.4415
999.10 0.4414
999.20 0.4414
999.30 0.4413
999.40 0.4412
999.50 0.4411
999.60 0.441
999.70 0.4409
999.80 0.4408
999.90 0.4407
1000.00 0.4406
1000.10 0.4405
1000.20 0.4405
1000.30 0.4404
1000.40 0.4403
1000.50 0.4402
1000.60 0.4401
1000.70 0.44
1000.80 0.4399
1000.90 0.4398
1001.00 0.4397
1001.10 0.4396
1001.20 0.4396
1001.30 0.4395
1001.40 0.4394
1001.50 0.4393
1001.60 0.4392
1001.70 0.4391
1001.80 0.439
1001.90 0.4389
1002.00 0.4388
1002.10 0.4388
1002.20 0.4387
1002.30 0.4386
1002.40 0.4385
1002.50 0.4384
1002.60 0.4383
1002.70 0.4382
1002.80 0.4381
1002.90 0.438
1003.00 0.4379
1003.10 0.4378
1003.20 0.4377
1003.30 0.4376
1003.40 0.4375
1003.50 0.4374
1003.60 0.4373
1003.70 0.4371
1003.80 0.437
1003.90 0.4368
1004.00 0.4365
1004.10 0.4362
1004.20 0.4359
1004.30 0.4348
1004.40 0.4336
1004.50 0.4313
1004.60 0.4265
1004.70 0.4292
1004.80 0.4326
1004.90 0.4337
1005.00 0.4348
1005.10 0.4352
1005.20 0.4353
1005.30 0.4354
1005.40 0.4356
1005.50 0.4355
1005.60 0.4355
1005.70 0.4354
1005.80 0.4354
1005.90 0.4353
1006.00 0.4352
1006.10 0.4352
1006.20 0.4351
1006.30 0.435
1006.40 0.4349
1006.50 0.4348
1006.60 0.4347
1006.70 0.4347
1006.80 0.4346
1006.90 0.4345
1007.00 0.4344
1007.10 0.4343
1007.20 0.4342
1007.30 0.4341
1007.40 0.4341
1007.50 0.434
1007.60 0.4339
1007.70 0.4338
1007.80 0.4337
1007.90 0.4336
1008.00 0.4335
1008.10 0.4334
1008.20 0.4334
1008.30 0.4333
1008.40 0.4332
1008.50 0.4331
1008.60 0.433
1008.70 0.4329
1008.80 0.4328
1008.90 0.4327
1009.00 0.4327
1009.10 0.4326
1009.20 0.4325
1009.30 0.4324
1009.40 0.4323
1009.50 0.4322
1009.60 0.4321
1009.70 0.4321
1009.80 0.432
1009.90 0.4319
1010.00 0.4318
1010.10 0.4317
1010.20 0.4316
1010.30 0.4315
1010.40 0.4314
1010.50 0.4314
1010.60 0.4313
1010.70 0.4312
1010.80 0.4311
1010.90 0.431
1011.00 0.4309
1011.10 0.4308
1011.20 0.4307
1011.30 0.4307
1011.40 0.4306
1011.50 0.4305
1011.60 0.4304
1011.70 0.4303
1011.80 0.4302
1011.90 0.4301
1012.00 0.43
1012.10 0.43
1012.20 0.4299
1012.30 0.4298
1012.40 0.4297
1012.50 0.4296
1012.60 0.4295
1012.70 0.4294
1012.80 0.4293
1012.90 0.4293
1013.00 0.4292
1013.10 0.4291
1013.20 0.429
1013.30 0.4289
1013.40 0.4288
1013.50 0.4287
1013.60 0.4287
1013.70 0.4286
1013.80 0.4285
1013.90 0.4284
1014.00 0.4283
1014.10 0.4282
1014.20 0.4281
1014.30 0.428
1014.40 0.428
1014.50 0.4279
1014.60 0.4278
1014.70 0.4277
1014.80 0.4276
1014.90 0.4275
1015.00 0.4274
1015.10 0.4274
1015.20 0.4273
1015.30 0.4272
1015.40 0.4271
1015.50 0.427
1015.60 0.4269
1015.70 0.4268
1015.80 0.4267
1015.90 0.4267
1016.00 0.4266
1016.10 0.4265
1016.20 0.4264
1016.30 0.4263
1016.40 0.4262
1016.50 0.4261
1016.60 0.4261
1016.70 0.426
1016.80 0.4259
1016.90 0.4258
1017.00 0.4257
1017.10 0.4256
1017.20 0.4255
1017.30 0.4255
1017.40 0.4254
1017.50 0.4253
1017.60 0.4252
1017.70 0.4251
1017.80 0.425
1017.90 0.4249
1018.00 0.4249
1018.10 0.4248
1018.20 0.4247
1018.30 0.4246
1018.40 0.4245
1018.50 0.4244
1018.60 0.4243
1018.70 0.4243
1018.80 0.4242
1018.90 0.4241
1019.00 0.424
1019.10 0.4239
1019.20 0.4238
1019.30 0.4237
1019.40 0.4237
1019.50 0.4236
1019.60 0.4235
1019.70 0.4234
1019.80 0.4233
1019.90 0.4232
1020.00 0.4231
1020.10 0.4231
1020.20 0.423
1020.30 0.4229
1020.40 0.4228
1020.50 0.4227
1020.60 0.4226
1020.70 0.4225
1020.80 0.4225
1020.90 0.4224
1021.00 0.4223
1021.10 0.4222
1021.20 0.4221
1021.30 0.422
1021.40 0.4219
1021.50 0.4219
1021.60 0.4218
1021.70 0.4217
1021.80 0.4216
1021.90 0.4215
1022.00 0.4214
1022.10 0.4213
1022.20 0.4213
1022.30 0.4212
1022.40 0.4211
1022.50 0.421
1022.60 0.4209
1022.70 0.4208
1022.80 0.4208
1022.90 0.4207
1023.00 0.4206
1023.10 0.4205
1023.20 0.4204
1023.30 0.4203
1023.40 0.4202
1023.50 0.4202
1023.60 0.4201
1023.70 0.42
1023.80 0.4199
1023.90 0.4198
1024.00 0.4197
1024.10 0.4196
1024.20 0.4196
1024.30 0.4195
1024.40 0.4194
1024.50 0.4193
1024.60 0.4192
1024.70 0.4191
1024.80 0.4191
1024.90 0.419
1025.00 0.4189
1025.10 0.4188
1025.20 0.4187
1025.30 0.4186
1025.40 0.4186
1025.50 0.4185
1025.60 0.4184
1025.70 0.4183
1025.80 0.4182
1025.90 0.4181
1026.00 0.418
1026.10 0.418
1026.20 0.4179
1026.30 0.4178
1026.40 0.4177
1026.50 0.4176
1026.60 0.4175
1026.70 0.4175
1026.80 0.4174
1026.90 0.4173
1027.00 0.4172
1027.10 0.4171
1027.20 0.417
1027.30 0.4169
1027.40 0.4169
1027.50 0.4168
1027.60 0.4167
1027.70 0.4166
1027.80 0.4165
1027.90 0.4164
1028.00 0.4164
1028.10 0.4163
1028.20 0.4162
1028.30 0.4161
1028.40 0.416
1028.50 0.4159
1028.60 0.4159
1028.70 0.4158
1028.80 0.4157
1028.90 0.4156
1029.00 0.4155
1029.10 0.4154
1029.20 0.4154
1029.30 0.4153
1029.40 0.4152
1029.50 0.4151
1029.60 0.415
1029.70 0.4149
1029.80 0.4148
1029.90 0.4148
1030.00 0.4147
1030.10 0.4146
1030.20 0.4145
1030.30 0.4144
1030.40 0.4143
1030.50 0.4143
1030.60 0.4142
1030.70 0.4141
1030.80 0.414
1030.90 0.4139
1031.00 0.4138
1031.10 0.4138
1031.20 0.4137
1031.30 0.4136
1031.40 0.4135
1031.50 0.4134
1031.60 0.4133
1031.70 0.4133
1031.80 0.4132
1031.90 0.4131
1032.00 0.413
1032.10 0.4129
1032.20 0.4128
1032.30 0.4128
1032.40 0.4127
1032.50 0.4126
1032.60 0.4125
1032.70 0.4124
1032.80 0.4123
1032.90 0.4123
1033.00 0.4122
1033.10 0.4121
1033.20 0.412
1033.30 0.4119
1033.40 0.4118
1033.50 0.4118
1033.60 0.4117
1033.70 0.4116
1033.80 0.4115
1033.90 0.4114
1034.00 0.4114
1034.10 0.4113
1034.20 0.4112
1034.30 0.4111
1034.40 0.411
1034.50 0.4109
1034.60 0.4109
1034.70 0.4108
1034.80 0.4107
1034.90 0.4106
1035.00 0.4105
1035.10 0.4104
1035.20 0.4104
1035.30 0.4103
1035.40 0.4102
1035.50 0.4101
1035.60 0.41
1035.70 0.4099
1035.80 0.4099
1035.90 0.4098
1036.00 0.4097
1036.10 0.4096
1036.20 0.4095
1036.30 0.4095
1036.40 0.4094
1036.50 0.4093
1036.60 0.4092
1036.70 0.4091
1036.80 0.409
1036.90 0.409
1037.00 0.4089
1037.10 0.4088
1037.20 0.4087
1037.30 0.4086
1037.40 0.4085
1037.50 0.4085
1037.60 0.4084
1037.70 0.4083
1037.80 0.4082
1037.90 0.4081
1038.00 0.4081
1038.10 0.408
1038.20 0.4079
1038.30 0.4078
1038.40 0.4077
1038.50 0.4076
1038.60 0.4076
1038.70 0.4075
1038.80 0.4074
1038.90 0.4073
1039.00 0.4072
1039.10 0.4072
1039.20 0.4071
1039.30 0.407
1039.40 0.4069
1039.50 0.4068
1039.60 0.4067
1039.70 0.4067
1039.80 0.4066
1039.90 0.4065
1040.00 0.4064
1040.10 0.4063
1040.20 0.4063
1040.30 0.4062
1040.40 0.4061
1040.50 0.406
1040.60 0.4059
1040.70 0.4058
1040.80 0.4058
1040.90 0.4057
1041.00 0.4056
1041.10 0.4055
1041.20 0.4054
1041.30 0.4054
1041.40 0.4053
1041.50 0.4052
1041.60 0.4051
1041.70 0.405
1041.80 0.4049
1041.90 0.4049
1042.00 0.4048
1042.10 0.4047
1042.20 0.4046
1042.30 0.4045
1042.40 0.4045
1042.50 0.4044
1042.60 0.4043
1042.70 0.4042
1042.80 0.4041
1042.90 0.4041
1043.00 0.404
1043.10 0.4039
1043.20 0.4038
1043.30 0.4037
1043.40 0.4036
1043.50 0.4036
1043.60 0.4035
1043.70 0.4034
1043.80 0.4033
1043.90 0.4032
1044.00 0.4032
1044.10 0.4031
1044.20 0.403
1044.30 0.4029
1044.40 0.4028
1044.50 0.4028
1044.60 0.4027
1044.70 0.4026
1044.80 0.4025
1044.90 0.4024
1045.00 0.4024
1045.10 0.4023
1045.20 0.4022
1045.30 0.4021
1045.40 0.402
1045.50 0.4019
1045.60 0.4019
1045.70 0.4018
1045.80 0.4017
1045.90 0.4016
1046.00 0.4015
1046.10 0.4015
1046.20 0.4014
1046.30 0.4013
1046.40 0.4012
1046.50 0.4011
1046.60 0.4011
1046.70 0.401
1046.80 0.4009
1046.90 0.4008
1047.00 0.4007
1047.10 0.4007
1047.20 0.4006
1047.30 0.4005
1047.40 0.4004
1047.50 0.4003
1047.60 0.4003
1047.70 0.4002
1047.80 0.4001
1047.90 0.4
1048.00 0.3999
1048.10 0.3999
1048.20 0.3998
1048.30 0.3997
1048.40 0.3996
1048.50 0.3995
1048.60 0.3995
1048.70 0.3994
1048.80 0.3993
1048.90 0.3992
1049.00 0.3991
1049.10 0.3991
1049.20 0.399
1049.30 0.3989
1049.40 0.3988
1049.50 0.3987
1049.60 0.3987
1049.70 0.3986
1049.80 0.3985
1049.90 0.3984
1050.00 0.3983
1050.10 0.3983
1050.20 0.3982
1050.30 0.3981
1050.40 0.398
1050.50 0.3979
1050.60 0.3979
1050.70 0.3978
1050.80 0.3977
1050.90 0.3976
1051.00 0.3975
1051.10 0.3975
1051.20 0.3974
1051.30 0.3973
1051.40 0.3972
1051.50 0.3971
1051.60 0.3971
1051.70 0.397
1051.80 0.3969
1051.90 0.3968
1052.00 0.3967
1052.10 0.3967
1052.20 0.3966
1052.30 0.3965
1052.40 0.3964
1052.50 0.3963
1052.60 0.3963
1052.70 0.3962
1052.80 0.3961
1052.90 0.396
1053.00 0.3959
1053.10 0.3959
1053.20 0.3958
1053.30 0.3957
1053.40 0.3956
1053.50 0.3956
1053.60 0.3955
1053.70 0.3954
1053.80 0.3953
1053.90 0.3952
1054.00 0.3952
1054.10 0.3951
1054.20 0.395
1054.30 0.3949
1054.40 0.3948
1054.50 0.3948
1054.60 0.3947
1054.70 0.3946
1054.80 0.3945
1054.90 0.3944
1055.00 0.3944
1055.10 0.3943
1055.20 0.3942
1055.30 0.3941
1055.40 0.3941
1055.50 0.394
1055.60 0.3939
1055.70 0.3938
1055.80 0.3937
1055.90 0.3937
1056.00 0.3936
1056.10 0.3935
1056.20 0.3934
1056.30 0.3933
1056.40 0.3933
1056.50 0.3932
1056.60 0.3931
1056.70 0.393
1056.80 0.3929
1056.90 0.3929
1057.00 0.3928
1057.10 0.3927
1057.20 0.3926
1057.30 0.3926
1057.40 0.3925
1057.50 0.3924
1057.60 0.3923
1057.70 0.3922
1057.80 0.3922
1057.90 0.3921
1058.00 0.392
1058.10 0.3919
1058.20 0.3918
1058.30 0.3918
1058.40 0.3917
1058.50 0.3916
1058.60 0.3915
1058.70 0.3915
1058.80 0.3914
1058.90 0.3913
1059.00 0.3912
1059.10 0.3911
1059.20 0.3911
1059.30 0.391
1059.40 0.3909
1059.50 0.3908
1059.60 0.3908
1059.70 0.3907
1059.80 0.3906
1059.90 0.3905
1060.00 0.3904
1060.10 0.3904
1060.20 0.3903
1060.30 0.3902
1060.40 0.3901
1060.50 0.3901
1060.60 0.39
1060.70 0.3899
1060.80 0.3898
1060.90 0.3897
1061.00 0.3897
1061.10 0.3896
1061.20 0.3895
1061.30 0.3894
1061.40 0.3894
1061.50 0.3893
1061.60 0.3892
1061.70 0.3891
1061.80 0.389
1061.90 0.389
1062.00 0.3889
1062.10 0.3888
1062.20 0.3887
1062.30 0.3887
1062.40 0.3886
1062.50 0.3885
1062.60 0.3884
1062.70 0.3883
1062.80 0.3883
1062.90 0.3882
1063.00 0.3881
1063.10 0.388
1063.20 0.388
1063.30 0.3879
1063.40 0.3878
1063.50 0.3877
1063.60 0.3876
1063.70 0.3876
1063.80 0.3875
1063.90 0.3874
1064.00 0.3873
1064.10 0.3873
1064.20 0.3872
1064.30 0.3871
1064.40 0.387
1064.50 0.3869
1064.60 0.3869
1064.70 0.3868
1064.80 0.3867
1064.90 0.3866
1065.00 0.3866
1065.10 0.3865
1065.20 0.3864
1065.30 0.3863
1065.40 0.3863
1065.50 0.3862
1065.60 0.3861
1065.70 0.386
1065.80 0.3859
1065.90 0.3859
1066.00 0.3858
1066.10 0.3857
1066.20 0.3856
1066.30 0.3856
1066.40 0.3855
1066.50 0.3854
1066.60 0.3853
1066.70 0.3853
1066.80 0.3852
1066.90 0.3851
1067.00 0.385
1067.10 0.3849
1067.20 0.3849
1067.30 0.3848
1067.40 0.3847
1067.50 0.3846
1067.60 0.3846
1067.70 0.3845
1067.80 0.3844
1067.90 0.3843
1068.00 0.3843
1068.10 0.3842
1068.20 0.3841
1068.30 0.384
1068.40 0.3839
1068.50 0.3839
1068.60 0.3838
1068.70 0.3837
1068.80 0.3836
1068.90 0.3836
1069.00 0.3835
1069.10 0.3834
1069.20 0.3833
1069.30 0.3833
1069.40 0.3832
1069.50 0.3831
1069.60 0.383
1069.70 0.383
1069.80 0.3829
1069.90 0.3828
1070.00 0.3827
1070.10 0.3826
1070.20 0.3826
1070.30 0.3825
1070.40 0.3824
1070.50 0.3823
1070.60 0.3823
1070.70 0.3822
1070.80 0.3821
1070.90 0.382
1071.00 0.382
1071.10 0.3819
1071.20 0.3818
1071.30 0.3817
1071.40 0.3817
1071.50 0.3816
1071.60 0.3815
1071.70 0.3814
1071.80 0.3814
1071.90 0.3813
1072.00 0.3812
1072.10 0.3811
1072.20 0.3811
1072.30 0.381
1072.40 0.3809
1072.50 0.3808
1072.60 0.3807
1072.70 0.3807
1072.80 0.3806
1072.90 0.3805
1073.00 0.3804
1073.10 0.3804
1073.20 0.3803
1073.30 0.3802
1073.40 0.3801
1073.50 0.3801
1073.60 0.38
1073.70 0.3799
1073.80 0.3798
1073.90 0.3798
1074.00 0.3797
1074.10 0.3796
1074.20 0.3795
1074.30 0.3795
1074.40 0.3794
1074.50 0.3793
1074.60 0.3792
1074.70 0.3792
1074.80 0.3791
1074.90 0.379
1075.00 0.3789
1075.10 0.3789
1075.20 0.3788
1075.30 0.3787
1075.40 0.3786
1075.50 0.3786
1075.60 0.3785
1075.70 0.3784
1075.80 0.3783
1075.90 0.3783
1076.00 0.3782
1076.10 0.3781
1076.20 0.378
1076.30 0.378
1076.40 0.3779
1076.50 0.3778
1076.60 0.3777
1076.70 0.3777
1076.80 0.3776
1076.90 0.3775
1077.00 0.3774
1077.10 0.3774
1077.20 0.3773
1077.30 0.3772
1077.40 0.3771
1077.50 0.3771
1077.60 0.377
1077.70 0.3769
1077.80 0.3768
1077.90 0.3768
1078.00 0.3767
1078.10 0.3766
1078.20 0.3765
1078.30 0.3765
1078.40 0.3764
1078.50 0.3763
1078.60 0.3762
1078.70 0.3762
1078.80 0.3761
1078.90 0.376
1079.00 0.3759
1079.10 0.3759
1079.20 0.3758
1079.30 0.3757
1079.40 0.3756
1079.50 0.3756
1079.60 0.3755
1079.70 0.3754
1079.80 0.3753
1079.90 0.3753
1080.00 0.3752
1080.10 0.3751
1080.20 0.375
1080.30 0.375
1080.40 0.3749
1080.50 0.3748
1080.60 0.3747
1080.70 0.3747
1080.80 0.3746
1080.90 0.3745
1081.00 0.3744
1081.10 0.3744
1081.20 0.3743
1081.30 0.3742
1081.40 0.3742
1081.50 0.3741
1081.60 0.374
1081.70 0.3739
1081.80 0.3739
1081.90 0.3738
1082.00 0.3737
1082.10 0.3736
1082.20 0.3736
1082.30 0.3735
1082.40 0.3734
1082.50 0.3733
1082.60 0.3733
1082.70 0.3732
1082.80 0.3731
1082.90 0.373
1083.00 0.373
1083.10 0.3729
1083.20 0.3728
1083.30 0.3727
1083.40 0.3727
1083.50 0.3726
1083.60 0.3725
1083.70 0.3724
1083.80 0.3724
1083.90 0.3723
1084.00 0.3722
1084.10 0.3722
1084.20 0.3721
1084.30 0.372
1084.40 0.3719
1084.50 0.3719
1084.60 0.3718
1084.70 0.3717
1084.80 0.3716
1084.90 0.3716
1085.00 0.3715
1085.10 0.3714
1085.20 0.3713
1085.30 0.3713
1085.40 0.3712
1085.50 0.3711
1085.60 0.371
1085.70 0.371
1085.80 0.3709
1085.90 0.3708
1086.00 0.3708
1086.10 0.3707
1086.20 0.3706
1086.30 0.3705
1086.40 0.3705
1086.50 0.3704
1086.60 0.3703
1086.70 0.3702
1086.80 0.3702
1086.90 0.3701
1087.00 0.37
1087.10 0.3699
1087.20 0.3699
1087.30 0.3698
1087.40 0.3697
1087.50 0.3697
1087.60 0.3696
1087.70 0.3695
1087.80 0.3694
1087.90 0.3694
1088.00 0.3693
1088.10 0.3692
1088.20 0.3691
1088.30 0.3691
1088.40 0.369
1088.50 0.3689
1088.60 0.3688
1088.70 0.3688
1088.80 0.3687
1088.90 0.3686
1089.00 0.3686
1089.10 0.3685
1089.20 0.3684
1089.30 0.3683
1089.40 0.3683
1089.50 0.3682
1089.60 0.3681
1089.70 0.368
1089.80 0.368
1089.90 0.3679
1090.00 0.3678
1090.10 0.3677
1090.20 0.3677
1090.30 0.3676
1090.40 0.3675
1090.50 0.3675
1090.60 0.3674
1090.70 0.3673
1090.80 0.3672
1090.90 0.3672
1091.00 0.3671
1091.10 0.367
1091.20 0.3669
1091.30 0.3668
1091.40 0.3668
1091.50 0.3667
1091.60 0.3666
1091.70 0.3665
1091.80 0.3665
1091.90 0.3664
1092.00 0.3663
1092.10 0.3662
1092.20 0.3661
1092.30 0.366
1092.40 0.3659
1092.50 0.3658
1092.60 0.3657
1092.70 0.3655
1092.80 0.3651
1092.90 0.3648
1093.00 0.3645
1093.10 0.3636
1093.20 0.3619
1093.30 0.3598
1093.40 0.3529
1093.50 0.3485
1093.60 0.3578
1093.70 0.3609
1093.80 0.3625
1093.90 0.3637
1094.00 0.3639
1094.10 0.3641
1094.20 0.3643
1094.30 0.3644
1094.40 0.3644
1094.50 0.3644
1094.60 0.3643
1094.70 0.3643
1094.80 0.3642
1094.90 0.3642
1095.00 0.3642
1095.10 0.3641
1095.20 0.364
1095.30 0.3639
1095.40 0.3639
1095.50 0.3638
1095.60 0.3637
1095.70 0.3637
1095.80 0.3636
1095.90 0.3635
1096.00 0.3635
1096.10 0.3634
1096.20 0.3633
1096.30 0.3633
1096.40 0.3632
1096.50 0.3631
1096.60 0.3631
1096.70 0.363
1096.80 0.3629
1096.90 0.3628
1097.00 0.3628
1097.10 0.3627
1097.20 0.3626
1097.30 0.3626
1097.40 0.3625
1097.50 0.3624
1097.60 0.3623
1097.70 0.3623
1097.80 0.3622
1097.90 0.3621
1098.00 0.3621
1098.10 0.362
1098.20 0.3619
1098.30 0.3618
1098.40 0.3618
1098.50 0.3617
1098.60 0.3616
1098.70 0.3616
1098.80 0.3615
1098.90 0.3614
1099.00 0.3613
1099.10 0.3613
1099.20 0.3612
1099.30 0.3611
1099.40 0.3611
1099.50 0.361
1099.60 0.3609
1099.70 0.3608
1099.80 0.3608
1099.90 0.3607
1100.00 0.3606
1100.10 0.3606
1100.20 0.3605
1100.30 0.3604
1100.40 0.3604
1100.50 0.3603
1100.60 0.3602
1100.70 0.3601
1100.80 0.3601
1100.90 0.36
1101.00 0.3599
1101.10 0.3599
1101.20 0.3598
1101.30 0.3597
1101.40 0.3596
1101.50 0.3596
1101.60 0.3595
1101.70 0.3594
1101.80 0.3594
1101.90 0.3593
1102.00 0.3592
1102.10 0.3591
1102.20 0.3591
1102.30 0.359
1102.40 0.3589
1102.50 0.3589
1102.60 0.3588
1102.70 0.3587
1102.80 0.3587
1102.90 0.3586
1103.00 0.3585
1103.10 0.3584
1103.20 0.3584
1103.30 0.3583
1103.40 0.3582
1103.50 0.3582
1103.60 0.3581
1103.70 0.358
1103.80 0.358
1103.90 0.3579
1104.00 0.3578
1104.10 0.3577
1104.20 0.3577
1104.30 0.3576
1104.40 0.3575
1104.50 0.3575
1104.60 0.3574
1104.70 0.3573
1104.80 0.3572
1104.90 0.3572
1105.00 0.3571
1105.10 0.357
1105.20 0.357
1105.30 0.3569
1105.40 0.3568
1105.50 0.3568
1105.60 0.3567
1105.70 0.3566
1105.80 0.3565
1105.90 0.3565
1106.00 0.3564
1106.10 0.3563
1106.20 0.3563
1106.30 0.3562
1106.40 0.3561
1106.50 0.3561
1106.60 0.356
1106.70 0.3559
1106.80 0.3558
1106.90 0.3558
1107.00 0.3557
1107.10 0.3556
1107.20 0.3556
1107.30 0.3555
1107.40 0.3554
1107.50 0.3554
1107.60 0.3553
1107.70 0.3552
1107.80 0.3551
1107.90 0.3551
1108.00 0.355
1108.10 0.3549
1108.20 0.3549
1108.30 0.3548
1108.40 0.3547
1108.50 0.3547
1108.60 0.3546
1108.70 0.3545
1108.80 0.3544
1108.90 0.3544
1109.00 0.3543
1109.10 0.3542
1109.20 0.3542
1109.30 0.3541
1109.40 0.354
1109.50 0.354
1109.60 0.3539
1109.70 0.3538
1109.80 0.3538
1109.90 0.3537
1110.00 0.3536
1110.10 0.3535
1110.20 0.3535
1110.30 0.3534
1110.40 0.3533
1110.50 0.3533
1110.60 0.3532
1110.70 0.3531
1110.80 0.3531
1110.90 0.353
1111.00 0.3529
1111.10 0.3529
1111.20 0.3528
1111.30 0.3527
1111.40 0.3526
1111.50 0.3526
1111.60 0.3525
1111.70 0.3524
1111.80 0.3524
1111.90 0.3523
1112.00 0.3522
1112.10 0.3522
1112.20 0.3521
1112.30 0.352
1112.40 0.352
1112.50 0.3519
1112.60 0.3518
1112.70 0.3517
1112.80 0.3517
1112.90 0.3516
1113.00 0.3515
1113.10 0.3515
1113.20 0.3514
1113.30 0.3513
1113.40 0.3513
1113.50 0.3512
1113.60 0.3511
1113.70 0.3511
1113.80 0.351
1113.90 0.3509
1114.00 0.3509
1114.10 0.3508
1114.20 0.3507
1114.30 0.3506
1114.40 0.3506
1114.50 0.3505
1114.60 0.3504
1114.70 0.3504
1114.80 0.3503
1114.90 0.3502
1115.00 0.3502
1115.10 0.3501
1115.20 0.35
1115.30 0.35
1115.40 0.3499
1115.50 0.3498
1115.60 0.3498
1115.70 0.3497
1115.80 0.3496
1115.90 0.3495
1116.00 0.3495
1116.10 0.3494
1116.20 0.3493
1116.30 0.3493
1116.40 0.3492
1116.50 0.3491
1116.60 0.3491
1116.70 0.349
1116.80 0.3489
1116.90 0.3489
1117.00 0.3488
1117.10 0.3487
1117.20 0.3487
1117.30 0.3486
1117.40 0.3485
1117.50 0.3485
1117.60 0.3484
1117.70 0.3483
1117.80 0.3483
1117.90 0.3482
1118.00 0.3481
1118.10 0.348
1118.20 0.348
1118.30 0.3479
1118.40 0.3478
1118.50 0.3478
1118.60 0.3477
1118.70 0.3476
1118.80 0.3476
1118.90 0.3475
1119.00 0.3474
1119.10 0.3474
1119.20 0.3473
1119.30 0.3472
1119.40 0.3472
1119.50 0.3471
1119.60 0.347
1119.70 0.347
1119.80 0.3469
1119.90 0.3468
1120.00 0.3468
1120.10 0.3467
1120.20 0.3466
1120.30 0.3466
1120.40 0.3465
1120.50 0.3464
1120.60 0.3463
1120.70 0.3463
1120.80 0.3462
1120.90 0.3461
1121.00 0.3461
1121.10 0.346
1121.20 0.3459
1121.30 0.3459
1121.40 0.3458
1121.50 0.3457
1121.60 0.3457
1121.70 0.3456
1121.80 0.3455
1121.90 0.3455
1122.00 0.3454
1122.10 0.3453
1122.20 0.3453
1122.30 0.3452
1122.40 0.3451
1122.50 0.3451
1122.60 0.345
1122.70 0.3449
1122.80 0.3449
1122.90 0.3448
1123.00 0.3447
1123.10 0.3447
1123.20 0.3446
1123.30 0.3445
1123.40 0.3445
1123.50 0.3444
1123.60 0.3443
1123.70 0.3443
1123.80 0.3442
1123.90 0.3441
1124.00 0.3441
1124.10 0.344
1124.20 0.3439
1124.30 0.3439
1124.40 0.3438
1124.50 0.3437
1124.60 0.3437
1124.70 0.3436
1124.80 0.3435
1124.90 0.3435
1125.00 0.3434
1125.10 0.3433
1125.20 0.3433
1125.30 0.3432
1125.40 0.3431
1125.50 0.3431
1125.60 0.343
1125.70 0.3429
1125.80 0.3429
1125.90 0.3428
1126.00 0.3427
1126.10 0.3427
1126.20 0.3426
1126.30 0.3425
1126.40 0.3425
1126.50 0.3424
1126.60 0.3423
1126.70 0.3423
1126.80 0.3422
1126.90 0.3421
1127.00 0.3421
1127.10 0.342
1127.20 0.3419
1127.30 0.3419
1127.40 0.3418
1127.50 0.3417
1127.60 0.3417
1127.70 0.3416
1127.80 0.3415
1127.90 0.3415
1128.00 0.3414
1128.10 0.3413
1128.20 0.3413
1128.30 0.3412
1128.40 0.3411
1128.50 0.3411
1128.60 0.341
1128.70 0.3409
1128.80 0.3409
1128.90 0.3408
1129.00 0.3407
1129.10 0.3407
1129.20 0.3406
1129.30 0.3405
1129.40 0.3405
1129.50 0.3404
1129.60 0.3403
1129.70 0.3403
1129.80 0.3402
1129.90 0.3401
1130.00 0.3401
1130.10 0.34
1130.20 0.3399
1130.30 0.3399
1130.40 0.3398
1130.50 0.3397
1130.60 0.3397
1130.70 0.3396
1130.80 0.3395
1130.90 0.3395
1131.00 0.3394
1131.10 0.3393
1131.20 0.3393
1131.30 0.3392
1131.40 0.3391
1131.50 0.3391
1131.60 0.339
1131.70 0.3389
1131.80 0.3389
1131.90 0.3388
1132.00 0.3387
1132.10 0.3387
1132.20 0.3386
1132.30 0.3385
1132.40 0.3385
1132.50 0.3384
1132.60 0.3383
1132.70 0.3383
1132.80 0.3382
1132.90 0.3381
1133.00 0.3381
1133.10 0.338
1133.20 0.3379
1133.30 0.3379
1133.40 0.3378
1133.50 0.3378
1133.60 0.3377
1133.70 0.3376
1133.80 0.3376
1133.90 0.3375
1134.00 0.3374
1134.10 0.3374
1134.20 0.3373
1134.30 0.3372
1134.40 0.3372
1134.50 0.3371
1134.60 0.337
1134.70 0.337
1134.80 0.3369
1134.90 0.3368
1135.00 0.3368
1135.10 0.3367
1135.20 0.3366
1135.30 0.3366
1135.40 0.3365
1135.50 0.3364
1135.60 0.3364
1135.70 0.3363
1135.80 0.3362
1135.90 0.3362
1136.00 0.3361
1136.10 0.336
1136.20 0.336
1136.30 0.3359
1136.40 0.3359
1136.50 0.3358
1136.60 0.3357
1136.70 0.3357
1136.80 0.3356
1136.90 0.3355
1137.00 0.3355
1137.10 0.3354
1137.20 0.3353
1137.30 0.3353
1137.40 0.3352
1137.50 0.3351
1137.60 0.3351
1137.70 0.335
1137.80 0.3349
1137.90 0.3349
1138.00 0.3348
1138.10 0.3347
1138.20 0.3347
1138.30 0.3346
1138.40 0.3346
1138.50 0.3345
1138.60 0.3344
1138.70 0.3344
1138.80 0.3343
1138.90 0.3342
1139.00 0.3342
1139.10 0.3341
1139.20 0.334
1139.30 0.334
1139.40 0.3339
1139.50 0.3338
1139.60 0.3338
1139.70 0.3337
1139.80 0.3336
1139.90 0.3336
1140.00 0.3335
1140.10 0.3335
1140.20 0.3334
1140.30 0.3333
1140.40 0.3333
1140.50 0.3332
1140.60 0.3331
1140.70 0.3331
1140.80 0.333
1140.90 0.3329
1141.00 0.3329
1141.10 0.3328
1141.20 0.3327
1141.30 0.3327
1141.40 0.3326
1141.50 0.3325
1141.60 0.3325
1141.70 0.3324
1141.80 0.3324
1141.90 0.3323
1142.00 0.3322
1142.10 0.3322
1142.20 0.3321
1142.30 0.332
1142.40 0.332
1142.50 0.3319
1142.60 0.3318
1142.70 0.3318
1142.80 0.3317
1142.90 0.3316
1143.00 0.3316
1143.10 0.3315
1143.20 0.3315
1143.30 0.3314
1143.40 0.3313
1143.50 0.3313
1143.60 0.3312
1143.70 0.3311
1143.80 0.3311
1143.90 0.331
1144.00 0.3309
1144.10 0.3309
1144.20 0.3308
1144.30 0.3308
1144.40 0.3307
1144.50 0.3306
1144.60 0.3306
1144.70 0.3305
1144.80 0.3304
1144.90 0.3304
1145.00 0.3303
1145.10 0.3302
1145.20 0.3302
1145.30 0.3301
1145.40 0.33
1145.50 0.33
1145.60 0.3299
1145.70 0.3299
1145.80 0.3298
1145.90 0.3297
1146.00 0.3297
1146.10 0.3296
1146.20 0.3295
1146.30 0.3295
1146.40 0.3294
1146.50 0.3293
1146.60 0.3293
1146.70 0.3292
1146.80 0.3292
1146.90 0.3291
1147.00 0.329
1147.10 0.329
1147.20 0.3289
1147.30 0.3288
1147.40 0.3288
1147.50 0.3287
1147.60 0.3286
1147.70 0.3286
1147.80 0.3285
1147.90 0.3285
1148.00 0.3284
1148.10 0.3283
1148.20 0.3283
1148.30 0.3282
1148.40 0.3281
1148.50 0.3281
1148.60 0.328
1148.70 0.328
1148.80 0.3279
1148.90 0.3278
1149.00 0.3278
1149.10 0.3277
1149.20 0.3276
1149.30 0.3276
1149.40 0.3275
1149.50 0.3274
1149.60 0.3274
1149.70 0.3273
1149.80 0.3273
1149.90 0.3272
1150.00 0.3271
1150.10 0.3271
1150.20 0.327
1150.30 0.3269
1150.40 0.3269
1150.50 0.3268
1150.60 0.3268
1150.70 0.3267
1150.80 0.3266
1150.90 0.3266
1151.00 0.3265
1151.10 0.3264
1151.20 0.3264
1151.30 0.3263
1151.40 0.3263
1151.50 0.3262
1151.60 0.3261
1151.70 0.3261
1151.80 0.326
1151.90 0.3259
1152.00 0.3259
1152.10 0.3258
1152.20 0.3257
1152.30 0.3257
1152.40 0.3256
1152.50 0.3256
1152.60 0.3255
1152.70 0.3254
1152.80 0.3254
1152.90 0.3253
1153.00 0.3252
1153.10 0.3252
1153.20 0.3251
1153.30 0.3251
1153.40 0.325
1153.50 0.3249
1153.60 0.3249
1153.70 0.3248
1153.80 0.3247
1153.90 0.3247
1154.00 0.3246
1154.10 0.3246
1154.20 0.3245
1154.30 0.3244
1154.40 0.3244
1154.50 0.3243
1154.60 0.3242
1154.70 0.3242
1154.80 0.3241
1154.90 0.3241
1155.00 0.324
1155.10 0.3239
1155.20 0.3239
1155.30 0.3238
1155.40 0.3237
1155.50 0.3237
1155.60 0.3236
1155.70 0.3236
1155.80 0.3235
1155.90 0.3234
1156.00 0.3234
1156.10 0.3233
1156.20 0.3232
1156.30 0.3232
1156.40 0.3231
1156.50 0.3231
1156.60 0.323
1156.70 0.3229
1156.80 0.3229
1156.90 0.3228
1157.00 0.3228
1157.10 0.3227
1157.20 0.3226
1157.30 0.3226
1157.40 0.3225
1157.50 0.3224
1157.60 0.3224
1157.70 0.3223
1157.80 0.3223
1157.90 0.3222
1158.00 0.3221
1158.10 0.3221
1158.20 0.322
1158.30 0.3219
1158.40 0.3219
1158.50 0.3218
1158.60 0.3218
1158.70 0.3217
1158.80 0.3216
1158.90 0.3216
1159.00 0.3215
1159.10 0.3215
1159.20 0.3214
1159.30 0.3213
1159.40 0.3213
1159.50 0.3212
1159.60 0.3211
1159.70 0.3211
1159.80 0.321
1159.90 0.321
1160.00 0.3209
1160.10 0.3208
1160.20 0.3208
1160.30 0.3207
1160.40 0.3207
1160.50 0.3206
1160.60 0.3205
1160.70 0.3205
1160.80 0.3204
1160.90 0.3203
1161.00 0.3203
1161.10 0.3202
1161.20 0.3202
1161.30 0.3201
1161.40 0.32
1161.50 0.32
1161.60 0.3199
1161.70 0.3199
1161.80 0.3198
1161.90 0.3197
1162.00 0.3197
1162.10 0.3196
1162.20 0.3195
1162.30 0.3195
1162.40 0.3194
1162.50 0.3194
1162.60 0.3193
1162.70 0.3192
1162.80 0.3192
1162.90 0.3191
1163.00 0.3191
1163.10 0.319
1163.20 0.3189
1163.30 0.3189
1163.40 0.3188
1163.50 0.3188
1163.60 0.3187
1163.70 0.3186
1163.80 0.3186
1163.90 0.3185
1164.00 0.3184
1164.10 0.3184
1164.20 0.3183
1164.30 0.3183
1164.40 0.3182
1164.50 0.3181
1164.60 0.3181
1164.70 0.318
1164.80 0.318
1164.90 0.3179
1165.00 0.3178
1165.10 0.3178
1165.20 0.3177
1165.30 0.3177
1165.40 0.3176
1165.50 0.3175
1165.60 0.3175
1165.70 0.3174
1165.80 0.3173
1165.90 0.3173
1166.00 0.3172
1166.10 0.3172
1166.20 0.3171
1166.30 0.317
1166.40 0.317
1166.50 0.3169
1166.60 0.3169
1166.70 0.3168
1166.80 0.3167
1166.90 0.3167
1167.00 0.3166
1167.10 0.3166
1167.20 0.3165
1167.30 0.3164
1167.40 0.3164
1167.50 0.3163
1167.60 0.3163
1167.70 0.3162
1167.80 0.3161
1167.90 0.3161
1168.00 0.316
1168.10 0.316
1168.20 0.3159
1168.30 0.3158
1168.40 0.3158
1168.50 0.3157
1168.60 0.3157
1168.70 0.3156
1168.80 0.3155
1168.90 0.3155
1169.00 0.3154
1169.10 0.3154
1169.20 0.3153
1169.30 0.3152
1169.40 0.3152
1169.50 0.3151
1169.60 0.315
1169.70 0.315
1169.80 0.3149
1169.90 0.3149
1170.00 0.3148
1170.10 0.3147
1170.20 0.3147
1170.30 0.3146
1170.40 0.3146
1170.50 0.3145
1170.60 0.3144
1170.70 0.3144
1170.80 0.3143
1170.90 0.3143
1171.00 0.3142
1171.10 0.3141
1171.20 0.3141
1171.30 0.314
1171.40 0.314
1171.50 0.3139
1171.60 0.3138
1171.70 0.3138
1171.80 0.3137
1171.90 0.3137
1172.00 0.3136
1172.10 0.3135
1172.20 0.3135
1172.30 0.3134
1172.40 0.3134
1172.50 0.3133
1172.60 0.3132
1172.70 0.3132
1172.80 0.3131
1172.90 0.3131
1173.00 0.313
1173.10 0.3129
1173.20 0.3129
1173.30 0.3128
1173.40 0.3128
1173.50 0.3127
1173.60 0.3127
1173.70 0.3126
1173.80 0.3125
1173.90 0.3125
1174.00 0.3124
1174.10 0.3124
1174.20 0.3123
1174.30 0.3122
1174.40 0.3122
1174.50 0.3121
1174.60 0.3121
1174.70 0.312
1174.80 0.3119
1174.90 0.3119
1175.00 0.3118
1175.10 0.3118
1175.20 0.3117
1175.30 0.3116
1175.40 0.3116
1175.50 0.3115
1175.60 0.3115
1175.70 0.3114
1175.80 0.3113
1175.90 0.3113
1176.00 0.3112
1176.10 0.3112
1176.20 0.3111
1176.30 0.311
1176.40 0.311
1176.50 0.3109
1176.60 0.3109
1176.70 0.3108
1176.80 0.3108
1176.90 0.3107
1177.00 0.3106
1177.10 0.3106
1177.20 0.3105
1177.30 0.3105
1177.40 0.3104
1177.50 0.3103
1177.60 0.3103
1177.70 0.3102
1177.80 0.3102
1177.90 0.3101
1178.00 0.31
1178.10 0.31
1178.20 0.3099
1178.30 0.3099
1178.40 0.3098
1178.50 0.3097
1178.60 0.3097
1178.70 0.3096
1178.80 0.3096
1178.90 0.3095
1179.00 0.3095
1179.10 0.3094
1179.20 0.3093
1179.30 0.3093
1179.40 0.3092
1179.50 0.3092
1179.60 0.3091
1179.70 0.309
1179.80 0.309
1179.90 0.3089
1180.00 0.3089
1180.10 0.3088
1180.20 0.3087
1180.30 0.3087
1180.40 0.3086
1180.50 0.3086
1180.60 0.3085
1180.70 0.3085
1180.80 0.3084
1180.90 0.3083
1181.00 0.3083
1181.10 0.3082
1181.20 0.3082
1181.30 0.3081
1181.40 0.308
1181.50 0.308
1181.60 0.3079
1181.70 0.3079
1181.80 0.3078
1181.90 0.3078
1182.00 0.3077
1182.10 0.3076
1182.20 0.3076
1182.30 0.3075
1182.40 0.3075
1182.50 0.3074
1182.60 0.3073
1182.70 0.3073
1182.80 0.3072
1182.90 0.3072
1183.00 0.3071
1183.10 0.3071
1183.20 0.307
1183.30 0.3069
1183.40 0.3069
1183.50 0.3068
1183.60 0.3068
1183.70 0.3067
1183.80 0.3066
1183.90 0.3066
1184.00 0.3065
1184.10 0.3065
1184.20 0.3064
1184.30 0.3064
1184.40 0.3063
1184.50 0.3062
1184.60 0.3062
1184.70 0.3061
1184.80 0.3061
1184.90 0.306
1185.00 0.3059
1185.10 0.3059
1185.20 0.3058
1185.30 0.3058
1185.40 0.3057
1185.50 0.3057
1185.60 0.3056
1185.70 0.3055
1185.80 0.3055
1185.90 0.3054
1186.00 0.3054
1186.10 0.3053
1186.20 0.3053
1186.30 0.3052
1186.40 0.3051
1186.50 0.3051
1186.60 0.305
1186.70 0.305
1186.80 0.3049
1186.90 0.3048
1187.00 0.3048
1187.10 0.3047
1187.20 0.3047
1187.30 0.3046
1187.40 0.3046
1187.50 0.3045
1187.60 0.3044
1187.70 0.3044
1187.80 0.3043
1187.90 0.3043
1188.00 0.3042
1188.10 0.3042
1188.20 0.3041
1188.30 0.304
1188.40 0.304
1188.50 0.3039
1188.60 0.3039
1188.70 0.3038
1188.80 0.3038
1188.90 0.3037
1189.00 0.3036
1189.10 0.3036
1189.20 0.3035
1189.30 0.3035
1189.40 0.3034
1189.50 0.3034
1189.60 0.3033
1189.70 0.3032
1189.80 0.3032
1189.90 0.3031
1190.00 0.3031
1190.10 0.303
1190.20 0.3029
1190.30 0.3029
1190.40 0.3028
1190.50 0.3028
1190.60 0.3027
1190.70 0.3027
1190.80 0.3026
1190.90 0.3025
1191.00 0.3025
1191.10 0.3024
1191.20 0.3024
1191.30 0.3023
1191.40 0.3023
1191.50 0.3022
1191.60 0.3021
1191.70 0.3021
1191.80 0.302
1191.90 0.302
1192.00 0.3019
1192.10 0.3019
1192.20 0.3018
1192.30 0.3017
1192.40 0.3017
1192.50 0.3016
1192.60 0.3016
1192.70 0.3015
1192.80 0.3015
1192.90 0.3014
1193.00 0.3013
1193.10 0.3013
1193.20 0.3012
1193.30 0.3012
1193.40 0.3011
1193.50 0.3011
1193.60 0.301
1193.70 0.301
1193.80 0.3009
1193.90 0.3008
1194.00 0.3008
1194.10 0.3007
1194.20 0.3007
1194.30 0.3006
1194.40 0.3006
1194.50 0.3005
1194.60 0.3004
1194.70 0.3004
1194.80 0.3003
1194.90 0.3003
1195.00 0.3002
1195.10 0.3002
1195.20 0.3001
1195.30 0.3
1195.40 0.3
1195.50 0.2999
1195.60 0.2999
1195.70 0.2998
1195.80 0.2998
1195.90 0.2997
1196.00 0.2996
1196.10 0.2996
1196.20 0.2995
1196.30 0.2995
1196.40 0.2994
1196.50 0.2994
1196.60 0.2993
1196.70 0.2993
1196.80 0.2992
1196.90 0.2991
1197.00 0.2991
1197.10 0.299
1197.20 0.299
1197.30 0.2989
1197.40 0.2989
1197.50 0.2988
1197.60 0.2987
1197.70 0.2987
1197.80 0.2986
1197.90 0.2986
1198.00 0.2985
1198.10 0.2985
1198.20 0.2984
1198.30 0.2984
1198.40 0.2983
1198.50 0.2982
1198.60 0.2982
1198.70 0.2981
1198.80 0.2981
1198.90 0.298
1199.00 0.298
1199.10 0.2979
1199.20 0.2978
1199.30 0.2978
1199.40 0.2977
1199.50 0.2977
1199.60 0.2976
1199.70 0.2976
1199.80 0.2975
1199.90 0.2975
1200.00 0
