# Version 2.1 - nm, norm@500 to 1, cut digits, bergeron_10500_95.dat_10500
# Wavelength(nm)  Flambda(ergs/cm^s/s/nm)
300.00 2.061
300.10 2.06
300.20 2.059
300.30 2.058
300.40 2.058
300.50 2.057
300.60 2.056
300.70 2.055
300.80 2.054
300.90 2.053
301.00 2.053
301.10 2.052
301.20 2.051
301.30 2.05
301.40 2.049
301.50 2.048
301.60 2.048
301.70 2.047
301.80 2.046
301.90 2.045
302.00 2.044
302.10 2.043
302.20 2.043
302.30 2.042
302.40 2.041
302.50 2.04
302.60 2.039
302.70 2.038
302.80 2.038
302.90 2.037
303.00 2.036
303.10 2.035
303.20 2.034
303.30 2.033
303.40 2.033
303.50 2.032
303.60 2.031
303.70 2.03
303.80 2.029
303.90 2.028
304.00 2.028
304.10 2.027
304.20 2.026
304.30 2.025
304.40 2.024
304.50 2.023
304.60 2.023
304.70 2.022
304.80 2.021
304.90 2.02
305.00 2.019
305.10 2.018
305.20 2.018
305.30 2.017
305.40 2.016
305.50 2.015
305.60 2.014
305.70 2.013
305.80 2.013
305.90 2.012
306.00 2.011
306.10 2.01
306.20 2.009
306.30 2.008
306.40 2.008
306.50 2.007
306.60 2.006
306.70 2.005
306.80 2.004
306.90 2.003
307.00 2.003
307.10 2.002
307.20 2.001
307.30 2
307.40 1.999
307.50 1.998
307.60 1.998
307.70 1.997
307.80 1.996
307.90 1.995
308.00 1.994
308.10 1.993
308.20 1.993
308.30 1.992
308.40 1.991
308.50 1.99
308.60 1.989
308.70 1.988
308.80 1.988
308.90 1.987
309.00 1.986
309.10 1.985
309.20 1.984
309.30 1.983
309.40 1.983
309.50 1.982
309.60 1.981
309.70 1.98
309.80 1.979
309.90 1.978
310.00 1.978
310.10 1.977
310.20 1.976
310.30 1.975
310.40 1.974
310.50 1.973
310.60 1.973
310.70 1.972
310.80 1.971
310.90 1.97
311.00 1.969
311.10 1.968
311.20 1.968
311.30 1.967
311.40 1.966
311.50 1.965
311.60 1.964
311.70 1.963
311.80 1.963
311.90 1.962
312.00 1.961
312.10 1.96
312.20 1.959
312.30 1.958
312.40 1.958
312.50 1.957
312.60 1.956
312.70 1.955
312.80 1.954
312.90 1.953
313.00 1.953
313.10 1.952
313.20 1.951
313.30 1.95
313.40 1.949
313.50 1.948
313.60 1.948
313.70 1.947
313.80 1.946
313.90 1.945
314.00 1.944
314.10 1.944
314.20 1.943
314.30 1.942
314.40 1.941
314.50 1.94
314.60 1.939
314.70 1.939
314.80 1.938
314.90 1.937
315.00 1.936
315.10 1.935
315.20 1.934
315.30 1.934
315.40 1.933
315.50 1.932
315.60 1.931
315.70 1.93
315.80 1.929
315.90 1.929
316.00 1.928
316.10 1.927
316.20 1.926
316.30 1.925
316.40 1.924
316.50 1.924
316.60 1.923
316.70 1.922
316.80 1.921
316.90 1.92
317.00 1.919
317.10 1.919
317.20 1.918
317.30 1.917
317.40 1.916
317.50 1.915
317.60 1.914
317.70 1.914
317.80 1.913
317.90 1.912
318.00 1.911
318.10 1.91
318.20 1.909
318.30 1.909
318.40 1.908
318.50 1.907
318.60 1.906
318.70 1.905
318.80 1.905
318.90 1.904
319.00 1.903
319.10 1.902
319.20 1.901
319.30 1.9
319.40 1.9
319.50 1.899
319.60 1.898
319.70 1.897
319.80 1.896
319.90 1.895
320.00 1.895
320.10 1.894
320.20 1.893
320.30 1.892
320.40 1.891
320.50 1.89
320.60 1.89
320.70 1.889
320.80 1.888
320.90 1.887
321.00 1.886
321.10 1.886
321.20 1.885
321.30 1.884
321.40 1.883
321.50 1.882
321.60 1.881
321.70 1.881
321.80 1.88
321.90 1.879
322.00 1.878
322.10 1.877
322.20 1.876
322.30 1.876
322.40 1.875
322.50 1.874
322.60 1.873
322.70 1.872
322.80 1.872
322.90 1.871
323.00 1.87
323.10 1.869
323.20 1.868
323.30 1.867
323.40 1.867
323.50 1.866
323.60 1.865
323.70 1.864
323.80 1.863
323.90 1.863
324.00 1.862
324.10 1.861
324.20 1.86
324.30 1.859
324.40 1.858
324.50 1.858
324.60 1.857
324.70 1.856
324.80 1.855
324.90 1.854
325.00 1.853
325.10 1.853
325.20 1.852
325.30 1.851
325.40 1.85
325.50 1.849
325.60 1.849
325.70 1.848
325.80 1.847
325.90 1.846
326.00 1.845
326.10 1.844
326.20 1.844
326.30 1.843
326.40 1.842
326.50 1.841
326.60 1.84
326.70 1.84
326.80 1.839
326.90 1.838
327.00 1.837
327.10 1.836
327.20 1.835
327.30 1.835
327.40 1.834
327.50 1.833
327.60 1.832
327.70 1.831
327.80 1.831
327.90 1.83
328.00 1.829
328.10 1.828
328.20 1.827
328.30 1.827
328.40 1.826
328.50 1.825
328.60 1.824
328.70 1.823
328.80 1.822
328.90 1.822
329.00 1.821
329.10 1.82
329.20 1.819
329.30 1.818
329.40 1.818
329.50 1.817
329.60 1.816
329.70 1.815
329.80 1.814
329.90 1.814
330.00 1.813
330.10 1.812
330.20 1.811
330.30 1.81
330.40 1.809
330.50 1.809
330.60 1.808
330.70 1.807
330.80 1.806
330.90 1.805
331.00 1.805
331.10 1.804
331.20 1.803
331.30 1.802
331.40 1.801
331.50 1.801
331.60 1.8
331.70 1.799
331.80 1.798
331.90 1.797
332.00 1.797
332.10 1.796
332.20 1.795
332.30 1.794
332.40 1.793
332.50 1.793
332.60 1.792
332.70 1.791
332.80 1.79
332.90 1.789
333.00 1.788
333.10 1.788
333.20 1.787
333.30 1.786
333.40 1.785
333.50 1.784
333.60 1.784
333.70 1.783
333.80 1.782
333.90 1.781
334.00 1.78
334.10 1.78
334.20 1.779
334.30 1.778
334.40 1.777
334.50 1.776
334.60 1.776
334.70 1.775
334.80 1.774
334.90 1.773
335.00 1.772
335.10 1.772
335.20 1.771
335.30 1.77
335.40 1.769
335.50 1.768
335.60 1.768
335.70 1.767
335.80 1.766
335.90 1.765
336.00 1.764
336.10 1.764
336.20 1.763
336.30 1.762
336.40 1.761
336.50 1.76
336.60 1.76
336.70 1.759
336.80 1.758
336.90 1.757
337.00 1.756
337.10 1.756
337.20 1.755
337.30 1.754
337.40 1.753
337.50 1.752
337.60 1.752
337.70 1.751
337.80 1.75
337.90 1.749
338.00 1.748
338.10 1.748
338.20 1.747
338.30 1.746
338.40 1.745
338.50 1.744
338.60 1.744
338.70 1.743
338.80 1.742
338.90 1.741
339.00 1.74
339.10 1.74
339.20 1.739
339.30 1.738
339.40 1.737
339.50 1.737
339.60 1.736
339.70 1.735
339.80 1.734
339.90 1.733
340.00 1.733
340.10 1.732
340.20 1.731
340.30 1.73
340.40 1.729
340.50 1.729
340.60 1.728
340.70 1.727
340.80 1.726
340.90 1.725
341.00 1.725
341.10 1.724
341.20 1.723
341.30 1.722
341.40 1.721
341.50 1.721
341.60 1.72
341.70 1.719
341.80 1.718
341.90 1.718
342.00 1.717
342.10 1.716
342.20 1.715
342.30 1.714
342.40 1.714
342.50 1.713
342.60 1.712
342.70 1.711
342.80 1.71
342.90 1.71
343.00 1.709
343.10 1.708
343.20 1.707
343.30 1.707
343.40 1.706
343.50 1.705
343.60 1.704
343.70 1.703
343.80 1.703
343.90 1.702
344.00 1.701
344.10 1.7
344.20 1.699
344.30 1.699
344.40 1.698
344.50 1.697
344.60 1.696
344.70 1.696
344.80 1.695
344.90 1.694
345.00 1.693
345.10 1.692
345.20 1.692
345.30 1.691
345.40 1.69
345.50 1.689
345.60 1.689
345.70 1.688
345.80 1.687
345.90 1.686
346.00 1.685
346.10 1.685
346.20 1.684
346.30 1.683
346.40 1.682
346.50 1.682
346.60 1.681
346.70 1.68
346.80 1.679
346.90 1.678
347.00 1.678
347.10 1.677
347.20 1.676
347.30 1.675
347.40 1.675
347.50 1.674
347.60 1.673
347.70 1.672
347.80 1.671
347.90 1.671
348.00 1.67
348.10 1.669
348.20 1.668
348.30 1.668
348.40 1.667
348.50 1.666
348.60 1.665
348.70 1.664
348.80 1.664
348.90 1.663
349.00 1.662
349.10 1.661
349.20 1.661
349.30 1.66
349.40 1.659
349.50 1.658
349.60 1.658
349.70 1.657
349.80 1.656
349.90 1.655
350.00 1.654
350.10 1.654
350.20 1.653
350.30 1.652
350.40 1.651
350.50 1.651
350.60 1.65
350.70 1.649
350.80 1.648
350.90 1.648
351.00 1.647
351.10 1.646
351.20 1.645
351.30 1.644
351.40 1.644
351.50 1.643
351.60 1.642
351.70 1.641
351.80 1.641
351.90 1.64
352.00 1.639
352.10 1.638
352.20 1.638
352.30 1.637
352.40 1.636
352.50 1.635
352.60 1.635
352.70 1.634
352.80 1.633
352.90 1.632
353.00 1.632
353.10 1.631
353.20 1.63
353.30 1.629
353.40 1.628
353.50 1.628
353.60 1.627
353.70 1.626
353.80 1.625
353.90 1.625
354.00 1.624
354.10 1.623
354.20 1.622
354.30 1.622
354.40 1.621
354.50 1.62
354.60 1.619
354.70 1.619
354.80 1.618
354.90 1.617
355.00 1.616
355.10 1.616
355.20 1.615
355.30 1.614
355.40 1.613
355.50 1.613
355.60 1.612
355.70 1.611
355.80 1.61
355.90 1.61
356.00 1.609
356.10 1.608
356.20 1.607
356.30 1.607
356.40 1.606
356.50 1.605
356.60 1.604
356.70 1.603
356.80 1.603
356.90 1.602
357.00 1.601
357.10 1.6
357.20 1.6
357.30 1.599
357.40 1.598
357.50 1.597
357.60 1.597
357.70 1.596
357.80 1.595
357.90 1.595
358.00 1.594
358.10 1.593
358.20 1.592
358.30 1.592
358.40 1.591
358.50 1.59
358.60 1.589
358.70 1.589
358.80 1.588
358.90 1.587
359.00 1.586
359.10 1.586
359.20 1.585
359.30 1.584
359.40 1.583
359.50 1.583
359.60 1.582
359.70 1.581
359.80 1.58
359.90 1.58
360.00 1.579
360.10 1.578
360.20 1.577
360.30 1.577
360.40 1.576
360.50 1.575
360.60 1.574
360.70 1.574
360.80 1.573
360.90 1.572
361.00 1.571
361.10 1.571
361.20 1.57
361.30 1.569
361.40 1.568
361.50 1.568
361.60 1.567
361.70 1.566
361.80 1.565
361.90 1.565
362.00 1.564
362.10 1.563
362.20 1.563
362.30 1.562
362.40 1.561
362.50 1.56
362.60 1.56
362.70 1.559
362.80 1.558
362.90 1.557
363.00 1.557
363.10 1.556
363.20 1.555
363.30 1.554
363.40 1.553
363.50 1.552
363.60 1.552
363.70 1.551
363.80 1.55
363.90 1.549
364.00 1.548
364.10 1.547
364.20 1.546
364.30 1.546
364.40 1.545
364.50 1.544
364.60 1.543
364.70 1.542
364.80 1.541
364.90 1.54
365.00 1.54
365.10 1.539
365.20 1.538
365.30 1.537
365.40 1.536
365.50 1.535
365.60 1.534
365.70 1.533
365.80 1.533
365.90 1.532
366.00 1.531
366.10 1.53
366.20 1.529
366.30 1.529
366.40 1.528
366.50 1.527
366.60 1.526
366.70 1.525
366.80 1.525
366.90 1.524
367.00 1.523
367.10 1.522
367.20 1.522
367.30 1.521
367.40 1.52
367.50 1.519
367.60 1.519
367.70 1.518
367.80 1.517
367.90 1.516
368.00 1.516
368.10 1.515
368.20 1.514
368.30 1.513
368.40 1.513
368.50 1.512
368.60 1.511
368.70 1.51
368.80 1.51
368.90 1.509
369.00 1.508
369.10 1.507
369.20 1.506
369.30 1.506
369.40 1.505
369.50 1.504
369.60 1.503
369.70 1.503
369.80 1.502
369.90 1.501
370.00 1.5
370.10 1.5
370.20 1.499
370.30 1.498
370.40 1.498
370.50 1.497
370.60 1.496
370.70 1.495
370.80 1.495
370.90 1.494
371.00 1.493
371.10 1.493
371.20 1.492
371.30 1.491
371.40 1.49
371.50 1.49
371.60 1.489
371.70 1.488
371.80 1.488
371.90 1.487
372.00 1.486
372.10 1.486
372.20 1.485
372.30 1.484
372.40 1.484
372.50 1.483
372.60 1.483
372.70 1.482
372.80 1.481
372.90 1.481
373.00 1.48
373.10 1.48
373.20 1.479
373.30 1.478
373.40 1.478
373.50 1.477
373.60 1.477
373.70 1.476
373.80 1.475
373.90 1.475
374.00 1.474
374.10 1.474
374.20 1.473
374.30 1.473
374.40 1.472
374.50 1.472
374.60 1.471
374.70 1.471
374.80 1.47
374.90 1.47
375.00 1.469
375.10 1.469
375.20 1.468
375.30 1.468
375.40 1.467
375.50 1.467
375.60 1.466
375.70 1.466
375.80 1.465
375.90 1.465
376.00 1.464
376.10 1.464
376.20 1.464
376.30 1.463
376.40 1.463
376.50 1.462
376.60 1.462
376.70 1.461
376.80 1.461
376.90 1.46
377.00 1.46
377.10 1.459
377.20 1.458
377.30 1.458
377.40 1.457
377.50 1.456
377.60 1.455
377.70 1.455
377.80 1.454
377.90 1.453
378.00 1.453
378.10 1.451
378.20 1.45
378.30 1.448
378.40 1.447
378.50 1.445
378.60 1.444
378.70 1.443
378.80 1.441
378.90 1.44
379.00 1.438
379.10 1.437
379.20 1.436
379.30 1.435
379.40 1.434
379.50 1.433
379.60 1.432
379.70 1.431
379.80 1.43
379.90 1.429
380.00 1.427
380.10 1.428
380.20 1.429
380.30 1.43
380.40 1.43
380.50 1.431
380.60 1.432
380.70 1.432
380.80 1.433
380.90 1.434
381.00 1.434
381.10 1.434
381.20 1.434
381.30 1.434
381.40 1.434
381.50 1.434
381.60 1.434
381.70 1.433
381.80 1.432
381.90 1.431
382.00 1.429
382.10 1.428
382.20 1.426
382.30 1.423
382.40 1.42
382.50 1.417
382.60 1.414
382.70 1.411
382.80 1.407
382.90 1.404
383.00 1.401
383.10 1.398
383.20 1.395
383.30 1.393
383.40 1.39
383.50 1.388
383.60 1.388
383.70 1.39
383.80 1.393
383.90 1.395
384.00 1.397
384.10 1.401
384.20 1.405
384.30 1.408
384.40 1.412
384.50 1.415
384.60 1.417
384.70 1.42
384.80 1.421
384.90 1.423
385.00 1.424
385.10 1.426
385.20 1.426
385.30 1.427
385.40 1.428
385.50 1.428
385.60 1.428
385.70 1.428
385.80 1.428
385.90 1.427
386.00 1.427
386.10 1.426
386.20 1.425
386.30 1.424
386.40 1.423
386.50 1.422
386.60 1.42
386.70 1.419
386.80 1.417
386.90 1.414
387.00 1.412
387.10 1.41
387.20 1.407
387.30 1.404
387.40 1.4
387.50 1.396
387.60 1.392
387.70 1.388
387.80 1.383
387.90 1.377
388.00 1.371
388.10 1.363
388.20 1.355
388.30 1.347
388.40 1.337
388.50 1.328
388.60 1.32
388.70 1.314
388.80 1.309
388.90 1.306
389.00 1.309
389.10 1.313
389.20 1.319
389.30 1.327
389.40 1.335
389.50 1.345
389.60 1.354
389.70 1.362
389.80 1.369
389.90 1.376
390.00 1.381
390.10 1.386
390.20 1.391
390.30 1.395
390.40 1.399
390.50 1.402
390.60 1.405
390.70 1.408
390.80 1.41
390.90 1.412
391.00 1.415
391.10 1.416
391.20 1.418
391.30 1.419
391.40 1.421
391.50 1.422
391.60 1.423
391.70 1.424
391.80 1.424
391.90 1.425
392.00 1.425
392.10 1.425
392.20 1.425
392.30 1.425
392.40 1.424
392.50 1.424
392.60 1.423
392.70 1.423
392.80 1.422
392.90 1.421
393.00 1.419
393.10 1.418
393.20 1.416
393.30 1.415
393.40 1.413
393.50 1.411
393.60 1.409
393.70 1.406
393.80 1.404
393.90 1.401
394.00 1.398
394.10 1.395
394.20 1.391
394.30 1.388
394.40 1.384
394.50 1.38
394.60 1.375
394.70 1.371
394.80 1.366
394.90 1.36
395.00 1.355
395.10 1.349
395.20 1.342
395.30 1.335
395.40 1.328
395.50 1.321
395.60 1.312
395.70 1.304
395.80 1.294
395.90 1.284
396.00 1.273
396.10 1.261
396.20 1.247
396.30 1.232
396.40 1.216
396.50 1.195
396.60 1.174
396.70 1.151
396.80 1.134
396.90 1.118
397.00 1.103
397.10 1.116
397.20 1.131
397.30 1.148
397.40 1.17
397.50 1.191
397.60 1.212
397.70 1.228
397.80 1.243
397.90 1.257
398.00 1.269
398.10 1.28
398.20 1.29
398.30 1.299
398.40 1.308
398.50 1.316
398.60 1.324
398.70 1.331
398.80 1.337
398.90 1.344
399.00 1.35
399.10 1.355
399.20 1.36
399.30 1.365
399.40 1.37
399.50 1.374
399.60 1.378
399.70 1.382
399.80 1.386
399.90 1.389
400.00 1.393
400.10 1.396
400.20 1.398
400.30 1.401
400.40 1.404
400.50 1.406
400.60 1.408
400.70 1.41
400.80 1.412
400.90 1.414
401.00 1.415
401.10 1.417
401.20 1.418
401.30 1.419
401.40 1.421
401.50 1.422
401.60 1.422
401.70 1.423
401.80 1.424
401.90 1.424
402.00 1.425
402.10 1.425
402.20 1.425
402.30 1.426
402.40 1.426
402.50 1.426
402.60 1.425
402.70 1.425
402.80 1.425
402.90 1.424
403.00 1.424
403.10 1.423
403.20 1.423
403.30 1.422
403.40 1.421
403.50 1.42
403.60 1.419
403.70 1.417
403.80 1.416
403.90 1.415
404.00 1.413
404.10 1.411
404.20 1.41
404.30 1.408
404.40 1.406
404.50 1.404
404.60 1.402
404.70 1.399
404.80 1.397
404.90 1.394
405.00 1.392
405.10 1.389
405.20 1.386
405.30 1.383
405.40 1.38
405.50 1.376
405.60 1.373
405.70 1.369
405.80 1.365
405.90 1.361
406.00 1.357
406.10 1.353
406.20 1.348
406.30 1.344
406.40 1.339
406.50 1.334
406.60 1.329
406.70 1.323
406.80 1.317
406.90 1.311
407.00 1.305
407.10 1.299
407.20 1.292
407.30 1.285
407.40 1.277
407.50 1.27
407.60 1.261
407.70 1.253
407.80 1.244
407.90 1.235
408.00 1.225
408.10 1.215
408.20 1.204
408.30 1.192
408.40 1.181
408.50 1.168
408.60 1.155
408.70 1.141
408.80 1.126
408.90 1.11
409.00 1.094
409.10 1.076
409.20 1.058
409.30 1.039
409.40 1.017
409.50 0.9943
409.60 0.9695
409.70 0.9396
409.80 0.9072
409.90 0.8721
410.00 0.8441
410.10 0.8255
410.20 0.8165
410.30 0.8336
410.40 0.858
410.50 0.8899
410.60 0.923
410.70 0.9532
410.80 0.9805
410.90 1.003
411.00 1.025
411.10 1.044
411.20 1.062
411.30 1.079
411.40 1.096
411.50 1.111
411.60 1.125
411.70 1.139
411.80 1.152
411.90 1.164
412.00 1.176
412.10 1.186
412.20 1.197
412.30 1.207
412.40 1.216
412.50 1.224
412.60 1.233
412.70 1.241
412.80 1.248
412.90 1.256
413.00 1.262
413.10 1.269
413.20 1.275
413.30 1.281
413.40 1.287
413.50 1.293
413.60 1.298
413.70 1.303
413.80 1.308
413.90 1.312
414.00 1.317
414.10 1.321
414.20 1.325
414.30 1.329
414.40 1.333
414.50 1.336
414.60 1.34
414.70 1.343
414.80 1.346
414.90 1.349
415.00 1.352
415.10 1.355
415.20 1.358
415.30 1.361
415.40 1.363
415.50 1.366
415.60 1.368
415.70 1.37
415.80 1.372
415.90 1.374
416.00 1.376
416.10 1.378
416.20 1.38
416.30 1.382
416.40 1.383
416.50 1.385
416.60 1.386
416.70 1.388
416.80 1.389
416.90 1.391
417.00 1.392
417.10 1.393
417.20 1.394
417.30 1.395
417.40 1.396
417.50 1.397
417.60 1.398
417.70 1.399
417.80 1.4
417.90 1.4
418.00 1.401
418.10 1.402
418.20 1.402
418.30 1.403
418.40 1.404
418.50 1.404
418.60 1.404
418.70 1.405
418.80 1.405
418.90 1.406
419.00 1.406
419.10 1.406
419.20 1.406
419.30 1.406
419.40 1.407
419.50 1.407
419.60 1.407
419.70 1.407
419.80 1.407
419.90 1.407
420.00 1.407
420.10 1.407
420.20 1.406
420.30 1.406
420.40 1.406
420.50 1.406
420.60 1.406
420.70 1.405
420.80 1.405
420.90 1.405
421.00 1.404
421.10 1.404
421.20 1.403
421.30 1.403
421.40 1.402
421.50 1.402
421.60 1.401
421.70 1.401
421.80 1.4
421.90 1.399
422.00 1.399
422.10 1.398
422.20 1.397
422.30 1.396
422.40 1.396
422.50 1.395
422.60 1.394
422.70 1.393
422.80 1.392
422.90 1.391
423.00 1.39
423.10 1.389
423.20 1.388
423.30 1.387
423.40 1.386
423.50 1.385
423.60 1.383
423.70 1.382
423.80 1.381
423.90 1.38
424.00 1.378
424.10 1.377
424.20 1.376
424.30 1.374
424.40 1.373
424.50 1.371
424.60 1.37
424.70 1.368
424.80 1.366
424.90 1.365
425.00 1.363
425.10 1.361
425.20 1.36
425.30 1.358
425.40 1.356
425.50 1.354
425.60 1.352
425.70 1.35
425.80 1.348
425.90 1.346
426.00 1.344
426.10 1.342
426.20 1.339
426.30 1.336
426.40 1.334
426.50 1.332
426.60 1.329
426.70 1.327
426.80 1.324
426.90 1.321
427.00 1.319
427.10 1.316
427.20 1.313
427.30 1.31
427.40 1.307
427.50 1.304
427.60 1.301
427.70 1.298
427.80 1.294
427.90 1.291
428.00 1.287
428.10 1.284
428.20 1.28
428.30 1.277
428.40 1.273
428.50 1.269
428.60 1.265
428.70 1.261
428.80 1.256
428.90 1.252
429.00 1.247
429.10 1.243
429.20 1.238
429.30 1.233
429.40 1.228
429.50 1.223
429.60 1.218
429.70 1.212
429.80 1.206
429.90 1.201
430.00 1.195
430.10 1.188
430.20 1.182
430.30 1.175
430.40 1.169
430.50 1.162
430.60 1.154
430.70 1.147
430.80 1.139
430.90 1.131
431.00 1.123
431.10 1.114
431.20 1.105
431.30 1.096
431.40 1.086
431.50 1.076
431.60 1.065
431.70 1.054
431.80 1.043
431.90 1.031
432.00 1.018
432.10 1.005
432.20 0.9913
432.30 0.9766
432.40 0.9613
432.50 0.9445
432.60 0.9269
432.70 0.9085
432.80 0.8884
432.90 0.8676
433.00 0.8461
433.10 0.8234
433.20 0.8002
433.30 0.7765
433.40 0.7515
433.50 0.7252
433.60 0.6975
433.70 0.6628
433.80 0.6245
433.90 0.5826
434.00 0.5458
434.10 0.5468
434.20 0.5853
434.30 0.6269
434.40 0.6645
434.50 0.6982
434.60 0.7252
434.70 0.7508
434.80 0.7751
434.90 0.7981
435.00 0.8205
435.10 0.8424
435.20 0.8631
435.30 0.8831
435.40 0.9022
435.50 0.9197
435.60 0.9363
435.70 0.952
435.80 0.9663
435.90 0.98
436.00 0.9931
436.10 1.005
436.20 1.017
436.30 1.028
436.40 1.038
436.50 1.048
436.60 1.057
436.70 1.066
436.80 1.075
436.90 1.083
437.00 1.091
437.10 1.098
437.20 1.106
437.30 1.112
437.40 1.119
437.50 1.126
437.60 1.132
437.70 1.138
437.80 1.143
437.90 1.149
438.00 1.154
438.10 1.159
438.20 1.164
438.30 1.168
438.40 1.173
438.50 1.177
438.60 1.181
438.70 1.185
438.80 1.189
438.90 1.193
439.00 1.197
439.10 1.2
439.20 1.203
439.30 1.207
439.40 1.21
439.50 1.213
439.60 1.216
439.70 1.218
439.80 1.221
439.90 1.224
440.00 1.226
440.10 1.229
440.20 1.231
440.30 1.233
440.40 1.235
440.50 1.237
440.60 1.239
440.70 1.241
440.80 1.243
440.90 1.245
441.00 1.247
441.10 1.249
441.20 1.25
441.30 1.252
441.40 1.253
441.50 1.255
441.60 1.256
441.70 1.257
441.80 1.259
441.90 1.26
442.00 1.261
442.10 1.262
442.20 1.263
442.30 1.264
442.40 1.266
442.50 1.266
442.60 1.267
442.70 1.268
442.80 1.269
442.90 1.27
443.00 1.271
443.10 1.272
443.20 1.272
443.30 1.273
443.40 1.274
443.50 1.274
443.60 1.275
443.70 1.276
443.80 1.276
443.90 1.277
444.00 1.277
444.10 1.278
444.20 1.278
444.30 1.278
444.40 1.279
444.50 1.279
444.60 1.28
444.70 1.28
444.80 1.28
444.90 1.28
445.00 1.281
445.10 1.281
445.20 1.281
445.30 1.281
445.40 1.282
445.50 1.282
445.60 1.282
445.70 1.282
445.80 1.282
445.90 1.282
446.00 1.282
446.10 1.282
446.20 1.283
446.30 1.283
446.40 1.283
446.50 1.283
446.60 1.283
446.70 1.283
446.80 1.283
446.90 1.283
447.00 1.282
447.10 1.282
447.20 1.282
447.30 1.282
447.40 1.282
447.50 1.282
447.60 1.282
447.70 1.282
447.80 1.282
447.90 1.282
448.00 1.281
448.10 1.281
448.20 1.281
448.30 1.281
448.40 1.281
448.50 1.28
448.60 1.28
448.70 1.28
448.80 1.28
448.90 1.28
449.00 1.279
449.10 1.279
449.20 1.279
449.30 1.279
449.40 1.278
449.50 1.278
449.60 1.278
449.70 1.277
449.80 1.277
449.90 1.277
450.00 1.277
450.10 1.276
450.20 1.276
450.30 1.276
450.40 1.275
450.50 1.275
450.60 1.274
450.70 1.274
450.80 1.274
450.90 1.273
451.00 1.273
451.10 1.273
451.20 1.272
451.30 1.272
451.40 1.272
451.50 1.271
451.60 1.271
451.70 1.27
451.80 1.27
451.90 1.27
452.00 1.269
452.10 1.269
452.20 1.268
452.30 1.268
452.40 1.267
452.50 1.267
452.60 1.267
452.70 1.266
452.80 1.266
452.90 1.265
453.00 1.265
453.10 1.264
453.20 1.264
453.30 1.263
453.40 1.263
453.50 1.262
453.60 1.262
453.70 1.261
453.80 1.261
453.90 1.261
454.00 1.26
454.10 1.26
454.20 1.259
454.30 1.259
454.40 1.258
454.50 1.258
454.60 1.257
454.70 1.257
454.80 1.256
454.90 1.256
455.00 1.255
455.10 1.255
455.20 1.254
455.30 1.254
455.40 1.253
455.50 1.252
455.60 1.252
455.70 1.251
455.80 1.251
455.90 1.25
456.00 1.25
456.10 1.249
456.20 1.249
456.30 1.248
456.40 1.248
456.50 1.247
456.60 1.247
456.70 1.246
456.80 1.246
456.90 1.245
457.00 1.245
457.10 1.244
457.20 1.243
457.30 1.243
457.40 1.242
457.50 1.242
457.60 1.241
457.70 1.241
457.80 1.24
457.90 1.24
458.00 1.239
458.10 1.238
458.20 1.238
458.30 1.237
458.40 1.237
458.50 1.236
458.60 1.236
458.70 1.235
458.80 1.234
458.90 1.234
459.00 1.233
459.10 1.233
459.20 1.232
459.30 1.231
459.40 1.231
459.50 1.23
459.60 1.23
459.70 1.229
459.80 1.228
459.90 1.228
460.00 1.227
460.10 1.227
460.20 1.226
460.30 1.225
460.40 1.225
460.50 1.224
460.60 1.224
460.70 1.223
460.80 1.222
460.90 1.222
461.00 1.221
461.10 1.22
461.20 1.22
461.30 1.219
461.40 1.218
461.50 1.218
461.60 1.217
461.70 1.217
461.80 1.216
461.90 1.215
462.00 1.215
462.10 1.214
462.20 1.213
462.30 1.213
462.40 1.212
462.50 1.211
462.60 1.211
462.70 1.21
462.80 1.209
462.90 1.209
463.00 1.208
463.10 1.207
463.20 1.207
463.30 1.206
463.40 1.205
463.50 1.205
463.60 1.204
463.70 1.203
463.80 1.203
463.90 1.202
464.00 1.201
464.10 1.201
464.20 1.2
464.30 1.199
464.40 1.199
464.50 1.198
464.60 1.197
464.70 1.197
464.80 1.196
464.90 1.195
465.00 1.194
465.10 1.194
465.20 1.193
465.30 1.192
465.40 1.192
465.50 1.191
465.60 1.19
465.70 1.189
465.80 1.189
465.90 1.188
466.00 1.187
466.10 1.187
466.20 1.186
466.30 1.185
466.40 1.184
466.50 1.184
466.60 1.183
466.70 1.182
466.80 1.181
466.90 1.181
467.00 1.18
467.10 1.179
467.20 1.178
467.30 1.177
467.40 1.177
467.50 1.176
467.60 1.175
467.70 1.174
467.80 1.173
467.90 1.173
468.00 1.172
468.10 1.171
468.20 1.17
468.30 1.169
468.40 1.169
468.50 1.168
468.60 1.167
468.70 1.166
468.80 1.165
468.90 1.164
469.00 1.164
469.10 1.163
469.20 1.162
469.30 1.161
469.40 1.16
469.50 1.159
469.60 1.158
469.70 1.158
469.80 1.157
469.90 1.156
470.00 1.155
470.10 1.154
470.20 1.153
470.30 1.152
470.40 1.151
470.50 1.15
470.60 1.15
470.70 1.149
470.80 1.148
470.90 1.147
471.00 1.146
471.10 1.145
471.20 1.144
471.30 1.143
471.40 1.142
471.50 1.141
471.60 1.14
471.70 1.139
471.80 1.138
471.90 1.137
472.00 1.136
472.10 1.135
472.20 1.134
472.30 1.133
472.40 1.132
472.50 1.131
472.60 1.129
472.70 1.128
472.80 1.127
472.90 1.126
473.00 1.125
473.10 1.124
473.20 1.123
473.30 1.122
473.40 1.12
473.50 1.119
473.60 1.118
473.70 1.117
473.80 1.116
473.90 1.114
474.00 1.113
474.10 1.112
474.20 1.111
474.30 1.109
474.40 1.108
474.50 1.107
474.60 1.105
474.70 1.104
474.80 1.103
474.90 1.101
475.00 1.1
475.10 1.098
475.20 1.097
475.30 1.095
475.40 1.094
475.50 1.092
475.60 1.091
475.70 1.089
475.80 1.088
475.90 1.086
476.00 1.085
476.10 1.083
476.20 1.082
476.30 1.08
476.40 1.078
476.50 1.076
476.60 1.075
476.70 1.073
476.80 1.071
476.90 1.069
477.00 1.068
477.10 1.066
477.20 1.064
477.30 1.062
477.40 1.06
477.50 1.058
477.60 1.056
477.70 1.054
477.80 1.052
477.90 1.05
478.00 1.048
478.10 1.046
478.20 1.043
478.30 1.041
478.40 1.039
478.50 1.036
478.60 1.034
478.70 1.032
478.80 1.029
478.90 1.027
479.00 1.024
479.10 1.022
479.20 1.019
479.30 1.017
479.40 1.014
479.50 1.011
479.60 1.008
479.70 1.005
479.80 1.002
479.90 0.9996
480.00 0.9967
480.10 0.9939
480.20 0.9906
480.30 0.9871
480.40 0.9837
480.50 0.9802
480.60 0.9767
480.70 0.9732
480.80 0.9698
480.90 0.9663
481.00 0.9629
481.10 0.9594
481.20 0.9553
481.30 0.9508
481.40 0.9464
481.50 0.942
481.60 0.9375
481.70 0.9331
481.80 0.9287
481.90 0.9243
482.00 0.9199
482.10 0.9154
482.20 0.91
482.30 0.9041
482.40 0.8981
482.50 0.8922
482.60 0.8863
482.70 0.8804
482.80 0.8745
482.90 0.8686
483.00 0.8627
483.10 0.8568
483.20 0.8489
483.30 0.8401
483.40 0.8313
483.50 0.8225
483.60 0.8137
483.70 0.8049
483.80 0.7961
483.90 0.7874
484.00 0.7786
484.10 0.7699
484.20 0.7583
484.30 0.7454
484.40 0.7326
484.50 0.7197
484.60 0.7069
484.70 0.6913
484.80 0.6746
484.90 0.6578
485.00 0.641
485.10 0.6243
485.20 0.6063
485.30 0.5877
485.40 0.5694
485.50 0.5512
485.60 0.5335
485.70 0.5162
485.80 0.4975
485.90 0.4781
486.00 0.453
486.10 0.4129
486.20 0.4264
486.30 0.4628
486.40 0.4838
486.50 0.503
486.60 0.5207
486.70 0.5377
486.80 0.5552
486.90 0.573
487.00 0.5909
487.10 0.609
487.20 0.6257
487.30 0.6419
487.40 0.658
487.50 0.6741
487.60 0.6902
487.70 0.7037
487.80 0.7158
487.90 0.7279
488.00 0.74
488.10 0.7521
488.20 0.7614
488.30 0.7694
488.40 0.7774
488.50 0.7853
488.60 0.7933
488.70 0.8012
488.80 0.8092
488.90 0.8171
489.00 0.825
489.10 0.8329
489.20 0.8389
489.30 0.8439
489.40 0.8489
489.50 0.8539
489.60 0.8589
489.70 0.8639
489.80 0.8689
489.90 0.8739
490.00 0.8789
490.10 0.8838
490.20 0.8878
490.30 0.8912
490.40 0.8947
490.50 0.8981
490.60 0.9016
490.70 0.905
490.80 0.9085
490.90 0.9119
491.00 0.9153
491.10 0.9188
491.20 0.9215
491.30 0.924
491.40 0.9265
491.50 0.9289
491.60 0.9314
491.70 0.9338
491.80 0.9363
491.90 0.9387
492.00 0.9412
492.10 0.9436
492.20 0.9456
492.30 0.9474
492.40 0.9492
492.50 0.951
492.60 0.9528
492.70 0.9545
492.80 0.9563
492.90 0.9581
493.00 0.9599
493.10 0.9617
493.20 0.9631
493.30 0.9645
493.40 0.9658
493.50 0.9671
493.60 0.9684
493.70 0.9698
493.80 0.9711
493.90 0.9724
494.00 0.9737
494.10 0.975
494.20 0.9761
494.30 0.9771
494.40 0.978
494.50 0.979
494.60 0.9799
494.70 0.9808
494.80 0.9818
494.90 0.9827
495.00 0.9837
495.10 0.9846
495.20 0.9854
495.30 0.986
495.40 0.9867
495.50 0.9874
495.60 0.988
495.70 0.9887
495.80 0.9893
495.90 0.99
496.00 0.9907
496.10 0.9913
496.20 0.9918
496.30 0.9923
496.40 0.9927
496.50 0.9932
496.60 0.9936
496.70 0.994
496.80 0.9945
496.90 0.9949
497.00 0.9954
497.10 0.9958
497.20 0.9961
497.30 0.9964
497.40 0.9966
497.50 0.9969
497.60 0.9972
497.70 0.9974
497.80 0.9977
497.90 0.998
498.00 0.9982
498.10 0.9985
498.20 0.9987
498.30 0.9988
498.40 0.9989
498.50 0.999
498.60 0.9992
498.70 0.9993
498.80 0.9994
498.90 0.9995
499.00 0.9997
499.10 0.9998
499.20 0.9999
499.30 0.9999
499.40 0.9999
499.50 0.9999
499.60 0.9999
499.70 0.9999
499.80 1
499.90 1
500.00 1
500.10 1
500.20 1
500.30 0.9999
500.40 0.9998
500.50 0.9998
500.60 0.9997
500.70 0.9996
500.80 0.9996
500.90 0.9995
501.00 0.9994
501.10 0.9994
501.20 0.9993
501.30 0.9991
501.40 0.999
501.50 0.9989
501.60 0.9987
501.70 0.9986
501.80 0.9985
501.90 0.9983
502.00 0.9982
502.10 0.9981
502.20 0.9979
502.30 0.9977
502.40 0.9975
502.50 0.9974
502.60 0.9972
502.70 0.997
502.80 0.9968
502.90 0.9966
503.00 0.9964
503.10 0.9963
503.20 0.996
503.30 0.9958
503.40 0.9956
503.50 0.9954
503.60 0.9951
503.70 0.9949
503.80 0.9947
503.90 0.9944
504.00 0.9942
504.10 0.994
504.20 0.9937
504.30 0.9935
504.40 0.9932
504.50 0.9929
504.60 0.9927
504.70 0.9924
504.80 0.9922
504.90 0.9919
505.00 0.9916
505.10 0.9914
505.20 0.9911
505.30 0.9908
505.40 0.9905
505.50 0.9902
505.60 0.9899
505.70 0.9896
505.80 0.9893
505.90 0.989
506.00 0.9888
506.10 0.9885
506.20 0.9882
506.30 0.9878
506.40 0.9875
506.50 0.9872
506.60 0.9869
506.70 0.9866
506.80 0.9863
506.90 0.9859
507.00 0.9856
507.10 0.9853
507.20 0.985
507.30 0.9847
507.40 0.9843
507.50 0.984
507.60 0.9836
507.70 0.9833
507.80 0.983
507.90 0.9826
508.00 0.9823
508.10 0.982
508.20 0.9816
508.30 0.9813
508.40 0.9809
508.50 0.9806
508.60 0.9802
508.70 0.9799
508.80 0.9795
508.90 0.9792
509.00 0.9788
509.10 0.9785
509.20 0.9781
509.30 0.9777
509.40 0.9774
509.50 0.977
509.60 0.9766
509.70 0.9763
509.80 0.9759
509.90 0.9756
510.00 0.9752
510.10 0.9748
510.20 0.9745
510.30 0.9741
510.40 0.9737
510.50 0.9733
510.60 0.973
510.70 0.9726
510.80 0.9722
510.90 0.9718
511.00 0.9715
511.10 0.9711
511.20 0.9707
511.30 0.9703
511.40 0.9699
511.50 0.9696
511.60 0.9692
511.70 0.9688
511.80 0.9684
511.90 0.968
512.00 0.9677
512.10 0.9673
512.20 0.9669
512.30 0.9665
512.40 0.9661
512.50 0.9657
512.60 0.9653
512.70 0.9649
512.80 0.9645
512.90 0.9642
513.00 0.9638
513.10 0.9634
513.20 0.963
513.30 0.9626
513.40 0.9622
513.50 0.9618
513.60 0.9614
513.70 0.961
513.80 0.9606
513.90 0.9602
514.00 0.9598
514.10 0.9594
514.20 0.959
514.30 0.9586
514.40 0.9582
514.50 0.9578
514.60 0.9574
514.70 0.957
514.80 0.9566
514.90 0.9562
515.00 0.9558
515.10 0.9554
515.20 0.955
515.30 0.9546
515.40 0.9542
515.50 0.9538
515.60 0.9534
515.70 0.953
515.80 0.9526
515.90 0.9522
516.00 0.9518
516.10 0.9514
516.20 0.951
516.30 0.9506
516.40 0.9502
516.50 0.9498
516.60 0.9494
516.70 0.949
516.80 0.9486
516.90 0.9482
517.00 0.9478
517.10 0.9474
517.20 0.947
517.30 0.9465
517.40 0.9461
517.50 0.9457
517.60 0.9453
517.70 0.9449
517.80 0.9445
517.90 0.9441
518.00 0.9437
518.10 0.9433
518.20 0.9429
518.30 0.9425
518.40 0.9421
518.50 0.9417
518.60 0.9413
518.70 0.9408
518.80 0.9404
518.90 0.94
519.00 0.9396
519.10 0.9392
519.20 0.9388
519.30 0.9384
519.40 0.938
519.50 0.9376
519.60 0.9372
519.70 0.9368
519.80 0.9364
519.90 0.9359
520.00 0.9355
520.10 0.9351
520.20 0.9347
520.30 0.9343
520.40 0.9339
520.50 0.9335
520.60 0.9331
520.70 0.9327
520.80 0.9322
520.90 0.9318
521.00 0.9314
521.10 0.931
521.20 0.9306
521.30 0.9302
521.40 0.9298
521.50 0.9294
521.60 0.929
521.70 0.9286
521.80 0.9281
521.90 0.9277
522.00 0.9273
522.10 0.9269
522.20 0.9265
522.30 0.9261
522.40 0.9257
522.50 0.9253
522.60 0.9249
522.70 0.9245
522.80 0.924
522.90 0.9236
523.00 0.9232
523.10 0.9228
523.20 0.9224
523.30 0.922
523.40 0.9216
523.50 0.9212
523.60 0.9208
523.70 0.9203
523.80 0.9199
523.90 0.9195
524.00 0.9191
524.10 0.9187
524.20 0.9183
524.30 0.9179
524.40 0.9175
524.50 0.9171
524.60 0.9167
524.70 0.9162
524.80 0.9158
524.90 0.9154
525.00 0.915
525.10 0.9146
525.20 0.9142
525.30 0.9138
525.40 0.9134
525.50 0.913
525.60 0.9125
525.70 0.9121
525.80 0.9117
525.90 0.9113
526.00 0.9109
526.10 0.9105
526.20 0.9101
526.30 0.9097
526.40 0.9093
526.50 0.9089
526.60 0.9085
526.70 0.908
526.80 0.9076
526.90 0.9072
527.00 0.9068
527.10 0.9064
527.20 0.906
527.30 0.9056
527.40 0.9052
527.50 0.9048
527.60 0.9044
527.70 0.904
527.80 0.9036
527.90 0.9031
528.00 0.9027
528.10 0.9023
528.20 0.9019
528.30 0.9015
528.40 0.9011
528.50 0.9007
528.60 0.9003
528.70 0.8999
528.80 0.8995
528.90 0.8991
529.00 0.8987
529.10 0.8983
529.20 0.8979
529.30 0.8974
529.40 0.897
529.50 0.8966
529.60 0.8962
529.70 0.8958
529.80 0.8954
529.90 0.895
530.00 0.8946
530.10 0.8942
530.20 0.8938
530.30 0.8934
530.40 0.893
530.50 0.8926
530.60 0.8922
530.70 0.8918
530.80 0.8914
530.90 0.891
531.00 0.8906
531.10 0.8902
531.20 0.8898
531.30 0.8893
531.40 0.8889
531.50 0.8885
531.60 0.8881
531.70 0.8877
531.80 0.8873
531.90 0.8869
532.00 0.8865
532.10 0.8861
532.20 0.8857
532.30 0.8853
532.40 0.8849
532.50 0.8845
532.60 0.8841
532.70 0.8837
532.80 0.8833
532.90 0.8829
533.00 0.8825
533.10 0.8821
533.20 0.8817
533.30 0.8813
533.40 0.8809
533.50 0.8805
533.60 0.8801
533.70 0.8797
533.80 0.8793
533.90 0.8789
534.00 0.8785
534.10 0.8781
534.20 0.8777
534.30 0.8773
534.40 0.8769
534.50 0.8765
534.60 0.8761
534.70 0.8757
534.80 0.8753
534.90 0.8749
535.00 0.8745
535.10 0.8741
535.20 0.8737
535.30 0.8733
535.40 0.8729
535.50 0.8725
535.60 0.8721
535.70 0.8717
535.80 0.8713
535.90 0.8709
536.00 0.8705
536.10 0.8701
536.20 0.8697
536.30 0.8693
536.40 0.8689
536.50 0.8685
536.60 0.8681
536.70 0.8677
536.80 0.8674
536.90 0.867
537.00 0.8666
537.10 0.8662
537.20 0.8658
537.30 0.8654
537.40 0.865
537.50 0.8646
537.60 0.8642
537.70 0.8638
537.80 0.8634
537.90 0.863
538.00 0.8626
538.10 0.8622
538.20 0.8618
538.30 0.8614
538.40 0.861
538.50 0.8607
538.60 0.8603
538.70 0.8599
538.80 0.8595
538.90 0.8591
539.00 0.8587
539.10 0.8583
539.20 0.8579
539.30 0.8575
539.40 0.8571
539.50 0.8567
539.60 0.8563
539.70 0.856
539.80 0.8556
539.90 0.8552
540.00 0.8548
540.10 0.8544
540.20 0.854
540.30 0.8536
540.40 0.8532
540.50 0.8528
540.60 0.8524
540.70 0.8521
540.80 0.8517
540.90 0.8513
541.00 0.8509
541.10 0.8505
541.20 0.8501
541.30 0.8497
541.40 0.8493
541.50 0.849
541.60 0.8486
541.70 0.8482
541.80 0.8478
541.90 0.8474
542.00 0.847
542.10 0.8466
542.20 0.8462
542.30 0.8459
542.40 0.8455
542.50 0.8451
542.60 0.8447
542.70 0.8443
542.80 0.8439
542.90 0.8435
543.00 0.8432
543.10 0.8428
543.20 0.8424
543.30 0.842
543.40 0.8416
543.50 0.8412
543.60 0.8408
543.70 0.8405
543.80 0.8401
543.90 0.8397
544.00 0.8393
544.10 0.8389
544.20 0.8385
544.30 0.8382
544.40 0.8378
544.50 0.8374
544.60 0.837
544.70 0.8366
544.80 0.8363
544.90 0.8359
545.00 0.8355
545.10 0.8351
545.20 0.8347
545.30 0.8344
545.40 0.834
545.50 0.8336
545.60 0.8332
545.70 0.8328
545.80 0.8325
545.90 0.8321
546.00 0.8317
546.10 0.8313
546.20 0.831
546.30 0.8307
546.40 0.8303
546.50 0.83
546.60 0.8297
546.70 0.8294
546.80 0.8291
546.90 0.8287
547.00 0.8284
547.10 0.8281
547.20 0.8277
547.30 0.8274
547.40 0.827
547.50 0.8266
547.60 0.8262
547.70 0.8258
547.80 0.8255
547.90 0.8251
548.00 0.8247
548.10 0.8243
548.20 0.824
548.30 0.8236
548.40 0.8232
548.50 0.8228
548.60 0.8224
548.70 0.8221
548.80 0.8217
548.90 0.8213
549.00 0.8209
549.10 0.8205
549.20 0.8202
549.30 0.8198
549.40 0.8194
549.50 0.819
549.60 0.8187
549.70 0.8183
549.80 0.8179
549.90 0.8175
550.00 0.8172
550.10 0.8168
550.20 0.8164
550.30 0.816
550.40 0.8157
550.50 0.8153
550.60 0.8149
550.70 0.8146
550.80 0.8142
550.90 0.8138
551.00 0.8134
551.10 0.8131
551.20 0.8127
551.30 0.8123
551.40 0.8119
551.50 0.8116
551.60 0.8112
551.70 0.8108
551.80 0.8105
551.90 0.8101
552.00 0.8097
552.10 0.8093
552.20 0.809
552.30 0.8086
552.40 0.8082
552.50 0.8079
552.60 0.8075
552.70 0.8071
552.80 0.8068
552.90 0.8064
553.00 0.806
553.10 0.8056
553.20 0.8053
553.30 0.8049
553.40 0.8045
553.50 0.8042
553.60 0.8038
553.70 0.8034
553.80 0.8031
553.90 0.8027
554.00 0.8023
554.10 0.802
554.20 0.8016
554.30 0.8012
554.40 0.8009
554.50 0.8005
554.60 0.8001
554.70 0.7998
554.80 0.7994
554.90 0.799
555.00 0.7987
555.10 0.7983
555.20 0.7979
555.30 0.7976
555.40 0.7972
555.50 0.7968
555.60 0.7965
555.70 0.7961
555.80 0.7958
555.90 0.7954
556.00 0.795
556.10 0.7947
556.20 0.7943
556.30 0.7939
556.40 0.7936
556.50 0.7932
556.60 0.7929
556.70 0.7925
556.80 0.7921
556.90 0.7918
557.00 0.7914
557.10 0.791
557.20 0.7907
557.30 0.7903
557.40 0.79
557.50 0.7896
557.60 0.7892
557.70 0.7889
557.80 0.7885
557.90 0.7882
558.00 0.7878
558.10 0.7874
558.20 0.7871
558.30 0.7867
558.40 0.7864
558.50 0.786
558.60 0.7856
558.70 0.7853
558.80 0.7849
558.90 0.7846
559.00 0.7842
559.10 0.7839
559.20 0.7835
559.30 0.7831
559.40 0.7828
559.50 0.7824
559.60 0.7821
559.70 0.7817
559.80 0.7814
559.90 0.781
560.00 0.7807
560.10 0.7803
560.20 0.7799
560.30 0.7796
560.40 0.7792
560.50 0.7789
560.60 0.7785
560.70 0.7782
560.80 0.7778
560.90 0.7775
561.00 0.7771
561.10 0.7767
561.20 0.7764
561.30 0.776
561.40 0.7757
561.50 0.7753
561.60 0.775
561.70 0.7746
561.80 0.7743
561.90 0.7739
562.00 0.7736
562.10 0.7732
562.20 0.7729
562.30 0.7725
562.40 0.7722
562.50 0.7718
562.60 0.7715
562.70 0.7711
562.80 0.7708
562.90 0.7704
563.00 0.7701
563.10 0.7697
563.20 0.7694
563.30 0.769
563.40 0.7687
563.50 0.7683
563.60 0.768
563.70 0.7676
563.80 0.7673
563.90 0.7669
564.00 0.7666
564.10 0.7662
564.20 0.7659
564.30 0.7655
564.40 0.7652
564.50 0.7648
564.60 0.7645
564.70 0.7641
564.80 0.7638
564.90 0.7634
565.00 0.7631
565.10 0.7627
565.20 0.7624
565.30 0.7621
565.40 0.7617
565.50 0.7614
565.60 0.761
565.70 0.7607
565.80 0.7603
565.90 0.76
566.00 0.7596
566.10 0.7593
566.20 0.7589
566.30 0.7586
566.40 0.7583
566.50 0.7579
566.60 0.7576
566.70 0.7572
566.80 0.7569
566.90 0.7565
567.00 0.7562
567.10 0.7559
567.20 0.7555
567.30 0.7552
567.40 0.7548
567.50 0.7545
567.60 0.7541
567.70 0.7538
567.80 0.7535
567.90 0.7531
568.00 0.7528
568.10 0.7524
568.20 0.7521
568.30 0.7518
568.40 0.7514
568.50 0.7511
568.60 0.7507
568.70 0.7504
568.80 0.7501
568.90 0.7497
569.00 0.7494
569.10 0.749
569.20 0.7487
569.30 0.7484
569.40 0.748
569.50 0.7477
569.60 0.7473
569.70 0.747
569.80 0.7467
569.90 0.7463
570.00 0.746
570.10 0.7457
570.20 0.7453
570.30 0.745
570.40 0.7446
570.50 0.7443
570.60 0.744
570.70 0.7436
570.80 0.7433
570.90 0.743
571.00 0.7426
571.10 0.7423
571.20 0.742
571.30 0.7416
571.40 0.7413
571.50 0.741
571.60 0.7406
571.70 0.7403
571.80 0.74
571.90 0.7396
572.00 0.7393
572.10 0.7389
572.20 0.7386
572.30 0.7383
572.40 0.7379
572.50 0.7376
572.60 0.7373
572.70 0.7369
572.80 0.7366
572.90 0.7363
573.00 0.7359
573.10 0.7356
573.20 0.7353
573.30 0.735
573.40 0.7346
573.50 0.7343
573.60 0.734
573.70 0.7336
573.80 0.7333
573.90 0.733
574.00 0.7326
574.10 0.7323
574.20 0.732
574.30 0.7316
574.40 0.7313
574.50 0.731
574.60 0.7307
574.70 0.7303
574.80 0.73
574.90 0.7297
575.00 0.7293
575.10 0.729
575.20 0.7287
575.30 0.7284
575.40 0.728
575.50 0.7277
575.60 0.7274
575.70 0.727
575.80 0.7267
575.90 0.7264
576.00 0.7261
576.10 0.7257
576.20 0.7254
576.30 0.7251
576.40 0.7248
576.50 0.7244
576.60 0.7241
576.70 0.7238
576.80 0.7235
576.90 0.7231
577.00 0.7228
577.10 0.7225
577.20 0.7222
577.30 0.7218
577.40 0.7215
577.50 0.7212
577.60 0.7209
577.70 0.7205
577.80 0.7202
577.90 0.7199
578.00 0.7196
578.10 0.7192
578.20 0.7189
578.30 0.7186
578.40 0.7183
578.50 0.7179
578.60 0.7176
578.70 0.7173
578.80 0.717
578.90 0.7166
579.00 0.7163
579.10 0.716
579.20 0.7157
579.30 0.7154
579.40 0.715
579.50 0.7147
579.60 0.7144
579.70 0.7141
579.80 0.7138
579.90 0.7134
580.00 0.7131
580.10 0.7128
580.20 0.7125
580.30 0.7122
580.40 0.7118
580.50 0.7115
580.60 0.7112
580.70 0.7109
580.80 0.7106
580.90 0.7102
581.00 0.7099
581.10 0.7096
581.20 0.7093
581.30 0.709
581.40 0.7086
581.50 0.7083
581.60 0.708
581.70 0.7077
581.80 0.7074
581.90 0.7071
582.00 0.7067
582.10 0.7064
582.20 0.7061
582.30 0.7058
582.40 0.7055
582.50 0.7052
582.60 0.7048
582.70 0.7045
582.80 0.7042
582.90 0.7039
583.00 0.7036
583.10 0.7033
583.20 0.703
583.30 0.7026
583.40 0.7023
583.50 0.702
583.60 0.7017
583.70 0.7014
583.80 0.7011
583.90 0.7008
584.00 0.7004
584.10 0.7001
584.20 0.6998
584.30 0.6995
584.40 0.6992
584.50 0.6989
584.60 0.6986
584.70 0.6983
584.80 0.6979
584.90 0.6976
585.00 0.6973
585.10 0.697
585.20 0.6967
585.30 0.6964
585.40 0.6961
585.50 0.6958
585.60 0.6954
585.70 0.6951
585.80 0.6948
585.90 0.6945
586.00 0.6942
586.10 0.6939
586.20 0.6936
586.30 0.6933
586.40 0.693
586.50 0.6927
586.60 0.6923
586.70 0.692
586.80 0.6917
586.90 0.6914
587.00 0.6911
587.10 0.6908
587.20 0.6905
587.30 0.6902
587.40 0.6899
587.50 0.6896
587.60 0.6893
587.70 0.6889
587.80 0.6886
587.90 0.6883
588.00 0.688
588.10 0.6877
588.20 0.6874
588.30 0.6871
588.40 0.6868
588.50 0.6865
588.60 0.6862
588.70 0.6859
588.80 0.6856
588.90 0.6853
589.00 0.685
589.10 0.6847
589.20 0.6844
589.30 0.684
589.40 0.6837
589.50 0.6834
589.60 0.6831
589.70 0.6828
589.80 0.6825
589.90 0.6822
590.00 0.6819
590.10 0.6816
590.20 0.6813
590.30 0.681
590.40 0.6807
590.50 0.6804
590.60 0.6801
590.70 0.6798
590.80 0.6795
590.90 0.6792
591.00 0.6789
591.10 0.6786
591.20 0.6783
591.30 0.678
591.40 0.6777
591.50 0.6774
591.60 0.6771
591.70 0.6768
591.80 0.6765
591.90 0.6762
592.00 0.6759
592.10 0.6756
592.20 0.6753
592.30 0.675
592.40 0.6747
592.50 0.6744
592.60 0.6741
592.70 0.6738
592.80 0.6735
592.90 0.6732
593.00 0.6729
593.10 0.6726
593.20 0.6723
593.30 0.672
593.40 0.6717
593.50 0.6714
593.60 0.6711
593.70 0.6708
593.80 0.6705
593.90 0.6702
594.00 0.6699
594.10 0.6696
594.20 0.6693
594.30 0.669
594.40 0.6687
594.50 0.6684
594.60 0.6681
594.70 0.6678
594.80 0.6675
594.90 0.6672
595.00 0.6669
595.10 0.6666
595.20 0.6663
595.30 0.666
595.40 0.6657
595.50 0.6654
595.60 0.6651
595.70 0.6648
595.80 0.6646
595.90 0.6643
596.00 0.664
596.10 0.6637
596.20 0.6633
596.30 0.6629
596.40 0.6624
596.50 0.662
596.60 0.6616
596.70 0.6611
596.80 0.6607
596.90 0.6603
597.00 0.6599
597.10 0.6594
597.20 0.6591
597.30 0.6588
597.40 0.6585
597.50 0.6582
597.60 0.6579
597.70 0.6576
597.80 0.6573
597.90 0.657
598.00 0.6567
598.10 0.6564
598.20 0.6561
598.30 0.6558
598.40 0.6556
598.50 0.6553
598.60 0.655
598.70 0.6547
598.80 0.6544
598.90 0.6541
599.00 0.6538
599.10 0.6535
599.20 0.6532
599.30 0.6529
599.40 0.6526
599.50 0.6523
599.60 0.652
599.70 0.6517
599.80 0.6514
599.90 0.6511
600.00 0.6508
600.10 0.6505
600.20 0.6503
600.30 0.65
600.40 0.6497
600.50 0.6494
600.60 0.6491
600.70 0.6488
600.80 0.6485
600.90 0.6482
601.00 0.6479
601.10 0.6476
601.20 0.6473
601.30 0.647
601.40 0.6467
601.50 0.6464
601.60 0.6462
601.70 0.6459
601.80 0.6456
601.90 0.6453
602.00 0.645
602.10 0.6447
602.20 0.6444
602.30 0.6441
602.40 0.6438
602.50 0.6435
602.60 0.6433
602.70 0.643
602.80 0.6427
602.90 0.6424
603.00 0.6421
603.10 0.6418
603.20 0.6415
603.30 0.6412
603.40 0.6409
603.50 0.6406
603.60 0.6404
603.70 0.6401
603.80 0.6398
603.90 0.6395
604.00 0.6392
604.10 0.6389
604.20 0.6386
604.30 0.6383
604.40 0.638
604.50 0.6378
604.60 0.6375
604.70 0.6372
604.80 0.6369
604.90 0.6366
605.00 0.6363
605.10 0.636
605.20 0.6357
605.30 0.6355
605.40 0.6352
605.50 0.6349
605.60 0.6346
605.70 0.6343
605.80 0.634
605.90 0.6337
606.00 0.6334
606.10 0.6332
606.20 0.6329
606.30 0.6326
606.40 0.6323
606.50 0.632
606.60 0.6317
606.70 0.6314
606.80 0.6312
606.90 0.6309
607.00 0.6306
607.10 0.6303
607.20 0.63
607.30 0.6297
607.40 0.6294
607.50 0.6292
607.60 0.6289
607.70 0.6286
607.80 0.6283
607.90 0.628
608.00 0.6277
608.10 0.6275
608.20 0.6272
608.30 0.6269
608.40 0.6266
608.50 0.6263
608.60 0.626
608.70 0.6257
608.80 0.6255
608.90 0.6252
609.00 0.6249
609.10 0.6246
609.20 0.6243
609.30 0.624
609.40 0.6238
609.50 0.6235
609.60 0.6232
609.70 0.6229
609.80 0.6226
609.90 0.6223
610.00 0.6221
610.10 0.6218
610.20 0.6215
610.30 0.6212
610.40 0.6209
610.50 0.6207
610.60 0.6204
610.70 0.6201
610.80 0.6198
610.90 0.6195
611.00 0.6192
611.10 0.619
611.20 0.6187
611.30 0.6184
611.40 0.6181
611.50 0.6178
611.60 0.6176
611.70 0.6173
611.80 0.617
611.90 0.6167
612.00 0.6164
612.10 0.6161
612.20 0.6159
612.30 0.6156
612.40 0.6153
612.50 0.615
612.60 0.6147
612.70 0.6145
612.80 0.6142
612.90 0.6139
613.00 0.6136
613.10 0.6133
613.20 0.613
613.30 0.6128
613.40 0.6125
613.50 0.6122
613.60 0.6119
613.70 0.6116
613.80 0.6114
613.90 0.6111
614.00 0.6108
614.10 0.6105
614.20 0.6102
614.30 0.61
614.40 0.6097
614.50 0.6094
614.60 0.6091
614.70 0.6088
614.80 0.6086
614.90 0.6083
615.00 0.608
615.10 0.6077
615.20 0.6075
615.30 0.6072
615.40 0.6069
615.50 0.6066
615.60 0.6063
615.70 0.6061
615.80 0.6058
615.90 0.6055
616.00 0.6052
616.10 0.6049
616.20 0.6047
616.30 0.6044
616.40 0.6041
616.50 0.6038
616.60 0.6035
616.70 0.6033
616.80 0.603
616.90 0.6027
617.00 0.6024
617.10 0.6021
617.20 0.6019
617.30 0.6016
617.40 0.6013
617.50 0.601
617.60 0.6007
617.70 0.6005
617.80 0.6002
617.90 0.5999
618.00 0.5996
618.10 0.5993
618.20 0.5991
618.30 0.5988
618.40 0.5985
618.50 0.5982
618.60 0.5979
618.70 0.5977
618.80 0.5974
618.90 0.5971
619.00 0.5968
619.10 0.5965
619.20 0.5963
619.30 0.596
619.40 0.5957
619.50 0.5954
619.60 0.5952
619.70 0.5949
619.80 0.5946
619.90 0.5943
620.00 0.594
620.10 0.5938
620.20 0.5935
620.30 0.5932
620.40 0.5929
620.50 0.5926
620.60 0.5924
620.70 0.5921
620.80 0.5918
620.90 0.5915
621.00 0.5912
621.10 0.591
621.20 0.5907
621.30 0.5904
621.40 0.5901
621.50 0.5898
621.60 0.5896
621.70 0.5893
621.80 0.589
621.90 0.5887
622.00 0.5884
622.10 0.5882
622.20 0.5879
622.30 0.5876
622.40 0.5873
622.50 0.587
622.60 0.5868
622.70 0.5865
622.80 0.5862
622.90 0.5859
623.00 0.5856
623.10 0.5854
623.20 0.5851
623.30 0.5848
623.40 0.5845
623.50 0.5842
623.60 0.5839
623.70 0.5837
623.80 0.5834
623.90 0.5831
624.00 0.5828
624.10 0.5825
624.20 0.5823
624.30 0.582
624.40 0.5817
624.50 0.5814
624.60 0.5811
624.70 0.5808
624.80 0.5806
624.90 0.5803
625.00 0.58
625.10 0.5797
625.20 0.5794
625.30 0.5791
625.40 0.5789
625.50 0.5786
625.60 0.5783
625.70 0.578
625.80 0.5777
625.90 0.5774
626.00 0.5772
626.10 0.5769
626.20 0.5766
626.30 0.5763
626.40 0.576
626.50 0.5757
626.60 0.5755
626.70 0.5752
626.80 0.5749
626.90 0.5746
627.00 0.5743
627.10 0.574
627.20 0.5737
627.30 0.5735
627.40 0.5732
627.50 0.5729
627.60 0.5726
627.70 0.5723
627.80 0.572
627.90 0.5717
628.00 0.5715
628.10 0.5712
628.20 0.5709
628.30 0.5706
628.40 0.5703
628.50 0.57
628.60 0.5697
628.70 0.5694
628.80 0.5691
628.90 0.5688
629.00 0.5686
629.10 0.5683
629.20 0.568
629.30 0.5677
629.40 0.5674
629.50 0.5671
629.60 0.5668
629.70 0.5665
629.80 0.5662
629.90 0.5659
630.00 0.5656
630.10 0.5653
630.20 0.565
630.30 0.5647
630.40 0.5644
630.50 0.5642
630.60 0.5639
630.70 0.5636
630.80 0.5633
630.90 0.563
631.00 0.5627
631.10 0.5624
631.20 0.5621
631.30 0.5618
631.40 0.5615
631.50 0.5612
631.60 0.5609
631.70 0.5605
631.80 0.5602
631.90 0.5599
632.00 0.5596
632.10 0.5593
632.20 0.559
632.30 0.5587
632.40 0.5584
632.50 0.5581
632.60 0.5578
632.70 0.5575
632.80 0.5572
632.90 0.5569
633.00 0.5565
633.10 0.5562
633.20 0.5559
633.30 0.5556
633.40 0.5553
633.50 0.555
633.60 0.5547
633.70 0.5543
633.80 0.554
633.90 0.5537
634.00 0.5534
634.10 0.5531
634.20 0.5527
634.30 0.5524
634.40 0.5521
634.50 0.5518
634.60 0.5514
634.70 0.5511
634.80 0.5508
634.90 0.5504
635.00 0.5501
635.10 0.5498
635.20 0.5494
635.30 0.5491
635.40 0.5488
635.50 0.5484
635.60 0.5481
635.70 0.5477
635.80 0.5474
635.90 0.5471
636.00 0.5467
636.10 0.5464
636.20 0.546
636.30 0.5457
636.40 0.5453
636.50 0.545
636.60 0.5446
636.70 0.5442
636.80 0.5439
636.90 0.5435
637.00 0.5431
637.10 0.5428
637.20 0.5424
637.30 0.5421
637.40 0.5417
637.50 0.5413
637.60 0.5409
637.70 0.5405
637.80 0.5401
637.90 0.5398
638.00 0.5394
638.10 0.539
638.20 0.5386
638.30 0.5382
638.40 0.5378
638.50 0.5374
638.60 0.537
638.70 0.5366
638.80 0.5362
638.90 0.5358
639.00 0.5354
639.10 0.535
639.20 0.5346
639.30 0.5341
639.40 0.5337
639.50 0.5333
639.60 0.5328
639.70 0.5324
639.80 0.5319
639.90 0.5315
640.00 0.5311
640.10 0.5306
640.20 0.5302
640.30 0.5297
640.40 0.5293
640.50 0.5288
640.60 0.5283
640.70 0.5278
640.80 0.5273
640.90 0.5268
641.00 0.5264
641.10 0.5259
641.20 0.5254
641.30 0.5249
641.40 0.5243
641.50 0.5238
641.60 0.5233
641.70 0.5227
641.80 0.5222
641.90 0.5216
642.00 0.5211
642.10 0.5205
642.20 0.52
642.30 0.5194
642.40 0.5188
642.50 0.5183
642.60 0.5177
642.70 0.5171
642.80 0.5165
642.90 0.516
643.00 0.5154
643.10 0.5148
643.20 0.5142
643.30 0.5137
643.40 0.5131
643.50 0.5125
643.60 0.5118
643.70 0.5112
643.80 0.5106
643.90 0.51
644.00 0.5094
644.10 0.5088
644.20 0.5082
644.30 0.5076
644.40 0.5069
644.50 0.5062
644.60 0.5055
644.70 0.5048
644.80 0.5041
644.90 0.5035
645.00 0.5028
645.10 0.5021
645.20 0.5014
645.30 0.5007
645.40 0.4999
645.50 0.4992
645.60 0.4984
645.70 0.4977
645.80 0.497
645.90 0.4962
646.00 0.4955
646.10 0.4947
646.20 0.494
646.30 0.4933
646.40 0.4925
646.50 0.4917
646.60 0.4909
646.70 0.4901
646.80 0.4893
646.90 0.4885
647.00 0.4877
647.10 0.4869
647.20 0.4861
647.30 0.4853
647.40 0.4843
647.50 0.4834
647.60 0.4824
647.70 0.4814
647.80 0.4805
647.90 0.4795
648.00 0.4786
648.10 0.4776
648.20 0.4767
648.30 0.4757
648.40 0.4746
648.50 0.4735
648.60 0.4724
648.70 0.4713
648.80 0.4702
648.90 0.4691
649.00 0.468
649.10 0.4669
649.20 0.4658
649.30 0.4646
649.40 0.4634
649.50 0.4621
649.60 0.4608
649.70 0.4595
649.80 0.4583
649.90 0.457
650.00 0.4557
650.10 0.4544
650.20 0.4532
650.30 0.4518
650.40 0.4502
650.50 0.4487
650.60 0.4471
650.70 0.4455
650.80 0.4439
650.90 0.4424
651.00 0.4408
651.10 0.4392
651.20 0.4376
651.30 0.436
651.40 0.434
651.50 0.432
651.60 0.43
651.70 0.428
651.80 0.426
651.90 0.424
652.00 0.422
652.10 0.42
652.20 0.418
652.30 0.4159
652.40 0.4132
652.50 0.4106
652.60 0.408
652.70 0.4054
652.80 0.4028
652.90 0.4002
653.00 0.3976
653.10 0.395
653.20 0.3924
653.30 0.3896
653.40 0.3861
653.50 0.3826
653.60 0.3791
653.70 0.3756
653.80 0.372
653.90 0.3685
654.00 0.365
654.10 0.3615
654.20 0.358
654.30 0.3544
654.40 0.3502
654.50 0.346
654.60 0.3418
654.70 0.3377
654.80 0.3335
654.90 0.3291
655.00 0.3247
655.10 0.3203
655.20 0.316
655.30 0.3116
655.40 0.3072
655.50 0.3027
655.60 0.2981
655.70 0.2935
655.80 0.2885
655.90 0.2831
656.00 0.2756
656.10 0.2673
656.20 0.2482
656.30 0.235
656.40 0.2573
656.50 0.2706
656.60 0.2779
656.70 0.2847
656.80 0.2895
656.90 0.2941
657.00 0.2985
657.10 0.3028
657.20 0.307
657.30 0.3112
657.40 0.3153
657.50 0.3194
657.60 0.3235
657.70 0.3276
657.80 0.3316
657.90 0.3355
658.00 0.3394
658.10 0.3433
658.20 0.3472
658.30 0.3509
658.40 0.3541
658.50 0.3572
658.60 0.3604
658.70 0.3636
658.80 0.3667
658.90 0.3699
659.00 0.3731
659.10 0.3762
659.20 0.3794
659.30 0.3824
659.40 0.3846
659.50 0.3868
659.60 0.3891
659.70 0.3913
659.80 0.3935
659.90 0.3958
660.00 0.398
660.10 0.4002
660.20 0.4024
660.30 0.4045
660.40 0.4061
660.50 0.4077
660.60 0.4093
660.70 0.4109
660.80 0.4125
660.90 0.4141
661.00 0.4157
661.10 0.4173
661.20 0.4189
661.30 0.4204
661.40 0.4216
661.50 0.4228
661.60 0.4239
661.70 0.4251
661.80 0.4263
661.90 0.4274
662.00 0.4286
662.10 0.4297
662.20 0.4309
662.30 0.432
662.40 0.4329
662.50 0.4337
662.60 0.4346
662.70 0.4354
662.80 0.4363
662.90 0.4371
663.00 0.438
663.10 0.4388
663.20 0.4397
663.30 0.4405
663.40 0.4411
663.50 0.4418
663.60 0.4425
663.70 0.4431
663.80 0.4438
663.90 0.4445
664.00 0.4451
664.10 0.4458
664.20 0.4465
664.30 0.4471
664.40 0.4476
664.50 0.4481
664.60 0.4486
664.70 0.4492
664.80 0.4497
664.90 0.4502
665.00 0.4507
665.10 0.4512
665.20 0.4517
665.30 0.4522
665.40 0.4526
665.50 0.4529
665.60 0.4533
665.70 0.4536
665.80 0.454
665.90 0.4543
666.00 0.4547
666.10 0.455
666.20 0.4554
666.30 0.4557
666.40 0.456
666.50 0.4563
666.60 0.4566
666.70 0.4569
666.80 0.4572
666.90 0.4575
667.00 0.4578
667.10 0.4581
667.20 0.4584
667.30 0.4586
667.40 0.4589
667.50 0.4591
667.60 0.4594
667.70 0.4596
667.80 0.4598
667.90 0.4601
668.00 0.4603
668.10 0.4605
668.20 0.4608
668.30 0.461
668.40 0.4611
668.50 0.4613
668.60 0.4614
668.70 0.4616
668.80 0.4617
668.90 0.4619
669.00 0.462
669.10 0.4622
669.20 0.4623
669.30 0.4625
669.40 0.4626
669.50 0.4627
669.60 0.4628
669.70 0.4629
669.80 0.4631
669.90 0.4632
670.00 0.4633
670.10 0.4634
670.20 0.4635
670.30 0.4636
670.40 0.4637
670.50 0.4638
670.60 0.4639
670.70 0.464
670.80 0.464
670.90 0.4641
671.00 0.4642
671.10 0.4643
671.20 0.4644
671.30 0.4645
671.40 0.4645
671.50 0.4645
671.60 0.4645
671.70 0.4645
671.80 0.4646
671.90 0.4646
672.00 0.4646
672.10 0.4646
672.20 0.4647
672.30 0.4647
672.40 0.4646
672.50 0.4646
672.60 0.4646
672.70 0.4646
672.80 0.4646
672.90 0.4646
673.00 0.4645
673.10 0.4645
673.20 0.4645
673.30 0.4645
673.40 0.4644
673.50 0.4644
673.60 0.4643
673.70 0.4643
673.80 0.4642
673.90 0.4642
674.00 0.4641
674.10 0.4641
674.20 0.464
674.30 0.464
674.40 0.4639
674.50 0.4638
674.60 0.4638
674.70 0.4637
674.80 0.4636
674.90 0.4636
675.00 0.4635
675.10 0.4634
675.20 0.4633
675.30 0.4633
675.40 0.4632
675.50 0.4631
675.60 0.463
675.70 0.4629
675.80 0.4628
675.90 0.4627
676.00 0.4626
676.10 0.4625
676.20 0.4624
676.30 0.4623
676.40 0.4622
676.50 0.4621
676.60 0.462
676.70 0.4619
676.80 0.4618
676.90 0.4617
677.00 0.4616
677.10 0.4615
677.20 0.4614
677.30 0.4613
677.40 0.4611
677.50 0.461
677.60 0.4609
677.70 0.4608
677.80 0.4607
677.90 0.4605
678.00 0.4604
678.10 0.4603
678.20 0.4602
678.30 0.4601
678.40 0.4599
678.50 0.4598
678.60 0.4597
678.70 0.4596
678.80 0.4594
678.90 0.4593
679.00 0.4592
679.10 0.459
679.20 0.4589
679.30 0.4588
679.40 0.4586
679.50 0.4585
679.60 0.4584
679.70 0.4582
679.80 0.4581
679.90 0.458
680.00 0.4578
680.10 0.4577
680.20 0.4575
680.30 0.4574
680.40 0.4573
680.50 0.4571
680.60 0.457
680.70 0.4568
680.80 0.4567
680.90 0.4565
681.00 0.4564
681.10 0.4563
681.20 0.4561
681.30 0.456
681.40 0.4558
681.50 0.4557
681.60 0.4555
681.70 0.4554
681.80 0.4552
681.90 0.4551
682.00 0.4549
682.10 0.4548
682.20 0.4546
682.30 0.4545
682.40 0.4543
682.50 0.4542
682.60 0.454
682.70 0.4539
682.80 0.4537
682.90 0.4536
683.00 0.4534
683.10 0.4533
683.20 0.4531
683.30 0.453
683.40 0.4528
683.50 0.4527
683.60 0.4525
683.70 0.4523
683.80 0.4522
683.90 0.452
684.00 0.4519
684.10 0.4517
684.20 0.4516
684.30 0.4514
684.40 0.4512
684.50 0.4511
684.60 0.4509
684.70 0.4508
684.80 0.4506
684.90 0.4505
685.00 0.4503
685.10 0.4501
685.20 0.45
685.30 0.4498
685.40 0.4497
685.50 0.4495
685.60 0.4493
685.70 0.4492
685.80 0.449
685.90 0.4489
686.00 0.4487
686.10 0.4485
686.20 0.4484
686.30 0.4482
686.40 0.4481
686.50 0.4479
686.60 0.4477
686.70 0.4476
686.80 0.4474
686.90 0.4472
687.00 0.4471
687.10 0.4469
687.20 0.4468
687.30 0.4466
687.40 0.4464
687.50 0.4463
687.60 0.4461
687.70 0.4459
687.80 0.4458
687.90 0.4456
688.00 0.4455
688.10 0.4453
688.20 0.4451
688.30 0.445
688.40 0.4448
688.50 0.4446
688.60 0.4445
688.70 0.4443
688.80 0.4441
688.90 0.444
689.00 0.4438
689.10 0.4437
689.20 0.4435
689.30 0.4433
689.40 0.4432
689.50 0.443
689.60 0.4428
689.70 0.4426
689.80 0.4425
689.90 0.4423
690.00 0.4421
690.10 0.442
690.20 0.4418
690.30 0.4416
690.40 0.4414
690.50 0.4413
690.60 0.4411
690.70 0.4409
690.80 0.4408
690.90 0.4406
691.00 0.4404
691.10 0.4403
691.20 0.4401
691.30 0.4399
691.40 0.4398
691.50 0.4396
691.60 0.4394
691.70 0.4392
691.80 0.4391
691.90 0.4389
692.00 0.4387
692.10 0.4386
692.20 0.4384
692.30 0.4382
692.40 0.4381
692.50 0.4379
692.60 0.4377
692.70 0.4376
692.80 0.4374
692.90 0.4372
693.00 0.4371
693.10 0.4369
693.20 0.4367
693.30 0.4365
693.40 0.4364
693.50 0.4362
693.60 0.436
693.70 0.4359
693.80 0.4357
693.90 0.4355
694.00 0.4354
694.10 0.4352
694.20 0.435
694.30 0.4349
694.40 0.4347
694.50 0.4345
694.60 0.4344
694.70 0.4342
694.80 0.434
694.90 0.4339
695.00 0.4337
695.10 0.4335
695.20 0.4334
695.30 0.4332
695.40 0.433
695.50 0.4329
695.60 0.4327
695.70 0.4325
695.80 0.4324
695.90 0.4322
696.00 0.432
696.10 0.4319
696.20 0.4317
696.30 0.4315
696.40 0.4314
696.50 0.4312
696.60 0.431
696.70 0.4309
696.80 0.4307
696.90 0.4306
697.00 0.4304
697.10 0.4302
697.20 0.4301
697.30 0.4299
697.40 0.4297
697.50 0.4296
697.60 0.4294
697.70 0.4292
697.80 0.4291
697.90 0.4289
698.00 0.4287
698.10 0.4286
698.20 0.4284
698.30 0.4283
698.40 0.4281
698.50 0.4279
698.60 0.4278
698.70 0.4276
698.80 0.4274
698.90 0.4273
699.00 0.4271
699.10 0.4269
699.20 0.4268
699.30 0.4266
699.40 0.4265
699.50 0.4263
699.60 0.4261
699.70 0.426
699.80 0.4258
699.90 0.4256
700.00 0.4255
700.10 0.4253
700.20 0.4252
700.30 0.425
700.40 0.4249
700.50 0.4247
700.60 0.4246
700.70 0.4244
700.80 0.4243
700.90 0.4241
701.00 0.424
701.10 0.4238
701.20 0.4237
701.30 0.4235
701.40 0.4234
701.50 0.4232
701.60 0.4231
701.70 0.4229
701.80 0.4228
701.90 0.4226
702.00 0.4224
702.10 0.4223
702.20 0.4221
702.30 0.422
702.40 0.4218
702.50 0.4217
702.60 0.4215
702.70 0.4214
702.80 0.4212
702.90 0.4211
703.00 0.4209
703.10 0.4208
703.20 0.4206
703.30 0.4205
703.40 0.4203
703.50 0.4202
703.60 0.42
703.70 0.4199
703.80 0.4198
703.90 0.4196
704.00 0.4195
704.10 0.4193
704.20 0.4192
704.30 0.419
704.40 0.4189
704.50 0.4187
704.60 0.4186
704.70 0.4184
704.80 0.4183
704.90 0.4181
705.00 0.418
705.10 0.4178
705.20 0.4176
705.30 0.4175
705.40 0.4173
705.50 0.4171
705.60 0.417
705.70 0.4168
705.80 0.4166
705.90 0.4165
706.00 0.4163
706.10 0.4161
706.20 0.416
706.30 0.4158
706.40 0.4157
706.50 0.4155
706.60 0.4153
706.70 0.4152
706.80 0.415
706.90 0.4148
707.00 0.4147
707.10 0.4145
707.20 0.4143
707.30 0.4142
707.40 0.414
707.50 0.4138
707.60 0.4137
707.70 0.4135
707.80 0.4134
707.90 0.4132
708.00 0.413
708.10 0.4129
708.20 0.4127
708.30 0.4125
708.40 0.4124
708.50 0.4122
708.60 0.412
708.70 0.4119
708.80 0.4117
708.90 0.4116
709.00 0.4114
709.10 0.4112
709.20 0.4111
709.30 0.4109
709.40 0.4107
709.50 0.4106
709.60 0.4104
709.70 0.4103
709.80 0.4101
709.90 0.4099
710.00 0.4098
710.10 0.4096
710.20 0.4094
710.30 0.4093
710.40 0.4091
710.50 0.409
710.60 0.4088
710.70 0.4086
710.80 0.4085
710.90 0.4083
711.00 0.4081
711.10 0.408
711.20 0.4078
711.30 0.4077
711.40 0.4075
711.50 0.4073
711.60 0.4072
711.70 0.407
711.80 0.4069
711.90 0.4067
712.00 0.4065
712.10 0.4064
712.20 0.4062
712.30 0.406
712.40 0.4059
712.50 0.4057
712.60 0.4056
712.70 0.4054
712.80 0.4052
712.90 0.4051
713.00 0.4049
713.10 0.4048
713.20 0.4046
713.30 0.4044
713.40 0.4043
713.50 0.4041
713.60 0.404
713.70 0.4038
713.80 0.4036
713.90 0.4035
714.00 0.4033
714.10 0.4032
714.20 0.403
714.30 0.4028
714.40 0.4027
714.50 0.4025
714.60 0.4024
714.70 0.4022
714.80 0.402
714.90 0.4019
715.00 0.4017
715.10 0.4016
715.20 0.4014
715.30 0.4013
715.40 0.4011
715.50 0.401
715.60 0.4008
715.70 0.4007
715.80 0.4005
715.90 0.4003
716.00 0.4002
716.10 0.4
716.20 0.3999
716.30 0.3997
716.40 0.3996
716.50 0.3994
716.60 0.3993
716.70 0.3991
716.80 0.399
716.90 0.3988
717.00 0.3987
717.10 0.3985
717.20 0.3984
717.30 0.3982
717.40 0.3981
717.50 0.3979
717.60 0.3978
717.70 0.3976
717.80 0.3975
717.90 0.3973
718.00 0.3972
718.10 0.397
718.20 0.3969
718.30 0.3967
718.40 0.3966
718.50 0.3964
718.60 0.3963
718.70 0.3961
718.80 0.396
718.90 0.3958
719.00 0.3957
719.10 0.3955
719.20 0.3954
719.30 0.3952
719.40 0.3951
719.50 0.3949
719.60 0.3948
719.70 0.3946
719.80 0.3945
719.90 0.3943
720.00 0.3942
720.10 0.394
720.20 0.3939
720.30 0.3937
720.40 0.3935
720.50 0.3934
720.60 0.3932
720.70 0.3931
720.80 0.3929
720.90 0.3928
721.00 0.3926
721.10 0.3924
721.20 0.3923
721.30 0.3921
721.40 0.392
721.50 0.3918
721.60 0.3917
721.70 0.3915
721.80 0.3914
721.90 0.3912
722.00 0.391
722.10 0.3909
722.20 0.3907
722.30 0.3906
722.40 0.3904
722.50 0.3903
722.60 0.3901
722.70 0.3899
722.80 0.3898
722.90 0.3896
723.00 0.3895
723.10 0.3893
723.20 0.3892
723.30 0.389
723.40 0.3889
723.50 0.3887
723.60 0.3885
723.70 0.3884
723.80 0.3882
723.90 0.3881
724.00 0.3879
724.10 0.3878
724.20 0.3876
724.30 0.3875
724.40 0.3873
724.50 0.3872
724.60 0.387
724.70 0.3868
724.80 0.3867
724.90 0.3865
725.00 0.3864
725.10 0.3862
725.20 0.3861
725.30 0.3859
725.40 0.3858
725.50 0.3856
725.60 0.3855
725.70 0.3853
725.80 0.3852
725.90 0.385
726.00 0.3848
726.10 0.3847
726.20 0.3845
726.30 0.3844
726.40 0.3842
726.50 0.3841
726.60 0.3839
726.70 0.3838
726.80 0.3836
726.90 0.3835
727.00 0.3833
727.10 0.3832
727.20 0.383
727.30 0.3829
727.40 0.3827
727.50 0.3826
727.60 0.3824
727.70 0.3822
727.80 0.3821
727.90 0.3819
728.00 0.3818
728.10 0.3816
728.20 0.3815
728.30 0.3813
728.40 0.3812
728.50 0.381
728.60 0.3809
728.70 0.3807
728.80 0.3806
728.90 0.3804
729.00 0.3803
729.10 0.3801
729.20 0.38
729.30 0.3798
729.40 0.3797
729.50 0.3795
729.60 0.3794
729.70 0.3792
729.80 0.3791
729.90 0.3789
730.00 0.3788
730.10 0.3786
730.20 0.3785
730.30 0.3783
730.40 0.3782
730.50 0.378
730.60 0.3779
730.70 0.3777
730.80 0.3776
730.90 0.3774
731.00 0.3773
731.10 0.3771
731.20 0.377
731.30 0.3768
731.40 0.3767
731.50 0.3765
731.60 0.3764
731.70 0.3762
731.80 0.3761
731.90 0.3759
732.00 0.3758
732.10 0.3756
732.20 0.3755
732.30 0.3753
732.40 0.3752
732.50 0.375
732.60 0.3749
732.70 0.3747
732.80 0.3746
732.90 0.3744
733.00 0.3743
733.10 0.3741
733.20 0.374
733.30 0.3738
733.40 0.3737
733.50 0.3735
733.60 0.3734
733.70 0.3733
733.80 0.3731
733.90 0.373
734.00 0.3728
734.10 0.3727
734.20 0.3725
734.30 0.3724
734.40 0.3722
734.50 0.3721
734.60 0.3719
734.70 0.3718
734.80 0.3716
734.90 0.3715
735.00 0.3713
735.10 0.3712
735.20 0.371
735.30 0.3709
735.40 0.3707
735.50 0.3706
735.60 0.3705
735.70 0.3703
735.80 0.3702
735.90 0.37
736.00 0.3699
736.10 0.3697
736.20 0.3696
736.30 0.3694
736.40 0.3693
736.50 0.3691
736.60 0.369
736.70 0.3688
736.80 0.3687
736.90 0.3686
737.00 0.3684
737.10 0.3683
737.20 0.3681
737.30 0.368
737.40 0.3678
737.50 0.3677
737.60 0.3675
737.70 0.3674
737.80 0.3672
737.90 0.3671
738.00 0.367
738.10 0.3668
738.20 0.3667
738.30 0.3665
738.40 0.3664
738.50 0.3662
738.60 0.3661
738.70 0.3659
738.80 0.3658
738.90 0.3657
739.00 0.3655
739.10 0.3654
739.20 0.3652
739.30 0.3651
739.40 0.3649
739.50 0.3648
739.60 0.3646
739.70 0.3645
739.80 0.3644
739.90 0.3642
740.00 0.3641
740.10 0.3639
740.20 0.3638
740.30 0.3636
740.40 0.3635
740.50 0.3634
740.60 0.3632
740.70 0.3631
740.80 0.3629
740.90 0.3628
741.00 0.3626
741.10 0.3625
741.20 0.3624
741.30 0.3622
741.40 0.3621
741.50 0.3619
741.60 0.3618
741.70 0.3616
741.80 0.3615
741.90 0.3614
742.00 0.3612
742.10 0.3611
742.20 0.3609
742.30 0.3608
742.40 0.3607
742.50 0.3605
742.60 0.3604
742.70 0.3602
742.80 0.3601
742.90 0.3599
743.00 0.3598
743.10 0.3597
743.20 0.3595
743.30 0.3594
743.40 0.3592
743.50 0.3591
743.60 0.359
743.70 0.3588
743.80 0.3587
743.90 0.3585
744.00 0.3584
744.10 0.3583
744.20 0.3581
744.30 0.358
744.40 0.3578
744.50 0.3577
744.60 0.3575
744.70 0.3574
744.80 0.3573
744.90 0.3571
745.00 0.357
745.10 0.3568
745.20 0.3567
745.30 0.3566
745.40 0.3564
745.50 0.3563
745.60 0.3562
745.70 0.356
745.80 0.3559
745.90 0.3557
746.00 0.3556
746.10 0.3555
746.20 0.3553
746.30 0.3552
746.40 0.355
746.50 0.3549
746.60 0.3548
746.70 0.3546
746.80 0.3545
746.90 0.3543
747.00 0.3542
747.10 0.3541
747.20 0.3539
747.30 0.3538
747.40 0.3536
747.50 0.3535
747.60 0.3534
747.70 0.3532
747.80 0.3531
747.90 0.353
748.00 0.3528
748.10 0.3527
748.20 0.3525
748.30 0.3524
748.40 0.3523
748.50 0.3521
748.60 0.352
748.70 0.3519
748.80 0.3517
748.90 0.3516
749.00 0.3514
749.10 0.3513
749.20 0.3512
749.30 0.351
749.40 0.3509
749.50 0.3508
749.60 0.3506
749.70 0.3505
749.80 0.3503
749.90 0.3502
750.00 0.3501
750.10 0.3499
750.20 0.3498
750.30 0.3497
750.40 0.3495
750.50 0.3494
750.60 0.3492
750.70 0.3491
750.80 0.349
750.90 0.3488
751.00 0.3487
751.10 0.3486
751.20 0.3484
751.30 0.3483
751.40 0.3482
751.50 0.348
751.60 0.3479
751.70 0.3478
751.80 0.3476
751.90 0.3475
752.00 0.3473
752.10 0.3472
752.20 0.3471
752.30 0.3469
752.40 0.3468
752.50 0.3467
752.60 0.3465
752.70 0.3464
752.80 0.3463
752.90 0.3461
753.00 0.346
753.10 0.3459
753.20 0.3457
753.30 0.3456
753.40 0.3455
753.50 0.3453
753.60 0.3452
753.70 0.3451
753.80 0.3449
753.90 0.3448
754.00 0.3447
754.10 0.3445
754.20 0.3444
754.30 0.3443
754.40 0.3441
754.50 0.344
754.60 0.3439
754.70 0.3437
754.80 0.3436
754.90 0.3434
755.00 0.3433
755.10 0.3432
755.20 0.343
755.30 0.3429
755.40 0.3428
755.50 0.3426
755.60 0.3425
755.70 0.3424
755.80 0.3422
755.90 0.3421
756.00 0.342
756.10 0.3419
756.20 0.3417
756.30 0.3416
756.40 0.3415
756.50 0.3413
756.60 0.3412
756.70 0.3411
756.80 0.3409
756.90 0.3408
757.00 0.3407
757.10 0.3405
757.20 0.3404
757.30 0.3403
757.40 0.3401
757.50 0.34
757.60 0.3399
757.70 0.3397
757.80 0.3396
757.90 0.3395
758.00 0.3393
758.10 0.3392
758.20 0.3391
758.30 0.3389
758.40 0.3388
758.50 0.3387
758.60 0.3385
758.70 0.3384
758.80 0.3383
758.90 0.3382
759.00 0.338
759.10 0.3379
759.20 0.3378
759.30 0.3376
759.40 0.3375
759.50 0.3374
759.60 0.3372
759.70 0.3371
759.80 0.337
759.90 0.3368
760.00 0.3367
760.10 0.3366
760.20 0.3365
760.30 0.3363
760.40 0.3362
760.50 0.3361
760.60 0.3359
760.70 0.3358
760.80 0.3357
760.90 0.3355
761.00 0.3354
761.10 0.3353
761.20 0.3352
761.30 0.335
761.40 0.3349
761.50 0.3348
761.60 0.3346
761.70 0.3345
761.80 0.3344
761.90 0.3342
762.00 0.3341
762.10 0.334
762.20 0.3339
762.30 0.3337
762.40 0.3336
762.50 0.3335
762.60 0.3333
762.70 0.3332
762.80 0.3331
762.90 0.333
763.00 0.3328
763.10 0.3327
763.20 0.3326
763.30 0.3324
763.40 0.3323
763.50 0.3322
763.60 0.3321
763.70 0.3319
763.80 0.3318
763.90 0.3317
764.00 0.3315
764.10 0.3314
764.20 0.3313
764.30 0.3312
764.40 0.331
764.50 0.3309
764.60 0.3308
764.70 0.3307
764.80 0.3305
764.90 0.3304
765.00 0.3303
765.10 0.3301
765.20 0.33
765.30 0.3299
765.40 0.3298
765.50 0.3296
765.60 0.3295
765.70 0.3294
765.80 0.3293
765.90 0.3291
766.00 0.329
766.10 0.3289
766.20 0.3287
766.30 0.3286
766.40 0.3285
766.50 0.3284
766.60 0.3282
766.70 0.3281
766.80 0.328
766.90 0.3279
767.00 0.3277
767.10 0.3276
767.20 0.3275
767.30 0.3274
767.40 0.3272
767.50 0.3271
767.60 0.327
767.70 0.3269
767.80 0.3267
767.90 0.3266
768.00 0.3265
768.10 0.3263
768.20 0.3262
768.30 0.3261
768.40 0.326
768.50 0.3258
768.60 0.3257
768.70 0.3256
768.80 0.3255
768.90 0.3253
769.00 0.3252
769.10 0.3251
769.20 0.325
769.30 0.3248
769.40 0.3247
769.50 0.3246
769.60 0.3245
769.70 0.3243
769.80 0.3242
769.90 0.3241
770.00 0.324
770.10 0.3238
770.20 0.3237
770.30 0.3236
770.40 0.3235
770.50 0.3233
770.60 0.3232
770.70 0.3231
770.80 0.323
770.90 0.3229
771.00 0.3227
771.10 0.3226
771.20 0.3225
771.30 0.3224
771.40 0.3222
771.50 0.3221
771.60 0.322
771.70 0.3219
771.80 0.3217
771.90 0.3216
772.00 0.3215
772.10 0.3214
772.20 0.3212
772.30 0.3211
772.40 0.321
772.50 0.3209
772.60 0.3208
772.70 0.3206
772.80 0.3205
772.90 0.3204
773.00 0.3203
773.10 0.3201
773.20 0.32
773.30 0.3199
773.40 0.3198
773.50 0.3197
773.60 0.3195
773.70 0.3194
773.80 0.3193
773.90 0.3192
774.00 0.319
774.10 0.3189
774.20 0.3188
774.30 0.3187
774.40 0.3186
774.50 0.3184
774.60 0.3183
774.70 0.3182
774.80 0.3181
774.90 0.3179
775.00 0.3178
775.10 0.3177
775.20 0.3176
775.30 0.3175
775.40 0.3173
775.50 0.3172
775.60 0.3171
775.70 0.317
775.80 0.3168
775.90 0.3167
776.00 0.3166
776.10 0.3165
776.20 0.3164
776.30 0.3162
776.40 0.3161
776.50 0.316
776.60 0.3159
776.70 0.3158
776.80 0.3156
776.90 0.3155
777.00 0.3154
777.10 0.3153
777.20 0.3152
777.30 0.315
777.40 0.3149
777.50 0.3148
777.60 0.3147
777.70 0.3146
777.80 0.3144
777.90 0.3143
778.00 0.3142
778.10 0.3141
778.20 0.314
778.30 0.3138
778.40 0.3137
778.50 0.3136
778.60 0.3135
778.70 0.3134
778.80 0.3132
778.90 0.3131
779.00 0.313
779.10 0.3129
779.20 0.3128
779.30 0.3126
779.40 0.3125
779.50 0.3124
779.60 0.3123
779.70 0.3122
779.80 0.312
779.90 0.3119
780.00 0.3118
780.10 0.3117
780.20 0.3116
780.30 0.3114
780.40 0.3113
780.50 0.3112
780.60 0.3111
780.70 0.311
780.80 0.3109
780.90 0.3107
781.00 0.3106
781.10 0.3105
781.20 0.3104
781.30 0.3103
781.40 0.3101
781.50 0.31
781.60 0.3099
781.70 0.3098
781.80 0.3097
781.90 0.3096
782.00 0.3094
782.10 0.3093
782.20 0.3092
782.30 0.3091
782.40 0.309
782.50 0.3089
782.60 0.3087
782.70 0.3086
782.80 0.3085
782.90 0.3084
783.00 0.3083
783.10 0.3082
783.20 0.308
783.30 0.3079
783.40 0.3078
783.50 0.3077
783.60 0.3076
783.70 0.3075
783.80 0.3073
783.90 0.3072
784.00 0.3071
784.10 0.307
784.20 0.3069
784.30 0.3068
784.40 0.3066
784.50 0.3065
784.60 0.3064
784.70 0.3063
784.80 0.3062
784.90 0.3061
785.00 0.3059
785.10 0.3058
785.20 0.3057
785.30 0.3056
785.40 0.3055
785.50 0.3054
785.60 0.3052
785.70 0.3051
785.80 0.305
785.90 0.3049
786.00 0.3048
786.10 0.3047
786.20 0.3046
786.30 0.3044
786.40 0.3043
786.50 0.3042
786.60 0.3041
786.70 0.304
786.80 0.3039
786.90 0.3037
787.00 0.3036
787.10 0.3035
787.20 0.3034
787.30 0.3033
787.40 0.3032
787.50 0.3031
787.60 0.3029
787.70 0.3028
787.80 0.3027
787.90 0.3026
788.00 0.3025
788.10 0.3024
788.20 0.3023
788.30 0.3021
788.40 0.302
788.50 0.3019
788.60 0.3018
788.70 0.3017
788.80 0.3016
788.90 0.3015
789.00 0.3013
789.10 0.3012
789.20 0.3011
789.30 0.301
789.40 0.3009
789.50 0.3008
789.60 0.3007
789.70 0.3005
789.80 0.3004
789.90 0.3003
790.00 0.3002
790.10 0.3001
790.20 0.3
790.30 0.2999
790.40 0.2997
790.50 0.2996
790.60 0.2995
790.70 0.2994
790.80 0.2993
790.90 0.2992
791.00 0.2991
791.10 0.299
791.20 0.2988
791.30 0.2987
791.40 0.2986
791.50 0.2985
791.60 0.2984
791.70 0.2983
791.80 0.2982
791.90 0.2981
792.00 0.2979
792.10 0.2978
792.20 0.2977
792.30 0.2976
792.40 0.2975
792.50 0.2974
792.60 0.2973
792.70 0.2972
792.80 0.297
792.90 0.2969
793.00 0.2968
793.10 0.2967
793.20 0.2966
793.30 0.2965
793.40 0.2964
793.50 0.2963
793.60 0.2962
793.70 0.296
793.80 0.2959
793.90 0.2958
794.00 0.2957
794.10 0.2956
794.20 0.2955
794.30 0.2954
794.40 0.2953
794.50 0.2952
794.60 0.295
794.70 0.2949
794.80 0.2948
794.90 0.2947
795.00 0.2946
795.10 0.2945
795.20 0.2944
795.30 0.2943
795.40 0.2942
795.50 0.294
795.60 0.2939
795.70 0.2938
795.80 0.2937
795.90 0.2936
796.00 0.2935
796.10 0.2934
796.20 0.2933
796.30 0.2932
796.40 0.2931
796.50 0.2929
796.60 0.2928
796.70 0.2927
796.80 0.2926
796.90 0.2925
797.00 0.2924
797.10 0.2923
797.20 0.2922
797.30 0.2921
797.40 0.292
797.50 0.2918
797.60 0.2917
797.70 0.2916
797.80 0.2915
797.90 0.2914
798.00 0.2913
798.10 0.2912
798.20 0.2911
798.30 0.291
798.40 0.2909
798.50 0.2907
798.60 0.2906
798.70 0.2905
798.80 0.2904
798.90 0.2903
799.00 0.2902
799.10 0.2901
799.20 0.29
799.30 0.2899
799.40 0.2898
799.50 0.2897
799.60 0.2895
799.70 0.2894
799.80 0.2893
799.90 0.2892
800.00 0.2891
800.10 0.289
800.20 0.2889
800.30 0.2888
800.40 0.2887
800.50 0.2886
800.60 0.2885
800.70 0.2884
800.80 0.2882
800.90 0.2881
801.00 0.288
801.10 0.2879
801.20 0.2878
801.30 0.2877
801.40 0.2876
801.50 0.2875
801.60 0.2874
801.70 0.2873
801.80 0.2872
801.90 0.2871
802.00 0.287
802.10 0.2869
802.20 0.2867
802.30 0.2866
802.40 0.2865
802.50 0.2864
802.60 0.2863
802.70 0.2862
802.80 0.2861
802.90 0.286
803.00 0.2859
803.10 0.2858
803.20 0.2857
803.30 0.2856
803.40 0.2855
803.50 0.2854
803.60 0.2852
803.70 0.2851
803.80 0.285
803.90 0.2849
804.00 0.2848
804.10 0.2847
804.20 0.2846
804.30 0.2845
804.40 0.2844
804.50 0.2843
804.60 0.2842
804.70 0.2841
804.80 0.284
804.90 0.2839
805.00 0.2838
805.10 0.2837
805.20 0.2836
805.30 0.2834
805.40 0.2833
805.50 0.2832
805.60 0.2831
805.70 0.283
805.80 0.2829
805.90 0.2828
806.00 0.2827
806.10 0.2826
806.20 0.2825
806.30 0.2824
806.40 0.2823
806.50 0.2822
806.60 0.2821
806.70 0.282
806.80 0.2819
806.90 0.2818
807.00 0.2817
807.10 0.2815
807.20 0.2814
807.30 0.2813
807.40 0.2812
807.50 0.2811
807.60 0.281
807.70 0.2809
807.80 0.2808
807.90 0.2807
808.00 0.2806
808.10 0.2805
808.20 0.2804
808.30 0.2803
808.40 0.2802
808.50 0.2801
808.60 0.28
808.70 0.2799
808.80 0.2798
808.90 0.2797
809.00 0.2796
809.10 0.2795
809.20 0.2794
809.30 0.2792
809.40 0.2791
809.50 0.279
809.60 0.2789
809.70 0.2788
809.80 0.2787
809.90 0.2786
810.00 0.2785
810.10 0.2784
810.20 0.2783
810.30 0.2782
810.40 0.2781
810.50 0.278
810.60 0.2779
810.70 0.2778
810.80 0.2777
810.90 0.2776
811.00 0.2775
811.10 0.2774
811.20 0.2773
811.30 0.2772
811.40 0.2771
811.50 0.277
811.60 0.2769
811.70 0.2768
811.80 0.2767
811.90 0.2766
812.00 0.2765
812.10 0.2764
812.20 0.2763
812.30 0.2762
812.40 0.2761
812.50 0.276
812.60 0.2759
812.70 0.2757
812.80 0.2756
812.90 0.2755
813.00 0.2754
813.10 0.2753
813.20 0.2752
813.30 0.2751
813.40 0.275
813.50 0.2749
813.60 0.2748
813.70 0.2747
813.80 0.2746
813.90 0.2745
814.00 0.2744
814.10 0.2743
814.20 0.2742
814.30 0.2741
814.40 0.274
814.50 0.2739
814.60 0.2738
814.70 0.2737
814.80 0.2736
814.90 0.2735
815.00 0.2734
815.10 0.2733
815.20 0.2732
815.30 0.2731
815.40 0.273
815.50 0.2729
815.60 0.2728
815.70 0.2727
815.80 0.2726
815.90 0.2725
816.00 0.2724
816.10 0.2723
816.20 0.2722
816.30 0.2721
816.40 0.272
816.50 0.2719
816.60 0.2718
816.70 0.2717
816.80 0.2716
816.90 0.2715
817.00 0.2714
817.10 0.2713
817.20 0.2712
817.30 0.2711
817.40 0.271
817.50 0.2709
817.60 0.2708
817.70 0.2707
817.80 0.2706
817.90 0.2705
818.00 0.2704
818.10 0.2703
818.20 0.2702
818.30 0.2701
818.40 0.27
818.50 0.2699
818.60 0.2698
818.70 0.2697
818.80 0.2696
818.90 0.2695
819.00 0.2694
819.10 0.2693
819.20 0.2692
819.30 0.2691
819.40 0.269
819.50 0.2689
819.60 0.2688
819.70 0.2687
819.80 0.2686
819.90 0.2685
820.00 0.2684
820.10 0.2683
820.20 0.2682
820.30 0.2681
820.40 0.268
820.50 0.2679
820.60 0.2678
820.70 0.2677
820.80 0.2676
820.90 0.2675
821.00 0.2675
821.10 0.2674
821.20 0.2673
821.30 0.2672
821.40 0.2671
821.50 0.267
821.60 0.2669
821.70 0.2668
821.80 0.2667
821.90 0.2666
822.00 0.2665
822.10 0.2664
822.20 0.2663
822.30 0.2662
822.40 0.2661
822.50 0.266
822.60 0.2659
822.70 0.2658
822.80 0.2657
822.90 0.2656
823.00 0.2655
823.10 0.2654
823.20 0.2653
823.30 0.2652
823.40 0.2651
823.50 0.265
823.60 0.2649
823.70 0.2648
823.80 0.2647
823.90 0.2646
824.00 0.2645
824.10 0.2644
824.20 0.2643
824.30 0.2642
824.40 0.2641
824.50 0.264
824.60 0.2639
824.70 0.2638
824.80 0.2637
824.90 0.2636
825.00 0.2635
825.10 0.2635
825.20 0.2634
825.30 0.2633
825.40 0.2632
825.50 0.2631
825.60 0.263
825.70 0.2629
825.80 0.2628
825.90 0.2627
826.00 0.2626
826.10 0.2625
826.20 0.2624
826.30 0.2623
826.40 0.2622
826.50 0.2621
826.60 0.262
826.70 0.2619
826.80 0.2618
826.90 0.2617
827.00 0.2616
827.10 0.2615
827.20 0.2614
827.30 0.2613
827.40 0.2612
827.50 0.2611
827.60 0.261
827.70 0.261
827.80 0.2609
827.90 0.2608
828.00 0.2607
828.10 0.2606
828.20 0.2605
828.30 0.2604
828.40 0.2603
828.50 0.2602
828.60 0.2601
828.70 0.26
828.80 0.2599
828.90 0.2598
829.00 0.2597
829.10 0.2596
829.20 0.2595
829.30 0.2594
829.40 0.2593
829.50 0.2592
829.60 0.2591
829.70 0.2591
829.80 0.259
829.90 0.2589
830.00 0.2588
830.10 0.2587
830.20 0.2586
830.30 0.2585
830.40 0.2584
830.50 0.2583
830.60 0.2582
830.70 0.2581
830.80 0.258
830.90 0.2579
831.00 0.2578
831.10 0.2577
831.20 0.2576
831.30 0.2575
831.40 0.2574
831.50 0.2574
831.60 0.2573
831.70 0.2572
831.80 0.2571
831.90 0.257
832.00 0.2569
832.10 0.2568
832.20 0.2567
832.30 0.2566
832.40 0.2565
832.50 0.2564
832.60 0.2563
832.70 0.2562
832.80 0.2561
832.90 0.256
833.00 0.2559
833.10 0.2559
833.20 0.2558
833.30 0.2557
833.40 0.2556
833.50 0.2555
833.60 0.2554
833.70 0.2553
833.80 0.2552
833.90 0.2551
834.00 0.255
834.10 0.2549
834.20 0.2548
834.30 0.2547
834.40 0.2546
834.50 0.2546
834.60 0.2545
834.70 0.2544
834.80 0.2543
834.90 0.2542
835.00 0.2541
835.10 0.254
835.20 0.2539
835.30 0.2538
835.40 0.2537
835.50 0.2536
835.60 0.2535
835.70 0.2534
835.80 0.2533
835.90 0.2533
836.00 0.2532
836.10 0.2531
836.20 0.253
836.30 0.2529
836.40 0.2528
836.50 0.2527
836.60 0.2526
836.70 0.2525
836.80 0.2524
836.90 0.2523
837.00 0.2522
837.10 0.2522
837.20 0.2521
837.30 0.252
837.40 0.2519
837.50 0.2518
837.60 0.2517
837.70 0.2516
837.80 0.2515
837.90 0.2514
838.00 0.2513
838.10 0.2512
838.20 0.2511
838.30 0.2511
838.40 0.251
838.50 0.2509
838.60 0.2508
838.70 0.2507
838.80 0.2506
838.90 0.2505
839.00 0.2504
839.10 0.2503
839.20 0.2502
839.30 0.2501
839.40 0.2501
839.50 0.25
839.60 0.2499
839.70 0.2498
839.80 0.2497
839.90 0.2496
840.00 0.2495
840.10 0.2494
840.20 0.2493
840.30 0.2492
840.40 0.2492
840.50 0.2491
840.60 0.249
840.70 0.2489
840.80 0.2488
840.90 0.2487
841.00 0.2486
841.10 0.2485
841.20 0.2484
841.30 0.2483
841.40 0.2482
841.50 0.2482
841.60 0.2481
841.70 0.248
841.80 0.2479
841.90 0.2478
842.00 0.2477
842.10 0.2476
842.20 0.2475
842.30 0.2474
842.40 0.2474
842.50 0.2473
842.60 0.2472
842.70 0.2471
842.80 0.247
842.90 0.2469
843.00 0.2468
843.10 0.2467
843.20 0.2466
843.30 0.2465
843.40 0.2465
843.50 0.2464
843.60 0.2463
843.70 0.2462
843.80 0.2461
843.90 0.246
844.00 0.2459
844.10 0.2458
844.20 0.2457
844.30 0.2457
844.40 0.2456
844.50 0.2455
844.60 0.2454
844.70 0.2453
844.80 0.2452
844.90 0.2451
845.00 0.245
845.10 0.2449
845.20 0.2449
845.30 0.2448
845.40 0.2447
845.50 0.2446
845.60 0.2445
845.70 0.2444
845.80 0.2443
845.90 0.2442
846.00 0.2442
846.10 0.2441
846.20 0.244
846.30 0.2439
846.40 0.2438
846.50 0.2437
846.60 0.2436
846.70 0.2435
846.80 0.2434
846.90 0.2434
847.00 0.2433
847.10 0.2432
847.20 0.2431
847.30 0.243
847.40 0.2429
847.50 0.2428
847.60 0.2427
847.70 0.2427
847.80 0.2426
847.90 0.2425
848.00 0.2424
848.10 0.2423
848.20 0.2422
848.30 0.2421
848.40 0.2421
848.50 0.242
848.60 0.2419
848.70 0.2418
848.80 0.2417
848.90 0.2416
849.00 0.2415
849.10 0.2414
849.20 0.2414
849.30 0.2413
849.40 0.2412
849.50 0.2411
849.60 0.241
849.70 0.2409
849.80 0.2408
849.90 0.2408
850.00 0.2407
850.10 0.2406
850.20 0.2405
850.30 0.2404
850.40 0.2403
850.50 0.2402
850.60 0.2402
850.70 0.2401
850.80 0.24
850.90 0.2399
851.00 0.2398
851.10 0.2397
851.20 0.2396
851.30 0.2396
851.40 0.2395
851.50 0.2394
851.60 0.2393
851.70 0.2392
851.80 0.2391
851.90 0.239
852.00 0.239
852.10 0.2389
852.20 0.2388
852.30 0.2387
852.40 0.2386
852.50 0.2385
852.60 0.2384
852.70 0.2384
852.80 0.2383
852.90 0.2382
853.00 0.2381
853.10 0.238
853.20 0.2379
853.30 0.2378
853.40 0.2378
853.50 0.2377
853.60 0.2376
853.70 0.2375
853.80 0.2374
853.90 0.2373
854.00 0.2373
854.10 0.2372
854.20 0.2371
854.30 0.237
854.40 0.2369
854.50 0.2368
854.60 0.2367
854.70 0.2367
854.80 0.2366
854.90 0.2365
855.00 0.2364
855.10 0.2363
855.20 0.2362
855.30 0.2362
855.40 0.2361
855.50 0.236
855.60 0.2359
855.70 0.2358
855.80 0.2357
855.90 0.2356
856.00 0.2356
856.10 0.2355
856.20 0.2354
856.30 0.2353
856.40 0.2352
856.50 0.2351
856.60 0.2351
856.70 0.235
856.80 0.2349
856.90 0.2348
857.00 0.2347
857.10 0.2346
857.20 0.2346
857.30 0.2345
857.40 0.2344
857.50 0.2343
857.60 0.2342
857.70 0.2341
857.80 0.2341
857.90 0.234
858.00 0.2339
858.10 0.2338
858.20 0.2337
858.30 0.2336
858.40 0.2336
858.50 0.2335
858.60 0.2334
858.70 0.2333
858.80 0.2332
858.90 0.2331
859.00 0.2331
859.10 0.233
859.20 0.2329
859.30 0.2328
859.40 0.2327
859.50 0.2327
859.60 0.2326
859.70 0.2325
859.80 0.2324
859.90 0.2323
860.00 0.2322
860.10 0.2322
860.20 0.2321
860.30 0.232
860.40 0.2319
860.50 0.2318
860.60 0.2317
860.70 0.2317
860.80 0.2316
860.90 0.2315
861.00 0.2314
861.10 0.2313
861.20 0.2313
861.30 0.2312
861.40 0.2311
861.50 0.231
861.60 0.2309
861.70 0.2308
861.80 0.2308
861.90 0.2307
862.00 0.2306
862.10 0.2305
862.20 0.2304
862.30 0.2304
862.40 0.2303
862.50 0.2302
862.60 0.2301
862.70 0.23
862.80 0.23
862.90 0.2299
863.00 0.2298
863.10 0.2297
863.20 0.2296
863.30 0.2295
863.40 0.2295
863.50 0.2294
863.60 0.2293
863.70 0.2292
863.80 0.2291
863.90 0.2291
864.00 0.229
864.10 0.2289
864.20 0.2288
864.30 0.2287
864.40 0.2287
864.50 0.2286
864.60 0.2285
864.70 0.2284
864.80 0.2283
864.90 0.2283
865.00 0.2282
865.10 0.2281
865.20 0.228
865.30 0.2279
865.40 0.2279
865.50 0.2278
865.60 0.2277
865.70 0.2276
865.80 0.2275
865.90 0.2274
866.00 0.2274
866.10 0.2273
866.20 0.2272
866.30 0.2271
866.40 0.227
866.50 0.227
866.60 0.2269
866.70 0.2268
866.80 0.2267
866.90 0.2266
867.00 0.2266
867.10 0.2265
867.20 0.2264
867.30 0.2263
867.40 0.2263
867.50 0.2262
867.60 0.2261
867.70 0.226
867.80 0.2259
867.90 0.2259
868.00 0.2258
868.10 0.2257
868.20 0.2256
868.30 0.2256
868.40 0.2255
868.50 0.2254
868.60 0.2253
868.70 0.2252
868.80 0.2252
868.90 0.2251
869.00 0.225
869.10 0.2249
869.20 0.2249
869.30 0.2248
869.40 0.2247
869.50 0.2246
869.60 0.2245
869.70 0.2245
869.80 0.2244
869.90 0.2243
870.00 0.2242
870.10 0.2242
870.20 0.2241
870.30 0.224
870.40 0.2239
870.50 0.2238
870.60 0.2238
870.70 0.2237
870.80 0.2236
870.90 0.2235
871.00 0.2235
871.10 0.2234
871.20 0.2233
871.30 0.2232
871.40 0.2231
871.50 0.2231
871.60 0.223
871.70 0.2229
871.80 0.2228
871.90 0.2228
872.00 0.2227
872.10 0.2226
872.20 0.2225
872.30 0.2225
872.40 0.2224
872.50 0.2223
872.60 0.2222
872.70 0.2221
872.80 0.2221
872.90 0.222
873.00 0.2219
873.10 0.2218
873.20 0.2218
873.30 0.2217
873.40 0.2216
873.50 0.2215
873.60 0.2215
873.70 0.2214
873.80 0.2213
873.90 0.2212
874.00 0.2211
874.10 0.2211
874.20 0.221
874.30 0.2209
874.40 0.2208
874.50 0.2208
874.60 0.2207
874.70 0.2206
874.80 0.2205
874.90 0.2205
875.00 0.2204
875.10 0.2203
875.20 0.2202
875.30 0.2202
875.40 0.2201
875.50 0.22
875.60 0.2199
875.70 0.2198
875.80 0.2198
875.90 0.2197
876.00 0.2196
876.10 0.2195
876.20 0.2195
876.30 0.2194
876.40 0.2193
876.50 0.2192
876.60 0.2192
876.70 0.2191
876.80 0.219
876.90 0.2189
877.00 0.2189
877.10 0.2188
877.20 0.2187
877.30 0.2186
877.40 0.2186
877.50 0.2185
877.60 0.2184
877.70 0.2183
877.80 0.2183
877.90 0.2182
878.00 0.2181
878.10 0.218
878.20 0.218
878.30 0.2179
878.40 0.2178
878.50 0.2177
878.60 0.2177
878.70 0.2176
878.80 0.2175
878.90 0.2175
879.00 0.2174
879.10 0.2173
879.20 0.2172
879.30 0.2172
879.40 0.2171
879.50 0.217
879.60 0.2169
879.70 0.2169
879.80 0.2168
879.90 0.2167
880.00 0.2166
880.10 0.2166
880.20 0.2165
880.30 0.2164
880.40 0.2164
880.50 0.2163
880.60 0.2162
880.70 0.2161
880.80 0.2161
880.90 0.216
881.00 0.2159
881.10 0.2158
881.20 0.2158
881.30 0.2157
881.40 0.2156
881.50 0.2156
881.60 0.2155
881.70 0.2154
881.80 0.2153
881.90 0.2153
882.00 0.2152
882.10 0.2151
882.20 0.215
882.30 0.215
882.40 0.2149
882.50 0.2148
882.60 0.2147
882.70 0.2146
882.80 0.2146
882.90 0.2145
883.00 0.2144
883.10 0.2143
883.20 0.2143
883.30 0.2142
883.40 0.2141
883.50 0.214
883.60 0.214
883.70 0.2139
883.80 0.2138
883.90 0.2137
884.00 0.2137
884.10 0.2136
884.20 0.2135
884.30 0.2134
884.40 0.2133
884.50 0.2133
884.60 0.2132
884.70 0.2131
884.80 0.213
884.90 0.213
885.00 0.2129
885.10 0.2128
885.20 0.2127
885.30 0.2127
885.40 0.2126
885.50 0.2125
885.60 0.2124
885.70 0.2124
885.80 0.2123
885.90 0.2122
886.00 0.2121
886.10 0.2121
886.20 0.212
886.30 0.2119
886.40 0.2118
886.50 0.2117
886.60 0.2117
886.70 0.2116
886.80 0.2115
886.90 0.2114
887.00 0.2114
887.10 0.2113
887.20 0.2112
887.30 0.2112
887.40 0.2111
887.50 0.211
887.60 0.211
887.70 0.2109
887.80 0.2108
887.90 0.2108
888.00 0.2107
888.10 0.2106
888.20 0.2106
888.30 0.2105
888.40 0.2104
888.50 0.2104
888.60 0.2103
888.70 0.2102
888.80 0.2102
888.90 0.2101
889.00 0.21
889.10 0.21
889.20 0.2099
889.30 0.2098
889.40 0.2098
889.50 0.2097
889.60 0.2096
889.70 0.2096
889.80 0.2095
889.90 0.2094
890.00 0.2094
890.10 0.2093
890.20 0.2093
890.30 0.2092
890.40 0.2091
890.50 0.2091
890.60 0.209
890.70 0.2089
890.80 0.2089
890.90 0.2088
891.00 0.2087
891.10 0.2087
891.20 0.2086
891.30 0.2085
891.40 0.2085
891.50 0.2084
891.60 0.2083
891.70 0.2083
891.80 0.2082
891.90 0.2081
892.00 0.2081
892.10 0.208
892.20 0.2079
892.30 0.2079
892.40 0.2078
892.50 0.2077
892.60 0.2077
892.70 0.2076
892.80 0.2075
892.90 0.2074
893.00 0.2074
893.10 0.2073
893.20 0.2072
893.30 0.2072
893.40 0.2071
893.50 0.207
893.60 0.207
893.70 0.2069
893.80 0.2068
893.90 0.2067
894.00 0.2067
894.10 0.2066
894.20 0.2065
894.30 0.2065
894.40 0.2064
894.50 0.2063
894.60 0.2063
894.70 0.2062
894.80 0.2061
894.90 0.2061
895.00 0.206
895.10 0.2059
895.20 0.2058
895.30 0.2058
895.40 0.2057
895.50 0.2056
895.60 0.2056
895.70 0.2055
895.80 0.2054
895.90 0.2054
896.00 0.2053
896.10 0.2052
896.20 0.2052
896.30 0.2051
896.40 0.205
896.50 0.205
896.60 0.2049
896.70 0.2048
896.80 0.2047
896.90 0.2047
897.00 0.2046
897.10 0.2045
897.20 0.2044
897.30 0.2044
897.40 0.2043
897.50 0.2042
897.60 0.2041
897.70 0.204
897.80 0.204
897.90 0.2039
898.00 0.2038
898.10 0.2037
898.20 0.2036
898.30 0.2036
898.40 0.2035
898.50 0.2034
898.60 0.2033
898.70 0.2032
898.80 0.2032
898.90 0.2031
899.00 0.203
899.10 0.2029
899.20 0.2028
899.30 0.2028
899.40 0.2027
899.50 0.2026
899.60 0.2025
899.70 0.2024
899.80 0.2024
899.90 0.2023
900.00 0.2022
900.10 0.2021
900.20 0.202
900.30 0.202
900.40 0.2019
900.50 0.2018
900.60 0.2017
900.70 0.2017
900.80 0.2016
900.90 0.2015
901.00 0.2014
901.10 0.2013
901.20 0.2013
901.30 0.2012
901.40 0.2011
901.50 0.201
901.60 0.2009
901.70 0.2009
901.80 0.2008
901.90 0.2007
902.00 0.2006
902.10 0.2006
902.20 0.2005
902.30 0.2005
902.40 0.2004
902.50 0.2003
902.60 0.2003
902.70 0.2002
902.80 0.2002
902.90 0.2001
903.00 0.2001
903.10 0.2
903.20 0.2
903.30 0.1999
903.40 0.1999
903.50 0.1998
903.60 0.1997
903.70 0.1997
903.80 0.1996
903.90 0.1996
904.00 0.1995
904.10 0.1995
904.20 0.1994
904.30 0.1994
904.40 0.1993
904.50 0.1992
904.60 0.1992
904.70 0.1991
904.80 0.1991
904.90 0.199
905.00 0.199
905.10 0.1989
905.20 0.1989
905.30 0.1988
905.40 0.1988
905.50 0.1987
905.60 0.1986
905.70 0.1986
905.80 0.1985
905.90 0.1985
906.00 0.1984
906.10 0.1984
906.20 0.1983
906.30 0.1983
906.40 0.1982
906.50 0.1982
906.60 0.1981
906.70 0.1981
906.80 0.198
906.90 0.1979
907.00 0.1979
907.10 0.1978
907.20 0.1978
907.30 0.1977
907.40 0.1976
907.50 0.1976
907.60 0.1975
907.70 0.1975
907.80 0.1974
907.90 0.1973
908.00 0.1973
908.10 0.1972
908.20 0.1972
908.30 0.1971
908.40 0.197
908.50 0.197
908.60 0.1969
908.70 0.1969
908.80 0.1968
908.90 0.1967
909.00 0.1967
909.10 0.1966
909.20 0.1965
909.30 0.1965
909.40 0.1964
909.50 0.1964
909.60 0.1963
909.70 0.1962
909.80 0.1962
909.90 0.1961
910.00 0.1961
910.10 0.196
910.20 0.1959
910.30 0.1959
910.40 0.1958
910.50 0.1958
910.60 0.1957
910.70 0.1956
910.80 0.1956
910.90 0.1955
911.00 0.1955
911.10 0.1954
911.20 0.1953
911.30 0.1953
911.40 0.1952
911.50 0.1952
911.60 0.1951
911.70 0.195
911.80 0.195
911.90 0.1949
912.00 0.1949
912.10 0.1948
912.20 0.1947
912.30 0.1947
912.40 0.1946
912.50 0.1945
912.60 0.1945
912.70 0.1944
912.80 0.1943
912.90 0.1943
913.00 0.1942
913.10 0.1941
913.20 0.194
913.30 0.194
913.40 0.1939
913.50 0.1938
913.60 0.1938
913.70 0.1937
913.80 0.1936
913.90 0.1936
914.00 0.1935
914.10 0.1934
914.20 0.1934
914.30 0.1933
914.40 0.1932
914.50 0.1932
914.60 0.1931
914.70 0.193
914.80 0.193
914.90 0.1929
915.00 0.1928
915.10 0.1928
915.20 0.1927
915.30 0.1926
915.40 0.1926
915.50 0.1925
915.60 0.1924
915.70 0.1924
915.80 0.1923
915.90 0.1922
916.00 0.1922
916.10 0.1921
916.20 0.192
916.30 0.192
916.40 0.1919
916.50 0.1918
916.60 0.1918
916.70 0.1917
916.80 0.1916
916.90 0.1916
917.00 0.1915
917.10 0.1914
917.20 0.1913
917.30 0.1913
917.40 0.1912
917.50 0.1911
917.60 0.191
917.70 0.1909
917.80 0.1909
917.90 0.1908
918.00 0.1907
918.10 0.1906
918.20 0.1905
918.30 0.1904
918.40 0.1904
918.50 0.1903
918.60 0.1902
918.70 0.1901
918.80 0.19
918.90 0.19
919.00 0.1899
919.10 0.1898
919.20 0.1897
919.30 0.1896
919.40 0.1896
919.50 0.1895
919.60 0.1894
919.70 0.1893
919.80 0.1892
919.90 0.1891
920.00 0.1891
920.10 0.189
920.20 0.1889
920.30 0.1888
920.40 0.1887
920.50 0.1887
920.60 0.1886
920.70 0.1885
920.80 0.1884
920.90 0.1883
921.00 0.1883
921.10 0.1882
921.20 0.1881
921.30 0.188
921.40 0.1879
921.50 0.1879
921.60 0.1878
921.70 0.1877
921.80 0.1876
921.90 0.1875
922.00 0.1875
922.10 0.1874
922.20 0.1873
922.30 0.1872
922.40 0.1872
922.50 0.1871
922.60 0.187
922.70 0.187
922.80 0.1869
922.90 0.1868
923.00 0.1868
923.10 0.1867
923.20 0.1866
923.30 0.1866
923.40 0.1865
923.50 0.1864
923.60 0.1864
923.70 0.1863
923.80 0.1862
923.90 0.1862
924.00 0.1861
924.10 0.186
924.20 0.186
924.30 0.1859
924.40 0.1858
924.50 0.1858
924.60 0.1857
924.70 0.1856
924.80 0.1856
924.90 0.1855
925.00 0.1854
925.10 0.1854
925.20 0.1853
925.30 0.1852
925.40 0.1852
925.50 0.1851
925.60 0.185
925.70 0.185
925.80 0.1849
925.90 0.1848
926.00 0.1848
926.10 0.1847
926.20 0.1846
926.30 0.1846
926.40 0.1845
926.50 0.1844
926.60 0.1844
926.70 0.1843
926.80 0.1842
926.90 0.1842
927.00 0.1841
927.10 0.1841
927.20 0.184
927.30 0.184
927.40 0.184
927.50 0.1839
927.60 0.1839
927.70 0.1839
927.80 0.1838
927.90 0.1838
928.00 0.1837
928.10 0.1837
928.20 0.1837
928.30 0.1836
928.40 0.1836
928.50 0.1836
928.60 0.1835
928.70 0.1835
928.80 0.1835
928.90 0.1834
929.00 0.1834
929.10 0.1833
929.20 0.1833
929.30 0.1833
929.40 0.1832
929.50 0.1832
929.60 0.1832
929.70 0.1831
929.80 0.1831
929.90 0.1831
930.00 0.183
930.10 0.183
930.20 0.183
930.30 0.1829
930.40 0.1829
930.50 0.1828
930.60 0.1828
930.70 0.1828
930.80 0.1827
930.90 0.1827
931.00 0.1827
931.10 0.1826
931.20 0.1826
931.30 0.1826
931.40 0.1825
931.50 0.1825
931.60 0.1825
931.70 0.1824
931.80 0.1824
931.90 0.1823
932.00 0.1823
932.10 0.1823
932.20 0.1822
932.30 0.1822
932.40 0.1821
932.50 0.1821
932.60 0.182
932.70 0.182
932.80 0.1819
932.90 0.1819
933.00 0.1818
933.10 0.1818
933.20 0.1817
933.30 0.1817
933.40 0.1816
933.50 0.1816
933.60 0.1815
933.70 0.1815
933.80 0.1814
933.90 0.1814
934.00 0.1813
934.10 0.1813
934.20 0.1812
934.30 0.1812
934.40 0.1811
934.50 0.1811
934.60 0.181
934.70 0.181
934.80 0.1809
934.90 0.1809
935.00 0.1808
935.10 0.1808
935.20 0.1807
935.30 0.1807
935.40 0.1806
935.50 0.1806
935.60 0.1805
935.70 0.1804
935.80 0.1804
935.90 0.1803
936.00 0.1803
936.10 0.1802
936.20 0.1802
936.30 0.1801
936.40 0.1801
936.50 0.18
936.60 0.18
936.70 0.1799
936.80 0.1799
936.90 0.1798
937.00 0.1798
937.10 0.1797
937.20 0.1796
937.30 0.1796
937.40 0.1795
937.50 0.1795
937.60 0.1794
937.70 0.1794
937.80 0.1793
937.90 0.1793
938.00 0.1792
938.10 0.1791
938.20 0.1791
938.30 0.179
938.40 0.179
938.50 0.1789
938.60 0.1789
938.70 0.1788
938.80 0.1787
938.90 0.1787
939.00 0.1786
939.10 0.1786
939.20 0.1785
939.30 0.1785
939.40 0.1784
939.50 0.1783
939.60 0.1783
939.70 0.1782
939.80 0.1782
939.90 0.1781
940.00 0.1781
940.10 0.178
940.20 0.1779
940.30 0.1779
940.40 0.1778
940.50 0.1778
940.60 0.1777
940.70 0.1776
940.80 0.1776
940.90 0.1775
941.00 0.1775
941.10 0.1774
941.20 0.1773
941.30 0.1773
941.40 0.1772
941.50 0.1771
941.60 0.1771
941.70 0.177
941.80 0.177
941.90 0.1769
942.00 0.1768
942.10 0.1768
942.20 0.1767
942.30 0.1767
942.40 0.1766
942.50 0.1765
942.60 0.1765
942.70 0.1764
942.80 0.1763
942.90 0.1763
943.00 0.1762
943.10 0.1761
943.20 0.1761
943.30 0.176
943.40 0.1759
943.50 0.1759
943.60 0.1758
943.70 0.1757
943.80 0.1757
943.90 0.1756
944.00 0.1755
944.10 0.1755
944.20 0.1754
944.30 0.1753
944.40 0.1752
944.50 0.1752
944.60 0.1751
944.70 0.175
944.80 0.175
944.90 0.1749
945.00 0.1748
945.10 0.1747
945.20 0.1747
945.30 0.1746
945.40 0.1745
945.50 0.1744
945.60 0.1743
945.70 0.1743
945.80 0.1742
945.90 0.1741
946.00 0.174
946.10 0.1739
946.20 0.1739
946.30 0.1738
946.40 0.1737
946.50 0.1736
946.60 0.1735
946.70 0.1735
946.80 0.1734
946.90 0.1733
947.00 0.1732
947.10 0.1731
947.20 0.173
947.30 0.1729
947.40 0.1728
947.50 0.1727
947.60 0.1726
947.70 0.1725
947.80 0.1724
947.90 0.1723
948.00 0.1722
948.10 0.1721
948.20 0.172
948.30 0.1719
948.40 0.1718
948.50 0.1717
948.60 0.1716
948.70 0.1715
948.80 0.1714
948.90 0.1713
949.00 0.1712
949.10 0.1711
949.20 0.171
949.30 0.1709
949.40 0.1708
949.50 0.1707
949.60 0.1706
949.70 0.1704
949.80 0.1703
949.90 0.1702
950.00 0.1701
950.10 0.17
950.20 0.1698
950.30 0.1697
950.40 0.1696
950.50 0.1695
950.60 0.1694
950.70 0.1692
950.80 0.1691
950.90 0.169
951.00 0.1689
951.10 0.1688
951.20 0.1686
951.30 0.1685
951.40 0.1684
951.50 0.1683
951.60 0.1682
951.70 0.1681
951.80 0.1679
951.90 0.1678
952.00 0.1677
952.10 0.1676
952.20 0.1675
952.30 0.1674
952.40 0.1673
952.50 0.1672
952.60 0.1671
952.70 0.167
952.80 0.1669
952.90 0.1669
953.00 0.1668
953.10 0.1668
953.20 0.1668
953.30 0.1667
953.40 0.1667
953.50 0.1666
953.60 0.1668
953.70 0.1669
953.80 0.167
953.90 0.1672
954.00 0.1673
954.10 0.1675
954.20 0.1676
954.30 0.1671
954.40 0.1665
954.50 0.1662
954.60 0.166
954.70 0.1658
954.80 0.1655
954.90 0.1653
955.00 0.165
955.10 0.1648
955.20 0.1647
955.30 0.1646
955.40 0.1645
955.50 0.1644
955.60 0.1644
955.70 0.1643
955.80 0.1642
955.90 0.1642
956.00 0.1641
956.10 0.1641
956.20 0.1641
956.30 0.164
956.40 0.164
956.50 0.164
956.60 0.1639
956.70 0.1639
956.80 0.1639
956.90 0.1638
957.00 0.1638
957.10 0.1638
957.20 0.1638
957.30 0.1638
957.40 0.1638
957.50 0.1638
957.60 0.1638
957.70 0.1639
957.80 0.1639
957.90 0.1639
958.00 0.1639
958.10 0.1639
958.20 0.1639
958.30 0.1639
958.40 0.1639
958.50 0.164
958.60 0.164
958.70 0.164
958.80 0.164
958.90 0.164
959.00 0.164
959.10 0.164
959.20 0.164
959.30 0.164
959.40 0.164
959.50 0.1641
959.60 0.1641
959.70 0.1641
959.80 0.1641
959.90 0.1641
960.00 0.1641
960.10 0.1641
960.20 0.1641
960.30 0.1641
960.40 0.1641
960.50 0.1641
960.60 0.1641
960.70 0.1641
960.80 0.1641
960.90 0.1641
961.00 0.1641
961.10 0.1641
961.20 0.1641
961.30 0.1641
961.40 0.1641
961.50 0.1641
961.60 0.1641
961.70 0.1641
961.80 0.164
961.90 0.164
962.00 0.164
962.10 0.164
962.20 0.164
962.30 0.164
962.40 0.164
962.50 0.164
962.60 0.1639
962.70 0.1639
962.80 0.1639
962.90 0.1639
963.00 0.1639
963.10 0.1639
963.20 0.1639
963.30 0.1638
963.40 0.1638
963.50 0.1638
963.60 0.1638
963.70 0.1638
963.80 0.1637
963.90 0.1637
964.00 0.1637
964.10 0.1637
964.20 0.1637
964.30 0.1636
964.40 0.1636
964.50 0.1636
964.60 0.1636
964.70 0.1635
964.80 0.1635
964.90 0.1635
965.00 0.1634
965.10 0.1634
965.20 0.1634
965.30 0.1634
965.40 0.1633
965.50 0.1633
965.60 0.1633
965.70 0.1632
965.80 0.1632
965.90 0.1632
966.00 0.1632
966.10 0.1631
966.20 0.1631
966.30 0.1631
966.40 0.163
966.50 0.163
966.60 0.163
966.70 0.1629
966.80 0.1629
966.90 0.1629
967.00 0.1628
967.10 0.1628
967.20 0.1628
967.30 0.1627
967.40 0.1627
967.50 0.1627
967.60 0.1626
967.70 0.1626
967.80 0.1626
967.90 0.1625
968.00 0.1625
968.10 0.1625
968.20 0.1624
968.30 0.1624
968.40 0.1623
968.50 0.1623
968.60 0.1623
968.70 0.1622
968.80 0.1622
968.90 0.1621
969.00 0.1621
969.10 0.1621
969.20 0.162
969.30 0.162
969.40 0.1619
969.50 0.1619
969.60 0.1619
969.70 0.1618
969.80 0.1618
969.90 0.1618
970.00 0.1617
970.10 0.1617
970.20 0.1616
970.30 0.1616
970.40 0.1616
970.50 0.1615
970.60 0.1615
970.70 0.1614
970.80 0.1614
970.90 0.1613
971.00 0.1613
971.10 0.1613
971.20 0.1612
971.30 0.1612
971.40 0.1611
971.50 0.1611
971.60 0.161
971.70 0.161
971.80 0.161
971.90 0.1609
972.00 0.1609
972.10 0.1608
972.20 0.1608
972.30 0.1607
972.40 0.1607
972.50 0.1606
972.60 0.1606
972.70 0.1606
972.80 0.1605
972.90 0.1605
973.00 0.1604
973.10 0.1604
973.20 0.1603
973.30 0.1603
973.40 0.1602
973.50 0.1602
973.60 0.1601
973.70 0.1601
973.80 0.1601
973.90 0.16
974.00 0.16
974.10 0.1599
974.20 0.1599
974.30 0.1598
974.40 0.1598
974.50 0.1597
974.60 0.1597
974.70 0.1596
974.80 0.1596
974.90 0.1595
975.00 0.1595
975.10 0.1595
975.20 0.1594
975.30 0.1594
975.40 0.1593
975.50 0.1593
975.60 0.1592
975.70 0.1592
975.80 0.1591
975.90 0.1591
976.00 0.159
976.10 0.159
976.20 0.1589
976.30 0.1589
976.40 0.1588
976.50 0.1588
976.60 0.1587
976.70 0.1587
976.80 0.1586
976.90 0.1586
977.00 0.1586
977.10 0.1585
977.20 0.1585
977.30 0.1584
977.40 0.1584
977.50 0.1583
977.60 0.1583
977.70 0.1582
977.80 0.1582
977.90 0.1581
978.00 0.1581
978.10 0.158
978.20 0.158
978.30 0.1579
978.40 0.1579
978.50 0.1578
978.60 0.1578
978.70 0.1577
978.80 0.1577
978.90 0.1576
979.00 0.1576
979.10 0.1575
979.20 0.1575
979.30 0.1574
979.40 0.1574
979.50 0.1573
979.60 0.1573
979.70 0.1572
979.80 0.1572
979.90 0.1571
980.00 0.1571
980.10 0.157
980.20 0.157
980.30 0.1569
980.40 0.1569
980.50 0.1568
980.60 0.1568
980.70 0.1567
980.80 0.1567
980.90 0.1566
981.00 0.1566
981.10 0.1565
981.20 0.1565
981.30 0.1564
981.40 0.1564
981.50 0.1563
981.60 0.1563
981.70 0.1562
981.80 0.1562
981.90 0.1561
982.00 0.1561
982.10 0.156
982.20 0.156
982.30 0.1559
982.40 0.1559
982.50 0.1558
982.60 0.1558
982.70 0.1557
982.80 0.1556
982.90 0.1556
983.00 0.1555
983.10 0.1555
983.20 0.1554
983.30 0.1554
983.40 0.1553
983.50 0.1553
983.60 0.1552
983.70 0.1552
983.80 0.1551
983.90 0.1551
984.00 0.155
984.10 0.155
984.20 0.1549
984.30 0.1549
984.40 0.1548
984.50 0.1547
984.60 0.1547
984.70 0.1546
984.80 0.1546
984.90 0.1545
985.00 0.1545
985.10 0.1544
985.20 0.1544
985.30 0.1543
985.40 0.1542
985.50 0.1542
985.60 0.1541
985.70 0.1541
985.80 0.154
985.90 0.154
986.00 0.1539
986.10 0.1539
986.20 0.1538
986.30 0.1537
986.40 0.1537
986.50 0.1536
986.60 0.1536
986.70 0.1535
986.80 0.1535
986.90 0.1534
987.00 0.1533
987.10 0.1533
987.20 0.1532
987.30 0.1532
987.40 0.1531
987.50 0.153
987.60 0.153
987.70 0.1529
987.80 0.1529
987.90 0.1528
988.00 0.1527
988.10 0.1527
988.20 0.1526
988.30 0.1526
988.40 0.1525
988.50 0.1524
988.60 0.1524
988.70 0.1523
988.80 0.1522
988.90 0.1522
989.00 0.1521
989.10 0.152
989.20 0.152
989.30 0.1519
989.40 0.1519
989.50 0.1518
989.60 0.1517
989.70 0.1517
989.80 0.1516
989.90 0.1515
990.00 0.1515
990.10 0.1514
990.20 0.1513
990.30 0.1513
990.40 0.1512
990.50 0.1511
990.60 0.1511
990.70 0.151
990.80 0.1509
990.90 0.1508
991.00 0.1508
991.10 0.1507
991.20 0.1506
991.30 0.1505
991.40 0.1505
991.50 0.1504
991.60 0.1503
991.70 0.1502
991.80 0.1502
991.90 0.1501
992.00 0.15
992.10 0.1499
992.20 0.1499
992.30 0.1498
992.40 0.1497
992.50 0.1496
992.60 0.1495
992.70 0.1495
992.80 0.1494
992.90 0.1493
993.00 0.1492
993.10 0.1491
993.20 0.149
993.30 0.1489
993.40 0.1488
993.50 0.1487
993.60 0.1486
993.70 0.1485
993.80 0.1485
993.90 0.1484
994.00 0.1483
994.10 0.1482
994.20 0.1481
994.30 0.148
994.40 0.1479
994.50 0.1478
994.60 0.1477
994.70 0.1476
994.80 0.1475
994.90 0.1474
995.00 0.1473
995.10 0.1472
995.20 0.1471
995.30 0.147
995.40 0.1469
995.50 0.1468
995.60 0.1467
995.70 0.1466
995.80 0.1465
995.90 0.1463
996.00 0.1462
996.10 0.1461
996.20 0.146
996.30 0.1459
996.40 0.1457
996.50 0.1456
996.60 0.1455
996.70 0.1454
996.80 0.1453
996.90 0.1451
997.00 0.145
997.10 0.1449
997.20 0.1448
997.30 0.1446
997.40 0.1445
997.50 0.1444
997.60 0.1442
997.70 0.1441
997.80 0.1439
997.90 0.1438
998.00 0.1436
998.10 0.1434
998.20 0.1433
998.30 0.1431
998.40 0.143
998.50 0.1428
998.60 0.1427
998.70 0.1425
998.80 0.1424
998.90 0.1422
999.00 0.1421
999.10 0.1419
999.20 0.1417
999.30 0.1416
999.40 0.1414
999.50 0.1413
999.60 0.1411
999.70 0.141
999.80 0.1408
999.90 0.1406
1000.00 0.1404
1000.10 0.1402
1000.20 0.1401
1000.30 0.1399
1000.40 0.1397
1000.50 0.1395
1000.60 0.1394
1000.70 0.1392
1000.80 0.139
1000.90 0.1388
1001.00 0.1386
1001.10 0.1385
1001.20 0.1383
1001.30 0.1381
1001.40 0.1379
1001.50 0.1378
1001.60 0.1376
1001.70 0.1374
1001.80 0.1372
1001.90 0.1371
1002.00 0.1369
1002.10 0.1368
1002.20 0.1366
1002.30 0.1365
1002.40 0.1364
1002.50 0.1362
1002.60 0.1361
1002.70 0.1359
1002.80 0.1358
1002.90 0.1357
1003.00 0.1355
1003.10 0.1354
1003.20 0.1354
1003.30 0.1355
1003.40 0.1355
1003.50 0.1356
1003.60 0.1356
1003.70 0.1357
1003.80 0.1358
1003.90 0.1359
1004.00 0.1362
1004.10 0.1364
1004.20 0.1366
1004.30 0.1369
1004.40 0.1372
1004.50 0.1375
1004.60 0.1377
1004.70 0.1354
1004.80 0.135
1004.90 0.1347
1005.00 0.1343
1005.10 0.134
1005.20 0.1337
1005.30 0.1334
1005.40 0.1332
1005.50 0.133
1005.60 0.1329
1005.70 0.1327
1005.80 0.1326
1005.90 0.1325
1006.00 0.1323
1006.10 0.1322
1006.20 0.1322
1006.30 0.1322
1006.40 0.1322
1006.50 0.1322
1006.60 0.1322
1006.70 0.1322
1006.80 0.1322
1006.90 0.1322
1007.00 0.1322
1007.10 0.1322
1007.20 0.1323
1007.30 0.1324
1007.40 0.1324
1007.50 0.1325
1007.60 0.1326
1007.70 0.1326
1007.80 0.1327
1007.90 0.1328
1008.00 0.1328
1008.10 0.1329
1008.20 0.1329
1008.30 0.133
1008.40 0.1331
1008.50 0.1331
1008.60 0.1332
1008.70 0.1332
1008.80 0.1333
1008.90 0.1334
1009.00 0.1334
1009.10 0.1335
1009.20 0.1335
1009.30 0.1336
1009.40 0.1337
1009.50 0.1337
1009.60 0.1338
1009.70 0.1338
1009.80 0.1339
1009.90 0.1339
1010.00 0.134
1010.10 0.134
1010.20 0.1341
1010.30 0.1341
1010.40 0.1342
1010.50 0.1342
1010.60 0.1343
1010.70 0.1343
1010.80 0.1344
1010.90 0.1344
1011.00 0.1345
1011.10 0.1345
1011.20 0.1345
1011.30 0.1346
1011.40 0.1346
1011.50 0.1347
1011.60 0.1347
1011.70 0.1348
1011.80 0.1348
1011.90 0.1348
1012.00 0.1349
1012.10 0.1349
1012.20 0.1349
1012.30 0.1349
1012.40 0.135
1012.50 0.135
1012.60 0.135
1012.70 0.1351
1012.80 0.1351
1012.90 0.1351
1013.00 0.1351
1013.10 0.1352
1013.20 0.1352
1013.30 0.1352
1013.40 0.1353
1013.50 0.1353
1013.60 0.1353
1013.70 0.1353
1013.80 0.1353
1013.90 0.1354
1014.00 0.1354
1014.10 0.1354
1014.20 0.1354
1014.30 0.1354
1014.40 0.1354
1014.50 0.1355
1014.60 0.1355
1014.70 0.1355
1014.80 0.1355
1014.90 0.1355
1015.00 0.1355
1015.10 0.1355
1015.20 0.1355
1015.30 0.1355
1015.40 0.1355
1015.50 0.1355
1015.60 0.1355
1015.70 0.1356
1015.80 0.1356
1015.90 0.1356
1016.00 0.1356
1016.10 0.1356
1016.20 0.1356
1016.30 0.1356
1016.40 0.1356
1016.50 0.1356
1016.60 0.1356
1016.70 0.1356
1016.80 0.1356
1016.90 0.1356
1017.00 0.1356
1017.10 0.1356
1017.20 0.1356
1017.30 0.1356
1017.40 0.1356
1017.50 0.1356
1017.60 0.1356
1017.70 0.1356
1017.80 0.1356
1017.90 0.1356
1018.00 0.1356
1018.10 0.1356
1018.20 0.1356
1018.30 0.1356
1018.40 0.1355
1018.50 0.1355
1018.60 0.1355
1018.70 0.1355
1018.80 0.1355
1018.90 0.1355
1019.00 0.1355
1019.10 0.1355
1019.20 0.1355
1019.30 0.1355
1019.40 0.1355
1019.50 0.1354
1019.60 0.1354
1019.70 0.1354
1019.80 0.1354
1019.90 0.1354
1020.00 0.1354
1020.10 0.1354
1020.20 0.1354
1020.30 0.1354
1020.40 0.1353
1020.50 0.1353
1020.60 0.1353
1020.70 0.1353
1020.80 0.1353
1020.90 0.1353
1021.00 0.1353
1021.10 0.1352
1021.20 0.1352
1021.30 0.1352
1021.40 0.1352
1021.50 0.1352
1021.60 0.1352
1021.70 0.1351
1021.80 0.1351
1021.90 0.1351
1022.00 0.1351
1022.10 0.1351
1022.20 0.1351
1022.30 0.135
1022.40 0.135
1022.50 0.135
1022.60 0.135
1022.70 0.135
1022.80 0.1349
1022.90 0.1349
1023.00 0.1349
1023.10 0.1349
1023.20 0.1349
1023.30 0.1348
1023.40 0.1348
1023.50 0.1348
1023.60 0.1348
1023.70 0.1348
1023.80 0.1347
1023.90 0.1347
1024.00 0.1347
1024.10 0.1347
1024.20 0.1347
1024.30 0.1346
1024.40 0.1346
1024.50 0.1346
1024.60 0.1346
1024.70 0.1346
1024.80 0.1345
1024.90 0.1345
1025.00 0.1345
1025.10 0.1345
1025.20 0.1344
1025.30 0.1344
1025.40 0.1344
1025.50 0.1344
1025.60 0.1343
1025.70 0.1343
1025.80 0.1343
1025.90 0.1343
1026.00 0.1342
1026.10 0.1342
1026.20 0.1342
1026.30 0.1342
1026.40 0.1341
1026.50 0.1341
1026.60 0.1341
1026.70 0.1341
1026.80 0.134
1026.90 0.134
1027.00 0.134
1027.10 0.134
1027.20 0.1339
1027.30 0.1339
1027.40 0.1339
1027.50 0.1338
1027.60 0.1338
1027.70 0.1338
1027.80 0.1337
1027.90 0.1337
1028.00 0.1337
1028.10 0.1337
1028.20 0.1336
1028.30 0.1336
1028.40 0.1336
1028.50 0.1335
1028.60 0.1335
1028.70 0.1335
1028.80 0.1335
1028.90 0.1334
1029.00 0.1334
1029.10 0.1334
1029.20 0.1333
1029.30 0.1333
1029.40 0.1333
1029.50 0.1333
1029.60 0.1332
1029.70 0.1332
1029.80 0.1332
1029.90 0.1331
1030.00 0.1331
1030.10 0.1331
1030.20 0.133
1030.30 0.133
1030.40 0.133
1030.50 0.133
1030.60 0.1329
1030.70 0.1329
1030.80 0.1329
1030.90 0.1328
1031.00 0.1328
1031.10 0.1328
1031.20 0.1328
1031.30 0.1327
1031.40 0.1327
1031.50 0.1327
1031.60 0.1326
1031.70 0.1326
1031.80 0.1326
1031.90 0.1326
1032.00 0.1325
1032.10 0.1325
1032.20 0.1325
1032.30 0.1324
1032.40 0.1324
1032.50 0.1324
1032.60 0.1323
1032.70 0.1323
1032.80 0.1323
1032.90 0.1322
1033.00 0.1322
1033.10 0.1322
1033.20 0.1321
1033.30 0.1321
1033.40 0.1321
1033.50 0.132
1033.60 0.132
1033.70 0.132
1033.80 0.1319
1033.90 0.1319
1034.00 0.1319
1034.10 0.1318
1034.20 0.1318
1034.30 0.1318
1034.40 0.1317
1034.50 0.1317
1034.60 0.1317
1034.70 0.1316
1034.80 0.1316
1034.90 0.1316
1035.00 0.1315
1035.10 0.1315
1035.20 0.1315
1035.30 0.1314
1035.40 0.1314
1035.50 0.1314
1035.60 0.1313
1035.70 0.1313
1035.80 0.1313
1035.90 0.1312
1036.00 0.1312
1036.10 0.1312
1036.20 0.1311
1036.30 0.1311
1036.40 0.1311
1036.50 0.131
1036.60 0.131
1036.70 0.131
1036.80 0.1309
1036.90 0.1309
1037.00 0.1309
1037.10 0.1308
1037.20 0.1308
1037.30 0.1308
1037.40 0.1307
1037.50 0.1307
1037.60 0.1306
1037.70 0.1306
1037.80 0.1306
1037.90 0.1305
1038.00 0.1305
1038.10 0.1305
1038.20 0.1304
1038.30 0.1304
1038.40 0.1304
1038.50 0.1303
1038.60 0.1303
1038.70 0.1302
1038.80 0.1302
1038.90 0.1302
1039.00 0.1301
1039.10 0.1301
1039.20 0.1301
1039.30 0.13
1039.40 0.13
1039.50 0.13
1039.60 0.1299
1039.70 0.1299
1039.80 0.1298
1039.90 0.1298
1040.00 0.1298
1040.10 0.1297
1040.20 0.1297
1040.30 0.1297
1040.40 0.1296
1040.50 0.1296
1040.60 0.1296
1040.70 0.1295
1040.80 0.1295
1040.90 0.1295
1041.00 0.1294
1041.10 0.1294
1041.20 0.1293
1041.30 0.1293
1041.40 0.1293
1041.50 0.1292
1041.60 0.1292
1041.70 0.1292
1041.80 0.1291
1041.90 0.1291
1042.00 0.1291
1042.10 0.129
1042.20 0.129
1042.30 0.1289
1042.40 0.1289
1042.50 0.1289
1042.60 0.1288
1042.70 0.1288
1042.80 0.1288
1042.90 0.1287
1043.00 0.1287
1043.10 0.1286
1043.20 0.1286
1043.30 0.1286
1043.40 0.1285
1043.50 0.1285
1043.60 0.1284
1043.70 0.1284
1043.80 0.1284
1043.90 0.1283
1044.00 0.1283
1044.10 0.1283
1044.20 0.1282
1044.30 0.1282
1044.40 0.1281
1044.50 0.1281
1044.60 0.1281
1044.70 0.128
1044.80 0.128
1044.90 0.128
1045.00 0.1279
1045.10 0.1279
1045.20 0.1278
1045.30 0.1278
1045.40 0.1278
1045.50 0.1277
1045.60 0.1277
1045.70 0.1277
1045.80 0.1276
1045.90 0.1276
1046.00 0.1275
1046.10 0.1275
1046.20 0.1275
1046.30 0.1274
1046.40 0.1274
1046.50 0.1273
1046.60 0.1273
1046.70 0.1273
1046.80 0.1272
1046.90 0.1272
1047.00 0.1272
1047.10 0.1271
1047.20 0.1271
1047.30 0.127
1047.40 0.127
1047.50 0.127
1047.60 0.1269
1047.70 0.1269
1047.80 0.1268
1047.90 0.1268
1048.00 0.1268
1048.10 0.1267
1048.20 0.1267
1048.30 0.1266
1048.40 0.1266
1048.50 0.1266
1048.60 0.1265
1048.70 0.1265
1048.80 0.1264
1048.90 0.1264
1049.00 0.1264
1049.10 0.1263
1049.20 0.1263
1049.30 0.1262
1049.40 0.1262
1049.50 0.1262
1049.60 0.1261
1049.70 0.1261
1049.80 0.126
1049.90 0.126
1050.00 0.126
1050.10 0.1259
1050.20 0.1259
1050.30 0.1258
1050.40 0.1258
1050.50 0.1258
1050.60 0.1257
1050.70 0.1257
1050.80 0.1256
1050.90 0.1256
1051.00 0.1256
1051.10 0.1255
1051.20 0.1255
1051.30 0.1255
1051.40 0.1254
1051.50 0.1254
1051.60 0.1253
1051.70 0.1253
1051.80 0.1253
1051.90 0.1252
1052.00 0.1252
1052.10 0.1251
1052.20 0.1251
1052.30 0.125
1052.40 0.125
1052.50 0.125
1052.60 0.1249
1052.70 0.1249
1052.80 0.1248
1052.90 0.1248
1053.00 0.1248
1053.10 0.1247
1053.20 0.1247
1053.30 0.1246
1053.40 0.1246
1053.50 0.1245
1053.60 0.1245
1053.70 0.1245
1053.80 0.1244
1053.90 0.1244
1054.00 0.1243
1054.10 0.1243
1054.20 0.1243
1054.30 0.1242
1054.40 0.1242
1054.50 0.1241
1054.60 0.1241
1054.70 0.124
1054.80 0.124
1054.90 0.124
1055.00 0.1239
1055.10 0.1239
1055.20 0.1238
1055.30 0.1238
1055.40 0.1238
1055.50 0.1237
1055.60 0.1237
1055.70 0.1236
1055.80 0.1236
1055.90 0.1235
1056.00 0.1235
1056.10 0.1235
1056.20 0.1234
1056.30 0.1234
1056.40 0.1233
1056.50 0.1233
1056.60 0.1233
1056.70 0.1232
1056.80 0.1232
1056.90 0.1231
1057.00 0.1231
1057.10 0.123
1057.20 0.123
1057.30 0.123
1057.40 0.1229
1057.50 0.1229
1057.60 0.1228
1057.70 0.1228
1057.80 0.1227
1057.90 0.1227
1058.00 0.1226
1058.10 0.1226
1058.20 0.1226
1058.30 0.1225
1058.40 0.1225
1058.50 0.1224
1058.60 0.1224
1058.70 0.1223
1058.80 0.1223
1058.90 0.1222
1059.00 0.1222
1059.10 0.1222
1059.20 0.1221
1059.30 0.1221
1059.40 0.122
1059.50 0.122
1059.60 0.1219
1059.70 0.1219
1059.80 0.1218
1059.90 0.1218
1060.00 0.1218
1060.10 0.1217
1060.20 0.1217
1060.30 0.1216
1060.40 0.1216
1060.50 0.1215
1060.60 0.1215
1060.70 0.1214
1060.80 0.1214
1060.90 0.1214
1061.00 0.1213
1061.10 0.1213
1061.20 0.1212
1061.30 0.1212
1061.40 0.1211
1061.50 0.1211
1061.60 0.1211
1061.70 0.121
1061.80 0.121
1061.90 0.1209
1062.00 0.1209
1062.10 0.1208
1062.20 0.1208
1062.30 0.1207
1062.40 0.1207
1062.50 0.1206
1062.60 0.1206
1062.70 0.1205
1062.80 0.1205
1062.90 0.1204
1063.00 0.1204
1063.10 0.1203
1063.20 0.1203
1063.30 0.1202
1063.40 0.1202
1063.50 0.1201
1063.60 0.1201
1063.70 0.1201
1063.80 0.12
1063.90 0.12
1064.00 0.1199
1064.10 0.1199
1064.20 0.1198
1064.30 0.1198
1064.40 0.1197
1064.50 0.1197
1064.60 0.1196
1064.70 0.1196
1064.80 0.1195
1064.90 0.1195
1065.00 0.1194
1065.10 0.1194
1065.20 0.1193
1065.30 0.1193
1065.40 0.1192
1065.50 0.1192
1065.60 0.1191
1065.70 0.1191
1065.80 0.119
1065.90 0.119
1066.00 0.1189
1066.10 0.1189
1066.20 0.1188
1066.30 0.1188
1066.40 0.1188
1066.50 0.1187
1066.60 0.1187
1066.70 0.1186
1066.80 0.1186
1066.90 0.1185
1067.00 0.1185
1067.10 0.1184
1067.20 0.1184
1067.30 0.1183
1067.40 0.1182
1067.50 0.1182
1067.60 0.1181
1067.70 0.1181
1067.80 0.118
1067.90 0.118
1068.00 0.1179
1068.10 0.1179
1068.20 0.1178
1068.30 0.1178
1068.40 0.1177
1068.50 0.1176
1068.60 0.1176
1068.70 0.1175
1068.80 0.1175
1068.90 0.1174
1069.00 0.1174
1069.10 0.1173
1069.20 0.1173
1069.30 0.1172
1069.40 0.1172
1069.50 0.1171
1069.60 0.117
1069.70 0.117
1069.80 0.1169
1069.90 0.1169
1070.00 0.1168
1070.10 0.1168
1070.20 0.1167
1070.30 0.1167
1070.40 0.1166
1070.50 0.1166
1070.60 0.1165
1070.70 0.1165
1070.80 0.1164
1070.90 0.1163
1071.00 0.1163
1071.10 0.1162
1071.20 0.1162
1071.30 0.1161
1071.40 0.1161
1071.50 0.116
1071.60 0.116
1071.70 0.1159
1071.80 0.1159
1071.90 0.1158
1072.00 0.1157
1072.10 0.1157
1072.20 0.1156
1072.30 0.1156
1072.40 0.1155
1072.50 0.1154
1072.60 0.1154
1072.70 0.1153
1072.80 0.1153
1072.90 0.1152
1073.00 0.1151
1073.10 0.1151
1073.20 0.115
1073.30 0.115
1073.40 0.1149
1073.50 0.1148
1073.60 0.1148
1073.70 0.1147
1073.80 0.1146
1073.90 0.1146
1074.00 0.1145
1074.10 0.1144
1074.20 0.1144
1074.30 0.1143
1074.40 0.1142
1074.50 0.1142
1074.60 0.1141
1074.70 0.114
1074.80 0.114
1074.90 0.1139
1075.00 0.1138
1075.10 0.1138
1075.20 0.1137
1075.30 0.1136
1075.40 0.1136
1075.50 0.1135
1075.60 0.1134
1075.70 0.1134
1075.80 0.1133
1075.90 0.1132
1076.00 0.1132
1076.10 0.1131
1076.20 0.113
1076.30 0.113
1076.40 0.1129
1076.50 0.1128
1076.60 0.1128
1076.70 0.1127
1076.80 0.1127
1076.90 0.1126
1077.00 0.1125
1077.10 0.1124
1077.20 0.1124
1077.30 0.1123
1077.40 0.1122
1077.50 0.1122
1077.60 0.1121
1077.70 0.112
1077.80 0.1119
1077.90 0.1118
1078.00 0.1118
1078.10 0.1117
1078.20 0.1116
1078.30 0.1115
1078.40 0.1115
1078.50 0.1114
1078.60 0.1113
1078.70 0.1112
1078.80 0.1111
1078.90 0.1111
1079.00 0.111
1079.10 0.1109
1079.20 0.1108
1079.30 0.1108
1079.40 0.1107
1079.50 0.1106
1079.60 0.1105
1079.70 0.1104
1079.80 0.1103
1079.90 0.1103
1080.00 0.1102
1080.10 0.1101
1080.20 0.11
1080.30 0.1099
1080.40 0.1098
1080.50 0.1097
1080.60 0.1096
1080.70 0.1096
1080.80 0.1095
1080.90 0.1094
1081.00 0.1093
1081.10 0.1092
1081.20 0.1091
1081.30 0.109
1081.40 0.1089
1081.50 0.1089
1081.60 0.1088
1081.70 0.1087
1081.80 0.1086
1081.90 0.1085
1082.00 0.1084
1082.10 0.1083
1082.20 0.1082
1082.30 0.1081
1082.40 0.108
1082.50 0.1079
1082.60 0.1078
1082.70 0.1077
1082.80 0.1076
1082.90 0.1075
1083.00 0.1074
1083.10 0.1073
1083.20 0.1072
1083.30 0.1071
1083.40 0.107
1083.50 0.1069
1083.60 0.1067
1083.70 0.1066
1083.80 0.1065
1083.90 0.1064
1084.00 0.1063
1084.10 0.1062
1084.20 0.1061
1084.30 0.106
1084.40 0.1058
1084.50 0.1057
1084.60 0.1056
1084.70 0.1055
1084.80 0.1053
1084.90 0.1052
1085.00 0.1051
1085.10 0.1049
1085.20 0.1048
1085.30 0.1047
1085.40 0.1046
1085.50 0.1044
1085.60 0.1043
1085.70 0.1042
1085.80 0.104
1085.90 0.1039
1086.00 0.1038
1086.10 0.1036
1086.20 0.1035
1086.30 0.1034
1086.40 0.1033
1086.50 0.1031
1086.60 0.103
1086.70 0.1028
1086.80 0.1027
1086.90 0.1025
1087.00 0.1024
1087.10 0.1022
1087.20 0.1021
1087.30 0.1019
1087.40 0.1017
1087.50 0.1016
1087.60 0.1014
1087.70 0.1012
1087.80 0.1011
1087.90 0.1009
1088.00 0.1007
1088.10 0.1006
1088.20 0.1004
1088.30 0.1003
1088.40 0.1001
1088.50 0.09992
1088.60 0.09974
1088.70 0.09956
1088.80 0.09938
1088.90 0.0992
1089.00 0.09902
1089.10 0.09884
1089.20 0.09866
1089.30 0.09848
1089.40 0.0983
1089.50 0.09812
1089.60 0.09794
1089.70 0.09776
1089.80 0.09758
1089.90 0.0974
1090.00 0.09722
1090.10 0.09704
1090.20 0.09686
1090.30 0.09668
1090.40 0.0965
1090.50 0.09633
1090.60 0.09616
1090.70 0.09599
1090.80 0.09582
1090.90 0.09565
1091.00 0.09549
1091.10 0.09532
1091.20 0.09515
1091.30 0.09498
1091.40 0.09482
1091.50 0.09465
1091.60 0.09448
1091.70 0.09431
1091.80 0.09415
1091.90 0.09398
1092.00 0.09381
1092.10 0.09376
1092.20 0.0937
1092.30 0.09364
1092.40 0.09359
1092.50 0.09353
1092.60 0.09347
1092.70 0.0935
1092.80 0.09368
1092.90 0.09387
1093.00 0.09405
1093.10 0.0943
1093.20 0.09467
1093.30 0.09503
1093.40 0.09536
1093.50 0.09544
1093.60 0.09508
1093.70 0.0947
1093.80 0.09427
1093.90 0.0939
1094.00 0.09367
1094.10 0.09343
1094.20 0.09319
1094.30 0.09303
1094.40 0.09304
1094.50 0.09305
1094.60 0.09305
1094.70 0.09306
1094.80 0.09307
1094.90 0.09308
1095.00 0.09312
1095.10 0.09323
1095.20 0.09334
1095.30 0.09345
1095.40 0.09356
1095.50 0.09368
1095.60 0.09379
1095.70 0.0939
1095.80 0.09401
1095.90 0.09412
1096.00 0.09423
1096.10 0.09434
1096.20 0.09445
1096.30 0.09456
1096.40 0.09467
1096.50 0.09478
1096.60 0.09489
1096.70 0.09499
1096.80 0.0951
1096.90 0.09521
1097.00 0.09531
1097.10 0.09544
1097.20 0.09556
1097.30 0.09568
1097.40 0.09581
1097.50 0.09593
1097.60 0.09606
1097.70 0.09618
1097.80 0.0963
1097.90 0.09643
1098.00 0.09655
1098.10 0.09668
1098.20 0.0968
1098.30 0.09692
1098.40 0.09705
1098.50 0.09716
1098.60 0.09726
1098.70 0.09736
1098.80 0.09745
1098.90 0.09755
1099.00 0.09764
1099.10 0.09774
1099.20 0.09784
1099.30 0.09793
1099.40 0.09803
1099.50 0.09812
1099.60 0.09822
1099.70 0.09832
1099.80 0.09841
1099.90 0.09851
1100.00 0.0986
1100.10 0.0987
1100.20 0.09879
1100.30 0.09889
1100.40 0.09899
1100.50 0.09907
1100.60 0.09914
1100.70 0.09921
1100.80 0.09928
1100.90 0.09934
1101.00 0.09941
1101.10 0.09948
1101.20 0.09955
1101.30 0.09961
1101.40 0.09968
1101.50 0.09975
1101.60 0.09982
1101.70 0.09989
1101.80 0.09995
1101.90 0.1
1102.00 0.1001
1102.10 0.1001
1102.20 0.1002
1102.30 0.1003
1102.40 0.1003
1102.50 0.1004
1102.60 0.1004
1102.70 0.1005
1102.80 0.1005
1102.90 0.1005
1103.00 0.1006
1103.10 0.1006
1103.20 0.1007
1103.30 0.1007
1103.40 0.1008
1103.50 0.1008
1103.60 0.1009
1103.70 0.1009
1103.80 0.1009
1103.90 0.101
1104.00 0.101
1104.10 0.101
1104.20 0.1011
1104.30 0.1011
1104.40 0.1011
1104.50 0.1012
1104.60 0.1012
1104.70 0.1012
1104.80 0.1013
1104.90 0.1013
1105.00 0.1013
1105.10 0.1014
1105.20 0.1014
1105.30 0.1014
1105.40 0.1015
1105.50 0.1015
1105.60 0.1015
1105.70 0.1015
1105.80 0.1016
1105.90 0.1016
1106.00 0.1016
1106.10 0.1016
1106.20 0.1017
1106.30 0.1017
1106.40 0.1017
1106.50 0.1017
1106.60 0.1017
1106.70 0.1018
1106.80 0.1018
1106.90 0.1018
1107.00 0.1018
1107.10 0.1018
1107.20 0.1019
1107.30 0.1019
1107.40 0.1019
1107.50 0.1019
1107.60 0.1019
1107.70 0.1019
1107.80 0.1019
1107.90 0.102
1108.00 0.102
1108.10 0.102
1108.20 0.102
1108.30 0.102
1108.40 0.102
1108.50 0.102
1108.60 0.102
1108.70 0.102
1108.80 0.1021
1108.90 0.1021
1109.00 0.1021
1109.10 0.1021
1109.20 0.1021
1109.30 0.1021
1109.40 0.1021
1109.50 0.1021
1109.60 0.1021
1109.70 0.1021
1109.80 0.1021
1109.90 0.1021
1110.00 0.1021
1110.10 0.1021
1110.20 0.1021
1110.30 0.1021
1110.40 0.1022
1110.50 0.1022
1110.60 0.1022
1110.70 0.1022
1110.80 0.1022
1110.90 0.1022
1111.00 0.1022
1111.10 0.1022
1111.20 0.1022
1111.30 0.1022
1111.40 0.1022
1111.50 0.1022
1111.60 0.1022
1111.70 0.1022
1111.80 0.1022
1111.90 0.1022
1112.00 0.1022
1112.10 0.1022
1112.20 0.1022
1112.30 0.1022
1112.40 0.1022
1112.50 0.1022
1112.60 0.1022
1112.70 0.1022
1112.80 0.1022
1112.90 0.1022
1113.00 0.1022
1113.10 0.1022
1113.20 0.1022
1113.30 0.1022
1113.40 0.1022
1113.50 0.1021
1113.60 0.1021
1113.70 0.1021
1113.80 0.1021
1113.90 0.1021
1114.00 0.1021
1114.10 0.1021
1114.20 0.1021
1114.30 0.1021
1114.40 0.1021
1114.50 0.1021
1114.60 0.1021
1114.70 0.102
1114.80 0.102
1114.90 0.102
1115.00 0.102
1115.10 0.102
1115.20 0.102
1115.30 0.102
1115.40 0.102
1115.50 0.102
1115.60 0.102
1115.70 0.102
1115.80 0.102
1115.90 0.1019
1116.00 0.1019
1116.10 0.1019
1116.20 0.1019
1116.30 0.1019
1116.40 0.1019
1116.50 0.1019
1116.60 0.1019
1116.70 0.1019
1116.80 0.1019
1116.90 0.1019
1117.00 0.1018
1117.10 0.1018
1117.20 0.1018
1117.30 0.1018
1117.40 0.1018
1117.50 0.1018
1117.60 0.1018
1117.70 0.1017
1117.80 0.1017
1117.90 0.1017
1118.00 0.1017
1118.10 0.1017
1118.20 0.1017
1118.30 0.1017
1118.40 0.1016
1118.50 0.1016
1118.60 0.1016
1118.70 0.1016
1118.80 0.1016
1118.90 0.1016
1119.00 0.1016
1119.10 0.1015
1119.20 0.1015
1119.30 0.1015
1119.40 0.1015
1119.50 0.1015
1119.60 0.1015
1119.70 0.1014
1119.80 0.1014
1119.90 0.1014
1120.00 0.1014
1120.10 0.1014
1120.20 0.1014
1120.30 0.1014
1120.40 0.1013
1120.50 0.1013
1120.60 0.1013
1120.70 0.1013
1120.80 0.1013
1120.90 0.1013
1121.00 0.1013
1121.10 0.1012
1121.20 0.1012
1121.30 0.1012
1121.40 0.1012
1121.50 0.1012
1121.60 0.1012
1121.70 0.1012
1121.80 0.1011
1121.90 0.1011
1122.00 0.1011
1122.10 0.1011
1122.20 0.1011
1122.30 0.1011
1122.40 0.101
1122.50 0.101
1122.60 0.101
1122.70 0.101
1122.80 0.101
1122.90 0.1009
1123.00 0.1009
1123.10 0.1009
1123.20 0.1009
1123.30 0.1009
1123.40 0.1008
1123.50 0.1008
1123.60 0.1008
1123.70 0.1008
1123.80 0.1008
1123.90 0.1007
1124.00 0.1007
1124.10 0.1007
1124.20 0.1007
1124.30 0.1007
1124.40 0.1006
1124.50 0.1006
1124.60 0.1006
1124.70 0.1006
1124.80 0.1006
1124.90 0.1005
1125.00 0.1005
1125.10 0.1005
1125.20 0.1005
1125.30 0.1005
1125.40 0.1004
1125.50 0.1004
1125.60 0.1004
1125.70 0.1004
1125.80 0.1004
1125.90 0.1003
1126.00 0.1003
1126.10 0.1003
1126.20 0.1003
1126.30 0.1003
1126.40 0.1003
1126.50 0.1002
1126.60 0.1002
1126.70 0.1002
1126.80 0.1002
1126.90 0.1002
1127.00 0.1001
1127.10 0.1001
1127.20 0.1001
1127.30 0.1001
1127.40 0.1
1127.50 0.1
1127.60 0.1
1127.70 0.09998
1127.80 0.09996
1127.90 0.09993
1128.00 0.09991
1128.10 0.09989
1128.20 0.09987
1128.30 0.09984
1128.40 0.09982
1128.50 0.0998
1128.60 0.09978
1128.70 0.09976
1128.80 0.09973
1128.90 0.09971
1129.00 0.09969
1129.10 0.09967
1129.20 0.09964
1129.30 0.09962
1129.40 0.0996
1129.50 0.09958
1129.60 0.09956
1129.70 0.09953
1129.80 0.09951
1129.90 0.09949
1130.00 0.09947
1130.10 0.09945
1130.20 0.09942
1130.30 0.0994
1130.40 0.09938
1130.50 0.09936
1130.60 0.09933
1130.70 0.09931
1130.80 0.09929
1130.90 0.09927
1131.00 0.09925
1131.10 0.09922
1131.20 0.0992
1131.30 0.09918
1131.40 0.09916
1131.50 0.09914
1131.60 0.09911
1131.70 0.09909
1131.80 0.09907
1131.90 0.09905
1132.00 0.09903
1132.10 0.099
1132.20 0.09898
1132.30 0.09895
1132.40 0.09893
1132.50 0.09891
1132.60 0.09888
1132.70 0.09886
1132.80 0.09883
1132.90 0.09881
1133.00 0.09879
1133.10 0.09876
1133.20 0.09874
1133.30 0.09872
1133.40 0.09869
1133.50 0.09867
1133.60 0.09864
1133.70 0.09862
1133.80 0.0986
1133.90 0.09857
1134.00 0.09855
1134.10 0.09853
1134.20 0.0985
1134.30 0.09848
1134.40 0.09845
1134.50 0.09843
1134.60 0.09841
1134.70 0.09838
1134.80 0.09836
1134.90 0.09834
1135.00 0.09831
1135.10 0.09829
1135.20 0.09826
1135.30 0.09824
1135.40 0.09822
1135.50 0.09819
1135.60 0.09817
1135.70 0.09815
1135.80 0.09812
1135.90 0.0981
1136.00 0.09807
1136.10 0.09805
1136.20 0.09803
1136.30 0.098
1136.40 0.09798
1136.50 0.09796
1136.60 0.09793
1136.70 0.09791
1136.80 0.09789
1136.90 0.09786
1137.00 0.09784
1137.10 0.09781
1137.20 0.09779
1137.30 0.09776
1137.40 0.09774
1137.50 0.09771
1137.60 0.09769
1137.70 0.09767
1137.80 0.09764
1137.90 0.09762
1138.00 0.09759
1138.10 0.09757
1138.20 0.09754
1138.30 0.09752
1138.40 0.09749
1138.50 0.09747
1138.60 0.09744
1138.70 0.09742
1138.80 0.09739
1138.90 0.09737
1139.00 0.09734
1139.10 0.09732
1139.20 0.09729
1139.30 0.09727
1139.40 0.09724
1139.50 0.09722
1139.60 0.09719
1139.70 0.09717
1139.80 0.09715
1139.90 0.09712
1140.00 0.0971
1140.10 0.09707
1140.20 0.09705
1140.30 0.09702
1140.40 0.097
1140.50 0.09697
1140.60 0.09695
1140.70 0.09692
1140.80 0.0969
1140.90 0.09687
1141.00 0.09685
1141.10 0.09682
1141.20 0.0968
1141.30 0.09678
1141.40 0.09675
1141.50 0.09673
1141.60 0.0967
1141.70 0.09668
1141.80 0.09665
1141.90 0.09663
1142.00 0.0966
1142.10 0.09658
1142.20 0.09655
1142.30 0.09653
1142.40 0.0965
1142.50 0.09648
1142.60 0.09645
1142.70 0.09643
1142.80 0.0964
1142.90 0.09638
1143.00 0.09635
1143.10 0.09633
1143.20 0.0963
1143.30 0.09628
1143.40 0.09625
1143.50 0.09622
1143.60 0.0962
1143.70 0.09617
1143.80 0.09615
1143.90 0.09612
1144.00 0.0961
1144.10 0.09607
1144.20 0.09605
1144.30 0.09602
1144.40 0.096
1144.50 0.09597
1144.60 0.09595
1144.70 0.09592
1144.80 0.0959
1144.90 0.09587
1145.00 0.09585
1145.10 0.09582
1145.20 0.0958
1145.30 0.09577
1145.40 0.09575
1145.50 0.09572
1145.60 0.0957
1145.70 0.09567
1145.80 0.09565
1145.90 0.09562
1146.00 0.0956
1146.10 0.09557
1146.20 0.09555
1146.30 0.09552
1146.40 0.0955
1146.50 0.09547
1146.60 0.09545
1146.70 0.09542
1146.80 0.0954
1146.90 0.09537
1147.00 0.09535
1147.10 0.09532
1147.20 0.0953
1147.30 0.09527
1147.40 0.09524
1147.50 0.09522
1147.60 0.09519
1147.70 0.09517
1147.80 0.09514
1147.90 0.09512
1148.00 0.09509
1148.10 0.09507
1148.20 0.09504
1148.30 0.09502
1148.40 0.09499
1148.50 0.09496
1148.60 0.09494
1148.70 0.09491
1148.80 0.09489
1148.90 0.09486
1149.00 0.09484
1149.10 0.09481
1149.20 0.09479
1149.30 0.09476
1149.40 0.09474
1149.50 0.09471
1149.60 0.09468
1149.70 0.09466
1149.80 0.09463
1149.90 0.09461
1150.00 0.09458
1150.10 0.09456
1150.20 0.09453
1150.30 0.09451
1150.40 0.09448
1150.50 0.09446
1150.60 0.09443
1150.70 0.09441
1150.80 0.09438
1150.90 0.09436
1151.00 0.09433
1151.10 0.09431
1151.20 0.09428
1151.30 0.09426
1151.40 0.09423
1151.50 0.0942
1151.60 0.09418
1151.70 0.09415
1151.80 0.09413
1151.90 0.0941
1152.00 0.09408
1152.10 0.09405
1152.20 0.09403
1152.30 0.094
1152.40 0.09398
1152.50 0.09395
1152.60 0.09393
1152.70 0.0939
1152.80 0.09388
1152.90 0.09385
1153.00 0.09382
1153.10 0.0938
1153.20 0.09377
1153.30 0.09375
1153.40 0.09372
1153.50 0.0937
1153.60 0.09367
1153.70 0.09365
1153.80 0.09362
1153.90 0.0936
1154.00 0.09357
1154.10 0.09355
1154.20 0.09352
1154.30 0.0935
1154.40 0.09347
1154.50 0.09344
1154.60 0.09342
1154.70 0.09339
1154.80 0.09337
1154.90 0.09334
1155.00 0.09332
1155.10 0.09329
1155.20 0.09327
1155.30 0.09324
1155.40 0.09322
1155.50 0.09319
1155.60 0.09317
1155.70 0.09314
1155.80 0.09312
1155.90 0.09309
1156.00 0.09307
1156.10 0.09304
1156.20 0.09302
1156.30 0.09299
1156.40 0.09297
1156.50 0.09294
1156.60 0.09292
1156.70 0.09289
1156.80 0.09287
1156.90 0.09284
1157.00 0.09281
1157.10 0.09279
1157.20 0.09276
1157.30 0.09274
1157.40 0.09271
1157.50 0.09269
1157.60 0.09266
1157.70 0.09264
1157.80 0.09261
1157.90 0.09259
1158.00 0.09256
1158.10 0.09254
1158.20 0.09251
1158.30 0.09248
1158.40 0.09246
1158.50 0.09243
1158.60 0.09241
1158.70 0.09238
1158.80 0.09236
1158.90 0.09233
1159.00 0.09231
1159.10 0.09228
1159.20 0.09226
1159.30 0.09223
1159.40 0.09221
1159.50 0.09218
1159.60 0.09216
1159.70 0.09213
1159.80 0.09211
1159.90 0.09208
1160.00 0.09205
1160.10 0.09203
1160.20 0.092
1160.30 0.09198
1160.40 0.09195
1160.50 0.09193
1160.60 0.0919
1160.70 0.09188
1160.80 0.09185
1160.90 0.09183
1161.00 0.0918
1161.10 0.09178
1161.20 0.09175
1161.30 0.09173
1161.40 0.0917
1161.50 0.09168
1161.60 0.09165
1161.70 0.09163
1161.80 0.0916
1161.90 0.09158
1162.00 0.09155
1162.10 0.09153
1162.20 0.0915
1162.30 0.09148
1162.40 0.09145
1162.50 0.09143
1162.60 0.0914
1162.70 0.09138
1162.80 0.09135
1162.90 0.09132
1163.00 0.0913
1163.10 0.09127
1163.20 0.09125
1163.30 0.09122
1163.40 0.0912
1163.50 0.09117
1163.60 0.09115
1163.70 0.09112
1163.80 0.0911
1163.90 0.09107
1164.00 0.09105
1164.10 0.09102
1164.20 0.091
1164.30 0.09097
1164.40 0.09095
1164.50 0.09092
1164.60 0.0909
1164.70 0.09087
1164.80 0.09085
1164.90 0.09082
1165.00 0.0908
1165.10 0.09077
1165.20 0.09075
1165.30 0.09072
1165.40 0.0907
1165.50 0.09067
1165.60 0.09065
1165.70 0.09062
1165.80 0.0906
1165.90 0.09057
1166.00 0.09055
1166.10 0.09052
1166.20 0.0905
1166.30 0.09047
1166.40 0.09045
1166.50 0.09042
1166.60 0.0904
1166.70 0.09037
1166.80 0.09035
1166.90 0.09032
1167.00 0.0903
1167.10 0.09027
1167.20 0.09025
1167.30 0.09022
1167.40 0.0902
1167.50 0.09017
1167.60 0.09015
1167.70 0.09012
1167.80 0.0901
1167.90 0.09007
1168.00 0.09005
1168.10 0.09002
1168.20 0.09
1168.30 0.08998
1168.40 0.08995
1168.50 0.08993
1168.60 0.0899
1168.70 0.08988
1168.80 0.08985
1168.90 0.08983
1169.00 0.0898
1169.10 0.08978
1169.20 0.08975
1169.30 0.08973
1169.40 0.0897
1169.50 0.08968
1169.60 0.08965
1169.70 0.08963
1169.80 0.0896
1169.90 0.08958
1170.00 0.08955
1170.10 0.08953
1170.20 0.0895
1170.30 0.08948
1170.40 0.08945
1170.50 0.08943
1170.60 0.0894
1170.70 0.08938
1170.80 0.08935
1170.90 0.08933
1171.00 0.08931
1171.10 0.08928
1171.20 0.08926
1171.30 0.08923
1171.40 0.08921
1171.50 0.08918
1171.60 0.08916
1171.70 0.08913
1171.80 0.08911
1171.90 0.08908
1172.00 0.08906
1172.10 0.08903
1172.20 0.08901
1172.30 0.08898
1172.40 0.08896
1172.50 0.08893
1172.60 0.08891
1172.70 0.08889
1172.80 0.08886
1172.90 0.08884
1173.00 0.08881
1173.10 0.08879
1173.20 0.08876
1173.30 0.08874
1173.40 0.08871
1173.50 0.08869
1173.60 0.08866
1173.70 0.08864
1173.80 0.08861
1173.90 0.08859
1174.00 0.08857
1174.10 0.08854
1174.20 0.08852
1174.30 0.08849
1174.40 0.08847
1174.50 0.08844
1174.60 0.08842
1174.70 0.08839
1174.80 0.08837
1174.90 0.08834
1175.00 0.08832
1175.10 0.0883
1175.20 0.08827
1175.30 0.08825
1175.40 0.08822
1175.50 0.0882
1175.60 0.08817
1175.70 0.08815
1175.80 0.08812
1175.90 0.0881
1176.00 0.08808
1176.10 0.08805
1176.20 0.08803
1176.30 0.088
1176.40 0.08798
1176.50 0.08795
1176.60 0.08793
1176.70 0.0879
1176.80 0.08788
1176.90 0.08786
1177.00 0.08783
1177.10 0.08781
1177.20 0.08778
1177.30 0.08776
1177.40 0.08773
1177.50 0.08771
1177.60 0.08769
1177.70 0.08766
1177.80 0.08764
1177.90 0.08761
1178.00 0.08759
1178.10 0.08756
1178.20 0.08754
1178.30 0.08751
1178.40 0.08749
1178.50 0.08747
1178.60 0.08744
1178.70 0.08742
1178.80 0.08739
1178.90 0.08737
1179.00 0.08734
1179.10 0.08732
1179.20 0.0873
1179.30 0.08727
1179.40 0.08725
1179.50 0.08722
1179.60 0.0872
1179.70 0.08717
1179.80 0.08715
1179.90 0.08713
1180.00 0.0871
1180.10 0.08708
1180.20 0.08705
1180.30 0.08703
1180.40 0.08701
1180.50 0.08698
1180.60 0.08696
1180.70 0.08693
1180.80 0.08691
1180.90 0.08688
1181.00 0.08686
1181.10 0.08684
1181.20 0.08681
1181.30 0.08679
1181.40 0.08676
1181.50 0.08674
1181.60 0.08672
1181.70 0.08669
1181.80 0.08667
1181.90 0.08664
1182.00 0.08662
1182.10 0.08659
1182.20 0.08657
1182.30 0.08655
1182.40 0.08652
1182.50 0.0865
1182.60 0.08647
1182.70 0.08645
1182.80 0.08643
1182.90 0.0864
1183.00 0.08638
1183.10 0.08635
1183.20 0.08633
1183.30 0.0863
1183.40 0.08628
1183.50 0.08626
1183.60 0.08623
1183.70 0.08621
1183.80 0.08618
1183.90 0.08616
1184.00 0.08614
1184.10 0.08611
1184.20 0.08609
1184.30 0.08606
1184.40 0.08604
1184.50 0.08602
1184.60 0.08599
1184.70 0.08597
1184.80 0.08594
1184.90 0.08592
1185.00 0.0859
1185.10 0.08587
1185.20 0.08585
1185.30 0.08582
1185.40 0.0858
1185.50 0.08578
1185.60 0.08575
1185.70 0.08573
1185.80 0.0857
1185.90 0.08568
1186.00 0.08566
1186.10 0.08563
1186.20 0.08561
1186.30 0.08558
1186.40 0.08556
1186.50 0.08554
1186.60 0.08551
1186.70 0.08549
1186.80 0.08546
1186.90 0.08544
1187.00 0.08542
1187.10 0.08539
1187.20 0.08537
1187.30 0.08535
1187.40 0.08532
1187.50 0.0853
1187.60 0.08527
1187.70 0.08525
1187.80 0.08523
1187.90 0.0852
1188.00 0.08518
1188.10 0.08515
1188.20 0.08513
1188.30 0.08511
1188.40 0.08508
1188.50 0.08506
1188.60 0.08504
1188.70 0.08501
1188.80 0.08499
1188.90 0.08496
1189.00 0.08494
1189.10 0.08492
1189.20 0.08489
1189.30 0.08487
1189.40 0.08485
1189.50 0.08482
1189.60 0.0848
1189.70 0.08477
1189.80 0.08475
1189.90 0.08473
1190.00 0.0847
1190.10 0.08468
1190.20 0.08466
1190.30 0.08463
1190.40 0.08461
1190.50 0.08459
1190.60 0.08456
1190.70 0.08454
1190.80 0.08451
1190.90 0.08449
1191.00 0.08447
1191.10 0.08444
1191.20 0.08442
1191.30 0.0844
1191.40 0.08437
1191.50 0.08435
1191.60 0.08433
1191.70 0.0843
1191.80 0.08428
1191.90 0.08426
1192.00 0.08423
1192.10 0.08421
1192.20 0.08418
1192.30 0.08416
1192.40 0.08414
1192.50 0.08411
1192.60 0.08409
1192.70 0.08407
1192.80 0.08404
1192.90 0.08402
1193.00 0.084
1193.10 0.08397
1193.20 0.08395
1193.30 0.08392
1193.40 0.0839
1193.50 0.08388
1193.60 0.08385
1193.70 0.08383
1193.80 0.08381
1193.90 0.08378
1194.00 0.08376
1194.10 0.08374
1194.20 0.08371
1194.30 0.08369
1194.40 0.08367
1194.50 0.08364
1194.60 0.08362
1194.70 0.0836
1194.80 0.08357
1194.90 0.08355
1195.00 0.08353
1195.10 0.0835
1195.20 0.08348
1195.30 0.08345
1195.40 0.08343
1195.50 0.08341
1195.60 0.08338
1195.70 0.08336
1195.80 0.08334
1195.90 0.08331
1196.00 0.08329
1196.10 0.08327
1196.20 0.08324
1196.30 0.08322
1196.40 0.0832
1196.50 0.08317
1196.60 0.08315
1196.70 0.08313
1196.80 0.0831
1196.90 0.08308
1197.00 0.08306
1197.10 0.08303
1197.20 0.08301
1197.30 0.08299
1197.40 0.08296
1197.50 0.08294
1197.60 0.08292
1197.70 0.08289
1197.80 0.08287
1197.90 0.08285
1198.00 0.08282
1198.10 0.0828
1198.20 0.08278
1198.30 0.08275
1198.40 0.08273
1198.50 0.08271
1198.60 0.08268
1198.70 0.08266
1198.80 0.08264
1198.90 0.08261
1199.00 0.08259
1199.10 0.08257
1199.20 0.08254
1199.30 0.08252
1199.40 0.0825
1199.50 0.08247
1199.60 0.08245
1199.70 0.08243
1199.80 0.0824
1199.90 0.08238
1200.00 0
