# Version 2.1 - nm, norm@500 to 1, cut digits, bergeron_10000_75.dat_10000
# Wavelength(nm)  Flambda(ergs/cm^s/s/nm)
300.00 1.528
300.10 1.527
300.20 1.527
300.30 1.526
300.40 1.525
300.50 1.525
300.60 1.524
300.70 1.523
300.80 1.523
300.90 1.522
301.00 1.521
301.10 1.521
301.20 1.52
301.30 1.52
301.40 1.519
301.50 1.518
301.60 1.518
301.70 1.517
301.80 1.516
301.90 1.516
302.00 1.515
302.10 1.514
302.20 1.514
302.30 1.513
302.40 1.513
302.50 1.512
302.60 1.511
302.70 1.511
302.80 1.51
302.90 1.509
303.00 1.509
303.10 1.508
303.20 1.507
303.30 1.507
303.40 1.506
303.50 1.506
303.60 1.505
303.70 1.504
303.80 1.504
303.90 1.503
304.00 1.502
304.10 1.502
304.20 1.501
304.30 1.501
304.40 1.5
304.50 1.499
304.60 1.499
304.70 1.498
304.80 1.497
304.90 1.497
305.00 1.496
305.10 1.495
305.20 1.495
305.30 1.494
305.40 1.494
305.50 1.493
305.60 1.492
305.70 1.492
305.80 1.491
305.90 1.49
306.00 1.49
306.10 1.489
306.20 1.488
306.30 1.488
306.40 1.487
306.50 1.487
306.60 1.486
306.70 1.485
306.80 1.485
306.90 1.484
307.00 1.483
307.10 1.483
307.20 1.482
307.30 1.481
307.40 1.481
307.50 1.48
307.60 1.48
307.70 1.479
307.80 1.478
307.90 1.478
308.00 1.477
308.10 1.476
308.20 1.476
308.30 1.475
308.40 1.475
308.50 1.474
308.60 1.473
308.70 1.473
308.80 1.472
308.90 1.471
309.00 1.471
309.10 1.47
309.20 1.469
309.30 1.469
309.40 1.468
309.50 1.468
309.60 1.467
309.70 1.466
309.80 1.466
309.90 1.465
310.00 1.464
310.10 1.464
310.20 1.463
310.30 1.463
310.40 1.462
310.50 1.461
310.60 1.461
310.70 1.46
310.80 1.459
310.90 1.459
311.00 1.458
311.10 1.458
311.20 1.457
311.30 1.456
311.40 1.456
311.50 1.455
311.60 1.454
311.70 1.454
311.80 1.453
311.90 1.453
312.00 1.452
312.10 1.451
312.20 1.451
312.30 1.45
312.40 1.449
312.50 1.449
312.60 1.448
312.70 1.447
312.80 1.447
312.90 1.446
313.00 1.446
313.10 1.445
313.20 1.444
313.30 1.444
313.40 1.443
313.50 1.442
313.60 1.442
313.70 1.441
313.80 1.441
313.90 1.44
314.00 1.439
314.10 1.439
314.20 1.438
314.30 1.438
314.40 1.437
314.50 1.436
314.60 1.436
314.70 1.435
314.80 1.434
314.90 1.434
315.00 1.433
315.10 1.432
315.20 1.432
315.30 1.431
315.40 1.431
315.50 1.43
315.60 1.429
315.70 1.429
315.80 1.428
315.90 1.428
316.00 1.427
316.10 1.426
316.20 1.426
316.30 1.425
316.40 1.424
316.50 1.424
316.60 1.423
316.70 1.423
316.80 1.422
316.90 1.421
317.00 1.421
317.10 1.42
317.20 1.419
317.30 1.419
317.40 1.418
317.50 1.418
317.60 1.417
317.70 1.416
317.80 1.416
317.90 1.415
318.00 1.414
318.10 1.414
318.20 1.413
318.30 1.413
318.40 1.412
318.50 1.411
318.60 1.411
318.70 1.41
318.80 1.409
318.90 1.409
319.00 1.408
319.10 1.408
319.20 1.407
319.30 1.406
319.40 1.406
319.50 1.405
319.60 1.405
319.70 1.404
319.80 1.403
319.90 1.403
320.00 1.402
320.10 1.401
320.20 1.401
320.30 1.4
320.40 1.4
320.50 1.399
320.60 1.398
320.70 1.398
320.80 1.397
320.90 1.397
321.00 1.396
321.10 1.395
321.20 1.395
321.30 1.394
321.40 1.393
321.50 1.393
321.60 1.392
321.70 1.392
321.80 1.391
321.90 1.39
322.00 1.39
322.10 1.389
322.20 1.389
322.30 1.388
322.40 1.387
322.50 1.387
322.60 1.386
322.70 1.385
322.80 1.385
322.90 1.384
323.00 1.384
323.10 1.383
323.20 1.382
323.30 1.382
323.40 1.381
323.50 1.381
323.60 1.38
323.70 1.379
323.80 1.379
323.90 1.378
324.00 1.378
324.10 1.377
324.20 1.376
324.30 1.376
324.40 1.375
324.50 1.374
324.60 1.374
324.70 1.373
324.80 1.373
324.90 1.372
325.00 1.371
325.10 1.371
325.20 1.37
325.30 1.37
325.40 1.369
325.50 1.368
325.60 1.368
325.70 1.367
325.80 1.367
325.90 1.366
326.00 1.365
326.10 1.365
326.20 1.364
326.30 1.363
326.40 1.363
326.50 1.362
326.60 1.362
326.70 1.361
326.80 1.36
326.90 1.36
327.00 1.359
327.10 1.359
327.20 1.358
327.30 1.357
327.40 1.357
327.50 1.356
327.60 1.356
327.70 1.355
327.80 1.354
327.90 1.354
328.00 1.353
328.10 1.353
328.20 1.352
328.30 1.351
328.40 1.351
328.50 1.35
328.60 1.35
328.70 1.349
328.80 1.348
328.90 1.348
329.00 1.347
329.10 1.347
329.20 1.346
329.30 1.345
329.40 1.345
329.50 1.344
329.60 1.344
329.70 1.343
329.80 1.342
329.90 1.342
330.00 1.341
330.10 1.341
330.20 1.34
330.30 1.339
330.40 1.339
330.50 1.338
330.60 1.338
330.70 1.337
330.80 1.336
330.90 1.336
331.00 1.335
331.10 1.335
331.20 1.334
331.30 1.333
331.40 1.333
331.50 1.332
331.60 1.332
331.70 1.331
331.80 1.33
331.90 1.33
332.00 1.329
332.10 1.329
332.20 1.328
332.30 1.327
332.40 1.327
332.50 1.326
332.60 1.326
332.70 1.325
332.80 1.324
332.90 1.324
333.00 1.323
333.10 1.323
333.20 1.322
333.30 1.321
333.40 1.321
333.50 1.32
333.60 1.32
333.70 1.319
333.80 1.318
333.90 1.318
334.00 1.317
334.10 1.317
334.20 1.316
334.30 1.315
334.40 1.315
334.50 1.314
334.60 1.314
334.70 1.313
334.80 1.312
334.90 1.312
335.00 1.311
335.10 1.311
335.20 1.31
335.30 1.309
335.40 1.309
335.50 1.308
335.60 1.308
335.70 1.307
335.80 1.307
335.90 1.306
336.00 1.305
336.10 1.305
336.20 1.304
336.30 1.304
336.40 1.303
336.50 1.302
336.60 1.302
336.70 1.301
336.80 1.301
336.90 1.3
337.00 1.299
337.10 1.299
337.20 1.298
337.30 1.298
337.40 1.297
337.50 1.297
337.60 1.296
337.70 1.295
337.80 1.295
337.90 1.294
338.00 1.294
338.10 1.293
338.20 1.292
338.30 1.292
338.40 1.291
338.50 1.291
338.60 1.29
338.70 1.289
338.80 1.289
338.90 1.288
339.00 1.288
339.10 1.287
339.20 1.287
339.30 1.286
339.40 1.285
339.50 1.285
339.60 1.284
339.70 1.284
339.80 1.283
339.90 1.282
340.00 1.282
340.10 1.281
340.20 1.281
340.30 1.28
340.40 1.28
340.50 1.279
340.60 1.278
340.70 1.278
340.80 1.277
340.90 1.277
341.00 1.276
341.10 1.276
341.20 1.275
341.30 1.274
341.40 1.274
341.50 1.273
341.60 1.273
341.70 1.272
341.80 1.271
341.90 1.271
342.00 1.27
342.10 1.27
342.20 1.269
342.30 1.269
342.40 1.268
342.50 1.267
342.60 1.267
342.70 1.266
342.80 1.266
342.90 1.265
343.00 1.265
343.10 1.264
343.20 1.263
343.30 1.263
343.40 1.262
343.50 1.262
343.60 1.261
343.70 1.261
343.80 1.26
343.90 1.259
344.00 1.259
344.10 1.258
344.20 1.258
344.30 1.257
344.40 1.257
344.50 1.256
344.60 1.255
344.70 1.255
344.80 1.254
344.90 1.254
345.00 1.253
345.10 1.252
345.20 1.252
345.30 1.251
345.40 1.251
345.50 1.25
345.60 1.25
345.70 1.249
345.80 1.249
345.90 1.248
346.00 1.247
346.10 1.247
346.20 1.246
346.30 1.246
346.40 1.245
346.50 1.245
346.60 1.244
346.70 1.243
346.80 1.243
346.90 1.242
347.00 1.242
347.10 1.241
347.20 1.241
347.30 1.24
347.40 1.239
347.50 1.239
347.60 1.238
347.70 1.238
347.80 1.237
347.90 1.237
348.00 1.236
348.10 1.235
348.20 1.235
348.30 1.234
348.40 1.234
348.50 1.233
348.60 1.233
348.70 1.232
348.80 1.231
348.90 1.231
349.00 1.23
349.10 1.23
349.20 1.229
349.30 1.229
349.40 1.228
349.50 1.228
349.60 1.227
349.70 1.226
349.80 1.226
349.90 1.225
350.00 1.225
350.10 1.224
350.20 1.224
350.30 1.223
350.40 1.222
350.50 1.222
350.60 1.221
350.70 1.221
350.80 1.22
350.90 1.22
351.00 1.219
351.10 1.219
351.20 1.218
351.30 1.217
351.40 1.217
351.50 1.216
351.60 1.216
351.70 1.215
351.80 1.215
351.90 1.214
352.00 1.214
352.10 1.213
352.20 1.212
352.30 1.212
352.40 1.211
352.50 1.211
352.60 1.21
352.70 1.21
352.80 1.209
352.90 1.209
353.00 1.208
353.10 1.207
353.20 1.207
353.30 1.206
353.40 1.206
353.50 1.205
353.60 1.205
353.70 1.204
353.80 1.204
353.90 1.203
354.00 1.202
354.10 1.202
354.20 1.201
354.30 1.201
354.40 1.2
354.50 1.2
354.60 1.199
354.70 1.199
354.80 1.198
354.90 1.197
355.00 1.197
355.10 1.196
355.20 1.196
355.30 1.195
355.40 1.195
355.50 1.194
355.60 1.194
355.70 1.193
355.80 1.193
355.90 1.192
356.00 1.191
356.10 1.191
356.20 1.19
356.30 1.19
356.40 1.189
356.50 1.189
356.60 1.188
356.70 1.188
356.80 1.187
356.90 1.187
357.00 1.186
357.10 1.185
357.20 1.185
357.30 1.184
357.40 1.184
357.50 1.183
357.60 1.183
357.70 1.182
357.80 1.182
357.90 1.181
358.00 1.181
358.10 1.18
358.20 1.179
358.30 1.179
358.40 1.178
358.50 1.178
358.60 1.177
358.70 1.177
358.80 1.176
358.90 1.176
359.00 1.175
359.10 1.175
359.20 1.174
359.30 1.173
359.40 1.173
359.50 1.172
359.60 1.172
359.70 1.171
359.80 1.171
359.90 1.17
360.00 1.17
360.10 1.169
360.20 1.169
360.30 1.168
360.40 1.168
360.50 1.167
360.60 1.166
360.70 1.166
360.80 1.165
360.90 1.165
361.00 1.164
361.10 1.164
361.20 1.163
361.30 1.163
361.40 1.162
361.50 1.162
361.60 1.161
361.70 1.161
361.80 1.16
361.90 1.159
362.00 1.159
362.10 1.158
362.20 1.158
362.30 1.157
362.40 1.157
362.50 1.156
362.60 1.156
362.70 1.155
362.80 1.155
362.90 1.154
363.00 1.154
363.10 1.153
363.20 1.152
363.30 1.152
363.40 1.151
363.50 1.151
363.60 1.15
363.70 1.15
363.80 1.149
363.90 1.148
364.00 1.148
364.10 1.147
364.20 1.147
364.30 1.146
364.40 1.146
364.50 1.145
364.60 1.144
364.70 1.144
364.80 1.143
364.90 1.143
365.00 1.142
365.10 1.142
365.20 1.141
365.30 1.14
365.40 1.14
365.50 1.139
365.60 1.139
365.70 1.138
365.80 1.138
365.90 1.137
366.00 1.136
366.10 1.136
366.20 1.135
366.30 1.135
366.40 1.134
366.50 1.134
366.60 1.133
366.70 1.133
366.80 1.132
366.90 1.132
367.00 1.131
367.10 1.131
367.20 1.13
367.30 1.13
367.40 1.129
367.50 1.129
367.60 1.128
367.70 1.128
367.80 1.127
367.90 1.127
368.00 1.126
368.10 1.127
368.20 1.127
368.30 1.127
368.40 1.127
368.50 1.127
368.60 1.127
368.70 1.127
368.80 1.128
368.90 1.128
369.00 1.128
369.10 1.128
369.20 1.128
369.30 1.128
369.40 1.128
369.50 1.128
369.60 1.129
369.70 1.129
369.80 1.129
369.90 1.129
370.00 1.129
370.10 1.131
370.20 1.132
370.30 1.134
370.40 1.135
370.50 1.137
370.60 1.138
370.70 1.139
370.80 1.141
370.90 1.142
371.00 1.144
371.10 1.145
371.20 1.147
371.30 1.148
371.40 1.15
371.50 1.151
371.60 1.153
371.70 1.154
371.80 1.156
371.90 1.157
372.00 1.159
372.10 1.161
372.20 1.164
372.30 1.166
372.40 1.169
372.50 1.171
372.60 1.174
372.70 1.176
372.80 1.179
372.90 1.181
373.00 1.184
373.10 1.186
373.20 1.189
373.30 1.191
373.40 1.194
373.50 1.196
373.60 1.199
373.70 1.201
373.80 1.204
373.90 1.206
374.00 1.209
374.10 1.211
374.20 1.214
374.30 1.216
374.40 1.219
374.50 1.221
374.60 1.224
374.70 1.226
374.80 1.229
374.90 1.231
375.00 1.234
375.10 1.236
375.20 1.239
375.30 1.241
375.40 1.244
375.50 1.246
375.60 1.248
375.70 1.251
375.80 1.253
375.90 1.256
376.00 1.258
376.10 1.259
376.20 1.261
376.30 1.262
376.40 1.263
376.50 1.264
376.60 1.265
376.70 1.267
376.80 1.268
376.90 1.269
377.00 1.27
377.10 1.269
377.20 1.267
377.30 1.265
377.40 1.263
377.50 1.262
377.60 1.26
377.70 1.258
377.80 1.256
377.90 1.255
378.00 1.253
378.10 1.241
378.20 1.228
378.30 1.216
378.40 1.203
378.50 1.191
378.60 1.179
378.70 1.166
378.80 1.154
378.90 1.142
379.00 1.129
379.10 1.116
379.20 1.102
379.30 1.088
379.40 1.075
379.50 1.061
379.60 1.047
379.70 1.034
379.80 1.02
379.90 1.007
380.00 0.993
380.10 1.013
380.20 1.034
380.30 1.054
380.40 1.074
380.50 1.095
380.60 1.115
380.70 1.135
380.80 1.156
380.90 1.176
381.00 1.196
381.10 1.202
381.20 1.208
381.30 1.214
381.40 1.22
381.50 1.226
381.60 1.226
381.70 1.225
381.80 1.221
381.90 1.216
382.00 1.208
382.10 1.199
382.20 1.187
382.30 1.158
382.40 1.129
382.50 1.1
382.60 1.072
382.70 1.043
382.80 1.014
382.90 0.9854
383.00 0.9567
383.10 0.9281
383.20 0.8995
383.30 0.8629
383.40 0.8231
383.50 0.7834
383.60 0.7917
383.70 0.8321
383.80 0.8723
383.90 0.9091
384.00 0.9463
384.10 0.985
384.20 1.023
384.30 1.06
384.40 1.093
384.50 1.124
384.60 1.151
384.70 1.174
384.80 1.194
384.90 1.211
385.00 1.226
385.10 1.238
385.20 1.249
385.30 1.259
385.40 1.266
385.50 1.272
385.60 1.277
385.70 1.281
385.80 1.284
385.90 1.286
386.00 1.286
386.10 1.286
386.20 1.285
386.30 1.282
386.40 1.279
386.50 1.275
386.60 1.27
386.70 1.264
386.80 1.257
386.90 1.248
387.00 1.238
387.10 1.228
387.20 1.215
387.30 1.2
387.40 1.185
387.50 1.166
387.60 1.146
387.70 1.123
387.80 1.096
387.90 1.065
388.00 1.031
388.10 0.9899
388.20 0.946
388.30 0.8991
388.40 0.8487
388.50 0.7993
388.60 0.7509
388.70 0.7033
388.80 0.6578
388.90 0.6144
389.00 0.6545
389.10 0.6984
389.20 0.746
389.30 0.7941
389.40 0.8435
389.50 0.8941
389.60 0.9417
389.70 0.9865
389.80 1.029
389.90 1.064
390.00 1.096
390.10 1.125
390.20 1.15
390.30 1.172
390.40 1.193
390.50 1.21
390.60 1.227
390.70 1.242
390.80 1.256
390.90 1.269
391.00 1.281
391.10 1.291
391.20 1.301
391.30 1.31
391.40 1.318
391.50 1.326
391.60 1.333
391.70 1.339
391.80 1.345
391.90 1.35
392.00 1.354
392.10 1.358
392.20 1.361
392.30 1.364
392.40 1.366
392.50 1.368
392.60 1.369
392.70 1.369
392.80 1.369
392.90 1.369
393.00 1.368
393.10 1.366
393.20 1.364
393.30 1.361
393.40 1.358
393.50 1.354
393.60 1.349
393.70 1.344
393.80 1.338
393.90 1.332
394.00 1.325
394.10 1.317
394.20 1.308
394.30 1.299
394.40 1.289
394.50 1.279
394.60 1.268
394.70 1.255
394.80 1.242
394.90 1.228
395.00 1.213
395.10 1.197
395.20 1.18
395.30 1.161
395.40 1.141
395.50 1.12
395.60 1.097
395.70 1.072
395.80 1.046
395.90 1.015
396.00 0.9824
396.10 0.947
396.20 0.9054
396.30 0.8607
396.40 0.8128
396.50 0.7607
396.60 0.7093
396.70 0.6588
396.80 0.611
396.90 0.5586
397.00 0.5014
397.10 0.554
397.20 0.604
397.30 0.6515
397.40 0.7014
397.50 0.7522
397.60 0.8039
397.70 0.8519
397.80 0.8967
397.90 0.9383
398.00 0.9738
398.10 1.007
398.20 1.037
398.30 1.063
398.40 1.088
398.50 1.111
398.60 1.132
398.70 1.152
398.80 1.171
398.90 1.188
399.00 1.205
399.10 1.22
399.20 1.235
399.30 1.248
399.40 1.261
399.50 1.273
399.60 1.285
399.70 1.296
399.80 1.306
399.90 1.316
400.00 1.326
400.10 1.334
400.20 1.343
400.30 1.351
400.40 1.358
400.50 1.365
400.60 1.372
400.70 1.378
400.80 1.384
400.90 1.39
401.00 1.395
401.10 1.4
401.20 1.405
401.30 1.409
401.40 1.413
401.50 1.417
401.60 1.42
401.70 1.424
401.80 1.427
401.90 1.429
402.00 1.432
402.10 1.434
402.20 1.436
402.30 1.438
402.40 1.44
402.50 1.441
402.60 1.443
402.70 1.444
402.80 1.445
402.90 1.445
403.00 1.446
403.10 1.446
403.20 1.446
403.30 1.446
403.40 1.446
403.50 1.445
403.60 1.444
403.70 1.444
403.80 1.443
403.90 1.441
404.00 1.44
404.10 1.438
404.20 1.437
404.30 1.435
404.40 1.432
404.50 1.43
404.60 1.427
404.70 1.424
404.80 1.421
404.90 1.418
405.00 1.414
405.10 1.411
405.20 1.407
405.30 1.402
405.40 1.398
405.50 1.393
405.60 1.388
405.70 1.383
405.80 1.377
405.90 1.371
406.00 1.365
406.10 1.359
406.20 1.352
406.30 1.345
406.40 1.338
406.50 1.33
406.60 1.322
406.70 1.314
406.80 1.305
406.90 1.295
407.00 1.286
407.10 1.275
407.20 1.265
407.30 1.253
407.40 1.241
407.50 1.229
407.60 1.215
407.70 1.201
407.80 1.187
407.90 1.171
408.00 1.155
408.10 1.139
408.20 1.121
408.30 1.102
408.40 1.083
408.50 1.062
408.60 1.04
408.70 1.017
408.80 0.9927
408.90 0.9671
409.00 0.9404
409.10 0.9107
409.20 0.8792
409.30 0.8458
409.40 0.8077
409.50 0.7674
409.60 0.7248
409.70 0.6797
409.80 0.6353
409.90 0.5914
410.00 0.5462
410.10 0.5006
410.20 0.4545
410.30 0.5178
410.40 0.5709
410.50 0.6138
410.60 0.6582
410.70 0.7025
410.80 0.7465
410.90 0.787
411.00 0.825
411.10 0.8606
411.20 0.8918
411.30 0.9212
411.40 0.9489
411.50 0.974
411.60 0.9979
411.70 1.021
411.80 1.042
411.90 1.062
412.00 1.082
412.10 1.099
412.20 1.117
412.30 1.133
412.40 1.148
412.50 1.163
412.60 1.177
412.70 1.19
412.80 1.203
412.90 1.215
413.00 1.226
413.10 1.237
413.20 1.247
413.30 1.257
413.40 1.266
413.50 1.275
413.60 1.283
413.70 1.291
413.80 1.298
413.90 1.305
414.00 1.312
414.10 1.319
414.20 1.325
414.30 1.331
414.40 1.337
414.50 1.342
414.60 1.348
414.70 1.353
414.80 1.357
414.90 1.362
415.00 1.366
415.10 1.37
415.20 1.374
415.30 1.378
415.40 1.382
415.50 1.385
415.60 1.389
415.70 1.392
415.80 1.395
415.90 1.398
416.00 1.401
416.10 1.403
416.20 1.406
416.30 1.408
416.40 1.41
416.50 1.412
416.60 1.414
416.70 1.416
416.80 1.418
416.90 1.419
417.00 1.421
417.10 1.422
417.20 1.424
417.30 1.425
417.40 1.426
417.50 1.427
417.60 1.429
417.70 1.43
417.80 1.431
417.90 1.432
418.00 1.433
418.10 1.433
418.20 1.434
418.30 1.435
418.40 1.435
418.50 1.436
418.60 1.437
418.70 1.437
418.80 1.437
418.90 1.438
419.00 1.438
419.10 1.438
419.20 1.439
419.30 1.439
419.40 1.439
419.50 1.439
419.60 1.439
419.70 1.439
419.80 1.439
419.90 1.439
420.00 1.439
420.10 1.439
420.20 1.439
420.30 1.439
420.40 1.439
420.50 1.438
420.60 1.438
420.70 1.438
420.80 1.437
420.90 1.437
421.00 1.437
421.10 1.436
421.20 1.436
421.30 1.435
421.40 1.435
421.50 1.434
421.60 1.434
421.70 1.433
421.80 1.433
421.90 1.432
422.00 1.431
422.10 1.43
422.20 1.43
422.30 1.429
422.40 1.428
422.50 1.427
422.60 1.427
422.70 1.426
422.80 1.425
422.90 1.424
423.00 1.423
423.10 1.422
423.20 1.421
423.30 1.42
423.40 1.419
423.50 1.418
423.60 1.416
423.70 1.415
423.80 1.414
423.90 1.413
424.00 1.412
424.10 1.41
424.20 1.409
424.30 1.408
424.40 1.406
424.50 1.405
424.60 1.403
424.70 1.402
424.80 1.4
424.90 1.399
425.00 1.397
425.10 1.396
425.20 1.394
425.30 1.392
425.40 1.39
425.50 1.389
425.60 1.387
425.70 1.385
425.80 1.383
425.90 1.381
426.00 1.379
426.10 1.377
426.20 1.374
426.30 1.372
426.40 1.37
426.50 1.367
426.60 1.365
426.70 1.362
426.80 1.36
426.90 1.357
427.00 1.355
427.10 1.352
427.20 1.349
427.30 1.346
427.40 1.343
427.50 1.34
427.60 1.337
427.70 1.334
427.80 1.33
427.90 1.327
428.00 1.324
428.10 1.32
428.20 1.316
428.30 1.312
428.40 1.308
428.50 1.304
428.60 1.3
428.70 1.295
428.80 1.291
428.90 1.286
429.00 1.281
429.10 1.276
429.20 1.271
429.30 1.266
429.40 1.26
429.50 1.255
429.60 1.249
429.70 1.243
429.80 1.236
429.90 1.23
430.00 1.223
430.10 1.216
430.20 1.209
430.30 1.201
430.40 1.194
430.50 1.185
430.60 1.177
430.70 1.168
430.80 1.159
430.90 1.15
431.00 1.14
431.10 1.131
431.20 1.12
431.30 1.11
431.40 1.099
431.50 1.087
431.60 1.075
431.70 1.062
431.80 1.049
431.90 1.035
432.00 1.02
432.10 1.004
432.20 0.9865
432.30 0.968
432.40 0.9485
432.50 0.9265
432.60 0.9031
432.70 0.8783
432.80 0.8515
432.90 0.8244
433.00 0.7968
433.10 0.7694
433.20 0.7414
433.30 0.7129
433.40 0.6812
433.50 0.6478
433.60 0.6126
433.70 0.5761
433.80 0.5388
433.90 0.5006
434.00 0.4231
434.10 0.4242
434.20 0.5038
434.30 0.5413
434.40 0.5781
434.50 0.6143
434.60 0.6488
434.70 0.6816
434.80 0.7125
434.90 0.7403
435.00 0.7676
435.10 0.7943
435.20 0.8211
435.30 0.8473
435.40 0.8731
435.50 0.8968
435.60 0.9191
435.70 0.94
435.80 0.9584
435.90 0.9756
436.00 0.9919
436.10 1.006
436.20 1.02
436.30 1.034
436.40 1.046
436.50 1.057
436.60 1.068
436.70 1.078
436.80 1.088
436.90 1.098
437.00 1.107
437.10 1.115
437.20 1.124
437.30 1.132
437.40 1.139
437.50 1.147
437.60 1.154
437.70 1.16
437.80 1.167
437.90 1.173
438.00 1.179
438.10 1.185
438.20 1.19
438.30 1.195
438.40 1.2
438.50 1.205
438.60 1.21
438.70 1.214
438.80 1.218
438.90 1.222
439.00 1.226
439.10 1.23
439.20 1.233
439.30 1.236
439.40 1.24
439.50 1.243
439.60 1.246
439.70 1.248
439.80 1.251
439.90 1.254
440.00 1.256
440.10 1.258
440.20 1.261
440.30 1.263
440.40 1.265
440.50 1.267
440.60 1.269
440.70 1.27
440.80 1.272
440.90 1.274
441.00 1.275
441.10 1.277
441.20 1.278
441.30 1.279
441.40 1.281
441.50 1.282
441.60 1.283
441.70 1.284
441.80 1.285
441.90 1.286
442.00 1.287
442.10 1.288
442.20 1.289
442.30 1.289
442.40 1.29
442.50 1.291
442.60 1.292
442.70 1.292
442.80 1.293
442.90 1.293
443.00 1.294
443.10 1.294
443.20 1.295
443.30 1.295
443.40 1.296
443.50 1.296
443.60 1.296
443.70 1.297
443.80 1.297
443.90 1.297
444.00 1.297
444.10 1.298
444.20 1.298
444.30 1.298
444.40 1.298
444.50 1.298
444.60 1.298
444.70 1.298
444.80 1.298
444.90 1.299
445.00 1.299
445.10 1.299
445.20 1.299
445.30 1.299
445.40 1.298
445.50 1.298
445.60 1.298
445.70 1.298
445.80 1.298
445.90 1.298
446.00 1.298
446.10 1.298
446.20 1.298
446.30 1.297
446.40 1.297
446.50 1.297
446.60 1.297
446.70 1.297
446.80 1.296
446.90 1.296
447.00 1.296
447.10 1.296
447.20 1.295
447.30 1.295
447.40 1.295
447.50 1.295
447.60 1.294
447.70 1.294
447.80 1.294
447.90 1.293
448.00 1.293
448.10 1.293
448.20 1.292
448.30 1.292
448.40 1.292
448.50 1.291
448.60 1.291
448.70 1.291
448.80 1.29
448.90 1.29
449.00 1.29
449.10 1.289
449.20 1.289
449.30 1.288
449.40 1.288
449.50 1.288
449.60 1.287
449.70 1.287
449.80 1.286
449.90 1.286
450.00 1.285
450.10 1.285
450.20 1.284
450.30 1.284
450.40 1.284
450.50 1.283
450.60 1.283
450.70 1.282
450.80 1.282
450.90 1.281
451.00 1.281
451.10 1.28
451.20 1.28
451.30 1.279
451.40 1.279
451.50 1.278
451.60 1.278
451.70 1.277
451.80 1.277
451.90 1.276
452.00 1.276
452.10 1.275
452.20 1.275
452.30 1.274
452.40 1.274
452.50 1.273
452.60 1.272
452.70 1.272
452.80 1.271
452.90 1.271
453.00 1.27
453.10 1.27
453.20 1.269
453.30 1.269
453.40 1.268
453.50 1.268
453.60 1.267
453.70 1.267
453.80 1.266
453.90 1.265
454.00 1.265
454.10 1.264
454.20 1.264
454.30 1.263
454.40 1.263
454.50 1.262
454.60 1.261
454.70 1.261
454.80 1.26
454.90 1.26
455.00 1.259
455.10 1.259
455.20 1.258
455.30 1.257
455.40 1.257
455.50 1.256
455.60 1.256
455.70 1.255
455.80 1.255
455.90 1.254
456.00 1.253
456.10 1.253
456.20 1.252
456.30 1.252
456.40 1.251
456.50 1.25
456.60 1.25
456.70 1.249
456.80 1.249
456.90 1.248
457.00 1.248
457.10 1.247
457.20 1.246
457.30 1.246
457.40 1.245
457.50 1.245
457.60 1.244
457.70 1.243
457.80 1.243
457.90 1.242
458.00 1.242
458.10 1.241
458.20 1.24
458.30 1.24
458.40 1.239
458.50 1.239
458.60 1.238
458.70 1.237
458.80 1.237
458.90 1.236
459.00 1.235
459.10 1.235
459.20 1.234
459.30 1.234
459.40 1.233
459.50 1.232
459.60 1.232
459.70 1.231
459.80 1.23
459.90 1.23
460.00 1.229
460.10 1.229
460.20 1.228
460.30 1.227
460.40 1.227
460.50 1.226
460.60 1.225
460.70 1.225
460.80 1.224
460.90 1.224
461.00 1.223
461.10 1.222
461.20 1.222
461.30 1.221
461.40 1.22
461.50 1.22
461.60 1.219
461.70 1.218
461.80 1.218
461.90 1.217
462.00 1.217
462.10 1.216
462.20 1.215
462.30 1.215
462.40 1.214
462.50 1.213
462.60 1.213
462.70 1.212
462.80 1.211
462.90 1.211
463.00 1.21
463.10 1.209
463.20 1.209
463.30 1.208
463.40 1.207
463.50 1.207
463.60 1.206
463.70 1.205
463.80 1.205
463.90 1.204
464.00 1.203
464.10 1.203
464.20 1.202
464.30 1.201
464.40 1.201
464.50 1.2
464.60 1.199
464.70 1.199
464.80 1.198
464.90 1.197
465.00 1.197
465.10 1.196
465.20 1.195
465.30 1.195
465.40 1.194
465.50 1.193
465.60 1.193
465.70 1.192
465.80 1.191
465.90 1.191
466.00 1.19
466.10 1.189
466.20 1.188
466.30 1.188
466.40 1.187
466.50 1.186
466.60 1.186
466.70 1.185
466.80 1.184
466.90 1.183
467.00 1.183
467.10 1.182
467.20 1.181
467.30 1.181
467.40 1.18
467.50 1.179
467.60 1.178
467.70 1.178
467.80 1.177
467.90 1.176
468.00 1.176
468.10 1.175
468.20 1.174
468.30 1.173
468.40 1.173
468.50 1.172
468.60 1.171
468.70 1.17
468.80 1.17
468.90 1.169
469.00 1.168
469.10 1.167
469.20 1.166
469.30 1.166
469.40 1.165
469.50 1.164
469.60 1.163
469.70 1.163
469.80 1.162
469.90 1.161
470.00 1.16
470.10 1.159
470.20 1.159
470.30 1.158
470.40 1.157
470.50 1.156
470.60 1.155
470.70 1.155
470.80 1.154
470.90 1.153
471.00 1.152
471.10 1.151
471.20 1.15
471.30 1.15
471.40 1.149
471.50 1.148
471.60 1.147
471.70 1.146
471.80 1.145
471.90 1.144
472.00 1.143
472.10 1.143
472.20 1.142
472.30 1.141
472.40 1.14
472.50 1.139
472.60 1.138
472.70 1.137
472.80 1.136
472.90 1.135
473.00 1.134
473.10 1.133
473.20 1.132
473.30 1.131
473.40 1.13
473.50 1.129
473.60 1.128
473.70 1.127
473.80 1.126
473.90 1.125
474.00 1.124
474.10 1.123
474.20 1.122
474.30 1.121
474.40 1.119
474.50 1.118
474.60 1.117
474.70 1.116
474.80 1.115
474.90 1.114
475.00 1.112
475.10 1.111
475.20 1.11
475.30 1.109
475.40 1.107
475.50 1.106
475.60 1.105
475.70 1.104
475.80 1.102
475.90 1.101
476.00 1.1
476.10 1.098
476.20 1.097
476.30 1.095
476.40 1.094
476.50 1.092
476.60 1.091
476.70 1.089
476.80 1.088
476.90 1.086
477.00 1.085
477.10 1.083
477.20 1.082
477.30 1.08
477.40 1.078
477.50 1.076
477.60 1.075
477.70 1.073
477.80 1.071
477.90 1.069
478.00 1.068
478.10 1.066
478.20 1.064
478.30 1.062
478.40 1.06
478.50 1.057
478.60 1.055
478.70 1.053
478.80 1.051
478.90 1.049
479.00 1.047
479.10 1.044
479.20 1.042
479.30 1.039
479.40 1.036
479.50 1.034
479.60 1.031
479.70 1.028
479.80 1.026
479.90 1.023
480.00 1.02
480.10 1.018
480.20 1.014
480.30 1.011
480.40 1.007
480.50 1.004
480.60 1.001
480.70 0.9971
480.80 0.9937
480.90 0.9902
481.00 0.9868
481.10 0.9834
481.20 0.9791
481.30 0.9744
481.40 0.9698
481.50 0.9651
481.60 0.9604
481.70 0.9558
481.80 0.9511
481.90 0.9465
482.00 0.9419
482.10 0.9372
482.20 0.9313
482.30 0.9247
482.40 0.9181
482.50 0.9116
482.60 0.905
482.70 0.8985
482.80 0.892
482.90 0.8854
483.00 0.8789
483.10 0.8724
483.20 0.8636
483.30 0.8537
483.40 0.8438
483.50 0.8339
483.60 0.8241
483.70 0.8142
483.80 0.8044
483.90 0.7945
484.00 0.7847
484.10 0.7749
484.20 0.7623
484.30 0.7485
484.40 0.7348
484.50 0.721
484.60 0.7072
484.70 0.6914
484.80 0.6747
484.90 0.658
485.00 0.6413
485.10 0.6246
485.20 0.6068
485.30 0.5885
485.40 0.5695
485.50 0.5502
485.60 0.5297
485.70 0.5087
485.80 0.4855
485.90 0.4613
486.00 0.4322
486.10 0.3485
486.20 0.3932
486.30 0.4433
486.40 0.4688
486.50 0.4928
486.60 0.5145
486.70 0.5352
486.80 0.5546
486.90 0.5735
487.00 0.5917
487.10 0.6095
487.20 0.6261
487.30 0.6422
487.40 0.6583
487.50 0.6744
487.60 0.6904
487.70 0.7044
487.80 0.7175
487.90 0.7305
488.00 0.7435
488.10 0.7565
488.20 0.7667
488.30 0.7757
488.40 0.7847
488.50 0.7937
488.60 0.8026
488.70 0.8116
488.80 0.8205
488.90 0.8295
489.00 0.8384
489.10 0.8473
489.20 0.854
489.30 0.8595
489.40 0.865
489.50 0.8706
489.60 0.8761
489.70 0.8817
489.80 0.8872
489.90 0.8927
490.00 0.8982
490.10 0.9037
490.20 0.9079
490.30 0.9115
490.40 0.9151
490.50 0.9187
490.60 0.9223
490.70 0.9259
490.80 0.9294
490.90 0.933
491.00 0.9366
491.10 0.9401
491.20 0.9429
491.30 0.9452
491.40 0.9476
491.50 0.9499
491.60 0.9522
491.70 0.9546
491.80 0.9569
491.90 0.9592
492.00 0.9615
492.10 0.9639
492.20 0.9657
492.30 0.9672
492.40 0.9688
492.50 0.9704
492.60 0.972
492.70 0.9736
492.80 0.9752
492.90 0.9767
493.00 0.9783
493.10 0.9799
493.20 0.9811
493.30 0.9821
493.40 0.9832
493.50 0.9842
493.60 0.9852
493.70 0.9863
493.80 0.9873
493.90 0.9883
494.00 0.9893
494.10 0.9904
494.20 0.9911
494.30 0.9918
494.40 0.9924
494.50 0.993
494.60 0.9937
494.70 0.9943
494.80 0.9949
494.90 0.9955
495.00 0.9962
495.10 0.9968
495.20 0.9972
495.30 0.9976
495.40 0.998
495.50 0.9983
495.60 0.9987
495.70 0.999
495.80 0.9994
495.90 0.9998
496.00 1
496.10 1
496.20 1.001
496.30 1.001
496.40 1.001
496.50 1.001
496.60 1.001
496.70 1.002
496.80 1.002
496.90 1.002
497.00 1.002
497.10 1.002
497.20 1.002
497.30 1.002
497.40 1.002
497.50 1.002
497.60 1.002
497.70 1.002
497.80 1.002
497.90 1.002
498.00 1.002
498.10 1.002
498.20 1.002
498.30 1.002
498.40 1.002
498.50 1.002
498.60 1.002
498.70 1.002
498.80 1.002
498.90 1.002
499.00 1.002
499.10 1.002
499.20 1.001
499.30 1.001
499.40 1.001
499.50 1.001
499.60 1.001
499.70 1.001
499.80 1
499.90 1
500.00 1
500.10 0.9998
500.20 0.9996
500.30 0.9994
500.40 0.9991
500.50 0.9989
500.60 0.9987
500.70 0.9984
500.80 0.9982
500.90 0.998
501.00 0.9977
501.10 0.9975
501.20 0.9972
501.30 0.997
501.40 0.9967
501.50 0.9964
501.60 0.9961
501.70 0.9959
501.80 0.9956
501.90 0.9953
502.00 0.995
502.10 0.9947
502.20 0.9944
502.30 0.9941
502.40 0.9938
502.50 0.9935
502.60 0.9932
502.70 0.9929
502.80 0.9925
502.90 0.9922
503.00 0.9919
503.10 0.9916
503.20 0.9913
503.30 0.9909
503.40 0.9906
503.50 0.9902
503.60 0.9899
503.70 0.9895
503.80 0.9892
503.90 0.9889
504.00 0.9885
504.10 0.9882
504.20 0.9878
504.30 0.9875
504.40 0.9871
504.50 0.9867
504.60 0.9864
504.70 0.986
504.80 0.9856
504.90 0.9853
505.00 0.9849
505.10 0.9845
505.20 0.9842
505.30 0.9838
505.40 0.9834
505.50 0.983
505.60 0.9826
505.70 0.9823
505.80 0.9819
505.90 0.9815
506.00 0.9811
506.10 0.9807
506.20 0.9803
506.30 0.9799
506.40 0.9795
506.50 0.9792
506.60 0.9788
506.70 0.9784
506.80 0.978
506.90 0.9776
507.00 0.9772
507.10 0.9768
507.20 0.9764
507.30 0.976
507.40 0.9756
507.50 0.9752
507.60 0.9748
507.70 0.9744
507.80 0.974
507.90 0.9735
508.00 0.9731
508.10 0.9727
508.20 0.9723
508.30 0.9719
508.40 0.9715
508.50 0.9711
508.60 0.9707
508.70 0.9703
508.80 0.9698
508.90 0.9694
509.00 0.969
509.10 0.9686
509.20 0.9682
509.30 0.9678
509.40 0.9674
509.50 0.9669
509.60 0.9665
509.70 0.9661
509.80 0.9657
509.90 0.9653
510.00 0.9648
510.10 0.9644
510.20 0.964
510.30 0.9636
510.40 0.9631
510.50 0.9627
510.60 0.9623
510.70 0.9619
510.80 0.9614
510.90 0.961
511.00 0.9606
511.10 0.9602
511.20 0.9597
511.30 0.9593
511.40 0.9589
511.50 0.9585
511.60 0.958
511.70 0.9576
511.80 0.9572
511.90 0.9567
512.00 0.9563
512.10 0.9559
512.20 0.9555
512.30 0.955
512.40 0.9546
512.50 0.9542
512.60 0.9537
512.70 0.9533
512.80 0.9529
512.90 0.9524
513.00 0.952
513.10 0.9516
513.20 0.9512
513.30 0.9507
513.40 0.9503
513.50 0.9499
513.60 0.9494
513.70 0.949
513.80 0.9486
513.90 0.9481
514.00 0.9477
514.10 0.9473
514.20 0.9468
514.30 0.9464
514.40 0.946
514.50 0.9455
514.60 0.9451
514.70 0.9447
514.80 0.9442
514.90 0.9438
515.00 0.9434
515.10 0.9429
515.20 0.9425
515.30 0.9421
515.40 0.9416
515.50 0.9412
515.60 0.9408
515.70 0.9403
515.80 0.9399
515.90 0.9395
516.00 0.939
516.10 0.9386
516.20 0.9382
516.30 0.9377
516.40 0.9373
516.50 0.9369
516.60 0.9364
516.70 0.936
516.80 0.9356
516.90 0.9351
517.00 0.9347
517.10 0.9343
517.20 0.9338
517.30 0.9334
517.40 0.933
517.50 0.9325
517.60 0.9321
517.70 0.9317
517.80 0.9312
517.90 0.9308
518.00 0.9304
518.10 0.9299
518.20 0.9295
518.30 0.9291
518.40 0.9286
518.50 0.9282
518.60 0.9278
518.70 0.9273
518.80 0.9269
518.90 0.9265
519.00 0.926
519.10 0.9256
519.20 0.9252
519.30 0.9247
519.40 0.9243
519.50 0.9239
519.60 0.9235
519.70 0.923
519.80 0.9226
519.90 0.9222
520.00 0.9217
520.10 0.9213
520.20 0.9209
520.30 0.9204
520.40 0.92
520.50 0.9196
520.60 0.9191
520.70 0.9187
520.80 0.9183
520.90 0.9178
521.00 0.9174
521.10 0.917
521.20 0.9166
521.30 0.9161
521.40 0.9157
521.50 0.9153
521.60 0.9148
521.70 0.9144
521.80 0.914
521.90 0.9135
522.00 0.9131
522.10 0.9127
522.20 0.9123
522.30 0.9118
522.40 0.9114
522.50 0.911
522.60 0.9105
522.70 0.9101
522.80 0.9097
522.90 0.9093
523.00 0.9088
523.10 0.9084
523.20 0.908
523.30 0.9075
523.40 0.9071
523.50 0.9067
523.60 0.9063
523.70 0.9058
523.80 0.9054
523.90 0.905
524.00 0.9046
524.10 0.9041
524.20 0.9037
524.30 0.9033
524.40 0.9028
524.50 0.9024
524.60 0.902
524.70 0.9016
524.80 0.9011
524.90 0.9007
525.00 0.9003
525.10 0.8999
525.20 0.8995
525.30 0.899
525.40 0.8986
525.50 0.8982
525.60 0.8977
525.70 0.8973
525.80 0.8969
525.90 0.8965
526.00 0.896
526.10 0.8956
526.20 0.8952
526.30 0.8948
526.40 0.8944
526.50 0.8939
526.60 0.8935
526.70 0.8931
526.80 0.8927
526.90 0.8923
527.00 0.8918
527.10 0.8914
527.20 0.891
527.30 0.8906
527.40 0.8901
527.50 0.8897
527.60 0.8893
527.70 0.8889
527.80 0.8885
527.90 0.888
528.00 0.8876
528.10 0.8872
528.20 0.8868
528.30 0.8863
528.40 0.8859
528.50 0.8855
528.60 0.8851
528.70 0.8847
528.80 0.8843
528.90 0.8838
529.00 0.8834
529.10 0.883
529.20 0.8826
529.30 0.8822
529.40 0.8818
529.50 0.8813
529.60 0.8809
529.70 0.8805
529.80 0.8801
529.90 0.8797
530.00 0.8793
530.10 0.8788
530.20 0.8784
530.30 0.878
530.40 0.8776
530.50 0.8772
530.60 0.8767
530.70 0.8763
530.80 0.8759
530.90 0.8755
531.00 0.8751
531.10 0.8747
531.20 0.8743
531.30 0.8738
531.40 0.8734
531.50 0.873
531.60 0.8726
531.70 0.8722
531.80 0.8718
531.90 0.8714
532.00 0.871
532.10 0.8705
532.20 0.8701
532.30 0.8697
532.40 0.8693
532.50 0.8689
532.60 0.8685
532.70 0.8681
532.80 0.8677
532.90 0.8673
533.00 0.8668
533.10 0.8664
533.20 0.866
533.30 0.8656
533.40 0.8652
533.50 0.8648
533.60 0.8644
533.70 0.864
533.80 0.8636
533.90 0.8632
534.00 0.8627
534.10 0.8623
534.20 0.8619
534.30 0.8615
534.40 0.8611
534.50 0.8607
534.60 0.8603
534.70 0.8599
534.80 0.8595
534.90 0.8591
535.00 0.8587
535.10 0.8583
535.20 0.8578
535.30 0.8574
535.40 0.857
535.50 0.8566
535.60 0.8562
535.70 0.8558
535.80 0.8554
535.90 0.855
536.00 0.8546
536.10 0.8542
536.20 0.8538
536.30 0.8534
536.40 0.853
536.50 0.8526
536.60 0.8522
536.70 0.8518
536.80 0.8514
536.90 0.851
537.00 0.8506
537.10 0.8502
537.20 0.8498
537.30 0.8494
537.40 0.849
537.50 0.8486
537.60 0.8482
537.70 0.8478
537.80 0.8474
537.90 0.847
538.00 0.8466
538.10 0.8462
538.20 0.8457
538.30 0.8453
538.40 0.8449
538.50 0.8445
538.60 0.8441
538.70 0.8437
538.80 0.8433
538.90 0.8429
539.00 0.8425
539.10 0.8421
539.20 0.8417
539.30 0.8414
539.40 0.841
539.50 0.8406
539.60 0.8402
539.70 0.8398
539.80 0.8394
539.90 0.839
540.00 0.8386
540.10 0.8382
540.20 0.8378
540.30 0.8374
540.40 0.837
540.50 0.8366
540.60 0.8362
540.70 0.8358
540.80 0.8354
540.90 0.835
541.00 0.8346
541.10 0.8342
541.20 0.8338
541.30 0.8334
541.40 0.833
541.50 0.8326
541.60 0.8323
541.70 0.8319
541.80 0.8315
541.90 0.8311
542.00 0.8307
542.10 0.8303
542.20 0.8299
542.30 0.8295
542.40 0.8291
542.50 0.8287
542.60 0.8283
542.70 0.8279
542.80 0.8276
542.90 0.8272
543.00 0.8268
543.10 0.8264
543.20 0.826
543.30 0.8256
543.40 0.8252
543.50 0.8248
543.60 0.8244
543.70 0.824
543.80 0.8236
543.90 0.8233
544.00 0.8229
544.10 0.8225
544.20 0.8221
544.30 0.8217
544.40 0.8213
544.50 0.8209
544.60 0.8205
544.70 0.8202
544.80 0.8198
544.90 0.8194
545.00 0.819
545.10 0.8186
545.20 0.8182
545.30 0.8178
545.40 0.8175
545.50 0.8171
545.60 0.8167
545.70 0.8163
545.80 0.8159
545.90 0.8155
546.00 0.8151
546.10 0.8148
546.20 0.8144
546.30 0.814
546.40 0.8137
546.50 0.8133
546.60 0.813
546.70 0.8126
546.80 0.8122
546.90 0.8119
547.00 0.8115
547.10 0.8112
547.20 0.8108
547.30 0.8104
547.40 0.81
547.50 0.8097
547.60 0.8093
547.70 0.8089
547.80 0.8085
547.90 0.8081
548.00 0.8077
548.10 0.8074
548.20 0.807
548.30 0.8066
548.40 0.8062
548.50 0.8058
548.60 0.8054
548.70 0.8051
548.80 0.8047
548.90 0.8043
549.00 0.8039
549.10 0.8035
549.20 0.8032
549.30 0.8028
549.40 0.8024
549.50 0.802
549.60 0.8017
549.70 0.8013
549.80 0.8009
549.90 0.8005
550.00 0.8002
550.10 0.7998
550.20 0.7994
550.30 0.799
550.40 0.7986
550.50 0.7983
550.60 0.7979
550.70 0.7975
550.80 0.7971
550.90 0.7968
551.00 0.7964
551.10 0.796
551.20 0.7956
551.30 0.7953
551.40 0.7949
551.50 0.7945
551.60 0.7941
551.70 0.7938
551.80 0.7934
551.90 0.793
552.00 0.7926
552.10 0.7923
552.20 0.7919
552.30 0.7915
552.40 0.7911
552.50 0.7908
552.60 0.7904
552.70 0.79
552.80 0.7897
552.90 0.7893
553.00 0.7889
553.10 0.7885
553.20 0.7882
553.30 0.7878
553.40 0.7874
553.50 0.7871
553.60 0.7867
553.70 0.7863
553.80 0.7859
553.90 0.7856
554.00 0.7852
554.10 0.7848
554.20 0.7845
554.30 0.7841
554.40 0.7837
554.50 0.7834
554.60 0.783
554.70 0.7826
554.80 0.7823
554.90 0.7819
555.00 0.7815
555.10 0.7812
555.20 0.7808
555.30 0.7804
555.40 0.7801
555.50 0.7797
555.60 0.7793
555.70 0.779
555.80 0.7786
555.90 0.7782
556.00 0.7779
556.10 0.7775
556.20 0.7771
556.30 0.7768
556.40 0.7764
556.50 0.776
556.60 0.7757
556.70 0.7753
556.80 0.7749
556.90 0.7746
557.00 0.7742
557.10 0.7739
557.20 0.7735
557.30 0.7731
557.40 0.7728
557.50 0.7724
557.60 0.772
557.70 0.7717
557.80 0.7713
557.90 0.771
558.00 0.7706
558.10 0.7702
558.20 0.7699
558.30 0.7695
558.40 0.7692
558.50 0.7688
558.60 0.7684
558.70 0.7681
558.80 0.7677
558.90 0.7674
559.00 0.767
559.10 0.7666
559.20 0.7663
559.30 0.7659
559.40 0.7656
559.50 0.7652
559.60 0.7648
559.70 0.7645
559.80 0.7641
559.90 0.7638
560.00 0.7634
560.10 0.763
560.20 0.7627
560.30 0.7623
560.40 0.762
560.50 0.7616
560.60 0.7613
560.70 0.7609
560.80 0.7606
560.90 0.7602
561.00 0.7598
561.10 0.7595
561.20 0.7591
561.30 0.7588
561.40 0.7584
561.50 0.7581
561.60 0.7577
561.70 0.7574
561.80 0.757
561.90 0.7567
562.00 0.7563
562.10 0.7559
562.20 0.7556
562.30 0.7552
562.40 0.7549
562.50 0.7545
562.60 0.7542
562.70 0.7538
562.80 0.7535
562.90 0.7531
563.00 0.7528
563.10 0.7524
563.20 0.7521
563.30 0.7517
563.40 0.7514
563.50 0.751
563.60 0.7507
563.70 0.7503
563.80 0.75
563.90 0.7496
564.00 0.7493
564.10 0.7489
564.20 0.7486
564.30 0.7482
564.40 0.7479
564.50 0.7475
564.60 0.7472
564.70 0.7468
564.80 0.7465
564.90 0.7461
565.00 0.7458
565.10 0.7454
565.20 0.7451
565.30 0.7447
565.40 0.7444
565.50 0.744
565.60 0.7437
565.70 0.7433
565.80 0.743
565.90 0.7427
566.00 0.7423
566.10 0.742
566.20 0.7416
566.30 0.7413
566.40 0.7409
566.50 0.7406
566.60 0.7402
566.70 0.7399
566.80 0.7395
566.90 0.7392
567.00 0.7389
567.10 0.7385
567.20 0.7382
567.30 0.7378
567.40 0.7375
567.50 0.7371
567.60 0.7368
567.70 0.7365
567.80 0.7361
567.90 0.7358
568.00 0.7354
568.10 0.7351
568.20 0.7347
568.30 0.7344
568.40 0.7341
568.50 0.7337
568.60 0.7334
568.70 0.733
568.80 0.7327
568.90 0.7324
569.00 0.732
569.10 0.7317
569.20 0.7313
569.30 0.731
569.40 0.7307
569.50 0.7303
569.60 0.73
569.70 0.7296
569.80 0.7293
569.90 0.729
570.00 0.7286
570.10 0.7283
570.20 0.728
570.30 0.7276
570.40 0.7273
570.50 0.7269
570.60 0.7266
570.70 0.7263
570.80 0.7259
570.90 0.7256
571.00 0.7253
571.10 0.7249
571.20 0.7246
571.30 0.7242
571.40 0.7239
571.50 0.7236
571.60 0.7232
571.70 0.7229
571.80 0.7226
571.90 0.7222
572.00 0.7219
572.10 0.7216
572.20 0.7212
572.30 0.7209
572.40 0.7206
572.50 0.7202
572.60 0.7199
572.70 0.7196
572.80 0.7192
572.90 0.7189
573.00 0.7186
573.10 0.7182
573.20 0.7179
573.30 0.7176
573.40 0.7172
573.50 0.7169
573.60 0.7166
573.70 0.7162
573.80 0.7159
573.90 0.7156
574.00 0.7152
574.10 0.7149
574.20 0.7146
574.30 0.7143
574.40 0.7139
574.50 0.7136
574.60 0.7133
574.70 0.7129
574.80 0.7126
574.90 0.7123
575.00 0.7119
575.10 0.7116
575.20 0.7113
575.30 0.711
575.40 0.7106
575.50 0.7103
575.60 0.71
575.70 0.7096
575.80 0.7093
575.90 0.709
576.00 0.7087
576.10 0.7083
576.20 0.708
576.30 0.7077
576.40 0.7074
576.50 0.707
576.60 0.7067
576.70 0.7064
576.80 0.706
576.90 0.7057
577.00 0.7054
577.10 0.7051
577.20 0.7047
577.30 0.7044
577.40 0.7041
577.50 0.7038
577.60 0.7034
577.70 0.7031
577.80 0.7028
577.90 0.7025
578.00 0.7021
578.10 0.7018
578.20 0.7015
578.30 0.7012
578.40 0.7009
578.50 0.7005
578.60 0.7002
578.70 0.6999
578.80 0.6996
578.90 0.6992
579.00 0.6989
579.10 0.6986
579.20 0.6983
579.30 0.6979
579.40 0.6976
579.50 0.6973
579.60 0.697
579.70 0.6967
579.80 0.6963
579.90 0.696
580.00 0.6957
580.10 0.6954
580.20 0.6951
580.30 0.6947
580.40 0.6944
580.50 0.6941
580.60 0.6938
580.70 0.6935
580.80 0.6931
580.90 0.6928
581.00 0.6925
581.10 0.6922
581.20 0.6919
581.30 0.6916
581.40 0.6912
581.50 0.6909
581.60 0.6906
581.70 0.6903
581.80 0.69
581.90 0.6896
582.00 0.6893
582.10 0.689
582.20 0.6887
582.30 0.6884
582.40 0.6881
582.50 0.6877
582.60 0.6874
582.70 0.6871
582.80 0.6868
582.90 0.6865
583.00 0.6862
583.10 0.6858
583.20 0.6855
583.30 0.6852
583.40 0.6849
583.50 0.6846
583.60 0.6843
583.70 0.684
583.80 0.6836
583.90 0.6833
584.00 0.683
584.10 0.6827
584.20 0.6824
584.30 0.6821
584.40 0.6818
584.50 0.6815
584.60 0.6811
584.70 0.6808
584.80 0.6805
584.90 0.6802
585.00 0.6799
585.10 0.6796
585.20 0.6793
585.30 0.679
585.40 0.6787
585.50 0.6783
585.60 0.678
585.70 0.6777
585.80 0.6774
585.90 0.6771
586.00 0.6768
586.10 0.6765
586.20 0.6762
586.30 0.6759
586.40 0.6755
586.50 0.6752
586.60 0.6749
586.70 0.6746
586.80 0.6743
586.90 0.674
587.00 0.6737
587.10 0.6734
587.20 0.6731
587.30 0.6728
587.40 0.6725
587.50 0.6722
587.60 0.6718
587.70 0.6715
587.80 0.6712
587.90 0.6709
588.00 0.6706
588.10 0.6703
588.20 0.67
588.30 0.6697
588.40 0.6694
588.50 0.6691
588.60 0.6688
588.70 0.6685
588.80 0.6682
588.90 0.6679
589.00 0.6676
589.10 0.6672
589.20 0.6669
589.30 0.6666
589.40 0.6663
589.50 0.666
589.60 0.6657
589.70 0.6654
589.80 0.6651
589.90 0.6648
590.00 0.6645
590.10 0.6642
590.20 0.6639
590.30 0.6636
590.40 0.6633
590.50 0.663
590.60 0.6627
590.70 0.6624
590.80 0.6621
590.90 0.6618
591.00 0.6615
591.10 0.6612
591.20 0.6609
591.30 0.6606
591.40 0.6603
591.50 0.66
591.60 0.6597
591.70 0.6594
591.80 0.6591
591.90 0.6588
592.00 0.6585
592.10 0.6582
592.20 0.6579
592.30 0.6576
592.40 0.6573
592.50 0.657
592.60 0.6567
592.70 0.6564
592.80 0.6561
592.90 0.6558
593.00 0.6555
593.10 0.6552
593.20 0.6549
593.30 0.6546
593.40 0.6543
593.50 0.654
593.60 0.6537
593.70 0.6534
593.80 0.6531
593.90 0.6528
594.00 0.6525
594.10 0.6522
594.20 0.6519
594.30 0.6516
594.40 0.6513
594.50 0.651
594.60 0.6507
594.70 0.6504
594.80 0.6501
594.90 0.6498
595.00 0.6495
595.10 0.6492
595.20 0.6489
595.30 0.6487
595.40 0.6484
595.50 0.6481
595.60 0.6478
595.70 0.6475
595.80 0.6472
595.90 0.6469
596.00 0.6466
596.10 0.6463
596.20 0.646
596.30 0.6456
596.40 0.6453
596.50 0.6449
596.60 0.6446
596.70 0.6442
596.80 0.6439
596.90 0.6435
597.00 0.6432
597.10 0.6428
597.20 0.6425
597.30 0.6422
597.40 0.6419
597.50 0.6416
597.60 0.6413
597.70 0.641
597.80 0.6407
597.90 0.6405
598.00 0.6402
598.10 0.6399
598.20 0.6396
598.30 0.6393
598.40 0.639
598.50 0.6387
598.60 0.6384
598.70 0.6381
598.80 0.6378
598.90 0.6375
599.00 0.6372
599.10 0.6369
599.20 0.6367
599.30 0.6364
599.40 0.6361
599.50 0.6358
599.60 0.6355
599.70 0.6352
599.80 0.6349
599.90 0.6346
600.00 0.6343
600.10 0.6341
600.20 0.6338
600.30 0.6335
600.40 0.6332
600.50 0.6329
600.60 0.6326
600.70 0.6323
600.80 0.632
600.90 0.6317
601.00 0.6315
601.10 0.6312
601.20 0.6309
601.30 0.6306
601.40 0.6303
601.50 0.63
601.60 0.6297
601.70 0.6294
601.80 0.6291
601.90 0.6289
602.00 0.6286
602.10 0.6283
602.20 0.628
602.30 0.6277
602.40 0.6274
602.50 0.6271
602.60 0.6269
602.70 0.6266
602.80 0.6263
602.90 0.626
603.00 0.6257
603.10 0.6254
603.20 0.6251
603.30 0.6249
603.40 0.6246
603.50 0.6243
603.60 0.624
603.70 0.6237
603.80 0.6234
603.90 0.6232
604.00 0.6229
604.10 0.6226
604.20 0.6223
604.30 0.622
604.40 0.6217
604.50 0.6215
604.60 0.6212
604.70 0.6209
604.80 0.6206
604.90 0.6203
605.00 0.62
605.10 0.6198
605.20 0.6195
605.30 0.6192
605.40 0.6189
605.50 0.6186
605.60 0.6183
605.70 0.6181
605.80 0.6178
605.90 0.6175
606.00 0.6172
606.10 0.6169
606.20 0.6166
606.30 0.6164
606.40 0.6161
606.50 0.6158
606.60 0.6155
606.70 0.6152
606.80 0.615
606.90 0.6147
607.00 0.6144
607.10 0.6141
607.20 0.6138
607.30 0.6136
607.40 0.6133
607.50 0.613
607.60 0.6127
607.70 0.6124
607.80 0.6122
607.90 0.6119
608.00 0.6116
608.10 0.6113
608.20 0.6111
608.30 0.6108
608.40 0.6105
608.50 0.6102
608.60 0.6099
608.70 0.6097
608.80 0.6094
608.90 0.6091
609.00 0.6088
609.10 0.6086
609.20 0.6083
609.30 0.608
609.40 0.6077
609.50 0.6074
609.60 0.6072
609.70 0.6069
609.80 0.6066
609.90 0.6063
610.00 0.6061
610.10 0.6058
610.20 0.6055
610.30 0.6052
610.40 0.605
610.50 0.6047
610.60 0.6044
610.70 0.6041
610.80 0.6039
610.90 0.6036
611.00 0.6033
611.10 0.603
611.20 0.6027
611.30 0.6025
611.40 0.6022
611.50 0.6019
611.60 0.6017
611.70 0.6014
611.80 0.6011
611.90 0.6008
612.00 0.6006
612.10 0.6003
612.20 0.6
612.30 0.5997
612.40 0.5995
612.50 0.5992
612.60 0.5989
612.70 0.5986
612.80 0.5984
612.90 0.5981
613.00 0.5978
613.10 0.5976
613.20 0.5973
613.30 0.597
613.40 0.5967
613.50 0.5965
613.60 0.5962
613.70 0.5959
613.80 0.5956
613.90 0.5954
614.00 0.5951
614.10 0.5948
614.20 0.5946
614.30 0.5943
614.40 0.594
614.50 0.5937
614.60 0.5935
614.70 0.5932
614.80 0.5929
614.90 0.5927
615.00 0.5924
615.10 0.5921
615.20 0.5918
615.30 0.5916
615.40 0.5913
615.50 0.591
615.60 0.5908
615.70 0.5905
615.80 0.5902
615.90 0.5899
616.00 0.5897
616.10 0.5894
616.20 0.5891
616.30 0.5889
616.40 0.5886
616.50 0.5883
616.60 0.5881
616.70 0.5878
616.80 0.5875
616.90 0.5873
617.00 0.587
617.10 0.5867
617.20 0.5864
617.30 0.5862
617.40 0.5859
617.50 0.5856
617.60 0.5854
617.70 0.5851
617.80 0.5848
617.90 0.5846
618.00 0.5843
618.10 0.584
618.20 0.5838
618.30 0.5835
618.40 0.5832
618.50 0.583
618.60 0.5827
618.70 0.5824
618.80 0.5822
618.90 0.5819
619.00 0.5816
619.10 0.5814
619.20 0.5811
619.30 0.5808
619.40 0.5805
619.50 0.5803
619.60 0.58
619.70 0.5797
619.80 0.5795
619.90 0.5792
620.00 0.5789
620.10 0.5787
620.20 0.5784
620.30 0.5781
620.40 0.5779
620.50 0.5776
620.60 0.5773
620.70 0.5771
620.80 0.5768
620.90 0.5765
621.00 0.5763
621.10 0.576
621.20 0.5757
621.30 0.5755
621.40 0.5752
621.50 0.5749
621.60 0.5747
621.70 0.5744
621.80 0.5741
621.90 0.5739
622.00 0.5736
622.10 0.5733
622.20 0.5731
622.30 0.5728
622.40 0.5725
622.50 0.5723
622.60 0.572
622.70 0.5717
622.80 0.5715
622.90 0.5712
623.00 0.571
623.10 0.5707
623.20 0.5704
623.30 0.5702
623.40 0.5699
623.50 0.5696
623.60 0.5694
623.70 0.5691
623.80 0.5688
623.90 0.5686
624.00 0.5683
624.10 0.568
624.20 0.5678
624.30 0.5675
624.40 0.5672
624.50 0.567
624.60 0.5667
624.70 0.5664
624.80 0.5662
624.90 0.5659
625.00 0.5656
625.10 0.5654
625.20 0.5651
625.30 0.5648
625.40 0.5646
625.50 0.5643
625.60 0.564
625.70 0.5638
625.80 0.5635
625.90 0.5633
626.00 0.563
626.10 0.5627
626.20 0.5625
626.30 0.5622
626.40 0.5619
626.50 0.5617
626.60 0.5614
626.70 0.5611
626.80 0.5609
626.90 0.5606
627.00 0.5603
627.10 0.5601
627.20 0.5598
627.30 0.5595
627.40 0.5593
627.50 0.559
627.60 0.5587
627.70 0.5585
627.80 0.5582
627.90 0.5579
628.00 0.5577
628.10 0.5574
628.20 0.5571
628.30 0.5569
628.40 0.5566
628.50 0.5563
628.60 0.5561
628.70 0.5558
628.80 0.5555
628.90 0.5553
629.00 0.555
629.10 0.5547
629.20 0.5545
629.30 0.5542
629.40 0.5539
629.50 0.5537
629.60 0.5534
629.70 0.5531
629.80 0.5529
629.90 0.5526
630.00 0.5523
630.10 0.5521
630.20 0.5518
630.30 0.5515
630.40 0.5513
630.50 0.551
630.60 0.5507
630.70 0.5505
630.80 0.5502
630.90 0.5499
631.00 0.5496
631.10 0.5494
631.20 0.5491
631.30 0.5488
631.40 0.5486
631.50 0.5483
631.60 0.548
631.70 0.5478
631.80 0.5475
631.90 0.5472
632.00 0.5469
632.10 0.5467
632.20 0.5464
632.30 0.5461
632.40 0.5458
632.50 0.5456
632.60 0.5453
632.70 0.545
632.80 0.5447
632.90 0.5445
633.00 0.5442
633.10 0.5439
633.20 0.5437
633.30 0.5434
633.40 0.5431
633.50 0.5428
633.60 0.5425
633.70 0.5423
633.80 0.542
633.90 0.5417
634.00 0.5414
634.10 0.5412
634.20 0.5409
634.30 0.5406
634.40 0.5403
634.50 0.54
634.60 0.5398
634.70 0.5395
634.80 0.5392
634.90 0.5389
635.00 0.5386
635.10 0.5383
635.20 0.5381
635.30 0.5378
635.40 0.5375
635.50 0.5372
635.60 0.5369
635.70 0.5366
635.80 0.5363
635.90 0.5361
636.00 0.5358
636.10 0.5355
636.20 0.5352
636.30 0.5349
636.40 0.5346
636.50 0.5343
636.60 0.534
636.70 0.5337
636.80 0.5334
636.90 0.5331
637.00 0.5328
637.10 0.5325
637.20 0.5322
637.30 0.5319
637.40 0.5316
637.50 0.5313
637.60 0.531
637.70 0.5307
637.80 0.5304
637.90 0.5301
638.00 0.5298
638.10 0.5295
638.20 0.5292
638.30 0.5289
638.40 0.5286
638.50 0.5283
638.60 0.528
638.70 0.5277
638.80 0.5273
638.90 0.527
639.00 0.5267
639.10 0.5264
639.20 0.5261
639.30 0.5258
639.40 0.5255
639.50 0.5251
639.60 0.5248
639.70 0.5245
639.80 0.5241
639.90 0.5238
640.00 0.5235
640.10 0.5232
640.20 0.5228
640.30 0.5225
640.40 0.5222
640.50 0.5218
640.60 0.5215
640.70 0.5211
640.80 0.5208
640.90 0.5204
641.00 0.5201
641.10 0.5198
641.20 0.5194
641.30 0.5191
641.40 0.5187
641.50 0.5183
641.60 0.518
641.70 0.5176
641.80 0.5172
641.90 0.5169
642.00 0.5165
642.10 0.5162
642.20 0.5158
642.30 0.5154
642.40 0.515
642.50 0.5146
642.60 0.5142
642.70 0.5139
642.80 0.5135
642.90 0.5131
643.00 0.5127
643.10 0.5123
643.20 0.5119
643.30 0.5115
643.40 0.5111
643.50 0.5107
643.60 0.5102
643.70 0.5098
643.80 0.5094
643.90 0.509
644.00 0.5085
644.10 0.5081
644.20 0.5077
644.30 0.5072
644.40 0.5068
644.50 0.5063
644.60 0.5058
644.70 0.5054
644.80 0.5049
644.90 0.5044
645.00 0.5039
645.10 0.5035
645.20 0.503
645.30 0.5025
645.40 0.502
645.50 0.5015
645.60 0.5009
645.70 0.5004
645.80 0.4999
645.90 0.4993
646.00 0.4988
646.10 0.4983
646.20 0.4978
646.30 0.4972
646.40 0.4966
646.50 0.496
646.60 0.4954
646.70 0.4948
646.80 0.4942
646.90 0.4936
647.00 0.493
647.10 0.4924
647.20 0.4918
647.30 0.4912
647.40 0.4904
647.50 0.4897
647.60 0.489
647.70 0.4883
647.80 0.4876
647.90 0.4869
648.00 0.4862
648.10 0.4855
648.20 0.4848
648.30 0.484
648.40 0.4832
648.50 0.4823
648.60 0.4814
648.70 0.4806
648.80 0.4797
648.90 0.4789
649.00 0.478
649.10 0.4771
649.20 0.4763
649.30 0.4754
649.40 0.4743
649.50 0.4732
649.60 0.4722
649.70 0.4711
649.80 0.47
649.90 0.469
650.00 0.4679
650.10 0.4668
650.20 0.4658
650.30 0.4647
650.40 0.4633
650.50 0.4619
650.60 0.4606
650.70 0.4592
650.80 0.4579
650.90 0.4565
651.00 0.4552
651.10 0.4538
651.20 0.4525
651.30 0.451
651.40 0.4492
651.50 0.4474
651.60 0.4456
651.70 0.4438
651.80 0.442
651.90 0.4402
652.00 0.4384
652.10 0.4366
652.20 0.4348
652.30 0.4329
652.40 0.4304
652.50 0.4279
652.60 0.4255
652.70 0.423
652.80 0.4205
652.90 0.4181
653.00 0.4156
653.10 0.4131
653.20 0.4107
653.30 0.408
653.40 0.4044
653.50 0.4008
653.60 0.3973
653.70 0.3937
653.80 0.3901
653.90 0.3866
654.00 0.383
654.10 0.3794
654.20 0.3759
654.30 0.3721
654.40 0.3676
654.50 0.363
654.60 0.3584
654.70 0.3538
654.80 0.3491
654.90 0.3437
655.00 0.3384
655.10 0.333
655.20 0.3277
655.30 0.3222
655.40 0.3164
655.50 0.3105
655.60 0.3042
655.70 0.2977
655.80 0.2907
655.90 0.2833
656.00 0.2741
656.10 0.2644
656.20 0.2376
656.30 0.2083
656.40 0.2535
656.50 0.2681
656.60 0.277
656.70 0.2856
656.80 0.2924
656.90 0.2991
657.00 0.3052
657.10 0.3112
657.20 0.3167
657.30 0.3222
657.40 0.3272
657.50 0.3323
657.60 0.3374
657.70 0.3425
657.80 0.3474
657.90 0.3516
658.00 0.3559
658.10 0.3601
658.20 0.3644
658.30 0.3684
658.40 0.3716
658.50 0.3748
658.60 0.378
658.70 0.3812
658.80 0.3844
658.90 0.3876
659.00 0.3908
659.10 0.394
659.20 0.3972
659.30 0.4001
659.40 0.4022
659.50 0.4043
659.60 0.4063
659.70 0.4084
659.80 0.4105
659.90 0.4125
660.00 0.4146
660.10 0.4167
660.20 0.4187
660.30 0.4207
660.40 0.422
660.50 0.4234
660.60 0.4248
660.70 0.4262
660.80 0.4275
660.90 0.4289
661.00 0.4303
661.10 0.4317
661.20 0.433
661.30 0.4343
661.40 0.4352
661.50 0.4362
661.60 0.4371
661.70 0.438
661.80 0.4389
661.90 0.4398
662.00 0.4408
662.10 0.4417
662.20 0.4426
662.30 0.4435
662.40 0.4441
662.50 0.4447
662.60 0.4453
662.70 0.446
662.80 0.4466
662.90 0.4472
663.00 0.4478
663.10 0.4485
663.20 0.4491
663.30 0.4497
663.40 0.4501
663.50 0.4505
663.60 0.4509
663.70 0.4513
663.80 0.4517
663.90 0.4521
664.00 0.4525
664.10 0.453
664.20 0.4534
664.30 0.4537
664.40 0.454
664.50 0.4543
664.60 0.4545
664.70 0.4548
664.80 0.4551
664.90 0.4553
665.00 0.4556
665.10 0.4559
665.20 0.4561
665.30 0.4564
665.40 0.4565
665.50 0.4567
665.60 0.4568
665.70 0.457
665.80 0.4571
665.90 0.4573
666.00 0.4575
666.10 0.4576
666.20 0.4578
666.30 0.4579
666.40 0.458
666.50 0.4581
666.60 0.4582
666.70 0.4582
666.80 0.4583
666.90 0.4584
667.00 0.4585
667.10 0.4586
667.20 0.4586
667.30 0.4587
667.40 0.4587
667.50 0.4588
667.60 0.4588
667.70 0.4588
667.80 0.4588
667.90 0.4588
668.00 0.4589
668.10 0.4589
668.20 0.4589
668.30 0.4589
668.40 0.4589
668.50 0.4589
668.60 0.4589
668.70 0.4589
668.80 0.4588
668.90 0.4588
669.00 0.4588
669.10 0.4588
669.20 0.4587
669.30 0.4587
669.40 0.4587
669.50 0.4586
669.60 0.4586
669.70 0.4585
669.80 0.4584
669.90 0.4584
670.00 0.4583
670.10 0.4583
670.20 0.4582
670.30 0.4582
670.40 0.4581
670.50 0.458
670.60 0.4579
670.70 0.4578
670.80 0.4578
670.90 0.4577
671.00 0.4576
671.10 0.4575
671.20 0.4574
671.30 0.4573
671.40 0.4572
671.50 0.4571
671.60 0.457
671.70 0.4569
671.80 0.4568
671.90 0.4567
672.00 0.4566
672.10 0.4565
672.20 0.4564
672.30 0.4563
672.40 0.4562
672.50 0.4561
672.60 0.456
672.70 0.4559
672.80 0.4558
672.90 0.4556
673.00 0.4555
673.10 0.4554
673.20 0.4553
673.30 0.4552
673.40 0.4551
673.50 0.4549
673.60 0.4548
673.70 0.4547
673.80 0.4545
673.90 0.4544
674.00 0.4543
674.10 0.4542
674.20 0.454
674.30 0.4539
674.40 0.4538
674.50 0.4536
674.60 0.4535
674.70 0.4533
674.80 0.4532
674.90 0.4531
675.00 0.4529
675.10 0.4528
675.20 0.4527
675.30 0.4525
675.40 0.4524
675.50 0.4522
675.60 0.4521
675.70 0.4519
675.80 0.4518
675.90 0.4516
676.00 0.4515
676.10 0.4514
676.20 0.4512
676.30 0.4511
676.40 0.4509
676.50 0.4508
676.60 0.4506
676.70 0.4505
676.80 0.4503
676.90 0.4501
677.00 0.45
677.10 0.4498
677.20 0.4497
677.30 0.4495
677.40 0.4494
677.50 0.4492
677.60 0.4491
677.70 0.4489
677.80 0.4488
677.90 0.4486
678.00 0.4484
678.10 0.4483
678.20 0.4481
678.30 0.448
678.40 0.4478
678.50 0.4477
678.60 0.4475
678.70 0.4473
678.80 0.4472
678.90 0.447
679.00 0.4469
679.10 0.4467
679.20 0.4465
679.30 0.4464
679.40 0.4462
679.50 0.446
679.60 0.4459
679.70 0.4457
679.80 0.4456
679.90 0.4454
680.00 0.4452
680.10 0.4451
680.20 0.4449
680.30 0.4447
680.40 0.4446
680.50 0.4444
680.60 0.4442
680.70 0.4441
680.80 0.4439
680.90 0.4437
681.00 0.4436
681.10 0.4434
681.20 0.4432
681.30 0.4431
681.40 0.4429
681.50 0.4427
681.60 0.4426
681.70 0.4424
681.80 0.4422
681.90 0.4421
682.00 0.4419
682.10 0.4417
682.20 0.4415
682.30 0.4414
682.40 0.4412
682.50 0.441
682.60 0.4409
682.70 0.4407
682.80 0.4405
682.90 0.4404
683.00 0.4402
683.10 0.44
683.20 0.4399
683.30 0.4397
683.40 0.4395
683.50 0.4393
683.60 0.4392
683.70 0.439
683.80 0.4388
683.90 0.4387
684.00 0.4385
684.10 0.4383
684.20 0.4382
684.30 0.438
684.40 0.4378
684.50 0.4376
684.60 0.4375
684.70 0.4373
684.80 0.4371
684.90 0.437
685.00 0.4368
685.10 0.4366
685.20 0.4364
685.30 0.4363
685.40 0.4361
685.50 0.4359
685.60 0.4357
685.70 0.4356
685.80 0.4354
685.90 0.4352
686.00 0.4351
686.10 0.4349
686.20 0.4347
686.30 0.4345
686.40 0.4344
686.50 0.4342
686.60 0.434
686.70 0.4339
686.80 0.4337
686.90 0.4335
687.00 0.4333
687.10 0.4332
687.20 0.433
687.30 0.4328
687.40 0.4327
687.50 0.4325
687.60 0.4323
687.70 0.4321
687.80 0.432
687.90 0.4318
688.00 0.4316
688.10 0.4315
688.20 0.4313
688.30 0.4311
688.40 0.4309
688.50 0.4308
688.60 0.4306
688.70 0.4304
688.80 0.4302
688.90 0.4301
689.00 0.4299
689.10 0.4297
689.20 0.4296
689.30 0.4294
689.40 0.4292
689.50 0.429
689.60 0.4289
689.70 0.4287
689.80 0.4285
689.90 0.4283
690.00 0.4282
690.10 0.428
690.20 0.4278
690.30 0.4276
690.40 0.4275
690.50 0.4273
690.60 0.4271
690.70 0.4269
690.80 0.4268
690.90 0.4266
691.00 0.4264
691.10 0.4262
691.20 0.4261
691.30 0.4259
691.40 0.4257
691.50 0.4255
691.60 0.4254
691.70 0.4252
691.80 0.425
691.90 0.4249
692.00 0.4247
692.10 0.4245
692.20 0.4243
692.30 0.4242
692.40 0.424
692.50 0.4238
692.60 0.4236
692.70 0.4235
692.80 0.4233
692.90 0.4231
693.00 0.423
693.10 0.4228
693.20 0.4226
693.30 0.4224
693.40 0.4223
693.50 0.4221
693.60 0.4219
693.70 0.4218
693.80 0.4216
693.90 0.4214
694.00 0.4212
694.10 0.4211
694.20 0.4209
694.30 0.4207
694.40 0.4206
694.50 0.4204
694.60 0.4202
694.70 0.42
694.80 0.4199
694.90 0.4197
695.00 0.4195
695.10 0.4194
695.20 0.4192
695.30 0.419
695.40 0.4189
695.50 0.4187
695.60 0.4185
695.70 0.4183
695.80 0.4182
695.90 0.418
696.00 0.4178
696.10 0.4177
696.20 0.4175
696.30 0.4173
696.40 0.4172
696.50 0.417
696.60 0.4168
696.70 0.4166
696.80 0.4165
696.90 0.4163
697.00 0.4161
697.10 0.416
697.20 0.4158
697.30 0.4156
697.40 0.4155
697.50 0.4153
697.60 0.4151
697.70 0.415
697.80 0.4148
697.90 0.4146
698.00 0.4145
698.10 0.4143
698.20 0.4141
698.30 0.414
698.40 0.4138
698.50 0.4136
698.60 0.4135
698.70 0.4133
698.80 0.4131
698.90 0.413
699.00 0.4128
699.10 0.4126
699.20 0.4124
699.30 0.4123
699.40 0.4121
699.50 0.4119
699.60 0.4118
699.70 0.4116
699.80 0.4114
699.90 0.4113
700.00 0.4111
700.10 0.411
700.20 0.4108
700.30 0.4107
700.40 0.4106
700.50 0.4104
700.60 0.4103
700.70 0.4101
700.80 0.41
700.90 0.4099
701.00 0.4097
701.10 0.4096
701.20 0.4094
701.30 0.4093
701.40 0.4092
701.50 0.409
701.60 0.4089
701.70 0.4087
701.80 0.4086
701.90 0.4085
702.00 0.4083
702.10 0.4082
702.20 0.4081
702.30 0.4079
702.40 0.4078
702.50 0.4076
702.60 0.4075
702.70 0.4074
702.80 0.4072
702.90 0.4071
703.00 0.4069
703.10 0.4068
703.20 0.4067
703.30 0.4065
703.40 0.4064
703.50 0.4063
703.60 0.4061
703.70 0.406
703.80 0.4058
703.90 0.4057
704.00 0.4056
704.10 0.4054
704.20 0.4053
704.30 0.4052
704.40 0.405
704.50 0.4049
704.60 0.4047
704.70 0.4046
704.80 0.4045
704.90 0.4043
705.00 0.4042
705.10 0.404
705.20 0.4039
705.30 0.4037
705.40 0.4035
705.50 0.4034
705.60 0.4032
705.70 0.403
705.80 0.4029
705.90 0.4027
706.00 0.4025
706.10 0.4024
706.20 0.4022
706.30 0.4021
706.40 0.4019
706.50 0.4017
706.60 0.4016
706.70 0.4014
706.80 0.4012
706.90 0.4011
707.00 0.4009
707.10 0.4007
707.20 0.4006
707.30 0.4004
707.40 0.4002
707.50 0.4001
707.60 0.3999
707.70 0.3998
707.80 0.3996
707.90 0.3994
708.00 0.3993
708.10 0.3991
708.20 0.3989
708.30 0.3988
708.40 0.3986
708.50 0.3984
708.60 0.3983
708.70 0.3981
708.80 0.398
708.90 0.3978
709.00 0.3976
709.10 0.3975
709.20 0.3973
709.30 0.3971
709.40 0.397
709.50 0.3968
709.60 0.3967
709.70 0.3965
709.80 0.3963
709.90 0.3962
710.00 0.396
710.10 0.3958
710.20 0.3957
710.30 0.3955
710.40 0.3954
710.50 0.3952
710.60 0.395
710.70 0.3949
710.80 0.3947
710.90 0.3946
711.00 0.3944
711.10 0.3942
711.20 0.3941
711.30 0.3939
711.40 0.3938
711.50 0.3936
711.60 0.3934
711.70 0.3933
711.80 0.3931
711.90 0.393
712.00 0.3928
712.10 0.3926
712.20 0.3925
712.30 0.3923
712.40 0.3921
712.50 0.392
712.60 0.3918
712.70 0.3917
712.80 0.3915
712.90 0.3914
713.00 0.3912
713.10 0.391
713.20 0.3909
713.30 0.3907
713.40 0.3906
713.50 0.3904
713.60 0.3902
713.70 0.3901
713.80 0.3899
713.90 0.3898
714.00 0.3896
714.10 0.3894
714.20 0.3893
714.30 0.3891
714.40 0.389
714.50 0.3888
714.60 0.3886
714.70 0.3885
714.80 0.3883
714.90 0.3882
715.00 0.388
715.10 0.3879
715.20 0.3877
715.30 0.3875
715.40 0.3874
715.50 0.3872
715.60 0.3871
715.70 0.3869
715.80 0.3868
715.90 0.3866
716.00 0.3865
716.10 0.3863
716.20 0.3862
716.30 0.386
716.40 0.3858
716.50 0.3857
716.60 0.3855
716.70 0.3854
716.80 0.3852
716.90 0.3851
717.00 0.3849
717.10 0.3848
717.20 0.3846
717.30 0.3845
717.40 0.3843
717.50 0.3842
717.60 0.384
717.70 0.3838
717.80 0.3837
717.90 0.3835
718.00 0.3834
718.10 0.3832
718.20 0.3831
718.30 0.3829
718.40 0.3828
718.50 0.3826
718.60 0.3825
718.70 0.3823
718.80 0.3822
718.90 0.382
719.00 0.3819
719.10 0.3817
719.20 0.3816
719.30 0.3814
719.40 0.3812
719.50 0.3811
719.60 0.3809
719.70 0.3808
719.80 0.3806
719.90 0.3805
720.00 0.3803
720.10 0.3802
720.20 0.38
720.30 0.3799
720.40 0.3797
720.50 0.3796
720.60 0.3794
720.70 0.3793
720.80 0.3791
720.90 0.3789
721.00 0.3788
721.10 0.3786
721.20 0.3785
721.30 0.3783
721.40 0.3782
721.50 0.378
721.60 0.3779
721.70 0.3777
721.80 0.3776
721.90 0.3774
722.00 0.3772
722.10 0.3771
722.20 0.3769
722.30 0.3768
722.40 0.3766
722.50 0.3765
722.60 0.3763
722.70 0.3762
722.80 0.376
722.90 0.3759
723.00 0.3757
723.10 0.3756
723.20 0.3754
723.30 0.3753
723.40 0.3751
723.50 0.3749
723.60 0.3748
723.70 0.3746
723.80 0.3745
723.90 0.3743
724.00 0.3742
724.10 0.374
724.20 0.3739
724.30 0.3737
724.40 0.3736
724.50 0.3734
724.60 0.3733
724.70 0.3731
724.80 0.373
724.90 0.3728
725.00 0.3727
725.10 0.3725
725.20 0.3724
725.30 0.3722
725.40 0.3721
725.50 0.3719
725.60 0.3718
725.70 0.3716
725.80 0.3715
725.90 0.3713
726.00 0.3712
726.10 0.371
726.20 0.3709
726.30 0.3707
726.40 0.3706
726.50 0.3704
726.60 0.3703
726.70 0.3701
726.80 0.37
726.90 0.3698
727.00 0.3697
727.10 0.3695
727.20 0.3694
727.30 0.3692
727.40 0.3691
727.50 0.3689
727.60 0.3688
727.70 0.3686
727.80 0.3685
727.90 0.3683
728.00 0.3682
728.10 0.368
728.20 0.3679
728.30 0.3677
728.40 0.3676
728.50 0.3674
728.60 0.3673
728.70 0.3671
728.80 0.367
728.90 0.3668
729.00 0.3667
729.10 0.3665
729.20 0.3664
729.30 0.3662
729.40 0.3661
729.50 0.3659
729.60 0.3658
729.70 0.3656
729.80 0.3655
729.90 0.3653
730.00 0.3652
730.10 0.365
730.20 0.3649
730.30 0.3648
730.40 0.3646
730.50 0.3645
730.60 0.3643
730.70 0.3642
730.80 0.364
730.90 0.3639
731.00 0.3637
731.10 0.3636
731.20 0.3634
731.30 0.3633
731.40 0.3631
731.50 0.363
731.60 0.3628
731.70 0.3627
731.80 0.3626
731.90 0.3624
732.00 0.3623
732.10 0.3621
732.20 0.362
732.30 0.3618
732.40 0.3617
732.50 0.3615
732.60 0.3614
732.70 0.3612
732.80 0.3611
732.90 0.3609
733.00 0.3608
733.10 0.3607
733.20 0.3605
733.30 0.3604
733.40 0.3602
733.50 0.3601
733.60 0.3599
733.70 0.3598
733.80 0.3596
733.90 0.3595
734.00 0.3593
734.10 0.3592
734.20 0.3591
734.30 0.3589
734.40 0.3588
734.50 0.3586
734.60 0.3585
734.70 0.3583
734.80 0.3582
734.90 0.358
735.00 0.3579
735.10 0.3578
735.20 0.3576
735.30 0.3575
735.40 0.3573
735.50 0.3572
735.60 0.357
735.70 0.3569
735.80 0.3568
735.90 0.3566
736.00 0.3565
736.10 0.3563
736.20 0.3562
736.30 0.356
736.40 0.3559
736.50 0.3558
736.60 0.3556
736.70 0.3555
736.80 0.3553
736.90 0.3552
737.00 0.355
737.10 0.3549
737.20 0.3547
737.30 0.3546
737.40 0.3545
737.50 0.3543
737.60 0.3542
737.70 0.354
737.80 0.3539
737.90 0.3538
738.00 0.3536
738.10 0.3535
738.20 0.3533
738.30 0.3532
738.40 0.353
738.50 0.3529
738.60 0.3528
738.70 0.3526
738.80 0.3525
738.90 0.3523
739.00 0.3522
739.10 0.3521
739.20 0.3519
739.30 0.3518
739.40 0.3516
739.50 0.3515
739.60 0.3513
739.70 0.3512
739.80 0.3511
739.90 0.3509
740.00 0.3508
740.10 0.3506
740.20 0.3505
740.30 0.3504
740.40 0.3502
740.50 0.3501
740.60 0.3499
740.70 0.3498
740.80 0.3497
740.90 0.3495
741.00 0.3494
741.10 0.3492
741.20 0.3491
741.30 0.349
741.40 0.3488
741.50 0.3487
741.60 0.3485
741.70 0.3484
741.80 0.3483
741.90 0.3481
742.00 0.348
742.10 0.3478
742.20 0.3477
742.30 0.3476
742.40 0.3474
742.50 0.3473
742.60 0.3472
742.70 0.347
742.80 0.3469
742.90 0.3467
743.00 0.3466
743.10 0.3465
743.20 0.3463
743.30 0.3462
743.40 0.346
743.50 0.3459
743.60 0.3458
743.70 0.3456
743.80 0.3455
743.90 0.3454
744.00 0.3452
744.10 0.3451
744.20 0.3449
744.30 0.3448
744.40 0.3447
744.50 0.3445
744.60 0.3444
744.70 0.3443
744.80 0.3441
744.90 0.344
745.00 0.3438
745.10 0.3437
745.20 0.3436
745.30 0.3434
745.40 0.3433
745.50 0.3432
745.60 0.343
745.70 0.3429
745.80 0.3427
745.90 0.3426
746.00 0.3425
746.10 0.3423
746.20 0.3422
746.30 0.3421
746.40 0.3419
746.50 0.3418
746.60 0.3417
746.70 0.3415
746.80 0.3414
746.90 0.3412
747.00 0.3411
747.10 0.341
747.20 0.3408
747.30 0.3407
747.40 0.3406
747.50 0.3404
747.60 0.3403
747.70 0.3402
747.80 0.34
747.90 0.3399
748.00 0.3398
748.10 0.3396
748.20 0.3395
748.30 0.3393
748.40 0.3392
748.50 0.3391
748.60 0.3389
748.70 0.3388
748.80 0.3387
748.90 0.3385
749.00 0.3384
749.10 0.3383
749.20 0.3381
749.30 0.338
749.40 0.3379
749.50 0.3377
749.60 0.3376
749.70 0.3375
749.80 0.3373
749.90 0.3372
750.00 0.3371
750.10 0.3369
750.20 0.3368
750.30 0.3367
750.40 0.3365
750.50 0.3364
750.60 0.3363
750.70 0.3361
750.80 0.336
750.90 0.3359
751.00 0.3357
751.10 0.3356
751.20 0.3355
751.30 0.3353
751.40 0.3352
751.50 0.3351
751.60 0.3349
751.70 0.3348
751.80 0.3347
751.90 0.3345
752.00 0.3344
752.10 0.3343
752.20 0.3341
752.30 0.334
752.40 0.3339
752.50 0.3337
752.60 0.3336
752.70 0.3335
752.80 0.3333
752.90 0.3332
753.00 0.3331
753.10 0.3329
753.20 0.3328
753.30 0.3327
753.40 0.3325
753.50 0.3324
753.60 0.3323
753.70 0.3321
753.80 0.332
753.90 0.3319
754.00 0.3318
754.10 0.3316
754.20 0.3315
754.30 0.3314
754.40 0.3312
754.50 0.3311
754.60 0.331
754.70 0.3308
754.80 0.3307
754.90 0.3306
755.00 0.3304
755.10 0.3303
755.20 0.3302
755.30 0.3301
755.40 0.3299
755.50 0.3298
755.60 0.3297
755.70 0.3295
755.80 0.3294
755.90 0.3293
756.00 0.3291
756.10 0.329
756.20 0.3289
756.30 0.3287
756.40 0.3286
756.50 0.3285
756.60 0.3284
756.70 0.3282
756.80 0.3281
756.90 0.328
757.00 0.3278
757.10 0.3277
757.20 0.3276
757.30 0.3275
757.40 0.3273
757.50 0.3272
757.60 0.3271
757.70 0.3269
757.80 0.3268
757.90 0.3267
758.00 0.3265
758.10 0.3264
758.20 0.3263
758.30 0.3262
758.40 0.326
758.50 0.3259
758.60 0.3258
758.70 0.3256
758.80 0.3255
758.90 0.3254
759.00 0.3253
759.10 0.3251
759.20 0.325
759.30 0.3249
759.40 0.3247
759.50 0.3246
759.60 0.3245
759.70 0.3244
759.80 0.3242
759.90 0.3241
760.00 0.324
760.10 0.3238
760.20 0.3237
760.30 0.3236
760.40 0.3235
760.50 0.3233
760.60 0.3232
760.70 0.3231
760.80 0.323
760.90 0.3228
761.00 0.3227
761.10 0.3226
761.20 0.3225
761.30 0.3223
761.40 0.3222
761.50 0.3221
761.60 0.3219
761.70 0.3218
761.80 0.3217
761.90 0.3216
762.00 0.3214
762.10 0.3213
762.20 0.3212
762.30 0.3211
762.40 0.3209
762.50 0.3208
762.60 0.3207
762.70 0.3206
762.80 0.3204
762.90 0.3203
763.00 0.3202
763.10 0.3201
763.20 0.3199
763.30 0.3198
763.40 0.3197
763.50 0.3196
763.60 0.3194
763.70 0.3193
763.80 0.3192
763.90 0.3191
764.00 0.3189
764.10 0.3188
764.20 0.3187
764.30 0.3186
764.40 0.3184
764.50 0.3183
764.60 0.3182
764.70 0.3181
764.80 0.3179
764.90 0.3178
765.00 0.3177
765.10 0.3176
765.20 0.3174
765.30 0.3173
765.40 0.3172
765.50 0.3171
765.60 0.3169
765.70 0.3168
765.80 0.3167
765.90 0.3166
766.00 0.3164
766.10 0.3163
766.20 0.3162
766.30 0.3161
766.40 0.3159
766.50 0.3158
766.60 0.3157
766.70 0.3156
766.80 0.3154
766.90 0.3153
767.00 0.3152
767.10 0.3151
767.20 0.3149
767.30 0.3148
767.40 0.3147
767.50 0.3146
767.60 0.3145
767.70 0.3143
767.80 0.3142
767.90 0.3141
768.00 0.314
768.10 0.3138
768.20 0.3137
768.30 0.3136
768.40 0.3135
768.50 0.3133
768.60 0.3132
768.70 0.3131
768.80 0.313
768.90 0.3129
769.00 0.3127
769.10 0.3126
769.20 0.3125
769.30 0.3124
769.40 0.3122
769.50 0.3121
769.60 0.312
769.70 0.3119
769.80 0.3118
769.90 0.3116
770.00 0.3115
770.10 0.3114
770.20 0.3113
770.30 0.3111
770.40 0.311
770.50 0.3109
770.60 0.3108
770.70 0.3107
770.80 0.3105
770.90 0.3104
771.00 0.3103
771.10 0.3102
771.20 0.3101
771.30 0.3099
771.40 0.3098
771.50 0.3097
771.60 0.3096
771.70 0.3095
771.80 0.3093
771.90 0.3092
772.00 0.3091
772.10 0.309
772.20 0.3089
772.30 0.3087
772.40 0.3086
772.50 0.3085
772.60 0.3084
772.70 0.3083
772.80 0.3081
772.90 0.308
773.00 0.3079
773.10 0.3078
773.20 0.3077
773.30 0.3075
773.40 0.3074
773.50 0.3073
773.60 0.3072
773.70 0.3071
773.80 0.3069
773.90 0.3068
774.00 0.3067
774.10 0.3066
774.20 0.3065
774.30 0.3063
774.40 0.3062
774.50 0.3061
774.60 0.306
774.70 0.3059
774.80 0.3057
774.90 0.3056
775.00 0.3055
775.10 0.3054
775.20 0.3053
775.30 0.3051
775.40 0.305
775.50 0.3049
775.60 0.3048
775.70 0.3047
775.80 0.3046
775.90 0.3044
776.00 0.3043
776.10 0.3042
776.20 0.3041
776.30 0.304
776.40 0.3038
776.50 0.3037
776.60 0.3036
776.70 0.3035
776.80 0.3034
776.90 0.3033
777.00 0.3031
777.10 0.303
777.20 0.3029
777.30 0.3028
777.40 0.3027
777.50 0.3025
777.60 0.3024
777.70 0.3023
777.80 0.3022
777.90 0.3021
778.00 0.302
778.10 0.3018
778.20 0.3017
778.30 0.3016
778.40 0.3015
778.50 0.3014
778.60 0.3013
778.70 0.3011
778.80 0.301
778.90 0.3009
779.00 0.3008
779.10 0.3007
779.20 0.3006
779.30 0.3004
779.40 0.3003
779.50 0.3002
779.60 0.3001
779.70 0.3
779.80 0.2999
779.90 0.2997
780.00 0.2996
780.10 0.2995
780.20 0.2994
780.30 0.2993
780.40 0.2992
780.50 0.299
780.60 0.2989
780.70 0.2988
780.80 0.2987
780.90 0.2986
781.00 0.2985
781.10 0.2984
781.20 0.2982
781.30 0.2981
781.40 0.298
781.50 0.2979
781.60 0.2978
781.70 0.2977
781.80 0.2975
781.90 0.2974
782.00 0.2973
782.10 0.2972
782.20 0.2971
782.30 0.297
782.40 0.2969
782.50 0.2967
782.60 0.2966
782.70 0.2965
782.80 0.2964
782.90 0.2963
783.00 0.2962
783.10 0.2961
783.20 0.2959
783.30 0.2958
783.40 0.2957
783.50 0.2956
783.60 0.2955
783.70 0.2954
783.80 0.2953
783.90 0.2951
784.00 0.295
784.10 0.2949
784.20 0.2948
784.30 0.2947
784.40 0.2946
784.50 0.2945
784.60 0.2943
784.70 0.2942
784.80 0.2941
784.90 0.294
785.00 0.2939
785.10 0.2938
785.20 0.2937
785.30 0.2936
785.40 0.2934
785.50 0.2933
785.60 0.2932
785.70 0.2931
785.80 0.293
785.90 0.2929
786.00 0.2928
786.10 0.2927
786.20 0.2925
786.30 0.2924
786.40 0.2923
786.50 0.2922
786.60 0.2921
786.70 0.292
786.80 0.2919
786.90 0.2918
787.00 0.2916
787.10 0.2915
787.20 0.2914
787.30 0.2913
787.40 0.2912
787.50 0.2911
787.60 0.291
787.70 0.2909
787.80 0.2907
787.90 0.2906
788.00 0.2905
788.10 0.2904
788.20 0.2903
788.30 0.2902
788.40 0.2901
788.50 0.29
788.60 0.2898
788.70 0.2897
788.80 0.2896
788.90 0.2895
789.00 0.2894
789.10 0.2893
789.20 0.2892
789.30 0.2891
789.40 0.289
789.50 0.2888
789.60 0.2887
789.70 0.2886
789.80 0.2885
789.90 0.2884
790.00 0.2883
790.10 0.2882
790.20 0.2881
790.30 0.288
790.40 0.2878
790.50 0.2877
790.60 0.2876
790.70 0.2875
790.80 0.2874
790.90 0.2873
791.00 0.2872
791.10 0.2871
791.20 0.287
791.30 0.2869
791.40 0.2867
791.50 0.2866
791.60 0.2865
791.70 0.2864
791.80 0.2863
791.90 0.2862
792.00 0.2861
792.10 0.286
792.20 0.2859
792.30 0.2858
792.40 0.2856
792.50 0.2855
792.60 0.2854
792.70 0.2853
792.80 0.2852
792.90 0.2851
793.00 0.285
793.10 0.2849
793.20 0.2848
793.30 0.2847
793.40 0.2846
793.50 0.2844
793.60 0.2843
793.70 0.2842
793.80 0.2841
793.90 0.284
794.00 0.2839
794.10 0.2838
794.20 0.2837
794.30 0.2836
794.40 0.2835
794.50 0.2834
794.60 0.2833
794.70 0.2831
794.80 0.283
794.90 0.2829
795.00 0.2828
795.10 0.2827
795.20 0.2826
795.30 0.2825
795.40 0.2824
795.50 0.2823
795.60 0.2822
795.70 0.2821
795.80 0.282
795.90 0.2819
796.00 0.2817
796.10 0.2816
796.20 0.2815
796.30 0.2814
796.40 0.2813
796.50 0.2812
796.60 0.2811
796.70 0.281
796.80 0.2809
796.90 0.2808
797.00 0.2807
797.10 0.2806
797.20 0.2805
797.30 0.2803
797.40 0.2802
797.50 0.2801
797.60 0.28
797.70 0.2799
797.80 0.2798
797.90 0.2797
798.00 0.2796
798.10 0.2795
798.20 0.2794
798.30 0.2793
798.40 0.2792
798.50 0.2791
798.60 0.279
798.70 0.2789
798.80 0.2787
798.90 0.2786
799.00 0.2785
799.10 0.2784
799.20 0.2783
799.30 0.2782
799.40 0.2781
799.50 0.278
799.60 0.2779
799.70 0.2778
799.80 0.2777
799.90 0.2776
800.00 0.2775
800.10 0.2774
800.20 0.2773
800.30 0.2772
800.40 0.2771
800.50 0.2769
800.60 0.2768
800.70 0.2767
800.80 0.2766
800.90 0.2765
801.00 0.2764
801.10 0.2763
801.20 0.2762
801.30 0.2761
801.40 0.276
801.50 0.2759
801.60 0.2758
801.70 0.2757
801.80 0.2756
801.90 0.2755
802.00 0.2754
802.10 0.2753
802.20 0.2752
802.30 0.2751
802.40 0.275
802.50 0.2749
802.60 0.2747
802.70 0.2746
802.80 0.2745
802.90 0.2744
803.00 0.2743
803.10 0.2742
803.20 0.2741
803.30 0.274
803.40 0.2739
803.50 0.2738
803.60 0.2737
803.70 0.2736
803.80 0.2735
803.90 0.2734
804.00 0.2733
804.10 0.2732
804.20 0.2731
804.30 0.273
804.40 0.2729
804.50 0.2728
804.60 0.2727
804.70 0.2726
804.80 0.2725
804.90 0.2724
805.00 0.2723
805.10 0.2722
805.20 0.272
805.30 0.2719
805.40 0.2718
805.50 0.2717
805.60 0.2716
805.70 0.2715
805.80 0.2714
805.90 0.2713
806.00 0.2712
806.10 0.2711
806.20 0.271
806.30 0.2709
806.40 0.2708
806.50 0.2707
806.60 0.2706
806.70 0.2705
806.80 0.2704
806.90 0.2703
807.00 0.2702
807.10 0.2701
807.20 0.27
807.30 0.2699
807.40 0.2698
807.50 0.2697
807.60 0.2696
807.70 0.2695
807.80 0.2694
807.90 0.2693
808.00 0.2692
808.10 0.2691
808.20 0.269
808.30 0.2689
808.40 0.2688
808.50 0.2687
808.60 0.2686
808.70 0.2685
808.80 0.2684
808.90 0.2683
809.00 0.2682
809.10 0.2681
809.20 0.268
809.30 0.2679
809.40 0.2678
809.50 0.2677
809.60 0.2676
809.70 0.2674
809.80 0.2673
809.90 0.2672
810.00 0.2671
810.10 0.267
810.20 0.2669
810.30 0.2668
810.40 0.2667
810.50 0.2666
810.60 0.2665
810.70 0.2664
810.80 0.2663
810.90 0.2662
811.00 0.2661
811.10 0.266
811.20 0.2659
811.30 0.2658
811.40 0.2657
811.50 0.2656
811.60 0.2655
811.70 0.2654
811.80 0.2653
811.90 0.2652
812.00 0.2651
812.10 0.265
812.20 0.2649
812.30 0.2648
812.40 0.2647
812.50 0.2646
812.60 0.2645
812.70 0.2644
812.80 0.2643
812.90 0.2642
813.00 0.2641
813.10 0.264
813.20 0.2639
813.30 0.2638
813.40 0.2638
813.50 0.2637
813.60 0.2636
813.70 0.2635
813.80 0.2634
813.90 0.2633
814.00 0.2632
814.10 0.2631
814.20 0.263
814.30 0.2629
814.40 0.2628
814.50 0.2627
814.60 0.2626
814.70 0.2625
814.80 0.2624
814.90 0.2623
815.00 0.2622
815.10 0.2621
815.20 0.262
815.30 0.2619
815.40 0.2618
815.50 0.2617
815.60 0.2616
815.70 0.2615
815.80 0.2614
815.90 0.2613
816.00 0.2612
816.10 0.2611
816.20 0.261
816.30 0.2609
816.40 0.2608
816.50 0.2607
816.60 0.2606
816.70 0.2605
816.80 0.2604
816.90 0.2603
817.00 0.2602
817.10 0.2601
817.20 0.26
817.30 0.2599
817.40 0.2598
817.50 0.2597
817.60 0.2596
817.70 0.2595
817.80 0.2594
817.90 0.2593
818.00 0.2592
818.10 0.2591
818.20 0.259
818.30 0.2589
818.40 0.2588
818.50 0.2587
818.60 0.2586
818.70 0.2586
818.80 0.2585
818.90 0.2584
819.00 0.2583
819.10 0.2582
819.20 0.2581
819.30 0.258
819.40 0.2579
819.50 0.2578
819.60 0.2577
819.70 0.2576
819.80 0.2575
819.90 0.2574
820.00 0.2573
820.10 0.2572
820.20 0.2571
820.30 0.257
820.40 0.2569
820.50 0.2568
820.60 0.2567
820.70 0.2566
820.80 0.2565
820.90 0.2564
821.00 0.2563
821.10 0.2562
821.20 0.2561
821.30 0.2561
821.40 0.256
821.50 0.2559
821.60 0.2558
821.70 0.2557
821.80 0.2556
821.90 0.2555
822.00 0.2554
822.10 0.2553
822.20 0.2552
822.30 0.2551
822.40 0.255
822.50 0.2549
822.60 0.2548
822.70 0.2547
822.80 0.2546
822.90 0.2545
823.00 0.2544
823.10 0.2543
823.20 0.2542
823.30 0.2541
823.40 0.2541
823.50 0.254
823.60 0.2539
823.70 0.2538
823.80 0.2537
823.90 0.2536
824.00 0.2535
824.10 0.2534
824.20 0.2533
824.30 0.2532
824.40 0.2531
824.50 0.253
824.60 0.2529
824.70 0.2528
824.80 0.2527
824.90 0.2526
825.00 0.2525
825.10 0.2524
825.20 0.2524
825.30 0.2523
825.40 0.2522
825.50 0.2521
825.60 0.252
825.70 0.2519
825.80 0.2518
825.90 0.2517
826.00 0.2516
826.10 0.2515
826.20 0.2514
826.30 0.2513
826.40 0.2512
826.50 0.2511
826.60 0.251
826.70 0.2509
826.80 0.2509
826.90 0.2508
827.00 0.2507
827.10 0.2506
827.20 0.2505
827.30 0.2504
827.40 0.2503
827.50 0.2502
827.60 0.2501
827.70 0.25
827.80 0.2499
827.90 0.2498
828.00 0.2497
828.10 0.2496
828.20 0.2495
828.30 0.2495
828.40 0.2494
828.50 0.2493
828.60 0.2492
828.70 0.2491
828.80 0.249
828.90 0.2489
829.00 0.2488
829.10 0.2487
829.20 0.2486
829.30 0.2485
829.40 0.2484
829.50 0.2483
829.60 0.2483
829.70 0.2482
829.80 0.2481
829.90 0.248
830.00 0.2479
830.10 0.2478
830.20 0.2477
830.30 0.2476
830.40 0.2475
830.50 0.2474
830.60 0.2473
830.70 0.2472
830.80 0.2471
830.90 0.2471
831.00 0.247
831.10 0.2469
831.20 0.2468
831.30 0.2467
831.40 0.2466
831.50 0.2465
831.60 0.2464
831.70 0.2463
831.80 0.2462
831.90 0.2461
832.00 0.2461
832.10 0.246
832.20 0.2459
832.30 0.2458
832.40 0.2457
832.50 0.2456
832.60 0.2455
832.70 0.2454
832.80 0.2453
832.90 0.2452
833.00 0.2451
833.10 0.2451
833.20 0.245
833.30 0.2449
833.40 0.2448
833.50 0.2447
833.60 0.2446
833.70 0.2445
833.80 0.2444
833.90 0.2443
834.00 0.2442
834.10 0.2441
834.20 0.2441
834.30 0.244
834.40 0.2439
834.50 0.2438
834.60 0.2437
834.70 0.2436
834.80 0.2435
834.90 0.2434
835.00 0.2433
835.10 0.2432
835.20 0.2432
835.30 0.2431
835.40 0.243
835.50 0.2429
835.60 0.2428
835.70 0.2427
835.80 0.2426
835.90 0.2425
836.00 0.2424
836.10 0.2423
836.20 0.2423
836.30 0.2422
836.40 0.2421
836.50 0.242
836.60 0.2419
836.70 0.2418
836.80 0.2417
836.90 0.2416
837.00 0.2415
837.10 0.2415
837.20 0.2414
837.30 0.2413
837.40 0.2412
837.50 0.2411
837.60 0.241
837.70 0.2409
837.80 0.2408
837.90 0.2407
838.00 0.2407
838.10 0.2406
838.20 0.2405
838.30 0.2404
838.40 0.2403
838.50 0.2402
838.60 0.2401
838.70 0.24
838.80 0.2399
838.90 0.2399
839.00 0.2398
839.10 0.2397
839.20 0.2396
839.30 0.2395
839.40 0.2394
839.50 0.2393
839.60 0.2392
839.70 0.2391
839.80 0.2391
839.90 0.239
840.00 0.2389
840.10 0.2388
840.20 0.2387
840.30 0.2386
840.40 0.2385
840.50 0.2384
840.60 0.2384
840.70 0.2383
840.80 0.2382
840.90 0.2381
841.00 0.238
841.10 0.2379
841.20 0.2378
841.30 0.2377
841.40 0.2377
841.50 0.2376
841.60 0.2375
841.70 0.2374
841.80 0.2373
841.90 0.2372
842.00 0.2371
842.10 0.237
842.20 0.237
842.30 0.2369
842.40 0.2368
842.50 0.2367
842.60 0.2366
842.70 0.2365
842.80 0.2364
842.90 0.2363
843.00 0.2363
843.10 0.2362
843.20 0.2361
843.30 0.236
843.40 0.2359
843.50 0.2358
843.60 0.2357
843.70 0.2356
843.80 0.2356
843.90 0.2355
844.00 0.2354
844.10 0.2353
844.20 0.2352
844.30 0.2351
844.40 0.235
844.50 0.2349
844.60 0.2349
844.70 0.2348
844.80 0.2347
844.90 0.2346
845.00 0.2345
845.10 0.2344
845.20 0.2343
845.30 0.2343
845.40 0.2342
845.50 0.2341
845.60 0.234
845.70 0.2339
845.80 0.2338
845.90 0.2337
846.00 0.2337
846.10 0.2336
846.20 0.2335
846.30 0.2334
846.40 0.2333
846.50 0.2332
846.60 0.2331
846.70 0.233
846.80 0.233
846.90 0.2329
847.00 0.2328
847.10 0.2327
847.20 0.2327
847.30 0.2326
847.40 0.2325
847.50 0.2324
847.60 0.2324
847.70 0.2323
847.80 0.2322
847.90 0.2322
848.00 0.2321
848.10 0.232
848.20 0.232
848.30 0.2319
848.40 0.2318
848.50 0.2318
848.60 0.2317
848.70 0.2316
848.80 0.2316
848.90 0.2315
849.00 0.2314
849.10 0.2314
849.20 0.2313
849.30 0.2312
849.40 0.2311
849.50 0.2311
849.60 0.231
849.70 0.2309
849.80 0.2309
849.90 0.2308
850.00 0.2307
850.10 0.2307
850.20 0.2306
850.30 0.2305
850.40 0.2305
850.50 0.2304
850.60 0.2303
850.70 0.2303
850.80 0.2302
850.90 0.2301
851.00 0.2301
851.10 0.23
851.20 0.2299
851.30 0.2299
851.40 0.2298
851.50 0.2297
851.60 0.2297
851.70 0.2296
851.80 0.2295
851.90 0.2295
852.00 0.2294
852.10 0.2293
852.20 0.2292
852.30 0.2292
852.40 0.2291
852.50 0.229
852.60 0.229
852.70 0.2289
852.80 0.2288
852.90 0.2287
853.00 0.2287
853.10 0.2286
853.20 0.2285
853.30 0.2285
853.40 0.2284
853.50 0.2283
853.60 0.2283
853.70 0.2282
853.80 0.2281
853.90 0.228
854.00 0.228
854.10 0.2279
854.20 0.2278
854.30 0.2278
854.40 0.2277
854.50 0.2276
854.60 0.2275
854.70 0.2275
854.80 0.2274
854.90 0.2273
855.00 0.2273
855.10 0.2272
855.20 0.2271
855.30 0.2271
855.40 0.227
855.50 0.2269
855.60 0.2268
855.70 0.2268
855.80 0.2267
855.90 0.2266
856.00 0.2266
856.10 0.2265
856.20 0.2264
856.30 0.2264
856.40 0.2263
856.50 0.2262
856.60 0.2261
856.70 0.2261
856.80 0.226
856.90 0.2259
857.00 0.2259
857.10 0.2258
857.20 0.2257
857.30 0.2257
857.40 0.2256
857.50 0.2255
857.60 0.2255
857.70 0.2254
857.80 0.2253
857.90 0.2253
858.00 0.2252
858.10 0.2251
858.20 0.2251
858.30 0.225
858.40 0.2249
858.50 0.2249
858.60 0.2248
858.70 0.2247
858.80 0.2247
858.90 0.2246
859.00 0.2245
859.10 0.2245
859.20 0.2244
859.30 0.2243
859.40 0.2243
859.50 0.2242
859.60 0.2241
859.70 0.2241
859.80 0.224
859.90 0.2239
860.00 0.2239
860.10 0.2238
860.20 0.2237
860.30 0.2237
860.40 0.2236
860.50 0.2235
860.60 0.2235
860.70 0.2234
860.80 0.2233
860.90 0.2233
861.00 0.2232
861.10 0.2231
861.20 0.2231
861.30 0.223
861.40 0.2229
861.50 0.2229
861.60 0.2228
861.70 0.2227
861.80 0.2227
861.90 0.2226
862.00 0.2225
862.10 0.2224
862.20 0.2224
862.30 0.2223
862.40 0.2222
862.50 0.2221
862.60 0.222
862.70 0.2219
862.80 0.2218
862.90 0.2217
863.00 0.2216
863.10 0.2216
863.20 0.2215
863.30 0.2214
863.40 0.2213
863.50 0.2212
863.60 0.2211
863.70 0.221
863.80 0.2209
863.90 0.2209
864.00 0.2208
864.10 0.2207
864.20 0.2206
864.30 0.2205
864.40 0.2204
864.50 0.2203
864.60 0.2202
864.70 0.2201
864.80 0.2201
864.90 0.22
865.00 0.2199
865.10 0.2198
865.20 0.2197
865.30 0.2196
865.40 0.2195
865.50 0.2194
865.60 0.2194
865.70 0.2193
865.80 0.2192
865.90 0.2191
866.00 0.219
866.10 0.2189
866.20 0.2188
866.30 0.2187
866.40 0.2187
866.50 0.2186
866.60 0.2185
866.70 0.2184
866.80 0.2183
866.90 0.2182
867.00 0.2181
867.10 0.2181
867.20 0.2181
867.30 0.218
867.40 0.218
867.50 0.2179
867.60 0.2179
867.70 0.2179
867.80 0.2178
867.90 0.2178
868.00 0.2178
868.10 0.2177
868.20 0.2177
868.30 0.2176
868.40 0.2176
868.50 0.2176
868.60 0.2175
868.70 0.2175
868.80 0.2175
868.90 0.2174
869.00 0.2174
869.10 0.2173
869.20 0.2173
869.30 0.2173
869.40 0.2172
869.50 0.2172
869.60 0.2172
869.70 0.2171
869.80 0.2171
869.90 0.217
870.00 0.217
870.10 0.217
870.20 0.2169
870.30 0.2169
870.40 0.2169
870.50 0.2168
870.60 0.2168
870.70 0.2167
870.80 0.2167
870.90 0.2167
871.00 0.2166
871.10 0.2166
871.20 0.2166
871.30 0.2165
871.40 0.2165
871.50 0.2165
871.60 0.2164
871.70 0.2164
871.80 0.2163
871.90 0.2163
872.00 0.2163
872.10 0.2162
872.20 0.2161
872.30 0.216
872.40 0.2159
872.50 0.2158
872.60 0.2157
872.70 0.2156
872.80 0.2156
872.90 0.2155
873.00 0.2154
873.10 0.2153
873.20 0.2152
873.30 0.2151
873.40 0.215
873.50 0.2149
873.60 0.2148
873.70 0.2148
873.80 0.2147
873.90 0.2146
874.00 0.2145
874.10 0.2144
874.20 0.2143
874.30 0.2142
874.40 0.2141
874.50 0.214
874.60 0.214
874.70 0.2139
874.80 0.2138
874.90 0.2137
875.00 0.2136
875.10 0.2135
875.20 0.2134
875.30 0.2133
875.40 0.2133
875.50 0.2132
875.60 0.2131
875.70 0.213
875.80 0.2129
875.90 0.2128
876.00 0.2127
876.10 0.2126
876.20 0.2126
876.30 0.2125
876.40 0.2124
876.50 0.2123
876.60 0.2122
876.70 0.2121
876.80 0.212
876.90 0.2119
877.00 0.2119
877.10 0.2118
877.20 0.2118
877.30 0.2118
877.40 0.2117
877.50 0.2117
877.60 0.2117
877.70 0.2116
877.80 0.2116
877.90 0.2116
878.00 0.2115
878.10 0.2115
878.20 0.2115
878.30 0.2114
878.40 0.2114
878.50 0.2113
878.60 0.2113
878.70 0.2113
878.80 0.2113
878.90 0.2112
879.00 0.2112
879.10 0.2112
879.20 0.2111
879.30 0.2111
879.40 0.2111
879.50 0.211
879.60 0.211
879.70 0.211
879.80 0.2109
879.90 0.2109
880.00 0.2109
880.10 0.2108
880.20 0.2108
880.30 0.2108
880.40 0.2107
880.50 0.2107
880.60 0.2107
880.70 0.2106
880.80 0.2106
880.90 0.2106
881.00 0.2105
881.10 0.2105
881.20 0.2105
881.30 0.2104
881.40 0.2104
881.50 0.2104
881.60 0.2103
881.70 0.2103
881.80 0.2103
881.90 0.2102
882.00 0.2102
882.10 0.21
882.20 0.2097
882.30 0.2095
882.40 0.2092
882.50 0.209
882.60 0.2088
882.70 0.2085
882.80 0.2083
882.90 0.208
883.00 0.2078
883.10 0.2076
883.20 0.2073
883.30 0.2071
883.40 0.2069
883.50 0.2066
883.60 0.2064
883.70 0.2061
883.80 0.2059
883.90 0.2057
884.00 0.2054
884.10 0.2052
884.20 0.205
884.30 0.2047
884.40 0.2045
884.50 0.2043
884.60 0.204
884.70 0.2038
884.80 0.2035
884.90 0.2033
885.00 0.2031
885.10 0.2028
885.20 0.2026
885.30 0.2024
885.40 0.2021
885.50 0.2019
885.60 0.2017
885.70 0.2014
885.80 0.2012
885.90 0.201
886.00 0.2007
886.10 0.2005
886.20 0.2002
886.30 0.2
886.40 0.1998
886.50 0.1995
886.60 0.1993
886.70 0.1991
886.80 0.1988
886.90 0.1986
887.00 0.1984
887.10 0.1985
887.20 0.1986
887.30 0.1987
887.40 0.1988
887.50 0.1989
887.60 0.199
887.70 0.1992
887.80 0.1993
887.90 0.1994
888.00 0.1995
888.10 0.1996
888.20 0.1997
888.30 0.1998
888.40 0.1999
888.50 0.2
888.60 0.2002
888.70 0.2003
888.80 0.2004
888.90 0.2005
889.00 0.2006
889.10 0.2007
889.20 0.2008
889.30 0.2009
889.40 0.201
889.50 0.2012
889.60 0.2013
889.70 0.2014
889.80 0.2015
889.90 0.2016
890.00 0.2017
890.10 0.2018
890.20 0.2019
890.30 0.202
890.40 0.2021
890.50 0.2023
890.60 0.2024
890.70 0.2025
890.80 0.2026
890.90 0.2027
891.00 0.2028
891.10 0.2029
891.20 0.203
891.30 0.2031
891.40 0.2032
891.50 0.2034
891.60 0.2035
891.70 0.2036
891.80 0.2037
891.90 0.2038
892.00 0.2039
892.10 0.2038
892.20 0.2037
892.30 0.2036
892.40 0.2035
892.50 0.2034
892.60 0.2034
892.70 0.2033
892.80 0.2032
892.90 0.2031
893.00 0.203
893.10 0.2029
893.20 0.2028
893.30 0.2027
893.40 0.2026
893.50 0.2025
893.60 0.2024
893.70 0.2023
893.80 0.2022
893.90 0.2022
894.00 0.2021
894.10 0.202
894.20 0.2019
894.30 0.2018
894.40 0.2017
894.50 0.2016
894.60 0.2015
894.70 0.2014
894.80 0.2013
894.90 0.2012
895.00 0.2012
895.10 0.2011
895.20 0.201
895.30 0.2009
895.40 0.2008
895.50 0.2007
895.60 0.2006
895.70 0.2005
895.80 0.2004
895.90 0.2003
896.00 0.2002
896.10 0.2002
896.20 0.2001
896.30 0.2
896.40 0.1999
896.50 0.1998
896.60 0.1997
896.70 0.1996
896.80 0.1995
896.90 0.1994
897.00 0.1993
897.10 0.199
897.20 0.1986
897.30 0.1982
897.40 0.1978
897.50 0.1974
897.60 0.1971
897.70 0.1967
897.80 0.1963
897.90 0.1959
898.00 0.1956
898.10 0.1952
898.20 0.1948
898.30 0.1944
898.40 0.1941
898.50 0.1937
898.60 0.1933
898.70 0.1929
898.80 0.1926
898.90 0.1922
899.00 0.1918
899.10 0.1914
899.20 0.1911
899.30 0.1907
899.40 0.1903
899.50 0.1899
899.60 0.1896
899.70 0.1892
899.80 0.1888
899.90 0.1884
900.00 0.1881
900.10 0.1877
900.20 0.1873
900.30 0.1869
900.40 0.1866
900.50 0.1862
900.60 0.1858
900.70 0.1855
900.80 0.1851
900.90 0.1847
901.00 0.1843
901.10 0.184
901.20 0.1836
901.30 0.1832
901.40 0.1828
901.50 0.1825
901.60 0.1821
901.70 0.1817
901.80 0.1814
901.90 0.181
902.00 0.1806
902.10 0.1809
902.20 0.1811
902.30 0.1814
902.40 0.1816
902.50 0.1818
902.60 0.1821
902.70 0.1823
902.80 0.1826
902.90 0.1828
903.00 0.1831
903.10 0.1833
903.20 0.1835
903.30 0.1838
903.40 0.184
903.50 0.1843
903.60 0.1845
903.70 0.1848
903.80 0.185
903.90 0.1852
904.00 0.1855
904.10 0.1857
904.20 0.186
904.30 0.1862
904.40 0.1864
904.50 0.1867
904.60 0.1869
904.70 0.1872
904.80 0.1874
904.90 0.1877
905.00 0.1879
905.10 0.1881
905.20 0.1884
905.30 0.1886
905.40 0.1889
905.50 0.1891
905.60 0.1893
905.70 0.1896
905.80 0.1898
905.90 0.1901
906.00 0.1903
906.10 0.1905
906.20 0.1908
906.30 0.191
906.40 0.1913
906.50 0.1915
906.60 0.1917
906.70 0.192
906.80 0.1922
906.90 0.1924
907.00 0.1927
907.10 0.1927
907.20 0.1927
907.30 0.1927
907.40 0.1927
907.50 0.1927
907.60 0.1926
907.70 0.1926
907.80 0.1926
907.90 0.1926
908.00 0.1926
908.10 0.1926
908.20 0.1926
908.30 0.1926
908.40 0.1926
908.50 0.1926
908.60 0.1926
908.70 0.1926
908.80 0.1926
908.90 0.1926
909.00 0.1926
909.10 0.1926
909.20 0.1926
909.30 0.1925
909.40 0.1925
909.50 0.1925
909.60 0.1925
909.70 0.1925
909.80 0.1925
909.90 0.1925
910.00 0.1925
910.10 0.1925
910.20 0.1925
910.30 0.1925
910.40 0.1925
910.50 0.1925
910.60 0.1925
910.70 0.1925
910.80 0.1925
910.90 0.1924
911.00 0.1924
911.10 0.1924
911.20 0.1924
911.30 0.1924
911.40 0.1924
911.50 0.1924
911.60 0.1924
911.70 0.1924
911.80 0.1924
911.90 0.1924
912.00 0.1924
912.10 0.1922
912.20 0.1921
912.30 0.192
912.40 0.1918
912.50 0.1917
912.60 0.1915
912.70 0.1914
912.80 0.1913
912.90 0.1911
913.00 0.191
913.10 0.1909
913.20 0.1907
913.30 0.1906
913.40 0.1904
913.50 0.1903
913.60 0.1902
913.70 0.19
913.80 0.1899
913.90 0.1897
914.00 0.1896
914.10 0.1895
914.20 0.1893
914.30 0.1892
914.40 0.1891
914.50 0.1889
914.60 0.1888
914.70 0.1886
914.80 0.1885
914.90 0.1884
915.00 0.1882
915.10 0.1881
915.20 0.188
915.30 0.1878
915.40 0.1877
915.50 0.1875
915.60 0.1874
915.70 0.1873
915.80 0.1871
915.90 0.187
916.00 0.1869
916.10 0.1867
916.20 0.1866
916.30 0.1864
916.40 0.1863
916.50 0.1862
916.60 0.186
916.70 0.1859
916.80 0.1858
916.90 0.1856
917.00 0.1855
917.10 0.1849
917.20 0.1844
917.30 0.1839
917.40 0.1833
917.50 0.1828
917.60 0.1822
917.70 0.1817
917.80 0.1812
917.90 0.1806
918.00 0.1801
918.10 0.1796
918.20 0.179
918.30 0.1785
918.40 0.1779
918.50 0.1774
918.60 0.1769
918.70 0.1763
918.80 0.1758
918.90 0.1753
919.00 0.1747
919.10 0.1742
919.20 0.1736
919.30 0.1731
919.40 0.1726
919.50 0.172
919.60 0.1715
919.70 0.171
919.80 0.1704
919.90 0.1699
920.00 0.1694
920.10 0.1688
920.20 0.1683
920.30 0.1678
920.40 0.1672
920.50 0.1667
920.60 0.1662
920.70 0.1656
920.80 0.1651
920.90 0.1646
921.00 0.164
921.10 0.1635
921.20 0.163
921.30 0.1624
921.40 0.1619
921.50 0.1614
921.60 0.1609
921.70 0.1603
921.80 0.1598
921.90 0.1593
922.00 0.1587
922.10 0.159
922.20 0.1592
922.30 0.1594
922.40 0.1596
922.50 0.1598
922.60 0.1601
922.70 0.1603
922.80 0.1605
922.90 0.1607
923.00 0.1609
923.10 0.1611
923.20 0.1614
923.30 0.1616
923.40 0.1618
923.50 0.162
923.60 0.1622
923.70 0.1625
923.80 0.1627
923.90 0.1629
924.00 0.1631
924.10 0.1633
924.20 0.1635
924.30 0.1638
924.40 0.164
924.50 0.1642
924.60 0.1644
924.70 0.1646
924.80 0.1648
924.90 0.1651
925.00 0.1653
925.10 0.1655
925.20 0.1657
925.30 0.1659
925.40 0.1661
925.50 0.1664
925.60 0.1666
925.70 0.1668
925.80 0.167
925.90 0.1672
926.00 0.1674
926.10 0.1677
926.20 0.1679
926.30 0.1681
926.40 0.1683
926.50 0.1685
926.60 0.1687
926.70 0.1689
926.80 0.1692
926.90 0.1694
927.00 0.1696
927.10 0.1697
927.20 0.1699
927.30 0.17
927.40 0.1702
927.50 0.1703
927.60 0.1704
927.70 0.1706
927.80 0.1707
927.90 0.1709
928.00 0.171
928.10 0.1711
928.20 0.1713
928.30 0.1714
928.40 0.1716
928.50 0.1717
928.60 0.1718
928.70 0.172
928.80 0.1721
928.90 0.1723
929.00 0.1724
929.10 0.1726
929.20 0.1727
929.30 0.1728
929.40 0.173
929.50 0.1731
929.60 0.1733
929.70 0.1734
929.80 0.1735
929.90 0.1737
930.00 0.1738
930.10 0.174
930.20 0.1741
930.30 0.1742
930.40 0.1744
930.50 0.1745
930.60 0.1746
930.70 0.1748
930.80 0.1749
930.90 0.1751
931.00 0.1752
931.10 0.1753
931.20 0.1755
931.30 0.1756
931.40 0.1758
931.50 0.1759
931.60 0.176
931.70 0.1762
931.80 0.1763
931.90 0.1765
932.00 0.1766
932.10 0.1766
932.20 0.1766
932.30 0.1766
932.40 0.1767
932.50 0.1767
932.60 0.1767
932.70 0.1767
932.80 0.1767
932.90 0.1768
933.00 0.1768
933.10 0.1768
933.20 0.1768
933.30 0.1768
933.40 0.1768
933.50 0.1769
933.60 0.1769
933.70 0.1769
933.80 0.1769
933.90 0.1769
934.00 0.177
934.10 0.177
934.20 0.177
934.30 0.177
934.40 0.177
934.50 0.177
934.60 0.1769
934.70 0.1769
934.80 0.1769
934.90 0.1769
935.00 0.1768
935.10 0.1768
935.20 0.1768
935.30 0.1768
935.40 0.1767
935.50 0.1767
935.60 0.1767
935.70 0.1767
935.80 0.1766
935.90 0.1766
936.00 0.1766
936.10 0.1766
936.20 0.1766
936.30 0.1765
936.40 0.1765
936.50 0.1765
936.60 0.1765
936.70 0.1764
936.80 0.1764
936.90 0.1764
937.00 0.1764
937.10 0.1763
937.20 0.1763
937.30 0.1762
937.40 0.1762
937.50 0.1761
937.60 0.1761
937.70 0.176
937.80 0.176
937.90 0.1759
938.00 0.1759
938.10 0.1758
938.20 0.1758
938.30 0.1757
938.40 0.1756
938.50 0.1756
938.60 0.1755
938.70 0.1754
938.80 0.1754
938.90 0.1753
939.00 0.1752
939.10 0.1751
939.20 0.1751
939.30 0.175
939.40 0.1749
939.50 0.1749
939.60 0.1748
939.70 0.1747
939.80 0.1746
939.90 0.1746
940.00 0.1745
940.10 0.1744
940.20 0.1744
940.30 0.1743
940.40 0.1742
940.50 0.1741
940.60 0.174
940.70 0.1739
940.80 0.1738
940.90 0.1737
941.00 0.1736
941.10 0.1735
941.20 0.1734
941.30 0.1733
941.40 0.1732
941.50 0.1731
941.60 0.173
941.70 0.1729
941.80 0.1728
941.90 0.1727
942.00 0.1726
942.10 0.1725
942.20 0.1724
942.30 0.1723
942.40 0.1721
942.50 0.172
942.60 0.1719
942.70 0.1717
942.80 0.1716
942.90 0.1714
943.00 0.1713
943.10 0.1711
943.20 0.171
943.30 0.1709
943.40 0.1707
943.50 0.1706
943.60 0.1704
943.70 0.1703
943.80 0.1702
943.90 0.17
944.00 0.1699
944.10 0.1697
944.20 0.1696
944.30 0.1695
944.40 0.1693
944.50 0.1691
944.60 0.1689
944.70 0.1687
944.80 0.1686
944.90 0.1684
945.00 0.1682
945.10 0.168
945.20 0.1678
945.30 0.1677
945.40 0.1674
945.50 0.1672
945.60 0.167
945.70 0.1667
945.80 0.1665
945.90 0.1663
946.00 0.1661
946.10 0.1658
946.20 0.1656
946.30 0.1654
946.40 0.1651
946.50 0.1649
946.60 0.1647
946.70 0.1645
946.80 0.1642
946.90 0.164
947.00 0.1638
947.10 0.1635
947.20 0.1632
947.30 0.163
947.40 0.1626
947.50 0.1623
947.60 0.1619
947.70 0.1616
947.80 0.1613
947.90 0.1609
948.00 0.1606
948.10 0.1603
948.20 0.1599
948.30 0.1596
948.40 0.1592
948.50 0.1589
948.60 0.1586
948.70 0.1582
948.80 0.1579
948.90 0.1576
949.00 0.1572
949.10 0.1569
949.20 0.1565
949.30 0.1562
949.40 0.1557
949.50 0.1552
949.60 0.1547
949.70 0.1542
949.80 0.1536
949.90 0.1531
950.00 0.1526
950.10 0.1521
950.20 0.1516
950.30 0.1511
950.40 0.1506
950.50 0.1501
950.60 0.1496
950.70 0.149
950.80 0.1485
950.90 0.148
951.00 0.1475
951.10 0.147
951.20 0.1465
951.30 0.146
951.40 0.1453
951.50 0.1447
951.60 0.144
951.70 0.1433
951.80 0.1427
951.90 0.142
952.00 0.1413
952.10 0.1406
952.20 0.1399
952.30 0.1391
952.40 0.1384
952.50 0.1377
952.60 0.1369
952.70 0.1362
952.80 0.1355
952.90 0.1348
953.00 0.1341
953.10 0.1334
953.20 0.1327
953.30 0.132
953.40 0.1313
953.50 0.1306
953.60 0.1305
953.70 0.1303
953.80 0.1301
953.90 0.1299
954.00 0.1305
954.10 0.1311
954.20 0.1326
954.30 0.1348
954.40 0.1319
954.50 0.1304
954.60 0.1298
954.70 0.1291
954.80 0.1293
954.90 0.1294
955.00 0.1296
955.10 0.1297
955.20 0.1303
955.30 0.1309
955.40 0.1315
955.50 0.1321
955.60 0.1327
955.70 0.1332
955.80 0.1338
955.90 0.1344
956.00 0.135
956.10 0.1356
956.20 0.1363
956.30 0.1369
956.40 0.1375
956.50 0.1381
956.60 0.1387
956.70 0.1393
956.80 0.1399
956.90 0.1405
957.00 0.1411
957.10 0.1416
957.20 0.1421
957.30 0.1426
957.40 0.143
957.50 0.1434
957.60 0.1438
957.70 0.1442
957.80 0.1446
957.90 0.145
958.00 0.1454
958.10 0.1458
958.20 0.1462
958.30 0.1466
958.40 0.1469
958.50 0.1473
958.60 0.1477
958.70 0.1481
958.80 0.1485
958.90 0.1489
959.00 0.1493
959.10 0.1497
959.20 0.1501
959.30 0.1504
959.40 0.1507
959.50 0.1509
959.60 0.1511
959.70 0.1513
959.80 0.1515
959.90 0.1518
960.00 0.152
960.10 0.1522
960.20 0.1524
960.30 0.1526
960.40 0.1529
960.50 0.1531
960.60 0.1533
960.70 0.1535
960.80 0.1537
960.90 0.154
961.00 0.1542
961.10 0.1544
961.20 0.1546
961.30 0.1548
961.40 0.155
961.50 0.1551
961.60 0.1553
961.70 0.1554
961.80 0.1556
961.90 0.1557
962.00 0.1559
962.10 0.156
962.20 0.1561
962.30 0.1562
962.40 0.1563
962.50 0.1564
962.60 0.1565
962.70 0.1566
962.80 0.1567
962.90 0.1568
963.00 0.1569
963.10 0.157
963.20 0.1571
963.30 0.1573
963.40 0.1573
963.50 0.1574
963.60 0.1575
963.70 0.1575
963.80 0.1576
963.90 0.1577
964.00 0.1578
964.10 0.1578
964.20 0.1579
964.30 0.158
964.40 0.158
964.50 0.1581
964.60 0.1581
964.70 0.1582
964.80 0.1582
964.90 0.1582
965.00 0.1583
965.10 0.1583
965.20 0.1584
965.30 0.1584
965.40 0.1584
965.50 0.1585
965.60 0.1585
965.70 0.1586
965.80 0.1586
965.90 0.1587
966.00 0.1587
966.10 0.1587
966.20 0.1588
966.30 0.1588
966.40 0.1588
966.50 0.1589
966.60 0.1589
966.70 0.1589
966.80 0.1589
966.90 0.1589
967.00 0.159
967.10 0.159
967.20 0.159
967.30 0.159
967.40 0.159
967.50 0.159
967.60 0.159
967.70 0.159
967.80 0.159
967.90 0.159
968.00 0.159
968.10 0.159
968.20 0.159
968.30 0.1591
968.40 0.159
968.50 0.159
968.60 0.159
968.70 0.159
968.80 0.159
968.90 0.159
969.00 0.159
969.10 0.159
969.20 0.159
969.30 0.159
969.40 0.159
969.50 0.159
969.60 0.159
969.70 0.1589
969.80 0.1589
969.90 0.1589
970.00 0.1589
970.10 0.1589
970.20 0.1589
970.30 0.1589
970.40 0.1589
970.50 0.1589
970.60 0.1588
970.70 0.1588
970.80 0.1588
970.90 0.1588
971.00 0.1588
971.10 0.1587
971.20 0.1587
971.30 0.1587
971.40 0.1587
971.50 0.1587
971.60 0.1586
971.70 0.1586
971.80 0.1586
971.90 0.1586
972.00 0.1585
972.10 0.1585
972.20 0.1585
972.30 0.1585
972.40 0.1584
972.50 0.1584
972.60 0.1584
972.70 0.1583
972.80 0.1583
972.90 0.1583
973.00 0.1582
973.10 0.1582
973.20 0.1582
973.30 0.1582
973.40 0.1581
973.50 0.1581
973.60 0.1581
973.70 0.158
973.80 0.158
973.90 0.158
974.00 0.1579
974.10 0.1579
974.20 0.1579
974.30 0.1578
974.40 0.1578
974.50 0.1578
974.60 0.1577
974.70 0.1577
974.80 0.1576
974.90 0.1576
975.00 0.1576
975.10 0.1575
975.20 0.1575
975.30 0.1574
975.40 0.1574
975.50 0.1574
975.60 0.1573
975.70 0.1573
975.80 0.1572
975.90 0.1572
976.00 0.1571
976.10 0.1571
976.20 0.1571
976.30 0.157
976.40 0.157
976.50 0.1569
976.60 0.1569
976.70 0.1569
976.80 0.1568
976.90 0.1568
977.00 0.1567
977.10 0.1567
977.20 0.1566
977.30 0.1566
977.40 0.1565
977.50 0.1565
977.60 0.1564
977.70 0.1564
977.80 0.1563
977.90 0.1563
978.00 0.1562
978.10 0.1562
978.20 0.1561
978.30 0.1561
978.40 0.156
978.50 0.156
978.60 0.1559
978.70 0.1559
978.80 0.1558
978.90 0.1557
979.00 0.1557
979.10 0.1556
979.20 0.1556
979.30 0.1555
979.40 0.1555
979.50 0.1554
979.60 0.1554
979.70 0.1553
979.80 0.1553
979.90 0.1552
980.00 0.1552
980.10 0.1551
980.20 0.1551
980.30 0.155
980.40 0.155
980.50 0.1549
980.60 0.1549
980.70 0.1548
980.80 0.1548
980.90 0.1547
981.00 0.1547
981.10 0.1546
981.20 0.1546
981.30 0.1545
981.40 0.1545
981.50 0.1544
981.60 0.1544
981.70 0.1543
981.80 0.1543
981.90 0.1542
982.00 0.1541
982.10 0.1541
982.20 0.154
982.30 0.154
982.40 0.1539
982.50 0.1538
982.60 0.1538
982.70 0.1537
982.80 0.1536
982.90 0.1536
983.00 0.1535
983.10 0.1535
983.20 0.1534
983.30 0.1533
983.40 0.1533
983.50 0.1532
983.60 0.1531
983.70 0.1531
983.80 0.153
983.90 0.1529
984.00 0.1529
984.10 0.1528
984.20 0.1528
984.30 0.1527
984.40 0.1526
984.50 0.1526
984.60 0.1525
984.70 0.1524
984.80 0.1524
984.90 0.1523
985.00 0.1522
985.10 0.1521
985.20 0.1521
985.30 0.152
985.40 0.1519
985.50 0.1518
985.60 0.1518
985.70 0.1517
985.80 0.1516
985.90 0.1515
986.00 0.1515
986.10 0.1514
986.20 0.1513
986.30 0.1512
986.40 0.1512
986.50 0.1511
986.60 0.151
986.70 0.1509
986.80 0.1509
986.90 0.1508
987.00 0.1507
987.10 0.1506
987.20 0.1505
987.30 0.1504
987.40 0.1504
987.50 0.1503
987.60 0.1502
987.70 0.1501
987.80 0.15
987.90 0.1499
988.00 0.1499
988.10 0.1498
988.20 0.1497
988.30 0.1496
988.40 0.1495
988.50 0.1494
988.60 0.1494
988.70 0.1493
988.80 0.1492
988.90 0.1491
989.00 0.149
989.10 0.1489
989.20 0.1488
989.30 0.1487
989.40 0.1486
989.50 0.1485
989.60 0.1484
989.70 0.1483
989.80 0.1482
989.90 0.1481
990.00 0.148
990.10 0.1479
990.20 0.1478
990.30 0.1477
990.40 0.1476
990.50 0.1475
990.60 0.1474
990.70 0.1473
990.80 0.1472
990.90 0.147
991.00 0.1469
991.10 0.1468
991.20 0.1467
991.30 0.1466
991.40 0.1465
991.50 0.1464
991.60 0.1462
991.70 0.1461
991.80 0.146
991.90 0.1459
992.00 0.1458
992.10 0.1457
992.20 0.1455
992.30 0.1454
992.40 0.1453
992.50 0.1451
992.60 0.145
992.70 0.1449
992.80 0.1447
992.90 0.1446
993.00 0.1444
993.10 0.1443
993.20 0.1441
993.30 0.144
993.40 0.1438
993.50 0.1437
993.60 0.1435
993.70 0.1434
993.80 0.1432
993.90 0.1431
994.00 0.1429
994.10 0.1428
994.20 0.1426
994.30 0.1425
994.40 0.1423
994.50 0.1422
994.60 0.142
994.70 0.1418
994.80 0.1416
994.90 0.1415
995.00 0.1413
995.10 0.1411
995.20 0.1409
995.30 0.1407
995.40 0.1405
995.50 0.1403
995.60 0.1402
995.70 0.1399
995.80 0.1397
995.90 0.1395
996.00 0.1393
996.10 0.139
996.20 0.1388
996.30 0.1386
996.40 0.1384
996.50 0.1381
996.60 0.1379
996.70 0.1377
996.80 0.1375
996.90 0.1373
997.00 0.137
997.10 0.1368
997.20 0.1365
997.30 0.1363
997.40 0.136
997.50 0.1357
997.60 0.1355
997.70 0.1352
997.80 0.1348
997.90 0.1345
998.00 0.1341
998.10 0.1338
998.20 0.1335
998.30 0.1331
998.40 0.1328
998.50 0.1325
998.60 0.1321
998.70 0.1318
998.80 0.1315
998.90 0.1311
999.00 0.1308
999.10 0.1305
999.20 0.1301
999.30 0.1298
999.40 0.1295
999.50 0.1291
999.60 0.1288
999.70 0.1283
999.80 0.1278
999.90 0.1273
1000.00 0.1268
1000.10 0.1263
1000.20 0.1258
1000.30 0.1254
1000.40 0.1249
1000.50 0.1244
1000.60 0.1239
1000.70 0.1234
1000.80 0.1229
1000.90 0.1224
1001.00 0.1219
1001.10 0.1214
1001.20 0.1209
1001.30 0.1204
1001.40 0.1199
1001.50 0.1194
1001.60 0.1189
1001.70 0.1183
1001.80 0.1177
1001.90 0.1171
1002.00 0.1165
1002.10 0.1158
1002.20 0.1151
1002.30 0.1144
1002.40 0.1137
1002.50 0.113
1002.60 0.1123
1002.70 0.1116
1002.80 0.1109
1002.90 0.1102
1003.00 0.1095
1003.10 0.1088
1003.20 0.1081
1003.30 0.1074
1003.40 0.1066
1003.50 0.1059
1003.60 0.1051
1003.70 0.1044
1003.80 0.1036
1003.90 0.1029
1004.00 0.1023
1004.10 0.1016
1004.20 0.101
1004.30 0.1006
1004.40 0.1002
1004.50 0.1003
1004.60 0.1019
1004.70 0.1008
1004.80 0.1
1004.90 0.1002
1005.00 0.1005
1005.10 0.101
1005.20 0.1016
1005.30 0.1022
1005.40 0.1028
1005.50 0.1035
1005.60 0.1042
1005.70 0.1048
1005.80 0.1055
1005.90 0.1062
1006.00 0.1069
1006.10 0.1076
1006.20 0.1082
1006.30 0.1088
1006.40 0.1095
1006.50 0.1101
1006.60 0.1107
1006.70 0.1113
1006.80 0.112
1006.90 0.1126
1007.00 0.1132
1007.10 0.1138
1007.20 0.1143
1007.30 0.1149
1007.40 0.1154
1007.50 0.116
1007.60 0.1165
1007.70 0.1169
1007.80 0.1174
1007.90 0.1178
1008.00 0.1182
1008.10 0.1186
1008.20 0.119
1008.30 0.1194
1008.40 0.1198
1008.50 0.1202
1008.60 0.1206
1008.70 0.121
1008.80 0.1214
1008.90 0.1218
1009.00 0.1222
1009.10 0.1227
1009.20 0.1231
1009.30 0.1235
1009.40 0.1239
1009.50 0.1243
1009.60 0.1247
1009.70 0.125
1009.80 0.1252
1009.90 0.1255
1010.00 0.1257
1010.10 0.1259
1010.20 0.1262
1010.30 0.1264
1010.40 0.1267
1010.50 0.1269
1010.60 0.1271
1010.70 0.1274
1010.80 0.1276
1010.90 0.1279
1011.00 0.1281
1011.10 0.1284
1011.20 0.1286
1011.30 0.1288
1011.40 0.1291
1011.50 0.1293
1011.60 0.1296
1011.70 0.1297
1011.80 0.1299
1011.90 0.1301
1012.00 0.1303
1012.10 0.1304
1012.20 0.1305
1012.30 0.1307
1012.40 0.1308
1012.50 0.1309
1012.60 0.1311
1012.70 0.1312
1012.80 0.1313
1012.90 0.1315
1013.00 0.1316
1013.10 0.1317
1013.20 0.1319
1013.30 0.132
1013.40 0.1321
1013.50 0.1323
1013.60 0.1324
1013.70 0.1325
1013.80 0.1326
1013.90 0.1327
1014.00 0.1328
1014.10 0.1329
1014.20 0.133
1014.30 0.1331
1014.40 0.1332
1014.50 0.1333
1014.60 0.1333
1014.70 0.1334
1014.80 0.1335
1014.90 0.1335
1015.00 0.1336
1015.10 0.1336
1015.20 0.1337
1015.30 0.1338
1015.40 0.1338
1015.50 0.1339
1015.60 0.1339
1015.70 0.134
1015.80 0.1341
1015.90 0.1341
1016.00 0.1342
1016.10 0.1342
1016.20 0.1343
1016.30 0.1343
1016.40 0.1344
1016.50 0.1345
1016.60 0.1345
1016.70 0.1346
1016.80 0.1346
1016.90 0.1346
1017.00 0.1347
1017.10 0.1347
1017.20 0.1347
1017.30 0.1347
1017.40 0.1348
1017.50 0.1348
1017.60 0.1348
1017.70 0.1348
1017.80 0.1349
1017.90 0.1349
1018.00 0.1349
1018.10 0.1349
1018.20 0.135
1018.30 0.135
1018.40 0.135
1018.50 0.135
1018.60 0.1351
1018.70 0.1351
1018.80 0.1351
1018.90 0.1351
1019.00 0.1351
1019.10 0.1351
1019.20 0.1351
1019.30 0.1351
1019.40 0.1351
1019.50 0.1351
1019.60 0.1351
1019.70 0.1351
1019.80 0.1351
1019.90 0.1352
1020.00 0.1352
1020.10 0.1352
1020.20 0.1352
1020.30 0.1352
1020.40 0.1352
1020.50 0.1352
1020.60 0.1352
1020.70 0.1352
1020.80 0.1352
1020.90 0.1352
1021.00 0.1352
1021.10 0.1352
1021.20 0.1352
1021.30 0.1352
1021.40 0.1352
1021.50 0.1352
1021.60 0.1352
1021.70 0.1352
1021.80 0.1351
1021.90 0.1351
1022.00 0.1351
1022.10 0.1351
1022.20 0.1351
1022.30 0.1351
1022.40 0.1351
1022.50 0.1351
1022.60 0.1351
1022.70 0.135
1022.80 0.135
1022.90 0.135
1023.00 0.135
1023.10 0.135
1023.20 0.135
1023.30 0.135
1023.40 0.1349
1023.50 0.1349
1023.60 0.1349
1023.70 0.1349
1023.80 0.1349
1023.90 0.1349
1024.00 0.1349
1024.10 0.1348
1024.20 0.1348
1024.30 0.1348
1024.40 0.1348
1024.50 0.1348
1024.60 0.1348
1024.70 0.1347
1024.80 0.1347
1024.90 0.1347
1025.00 0.1347
1025.10 0.1347
1025.20 0.1346
1025.30 0.1346
1025.40 0.1346
1025.50 0.1346
1025.60 0.1346
1025.70 0.1345
1025.80 0.1345
1025.90 0.1345
1026.00 0.1345
1026.10 0.1344
1026.20 0.1344
1026.30 0.1344
1026.40 0.1344
1026.50 0.1344
1026.60 0.1343
1026.70 0.1343
1026.80 0.1343
1026.90 0.1343
1027.00 0.1342
1027.10 0.1342
1027.20 0.1342
1027.30 0.1342
1027.40 0.1341
1027.50 0.1341
1027.60 0.1341
1027.70 0.134
1027.80 0.134
1027.90 0.134
1028.00 0.1339
1028.10 0.1339
1028.20 0.1339
1028.30 0.1339
1028.40 0.1338
1028.50 0.1338
1028.60 0.1338
1028.70 0.1337
1028.80 0.1337
1028.90 0.1337
1029.00 0.1336
1029.10 0.1336
1029.20 0.1336
1029.30 0.1336
1029.40 0.1335
1029.50 0.1335
1029.60 0.1335
1029.70 0.1334
1029.80 0.1334
1029.90 0.1334
1030.00 0.1333
1030.10 0.1333
1030.20 0.1333
1030.30 0.1333
1030.40 0.1332
1030.50 0.1332
1030.60 0.1332
1030.70 0.1331
1030.80 0.1331
1030.90 0.1331
1031.00 0.133
1031.10 0.133
1031.20 0.133
1031.30 0.133
1031.40 0.1329
1031.50 0.1329
1031.60 0.1329
1031.70 0.1328
1031.80 0.1328
1031.90 0.1328
1032.00 0.1327
1032.10 0.1327
1032.20 0.1327
1032.30 0.1326
1032.40 0.1326
1032.50 0.1326
1032.60 0.1325
1032.70 0.1325
1032.80 0.1325
1032.90 0.1324
1033.00 0.1324
1033.10 0.1324
1033.20 0.1323
1033.30 0.1323
1033.40 0.1323
1033.50 0.1322
1033.60 0.1322
1033.70 0.1322
1033.80 0.1321
1033.90 0.1321
1034.00 0.1321
1034.10 0.132
1034.20 0.132
1034.30 0.1319
1034.40 0.1319
1034.50 0.1319
1034.60 0.1318
1034.70 0.1318
1034.80 0.1318
1034.90 0.1317
1035.00 0.1317
1035.10 0.1317
1035.20 0.1316
1035.30 0.1316
1035.40 0.1316
1035.50 0.1315
1035.60 0.1315
1035.70 0.1315
1035.80 0.1314
1035.90 0.1314
1036.00 0.1314
1036.10 0.1313
1036.20 0.1313
1036.30 0.1313
1036.40 0.1312
1036.50 0.1312
1036.60 0.1312
1036.70 0.1311
1036.80 0.1311
1036.90 0.1311
1037.00 0.131
1037.10 0.131
1037.20 0.1309
1037.30 0.1309
1037.40 0.1309
1037.50 0.1308
1037.60 0.1308
1037.70 0.1308
1037.80 0.1307
1037.90 0.1307
1038.00 0.1306
1038.10 0.1306
1038.20 0.1306
1038.30 0.1305
1038.40 0.1305
1038.50 0.1305
1038.60 0.1304
1038.70 0.1304
1038.80 0.1303
1038.90 0.1303
1039.00 0.1303
1039.10 0.1302
1039.20 0.1302
1039.30 0.1302
1039.40 0.1301
1039.50 0.1301
1039.60 0.13
1039.70 0.13
1039.80 0.13
1039.90 0.1299
1040.00 0.1299
1040.10 0.1299
1040.20 0.1298
1040.30 0.1298
1040.40 0.1297
1040.50 0.1297
1040.60 0.1297
1040.70 0.1296
1040.80 0.1296
1040.90 0.1296
1041.00 0.1295
1041.10 0.1295
1041.20 0.1294
1041.30 0.1294
1041.40 0.1294
1041.50 0.1293
1041.60 0.1293
1041.70 0.1293
1041.80 0.1292
1041.90 0.1292
1042.00 0.1291
1042.10 0.1291
1042.20 0.1291
1042.30 0.129
1042.40 0.129
1042.50 0.129
1042.60 0.1289
1042.70 0.1289
1042.80 0.1288
1042.90 0.1288
1043.00 0.1288
1043.10 0.1287
1043.20 0.1287
1043.30 0.1286
1043.40 0.1286
1043.50 0.1286
1043.60 0.1285
1043.70 0.1285
1043.80 0.1285
1043.90 0.1284
1044.00 0.1284
1044.10 0.1283
1044.20 0.1283
1044.30 0.1283
1044.40 0.1282
1044.50 0.1282
1044.60 0.1281
1044.70 0.1281
1044.80 0.1281
1044.90 0.128
1045.00 0.128
1045.10 0.128
1045.20 0.1279
1045.30 0.1279
1045.40 0.1278
1045.50 0.1278
1045.60 0.1278
1045.70 0.1277
1045.80 0.1277
1045.90 0.1276
1046.00 0.1276
1046.10 0.1276
1046.20 0.1275
1046.30 0.1275
1046.40 0.1275
1046.50 0.1274
1046.60 0.1274
1046.70 0.1273
1046.80 0.1273
1046.90 0.1273
1047.00 0.1272
1047.10 0.1272
1047.20 0.1271
1047.30 0.1271
1047.40 0.1271
1047.50 0.127
1047.60 0.127
1047.70 0.1269
1047.80 0.1269
1047.90 0.1269
1048.00 0.1268
1048.10 0.1268
1048.20 0.1268
1048.30 0.1267
1048.40 0.1267
1048.50 0.1266
1048.60 0.1266
1048.70 0.1266
1048.80 0.1265
1048.90 0.1265
1049.00 0.1264
1049.10 0.1264
1049.20 0.1264
1049.30 0.1263
1049.40 0.1263
1049.50 0.1262
1049.60 0.1262
1049.70 0.1262
1049.80 0.1261
1049.90 0.1261
1050.00 0.126
1050.10 0.126
1050.20 0.126
1050.30 0.1259
1050.40 0.1259
1050.50 0.1258
1050.60 0.1258
1050.70 0.1258
1050.80 0.1257
1050.90 0.1257
1051.00 0.1257
1051.10 0.1256
1051.20 0.1256
1051.30 0.1255
1051.40 0.1255
1051.50 0.1255
1051.60 0.1254
1051.70 0.1254
1051.80 0.1253
1051.90 0.1253
1052.00 0.1253
1052.10 0.1252
1052.20 0.1252
1052.30 0.1251
1052.40 0.1251
1052.50 0.1251
1052.60 0.125
1052.70 0.125
1052.80 0.1249
1052.90 0.1249
1053.00 0.1249
1053.10 0.1248
1053.20 0.1248
1053.30 0.1247
1053.40 0.1247
1053.50 0.1247
1053.60 0.1246
1053.70 0.1246
1053.80 0.1245
1053.90 0.1245
1054.00 0.1245
1054.10 0.1244
1054.20 0.1244
1054.30 0.1244
1054.40 0.1243
1054.50 0.1243
1054.60 0.1242
1054.70 0.1242
1054.80 0.1242
1054.90 0.1241
1055.00 0.1241
1055.10 0.124
1055.20 0.124
1055.30 0.124
1055.40 0.1239
1055.50 0.1239
1055.60 0.1238
1055.70 0.1238
1055.80 0.1238
1055.90 0.1237
1056.00 0.1237
1056.10 0.1236
1056.20 0.1236
1056.30 0.1236
1056.40 0.1235
1056.50 0.1235
1056.60 0.1234
1056.70 0.1234
1056.80 0.1234
1056.90 0.1233
1057.00 0.1233
1057.10 0.1232
1057.20 0.1232
1057.30 0.1232
1057.40 0.1231
1057.50 0.1231
1057.60 0.123
1057.70 0.123
1057.80 0.123
1057.90 0.1229
1058.00 0.1229
1058.10 0.1228
1058.20 0.1228
1058.30 0.1227
1058.40 0.1227
1058.50 0.1227
1058.60 0.1226
1058.70 0.1226
1058.80 0.1225
1058.90 0.1225
1059.00 0.1225
1059.10 0.1224
1059.20 0.1224
1059.30 0.1223
1059.40 0.1223
1059.50 0.1222
1059.60 0.1222
1059.70 0.1222
1059.80 0.1221
1059.90 0.1221
1060.00 0.122
1060.10 0.122
1060.20 0.122
1060.30 0.1219
1060.40 0.1219
1060.50 0.1218
1060.60 0.1218
1060.70 0.1218
1060.80 0.1217
1060.90 0.1217
1061.00 0.1216
1061.10 0.1216
1061.20 0.1215
1061.30 0.1215
1061.40 0.1215
1061.50 0.1214
1061.60 0.1214
1061.70 0.1213
1061.80 0.1213
1061.90 0.1213
1062.00 0.1212
1062.10 0.1212
1062.20 0.1211
1062.30 0.1211
1062.40 0.121
1062.50 0.121
1062.60 0.121
1062.70 0.1209
1062.80 0.1209
1062.90 0.1208
1063.00 0.1208
1063.10 0.1207
1063.20 0.1207
1063.30 0.1207
1063.40 0.1206
1063.50 0.1206
1063.60 0.1205
1063.70 0.1205
1063.80 0.1204
1063.90 0.1204
1064.00 0.1204
1064.10 0.1203
1064.20 0.1203
1064.30 0.1202
1064.40 0.1202
1064.50 0.1201
1064.60 0.1201
1064.70 0.1201
1064.80 0.12
1064.90 0.12
1065.00 0.1199
1065.10 0.1199
1065.20 0.1198
1065.30 0.1198
1065.40 0.1198
1065.50 0.1197
1065.60 0.1197
1065.70 0.1196
1065.80 0.1196
1065.90 0.1195
1066.00 0.1195
1066.10 0.1195
1066.20 0.1194
1066.30 0.1194
1066.40 0.1193
1066.50 0.1193
1066.60 0.1192
1066.70 0.1192
1066.80 0.1192
1066.90 0.1191
1067.00 0.1191
1067.10 0.119
1067.20 0.119
1067.30 0.1189
1067.40 0.1189
1067.50 0.1188
1067.60 0.1188
1067.70 0.1187
1067.80 0.1187
1067.90 0.1186
1068.00 0.1186
1068.10 0.1185
1068.20 0.1185
1068.30 0.1184
1068.40 0.1184
1068.50 0.1183
1068.60 0.1183
1068.70 0.1182
1068.80 0.1182
1068.90 0.1181
1069.00 0.1181
1069.10 0.118
1069.20 0.118
1069.30 0.1179
1069.40 0.1179
1069.50 0.1178
1069.60 0.1178
1069.70 0.1177
1069.80 0.1177
1069.90 0.1176
1070.00 0.1176
1070.10 0.1176
1070.20 0.1175
1070.30 0.1175
1070.40 0.1174
1070.50 0.1174
1070.60 0.1173
1070.70 0.1173
1070.80 0.1172
1070.90 0.1172
1071.00 0.1171
1071.10 0.1171
1071.20 0.117
1071.30 0.117
1071.40 0.1169
1071.50 0.1169
1071.60 0.1168
1071.70 0.1168
1071.80 0.1167
1071.90 0.1167
1072.00 0.1166
1072.10 0.1166
1072.20 0.1165
1072.30 0.1165
1072.40 0.1164
1072.50 0.1164
1072.60 0.1163
1072.70 0.1163
1072.80 0.1162
1072.90 0.1161
1073.00 0.1161
1073.10 0.116
1073.20 0.116
1073.30 0.1159
1073.40 0.1159
1073.50 0.1158
1073.60 0.1158
1073.70 0.1157
1073.80 0.1156
1073.90 0.1156
1074.00 0.1155
1074.10 0.1155
1074.20 0.1154
1074.30 0.1153
1074.40 0.1153
1074.50 0.1152
1074.60 0.1152
1074.70 0.1151
1074.80 0.115
1074.90 0.115
1075.00 0.1149
1075.10 0.1148
1075.20 0.1148
1075.30 0.1147
1075.40 0.1147
1075.50 0.1146
1075.60 0.1145
1075.70 0.1145
1075.80 0.1144
1075.90 0.1144
1076.00 0.1143
1076.10 0.1142
1076.20 0.1142
1076.30 0.1141
1076.40 0.1141
1076.50 0.114
1076.60 0.1139
1076.70 0.1139
1076.80 0.1138
1076.90 0.1138
1077.00 0.1137
1077.10 0.1136
1077.20 0.1135
1077.30 0.1135
1077.40 0.1134
1077.50 0.1133
1077.60 0.1132
1077.70 0.1132
1077.80 0.1131
1077.90 0.113
1078.00 0.1129
1078.10 0.1129
1078.20 0.1128
1078.30 0.1127
1078.40 0.1126
1078.50 0.1126
1078.60 0.1125
1078.70 0.1124
1078.80 0.1123
1078.90 0.1122
1079.00 0.1122
1079.10 0.1121
1079.20 0.112
1079.30 0.1119
1079.40 0.1119
1079.50 0.1118
1079.60 0.1117
1079.70 0.1116
1079.80 0.1115
1079.90 0.1114
1080.00 0.1113
1080.10 0.1112
1080.20 0.1112
1080.30 0.1111
1080.40 0.111
1080.50 0.1109
1080.60 0.1108
1080.70 0.1107
1080.80 0.1106
1080.90 0.1105
1081.00 0.1104
1081.10 0.1103
1081.20 0.1103
1081.30 0.1102
1081.40 0.1101
1081.50 0.11
1081.60 0.1099
1081.70 0.1098
1081.80 0.1097
1081.90 0.1096
1082.00 0.1095
1082.10 0.1093
1082.20 0.1092
1082.30 0.1091
1082.40 0.109
1082.50 0.1089
1082.60 0.1087
1082.70 0.1086
1082.80 0.1085
1082.90 0.1084
1083.00 0.1082
1083.10 0.1081
1083.20 0.108
1083.30 0.1079
1083.40 0.1078
1083.50 0.1076
1083.60 0.1075
1083.70 0.1073
1083.80 0.1072
1083.90 0.107
1084.00 0.1069
1084.10 0.1067
1084.20 0.1066
1084.30 0.1064
1084.40 0.1063
1084.50 0.1061
1084.60 0.106
1084.70 0.1058
1084.80 0.1056
1084.90 0.1054
1085.00 0.1052
1085.10 0.105
1085.20 0.1048
1085.30 0.1047
1085.40 0.1045
1085.50 0.1043
1085.60 0.1041
1085.70 0.1039
1085.80 0.1037
1085.90 0.1036
1086.00 0.1034
1086.10 0.1032
1086.20 0.103
1086.30 0.1028
1086.40 0.1026
1086.50 0.1024
1086.60 0.1022
1086.70 0.102
1086.80 0.1018
1086.90 0.1015
1087.00 0.1013
1087.10 0.101
1087.20 0.1008
1087.30 0.1005
1087.40 0.1002
1087.50 0.09994
1087.60 0.09966
1087.70 0.09938
1087.80 0.09911
1087.90 0.09883
1088.00 0.09855
1088.10 0.09828
1088.20 0.098
1088.30 0.09772
1088.40 0.09745
1088.50 0.09714
1088.60 0.09675
1088.70 0.09636
1088.80 0.09597
1088.90 0.09558
1089.00 0.09519
1089.10 0.0948
1089.20 0.09442
1089.30 0.09403
1089.40 0.09364
1089.50 0.09325
1089.60 0.09287
1089.70 0.09248
1089.80 0.09209
1089.90 0.0917
1090.00 0.09132
1090.10 0.09093
1090.20 0.09054
1090.30 0.09016
1090.40 0.08977
1090.50 0.08935
1090.60 0.08884
1090.70 0.08833
1090.80 0.08782
1090.90 0.08731
1091.00 0.0868
1091.10 0.0863
1091.20 0.08579
1091.30 0.08528
1091.40 0.08477
1091.50 0.08427
1091.60 0.08376
1091.70 0.08325
1091.80 0.08275
1091.90 0.08224
1092.00 0.08171
1092.10 0.08111
1092.20 0.08052
1092.30 0.07992
1092.40 0.07932
1092.50 0.07873
1092.60 0.07813
1092.70 0.07751
1092.80 0.07685
1092.90 0.07619
1093.00 0.07552
1093.10 0.07484
1093.20 0.07409
1093.30 0.07335
1093.40 0.07279
1093.50 0.0729
1093.60 0.07304
1093.70 0.07372
1093.80 0.07443
1093.90 0.07511
1094.00 0.07573
1094.10 0.07634
1094.20 0.07696
1094.30 0.07755
1094.40 0.0781
1094.50 0.07865
1094.60 0.07919
1094.70 0.07974
1094.80 0.08029
1094.90 0.08084
1095.00 0.08135
1095.10 0.0818
1095.20 0.08225
1095.30 0.08271
1095.40 0.08316
1095.50 0.08361
1095.60 0.08406
1095.70 0.08451
1095.80 0.08496
1095.90 0.08541
1096.00 0.08586
1096.10 0.08631
1096.20 0.08676
1096.30 0.08721
1096.40 0.08766
1096.50 0.08808
1096.60 0.08846
1096.70 0.08884
1096.80 0.08921
1096.90 0.08959
1097.00 0.08996
1097.10 0.09027
1097.20 0.09057
1097.30 0.09088
1097.40 0.09118
1097.50 0.09149
1097.60 0.09179
1097.70 0.0921
1097.80 0.0924
1097.90 0.09271
1098.00 0.09301
1098.10 0.09332
1098.20 0.09362
1098.30 0.09393
1098.40 0.09423
1098.50 0.0945
1098.60 0.0947
1098.70 0.09489
1098.80 0.09509
1098.90 0.09529
1099.00 0.09548
1099.10 0.09568
1099.20 0.09587
1099.30 0.09607
1099.40 0.09626
1099.50 0.09646
1099.60 0.09666
1099.70 0.09685
1099.80 0.09705
1099.90 0.09724
1100.00 0.09744
1100.10 0.09763
1100.20 0.09783
1100.30 0.09802
1100.40 0.09822
1100.50 0.09839
1100.60 0.09851
1100.70 0.09864
1100.80 0.09876
1100.90 0.09888
1101.00 0.09901
1101.10 0.09913
1101.20 0.09925
1101.30 0.09938
1101.40 0.0995
1101.50 0.09962
1101.60 0.09975
1101.70 0.09987
1101.80 0.09999
1101.90 0.1001
1102.00 0.1002
1102.10 0.1003
1102.20 0.1004
1102.30 0.1005
1102.40 0.1006
1102.50 0.1007
1102.60 0.1008
1102.70 0.1009
1102.80 0.1009
1102.90 0.101
1103.00 0.1011
1103.10 0.1012
1103.20 0.1013
1103.30 0.1013
1103.40 0.1014
1103.50 0.1015
1103.60 0.1015
1103.70 0.1016
1103.80 0.1016
1103.90 0.1017
1104.00 0.1017
1104.10 0.1018
1104.20 0.1018
1104.30 0.1019
1104.40 0.1019
1104.50 0.102
1104.60 0.102
1104.70 0.1021
1104.80 0.1021
1104.90 0.1022
1105.00 0.1022
1105.10 0.1023
1105.20 0.1023
1105.30 0.1024
1105.40 0.1024
1105.50 0.1025
1105.60 0.1025
1105.70 0.1025
1105.80 0.1025
1105.90 0.1026
1106.00 0.1026
1106.10 0.1026
1106.20 0.1026
1106.30 0.1027
1106.40 0.1027
1106.50 0.1027
1106.60 0.1027
1106.70 0.1027
1106.80 0.1028
1106.90 0.1028
1107.00 0.1028
1107.10 0.1028
1107.20 0.1029
1107.30 0.1029
1107.40 0.1029
1107.50 0.1029
1107.60 0.1029
1107.70 0.1029
1107.80 0.1029
1107.90 0.1029
1108.00 0.1029
1108.10 0.1029
1108.20 0.1029
1108.30 0.103
1108.40 0.103
1108.50 0.103
1108.60 0.103
1108.70 0.103
1108.80 0.103
1108.90 0.103
1109.00 0.103
1109.10 0.103
1109.20 0.103
1109.30 0.103
1109.40 0.103
1109.50 0.103
1109.60 0.103
1109.70 0.103
1109.80 0.103
1109.90 0.103
1110.00 0.103
1110.10 0.103
1110.20 0.103
1110.30 0.103
1110.40 0.103
1110.50 0.103
1110.60 0.103
1110.70 0.103
1110.80 0.103
1110.90 0.103
1111.00 0.103
1111.10 0.103
1111.20 0.103
1111.30 0.103
1111.40 0.103
1111.50 0.103
1111.60 0.103
1111.70 0.103
1111.80 0.103
1111.90 0.103
1112.00 0.103
1112.10 0.103
1112.20 0.103
1112.30 0.103
1112.40 0.1029
1112.50 0.1029
1112.60 0.1029
1112.70 0.1029
1112.80 0.1029
1112.90 0.1029
1113.00 0.1029
1113.10 0.1029
1113.20 0.1029
1113.30 0.1029
1113.40 0.1028
1113.50 0.1028
1113.60 0.1028
1113.70 0.1028
1113.80 0.1028
1113.90 0.1028
1114.00 0.1027
1114.10 0.1027
1114.20 0.1027
1114.30 0.1027
1114.40 0.1027
1114.50 0.1027
1114.60 0.1027
1114.70 0.1026
1114.80 0.1026
1114.90 0.1026
1115.00 0.1026
1115.10 0.1026
1115.20 0.1026
1115.30 0.1025
1115.40 0.1025
1115.50 0.1025
1115.60 0.1025
1115.70 0.1025
1115.80 0.1025
1115.90 0.1024
1116.00 0.1024
1116.10 0.1024
1116.20 0.1024
1116.30 0.1024
1116.40 0.1024
1116.50 0.1023
1116.60 0.1023
1116.70 0.1023
1116.80 0.1023
1116.90 0.1023
1117.00 0.1023
1117.10 0.1022
1117.20 0.1022
1117.30 0.1022
1117.40 0.1022
1117.50 0.1022
1117.60 0.1021
1117.70 0.1021
1117.80 0.1021
1117.90 0.1021
1118.00 0.1021
1118.10 0.102
1118.20 0.102
1118.30 0.102
1118.40 0.102
1118.50 0.102
1118.60 0.1019
1118.70 0.1019
1118.80 0.1019
1118.90 0.1019
1119.00 0.1018
1119.10 0.1018
1119.20 0.1018
1119.30 0.1018
1119.40 0.1018
1119.50 0.1017
1119.60 0.1017
1119.70 0.1017
1119.80 0.1017
1119.90 0.1017
1120.00 0.1016
1120.10 0.1016
1120.20 0.1016
1120.30 0.1016
1120.40 0.1015
1120.50 0.1015
1120.60 0.1015
1120.70 0.1015
1120.80 0.1015
1120.90 0.1014
1121.00 0.1014
1121.10 0.1014
1121.20 0.1014
1121.30 0.1014
1121.40 0.1013
1121.50 0.1013
1121.60 0.1013
1121.70 0.1013
1121.80 0.1013
1121.90 0.1012
1122.00 0.1012
1122.10 0.1012
1122.20 0.1012
1122.30 0.1011
1122.40 0.1011
1122.50 0.1011
1122.60 0.1011
1122.70 0.101
1122.80 0.101
1122.90 0.101
1123.00 0.101
1123.10 0.1009
1123.20 0.1009
1123.30 0.1009
1123.40 0.1009
1123.50 0.1008
1123.60 0.1008
1123.70 0.1008
1123.80 0.1008
1123.90 0.1007
1124.00 0.1007
1124.10 0.1007
1124.20 0.1007
1124.30 0.1006
1124.40 0.1006
1124.50 0.1006
1124.60 0.1006
1124.70 0.1005
1124.80 0.1005
1124.90 0.1005
1125.00 0.1005
1125.10 0.1004
1125.20 0.1004
1125.30 0.1004
1125.40 0.1004
1125.50 0.1003
1125.60 0.1003
1125.70 0.1003
1125.80 0.1003
1125.90 0.1002
1126.00 0.1002
1126.10 0.1002
1126.20 0.1002
1126.30 0.1001
1126.40 0.1001
1126.50 0.1001
1126.60 0.1001
1126.70 0.1
1126.80 0.1
1126.90 0.09999
1127.00 0.09997
1127.10 0.09994
1127.20 0.09991
1127.30 0.09989
1127.40 0.09986
1127.50 0.09983
1127.60 0.09981
1127.70 0.09978
1127.80 0.09976
1127.90 0.09973
1128.00 0.0997
1128.10 0.09968
1128.20 0.09965
1128.30 0.09962
1128.40 0.0996
1128.50 0.09957
1128.60 0.09955
1128.70 0.09952
1128.80 0.09949
1128.90 0.09947
1129.00 0.09944
1129.10 0.09941
1129.20 0.09939
1129.30 0.09936
1129.40 0.09934
1129.50 0.09931
1129.60 0.09928
1129.70 0.09926
1129.80 0.09923
1129.90 0.09921
1130.00 0.09918
1130.10 0.09915
1130.20 0.09913
1130.30 0.0991
1130.40 0.09907
1130.50 0.09905
1130.60 0.09902
1130.70 0.099
1130.80 0.09897
1130.90 0.09894
1131.00 0.09892
1131.10 0.09889
1131.20 0.09887
1131.30 0.09884
1131.40 0.09881
1131.50 0.09879
1131.60 0.09876
1131.70 0.09874
1131.80 0.09871
1131.90 0.09868
1132.00 0.09866
1132.10 0.09863
1132.20 0.0986
1132.30 0.09858
1132.40 0.09855
1132.50 0.09852
1132.60 0.0985
1132.70 0.09847
1132.80 0.09844
1132.90 0.09842
1133.00 0.09839
1133.10 0.09836
1133.20 0.09833
1133.30 0.09831
1133.40 0.09828
1133.50 0.09825
1133.60 0.09823
1133.70 0.0982
1133.80 0.09817
1133.90 0.09814
1134.00 0.09812
1134.10 0.09809
1134.20 0.09806
1134.30 0.09804
1134.40 0.09801
1134.50 0.09798
1134.60 0.09796
1134.70 0.09793
1134.80 0.0979
1134.90 0.09788
1135.00 0.09785
1135.10 0.09782
1135.20 0.09779
1135.30 0.09777
1135.40 0.09774
1135.50 0.09771
1135.60 0.09769
1135.70 0.09766
1135.80 0.09763
1135.90 0.09761
1136.00 0.09758
1136.10 0.09755
1136.20 0.09753
1136.30 0.0975
1136.40 0.09747
1136.50 0.09745
1136.60 0.09742
1136.70 0.09739
1136.80 0.09737
1136.90 0.09734
1137.00 0.09731
1137.10 0.09729
1137.20 0.09726
1137.30 0.09723
1137.40 0.0972
1137.50 0.09718
1137.60 0.09715
1137.70 0.09712
1137.80 0.0971
1137.90 0.09707
1138.00 0.09704
1138.10 0.09701
1138.20 0.09699
1138.30 0.09696
1138.40 0.09693
1138.50 0.09691
1138.60 0.09688
1138.70 0.09685
1138.80 0.09682
1138.90 0.0968
1139.00 0.09677
1139.10 0.09674
1139.20 0.09672
1139.30 0.09669
1139.40 0.09666
1139.50 0.09664
1139.60 0.09661
1139.70 0.09658
1139.80 0.09655
1139.90 0.09653
1140.00 0.0965
1140.10 0.09647
1140.20 0.09645
1140.30 0.09642
1140.40 0.09639
1140.50 0.09637
1140.60 0.09634
1140.70 0.09631
1140.80 0.09629
1140.90 0.09626
1141.00 0.09623
1141.10 0.0962
1141.20 0.09618
1141.30 0.09615
1141.40 0.09612
1141.50 0.0961
1141.60 0.09607
1141.70 0.09604
1141.80 0.09602
1141.90 0.09599
1142.00 0.09596
1142.10 0.09594
1142.20 0.09591
1142.30 0.09588
1142.40 0.09585
1142.50 0.09583
1142.60 0.0958
1142.70 0.09577
1142.80 0.09575
1142.90 0.09572
1143.00 0.09569
1143.10 0.09567
1143.20 0.09564
1143.30 0.09561
1143.40 0.09558
1143.50 0.09556
1143.60 0.09553
1143.70 0.0955
1143.80 0.09548
1143.90 0.09545
1144.00 0.09542
1144.10 0.0954
1144.20 0.09537
1144.30 0.09534
1144.40 0.09531
1144.50 0.09529
1144.60 0.09526
1144.70 0.09523
1144.80 0.09521
1144.90 0.09518
1145.00 0.09515
1145.10 0.09513
1145.20 0.0951
1145.30 0.09507
1145.40 0.09505
1145.50 0.09502
1145.60 0.09499
1145.70 0.09497
1145.80 0.09494
1145.90 0.09491
1146.00 0.09489
1146.10 0.09486
1146.20 0.09483
1146.30 0.0948
1146.40 0.09478
1146.50 0.09475
1146.60 0.09472
1146.70 0.0947
1146.80 0.09467
1146.90 0.09464
1147.00 0.09462
1147.10 0.09459
1147.20 0.09456
1147.30 0.09454
1147.40 0.09451
1147.50 0.09448
1147.60 0.09446
1147.70 0.09443
1147.80 0.0944
1147.90 0.09438
1148.00 0.09435
1148.10 0.09432
1148.20 0.0943
1148.30 0.09427
1148.40 0.09424
1148.50 0.09422
1148.60 0.09419
1148.70 0.09416
1148.80 0.09414
1148.90 0.09411
1149.00 0.09408
1149.10 0.09406
1149.20 0.09403
1149.30 0.094
1149.40 0.09398
1149.50 0.09395
1149.60 0.09392
1149.70 0.0939
1149.80 0.09387
1149.90 0.09384
1150.00 0.09382
1150.10 0.09379
1150.20 0.09376
1150.30 0.09374
1150.40 0.09371
1150.50 0.09369
1150.60 0.09366
1150.70 0.09363
1150.80 0.09361
1150.90 0.09358
1151.00 0.09355
1151.10 0.09353
1151.20 0.0935
1151.30 0.09347
1151.40 0.09345
1151.50 0.09342
1151.60 0.09339
1151.70 0.09337
1151.80 0.09334
1151.90 0.09331
1152.00 0.09329
1152.10 0.09326
1152.20 0.09324
1152.30 0.09321
1152.40 0.09318
1152.50 0.09316
1152.60 0.09313
1152.70 0.0931
1152.80 0.09308
1152.90 0.09305
1153.00 0.09302
1153.10 0.093
1153.20 0.09297
1153.30 0.09294
1153.40 0.09292
1153.50 0.09289
1153.60 0.09286
1153.70 0.09284
1153.80 0.09281
1153.90 0.09279
1154.00 0.09276
1154.10 0.09273
1154.20 0.09271
1154.30 0.09268
1154.40 0.09265
1154.50 0.09263
1154.60 0.0926
1154.70 0.09257
1154.80 0.09255
1154.90 0.09252
1155.00 0.0925
1155.10 0.09247
1155.20 0.09244
1155.30 0.09242
1155.40 0.09239
1155.50 0.09236
1155.60 0.09234
1155.70 0.09231
1155.80 0.09229
1155.90 0.09226
1156.00 0.09223
1156.10 0.09221
1156.20 0.09218
1156.30 0.09215
1156.40 0.09213
1156.50 0.0921
1156.60 0.09208
1156.70 0.09205
1156.80 0.09202
1156.90 0.092
1157.00 0.09197
1157.10 0.09194
1157.20 0.09192
1157.30 0.09189
1157.40 0.09187
1157.50 0.09184
1157.60 0.09181
1157.70 0.09179
1157.80 0.09176
1157.90 0.09174
1158.00 0.09171
1158.10 0.09168
1158.20 0.09166
1158.30 0.09163
1158.40 0.09161
1158.50 0.09158
1158.60 0.09155
1158.70 0.09153
1158.80 0.0915
1158.90 0.09148
1159.00 0.09145
1159.10 0.09142
1159.20 0.0914
1159.30 0.09137
1159.40 0.09135
1159.50 0.09132
1159.60 0.09129
1159.70 0.09127
1159.80 0.09124
1159.90 0.09122
1160.00 0.09119
1160.10 0.09116
1160.20 0.09114
1160.30 0.09111
1160.40 0.09109
1160.50 0.09106
1160.60 0.09103
1160.70 0.09101
1160.80 0.09098
1160.90 0.09096
1161.00 0.09093
1161.10 0.0909
1161.20 0.09088
1161.30 0.09085
1161.40 0.09083
1161.50 0.0908
1161.60 0.09078
1161.70 0.09075
1161.80 0.09072
1161.90 0.0907
1162.00 0.09067
1162.10 0.09065
1162.20 0.09062
1162.30 0.0906
1162.40 0.09057
1162.50 0.09054
1162.60 0.09052
1162.70 0.09049
1162.80 0.09047
1162.90 0.09044
1163.00 0.09042
1163.10 0.09039
1163.20 0.09036
1163.30 0.09034
1163.40 0.09031
1163.50 0.09029
1163.60 0.09026
1163.70 0.09024
1163.80 0.09021
1163.90 0.09018
1164.00 0.09016
1164.10 0.09013
1164.20 0.09011
1164.30 0.09008
1164.40 0.09006
1164.50 0.09003
1164.60 0.09001
1164.70 0.08998
1164.80 0.08995
1164.90 0.08993
1165.00 0.0899
1165.10 0.08988
1165.20 0.08985
1165.30 0.08983
1165.40 0.0898
1165.50 0.08978
1165.60 0.08975
1165.70 0.08972
1165.80 0.0897
1165.90 0.08967
1166.00 0.08965
1166.10 0.08962
1166.20 0.0896
1166.30 0.08957
1166.40 0.08955
1166.50 0.08952
1166.60 0.08949
1166.70 0.08947
1166.80 0.08944
1166.90 0.08942
1167.00 0.08939
1167.10 0.08937
1167.20 0.08934
1167.30 0.08932
1167.40 0.08929
1167.50 0.08927
1167.60 0.08924
1167.70 0.08922
1167.80 0.08919
1167.90 0.08917
1168.00 0.08914
1168.10 0.08912
1168.20 0.08909
1168.30 0.08906
1168.40 0.08904
1168.50 0.08901
1168.60 0.08899
1168.70 0.08896
1168.80 0.08894
1168.90 0.08891
1169.00 0.08889
1169.10 0.08886
1169.20 0.08884
1169.30 0.08881
1169.40 0.08879
1169.50 0.08876
1169.60 0.08874
1169.70 0.08871
1169.80 0.08869
1169.90 0.08866
1170.00 0.08864
1170.10 0.08861
1170.20 0.08859
1170.30 0.08856
1170.40 0.08854
1170.50 0.08851
1170.60 0.08849
1170.70 0.08846
1170.80 0.08844
1170.90 0.08841
1171.00 0.08839
1171.10 0.08836
1171.20 0.08834
1171.30 0.08831
1171.40 0.08829
1171.50 0.08826
1171.60 0.08824
1171.70 0.08821
1171.80 0.08819
1171.90 0.08816
1172.00 0.08814
1172.10 0.08811
1172.20 0.08809
1172.30 0.08806
1172.40 0.08804
1172.50 0.08801
1172.60 0.08799
1172.70 0.08796
1172.80 0.08794
1172.90 0.08791
1173.00 0.08789
1173.10 0.08786
1173.20 0.08784
1173.30 0.08781
1173.40 0.08779
1173.50 0.08776
1173.60 0.08774
1173.70 0.08771
1173.80 0.08769
1173.90 0.08766
1174.00 0.08764
1174.10 0.08761
1174.20 0.08759
1174.30 0.08756
1174.40 0.08754
1174.50 0.08751
1174.60 0.08749
1174.70 0.08746
1174.80 0.08744
1174.90 0.08741
1175.00 0.08739
1175.10 0.08736
1175.20 0.08734
1175.30 0.08731
1175.40 0.08729
1175.50 0.08726
1175.60 0.08724
1175.70 0.08721
1175.80 0.08719
1175.90 0.08716
1176.00 0.08714
1176.10 0.08712
1176.20 0.08709
1176.30 0.08707
1176.40 0.08704
1176.50 0.08702
1176.60 0.08699
1176.70 0.08697
1176.80 0.08694
1176.90 0.08692
1177.00 0.08689
1177.10 0.08687
1177.20 0.08684
1177.30 0.08682
1177.40 0.08679
1177.50 0.08677
1177.60 0.08675
1177.70 0.08672
1177.80 0.0867
1177.90 0.08667
1178.00 0.08665
1178.10 0.08662
1178.20 0.0866
1178.30 0.08657
1178.40 0.08655
1178.50 0.08652
1178.60 0.0865
1178.70 0.08648
1178.80 0.08645
1178.90 0.08643
1179.00 0.0864
1179.10 0.08638
1179.20 0.08635
1179.30 0.08633
1179.40 0.0863
1179.50 0.08628
1179.60 0.08626
1179.70 0.08623
1179.80 0.08621
1179.90 0.08618
1180.00 0.08616
1180.10 0.08613
1180.20 0.08611
1180.30 0.08608
1180.40 0.08606
1180.50 0.08604
1180.60 0.08601
1180.70 0.08599
1180.80 0.08596
1180.90 0.08594
1181.00 0.08591
1181.10 0.08589
1181.20 0.08587
1181.30 0.08584
1181.40 0.08582
1181.50 0.08579
1181.60 0.08577
1181.70 0.08574
1181.80 0.08572
1181.90 0.0857
1182.00 0.08567
1182.10 0.08565
1182.20 0.08562
1182.30 0.0856
1182.40 0.08557
1182.50 0.08555
1182.60 0.08553
1182.70 0.0855
1182.80 0.08548
1182.90 0.08545
1183.00 0.08543
1183.10 0.08541
1183.20 0.08538
1183.30 0.08536
1183.40 0.08533
1183.50 0.08531
1183.60 0.08528
1183.70 0.08526
1183.80 0.08524
1183.90 0.08521
1184.00 0.08519
1184.10 0.08516
1184.20 0.08514
1184.30 0.08512
1184.40 0.08509
1184.50 0.08507
1184.60 0.08504
1184.70 0.08502
1184.80 0.085
1184.90 0.08497
1185.00 0.08495
1185.10 0.08492
1185.20 0.0849
1185.30 0.08488
1185.40 0.08485
1185.50 0.08483
1185.60 0.0848
1185.70 0.08478
1185.80 0.08476
1185.90 0.08473
1186.00 0.08471
1186.10 0.08468
1186.20 0.08466
1186.30 0.08464
1186.40 0.08461
1186.50 0.08459
1186.60 0.08456
1186.70 0.08454
1186.80 0.08452
1186.90 0.08449
1187.00 0.08447
1187.10 0.08444
1187.20 0.08442
1187.30 0.0844
1187.40 0.08437
1187.50 0.08435
1187.60 0.08432
1187.70 0.0843
1187.80 0.08428
1187.90 0.08425
1188.00 0.08423
1188.10 0.08421
1188.20 0.08418
1188.30 0.08416
1188.40 0.08413
1188.50 0.08411
1188.60 0.08409
1188.70 0.08406
1188.80 0.08404
1188.90 0.08402
1189.00 0.08399
1189.10 0.08397
1189.20 0.08394
1189.30 0.08392
1189.40 0.0839
1189.50 0.08387
1189.60 0.08385
1189.70 0.08383
1189.80 0.0838
1189.90 0.08378
1190.00 0.08376
1190.10 0.08373
1190.20 0.08371
1190.30 0.08368
1190.40 0.08366
1190.50 0.08364
1190.60 0.08361
1190.70 0.08359
1190.80 0.08357
1190.90 0.08354
1191.00 0.08352
1191.10 0.0835
1191.20 0.08347
1191.30 0.08345
1191.40 0.08343
1191.50 0.0834
1191.60 0.08338
1191.70 0.08335
1191.80 0.08333
1191.90 0.08331
1192.00 0.08328
1192.10 0.08326
1192.20 0.08324
1192.30 0.08321
1192.40 0.08319
1192.50 0.08317
1192.60 0.08314
1192.70 0.08312
1192.80 0.0831
1192.90 0.08307
1193.00 0.08305
1193.10 0.08303
1193.20 0.083
1193.30 0.08298
1193.40 0.08296
1193.50 0.08293
1193.60 0.08291
1193.70 0.08289
1193.80 0.08286
1193.90 0.08284
1194.00 0.08282
1194.10 0.08279
1194.20 0.08277
1194.30 0.08275
1194.40 0.08272
1194.50 0.0827
1194.60 0.08268
1194.70 0.08265
1194.80 0.08263
1194.90 0.08261
1195.00 0.08258
1195.10 0.08256
1195.20 0.08254
1195.30 0.08251
1195.40 0.08249
1195.50 0.08247
1195.60 0.08244
1195.70 0.08242
1195.80 0.0824
1195.90 0.08237
1196.00 0.08235
1196.10 0.08233
1196.20 0.0823
1196.30 0.08228
1196.40 0.08226
1196.50 0.08223
1196.60 0.08221
1196.70 0.08219
1196.80 0.08216
1196.90 0.08214
1197.00 0.08212
1197.10 0.08209
1197.20 0.08207
1197.30 0.08205
1197.40 0.08203
1197.50 0.082
1197.60 0.08198
1197.70 0.08196
1197.80 0.08193
1197.90 0.08191
1198.00 0.08189
1198.10 0.08186
1198.20 0.08184
1198.30 0.08182
1198.40 0.0818
1198.50 0.08177
1198.60 0.08175
1198.70 0.08173
1198.80 0.0817
1198.90 0.08168
1199.00 0.08166
1199.10 0.08163
1199.20 0.08161
1199.30 0.08159
1199.40 0.08157
1199.50 0.08154
1199.60 0.08152
1199.70 0.0815
1199.80 0.08147
1199.90 0.08145
1200.00 0
