# Version 2.1 - nm, norm@500 to 1, cut digits, bergeron_7000_90.dat_7000
# Wavelength(nm)  Flambda(ergs/cm^s/s/nm)
300.00 1.067
300.10 1.067
300.20 1.068
300.30 1.068
300.40 1.068
300.50 1.069
300.60 1.069
300.70 1.069
300.80 1.07
300.90 1.07
301.00 1.07
301.10 1.071
301.20 1.071
301.30 1.071
301.40 1.072
301.50 1.072
301.60 1.072
301.70 1.073
301.80 1.073
301.90 1.073
302.00 1.074
302.10 1.074
302.20 1.074
302.30 1.075
302.40 1.075
302.50 1.075
302.60 1.076
302.70 1.076
302.80 1.076
302.90 1.077
303.00 1.077
303.10 1.077
303.20 1.078
303.30 1.078
303.40 1.078
303.50 1.079
303.60 1.079
303.70 1.079
303.80 1.08
303.90 1.08
304.00 1.08
304.10 1.08
304.20 1.081
304.30 1.081
304.40 1.081
304.50 1.082
304.60 1.082
304.70 1.082
304.80 1.083
304.90 1.083
305.00 1.083
305.10 1.084
305.20 1.084
305.30 1.084
305.40 1.084
305.50 1.085
305.60 1.085
305.70 1.085
305.80 1.086
305.90 1.086
306.00 1.086
306.10 1.087
306.20 1.087
306.30 1.087
306.40 1.087
306.50 1.088
306.60 1.088
306.70 1.088
306.80 1.089
306.90 1.089
307.00 1.089
307.10 1.09
307.20 1.09
307.30 1.09
307.40 1.09
307.50 1.091
307.60 1.091
307.70 1.091
307.80 1.092
307.90 1.092
308.00 1.092
308.10 1.092
308.20 1.093
308.30 1.093
308.40 1.093
308.50 1.094
308.60 1.094
308.70 1.094
308.80 1.094
308.90 1.095
309.00 1.095
309.10 1.095
309.20 1.096
309.30 1.096
309.40 1.096
309.50 1.096
309.60 1.097
309.70 1.097
309.80 1.097
309.90 1.098
310.00 1.098
310.10 1.098
310.20 1.098
310.30 1.099
310.40 1.099
310.50 1.099
310.60 1.099
310.70 1.1
310.80 1.1
310.90 1.1
311.00 1.101
311.10 1.101
311.20 1.101
311.30 1.101
311.40 1.102
311.50 1.102
311.60 1.102
311.70 1.102
311.80 1.103
311.90 1.103
312.00 1.103
312.10 1.104
312.20 1.104
312.30 1.104
312.40 1.104
312.50 1.105
312.60 1.105
312.70 1.105
312.80 1.105
312.90 1.106
313.00 1.106
313.10 1.106
313.20 1.106
313.30 1.107
313.40 1.107
313.50 1.107
313.60 1.107
313.70 1.108
313.80 1.108
313.90 1.108
314.00 1.108
314.10 1.109
314.20 1.109
314.30 1.109
314.40 1.109
314.50 1.11
314.60 1.11
314.70 1.11
314.80 1.11
314.90 1.111
315.00 1.111
315.10 1.111
315.20 1.111
315.30 1.112
315.40 1.112
315.50 1.112
315.60 1.112
315.70 1.113
315.80 1.113
315.90 1.113
316.00 1.113
316.10 1.114
316.20 1.114
316.30 1.114
316.40 1.114
316.50 1.115
316.60 1.115
316.70 1.115
316.80 1.115
316.90 1.116
317.00 1.116
317.10 1.116
317.20 1.116
317.30 1.117
317.40 1.117
317.50 1.117
317.60 1.117
317.70 1.117
317.80 1.118
317.90 1.118
318.00 1.118
318.10 1.118
318.20 1.119
318.30 1.119
318.40 1.119
318.50 1.119
318.60 1.12
318.70 1.12
318.80 1.12
318.90 1.12
319.00 1.12
319.10 1.121
319.20 1.121
319.30 1.121
319.40 1.121
319.50 1.122
319.60 1.122
319.70 1.122
319.80 1.122
319.90 1.122
320.00 1.123
320.10 1.123
320.20 1.123
320.30 1.123
320.40 1.124
320.50 1.124
320.60 1.124
320.70 1.124
320.80 1.124
320.90 1.125
321.00 1.125
321.10 1.125
321.20 1.125
321.30 1.125
321.40 1.126
321.50 1.126
321.60 1.126
321.70 1.126
321.80 1.127
321.90 1.127
322.00 1.127
322.10 1.127
322.20 1.127
322.30 1.128
322.40 1.128
322.50 1.128
322.60 1.128
322.70 1.128
322.80 1.129
322.90 1.129
323.00 1.129
323.10 1.129
323.20 1.129
323.30 1.13
323.40 1.13
323.50 1.13
323.60 1.13
323.70 1.13
323.80 1.131
323.90 1.131
324.00 1.131
324.10 1.131
324.20 1.131
324.30 1.132
324.40 1.132
324.50 1.132
324.60 1.132
324.70 1.132
324.80 1.133
324.90 1.133
325.00 1.133
325.10 1.133
325.20 1.133
325.30 1.134
325.40 1.134
325.50 1.134
325.60 1.134
325.70 1.134
325.80 1.135
325.90 1.135
326.00 1.135
326.10 1.135
326.20 1.135
326.30 1.135
326.40 1.136
326.50 1.136
326.60 1.136
326.70 1.136
326.80 1.136
326.90 1.137
327.00 1.137
327.10 1.137
327.20 1.137
327.30 1.137
327.40 1.137
327.50 1.138
327.60 1.138
327.70 1.138
327.80 1.138
327.90 1.138
328.00 1.139
328.10 1.139
328.20 1.139
328.30 1.139
328.40 1.139
328.50 1.139
328.60 1.14
328.70 1.14
328.80 1.14
328.90 1.14
329.00 1.14
329.10 1.14
329.20 1.141
329.30 1.141
329.40 1.141
329.50 1.141
329.60 1.141
329.70 1.141
329.80 1.142
329.90 1.142
330.00 1.142
330.10 1.142
330.20 1.142
330.30 1.142
330.40 1.143
330.50 1.143
330.60 1.143
330.70 1.143
330.80 1.143
330.90 1.143
331.00 1.144
331.10 1.144
331.20 1.144
331.30 1.144
331.40 1.144
331.50 1.144
331.60 1.145
331.70 1.145
331.80 1.145
331.90 1.145
332.00 1.145
332.10 1.145
332.20 1.146
332.30 1.146
332.40 1.146
332.50 1.146
332.60 1.146
332.70 1.146
332.80 1.146
332.90 1.147
333.00 1.147
333.10 1.147
333.20 1.147
333.30 1.147
333.40 1.147
333.50 1.147
333.60 1.148
333.70 1.148
333.80 1.148
333.90 1.148
334.00 1.148
334.10 1.148
334.20 1.149
334.30 1.149
334.40 1.149
334.50 1.149
334.60 1.149
334.70 1.149
334.80 1.149
334.90 1.15
335.00 1.15
335.10 1.15
335.20 1.15
335.30 1.15
335.40 1.15
335.50 1.15
335.60 1.151
335.70 1.151
335.80 1.151
335.90 1.151
336.00 1.151
336.10 1.151
336.20 1.151
336.30 1.151
336.40 1.152
336.50 1.152
336.60 1.152
336.70 1.152
336.80 1.152
336.90 1.152
337.00 1.152
337.10 1.153
337.20 1.153
337.30 1.153
337.40 1.153
337.50 1.153
337.60 1.153
337.70 1.153
337.80 1.153
337.90 1.154
338.00 1.154
338.10 1.154
338.20 1.154
338.30 1.154
338.40 1.154
338.50 1.154
338.60 1.154
338.70 1.155
338.80 1.155
338.90 1.155
339.00 1.155
339.10 1.155
339.20 1.155
339.30 1.155
339.40 1.155
339.50 1.156
339.60 1.156
339.70 1.156
339.80 1.156
339.90 1.156
340.00 1.156
340.10 1.156
340.20 1.156
340.30 1.156
340.40 1.157
340.50 1.157
340.60 1.157
340.70 1.157
340.80 1.157
340.90 1.157
341.00 1.157
341.10 1.157
341.20 1.158
341.30 1.158
341.40 1.158
341.50 1.158
341.60 1.158
341.70 1.158
341.80 1.158
341.90 1.158
342.00 1.158
342.10 1.158
342.20 1.159
342.30 1.159
342.40 1.159
342.50 1.159
342.60 1.159
342.70 1.159
342.80 1.159
342.90 1.159
343.00 1.159
343.10 1.16
343.20 1.16
343.30 1.16
343.40 1.16
343.50 1.16
343.60 1.16
343.70 1.16
343.80 1.16
343.90 1.16
344.00 1.16
344.10 1.161
344.20 1.161
344.30 1.161
344.40 1.161
344.50 1.161
344.60 1.161
344.70 1.161
344.80 1.161
344.90 1.161
345.00 1.161
345.10 1.162
345.20 1.162
345.30 1.162
345.40 1.162
345.50 1.162
345.60 1.162
345.70 1.162
345.80 1.162
345.90 1.162
346.00 1.162
346.10 1.162
346.20 1.163
346.30 1.163
346.40 1.163
346.50 1.163
346.60 1.163
346.70 1.163
346.80 1.163
346.90 1.163
347.00 1.163
347.10 1.163
347.20 1.163
347.30 1.163
347.40 1.164
347.50 1.164
347.60 1.164
347.70 1.164
347.80 1.164
347.90 1.164
348.00 1.164
348.10 1.164
348.20 1.164
348.30 1.164
348.40 1.164
348.50 1.164
348.60 1.165
348.70 1.165
348.80 1.165
348.90 1.165
349.00 1.165
349.10 1.165
349.20 1.165
349.30 1.165
349.40 1.165
349.50 1.165
349.60 1.165
349.70 1.165
349.80 1.165
349.90 1.165
350.00 1.166
350.10 1.166
350.20 1.166
350.30 1.166
350.40 1.166
350.50 1.166
350.60 1.166
350.70 1.166
350.80 1.166
350.90 1.166
351.00 1.166
351.10 1.166
351.20 1.166
351.30 1.166
351.40 1.167
351.50 1.167
351.60 1.167
351.70 1.167
351.80 1.167
351.90 1.167
352.00 1.167
352.10 1.167
352.20 1.167
352.30 1.167
352.40 1.167
352.50 1.167
352.60 1.167
352.70 1.167
352.80 1.167
352.90 1.167
353.00 1.168
353.10 1.168
353.20 1.168
353.30 1.168
353.40 1.168
353.50 1.168
353.60 1.168
353.70 1.168
353.80 1.168
353.90 1.168
354.00 1.168
354.10 1.168
354.20 1.168
354.30 1.168
354.40 1.168
354.50 1.168
354.60 1.168
354.70 1.168
354.80 1.169
354.90 1.169
355.00 1.169
355.10 1.169
355.20 1.169
355.30 1.169
355.40 1.169
355.50 1.169
355.60 1.169
355.70 1.169
355.80 1.169
355.90 1.169
356.00 1.169
356.10 1.169
356.20 1.169
356.30 1.169
356.40 1.169
356.50 1.169
356.60 1.169
356.70 1.169
356.80 1.169
356.90 1.17
357.00 1.17
357.10 1.17
357.20 1.17
357.30 1.17
357.40 1.17
357.50 1.17
357.60 1.17
357.70 1.17
357.80 1.17
357.90 1.17
358.00 1.17
358.10 1.17
358.20 1.17
358.30 1.17
358.40 1.17
358.50 1.17
358.60 1.17
358.70 1.17
358.80 1.17
358.90 1.17
359.00 1.17
359.10 1.17
359.20 1.17
359.30 1.17
359.40 1.17
359.50 1.17
359.60 1.171
359.70 1.171
359.80 1.171
359.90 1.171
360.00 1.171
360.10 1.171
360.20 1.171
360.30 1.171
360.40 1.171
360.50 1.171
360.60 1.171
360.70 1.171
360.80 1.171
360.90 1.171
361.00 1.171
361.10 1.171
361.20 1.171
361.30 1.171
361.40 1.171
361.50 1.171
361.60 1.171
361.70 1.171
361.80 1.171
361.90 1.171
362.00 1.171
362.10 1.171
362.20 1.171
362.30 1.171
362.40 1.171
362.50 1.171
362.60 1.171
362.70 1.171
362.80 1.171
362.90 1.171
363.00 1.171
363.10 1.171
363.20 1.171
363.30 1.171
363.40 1.171
363.50 1.171
363.60 1.172
363.70 1.172
363.80 1.172
363.90 1.172
364.00 1.172
364.10 1.172
364.20 1.172
364.30 1.172
364.40 1.172
364.50 1.172
364.60 1.172
364.70 1.172
364.80 1.172
364.90 1.172
365.00 1.172
365.10 1.172
365.20 1.172
365.30 1.172
365.40 1.172
365.50 1.172
365.60 1.172
365.70 1.172
365.80 1.172
365.90 1.172
366.00 1.172
366.10 1.172
366.20 1.172
366.30 1.172
366.40 1.172
366.50 1.172
366.60 1.172
366.70 1.172
366.80 1.172
366.90 1.172
367.00 1.172
367.10 1.172
367.20 1.172
367.30 1.172
367.40 1.172
367.50 1.172
367.60 1.172
367.70 1.172
367.80 1.172
367.90 1.172
368.00 1.172
368.10 1.172
368.20 1.172
368.30 1.172
368.40 1.172
368.50 1.172
368.60 1.172
368.70 1.172
368.80 1.172
368.90 1.172
369.00 1.172
369.10 1.172
369.20 1.172
369.30 1.172
369.40 1.172
369.50 1.172
369.60 1.172
369.70 1.172
369.80 1.172
369.90 1.172
370.00 1.172
370.10 1.172
370.20 1.172
370.30 1.172
370.40 1.172
370.50 1.172
370.60 1.172
370.70 1.172
370.80 1.172
370.90 1.172
371.00 1.172
371.10 1.172
371.20 1.172
371.30 1.172
371.40 1.172
371.50 1.172
371.60 1.172
371.70 1.172
371.80 1.172
371.90 1.172
372.00 1.172
372.10 1.171
372.20 1.171
372.30 1.171
372.40 1.171
372.50 1.171
372.60 1.171
372.70 1.171
372.80 1.171
372.90 1.171
373.00 1.171
373.10 1.171
373.20 1.171
373.30 1.171
373.40 1.171
373.50 1.171
373.60 1.171
373.70 1.171
373.80 1.171
373.90 1.171
374.00 1.171
374.10 1.171
374.20 1.171
374.30 1.171
374.40 1.171
374.50 1.171
374.60 1.171
374.70 1.171
374.80 1.171
374.90 1.171
375.00 1.171
375.10 1.171
375.20 1.171
375.30 1.171
375.40 1.171
375.50 1.171
375.60 1.171
375.70 1.171
375.80 1.171
375.90 1.171
376.00 1.171
376.10 1.171
376.20 1.171
376.30 1.171
376.40 1.171
376.50 1.171
376.60 1.171
376.70 1.171
376.80 1.17
376.90 1.17
377.00 1.17
377.10 1.17
377.20 1.17
377.30 1.17
377.40 1.17
377.50 1.17
377.60 1.17
377.70 1.17
377.80 1.17
377.90 1.17
378.00 1.17
378.10 1.17
378.20 1.17
378.30 1.17
378.40 1.17
378.50 1.17
378.60 1.17
378.70 1.17
378.80 1.17
378.90 1.17
379.00 1.17
379.10 1.17
379.20 1.169
379.30 1.169
379.40 1.169
379.50 1.169
379.60 1.169
379.70 1.169
379.80 1.169
379.90 1.169
380.00 1.169
380.10 1.169
380.20 1.169
380.30 1.169
380.40 1.169
380.50 1.169
380.60 1.169
380.70 1.169
380.80 1.169
380.90 1.169
381.00 1.169
381.10 1.169
381.20 1.169
381.30 1.169
381.40 1.169
381.50 1.169
381.60 1.169
381.70 1.169
381.80 1.169
381.90 1.169
382.00 1.169
382.10 1.169
382.20 1.169
382.30 1.168
382.40 1.168
382.50 1.168
382.60 1.168
382.70 1.168
382.80 1.167
382.90 1.167
383.00 1.167
383.10 1.167
383.20 1.166
383.30 1.166
383.40 1.164
383.50 1.162
383.60 1.163
383.70 1.165
383.80 1.166
383.90 1.167
384.00 1.167
384.10 1.167
384.20 1.168
384.30 1.168
384.40 1.168
384.50 1.168
384.60 1.168
384.70 1.169
384.80 1.169
384.90 1.169
385.00 1.169
385.10 1.169
385.20 1.169
385.30 1.169
385.40 1.169
385.50 1.169
385.60 1.169
385.70 1.169
385.80 1.169
385.90 1.169
386.00 1.169
386.10 1.169
386.20 1.169
386.30 1.169
386.40 1.169
386.50 1.169
386.60 1.169
386.70 1.169
386.80 1.168
386.90 1.168
387.00 1.168
387.10 1.168
387.20 1.168
387.30 1.167
387.40 1.167
387.50 1.167
387.60 1.166
387.70 1.166
387.80 1.165
387.90 1.165
388.00 1.164
388.10 1.163
388.20 1.162
388.30 1.161
388.40 1.16
388.50 1.158
388.60 1.156
388.70 1.154
388.80 1.149
388.90 1.142
389.00 1.149
389.10 1.153
389.20 1.156
389.30 1.158
389.40 1.16
389.50 1.161
389.60 1.162
389.70 1.163
389.80 1.164
389.90 1.165
390.00 1.165
390.10 1.166
390.20 1.167
390.30 1.167
390.40 1.167
390.50 1.168
390.60 1.168
390.70 1.168
390.80 1.168
390.90 1.169
391.00 1.169
391.10 1.169
391.20 1.169
391.30 1.169
391.40 1.169
391.50 1.169
391.60 1.169
391.70 1.169
391.80 1.169
391.90 1.17
392.00 1.17
392.10 1.17
392.20 1.17
392.30 1.17
392.40 1.17
392.50 1.17
392.60 1.17
392.70 1.169
392.80 1.169
392.90 1.169
393.00 1.169
393.10 1.169
393.20 1.169
393.30 1.169
393.40 1.169
393.50 1.169
393.60 1.169
393.70 1.169
393.80 1.168
393.90 1.168
394.00 1.168
394.10 1.168
394.20 1.168
394.30 1.167
394.40 1.167
394.50 1.167
394.60 1.166
394.70 1.166
394.80 1.165
394.90 1.165
395.00 1.164
395.10 1.164
395.20 1.163
395.30 1.162
395.40 1.162
395.50 1.161
395.60 1.16
395.70 1.158
395.80 1.157
395.90 1.155
396.00 1.153
396.10 1.151
396.20 1.149
396.30 1.146
396.40 1.142
396.50 1.138
396.60 1.133
396.70 1.128
396.80 1.121
396.90 1.109
397.00 1.094
397.10 1.108
397.20 1.119
397.30 1.127
397.40 1.132
397.50 1.137
397.60 1.141
397.70 1.145
397.80 1.148
397.90 1.151
398.00 1.153
398.10 1.154
398.20 1.156
398.30 1.157
398.40 1.159
398.50 1.16
398.60 1.16
398.70 1.161
398.80 1.162
398.90 1.163
399.00 1.163
399.10 1.164
399.20 1.164
399.30 1.164
399.40 1.165
399.50 1.165
399.60 1.165
399.70 1.165
399.80 1.166
399.90 1.166
400.00 1.166
400.10 1.166
400.20 1.166
400.30 1.166
400.40 1.167
400.50 1.167
400.60 1.167
400.70 1.167
400.80 1.167
400.90 1.167
401.00 1.167
401.10 1.167
401.20 1.167
401.30 1.167
401.40 1.167
401.50 1.167
401.60 1.167
401.70 1.167
401.80 1.167
401.90 1.167
402.00 1.167
402.10 1.167
402.20 1.167
402.30 1.167
402.40 1.167
402.50 1.167
402.60 1.166
402.70 1.166
402.80 1.166
402.90 1.166
403.00 1.166
403.10 1.166
403.20 1.166
403.30 1.166
403.40 1.166
403.50 1.166
403.60 1.166
403.70 1.166
403.80 1.166
403.90 1.165
404.00 1.165
404.10 1.165
404.20 1.165
404.30 1.165
404.40 1.165
404.50 1.165
404.60 1.165
404.70 1.165
404.80 1.164
404.90 1.164
405.00 1.164
405.10 1.164
405.20 1.164
405.30 1.164
405.40 1.163
405.50 1.163
405.60 1.163
405.70 1.163
405.80 1.163
405.90 1.162
406.00 1.162
406.10 1.162
406.20 1.162
406.30 1.161
406.40 1.161
406.50 1.161
406.60 1.161
406.70 1.16
406.80 1.16
406.90 1.159
407.00 1.159
407.10 1.159
407.20 1.158
407.30 1.157
407.40 1.157
407.50 1.156
407.60 1.156
407.70 1.155
407.80 1.154
407.90 1.153
408.00 1.152
408.10 1.151
408.20 1.15
408.30 1.149
408.40 1.147
408.50 1.145
408.60 1.143
408.70 1.141
408.80 1.139
408.90 1.136
409.00 1.133
409.10 1.129
409.20 1.125
409.30 1.12
409.40 1.113
409.50 1.106
409.60 1.098
409.70 1.086
409.80 1.073
409.90 1.059
410.00 1.039
410.10 1.017
410.20 0.9925
410.30 1.025
410.40 1.05
410.50 1.067
410.60 1.08
410.70 1.092
410.80 1.102
410.90 1.109
411.00 1.116
411.10 1.121
411.20 1.126
411.30 1.129
411.40 1.133
411.50 1.135
411.60 1.138
411.70 1.14
411.80 1.142
411.90 1.143
412.00 1.145
412.10 1.146
412.20 1.147
412.30 1.148
412.40 1.149
412.50 1.149
412.60 1.15
412.70 1.151
412.80 1.151
412.90 1.152
413.00 1.152
413.10 1.152
413.20 1.153
413.30 1.153
413.40 1.153
413.50 1.153
413.60 1.154
413.70 1.154
413.80 1.154
413.90 1.154
414.00 1.154
414.10 1.154
414.20 1.154
414.30 1.154
414.40 1.154
414.50 1.154
414.60 1.154
414.70 1.154
414.80 1.154
414.90 1.154
415.00 1.154
415.10 1.154
415.20 1.154
415.30 1.154
415.40 1.154
415.50 1.154
415.60 1.154
415.70 1.154
415.80 1.154
415.90 1.154
416.00 1.154
416.10 1.154
416.20 1.154
416.30 1.154
416.40 1.154
416.50 1.153
416.60 1.153
416.70 1.153
416.80 1.153
416.90 1.153
417.00 1.153
417.10 1.153
417.20 1.153
417.30 1.153
417.40 1.153
417.50 1.153
417.60 1.153
417.70 1.152
417.80 1.152
417.90 1.152
418.00 1.152
418.10 1.152
418.20 1.152
418.30 1.152
418.40 1.152
418.50 1.152
418.60 1.151
418.70 1.151
418.80 1.151
418.90 1.151
419.00 1.151
419.10 1.151
419.20 1.151
419.30 1.151
419.40 1.151
419.50 1.15
419.60 1.15
419.70 1.15
419.80 1.15
419.90 1.15
420.00 1.15
420.10 1.15
420.20 1.149
420.30 1.149
420.40 1.149
420.50 1.149
420.60 1.149
420.70 1.149
420.80 1.149
420.90 1.149
421.00 1.148
421.10 1.148
421.20 1.148
421.30 1.148
421.40 1.148
421.50 1.148
421.60 1.148
421.70 1.148
421.80 1.147
421.90 1.147
422.00 1.147
422.10 1.147
422.20 1.147
422.30 1.147
422.40 1.147
422.50 1.146
422.60 1.146
422.70 1.146
422.80 1.146
422.90 1.146
423.00 1.146
423.10 1.146
423.20 1.145
423.30 1.145
423.40 1.145
423.50 1.145
423.60 1.145
423.70 1.145
423.80 1.145
423.90 1.144
424.00 1.144
424.10 1.144
424.20 1.144
424.30 1.144
424.40 1.144
424.50 1.143
424.60 1.143
424.70 1.143
424.80 1.143
424.90 1.143
425.00 1.143
425.10 1.143
425.20 1.142
425.30 1.142
425.40 1.142
425.50 1.142
425.60 1.142
425.70 1.142
425.80 1.141
425.90 1.141
426.00 1.141
426.10 1.141
426.20 1.141
426.30 1.14
426.40 1.14
426.50 1.14
426.60 1.14
426.70 1.14
426.80 1.14
426.90 1.139
427.00 1.139
427.10 1.139
427.20 1.139
427.30 1.139
427.40 1.138
427.50 1.138
427.60 1.138
427.70 1.138
427.80 1.137
427.90 1.137
428.00 1.137
428.10 1.137
428.20 1.137
428.30 1.136
428.40 1.136
428.50 1.136
428.60 1.136
428.70 1.135
428.80 1.135
428.90 1.135
429.00 1.135
429.10 1.134
429.20 1.134
429.30 1.134
429.40 1.133
429.50 1.133
429.60 1.133
429.70 1.132
429.80 1.132
429.90 1.131
430.00 1.131
430.10 1.131
430.20 1.13
430.30 1.13
430.40 1.129
430.50 1.129
430.60 1.128
430.70 1.127
430.80 1.127
430.90 1.126
431.00 1.125
431.10 1.125
431.20 1.124
431.30 1.123
431.40 1.122
431.50 1.121
431.60 1.12
431.70 1.118
431.80 1.117
431.90 1.115
432.00 1.113
432.10 1.111
432.20 1.109
432.30 1.106
432.40 1.104
432.50 1.1
432.60 1.096
432.70 1.092
432.80 1.087
432.90 1.081
433.00 1.074
433.10 1.066
433.20 1.056
433.30 1.046
433.40 1.031
433.50 1.013
433.60 0.9929
433.70 0.9635
433.80 0.9279
433.90 0.886
434.00 0.8101
434.10 0.8115
434.20 0.89
434.30 0.9308
434.40 0.9655
434.50 0.9941
434.60 1.014
434.70 1.031
434.80 1.045
434.90 1.055
435.00 1.064
435.10 1.072
435.20 1.079
435.30 1.084
435.40 1.089
435.50 1.093
435.60 1.096
435.70 1.099
435.80 1.102
435.90 1.104
436.00 1.106
436.10 1.108
436.20 1.109
436.30 1.11
436.40 1.111
436.50 1.112
436.60 1.113
436.70 1.114
436.80 1.115
436.90 1.115
437.00 1.116
437.10 1.116
437.20 1.117
437.30 1.117
437.40 1.117
437.50 1.118
437.60 1.118
437.70 1.118
437.80 1.118
437.90 1.118
438.00 1.118
438.10 1.119
438.20 1.119
438.30 1.119
438.40 1.119
438.50 1.119
438.60 1.119
438.70 1.119
438.80 1.119
438.90 1.119
439.00 1.119
439.10 1.119
439.20 1.119
439.30 1.119
439.40 1.119
439.50 1.119
439.60 1.118
439.70 1.118
439.80 1.118
439.90 1.118
440.00 1.118
440.10 1.118
440.20 1.118
440.30 1.118
440.40 1.118
440.50 1.118
440.60 1.118
440.70 1.117
440.80 1.117
440.90 1.117
441.00 1.117
441.10 1.117
441.20 1.117
441.30 1.117
441.40 1.117
441.50 1.116
441.60 1.116
441.70 1.116
441.80 1.116
441.90 1.116
442.00 1.116
442.10 1.116
442.20 1.115
442.30 1.115
442.40 1.115
442.50 1.115
442.60 1.115
442.70 1.115
442.80 1.115
442.90 1.114
443.00 1.114
443.10 1.114
443.20 1.114
443.30 1.114
443.40 1.114
443.50 1.114
443.60 1.113
443.70 1.113
443.80 1.113
443.90 1.113
444.00 1.113
444.10 1.113
444.20 1.112
444.30 1.112
444.40 1.112
444.50 1.112
444.60 1.112
444.70 1.112
444.80 1.111
444.90 1.111
445.00 1.111
445.10 1.111
445.20 1.111
445.30 1.111
445.40 1.11
445.50 1.11
445.60 1.11
445.70 1.11
445.80 1.11
445.90 1.11
446.00 1.11
446.10 1.109
446.20 1.109
446.30 1.109
446.40 1.109
446.50 1.109
446.60 1.108
446.70 1.108
446.80 1.108
446.90 1.108
447.00 1.108
447.10 1.108
447.20 1.107
447.30 1.107
447.40 1.107
447.50 1.107
447.60 1.107
447.70 1.107
447.80 1.106
447.90 1.106
448.00 1.106
448.10 1.106
448.20 1.106
448.30 1.106
448.40 1.105
448.50 1.105
448.60 1.105
448.70 1.105
448.80 1.105
448.90 1.104
449.00 1.104
449.10 1.104
449.20 1.104
449.30 1.104
449.40 1.104
449.50 1.103
449.60 1.103
449.70 1.103
449.80 1.103
449.90 1.103
450.00 1.102
450.10 1.102
450.20 1.102
450.30 1.102
450.40 1.102
450.50 1.102
450.60 1.101
450.70 1.101
450.80 1.101
450.90 1.101
451.00 1.101
451.10 1.1
451.20 1.1
451.30 1.1
451.40 1.1
451.50 1.1
451.60 1.1
451.70 1.099
451.80 1.099
451.90 1.099
452.00 1.099
452.10 1.099
452.20 1.098
452.30 1.098
452.40 1.098
452.50 1.098
452.60 1.098
452.70 1.098
452.80 1.097
452.90 1.097
453.00 1.097
453.10 1.097
453.20 1.097
453.30 1.096
453.40 1.096
453.50 1.096
453.60 1.096
453.70 1.096
453.80 1.096
453.90 1.095
454.00 1.095
454.10 1.095
454.20 1.095
454.30 1.095
454.40 1.094
454.50 1.094
454.60 1.094
454.70 1.094
454.80 1.094
454.90 1.093
455.00 1.093
455.10 1.093
455.20 1.093
455.30 1.093
455.40 1.092
455.50 1.092
455.60 1.092
455.70 1.092
455.80 1.092
455.90 1.092
456.00 1.091
456.10 1.091
456.20 1.091
456.30 1.091
456.40 1.091
456.50 1.09
456.60 1.09
456.70 1.09
456.80 1.09
456.90 1.09
457.00 1.089
457.10 1.089
457.20 1.089
457.30 1.089
457.40 1.089
457.50 1.089
457.60 1.088
457.70 1.088
457.80 1.088
457.90 1.088
458.00 1.088
458.10 1.087
458.20 1.087
458.30 1.087
458.40 1.087
458.50 1.087
458.60 1.086
458.70 1.086
458.80 1.086
458.90 1.086
459.00 1.086
459.10 1.085
459.20 1.085
459.30 1.085
459.40 1.085
459.50 1.085
459.60 1.084
459.70 1.084
459.80 1.084
459.90 1.084
460.00 1.084
460.10 1.084
460.20 1.083
460.30 1.083
460.40 1.083
460.50 1.083
460.60 1.083
460.70 1.082
460.80 1.082
460.90 1.082
461.00 1.082
461.10 1.082
461.20 1.081
461.30 1.081
461.40 1.081
461.50 1.081
461.60 1.081
461.70 1.08
461.80 1.08
461.90 1.08
462.00 1.08
462.10 1.08
462.20 1.079
462.30 1.079
462.40 1.079
462.50 1.079
462.60 1.079
462.70 1.078
462.80 1.078
462.90 1.078
463.00 1.078
463.10 1.078
463.20 1.077
463.30 1.077
463.40 1.077
463.50 1.077
463.60 1.077
463.70 1.076
463.80 1.076
463.90 1.076
464.00 1.076
464.10 1.076
464.20 1.075
464.30 1.075
464.40 1.075
464.50 1.075
464.60 1.075
464.70 1.074
464.80 1.074
464.90 1.074
465.00 1.074
465.10 1.074
465.20 1.073
465.30 1.073
465.40 1.073
465.50 1.073
465.60 1.073
465.70 1.072
465.80 1.072
465.90 1.072
466.00 1.072
466.10 1.072
466.20 1.071
466.30 1.071
466.40 1.071
466.50 1.071
466.60 1.071
466.70 1.07
466.80 1.07
466.90 1.07
467.00 1.07
467.10 1.069
467.20 1.069
467.30 1.069
467.40 1.069
467.50 1.069
467.60 1.068
467.70 1.068
467.80 1.068
467.90 1.068
468.00 1.068
468.10 1.067
468.20 1.067
468.30 1.067
468.40 1.067
468.50 1.067
468.60 1.066
468.70 1.066
468.80 1.066
468.90 1.066
469.00 1.066
469.10 1.065
469.20 1.065
469.30 1.065
469.40 1.065
469.50 1.065
469.60 1.064
469.70 1.064
469.80 1.064
469.90 1.064
470.00 1.064
470.10 1.063
470.20 1.063
470.30 1.063
470.40 1.063
470.50 1.062
470.60 1.062
470.70 1.062
470.80 1.062
470.90 1.062
471.00 1.061
471.10 1.061
471.20 1.061
471.30 1.061
471.40 1.061
471.50 1.06
471.60 1.06
471.70 1.06
471.80 1.06
471.90 1.059
472.00 1.059
472.10 1.059
472.20 1.059
472.30 1.059
472.40 1.058
472.50 1.058
472.60 1.058
472.70 1.058
472.80 1.058
472.90 1.057
473.00 1.057
473.10 1.057
473.20 1.057
473.30 1.056
473.40 1.056
473.50 1.056
473.60 1.056
473.70 1.056
473.80 1.055
473.90 1.055
474.00 1.055
474.10 1.055
474.20 1.054
474.30 1.054
474.40 1.054
474.50 1.054
474.60 1.054
474.70 1.053
474.80 1.053
474.90 1.053
475.00 1.053
475.10 1.052
475.20 1.052
475.30 1.052
475.40 1.052
475.50 1.051
475.60 1.051
475.70 1.051
475.80 1.051
475.90 1.051
476.00 1.05
476.10 1.05
476.20 1.05
476.30 1.05
476.40 1.049
476.50 1.049
476.60 1.049
476.70 1.049
476.80 1.048
476.90 1.048
477.00 1.048
477.10 1.048
477.20 1.047
477.30 1.047
477.40 1.047
477.50 1.047
477.60 1.046
477.70 1.046
477.80 1.046
477.90 1.046
478.00 1.045
478.10 1.045
478.20 1.045
478.30 1.044
478.40 1.044
478.50 1.044
478.60 1.044
478.70 1.043
478.80 1.043
478.90 1.043
479.00 1.043
479.10 1.042
479.20 1.042
479.30 1.042
479.40 1.041
479.50 1.041
479.60 1.041
479.70 1.04
479.80 1.04
479.90 1.04
480.00 1.039
480.10 1.039
480.20 1.039
480.30 1.038
480.40 1.038
480.50 1.037
480.60 1.037
480.70 1.037
480.80 1.036
480.90 1.036
481.00 1.035
481.10 1.035
481.20 1.034
481.30 1.034
481.40 1.033
481.50 1.033
481.60 1.032
481.70 1.032
481.80 1.031
481.90 1.03
482.00 1.03
482.10 1.029
482.20 1.029
482.30 1.028
482.40 1.027
482.50 1.026
482.60 1.025
482.70 1.024
482.80 1.023
482.90 1.022
483.00 1.021
483.10 1.02
483.20 1.019
483.30 1.017
483.40 1.015
483.50 1.013
483.60 1.011
483.70 1.009
483.80 1.007
483.90 1.005
484.00 1.003
484.10 1.001
484.20 0.9974
484.30 0.9932
484.40 0.989
484.50 0.9849
484.60 0.9807
484.70 0.9739
484.80 0.9659
484.90 0.9578
485.00 0.9498
485.10 0.9418
485.20 0.93
485.30 0.9165
485.40 0.8991
485.50 0.8798
485.60 0.8538
485.70 0.8246
485.80 0.7826
485.90 0.7346
486.00 0.67
486.10 0.555
486.20 0.6056
486.30 0.6958
486.40 0.75
486.50 0.7983
486.60 0.8335
486.70 0.8625
486.80 0.8847
486.90 0.9036
487.00 0.9186
487.10 0.9318
487.20 0.9412
487.30 0.9488
487.40 0.9564
487.50 0.964
487.60 0.9716
487.70 0.9766
487.80 0.9803
487.90 0.984
488.00 0.9877
488.10 0.9915
488.20 0.9937
488.30 0.9952
488.40 0.9968
488.50 0.9983
488.60 0.9998
488.70 1.001
488.80 1.003
488.90 1.004
489.00 1.006
489.10 1.008
489.20 1.008
489.30 1.009
489.40 1.009
489.50 1.01
489.60 1.01
489.70 1.011
489.80 1.011
489.90 1.012
490.00 1.012
490.10 1.013
490.20 1.013
490.30 1.013
490.40 1.013
490.50 1.013
490.60 1.013
490.70 1.014
490.80 1.014
490.90 1.014
491.00 1.014
491.10 1.014
491.20 1.014
491.30 1.014
491.40 1.014
491.50 1.014
491.60 1.014
491.70 1.014
491.80 1.014
491.90 1.014
492.00 1.014
492.10 1.014
492.20 1.014
492.30 1.014
492.40 1.013
492.50 1.013
492.60 1.013
492.70 1.013
492.80 1.013
492.90 1.013
493.00 1.013
493.10 1.013
493.20 1.013
493.30 1.012
493.40 1.012
493.50 1.012
493.60 1.012
493.70 1.012
493.80 1.012
493.90 1.012
494.00 1.011
494.10 1.011
494.20 1.011
494.30 1.011
494.40 1.011
494.50 1.011
494.60 1.01
494.70 1.01
494.80 1.01
494.90 1.01
495.00 1.01
495.10 1.01
495.20 1.009
495.30 1.009
495.40 1.009
495.50 1.009
495.60 1.009
495.70 1.009
495.80 1.008
495.90 1.008
496.00 1.008
496.10 1.008
496.20 1.008
496.30 1.007
496.40 1.007
496.50 1.007
496.60 1.007
496.70 1.007
496.80 1.006
496.90 1.006
497.00 1.006
497.10 1.006
497.20 1.006
497.30 1.005
497.40 1.005
497.50 1.005
497.60 1.005
497.70 1.005
497.80 1.004
497.90 1.004
498.00 1.004
498.10 1.004
498.20 1.004
498.30 1.004
498.40 1.003
498.50 1.003
498.60 1.003
498.70 1.003
498.80 1.002
498.90 1.002
499.00 1.002
499.10 1.002
499.20 1.002
499.30 1.001
499.40 1.001
499.50 1.001
499.60 1.001
499.70 1.001
499.80 1
499.90 1
500.00 1
500.10 0.9998
500.20 0.9996
500.30 0.9994
500.40 0.9992
500.50 0.999
500.60 0.9987
500.70 0.9985
500.80 0.9983
500.90 0.9981
501.00 0.9979
501.10 0.9977
501.20 0.9975
501.30 0.9973
501.40 0.9971
501.50 0.9969
501.60 0.9967
501.70 0.9965
501.80 0.9962
501.90 0.996
502.00 0.9958
502.10 0.9956
502.20 0.9954
502.30 0.9952
502.40 0.995
502.50 0.9948
502.60 0.9946
502.70 0.9943
502.80 0.9941
502.90 0.9939
503.00 0.9937
503.10 0.9935
503.20 0.9933
503.30 0.993
503.40 0.9928
503.50 0.9926
503.60 0.9924
503.70 0.9922
503.80 0.992
503.90 0.9918
504.00 0.9915
504.10 0.9913
504.20 0.9911
504.30 0.9909
504.40 0.9907
504.50 0.9905
504.60 0.9903
504.70 0.9901
504.80 0.9898
504.90 0.9896
505.00 0.9894
505.10 0.9892
505.20 0.989
505.30 0.9888
505.40 0.9885
505.50 0.9883
505.60 0.9881
505.70 0.9879
505.80 0.9877
505.90 0.9874
506.00 0.9872
506.10 0.987
506.20 0.9868
506.30 0.9866
506.40 0.9863
506.50 0.9861
506.60 0.9859
506.70 0.9857
506.80 0.9855
506.90 0.9853
507.00 0.985
507.10 0.9848
507.20 0.9846
507.30 0.9844
507.40 0.9842
507.50 0.9839
507.60 0.9837
507.70 0.9835
507.80 0.9833
507.90 0.9831
508.00 0.9829
508.10 0.9826
508.20 0.9824
508.30 0.9822
508.40 0.982
508.50 0.9818
508.60 0.9816
508.70 0.9813
508.80 0.9811
508.90 0.9809
509.00 0.9807
509.10 0.9805
509.20 0.9802
509.30 0.98
509.40 0.9798
509.50 0.9796
509.60 0.9794
509.70 0.9792
509.80 0.979
509.90 0.9787
510.00 0.9785
510.10 0.9783
510.20 0.9781
510.30 0.9779
510.40 0.9776
510.50 0.9774
510.60 0.9772
510.70 0.977
510.80 0.9767
510.90 0.9765
511.00 0.9763
511.10 0.9761
511.20 0.9759
511.30 0.9756
511.40 0.9754
511.50 0.9752
511.60 0.975
511.70 0.9748
511.80 0.9746
511.90 0.9744
512.00 0.9742
512.10 0.9739
512.20 0.9737
512.30 0.9735
512.40 0.9733
512.50 0.9731
512.60 0.9728
512.70 0.9726
512.80 0.9724
512.90 0.9722
513.00 0.9719
513.10 0.9717
513.20 0.9715
513.30 0.9713
513.40 0.9711
513.50 0.9708
513.60 0.9706
513.70 0.9704
513.80 0.9702
513.90 0.97
514.00 0.9697
514.10 0.9695
514.20 0.9693
514.30 0.9691
514.40 0.9689
514.50 0.9686
514.60 0.9684
514.70 0.9682
514.80 0.9679
514.90 0.9677
515.00 0.9675
515.10 0.9673
515.20 0.967
515.30 0.9668
515.40 0.9666
515.50 0.9664
515.60 0.9662
515.70 0.966
515.80 0.9657
515.90 0.9655
516.00 0.9653
516.10 0.9651
516.20 0.9649
516.30 0.9646
516.40 0.9644
516.50 0.9642
516.60 0.964
516.70 0.9637
516.80 0.9635
516.90 0.9633
517.00 0.9631
517.10 0.9628
517.20 0.9626
517.30 0.9624
517.40 0.9622
517.50 0.962
517.60 0.9618
517.70 0.9615
517.80 0.9613
517.90 0.9611
518.00 0.9609
518.10 0.9607
518.20 0.9605
518.30 0.9602
518.40 0.96
518.50 0.9598
518.60 0.9596
518.70 0.9594
518.80 0.9591
518.90 0.9589
519.00 0.9587
519.10 0.9585
519.20 0.9582
519.30 0.958
519.40 0.9578
519.50 0.9576
519.60 0.9574
519.70 0.9571
519.80 0.9569
519.90 0.9567
520.00 0.9565
520.10 0.9562
520.20 0.956
520.30 0.9558
520.40 0.9556
520.50 0.9554
520.60 0.9551
520.70 0.9549
520.80 0.9547
520.90 0.9545
521.00 0.9543
521.10 0.954
521.20 0.9538
521.30 0.9536
521.40 0.9534
521.50 0.9531
521.60 0.9529
521.70 0.9527
521.80 0.9525
521.90 0.9522
522.00 0.952
522.10 0.9518
522.20 0.9516
522.30 0.9513
522.40 0.9511
522.50 0.9509
522.60 0.9507
522.70 0.9505
522.80 0.9502
522.90 0.95
523.00 0.9498
523.10 0.9496
523.20 0.9494
523.30 0.9491
523.40 0.9489
523.50 0.9487
523.60 0.9485
523.70 0.9482
523.80 0.948
523.90 0.9478
524.00 0.9476
524.10 0.9473
524.20 0.9471
524.30 0.9469
524.40 0.9467
524.50 0.9465
524.60 0.9462
524.70 0.946
524.80 0.9458
524.90 0.9456
525.00 0.9453
525.10 0.9451
525.20 0.9449
525.30 0.9447
525.40 0.9444
525.50 0.9442
525.60 0.944
525.70 0.9438
525.80 0.9436
525.90 0.9433
526.00 0.9431
526.10 0.9429
526.20 0.9427
526.30 0.9424
526.40 0.9422
526.50 0.942
526.60 0.9418
526.70 0.9416
526.80 0.9413
526.90 0.9411
527.00 0.9409
527.10 0.9407
527.20 0.9404
527.30 0.9402
527.40 0.94
527.50 0.9398
527.60 0.9396
527.70 0.9393
527.80 0.9391
527.90 0.9389
528.00 0.9387
528.10 0.9385
528.20 0.9382
528.30 0.938
528.40 0.9378
528.50 0.9376
528.60 0.9374
528.70 0.9371
528.80 0.9369
528.90 0.9367
529.00 0.9365
529.10 0.9363
529.20 0.936
529.30 0.9358
529.40 0.9356
529.50 0.9354
529.60 0.9351
529.70 0.9349
529.80 0.9347
529.90 0.9345
530.00 0.9342
530.10 0.934
530.20 0.9338
530.30 0.9336
530.40 0.9334
530.50 0.9331
530.60 0.9329
530.70 0.9327
530.80 0.9325
530.90 0.9323
531.00 0.9321
531.10 0.9318
531.20 0.9316
531.30 0.9314
531.40 0.9312
531.50 0.9309
531.60 0.9307
531.70 0.9305
531.80 0.9303
531.90 0.93
532.00 0.9298
532.10 0.9296
532.20 0.9294
532.30 0.9292
532.40 0.9289
532.50 0.9287
532.60 0.9285
532.70 0.9283
532.80 0.928
532.90 0.9278
533.00 0.9276
533.10 0.9274
533.20 0.9272
533.30 0.9269
533.40 0.9267
533.50 0.9265
533.60 0.9263
533.70 0.926
533.80 0.9258
533.90 0.9256
534.00 0.9254
534.10 0.9252
534.20 0.9249
534.30 0.9247
534.40 0.9245
534.50 0.9242
534.60 0.924
534.70 0.9238
534.80 0.9236
534.90 0.9233
535.00 0.9231
535.10 0.9229
535.20 0.9227
535.30 0.9224
535.40 0.9222
535.50 0.922
535.60 0.9218
535.70 0.9216
535.80 0.9213
535.90 0.9211
536.00 0.9209
536.10 0.9207
536.20 0.9205
536.30 0.9202
536.40 0.92
536.50 0.9198
536.60 0.9196
536.70 0.9193
536.80 0.9191
536.90 0.9189
537.00 0.9187
537.10 0.9184
537.20 0.9182
537.30 0.918
537.40 0.9178
537.50 0.9176
537.60 0.9173
537.70 0.9171
537.80 0.9169
537.90 0.9167
538.00 0.9165
538.10 0.9163
538.20 0.916
538.30 0.9158
538.40 0.9156
538.50 0.9154
538.60 0.9151
538.70 0.9149
538.80 0.9147
538.90 0.9145
539.00 0.9142
539.10 0.914
539.20 0.9138
539.30 0.9136
539.40 0.9134
539.50 0.9131
539.60 0.9129
539.70 0.9127
539.80 0.9125
539.90 0.9122
540.00 0.912
540.10 0.9118
540.20 0.9116
540.30 0.9114
540.40 0.9111
540.50 0.9109
540.60 0.9107
540.70 0.9105
540.80 0.9102
540.90 0.91
541.00 0.9098
541.10 0.9096
541.20 0.9094
541.30 0.9091
541.40 0.9089
541.50 0.9087
541.60 0.9085
541.70 0.9083
541.80 0.908
541.90 0.9078
542.00 0.9076
542.10 0.9074
542.20 0.9072
542.30 0.9069
542.40 0.9067
542.50 0.9065
542.60 0.9063
542.70 0.906
542.80 0.9058
542.90 0.9056
543.00 0.9053
543.10 0.9051
543.20 0.9049
543.30 0.9047
543.40 0.9045
543.50 0.9042
543.60 0.904
543.70 0.9038
543.80 0.9036
543.90 0.9034
544.00 0.9032
544.10 0.9029
544.20 0.9027
544.30 0.9025
544.40 0.9023
544.50 0.902
544.60 0.9018
544.70 0.9016
544.80 0.9014
544.90 0.9011
545.00 0.9009
545.10 0.9007
545.20 0.9005
545.30 0.9003
545.40 0.9
545.50 0.8998
545.60 0.8996
545.70 0.8994
545.80 0.8991
545.90 0.8989
546.00 0.8987
546.10 0.8985
546.20 0.8982
546.30 0.898
546.40 0.8978
546.50 0.8976
546.60 0.8974
546.70 0.8972
546.80 0.897
546.90 0.8967
547.00 0.8965
547.10 0.8963
547.20 0.8961
547.30 0.8959
547.40 0.8956
547.50 0.8954
547.60 0.8952
547.70 0.8949
547.80 0.8947
547.90 0.8945
548.00 0.8943
548.10 0.894
548.20 0.8938
548.30 0.8936
548.40 0.8934
548.50 0.8932
548.60 0.8929
548.70 0.8927
548.80 0.8925
548.90 0.8923
549.00 0.8921
549.10 0.8918
549.20 0.8916
549.30 0.8914
549.40 0.8912
549.50 0.891
549.60 0.8907
549.70 0.8905
549.80 0.8903
549.90 0.8901
550.00 0.8899
550.10 0.8896
550.20 0.8894
550.30 0.8892
550.40 0.889
550.50 0.8888
550.60 0.8885
550.70 0.8883
550.80 0.8881
550.90 0.8879
551.00 0.8876
551.10 0.8874
551.20 0.8872
551.30 0.887
551.40 0.8868
551.50 0.8865
551.60 0.8863
551.70 0.8861
551.80 0.8859
551.90 0.8857
552.00 0.8855
552.10 0.8852
552.20 0.885
552.30 0.8848
552.40 0.8846
552.50 0.8843
552.60 0.8841
552.70 0.8839
552.80 0.8837
552.90 0.8835
553.00 0.8832
553.10 0.883
553.20 0.8828
553.30 0.8826
553.40 0.8823
553.50 0.8821
553.60 0.8819
553.70 0.8817
553.80 0.8815
553.90 0.8812
554.00 0.881
554.10 0.8808
554.20 0.8806
554.30 0.8804
554.40 0.8801
554.50 0.8799
554.60 0.8797
554.70 0.8795
554.80 0.8793
554.90 0.879
555.00 0.8788
555.10 0.8786
555.20 0.8784
555.30 0.8782
555.40 0.8779
555.50 0.8777
555.60 0.8775
555.70 0.8773
555.80 0.8771
555.90 0.8768
556.00 0.8766
556.10 0.8764
556.20 0.8762
556.30 0.876
556.40 0.8757
556.50 0.8755
556.60 0.8753
556.70 0.8751
556.80 0.8749
556.90 0.8747
557.00 0.8744
557.10 0.8742
557.20 0.874
557.30 0.8738
557.40 0.8735
557.50 0.8733
557.60 0.8731
557.70 0.8729
557.80 0.8727
557.90 0.8724
558.00 0.8722
558.10 0.872
558.20 0.8718
558.30 0.8715
558.40 0.8713
558.50 0.8711
558.60 0.8709
558.70 0.8707
558.80 0.8705
558.90 0.8702
559.00 0.87
559.10 0.8698
559.20 0.8696
559.30 0.8694
559.40 0.8692
559.50 0.8689
559.60 0.8687
559.70 0.8685
559.80 0.8683
559.90 0.868
560.00 0.8678
560.10 0.8676
560.20 0.8674
560.30 0.8672
560.40 0.8669
560.50 0.8667
560.60 0.8665
560.70 0.8663
560.80 0.8661
560.90 0.8658
561.00 0.8656
561.10 0.8654
561.20 0.8652
561.30 0.865
561.40 0.8647
561.50 0.8645
561.60 0.8643
561.70 0.8641
561.80 0.8639
561.90 0.8636
562.00 0.8634
562.10 0.8632
562.20 0.863
562.30 0.8628
562.40 0.8625
562.50 0.8623
562.60 0.8621
562.70 0.8619
562.80 0.8617
562.90 0.8614
563.00 0.8612
563.10 0.861
563.20 0.8608
563.30 0.8606
563.40 0.8604
563.50 0.8601
563.60 0.8599
563.70 0.8597
563.80 0.8595
563.90 0.8593
564.00 0.8591
564.10 0.8588
564.20 0.8586
564.30 0.8584
564.40 0.8582
564.50 0.858
564.60 0.8578
564.70 0.8575
564.80 0.8573
564.90 0.8571
565.00 0.8569
565.10 0.8567
565.20 0.8565
565.30 0.8562
565.40 0.856
565.50 0.8558
565.60 0.8556
565.70 0.8554
565.80 0.8552
565.90 0.8549
566.00 0.8547
566.10 0.8545
566.20 0.8543
566.30 0.8541
566.40 0.8539
566.50 0.8536
566.60 0.8534
566.70 0.8532
566.80 0.853
566.90 0.8527
567.00 0.8525
567.10 0.8523
567.20 0.8521
567.30 0.8519
567.40 0.8516
567.50 0.8514
567.60 0.8512
567.70 0.851
567.80 0.8508
567.90 0.8505
568.00 0.8503
568.10 0.8501
568.20 0.8499
568.30 0.8497
568.40 0.8495
568.50 0.8493
568.60 0.849
568.70 0.8488
568.80 0.8486
568.90 0.8484
569.00 0.8482
569.10 0.848
569.20 0.8478
569.30 0.8475
569.40 0.8473
569.50 0.8471
569.60 0.8469
569.70 0.8467
569.80 0.8465
569.90 0.8462
570.00 0.846
570.10 0.8458
570.20 0.8456
570.30 0.8454
570.40 0.8452
570.50 0.8449
570.60 0.8447
570.70 0.8445
570.80 0.8443
570.90 0.8441
571.00 0.8439
571.10 0.8436
571.20 0.8434
571.30 0.8432
571.40 0.843
571.50 0.8427
571.60 0.8425
571.70 0.8423
571.80 0.8421
571.90 0.8419
572.00 0.8416
572.10 0.8414
572.20 0.8412
572.30 0.841
572.40 0.8408
572.50 0.8406
572.60 0.8403
572.70 0.8401
572.80 0.8399
572.90 0.8397
573.00 0.8395
573.10 0.8393
573.20 0.8391
573.30 0.8388
573.40 0.8386
573.50 0.8384
573.60 0.8382
573.70 0.838
573.80 0.8378
573.90 0.8376
574.00 0.8373
574.10 0.8371
574.20 0.8369
574.30 0.8367
574.40 0.8365
574.50 0.8363
574.60 0.836
574.70 0.8358
574.80 0.8356
574.90 0.8354
575.00 0.8352
575.10 0.8349
575.20 0.8347
575.30 0.8345
575.40 0.8343
575.50 0.8341
575.60 0.8339
575.70 0.8337
575.80 0.8335
575.90 0.8332
576.00 0.833
576.10 0.8328
576.20 0.8326
576.30 0.8324
576.40 0.8322
576.50 0.832
576.60 0.8317
576.70 0.8315
576.80 0.8313
576.90 0.8311
577.00 0.8309
577.10 0.8307
577.20 0.8304
577.30 0.8302
577.40 0.83
577.50 0.8298
577.60 0.8296
577.70 0.8294
577.80 0.8291
577.90 0.8289
578.00 0.8287
578.10 0.8285
578.20 0.8283
578.30 0.8281
578.40 0.8279
578.50 0.8276
578.60 0.8274
578.70 0.8272
578.80 0.827
578.90 0.8268
579.00 0.8266
579.10 0.8264
579.20 0.8261
579.30 0.8259
579.40 0.8257
579.50 0.8255
579.60 0.8253
579.70 0.8251
579.80 0.8249
579.90 0.8246
580.00 0.8244
580.10 0.8242
580.20 0.824
580.30 0.8238
580.40 0.8236
580.50 0.8234
580.60 0.8231
580.70 0.8229
580.80 0.8227
580.90 0.8225
581.00 0.8223
581.10 0.8221
581.20 0.8219
581.30 0.8217
581.40 0.8214
581.50 0.8212
581.60 0.821
581.70 0.8208
581.80 0.8206
581.90 0.8203
582.00 0.8201
582.10 0.8199
582.20 0.8197
582.30 0.8195
582.40 0.8193
582.50 0.8191
582.60 0.8189
582.70 0.8186
582.80 0.8184
582.90 0.8182
583.00 0.818
583.10 0.8178
583.20 0.8176
583.30 0.8174
583.40 0.8172
583.50 0.8169
583.60 0.8167
583.70 0.8165
583.80 0.8163
583.90 0.8161
584.00 0.8159
584.10 0.8156
584.20 0.8154
584.30 0.8152
584.40 0.815
584.50 0.8148
584.60 0.8146
584.70 0.8144
584.80 0.8142
584.90 0.814
585.00 0.8138
585.10 0.8136
585.20 0.8133
585.30 0.8131
585.40 0.8129
585.50 0.8127
585.60 0.8125
585.70 0.8123
585.80 0.8121
585.90 0.8118
586.00 0.8116
586.10 0.8114
586.20 0.8112
586.30 0.811
586.40 0.8108
586.50 0.8106
586.60 0.8104
586.70 0.8101
586.80 0.8099
586.90 0.8097
587.00 0.8095
587.10 0.8093
587.20 0.8091
587.30 0.8089
587.40 0.8087
587.50 0.8084
587.60 0.8082
587.70 0.808
587.80 0.8078
587.90 0.8076
588.00 0.8074
588.10 0.8072
588.20 0.807
588.30 0.8067
588.40 0.8065
588.50 0.8063
588.60 0.8061
588.70 0.8059
588.80 0.8057
588.90 0.8055
589.00 0.8053
589.10 0.8051
589.20 0.8049
589.30 0.8046
589.40 0.8044
589.50 0.8042
589.60 0.804
589.70 0.8038
589.80 0.8036
589.90 0.8034
590.00 0.8032
590.10 0.803
590.20 0.8027
590.30 0.8025
590.40 0.8023
590.50 0.8021
590.60 0.8019
590.70 0.8017
590.80 0.8015
590.90 0.8012
591.00 0.801
591.10 0.8008
591.20 0.8006
591.30 0.8004
591.40 0.8002
591.50 0.8
591.60 0.7998
591.70 0.7996
591.80 0.7994
591.90 0.7992
592.00 0.7989
592.10 0.7987
592.20 0.7985
592.30 0.7983
592.40 0.7981
592.50 0.7979
592.60 0.7977
592.70 0.7975
592.80 0.7972
592.90 0.797
593.00 0.7968
593.10 0.7966
593.20 0.7964
593.30 0.7962
593.40 0.796
593.50 0.7958
593.60 0.7956
593.70 0.7953
593.80 0.7951
593.90 0.7949
594.00 0.7947
594.10 0.7945
594.20 0.7943
594.30 0.7941
594.40 0.7939
594.50 0.7937
594.60 0.7935
594.70 0.7933
594.80 0.7931
594.90 0.7929
595.00 0.7926
595.10 0.7924
595.20 0.7922
595.30 0.792
595.40 0.7918
595.50 0.7916
595.60 0.7914
595.70 0.7912
595.80 0.791
595.90 0.7908
596.00 0.7906
596.10 0.7903
596.20 0.7901
596.30 0.7899
596.40 0.7897
596.50 0.7894
596.60 0.7892
596.70 0.789
596.80 0.7887
596.90 0.7885
597.00 0.7883
597.10 0.788
597.20 0.7878
597.30 0.7876
597.40 0.7874
597.50 0.7872
597.60 0.787
597.70 0.7868
597.80 0.7866
597.90 0.7864
598.00 0.7862
598.10 0.786
598.20 0.7857
598.30 0.7855
598.40 0.7853
598.50 0.7851
598.60 0.7849
598.70 0.7847
598.80 0.7845
598.90 0.7843
599.00 0.784
599.10 0.7838
599.20 0.7836
599.30 0.7834
599.40 0.7832
599.50 0.783
599.60 0.7828
599.70 0.7826
599.80 0.7824
599.90 0.7822
600.00 0.782
600.10 0.7818
600.20 0.7816
600.30 0.7814
600.40 0.7811
600.50 0.7809
600.60 0.7807
600.70 0.7805
600.80 0.7803
600.90 0.7801
601.00 0.7799
601.10 0.7797
601.20 0.7795
601.30 0.7793
601.40 0.779
601.50 0.7788
601.60 0.7786
601.70 0.7784
601.80 0.7782
601.90 0.778
602.00 0.7778
602.10 0.7776
602.20 0.7774
602.30 0.7772
602.40 0.777
602.50 0.7767
602.60 0.7765
602.70 0.7763
602.80 0.7761
602.90 0.7759
603.00 0.7757
603.10 0.7755
603.20 0.7753
603.30 0.7751
603.40 0.7749
603.50 0.7747
603.60 0.7745
603.70 0.7742
603.80 0.774
603.90 0.7738
604.00 0.7736
604.10 0.7734
604.20 0.7732
604.30 0.773
604.40 0.7728
604.50 0.7726
604.60 0.7724
604.70 0.7722
604.80 0.772
604.90 0.7718
605.00 0.7716
605.10 0.7714
605.20 0.7711
605.30 0.7709
605.40 0.7707
605.50 0.7705
605.60 0.7703
605.70 0.7701
605.80 0.7699
605.90 0.7697
606.00 0.7695
606.10 0.7693
606.20 0.7691
606.30 0.7689
606.40 0.7687
606.50 0.7685
606.60 0.7682
606.70 0.768
606.80 0.7678
606.90 0.7676
607.00 0.7674
607.10 0.7672
607.20 0.767
607.30 0.7668
607.40 0.7666
607.50 0.7664
607.60 0.7662
607.70 0.766
607.80 0.7658
607.90 0.7656
608.00 0.7654
608.10 0.7652
608.20 0.7649
608.30 0.7647
608.40 0.7645
608.50 0.7643
608.60 0.7641
608.70 0.7639
608.80 0.7637
608.90 0.7635
609.00 0.7633
609.10 0.7631
609.20 0.7629
609.30 0.7627
609.40 0.7625
609.50 0.7623
609.60 0.7621
609.70 0.7619
609.80 0.7617
609.90 0.7615
610.00 0.7613
610.10 0.7611
610.20 0.7608
610.30 0.7606
610.40 0.7604
610.50 0.7602
610.60 0.76
610.70 0.7598
610.80 0.7596
610.90 0.7594
611.00 0.7592
611.10 0.759
611.20 0.7588
611.30 0.7586
611.40 0.7584
611.50 0.7582
611.60 0.758
611.70 0.7578
611.80 0.7576
611.90 0.7573
612.00 0.7571
612.10 0.7569
612.20 0.7567
612.30 0.7565
612.40 0.7563
612.50 0.7561
612.60 0.7559
612.70 0.7557
612.80 0.7555
612.90 0.7553
613.00 0.7551
613.10 0.7549
613.20 0.7547
613.30 0.7545
613.40 0.7543
613.50 0.7541
613.60 0.7539
613.70 0.7537
613.80 0.7535
613.90 0.7533
614.00 0.7531
614.10 0.7529
614.20 0.7527
614.30 0.7524
614.40 0.7522
614.50 0.752
614.60 0.7518
614.70 0.7516
614.80 0.7514
614.90 0.7512
615.00 0.751
615.10 0.7508
615.20 0.7506
615.30 0.7504
615.40 0.7502
615.50 0.75
615.60 0.7498
615.70 0.7496
615.80 0.7494
615.90 0.7492
616.00 0.749
616.10 0.7488
616.20 0.7486
616.30 0.7484
616.40 0.7481
616.50 0.7479
616.60 0.7477
616.70 0.7475
616.80 0.7473
616.90 0.7471
617.00 0.7469
617.10 0.7467
617.20 0.7465
617.30 0.7463
617.40 0.7461
617.50 0.7459
617.60 0.7457
617.70 0.7455
617.80 0.7453
617.90 0.7451
618.00 0.7449
618.10 0.7447
618.20 0.7445
618.30 0.7443
618.40 0.7441
618.50 0.7439
618.60 0.7437
618.70 0.7435
618.80 0.7433
618.90 0.7431
619.00 0.7429
619.10 0.7427
619.20 0.7425
619.30 0.7423
619.40 0.7421
619.50 0.7419
619.60 0.7416
619.70 0.7414
619.80 0.7412
619.90 0.741
620.00 0.7408
620.10 0.7406
620.20 0.7404
620.30 0.7402
620.40 0.74
620.50 0.7398
620.60 0.7396
620.70 0.7394
620.80 0.7392
620.90 0.739
621.00 0.7388
621.10 0.7386
621.20 0.7384
621.30 0.7382
621.40 0.738
621.50 0.7378
621.60 0.7376
621.70 0.7374
621.80 0.7372
621.90 0.737
622.00 0.7368
622.10 0.7365
622.20 0.7363
622.30 0.7361
622.40 0.7359
622.50 0.7357
622.60 0.7355
622.70 0.7353
622.80 0.7351
622.90 0.7349
623.00 0.7347
623.10 0.7345
623.20 0.7343
623.30 0.7341
623.40 0.7339
623.50 0.7337
623.60 0.7335
623.70 0.7333
623.80 0.7331
623.90 0.7329
624.00 0.7327
624.10 0.7325
624.20 0.7323
624.30 0.7321
624.40 0.7319
624.50 0.7317
624.60 0.7315
624.70 0.7313
624.80 0.7311
624.90 0.7309
625.00 0.7307
625.10 0.7305
625.20 0.7303
625.30 0.7301
625.40 0.7299
625.50 0.7297
625.60 0.7295
625.70 0.7293
625.80 0.7291
625.90 0.7289
626.00 0.7287
626.10 0.7285
626.20 0.7283
626.30 0.7281
626.40 0.7279
626.50 0.7277
626.60 0.7275
626.70 0.7273
626.80 0.7271
626.90 0.7269
627.00 0.7267
627.10 0.7265
627.20 0.7263
627.30 0.7261
627.40 0.7258
627.50 0.7256
627.60 0.7254
627.70 0.7252
627.80 0.725
627.90 0.7248
628.00 0.7246
628.10 0.7244
628.20 0.7242
628.30 0.724
628.40 0.7238
628.50 0.7236
628.60 0.7234
628.70 0.7232
628.80 0.723
628.90 0.7228
629.00 0.7226
629.10 0.7224
629.20 0.7222
629.30 0.722
629.40 0.7218
629.50 0.7216
629.60 0.7214
629.70 0.7212
629.80 0.721
629.90 0.7208
630.00 0.7206
630.10 0.7204
630.20 0.7202
630.30 0.72
630.40 0.7198
630.50 0.7196
630.60 0.7193
630.70 0.7191
630.80 0.7189
630.90 0.7187
631.00 0.7185
631.10 0.7183
631.20 0.7181
631.30 0.7179
631.40 0.7177
631.50 0.7175
631.60 0.7173
631.70 0.7171
631.80 0.7169
631.90 0.7167
632.00 0.7165
632.10 0.7163
632.20 0.7161
632.30 0.7159
632.40 0.7157
632.50 0.7155
632.60 0.7153
632.70 0.7151
632.80 0.7149
632.90 0.7147
633.00 0.7145
633.10 0.7143
633.20 0.7141
633.30 0.7139
633.40 0.7137
633.50 0.7134
633.60 0.7132
633.70 0.713
633.80 0.7128
633.90 0.7126
634.00 0.7124
634.10 0.7122
634.20 0.712
634.30 0.7118
634.40 0.7116
634.50 0.7114
634.60 0.7112
634.70 0.711
634.80 0.7108
634.90 0.7106
635.00 0.7104
635.10 0.7102
635.20 0.71
635.30 0.7098
635.40 0.7096
635.50 0.7093
635.60 0.7091
635.70 0.7089
635.80 0.7087
635.90 0.7085
636.00 0.7083
636.10 0.7081
636.20 0.7079
636.30 0.7077
636.40 0.7075
636.50 0.7073
636.60 0.707
636.70 0.7068
636.80 0.7066
636.90 0.7064
637.00 0.7062
637.10 0.706
637.20 0.7058
637.30 0.7056
637.40 0.7053
637.50 0.7051
637.60 0.7049
637.70 0.7047
637.80 0.7045
637.90 0.7043
638.00 0.7041
638.10 0.7039
638.20 0.7037
638.30 0.7034
638.40 0.7032
638.50 0.703
638.60 0.7028
638.70 0.7026
638.80 0.7024
638.90 0.7022
639.00 0.702
639.10 0.7018
639.20 0.7016
639.30 0.7013
639.40 0.7011
639.50 0.7009
639.60 0.7007
639.70 0.7005
639.80 0.7002
639.90 0.7
640.00 0.6998
640.10 0.6996
640.20 0.6994
640.30 0.6992
640.40 0.6989
640.50 0.6987
640.60 0.6985
640.70 0.6983
640.80 0.698
640.90 0.6978
641.00 0.6976
641.10 0.6974
641.20 0.6972
641.30 0.6969
641.40 0.6967
641.50 0.6965
641.60 0.6962
641.70 0.696
641.80 0.6958
641.90 0.6955
642.00 0.6953
642.10 0.6951
642.20 0.6948
642.30 0.6946
642.40 0.6944
642.50 0.6941
642.60 0.6939
642.70 0.6937
642.80 0.6934
642.90 0.6932
643.00 0.693
643.10 0.6927
643.20 0.6925
643.30 0.6923
643.40 0.692
643.50 0.6918
643.60 0.6915
643.70 0.6913
643.80 0.691
643.90 0.6908
644.00 0.6905
644.10 0.6903
644.20 0.69
644.30 0.6898
644.40 0.6895
644.50 0.6893
644.60 0.689
644.70 0.6887
644.80 0.6885
644.90 0.6882
645.00 0.6879
645.10 0.6877
645.20 0.6874
645.30 0.6872
645.40 0.6869
645.50 0.6866
645.60 0.6863
645.70 0.686
645.80 0.6857
645.90 0.6855
646.00 0.6852
646.10 0.6849
646.20 0.6846
646.30 0.6843
646.40 0.684
646.50 0.6837
646.60 0.6834
646.70 0.6831
646.80 0.6828
646.90 0.6824
647.00 0.6821
647.10 0.6818
647.20 0.6815
647.30 0.6812
647.40 0.6808
647.50 0.6805
647.60 0.6801
647.70 0.6798
647.80 0.6794
647.90 0.6791
648.00 0.6787
648.10 0.6784
648.20 0.678
648.30 0.6777
648.40 0.6772
648.50 0.6768
648.60 0.6764
648.70 0.676
648.80 0.6756
648.90 0.6751
649.00 0.6747
649.10 0.6743
649.20 0.6739
649.30 0.6734
649.40 0.6729
649.50 0.6724
649.60 0.6719
649.70 0.6714
649.80 0.6709
649.90 0.6703
650.00 0.6698
650.10 0.6693
650.20 0.6688
650.30 0.6682
650.40 0.6675
650.50 0.6668
650.60 0.6662
650.70 0.6655
650.80 0.6648
650.90 0.6641
651.00 0.6634
651.10 0.6627
651.20 0.662
651.30 0.6613
651.40 0.6603
651.50 0.6593
651.60 0.6583
651.70 0.6573
651.80 0.6563
651.90 0.6553
652.00 0.6543
652.10 0.6533
652.20 0.6523
652.30 0.6512
652.40 0.6496
652.50 0.6481
652.60 0.6465
652.70 0.6449
652.80 0.6434
652.90 0.6418
653.00 0.6402
653.10 0.6386
653.20 0.6371
653.30 0.6352
653.40 0.6324
653.50 0.6296
653.60 0.6267
653.70 0.6239
653.80 0.621
653.90 0.6182
654.00 0.6154
654.10 0.6125
654.20 0.6097
654.30 0.6065
654.40 0.6016
654.50 0.5967
654.60 0.5919
654.70 0.587
654.80 0.5816
654.90 0.5739
655.00 0.5662
655.10 0.5585
655.20 0.5508
655.30 0.5424
655.40 0.5312
655.50 0.5192
655.60 0.5044
655.70 0.4886
655.80 0.4683
655.90 0.4462
656.00 0.4171
656.10 0.387
656.20 0.3514
656.30 0.3293
656.40 0.3649
656.50 0.3987
656.60 0.4277
656.70 0.4549
656.80 0.475
656.90 0.494
657.00 0.5085
657.10 0.5223
657.20 0.5332
657.30 0.5435
657.40 0.5509
657.50 0.5582
657.60 0.5656
657.70 0.573
657.80 0.5798
657.90 0.5843
658.00 0.5888
658.10 0.5933
658.20 0.5978
658.30 0.6019
658.40 0.6043
658.50 0.6068
658.60 0.6093
658.70 0.6117
658.80 0.6142
658.90 0.6167
659.00 0.6191
659.10 0.6216
659.20 0.6241
659.30 0.6263
659.40 0.6275
659.50 0.6287
659.60 0.6299
659.70 0.631
659.80 0.6322
659.90 0.6334
660.00 0.6346
660.10 0.6358
660.20 0.637
660.30 0.6381
660.40 0.6387
660.50 0.6393
660.60 0.6399
660.70 0.6405
660.80 0.6411
660.90 0.6417
661.00 0.6423
661.10 0.643
661.20 0.6436
661.30 0.6441
661.40 0.6444
661.50 0.6447
661.60 0.6451
661.70 0.6454
661.80 0.6457
661.90 0.646
662.00 0.6463
662.10 0.6466
662.20 0.6469
662.30 0.6472
662.40 0.6473
662.50 0.6475
662.60 0.6476
662.70 0.6478
662.80 0.6479
662.90 0.648
663.00 0.6482
663.10 0.6483
663.20 0.6485
663.30 0.6486
663.40 0.6486
663.50 0.6487
663.60 0.6487
663.70 0.6488
663.80 0.6488
663.90 0.6488
664.00 0.6489
664.10 0.6489
664.20 0.649
664.30 0.649
664.40 0.649
664.50 0.649
664.60 0.6489
664.70 0.6489
664.80 0.6489
664.90 0.6489
665.00 0.6488
665.10 0.6488
665.20 0.6488
665.30 0.6487
665.40 0.6487
665.50 0.6486
665.60 0.6486
665.70 0.6485
665.80 0.6484
665.90 0.6484
666.00 0.6483
666.10 0.6482
666.20 0.6482
666.30 0.6481
666.40 0.648
666.50 0.6479
666.60 0.6478
666.70 0.6477
666.80 0.6476
666.90 0.6475
667.00 0.6475
667.10 0.6474
667.20 0.6473
667.30 0.6472
667.40 0.6471
667.50 0.647
667.60 0.6468
667.70 0.6467
667.80 0.6466
667.90 0.6465
668.00 0.6464
668.10 0.6463
668.20 0.6462
668.30 0.6461
668.40 0.646
668.50 0.6458
668.60 0.6457
668.70 0.6456
668.80 0.6454
668.90 0.6453
669.00 0.6452
669.10 0.6451
669.20 0.6449
669.30 0.6448
669.40 0.6447
669.50 0.6445
669.60 0.6444
669.70 0.6443
669.80 0.6441
669.90 0.644
670.00 0.6439
670.10 0.6437
670.20 0.6436
670.30 0.6435
670.40 0.6433
670.50 0.6432
670.60 0.643
670.70 0.6429
670.80 0.6427
670.90 0.6426
671.00 0.6425
671.10 0.6423
671.20 0.6422
671.30 0.642
671.40 0.6419
671.50 0.6417
671.60 0.6416
671.70 0.6414
671.80 0.6413
671.90 0.6411
672.00 0.641
672.10 0.6408
672.20 0.6407
672.30 0.6405
672.40 0.6404
672.50 0.6402
672.60 0.6401
672.70 0.6399
672.80 0.6398
672.90 0.6396
673.00 0.6395
673.10 0.6393
673.20 0.6392
673.30 0.639
673.40 0.6389
673.50 0.6387
673.60 0.6385
673.70 0.6384
673.80 0.6382
673.90 0.6381
674.00 0.6379
674.10 0.6377
674.20 0.6376
674.30 0.6374
674.40 0.6373
674.50 0.6371
674.60 0.6369
674.70 0.6368
674.80 0.6366
674.90 0.6365
675.00 0.6363
675.10 0.6362
675.20 0.636
675.30 0.6358
675.40 0.6357
675.50 0.6355
675.60 0.6354
675.70 0.6352
675.80 0.635
675.90 0.6349
676.00 0.6347
676.10 0.6345
676.20 0.6344
676.30 0.6342
676.40 0.6341
676.50 0.6339
676.60 0.6337
676.70 0.6336
676.80 0.6334
676.90 0.6333
677.00 0.6331
677.10 0.6329
677.20 0.6328
677.30 0.6326
677.40 0.6324
677.50 0.6323
677.60 0.6321
677.70 0.6319
677.80 0.6318
677.90 0.6316
678.00 0.6315
678.10 0.6313
678.20 0.6311
678.30 0.631
678.40 0.6308
678.50 0.6306
678.60 0.6305
678.70 0.6303
678.80 0.6301
678.90 0.63
679.00 0.6298
679.10 0.6296
679.20 0.6295
679.30 0.6293
679.40 0.6292
679.50 0.629
679.60 0.6288
679.70 0.6286
679.80 0.6285
679.90 0.6283
680.00 0.6281
680.10 0.628
680.20 0.6278
680.30 0.6276
680.40 0.6275
680.50 0.6273
680.60 0.6271
680.70 0.627
680.80 0.6268
680.90 0.6266
681.00 0.6265
681.10 0.6263
681.20 0.6261
681.30 0.626
681.40 0.6258
681.50 0.6256
681.60 0.6255
681.70 0.6253
681.80 0.6251
681.90 0.625
682.00 0.6248
682.10 0.6246
682.20 0.6245
682.30 0.6243
682.40 0.6241
682.50 0.624
682.60 0.6238
682.70 0.6236
682.80 0.6235
682.90 0.6233
683.00 0.6231
683.10 0.623
683.20 0.6228
683.30 0.6227
683.40 0.6225
683.50 0.6223
683.60 0.6221
683.70 0.622
683.80 0.6218
683.90 0.6216
684.00 0.6215
684.10 0.6213
684.20 0.6211
684.30 0.621
684.40 0.6208
684.50 0.6206
684.60 0.6205
684.70 0.6203
684.80 0.6201
684.90 0.6199
685.00 0.6198
685.10 0.6196
685.20 0.6194
685.30 0.6193
685.40 0.6191
685.50 0.6189
685.60 0.6188
685.70 0.6186
685.80 0.6185
685.90 0.6183
686.00 0.6181
686.10 0.618
686.20 0.6178
686.30 0.6176
686.40 0.6175
686.50 0.6173
686.60 0.6171
686.70 0.617
686.80 0.6168
686.90 0.6166
687.00 0.6165
687.10 0.6163
687.20 0.6161
687.30 0.616
687.40 0.6158
687.50 0.6156
687.60 0.6155
687.70 0.6153
687.80 0.6151
687.90 0.615
688.00 0.6148
688.10 0.6146
688.20 0.6145
688.30 0.6143
688.40 0.6141
688.50 0.614
688.60 0.6138
688.70 0.6136
688.80 0.6135
688.90 0.6133
689.00 0.6131
689.10 0.6129
689.20 0.6128
689.30 0.6126
689.40 0.6124
689.50 0.6123
689.60 0.6121
689.70 0.6119
689.80 0.6118
689.90 0.6116
690.00 0.6114
690.10 0.6113
690.20 0.6111
690.30 0.6109
690.40 0.6108
690.50 0.6106
690.60 0.6104
690.70 0.6103
690.80 0.6101
690.90 0.6099
691.00 0.6098
691.10 0.6096
691.20 0.6094
691.30 0.6093
691.40 0.6091
691.50 0.6089
691.60 0.6088
691.70 0.6086
691.80 0.6084
691.90 0.6083
692.00 0.6081
692.10 0.6079
692.20 0.6078
692.30 0.6076
692.40 0.6074
692.50 0.6073
692.60 0.6071
692.70 0.6069
692.80 0.6068
692.90 0.6066
693.00 0.6064
693.10 0.6063
693.20 0.6061
693.30 0.6059
693.40 0.6058
693.50 0.6056
693.60 0.6054
693.70 0.6053
693.80 0.6051
693.90 0.6049
694.00 0.6048
694.10 0.6046
694.20 0.6045
694.30 0.6043
694.40 0.6041
694.50 0.604
694.60 0.6038
694.70 0.6036
694.80 0.6035
694.90 0.6033
695.00 0.6031
695.10 0.603
695.20 0.6028
695.30 0.6026
695.40 0.6025
695.50 0.6023
695.60 0.6021
695.70 0.602
695.80 0.6018
695.90 0.6016
696.00 0.6015
696.10 0.6013
696.20 0.6011
696.30 0.601
696.40 0.6008
696.50 0.6007
696.60 0.6005
696.70 0.6003
696.80 0.6002
696.90 0.6
697.00 0.5998
697.10 0.5997
697.20 0.5995
697.30 0.5993
697.40 0.5992
697.50 0.599
697.60 0.5988
697.70 0.5987
697.80 0.5985
697.90 0.5983
698.00 0.5982
698.10 0.598
698.20 0.5979
698.30 0.5977
698.40 0.5975
698.50 0.5974
698.60 0.5972
698.70 0.597
698.80 0.5969
698.90 0.5967
699.00 0.5965
699.10 0.5964
699.20 0.5962
699.30 0.5961
699.40 0.5959
699.50 0.5957
699.60 0.5956
699.70 0.5954
699.80 0.5952
699.90 0.5951
700.00 0.5949
700.10 0.5948
700.20 0.5946
700.30 0.5944
700.40 0.5943
700.50 0.5941
700.60 0.5939
700.70 0.5938
700.80 0.5936
700.90 0.5934
701.00 0.5933
701.10 0.5931
701.20 0.5929
701.30 0.5928
701.40 0.5926
701.50 0.5925
701.60 0.5923
701.70 0.5921
701.80 0.592
701.90 0.5918
702.00 0.5916
702.10 0.5915
702.20 0.5913
702.30 0.5912
702.40 0.591
702.50 0.5908
702.60 0.5907
702.70 0.5905
702.80 0.5903
702.90 0.5902
703.00 0.59
703.10 0.5899
703.20 0.5897
703.30 0.5895
703.40 0.5894
703.50 0.5892
703.60 0.589
703.70 0.5889
703.80 0.5887
703.90 0.5886
704.00 0.5884
704.10 0.5882
704.20 0.5881
704.30 0.5879
704.40 0.5878
704.50 0.5876
704.60 0.5874
704.70 0.5873
704.80 0.5871
704.90 0.5869
705.00 0.5868
705.10 0.5866
705.20 0.5865
705.30 0.5863
705.40 0.5861
705.50 0.586
705.60 0.5858
705.70 0.5857
705.80 0.5855
705.90 0.5853
706.00 0.5852
706.10 0.585
706.20 0.5848
706.30 0.5847
706.40 0.5845
706.50 0.5844
706.60 0.5842
706.70 0.584
706.80 0.5839
706.90 0.5837
707.00 0.5836
707.10 0.5834
707.20 0.5832
707.30 0.5831
707.40 0.5829
707.50 0.5827
707.60 0.5826
707.70 0.5824
707.80 0.5823
707.90 0.5821
708.00 0.5819
708.10 0.5818
708.20 0.5816
708.30 0.5815
708.40 0.5813
708.50 0.5811
708.60 0.581
708.70 0.5808
708.80 0.5807
708.90 0.5805
709.00 0.5803
709.10 0.5802
709.20 0.58
709.30 0.5799
709.40 0.5797
709.50 0.5795
709.60 0.5794
709.70 0.5792
709.80 0.5791
709.90 0.5789
710.00 0.5787
710.10 0.5786
710.20 0.5784
710.30 0.5783
710.40 0.5781
710.50 0.5779
710.60 0.5778
710.70 0.5776
710.80 0.5775
710.90 0.5773
711.00 0.5771
711.10 0.577
711.20 0.5768
711.30 0.5767
711.40 0.5765
711.50 0.5763
711.60 0.5762
711.70 0.576
711.80 0.5759
711.90 0.5757
712.00 0.5755
712.10 0.5754
712.20 0.5752
712.30 0.5751
712.40 0.5749
712.50 0.5748
712.60 0.5746
712.70 0.5744
712.80 0.5743
712.90 0.5741
713.00 0.574
713.10 0.5738
713.20 0.5736
713.30 0.5735
713.40 0.5733
713.50 0.5732
713.60 0.573
713.70 0.5728
713.80 0.5727
713.90 0.5725
714.00 0.5724
714.10 0.5722
714.20 0.5721
714.30 0.5719
714.40 0.5717
714.50 0.5716
714.60 0.5714
714.70 0.5713
714.80 0.5711
714.90 0.571
715.00 0.5708
715.10 0.5706
715.20 0.5705
715.30 0.5703
715.40 0.5702
715.50 0.57
715.60 0.5699
715.70 0.5697
715.80 0.5695
715.90 0.5694
716.00 0.5692
716.10 0.5691
716.20 0.5689
716.30 0.5688
716.40 0.5686
716.50 0.5684
716.60 0.5683
716.70 0.5681
716.80 0.568
716.90 0.5678
717.00 0.5677
717.10 0.5675
717.20 0.5674
717.30 0.5672
717.40 0.567
717.50 0.5669
717.60 0.5667
717.70 0.5666
717.80 0.5664
717.90 0.5663
718.00 0.5661
718.10 0.566
718.20 0.5658
718.30 0.5656
718.40 0.5655
718.50 0.5653
718.60 0.5652
718.70 0.565
718.80 0.5649
718.90 0.5647
719.00 0.5646
719.10 0.5644
719.20 0.5642
719.30 0.5641
719.40 0.5639
719.50 0.5638
719.60 0.5636
719.70 0.5635
719.80 0.5633
719.90 0.5632
720.00 0.563
720.10 0.5629
720.20 0.5627
720.30 0.5625
720.40 0.5624
720.50 0.5622
720.60 0.5621
720.70 0.5619
720.80 0.5618
720.90 0.5616
721.00 0.5615
721.10 0.5613
721.20 0.5611
721.30 0.561
721.40 0.5608
721.50 0.5607
721.60 0.5605
721.70 0.5604
721.80 0.5602
721.90 0.5601
722.00 0.5599
722.10 0.5597
722.20 0.5596
722.30 0.5594
722.40 0.5593
722.50 0.5591
722.60 0.559
722.70 0.5588
722.80 0.5587
722.90 0.5585
723.00 0.5584
723.10 0.5582
723.20 0.558
723.30 0.5579
723.40 0.5577
723.50 0.5576
723.60 0.5574
723.70 0.5573
723.80 0.5571
723.90 0.557
724.00 0.5568
724.10 0.5567
724.20 0.5565
724.30 0.5563
724.40 0.5562
724.50 0.556
724.60 0.5559
724.70 0.5557
724.80 0.5556
724.90 0.5554
725.00 0.5553
725.10 0.5551
725.20 0.555
725.30 0.5548
725.40 0.5547
725.50 0.5545
725.60 0.5543
725.70 0.5542
725.80 0.554
725.90 0.5539
726.00 0.5537
726.10 0.5536
726.20 0.5534
726.30 0.5533
726.40 0.5531
726.50 0.553
726.60 0.5528
726.70 0.5527
726.80 0.5525
726.90 0.5523
727.00 0.5522
727.10 0.552
727.20 0.5519
727.30 0.5517
727.40 0.5516
727.50 0.5514
727.60 0.5513
727.70 0.5511
727.80 0.551
727.90 0.5508
728.00 0.5507
728.10 0.5505
728.20 0.5504
728.30 0.5502
728.40 0.5501
728.50 0.5499
728.60 0.5497
728.70 0.5496
728.80 0.5494
728.90 0.5493
729.00 0.5491
729.10 0.549
729.20 0.5488
729.30 0.5487
729.40 0.5485
729.50 0.5484
729.60 0.5482
729.70 0.5481
729.80 0.5479
729.90 0.5478
730.00 0.5476
730.10 0.5475
730.20 0.5473
730.30 0.5472
730.40 0.547
730.50 0.5469
730.60 0.5467
730.70 0.5466
730.80 0.5464
730.90 0.5462
731.00 0.5461
731.10 0.5459
731.20 0.5458
731.30 0.5456
731.40 0.5455
731.50 0.5453
731.60 0.5452
731.70 0.545
731.80 0.5449
731.90 0.5447
732.00 0.5446
732.10 0.5444
732.20 0.5443
732.30 0.5441
732.40 0.544
732.50 0.5438
732.60 0.5437
732.70 0.5435
732.80 0.5434
732.90 0.5432
733.00 0.5431
733.10 0.5429
733.20 0.5428
733.30 0.5426
733.40 0.5425
733.50 0.5423
733.60 0.5422
733.70 0.542
733.80 0.5419
733.90 0.5417
734.00 0.5416
734.10 0.5414
734.20 0.5413
734.30 0.5411
734.40 0.541
734.50 0.5408
734.60 0.5407
734.70 0.5405
734.80 0.5404
734.90 0.5402
735.00 0.5401
735.10 0.5399
735.20 0.5398
735.30 0.5396
735.40 0.5395
735.50 0.5393
735.60 0.5392
735.70 0.539
735.80 0.5389
735.90 0.5387
736.00 0.5386
736.10 0.5384
736.20 0.5383
736.30 0.5381
736.40 0.538
736.50 0.5378
736.60 0.5377
736.70 0.5375
736.80 0.5374
736.90 0.5372
737.00 0.5371
737.10 0.5369
737.20 0.5368
737.30 0.5366
737.40 0.5365
737.50 0.5363
737.60 0.5362
737.70 0.536
737.80 0.5359
737.90 0.5358
738.00 0.5356
738.10 0.5355
738.20 0.5353
738.30 0.5352
738.40 0.535
738.50 0.5349
738.60 0.5347
738.70 0.5346
738.80 0.5344
738.90 0.5343
739.00 0.5341
739.10 0.534
739.20 0.5338
739.30 0.5337
739.40 0.5335
739.50 0.5334
739.60 0.5333
739.70 0.5331
739.80 0.533
739.90 0.5328
740.00 0.5327
740.10 0.5325
740.20 0.5324
740.30 0.5322
740.40 0.5321
740.50 0.5319
740.60 0.5318
740.70 0.5316
740.80 0.5315
740.90 0.5313
741.00 0.5312
741.10 0.531
741.20 0.5309
741.30 0.5307
741.40 0.5306
741.50 0.5304
741.60 0.5303
741.70 0.5301
741.80 0.53
741.90 0.5299
742.00 0.5297
742.10 0.5296
742.20 0.5294
742.30 0.5293
742.40 0.5291
742.50 0.529
742.60 0.5288
742.70 0.5287
742.80 0.5285
742.90 0.5284
743.00 0.5282
743.10 0.5281
743.20 0.5279
743.30 0.5278
743.40 0.5276
743.50 0.5275
743.60 0.5274
743.70 0.5272
743.80 0.5271
743.90 0.5269
744.00 0.5268
744.10 0.5266
744.20 0.5265
744.30 0.5263
744.40 0.5262
744.50 0.526
744.60 0.5259
744.70 0.5257
744.80 0.5256
744.90 0.5255
745.00 0.5253
745.10 0.5252
745.20 0.525
745.30 0.5249
745.40 0.5247
745.50 0.5246
745.60 0.5244
745.70 0.5243
745.80 0.5241
745.90 0.524
746.00 0.5239
746.10 0.5237
746.20 0.5236
746.30 0.5234
746.40 0.5233
746.50 0.5231
746.60 0.523
746.70 0.5228
746.80 0.5227
746.90 0.5225
747.00 0.5224
747.10 0.5223
747.20 0.5221
747.30 0.522
747.40 0.5218
747.50 0.5217
747.60 0.5215
747.70 0.5214
747.80 0.5213
747.90 0.5211
748.00 0.521
748.10 0.5208
748.20 0.5207
748.30 0.5205
748.40 0.5204
748.50 0.5202
748.60 0.5201
748.70 0.52
748.80 0.5198
748.90 0.5197
749.00 0.5195
749.10 0.5194
749.20 0.5192
749.30 0.5191
749.40 0.519
749.50 0.5188
749.60 0.5187
749.70 0.5185
749.80 0.5184
749.90 0.5182
750.00 0.5181
750.10 0.518
750.20 0.5178
750.30 0.5177
750.40 0.5175
750.50 0.5174
750.60 0.5172
750.70 0.5171
750.80 0.5169
750.90 0.5168
751.00 0.5167
751.10 0.5165
751.20 0.5164
751.30 0.5162
751.40 0.5161
751.50 0.5159
751.60 0.5158
751.70 0.5157
751.80 0.5155
751.90 0.5154
752.00 0.5152
752.10 0.5151
752.20 0.5149
752.30 0.5148
752.40 0.5147
752.50 0.5145
752.60 0.5144
752.70 0.5142
752.80 0.5141
752.90 0.5139
753.00 0.5138
753.10 0.5137
753.20 0.5135
753.30 0.5134
753.40 0.5132
753.50 0.5131
753.60 0.5129
753.70 0.5128
753.80 0.5127
753.90 0.5125
754.00 0.5124
754.10 0.5122
754.20 0.5121
754.30 0.512
754.40 0.5118
754.50 0.5117
754.60 0.5115
754.70 0.5114
754.80 0.5112
754.90 0.5111
755.00 0.511
755.10 0.5108
755.20 0.5107
755.30 0.5105
755.40 0.5104
755.50 0.5103
755.60 0.5101
755.70 0.51
755.80 0.5098
755.90 0.5097
756.00 0.5096
756.10 0.5094
756.20 0.5093
756.30 0.5091
756.40 0.509
756.50 0.5088
756.60 0.5087
756.70 0.5086
756.80 0.5084
756.90 0.5083
757.00 0.5081
757.10 0.508
757.20 0.5079
757.30 0.5077
757.40 0.5076
757.50 0.5074
757.60 0.5073
757.70 0.5072
757.80 0.507
757.90 0.5069
758.00 0.5067
758.10 0.5066
758.20 0.5065
758.30 0.5063
758.40 0.5062
758.50 0.5061
758.60 0.5059
758.70 0.5058
758.80 0.5056
758.90 0.5055
759.00 0.5054
759.10 0.5052
759.20 0.5051
759.30 0.5049
759.40 0.5048
759.50 0.5047
759.60 0.5045
759.70 0.5044
759.80 0.5042
759.90 0.5041
760.00 0.504
760.10 0.5038
760.20 0.5037
760.30 0.5035
760.40 0.5034
760.50 0.5033
760.60 0.5031
760.70 0.503
760.80 0.5028
760.90 0.5027
761.00 0.5026
761.10 0.5024
761.20 0.5023
761.30 0.5021
761.40 0.502
761.50 0.5019
761.60 0.5017
761.70 0.5016
761.80 0.5015
761.90 0.5013
762.00 0.5012
762.10 0.501
762.20 0.5009
762.30 0.5008
762.40 0.5006
762.50 0.5005
762.60 0.5003
762.70 0.5002
762.80 0.5001
762.90 0.4999
763.00 0.4998
763.10 0.4996
763.20 0.4995
763.30 0.4994
763.40 0.4992
763.50 0.4991
763.60 0.499
763.70 0.4988
763.80 0.4987
763.90 0.4985
764.00 0.4984
764.10 0.4983
764.20 0.4981
764.30 0.498
764.40 0.4979
764.50 0.4977
764.60 0.4976
764.70 0.4974
764.80 0.4973
764.90 0.4972
765.00 0.497
765.10 0.4969
765.20 0.4968
765.30 0.4966
765.40 0.4965
765.50 0.4963
765.60 0.4962
765.70 0.4961
765.80 0.4959
765.90 0.4958
766.00 0.4957
766.10 0.4955
766.20 0.4954
766.30 0.4952
766.40 0.4951
766.50 0.495
766.60 0.4948
766.70 0.4947
766.80 0.4946
766.90 0.4944
767.00 0.4943
767.10 0.4942
767.20 0.494
767.30 0.4939
767.40 0.4937
767.50 0.4936
767.60 0.4935
767.70 0.4933
767.80 0.4932
767.90 0.4931
768.00 0.4929
768.10 0.4928
768.20 0.4927
768.30 0.4925
768.40 0.4924
768.50 0.4923
768.60 0.4921
768.70 0.492
768.80 0.4918
768.90 0.4917
769.00 0.4916
769.10 0.4914
769.20 0.4913
769.30 0.4912
769.40 0.491
769.50 0.4909
769.60 0.4908
769.70 0.4906
769.80 0.4905
769.90 0.4904
770.00 0.4902
770.10 0.4901
770.20 0.49
770.30 0.4898
770.40 0.4897
770.50 0.4895
770.60 0.4894
770.70 0.4893
770.80 0.4891
770.90 0.489
771.00 0.4889
771.10 0.4887
771.20 0.4886
771.30 0.4885
771.40 0.4883
771.50 0.4882
771.60 0.4881
771.70 0.4879
771.80 0.4878
771.90 0.4877
772.00 0.4875
772.10 0.4874
772.20 0.4873
772.30 0.4871
772.40 0.487
772.50 0.4868
772.60 0.4867
772.70 0.4866
772.80 0.4864
772.90 0.4863
773.00 0.4862
773.10 0.486
773.20 0.4859
773.30 0.4858
773.40 0.4856
773.50 0.4855
773.60 0.4854
773.70 0.4852
773.80 0.4851
773.90 0.485
774.00 0.4848
774.10 0.4847
774.20 0.4846
774.30 0.4844
774.40 0.4843
774.50 0.4842
774.60 0.484
774.70 0.4839
774.80 0.4838
774.90 0.4836
775.00 0.4835
775.10 0.4834
775.20 0.4832
775.30 0.4831
775.40 0.483
775.50 0.4828
775.60 0.4827
775.70 0.4826
775.80 0.4824
775.90 0.4823
776.00 0.4822
776.10 0.482
776.20 0.4819
776.30 0.4818
776.40 0.4816
776.50 0.4815
776.60 0.4814
776.70 0.4813
776.80 0.4811
776.90 0.481
777.00 0.4809
777.10 0.4807
777.20 0.4806
777.30 0.4805
777.40 0.4803
777.50 0.4802
777.60 0.4801
777.70 0.4799
777.80 0.4798
777.90 0.4797
778.00 0.4795
778.10 0.4794
778.20 0.4793
778.30 0.4791
778.40 0.479
778.50 0.4789
778.60 0.4788
778.70 0.4786
778.80 0.4785
778.90 0.4784
779.00 0.4782
779.10 0.4781
779.20 0.478
779.30 0.4778
779.40 0.4777
779.50 0.4776
779.60 0.4774
779.70 0.4773
779.80 0.4772
779.90 0.4771
780.00 0.4769
780.10 0.4768
780.20 0.4767
780.30 0.4765
780.40 0.4764
780.50 0.4763
780.60 0.4761
780.70 0.476
780.80 0.4759
780.90 0.4757
781.00 0.4756
781.10 0.4755
781.20 0.4753
781.30 0.4752
781.40 0.4751
781.50 0.4749
781.60 0.4748
781.70 0.4747
781.80 0.4746
781.90 0.4744
782.00 0.4743
782.10 0.4742
782.20 0.474
782.30 0.4739
782.40 0.4738
782.50 0.4736
782.60 0.4735
782.70 0.4734
782.80 0.4732
782.90 0.4731
783.00 0.473
783.10 0.4729
783.20 0.4727
783.30 0.4726
783.40 0.4725
783.50 0.4723
783.60 0.4722
783.70 0.4721
783.80 0.4719
783.90 0.4718
784.00 0.4717
784.10 0.4715
784.20 0.4714
784.30 0.4713
784.40 0.4712
784.50 0.471
784.60 0.4709
784.70 0.4708
784.80 0.4706
784.90 0.4705
785.00 0.4704
785.10 0.4703
785.20 0.4701
785.30 0.47
785.40 0.4699
785.50 0.4697
785.60 0.4696
785.70 0.4695
785.80 0.4693
785.90 0.4692
786.00 0.4691
786.10 0.469
786.20 0.4688
786.30 0.4687
786.40 0.4686
786.50 0.4684
786.60 0.4683
786.70 0.4682
786.80 0.4681
786.90 0.4679
787.00 0.4678
787.10 0.4677
787.20 0.4675
787.30 0.4674
787.40 0.4673
787.50 0.4672
787.60 0.467
787.70 0.4669
787.80 0.4668
787.90 0.4666
788.00 0.4665
788.10 0.4664
788.20 0.4663
788.30 0.4661
788.40 0.466
788.50 0.4659
788.60 0.4658
788.70 0.4656
788.80 0.4655
788.90 0.4654
789.00 0.4652
789.10 0.4651
789.20 0.465
789.30 0.4649
789.40 0.4647
789.50 0.4646
789.60 0.4645
789.70 0.4643
789.80 0.4642
789.90 0.4641
790.00 0.464
790.10 0.4638
790.20 0.4637
790.30 0.4636
790.40 0.4635
790.50 0.4633
790.60 0.4632
790.70 0.4631
790.80 0.4629
790.90 0.4628
791.00 0.4627
791.10 0.4626
791.20 0.4624
791.30 0.4623
791.40 0.4622
791.50 0.4621
791.60 0.4619
791.70 0.4618
791.80 0.4617
791.90 0.4615
792.00 0.4614
792.10 0.4613
792.20 0.4612
792.30 0.461
792.40 0.4609
792.50 0.4608
792.60 0.4607
792.70 0.4605
792.80 0.4604
792.90 0.4603
793.00 0.4602
793.10 0.46
793.20 0.4599
793.30 0.4598
793.40 0.4596
793.50 0.4595
793.60 0.4594
793.70 0.4593
793.80 0.4591
793.90 0.459
794.00 0.4589
794.10 0.4588
794.20 0.4586
794.30 0.4585
794.40 0.4584
794.50 0.4583
794.60 0.4581
794.70 0.458
794.80 0.4579
794.90 0.4578
795.00 0.4576
795.10 0.4575
795.20 0.4574
795.30 0.4573
795.40 0.4571
795.50 0.457
795.60 0.4569
795.70 0.4568
795.80 0.4566
795.90 0.4565
796.00 0.4564
796.10 0.4563
796.20 0.4561
796.30 0.456
796.40 0.4559
796.50 0.4558
796.60 0.4556
796.70 0.4555
796.80 0.4554
796.90 0.4553
797.00 0.4551
797.10 0.455
797.20 0.4549
797.30 0.4548
797.40 0.4546
797.50 0.4545
797.60 0.4544
797.70 0.4543
797.80 0.4541
797.90 0.454
798.00 0.4539
798.10 0.4538
798.20 0.4536
798.30 0.4535
798.40 0.4534
798.50 0.4533
798.60 0.4531
798.70 0.453
798.80 0.4529
798.90 0.4528
799.00 0.4527
799.10 0.4525
799.20 0.4524
799.30 0.4523
799.40 0.4522
799.50 0.452
799.60 0.4519
799.70 0.4518
799.80 0.4517
799.90 0.4515
800.00 0.4514
800.10 0.4513
800.20 0.4512
800.30 0.451
800.40 0.4509
800.50 0.4508
800.60 0.4507
800.70 0.4505
800.80 0.4504
800.90 0.4503
801.00 0.4502
801.10 0.4501
801.20 0.4499
801.30 0.4498
801.40 0.4497
801.50 0.4496
801.60 0.4494
801.70 0.4493
801.80 0.4492
801.90 0.4491
802.00 0.4489
802.10 0.4488
802.20 0.4487
802.30 0.4486
802.40 0.4484
802.50 0.4483
802.60 0.4482
802.70 0.4481
802.80 0.448
802.90 0.4478
803.00 0.4477
803.10 0.4476
803.20 0.4475
803.30 0.4473
803.40 0.4472
803.50 0.4471
803.60 0.447
803.70 0.4468
803.80 0.4467
803.90 0.4466
804.00 0.4465
804.10 0.4464
804.20 0.4462
804.30 0.4461
804.40 0.446
804.50 0.4459
804.60 0.4457
804.70 0.4456
804.80 0.4455
804.90 0.4454
805.00 0.4453
805.10 0.4451
805.20 0.445
805.30 0.4449
805.40 0.4448
805.50 0.4447
805.60 0.4445
805.70 0.4444
805.80 0.4443
805.90 0.4442
806.00 0.444
806.10 0.4439
806.20 0.4438
806.30 0.4437
806.40 0.4436
806.50 0.4434
806.60 0.4433
806.70 0.4432
806.80 0.4431
806.90 0.443
807.00 0.4428
807.10 0.4427
807.20 0.4426
807.30 0.4425
807.40 0.4423
807.50 0.4422
807.60 0.4421
807.70 0.442
807.80 0.4419
807.90 0.4417
808.00 0.4416
808.10 0.4415
808.20 0.4414
808.30 0.4413
808.40 0.4411
808.50 0.441
808.60 0.4409
808.70 0.4408
808.80 0.4407
808.90 0.4405
809.00 0.4404
809.10 0.4403
809.20 0.4402
809.30 0.4401
809.40 0.4399
809.50 0.4398
809.60 0.4397
809.70 0.4396
809.80 0.4395
809.90 0.4393
810.00 0.4392
810.10 0.4391
810.20 0.439
810.30 0.4389
810.40 0.4387
810.50 0.4386
810.60 0.4385
810.70 0.4384
810.80 0.4383
810.90 0.4381
811.00 0.438
811.10 0.4379
811.20 0.4378
811.30 0.4377
811.40 0.4375
811.50 0.4374
811.60 0.4373
811.70 0.4372
811.80 0.4371
811.90 0.4369
812.00 0.4368
812.10 0.4367
812.20 0.4366
812.30 0.4365
812.40 0.4363
812.50 0.4362
812.60 0.4361
812.70 0.436
812.80 0.4359
812.90 0.4357
813.00 0.4356
813.10 0.4355
813.20 0.4354
813.30 0.4353
813.40 0.4352
813.50 0.435
813.60 0.4349
813.70 0.4348
813.80 0.4347
813.90 0.4346
814.00 0.4344
814.10 0.4343
814.20 0.4342
814.30 0.4341
814.40 0.434
814.50 0.4338
814.60 0.4337
814.70 0.4336
814.80 0.4335
814.90 0.4334
815.00 0.4333
815.10 0.4331
815.20 0.433
815.30 0.4329
815.40 0.4328
815.50 0.4327
815.60 0.4325
815.70 0.4324
815.80 0.4323
815.90 0.4322
816.00 0.4321
816.10 0.432
816.20 0.4318
816.30 0.4317
816.40 0.4316
816.50 0.4315
816.60 0.4314
816.70 0.4313
816.80 0.4311
816.90 0.431
817.00 0.4309
817.10 0.4308
817.20 0.4307
817.30 0.4305
817.40 0.4304
817.50 0.4303
817.60 0.4302
817.70 0.4301
817.80 0.43
817.90 0.4298
818.00 0.4297
818.10 0.4296
818.20 0.4295
818.30 0.4294
818.40 0.4293
818.50 0.4291
818.60 0.429
818.70 0.4289
818.80 0.4288
818.90 0.4287
819.00 0.4286
819.10 0.4284
819.20 0.4283
819.30 0.4282
819.40 0.4281
819.50 0.428
819.60 0.4279
819.70 0.4277
819.80 0.4276
819.90 0.4275
820.00 0.4274
820.10 0.4273
820.20 0.4272
820.30 0.4271
820.40 0.427
820.50 0.4269
820.60 0.4267
820.70 0.4266
820.80 0.4265
820.90 0.4264
821.00 0.4263
821.10 0.4262
821.20 0.426
821.30 0.4259
821.40 0.4258
821.50 0.4257
821.60 0.4256
821.70 0.4255
821.80 0.4253
821.90 0.4252
822.00 0.4251
822.10 0.425
822.20 0.4249
822.30 0.4248
822.40 0.4246
822.50 0.4245
822.60 0.4244
822.70 0.4243
822.80 0.4242
822.90 0.4241
823.00 0.424
823.10 0.4238
823.20 0.4237
823.30 0.4236
823.40 0.4235
823.50 0.4234
823.60 0.4233
823.70 0.4231
823.80 0.423
823.90 0.4229
824.00 0.4228
824.10 0.4227
824.20 0.4226
824.30 0.4225
824.40 0.4223
824.50 0.4222
824.60 0.4221
824.70 0.422
824.80 0.4219
824.90 0.4218
825.00 0.4217
825.10 0.4215
825.20 0.4214
825.30 0.4213
825.40 0.4212
825.50 0.4211
825.60 0.421
825.70 0.4209
825.80 0.4207
825.90 0.4206
826.00 0.4205
826.10 0.4204
826.20 0.4203
826.30 0.4202
826.40 0.4201
826.50 0.4199
826.60 0.4198
826.70 0.4197
826.80 0.4196
826.90 0.4195
827.00 0.4194
827.10 0.4193
827.20 0.4191
827.30 0.419
827.40 0.4189
827.50 0.4188
827.60 0.4187
827.70 0.4186
827.80 0.4185
827.90 0.4183
828.00 0.4182
828.10 0.4181
828.20 0.418
828.30 0.4179
828.40 0.4178
828.50 0.4177
828.60 0.4176
828.70 0.4174
828.80 0.4173
828.90 0.4172
829.00 0.4171
829.10 0.417
829.20 0.4169
829.30 0.4168
829.40 0.4166
829.50 0.4165
829.60 0.4164
829.70 0.4163
829.80 0.4162
829.90 0.4161
830.00 0.416
830.10 0.4159
830.20 0.4157
830.30 0.4156
830.40 0.4155
830.50 0.4154
830.60 0.4153
830.70 0.4152
830.80 0.4151
830.90 0.415
831.00 0.4148
831.10 0.4147
831.20 0.4146
831.30 0.4145
831.40 0.4144
831.50 0.4143
831.60 0.4142
831.70 0.4141
831.80 0.4139
831.90 0.4138
832.00 0.4137
832.10 0.4136
832.20 0.4135
832.30 0.4134
832.40 0.4133
832.50 0.4132
832.60 0.413
832.70 0.4129
832.80 0.4128
832.90 0.4127
833.00 0.4126
833.10 0.4125
833.20 0.4124
833.30 0.4123
833.40 0.4121
833.50 0.412
833.60 0.4119
833.70 0.4118
833.80 0.4117
833.90 0.4116
834.00 0.4115
834.10 0.4114
834.20 0.4112
834.30 0.4111
834.40 0.411
834.50 0.4109
834.60 0.4108
834.70 0.4107
834.80 0.4106
834.90 0.4105
835.00 0.4104
835.10 0.4102
835.20 0.4101
835.30 0.41
835.40 0.4099
835.50 0.4098
835.60 0.4097
835.70 0.4096
835.80 0.4095
835.90 0.4094
836.00 0.4092
836.10 0.4091
836.20 0.409
836.30 0.4089
836.40 0.4088
836.50 0.4087
836.60 0.4086
836.70 0.4085
836.80 0.4084
836.90 0.4082
837.00 0.4081
837.10 0.408
837.20 0.4079
837.30 0.4078
837.40 0.4077
837.50 0.4076
837.60 0.4075
837.70 0.4074
837.80 0.4073
837.90 0.4071
838.00 0.407
838.10 0.4069
838.20 0.4068
838.30 0.4067
838.40 0.4066
838.50 0.4065
838.60 0.4064
838.70 0.4063
838.80 0.4062
838.90 0.406
839.00 0.4059
839.10 0.4058
839.20 0.4057
839.30 0.4056
839.40 0.4055
839.50 0.4054
839.60 0.4053
839.70 0.4052
839.80 0.4051
839.90 0.4049
840.00 0.4048
840.10 0.4047
840.20 0.4046
840.30 0.4045
840.40 0.4044
840.50 0.4043
840.60 0.4042
840.70 0.4041
840.80 0.404
840.90 0.4039
841.00 0.4037
841.10 0.4036
841.20 0.4035
841.30 0.4034
841.40 0.4033
841.50 0.4032
841.60 0.4031
841.70 0.403
841.80 0.4029
841.90 0.4028
842.00 0.4027
842.10 0.4026
842.20 0.4024
842.30 0.4023
842.40 0.4022
842.50 0.4021
842.60 0.402
842.70 0.4019
842.80 0.4018
842.90 0.4017
843.00 0.4016
843.10 0.4015
843.20 0.4014
843.30 0.4012
843.40 0.4011
843.50 0.401
843.60 0.4009
843.70 0.4008
843.80 0.4007
843.90 0.4006
844.00 0.4005
844.10 0.4004
844.20 0.4003
844.30 0.4002
844.40 0.4001
844.50 0.3999
844.60 0.3998
844.70 0.3997
844.80 0.3996
844.90 0.3995
845.00 0.3994
845.10 0.3993
845.20 0.3992
845.30 0.3991
845.40 0.399
845.50 0.3989
845.60 0.3988
845.70 0.3987
845.80 0.3985
845.90 0.3984
846.00 0.3983
846.10 0.3982
846.20 0.3981
846.30 0.398
846.40 0.3979
846.50 0.3978
846.60 0.3977
846.70 0.3976
846.80 0.3975
846.90 0.3974
847.00 0.3973
847.10 0.3971
847.20 0.397
847.30 0.3969
847.40 0.3968
847.50 0.3967
847.60 0.3966
847.70 0.3965
847.80 0.3964
847.90 0.3963
848.00 0.3962
848.10 0.3961
848.20 0.396
848.30 0.3959
848.40 0.3958
848.50 0.3957
848.60 0.3955
848.70 0.3954
848.80 0.3953
848.90 0.3952
849.00 0.3951
849.10 0.395
849.20 0.3949
849.30 0.3948
849.40 0.3947
849.50 0.3946
849.60 0.3945
849.70 0.3944
849.80 0.3943
849.90 0.3942
850.00 0.3941
850.10 0.394
850.20 0.3938
850.30 0.3937
850.40 0.3936
850.50 0.3935
850.60 0.3934
850.70 0.3933
850.80 0.3932
850.90 0.3931
851.00 0.393
851.10 0.3929
851.20 0.3928
851.30 0.3927
851.40 0.3926
851.50 0.3925
851.60 0.3924
851.70 0.3923
851.80 0.3922
851.90 0.3921
852.00 0.3919
852.10 0.3918
852.20 0.3917
852.30 0.3916
852.40 0.3915
852.50 0.3914
852.60 0.3913
852.70 0.3912
852.80 0.3911
852.90 0.391
853.00 0.3909
853.10 0.3908
853.20 0.3907
853.30 0.3906
853.40 0.3905
853.50 0.3904
853.60 0.3903
853.70 0.3902
853.80 0.3901
853.90 0.3899
854.00 0.3898
854.10 0.3897
854.20 0.3896
854.30 0.3895
854.40 0.3894
854.50 0.3893
854.60 0.3892
854.70 0.3891
854.80 0.389
854.90 0.3889
855.00 0.3888
855.10 0.3887
855.20 0.3886
855.30 0.3885
855.40 0.3884
855.50 0.3883
855.60 0.3882
855.70 0.3881
855.80 0.388
855.90 0.3879
856.00 0.3878
856.10 0.3876
856.20 0.3875
856.30 0.3874
856.40 0.3873
856.50 0.3872
856.60 0.3871
856.70 0.387
856.80 0.3869
856.90 0.3868
857.00 0.3867
857.10 0.3866
857.20 0.3865
857.30 0.3864
857.40 0.3863
857.50 0.3862
857.60 0.3861
857.70 0.386
857.80 0.3859
857.90 0.3858
858.00 0.3857
858.10 0.3856
858.20 0.3855
858.30 0.3854
858.40 0.3853
858.50 0.3852
858.60 0.385
858.70 0.3849
858.80 0.3848
858.90 0.3847
859.00 0.3846
859.10 0.3845
859.20 0.3844
859.30 0.3843
859.40 0.3842
859.50 0.3841
859.60 0.384
859.70 0.3839
859.80 0.3838
859.90 0.3837
860.00 0.3836
860.10 0.3835
860.20 0.3834
860.30 0.3833
860.40 0.3832
860.50 0.3831
860.60 0.383
860.70 0.3829
860.80 0.3828
860.90 0.3827
861.00 0.3826
861.10 0.3825
861.20 0.3824
861.30 0.3823
861.40 0.3822
861.50 0.3821
861.60 0.382
861.70 0.3819
861.80 0.3818
861.90 0.3816
862.00 0.3815
862.10 0.3814
862.20 0.3813
862.30 0.3812
862.40 0.3811
862.50 0.381
862.60 0.3809
862.70 0.3808
862.80 0.3807
862.90 0.3806
863.00 0.3805
863.10 0.3804
863.20 0.3803
863.30 0.3802
863.40 0.3801
863.50 0.38
863.60 0.3799
863.70 0.3798
863.80 0.3797
863.90 0.3796
864.00 0.3795
864.10 0.3794
864.20 0.3793
864.30 0.3792
864.40 0.3791
864.50 0.379
864.60 0.3789
864.70 0.3788
864.80 0.3787
864.90 0.3786
865.00 0.3785
865.10 0.3784
865.20 0.3783
865.30 0.3782
865.40 0.3781
865.50 0.378
865.60 0.3779
865.70 0.3778
865.80 0.3777
865.90 0.3776
866.00 0.3775
866.10 0.3774
866.20 0.3773
866.30 0.3772
866.40 0.3771
866.50 0.377
866.60 0.3769
866.70 0.3768
866.80 0.3767
866.90 0.3766
867.00 0.3765
867.10 0.3764
867.20 0.3763
867.30 0.3762
867.40 0.3761
867.50 0.376
867.60 0.3759
867.70 0.3758
867.80 0.3757
867.90 0.3756
868.00 0.3755
868.10 0.3754
868.20 0.3753
868.30 0.3752
868.40 0.3751
868.50 0.375
868.60 0.3749
868.70 0.3748
868.80 0.3747
868.90 0.3746
869.00 0.3745
869.10 0.3744
869.20 0.3743
869.30 0.3742
869.40 0.3741
869.50 0.374
869.60 0.3739
869.70 0.3738
869.80 0.3737
869.90 0.3736
870.00 0.3735
870.10 0.3734
870.20 0.3733
870.30 0.3732
870.40 0.3731
870.50 0.373
870.60 0.3729
870.70 0.3728
870.80 0.3727
870.90 0.3726
871.00 0.3725
871.10 0.3724
871.20 0.3723
871.30 0.3722
871.40 0.3721
871.50 0.372
871.60 0.3719
871.70 0.3718
871.80 0.3717
871.90 0.3716
872.00 0.3715
872.10 0.3714
872.20 0.3713
872.30 0.3712
872.40 0.3711
872.50 0.371
872.60 0.3709
872.70 0.3708
872.80 0.3707
872.90 0.3706
873.00 0.3705
873.10 0.3704
873.20 0.3703
873.30 0.3702
873.40 0.3701
873.50 0.37
873.60 0.3699
873.70 0.3698
873.80 0.3697
873.90 0.3696
874.00 0.3695
874.10 0.3694
874.20 0.3693
874.30 0.3692
874.40 0.3691
874.50 0.369
874.60 0.3689
874.70 0.3688
874.80 0.3687
874.90 0.3686
875.00 0.3685
875.10 0.3684
875.20 0.3683
875.30 0.3682
875.40 0.3681
875.50 0.368
875.60 0.3679
875.70 0.3678
875.80 0.3677
875.90 0.3676
876.00 0.3675
876.10 0.3674
876.20 0.3673
876.30 0.3672
876.40 0.3672
876.50 0.3671
876.60 0.367
876.70 0.3669
876.80 0.3668
876.90 0.3667
877.00 0.3666
877.10 0.3665
877.20 0.3664
877.30 0.3663
877.40 0.3662
877.50 0.3661
877.60 0.366
877.70 0.3659
877.80 0.3658
877.90 0.3657
878.00 0.3656
878.10 0.3655
878.20 0.3654
878.30 0.3653
878.40 0.3652
878.50 0.3651
878.60 0.365
878.70 0.3649
878.80 0.3648
878.90 0.3647
879.00 0.3646
879.10 0.3645
879.20 0.3644
879.30 0.3643
879.40 0.3642
879.50 0.3641
879.60 0.364
879.70 0.3639
879.80 0.3638
879.90 0.3637
880.00 0.3636
880.10 0.3635
880.20 0.3634
880.30 0.3633
880.40 0.3633
880.50 0.3632
880.60 0.3631
880.70 0.363
880.80 0.3629
880.90 0.3628
881.00 0.3627
881.10 0.3626
881.20 0.3625
881.30 0.3624
881.40 0.3623
881.50 0.3622
881.60 0.3621
881.70 0.362
881.80 0.3619
881.90 0.3618
882.00 0.3617
882.10 0.3616
882.20 0.3615
882.30 0.3614
882.40 0.3613
882.50 0.3612
882.60 0.3611
882.70 0.361
882.80 0.3609
882.90 0.3608
883.00 0.3607
883.10 0.3606
883.20 0.3606
883.30 0.3605
883.40 0.3604
883.50 0.3603
883.60 0.3602
883.70 0.3601
883.80 0.36
883.90 0.3599
884.00 0.3598
884.10 0.3597
884.20 0.3596
884.30 0.3595
884.40 0.3594
884.50 0.3593
884.60 0.3592
884.70 0.3591
884.80 0.359
884.90 0.3589
885.00 0.3588
885.10 0.3587
885.20 0.3586
885.30 0.3585
885.40 0.3585
885.50 0.3584
885.60 0.3583
885.70 0.3582
885.80 0.3581
885.90 0.358
886.00 0.3579
886.10 0.3578
886.20 0.3577
886.30 0.3576
886.40 0.3575
886.50 0.3574
886.60 0.3573
886.70 0.3572
886.80 0.3571
886.90 0.357
887.00 0.3569
887.10 0.3568
887.20 0.3567
887.30 0.3566
887.40 0.3566
887.50 0.3565
887.60 0.3564
887.70 0.3563
887.80 0.3562
887.90 0.3561
888.00 0.356
888.10 0.3559
888.20 0.3558
888.30 0.3557
888.40 0.3556
888.50 0.3555
888.60 0.3554
888.70 0.3553
888.80 0.3552
888.90 0.3551
889.00 0.355
889.10 0.355
889.20 0.3549
889.30 0.3548
889.40 0.3547
889.50 0.3546
889.60 0.3545
889.70 0.3544
889.80 0.3543
889.90 0.3542
890.00 0.3541
890.10 0.354
890.20 0.3539
890.30 0.3538
890.40 0.3537
890.50 0.3536
890.60 0.3535
890.70 0.3535
890.80 0.3534
890.90 0.3533
891.00 0.3532
891.10 0.3531
891.20 0.353
891.30 0.3529
891.40 0.3528
891.50 0.3527
891.60 0.3526
891.70 0.3525
891.80 0.3524
891.90 0.3523
892.00 0.3522
892.10 0.3522
892.20 0.3521
892.30 0.352
892.40 0.3519
892.50 0.3518
892.60 0.3517
892.70 0.3516
892.80 0.3515
892.90 0.3514
893.00 0.3513
893.10 0.3512
893.20 0.3511
893.30 0.351
893.40 0.3509
893.50 0.3508
893.60 0.3508
893.70 0.3507
893.80 0.3506
893.90 0.3505
894.00 0.3504
894.10 0.3503
894.20 0.3502
894.30 0.3501
894.40 0.35
894.50 0.3499
894.60 0.3498
894.70 0.3497
894.80 0.3496
894.90 0.3495
895.00 0.3495
895.10 0.3494
895.20 0.3493
895.30 0.3492
895.40 0.3491
895.50 0.349
895.60 0.3489
895.70 0.3488
895.80 0.3487
895.90 0.3486
896.00 0.3485
896.10 0.3484
896.20 0.3483
896.30 0.3483
896.40 0.3482
896.50 0.3481
896.60 0.348
896.70 0.3479
896.80 0.3478
896.90 0.3477
897.00 0.3476
897.10 0.3475
897.20 0.3474
897.30 0.3473
897.40 0.3472
897.50 0.3471
897.60 0.3471
897.70 0.347
897.80 0.3469
897.90 0.3468
898.00 0.3467
898.10 0.3466
898.20 0.3465
898.30 0.3464
898.40 0.3463
898.50 0.3462
898.60 0.3461
898.70 0.346
898.80 0.3459
898.90 0.3459
899.00 0.3458
899.10 0.3457
899.20 0.3456
899.30 0.3455
899.40 0.3454
899.50 0.3453
899.60 0.3452
899.70 0.3451
899.80 0.345
899.90 0.3449
900.00 0.3448
900.10 0.3448
900.20 0.3447
900.30 0.3446
900.40 0.3445
900.50 0.3444
900.60 0.3443
900.70 0.3442
900.80 0.3441
900.90 0.344
901.00 0.3439
901.10 0.3438
901.20 0.3437
901.30 0.3437
901.40 0.3436
901.50 0.3435
901.60 0.3434
901.70 0.3433
901.80 0.3432
901.90 0.3431
902.00 0.343
902.10 0.3429
902.20 0.3428
902.30 0.3427
902.40 0.3427
902.50 0.3426
902.60 0.3425
902.70 0.3424
902.80 0.3423
902.90 0.3422
903.00 0.3421
903.10 0.342
903.20 0.3419
903.30 0.3418
903.40 0.3418
903.50 0.3417
903.60 0.3416
903.70 0.3415
903.80 0.3414
903.90 0.3413
904.00 0.3412
904.10 0.3411
904.20 0.341
904.30 0.341
904.40 0.3409
904.50 0.3408
904.60 0.3407
904.70 0.3406
904.80 0.3405
904.90 0.3404
905.00 0.3403
905.10 0.3402
905.20 0.3402
905.30 0.3401
905.40 0.34
905.50 0.3399
905.60 0.3398
905.70 0.3397
905.80 0.3396
905.90 0.3395
906.00 0.3394
906.10 0.3394
906.20 0.3393
906.30 0.3392
906.40 0.3391
906.50 0.339
906.60 0.3389
906.70 0.3388
906.80 0.3387
906.90 0.3387
907.00 0.3386
907.10 0.3385
907.20 0.3384
907.30 0.3383
907.40 0.3382
907.50 0.3381
907.60 0.338
907.70 0.3379
907.80 0.3379
907.90 0.3378
908.00 0.3377
908.10 0.3376
908.20 0.3375
908.30 0.3374
908.40 0.3373
908.50 0.3372
908.60 0.3371
908.70 0.3371
908.80 0.337
908.90 0.3369
909.00 0.3368
909.10 0.3367
909.20 0.3366
909.30 0.3365
909.40 0.3364
909.50 0.3363
909.60 0.3363
909.70 0.3362
909.80 0.3361
909.90 0.336
910.00 0.3359
910.10 0.3358
910.20 0.3357
910.30 0.3356
910.40 0.3356
910.50 0.3355
910.60 0.3354
910.70 0.3353
910.80 0.3352
910.90 0.3351
911.00 0.335
911.10 0.3349
911.20 0.3348
911.30 0.3348
911.40 0.3347
911.50 0.3346
911.60 0.3345
911.70 0.3344
911.80 0.3343
911.90 0.3342
912.00 0.3341
912.10 0.3341
912.20 0.334
912.30 0.3339
912.40 0.3338
912.50 0.3337
912.60 0.3336
912.70 0.3335
912.80 0.3334
912.90 0.3334
913.00 0.3333
913.10 0.3332
913.20 0.3331
913.30 0.333
913.40 0.3329
913.50 0.3328
913.60 0.3327
913.70 0.3327
913.80 0.3326
913.90 0.3325
914.00 0.3324
914.10 0.3323
914.20 0.3322
914.30 0.3321
914.40 0.332
914.50 0.332
914.60 0.3319
914.70 0.3318
914.80 0.3317
914.90 0.3316
915.00 0.3315
915.10 0.3314
915.20 0.3313
915.30 0.3313
915.40 0.3312
915.50 0.3311
915.60 0.331
915.70 0.3309
915.80 0.3308
915.90 0.3307
916.00 0.3306
916.10 0.3306
916.20 0.3305
916.30 0.3304
916.40 0.3303
916.50 0.3302
916.60 0.3301
916.70 0.33
916.80 0.33
916.90 0.3299
917.00 0.3298
917.10 0.3297
917.20 0.3296
917.30 0.3295
917.40 0.3294
917.50 0.3293
917.60 0.3292
917.70 0.3292
917.80 0.3291
917.90 0.329
918.00 0.3289
918.10 0.3288
918.20 0.3287
918.30 0.3286
918.40 0.3285
918.50 0.3284
918.60 0.3283
918.70 0.3283
918.80 0.3282
918.90 0.3281
919.00 0.328
919.10 0.3279
919.20 0.3278
919.30 0.3277
919.40 0.3276
919.50 0.3275
919.60 0.3275
919.70 0.3274
919.80 0.3273
919.90 0.3272
920.00 0.3271
920.10 0.327
920.20 0.3269
920.30 0.3268
920.40 0.3267
920.50 0.3267
920.60 0.3266
920.70 0.3265
920.80 0.3264
920.90 0.3263
921.00 0.3262
921.10 0.3261
921.20 0.326
921.30 0.3259
921.40 0.3259
921.50 0.3258
921.60 0.3257
921.70 0.3256
921.80 0.3255
921.90 0.3254
922.00 0.3253
922.10 0.3252
922.20 0.3252
922.30 0.3251
922.40 0.325
922.50 0.3249
922.60 0.3248
922.70 0.3248
922.80 0.3247
922.90 0.3246
923.00 0.3245
923.10 0.3244
923.20 0.3243
923.30 0.3243
923.40 0.3242
923.50 0.3241
923.60 0.324
923.70 0.3239
923.80 0.3239
923.90 0.3238
924.00 0.3237
924.10 0.3236
924.20 0.3235
924.30 0.3235
924.40 0.3234
924.50 0.3233
924.60 0.3232
924.70 0.3231
924.80 0.323
924.90 0.323
925.00 0.3229
925.10 0.3228
925.20 0.3227
925.30 0.3226
925.40 0.3226
925.50 0.3225
925.60 0.3224
925.70 0.3223
925.80 0.3222
925.90 0.3222
926.00 0.3221
926.10 0.322
926.20 0.3219
926.30 0.3218
926.40 0.3218
926.50 0.3217
926.60 0.3216
926.70 0.3215
926.80 0.3214
926.90 0.3214
927.00 0.3213
927.10 0.3212
927.20 0.3211
927.30 0.321
927.40 0.3209
927.50 0.3209
927.60 0.3208
927.70 0.3207
927.80 0.3206
927.90 0.3205
928.00 0.3204
928.10 0.3204
928.20 0.3203
928.30 0.3202
928.40 0.3201
928.50 0.32
928.60 0.32
928.70 0.3199
928.80 0.3198
928.90 0.3197
929.00 0.3196
929.10 0.3195
929.20 0.3195
929.30 0.3194
929.40 0.3193
929.50 0.3192
929.60 0.3191
929.70 0.319
929.80 0.319
929.90 0.3189
930.00 0.3188
930.10 0.3187
930.20 0.3186
930.30 0.3186
930.40 0.3185
930.50 0.3184
930.60 0.3183
930.70 0.3182
930.80 0.3181
930.90 0.3181
931.00 0.318
931.10 0.3179
931.20 0.3178
931.30 0.3177
931.40 0.3177
931.50 0.3176
931.60 0.3175
931.70 0.3174
931.80 0.3173
931.90 0.3173
932.00 0.3172
932.10 0.3171
932.20 0.317
932.30 0.3169
932.40 0.3168
932.50 0.3168
932.60 0.3167
932.70 0.3166
932.80 0.3165
932.90 0.3164
933.00 0.3163
933.10 0.3163
933.20 0.3162
933.30 0.3161
933.40 0.316
933.50 0.3159
933.60 0.3158
933.70 0.3158
933.80 0.3157
933.90 0.3156
934.00 0.3155
934.10 0.3154
934.20 0.3154
934.30 0.3153
934.40 0.3152
934.50 0.3151
934.60 0.315
934.70 0.3149
934.80 0.3149
934.90 0.3148
935.00 0.3147
935.10 0.3146
935.20 0.3145
935.30 0.3145
935.40 0.3144
935.50 0.3143
935.60 0.3142
935.70 0.3141
935.80 0.314
935.90 0.314
936.00 0.3139
936.10 0.3138
936.20 0.3137
936.30 0.3136
936.40 0.3136
936.50 0.3135
936.60 0.3134
936.70 0.3133
936.80 0.3132
936.90 0.3132
937.00 0.3131
937.10 0.313
937.20 0.3129
937.30 0.3128
937.40 0.3127
937.50 0.3127
937.60 0.3126
937.70 0.3125
937.80 0.3124
937.90 0.3123
938.00 0.3123
938.10 0.3122
938.20 0.3121
938.30 0.312
938.40 0.3119
938.50 0.3119
938.60 0.3118
938.70 0.3117
938.80 0.3116
938.90 0.3115
939.00 0.3115
939.10 0.3114
939.20 0.3113
939.30 0.3112
939.40 0.3111
939.50 0.3111
939.60 0.311
939.70 0.3109
939.80 0.3108
939.90 0.3107
940.00 0.3106
940.10 0.3106
940.20 0.3105
940.30 0.3104
940.40 0.3103
940.50 0.3102
940.60 0.3102
940.70 0.3101
940.80 0.31
940.90 0.3099
941.00 0.3098
941.10 0.3098
941.20 0.3097
941.30 0.3096
941.40 0.3095
941.50 0.3094
941.60 0.3094
941.70 0.3093
941.80 0.3092
941.90 0.3091
942.00 0.309
942.10 0.309
942.20 0.3089
942.30 0.3088
942.40 0.3087
942.50 0.3087
942.60 0.3086
942.70 0.3085
942.80 0.3084
942.90 0.3083
943.00 0.3083
943.10 0.3082
943.20 0.3081
943.30 0.308
943.40 0.3079
943.50 0.3078
943.60 0.3078
943.70 0.3077
943.80 0.3076
943.90 0.3075
944.00 0.3074
944.10 0.3074
944.20 0.3073
944.30 0.3072
944.40 0.3071
944.50 0.307
944.60 0.307
944.70 0.3069
944.80 0.3068
944.90 0.3067
945.00 0.3067
945.10 0.3066
945.20 0.3065
945.30 0.3064
945.40 0.3063
945.50 0.3063
945.60 0.3062
945.70 0.3061
945.80 0.306
945.90 0.3059
946.00 0.3059
946.10 0.3058
946.20 0.3057
946.30 0.3056
946.40 0.3055
946.50 0.3055
946.60 0.3054
946.70 0.3053
946.80 0.3052
946.90 0.3051
947.00 0.3051
947.10 0.305
947.20 0.3049
947.30 0.3048
947.40 0.3047
947.50 0.3047
947.60 0.3046
947.70 0.3045
947.80 0.3044
947.90 0.3043
948.00 0.3043
948.10 0.3042
948.20 0.3041
948.30 0.304
948.40 0.3039
948.50 0.3038
948.60 0.3038
948.70 0.3037
948.80 0.3036
948.90 0.3035
949.00 0.3034
949.10 0.3034
949.20 0.3033
949.30 0.3032
949.40 0.3031
949.50 0.303
949.60 0.3029
949.70 0.3029
949.80 0.3028
949.90 0.3027
950.00 0.3026
950.10 0.3025
950.20 0.3024
950.30 0.3024
950.40 0.3023
950.50 0.3022
950.60 0.3021
950.70 0.302
950.80 0.3019
950.90 0.3019
951.00 0.3018
951.10 0.3017
951.20 0.3016
951.30 0.3015
951.40 0.3014
951.50 0.3013
951.60 0.3012
951.70 0.3012
951.80 0.3011
951.90 0.301
952.00 0.3009
952.10 0.3008
952.20 0.3007
952.30 0.3006
952.40 0.3005
952.50 0.3004
952.60 0.3003
952.70 0.3002
952.80 0.3001
952.90 0.3
953.00 0.2999
953.10 0.2998
953.20 0.2997
953.30 0.2996
953.40 0.2995
953.50 0.2994
953.60 0.2993
953.70 0.2992
953.80 0.2991
953.90 0.299
954.00 0.2988
954.10 0.2987
954.20 0.2986
954.30 0.2986
954.40 0.2985
954.50 0.2984
954.60 0.2984
954.70 0.2984
954.80 0.2983
954.90 0.2983
955.00 0.2983
955.10 0.2982
955.20 0.2982
955.30 0.2981
955.40 0.2981
955.50 0.298
955.60 0.298
955.70 0.2979
955.80 0.2979
955.90 0.2978
956.00 0.2977
956.10 0.2977
956.20 0.2976
956.30 0.2975
956.40 0.2975
956.50 0.2974
956.60 0.2974
956.70 0.2973
956.80 0.2972
956.90 0.2972
957.00 0.2971
957.10 0.297
957.20 0.297
957.30 0.2969
957.40 0.2968
957.50 0.2968
957.60 0.2967
957.70 0.2966
957.80 0.2966
957.90 0.2965
958.00 0.2964
958.10 0.2963
958.20 0.2963
958.30 0.2962
958.40 0.2961
958.50 0.2961
958.60 0.296
958.70 0.2959
958.80 0.2959
958.90 0.2958
959.00 0.2957
959.10 0.2957
959.20 0.2956
959.30 0.2955
959.40 0.2954
959.50 0.2954
959.60 0.2953
959.70 0.2952
959.80 0.2951
959.90 0.2951
960.00 0.295
960.10 0.2949
960.20 0.2949
960.30 0.2948
960.40 0.2947
960.50 0.2946
960.60 0.2946
960.70 0.2945
960.80 0.2944
960.90 0.2943
961.00 0.2943
961.10 0.2942
961.20 0.2941
961.30 0.294
961.40 0.294
961.50 0.2939
961.60 0.2938
961.70 0.2938
961.80 0.2937
961.90 0.2936
962.00 0.2935
962.10 0.2935
962.20 0.2934
962.30 0.2933
962.40 0.2932
962.50 0.2932
962.60 0.2931
962.70 0.293
962.80 0.2929
962.90 0.2929
963.00 0.2928
963.10 0.2927
963.20 0.2926
963.30 0.2926
963.40 0.2925
963.50 0.2924
963.60 0.2924
963.70 0.2923
963.80 0.2922
963.90 0.2921
964.00 0.2921
964.10 0.292
964.20 0.2919
964.30 0.2918
964.40 0.2918
964.50 0.2917
964.60 0.2916
964.70 0.2915
964.80 0.2915
964.90 0.2914
965.00 0.2913
965.10 0.2912
965.20 0.2912
965.30 0.2911
965.40 0.291
965.50 0.2909
965.60 0.2909
965.70 0.2908
965.80 0.2907
965.90 0.2906
966.00 0.2906
966.10 0.2905
966.20 0.2904
966.30 0.2904
966.40 0.2903
966.50 0.2902
966.60 0.2901
966.70 0.2901
966.80 0.29
966.90 0.2899
967.00 0.2898
967.10 0.2898
967.20 0.2897
967.30 0.2896
967.40 0.2895
967.50 0.2895
967.60 0.2894
967.70 0.2893
967.80 0.2893
967.90 0.2892
968.00 0.2891
968.10 0.289
968.20 0.289
968.30 0.2889
968.40 0.2888
968.50 0.2887
968.60 0.2887
968.70 0.2886
968.80 0.2885
968.90 0.2884
969.00 0.2884
969.10 0.2883
969.20 0.2882
969.30 0.2881
969.40 0.2881
969.50 0.288
969.60 0.2879
969.70 0.2879
969.80 0.2878
969.90 0.2877
970.00 0.2876
970.10 0.2876
970.20 0.2875
970.30 0.2874
970.40 0.2873
970.50 0.2873
970.60 0.2872
970.70 0.2871
970.80 0.2871
970.90 0.287
971.00 0.2869
971.10 0.2868
971.20 0.2868
971.30 0.2867
971.40 0.2866
971.50 0.2865
971.60 0.2865
971.70 0.2864
971.80 0.2863
971.90 0.2863
972.00 0.2862
972.10 0.2861
972.20 0.286
972.30 0.286
972.40 0.2859
972.50 0.2858
972.60 0.2857
972.70 0.2857
972.80 0.2856
972.90 0.2855
973.00 0.2855
973.10 0.2854
973.20 0.2853
973.30 0.2852
973.40 0.2852
973.50 0.2851
973.60 0.285
973.70 0.2849
973.80 0.2849
973.90 0.2848
974.00 0.2847
974.10 0.2847
974.20 0.2846
974.30 0.2845
974.40 0.2844
974.50 0.2844
974.60 0.2843
974.70 0.2842
974.80 0.2842
974.90 0.2841
975.00 0.284
975.10 0.2839
975.20 0.2839
975.30 0.2838
975.40 0.2837
975.50 0.2837
975.60 0.2836
975.70 0.2835
975.80 0.2834
975.90 0.2834
976.00 0.2833
976.10 0.2832
976.20 0.2831
976.30 0.2831
976.40 0.283
976.50 0.2829
976.60 0.2829
976.70 0.2828
976.80 0.2827
976.90 0.2826
977.00 0.2826
977.10 0.2825
977.20 0.2824
977.30 0.2824
977.40 0.2823
977.50 0.2822
977.60 0.2821
977.70 0.2821
977.80 0.282
977.90 0.2819
978.00 0.2819
978.10 0.2818
978.20 0.2817
978.30 0.2816
978.40 0.2816
978.50 0.2815
978.60 0.2814
978.70 0.2814
978.80 0.2813
978.90 0.2812
979.00 0.2811
979.10 0.2811
979.20 0.281
979.30 0.2809
979.40 0.2809
979.50 0.2808
979.60 0.2807
979.70 0.2806
979.80 0.2806
979.90 0.2805
980.00 0.2804
980.10 0.2804
980.20 0.2803
980.30 0.2802
980.40 0.2802
980.50 0.2801
980.60 0.28
980.70 0.2799
980.80 0.2799
980.90 0.2798
981.00 0.2797
981.10 0.2797
981.20 0.2796
981.30 0.2795
981.40 0.2794
981.50 0.2794
981.60 0.2793
981.70 0.2792
981.80 0.2792
981.90 0.2791
982.00 0.279
982.10 0.279
982.20 0.2789
982.30 0.2788
982.40 0.2787
982.50 0.2787
982.60 0.2786
982.70 0.2785
982.80 0.2785
982.90 0.2784
983.00 0.2783
983.10 0.2782
983.20 0.2782
983.30 0.2781
983.40 0.278
983.50 0.278
983.60 0.2779
983.70 0.2778
983.80 0.2777
983.90 0.2777
984.00 0.2776
984.10 0.2775
984.20 0.2775
984.30 0.2774
984.40 0.2773
984.50 0.2773
984.60 0.2772
984.70 0.2771
984.80 0.277
984.90 0.277
985.00 0.2769
985.10 0.2768
985.20 0.2768
985.30 0.2767
985.40 0.2766
985.50 0.2766
985.60 0.2765
985.70 0.2764
985.80 0.2763
985.90 0.2763
986.00 0.2762
986.10 0.2761
986.20 0.2761
986.30 0.276
986.40 0.2759
986.50 0.2759
986.60 0.2758
986.70 0.2757
986.80 0.2756
986.90 0.2756
987.00 0.2755
987.10 0.2754
987.20 0.2754
987.30 0.2753
987.40 0.2752
987.50 0.2752
987.60 0.2751
987.70 0.275
987.80 0.275
987.90 0.2749
988.00 0.2748
988.10 0.2747
988.20 0.2747
988.30 0.2746
988.40 0.2745
988.50 0.2745
988.60 0.2744
988.70 0.2743
988.80 0.2743
988.90 0.2742
989.00 0.2741
989.10 0.274
989.20 0.274
989.30 0.2739
989.40 0.2738
989.50 0.2738
989.60 0.2737
989.70 0.2736
989.80 0.2736
989.90 0.2735
990.00 0.2734
990.10 0.2734
990.20 0.2733
990.30 0.2732
990.40 0.2731
990.50 0.2731
990.60 0.273
990.70 0.2729
990.80 0.2729
990.90 0.2728
991.00 0.2727
991.10 0.2727
991.20 0.2726
991.30 0.2725
991.40 0.2725
991.50 0.2724
991.60 0.2723
991.70 0.2722
991.80 0.2722
991.90 0.2721
992.00 0.272
992.10 0.272
992.20 0.2719
992.30 0.2718
992.40 0.2718
992.50 0.2717
992.60 0.2716
992.70 0.2716
992.80 0.2715
992.90 0.2714
993.00 0.2713
993.10 0.2713
993.20 0.2712
993.30 0.2711
993.40 0.2711
993.50 0.271
993.60 0.2709
993.70 0.2709
993.80 0.2708
993.90 0.2707
994.00 0.2707
994.10 0.2706
994.20 0.2705
994.30 0.2704
994.40 0.2704
994.50 0.2703
994.60 0.2702
994.70 0.2702
994.80 0.2701
994.90 0.27
995.00 0.27
995.10 0.2699
995.20 0.2698
995.30 0.2697
995.40 0.2697
995.50 0.2696
995.60 0.2695
995.70 0.2695
995.80 0.2694
995.90 0.2693
996.00 0.2693
996.10 0.2692
996.20 0.2691
996.30 0.269
996.40 0.269
996.50 0.2689
996.60 0.2688
996.70 0.2688
996.80 0.2687
996.90 0.2686
997.00 0.2686
997.10 0.2685
997.20 0.2684
997.30 0.2683
997.40 0.2683
997.50 0.2682
997.60 0.2681
997.70 0.268
997.80 0.268
997.90 0.2679
998.00 0.2678
998.10 0.2677
998.20 0.2677
998.30 0.2676
998.40 0.2675
998.50 0.2674
998.60 0.2674
998.70 0.2673
998.80 0.2672
998.90 0.2671
999.00 0.2671
999.10 0.267
999.20 0.2669
999.30 0.2668
999.40 0.2668
999.50 0.2667
999.60 0.2666
999.70 0.2665
999.80 0.2665
999.90 0.2664
1000.00 0.2663
1000.10 0.2662
1000.20 0.2661
1000.30 0.266
1000.40 0.2659
1000.50 0.2659
1000.60 0.2658
1000.70 0.2657
1000.80 0.2656
1000.90 0.2655
1001.00 0.2654
1001.10 0.2654
1001.20 0.2653
1001.30 0.2652
1001.40 0.2651
1001.50 0.265
1001.60 0.2649
1001.70 0.2648
1001.80 0.2647
1001.90 0.2646
1002.00 0.2645
1002.10 0.2644
1002.20 0.2643
1002.30 0.2642
1002.40 0.2641
1002.50 0.264
1002.60 0.2639
1002.70 0.2637
1002.80 0.2636
1002.90 0.2635
1003.00 0.2634
1003.10 0.2633
1003.20 0.2632
1003.30 0.263
1003.40 0.2629
1003.50 0.2628
1003.60 0.2626
1003.70 0.2625
1003.80 0.2624
1003.90 0.2622
1004.00 0.262
1004.10 0.2619
1004.20 0.2617
1004.30 0.2615
1004.40 0.2613
1004.50 0.2612
1004.60 0.2613
1004.70 0.2611
1004.80 0.261
1004.90 0.2611
1005.00 0.2611
1005.10 0.2612
1005.20 0.2612
1005.30 0.2612
1005.40 0.2613
1005.50 0.2613
1005.60 0.2613
1005.70 0.2613
1005.80 0.2613
1005.90 0.2613
1006.00 0.2613
1006.10 0.2613
1006.20 0.2613
1006.30 0.2613
1006.40 0.2612
1006.50 0.2612
1006.60 0.2612
1006.70 0.2612
1006.80 0.2612
1006.90 0.2612
1007.00 0.2611
1007.10 0.2611
1007.20 0.2611
1007.30 0.2611
1007.40 0.261
1007.50 0.261
1007.60 0.261
1007.70 0.2609
1007.80 0.2609
1007.90 0.2608
1008.00 0.2608
1008.10 0.2607
1008.20 0.2607
1008.30 0.2606
1008.40 0.2606
1008.50 0.2606
1008.60 0.2605
1008.70 0.2605
1008.80 0.2604
1008.90 0.2604
1009.00 0.2603
1009.10 0.2603
1009.20 0.2602
1009.30 0.2602
1009.40 0.2601
1009.50 0.2601
1009.60 0.26
1009.70 0.26
1009.80 0.2599
1009.90 0.2599
1010.00 0.2598
1010.10 0.2598
1010.20 0.2597
1010.30 0.2596
1010.40 0.2596
1010.50 0.2595
1010.60 0.2595
1010.70 0.2594
1010.80 0.2594
1010.90 0.2593
1011.00 0.2592
1011.10 0.2592
1011.20 0.2591
1011.30 0.2591
1011.40 0.259
1011.50 0.259
1011.60 0.2589
1011.70 0.2588
1011.80 0.2588
1011.90 0.2587
1012.00 0.2587
1012.10 0.2586
1012.20 0.2585
1012.30 0.2585
1012.40 0.2584
1012.50 0.2583
1012.60 0.2583
1012.70 0.2582
1012.80 0.2582
1012.90 0.2581
1013.00 0.258
1013.10 0.258
1013.20 0.2579
1013.30 0.2578
1013.40 0.2578
1013.50 0.2577
1013.60 0.2577
1013.70 0.2576
1013.80 0.2575
1013.90 0.2575
1014.00 0.2574
1014.10 0.2574
1014.20 0.2573
1014.30 0.2572
1014.40 0.2572
1014.50 0.2571
1014.60 0.257
1014.70 0.257
1014.80 0.2569
1014.90 0.2569
1015.00 0.2568
1015.10 0.2567
1015.20 0.2567
1015.30 0.2566
1015.40 0.2565
1015.50 0.2565
1015.60 0.2564
1015.70 0.2564
1015.80 0.2563
1015.90 0.2562
1016.00 0.2562
1016.10 0.2561
1016.20 0.256
1016.30 0.256
1016.40 0.2559
1016.50 0.2559
1016.60 0.2558
1016.70 0.2557
1016.80 0.2557
1016.90 0.2556
1017.00 0.2555
1017.10 0.2555
1017.20 0.2554
1017.30 0.2554
1017.40 0.2553
1017.50 0.2552
1017.60 0.2552
1017.70 0.2551
1017.80 0.255
1017.90 0.255
1018.00 0.2549
1018.10 0.2549
1018.20 0.2548
1018.30 0.2547
1018.40 0.2547
1018.50 0.2546
1018.60 0.2545
1018.70 0.2545
1018.80 0.2544
1018.90 0.2544
1019.00 0.2543
1019.10 0.2542
1019.20 0.2542
1019.30 0.2541
1019.40 0.254
1019.50 0.254
1019.60 0.2539
1019.70 0.2539
1019.80 0.2538
1019.90 0.2537
1020.00 0.2537
1020.10 0.2536
1020.20 0.2535
1020.30 0.2535
1020.40 0.2534
1020.50 0.2533
1020.60 0.2533
1020.70 0.2532
1020.80 0.2532
1020.90 0.2531
1021.00 0.253
1021.10 0.253
1021.20 0.2529
1021.30 0.2529
1021.40 0.2528
1021.50 0.2527
1021.60 0.2527
1021.70 0.2526
1021.80 0.2525
1021.90 0.2525
1022.00 0.2524
1022.10 0.2524
1022.20 0.2523
1022.30 0.2522
1022.40 0.2522
1022.50 0.2521
1022.60 0.252
1022.70 0.252
1022.80 0.2519
1022.90 0.2519
1023.00 0.2518
1023.10 0.2517
1023.20 0.2517
1023.30 0.2516
1023.40 0.2515
1023.50 0.2515
1023.60 0.2514
1023.70 0.2514
1023.80 0.2513
1023.90 0.2512
1024.00 0.2512
1024.10 0.2511
1024.20 0.251
1024.30 0.251
1024.40 0.2509
1024.50 0.2509
1024.60 0.2508
1024.70 0.2507
1024.80 0.2507
1024.90 0.2506
1025.00 0.2506
1025.10 0.2505
1025.20 0.2504
1025.30 0.2504
1025.40 0.2503
1025.50 0.2502
1025.60 0.2502
1025.70 0.2501
1025.80 0.2501
1025.90 0.25
1026.00 0.2499
1026.10 0.2499
1026.20 0.2498
1026.30 0.2498
1026.40 0.2497
1026.50 0.2496
1026.60 0.2496
1026.70 0.2495
1026.80 0.2494
1026.90 0.2494
1027.00 0.2493
1027.10 0.2493
1027.20 0.2492
1027.30 0.2491
1027.40 0.2491
1027.50 0.249
1027.60 0.249
1027.70 0.2489
1027.80 0.2488
1027.90 0.2488
1028.00 0.2487
1028.10 0.2486
1028.20 0.2486
1028.30 0.2485
1028.40 0.2485
1028.50 0.2484
1028.60 0.2483
1028.70 0.2483
1028.80 0.2482
1028.90 0.2482
1029.00 0.2481
1029.10 0.248
1029.20 0.248
1029.30 0.2479
1029.40 0.2478
1029.50 0.2478
1029.60 0.2477
1029.70 0.2477
1029.80 0.2476
1029.90 0.2475
1030.00 0.2475
1030.10 0.2474
1030.20 0.2474
1030.30 0.2473
1030.40 0.2472
1030.50 0.2472
1030.60 0.2471
1030.70 0.2471
1030.80 0.247
1030.90 0.2469
1031.00 0.2469
1031.10 0.2468
1031.20 0.2467
1031.30 0.2467
1031.40 0.2466
1031.50 0.2466
1031.60 0.2465
1031.70 0.2464
1031.80 0.2464
1031.90 0.2463
1032.00 0.2463
1032.10 0.2462
1032.20 0.2461
1032.30 0.2461
1032.40 0.246
1032.50 0.246
1032.60 0.2459
1032.70 0.2458
1032.80 0.2458
1032.90 0.2457
1033.00 0.2457
1033.10 0.2456
1033.20 0.2455
1033.30 0.2455
1033.40 0.2454
1033.50 0.2454
1033.60 0.2453
1033.70 0.2452
1033.80 0.2452
1033.90 0.2451
1034.00 0.2451
1034.10 0.245
1034.20 0.2449
1034.30 0.2449
1034.40 0.2448
1034.50 0.2448
1034.60 0.2447
1034.70 0.2446
1034.80 0.2446
1034.90 0.2445
1035.00 0.2445
1035.10 0.2444
1035.20 0.2443
1035.30 0.2443
1035.40 0.2442
1035.50 0.2442
1035.60 0.2441
1035.70 0.244
1035.80 0.244
1035.90 0.2439
1036.00 0.2439
1036.10 0.2438
1036.20 0.2437
1036.30 0.2437
1036.40 0.2436
1036.50 0.2436
1036.60 0.2435
1036.70 0.2434
1036.80 0.2434
1036.90 0.2433
1037.00 0.2433
1037.10 0.2432
1037.20 0.2431
1037.30 0.2431
1037.40 0.243
1037.50 0.243
1037.60 0.2429
1037.70 0.2428
1037.80 0.2428
1037.90 0.2427
1038.00 0.2427
1038.10 0.2426
1038.20 0.2425
1038.30 0.2425
1038.40 0.2424
1038.50 0.2424
1038.60 0.2423
1038.70 0.2423
1038.80 0.2422
1038.90 0.2421
1039.00 0.2421
1039.10 0.242
1039.20 0.242
1039.30 0.2419
1039.40 0.2418
1039.50 0.2418
1039.60 0.2417
1039.70 0.2417
1039.80 0.2416
1039.90 0.2415
1040.00 0.2415
1040.10 0.2414
1040.20 0.2414
1040.30 0.2413
1040.40 0.2412
1040.50 0.2412
1040.60 0.2411
1040.70 0.2411
1040.80 0.241
1040.90 0.2409
1041.00 0.2409
1041.10 0.2408
1041.20 0.2408
1041.30 0.2407
1041.40 0.2407
1041.50 0.2406
1041.60 0.2405
1041.70 0.2405
1041.80 0.2404
1041.90 0.2404
1042.00 0.2403
1042.10 0.2402
1042.20 0.2402
1042.30 0.2401
1042.40 0.2401
1042.50 0.24
1042.60 0.2399
1042.70 0.2399
1042.80 0.2398
1042.90 0.2398
1043.00 0.2397
1043.10 0.2396
1043.20 0.2396
1043.30 0.2395
1043.40 0.2395
1043.50 0.2394
1043.60 0.2394
1043.70 0.2393
1043.80 0.2392
1043.90 0.2392
1044.00 0.2391
1044.10 0.2391
1044.20 0.239
1044.30 0.2389
1044.40 0.2389
1044.50 0.2388
1044.60 0.2388
1044.70 0.2387
1044.80 0.2387
1044.90 0.2386
1045.00 0.2385
1045.10 0.2385
1045.20 0.2384
1045.30 0.2384
1045.40 0.2383
1045.50 0.2382
1045.60 0.2382
1045.70 0.2381
1045.80 0.2381
1045.90 0.238
1046.00 0.238
1046.10 0.2379
1046.20 0.2378
1046.30 0.2378
1046.40 0.2377
1046.50 0.2377
1046.60 0.2376
1046.70 0.2375
1046.80 0.2375
1046.90 0.2374
1047.00 0.2374
1047.10 0.2373
1047.20 0.2373
1047.30 0.2372
1047.40 0.2371
1047.50 0.2371
1047.60 0.237
1047.70 0.237
1047.80 0.2369
1047.90 0.2369
1048.00 0.2368
1048.10 0.2367
1048.20 0.2367
1048.30 0.2366
1048.40 0.2366
1048.50 0.2365
1048.60 0.2364
1048.70 0.2364
1048.80 0.2363
1048.90 0.2363
1049.00 0.2362
1049.10 0.2362
1049.20 0.2361
1049.30 0.236
1049.40 0.236
1049.50 0.2359
1049.60 0.2359
1049.70 0.2358
1049.80 0.2358
1049.90 0.2357
1050.00 0.2356
1050.10 0.2356
1050.20 0.2355
1050.30 0.2355
1050.40 0.2354
1050.50 0.2354
1050.60 0.2353
1050.70 0.2352
1050.80 0.2352
1050.90 0.2351
1051.00 0.2351
1051.10 0.235
1051.20 0.235
1051.30 0.2349
1051.40 0.2348
1051.50 0.2348
1051.60 0.2347
1051.70 0.2347
1051.80 0.2346
1051.90 0.2346
1052.00 0.2345
1052.10 0.2344
1052.20 0.2344
1052.30 0.2343
1052.40 0.2343
1052.50 0.2342
1052.60 0.2342
1052.70 0.2341
1052.80 0.234
1052.90 0.234
1053.00 0.2339
1053.10 0.2339
1053.20 0.2338
1053.30 0.2338
1053.40 0.2337
1053.50 0.2336
1053.60 0.2336
1053.70 0.2335
1053.80 0.2335
1053.90 0.2334
1054.00 0.2334
1054.10 0.2333
1054.20 0.2332
1054.30 0.2332
1054.40 0.2331
1054.50 0.2331
1054.60 0.233
1054.70 0.233
1054.80 0.2329
1054.90 0.2328
1055.00 0.2328
1055.10 0.2327
1055.20 0.2327
1055.30 0.2326
1055.40 0.2326
1055.50 0.2325
1055.60 0.2324
1055.70 0.2324
1055.80 0.2323
1055.90 0.2323
1056.00 0.2322
1056.10 0.2322
1056.20 0.2321
1056.30 0.2321
1056.40 0.232
1056.50 0.2319
1056.60 0.2319
1056.70 0.2318
1056.80 0.2318
1056.90 0.2317
1057.00 0.2317
1057.10 0.2316
1057.20 0.2315
1057.30 0.2315
1057.40 0.2314
1057.50 0.2314
1057.60 0.2313
1057.70 0.2313
1057.80 0.2312
1057.90 0.2312
1058.00 0.2311
1058.10 0.231
1058.20 0.231
1058.30 0.2309
1058.40 0.2309
1058.50 0.2308
1058.60 0.2308
1058.70 0.2307
1058.80 0.2306
1058.90 0.2306
1059.00 0.2305
1059.10 0.2305
1059.20 0.2304
1059.30 0.2304
1059.40 0.2303
1059.50 0.2303
1059.60 0.2302
1059.70 0.2301
1059.80 0.2301
1059.90 0.23
1060.00 0.23
1060.10 0.2299
1060.20 0.2299
1060.30 0.2298
1060.40 0.2298
1060.50 0.2297
1060.60 0.2296
1060.70 0.2296
1060.80 0.2295
1060.90 0.2295
1061.00 0.2294
1061.10 0.2294
1061.20 0.2293
1061.30 0.2293
1061.40 0.2292
1061.50 0.2291
1061.60 0.2291
1061.70 0.229
1061.80 0.229
1061.90 0.2289
1062.00 0.2289
1062.10 0.2288
1062.20 0.2288
1062.30 0.2287
1062.40 0.2286
1062.50 0.2286
1062.60 0.2285
1062.70 0.2285
1062.80 0.2284
1062.90 0.2284
1063.00 0.2283
1063.10 0.2283
1063.20 0.2282
1063.30 0.2281
1063.40 0.2281
1063.50 0.228
1063.60 0.228
1063.70 0.2279
1063.80 0.2279
1063.90 0.2278
1064.00 0.2278
1064.10 0.2277
1064.20 0.2277
1064.30 0.2276
1064.40 0.2275
1064.50 0.2275
1064.60 0.2274
1064.70 0.2274
1064.80 0.2273
1064.90 0.2273
1065.00 0.2272
1065.10 0.2272
1065.20 0.2271
1065.30 0.227
1065.40 0.227
1065.50 0.2269
1065.60 0.2269
1065.70 0.2268
1065.80 0.2268
1065.90 0.2267
1066.00 0.2267
1066.10 0.2266
1066.20 0.2266
1066.30 0.2265
1066.40 0.2264
1066.50 0.2264
1066.60 0.2263
1066.70 0.2263
1066.80 0.2262
1066.90 0.2262
1067.00 0.2261
1067.10 0.2261
1067.20 0.226
1067.30 0.226
1067.40 0.2259
1067.50 0.2258
1067.60 0.2258
1067.70 0.2257
1067.80 0.2257
1067.90 0.2256
1068.00 0.2256
1068.10 0.2255
1068.20 0.2255
1068.30 0.2254
1068.40 0.2253
1068.50 0.2253
1068.60 0.2252
1068.70 0.2252
1068.80 0.2251
1068.90 0.2251
1069.00 0.225
1069.10 0.225
1069.20 0.2249
1069.30 0.2249
1069.40 0.2248
1069.50 0.2247
1069.60 0.2247
1069.70 0.2246
1069.80 0.2246
1069.90 0.2245
1070.00 0.2245
1070.10 0.2244
1070.20 0.2244
1070.30 0.2243
1070.40 0.2243
1070.50 0.2242
1070.60 0.2241
1070.70 0.2241
1070.80 0.224
1070.90 0.224
1071.00 0.2239
1071.10 0.2239
1071.20 0.2238
1071.30 0.2238
1071.40 0.2237
1071.50 0.2237
1071.60 0.2236
1071.70 0.2236
1071.80 0.2235
1071.90 0.2234
1072.00 0.2234
1072.10 0.2233
1072.20 0.2233
1072.30 0.2232
1072.40 0.2232
1072.50 0.2231
1072.60 0.2231
1072.70 0.223
1072.80 0.223
1072.90 0.2229
1073.00 0.2229
1073.10 0.2228
1073.20 0.2227
1073.30 0.2227
1073.40 0.2226
1073.50 0.2226
1073.60 0.2225
1073.70 0.2225
1073.80 0.2224
1073.90 0.2224
1074.00 0.2223
1074.10 0.2223
1074.20 0.2222
1074.30 0.2222
1074.40 0.2221
1074.50 0.2221
1074.60 0.222
1074.70 0.2219
1074.80 0.2219
1074.90 0.2218
1075.00 0.2218
1075.10 0.2217
1075.20 0.2217
1075.30 0.2216
1075.40 0.2216
1075.50 0.2215
1075.60 0.2215
1075.70 0.2214
1075.80 0.2214
1075.90 0.2213
1076.00 0.2213
1076.10 0.2212
1076.20 0.2211
1076.30 0.2211
1076.40 0.221
1076.50 0.221
1076.60 0.2209
1076.70 0.2209
1076.80 0.2208
1076.90 0.2208
1077.00 0.2207
1077.10 0.2207
1077.20 0.2206
1077.30 0.2206
1077.40 0.2205
1077.50 0.2204
1077.60 0.2204
1077.70 0.2203
1077.80 0.2203
1077.90 0.2202
1078.00 0.2202
1078.10 0.2201
1078.20 0.2201
1078.30 0.22
1078.40 0.22
1078.50 0.2199
1078.60 0.2199
1078.70 0.2198
1078.80 0.2197
1078.90 0.2197
1079.00 0.2196
1079.10 0.2196
1079.20 0.2195
1079.30 0.2195
1079.40 0.2194
1079.50 0.2194
1079.60 0.2193
1079.70 0.2193
1079.80 0.2192
1079.90 0.2192
1080.00 0.2191
1080.10 0.2191
1080.20 0.219
1080.30 0.2189
1080.40 0.2189
1080.50 0.2188
1080.60 0.2188
1080.70 0.2187
1080.80 0.2187
1080.90 0.2186
1081.00 0.2186
1081.10 0.2185
1081.20 0.2185
1081.30 0.2184
1081.40 0.2184
1081.50 0.2183
1081.60 0.2183
1081.70 0.2182
1081.80 0.2181
1081.90 0.2181
1082.00 0.218
1082.10 0.218
1082.20 0.2179
1082.30 0.2179
1082.40 0.2178
1082.50 0.2178
1082.60 0.2177
1082.70 0.2177
1082.80 0.2176
1082.90 0.2176
1083.00 0.2175
1083.10 0.2174
1083.20 0.2174
1083.30 0.2173
1083.40 0.2173
1083.50 0.2172
1083.60 0.2172
1083.70 0.2171
1083.80 0.2171
1083.90 0.217
1084.00 0.217
1084.10 0.2169
1084.20 0.2168
1084.30 0.2168
1084.40 0.2167
1084.50 0.2167
1084.60 0.2166
1084.70 0.2166
1084.80 0.2165
1084.90 0.2164
1085.00 0.2164
1085.10 0.2163
1085.20 0.2163
1085.30 0.2162
1085.40 0.2162
1085.50 0.2161
1085.60 0.216
1085.70 0.216
1085.80 0.2159
1085.90 0.2159
1086.00 0.2158
1086.10 0.2158
1086.20 0.2157
1086.30 0.2156
1086.40 0.2156
1086.50 0.2155
1086.60 0.2155
1086.70 0.2154
1086.80 0.2154
1086.90 0.2153
1087.00 0.2152
1087.10 0.2152
1087.20 0.2151
1087.30 0.215
1087.40 0.215
1087.50 0.2149
1087.60 0.2148
1087.70 0.2148
1087.80 0.2147
1087.90 0.2146
1088.00 0.2146
1088.10 0.2145
1088.20 0.2144
1088.30 0.2144
1088.40 0.2143
1088.50 0.2142
1088.60 0.2141
1088.70 0.214
1088.80 0.214
1088.90 0.2139
1089.00 0.2138
1089.10 0.2137
1089.20 0.2136
1089.30 0.2135
1089.40 0.2134
1089.50 0.2134
1089.60 0.2133
1089.70 0.2132
1089.80 0.2131
1089.90 0.213
1090.00 0.2129
1090.10 0.2128
1090.20 0.2127
1090.30 0.2127
1090.40 0.2126
1090.50 0.2125
1090.60 0.2123
1090.70 0.2122
1090.80 0.212
1090.90 0.2119
1091.00 0.2118
1091.10 0.2116
1091.20 0.2115
1091.30 0.2113
1091.40 0.2112
1091.50 0.211
1091.60 0.2109
1091.70 0.2107
1091.80 0.2106
1091.90 0.2105
1092.00 0.2103
1092.10 0.2101
1092.20 0.2099
1092.30 0.2097
1092.40 0.2095
1092.50 0.2092
1092.60 0.209
1092.70 0.2088
1092.80 0.2085
1092.90 0.2083
1093.00 0.208
1093.10 0.2077
1093.20 0.2073
1093.30 0.207
1093.40 0.2068
1093.50 0.2068
1093.60 0.2068
1093.70 0.207
1093.80 0.2072
1093.90 0.2075
1094.00 0.2076
1094.10 0.2078
1094.20 0.208
1094.30 0.2081
1094.40 0.2082
1094.50 0.2083
1094.60 0.2085
1094.70 0.2086
1094.80 0.2087
1094.90 0.2088
1095.00 0.2089
1095.10 0.2089
1095.20 0.209
1095.30 0.209
1095.40 0.209
1095.50 0.2091
1095.60 0.2091
1095.70 0.2092
1095.80 0.2092
1095.90 0.2093
1096.00 0.2093
1096.10 0.2093
1096.20 0.2094
1096.30 0.2094
1096.40 0.2095
1096.50 0.2095
1096.60 0.2095
1096.70 0.2095
1096.80 0.2095
1096.90 0.2095
1097.00 0.2095
1097.10 0.2095
1097.20 0.2095
1097.30 0.2094
1097.40 0.2094
1097.50 0.2094
1097.60 0.2094
1097.70 0.2094
1097.80 0.2093
1097.90 0.2093
1098.00 0.2093
1098.10 0.2093
1098.20 0.2093
1098.30 0.2092
1098.40 0.2092
1098.50 0.2092
1098.60 0.2092
1098.70 0.2091
1098.80 0.2091
1098.90 0.2091
1099.00 0.209
1099.10 0.209
1099.20 0.2089
1099.30 0.2089
1099.40 0.2089
1099.50 0.2088
1099.60 0.2088
1099.70 0.2088
1099.80 0.2087
1099.90 0.2087
1100.00 0.2087
1100.10 0.2086
1100.20 0.2086
1100.30 0.2085
1100.40 0.2085
1100.50 0.2085
1100.60 0.2084
1100.70 0.2084
1100.80 0.2083
1100.90 0.2083
1101.00 0.2083
1101.10 0.2082
1101.20 0.2082
1101.30 0.2081
1101.40 0.2081
1101.50 0.208
1101.60 0.208
1101.70 0.208
1101.80 0.2079
1101.90 0.2079
1102.00 0.2078
1102.10 0.2078
1102.20 0.2077
1102.30 0.2077
1102.40 0.2076
1102.50 0.2076
1102.60 0.2075
1102.70 0.2075
1102.80 0.2074
1102.90 0.2074
1103.00 0.2074
1103.10 0.2073
1103.20 0.2073
1103.30 0.2072
1103.40 0.2072
1103.50 0.2071
1103.60 0.2071
1103.70 0.207
1103.80 0.207
1103.90 0.2069
1104.00 0.2069
1104.10 0.2069
1104.20 0.2068
1104.30 0.2068
1104.40 0.2067
1104.50 0.2067
1104.60 0.2066
1104.70 0.2066
1104.80 0.2065
1104.90 0.2065
1105.00 0.2064
1105.10 0.2064
1105.20 0.2063
1105.30 0.2063
1105.40 0.2062
1105.50 0.2062
1105.60 0.2062
1105.70 0.2061
1105.80 0.2061
1105.90 0.206
1106.00 0.206
1106.10 0.2059
1106.20 0.2059
1106.30 0.2058
1106.40 0.2058
1106.50 0.2057
1106.60 0.2057
1106.70 0.2056
1106.80 0.2056
1106.90 0.2055
1107.00 0.2055
1107.10 0.2054
1107.20 0.2054
1107.30 0.2053
1107.40 0.2053
1107.50 0.2052
1107.60 0.2052
1107.70 0.2052
1107.80 0.2051
1107.90 0.2051
1108.00 0.205
1108.10 0.205
1108.20 0.2049
1108.30 0.2049
1108.40 0.2048
1108.50 0.2048
1108.60 0.2047
1108.70 0.2047
1108.80 0.2046
1108.90 0.2046
1109.00 0.2045
1109.10 0.2045
1109.20 0.2044
1109.30 0.2044
1109.40 0.2043
1109.50 0.2043
1109.60 0.2043
1109.70 0.2042
1109.80 0.2042
1109.90 0.2041
1110.00 0.2041
1110.10 0.204
1110.20 0.204
1110.30 0.2039
1110.40 0.2039
1110.50 0.2038
1110.60 0.2038
1110.70 0.2037
1110.80 0.2037
1110.90 0.2036
1111.00 0.2036
1111.10 0.2035
1111.20 0.2035
1111.30 0.2034
1111.40 0.2034
1111.50 0.2033
1111.60 0.2033
1111.70 0.2033
1111.80 0.2032
1111.90 0.2032
1112.00 0.2031
1112.10 0.2031
1112.20 0.203
1112.30 0.203
1112.40 0.2029
1112.50 0.2029
1112.60 0.2028
1112.70 0.2028
1112.80 0.2027
1112.90 0.2027
1113.00 0.2026
1113.10 0.2026
1113.20 0.2025
1113.30 0.2025
1113.40 0.2024
1113.50 0.2024
1113.60 0.2023
1113.70 0.2023
1113.80 0.2022
1113.90 0.2022
1114.00 0.2021
1114.10 0.2021
1114.20 0.2021
1114.30 0.202
1114.40 0.202
1114.50 0.2019
1114.60 0.2019
1114.70 0.2018
1114.80 0.2018
1114.90 0.2017
1115.00 0.2017
1115.10 0.2016
1115.20 0.2016
1115.30 0.2015
1115.40 0.2015
1115.50 0.2014
1115.60 0.2014
1115.70 0.2013
1115.80 0.2013
1115.90 0.2013
1116.00 0.2012
1116.10 0.2012
1116.20 0.2011
1116.30 0.2011
1116.40 0.201
1116.50 0.201
1116.60 0.2009
1116.70 0.2009
1116.80 0.2008
1116.90 0.2008
1117.00 0.2007
1117.10 0.2007
1117.20 0.2006
1117.30 0.2006
1117.40 0.2006
1117.50 0.2005
1117.60 0.2005
1117.70 0.2004
1117.80 0.2004
1117.90 0.2003
1118.00 0.2003
1118.10 0.2002
1118.20 0.2002
1118.30 0.2001
1118.40 0.2001
1118.50 0.2
1118.60 0.2
1118.70 0.1999
1118.80 0.1999
1118.90 0.1998
1119.00 0.1998
1119.10 0.1998
1119.20 0.1997
1119.30 0.1997
1119.40 0.1996
1119.50 0.1996
1119.60 0.1995
1119.70 0.1995
1119.80 0.1994
1119.90 0.1994
1120.00 0.1993
1120.10 0.1993
1120.20 0.1992
1120.30 0.1992
1120.40 0.1991
1120.50 0.1991
1120.60 0.1991
1120.70 0.199
1120.80 0.199
1120.90 0.1989
1121.00 0.1989
1121.10 0.1988
1121.20 0.1988
1121.30 0.1987
1121.40 0.1987
1121.50 0.1986
1121.60 0.1986
1121.70 0.1985
1121.80 0.1985
1121.90 0.1984
1122.00 0.1984
1122.10 0.1984
1122.20 0.1983
1122.30 0.1983
1122.40 0.1982
1122.50 0.1982
1122.60 0.1981
1122.70 0.1981
1122.80 0.198
1122.90 0.198
1123.00 0.1979
1123.10 0.1979
1123.20 0.1978
1123.30 0.1978
1123.40 0.1978
1123.50 0.1977
1123.60 0.1977
1123.70 0.1976
1123.80 0.1976
1123.90 0.1975
1124.00 0.1975
1124.10 0.1974
1124.20 0.1974
1124.30 0.1973
1124.40 0.1973
1124.50 0.1973
1124.60 0.1972
1124.70 0.1972
1124.80 0.1971
1124.90 0.1971
1125.00 0.197
1125.10 0.197
1125.20 0.1969
1125.30 0.1969
1125.40 0.1968
1125.50 0.1968
1125.60 0.1968
1125.70 0.1967
1125.80 0.1967
1125.90 0.1966
1126.00 0.1966
1126.10 0.1965
1126.20 0.1965
1126.30 0.1964
1126.40 0.1964
1126.50 0.1963
1126.60 0.1963
1126.70 0.1963
1126.80 0.1962
1126.90 0.1962
1127.00 0.1961
1127.10 0.1961
1127.20 0.196
1127.30 0.196
1127.40 0.1959
1127.50 0.1959
1127.60 0.1958
1127.70 0.1958
1127.80 0.1957
1127.90 0.1957
1128.00 0.1957
1128.10 0.1956
1128.20 0.1956
1128.30 0.1955
1128.40 0.1955
1128.50 0.1954
1128.60 0.1954
1128.70 0.1953
1128.80 0.1953
1128.90 0.1952
1129.00 0.1952
1129.10 0.1952
1129.20 0.1951
1129.30 0.1951
1129.40 0.195
1129.50 0.195
1129.60 0.1949
1129.70 0.1949
1129.80 0.1948
1129.90 0.1948
1130.00 0.1947
1130.10 0.1947
1130.20 0.1947
1130.30 0.1946
1130.40 0.1946
1130.50 0.1945
1130.60 0.1945
1130.70 0.1944
1130.80 0.1944
1130.90 0.1943
1131.00 0.1943
1131.10 0.1942
1131.20 0.1942
1131.30 0.1942
1131.40 0.1941
1131.50 0.1941
1131.60 0.194
1131.70 0.194
1131.80 0.1939
1131.90 0.1939
1132.00 0.1938
1132.10 0.1938
1132.20 0.1938
1132.30 0.1937
1132.40 0.1937
1132.50 0.1936
1132.60 0.1936
1132.70 0.1935
1132.80 0.1935
1132.90 0.1934
1133.00 0.1934
1133.10 0.1933
1133.20 0.1933
1133.30 0.1933
1133.40 0.1932
1133.50 0.1932
1133.60 0.1931
1133.70 0.1931
1133.80 0.193
1133.90 0.193
1134.00 0.1929
1134.10 0.1929
1134.20 0.1929
1134.30 0.1928
1134.40 0.1928
1134.50 0.1927
1134.60 0.1927
1134.70 0.1926
1134.80 0.1926
1134.90 0.1925
1135.00 0.1925
1135.10 0.1925
1135.20 0.1924
1135.30 0.1924
1135.40 0.1923
1135.50 0.1923
1135.60 0.1922
1135.70 0.1922
1135.80 0.1921
1135.90 0.1921
1136.00 0.192
1136.10 0.192
1136.20 0.192
1136.30 0.1919
1136.40 0.1919
1136.50 0.1918
1136.60 0.1918
1136.70 0.1917
1136.80 0.1917
1136.90 0.1916
1137.00 0.1916
1137.10 0.1916
1137.20 0.1915
1137.30 0.1915
1137.40 0.1914
1137.50 0.1914
1137.60 0.1913
1137.70 0.1913
1137.80 0.1912
1137.90 0.1912
1138.00 0.1912
1138.10 0.1911
1138.20 0.1911
1138.30 0.191
1138.40 0.191
1138.50 0.1909
1138.60 0.1909
1138.70 0.1909
1138.80 0.1908
1138.90 0.1908
1139.00 0.1907
1139.10 0.1907
1139.20 0.1906
1139.30 0.1906
1139.40 0.1905
1139.50 0.1905
1139.60 0.1905
1139.70 0.1904
1139.80 0.1904
1139.90 0.1903
1140.00 0.1903
1140.10 0.1902
1140.20 0.1902
1140.30 0.1901
1140.40 0.1901
1140.50 0.1901
1140.60 0.19
1140.70 0.19
1140.80 0.1899
1140.90 0.1899
1141.00 0.1898
1141.10 0.1898
1141.20 0.1897
1141.30 0.1897
1141.40 0.1897
1141.50 0.1896
1141.60 0.1896
1141.70 0.1895
1141.80 0.1895
1141.90 0.1894
1142.00 0.1894
1142.10 0.1894
1142.20 0.1893
1142.30 0.1893
1142.40 0.1892
1142.50 0.1892
1142.60 0.1891
1142.70 0.1891
1142.80 0.189
1142.90 0.189
1143.00 0.189
1143.10 0.1889
1143.20 0.1889
1143.30 0.1888
1143.40 0.1888
1143.50 0.1887
1143.60 0.1887
1143.70 0.1887
1143.80 0.1886
1143.90 0.1886
1144.00 0.1885
1144.10 0.1885
1144.20 0.1884
1144.30 0.1884
1144.40 0.1883
1144.50 0.1883
1144.60 0.1883
1144.70 0.1882
1144.80 0.1882
1144.90 0.1881
1145.00 0.1881
1145.10 0.188
1145.20 0.188
1145.30 0.188
1145.40 0.1879
1145.50 0.1879
1145.60 0.1878
1145.70 0.1878
1145.80 0.1877
1145.90 0.1877
1146.00 0.1877
1146.10 0.1876
1146.20 0.1876
1146.30 0.1875
1146.40 0.1875
1146.50 0.1874
1146.60 0.1874
1146.70 0.1874
1146.80 0.1873
1146.90 0.1873
1147.00 0.1872
1147.10 0.1872
1147.20 0.1871
1147.30 0.1871
1147.40 0.187
1147.50 0.187
1147.60 0.187
1147.70 0.1869
1147.80 0.1869
1147.90 0.1868
1148.00 0.1868
1148.10 0.1867
1148.20 0.1867
1148.30 0.1867
1148.40 0.1866
1148.50 0.1866
1148.60 0.1865
1148.70 0.1865
1148.80 0.1865
1148.90 0.1864
1149.00 0.1864
1149.10 0.1863
1149.20 0.1863
1149.30 0.1862
1149.40 0.1862
1149.50 0.1862
1149.60 0.1861
1149.70 0.1861
1149.80 0.186
1149.90 0.186
1150.00 0.1859
1150.10 0.1859
1150.20 0.1859
1150.30 0.1858
1150.40 0.1858
1150.50 0.1857
1150.60 0.1857
1150.70 0.1856
1150.80 0.1856
1150.90 0.1856
1151.00 0.1855
1151.10 0.1855
1151.20 0.1854
1151.30 0.1854
1151.40 0.1853
1151.50 0.1853
1151.60 0.1853
1151.70 0.1852
1151.80 0.1852
1151.90 0.1851
1152.00 0.1851
1152.10 0.185
1152.20 0.185
1152.30 0.185
1152.40 0.1849
1152.50 0.1849
1152.60 0.1848
1152.70 0.1848
1152.80 0.1848
1152.90 0.1847
1153.00 0.1847
1153.10 0.1846
1153.20 0.1846
1153.30 0.1845
1153.40 0.1845
1153.50 0.1845
1153.60 0.1844
1153.70 0.1844
1153.80 0.1843
1153.90 0.1843
1154.00 0.1842
1154.10 0.1842
1154.20 0.1842
1154.30 0.1841
1154.40 0.1841
1154.50 0.184
1154.60 0.184
1154.70 0.1839
1154.80 0.1839
1154.90 0.1839
1155.00 0.1838
1155.10 0.1838
1155.20 0.1837
1155.30 0.1837
1155.40 0.1836
1155.50 0.1836
1155.60 0.1836
1155.70 0.1835
1155.80 0.1835
1155.90 0.1834
1156.00 0.1834
1156.10 0.1834
1156.20 0.1833
1156.30 0.1833
1156.40 0.1832
1156.50 0.1832
1156.60 0.1831
1156.70 0.1831
1156.80 0.1831
1156.90 0.183
1157.00 0.183
1157.10 0.1829
1157.20 0.1829
1157.30 0.1828
1157.40 0.1828
1157.50 0.1828
1157.60 0.1827
1157.70 0.1827
1157.80 0.1826
1157.90 0.1826
1158.00 0.1826
1158.10 0.1825
1158.20 0.1825
1158.30 0.1824
1158.40 0.1824
1158.50 0.1824
1158.60 0.1823
1158.70 0.1823
1158.80 0.1822
1158.90 0.1822
1159.00 0.1821
1159.10 0.1821
1159.20 0.1821
1159.30 0.182
1159.40 0.182
1159.50 0.1819
1159.60 0.1819
1159.70 0.1819
1159.80 0.1818
1159.90 0.1818
1160.00 0.1817
1160.10 0.1817
1160.20 0.1816
1160.30 0.1816
1160.40 0.1816
1160.50 0.1815
1160.60 0.1815
1160.70 0.1814
1160.80 0.1814
1160.90 0.1814
1161.00 0.1813
1161.10 0.1813
1161.20 0.1812
1161.30 0.1812
1161.40 0.1812
1161.50 0.1811
1161.60 0.1811
1161.70 0.181
1161.80 0.181
1161.90 0.1809
1162.00 0.1809
1162.10 0.1809
1162.20 0.1808
1162.30 0.1808
1162.40 0.1807
1162.50 0.1807
1162.60 0.1807
1162.70 0.1806
1162.80 0.1806
1162.90 0.1805
1163.00 0.1805
1163.10 0.1804
1163.20 0.1804
1163.30 0.1804
1163.40 0.1803
1163.50 0.1803
1163.60 0.1802
1163.70 0.1802
1163.80 0.1802
1163.90 0.1801
1164.00 0.1801
1164.10 0.18
1164.20 0.18
1164.30 0.18
1164.40 0.1799
1164.50 0.1799
1164.60 0.1798
1164.70 0.1798
1164.80 0.1797
1164.90 0.1797
1165.00 0.1797
1165.10 0.1796
1165.20 0.1796
1165.30 0.1795
1165.40 0.1795
1165.50 0.1795
1165.60 0.1794
1165.70 0.1794
1165.80 0.1793
1165.90 0.1793
1166.00 0.1793
1166.10 0.1792
1166.20 0.1792
1166.30 0.1791
1166.40 0.1791
1166.50 0.1791
1166.60 0.179
1166.70 0.179
1166.80 0.1789
1166.90 0.1789
1167.00 0.1788
1167.10 0.1788
1167.20 0.1788
1167.30 0.1787
1167.40 0.1787
1167.50 0.1786
1167.60 0.1786
1167.70 0.1786
1167.80 0.1785
1167.90 0.1785
1168.00 0.1784
1168.10 0.1784
1168.20 0.1784
1168.30 0.1783
1168.40 0.1783
1168.50 0.1782
1168.60 0.1782
1168.70 0.1782
1168.80 0.1781
1168.90 0.1781
1169.00 0.178
1169.10 0.178
1169.20 0.178
1169.30 0.1779
1169.40 0.1779
1169.50 0.1778
1169.60 0.1778
1169.70 0.1778
1169.80 0.1777
1169.90 0.1777
1170.00 0.1776
1170.10 0.1776
1170.20 0.1776
1170.30 0.1775
1170.40 0.1775
1170.50 0.1774
1170.60 0.1774
1170.70 0.1774
1170.80 0.1773
1170.90 0.1773
1171.00 0.1772
1171.10 0.1772
1171.20 0.1772
1171.30 0.1771
1171.40 0.1771
1171.50 0.177
1171.60 0.177
1171.70 0.177
1171.80 0.1769
1171.90 0.1769
1172.00 0.1768
1172.10 0.1768
1172.20 0.1768
1172.30 0.1767
1172.40 0.1767
1172.50 0.1766
1172.60 0.1766
1172.70 0.1766
1172.80 0.1765
1172.90 0.1765
1173.00 0.1764
1173.10 0.1764
1173.20 0.1763
1173.30 0.1763
1173.40 0.1763
1173.50 0.1762
1173.60 0.1762
1173.70 0.1761
1173.80 0.1761
1173.90 0.1761
1174.00 0.176
1174.10 0.176
1174.20 0.1759
1174.30 0.1759
1174.40 0.1759
1174.50 0.1758
1174.60 0.1758
1174.70 0.1757
1174.80 0.1757
1174.90 0.1757
1175.00 0.1756
1175.10 0.1756
1175.20 0.1755
1175.30 0.1755
1175.40 0.1755
1175.50 0.1754
1175.60 0.1754
1175.70 0.1753
1175.80 0.1753
1175.90 0.1753
1176.00 0.1752
1176.10 0.1752
1176.20 0.1751
1176.30 0.1751
1176.40 0.1751
1176.50 0.175
1176.60 0.175
1176.70 0.175
1176.80 0.1749
1176.90 0.1749
1177.00 0.1748
1177.10 0.1748
1177.20 0.1748
1177.30 0.1747
1177.40 0.1747
1177.50 0.1746
1177.60 0.1746
1177.70 0.1746
1177.80 0.1745
1177.90 0.1745
1178.00 0.1744
1178.10 0.1744
1178.20 0.1744
1178.30 0.1743
1178.40 0.1743
1178.50 0.1742
1178.60 0.1742
1178.70 0.1742
1178.80 0.1741
1178.90 0.1741
1179.00 0.174
1179.10 0.174
1179.20 0.174
1179.30 0.1739
1179.40 0.1739
1179.50 0.1738
1179.60 0.1738
1179.70 0.1738
1179.80 0.1737
1179.90 0.1737
1180.00 0.1737
1180.10 0.1736
1180.20 0.1736
1180.30 0.1735
1180.40 0.1735
1180.50 0.1735
1180.60 0.1734
1180.70 0.1734
1180.80 0.1733
1180.90 0.1733
1181.00 0.1733
1181.10 0.1732
1181.20 0.1732
1181.30 0.1731
1181.40 0.1731
1181.50 0.1731
1181.60 0.173
1181.70 0.173
1181.80 0.1729
1181.90 0.1729
1182.00 0.1729
1182.10 0.1728
1182.20 0.1728
1182.30 0.1728
1182.40 0.1727
1182.50 0.1727
1182.60 0.1726
1182.70 0.1726
1182.80 0.1726
1182.90 0.1725
1183.00 0.1725
1183.10 0.1724
1183.20 0.1724
1183.30 0.1724
1183.40 0.1723
1183.50 0.1723
1183.60 0.1723
1183.70 0.1722
1183.80 0.1722
1183.90 0.1721
1184.00 0.1721
1184.10 0.1721
1184.20 0.172
1184.30 0.172
1184.40 0.1719
1184.50 0.1719
1184.60 0.1719
1184.70 0.1718
1184.80 0.1718
1184.90 0.1717
1185.00 0.1717
1185.10 0.1717
1185.20 0.1716
1185.30 0.1716
1185.40 0.1716
1185.50 0.1715
1185.60 0.1715
1185.70 0.1714
1185.80 0.1714
1185.90 0.1714
1186.00 0.1713
1186.10 0.1713
1186.20 0.1712
1186.30 0.1712
1186.40 0.1712
1186.50 0.1711
1186.60 0.1711
1186.70 0.1711
1186.80 0.171
1186.90 0.171
1187.00 0.1709
1187.10 0.1709
1187.20 0.1709
1187.30 0.1708
1187.40 0.1708
1187.50 0.1707
1187.60 0.1707
1187.70 0.1707
1187.80 0.1706
1187.90 0.1706
1188.00 0.1706
1188.10 0.1705
1188.20 0.1705
1188.30 0.1704
1188.40 0.1704
1188.50 0.1704
1188.60 0.1703
1188.70 0.1703
1188.80 0.1703
1188.90 0.1702
1189.00 0.1702
1189.10 0.1701
1189.20 0.1701
1189.30 0.1701
1189.40 0.17
1189.50 0.17
1189.60 0.1699
1189.70 0.1699
1189.80 0.1699
1189.90 0.1698
1190.00 0.1698
1190.10 0.1698
1190.20 0.1697
1190.30 0.1697
1190.40 0.1696
1190.50 0.1696
1190.60 0.1696
1190.70 0.1695
1190.80 0.1695
1190.90 0.1695
1191.00 0.1694
1191.10 0.1694
1191.20 0.1693
1191.30 0.1693
1191.40 0.1693
1191.50 0.1692
1191.60 0.1692
1191.70 0.1691
1191.80 0.1691
1191.90 0.1691
1192.00 0.169
1192.10 0.169
1192.20 0.169
1192.30 0.1689
1192.40 0.1689
1192.50 0.1688
1192.60 0.1688
1192.70 0.1688
1192.80 0.1687
1192.90 0.1687
1193.00 0.1687
1193.10 0.1686
1193.20 0.1686
1193.30 0.1685
1193.40 0.1685
1193.50 0.1685
1193.60 0.1684
1193.70 0.1684
1193.80 0.1683
1193.90 0.1683
1194.00 0.1683
1194.10 0.1682
1194.20 0.1682
1194.30 0.1682
1194.40 0.1681
1194.50 0.1681
1194.60 0.168
1194.70 0.168
1194.80 0.168
1194.90 0.1679
1195.00 0.1679
1195.10 0.1679
1195.20 0.1678
1195.30 0.1678
1195.40 0.1677
1195.50 0.1677
1195.60 0.1677
1195.70 0.1676
1195.80 0.1676
1195.90 0.1676
1196.00 0.1675
1196.10 0.1675
1196.20 0.1674
1196.30 0.1674
1196.40 0.1674
1196.50 0.1673
1196.60 0.1673
1196.70 0.1673
1196.80 0.1672
1196.90 0.1672
1197.00 0.1671
1197.10 0.1671
1197.20 0.1671
1197.30 0.167
1197.40 0.167
1197.50 0.167
1197.60 0.1669
1197.70 0.1669
1197.80 0.1668
1197.90 0.1668
1198.00 0.1668
1198.10 0.1667
1198.20 0.1667
1198.30 0.1667
1198.40 0.1666
1198.50 0.1666
1198.60 0.1665
1198.70 0.1665
1198.80 0.1665
1198.90 0.1664
1199.00 0.1664
1199.10 0.1664
1199.20 0.1663
1199.30 0.1663
1199.40 0.1662
1199.50 0.1662
1199.60 0.1662
1199.70 0.1661
1199.80 0.1661
1199.90 0.1661
1200.00 0
