# Version 2.1 - nm, norm@500 to 1, cut digits, bergeron_9500_70.dat_9500
# Wavelength(nm)  Flambda(ergs/cm^s/s/nm)
300.00 1.373
300.10 1.373
300.20 1.372
300.30 1.372
300.40 1.371
300.50 1.371
300.60 1.37
300.70 1.37
300.80 1.369
300.90 1.369
301.00 1.368
301.10 1.368
301.20 1.367
301.30 1.367
301.40 1.366
301.50 1.366
301.60 1.365
301.70 1.365
301.80 1.364
301.90 1.364
302.00 1.363
302.10 1.363
302.20 1.362
302.30 1.362
302.40 1.361
302.50 1.361
302.60 1.36
302.70 1.36
302.80 1.359
302.90 1.359
303.00 1.358
303.10 1.358
303.20 1.357
303.30 1.357
303.40 1.356
303.50 1.356
303.60 1.355
303.70 1.355
303.80 1.354
303.90 1.354
304.00 1.353
304.10 1.353
304.20 1.352
304.30 1.352
304.40 1.351
304.50 1.351
304.60 1.35
304.70 1.35
304.80 1.349
304.90 1.349
305.00 1.348
305.10 1.348
305.20 1.347
305.30 1.347
305.40 1.346
305.50 1.346
305.60 1.345
305.70 1.345
305.80 1.344
305.90 1.344
306.00 1.343
306.10 1.343
306.20 1.342
306.30 1.342
306.40 1.341
306.50 1.341
306.60 1.34
306.70 1.34
306.80 1.339
306.90 1.339
307.00 1.338
307.10 1.338
307.20 1.337
307.30 1.337
307.40 1.336
307.50 1.336
307.60 1.335
307.70 1.335
307.80 1.334
307.90 1.334
308.00 1.333
308.10 1.333
308.20 1.332
308.30 1.332
308.40 1.331
308.50 1.33
308.60 1.33
308.70 1.329
308.80 1.329
308.90 1.328
309.00 1.328
309.10 1.327
309.20 1.327
309.30 1.326
309.40 1.326
309.50 1.325
309.60 1.325
309.70 1.324
309.80 1.324
309.90 1.323
310.00 1.323
310.10 1.322
310.20 1.322
310.30 1.321
310.40 1.321
310.50 1.32
310.60 1.32
310.70 1.319
310.80 1.319
310.90 1.318
311.00 1.318
311.10 1.317
311.20 1.317
311.30 1.316
311.40 1.316
311.50 1.315
311.60 1.315
311.70 1.314
311.80 1.314
311.90 1.313
312.00 1.313
312.10 1.312
312.20 1.312
312.30 1.311
312.40 1.311
312.50 1.31
312.60 1.31
312.70 1.309
312.80 1.309
312.90 1.308
313.00 1.308
313.10 1.307
313.20 1.307
313.30 1.306
313.40 1.306
313.50 1.305
313.60 1.305
313.70 1.304
313.80 1.304
313.90 1.303
314.00 1.303
314.10 1.302
314.20 1.302
314.30 1.301
314.40 1.301
314.50 1.3
314.60 1.3
314.70 1.299
314.80 1.299
314.90 1.298
315.00 1.298
315.10 1.297
315.20 1.297
315.30 1.296
315.40 1.296
315.50 1.295
315.60 1.295
315.70 1.294
315.80 1.294
315.90 1.293
316.00 1.293
316.10 1.292
316.20 1.292
316.30 1.291
316.40 1.291
316.50 1.29
316.60 1.29
316.70 1.289
316.80 1.289
316.90 1.288
317.00 1.288
317.10 1.287
317.20 1.287
317.30 1.286
317.40 1.286
317.50 1.285
317.60 1.285
317.70 1.284
317.80 1.284
317.90 1.283
318.00 1.283
318.10 1.282
318.20 1.282
318.30 1.281
318.40 1.281
318.50 1.28
318.60 1.28
318.70 1.279
318.80 1.279
318.90 1.278
319.00 1.278
319.10 1.277
319.20 1.277
319.30 1.276
319.40 1.276
319.50 1.275
319.60 1.275
319.70 1.274
319.80 1.274
319.90 1.273
320.00 1.273
320.10 1.272
320.20 1.272
320.30 1.271
320.40 1.271
320.50 1.27
320.60 1.27
320.70 1.269
320.80 1.269
320.90 1.268
321.00 1.268
321.10 1.267
321.20 1.267
321.30 1.266
321.40 1.266
321.50 1.265
321.60 1.265
321.70 1.264
321.80 1.264
321.90 1.263
322.00 1.263
322.10 1.262
322.20 1.262
322.30 1.261
322.40 1.261
322.50 1.26
322.60 1.26
322.70 1.259
322.80 1.259
322.90 1.258
323.00 1.258
323.10 1.257
323.20 1.257
323.30 1.256
323.40 1.256
323.50 1.255
323.60 1.255
323.70 1.254
323.80 1.254
323.90 1.253
324.00 1.253
324.10 1.252
324.20 1.252
324.30 1.251
324.40 1.251
324.50 1.25
324.60 1.25
324.70 1.249
324.80 1.249
324.90 1.248
325.00 1.248
325.10 1.247
325.20 1.247
325.30 1.246
325.40 1.246
325.50 1.245
325.60 1.245
325.70 1.244
325.80 1.244
325.90 1.243
326.00 1.243
326.10 1.242
326.20 1.242
326.30 1.241
326.40 1.241
326.50 1.24
326.60 1.24
326.70 1.239
326.80 1.239
326.90 1.238
327.00 1.238
327.10 1.237
327.20 1.237
327.30 1.236
327.40 1.236
327.50 1.235
327.60 1.235
327.70 1.234
327.80 1.234
327.90 1.233
328.00 1.233
328.10 1.232
328.20 1.232
328.30 1.231
328.40 1.231
328.50 1.23
328.60 1.23
328.70 1.229
328.80 1.229
328.90 1.228
329.00 1.228
329.10 1.227
329.20 1.227
329.30 1.226
329.40 1.226
329.50 1.225
329.60 1.225
329.70 1.224
329.80 1.224
329.90 1.223
330.00 1.223
330.10 1.222
330.20 1.222
330.30 1.221
330.40 1.221
330.50 1.22
330.60 1.22
330.70 1.219
330.80 1.219
330.90 1.218
331.00 1.218
331.10 1.217
331.20 1.217
331.30 1.216
331.40 1.216
331.50 1.215
331.60 1.215
331.70 1.214
331.80 1.214
331.90 1.213
332.00 1.213
332.10 1.212
332.20 1.212
332.30 1.211
332.40 1.211
332.50 1.21
332.60 1.21
332.70 1.209
332.80 1.209
332.90 1.208
333.00 1.208
333.10 1.208
333.20 1.207
333.30 1.207
333.40 1.206
333.50 1.206
333.60 1.205
333.70 1.205
333.80 1.204
333.90 1.204
334.00 1.203
334.10 1.203
334.20 1.202
334.30 1.202
334.40 1.201
334.50 1.201
334.60 1.2
334.70 1.2
334.80 1.199
334.90 1.199
335.00 1.198
335.10 1.198
335.20 1.197
335.30 1.197
335.40 1.196
335.50 1.196
335.60 1.195
335.70 1.195
335.80 1.194
335.90 1.194
336.00 1.193
336.10 1.193
336.20 1.192
336.30 1.192
336.40 1.191
336.50 1.191
336.60 1.19
336.70 1.19
336.80 1.189
336.90 1.189
337.00 1.188
337.10 1.188
337.20 1.188
337.30 1.187
337.40 1.187
337.50 1.186
337.60 1.186
337.70 1.185
337.80 1.185
337.90 1.184
338.00 1.184
338.10 1.183
338.20 1.183
338.30 1.182
338.40 1.182
338.50 1.181
338.60 1.181
338.70 1.18
338.80 1.18
338.90 1.179
339.00 1.179
339.10 1.178
339.20 1.178
339.30 1.177
339.40 1.177
339.50 1.176
339.60 1.176
339.70 1.175
339.80 1.175
339.90 1.174
340.00 1.174
340.10 1.173
340.20 1.173
340.30 1.172
340.40 1.172
340.50 1.172
340.60 1.171
340.70 1.171
340.80 1.17
340.90 1.17
341.00 1.169
341.10 1.169
341.20 1.168
341.30 1.168
341.40 1.167
341.50 1.167
341.60 1.166
341.70 1.166
341.80 1.165
341.90 1.165
342.00 1.164
342.10 1.164
342.20 1.163
342.30 1.163
342.40 1.162
342.50 1.162
342.60 1.161
342.70 1.161
342.80 1.16
342.90 1.16
343.00 1.16
343.10 1.159
343.20 1.159
343.30 1.158
343.40 1.158
343.50 1.157
343.60 1.157
343.70 1.156
343.80 1.156
343.90 1.155
344.00 1.155
344.10 1.154
344.20 1.154
344.30 1.153
344.40 1.153
344.50 1.152
344.60 1.152
344.70 1.151
344.80 1.151
344.90 1.15
345.00 1.15
345.10 1.15
345.20 1.149
345.30 1.149
345.40 1.148
345.50 1.148
345.60 1.147
345.70 1.147
345.80 1.146
345.90 1.146
346.00 1.145
346.10 1.145
346.20 1.144
346.30 1.144
346.40 1.143
346.50 1.143
346.60 1.142
346.70 1.142
346.80 1.141
346.90 1.141
347.00 1.14
347.10 1.14
347.20 1.14
347.30 1.139
347.40 1.139
347.50 1.138
347.60 1.138
347.70 1.137
347.80 1.137
347.90 1.136
348.00 1.136
348.10 1.135
348.20 1.135
348.30 1.134
348.40 1.134
348.50 1.133
348.60 1.133
348.70 1.132
348.80 1.132
348.90 1.132
349.00 1.131
349.10 1.131
349.20 1.13
349.30 1.13
349.40 1.129
349.50 1.129
349.60 1.128
349.70 1.128
349.80 1.127
349.90 1.127
350.00 1.126
350.10 1.126
350.20 1.125
350.30 1.125
350.40 1.125
350.50 1.124
350.60 1.124
350.70 1.123
350.80 1.123
350.90 1.122
351.00 1.122
351.10 1.121
351.20 1.121
351.30 1.12
351.40 1.12
351.50 1.119
351.60 1.119
351.70 1.118
351.80 1.118
351.90 1.118
352.00 1.117
352.10 1.117
352.20 1.116
352.30 1.116
352.40 1.115
352.50 1.115
352.60 1.114
352.70 1.114
352.80 1.113
352.90 1.113
353.00 1.112
353.10 1.112
353.20 1.111
353.30 1.111
353.40 1.111
353.50 1.11
353.60 1.11
353.70 1.109
353.80 1.109
353.90 1.108
354.00 1.108
354.10 1.107
354.20 1.107
354.30 1.106
354.40 1.106
354.50 1.105
354.60 1.105
354.70 1.105
354.80 1.104
354.90 1.104
355.00 1.103
355.10 1.103
355.20 1.102
355.30 1.102
355.40 1.101
355.50 1.101
355.60 1.1
355.70 1.1
355.80 1.099
355.90 1.099
356.00 1.099
356.10 1.098
356.20 1.098
356.30 1.097
356.40 1.097
356.50 1.096
356.60 1.096
356.70 1.095
356.80 1.095
356.90 1.094
357.00 1.094
357.10 1.093
357.20 1.093
357.30 1.093
357.40 1.092
357.50 1.092
357.60 1.091
357.70 1.091
357.80 1.09
357.90 1.09
358.00 1.089
358.10 1.089
358.20 1.088
358.30 1.088
358.40 1.088
358.50 1.087
358.60 1.087
358.70 1.086
358.80 1.086
358.90 1.085
359.00 1.085
359.10 1.084
359.20 1.084
359.30 1.083
359.40 1.083
359.50 1.083
359.60 1.082
359.70 1.082
359.80 1.081
359.90 1.081
360.00 1.08
360.10 1.08
360.20 1.079
360.30 1.079
360.40 1.078
360.50 1.078
360.60 1.078
360.70 1.077
360.80 1.077
360.90 1.076
361.00 1.076
361.10 1.075
361.20 1.075
361.30 1.074
361.40 1.074
361.50 1.073
361.60 1.073
361.70 1.073
361.80 1.072
361.90 1.072
362.00 1.071
362.10 1.071
362.20 1.07
362.30 1.07
362.40 1.069
362.50 1.069
362.60 1.069
362.70 1.068
362.80 1.068
362.90 1.067
363.00 1.067
363.10 1.066
363.20 1.066
363.30 1.065
363.40 1.065
363.50 1.064
363.60 1.064
363.70 1.063
363.80 1.063
363.90 1.062
364.00 1.062
364.10 1.061
364.20 1.061
364.30 1.061
364.40 1.06
364.50 1.06
364.60 1.059
364.70 1.059
364.80 1.058
364.90 1.058
365.00 1.058
365.10 1.057
365.20 1.057
365.30 1.056
365.40 1.056
365.50 1.055
365.60 1.055
365.70 1.055
365.80 1.054
365.90 1.054
366.00 1.053
366.10 1.053
366.20 1.053
366.30 1.052
366.40 1.052
366.50 1.052
366.60 1.051
366.70 1.051
366.80 1.051
366.90 1.05
367.00 1.05
367.10 1.05
367.20 1.049
367.30 1.049
367.40 1.049
367.50 1.048
367.60 1.048
367.70 1.048
367.80 1.047
367.90 1.047
368.00 1.047
368.10 1.048
368.20 1.049
368.30 1.05
368.40 1.051
368.50 1.052
368.60 1.053
368.70 1.054
368.80 1.055
368.90 1.056
369.00 1.057
369.10 1.058
369.20 1.058
369.30 1.059
369.40 1.06
369.50 1.061
369.60 1.062
369.70 1.063
369.80 1.064
369.90 1.065
370.00 1.066
370.10 1.069
370.20 1.072
370.30 1.075
370.40 1.078
370.50 1.081
370.60 1.084
370.70 1.086
370.80 1.089
370.90 1.092
371.00 1.095
371.10 1.098
371.20 1.101
371.30 1.104
371.40 1.106
371.50 1.109
371.60 1.112
371.70 1.115
371.80 1.118
371.90 1.121
372.00 1.123
372.10 1.127
372.20 1.131
372.30 1.135
372.40 1.138
372.50 1.142
372.60 1.146
372.70 1.15
372.80 1.154
372.90 1.157
373.00 1.161
373.10 1.165
373.20 1.168
373.30 1.172
373.40 1.176
373.50 1.18
373.60 1.183
373.70 1.187
373.80 1.191
373.90 1.194
374.00 1.198
374.10 1.201
374.20 1.205
374.30 1.208
374.40 1.211
374.50 1.214
374.60 1.218
374.70 1.221
374.80 1.224
374.90 1.228
375.00 1.231
375.10 1.234
375.20 1.237
375.30 1.24
375.40 1.244
375.50 1.247
375.60 1.25
375.70 1.253
375.80 1.257
375.90 1.26
376.00 1.263
376.10 1.265
376.20 1.266
376.30 1.268
376.40 1.269
376.50 1.271
376.60 1.272
376.70 1.274
376.80 1.275
376.90 1.277
377.00 1.278
377.10 1.276
377.20 1.273
377.30 1.271
377.40 1.269
377.50 1.266
377.60 1.264
377.70 1.262
377.80 1.259
377.90 1.257
378.00 1.255
378.10 1.238
378.20 1.221
378.30 1.204
378.40 1.187
378.50 1.17
378.60 1.153
378.70 1.136
378.80 1.119
378.90 1.102
379.00 1.085
379.10 1.062
379.20 1.039
379.30 1.016
379.40 0.9936
379.50 0.9708
379.60 0.9481
379.70 0.9253
379.80 0.9026
379.90 0.8799
380.00 0.8573
380.10 0.8896
380.20 0.9219
380.30 0.9542
380.40 0.9865
380.50 1.019
380.60 1.051
380.70 1.083
380.80 1.115
380.90 1.147
381.00 1.179
381.10 1.188
381.20 1.197
381.30 1.205
381.40 1.214
381.50 1.223
381.60 1.224
381.70 1.222
381.80 1.219
381.90 1.212
382.00 1.203
382.10 1.191
382.20 1.176
382.30 1.139
382.40 1.101
382.50 1.064
382.60 1.027
382.70 0.9895
382.80 0.9523
382.90 0.9151
383.00 0.878
383.10 0.8409
383.20 0.8038
383.30 0.7467
383.40 0.6852
383.50 0.6228
383.60 0.6364
383.70 0.6988
383.80 0.7602
383.90 0.8167
384.00 0.8697
384.10 0.9207
384.20 0.9691
384.30 1.014
384.40 1.056
384.50 1.094
384.60 1.127
384.70 1.156
384.80 1.181
384.90 1.203
385.00 1.222
385.10 1.237
385.20 1.251
385.30 1.263
385.40 1.272
385.50 1.28
385.60 1.287
385.70 1.292
385.80 1.296
385.90 1.299
386.00 1.3
386.10 1.3
386.20 1.3
386.30 1.298
386.40 1.295
386.50 1.291
386.60 1.285
386.70 1.279
386.80 1.271
386.90 1.262
387.00 1.251
387.10 1.239
387.20 1.225
387.30 1.209
387.40 1.192
387.50 1.17
387.60 1.147
387.70 1.12
387.80 1.089
387.90 1.053
388.00 1.014
388.10 0.967
388.20 0.9172
388.30 0.8644
388.40 0.8075
388.50 0.7496
388.60 0.6906
388.70 0.6281
388.80 0.5651
388.90 0.5015
389.00 0.5608
389.10 0.6217
389.20 0.6842
389.30 0.7433
389.40 0.8013
389.50 0.8583
389.60 0.9116
389.70 0.962
389.80 1.01
389.90 1.05
390.00 1.087
390.10 1.12
390.20 1.148
390.30 1.173
390.40 1.197
390.50 1.216
390.60 1.234
390.70 1.251
390.80 1.266
390.90 1.28
391.00 1.292
391.10 1.304
391.20 1.314
391.30 1.324
391.40 1.333
391.50 1.341
391.60 1.348
391.70 1.355
391.80 1.361
391.90 1.366
392.00 1.371
392.10 1.375
392.20 1.379
392.30 1.382
392.40 1.384
392.50 1.386
392.60 1.388
392.70 1.388
392.80 1.389
392.90 1.388
393.00 1.388
393.10 1.386
393.20 1.384
393.30 1.382
393.40 1.379
393.50 1.375
393.60 1.371
393.70 1.366
393.80 1.361
393.90 1.355
394.00 1.348
394.10 1.34
394.20 1.332
394.30 1.324
394.40 1.314
394.50 1.304
394.60 1.293
394.70 1.28
394.80 1.268
394.90 1.254
395.00 1.239
395.10 1.222
395.20 1.205
395.30 1.186
395.40 1.165
395.50 1.144
395.60 1.119
395.70 1.092
395.80 1.064
395.90 1.03
396.00 0.9932
396.10 0.9534
396.20 0.907
396.30 0.8578
396.40 0.8056
396.50 0.7496
396.60 0.6933
396.70 0.6367
396.80 0.5779
396.90 0.5118
397.00 0.4383
397.10 0.5061
397.20 0.5694
397.30 0.6283
397.40 0.6847
397.50 0.7407
397.60 0.7965
397.70 0.8486
397.80 0.8979
397.90 0.9442
398.00 0.9841
398.10 1.021
398.20 1.054
398.30 1.083
398.40 1.11
398.50 1.134
398.60 1.156
398.70 1.176
398.80 1.196
398.90 1.213
399.00 1.229
399.10 1.245
399.20 1.258
399.30 1.272
399.40 1.285
399.50 1.296
399.60 1.307
399.70 1.318
399.80 1.328
399.90 1.337
400.00 1.346
400.10 1.354
400.20 1.362
400.30 1.369
400.40 1.376
400.50 1.383
400.60 1.389
400.70 1.394
400.80 1.4
400.90 1.405
401.00 1.41
401.10 1.414
401.20 1.418
401.30 1.422
401.40 1.426
401.50 1.429
401.60 1.432
401.70 1.435
401.80 1.437
401.90 1.44
402.00 1.442
402.10 1.444
402.20 1.446
402.30 1.447
402.40 1.449
402.50 1.45
402.60 1.451
402.70 1.452
402.80 1.452
402.90 1.453
403.00 1.453
403.10 1.453
403.20 1.453
403.30 1.453
403.40 1.453
403.50 1.452
403.60 1.452
403.70 1.451
403.80 1.45
403.90 1.449
404.00 1.448
404.10 1.446
404.20 1.445
404.30 1.443
404.40 1.441
404.50 1.439
404.60 1.437
404.70 1.435
404.80 1.432
404.90 1.429
405.00 1.426
405.10 1.423
405.20 1.42
405.30 1.416
405.40 1.413
405.50 1.409
405.60 1.404
405.70 1.4
405.80 1.395
405.90 1.39
406.00 1.385
406.10 1.379
406.20 1.373
406.30 1.367
406.40 1.36
406.50 1.353
406.60 1.346
406.70 1.339
406.80 1.33
406.90 1.322
407.00 1.313
407.10 1.304
407.20 1.294
407.30 1.283
407.40 1.272
407.50 1.261
407.60 1.249
407.70 1.236
407.80 1.222
407.90 1.207
408.00 1.192
408.10 1.176
408.20 1.158
408.30 1.14
408.40 1.121
408.50 1.099
408.60 1.077
408.70 1.055
408.80 1.029
408.90 1.002
409.00 0.9741
409.10 0.9414
409.20 0.9061
409.30 0.8683
409.40 0.8258
409.50 0.781
409.60 0.7341
409.70 0.6845
409.80 0.6345
409.90 0.584
410.00 0.5295
410.10 0.4743
410.20 0.4185
410.30 0.4945
410.40 0.5586
410.50 0.6109
410.60 0.6608
410.70 0.7099
410.80 0.7583
410.90 0.8031
411.00 0.8457
411.10 0.8859
411.20 0.921
411.30 0.9537
411.40 0.9839
411.50 1.01
411.60 1.035
411.70 1.058
411.80 1.08
411.90 1.1
412.00 1.119
412.10 1.137
412.20 1.154
412.30 1.17
412.40 1.185
412.50 1.198
412.60 1.212
412.70 1.224
412.80 1.235
412.90 1.246
413.00 1.257
413.10 1.266
413.20 1.276
413.30 1.284
413.40 1.292
413.50 1.3
413.60 1.307
413.70 1.314
413.80 1.321
413.90 1.327
414.00 1.333
414.10 1.339
414.20 1.344
414.30 1.349
414.40 1.354
414.50 1.359
414.60 1.363
414.70 1.367
414.80 1.371
414.90 1.375
415.00 1.378
415.10 1.381
415.20 1.385
415.30 1.388
415.40 1.39
415.50 1.393
415.60 1.395
415.70 1.398
415.80 1.4
415.90 1.402
416.00 1.404
416.10 1.406
416.20 1.408
416.30 1.409
416.40 1.411
416.50 1.413
416.60 1.414
416.70 1.415
416.80 1.417
416.90 1.418
417.00 1.419
417.10 1.42
417.20 1.421
417.30 1.422
417.40 1.423
417.50 1.424
417.60 1.424
417.70 1.425
417.80 1.426
417.90 1.426
418.00 1.427
418.10 1.427
418.20 1.428
418.30 1.428
418.40 1.428
418.50 1.428
418.60 1.429
418.70 1.429
418.80 1.429
418.90 1.429
419.00 1.429
419.10 1.429
419.20 1.429
419.30 1.429
419.40 1.429
419.50 1.429
419.60 1.429
419.70 1.429
419.80 1.429
419.90 1.429
420.00 1.428
420.10 1.428
420.20 1.428
420.30 1.428
420.40 1.427
420.50 1.427
420.60 1.427
420.70 1.426
420.80 1.426
420.90 1.425
421.00 1.425
421.10 1.425
421.20 1.424
421.30 1.423
421.40 1.423
421.50 1.422
421.60 1.422
421.70 1.421
421.80 1.421
421.90 1.42
422.00 1.419
422.10 1.419
422.20 1.418
422.30 1.417
422.40 1.417
422.50 1.416
422.60 1.415
422.70 1.414
422.80 1.413
422.90 1.413
423.00 1.412
423.10 1.411
423.20 1.41
423.30 1.409
423.40 1.408
423.50 1.407
423.60 1.406
423.70 1.405
423.80 1.404
423.90 1.403
424.00 1.402
424.10 1.401
424.20 1.4
424.30 1.399
424.40 1.398
424.50 1.396
424.60 1.395
424.70 1.394
424.80 1.393
424.90 1.391
425.00 1.39
425.10 1.389
425.20 1.387
425.30 1.386
425.40 1.384
425.50 1.383
425.60 1.381
425.70 1.38
425.80 1.378
425.90 1.377
426.00 1.375
426.10 1.373
426.20 1.371
426.30 1.369
426.40 1.368
426.50 1.366
426.60 1.364
426.70 1.362
426.80 1.36
426.90 1.357
427.00 1.355
427.10 1.353
427.20 1.351
427.30 1.348
427.40 1.346
427.50 1.343
427.60 1.341
427.70 1.338
427.80 1.335
427.90 1.332
428.00 1.329
428.10 1.326
428.20 1.323
428.30 1.32
428.40 1.317
428.50 1.314
428.60 1.31
428.70 1.307
428.80 1.303
428.90 1.299
429.00 1.295
429.10 1.291
429.20 1.287
429.30 1.282
429.40 1.278
429.50 1.273
429.60 1.268
429.70 1.262
429.80 1.257
429.90 1.251
430.00 1.246
430.10 1.239
430.20 1.233
430.30 1.226
430.40 1.22
430.50 1.212
430.60 1.205
430.70 1.197
430.80 1.189
430.90 1.181
431.00 1.173
431.10 1.164
431.20 1.155
431.30 1.146
431.40 1.136
431.50 1.126
431.60 1.115
431.70 1.103
431.80 1.091
431.90 1.077
432.00 1.063
432.10 1.048
432.20 1.03
432.30 1.012
432.40 0.9919
432.50 0.9693
432.60 0.9452
432.70 0.9198
432.80 0.8919
432.90 0.8633
433.00 0.8339
433.10 0.8037
433.20 0.7722
433.30 0.7397
433.40 0.7028
433.50 0.6641
433.60 0.6236
433.70 0.5813
433.80 0.5372
433.90 0.4911
434.00 0.4019
434.10 0.4032
434.20 0.4949
434.30 0.5404
434.40 0.584
434.50 0.6258
434.60 0.6658
434.70 0.7038
434.80 0.7398
434.90 0.7716
435.00 0.8022
435.10 0.8316
435.20 0.8601
435.30 0.8878
435.40 0.9146
435.50 0.939
435.60 0.9618
435.70 0.9833
435.80 1.002
435.90 1.019
436.00 1.035
436.10 1.049
436.20 1.063
436.30 1.075
436.40 1.086
436.50 1.096
436.60 1.106
436.70 1.115
436.80 1.124
436.90 1.132
437.00 1.14
437.10 1.147
437.20 1.154
437.30 1.161
437.40 1.168
437.50 1.174
437.60 1.18
437.70 1.186
437.80 1.192
437.90 1.197
438.00 1.202
438.10 1.207
438.20 1.212
438.30 1.216
438.40 1.22
438.50 1.224
438.60 1.228
438.70 1.231
438.80 1.234
438.90 1.238
439.00 1.241
439.10 1.243
439.20 1.246
439.30 1.249
439.40 1.251
439.50 1.253
439.60 1.256
439.70 1.258
439.80 1.26
439.90 1.262
440.00 1.263
440.10 1.265
440.20 1.267
440.30 1.268
440.40 1.27
440.50 1.271
440.60 1.272
440.70 1.274
440.80 1.275
440.90 1.276
441.00 1.277
441.10 1.278
441.20 1.279
441.30 1.28
441.40 1.281
441.50 1.282
441.60 1.282
441.70 1.283
441.80 1.283
441.90 1.284
442.00 1.285
442.10 1.285
442.20 1.286
442.30 1.286
442.40 1.286
442.50 1.287
442.60 1.287
442.70 1.287
442.80 1.288
442.90 1.288
443.00 1.288
443.10 1.288
443.20 1.288
443.30 1.289
443.40 1.289
443.50 1.289
443.60 1.289
443.70 1.289
443.80 1.289
443.90 1.289
444.00 1.289
444.10 1.289
444.20 1.289
444.30 1.289
444.40 1.289
444.50 1.289
444.60 1.289
444.70 1.289
444.80 1.288
444.90 1.288
445.00 1.288
445.10 1.288
445.20 1.288
445.30 1.288
445.40 1.287
445.50 1.287
445.60 1.287
445.70 1.287
445.80 1.286
445.90 1.286
446.00 1.286
446.10 1.286
446.20 1.285
446.30 1.285
446.40 1.285
446.50 1.285
446.60 1.284
446.70 1.284
446.80 1.284
446.90 1.283
447.00 1.283
447.10 1.283
447.20 1.282
447.30 1.282
447.40 1.281
447.50 1.281
447.60 1.281
447.70 1.28
447.80 1.28
447.90 1.28
448.00 1.279
448.10 1.279
448.20 1.278
448.30 1.278
448.40 1.277
448.50 1.277
448.60 1.277
448.70 1.276
448.80 1.276
448.90 1.275
449.00 1.275
449.10 1.275
449.20 1.274
449.30 1.274
449.40 1.273
449.50 1.273
449.60 1.272
449.70 1.272
449.80 1.271
449.90 1.271
450.00 1.27
450.10 1.27
450.20 1.269
450.30 1.269
450.40 1.268
450.50 1.268
450.60 1.267
450.70 1.267
450.80 1.266
450.90 1.266
451.00 1.265
451.10 1.265
451.20 1.264
451.30 1.264
451.40 1.263
451.50 1.263
451.60 1.262
451.70 1.262
451.80 1.261
451.90 1.261
452.00 1.26
452.10 1.26
452.20 1.259
452.30 1.259
452.40 1.258
452.50 1.258
452.60 1.257
452.70 1.256
452.80 1.256
452.90 1.255
453.00 1.255
453.10 1.254
453.20 1.254
453.30 1.253
453.40 1.253
453.50 1.252
453.60 1.252
453.70 1.251
453.80 1.251
453.90 1.25
454.00 1.249
454.10 1.249
454.20 1.248
454.30 1.248
454.40 1.247
454.50 1.247
454.60 1.246
454.70 1.246
454.80 1.245
454.90 1.244
455.00 1.244
455.10 1.243
455.20 1.243
455.30 1.242
455.40 1.242
455.50 1.241
455.60 1.241
455.70 1.24
455.80 1.239
455.90 1.239
456.00 1.238
456.10 1.238
456.20 1.237
456.30 1.237
456.40 1.236
456.50 1.235
456.60 1.235
456.70 1.234
456.80 1.234
456.90 1.233
457.00 1.233
457.10 1.232
457.20 1.232
457.30 1.231
457.40 1.23
457.50 1.23
457.60 1.229
457.70 1.229
457.80 1.228
457.90 1.227
458.00 1.227
458.10 1.226
458.20 1.226
458.30 1.225
458.40 1.225
458.50 1.224
458.60 1.223
458.70 1.223
458.80 1.222
458.90 1.222
459.00 1.221
459.10 1.221
459.20 1.22
459.30 1.219
459.40 1.219
459.50 1.218
459.60 1.218
459.70 1.217
459.80 1.216
459.90 1.216
460.00 1.215
460.10 1.215
460.20 1.214
460.30 1.214
460.40 1.213
460.50 1.212
460.60 1.212
460.70 1.211
460.80 1.211
460.90 1.21
461.00 1.209
461.10 1.209
461.20 1.208
461.30 1.208
461.40 1.207
461.50 1.206
461.60 1.206
461.70 1.205
461.80 1.205
461.90 1.204
462.00 1.203
462.10 1.203
462.20 1.202
462.30 1.202
462.40 1.201
462.50 1.2
462.60 1.2
462.70 1.199
462.80 1.199
462.90 1.198
463.00 1.197
463.10 1.197
463.20 1.196
463.30 1.196
463.40 1.195
463.50 1.194
463.60 1.194
463.70 1.193
463.80 1.193
463.90 1.192
464.00 1.191
464.10 1.191
464.20 1.19
464.30 1.189
464.40 1.189
464.50 1.188
464.60 1.188
464.70 1.187
464.80 1.186
464.90 1.186
465.00 1.185
465.10 1.185
465.20 1.184
465.30 1.183
465.40 1.183
465.50 1.182
465.60 1.181
465.70 1.181
465.80 1.18
465.90 1.18
466.00 1.179
466.10 1.178
466.20 1.178
466.30 1.177
466.40 1.176
466.50 1.176
466.60 1.175
466.70 1.175
466.80 1.174
466.90 1.173
467.00 1.173
467.10 1.172
467.20 1.171
467.30 1.171
467.40 1.17
467.50 1.169
467.60 1.169
467.70 1.168
467.80 1.167
467.90 1.167
468.00 1.166
468.10 1.166
468.20 1.165
468.30 1.164
468.40 1.164
468.50 1.163
468.60 1.162
468.70 1.162
468.80 1.161
468.90 1.16
469.00 1.16
469.10 1.159
469.20 1.158
469.30 1.157
469.40 1.157
469.50 1.156
469.60 1.155
469.70 1.155
469.80 1.154
469.90 1.153
470.00 1.153
470.10 1.152
470.20 1.151
470.30 1.151
470.40 1.15
470.50 1.149
470.60 1.148
470.70 1.148
470.80 1.147
470.90 1.146
471.00 1.146
471.10 1.145
471.20 1.144
471.30 1.143
471.40 1.143
471.50 1.142
471.60 1.141
471.70 1.14
471.80 1.14
471.90 1.139
472.00 1.138
472.10 1.137
472.20 1.137
472.30 1.136
472.40 1.135
472.50 1.134
472.60 1.133
472.70 1.133
472.80 1.132
472.90 1.131
473.00 1.13
473.10 1.129
473.20 1.129
473.30 1.128
473.40 1.127
473.50 1.126
473.60 1.125
473.70 1.124
473.80 1.123
473.90 1.123
474.00 1.122
474.10 1.121
474.20 1.12
474.30 1.119
474.40 1.118
474.50 1.117
474.60 1.116
474.70 1.115
474.80 1.114
474.90 1.113
475.00 1.112
475.10 1.111
475.20 1.11
475.30 1.109
475.40 1.108
475.50 1.107
475.60 1.106
475.70 1.105
475.80 1.104
475.90 1.103
476.00 1.102
476.10 1.101
476.20 1.1
476.30 1.098
476.40 1.097
476.50 1.096
476.60 1.095
476.70 1.093
476.80 1.092
476.90 1.091
477.00 1.09
477.10 1.089
477.20 1.087
477.30 1.086
477.40 1.084
477.50 1.083
477.60 1.081
477.70 1.08
477.80 1.079
477.90 1.077
478.00 1.076
478.10 1.074
478.20 1.073
478.30 1.071
478.40 1.069
478.50 1.067
478.60 1.065
478.70 1.064
478.80 1.062
478.90 1.06
479.00 1.058
479.10 1.057
479.20 1.054
479.30 1.052
479.40 1.05
479.50 1.048
479.60 1.045
479.70 1.043
479.80 1.041
479.90 1.039
480.00 1.036
480.10 1.034
480.20 1.031
480.30 1.028
480.40 1.026
480.50 1.023
480.60 1.02
480.70 1.017
480.80 1.014
480.90 1.011
481.00 1.008
481.10 1.005
481.20 1.001
481.30 0.9972
481.40 0.9931
481.50 0.989
481.60 0.9849
481.70 0.9808
481.80 0.9767
481.90 0.9727
482.00 0.9686
482.10 0.9645
482.20 0.9592
482.30 0.9533
482.40 0.9473
482.50 0.9414
482.60 0.9355
482.70 0.9296
482.80 0.9237
482.90 0.9178
483.00 0.9119
483.10 0.906
483.20 0.8977
483.30 0.8883
483.40 0.8788
483.50 0.8694
483.60 0.86
483.70 0.8506
483.80 0.8412
483.90 0.8318
484.00 0.8224
484.10 0.8131
484.20 0.8006
484.30 0.7868
484.40 0.7729
484.50 0.7591
484.60 0.7452
484.70 0.7287
484.80 0.7109
484.90 0.6931
485.00 0.6753
485.10 0.6576
485.20 0.6379
485.30 0.6173
485.40 0.5951
485.50 0.5722
485.60 0.5473
485.70 0.5215
485.80 0.4933
485.90 0.4639
486.00 0.4311
486.10 0.3396
486.20 0.3931
486.30 0.4429
486.40 0.4732
486.50 0.5024
486.60 0.529
486.70 0.5545
486.80 0.5779
486.90 0.6004
487.00 0.6212
487.10 0.6413
487.20 0.6594
487.30 0.6766
487.40 0.6937
487.50 0.7108
487.60 0.728
487.70 0.7423
487.80 0.7554
487.90 0.7685
488.00 0.7815
488.10 0.7945
488.20 0.8045
488.30 0.813
488.40 0.8215
488.50 0.8301
488.60 0.8386
488.70 0.847
488.80 0.8555
488.90 0.864
489.00 0.8725
489.10 0.8809
489.20 0.887
489.30 0.8919
489.40 0.8968
489.50 0.9018
489.60 0.9067
489.70 0.9116
489.80 0.9165
489.90 0.9214
490.00 0.9262
490.10 0.9311
490.20 0.9348
490.30 0.9378
490.40 0.9408
490.50 0.9439
490.60 0.9469
490.70 0.9499
490.80 0.953
490.90 0.956
491.00 0.959
491.10 0.962
491.20 0.9643
491.30 0.9662
491.40 0.968
491.50 0.9699
491.60 0.9718
491.70 0.9736
491.80 0.9755
491.90 0.9773
492.00 0.9792
492.10 0.9811
492.20 0.9824
492.30 0.9836
492.40 0.9848
492.50 0.986
492.60 0.9871
492.70 0.9883
492.80 0.9895
492.90 0.9907
493.00 0.9918
493.10 0.993
493.20 0.9939
493.30 0.9945
493.40 0.9952
493.50 0.9959
493.60 0.9966
493.70 0.9973
493.80 0.998
493.90 0.9987
494.00 0.9994
494.10 1
494.20 1.001
494.30 1.001
494.40 1.001
494.50 1.002
494.60 1.002
494.70 1.002
494.80 1.003
494.90 1.003
495.00 1.003
495.10 1.004
495.20 1.004
495.30 1.004
495.40 1.004
495.50 1.004
495.60 1.005
495.70 1.005
495.80 1.005
495.90 1.005
496.00 1.005
496.10 1.005
496.20 1.005
496.30 1.005
496.40 1.005
496.50 1.005
496.60 1.005
496.70 1.005
496.80 1.005
496.90 1.005
497.00 1.005
497.10 1.005
497.20 1.005
497.30 1.005
497.40 1.005
497.50 1.005
497.60 1.005
497.70 1.005
497.80 1.005
497.90 1.004
498.00 1.004
498.10 1.004
498.20 1.004
498.30 1.004
498.40 1.004
498.50 1.003
498.60 1.003
498.70 1.003
498.80 1.003
498.90 1.003
499.00 1.002
499.10 1.002
499.20 1.002
499.30 1.002
499.40 1.002
499.50 1.001
499.60 1.001
499.70 1.001
499.80 1.001
499.90 1
500.00 1
500.10 0.9997
500.20 0.9995
500.30 0.9992
500.40 0.9989
500.50 0.9986
500.60 0.9983
500.70 0.998
500.80 0.9977
500.90 0.9974
501.00 0.9971
501.10 0.9968
501.20 0.9965
501.30 0.9961
501.40 0.9958
501.50 0.9955
501.60 0.9951
501.70 0.9948
501.80 0.9945
501.90 0.9942
502.00 0.9938
502.10 0.9935
502.20 0.9932
502.30 0.9928
502.40 0.9925
502.50 0.9921
502.60 0.9917
502.70 0.9914
502.80 0.991
502.90 0.9907
503.00 0.9903
503.10 0.99
503.20 0.9896
503.30 0.9892
503.40 0.9889
503.50 0.9885
503.60 0.9881
503.70 0.9878
503.80 0.9874
503.90 0.987
504.00 0.9866
504.10 0.9863
504.20 0.9859
504.30 0.9855
504.40 0.9851
504.50 0.9847
504.60 0.9843
504.70 0.984
504.80 0.9836
504.90 0.9832
505.00 0.9828
505.10 0.9824
505.20 0.982
505.30 0.9816
505.40 0.9812
505.50 0.9808
505.60 0.9804
505.70 0.98
505.80 0.9796
505.90 0.9793
506.00 0.9789
506.10 0.9785
506.20 0.9781
506.30 0.9777
506.40 0.9772
506.50 0.9768
506.60 0.9764
506.70 0.976
506.80 0.9756
506.90 0.9752
507.00 0.9748
507.10 0.9744
507.20 0.974
507.30 0.9736
507.40 0.9732
507.50 0.9728
507.60 0.9724
507.70 0.972
507.80 0.9716
507.90 0.9711
508.00 0.9707
508.10 0.9703
508.20 0.9699
508.30 0.9695
508.40 0.9691
508.50 0.9687
508.60 0.9682
508.70 0.9678
508.80 0.9674
508.90 0.967
509.00 0.9666
509.10 0.9662
509.20 0.9658
509.30 0.9653
509.40 0.9649
509.50 0.9645
509.60 0.9641
509.70 0.9637
509.80 0.9633
509.90 0.9628
510.00 0.9624
510.10 0.962
510.20 0.9616
510.30 0.9612
510.40 0.9607
510.50 0.9603
510.60 0.9599
510.70 0.9595
510.80 0.9591
510.90 0.9586
511.00 0.9582
511.10 0.9578
511.20 0.9574
511.30 0.957
511.40 0.9565
511.50 0.9561
511.60 0.9557
511.70 0.9553
511.80 0.9548
511.90 0.9544
512.00 0.954
512.10 0.9536
512.20 0.9532
512.30 0.9527
512.40 0.9523
512.50 0.9519
512.60 0.9515
512.70 0.9511
512.80 0.9506
512.90 0.9502
513.00 0.9498
513.10 0.9494
513.20 0.9489
513.30 0.9485
513.40 0.9481
513.50 0.9477
513.60 0.9472
513.70 0.9468
513.80 0.9464
513.90 0.946
514.00 0.9456
514.10 0.9451
514.20 0.9447
514.30 0.9443
514.40 0.9439
514.50 0.9434
514.60 0.943
514.70 0.9426
514.80 0.9422
514.90 0.9417
515.00 0.9413
515.10 0.9409
515.20 0.9405
515.30 0.9401
515.40 0.9396
515.50 0.9392
515.60 0.9388
515.70 0.9384
515.80 0.9379
515.90 0.9375
516.00 0.9371
516.10 0.9367
516.20 0.9363
516.30 0.9358
516.40 0.9354
516.50 0.935
516.60 0.9346
516.70 0.9341
516.80 0.9337
516.90 0.9333
517.00 0.9329
517.10 0.9324
517.20 0.932
517.30 0.9316
517.40 0.9312
517.50 0.9308
517.60 0.9304
517.70 0.9299
517.80 0.9295
517.90 0.9291
518.00 0.9287
518.10 0.9283
518.20 0.9278
518.30 0.9274
518.40 0.927
518.50 0.9266
518.60 0.9262
518.70 0.9257
518.80 0.9253
518.90 0.9249
519.00 0.9245
519.10 0.9241
519.20 0.9236
519.30 0.9232
519.40 0.9228
519.50 0.9224
519.60 0.922
519.70 0.9215
519.80 0.9211
519.90 0.9207
520.00 0.9203
520.10 0.9199
520.20 0.9195
520.30 0.919
520.40 0.9186
520.50 0.9182
520.60 0.9178
520.70 0.9174
520.80 0.9169
520.90 0.9165
521.00 0.9161
521.10 0.9157
521.20 0.9153
521.30 0.9149
521.40 0.9144
521.50 0.914
521.60 0.9136
521.70 0.9132
521.80 0.9128
521.90 0.9124
522.00 0.9119
522.10 0.9115
522.20 0.9111
522.30 0.9107
522.40 0.9103
522.50 0.9099
522.60 0.9094
522.70 0.909
522.80 0.9086
522.90 0.9082
523.00 0.9078
523.10 0.9074
523.20 0.907
523.30 0.9065
523.40 0.9061
523.50 0.9057
523.60 0.9053
523.70 0.9049
523.80 0.9045
523.90 0.9041
524.00 0.9037
524.10 0.9033
524.20 0.9028
524.30 0.9024
524.40 0.902
524.50 0.9016
524.60 0.9012
524.70 0.9008
524.80 0.9004
524.90 0.9
525.00 0.8995
525.10 0.8991
525.20 0.8987
525.30 0.8983
525.40 0.8979
525.50 0.8975
525.60 0.8971
525.70 0.8967
525.80 0.8963
525.90 0.8959
526.00 0.8954
526.10 0.895
526.20 0.8946
526.30 0.8942
526.40 0.8938
526.50 0.8934
526.60 0.893
526.70 0.8926
526.80 0.8922
526.90 0.8918
527.00 0.8914
527.10 0.891
527.20 0.8906
527.30 0.8902
527.40 0.8897
527.50 0.8893
527.60 0.8889
527.70 0.8885
527.80 0.8881
527.90 0.8877
528.00 0.8873
528.10 0.8869
528.20 0.8865
528.30 0.8861
528.40 0.8857
528.50 0.8853
528.60 0.8849
528.70 0.8845
528.80 0.8841
528.90 0.8837
529.00 0.8833
529.10 0.8829
529.20 0.8825
529.30 0.8821
529.40 0.8816
529.50 0.8812
529.60 0.8808
529.70 0.8804
529.80 0.88
529.90 0.8796
530.00 0.8792
530.10 0.8788
530.20 0.8784
530.30 0.878
530.40 0.8776
530.50 0.8772
530.60 0.8768
530.70 0.8764
530.80 0.876
530.90 0.8756
531.00 0.8752
531.10 0.8748
531.20 0.8744
531.30 0.874
531.40 0.8736
531.50 0.8732
531.60 0.8728
531.70 0.8724
531.80 0.872
531.90 0.8716
532.00 0.8712
532.10 0.8708
532.20 0.8704
532.30 0.87
532.40 0.8696
532.50 0.8692
532.60 0.8688
532.70 0.8684
532.80 0.8681
532.90 0.8677
533.00 0.8673
533.10 0.8669
533.20 0.8665
533.30 0.8661
533.40 0.8657
533.50 0.8653
533.60 0.8649
533.70 0.8645
533.80 0.8641
533.90 0.8637
534.00 0.8633
534.10 0.8629
534.20 0.8625
534.30 0.8621
534.40 0.8617
534.50 0.8613
534.60 0.8609
534.70 0.8606
534.80 0.8602
534.90 0.8598
535.00 0.8594
535.10 0.859
535.20 0.8586
535.30 0.8582
535.40 0.8578
535.50 0.8574
535.60 0.857
535.70 0.8566
535.80 0.8562
535.90 0.8558
536.00 0.8555
536.10 0.8551
536.20 0.8547
536.30 0.8543
536.40 0.8539
536.50 0.8535
536.60 0.8531
536.70 0.8527
536.80 0.8523
536.90 0.8519
537.00 0.8516
537.10 0.8512
537.20 0.8508
537.30 0.8504
537.40 0.85
537.50 0.8496
537.60 0.8492
537.70 0.8488
537.80 0.8485
537.90 0.8481
538.00 0.8477
538.10 0.8473
538.20 0.8469
538.30 0.8465
538.40 0.8461
538.50 0.8458
538.60 0.8454
538.70 0.845
538.80 0.8446
538.90 0.8442
539.00 0.8438
539.10 0.8434
539.20 0.8431
539.30 0.8427
539.40 0.8423
539.50 0.8419
539.60 0.8415
539.70 0.8411
539.80 0.8407
539.90 0.8404
540.00 0.84
540.10 0.8396
540.20 0.8392
540.30 0.8388
540.40 0.8385
540.50 0.8381
540.60 0.8377
540.70 0.8373
540.80 0.8369
540.90 0.8366
541.00 0.8362
541.10 0.8358
541.20 0.8354
541.30 0.835
541.40 0.8347
541.50 0.8343
541.60 0.8339
541.70 0.8335
541.80 0.8331
541.90 0.8328
542.00 0.8324
542.10 0.832
542.20 0.8316
542.30 0.8312
542.40 0.8309
542.50 0.8305
542.60 0.8301
542.70 0.8297
542.80 0.8293
542.90 0.829
543.00 0.8286
543.10 0.8282
543.20 0.8278
543.30 0.8275
543.40 0.8271
543.50 0.8267
543.60 0.8263
543.70 0.826
543.80 0.8256
543.90 0.8252
544.00 0.8248
544.10 0.8245
544.20 0.8241
544.30 0.8237
544.40 0.8233
544.50 0.823
544.60 0.8226
544.70 0.8222
544.80 0.8218
544.90 0.8215
545.00 0.8211
545.10 0.8207
545.20 0.8203
545.30 0.82
545.40 0.8196
545.50 0.8192
545.60 0.8189
545.70 0.8185
545.80 0.8181
545.90 0.8177
546.00 0.8174
546.10 0.817
546.20 0.8166
546.30 0.8163
546.40 0.8159
546.50 0.8156
546.60 0.8152
546.70 0.8149
546.80 0.8145
546.90 0.8142
547.00 0.8138
547.10 0.8134
547.20 0.8131
547.30 0.8127
547.40 0.8123
547.50 0.812
547.60 0.8116
547.70 0.8112
547.80 0.8109
547.90 0.8105
548.00 0.8101
548.10 0.8098
548.20 0.8094
548.30 0.809
548.40 0.8087
548.50 0.8083
548.60 0.8079
548.70 0.8076
548.80 0.8072
548.90 0.8068
549.00 0.8065
549.10 0.8061
549.20 0.8057
549.30 0.8054
549.40 0.805
549.50 0.8046
549.60 0.8043
549.70 0.8039
549.80 0.8035
549.90 0.8032
550.00 0.8028
550.10 0.8024
550.20 0.8021
550.30 0.8017
550.40 0.8013
550.50 0.801
550.60 0.8006
550.70 0.8002
550.80 0.7999
550.90 0.7995
551.00 0.7992
551.10 0.7988
551.20 0.7984
551.30 0.7981
551.40 0.7977
551.50 0.7973
551.60 0.797
551.70 0.7966
551.80 0.7963
551.90 0.7959
552.00 0.7955
552.10 0.7952
552.20 0.7948
552.30 0.7945
552.40 0.7941
552.50 0.7937
552.60 0.7934
552.70 0.793
552.80 0.7927
552.90 0.7923
553.00 0.7919
553.10 0.7916
553.20 0.7912
553.30 0.7909
553.40 0.7905
553.50 0.7902
553.60 0.7898
553.70 0.7894
553.80 0.7891
553.90 0.7887
554.00 0.7884
554.10 0.788
554.20 0.7877
554.30 0.7873
554.40 0.7869
554.50 0.7866
554.60 0.7862
554.70 0.7859
554.80 0.7855
554.90 0.7852
555.00 0.7848
555.10 0.7844
555.20 0.7841
555.30 0.7837
555.40 0.7834
555.50 0.783
555.60 0.7827
555.70 0.7823
555.80 0.782
555.90 0.7816
556.00 0.7813
556.10 0.7809
556.20 0.7806
556.30 0.7802
556.40 0.7798
556.50 0.7795
556.60 0.7791
556.70 0.7788
556.80 0.7784
556.90 0.7781
557.00 0.7777
557.10 0.7774
557.20 0.777
557.30 0.7767
557.40 0.7763
557.50 0.776
557.60 0.7756
557.70 0.7753
557.80 0.7749
557.90 0.7746
558.00 0.7742
558.10 0.7739
558.20 0.7735
558.30 0.7732
558.40 0.7728
558.50 0.7725
558.60 0.7721
558.70 0.7718
558.80 0.7714
558.90 0.7711
559.00 0.7707
559.10 0.7704
559.20 0.7701
559.30 0.7697
559.40 0.7694
559.50 0.769
559.60 0.7687
559.70 0.7683
559.80 0.768
559.90 0.7676
560.00 0.7673
560.10 0.7669
560.20 0.7666
560.30 0.7662
560.40 0.7659
560.50 0.7656
560.60 0.7652
560.70 0.7649
560.80 0.7645
560.90 0.7642
561.00 0.7638
561.10 0.7635
561.20 0.7631
561.30 0.7628
561.40 0.7625
561.50 0.7621
561.60 0.7618
561.70 0.7614
561.80 0.7611
561.90 0.7607
562.00 0.7604
562.10 0.7601
562.20 0.7597
562.30 0.7594
562.40 0.759
562.50 0.7587
562.60 0.7583
562.70 0.758
562.80 0.7577
562.90 0.7573
563.00 0.757
563.10 0.7566
563.20 0.7563
563.30 0.756
563.40 0.7556
563.50 0.7553
563.60 0.7549
563.70 0.7546
563.80 0.7543
563.90 0.7539
564.00 0.7536
564.10 0.7533
564.20 0.7529
564.30 0.7526
564.40 0.7522
564.50 0.7519
564.60 0.7516
564.70 0.7512
564.80 0.7509
564.90 0.7505
565.00 0.7502
565.10 0.7499
565.20 0.7495
565.30 0.7492
565.40 0.7489
565.50 0.7485
565.60 0.7482
565.70 0.7479
565.80 0.7475
565.90 0.7472
566.00 0.7468
566.10 0.7465
566.20 0.7462
566.30 0.7458
566.40 0.7455
566.50 0.7452
566.60 0.7448
566.70 0.7445
566.80 0.7442
566.90 0.7438
567.00 0.7435
567.10 0.7432
567.20 0.7428
567.30 0.7425
567.40 0.7422
567.50 0.7418
567.60 0.7415
567.70 0.7412
567.80 0.7408
567.90 0.7405
568.00 0.7402
568.10 0.7398
568.20 0.7395
568.30 0.7392
568.40 0.7388
568.50 0.7385
568.60 0.7382
568.70 0.7379
568.80 0.7375
568.90 0.7372
569.00 0.7369
569.10 0.7365
569.20 0.7362
569.30 0.7359
569.40 0.7355
569.50 0.7352
569.60 0.7349
569.70 0.7346
569.80 0.7342
569.90 0.7339
570.00 0.7336
570.10 0.7332
570.20 0.7329
570.30 0.7326
570.40 0.7323
570.50 0.7319
570.60 0.7316
570.70 0.7313
570.80 0.731
570.90 0.7306
571.00 0.7303
571.10 0.73
571.20 0.7297
571.30 0.7293
571.40 0.729
571.50 0.7287
571.60 0.7283
571.70 0.728
571.80 0.7277
571.90 0.7274
572.00 0.727
572.10 0.7267
572.20 0.7264
572.30 0.7261
572.40 0.7258
572.50 0.7254
572.60 0.7251
572.70 0.7248
572.80 0.7245
572.90 0.7241
573.00 0.7238
573.10 0.7235
573.20 0.7232
573.30 0.7228
573.40 0.7225
573.50 0.7222
573.60 0.7219
573.70 0.7216
573.80 0.7212
573.90 0.7209
574.00 0.7206
574.10 0.7203
574.20 0.7199
574.30 0.7196
574.40 0.7193
574.50 0.719
574.60 0.7187
574.70 0.7183
574.80 0.718
574.90 0.7177
575.00 0.7174
575.10 0.7171
575.20 0.7167
575.30 0.7164
575.40 0.7161
575.50 0.7158
575.60 0.7155
575.70 0.7151
575.80 0.7148
575.90 0.7145
576.00 0.7142
576.10 0.7139
576.20 0.7136
576.30 0.7132
576.40 0.7129
576.50 0.7126
576.60 0.7123
576.70 0.712
576.80 0.7117
576.90 0.7113
577.00 0.711
577.10 0.7107
577.20 0.7104
577.30 0.7101
577.40 0.7098
577.50 0.7094
577.60 0.7091
577.70 0.7088
577.80 0.7085
577.90 0.7082
578.00 0.7079
578.10 0.7075
578.20 0.7072
578.30 0.7069
578.40 0.7066
578.50 0.7063
578.60 0.706
578.70 0.7057
578.80 0.7053
578.90 0.705
579.00 0.7047
579.10 0.7044
579.20 0.7041
579.30 0.7038
579.40 0.7035
579.50 0.7032
579.60 0.7028
579.70 0.7025
579.80 0.7022
579.90 0.7019
580.00 0.7016
580.10 0.7013
580.20 0.701
580.30 0.7007
580.40 0.7003
580.50 0.7
580.60 0.6997
580.70 0.6994
580.80 0.6991
580.90 0.6988
581.00 0.6985
581.10 0.6982
581.20 0.6979
581.30 0.6976
581.40 0.6973
581.50 0.6969
581.60 0.6966
581.70 0.6963
581.80 0.696
581.90 0.6957
582.00 0.6954
582.10 0.6951
582.20 0.6948
582.30 0.6945
582.40 0.6942
582.50 0.6939
582.60 0.6936
582.70 0.6932
582.80 0.6929
582.90 0.6926
583.00 0.6923
583.10 0.692
583.20 0.6917
583.30 0.6914
583.40 0.6911
583.50 0.6908
583.60 0.6905
583.70 0.6902
583.80 0.6899
583.90 0.6896
584.00 0.6893
584.10 0.689
584.20 0.6887
584.30 0.6884
584.40 0.688
584.50 0.6877
584.60 0.6874
584.70 0.6871
584.80 0.6868
584.90 0.6865
585.00 0.6862
585.10 0.6859
585.20 0.6856
585.30 0.6853
585.40 0.685
585.50 0.6847
585.60 0.6844
585.70 0.6841
585.80 0.6838
585.90 0.6835
586.00 0.6832
586.10 0.6829
586.20 0.6826
586.30 0.6823
586.40 0.682
586.50 0.6817
586.60 0.6814
586.70 0.6811
586.80 0.6808
586.90 0.6805
587.00 0.6802
587.10 0.6799
587.20 0.6796
587.30 0.6793
587.40 0.679
587.50 0.6787
587.60 0.6784
587.70 0.6781
587.80 0.6778
587.90 0.6775
588.00 0.6772
588.10 0.6769
588.20 0.6766
588.30 0.6763
588.40 0.676
588.50 0.6757
588.60 0.6754
588.70 0.6751
588.80 0.6748
588.90 0.6745
589.00 0.6742
589.10 0.6739
589.20 0.6736
589.30 0.6733
589.40 0.673
589.50 0.6727
589.60 0.6724
589.70 0.6721
589.80 0.6718
589.90 0.6715
590.00 0.6712
590.10 0.671
590.20 0.6707
590.30 0.6704
590.40 0.6701
590.50 0.6698
590.60 0.6695
590.70 0.6692
590.80 0.6689
590.90 0.6686
591.00 0.6683
591.10 0.668
591.20 0.6677
591.30 0.6674
591.40 0.6671
591.50 0.6668
591.60 0.6665
591.70 0.6662
591.80 0.6659
591.90 0.6656
592.00 0.6654
592.10 0.6651
592.20 0.6648
592.30 0.6645
592.40 0.6642
592.50 0.6639
592.60 0.6636
592.70 0.6633
592.80 0.663
592.90 0.6627
593.00 0.6624
593.10 0.6621
593.20 0.6618
593.30 0.6616
593.40 0.6613
593.50 0.661
593.60 0.6607
593.70 0.6604
593.80 0.6601
593.90 0.6598
594.00 0.6595
594.10 0.6592
594.20 0.659
594.30 0.6587
594.40 0.6584
594.50 0.6581
594.60 0.6578
594.70 0.6575
594.80 0.6572
594.90 0.6569
595.00 0.6566
595.10 0.6564
595.20 0.6561
595.30 0.6558
595.40 0.6555
595.50 0.6552
595.60 0.6549
595.70 0.6546
595.80 0.6543
595.90 0.6541
596.00 0.6538
596.10 0.6535
596.20 0.6532
596.30 0.6529
596.40 0.6525
596.50 0.6522
596.60 0.6519
596.70 0.6516
596.80 0.6512
596.90 0.6509
597.00 0.6506
597.10 0.6503
597.20 0.65
597.30 0.6497
597.40 0.6494
597.50 0.6491
597.60 0.6488
597.70 0.6486
597.80 0.6483
597.90 0.648
598.00 0.6477
598.10 0.6474
598.20 0.6471
598.30 0.6468
598.40 0.6466
598.50 0.6463
598.60 0.646
598.70 0.6457
598.80 0.6454
598.90 0.6451
599.00 0.6449
599.10 0.6446
599.20 0.6443
599.30 0.644
599.40 0.6437
599.50 0.6434
599.60 0.6432
599.70 0.6429
599.80 0.6426
599.90 0.6423
600.00 0.642
600.10 0.6418
600.20 0.6415
600.30 0.6412
600.40 0.6409
600.50 0.6406
600.60 0.6403
600.70 0.6401
600.80 0.6398
600.90 0.6395
601.00 0.6392
601.10 0.6389
601.20 0.6387
601.30 0.6384
601.40 0.6381
601.50 0.6378
601.60 0.6375
601.70 0.6372
601.80 0.637
601.90 0.6367
602.00 0.6364
602.10 0.6361
602.20 0.6359
602.30 0.6356
602.40 0.6353
602.50 0.635
602.60 0.6347
602.70 0.6345
602.80 0.6342
602.90 0.6339
603.00 0.6336
603.10 0.6333
603.20 0.6331
603.30 0.6328
603.40 0.6325
603.50 0.6322
603.60 0.632
603.70 0.6317
603.80 0.6314
603.90 0.6311
604.00 0.6308
604.10 0.6306
604.20 0.6303
604.30 0.63
604.40 0.6297
604.50 0.6295
604.60 0.6292
604.70 0.6289
604.80 0.6286
604.90 0.6284
605.00 0.6281
605.10 0.6278
605.20 0.6275
605.30 0.6273
605.40 0.627
605.50 0.6267
605.60 0.6264
605.70 0.6262
605.80 0.6259
605.90 0.6256
606.00 0.6253
606.10 0.6251
606.20 0.6248
606.30 0.6245
606.40 0.6243
606.50 0.624
606.60 0.6237
606.70 0.6234
606.80 0.6232
606.90 0.6229
607.00 0.6226
607.10 0.6223
607.20 0.6221
607.30 0.6218
607.40 0.6215
607.50 0.6212
607.60 0.621
607.70 0.6207
607.80 0.6204
607.90 0.6202
608.00 0.6199
608.10 0.6196
608.20 0.6193
608.30 0.6191
608.40 0.6188
608.50 0.6185
608.60 0.6183
608.70 0.618
608.80 0.6177
608.90 0.6174
609.00 0.6172
609.10 0.6169
609.20 0.6166
609.30 0.6164
609.40 0.6161
609.50 0.6158
609.60 0.6156
609.70 0.6153
609.80 0.615
609.90 0.6147
610.00 0.6145
610.10 0.6142
610.20 0.6139
610.30 0.6137
610.40 0.6134
610.50 0.6131
610.60 0.6129
610.70 0.6126
610.80 0.6123
610.90 0.6121
611.00 0.6118
611.10 0.6115
611.20 0.6113
611.30 0.611
611.40 0.6107
611.50 0.6105
611.60 0.6102
611.70 0.6099
611.80 0.6097
611.90 0.6094
612.00 0.6091
612.10 0.6089
612.20 0.6086
612.30 0.6083
612.40 0.6081
612.50 0.6078
612.60 0.6075
612.70 0.6073
612.80 0.607
612.90 0.6067
613.00 0.6065
613.10 0.6062
613.20 0.6059
613.30 0.6057
613.40 0.6054
613.50 0.6051
613.60 0.6049
613.70 0.6046
613.80 0.6043
613.90 0.6041
614.00 0.6038
614.10 0.6035
614.20 0.6033
614.30 0.603
614.40 0.6027
614.50 0.6025
614.60 0.6022
614.70 0.602
614.80 0.6017
614.90 0.6014
615.00 0.6012
615.10 0.6009
615.20 0.6006
615.30 0.6004
615.40 0.6001
615.50 0.5998
615.60 0.5996
615.70 0.5993
615.80 0.5991
615.90 0.5988
616.00 0.5985
616.10 0.5983
616.20 0.598
616.30 0.5978
616.40 0.5975
616.50 0.5972
616.60 0.597
616.70 0.5967
616.80 0.5964
616.90 0.5962
617.00 0.5959
617.10 0.5957
617.20 0.5954
617.30 0.5951
617.40 0.5949
617.50 0.5946
617.60 0.5944
617.70 0.5941
617.80 0.5938
617.90 0.5936
618.00 0.5933
618.10 0.593
618.20 0.5928
618.30 0.5925
618.40 0.5923
618.50 0.592
618.60 0.5917
618.70 0.5915
618.80 0.5912
618.90 0.591
619.00 0.5907
619.10 0.5904
619.20 0.5902
619.30 0.5899
619.40 0.5897
619.50 0.5894
619.60 0.5891
619.70 0.5889
619.80 0.5886
619.90 0.5884
620.00 0.5881
620.10 0.5878
620.20 0.5876
620.30 0.5873
620.40 0.5871
620.50 0.5868
620.60 0.5866
620.70 0.5863
620.80 0.586
620.90 0.5858
621.00 0.5855
621.10 0.5853
621.20 0.585
621.30 0.5848
621.40 0.5845
621.50 0.5842
621.60 0.584
621.70 0.5837
621.80 0.5835
621.90 0.5832
622.00 0.5829
622.10 0.5827
622.20 0.5824
622.30 0.5822
622.40 0.5819
622.50 0.5817
622.60 0.5814
622.70 0.5811
622.80 0.5809
622.90 0.5806
623.00 0.5804
623.10 0.5801
623.20 0.5799
623.30 0.5796
623.40 0.5794
623.50 0.5791
623.60 0.5788
623.70 0.5786
623.80 0.5783
623.90 0.5781
624.00 0.5778
624.10 0.5776
624.20 0.5773
624.30 0.577
624.40 0.5768
624.50 0.5765
624.60 0.5763
624.70 0.576
624.80 0.5758
624.90 0.5755
625.00 0.5753
625.10 0.575
625.20 0.5747
625.30 0.5745
625.40 0.5742
625.50 0.574
625.60 0.5737
625.70 0.5735
625.80 0.5732
625.90 0.573
626.00 0.5727
626.10 0.5724
626.20 0.5722
626.30 0.5719
626.40 0.5717
626.50 0.5714
626.60 0.5712
626.70 0.5709
626.80 0.5707
626.90 0.5704
627.00 0.5702
627.10 0.5699
627.20 0.5696
627.30 0.5694
627.40 0.5691
627.50 0.5689
627.60 0.5686
627.70 0.5684
627.80 0.5681
627.90 0.5679
628.00 0.5676
628.10 0.5673
628.20 0.5671
628.30 0.5668
628.40 0.5666
628.50 0.5663
628.60 0.5661
628.70 0.5658
628.80 0.5656
628.90 0.5653
629.00 0.5651
629.10 0.5648
629.20 0.5645
629.30 0.5643
629.40 0.564
629.50 0.5638
629.60 0.5635
629.70 0.5633
629.80 0.563
629.90 0.5628
630.00 0.5625
630.10 0.5622
630.20 0.562
630.30 0.5617
630.40 0.5615
630.50 0.5612
630.60 0.561
630.70 0.5607
630.80 0.5605
630.90 0.5602
631.00 0.5599
631.10 0.5597
631.20 0.5594
631.30 0.5592
631.40 0.5589
631.50 0.5587
631.60 0.5584
631.70 0.5581
631.80 0.5579
631.90 0.5576
632.00 0.5574
632.10 0.5571
632.20 0.5569
632.30 0.5566
632.40 0.5563
632.50 0.5561
632.60 0.5558
632.70 0.5556
632.80 0.5553
632.90 0.555
633.00 0.5548
633.10 0.5545
633.20 0.5543
633.30 0.554
633.40 0.5537
633.50 0.5535
633.60 0.5532
633.70 0.553
633.80 0.5527
633.90 0.5524
634.00 0.5522
634.10 0.5519
634.20 0.5517
634.30 0.5514
634.40 0.5511
634.50 0.5509
634.60 0.5506
634.70 0.5504
634.80 0.5501
634.90 0.5498
635.00 0.5496
635.10 0.5493
635.20 0.549
635.30 0.5488
635.40 0.5485
635.50 0.5482
635.60 0.548
635.70 0.5477
635.80 0.5474
635.90 0.5472
636.00 0.5469
636.10 0.5466
636.20 0.5464
636.30 0.5461
636.40 0.5458
636.50 0.5456
636.60 0.5453
636.70 0.545
636.80 0.5447
636.90 0.5445
637.00 0.5442
637.10 0.5439
637.20 0.5437
637.30 0.5434
637.40 0.5431
637.50 0.5428
637.60 0.5426
637.70 0.5423
637.80 0.542
637.90 0.5417
638.00 0.5414
638.10 0.5412
638.20 0.5409
638.30 0.5406
638.40 0.5403
638.50 0.54
638.60 0.5398
638.70 0.5395
638.80 0.5392
638.90 0.5389
639.00 0.5386
639.10 0.5383
639.20 0.5381
639.30 0.5378
639.40 0.5375
639.50 0.5372
639.60 0.5369
639.70 0.5366
639.80 0.5363
639.90 0.536
640.00 0.5357
640.10 0.5354
640.20 0.5351
640.30 0.5348
640.40 0.5345
640.50 0.5342
640.60 0.5339
640.70 0.5336
640.80 0.5333
640.90 0.533
641.00 0.5327
641.10 0.5324
641.20 0.5321
641.30 0.5318
641.40 0.5315
641.50 0.5311
641.60 0.5308
641.70 0.5305
641.80 0.5302
641.90 0.5299
642.00 0.5295
642.10 0.5292
642.20 0.5289
642.30 0.5286
642.40 0.5282
642.50 0.5279
642.60 0.5276
642.70 0.5272
642.80 0.5269
642.90 0.5265
643.00 0.5262
643.10 0.5259
643.20 0.5255
643.30 0.5252
643.40 0.5248
643.50 0.5245
643.60 0.5241
643.70 0.5237
643.80 0.5234
643.90 0.523
644.00 0.5226
644.10 0.5223
644.20 0.5219
644.30 0.5215
644.40 0.5211
644.50 0.5207
644.60 0.5203
644.70 0.5199
644.80 0.5195
644.90 0.5191
645.00 0.5187
645.10 0.5183
645.20 0.5179
645.30 0.5175
645.40 0.517
645.50 0.5166
645.60 0.5161
645.70 0.5157
645.80 0.5153
645.90 0.5148
646.00 0.5144
646.10 0.5139
646.20 0.5135
646.30 0.513
646.40 0.5125
646.50 0.512
646.60 0.5115
646.70 0.511
646.80 0.5104
646.90 0.5099
647.00 0.5094
647.10 0.5089
647.20 0.5084
647.30 0.5079
647.40 0.5073
647.50 0.5067
647.60 0.5061
647.70 0.5055
647.80 0.5049
647.90 0.5043
648.00 0.5037
648.10 0.5031
648.20 0.5025
648.30 0.5019
648.40 0.5011
648.50 0.5004
648.60 0.4997
648.70 0.4989
648.80 0.4982
648.90 0.4975
649.00 0.4968
649.10 0.496
649.20 0.4953
649.30 0.4945
649.40 0.4936
649.50 0.4927
649.60 0.4917
649.70 0.4908
649.80 0.4899
649.90 0.489
650.00 0.488
650.10 0.4871
650.20 0.4862
650.30 0.4852
650.40 0.484
650.50 0.4829
650.60 0.4817
650.70 0.4805
650.80 0.4794
650.90 0.4782
651.00 0.477
651.10 0.4759
651.20 0.4747
651.30 0.4734
651.40 0.4718
651.50 0.4702
651.60 0.4686
651.70 0.467
651.80 0.4654
651.90 0.4637
652.00 0.4621
652.10 0.4605
652.20 0.4589
652.30 0.4571
652.40 0.4548
652.50 0.4524
652.60 0.4501
652.70 0.4477
652.80 0.4454
652.90 0.443
653.00 0.4407
653.10 0.4383
653.20 0.436
653.30 0.4334
653.40 0.4298
653.50 0.4263
653.60 0.4227
653.70 0.4192
653.80 0.4156
653.90 0.4121
654.00 0.4085
654.10 0.405
654.20 0.4014
654.30 0.3976
654.40 0.3927
654.50 0.3879
654.60 0.383
654.70 0.3781
654.80 0.373
654.90 0.3669
655.00 0.3608
655.10 0.3547
655.20 0.3486
655.30 0.3424
655.40 0.3355
655.50 0.3284
655.60 0.3206
655.70 0.3126
655.80 0.3038
655.90 0.2946
656.00 0.284
656.10 0.2729
656.20 0.2456
656.30 0.2083
656.40 0.2624
656.50 0.277
656.60 0.2875
656.70 0.2976
656.80 0.3062
656.90 0.3145
657.00 0.3221
657.10 0.3295
657.20 0.3362
657.30 0.3426
657.40 0.3484
657.50 0.3542
657.60 0.36
657.70 0.3657
657.80 0.3713
657.90 0.3758
658.00 0.3804
658.10 0.3849
658.20 0.3894
658.30 0.3937
658.40 0.3969
658.50 0.4001
658.60 0.4032
658.70 0.4064
658.80 0.4096
658.90 0.4127
659.00 0.4159
659.10 0.419
659.20 0.4222
659.30 0.4251
659.40 0.427
659.50 0.429
659.60 0.4309
659.70 0.4329
659.80 0.4348
659.90 0.4367
660.00 0.4387
660.10 0.4406
660.20 0.4425
660.30 0.4443
660.40 0.4455
660.50 0.4467
660.60 0.4479
660.70 0.4491
660.80 0.4503
660.90 0.4514
661.00 0.4526
661.10 0.4538
661.20 0.455
661.30 0.4561
661.40 0.4568
661.50 0.4576
661.60 0.4583
661.70 0.459
661.80 0.4597
661.90 0.4605
662.00 0.4612
662.10 0.4619
662.20 0.4627
662.30 0.4633
662.40 0.4638
662.50 0.4643
662.60 0.4648
662.70 0.4653
662.80 0.4658
662.90 0.4663
663.00 0.4668
663.10 0.4672
663.20 0.4677
663.30 0.4682
663.40 0.4685
663.50 0.4687
663.60 0.469
663.70 0.4693
663.80 0.4696
663.90 0.4699
664.00 0.4702
664.10 0.4704
664.20 0.4707
664.30 0.471
664.40 0.4711
664.50 0.4713
664.60 0.4715
664.70 0.4716
664.80 0.4718
664.90 0.4719
665.00 0.4721
665.10 0.4723
665.20 0.4724
665.30 0.4726
665.40 0.4726
665.50 0.4727
665.60 0.4728
665.70 0.4728
665.80 0.4729
665.90 0.473
666.00 0.473
666.10 0.4731
666.20 0.4732
666.30 0.4732
666.40 0.4732
666.50 0.4732
666.60 0.4733
666.70 0.4733
666.80 0.4733
666.90 0.4733
667.00 0.4733
667.10 0.4733
667.20 0.4733
667.30 0.4733
667.40 0.4733
667.50 0.4732
667.60 0.4732
667.70 0.4731
667.80 0.4731
667.90 0.4731
668.00 0.473
668.10 0.473
668.20 0.473
668.30 0.4729
668.40 0.4728
668.50 0.4728
668.60 0.4727
668.70 0.4726
668.80 0.4726
668.90 0.4725
669.00 0.4724
669.10 0.4723
669.20 0.4723
669.30 0.4722
669.40 0.4721
669.50 0.472
669.60 0.4719
669.70 0.4718
669.80 0.4717
669.90 0.4716
670.00 0.4715
670.10 0.4714
670.20 0.4713
670.30 0.4712
670.40 0.4711
670.50 0.471
670.60 0.4709
670.70 0.4708
670.80 0.4706
670.90 0.4705
671.00 0.4704
671.10 0.4703
671.20 0.4702
671.30 0.4701
671.40 0.4699
671.50 0.4698
671.60 0.4697
671.70 0.4696
671.80 0.4694
671.90 0.4693
672.00 0.4692
672.10 0.469
672.20 0.4689
672.30 0.4688
672.40 0.4686
672.50 0.4685
672.60 0.4684
672.70 0.4682
672.80 0.4681
672.90 0.4679
673.00 0.4678
673.10 0.4676
673.20 0.4675
673.30 0.4674
673.40 0.4672
673.50 0.4671
673.60 0.4669
673.70 0.4668
673.80 0.4666
673.90 0.4665
674.00 0.4663
674.10 0.4662
674.20 0.466
674.30 0.4659
674.40 0.4657
674.50 0.4656
674.60 0.4654
674.70 0.4653
674.80 0.4651
674.90 0.4649
675.00 0.4648
675.10 0.4646
675.20 0.4645
675.30 0.4643
675.40 0.4642
675.50 0.464
675.60 0.4638
675.70 0.4637
675.80 0.4635
675.90 0.4634
676.00 0.4632
676.10 0.463
676.20 0.4629
676.30 0.4627
676.40 0.4626
676.50 0.4624
676.60 0.4622
676.70 0.4621
676.80 0.4619
676.90 0.4617
677.00 0.4616
677.10 0.4614
677.20 0.4612
677.30 0.4611
677.40 0.4609
677.50 0.4607
677.60 0.4606
677.70 0.4604
677.80 0.4602
677.90 0.4601
678.00 0.4599
678.10 0.4597
678.20 0.4596
678.30 0.4594
678.40 0.4592
678.50 0.4591
678.60 0.4589
678.70 0.4587
678.80 0.4586
678.90 0.4584
679.00 0.4582
679.10 0.4581
679.20 0.4579
679.30 0.4577
679.40 0.4575
679.50 0.4574
679.60 0.4572
679.70 0.457
679.80 0.4569
679.90 0.4567
680.00 0.4565
680.10 0.4563
680.20 0.4562
680.30 0.456
680.40 0.4558
680.50 0.4557
680.60 0.4555
680.70 0.4553
680.80 0.4551
680.90 0.455
681.00 0.4548
681.10 0.4546
681.20 0.4544
681.30 0.4543
681.40 0.4541
681.50 0.4539
681.60 0.4537
681.70 0.4536
681.80 0.4534
681.90 0.4532
682.00 0.4531
682.10 0.4529
682.20 0.4527
682.30 0.4525
682.40 0.4524
682.50 0.4522
682.60 0.452
682.70 0.4518
682.80 0.4517
682.90 0.4515
683.00 0.4513
683.10 0.4511
683.20 0.451
683.30 0.4508
683.40 0.4506
683.50 0.4504
683.60 0.4503
683.70 0.4501
683.80 0.4499
683.90 0.4497
684.00 0.4496
684.10 0.4494
684.20 0.4492
684.30 0.449
684.40 0.4489
684.50 0.4487
684.60 0.4485
684.70 0.4483
684.80 0.4482
684.90 0.448
685.00 0.4478
685.10 0.4477
685.20 0.4475
685.30 0.4473
685.40 0.4471
685.50 0.447
685.60 0.4468
685.70 0.4466
685.80 0.4464
685.90 0.4462
686.00 0.4461
686.10 0.4459
686.20 0.4457
686.30 0.4455
686.40 0.4454
686.50 0.4452
686.60 0.445
686.70 0.4449
686.80 0.4447
686.90 0.4445
687.00 0.4443
687.10 0.4442
687.20 0.444
687.30 0.4438
687.40 0.4436
687.50 0.4435
687.60 0.4433
687.70 0.4431
687.80 0.4429
687.90 0.4428
688.00 0.4426
688.10 0.4424
688.20 0.4422
688.30 0.4421
688.40 0.4419
688.50 0.4417
688.60 0.4415
688.70 0.4414
688.80 0.4412
688.90 0.441
689.00 0.4408
689.10 0.4407
689.20 0.4405
689.30 0.4403
689.40 0.4401
689.50 0.44
689.60 0.4398
689.70 0.4396
689.80 0.4394
689.90 0.4393
690.00 0.4391
690.10 0.4389
690.20 0.4387
690.30 0.4386
690.40 0.4384
690.50 0.4382
690.60 0.438
690.70 0.4379
690.80 0.4377
690.90 0.4375
691.00 0.4373
691.10 0.4372
691.20 0.437
691.30 0.4368
691.40 0.4366
691.50 0.4365
691.60 0.4363
691.70 0.4361
691.80 0.4359
691.90 0.4358
692.00 0.4356
692.10 0.4354
692.20 0.4353
692.30 0.4351
692.40 0.4349
692.50 0.4347
692.60 0.4346
692.70 0.4344
692.80 0.4342
692.90 0.434
693.00 0.4339
693.10 0.4337
693.20 0.4335
693.30 0.4333
693.40 0.4332
693.50 0.433
693.60 0.4328
693.70 0.4327
693.80 0.4325
693.90 0.4323
694.00 0.4321
694.10 0.432
694.20 0.4318
694.30 0.4316
694.40 0.4315
694.50 0.4313
694.60 0.4311
694.70 0.4309
694.80 0.4308
694.90 0.4306
695.00 0.4304
695.10 0.4303
695.20 0.4301
695.30 0.4299
695.40 0.4297
695.50 0.4296
695.60 0.4294
695.70 0.4292
695.80 0.4291
695.90 0.4289
696.00 0.4287
696.10 0.4286
696.20 0.4284
696.30 0.4282
696.40 0.428
696.50 0.4279
696.60 0.4277
696.70 0.4275
696.80 0.4274
696.90 0.4272
697.00 0.427
697.10 0.4269
697.20 0.4267
697.30 0.4265
697.40 0.4263
697.50 0.4262
697.60 0.426
697.70 0.4258
697.80 0.4257
697.90 0.4255
698.00 0.4253
698.10 0.4252
698.20 0.425
698.30 0.4248
698.40 0.4247
698.50 0.4245
698.60 0.4243
698.70 0.4242
698.80 0.424
698.90 0.4238
699.00 0.4236
699.10 0.4235
699.20 0.4233
699.30 0.4231
699.40 0.423
699.50 0.4228
699.60 0.4226
699.70 0.4225
699.80 0.4223
699.90 0.4221
700.00 0.422
700.10 0.4218
700.20 0.4217
700.30 0.4216
700.40 0.4214
700.50 0.4213
700.60 0.4211
700.70 0.421
700.80 0.4209
700.90 0.4207
701.00 0.4206
701.10 0.4205
701.20 0.4203
701.30 0.4202
701.40 0.42
701.50 0.4199
701.60 0.4198
701.70 0.4196
701.80 0.4195
701.90 0.4194
702.00 0.4192
702.10 0.4191
702.20 0.419
702.30 0.4188
702.40 0.4187
702.50 0.4185
702.60 0.4184
702.70 0.4183
702.80 0.4181
702.90 0.418
703.00 0.4179
703.10 0.4177
703.20 0.4176
703.30 0.4175
703.40 0.4173
703.50 0.4172
703.60 0.417
703.70 0.4169
703.80 0.4168
703.90 0.4166
704.00 0.4165
704.10 0.4164
704.20 0.4162
704.30 0.4161
704.40 0.416
704.50 0.4158
704.60 0.4157
704.70 0.4156
704.80 0.4154
704.90 0.4153
705.00 0.4152
705.10 0.415
705.20 0.4148
705.30 0.4147
705.40 0.4145
705.50 0.4143
705.60 0.4142
705.70 0.414
705.80 0.4138
705.90 0.4137
706.00 0.4135
706.10 0.4133
706.20 0.4132
706.30 0.413
706.40 0.4128
706.50 0.4127
706.60 0.4125
706.70 0.4124
706.80 0.4122
706.90 0.412
707.00 0.4119
707.10 0.4117
707.20 0.4115
707.30 0.4114
707.40 0.4112
707.50 0.411
707.60 0.4109
707.70 0.4107
707.80 0.4105
707.90 0.4104
708.00 0.4102
708.10 0.4101
708.20 0.4099
708.30 0.4097
708.40 0.4096
708.50 0.4094
708.60 0.4092
708.70 0.4091
708.80 0.4089
708.90 0.4088
709.00 0.4086
709.10 0.4084
709.20 0.4083
709.30 0.4081
709.40 0.4079
709.50 0.4078
709.60 0.4076
709.70 0.4075
709.80 0.4073
709.90 0.4071
710.00 0.407
710.10 0.4068
710.20 0.4066
710.30 0.4065
710.40 0.4063
710.50 0.4062
710.60 0.406
710.70 0.4058
710.80 0.4057
710.90 0.4055
711.00 0.4054
711.10 0.4052
711.20 0.405
711.30 0.4049
711.40 0.4047
711.50 0.4046
711.60 0.4044
711.70 0.4042
711.80 0.4041
711.90 0.4039
712.00 0.4037
712.10 0.4036
712.20 0.4034
712.30 0.4033
712.40 0.4031
712.50 0.4029
712.60 0.4028
712.70 0.4026
712.80 0.4025
712.90 0.4023
713.00 0.4021
713.10 0.402
713.20 0.4018
713.30 0.4017
713.40 0.4015
713.50 0.4014
713.60 0.4012
713.70 0.401
713.80 0.4009
713.90 0.4007
714.00 0.4006
714.10 0.4004
714.20 0.4002
714.30 0.4001
714.40 0.3999
714.50 0.3998
714.60 0.3996
714.70 0.3994
714.80 0.3993
714.90 0.3991
715.00 0.399
715.10 0.3988
715.20 0.3987
715.30 0.3985
715.40 0.3983
715.50 0.3982
715.60 0.398
715.70 0.3979
715.80 0.3977
715.90 0.3976
716.00 0.3974
716.10 0.3973
716.20 0.3971
716.30 0.3969
716.40 0.3968
716.50 0.3966
716.60 0.3965
716.70 0.3963
716.80 0.3962
716.90 0.396
717.00 0.3959
717.10 0.3957
717.20 0.3956
717.30 0.3954
717.40 0.3952
717.50 0.3951
717.60 0.3949
717.70 0.3948
717.80 0.3946
717.90 0.3945
718.00 0.3943
718.10 0.3942
718.20 0.394
718.30 0.3939
718.40 0.3937
718.50 0.3935
718.60 0.3934
718.70 0.3932
718.80 0.3931
718.90 0.3929
719.00 0.3928
719.10 0.3926
719.20 0.3925
719.30 0.3923
719.40 0.3922
719.50 0.392
719.60 0.3919
719.70 0.3917
719.80 0.3916
719.90 0.3914
720.00 0.3912
720.10 0.3911
720.20 0.3909
720.30 0.3908
720.40 0.3906
720.50 0.3905
720.60 0.3903
720.70 0.3902
720.80 0.39
720.90 0.3899
721.00 0.3897
721.10 0.3895
721.20 0.3894
721.30 0.3892
721.40 0.3891
721.50 0.3889
721.60 0.3888
721.70 0.3886
721.80 0.3885
721.90 0.3883
722.00 0.3882
722.10 0.388
722.20 0.3879
722.30 0.3877
722.40 0.3875
722.50 0.3874
722.60 0.3872
722.70 0.3871
722.80 0.3869
722.90 0.3868
723.00 0.3866
723.10 0.3865
723.20 0.3863
723.30 0.3862
723.40 0.386
723.50 0.3859
723.60 0.3857
723.70 0.3856
723.80 0.3854
723.90 0.3853
724.00 0.3851
724.10 0.385
724.20 0.3848
724.30 0.3846
724.40 0.3845
724.50 0.3843
724.60 0.3842
724.70 0.384
724.80 0.3839
724.90 0.3837
725.00 0.3836
725.10 0.3834
725.20 0.3833
725.30 0.3831
725.40 0.383
725.50 0.3828
725.60 0.3827
725.70 0.3825
725.80 0.3824
725.90 0.3822
726.00 0.3821
726.10 0.3819
726.20 0.3818
726.30 0.3816
726.40 0.3815
726.50 0.3813
726.60 0.3812
726.70 0.381
726.80 0.3809
726.90 0.3807
727.00 0.3806
727.10 0.3804
727.20 0.3803
727.30 0.3801
727.40 0.38
727.50 0.3798
727.60 0.3797
727.70 0.3795
727.80 0.3794
727.90 0.3792
728.00 0.3791
728.10 0.3789
728.20 0.3788
728.30 0.3786
728.40 0.3785
728.50 0.3783
728.60 0.3782
728.70 0.378
728.80 0.3779
728.90 0.3777
729.00 0.3776
729.10 0.3774
729.20 0.3773
729.30 0.3771
729.40 0.377
729.50 0.3768
729.60 0.3767
729.70 0.3766
729.80 0.3764
729.90 0.3763
730.00 0.3761
730.10 0.376
730.20 0.3758
730.30 0.3757
730.40 0.3755
730.50 0.3754
730.60 0.3752
730.70 0.3751
730.80 0.3749
730.90 0.3748
731.00 0.3746
731.10 0.3745
731.20 0.3743
731.30 0.3742
731.40 0.374
731.50 0.3739
731.60 0.3738
731.70 0.3736
731.80 0.3735
731.90 0.3733
732.00 0.3732
732.10 0.373
732.20 0.3729
732.30 0.3727
732.40 0.3726
732.50 0.3724
732.60 0.3723
732.70 0.3721
732.80 0.372
732.90 0.3719
733.00 0.3717
733.10 0.3716
733.20 0.3714
733.30 0.3713
733.40 0.3711
733.50 0.371
733.60 0.3708
733.70 0.3707
733.80 0.3705
733.90 0.3704
734.00 0.3703
734.10 0.3701
734.20 0.37
734.30 0.3698
734.40 0.3697
734.50 0.3695
734.60 0.3694
734.70 0.3692
734.80 0.3691
734.90 0.369
735.00 0.3688
735.10 0.3687
735.20 0.3685
735.30 0.3684
735.40 0.3682
735.50 0.3681
735.60 0.3679
735.70 0.3678
735.80 0.3677
735.90 0.3675
736.00 0.3674
736.10 0.3672
736.20 0.3671
736.30 0.3669
736.40 0.3668
736.50 0.3667
736.60 0.3665
736.70 0.3664
736.80 0.3662
736.90 0.3661
737.00 0.3659
737.10 0.3658
737.20 0.3657
737.30 0.3655
737.40 0.3654
737.50 0.3652
737.60 0.3651
737.70 0.3649
737.80 0.3648
737.90 0.3647
738.00 0.3645
738.10 0.3644
738.20 0.3642
738.30 0.3641
738.40 0.3639
738.50 0.3638
738.60 0.3637
738.70 0.3635
738.80 0.3634
738.90 0.3632
739.00 0.3631
739.10 0.363
739.20 0.3628
739.30 0.3627
739.40 0.3625
739.50 0.3624
739.60 0.3622
739.70 0.3621
739.80 0.362
739.90 0.3618
740.00 0.3617
740.10 0.3615
740.20 0.3614
740.30 0.3613
740.40 0.3611
740.50 0.361
740.60 0.3608
740.70 0.3607
740.80 0.3606
740.90 0.3604
741.00 0.3603
741.10 0.3601
741.20 0.36
741.30 0.3599
741.40 0.3597
741.50 0.3596
741.60 0.3594
741.70 0.3593
741.80 0.3592
741.90 0.359
742.00 0.3589
742.10 0.3587
742.20 0.3586
742.30 0.3585
742.40 0.3583
742.50 0.3582
742.60 0.358
742.70 0.3579
742.80 0.3578
742.90 0.3576
743.00 0.3575
743.10 0.3574
743.20 0.3572
743.30 0.3571
743.40 0.3569
743.50 0.3568
743.60 0.3567
743.70 0.3565
743.80 0.3564
743.90 0.3562
744.00 0.3561
744.10 0.356
744.20 0.3558
744.30 0.3557
744.40 0.3556
744.50 0.3554
744.60 0.3553
744.70 0.3551
744.80 0.355
744.90 0.3549
745.00 0.3547
745.10 0.3546
745.20 0.3545
745.30 0.3543
745.40 0.3542
745.50 0.354
745.60 0.3539
745.70 0.3538
745.80 0.3536
745.90 0.3535
746.00 0.3534
746.10 0.3532
746.20 0.3531
746.30 0.3529
746.40 0.3528
746.50 0.3527
746.60 0.3525
746.70 0.3524
746.80 0.3523
746.90 0.3521
747.00 0.352
747.10 0.3519
747.20 0.3517
747.30 0.3516
747.40 0.3514
747.50 0.3513
747.60 0.3512
747.70 0.351
747.80 0.3509
747.90 0.3508
748.00 0.3506
748.10 0.3505
748.20 0.3504
748.30 0.3502
748.40 0.3501
748.50 0.35
748.60 0.3498
748.70 0.3497
748.80 0.3495
748.90 0.3494
749.00 0.3493
749.10 0.3491
749.20 0.349
749.30 0.3489
749.40 0.3487
749.50 0.3486
749.60 0.3485
749.70 0.3483
749.80 0.3482
749.90 0.3481
750.00 0.3479
750.10 0.3478
750.20 0.3477
750.30 0.3475
750.40 0.3474
750.50 0.3473
750.60 0.3471
750.70 0.347
750.80 0.3469
750.90 0.3467
751.00 0.3466
751.10 0.3465
751.20 0.3463
751.30 0.3462
751.40 0.3461
751.50 0.3459
751.60 0.3458
751.70 0.3457
751.80 0.3455
751.90 0.3454
752.00 0.3453
752.10 0.3451
752.20 0.345
752.30 0.3449
752.40 0.3447
752.50 0.3446
752.60 0.3445
752.70 0.3443
752.80 0.3442
752.90 0.3441
753.00 0.3439
753.10 0.3438
753.20 0.3437
753.30 0.3435
753.40 0.3434
753.50 0.3433
753.60 0.3431
753.70 0.343
753.80 0.3429
753.90 0.3427
754.00 0.3426
754.10 0.3425
754.20 0.3423
754.30 0.3422
754.40 0.3421
754.50 0.3419
754.60 0.3418
754.70 0.3417
754.80 0.3416
754.90 0.3414
755.00 0.3413
755.10 0.3412
755.20 0.341
755.30 0.3409
755.40 0.3408
755.50 0.3406
755.60 0.3405
755.70 0.3404
755.80 0.3402
755.90 0.3401
756.00 0.34
756.10 0.3398
756.20 0.3397
756.30 0.3396
756.40 0.3395
756.50 0.3393
756.60 0.3392
756.70 0.3391
756.80 0.3389
756.90 0.3388
757.00 0.3387
757.10 0.3385
757.20 0.3384
757.30 0.3383
757.40 0.3382
757.50 0.338
757.60 0.3379
757.70 0.3378
757.80 0.3376
757.90 0.3375
758.00 0.3374
758.10 0.3372
758.20 0.3371
758.30 0.337
758.40 0.3369
758.50 0.3367
758.60 0.3366
758.70 0.3365
758.80 0.3363
758.90 0.3362
759.00 0.3361
759.10 0.336
759.20 0.3358
759.30 0.3357
759.40 0.3356
759.50 0.3354
759.60 0.3353
759.70 0.3352
759.80 0.3351
759.90 0.3349
760.00 0.3348
760.10 0.3347
760.20 0.3345
760.30 0.3344
760.40 0.3343
760.50 0.3342
760.60 0.334
760.70 0.3339
760.80 0.3338
760.90 0.3336
761.00 0.3335
761.10 0.3334
761.20 0.3333
761.30 0.3331
761.40 0.333
761.50 0.3329
761.60 0.3328
761.70 0.3326
761.80 0.3325
761.90 0.3324
762.00 0.3322
762.10 0.3321
762.20 0.332
762.30 0.3319
762.40 0.3317
762.50 0.3316
762.60 0.3315
762.70 0.3314
762.80 0.3312
762.90 0.3311
763.00 0.331
763.10 0.3309
763.20 0.3307
763.30 0.3306
763.40 0.3305
763.50 0.3303
763.60 0.3302
763.70 0.3301
763.80 0.33
763.90 0.3298
764.00 0.3297
764.10 0.3296
764.20 0.3295
764.30 0.3293
764.40 0.3292
764.50 0.3291
764.60 0.329
764.70 0.3288
764.80 0.3287
764.90 0.3286
765.00 0.3285
765.10 0.3283
765.20 0.3282
765.30 0.3281
765.40 0.328
765.50 0.3278
765.60 0.3277
765.70 0.3276
765.80 0.3275
765.90 0.3273
766.00 0.3272
766.10 0.3271
766.20 0.327
766.30 0.3268
766.40 0.3267
766.50 0.3266
766.60 0.3265
766.70 0.3263
766.80 0.3262
766.90 0.3261
767.00 0.326
767.10 0.3258
767.20 0.3257
767.30 0.3256
767.40 0.3255
767.50 0.3253
767.60 0.3252
767.70 0.3251
767.80 0.325
767.90 0.3249
768.00 0.3247
768.10 0.3246
768.20 0.3245
768.30 0.3244
768.40 0.3242
768.50 0.3241
768.60 0.324
768.70 0.3239
768.80 0.3237
768.90 0.3236
769.00 0.3235
769.10 0.3234
769.20 0.3232
769.30 0.3231
769.40 0.323
769.50 0.3229
769.60 0.3228
769.70 0.3226
769.80 0.3225
769.90 0.3224
770.00 0.3223
770.10 0.3221
770.20 0.322
770.30 0.3219
770.40 0.3218
770.50 0.3217
770.60 0.3215
770.70 0.3214
770.80 0.3213
770.90 0.3212
771.00 0.321
771.10 0.3209
771.20 0.3208
771.30 0.3207
771.40 0.3206
771.50 0.3204
771.60 0.3203
771.70 0.3202
771.80 0.3201
771.90 0.32
772.00 0.3198
772.10 0.3197
772.20 0.3196
772.30 0.3195
772.40 0.3193
772.50 0.3192
772.60 0.3191
772.70 0.319
772.80 0.3189
772.90 0.3187
773.00 0.3186
773.10 0.3185
773.20 0.3184
773.30 0.3183
773.40 0.3181
773.50 0.318
773.60 0.3179
773.70 0.3178
773.80 0.3177
773.90 0.3175
774.00 0.3174
774.10 0.3173
774.20 0.3172
774.30 0.3171
774.40 0.3169
774.50 0.3168
774.60 0.3167
774.70 0.3166
774.80 0.3165
774.90 0.3163
775.00 0.3162
775.10 0.3161
775.20 0.316
775.30 0.3159
775.40 0.3157
775.50 0.3156
775.60 0.3155
775.70 0.3154
775.80 0.3153
775.90 0.3151
776.00 0.315
776.10 0.3149
776.20 0.3148
776.30 0.3147
776.40 0.3146
776.50 0.3144
776.60 0.3143
776.70 0.3142
776.80 0.3141
776.90 0.314
777.00 0.3138
777.10 0.3137
777.20 0.3136
777.30 0.3135
777.40 0.3134
777.50 0.3132
777.60 0.3131
777.70 0.313
777.80 0.3129
777.90 0.3128
778.00 0.3127
778.10 0.3125
778.20 0.3124
778.30 0.3123
778.40 0.3122
778.50 0.3121
778.60 0.3119
778.70 0.3118
778.80 0.3117
778.90 0.3116
779.00 0.3115
779.10 0.3114
779.20 0.3112
779.30 0.3111
779.40 0.311
779.50 0.3109
779.60 0.3108
779.70 0.3107
779.80 0.3105
779.90 0.3104
780.00 0.3103
780.10 0.3102
780.20 0.3101
780.30 0.31
780.40 0.3098
780.50 0.3097
780.60 0.3096
780.70 0.3095
780.80 0.3094
780.90 0.3093
781.00 0.3091
781.10 0.309
781.20 0.3089
781.30 0.3088
781.40 0.3087
781.50 0.3086
781.60 0.3084
781.70 0.3083
781.80 0.3082
781.90 0.3081
782.00 0.308
782.10 0.3079
782.20 0.3077
782.30 0.3076
782.40 0.3075
782.50 0.3074
782.60 0.3073
782.70 0.3072
782.80 0.3071
782.90 0.3069
783.00 0.3068
783.10 0.3067
783.20 0.3066
783.30 0.3065
783.40 0.3064
783.50 0.3062
783.60 0.3061
783.70 0.306
783.80 0.3059
783.90 0.3058
784.00 0.3057
784.10 0.3056
784.20 0.3054
784.30 0.3053
784.40 0.3052
784.50 0.3051
784.60 0.305
784.70 0.3049
784.80 0.3048
784.90 0.3046
785.00 0.3045
785.10 0.3044
785.20 0.3043
785.30 0.3042
785.40 0.3041
785.50 0.304
785.60 0.3038
785.70 0.3037
785.80 0.3036
785.90 0.3035
786.00 0.3034
786.10 0.3033
786.20 0.3032
786.30 0.303
786.40 0.3029
786.50 0.3028
786.60 0.3027
786.70 0.3026
786.80 0.3025
786.90 0.3024
787.00 0.3023
787.10 0.3021
787.20 0.302
787.30 0.3019
787.40 0.3018
787.50 0.3017
787.60 0.3016
787.70 0.3015
787.80 0.3013
787.90 0.3012
788.00 0.3011
788.10 0.301
788.20 0.3009
788.30 0.3008
788.40 0.3007
788.50 0.3006
788.60 0.3004
788.70 0.3003
788.80 0.3002
788.90 0.3001
789.00 0.3
789.10 0.2999
789.20 0.2998
789.30 0.2997
789.40 0.2995
789.50 0.2994
789.60 0.2993
789.70 0.2992
789.80 0.2991
789.90 0.299
790.00 0.2989
790.10 0.2988
790.20 0.2987
790.30 0.2985
790.40 0.2984
790.50 0.2983
790.60 0.2982
790.70 0.2981
790.80 0.298
790.90 0.2979
791.00 0.2978
791.10 0.2977
791.20 0.2975
791.30 0.2974
791.40 0.2973
791.50 0.2972
791.60 0.2971
791.70 0.297
791.80 0.2969
791.90 0.2968
792.00 0.2967
792.10 0.2965
792.20 0.2964
792.30 0.2963
792.40 0.2962
792.50 0.2961
792.60 0.296
792.70 0.2959
792.80 0.2958
792.90 0.2957
793.00 0.2956
793.10 0.2954
793.20 0.2953
793.30 0.2952
793.40 0.2951
793.50 0.295
793.60 0.2949
793.70 0.2948
793.80 0.2947
793.90 0.2946
794.00 0.2945
794.10 0.2943
794.20 0.2942
794.30 0.2941
794.40 0.294
794.50 0.2939
794.60 0.2938
794.70 0.2937
794.80 0.2936
794.90 0.2935
795.00 0.2934
795.10 0.2932
795.20 0.2931
795.30 0.293
795.40 0.2929
795.50 0.2928
795.60 0.2927
795.70 0.2926
795.80 0.2925
795.90 0.2924
796.00 0.2923
796.10 0.2922
796.20 0.2921
796.30 0.2919
796.40 0.2918
796.50 0.2917
796.60 0.2916
796.70 0.2915
796.80 0.2914
796.90 0.2913
797.00 0.2912
797.10 0.2911
797.20 0.291
797.30 0.2909
797.40 0.2908
797.50 0.2906
797.60 0.2905
797.70 0.2904
797.80 0.2903
797.90 0.2902
798.00 0.2901
798.10 0.29
798.20 0.2899
798.30 0.2898
798.40 0.2897
798.50 0.2896
798.60 0.2895
798.70 0.2894
798.80 0.2892
798.90 0.2891
799.00 0.289
799.10 0.2889
799.20 0.2888
799.30 0.2887
799.40 0.2886
799.50 0.2885
799.60 0.2884
799.70 0.2883
799.80 0.2882
799.90 0.2881
800.00 0.288
800.10 0.2878
800.20 0.2877
800.30 0.2876
800.40 0.2875
800.50 0.2874
800.60 0.2873
800.70 0.2872
800.80 0.2871
800.90 0.287
801.00 0.2869
801.10 0.2868
801.20 0.2867
801.30 0.2866
801.40 0.2865
801.50 0.2864
801.60 0.2863
801.70 0.2862
801.80 0.286
801.90 0.2859
802.00 0.2858
802.10 0.2857
802.20 0.2856
802.30 0.2855
802.40 0.2854
802.50 0.2853
802.60 0.2852
802.70 0.2851
802.80 0.285
802.90 0.2849
803.00 0.2848
803.10 0.2847
803.20 0.2846
803.30 0.2845
803.40 0.2844
803.50 0.2843
803.60 0.2841
803.70 0.284
803.80 0.2839
803.90 0.2838
804.00 0.2837
804.10 0.2836
804.20 0.2835
804.30 0.2834
804.40 0.2833
804.50 0.2832
804.60 0.2831
804.70 0.283
804.80 0.2829
804.90 0.2828
805.00 0.2827
805.10 0.2826
805.20 0.2825
805.30 0.2824
805.40 0.2823
805.50 0.2822
805.60 0.2821
805.70 0.282
805.80 0.2818
805.90 0.2817
806.00 0.2816
806.10 0.2815
806.20 0.2814
806.30 0.2813
806.40 0.2812
806.50 0.2811
806.60 0.281
806.70 0.2809
806.80 0.2808
806.90 0.2807
807.00 0.2806
807.10 0.2805
807.20 0.2804
807.30 0.2803
807.40 0.2802
807.50 0.2801
807.60 0.28
807.70 0.2799
807.80 0.2798
807.90 0.2797
808.00 0.2796
808.10 0.2795
808.20 0.2794
808.30 0.2793
808.40 0.2792
808.50 0.2791
808.60 0.279
808.70 0.2789
808.80 0.2787
808.90 0.2786
809.00 0.2785
809.10 0.2784
809.20 0.2783
809.30 0.2782
809.40 0.2781
809.50 0.278
809.60 0.2779
809.70 0.2778
809.80 0.2777
809.90 0.2776
810.00 0.2775
810.10 0.2774
810.20 0.2773
810.30 0.2772
810.40 0.2771
810.50 0.277
810.60 0.2769
810.70 0.2768
810.80 0.2767
810.90 0.2766
811.00 0.2765
811.10 0.2764
811.20 0.2763
811.30 0.2762
811.40 0.2761
811.50 0.276
811.60 0.2759
811.70 0.2758
811.80 0.2757
811.90 0.2756
812.00 0.2755
812.10 0.2754
812.20 0.2753
812.30 0.2752
812.40 0.2751
812.50 0.275
812.60 0.2749
812.70 0.2748
812.80 0.2747
812.90 0.2746
813.00 0.2745
813.10 0.2744
813.20 0.2743
813.30 0.2742
813.40 0.2741
813.50 0.274
813.60 0.2739
813.70 0.2738
813.80 0.2737
813.90 0.2736
814.00 0.2735
814.10 0.2734
814.20 0.2733
814.30 0.2732
814.40 0.2731
814.50 0.273
814.60 0.2729
814.70 0.2728
814.80 0.2727
814.90 0.2726
815.00 0.2725
815.10 0.2724
815.20 0.2723
815.30 0.2722
815.40 0.2721
815.50 0.272
815.60 0.2719
815.70 0.2718
815.80 0.2717
815.90 0.2716
816.00 0.2715
816.10 0.2714
816.20 0.2713
816.30 0.2712
816.40 0.2711
816.50 0.271
816.60 0.2709
816.70 0.2708
816.80 0.2707
816.90 0.2706
817.00 0.2705
817.10 0.2704
817.20 0.2703
817.30 0.2702
817.40 0.2701
817.50 0.27
817.60 0.2699
817.70 0.2698
817.80 0.2697
817.90 0.2696
818.00 0.2695
818.10 0.2694
818.20 0.2693
818.30 0.2692
818.40 0.2691
818.50 0.269
818.60 0.2689
818.70 0.2688
818.80 0.2687
818.90 0.2686
819.00 0.2685
819.10 0.2684
819.20 0.2683
819.30 0.2682
819.40 0.2681
819.50 0.268
819.60 0.2679
819.70 0.2678
819.80 0.2677
819.90 0.2676
820.00 0.2675
820.10 0.2675
820.20 0.2674
820.30 0.2673
820.40 0.2672
820.50 0.2671
820.60 0.267
820.70 0.2669
820.80 0.2668
820.90 0.2667
821.00 0.2666
821.10 0.2665
821.20 0.2664
821.30 0.2663
821.40 0.2662
821.50 0.2661
821.60 0.266
821.70 0.2659
821.80 0.2658
821.90 0.2657
822.00 0.2656
822.10 0.2655
822.20 0.2654
822.30 0.2653
822.40 0.2652
822.50 0.2651
822.60 0.265
822.70 0.2649
822.80 0.2648
822.90 0.2647
823.00 0.2646
823.10 0.2645
823.20 0.2645
823.30 0.2644
823.40 0.2643
823.50 0.2642
823.60 0.2641
823.70 0.264
823.80 0.2639
823.90 0.2638
824.00 0.2637
824.10 0.2636
824.20 0.2635
824.30 0.2634
824.40 0.2633
824.50 0.2632
824.60 0.2631
824.70 0.263
824.80 0.2629
824.90 0.2628
825.00 0.2627
825.10 0.2626
825.20 0.2625
825.30 0.2624
825.40 0.2623
825.50 0.2622
825.60 0.2622
825.70 0.2621
825.80 0.262
825.90 0.2619
826.00 0.2618
826.10 0.2617
826.20 0.2616
826.30 0.2615
826.40 0.2614
826.50 0.2613
826.60 0.2612
826.70 0.2611
826.80 0.261
826.90 0.2609
827.00 0.2608
827.10 0.2607
827.20 0.2606
827.30 0.2605
827.40 0.2604
827.50 0.2604
827.60 0.2603
827.70 0.2602
827.80 0.2601
827.90 0.26
828.00 0.2599
828.10 0.2598
828.20 0.2597
828.30 0.2596
828.40 0.2595
828.50 0.2594
828.60 0.2593
828.70 0.2592
828.80 0.2591
828.90 0.259
829.00 0.2589
829.10 0.2588
829.20 0.2588
829.30 0.2587
829.40 0.2586
829.50 0.2585
829.60 0.2584
829.70 0.2583
829.80 0.2582
829.90 0.2581
830.00 0.258
830.10 0.2579
830.20 0.2578
830.30 0.2577
830.40 0.2576
830.50 0.2575
830.60 0.2574
830.70 0.2574
830.80 0.2573
830.90 0.2572
831.00 0.2571
831.10 0.257
831.20 0.2569
831.30 0.2568
831.40 0.2567
831.50 0.2566
831.60 0.2565
831.70 0.2564
831.80 0.2563
831.90 0.2562
832.00 0.2561
832.10 0.2561
832.20 0.256
832.30 0.2559
832.40 0.2558
832.50 0.2557
832.60 0.2556
832.70 0.2555
832.80 0.2554
832.90 0.2553
833.00 0.2552
833.10 0.2551
833.20 0.255
833.30 0.2549
833.40 0.2549
833.50 0.2548
833.60 0.2547
833.70 0.2546
833.80 0.2545
833.90 0.2544
834.00 0.2543
834.10 0.2542
834.20 0.2541
834.30 0.254
834.40 0.2539
834.50 0.2538
834.60 0.2538
834.70 0.2537
834.80 0.2536
834.90 0.2535
835.00 0.2534
835.10 0.2533
835.20 0.2532
835.30 0.2531
835.40 0.253
835.50 0.2529
835.60 0.2528
835.70 0.2528
835.80 0.2527
835.90 0.2526
836.00 0.2525
836.10 0.2524
836.20 0.2523
836.30 0.2522
836.40 0.2521
836.50 0.252
836.60 0.2519
836.70 0.2518
836.80 0.2518
836.90 0.2517
837.00 0.2516
837.10 0.2515
837.20 0.2514
837.30 0.2513
837.40 0.2512
837.50 0.2511
837.60 0.251
837.70 0.2509
837.80 0.2508
837.90 0.2508
838.00 0.2507
838.10 0.2506
838.20 0.2505
838.30 0.2504
838.40 0.2503
838.50 0.2502
838.60 0.2501
838.70 0.25
838.80 0.2499
838.90 0.2499
839.00 0.2498
839.10 0.2497
839.20 0.2496
839.30 0.2495
839.40 0.2494
839.50 0.2493
839.60 0.2492
839.70 0.2491
839.80 0.2491
839.90 0.249
840.00 0.2489
840.10 0.2488
840.20 0.2487
840.30 0.2486
840.40 0.2485
840.50 0.2484
840.60 0.2483
840.70 0.2483
840.80 0.2482
840.90 0.2481
841.00 0.248
841.10 0.2479
841.20 0.2478
841.30 0.2477
841.40 0.2476
841.50 0.2475
841.60 0.2475
841.70 0.2474
841.80 0.2473
841.90 0.2472
842.00 0.2471
842.10 0.247
842.20 0.2469
842.30 0.2468
842.40 0.2467
842.50 0.2466
842.60 0.2466
842.70 0.2465
842.80 0.2464
842.90 0.2463
843.00 0.2462
843.10 0.2461
843.20 0.246
843.30 0.2459
843.40 0.2458
843.50 0.2457
843.60 0.2456
843.70 0.2456
843.80 0.2455
843.90 0.2454
844.00 0.2453
844.10 0.2452
844.20 0.2451
844.30 0.245
844.40 0.2449
844.50 0.2448
844.60 0.2447
844.70 0.2447
844.80 0.2446
844.90 0.2445
845.00 0.2444
845.10 0.2443
845.20 0.2442
845.30 0.2441
845.40 0.244
845.50 0.2439
845.60 0.2438
845.70 0.2438
845.80 0.2437
845.90 0.2436
846.00 0.2435
846.10 0.2434
846.20 0.2433
846.30 0.2432
846.40 0.2431
846.50 0.243
846.60 0.243
846.70 0.2429
846.80 0.2428
846.90 0.2427
847.00 0.2426
847.10 0.2425
847.20 0.2425
847.30 0.2424
847.40 0.2424
847.50 0.2423
847.60 0.2423
847.70 0.2422
847.80 0.2422
847.90 0.2421
848.00 0.2421
848.10 0.242
848.20 0.242
848.30 0.2419
848.40 0.2419
848.50 0.2418
848.60 0.2418
848.70 0.2417
848.80 0.2416
848.90 0.2416
849.00 0.2415
849.10 0.2415
849.20 0.2414
849.30 0.2414
849.40 0.2413
849.50 0.2413
849.60 0.2412
849.70 0.2412
849.80 0.2411
849.90 0.2411
850.00 0.241
850.10 0.241
850.20 0.2409
850.30 0.2409
850.40 0.2408
850.50 0.2408
850.60 0.2407
850.70 0.2407
850.80 0.2406
850.90 0.2405
851.00 0.2405
851.10 0.2404
851.20 0.2404
851.30 0.2403
851.40 0.2403
851.50 0.2402
851.60 0.2402
851.70 0.2401
851.80 0.2401
851.90 0.24
852.00 0.24
852.10 0.2399
852.20 0.2398
852.30 0.2398
852.40 0.2397
852.50 0.2397
852.60 0.2396
852.70 0.2395
852.80 0.2395
852.90 0.2394
853.00 0.2393
853.10 0.2393
853.20 0.2392
853.30 0.2391
853.40 0.2391
853.50 0.239
853.60 0.2389
853.70 0.2389
853.80 0.2388
853.90 0.2387
854.00 0.2387
854.10 0.2386
854.20 0.2386
854.30 0.2385
854.40 0.2384
854.50 0.2384
854.60 0.2383
854.70 0.2382
854.80 0.2382
854.90 0.2381
855.00 0.238
855.10 0.238
855.20 0.2379
855.30 0.2378
855.40 0.2378
855.50 0.2377
855.60 0.2376
855.70 0.2376
855.80 0.2375
855.90 0.2375
856.00 0.2374
856.10 0.2373
856.20 0.2373
856.30 0.2372
856.40 0.2371
856.50 0.2371
856.60 0.237
856.70 0.2369
856.80 0.2369
856.90 0.2368
857.00 0.2368
857.10 0.2367
857.20 0.2366
857.30 0.2365
857.40 0.2365
857.50 0.2364
857.60 0.2363
857.70 0.2363
857.80 0.2362
857.90 0.2361
858.00 0.2361
858.10 0.236
858.20 0.2359
858.30 0.2359
858.40 0.2358
858.50 0.2357
858.60 0.2357
858.70 0.2356
858.80 0.2355
858.90 0.2355
859.00 0.2354
859.10 0.2353
859.20 0.2353
859.30 0.2352
859.40 0.2351
859.50 0.2351
859.60 0.235
859.70 0.2349
859.80 0.2349
859.90 0.2348
860.00 0.2347
860.10 0.2347
860.20 0.2346
860.30 0.2345
860.40 0.2345
860.50 0.2344
860.60 0.2343
860.70 0.2343
860.80 0.2342
860.90 0.2341
861.00 0.234
861.10 0.234
861.20 0.2339
861.30 0.2338
861.40 0.2338
861.50 0.2337
861.60 0.2336
861.70 0.2336
861.80 0.2335
861.90 0.2334
862.00 0.2334
862.10 0.2332
862.20 0.2331
862.30 0.233
862.40 0.2328
862.50 0.2327
862.60 0.2325
862.70 0.2324
862.80 0.2323
862.90 0.2321
863.00 0.232
863.10 0.2318
863.20 0.2317
863.30 0.2316
863.40 0.2314
863.50 0.2313
863.60 0.2312
863.70 0.231
863.80 0.2309
863.90 0.2307
864.00 0.2306
864.10 0.2305
864.20 0.2303
864.30 0.2302
864.40 0.23
864.50 0.2299
864.60 0.2298
864.70 0.2296
864.80 0.2295
864.90 0.2294
865.00 0.2292
865.10 0.2291
865.20 0.2289
865.30 0.2288
865.40 0.2287
865.50 0.2285
865.60 0.2284
865.70 0.2283
865.80 0.2281
865.90 0.228
866.00 0.2278
866.10 0.2277
866.20 0.2276
866.30 0.2274
866.40 0.2273
866.50 0.2272
866.60 0.227
866.70 0.2269
866.80 0.2267
866.90 0.2266
867.00 0.2265
867.10 0.2265
867.20 0.2265
867.30 0.2265
867.40 0.2265
867.50 0.2265
867.60 0.2265
867.70 0.2265
867.80 0.2265
867.90 0.2265
868.00 0.2265
868.10 0.2265
868.20 0.2265
868.30 0.2266
868.40 0.2266
868.50 0.2266
868.60 0.2266
868.70 0.2266
868.80 0.2266
868.90 0.2266
869.00 0.2266
869.10 0.2266
869.20 0.2266
869.30 0.2266
869.40 0.2266
869.50 0.2266
869.60 0.2266
869.70 0.2266
869.80 0.2266
869.90 0.2266
870.00 0.2266
870.10 0.2267
870.20 0.2267
870.30 0.2267
870.40 0.2267
870.50 0.2267
870.60 0.2267
870.70 0.2267
870.80 0.2267
870.90 0.2267
871.00 0.2267
871.10 0.2267
871.20 0.2267
871.30 0.2267
871.40 0.2267
871.50 0.2267
871.60 0.2267
871.70 0.2267
871.80 0.2267
871.90 0.2268
872.00 0.2268
872.10 0.2266
872.20 0.2265
872.30 0.2264
872.40 0.2263
872.50 0.2262
872.60 0.2261
872.70 0.226
872.80 0.2258
872.90 0.2257
873.00 0.2256
873.10 0.2255
873.20 0.2254
873.30 0.2253
873.40 0.2252
873.50 0.225
873.60 0.2249
873.70 0.2248
873.80 0.2247
873.90 0.2246
874.00 0.2245
874.10 0.2244
874.20 0.2243
874.30 0.2241
874.40 0.224
874.50 0.2239
874.60 0.2238
874.70 0.2237
874.80 0.2236
874.90 0.2235
875.00 0.2234
875.10 0.2232
875.20 0.2231
875.30 0.223
875.40 0.2229
875.50 0.2228
875.60 0.2227
875.70 0.2226
875.80 0.2224
875.90 0.2223
876.00 0.2222
876.10 0.2221
876.20 0.222
876.30 0.2219
876.40 0.2218
876.50 0.2217
876.60 0.2216
876.70 0.2214
876.80 0.2213
876.90 0.2212
877.00 0.2211
877.10 0.2211
877.20 0.2211
877.30 0.2211
877.40 0.2211
877.50 0.2211
877.60 0.2211
877.70 0.2211
877.80 0.221
877.90 0.221
878.00 0.221
878.10 0.221
878.20 0.221
878.30 0.221
878.40 0.221
878.50 0.221
878.60 0.221
878.70 0.221
878.80 0.221
878.90 0.221
879.00 0.221
879.10 0.2209
879.20 0.2209
879.30 0.2209
879.40 0.2209
879.50 0.2209
879.60 0.2209
879.70 0.2209
879.80 0.2209
879.90 0.2209
880.00 0.2209
880.10 0.2209
880.20 0.2209
880.30 0.2209
880.40 0.2208
880.50 0.2208
880.60 0.2208
880.70 0.2208
880.80 0.2208
880.90 0.2208
881.00 0.2208
881.10 0.2208
881.20 0.2208
881.30 0.2208
881.40 0.2208
881.50 0.2208
881.60 0.2208
881.70 0.2208
881.80 0.2207
881.90 0.2207
882.00 0.2207
882.10 0.2204
882.20 0.22
882.30 0.2196
882.40 0.2192
882.50 0.2189
882.60 0.2185
882.70 0.2181
882.80 0.2177
882.90 0.2174
883.00 0.217
883.10 0.2166
883.20 0.2162
883.30 0.2159
883.40 0.2155
883.50 0.2151
883.60 0.2147
883.70 0.2144
883.80 0.214
883.90 0.2136
884.00 0.2133
884.10 0.2129
884.20 0.2125
884.30 0.2121
884.40 0.2118
884.50 0.2114
884.60 0.211
884.70 0.2107
884.80 0.2103
884.90 0.2099
885.00 0.2095
885.10 0.2092
885.20 0.2088
885.30 0.2084
885.40 0.2081
885.50 0.2077
885.60 0.2073
885.70 0.207
885.80 0.2066
885.90 0.2062
886.00 0.2059
886.10 0.2055
886.20 0.2051
886.30 0.2047
886.40 0.2044
886.50 0.204
886.60 0.2036
886.70 0.2033
886.80 0.2029
886.90 0.2025
887.00 0.2022
887.10 0.2024
887.20 0.2027
887.30 0.2029
887.40 0.2032
887.50 0.2034
887.60 0.2037
887.70 0.2039
887.80 0.2042
887.90 0.2044
888.00 0.2047
888.10 0.2049
888.20 0.2052
888.30 0.2054
888.40 0.2057
888.50 0.2059
888.60 0.2062
888.70 0.2064
888.80 0.2067
888.90 0.2069
889.00 0.2072
889.10 0.2074
889.20 0.2077
889.30 0.2079
889.40 0.2082
889.50 0.2084
889.60 0.2087
889.70 0.2089
889.80 0.2091
889.90 0.2094
890.00 0.2096
890.10 0.2099
890.20 0.2101
890.30 0.2104
890.40 0.2106
890.50 0.2109
890.60 0.2111
890.70 0.2114
890.80 0.2116
890.90 0.2119
891.00 0.2121
891.10 0.2124
891.20 0.2126
891.30 0.2128
891.40 0.2131
891.50 0.2133
891.60 0.2136
891.70 0.2138
891.80 0.2141
891.90 0.2143
892.00 0.2146
892.10 0.2145
892.20 0.2143
892.30 0.2142
892.40 0.2141
892.50 0.214
892.60 0.2139
892.70 0.2138
892.80 0.2137
892.90 0.2136
893.00 0.2135
893.10 0.2134
893.20 0.2132
893.30 0.2131
893.40 0.213
893.50 0.2129
893.60 0.2128
893.70 0.2127
893.80 0.2126
893.90 0.2125
894.00 0.2124
894.10 0.2123
894.20 0.2121
894.30 0.212
894.40 0.2119
894.50 0.2118
894.60 0.2117
894.70 0.2116
894.80 0.2115
894.90 0.2114
895.00 0.2113
895.10 0.2112
895.20 0.211
895.30 0.2109
895.40 0.2108
895.50 0.2107
895.60 0.2106
895.70 0.2105
895.80 0.2104
895.90 0.2103
896.00 0.2102
896.10 0.2101
896.20 0.21
896.30 0.2098
896.40 0.2097
896.50 0.2096
896.60 0.2095
896.70 0.2094
896.80 0.2093
896.90 0.2092
897.00 0.2091
897.10 0.2085
897.20 0.2079
897.30 0.2073
897.40 0.2068
897.50 0.2062
897.60 0.2056
897.70 0.205
897.80 0.2044
897.90 0.2038
898.00 0.2033
898.10 0.2027
898.20 0.2021
898.30 0.2015
898.40 0.2009
898.50 0.2004
898.60 0.1998
898.70 0.1992
898.80 0.1986
898.90 0.198
899.00 0.1975
899.10 0.1969
899.20 0.1963
899.30 0.1957
899.40 0.1951
899.50 0.1946
899.60 0.194
899.70 0.1934
899.80 0.1928
899.90 0.1922
900.00 0.1917
900.10 0.1911
900.20 0.1905
900.30 0.1899
900.40 0.1894
900.50 0.1888
900.60 0.1882
900.70 0.1876
900.80 0.1871
900.90 0.1865
901.00 0.1859
901.10 0.1853
901.20 0.1848
901.30 0.1842
901.40 0.1836
901.50 0.183
901.60 0.1825
901.70 0.1819
901.80 0.1813
901.90 0.1808
902.00 0.1802
902.10 0.1806
902.20 0.181
902.30 0.1814
902.40 0.1818
902.50 0.1823
902.60 0.1827
902.70 0.1831
902.80 0.1835
902.90 0.1839
903.00 0.1843
903.10 0.1847
903.20 0.1851
903.30 0.1856
903.40 0.186
903.50 0.1864
903.60 0.1868
903.70 0.1872
903.80 0.1876
903.90 0.188
904.00 0.1884
904.10 0.1888
904.20 0.1892
904.30 0.1897
904.40 0.1901
904.50 0.1905
904.60 0.1909
904.70 0.1913
904.80 0.1917
904.90 0.1921
905.00 0.1925
905.10 0.1929
905.20 0.1933
905.30 0.1937
905.40 0.1941
905.50 0.1946
905.60 0.195
905.70 0.1954
905.80 0.1958
905.90 0.1962
906.00 0.1966
906.10 0.197
906.20 0.1974
906.30 0.1978
906.40 0.1982
906.50 0.1986
906.60 0.199
906.70 0.1994
906.80 0.1998
906.90 0.2002
907.00 0.2006
907.10 0.2007
907.20 0.2007
907.30 0.2007
907.40 0.2007
907.50 0.2007
907.60 0.2007
907.70 0.2007
907.80 0.2007
907.90 0.2007
908.00 0.2007
908.10 0.2008
908.20 0.2008
908.30 0.2008
908.40 0.2008
908.50 0.2008
908.60 0.2008
908.70 0.2008
908.80 0.2008
908.90 0.2008
909.00 0.2008
909.10 0.2009
909.20 0.2009
909.30 0.2009
909.40 0.2009
909.50 0.2009
909.60 0.2009
909.70 0.2009
909.80 0.2009
909.90 0.2009
910.00 0.2009
910.10 0.201
910.20 0.201
910.30 0.201
910.40 0.201
910.50 0.201
910.60 0.201
910.70 0.201
910.80 0.201
910.90 0.201
911.00 0.201
911.10 0.2011
911.20 0.2011
911.30 0.2011
911.40 0.2011
911.50 0.2011
911.60 0.2011
911.70 0.2011
911.80 0.2011
911.90 0.2011
912.00 0.2011
912.10 0.201
912.20 0.2008
912.30 0.2006
912.40 0.2004
912.50 0.2002
912.60 0.2
912.70 0.1999
912.80 0.1997
912.90 0.1995
913.00 0.1993
913.10 0.1991
913.20 0.1989
913.30 0.1988
913.40 0.1986
913.50 0.1984
913.60 0.1982
913.70 0.198
913.80 0.1979
913.90 0.1977
914.00 0.1975
914.10 0.1973
914.20 0.1971
914.30 0.1969
914.40 0.1968
914.50 0.1966
914.60 0.1964
914.70 0.1962
914.80 0.196
914.90 0.1959
915.00 0.1957
915.10 0.1955
915.20 0.1953
915.30 0.1951
915.40 0.195
915.50 0.1948
915.60 0.1946
915.70 0.1944
915.80 0.1942
915.90 0.1941
916.00 0.1939
916.10 0.1937
916.20 0.1935
916.30 0.1933
916.40 0.1932
916.50 0.193
916.60 0.1928
916.70 0.1926
916.80 0.1924
916.90 0.1923
917.00 0.1921
917.10 0.1913
917.20 0.1906
917.30 0.1899
917.40 0.1891
917.50 0.1884
917.60 0.1877
917.70 0.1869
917.80 0.1862
917.90 0.1855
918.00 0.1847
918.10 0.184
918.20 0.1833
918.30 0.1826
918.40 0.1818
918.50 0.1811
918.60 0.1804
918.70 0.1796
918.80 0.1789
918.90 0.1782
919.00 0.1775
919.10 0.1767
919.20 0.176
919.30 0.1753
919.40 0.1745
919.50 0.1738
919.60 0.1731
919.70 0.1724
919.80 0.1716
919.90 0.1709
920.00 0.1702
920.10 0.1695
920.20 0.1687
920.30 0.168
920.40 0.1673
920.50 0.1666
920.60 0.1659
920.70 0.1651
920.80 0.1644
920.90 0.1637
921.00 0.163
921.10 0.1622
921.20 0.1615
921.30 0.1608
921.40 0.1601
921.50 0.1594
921.60 0.1586
921.70 0.1579
921.80 0.1572
921.90 0.1565
922.00 0.1558
922.10 0.1562
922.20 0.1567
922.30 0.1572
922.40 0.1577
922.50 0.1581
922.60 0.1586
922.70 0.1591
922.80 0.1596
922.90 0.1601
923.00 0.1605
923.10 0.161
923.20 0.1615
923.30 0.162
923.40 0.1624
923.50 0.1629
923.60 0.1634
923.70 0.1638
923.80 0.1643
923.90 0.1648
924.00 0.1653
924.10 0.1657
924.20 0.1662
924.30 0.1667
924.40 0.1672
924.50 0.1676
924.60 0.1681
924.70 0.1686
924.80 0.169
924.90 0.1695
925.00 0.17
925.10 0.1705
925.20 0.1709
925.30 0.1714
925.40 0.1719
925.50 0.1723
925.60 0.1728
925.70 0.1733
925.80 0.1738
925.90 0.1742
926.00 0.1747
926.10 0.1752
926.20 0.1756
926.30 0.1761
926.40 0.1766
926.50 0.177
926.60 0.1775
926.70 0.178
926.80 0.1784
926.90 0.1789
927.00 0.1794
927.10 0.1795
927.20 0.1797
927.30 0.1798
927.40 0.18
927.50 0.1801
927.60 0.1803
927.70 0.1804
927.80 0.1806
927.90 0.1807
928.00 0.1809
928.10 0.181
928.20 0.1812
928.30 0.1813
928.40 0.1815
928.50 0.1816
928.60 0.1818
928.70 0.1819
928.80 0.1821
928.90 0.1822
929.00 0.1824
929.10 0.1825
929.20 0.1827
929.30 0.1828
929.40 0.183
929.50 0.1831
929.60 0.1833
929.70 0.1834
929.80 0.1836
929.90 0.1837
930.00 0.1839
930.10 0.184
930.20 0.1842
930.30 0.1843
930.40 0.1845
930.50 0.1846
930.60 0.1848
930.70 0.1849
930.80 0.1851
930.90 0.1852
931.00 0.1854
931.10 0.1855
931.20 0.1857
931.30 0.1858
931.40 0.186
931.50 0.1861
931.60 0.1863
931.70 0.1864
931.80 0.1866
931.90 0.1867
932.00 0.1869
932.10 0.1869
932.20 0.1869
932.30 0.1869
932.40 0.1869
932.50 0.1869
932.60 0.1869
932.70 0.187
932.80 0.187
932.90 0.187
933.00 0.187
933.10 0.187
933.20 0.187
933.30 0.187
933.40 0.1871
933.50 0.1871
933.60 0.1871
933.70 0.1871
933.80 0.1871
933.90 0.1871
934.00 0.1871
934.10 0.1871
934.20 0.1872
934.30 0.1872
934.40 0.1871
934.50 0.1871
934.60 0.1871
934.70 0.1871
934.80 0.187
934.90 0.187
935.00 0.187
935.10 0.187
935.20 0.1869
935.30 0.1869
935.40 0.1869
935.50 0.1868
935.60 0.1868
935.70 0.1868
935.80 0.1868
935.90 0.1867
936.00 0.1867
936.10 0.1867
936.20 0.1867
936.30 0.1866
936.40 0.1866
936.50 0.1866
936.60 0.1865
936.70 0.1865
936.80 0.1865
936.90 0.1865
937.00 0.1864
937.10 0.1864
937.20 0.1863
937.30 0.1863
937.40 0.1862
937.50 0.1862
937.60 0.1861
937.70 0.1861
937.80 0.186
937.90 0.186
938.00 0.1859
938.10 0.1859
938.20 0.1858
938.30 0.1858
938.40 0.1857
938.50 0.1856
938.60 0.1856
938.70 0.1855
938.80 0.1854
938.90 0.1853
939.00 0.1853
939.10 0.1852
939.20 0.1851
939.30 0.1851
939.40 0.185
939.50 0.1849
939.60 0.1848
939.70 0.1848
939.80 0.1847
939.90 0.1846
940.00 0.1846
940.10 0.1845
940.20 0.1844
940.30 0.1844
940.40 0.1843
940.50 0.1842
940.60 0.1841
940.70 0.184
940.80 0.1839
940.90 0.1838
941.00 0.1837
941.10 0.1836
941.20 0.1835
941.30 0.1834
941.40 0.1833
941.50 0.1832
941.60 0.1831
941.70 0.183
941.80 0.1829
941.90 0.1828
942.00 0.1827
942.10 0.1826
942.20 0.1825
942.30 0.1824
942.40 0.1822
942.50 0.1821
942.60 0.182
942.70 0.1818
942.80 0.1817
942.90 0.1816
943.00 0.1814
943.10 0.1813
943.20 0.1812
943.30 0.181
943.40 0.1809
943.50 0.1808
943.60 0.1806
943.70 0.1805
943.80 0.1804
943.90 0.1802
944.00 0.1801
944.10 0.18
944.20 0.1798
944.30 0.1797
944.40 0.1795
944.50 0.1794
944.60 0.1792
944.70 0.179
944.80 0.1789
944.90 0.1787
945.00 0.1785
945.10 0.1784
945.20 0.1782
945.30 0.178
945.40 0.1778
945.50 0.1776
945.60 0.1774
945.70 0.1772
945.80 0.177
945.90 0.1767
946.00 0.1765
946.10 0.1763
946.20 0.1761
946.30 0.1759
946.40 0.1757
946.50 0.1755
946.60 0.1753
946.70 0.1751
946.80 0.1748
946.90 0.1746
947.00 0.1744
947.10 0.1742
947.20 0.1739
947.30 0.1737
947.40 0.1733
947.50 0.173
947.60 0.1727
947.70 0.1723
947.80 0.172
947.90 0.1717
948.00 0.1713
948.10 0.171
948.20 0.1707
948.30 0.1703
948.40 0.17
948.50 0.1697
948.60 0.1693
948.70 0.169
948.80 0.1687
948.90 0.1684
949.00 0.168
949.10 0.1677
949.20 0.1674
949.30 0.167
949.40 0.1665
949.50 0.1659
949.60 0.1653
949.70 0.1648
949.80 0.1642
949.90 0.1636
950.00 0.1631
950.10 0.1625
950.20 0.162
950.30 0.1614
950.40 0.1608
950.50 0.1603
950.60 0.1597
950.70 0.1591
950.80 0.1586
950.90 0.158
951.00 0.1575
951.10 0.1569
951.20 0.1563
951.30 0.1558
951.40 0.155
951.50 0.1541
951.60 0.1533
951.70 0.1525
951.80 0.1517
951.90 0.1509
952.00 0.1501
952.10 0.1491
952.20 0.1481
952.30 0.1471
952.40 0.1461
952.50 0.1451
952.60 0.1441
952.70 0.1431
952.80 0.1421
952.90 0.1409
953.00 0.1398
953.10 0.1386
953.20 0.1374
953.30 0.1363
953.40 0.1351
953.50 0.1339
953.60 0.1329
953.70 0.1319
953.80 0.1308
953.90 0.1298
954.00 0.1296
954.10 0.1293
954.20 0.1299
954.30 0.133
954.40 0.1301
954.50 0.1291
954.60 0.1293
954.70 0.1295
954.80 0.1304
954.90 0.1314
955.00 0.1323
955.10 0.1333
955.20 0.1343
955.30 0.1354
955.40 0.1365
955.50 0.1375
955.60 0.1386
955.70 0.1397
955.80 0.1408
955.90 0.1416
956.00 0.1424
956.10 0.1433
956.20 0.1441
956.30 0.1449
956.40 0.1458
956.50 0.1466
956.60 0.1475
956.70 0.1483
956.80 0.1491
956.90 0.15
957.00 0.1508
957.10 0.1515
957.20 0.1521
957.30 0.1528
957.40 0.1532
957.50 0.1537
957.60 0.1541
957.70 0.1546
957.80 0.155
957.90 0.1555
958.00 0.1559
958.10 0.1564
958.20 0.1568
958.30 0.1572
958.40 0.1577
958.50 0.1581
958.60 0.1586
958.70 0.159
958.80 0.1595
958.90 0.1599
959.00 0.1604
959.10 0.1608
959.20 0.1613
959.30 0.1617
959.40 0.1619
959.50 0.1622
959.60 0.1624
959.70 0.1626
959.80 0.1628
959.90 0.163
960.00 0.1633
960.10 0.1635
960.20 0.1637
960.30 0.1639
960.40 0.1641
960.50 0.1643
960.60 0.1646
960.70 0.1648
960.80 0.165
960.90 0.1652
961.00 0.1654
961.10 0.1657
961.20 0.1659
961.30 0.1661
961.40 0.1662
961.50 0.1664
961.60 0.1665
961.70 0.1666
961.80 0.1668
961.90 0.1669
962.00 0.167
962.10 0.1671
962.20 0.1672
962.30 0.1673
962.40 0.1674
962.50 0.1675
962.60 0.1676
962.70 0.1677
962.80 0.1678
962.90 0.1678
963.00 0.1679
963.10 0.168
963.20 0.1681
963.30 0.1682
963.40 0.1683
963.50 0.1683
963.60 0.1684
963.70 0.1684
963.80 0.1685
963.90 0.1686
964.00 0.1686
964.10 0.1687
964.20 0.1687
964.30 0.1688
964.40 0.1688
964.50 0.1688
964.60 0.1689
964.70 0.1689
964.80 0.1689
964.90 0.1689
965.00 0.169
965.10 0.169
965.20 0.169
965.30 0.169
965.40 0.1691
965.50 0.1691
965.60 0.1691
965.70 0.1691
965.80 0.1692
965.90 0.1692
966.00 0.1692
966.10 0.1693
966.20 0.1693
966.30 0.1693
966.40 0.1693
966.50 0.1693
966.60 0.1693
966.70 0.1693
966.80 0.1693
966.90 0.1693
967.00 0.1694
967.10 0.1693
967.20 0.1693
967.30 0.1693
967.40 0.1693
967.50 0.1693
967.60 0.1693
967.70 0.1693
967.80 0.1693
967.90 0.1693
968.00 0.1693
968.10 0.1693
968.20 0.1693
968.30 0.1693
968.40 0.1693
968.50 0.1692
968.60 0.1692
968.70 0.1692
968.80 0.1692
968.90 0.1692
969.00 0.1691
969.10 0.1691
969.20 0.1691
969.30 0.1691
969.40 0.1691
969.50 0.169
969.60 0.169
969.70 0.169
969.80 0.169
969.90 0.169
970.00 0.169
970.10 0.1689
970.20 0.1689
970.30 0.1689
970.40 0.1689
970.50 0.1688
970.60 0.1688
970.70 0.1688
970.80 0.1687
970.90 0.1687
971.00 0.1687
971.10 0.1687
971.20 0.1686
971.30 0.1686
971.40 0.1686
971.50 0.1685
971.60 0.1685
971.70 0.1685
971.80 0.1684
971.90 0.1684
972.00 0.1684
972.10 0.1683
972.20 0.1683
972.30 0.1683
972.40 0.1682
972.50 0.1682
972.60 0.1682
972.70 0.1681
972.80 0.1681
972.90 0.168
973.00 0.168
973.10 0.168
973.20 0.1679
973.30 0.1679
973.40 0.1679
973.50 0.1678
973.60 0.1678
973.70 0.1677
973.80 0.1677
973.90 0.1677
974.00 0.1676
974.10 0.1676
974.20 0.1676
974.30 0.1675
974.40 0.1675
974.50 0.1674
974.60 0.1674
974.70 0.1673
974.80 0.1673
974.90 0.1673
975.00 0.1672
975.10 0.1672
975.20 0.1671
975.30 0.1671
975.40 0.167
975.50 0.167
975.60 0.1669
975.70 0.1669
975.80 0.1669
975.90 0.1668
976.00 0.1668
976.10 0.1667
976.20 0.1667
976.30 0.1666
976.40 0.1666
976.50 0.1665
976.60 0.1665
976.70 0.1665
976.80 0.1664
976.90 0.1664
977.00 0.1663
977.10 0.1663
977.20 0.1662
977.30 0.1662
977.40 0.1661
977.50 0.1661
977.60 0.166
977.70 0.1659
977.80 0.1659
977.90 0.1658
978.00 0.1658
978.10 0.1657
978.20 0.1657
978.30 0.1656
978.40 0.1656
978.50 0.1655
978.60 0.1655
978.70 0.1654
978.80 0.1654
978.90 0.1653
979.00 0.1652
979.10 0.1652
979.20 0.1651
979.30 0.1651
979.40 0.165
979.50 0.165
979.60 0.1649
979.70 0.1649
979.80 0.1648
979.90 0.1648
980.00 0.1647
980.10 0.1647
980.20 0.1646
980.30 0.1646
980.40 0.1645
980.50 0.1644
980.60 0.1644
980.70 0.1643
980.80 0.1643
980.90 0.1642
981.00 0.1642
981.10 0.1641
981.20 0.1641
981.30 0.164
981.40 0.164
981.50 0.1639
981.60 0.1639
981.70 0.1638
981.80 0.1637
981.90 0.1637
982.00 0.1636
982.10 0.1636
982.20 0.1635
982.30 0.1635
982.40 0.1634
982.50 0.1633
982.60 0.1633
982.70 0.1632
982.80 0.1632
982.90 0.1631
983.00 0.163
983.10 0.163
983.20 0.1629
983.30 0.1629
983.40 0.1628
983.50 0.1627
983.60 0.1627
983.70 0.1626
983.80 0.1625
983.90 0.1625
984.00 0.1624
984.10 0.1624
984.20 0.1623
984.30 0.1622
984.40 0.1622
984.50 0.1621
984.60 0.1621
984.70 0.162
984.80 0.1619
984.90 0.1619
985.00 0.1618
985.10 0.1617
985.20 0.1617
985.30 0.1616
985.40 0.1615
985.50 0.1615
985.60 0.1614
985.70 0.1613
985.80 0.1613
985.90 0.1612
986.00 0.1611
986.10 0.161
986.20 0.161
986.30 0.1609
986.40 0.1608
986.50 0.1608
986.60 0.1607
986.70 0.1606
986.80 0.1606
986.90 0.1605
987.00 0.1604
987.10 0.1604
987.20 0.1603
987.30 0.1602
987.40 0.1601
987.50 0.1601
987.60 0.16
987.70 0.1599
987.80 0.1598
987.90 0.1597
988.00 0.1597
988.10 0.1596
988.20 0.1595
988.30 0.1594
988.40 0.1593
988.50 0.1593
988.60 0.1592
988.70 0.1591
988.80 0.159
988.90 0.1589
989.00 0.1588
989.10 0.1588
989.20 0.1587
989.30 0.1586
989.40 0.1585
989.50 0.1584
989.60 0.1583
989.70 0.1582
989.80 0.1581
989.90 0.1581
990.00 0.158
990.10 0.1579
990.20 0.1578
990.30 0.1577
990.40 0.1576
990.50 0.1575
990.60 0.1575
990.70 0.1574
990.80 0.1573
990.90 0.1572
991.00 0.1571
991.10 0.1569
991.20 0.1568
991.30 0.1567
991.40 0.1566
991.50 0.1565
991.60 0.1564
991.70 0.1563
991.80 0.1562
991.90 0.1561
992.00 0.156
992.10 0.1559
992.20 0.1558
992.30 0.1557
992.40 0.1556
992.50 0.1555
992.60 0.1554
992.70 0.1552
992.80 0.1551
992.90 0.155
993.00 0.1548
993.10 0.1547
993.20 0.1546
993.30 0.1544
993.40 0.1543
993.50 0.1542
993.60 0.154
993.70 0.1539
993.80 0.1538
993.90 0.1536
994.00 0.1535
994.10 0.1534
994.20 0.1532
994.30 0.1531
994.40 0.153
994.50 0.1528
994.60 0.1527
994.70 0.1525
994.80 0.1524
994.90 0.1522
995.00 0.1521
995.10 0.1519
995.20 0.1517
995.30 0.1516
995.40 0.1514
995.50 0.1513
995.60 0.1511
995.70 0.1509
995.80 0.1507
995.90 0.1505
996.00 0.1503
996.10 0.1501
996.20 0.1499
996.30 0.1497
996.40 0.1495
996.50 0.1493
996.60 0.1491
996.70 0.1489
996.80 0.1487
996.90 0.1485
997.00 0.1483
997.10 0.1481
997.20 0.1479
997.30 0.1476
997.40 0.1474
997.50 0.1472
997.60 0.147
997.70 0.1467
997.80 0.1463
997.90 0.146
998.00 0.1457
998.10 0.1454
998.20 0.145
998.30 0.1447
998.40 0.1444
998.50 0.1441
998.60 0.1437
998.70 0.1434
998.80 0.1431
998.90 0.1428
999.00 0.1425
999.10 0.1421
999.20 0.1418
999.30 0.1415
999.40 0.1412
999.50 0.1408
999.60 0.1405
999.70 0.14
999.80 0.1395
999.90 0.1389
1000.00 0.1384
1000.10 0.1379
1000.20 0.1373
1000.30 0.1368
1000.40 0.1362
1000.50 0.1357
1000.60 0.1351
1000.70 0.1346
1000.80 0.1341
1000.90 0.1335
1001.00 0.133
1001.10 0.1324
1001.20 0.1319
1001.30 0.1313
1001.40 0.1308
1001.50 0.1303
1001.60 0.1297
1001.70 0.129
1001.80 0.1283
1001.90 0.1276
1002.00 0.1269
1002.10 0.126
1002.20 0.1251
1002.30 0.1243
1002.40 0.1234
1002.50 0.1225
1002.60 0.1217
1002.70 0.1208
1002.80 0.1199
1002.90 0.1191
1003.00 0.1182
1003.10 0.1173
1003.20 0.1163
1003.30 0.1152
1003.40 0.1141
1003.50 0.113
1003.60 0.1119
1003.70 0.1108
1003.80 0.1097
1003.90 0.1086
1004.00 0.1074
1004.10 0.1062
1004.20 0.105
1004.30 0.1039
1004.40 0.1028
1004.50 0.102
1004.60 0.1025
1004.70 0.1018
1004.80 0.1022
1004.90 0.1033
1005.00 0.1043
1005.10 0.1054
1005.20 0.1065
1005.30 0.1076
1005.40 0.1087
1005.50 0.1097
1005.60 0.1108
1005.70 0.1118
1005.80 0.1128
1005.90 0.1138
1006.00 0.1148
1006.10 0.1158
1006.20 0.1167
1006.30 0.1175
1006.40 0.1183
1006.50 0.1191
1006.60 0.1199
1006.70 0.1208
1006.80 0.1216
1006.90 0.1224
1007.00 0.1232
1007.10 0.1238
1007.20 0.1245
1007.30 0.1251
1007.40 0.1258
1007.50 0.1264
1007.60 0.1271
1007.70 0.1276
1007.80 0.128
1007.90 0.1285
1008.00 0.1289
1008.10 0.1294
1008.20 0.1298
1008.30 0.1303
1008.40 0.1307
1008.50 0.1312
1008.60 0.1316
1008.70 0.1321
1008.80 0.1325
1008.90 0.133
1009.00 0.1334
1009.10 0.1339
1009.20 0.1343
1009.30 0.1348
1009.40 0.1352
1009.50 0.1357
1009.60 0.1361
1009.70 0.1364
1009.80 0.1366
1009.90 0.1368
1010.00 0.1371
1010.10 0.1373
1010.20 0.1375
1010.30 0.1377
1010.40 0.138
1010.50 0.1382
1010.60 0.1384
1010.70 0.1386
1010.80 0.1389
1010.90 0.1391
1011.00 0.1393
1011.10 0.1395
1011.20 0.1398
1011.30 0.14
1011.40 0.1402
1011.50 0.1404
1011.60 0.1406
1011.70 0.1408
1011.80 0.141
1011.90 0.1411
1012.00 0.1413
1012.10 0.1414
1012.20 0.1415
1012.30 0.1416
1012.40 0.1417
1012.50 0.1418
1012.60 0.1419
1012.70 0.142
1012.80 0.1421
1012.90 0.1422
1013.00 0.1423
1013.10 0.1424
1013.20 0.1425
1013.30 0.1426
1013.40 0.1427
1013.50 0.1428
1013.60 0.1429
1013.70 0.143
1013.80 0.1431
1013.90 0.1431
1014.00 0.1432
1014.10 0.1433
1014.20 0.1433
1014.30 0.1434
1014.40 0.1434
1014.50 0.1435
1014.60 0.1436
1014.70 0.1436
1014.80 0.1437
1014.90 0.1437
1015.00 0.1437
1015.10 0.1438
1015.20 0.1438
1015.30 0.1438
1015.40 0.1439
1015.50 0.1439
1015.60 0.144
1015.70 0.144
1015.80 0.144
1015.90 0.1441
1016.00 0.1441
1016.10 0.1441
1016.20 0.1442
1016.30 0.1442
1016.40 0.1443
1016.50 0.1443
1016.60 0.1443
1016.70 0.1443
1016.80 0.1444
1016.90 0.1444
1017.00 0.1444
1017.10 0.1444
1017.20 0.1444
1017.30 0.1444
1017.40 0.1444
1017.50 0.1444
1017.60 0.1444
1017.70 0.1444
1017.80 0.1444
1017.90 0.1445
1018.00 0.1445
1018.10 0.1445
1018.20 0.1445
1018.30 0.1445
1018.40 0.1445
1018.50 0.1445
1018.60 0.1445
1018.70 0.1445
1018.80 0.1445
1018.90 0.1445
1019.00 0.1445
1019.10 0.1445
1019.20 0.1444
1019.30 0.1444
1019.40 0.1444
1019.50 0.1444
1019.60 0.1444
1019.70 0.1444
1019.80 0.1444
1019.90 0.1444
1020.00 0.1444
1020.10 0.1444
1020.20 0.1444
1020.30 0.1444
1020.40 0.1444
1020.50 0.1443
1020.60 0.1443
1020.70 0.1443
1020.80 0.1443
1020.90 0.1443
1021.00 0.1443
1021.10 0.1443
1021.20 0.1442
1021.30 0.1442
1021.40 0.1442
1021.50 0.1442
1021.60 0.1442
1021.70 0.1442
1021.80 0.1442
1021.90 0.1441
1022.00 0.1441
1022.10 0.1441
1022.20 0.1441
1022.30 0.144
1022.40 0.144
1022.50 0.144
1022.60 0.144
1022.70 0.1439
1022.80 0.1439
1022.90 0.1439
1023.00 0.1439
1023.10 0.1438
1023.20 0.1438
1023.30 0.1438
1023.40 0.1438
1023.50 0.1437
1023.60 0.1437
1023.70 0.1437
1023.80 0.1437
1023.90 0.1436
1024.00 0.1436
1024.10 0.1436
1024.20 0.1436
1024.30 0.1435
1024.40 0.1435
1024.50 0.1435
1024.60 0.1435
1024.70 0.1434
1024.80 0.1434
1024.90 0.1434
1025.00 0.1433
1025.10 0.1433
1025.20 0.1433
1025.30 0.1433
1025.40 0.1432
1025.50 0.1432
1025.60 0.1432
1025.70 0.1431
1025.80 0.1431
1025.90 0.1431
1026.00 0.143
1026.10 0.143
1026.20 0.143
1026.30 0.1429
1026.40 0.1429
1026.50 0.1429
1026.60 0.1428
1026.70 0.1428
1026.80 0.1428
1026.90 0.1428
1027.00 0.1427
1027.10 0.1427
1027.20 0.1426
1027.30 0.1426
1027.40 0.1426
1027.50 0.1425
1027.60 0.1425
1027.70 0.1425
1027.80 0.1424
1027.90 0.1424
1028.00 0.1424
1028.10 0.1423
1028.20 0.1423
1028.30 0.1423
1028.40 0.1422
1028.50 0.1422
1028.60 0.1421
1028.70 0.1421
1028.80 0.1421
1028.90 0.142
1029.00 0.142
1029.10 0.142
1029.20 0.1419
1029.30 0.1419
1029.40 0.1419
1029.50 0.1418
1029.60 0.1418
1029.70 0.1418
1029.80 0.1417
1029.90 0.1417
1030.00 0.1416
1030.10 0.1416
1030.20 0.1416
1030.30 0.1415
1030.40 0.1415
1030.50 0.1415
1030.60 0.1414
1030.70 0.1414
1030.80 0.1414
1030.90 0.1413
1031.00 0.1413
1031.10 0.1413
1031.20 0.1412
1031.30 0.1412
1031.40 0.1412
1031.50 0.1411
1031.60 0.1411
1031.70 0.141
1031.80 0.141
1031.90 0.141
1032.00 0.1409
1032.10 0.1409
1032.20 0.1409
1032.30 0.1408
1032.40 0.1408
1032.50 0.1407
1032.60 0.1407
1032.70 0.1407
1032.80 0.1406
1032.90 0.1406
1033.00 0.1405
1033.10 0.1405
1033.20 0.1405
1033.30 0.1404
1033.40 0.1404
1033.50 0.1404
1033.60 0.1403
1033.70 0.1403
1033.80 0.1402
1033.90 0.1402
1034.00 0.1402
1034.10 0.1401
1034.20 0.1401
1034.30 0.14
1034.40 0.14
1034.50 0.14
1034.60 0.1399
1034.70 0.1399
1034.80 0.1399
1034.90 0.1398
1035.00 0.1398
1035.10 0.1397
1035.20 0.1397
1035.30 0.1397
1035.40 0.1396
1035.50 0.1396
1035.60 0.1395
1035.70 0.1395
1035.80 0.1395
1035.90 0.1394
1036.00 0.1394
1036.10 0.1394
1036.20 0.1393
1036.30 0.1393
1036.40 0.1392
1036.50 0.1392
1036.60 0.1392
1036.70 0.1391
1036.80 0.1391
1036.90 0.139
1037.00 0.139
1037.10 0.139
1037.20 0.1389
1037.30 0.1389
1037.40 0.1388
1037.50 0.1388
1037.60 0.1388
1037.70 0.1387
1037.80 0.1387
1037.90 0.1386
1038.00 0.1386
1038.10 0.1386
1038.20 0.1385
1038.30 0.1385
1038.40 0.1384
1038.50 0.1384
1038.60 0.1384
1038.70 0.1383
1038.80 0.1383
1038.90 0.1382
1039.00 0.1382
1039.10 0.1382
1039.20 0.1381
1039.30 0.1381
1039.40 0.138
1039.50 0.138
1039.60 0.138
1039.70 0.1379
1039.80 0.1379
1039.90 0.1378
1040.00 0.1378
1040.10 0.1378
1040.20 0.1377
1040.30 0.1377
1040.40 0.1376
1040.50 0.1376
1040.60 0.1376
1040.70 0.1375
1040.80 0.1375
1040.90 0.1374
1041.00 0.1374
1041.10 0.1374
1041.20 0.1373
1041.30 0.1373
1041.40 0.1372
1041.50 0.1372
1041.60 0.1372
1041.70 0.1371
1041.80 0.1371
1041.90 0.137
1042.00 0.137
1042.10 0.137
1042.20 0.1369
1042.30 0.1369
1042.40 0.1368
1042.50 0.1368
1042.60 0.1368
1042.70 0.1367
1042.80 0.1367
1042.90 0.1366
1043.00 0.1366
1043.10 0.1366
1043.20 0.1365
1043.30 0.1365
1043.40 0.1364
1043.50 0.1364
1043.60 0.1363
1043.70 0.1363
1043.80 0.1363
1043.90 0.1362
1044.00 0.1362
1044.10 0.1361
1044.20 0.1361
1044.30 0.1361
1044.40 0.136
1044.50 0.136
1044.60 0.1359
1044.70 0.1359
1044.80 0.1359
1044.90 0.1358
1045.00 0.1358
1045.10 0.1357
1045.20 0.1357
1045.30 0.1357
1045.40 0.1356
1045.50 0.1356
1045.60 0.1355
1045.70 0.1355
1045.80 0.1355
1045.90 0.1354
1046.00 0.1354
1046.10 0.1353
1046.20 0.1353
1046.30 0.1353
1046.40 0.1352
1046.50 0.1352
1046.60 0.1351
1046.70 0.1351
1046.80 0.1351
1046.90 0.135
1047.00 0.135
1047.10 0.1349
1047.20 0.1349
1047.30 0.1349
1047.40 0.1348
1047.50 0.1348
1047.60 0.1347
1047.70 0.1347
1047.80 0.1347
1047.90 0.1346
1048.00 0.1346
1048.10 0.1345
1048.20 0.1345
1048.30 0.1344
1048.40 0.1344
1048.50 0.1344
1048.60 0.1343
1048.70 0.1343
1048.80 0.1342
1048.90 0.1342
1049.00 0.1342
1049.10 0.1341
1049.20 0.1341
1049.30 0.134
1049.40 0.134
1049.50 0.134
1049.60 0.1339
1049.70 0.1339
1049.80 0.1338
1049.90 0.1338
1050.00 0.1338
1050.10 0.1337
1050.20 0.1337
1050.30 0.1336
1050.40 0.1336
1050.50 0.1336
1050.60 0.1335
1050.70 0.1335
1050.80 0.1334
1050.90 0.1334
1051.00 0.1334
1051.10 0.1333
1051.20 0.1333
1051.30 0.1332
1051.40 0.1332
1051.50 0.1332
1051.60 0.1331
1051.70 0.1331
1051.80 0.133
1051.90 0.133
1052.00 0.1329
1052.10 0.1329
1052.20 0.1329
1052.30 0.1328
1052.40 0.1328
1052.50 0.1327
1052.60 0.1327
1052.70 0.1327
1052.80 0.1326
1052.90 0.1326
1053.00 0.1325
1053.10 0.1325
1053.20 0.1325
1053.30 0.1324
1053.40 0.1324
1053.50 0.1323
1053.60 0.1323
1053.70 0.1323
1053.80 0.1322
1053.90 0.1322
1054.00 0.1321
1054.10 0.1321
1054.20 0.1321
1054.30 0.132
1054.40 0.132
1054.50 0.1319
1054.60 0.1319
1054.70 0.1318
1054.80 0.1318
1054.90 0.1318
1055.00 0.1317
1055.10 0.1317
1055.20 0.1316
1055.30 0.1316
1055.40 0.1316
1055.50 0.1315
1055.60 0.1315
1055.70 0.1314
1055.80 0.1314
1055.90 0.1314
1056.00 0.1313
1056.10 0.1313
1056.20 0.1312
1056.30 0.1312
1056.40 0.1312
1056.50 0.1311
1056.60 0.1311
1056.70 0.131
1056.80 0.131
1056.90 0.131
1057.00 0.1309
1057.10 0.1309
1057.20 0.1308
1057.30 0.1308
1057.40 0.1308
1057.50 0.1307
1057.60 0.1307
1057.70 0.1306
1057.80 0.1306
1057.90 0.1305
1058.00 0.1305
1058.10 0.1305
1058.20 0.1304
1058.30 0.1304
1058.40 0.1303
1058.50 0.1303
1058.60 0.1303
1058.70 0.1302
1058.80 0.1302
1058.90 0.1301
1059.00 0.1301
1059.10 0.1301
1059.20 0.13
1059.30 0.13
1059.40 0.1299
1059.50 0.1299
1059.60 0.1298
1059.70 0.1298
1059.80 0.1298
1059.90 0.1297
1060.00 0.1297
1060.10 0.1296
1060.20 0.1296
1060.30 0.1296
1060.40 0.1295
1060.50 0.1295
1060.60 0.1294
1060.70 0.1294
1060.80 0.1294
1060.90 0.1293
1061.00 0.1293
1061.10 0.1292
1061.20 0.1292
1061.30 0.1292
1061.40 0.1291
1061.50 0.1291
1061.60 0.129
1061.70 0.129
1061.80 0.1289
1061.90 0.1289
1062.00 0.1289
1062.10 0.1288
1062.20 0.1288
1062.30 0.1287
1062.40 0.1287
1062.50 0.1287
1062.60 0.1286
1062.70 0.1286
1062.80 0.1285
1062.90 0.1285
1063.00 0.1284
1063.10 0.1284
1063.20 0.1284
1063.30 0.1283
1063.40 0.1283
1063.50 0.1282
1063.60 0.1282
1063.70 0.1281
1063.80 0.1281
1063.90 0.1281
1064.00 0.128
1064.10 0.128
1064.20 0.1279
1064.30 0.1279
1064.40 0.1278
1064.50 0.1278
1064.60 0.1278
1064.70 0.1277
1064.80 0.1277
1064.90 0.1276
1065.00 0.1276
1065.10 0.1276
1065.20 0.1275
1065.30 0.1275
1065.40 0.1274
1065.50 0.1274
1065.60 0.1273
1065.70 0.1273
1065.80 0.1273
1065.90 0.1272
1066.00 0.1272
1066.10 0.1271
1066.20 0.1271
1066.30 0.127
1066.40 0.127
1066.50 0.127
1066.60 0.1269
1066.70 0.1269
1066.80 0.1268
1066.90 0.1268
1067.00 0.1268
1067.10 0.1267
1067.20 0.1267
1067.30 0.1266
1067.40 0.1266
1067.50 0.1265
1067.60 0.1265
1067.70 0.1264
1067.80 0.1264
1067.90 0.1263
1068.00 0.1263
1068.10 0.1262
1068.20 0.1262
1068.30 0.1262
1068.40 0.1261
1068.50 0.1261
1068.60 0.126
1068.70 0.126
1068.80 0.1259
1068.90 0.1259
1069.00 0.1258
1069.10 0.1258
1069.20 0.1257
1069.30 0.1257
1069.40 0.1256
1069.50 0.1256
1069.60 0.1256
1069.70 0.1255
1069.80 0.1255
1069.90 0.1254
1070.00 0.1254
1070.10 0.1253
1070.20 0.1253
1070.30 0.1252
1070.40 0.1252
1070.50 0.1251
1070.60 0.1251
1070.70 0.1251
1070.80 0.125
1070.90 0.125
1071.00 0.1249
1071.10 0.1249
1071.20 0.1248
1071.30 0.1248
1071.40 0.1247
1071.50 0.1247
1071.60 0.1246
1071.70 0.1246
1071.80 0.1246
1071.90 0.1245
1072.00 0.1245
1072.10 0.1244
1072.20 0.1244
1072.30 0.1243
1072.40 0.1243
1072.50 0.1242
1072.60 0.1242
1072.70 0.1241
1072.80 0.1241
1072.90 0.124
1073.00 0.124
1073.10 0.1239
1073.20 0.1239
1073.30 0.1238
1073.40 0.1238
1073.50 0.1237
1073.60 0.1237
1073.70 0.1236
1073.80 0.1236
1073.90 0.1235
1074.00 0.1235
1074.10 0.1234
1074.20 0.1233
1074.30 0.1233
1074.40 0.1232
1074.50 0.1232
1074.60 0.1231
1074.70 0.1231
1074.80 0.123
1074.90 0.123
1075.00 0.1229
1075.10 0.1229
1075.20 0.1228
1075.30 0.1227
1075.40 0.1227
1075.50 0.1226
1075.60 0.1226
1075.70 0.1225
1075.80 0.1225
1075.90 0.1224
1076.00 0.1224
1076.10 0.1223
1076.20 0.1223
1076.30 0.1222
1076.40 0.1221
1076.50 0.1221
1076.60 0.122
1076.70 0.122
1076.80 0.1219
1076.90 0.1219
1077.00 0.1218
1077.10 0.1218
1077.20 0.1217
1077.30 0.1216
1077.40 0.1216
1077.50 0.1215
1077.60 0.1215
1077.70 0.1214
1077.80 0.1213
1077.90 0.1213
1078.00 0.1212
1078.10 0.1211
1078.20 0.1211
1078.30 0.121
1078.40 0.1209
1078.50 0.1209
1078.60 0.1208
1078.70 0.1207
1078.80 0.1207
1078.90 0.1206
1079.00 0.1205
1079.10 0.1205
1079.20 0.1204
1079.30 0.1203
1079.40 0.1203
1079.50 0.1202
1079.60 0.1201
1079.70 0.12
1079.80 0.12
1079.90 0.1199
1080.00 0.1198
1080.10 0.1197
1080.20 0.1196
1080.30 0.1196
1080.40 0.1195
1080.50 0.1194
1080.60 0.1193
1080.70 0.1192
1080.80 0.1191
1080.90 0.1191
1081.00 0.119
1081.10 0.1189
1081.20 0.1188
1081.30 0.1187
1081.40 0.1186
1081.50 0.1186
1081.60 0.1185
1081.70 0.1184
1081.80 0.1183
1081.90 0.1182
1082.00 0.1181
1082.10 0.118
1082.20 0.1179
1082.30 0.1178
1082.40 0.1177
1082.50 0.1176
1082.60 0.1175
1082.70 0.1174
1082.80 0.1173
1082.90 0.1172
1083.00 0.1171
1083.10 0.117
1083.20 0.1169
1083.30 0.1168
1083.40 0.1167
1083.50 0.1166
1083.60 0.1164
1083.70 0.1163
1083.80 0.1162
1083.90 0.1161
1084.00 0.116
1084.10 0.1158
1084.20 0.1157
1084.30 0.1156
1084.40 0.1155
1084.50 0.1154
1084.60 0.1152
1084.70 0.1151
1084.80 0.1149
1084.90 0.1148
1085.00 0.1146
1085.10 0.1144
1085.20 0.1143
1085.30 0.1141
1085.40 0.114
1085.50 0.1138
1085.60 0.1137
1085.70 0.1135
1085.80 0.1134
1085.90 0.1132
1086.00 0.1131
1086.10 0.1129
1086.20 0.1128
1086.30 0.1126
1086.40 0.1125
1086.50 0.1123
1086.60 0.1121
1086.70 0.1119
1086.80 0.1117
1086.90 0.1115
1087.00 0.1113
1087.10 0.111
1087.20 0.1107
1087.30 0.1104
1087.40 0.1102
1087.50 0.1099
1087.60 0.1096
1087.70 0.1094
1087.80 0.1091
1087.90 0.1088
1088.00 0.1085
1088.10 0.1083
1088.20 0.108
1088.30 0.1077
1088.40 0.1074
1088.50 0.1071
1088.60 0.1067
1088.70 0.1063
1088.80 0.1058
1088.90 0.1054
1089.00 0.105
1089.10 0.1046
1089.20 0.1042
1089.30 0.1037
1089.40 0.1033
1089.50 0.1029
1089.60 0.1025
1089.70 0.102
1089.80 0.1016
1089.90 0.1012
1090.00 0.1008
1090.10 0.1004
1090.20 0.09993
1090.30 0.09951
1090.40 0.09908
1090.50 0.0986
1090.60 0.09798
1090.70 0.09736
1090.80 0.09674
1090.90 0.09612
1091.00 0.09549
1091.10 0.09487
1091.20 0.09425
1091.30 0.09363
1091.40 0.09302
1091.50 0.0924
1091.60 0.09178
1091.70 0.09116
1091.80 0.09054
1091.90 0.08992
1092.00 0.08926
1092.10 0.08843
1092.20 0.0876
1092.30 0.08678
1092.40 0.08595
1092.50 0.08512
1092.60 0.0843
1092.70 0.08343
1092.80 0.08248
1092.90 0.08152
1093.00 0.08057
1093.10 0.07954
1093.20 0.07836
1093.30 0.07715
1093.40 0.07567
1093.50 0.07534
1093.60 0.07656
1093.70 0.07784
1093.80 0.07898
1093.90 0.08004
1094.00 0.08095
1094.10 0.08185
1094.20 0.08275
1094.30 0.08362
1094.40 0.08439
1094.50 0.08515
1094.60 0.08592
1094.70 0.08669
1094.80 0.08746
1094.90 0.08823
1095.00 0.08893
1095.10 0.08949
1095.20 0.09005
1095.30 0.09061
1095.40 0.09116
1095.50 0.09172
1095.60 0.09228
1095.70 0.09284
1095.80 0.09339
1095.90 0.09395
1096.00 0.09451
1096.10 0.09507
1096.20 0.09562
1096.30 0.09618
1096.40 0.09673
1096.50 0.09725
1096.60 0.09767
1096.70 0.09809
1096.80 0.09851
1096.90 0.09893
1097.00 0.09936
1097.10 0.09969
1097.20 0.1
1097.30 0.1003
1097.40 0.1007
1097.50 0.101
1097.60 0.1013
1097.70 0.1017
1097.80 0.102
1097.90 0.1023
1098.00 0.1026
1098.10 0.103
1098.20 0.1033
1098.30 0.1036
1098.40 0.104
1098.50 0.1042
1098.60 0.1044
1098.70 0.1046
1098.80 0.1048
1098.90 0.105
1099.00 0.1052
1099.10 0.1053
1099.20 0.1055
1099.30 0.1057
1099.40 0.1059
1099.50 0.1061
1099.60 0.1063
1099.70 0.1064
1099.80 0.1066
1099.90 0.1068
1100.00 0.107
1100.10 0.1072
1100.20 0.1074
1100.30 0.1075
1100.40 0.1077
1100.50 0.1079
1100.60 0.108
1100.70 0.108
1100.80 0.1081
1100.90 0.1082
1101.00 0.1083
1101.10 0.1084
1101.20 0.1085
1101.30 0.1086
1101.40 0.1087
1101.50 0.1087
1101.60 0.1088
1101.70 0.1089
1101.80 0.109
1101.90 0.1091
1102.00 0.1092
1102.10 0.1092
1102.20 0.1093
1102.30 0.1094
1102.40 0.1094
1102.50 0.1095
1102.60 0.1095
1102.70 0.1096
1102.80 0.1097
1102.90 0.1097
1103.00 0.1098
1103.10 0.1098
1103.20 0.1099
1103.30 0.1099
1103.40 0.11
1103.50 0.11
1103.60 0.1101
1103.70 0.1101
1103.80 0.1101
1103.90 0.1101
1104.00 0.1102
1104.10 0.1102
1104.20 0.1102
1104.30 0.1103
1104.40 0.1103
1104.50 0.1103
1104.60 0.1103
1104.70 0.1104
1104.80 0.1104
1104.90 0.1104
1105.00 0.1105
1105.10 0.1105
1105.20 0.1105
1105.30 0.1105
1105.40 0.1106
1105.50 0.1106
1105.60 0.1106
1105.70 0.1106
1105.80 0.1106
1105.90 0.1106
1106.00 0.1107
1106.10 0.1107
1106.20 0.1107
1106.30 0.1107
1106.40 0.1107
1106.50 0.1107
1106.60 0.1107
1106.70 0.1107
1106.80 0.1107
1106.90 0.1107
1107.00 0.1108
1107.10 0.1108
1107.20 0.1108
1107.30 0.1108
1107.40 0.1108
1107.50 0.1108
1107.60 0.1108
1107.70 0.1108
1107.80 0.1108
1107.90 0.1108
1108.00 0.1108
1108.10 0.1108
1108.20 0.1108
1108.30 0.1108
1108.40 0.1108
1108.50 0.1108
1108.60 0.1108
1108.70 0.1108
1108.80 0.1108
1108.90 0.1107
1109.00 0.1107
1109.10 0.1107
1109.20 0.1107
1109.30 0.1107
1109.40 0.1107
1109.50 0.1107
1109.60 0.1107
1109.70 0.1107
1109.80 0.1107
1109.90 0.1107
1110.00 0.1106
1110.10 0.1106
1110.20 0.1106
1110.30 0.1106
1110.40 0.1106
1110.50 0.1106
1110.60 0.1106
1110.70 0.1106
1110.80 0.1105
1110.90 0.1105
1111.00 0.1105
1111.10 0.1105
1111.20 0.1105
1111.30 0.1105
1111.40 0.1105
1111.50 0.1104
1111.60 0.1104
1111.70 0.1104
1111.80 0.1104
1111.90 0.1104
1112.00 0.1104
1112.10 0.1104
1112.20 0.1103
1112.30 0.1103
1112.40 0.1103
1112.50 0.1103
1112.60 0.1103
1112.70 0.1103
1112.80 0.1102
1112.90 0.1102
1113.00 0.1102
1113.10 0.1102
1113.20 0.1102
1113.30 0.1101
1113.40 0.1101
1113.50 0.1101
1113.60 0.1101
1113.70 0.1101
1113.80 0.11
1113.90 0.11
1114.00 0.11
1114.10 0.11
1114.20 0.11
1114.30 0.1099
1114.40 0.1099
1114.50 0.1099
1114.60 0.1099
1114.70 0.1099
1114.80 0.1098
1114.90 0.1098
1115.00 0.1098
1115.10 0.1098
1115.20 0.1097
1115.30 0.1097
1115.40 0.1097
1115.50 0.1097
1115.60 0.1097
1115.70 0.1096
1115.80 0.1096
1115.90 0.1096
1116.00 0.1096
1116.10 0.1096
1116.20 0.1095
1116.30 0.1095
1116.40 0.1095
1116.50 0.1095
1116.60 0.1094
1116.70 0.1094
1116.80 0.1094
1116.90 0.1094
1117.00 0.1094
1117.10 0.1093
1117.20 0.1093
1117.30 0.1093
1117.40 0.1093
1117.50 0.1092
1117.60 0.1092
1117.70 0.1092
1117.80 0.1092
1117.90 0.1091
1118.00 0.1091
1118.10 0.1091
1118.20 0.109
1118.30 0.109
1118.40 0.109
1118.50 0.109
1118.60 0.1089
1118.70 0.1089
1118.80 0.1089
1118.90 0.1089
1119.00 0.1088
1119.10 0.1088
1119.20 0.1088
1119.30 0.1088
1119.40 0.1087
1119.50 0.1087
1119.60 0.1087
1119.70 0.1086
1119.80 0.1086
1119.90 0.1086
1120.00 0.1086
1120.10 0.1085
1120.20 0.1085
1120.30 0.1085
1120.40 0.1085
1120.50 0.1084
1120.60 0.1084
1120.70 0.1084
1120.80 0.1084
1120.90 0.1083
1121.00 0.1083
1121.10 0.1083
1121.20 0.1083
1121.30 0.1082
1121.40 0.1082
1121.50 0.1082
1121.60 0.1082
1121.70 0.1081
1121.80 0.1081
1121.90 0.1081
1122.00 0.108
1122.10 0.108
1122.20 0.108
1122.30 0.108
1122.40 0.1079
1122.50 0.1079
1122.60 0.1079
1122.70 0.1079
1122.80 0.1078
1122.90 0.1078
1123.00 0.1078
1123.10 0.1077
1123.20 0.1077
1123.30 0.1077
1123.40 0.1077
1123.50 0.1076
1123.60 0.1076
1123.70 0.1076
1123.80 0.1075
1123.90 0.1075
1124.00 0.1075
1124.10 0.1075
1124.20 0.1074
1124.30 0.1074
1124.40 0.1074
1124.50 0.1073
1124.60 0.1073
1124.70 0.1073
1124.80 0.1073
1124.90 0.1072
1125.00 0.1072
1125.10 0.1072
1125.20 0.1072
1125.30 0.1071
1125.40 0.1071
1125.50 0.1071
1125.60 0.107
1125.70 0.107
1125.80 0.107
1125.90 0.107
1126.00 0.1069
1126.10 0.1069
1126.20 0.1069
1126.30 0.1068
1126.40 0.1068
1126.50 0.1068
1126.60 0.1068
1126.70 0.1067
1126.80 0.1067
1126.90 0.1067
1127.00 0.1067
1127.10 0.1066
1127.20 0.1066
1127.30 0.1066
1127.40 0.1065
1127.50 0.1065
1127.60 0.1065
1127.70 0.1064
1127.80 0.1064
1127.90 0.1064
1128.00 0.1064
1128.10 0.1063
1128.20 0.1063
1128.30 0.1063
1128.40 0.1062
1128.50 0.1062
1128.60 0.1062
1128.70 0.1062
1128.80 0.1061
1128.90 0.1061
1129.00 0.1061
1129.10 0.106
1129.20 0.106
1129.30 0.106
1129.40 0.106
1129.50 0.1059
1129.60 0.1059
1129.70 0.1059
1129.80 0.1058
1129.90 0.1058
1130.00 0.1058
1130.10 0.1058
1130.20 0.1057
1130.30 0.1057
1130.40 0.1057
1130.50 0.1056
1130.60 0.1056
1130.70 0.1056
1130.80 0.1056
1130.90 0.1055
1131.00 0.1055
1131.10 0.1055
1131.20 0.1054
1131.30 0.1054
1131.40 0.1054
1131.50 0.1054
1131.60 0.1053
1131.70 0.1053
1131.80 0.1053
1131.90 0.1052
1132.00 0.1052
1132.10 0.1052
1132.20 0.1052
1132.30 0.1051
1132.40 0.1051
1132.50 0.1051
1132.60 0.105
1132.70 0.105
1132.80 0.105
1132.90 0.105
1133.00 0.1049
1133.10 0.1049
1133.20 0.1049
1133.30 0.1048
1133.40 0.1048
1133.50 0.1048
1133.60 0.1048
1133.70 0.1047
1133.80 0.1047
1133.90 0.1047
1134.00 0.1046
1134.10 0.1046
1134.20 0.1046
1134.30 0.1046
1134.40 0.1045
1134.50 0.1045
1134.60 0.1045
1134.70 0.1044
1134.80 0.1044
1134.90 0.1044
1135.00 0.1043
1135.10 0.1043
1135.20 0.1043
1135.30 0.1043
1135.40 0.1042
1135.50 0.1042
1135.60 0.1042
1135.70 0.1041
1135.80 0.1041
1135.90 0.1041
1136.00 0.1041
1136.10 0.104
1136.20 0.104
1136.30 0.104
1136.40 0.1039
1136.50 0.1039
1136.60 0.1039
1136.70 0.1039
1136.80 0.1038
1136.90 0.1038
1137.00 0.1038
1137.10 0.1037
1137.20 0.1037
1137.30 0.1037
1137.40 0.1037
1137.50 0.1036
1137.60 0.1036
1137.70 0.1036
1137.80 0.1035
1137.90 0.1035
1138.00 0.1035
1138.10 0.1035
1138.20 0.1034
1138.30 0.1034
1138.40 0.1034
1138.50 0.1033
1138.60 0.1033
1138.70 0.1033
1138.80 0.1033
1138.90 0.1032
1139.00 0.1032
1139.10 0.1032
1139.20 0.1031
1139.30 0.1031
1139.40 0.1031
1139.50 0.1031
1139.60 0.103
1139.70 0.103
1139.80 0.103
1139.90 0.1029
1140.00 0.1029
1140.10 0.1029
1140.20 0.1029
1140.30 0.1028
1140.40 0.1028
1140.50 0.1028
1140.60 0.1027
1140.70 0.1027
1140.80 0.1027
1140.90 0.1027
1141.00 0.1026
1141.10 0.1026
1141.20 0.1026
1141.30 0.1025
1141.40 0.1025
1141.50 0.1025
1141.60 0.1025
1141.70 0.1024
1141.80 0.1024
1141.90 0.1024
1142.00 0.1023
1142.10 0.1023
1142.20 0.1023
1142.30 0.1023
1142.40 0.1022
1142.50 0.1022
1142.60 0.1022
1142.70 0.1021
1142.80 0.1021
1142.90 0.1021
1143.00 0.1021
1143.10 0.102
1143.20 0.102
1143.30 0.102
1143.40 0.1019
1143.50 0.1019
1143.60 0.1019
1143.70 0.1019
1143.80 0.1018
1143.90 0.1018
1144.00 0.1018
1144.10 0.1017
1144.20 0.1017
1144.30 0.1017
1144.40 0.1017
1144.50 0.1016
1144.60 0.1016
1144.70 0.1016
1144.80 0.1016
1144.90 0.1015
1145.00 0.1015
1145.10 0.1015
1145.20 0.1014
1145.30 0.1014
1145.40 0.1014
1145.50 0.1014
1145.60 0.1013
1145.70 0.1013
1145.80 0.1013
1145.90 0.1012
1146.00 0.1012
1146.10 0.1012
1146.20 0.1012
1146.30 0.1011
1146.40 0.1011
1146.50 0.1011
1146.60 0.101
1146.70 0.101
1146.80 0.101
1146.90 0.101
1147.00 0.1009
1147.10 0.1009
1147.20 0.1009
1147.30 0.1008
1147.40 0.1008
1147.50 0.1008
1147.60 0.1008
1147.70 0.1007
1147.80 0.1007
1147.90 0.1007
1148.00 0.1006
1148.10 0.1006
1148.20 0.1006
1148.30 0.1006
1148.40 0.1005
1148.50 0.1005
1148.60 0.1005
1148.70 0.1005
1148.80 0.1004
1148.90 0.1004
1149.00 0.1004
1149.10 0.1003
1149.20 0.1003
1149.30 0.1003
1149.40 0.1003
1149.50 0.1002
1149.60 0.1002
1149.70 0.1002
1149.80 0.1001
1149.90 0.1001
1150.00 0.1001
1150.10 0.1001
1150.20 0.1
1150.30 0.1
1150.40 0.09998
1150.50 0.09995
1150.60 0.09992
1150.70 0.09989
1150.80 0.09987
1150.90 0.09984
1151.00 0.09981
1151.10 0.09978
1151.20 0.09975
1151.30 0.09973
1151.40 0.0997
1151.50 0.09967
1151.60 0.09964
1151.70 0.09961
1151.80 0.09959
1151.90 0.09956
1152.00 0.09953
1152.10 0.0995
1152.20 0.09948
1152.30 0.09945
1152.40 0.09942
1152.50 0.09939
1152.60 0.09936
1152.70 0.09934
1152.80 0.09931
1152.90 0.09928
1153.00 0.09925
1153.10 0.09923
1153.20 0.0992
1153.30 0.09917
1153.40 0.09914
1153.50 0.09911
1153.60 0.09909
1153.70 0.09906
1153.80 0.09903
1153.90 0.099
1154.00 0.09898
1154.10 0.09895
1154.20 0.09892
1154.30 0.09889
1154.40 0.09887
1154.50 0.09884
1154.60 0.09881
1154.70 0.09878
1154.80 0.09876
1154.90 0.09873
1155.00 0.0987
1155.10 0.09867
1155.20 0.09865
1155.30 0.09862
1155.40 0.09859
1155.50 0.09856
1155.60 0.09853
1155.70 0.09851
1155.80 0.09848
1155.90 0.09845
1156.00 0.09842
1156.10 0.0984
1156.20 0.09837
1156.30 0.09834
1156.40 0.09831
1156.50 0.09829
1156.60 0.09826
1156.70 0.09823
1156.80 0.0982
1156.90 0.09818
1157.00 0.09815
1157.10 0.09812
1157.20 0.0981
1157.30 0.09807
1157.40 0.09804
1157.50 0.09801
1157.60 0.09799
1157.70 0.09796
1157.80 0.09793
1157.90 0.0979
1158.00 0.09788
1158.10 0.09785
1158.20 0.09782
1158.30 0.0978
1158.40 0.09777
1158.50 0.09774
1158.60 0.09771
1158.70 0.09769
1158.80 0.09766
1158.90 0.09763
1159.00 0.0976
1159.10 0.09758
1159.20 0.09755
1159.30 0.09752
1159.40 0.0975
1159.50 0.09747
1159.60 0.09744
1159.70 0.09741
1159.80 0.09739
1159.90 0.09736
1160.00 0.09733
1160.10 0.09731
1160.20 0.09728
1160.30 0.09725
1160.40 0.09723
1160.50 0.0972
1160.60 0.09717
1160.70 0.09714
1160.80 0.09712
1160.90 0.09709
1161.00 0.09706
1161.10 0.09704
1161.20 0.09701
1161.30 0.09698
1161.40 0.09695
1161.50 0.09693
1161.60 0.0969
1161.70 0.09687
1161.80 0.09685
1161.90 0.09682
1162.00 0.09679
1162.10 0.09677
1162.20 0.09674
1162.30 0.09671
1162.40 0.09668
1162.50 0.09666
1162.60 0.09663
1162.70 0.0966
1162.80 0.09658
1162.90 0.09655
1163.00 0.09652
1163.10 0.0965
1163.20 0.09647
1163.30 0.09644
1163.40 0.09642
1163.50 0.09639
1163.60 0.09636
1163.70 0.09633
1163.80 0.09631
1163.90 0.09628
1164.00 0.09625
1164.10 0.09623
1164.20 0.0962
1164.30 0.09617
1164.40 0.09615
1164.50 0.09612
1164.60 0.09609
1164.70 0.09607
1164.80 0.09604
1164.90 0.09601
1165.00 0.09599
1165.10 0.09596
1165.20 0.09593
1165.30 0.09591
1165.40 0.09588
1165.50 0.09585
1165.60 0.09582
1165.70 0.0958
1165.80 0.09577
1165.90 0.09574
1166.00 0.09572
1166.10 0.09569
1166.20 0.09566
1166.30 0.09564
1166.40 0.09561
1166.50 0.09558
1166.60 0.09556
1166.70 0.09553
1166.80 0.0955
1166.90 0.09548
1167.00 0.09545
1167.10 0.09542
1167.20 0.0954
1167.30 0.09537
1167.40 0.09535
1167.50 0.09532
1167.60 0.09529
1167.70 0.09527
1167.80 0.09524
1167.90 0.09521
1168.00 0.09519
1168.10 0.09516
1168.20 0.09513
1168.30 0.09511
1168.40 0.09508
1168.50 0.09505
1168.60 0.09503
1168.70 0.095
1168.80 0.09498
1168.90 0.09495
1169.00 0.09492
1169.10 0.0949
1169.20 0.09487
1169.30 0.09484
1169.40 0.09482
1169.50 0.09479
1169.60 0.09477
1169.70 0.09474
1169.80 0.09471
1169.90 0.09469
1170.00 0.09466
1170.10 0.09463
1170.20 0.09461
1170.30 0.09458
1170.40 0.09456
1170.50 0.09453
1170.60 0.0945
1170.70 0.09448
1170.80 0.09445
1170.90 0.09442
1171.00 0.0944
1171.10 0.09437
1171.20 0.09435
1171.30 0.09432
1171.40 0.09429
1171.50 0.09427
1171.60 0.09424
1171.70 0.09422
1171.80 0.09419
1171.90 0.09416
1172.00 0.09414
1172.10 0.09411
1172.20 0.09408
1172.30 0.09406
1172.40 0.09403
1172.50 0.09401
1172.60 0.09398
1172.70 0.09395
1172.80 0.09393
1172.90 0.0939
1173.00 0.09388
1173.10 0.09385
1173.20 0.09382
1173.30 0.0938
1173.40 0.09377
1173.50 0.09375
1173.60 0.09372
1173.70 0.09369
1173.80 0.09367
1173.90 0.09364
1174.00 0.09362
1174.10 0.09359
1174.20 0.09356
1174.30 0.09354
1174.40 0.09351
1174.50 0.09349
1174.60 0.09346
1174.70 0.09343
1174.80 0.09341
1174.90 0.09338
1175.00 0.09336
1175.10 0.09333
1175.20 0.0933
1175.30 0.09328
1175.40 0.09325
1175.50 0.09323
1175.60 0.0932
1175.70 0.09317
1175.80 0.09315
1175.90 0.09312
1176.00 0.0931
1176.10 0.09307
1176.20 0.09304
1176.30 0.09302
1176.40 0.09299
1176.50 0.09297
1176.60 0.09294
1176.70 0.09292
1176.80 0.09289
1176.90 0.09286
1177.00 0.09284
1177.10 0.09281
1177.20 0.09279
1177.30 0.09276
1177.40 0.09273
1177.50 0.09271
1177.60 0.09268
1177.70 0.09266
1177.80 0.09263
1177.90 0.09261
1178.00 0.09258
1178.10 0.09256
1178.20 0.09253
1178.30 0.0925
1178.40 0.09248
1178.50 0.09245
1178.60 0.09243
1178.70 0.0924
1178.80 0.09238
1178.90 0.09235
1179.00 0.09232
1179.10 0.0923
1179.20 0.09227
1179.30 0.09225
1179.40 0.09222
1179.50 0.0922
1179.60 0.09217
1179.70 0.09215
1179.80 0.09212
1179.90 0.0921
1180.00 0.09207
1180.10 0.09204
1180.20 0.09202
1180.30 0.09199
1180.40 0.09197
1180.50 0.09194
1180.60 0.09192
1180.70 0.09189
1180.80 0.09187
1180.90 0.09184
1181.00 0.09182
1181.10 0.09179
1181.20 0.09176
1181.30 0.09174
1181.40 0.09171
1181.50 0.09169
1181.60 0.09166
1181.70 0.09164
1181.80 0.09161
1181.90 0.09159
1182.00 0.09156
1182.10 0.09154
1182.20 0.09151
1182.30 0.09149
1182.40 0.09146
1182.50 0.09143
1182.60 0.09141
1182.70 0.09138
1182.80 0.09136
1182.90 0.09133
1183.00 0.09131
1183.10 0.09128
1183.20 0.09126
1183.30 0.09123
1183.40 0.09121
1183.50 0.09118
1183.60 0.09116
1183.70 0.09113
1183.80 0.09111
1183.90 0.09108
1184.00 0.09106
1184.10 0.09103
1184.20 0.09101
1184.30 0.09098
1184.40 0.09095
1184.50 0.09093
1184.60 0.0909
1184.70 0.09088
1184.80 0.09085
1184.90 0.09083
1185.00 0.0908
1185.10 0.09078
1185.20 0.09075
1185.30 0.09073
1185.40 0.0907
1185.50 0.09068
1185.60 0.09065
1185.70 0.09063
1185.80 0.0906
1185.90 0.09058
1186.00 0.09055
1186.10 0.09053
1186.20 0.0905
1186.30 0.09048
1186.40 0.09045
1186.50 0.09043
1186.60 0.0904
1186.70 0.09038
1186.80 0.09035
1186.90 0.09033
1187.00 0.0903
1187.10 0.09028
1187.20 0.09025
1187.30 0.09023
1187.40 0.0902
1187.50 0.09018
1187.60 0.09015
1187.70 0.09013
1187.80 0.0901
1187.90 0.09008
1188.00 0.09005
1188.10 0.09003
1188.20 0.09
1188.30 0.08998
1188.40 0.08995
1188.50 0.08993
1188.60 0.08991
1188.70 0.08988
1188.80 0.08986
1188.90 0.08983
1189.00 0.08981
1189.10 0.08978
1189.20 0.08976
1189.30 0.08973
1189.40 0.08971
1189.50 0.08968
1189.60 0.08966
1189.70 0.08963
1189.80 0.08961
1189.90 0.08958
1190.00 0.08956
1190.10 0.08953
1190.20 0.08951
1190.30 0.08948
1190.40 0.08946
1190.50 0.08944
1190.60 0.08941
1190.70 0.08939
1190.80 0.08936
1190.90 0.08934
1191.00 0.08931
1191.10 0.08929
1191.20 0.08926
1191.30 0.08924
1191.40 0.08921
1191.50 0.08919
1191.60 0.08916
1191.70 0.08914
1191.80 0.08912
1191.90 0.08909
1192.00 0.08907
1192.10 0.08904
1192.20 0.08902
1192.30 0.08899
1192.40 0.08897
1192.50 0.08894
1192.60 0.08892
1192.70 0.0889
1192.80 0.08887
1192.90 0.08885
1193.00 0.08882
1193.10 0.0888
1193.20 0.08877
1193.30 0.08875
1193.40 0.08872
1193.50 0.0887
1193.60 0.08868
1193.70 0.08865
1193.80 0.08863
1193.90 0.0886
1194.00 0.08858
1194.10 0.08855
1194.20 0.08853
1194.30 0.08851
1194.40 0.08848
1194.50 0.08846
1194.60 0.08843
1194.70 0.08841
1194.80 0.08838
1194.90 0.08836
1195.00 0.08834
1195.10 0.08831
1195.20 0.08829
1195.30 0.08826
1195.40 0.08824
1195.50 0.08821
1195.60 0.08819
1195.70 0.08817
1195.80 0.08814
1195.90 0.08812
1196.00 0.08809
1196.10 0.08807
1196.20 0.08804
1196.30 0.08802
1196.40 0.088
1196.50 0.08797
1196.60 0.08795
1196.70 0.08792
1196.80 0.0879
1196.90 0.08788
1197.00 0.08785
1197.10 0.08783
1197.20 0.0878
1197.30 0.08778
1197.40 0.08775
1197.50 0.08773
1197.60 0.08771
1197.70 0.08768
1197.80 0.08766
1197.90 0.08763
1198.00 0.08761
1198.10 0.08759
1198.20 0.08756
1198.30 0.08754
1198.40 0.08751
1198.50 0.08749
1198.60 0.08747
1198.70 0.08744
1198.80 0.08742
1198.90 0.08739
1199.00 0.08737
1199.10 0.08734
1199.20 0.08732
1199.30 0.0873
1199.40 0.08727
1199.50 0.08725
1199.60 0.08722
1199.70 0.0872
1199.80 0.08718
1199.90 0.08715
1200.00 0
