# Version 2.1 - nm, norm@500 to 1, cut digits, bergeron_2750_80.dat_2750
# Wavelength(nm)  Flambda(ergs/cm^s/s/nm)
300.00 0.08056
300.10 0.08077
300.20 0.08099
300.30 0.08121
300.40 0.08142
300.50 0.08164
300.60 0.08186
300.70 0.08208
300.80 0.0823
300.90 0.08251
301.00 0.08273
301.10 0.08295
301.20 0.08316
301.30 0.08338
301.40 0.08359
301.50 0.08381
301.60 0.08402
301.70 0.08424
301.80 0.08445
301.90 0.08467
302.00 0.08488
302.10 0.08511
302.20 0.08533
302.30 0.08556
302.40 0.08578
302.50 0.08601
302.60 0.08623
302.70 0.08646
302.80 0.08668
302.90 0.08691
303.00 0.08713
303.10 0.08735
303.20 0.08758
303.30 0.0878
303.40 0.08802
303.50 0.08825
303.60 0.08847
303.70 0.08869
303.80 0.08891
303.90 0.08913
304.00 0.08936
304.10 0.08959
304.20 0.08982
304.30 0.09005
304.40 0.09029
304.50 0.09052
304.60 0.09075
304.70 0.09098
304.80 0.09121
304.90 0.09145
305.00 0.09168
305.10 0.09191
305.20 0.09214
305.30 0.09237
305.40 0.0926
305.50 0.09283
305.60 0.09306
305.70 0.09328
305.80 0.09351
305.90 0.09374
306.00 0.09398
306.10 0.09421
306.20 0.09445
306.30 0.09469
306.40 0.09493
306.50 0.09517
306.60 0.09541
306.70 0.09565
306.80 0.09589
306.90 0.09613
307.00 0.09637
307.10 0.0966
307.20 0.09684
307.30 0.09708
307.40 0.09732
307.50 0.09755
307.60 0.09779
307.70 0.09803
307.80 0.09826
307.90 0.0985
308.00 0.09874
308.10 0.09899
308.20 0.09923
308.30 0.09948
308.40 0.09973
308.50 0.09997
308.60 0.1002
308.70 0.1005
308.80 0.1007
308.90 0.101
309.00 0.1012
309.10 0.1015
309.20 0.1017
309.30 0.1019
309.40 0.1022
309.50 0.1024
309.60 0.1027
309.70 0.1029
309.80 0.1032
309.90 0.1034
310.00 0.1037
310.10 0.1039
310.20 0.1042
310.30 0.1044
310.40 0.1047
310.50 0.1049
310.60 0.1052
310.70 0.1054
310.80 0.1057
310.90 0.1059
311.00 0.1062
311.10 0.1064
311.20 0.1067
311.30 0.107
311.40 0.1072
311.50 0.1075
311.60 0.1077
311.70 0.108
311.80 0.1082
311.90 0.1085
312.00 0.1087
312.10 0.109
312.20 0.1092
312.30 0.1095
312.40 0.1097
312.50 0.11
312.60 0.1103
312.70 0.1105
312.80 0.1108
312.90 0.111
313.00 0.1113
313.10 0.1116
313.20 0.1118
313.30 0.1121
313.40 0.1123
313.50 0.1126
313.60 0.1129
313.70 0.1131
313.80 0.1134
313.90 0.1136
314.00 0.1139
314.10 0.1142
314.20 0.1144
314.30 0.1147
314.40 0.115
314.50 0.1152
314.60 0.1155
314.70 0.1158
314.80 0.1161
314.90 0.1163
315.00 0.1166
315.10 0.1169
315.20 0.1171
315.30 0.1174
315.40 0.1177
315.50 0.1179
315.60 0.1182
315.70 0.1185
315.80 0.1187
315.90 0.119
316.00 0.1193
316.10 0.1195
316.20 0.1198
316.30 0.1201
316.40 0.1204
316.50 0.1206
316.60 0.1209
316.70 0.1212
316.80 0.1215
316.90 0.1217
317.00 0.122
317.10 0.1223
317.20 0.1226
317.30 0.1228
317.40 0.1231
317.50 0.1234
317.60 0.1237
317.70 0.1239
317.80 0.1242
317.90 0.1245
318.00 0.1248
318.10 0.125
318.20 0.1253
318.30 0.1256
318.40 0.1259
318.50 0.1262
318.60 0.1265
318.70 0.1267
318.80 0.127
318.90 0.1273
319.00 0.1276
319.10 0.1279
319.20 0.1281
319.30 0.1284
319.40 0.1287
319.50 0.129
319.60 0.1293
319.70 0.1295
319.80 0.1298
319.90 0.1301
320.00 0.1304
320.10 0.1307
320.20 0.131
320.30 0.1313
320.40 0.1316
320.50 0.1318
320.60 0.1321
320.70 0.1324
320.80 0.1327
320.90 0.133
321.00 0.1333
321.10 0.1336
321.20 0.1339
321.30 0.1342
321.40 0.1344
321.50 0.1347
321.60 0.135
321.70 0.1353
321.80 0.1356
321.90 0.1359
322.00 0.1362
322.10 0.1365
322.20 0.1368
322.30 0.1371
322.40 0.1374
322.50 0.1377
322.60 0.138
322.70 0.1383
322.80 0.1386
322.90 0.1389
323.00 0.1392
323.10 0.1395
323.20 0.1397
323.30 0.14
323.40 0.1403
323.50 0.1406
323.60 0.1409
323.70 0.1412
323.80 0.1415
323.90 0.1418
324.00 0.1421
324.10 0.1424
324.20 0.1427
324.30 0.143
324.40 0.1433
324.50 0.1436
324.60 0.1439
324.70 0.1442
324.80 0.1446
324.90 0.1449
325.00 0.1452
325.10 0.1455
325.20 0.1458
325.30 0.1461
325.40 0.1464
325.50 0.1467
325.60 0.147
325.70 0.1473
325.80 0.1476
325.90 0.1479
326.00 0.1482
326.10 0.1485
326.20 0.1488
326.30 0.1491
326.40 0.1494
326.50 0.1497
326.60 0.1501
326.70 0.1504
326.80 0.1507
326.90 0.151
327.00 0.1513
327.10 0.1516
327.20 0.1519
327.30 0.1522
327.40 0.1525
327.50 0.1529
327.60 0.1532
327.70 0.1535
327.80 0.1538
327.90 0.1541
328.00 0.1544
328.10 0.1547
328.20 0.155
328.30 0.1554
328.40 0.1557
328.50 0.156
328.60 0.1563
328.70 0.1566
328.80 0.157
328.90 0.1573
329.00 0.1576
329.10 0.1579
329.20 0.1582
329.30 0.1586
329.40 0.1589
329.50 0.1592
329.60 0.1595
329.70 0.1598
329.80 0.1601
329.90 0.1605
330.00 0.1608
330.10 0.1611
330.20 0.1614
330.30 0.1618
330.40 0.1621
330.50 0.1624
330.60 0.1627
330.70 0.1631
330.80 0.1634
330.90 0.1637
331.00 0.164
331.10 0.1644
331.20 0.1647
331.30 0.165
331.40 0.1653
331.50 0.1657
331.60 0.166
331.70 0.1663
331.80 0.1666
331.90 0.1669
332.00 0.1673
332.10 0.1676
332.20 0.1679
332.30 0.1683
332.40 0.1686
332.50 0.1689
332.60 0.1693
332.70 0.1696
332.80 0.1699
332.90 0.1703
333.00 0.1706
333.10 0.1709
333.20 0.1713
333.30 0.1716
333.40 0.1719
333.50 0.1723
333.60 0.1726
333.70 0.1729
333.80 0.1733
333.90 0.1736
334.00 0.1739
334.10 0.1743
334.20 0.1746
334.30 0.175
334.40 0.1753
334.50 0.1756
334.60 0.176
334.70 0.1763
334.80 0.1767
334.90 0.177
335.00 0.1773
335.10 0.1777
335.20 0.178
335.30 0.1784
335.40 0.1787
335.50 0.179
335.60 0.1794
335.70 0.1797
335.80 0.18
335.90 0.1804
336.00 0.1807
336.10 0.1811
336.20 0.1814
336.30 0.1818
336.40 0.1821
336.50 0.1825
336.60 0.1828
336.70 0.1832
336.80 0.1835
336.90 0.1839
337.00 0.1842
337.10 0.1845
337.20 0.1849
337.30 0.1852
337.40 0.1856
337.50 0.1859
337.60 0.1863
337.70 0.1866
337.80 0.187
337.90 0.1873
338.00 0.1876
338.10 0.188
338.20 0.1884
338.30 0.1887
338.40 0.1891
338.50 0.1894
338.60 0.1898
338.70 0.1901
338.80 0.1905
338.90 0.1908
339.00 0.1912
339.10 0.1915
339.20 0.1919
339.30 0.1923
339.40 0.1926
339.50 0.193
339.60 0.1933
339.70 0.1937
339.80 0.194
339.90 0.1944
340.00 0.1947
340.10 0.1951
340.20 0.1954
340.30 0.1958
340.40 0.1962
340.50 0.1965
340.60 0.1969
340.70 0.1972
340.80 0.1976
340.90 0.198
341.00 0.1983
341.10 0.1987
341.20 0.199
341.30 0.1994
341.40 0.1998
341.50 0.2001
341.60 0.2005
341.70 0.2008
341.80 0.2012
341.90 0.2016
342.00 0.2019
342.10 0.2023
342.20 0.2027
342.30 0.203
342.40 0.2034
342.50 0.2038
342.60 0.2041
342.70 0.2045
342.80 0.2049
342.90 0.2052
343.00 0.2056
343.10 0.206
343.20 0.2063
343.30 0.2067
343.40 0.2071
343.50 0.2074
343.60 0.2078
343.70 0.2082
343.80 0.2085
343.90 0.2089
344.00 0.2092
344.10 0.2096
344.20 0.21
344.30 0.2104
344.40 0.2108
344.50 0.2111
344.60 0.2115
344.70 0.2119
344.80 0.2123
344.90 0.2126
345.00 0.213
345.10 0.2134
345.20 0.2138
345.30 0.2141
345.40 0.2145
345.50 0.2149
345.60 0.2152
345.70 0.2156
345.80 0.216
345.90 0.2164
346.00 0.2167
346.10 0.2171
346.20 0.2175
346.30 0.2179
346.40 0.2183
346.50 0.2186
346.60 0.219
346.70 0.2194
346.80 0.2198
346.90 0.2202
347.00 0.2205
347.10 0.2209
347.20 0.2213
347.30 0.2217
347.40 0.2221
347.50 0.2224
347.60 0.2228
347.70 0.2232
347.80 0.2236
347.90 0.224
348.00 0.2243
348.10 0.2247
348.20 0.2251
348.30 0.2255
348.40 0.2259
348.50 0.2263
348.60 0.2267
348.70 0.2271
348.80 0.2274
348.90 0.2278
349.00 0.2282
349.10 0.2286
349.20 0.229
349.30 0.2294
349.40 0.2298
349.50 0.2301
349.60 0.2305
349.70 0.2309
349.80 0.2313
349.90 0.2317
350.00 0.2321
350.10 0.2325
350.20 0.2329
350.30 0.2333
350.40 0.2337
350.50 0.234
350.60 0.2344
350.70 0.2348
350.80 0.2352
350.90 0.2356
351.00 0.236
351.10 0.2364
351.20 0.2368
351.30 0.2372
351.40 0.2376
351.50 0.238
351.60 0.2384
351.70 0.2388
351.80 0.2392
351.90 0.2395
352.00 0.2399
352.10 0.2403
352.20 0.2407
352.30 0.2411
352.40 0.2415
352.50 0.2419
352.60 0.2424
352.70 0.2428
352.80 0.2432
352.90 0.2436
353.00 0.244
353.10 0.2444
353.20 0.2448
353.30 0.2451
353.40 0.2455
353.50 0.2459
353.60 0.2463
353.70 0.2467
353.80 0.2471
353.90 0.2475
354.00 0.2479
354.10 0.2483
354.20 0.2487
354.30 0.2492
354.40 0.2496
354.50 0.25
354.60 0.2504
354.70 0.2508
354.80 0.2512
354.90 0.2516
355.00 0.252
355.10 0.2524
355.20 0.2528
355.30 0.2532
355.40 0.2536
355.50 0.254
355.60 0.2544
355.70 0.2548
355.80 0.2552
355.90 0.2556
356.00 0.256
356.10 0.2565
356.20 0.2569
356.30 0.2573
356.40 0.2577
356.50 0.2581
356.60 0.2585
356.70 0.2589
356.80 0.2594
356.90 0.2598
357.00 0.2602
357.10 0.2606
357.20 0.261
357.30 0.2614
357.40 0.2618
357.50 0.2622
357.60 0.2626
357.70 0.2631
357.80 0.2635
357.90 0.2639
358.00 0.2643
358.10 0.2647
358.20 0.2651
358.30 0.2655
358.40 0.266
358.50 0.2664
358.60 0.2668
358.70 0.2672
358.80 0.2676
358.90 0.2681
359.00 0.2685
359.10 0.2689
359.20 0.2693
359.30 0.2697
359.40 0.2702
359.50 0.2706
359.60 0.271
359.70 0.2714
359.80 0.2718
359.90 0.2722
360.00 0.2726
360.10 0.2731
360.20 0.2735
360.30 0.2739
360.40 0.2744
360.50 0.2748
360.60 0.2752
360.70 0.2756
360.80 0.2761
360.90 0.2765
361.00 0.2769
361.10 0.2773
361.20 0.2778
361.30 0.2782
361.40 0.2786
361.50 0.279
361.60 0.2794
361.70 0.2799
361.80 0.2803
361.90 0.2807
362.00 0.2811
362.10 0.2816
362.20 0.282
362.30 0.2824
362.40 0.2828
362.50 0.2833
362.60 0.2837
362.70 0.2841
362.80 0.2846
362.90 0.285
363.00 0.2854
363.10 0.2858
363.20 0.2863
363.30 0.2867
363.40 0.2871
363.50 0.2876
363.60 0.288
363.70 0.2884
363.80 0.2889
363.90 0.2893
364.00 0.2897
364.10 0.2902
364.20 0.2906
364.30 0.291
364.40 0.2915
364.50 0.2919
364.60 0.2923
364.70 0.2928
364.80 0.2932
364.90 0.2936
365.00 0.2941
365.10 0.2945
365.20 0.295
365.30 0.2954
365.40 0.2958
365.50 0.2963
365.60 0.2967
365.70 0.2971
365.80 0.2976
365.90 0.298
366.00 0.2984
366.10 0.2989
366.20 0.2993
366.30 0.2998
366.40 0.3002
366.50 0.3007
366.60 0.3011
366.70 0.3015
366.80 0.302
366.90 0.3024
367.00 0.3029
367.10 0.3033
367.20 0.3037
367.30 0.3042
367.40 0.3046
367.50 0.3051
367.60 0.3055
367.70 0.3059
367.80 0.3064
367.90 0.3068
368.00 0.3073
368.10 0.3077
368.20 0.3082
368.30 0.3086
368.40 0.3091
368.50 0.3095
368.60 0.31
368.70 0.3104
368.80 0.3109
368.90 0.3113
369.00 0.3117
369.10 0.3122
369.20 0.3126
369.30 0.3131
369.40 0.3135
369.50 0.314
369.60 0.3144
369.70 0.3149
369.80 0.3153
369.90 0.3157
370.00 0.3162
370.10 0.3166
370.20 0.3171
370.30 0.3176
370.40 0.318
370.50 0.3185
370.60 0.3189
370.70 0.3194
370.80 0.3198
370.90 0.3203
371.00 0.3207
371.10 0.3212
371.20 0.3216
371.30 0.3221
371.40 0.3225
371.50 0.323
371.60 0.3234
371.70 0.3239
371.80 0.3243
371.90 0.3248
372.00 0.3252
372.10 0.3257
372.20 0.3261
372.30 0.3266
372.40 0.3271
372.50 0.3275
372.60 0.328
372.70 0.3284
372.80 0.3289
372.90 0.3294
373.00 0.3298
373.10 0.3303
373.20 0.3307
373.30 0.3312
373.40 0.3316
373.50 0.3321
373.60 0.3326
373.70 0.333
373.80 0.3335
373.90 0.3339
374.00 0.3344
374.10 0.3348
374.20 0.3353
374.30 0.3358
374.40 0.3362
374.50 0.3367
374.60 0.3372
374.70 0.3376
374.80 0.3381
374.90 0.3386
375.00 0.339
375.10 0.3395
375.20 0.3399
375.30 0.3404
375.40 0.3409
375.50 0.3413
375.60 0.3418
375.70 0.3422
375.80 0.3427
375.90 0.3432
376.00 0.3436
376.10 0.3441
376.20 0.3445
376.30 0.345
376.40 0.3455
376.50 0.3459
376.60 0.3464
376.70 0.3469
376.80 0.3473
376.90 0.3478
377.00 0.3483
377.10 0.3487
377.20 0.3492
377.30 0.3497
377.40 0.3502
377.50 0.3506
377.60 0.3511
377.70 0.3516
377.80 0.352
377.90 0.3525
378.00 0.353
378.10 0.3534
378.20 0.3539
378.30 0.3544
378.40 0.3548
378.50 0.3553
378.60 0.3558
378.70 0.3563
378.80 0.3567
378.90 0.3572
379.00 0.3577
379.10 0.3581
379.20 0.3586
379.30 0.3591
379.40 0.3596
379.50 0.36
379.60 0.3605
379.70 0.361
379.80 0.3615
379.90 0.3619
380.00 0.3624
380.10 0.3629
380.20 0.3634
380.30 0.3638
380.40 0.3643
380.50 0.3648
380.60 0.3653
380.70 0.3657
380.80 0.3662
380.90 0.3667
381.00 0.3672
381.10 0.3676
381.20 0.3681
381.30 0.3686
381.40 0.3691
381.50 0.3695
381.60 0.37
381.70 0.3705
381.80 0.371
381.90 0.3715
382.00 0.3719
382.10 0.3724
382.20 0.3729
382.30 0.3734
382.40 0.3739
382.50 0.3743
382.60 0.3748
382.70 0.3753
382.80 0.3758
382.90 0.3763
383.00 0.3767
383.10 0.3772
383.20 0.3777
383.30 0.3782
383.40 0.3787
383.50 0.3791
383.60 0.3796
383.70 0.3801
383.80 0.3806
383.90 0.3811
384.00 0.3816
384.10 0.382
384.20 0.3825
384.30 0.383
384.40 0.3835
384.50 0.384
384.60 0.3845
384.70 0.3849
384.80 0.3854
384.90 0.3859
385.00 0.3864
385.10 0.3869
385.20 0.3874
385.30 0.3879
385.40 0.3883
385.50 0.3888
385.60 0.3893
385.70 0.3898
385.80 0.3903
385.90 0.3908
386.00 0.3913
386.10 0.3918
386.20 0.3922
386.30 0.3927
386.40 0.3932
386.50 0.3937
386.60 0.3942
386.70 0.3947
386.80 0.3952
386.90 0.3957
387.00 0.3962
387.10 0.3967
387.20 0.3971
387.30 0.3976
387.40 0.3981
387.50 0.3986
387.60 0.3991
387.70 0.3996
387.80 0.4001
387.90 0.4006
388.00 0.4011
388.10 0.4016
388.20 0.4021
388.30 0.4025
388.40 0.403
388.50 0.4035
388.60 0.404
388.70 0.4045
388.80 0.405
388.90 0.4055
389.00 0.406
389.10 0.4065
389.20 0.407
389.30 0.4075
389.40 0.408
389.50 0.4085
389.60 0.409
389.70 0.4095
389.80 0.41
389.90 0.4105
390.00 0.4109
390.10 0.4114
390.20 0.4119
390.30 0.4124
390.40 0.4129
390.50 0.4134
390.60 0.4139
390.70 0.4144
390.80 0.4149
390.90 0.4154
391.00 0.4159
391.10 0.4164
391.20 0.4169
391.30 0.4174
391.40 0.4179
391.50 0.4184
391.60 0.4189
391.70 0.4194
391.80 0.4199
391.90 0.4204
392.00 0.4209
392.10 0.4214
392.20 0.4219
392.30 0.4224
392.40 0.4229
392.50 0.4234
392.60 0.4239
392.70 0.4244
392.80 0.4249
392.90 0.4254
393.00 0.4259
393.10 0.4264
393.20 0.4269
393.30 0.4274
393.40 0.4279
393.50 0.4284
393.60 0.4289
393.70 0.4294
393.80 0.4299
393.90 0.4304
394.00 0.431
394.10 0.4315
394.20 0.432
394.30 0.4325
394.40 0.433
394.50 0.4335
394.60 0.434
394.70 0.4345
394.80 0.435
394.90 0.4355
395.00 0.436
395.10 0.4365
395.20 0.437
395.30 0.4375
395.40 0.438
395.50 0.4385
395.60 0.439
395.70 0.4395
395.80 0.44
395.90 0.4406
396.00 0.4411
396.10 0.4416
396.20 0.4421
396.30 0.4426
396.40 0.4431
396.50 0.4436
396.60 0.4441
396.70 0.4446
396.80 0.4451
396.90 0.4456
397.00 0.4461
397.10 0.4467
397.20 0.4472
397.30 0.4477
397.40 0.4482
397.50 0.4487
397.60 0.4492
397.70 0.4497
397.80 0.4502
397.90 0.4507
398.00 0.4512
398.10 0.4518
398.20 0.4523
398.30 0.4528
398.40 0.4533
398.50 0.4538
398.60 0.4543
398.70 0.4548
398.80 0.4553
398.90 0.4559
399.00 0.4564
399.10 0.4569
399.20 0.4574
399.30 0.4579
399.40 0.4584
399.50 0.4589
399.60 0.4594
399.70 0.46
399.80 0.4605
399.90 0.461
400.00 0.4615
400.10 0.462
400.20 0.4625
400.30 0.463
400.40 0.4636
400.50 0.4641
400.60 0.4646
400.70 0.4651
400.80 0.4656
400.90 0.4661
401.00 0.4666
401.10 0.4672
401.20 0.4677
401.30 0.4682
401.40 0.4687
401.50 0.4692
401.60 0.4697
401.70 0.4703
401.80 0.4708
401.90 0.4713
402.00 0.4718
402.10 0.4723
402.20 0.4729
402.30 0.4734
402.40 0.4739
402.50 0.4744
402.60 0.4749
402.70 0.4754
402.80 0.476
402.90 0.4765
403.00 0.477
403.10 0.4775
403.20 0.478
403.30 0.4786
403.40 0.4791
403.50 0.4796
403.60 0.4801
403.70 0.4806
403.80 0.4812
403.90 0.4817
404.00 0.4822
404.10 0.4827
404.20 0.4832
404.30 0.4838
404.40 0.4843
404.50 0.4848
404.60 0.4853
404.70 0.4858
404.80 0.4864
404.90 0.4869
405.00 0.4874
405.10 0.4879
405.20 0.4885
405.30 0.489
405.40 0.4895
405.50 0.49
405.60 0.4905
405.70 0.4911
405.80 0.4916
405.90 0.4921
406.00 0.4926
406.10 0.4932
406.20 0.4937
406.30 0.4942
406.40 0.4947
406.50 0.4952
406.60 0.4958
406.70 0.4963
406.80 0.4968
406.90 0.4974
407.00 0.4979
407.10 0.4984
407.20 0.4989
407.30 0.4994
407.40 0.5
407.50 0.5005
407.60 0.501
407.70 0.5015
407.80 0.5021
407.90 0.5026
408.00 0.5031
408.10 0.5036
408.20 0.5042
408.30 0.5047
408.40 0.5052
408.50 0.5058
408.60 0.5063
408.70 0.5068
408.80 0.5074
408.90 0.5079
409.00 0.5084
409.10 0.5089
409.20 0.5094
409.30 0.51
409.40 0.5105
409.50 0.511
409.60 0.5115
409.70 0.5121
409.80 0.5126
409.90 0.5132
410.00 0.5137
410.10 0.5142
410.20 0.5147
410.30 0.5153
410.40 0.5158
410.50 0.5163
410.60 0.5169
410.70 0.5174
410.80 0.5179
410.90 0.5184
411.00 0.519
411.10 0.5195
411.20 0.52
411.30 0.5206
411.40 0.5211
411.50 0.5216
411.60 0.5222
411.70 0.5227
411.80 0.5232
411.90 0.5238
412.00 0.5243
412.10 0.5248
412.20 0.5253
412.30 0.5259
412.40 0.5264
412.50 0.5269
412.60 0.5275
412.70 0.528
412.80 0.5285
412.90 0.5291
413.00 0.5296
413.10 0.5301
413.20 0.5307
413.30 0.5312
413.40 0.5317
413.50 0.5323
413.60 0.5328
413.70 0.5333
413.80 0.5339
413.90 0.5344
414.00 0.5349
414.10 0.5355
414.20 0.536
414.30 0.5365
414.40 0.5371
414.50 0.5376
414.60 0.5381
414.70 0.5387
414.80 0.5392
414.90 0.5398
415.00 0.5403
415.10 0.5408
415.20 0.5413
415.30 0.5419
415.40 0.5424
415.50 0.543
415.60 0.5435
415.70 0.544
415.80 0.5445
415.90 0.5451
416.00 0.5456
416.10 0.5462
416.20 0.5467
416.30 0.5472
416.40 0.5478
416.50 0.5483
416.60 0.5488
416.70 0.5494
416.80 0.5499
416.90 0.5505
417.00 0.551
417.10 0.5515
417.20 0.5521
417.30 0.5526
417.40 0.5531
417.50 0.5537
417.60 0.5542
417.70 0.5547
417.80 0.5553
417.90 0.5558
418.00 0.5564
418.10 0.5569
418.20 0.5574
418.30 0.558
418.40 0.5585
418.50 0.5591
418.60 0.5596
418.70 0.5601
418.80 0.5607
418.90 0.5612
419.00 0.5617
419.10 0.5623
419.20 0.5628
419.30 0.5633
419.40 0.5639
419.50 0.5645
419.60 0.565
419.70 0.5655
419.80 0.5661
419.90 0.5666
420.00 0.5671
420.10 0.5677
420.20 0.5682
420.30 0.5688
420.40 0.5693
420.50 0.5698
420.60 0.5704
420.70 0.5709
420.80 0.5715
420.90 0.572
421.00 0.5725
421.10 0.5731
421.20 0.5736
421.30 0.5742
421.40 0.5747
421.50 0.5752
421.60 0.5758
421.70 0.5763
421.80 0.5769
421.90 0.5774
422.00 0.5779
422.10 0.5785
422.20 0.579
422.30 0.5796
422.40 0.5801
422.50 0.5807
422.60 0.5812
422.70 0.5817
422.80 0.5823
422.90 0.5828
423.00 0.5834
423.10 0.5839
423.20 0.5844
423.30 0.585
423.40 0.5855
423.50 0.5861
423.60 0.5866
423.70 0.5872
423.80 0.5877
423.90 0.5883
424.00 0.5888
424.10 0.5893
424.20 0.5899
424.30 0.5904
424.40 0.591
424.50 0.5915
424.60 0.5921
424.70 0.5926
424.80 0.5931
424.90 0.5937
425.00 0.5942
425.10 0.5948
425.20 0.5953
425.30 0.5959
425.40 0.5964
425.50 0.5969
425.60 0.5975
425.70 0.598
425.80 0.5986
425.90 0.5991
426.00 0.5997
426.10 0.6002
426.20 0.6008
426.30 0.6013
426.40 0.6018
426.50 0.6024
426.60 0.603
426.70 0.6035
426.80 0.604
426.90 0.6046
427.00 0.6051
427.10 0.6057
427.20 0.6062
427.30 0.6068
427.40 0.6073
427.50 0.6079
427.60 0.6084
427.70 0.6089
427.80 0.6095
427.90 0.61
428.00 0.6106
428.10 0.6111
428.20 0.6117
428.30 0.6122
428.40 0.6128
428.50 0.6133
428.60 0.6139
428.70 0.6144
428.80 0.615
428.90 0.6155
429.00 0.616
429.10 0.6166
429.20 0.6171
429.30 0.6177
429.40 0.6182
429.50 0.6188
429.60 0.6193
429.70 0.6199
429.80 0.6204
429.90 0.621
430.00 0.6215
430.10 0.6221
430.20 0.6226
430.30 0.6232
430.40 0.6237
430.50 0.6242
430.60 0.6248
430.70 0.6254
430.80 0.6259
430.90 0.6264
431.00 0.627
431.10 0.6275
431.20 0.6281
431.30 0.6286
431.40 0.6292
431.50 0.6297
431.60 0.6303
431.70 0.6308
431.80 0.6314
431.90 0.6319
432.00 0.6325
432.10 0.633
432.20 0.6336
432.30 0.6341
432.40 0.6347
432.50 0.6352
432.60 0.6358
432.70 0.6363
432.80 0.6369
432.90 0.6374
433.00 0.6379
433.10 0.6385
433.20 0.639
433.30 0.6396
433.40 0.6401
433.50 0.6407
433.60 0.6412
433.70 0.6418
433.80 0.6423
433.90 0.6429
434.00 0.6434
434.10 0.644
434.20 0.6445
434.30 0.6451
434.40 0.6456
434.50 0.6462
434.60 0.6467
434.70 0.6473
434.80 0.6478
434.90 0.6484
435.00 0.6489
435.10 0.6495
435.20 0.65
435.30 0.6506
435.40 0.6511
435.50 0.6517
435.60 0.6522
435.70 0.6528
435.80 0.6533
435.90 0.6539
436.00 0.6544
436.10 0.655
436.20 0.6555
436.30 0.6561
436.40 0.6566
436.50 0.6572
436.60 0.6577
436.70 0.6583
436.80 0.6588
436.90 0.6594
437.00 0.6599
437.10 0.6605
437.20 0.661
437.30 0.6616
437.40 0.6621
437.50 0.6627
437.60 0.6632
437.70 0.6638
437.80 0.6643
437.90 0.6649
438.00 0.6654
438.10 0.666
438.20 0.6665
438.30 0.6671
438.40 0.6676
438.50 0.6682
438.60 0.6687
438.70 0.6693
438.80 0.6698
438.90 0.6704
439.00 0.6709
439.10 0.6715
439.20 0.672
439.30 0.6726
439.40 0.6731
439.50 0.6737
439.60 0.6742
439.70 0.6748
439.80 0.6753
439.90 0.6759
440.00 0.6764
440.10 0.677
440.20 0.6776
440.30 0.6781
440.40 0.6786
440.50 0.6792
440.60 0.6798
440.70 0.6803
440.80 0.6808
440.90 0.6814
441.00 0.6819
441.10 0.6825
441.20 0.683
441.30 0.6836
441.40 0.6842
441.50 0.6847
441.60 0.6853
441.70 0.6858
441.80 0.6864
441.90 0.6869
442.00 0.6875
442.10 0.688
442.20 0.6886
442.30 0.6891
442.40 0.6897
442.50 0.6902
442.60 0.6908
442.70 0.6913
442.80 0.6919
442.90 0.6924
443.00 0.693
443.10 0.6935
443.20 0.6941
443.30 0.6946
443.40 0.6952
443.50 0.6957
443.60 0.6963
443.70 0.6968
443.80 0.6974
443.90 0.6979
444.00 0.6985
444.10 0.6991
444.20 0.6996
444.30 0.7001
444.40 0.7007
444.50 0.7012
444.60 0.7018
444.70 0.7024
444.80 0.7029
444.90 0.7035
445.00 0.704
445.10 0.7046
445.20 0.7051
445.30 0.7057
445.40 0.7062
445.50 0.7068
445.60 0.7073
445.70 0.7079
445.80 0.7084
445.90 0.709
446.00 0.7095
446.10 0.7101
446.20 0.7106
446.30 0.7112
446.40 0.7117
446.50 0.7123
446.60 0.7128
446.70 0.7134
446.80 0.714
446.90 0.7145
447.00 0.715
447.10 0.7156
447.20 0.7161
447.30 0.7167
447.40 0.7172
447.50 0.7178
447.60 0.7183
447.70 0.7189
447.80 0.7195
447.90 0.72
448.00 0.7206
448.10 0.7211
448.20 0.7217
448.30 0.7222
448.40 0.7228
448.50 0.7233
448.60 0.7238
448.70 0.7244
448.80 0.725
448.90 0.7255
449.00 0.7261
449.10 0.7266
449.20 0.7272
449.30 0.7277
449.40 0.7283
449.50 0.7288
449.60 0.7294
449.70 0.7299
449.80 0.7305
449.90 0.731
450.00 0.7316
450.10 0.7321
450.20 0.7327
450.30 0.7332
450.40 0.7338
450.50 0.7344
450.60 0.7349
450.70 0.7355
450.80 0.736
450.90 0.7365
451.00 0.7371
451.10 0.7376
451.20 0.7382
451.30 0.7387
451.40 0.7393
451.50 0.7398
451.60 0.7404
451.70 0.7409
451.80 0.7415
451.90 0.742
452.00 0.7426
452.10 0.7432
452.20 0.7437
452.30 0.7443
452.40 0.7448
452.50 0.7454
452.60 0.7459
452.70 0.7465
452.80 0.747
452.90 0.7476
453.00 0.7481
453.10 0.7487
453.20 0.7492
453.30 0.7498
453.40 0.7503
453.50 0.7509
453.60 0.7514
453.70 0.752
453.80 0.7525
453.90 0.7531
454.00 0.7536
454.10 0.7542
454.20 0.7547
454.30 0.7553
454.40 0.7558
454.50 0.7564
454.60 0.7569
454.70 0.7575
454.80 0.758
454.90 0.7586
455.00 0.7591
455.10 0.7597
455.20 0.7602
455.30 0.7608
455.40 0.7613
455.50 0.7619
455.60 0.7624
455.70 0.763
455.80 0.7635
455.90 0.7641
456.00 0.7646
456.10 0.7652
456.20 0.7657
456.30 0.7663
456.40 0.7668
456.50 0.7674
456.60 0.7679
456.70 0.7685
456.80 0.769
456.90 0.7696
457.00 0.7701
457.10 0.7707
457.20 0.7713
457.30 0.7718
457.40 0.7724
457.50 0.7729
457.60 0.7735
457.70 0.774
457.80 0.7746
457.90 0.7751
458.00 0.7757
458.10 0.7762
458.20 0.7768
458.30 0.7773
458.40 0.7779
458.50 0.7784
458.60 0.779
458.70 0.7795
458.80 0.7801
458.90 0.7806
459.00 0.7812
459.10 0.7817
459.20 0.7822
459.30 0.7828
459.40 0.7833
459.50 0.7839
459.60 0.7844
459.70 0.785
459.80 0.7855
459.90 0.7861
460.00 0.7866
460.10 0.7872
460.20 0.7877
460.30 0.7883
460.40 0.7888
460.50 0.7894
460.60 0.7899
460.70 0.7905
460.80 0.791
460.90 0.7916
461.00 0.7921
461.10 0.7927
461.20 0.7932
461.30 0.7938
461.40 0.7943
461.50 0.7949
461.60 0.7954
461.70 0.796
461.80 0.7965
461.90 0.797
462.00 0.7976
462.10 0.7981
462.20 0.7987
462.30 0.7992
462.40 0.7998
462.50 0.8003
462.60 0.8009
462.70 0.8014
462.80 0.802
462.90 0.8025
463.00 0.8031
463.10 0.8036
463.20 0.8042
463.30 0.8047
463.40 0.8053
463.50 0.8058
463.60 0.8064
463.70 0.8069
463.80 0.8075
463.90 0.808
464.00 0.8086
464.10 0.8091
464.20 0.8096
464.30 0.8102
464.40 0.8107
464.50 0.8113
464.60 0.8118
464.70 0.8124
464.80 0.8129
464.90 0.8135
465.00 0.814
465.10 0.8146
465.20 0.8151
465.30 0.8157
465.40 0.8162
465.50 0.8168
465.60 0.8173
465.70 0.8179
465.80 0.8184
465.90 0.8189
466.00 0.8195
466.10 0.82
466.20 0.8206
466.30 0.8211
466.40 0.8217
466.50 0.8222
466.60 0.8228
466.70 0.8233
466.80 0.8239
466.90 0.8244
467.00 0.8249
467.10 0.8255
467.20 0.826
467.30 0.8266
467.40 0.8271
467.50 0.8277
467.60 0.8282
467.70 0.8288
467.80 0.8293
467.90 0.8299
468.00 0.8304
468.10 0.8309
468.20 0.8315
468.30 0.832
468.40 0.8326
468.50 0.8331
468.60 0.8337
468.70 0.8342
468.80 0.8347
468.90 0.8353
469.00 0.8358
469.10 0.8364
469.20 0.8369
469.30 0.8374
469.40 0.838
469.50 0.8385
469.60 0.8391
469.70 0.8396
469.80 0.8402
469.90 0.8407
470.00 0.8413
470.10 0.8418
470.20 0.8423
470.30 0.8429
470.40 0.8434
470.50 0.844
470.60 0.8445
470.70 0.8451
470.80 0.8456
470.90 0.8462
471.00 0.8467
471.10 0.8472
471.20 0.8478
471.30 0.8483
471.40 0.8489
471.50 0.8494
471.60 0.85
471.70 0.8505
471.80 0.851
471.90 0.8516
472.00 0.8521
472.10 0.8527
472.20 0.8532
472.30 0.8538
472.40 0.8543
472.50 0.8548
472.60 0.8554
472.70 0.8559
472.80 0.8565
472.90 0.857
473.00 0.8575
473.10 0.8581
473.20 0.8586
473.30 0.8592
473.40 0.8597
473.50 0.8602
473.60 0.8608
473.70 0.8613
473.80 0.8619
473.90 0.8624
474.00 0.8629
474.10 0.8635
474.20 0.864
474.30 0.8646
474.40 0.8651
474.50 0.8656
474.60 0.8662
474.70 0.8667
474.80 0.8673
474.90 0.8678
475.00 0.8683
475.10 0.8689
475.20 0.8694
475.30 0.8699
475.40 0.8705
475.50 0.871
475.60 0.8716
475.70 0.8721
475.80 0.8726
475.90 0.8732
476.00 0.8737
476.10 0.8743
476.20 0.8748
476.30 0.8753
476.40 0.8759
476.50 0.8764
476.60 0.877
476.70 0.8775
476.80 0.878
476.90 0.8786
477.00 0.8791
477.10 0.8796
477.20 0.8802
477.30 0.8807
477.40 0.8813
477.50 0.8818
477.60 0.8823
477.70 0.8829
477.80 0.8834
477.90 0.8839
478.00 0.8845
478.10 0.885
478.20 0.8856
478.30 0.8861
478.40 0.8866
478.50 0.8872
478.60 0.8877
478.70 0.8883
478.80 0.8888
478.90 0.8893
479.00 0.8899
479.10 0.8904
479.20 0.8909
479.30 0.8915
479.40 0.892
479.50 0.8925
479.60 0.8931
479.70 0.8936
479.80 0.8941
479.90 0.8947
480.00 0.8952
480.10 0.8957
480.20 0.8963
480.30 0.8968
480.40 0.8974
480.50 0.8979
480.60 0.8984
480.70 0.899
480.80 0.8995
480.90 0.9
481.00 0.9006
481.10 0.9011
481.20 0.9016
481.30 0.9022
481.40 0.9027
481.50 0.9032
481.60 0.9038
481.70 0.9043
481.80 0.9048
481.90 0.9054
482.00 0.9059
482.10 0.9064
482.20 0.9069
482.30 0.9075
482.40 0.908
482.50 0.9085
482.60 0.9091
482.70 0.9096
482.80 0.9101
482.90 0.9107
483.00 0.9112
483.10 0.9117
483.20 0.9123
483.30 0.9128
483.40 0.9133
483.50 0.9139
483.60 0.9144
483.70 0.9149
483.80 0.9155
483.90 0.916
484.00 0.9165
484.10 0.9171
484.20 0.9176
484.30 0.9181
484.40 0.9187
484.50 0.9192
484.60 0.9197
484.70 0.9202
484.80 0.9208
484.90 0.9213
485.00 0.9218
485.10 0.9224
485.20 0.9229
485.30 0.9234
485.40 0.924
485.50 0.9245
485.60 0.925
485.70 0.9256
485.80 0.9261
485.90 0.9266
486.00 0.9271
486.10 0.9277
486.20 0.9282
486.30 0.9287
486.40 0.9293
486.50 0.9298
486.60 0.9303
486.70 0.9308
486.80 0.9314
486.90 0.9319
487.00 0.9324
487.10 0.9329
487.20 0.9335
487.30 0.934
487.40 0.9345
487.50 0.935
487.60 0.9356
487.70 0.9361
487.80 0.9366
487.90 0.9372
488.00 0.9377
488.10 0.9382
488.20 0.9387
488.30 0.9393
488.40 0.9398
488.50 0.9403
488.60 0.9409
488.70 0.9414
488.80 0.9419
488.90 0.9424
489.00 0.943
489.10 0.9435
489.20 0.944
489.30 0.9445
489.40 0.9451
489.50 0.9456
489.60 0.9461
489.70 0.9466
489.80 0.9472
489.90 0.9477
490.00 0.9482
490.10 0.9487
490.20 0.9492
490.30 0.9498
490.40 0.9503
490.50 0.9508
490.60 0.9514
490.70 0.9519
490.80 0.9524
490.90 0.9529
491.00 0.9534
491.10 0.954
491.20 0.9545
491.30 0.955
491.40 0.9555
491.50 0.9561
491.60 0.9566
491.70 0.9571
491.80 0.9576
491.90 0.9581
492.00 0.9587
492.10 0.9592
492.20 0.9597
492.30 0.9602
492.40 0.9608
492.50 0.9613
492.60 0.9618
492.70 0.9623
492.80 0.9628
492.90 0.9634
493.00 0.9639
493.10 0.9644
493.20 0.9649
493.30 0.9654
493.40 0.966
493.50 0.9665
493.60 0.967
493.70 0.9675
493.80 0.968
493.90 0.9686
494.00 0.9691
494.10 0.9696
494.20 0.9701
494.30 0.9706
494.40 0.9711
494.50 0.9717
494.60 0.9722
494.70 0.9727
494.80 0.9732
494.90 0.9737
495.00 0.9743
495.10 0.9748
495.20 0.9753
495.30 0.9758
495.40 0.9763
495.50 0.9768
495.60 0.9774
495.70 0.9779
495.80 0.9784
495.90 0.9789
496.00 0.9794
496.10 0.9799
496.20 0.9805
496.30 0.981
496.40 0.9815
496.50 0.982
496.60 0.9825
496.70 0.9831
496.80 0.9836
496.90 0.9841
497.00 0.9846
497.10 0.9851
497.20 0.9856
497.30 0.9862
497.40 0.9867
497.50 0.9872
497.60 0.9877
497.70 0.9882
497.80 0.9887
497.90 0.9892
498.00 0.9897
498.10 0.9903
498.20 0.9908
498.30 0.9913
498.40 0.9918
498.50 0.9923
498.60 0.9928
498.70 0.9934
498.80 0.9939
498.90 0.9944
499.00 0.9949
499.10 0.9954
499.20 0.9959
499.30 0.9964
499.40 0.9969
499.50 0.9975
499.60 0.998
499.70 0.9985
499.80 0.999
499.90 0.9995
500.00 1
500.10 1.001
500.20 1.001
500.30 1.002
500.40 1.002
500.50 1.003
500.60 1.003
500.70 1.004
500.80 1.004
500.90 1.005
501.00 1.005
501.10 1.006
501.20 1.006
501.30 1.007
501.40 1.007
501.50 1.008
501.60 1.008
501.70 1.009
501.80 1.009
501.90 1.01
502.00 1.01
502.10 1.011
502.20 1.011
502.30 1.012
502.40 1.012
502.50 1.013
502.60 1.013
502.70 1.014
502.80 1.014
502.90 1.015
503.00 1.015
503.10 1.016
503.20 1.016
503.30 1.017
503.40 1.017
503.50 1.018
503.60 1.018
503.70 1.019
503.80 1.019
503.90 1.02
504.00 1.02
504.10 1.021
504.20 1.021
504.30 1.022
504.40 1.022
504.50 1.023
504.60 1.023
504.70 1.024
504.80 1.024
504.90 1.025
505.00 1.025
505.10 1.026
505.20 1.026
505.30 1.027
505.40 1.027
505.50 1.028
505.60 1.028
505.70 1.029
505.80 1.029
505.90 1.03
506.00 1.03
506.10 1.031
506.20 1.031
506.30 1.032
506.40 1.032
506.50 1.033
506.60 1.033
506.70 1.034
506.80 1.034
506.90 1.035
507.00 1.035
507.10 1.036
507.20 1.036
507.30 1.037
507.40 1.037
507.50 1.038
507.60 1.038
507.70 1.039
507.80 1.039
507.90 1.04
508.00 1.04
508.10 1.041
508.20 1.041
508.30 1.042
508.40 1.042
508.50 1.043
508.60 1.043
508.70 1.044
508.80 1.044
508.90 1.045
509.00 1.045
509.10 1.046
509.20 1.046
509.30 1.047
509.40 1.047
509.50 1.048
509.60 1.048
509.70 1.049
509.80 1.049
509.90 1.05
510.00 1.05
510.10 1.051
510.20 1.051
510.30 1.052
510.40 1.052
510.50 1.053
510.60 1.053
510.70 1.054
510.80 1.054
510.90 1.055
511.00 1.055
511.10 1.056
511.20 1.056
511.30 1.057
511.40 1.057
511.50 1.058
511.60 1.058
511.70 1.059
511.80 1.059
511.90 1.06
512.00 1.06
512.10 1.061
512.20 1.061
512.30 1.062
512.40 1.062
512.50 1.063
512.60 1.063
512.70 1.064
512.80 1.064
512.90 1.065
513.00 1.065
513.10 1.066
513.20 1.066
513.30 1.067
513.40 1.067
513.50 1.068
513.60 1.068
513.70 1.069
513.80 1.069
513.90 1.07
514.00 1.07
514.10 1.071
514.20 1.071
514.30 1.072
514.40 1.072
514.50 1.073
514.60 1.073
514.70 1.074
514.80 1.074
514.90 1.074
515.00 1.075
515.10 1.075
515.20 1.076
515.30 1.076
515.40 1.077
515.50 1.077
515.60 1.078
515.70 1.078
515.80 1.079
515.90 1.079
516.00 1.08
516.10 1.08
516.20 1.081
516.30 1.081
516.40 1.082
516.50 1.082
516.60 1.083
516.70 1.083
516.80 1.084
516.90 1.084
517.00 1.085
517.10 1.085
517.20 1.086
517.30 1.086
517.40 1.087
517.50 1.087
517.60 1.088
517.70 1.088
517.80 1.089
517.90 1.089
518.00 1.09
518.10 1.09
518.20 1.091
518.30 1.091
518.40 1.091
518.50 1.092
518.60 1.092
518.70 1.093
518.80 1.093
518.90 1.094
519.00 1.094
519.10 1.095
519.20 1.095
519.30 1.096
519.40 1.096
519.50 1.097
519.60 1.097
519.70 1.098
519.80 1.098
519.90 1.099
520.00 1.099
520.10 1.1
520.20 1.1
520.30 1.101
520.40 1.101
520.50 1.102
520.60 1.102
520.70 1.103
520.80 1.103
520.90 1.103
521.00 1.104
521.10 1.104
521.20 1.105
521.30 1.105
521.40 1.106
521.50 1.106
521.60 1.107
521.70 1.107
521.80 1.108
521.90 1.108
522.00 1.109
522.10 1.109
522.20 1.11
522.30 1.11
522.40 1.111
522.50 1.111
522.60 1.112
522.70 1.112
522.80 1.113
522.90 1.113
523.00 1.113
523.10 1.114
523.20 1.114
523.30 1.115
523.40 1.115
523.50 1.116
523.60 1.116
523.70 1.117
523.80 1.117
523.90 1.118
524.00 1.118
524.10 1.119
524.20 1.119
524.30 1.12
524.40 1.12
524.50 1.121
524.60 1.121
524.70 1.121
524.80 1.122
524.90 1.122
525.00 1.123
525.10 1.123
525.20 1.124
525.30 1.124
525.40 1.125
525.50 1.125
525.60 1.126
525.70 1.126
525.80 1.127
525.90 1.127
526.00 1.128
526.10 1.128
526.20 1.129
526.30 1.129
526.40 1.129
526.50 1.13
526.60 1.13
526.70 1.131
526.80 1.131
526.90 1.132
527.00 1.132
527.10 1.133
527.20 1.133
527.30 1.134
527.40 1.134
527.50 1.135
527.60 1.135
527.70 1.136
527.80 1.136
527.90 1.136
528.00 1.137
528.10 1.137
528.20 1.138
528.30 1.138
528.40 1.139
528.50 1.139
528.60 1.14
528.70 1.14
528.80 1.141
528.90 1.141
529.00 1.142
529.10 1.142
529.20 1.142
529.30 1.143
529.40 1.143
529.50 1.144
529.60 1.144
529.70 1.145
529.80 1.145
529.90 1.146
530.00 1.146
530.10 1.147
530.20 1.147
530.30 1.148
530.40 1.148
530.50 1.148
530.60 1.149
530.70 1.149
530.80 1.15
530.90 1.15
531.00 1.151
531.10 1.151
531.20 1.152
531.30 1.152
531.40 1.153
531.50 1.153
531.60 1.153
531.70 1.154
531.80 1.154
531.90 1.155
532.00 1.155
532.10 1.156
532.20 1.156
532.30 1.157
532.40 1.157
532.50 1.158
532.60 1.158
532.70 1.159
532.80 1.159
532.90 1.159
533.00 1.16
533.10 1.16
533.20 1.161
533.30 1.161
533.40 1.162
533.50 1.162
533.60 1.163
533.70 1.163
533.80 1.164
533.90 1.164
534.00 1.164
534.10 1.165
534.20 1.165
534.30 1.166
534.40 1.166
534.50 1.167
534.60 1.167
534.70 1.168
534.80 1.168
534.90 1.168
535.00 1.169
535.10 1.169
535.20 1.17
535.30 1.17
535.40 1.171
535.50 1.171
535.60 1.172
535.70 1.172
535.80 1.173
535.90 1.173
536.00 1.173
536.10 1.174
536.20 1.174
536.30 1.175
536.40 1.175
536.50 1.176
536.60 1.176
536.70 1.177
536.80 1.177
536.90 1.177
537.00 1.178
537.10 1.178
537.20 1.179
537.30 1.179
537.40 1.18
537.50 1.18
537.60 1.181
537.70 1.181
537.80 1.181
537.90 1.182
538.00 1.182
538.10 1.183
538.20 1.183
538.30 1.184
538.40 1.184
538.50 1.185
538.60 1.185
538.70 1.185
538.80 1.186
538.90 1.186
539.00 1.187
539.10 1.187
539.20 1.188
539.30 1.188
539.40 1.189
539.50 1.189
539.60 1.189
539.70 1.19
539.80 1.19
539.90 1.191
540.00 1.191
540.10 1.192
540.20 1.192
540.30 1.192
540.40 1.193
540.50 1.193
540.60 1.194
540.70 1.194
540.80 1.195
540.90 1.195
541.00 1.196
541.10 1.196
541.20 1.196
541.30 1.197
541.40 1.197
541.50 1.198
541.60 1.198
541.70 1.199
541.80 1.199
541.90 1.199
542.00 1.2
542.10 1.2
542.20 1.201
542.30 1.201
542.40 1.202
542.50 1.202
542.60 1.203
542.70 1.203
542.80 1.203
542.90 1.204
543.00 1.204
543.10 1.205
543.20 1.205
543.30 1.206
543.40 1.206
543.50 1.206
543.60 1.207
543.70 1.207
543.80 1.208
543.90 1.208
544.00 1.209
544.10 1.209
544.20 1.209
544.30 1.21
544.40 1.21
544.50 1.211
544.60 1.211
544.70 1.212
544.80 1.212
544.90 1.212
545.00 1.213
545.10 1.213
545.20 1.214
545.30 1.214
545.40 1.215
545.50 1.215
545.60 1.215
545.70 1.216
545.80 1.216
545.90 1.217
546.00 1.217
546.10 1.218
546.20 1.218
546.30 1.218
546.40 1.219
546.50 1.219
546.60 1.22
546.70 1.22
546.80 1.221
546.90 1.221
547.00 1.221
547.10 1.222
547.20 1.222
547.30 1.223
547.40 1.223
547.50 1.224
547.60 1.224
547.70 1.224
547.80 1.225
547.90 1.225
548.00 1.226
548.10 1.226
548.20 1.226
548.30 1.227
548.40 1.227
548.50 1.228
548.60 1.228
548.70 1.229
548.80 1.229
548.90 1.229
549.00 1.23
549.10 1.23
549.20 1.231
549.30 1.231
549.40 1.232
549.50 1.232
549.60 1.232
549.70 1.233
549.80 1.233
549.90 1.234
550.00 1.234
550.10 1.234
550.20 1.235
550.30 1.235
550.40 1.236
550.50 1.236
550.60 1.237
550.70 1.237
550.80 1.237
550.90 1.238
551.00 1.238
551.10 1.239
551.20 1.239
551.30 1.239
551.40 1.24
551.50 1.24
551.60 1.241
551.70 1.241
551.80 1.241
551.90 1.242
552.00 1.242
552.10 1.243
552.20 1.243
552.30 1.244
552.40 1.244
552.50 1.244
552.60 1.245
552.70 1.245
552.80 1.246
552.90 1.246
553.00 1.246
553.10 1.247
553.20 1.247
553.30 1.248
553.40 1.248
553.50 1.248
553.60 1.249
553.70 1.249
553.80 1.25
553.90 1.25
554.00 1.251
554.10 1.251
554.20 1.251
554.30 1.252
554.40 1.252
554.50 1.253
554.60 1.253
554.70 1.253
554.80 1.254
554.90 1.254
555.00 1.255
555.10 1.255
555.20 1.255
555.30 1.256
555.40 1.256
555.50 1.257
555.60 1.257
555.70 1.257
555.80 1.258
555.90 1.258
556.00 1.259
556.10 1.259
556.20 1.259
556.30 1.26
556.40 1.26
556.50 1.261
556.60 1.261
556.70 1.261
556.80 1.262
556.90 1.262
557.00 1.263
557.10 1.263
557.20 1.263
557.30 1.264
557.40 1.264
557.50 1.265
557.60 1.265
557.70 1.265
557.80 1.266
557.90 1.266
558.00 1.267
558.10 1.267
558.20 1.267
558.30 1.268
558.40 1.268
558.50 1.269
558.60 1.269
558.70 1.269
558.80 1.27
558.90 1.27
559.00 1.271
559.10 1.271
559.20 1.271
559.30 1.272
559.40 1.272
559.50 1.273
559.60 1.273
559.70 1.273
559.80 1.274
559.90 1.274
560.00 1.275
560.10 1.275
560.20 1.275
560.30 1.276
560.40 1.276
560.50 1.276
560.60 1.277
560.70 1.277
560.80 1.278
560.90 1.278
561.00 1.278
561.10 1.279
561.20 1.279
561.30 1.28
561.40 1.28
561.50 1.28
561.60 1.281
561.70 1.281
561.80 1.282
561.90 1.282
562.00 1.282
562.10 1.283
562.20 1.283
562.30 1.284
562.40 1.284
562.50 1.284
562.60 1.285
562.70 1.285
562.80 1.285
562.90 1.286
563.00 1.286
563.10 1.287
563.20 1.287
563.30 1.287
563.40 1.288
563.50 1.288
563.60 1.289
563.70 1.289
563.80 1.289
563.90 1.29
564.00 1.29
564.10 1.29
564.20 1.291
564.30 1.291
564.40 1.292
564.50 1.292
564.60 1.292
564.70 1.293
564.80 1.293
564.90 1.293
565.00 1.294
565.10 1.294
565.20 1.295
565.30 1.295
565.40 1.295
565.50 1.296
565.60 1.296
565.70 1.297
565.80 1.297
565.90 1.297
566.00 1.298
566.10 1.298
566.20 1.298
566.30 1.299
566.40 1.299
566.50 1.3
566.60 1.3
566.70 1.3
566.80 1.301
566.90 1.301
567.00 1.301
567.10 1.302
567.20 1.302
567.30 1.303
567.40 1.303
567.50 1.303
567.60 1.304
567.70 1.304
567.80 1.304
567.90 1.305
568.00 1.305
568.10 1.306
568.20 1.306
568.30 1.306
568.40 1.307
568.50 1.307
568.60 1.307
568.70 1.308
568.80 1.308
568.90 1.308
569.00 1.309
569.10 1.309
569.20 1.31
569.30 1.31
569.40 1.31
569.50 1.311
569.60 1.311
569.70 1.311
569.80 1.312
569.90 1.312
570.00 1.313
570.10 1.313
570.20 1.313
570.30 1.314
570.40 1.314
570.50 1.314
570.60 1.315
570.70 1.315
570.80 1.315
570.90 1.316
571.00 1.316
571.10 1.317
571.20 1.317
571.30 1.317
571.40 1.318
571.50 1.318
571.60 1.318
571.70 1.319
571.80 1.319
571.90 1.319
572.00 1.32
572.10 1.32
572.20 1.321
572.30 1.321
572.40 1.321
572.50 1.322
572.60 1.322
572.70 1.322
572.80 1.323
572.90 1.323
573.00 1.323
573.10 1.324
573.20 1.324
573.30 1.324
573.40 1.325
573.50 1.325
573.60 1.326
573.70 1.326
573.80 1.326
573.90 1.327
574.00 1.327
574.10 1.327
574.20 1.328
574.30 1.328
574.40 1.328
574.50 1.329
574.60 1.329
574.70 1.329
574.80 1.33
574.90 1.33
575.00 1.33
575.10 1.331
575.20 1.331
575.30 1.332
575.40 1.332
575.50 1.332
575.60 1.333
575.70 1.333
575.80 1.333
575.90 1.334
576.00 1.334
576.10 1.334
576.20 1.335
576.30 1.335
576.40 1.335
576.50 1.336
576.60 1.336
576.70 1.336
576.80 1.337
576.90 1.337
577.00 1.337
577.10 1.338
577.20 1.338
577.30 1.339
577.40 1.339
577.50 1.339
577.60 1.34
577.70 1.34
577.80 1.34
577.90 1.341
578.00 1.341
578.10 1.341
578.20 1.342
578.30 1.342
578.40 1.342
578.50 1.343
578.60 1.343
578.70 1.343
578.80 1.344
578.90 1.344
579.00 1.344
579.10 1.345
579.20 1.345
579.30 1.345
579.40 1.346
579.50 1.346
579.60 1.346
579.70 1.347
579.80 1.347
579.90 1.347
580.00 1.348
580.10 1.348
580.20 1.348
580.30 1.349
580.40 1.349
580.50 1.349
580.60 1.35
580.70 1.35
580.80 1.35
580.90 1.351
581.00 1.351
581.10 1.351
581.20 1.352
581.30 1.352
581.40 1.352
581.50 1.353
581.60 1.353
581.70 1.353
581.80 1.354
581.90 1.354
582.00 1.354
582.10 1.355
582.20 1.355
582.30 1.355
582.40 1.356
582.50 1.356
582.60 1.356
582.70 1.357
582.80 1.357
582.90 1.357
583.00 1.358
583.10 1.358
583.20 1.358
583.30 1.359
583.40 1.359
583.50 1.359
583.60 1.36
583.70 1.36
583.80 1.36
583.90 1.361
584.00 1.361
584.10 1.361
584.20 1.362
584.30 1.362
584.40 1.362
584.50 1.363
584.60 1.363
584.70 1.363
584.80 1.364
584.90 1.364
585.00 1.364
585.10 1.365
585.20 1.365
585.30 1.365
585.40 1.366
585.50 1.366
585.60 1.366
585.70 1.366
585.80 1.367
585.90 1.367
586.00 1.367
586.10 1.368
586.20 1.368
586.30 1.368
586.40 1.369
586.50 1.369
586.60 1.369
586.70 1.37
586.80 1.37
586.90 1.37
587.00 1.371
587.10 1.371
587.20 1.371
587.30 1.372
587.40 1.372
587.50 1.372
587.60 1.372
587.70 1.373
587.80 1.373
587.90 1.373
588.00 1.374
588.10 1.374
588.20 1.374
588.30 1.375
588.40 1.375
588.50 1.375
588.60 1.376
588.70 1.376
588.80 1.376
588.90 1.377
589.00 1.377
589.10 1.377
589.20 1.377
589.30 1.378
589.40 1.378
589.50 1.378
589.60 1.379
589.70 1.379
589.80 1.379
589.90 1.38
590.00 1.38
590.10 1.38
590.20 1.381
590.30 1.381
590.40 1.381
590.50 1.381
590.60 1.382
590.70 1.382
590.80 1.382
590.90 1.383
591.00 1.383
591.10 1.383
591.20 1.384
591.30 1.384
591.40 1.384
591.50 1.384
591.60 1.385
591.70 1.385
591.80 1.385
591.90 1.386
592.00 1.386
592.10 1.386
592.20 1.387
592.30 1.387
592.40 1.387
592.50 1.387
592.60 1.388
592.70 1.388
592.80 1.388
592.90 1.389
593.00 1.389
593.10 1.389
593.20 1.39
593.30 1.39
593.40 1.39
593.50 1.39
593.60 1.391
593.70 1.391
593.80 1.391
593.90 1.392
594.00 1.392
594.10 1.392
594.20 1.392
594.30 1.393
594.40 1.393
594.50 1.393
594.60 1.394
594.70 1.394
594.80 1.394
594.90 1.394
595.00 1.395
595.10 1.395
595.20 1.395
595.30 1.396
595.40 1.396
595.50 1.396
595.60 1.396
595.70 1.397
595.80 1.397
595.90 1.397
596.00 1.398
596.10 1.398
596.20 1.398
596.30 1.398
596.40 1.399
596.50 1.399
596.60 1.399
596.70 1.4
596.80 1.4
596.90 1.4
597.00 1.4
597.10 1.401
597.20 1.401
597.30 1.401
597.40 1.402
597.50 1.402
597.60 1.402
597.70 1.402
597.80 1.403
597.90 1.403
598.00 1.403
598.10 1.404
598.20 1.404
598.30 1.404
598.40 1.404
598.50 1.405
598.60 1.405
598.70 1.405
598.80 1.405
598.90 1.406
599.00 1.406
599.10 1.406
599.20 1.407
599.30 1.407
599.40 1.407
599.50 1.407
599.60 1.408
599.70 1.408
599.80 1.408
599.90 1.408
600.00 1.409
600.10 1.409
600.20 1.409
600.30 1.41
600.40 1.41
600.50 1.41
600.60 1.41
600.70 1.411
600.80 1.411
600.90 1.411
601.00 1.411
601.10 1.412
601.20 1.412
601.30 1.412
601.40 1.412
601.50 1.413
601.60 1.413
601.70 1.413
601.80 1.414
601.90 1.414
602.00 1.414
602.10 1.414
602.20 1.415
602.30 1.415
602.40 1.415
602.50 1.415
602.60 1.416
602.70 1.416
602.80 1.416
602.90 1.416
603.00 1.417
603.10 1.417
603.20 1.417
603.30 1.417
603.40 1.418
603.50 1.418
603.60 1.418
603.70 1.418
603.80 1.419
603.90 1.419
604.00 1.419
604.10 1.419
604.20 1.42
604.30 1.42
604.40 1.42
604.50 1.42
604.60 1.421
604.70 1.421
604.80 1.421
604.90 1.421
605.00 1.422
605.10 1.422
605.20 1.422
605.30 1.422
605.40 1.423
605.50 1.423
605.60 1.423
605.70 1.423
605.80 1.424
605.90 1.424
606.00 1.424
606.10 1.424
606.20 1.425
606.30 1.425
606.40 1.425
606.50 1.425
606.60 1.426
606.70 1.426
606.80 1.426
606.90 1.426
607.00 1.427
607.10 1.427
607.20 1.427
607.30 1.427
607.40 1.428
607.50 1.428
607.60 1.428
607.70 1.428
607.80 1.429
607.90 1.429
608.00 1.429
608.10 1.429
608.20 1.43
608.30 1.43
608.40 1.43
608.50 1.43
608.60 1.431
608.70 1.431
608.80 1.431
608.90 1.431
609.00 1.431
609.10 1.432
609.20 1.432
609.30 1.432
609.40 1.432
609.50 1.433
609.60 1.433
609.70 1.433
609.80 1.433
609.90 1.434
610.00 1.434
610.10 1.434
610.20 1.434
610.30 1.434
610.40 1.435
610.50 1.435
610.60 1.435
610.70 1.435
610.80 1.436
610.90 1.436
611.00 1.436
611.10 1.436
611.20 1.437
611.30 1.437
611.40 1.437
611.50 1.437
611.60 1.437
611.70 1.438
611.80 1.438
611.90 1.438
612.00 1.438
612.10 1.439
612.20 1.439
612.30 1.439
612.40 1.439
612.50 1.439
612.60 1.44
612.70 1.44
612.80 1.44
612.90 1.44
613.00 1.441
613.10 1.441
613.20 1.441
613.30 1.441
613.40 1.441
613.50 1.442
613.60 1.442
613.70 1.442
613.80 1.442
613.90 1.442
614.00 1.443
614.10 1.443
614.20 1.443
614.30 1.443
614.40 1.444
614.50 1.444
614.60 1.444
614.70 1.444
614.80 1.444
614.90 1.445
615.00 1.445
615.10 1.445
615.20 1.445
615.30 1.445
615.40 1.446
615.50 1.446
615.60 1.446
615.70 1.446
615.80 1.446
615.90 1.447
616.00 1.447
616.10 1.447
616.20 1.447
616.30 1.447
616.40 1.448
616.50 1.448
616.60 1.448
616.70 1.448
616.80 1.448
616.90 1.449
617.00 1.449
617.10 1.449
617.20 1.449
617.30 1.449
617.40 1.45
617.50 1.45
617.60 1.45
617.70 1.45
617.80 1.45
617.90 1.451
618.00 1.451
618.10 1.451
618.20 1.451
618.30 1.451
618.40 1.452
618.50 1.452
618.60 1.452
618.70 1.452
618.80 1.452
618.90 1.453
619.00 1.453
619.10 1.453
619.20 1.453
619.30 1.453
619.40 1.453
619.50 1.454
619.60 1.454
619.70 1.454
619.80 1.454
619.90 1.454
620.00 1.455
620.10 1.455
620.20 1.455
620.30 1.455
620.40 1.455
620.50 1.455
620.60 1.456
620.70 1.456
620.80 1.456
620.90 1.456
621.00 1.456
621.10 1.457
621.20 1.457
621.30 1.457
621.40 1.457
621.50 1.457
621.60 1.457
621.70 1.458
621.80 1.458
621.90 1.458
622.00 1.458
622.10 1.458
622.20 1.458
622.30 1.459
622.40 1.459
622.50 1.459
622.60 1.459
622.70 1.459
622.80 1.46
622.90 1.46
623.00 1.46
623.10 1.46
623.20 1.46
623.30 1.46
623.40 1.461
623.50 1.461
623.60 1.461
623.70 1.461
623.80 1.461
623.90 1.461
624.00 1.462
624.10 1.462
624.20 1.462
624.30 1.462
624.40 1.462
624.50 1.462
624.60 1.462
624.70 1.463
624.80 1.463
624.90 1.463
625.00 1.463
625.10 1.463
625.20 1.463
625.30 1.464
625.40 1.464
625.50 1.464
625.60 1.464
625.70 1.464
625.80 1.464
625.90 1.465
626.00 1.465
626.10 1.465
626.20 1.465
626.30 1.465
626.40 1.465
626.50 1.465
626.60 1.466
626.70 1.466
626.80 1.466
626.90 1.466
627.00 1.466
627.10 1.466
627.20 1.466
627.30 1.467
627.40 1.467
627.50 1.467
627.60 1.467
627.70 1.467
627.80 1.467
627.90 1.467
628.00 1.468
628.10 1.468
628.20 1.468
628.30 1.468
628.40 1.468
628.50 1.468
628.60 1.468
628.70 1.469
628.80 1.469
628.90 1.469
629.00 1.469
629.10 1.469
629.20 1.469
629.30 1.469
629.40 1.47
629.50 1.47
629.60 1.47
629.70 1.47
629.80 1.47
629.90 1.47
630.00 1.47
630.10 1.47
630.20 1.471
630.30 1.471
630.40 1.471
630.50 1.471
630.60 1.471
630.70 1.471
630.80 1.471
630.90 1.472
631.00 1.472
631.10 1.472
631.20 1.472
631.30 1.472
631.40 1.472
631.50 1.472
631.60 1.472
631.70 1.472
631.80 1.473
631.90 1.473
632.00 1.473
632.10 1.473
632.20 1.473
632.30 1.473
632.40 1.473
632.50 1.473
632.60 1.474
632.70 1.474
632.80 1.474
632.90 1.474
633.00 1.474
633.10 1.474
633.20 1.474
633.30 1.474
633.40 1.474
633.50 1.475
633.60 1.475
633.70 1.475
633.80 1.475
633.90 1.475
634.00 1.475
634.10 1.475
634.20 1.475
634.30 1.475
634.40 1.476
634.50 1.476
634.60 1.476
634.70 1.476
634.80 1.476
634.90 1.476
635.00 1.476
635.10 1.476
635.20 1.476
635.30 1.476
635.40 1.477
635.50 1.477
635.60 1.477
635.70 1.477
635.80 1.477
635.90 1.477
636.00 1.477
636.10 1.477
636.20 1.477
636.30 1.477
636.40 1.477
636.50 1.478
636.60 1.478
636.70 1.478
636.80 1.478
636.90 1.478
637.00 1.478
637.10 1.478
637.20 1.478
637.30 1.478
637.40 1.478
637.50 1.478
637.60 1.478
637.70 1.479
637.80 1.479
637.90 1.479
638.00 1.479
638.10 1.479
638.20 1.479
638.30 1.479
638.40 1.479
638.50 1.479
638.60 1.479
638.70 1.479
638.80 1.479
638.90 1.48
639.00 1.48
639.10 1.48
639.20 1.48
639.30 1.48
639.40 1.48
639.50 1.48
639.60 1.48
639.70 1.48
639.80 1.48
639.90 1.48
640.00 1.48
640.10 1.48
640.20 1.48
640.30 1.481
640.40 1.481
640.50 1.481
640.60 1.481
640.70 1.481
640.80 1.481
640.90 1.481
641.00 1.481
641.10 1.481
641.20 1.481
641.30 1.481
641.40 1.481
641.50 1.481
641.60 1.481
641.70 1.481
641.80 1.481
641.90 1.481
642.00 1.481
642.10 1.481
642.20 1.482
642.30 1.482
642.40 1.482
642.50 1.482
642.60 1.482
642.70 1.482
642.80 1.482
642.90 1.482
643.00 1.482
643.10 1.482
643.20 1.482
643.30 1.482
643.40 1.482
643.50 1.482
643.60 1.482
643.70 1.482
643.80 1.482
643.90 1.482
644.00 1.482
644.10 1.482
644.20 1.482
644.30 1.482
644.40 1.482
644.50 1.482
644.60 1.482
644.70 1.482
644.80 1.483
644.90 1.483
645.00 1.483
645.10 1.483
645.20 1.483
645.30 1.483
645.40 1.483
645.50 1.483
645.60 1.483
645.70 1.483
645.80 1.483
645.90 1.483
646.00 1.483
646.10 1.483
646.20 1.483
646.30 1.483
646.40 1.483
646.50 1.483
646.60 1.483
646.70 1.483
646.80 1.483
646.90 1.483
647.00 1.483
647.10 1.483
647.20 1.483
647.30 1.483
647.40 1.483
647.50 1.483
647.60 1.483
647.70 1.483
647.80 1.483
647.90 1.483
648.00 1.483
648.10 1.483
648.20 1.483
648.30 1.483
648.40 1.483
648.50 1.483
648.60 1.483
648.70 1.483
648.80 1.483
648.90 1.483
649.00 1.483
649.10 1.483
649.20 1.483
649.30 1.483
649.40 1.483
649.50 1.483
649.60 1.483
649.70 1.483
649.80 1.483
649.90 1.483
650.00 1.483
650.10 1.483
650.20 1.483
650.30 1.483
650.40 1.483
650.50 1.483
650.60 1.483
650.70 1.483
650.80 1.483
650.90 1.483
651.00 1.483
651.10 1.483
651.20 1.483
651.30 1.483
651.40 1.483
651.50 1.483
651.60 1.483
651.70 1.483
651.80 1.482
651.90 1.482
652.00 1.482
652.10 1.482
652.20 1.482
652.30 1.482
652.40 1.482
652.50 1.482
652.60 1.482
652.70 1.482
652.80 1.482
652.90 1.482
653.00 1.482
653.10 1.482
653.20 1.482
653.30 1.482
653.40 1.482
653.50 1.482
653.60 1.482
653.70 1.482
653.80 1.482
653.90 1.482
654.00 1.482
654.10 1.482
654.20 1.481
654.30 1.481
654.40 1.481
654.50 1.481
654.60 1.481
654.70 1.481
654.80 1.481
654.90 1.481
655.00 1.481
655.10 1.481
655.20 1.481
655.30 1.481
655.40 1.481
655.50 1.481
655.60 1.481
655.70 1.481
655.80 1.48
655.90 1.48
656.00 1.48
656.10 1.48
656.20 1.48
656.30 1.48
656.40 1.48
656.50 1.48
656.60 1.48
656.70 1.48
656.80 1.48
656.90 1.48
657.00 1.48
657.10 1.479
657.20 1.479
657.30 1.479
657.40 1.479
657.50 1.479
657.60 1.479
657.70 1.479
657.80 1.479
657.90 1.479
658.00 1.479
658.10 1.479
658.20 1.478
658.30 1.478
658.40 1.478
658.50 1.478
658.60 1.478
658.70 1.478
658.80 1.478
658.90 1.478
659.00 1.478
659.10 1.478
659.20 1.477
659.30 1.477
659.40 1.477
659.50 1.477
659.60 1.477
659.70 1.477
659.80 1.477
659.90 1.477
660.00 1.477
660.10 1.477
660.20 1.476
660.30 1.476
660.40 1.476
660.50 1.476
660.60 1.476
660.70 1.476
660.80 1.476
660.90 1.476
661.00 1.475
661.10 1.475
661.20 1.475
661.30 1.475
661.40 1.475
661.50 1.475
661.60 1.475
661.70 1.475
661.80 1.474
661.90 1.474
662.00 1.474
662.10 1.474
662.20 1.474
662.30 1.474
662.40 1.474
662.50 1.473
662.60 1.473
662.70 1.473
662.80 1.473
662.90 1.473
663.00 1.473
663.10 1.473
663.20 1.472
663.30 1.472
663.40 1.472
663.50 1.472
663.60 1.472
663.70 1.472
663.80 1.471
663.90 1.471
664.00 1.471
664.10 1.471
664.20 1.471
664.30 1.471
664.40 1.47
664.50 1.47
664.60 1.47
664.70 1.47
664.80 1.47
664.90 1.47
665.00 1.469
665.10 1.469
665.20 1.469
665.30 1.469
665.40 1.469
665.50 1.469
665.60 1.468
665.70 1.468
665.80 1.468
665.90 1.468
666.00 1.468
666.10 1.467
666.20 1.467
666.30 1.467
666.40 1.467
666.50 1.467
666.60 1.467
666.70 1.466
666.80 1.466
666.90 1.466
667.00 1.466
667.10 1.466
667.20 1.465
667.30 1.465
667.40 1.465
667.50 1.465
667.60 1.465
667.70 1.464
667.80 1.464
667.90 1.464
668.00 1.464
668.10 1.463
668.20 1.463
668.30 1.463
668.40 1.463
668.50 1.463
668.60 1.462
668.70 1.462
668.80 1.462
668.90 1.462
669.00 1.461
669.10 1.461
669.20 1.461
669.30 1.461
669.40 1.461
669.50 1.46
669.60 1.46
669.70 1.46
669.80 1.46
669.90 1.459
670.00 1.459
670.10 1.459
670.20 1.459
670.30 1.458
670.40 1.458
670.50 1.458
670.60 1.458
670.70 1.457
670.80 1.457
670.90 1.457
671.00 1.457
671.10 1.456
671.20 1.456
671.30 1.456
671.40 1.456
671.50 1.455
671.60 1.455
671.70 1.455
671.80 1.455
671.90 1.454
672.00 1.454
672.10 1.454
672.20 1.454
672.30 1.453
672.40 1.453
672.50 1.453
672.60 1.452
672.70 1.452
672.80 1.452
672.90 1.452
673.00 1.451
673.10 1.451
673.20 1.451
673.30 1.45
673.40 1.45
673.50 1.45
673.60 1.45
673.70 1.449
673.80 1.449
673.90 1.449
674.00 1.448
674.10 1.448
674.20 1.448
674.30 1.448
674.40 1.447
674.50 1.447
674.60 1.447
674.70 1.446
674.80 1.446
674.90 1.446
675.00 1.445
675.10 1.445
675.20 1.445
675.30 1.444
675.40 1.444
675.50 1.444
675.60 1.443
675.70 1.443
675.80 1.443
675.90 1.442
676.00 1.442
676.10 1.442
676.20 1.441
676.30 1.441
676.40 1.441
676.50 1.44
676.60 1.44
676.70 1.44
676.80 1.439
676.90 1.439
677.00 1.439
677.10 1.438
677.20 1.438
677.30 1.438
677.40 1.437
677.50 1.437
677.60 1.437
677.70 1.436
677.80 1.436
677.90 1.436
678.00 1.435
678.10 1.435
678.20 1.434
678.30 1.434
678.40 1.434
678.50 1.433
678.60 1.433
678.70 1.433
678.80 1.432
678.90 1.432
679.00 1.431
679.10 1.431
679.20 1.431
679.30 1.43
679.40 1.43
679.50 1.43
679.60 1.429
679.70 1.429
679.80 1.428
679.90 1.428
680.00 1.428
680.10 1.427
680.20 1.427
680.30 1.426
680.40 1.426
680.50 1.426
680.60 1.425
680.70 1.425
680.80 1.424
680.90 1.424
681.00 1.424
681.10 1.423
681.20 1.423
681.30 1.422
681.40 1.422
681.50 1.421
681.60 1.421
681.70 1.421
681.80 1.42
681.90 1.42
682.00 1.419
682.10 1.419
682.20 1.418
682.30 1.418
682.40 1.418
682.50 1.417
682.60 1.417
682.70 1.416
682.80 1.416
682.90 1.415
683.00 1.415
683.10 1.414
683.20 1.414
683.30 1.413
683.40 1.413
683.50 1.413
683.60 1.412
683.70 1.412
683.80 1.411
683.90 1.411
684.00 1.41
684.10 1.41
684.20 1.409
684.30 1.409
684.40 1.408
684.50 1.408
684.60 1.407
684.70 1.407
684.80 1.406
684.90 1.406
685.00 1.405
685.10 1.405
685.20 1.404
685.30 1.404
685.40 1.403
685.50 1.403
685.60 1.402
685.70 1.402
685.80 1.401
685.90 1.401
686.00 1.4
686.10 1.4
686.20 1.399
686.30 1.399
686.40 1.398
686.50 1.398
686.60 1.397
686.70 1.397
686.80 1.396
686.90 1.396
687.00 1.395
687.10 1.395
687.20 1.394
687.30 1.394
687.40 1.393
687.50 1.393
687.60 1.392
687.70 1.392
687.80 1.391
687.90 1.39
688.00 1.39
688.10 1.389
688.20 1.389
688.30 1.388
688.40 1.388
688.50 1.387
688.60 1.387
688.70 1.386
688.80 1.385
688.90 1.385
689.00 1.384
689.10 1.384
689.20 1.383
689.30 1.383
689.40 1.382
689.50 1.381
689.60 1.381
689.70 1.38
689.80 1.379
689.90 1.379
690.00 1.378
690.10 1.377
690.20 1.377
690.30 1.376
690.40 1.376
690.50 1.375
690.60 1.374
690.70 1.374
690.80 1.373
690.90 1.372
691.00 1.372
691.10 1.371
691.20 1.37
691.30 1.37
691.40 1.369
691.50 1.369
691.60 1.368
691.70 1.367
691.80 1.367
691.90 1.366
692.00 1.365
692.10 1.365
692.20 1.364
692.30 1.363
692.40 1.363
692.50 1.362
692.60 1.362
692.70 1.361
692.80 1.36
692.90 1.36
693.00 1.359
693.10 1.358
693.20 1.358
693.30 1.357
693.40 1.357
693.50 1.356
693.60 1.355
693.70 1.355
693.80 1.354
693.90 1.353
694.00 1.353
694.10 1.352
694.20 1.352
694.30 1.351
694.40 1.35
694.50 1.35
694.60 1.349
694.70 1.348
694.80 1.348
694.90 1.347
695.00 1.347
695.10 1.346
695.20 1.345
695.30 1.344
695.40 1.344
695.50 1.343
695.60 1.342
695.70 1.341
695.80 1.341
695.90 1.34
696.00 1.339
696.10 1.338
696.20 1.338
696.30 1.337
696.40 1.336
696.50 1.335
696.60 1.335
696.70 1.334
696.80 1.333
696.90 1.333
697.00 1.332
697.10 1.331
697.20 1.33
697.30 1.33
697.40 1.329
697.50 1.328
697.60 1.327
697.70 1.327
697.80 1.326
697.90 1.325
698.00 1.325
698.10 1.324
698.20 1.323
698.30 1.322
698.40 1.322
698.50 1.321
698.60 1.32
698.70 1.319
698.80 1.319
698.90 1.318
699.00 1.317
699.10 1.317
699.20 1.316
699.30 1.315
699.40 1.314
699.50 1.314
699.60 1.313
699.70 1.312
699.80 1.311
699.90 1.311
700.00 1.31
700.10 1.309
700.20 1.308
700.30 1.308
700.40 1.307
700.50 1.306
700.60 1.305
700.70 1.304
700.80 1.303
700.90 1.303
701.00 1.302
701.10 1.301
701.20 1.3
701.30 1.299
701.40 1.298
701.50 1.298
701.60 1.297
701.70 1.296
701.80 1.295
701.90 1.294
702.00 1.294
702.10 1.293
702.20 1.292
702.30 1.291
702.40 1.29
702.50 1.289
702.60 1.289
702.70 1.288
702.80 1.287
702.90 1.286
703.00 1.285
703.10 1.285
703.20 1.284
703.30 1.283
703.40 1.282
703.50 1.281
703.60 1.28
703.70 1.28
703.80 1.279
703.90 1.278
704.00 1.277
704.10 1.276
704.20 1.276
704.30 1.275
704.40 1.274
704.50 1.273
704.60 1.272
704.70 1.271
704.80 1.271
704.90 1.27
705.00 1.269
705.10 1.268
705.20 1.267
705.30 1.266
705.40 1.265
705.50 1.265
705.60 1.264
705.70 1.263
705.80 1.262
705.90 1.261
706.00 1.26
706.10 1.259
706.20 1.258
706.30 1.257
706.40 1.257
706.50 1.256
706.60 1.255
706.70 1.254
706.80 1.253
706.90 1.252
707.00 1.251
707.10 1.25
707.20 1.249
707.30 1.249
707.40 1.248
707.50 1.247
707.60 1.246
707.70 1.245
707.80 1.244
707.90 1.243
708.00 1.242
708.10 1.242
708.20 1.241
708.30 1.24
708.40 1.239
708.50 1.238
708.60 1.237
708.70 1.236
708.80 1.235
708.90 1.234
709.00 1.234
709.10 1.233
709.20 1.232
709.30 1.231
709.40 1.23
709.50 1.229
709.60 1.228
709.70 1.227
709.80 1.227
709.90 1.226
710.00 1.225
710.10 1.224
710.20 1.223
710.30 1.222
710.40 1.221
710.50 1.22
710.60 1.219
710.70 1.218
710.80 1.217
710.90 1.216
711.00 1.215
711.10 1.215
711.20 1.214
711.30 1.213
711.40 1.212
711.50 1.211
711.60 1.21
711.70 1.209
711.80 1.208
711.90 1.207
712.00 1.206
712.10 1.205
712.20 1.204
712.30 1.203
712.40 1.202
712.50 1.201
712.60 1.201
712.70 1.2
712.80 1.199
712.90 1.198
713.00 1.197
713.10 1.196
713.20 1.195
713.30 1.194
713.40 1.193
713.50 1.192
713.60 1.191
713.70 1.19
713.80 1.189
713.90 1.189
714.00 1.188
714.10 1.187
714.20 1.186
714.30 1.185
714.40 1.184
714.50 1.183
714.60 1.182
714.70 1.181
714.80 1.18
714.90 1.179
715.00 1.178
715.10 1.177
715.20 1.177
715.30 1.176
715.40 1.175
715.50 1.174
715.60 1.173
715.70 1.172
715.80 1.171
715.90 1.17
716.00 1.169
716.10 1.168
716.20 1.167
716.30 1.166
716.40 1.165
716.50 1.164
716.60 1.163
716.70 1.162
716.80 1.161
716.90 1.16
717.00 1.159
717.10 1.158
717.20 1.157
717.30 1.156
717.40 1.155
717.50 1.155
717.60 1.154
717.70 1.153
717.80 1.152
717.90 1.151
718.00 1.15
718.10 1.149
718.20 1.148
718.30 1.147
718.40 1.146
718.50 1.145
718.60 1.144
718.70 1.143
718.80 1.142
718.90 1.141
719.00 1.14
719.10 1.139
719.20 1.138
719.30 1.138
719.40 1.137
719.50 1.136
719.60 1.135
719.70 1.134
719.80 1.133
719.90 1.132
720.00 1.131
720.10 1.13
720.20 1.129
720.30 1.128
720.40 1.127
720.50 1.126
720.60 1.125
720.70 1.124
720.80 1.123
720.90 1.122
721.00 1.122
721.10 1.121
721.20 1.12
721.30 1.119
721.40 1.118
721.50 1.117
721.60 1.116
721.70 1.115
721.80 1.114
721.90 1.113
722.00 1.112
722.10 1.111
722.20 1.11
722.30 1.109
722.40 1.109
722.50 1.108
722.60 1.107
722.70 1.106
722.80 1.105
722.90 1.104
723.00 1.103
723.10 1.102
723.20 1.101
723.30 1.1
723.40 1.099
723.50 1.098
723.60 1.097
723.70 1.096
723.80 1.096
723.90 1.095
724.00 1.094
724.10 1.093
724.20 1.092
724.30 1.091
724.40 1.09
724.50 1.089
724.60 1.088
724.70 1.087
724.80 1.086
724.90 1.085
725.00 1.085
725.10 1.084
725.20 1.083
725.30 1.082
725.40 1.081
725.50 1.08
725.60 1.079
725.70 1.078
725.80 1.077
725.90 1.077
726.00 1.076
726.10 1.075
726.20 1.074
726.30 1.073
726.40 1.072
726.50 1.071
726.60 1.07
726.70 1.07
726.80 1.069
726.90 1.068
727.00 1.067
727.10 1.066
727.20 1.065
727.30 1.064
727.40 1.063
727.50 1.063
727.60 1.062
727.70 1.061
727.80 1.06
727.90 1.059
728.00 1.058
728.10 1.057
728.20 1.056
728.30 1.056
728.40 1.055
728.50 1.054
728.60 1.053
728.70 1.052
728.80 1.051
728.90 1.05
729.00 1.049
729.10 1.049
729.20 1.048
729.30 1.047
729.40 1.046
729.50 1.045
729.60 1.044
729.70 1.043
729.80 1.042
729.90 1.042
730.00 1.041
730.10 1.04
730.20 1.039
730.30 1.038
730.40 1.038
730.50 1.037
730.60 1.036
730.70 1.035
730.80 1.035
730.90 1.034
731.00 1.033
731.10 1.032
731.20 1.032
731.30 1.031
731.40 1.03
731.50 1.029
731.60 1.029
731.70 1.028
731.80 1.027
731.90 1.027
732.00 1.026
732.10 1.025
732.20 1.024
732.30 1.024
732.40 1.023
732.50 1.022
732.60 1.021
732.70 1.021
732.80 1.02
732.90 1.019
733.00 1.018
733.10 1.018
733.20 1.017
733.30 1.016
733.40 1.015
733.50 1.015
733.60 1.014
733.70 1.013
733.80 1.012
733.90 1.012
734.00 1.011
734.10 1.01
734.20 1.009
734.30 1.009
734.40 1.008
734.50 1.007
734.60 1.007
734.70 1.006
734.80 1.005
734.90 1.004
735.00 1.004
735.10 1.003
735.20 1.002
735.30 1.001
735.40 1.001
735.50 0.9999
735.60 0.9992
735.70 0.9984
735.80 0.9977
735.90 0.997
736.00 0.9963
736.10 0.9955
736.20 0.9948
736.30 0.9941
736.40 0.9933
736.50 0.9926
736.60 0.9919
736.70 0.9912
736.80 0.9904
736.90 0.9897
737.00 0.989
737.10 0.9882
737.20 0.9875
737.30 0.9868
737.40 0.9861
737.50 0.9853
737.60 0.9846
737.70 0.9839
737.80 0.9832
737.90 0.9824
738.00 0.9817
738.10 0.981
738.20 0.9803
738.30 0.9795
738.40 0.9788
738.50 0.9781
738.60 0.9774
738.70 0.9767
738.80 0.9759
738.90 0.9752
739.00 0.9745
739.10 0.9738
739.20 0.9731
739.30 0.9723
739.40 0.9716
739.50 0.9709
739.60 0.9702
739.70 0.9695
739.80 0.9688
739.90 0.968
740.00 0.9673
740.10 0.9668
740.20 0.9662
740.30 0.9657
740.40 0.9652
740.50 0.9646
740.60 0.9641
740.70 0.9635
740.80 0.963
740.90 0.9625
741.00 0.9619
741.10 0.9614
741.20 0.9608
741.30 0.9603
741.40 0.9598
741.50 0.9592
741.60 0.9587
741.70 0.9582
741.80 0.9576
741.90 0.9571
742.00 0.9566
742.10 0.956
742.20 0.9555
742.30 0.9549
742.40 0.9544
742.50 0.9539
742.60 0.9533
742.70 0.9528
742.80 0.9523
742.90 0.9517
743.00 0.9512
743.10 0.9507
743.20 0.9501
743.30 0.9496
743.40 0.9491
743.50 0.9485
743.60 0.948
743.70 0.9475
743.80 0.947
743.90 0.9464
744.00 0.9459
744.10 0.9454
744.20 0.9448
744.30 0.9443
744.40 0.9438
744.50 0.9432
744.60 0.9427
744.70 0.9422
744.80 0.9417
744.90 0.9411
745.00 0.9406
745.10 0.9401
745.20 0.9395
745.30 0.939
745.40 0.9385
745.50 0.938
745.60 0.9374
745.70 0.9369
745.80 0.9364
745.90 0.9359
746.00 0.9353
746.10 0.9348
746.20 0.9343
746.30 0.9337
746.40 0.9332
746.50 0.9327
746.60 0.9322
746.70 0.9317
746.80 0.9311
746.90 0.9306
747.00 0.9301
747.10 0.9296
747.20 0.929
747.30 0.9285
747.40 0.928
747.50 0.9275
747.60 0.9269
747.70 0.9264
747.80 0.9259
747.90 0.9254
748.00 0.9249
748.10 0.9243
748.20 0.9238
748.30 0.9233
748.40 0.9228
748.50 0.9223
748.60 0.9217
748.70 0.9212
748.80 0.9207
748.90 0.9202
749.00 0.9197
749.10 0.9191
749.20 0.9186
749.30 0.9181
749.40 0.9176
749.50 0.9171
749.60 0.9166
749.70 0.916
749.80 0.9155
749.90 0.915
750.00 0.9145
750.10 0.9141
750.20 0.9137
750.30 0.9133
750.40 0.9129
750.50 0.9125
750.60 0.9121
750.70 0.9117
750.80 0.9113
750.90 0.9109
751.00 0.9105
751.10 0.9101
751.20 0.9098
751.30 0.9094
751.40 0.909
751.50 0.9086
751.60 0.9082
751.70 0.9078
751.80 0.9074
751.90 0.907
752.00 0.9066
752.10 0.9062
752.20 0.9058
752.30 0.9054
752.40 0.905
752.50 0.9046
752.60 0.9042
752.70 0.9039
752.80 0.9035
752.90 0.9031
753.00 0.9027
753.10 0.9023
753.20 0.9019
753.30 0.9015
753.40 0.9011
753.50 0.9007
753.60 0.9003
753.70 0.8999
753.80 0.8996
753.90 0.8992
754.00 0.8988
754.10 0.8984
754.20 0.898
754.30 0.8976
754.40 0.8972
754.50 0.8968
754.60 0.8964
754.70 0.8961
754.80 0.8957
754.90 0.8953
755.00 0.8949
755.10 0.8945
755.20 0.8941
755.30 0.8937
755.40 0.8933
755.50 0.893
755.60 0.8926
755.70 0.8922
755.80 0.8918
755.90 0.8914
756.00 0.891
756.10 0.8906
756.20 0.8903
756.30 0.8899
756.40 0.8895
756.50 0.8891
756.60 0.8887
756.70 0.8883
756.80 0.8879
756.90 0.8876
757.00 0.8872
757.10 0.8868
757.20 0.8864
757.30 0.886
757.40 0.8856
757.50 0.8853
757.60 0.8849
757.70 0.8845
757.80 0.8841
757.90 0.8837
758.00 0.8833
758.10 0.883
758.20 0.8826
758.30 0.8822
758.40 0.8818
758.50 0.8814
758.60 0.8811
758.70 0.8807
758.80 0.8803
758.90 0.8799
759.00 0.8795
759.10 0.8792
759.20 0.8788
759.30 0.8784
759.40 0.878
759.50 0.8776
759.60 0.8773
759.70 0.8769
759.80 0.8765
759.90 0.8761
760.00 0.8757
760.10 0.8754
760.20 0.8751
760.30 0.8748
760.40 0.8745
760.50 0.8742
760.60 0.8739
760.70 0.8736
760.80 0.8733
760.90 0.873
761.00 0.8727
761.10 0.8724
761.20 0.8721
761.30 0.8718
761.40 0.8715
761.50 0.8712
761.60 0.8709
761.70 0.8706
761.80 0.8703
761.90 0.87
762.00 0.8697
762.10 0.8694
762.20 0.8691
762.30 0.8688
762.40 0.8684
762.50 0.8681
762.60 0.8678
762.70 0.8675
762.80 0.8672
762.90 0.8669
763.00 0.8666
763.10 0.8663
763.20 0.866
763.30 0.8657
763.40 0.8654
763.50 0.8651
763.60 0.8648
763.70 0.8645
763.80 0.8642
763.90 0.8639
764.00 0.8636
764.10 0.8633
764.20 0.863
764.30 0.8627
764.40 0.8624
764.50 0.8621
764.60 0.8618
764.70 0.8615
764.80 0.8612
764.90 0.8609
765.00 0.8606
765.10 0.8603
765.20 0.86
765.30 0.8597
765.40 0.8594
765.50 0.8591
765.60 0.8588
765.70 0.8586
765.80 0.8583
765.90 0.858
766.00 0.8577
766.10 0.8574
766.20 0.8571
766.30 0.8568
766.40 0.8565
766.50 0.8562
766.60 0.8559
766.70 0.8556
766.80 0.8553
766.90 0.855
767.00 0.8547
767.10 0.8544
767.20 0.8541
767.30 0.8538
767.40 0.8535
767.50 0.8532
767.60 0.8529
767.70 0.8526
767.80 0.8523
767.90 0.852
768.00 0.8517
768.10 0.8514
768.20 0.8511
768.30 0.8509
768.40 0.8506
768.50 0.8503
768.60 0.85
768.70 0.8497
768.80 0.8494
768.90 0.8491
769.00 0.8488
769.10 0.8485
769.20 0.8482
769.30 0.8479
769.40 0.8476
769.50 0.8473
769.60 0.847
769.70 0.8467
769.80 0.8464
769.90 0.8462
770.00 0.8459
770.10 0.8457
770.20 0.8455
770.30 0.8453
770.40 0.8451
770.50 0.8449
770.60 0.8447
770.70 0.8445
770.80 0.8443
770.90 0.8441
771.00 0.8439
771.10 0.8437
771.20 0.8435
771.30 0.8433
771.40 0.8431
771.50 0.843
771.60 0.8428
771.70 0.8426
771.80 0.8424
771.90 0.8422
772.00 0.842
772.10 0.8418
772.20 0.8416
772.30 0.8414
772.40 0.8412
772.50 0.841
772.60 0.8408
772.70 0.8406
772.80 0.8405
772.90 0.8403
773.00 0.8401
773.10 0.8399
773.20 0.8397
773.30 0.8395
773.40 0.8393
773.50 0.8391
773.60 0.8389
773.70 0.8387
773.80 0.8385
773.90 0.8383
774.00 0.8382
774.10 0.838
774.20 0.8378
774.30 0.8376
774.40 0.8374
774.50 0.8372
774.60 0.837
774.70 0.8368
774.80 0.8366
774.90 0.8364
775.00 0.8362
775.10 0.8361
775.20 0.8359
775.30 0.8357
775.40 0.8355
775.50 0.8353
775.60 0.8351
775.70 0.8349
775.80 0.8347
775.90 0.8345
776.00 0.8343
776.10 0.8341
776.20 0.834
776.30 0.8338
776.40 0.8336
776.50 0.8334
776.60 0.8332
776.70 0.833
776.80 0.8328
776.90 0.8326
777.00 0.8324
777.10 0.8323
777.20 0.8321
777.30 0.8319
777.40 0.8317
777.50 0.8315
777.60 0.8313
777.70 0.8311
777.80 0.8309
777.90 0.8307
778.00 0.8306
778.10 0.8304
778.20 0.8302
778.30 0.83
778.40 0.8298
778.50 0.8296
778.60 0.8294
778.70 0.8292
778.80 0.829
778.90 0.8289
779.00 0.8287
779.10 0.8285
779.20 0.8283
779.30 0.8281
779.40 0.8279
779.50 0.8277
779.60 0.8275
779.70 0.8274
779.80 0.8272
779.90 0.827
780.00 0.8268
780.10 0.8267
780.20 0.8267
780.30 0.8266
780.40 0.8265
780.50 0.8264
780.60 0.8264
780.70 0.8263
780.80 0.8262
780.90 0.8262
781.00 0.8261
781.10 0.826
781.20 0.8259
781.30 0.8259
781.40 0.8258
781.50 0.8257
781.60 0.8257
781.70 0.8256
781.80 0.8255
781.90 0.8254
782.00 0.8254
782.10 0.8253
782.20 0.8252
782.30 0.8252
782.40 0.8251
782.50 0.825
782.60 0.8249
782.70 0.8249
782.80 0.8248
782.90 0.8247
783.00 0.8246
783.10 0.8246
783.20 0.8245
783.30 0.8244
783.40 0.8244
783.50 0.8243
783.60 0.8242
783.70 0.8241
783.80 0.8241
783.90 0.824
784.00 0.8239
784.10 0.8239
784.20 0.8238
784.30 0.8237
784.40 0.8236
784.50 0.8236
784.60 0.8235
784.70 0.8234
784.80 0.8234
784.90 0.8233
785.00 0.8232
785.10 0.8231
785.20 0.8231
785.30 0.823
785.40 0.8229
785.50 0.8229
785.60 0.8228
785.70 0.8227
785.80 0.8227
785.90 0.8226
786.00 0.8225
786.10 0.8224
786.20 0.8224
786.30 0.8223
786.40 0.8222
786.50 0.8222
786.60 0.8221
786.70 0.822
786.80 0.8219
786.90 0.8219
787.00 0.8218
787.10 0.8217
787.20 0.8217
787.30 0.8216
787.40 0.8215
787.50 0.8214
787.60 0.8214
787.70 0.8213
787.80 0.8212
787.90 0.8212
788.00 0.8211
788.10 0.821
788.20 0.8209
788.30 0.8209
788.40 0.8208
788.50 0.8207
788.60 0.8207
788.70 0.8206
788.80 0.8205
788.90 0.8204
789.00 0.8204
789.10 0.8203
789.20 0.8202
789.30 0.8202
789.40 0.8201
789.50 0.82
789.60 0.82
789.70 0.8199
789.80 0.8198
789.90 0.8197
790.00 0.8197
790.10 0.8196
790.20 0.8196
790.30 0.8196
790.40 0.8195
790.50 0.8195
790.60 0.8195
790.70 0.8195
790.80 0.8194
790.90 0.8194
791.00 0.8194
791.10 0.8193
791.20 0.8193
791.30 0.8193
791.40 0.8192
791.50 0.8192
791.60 0.8192
791.70 0.8191
791.80 0.8191
791.90 0.8191
792.00 0.819
792.10 0.819
792.20 0.819
792.30 0.819
792.40 0.8189
792.50 0.8189
792.60 0.8189
792.70 0.8188
792.80 0.8188
792.90 0.8188
793.00 0.8187
793.10 0.8187
793.20 0.8187
793.30 0.8186
793.40 0.8186
793.50 0.8186
793.60 0.8185
793.70 0.8185
793.80 0.8185
793.90 0.8185
794.00 0.8184
794.10 0.8184
794.20 0.8184
794.30 0.8183
794.40 0.8183
794.50 0.8183
794.60 0.8182
794.70 0.8182
794.80 0.8182
794.90 0.8181
795.00 0.8181
795.10 0.8181
795.20 0.818
795.30 0.818
795.40 0.818
795.50 0.8179
795.60 0.8179
795.70 0.8179
795.80 0.8179
795.90 0.8178
796.00 0.8178
796.10 0.8178
796.20 0.8177
796.30 0.8177
796.40 0.8177
796.50 0.8176
796.60 0.8176
796.70 0.8176
796.80 0.8175
796.90 0.8175
797.00 0.8175
797.10 0.8174
797.20 0.8174
797.30 0.8174
797.40 0.8173
797.50 0.8173
797.60 0.8173
797.70 0.8173
797.80 0.8172
797.90 0.8172
798.00 0.8172
798.10 0.8171
798.20 0.8171
798.30 0.8171
798.40 0.817
798.50 0.817
798.60 0.817
798.70 0.8169
798.80 0.8169
798.90 0.8169
799.00 0.8168
799.10 0.8168
799.20 0.8168
799.30 0.8167
799.40 0.8167
799.50 0.8167
799.60 0.8166
799.70 0.8166
799.80 0.8166
799.90 0.8166
800.00 0.8165
800.10 0.8164
800.20 0.8163
800.30 0.8162
800.40 0.8162
800.50 0.8161
800.60 0.816
800.70 0.8159
800.80 0.8158
800.90 0.8157
801.00 0.8156
801.10 0.8155
801.20 0.8154
801.30 0.8153
801.40 0.8152
801.50 0.8151
801.60 0.8151
801.70 0.815
801.80 0.8149
801.90 0.8148
802.00 0.8147
802.10 0.8146
802.20 0.8145
802.30 0.8144
802.40 0.8143
802.50 0.8142
802.60 0.8141
802.70 0.814
802.80 0.814
802.90 0.8139
803.00 0.8138
803.10 0.8137
803.20 0.8136
803.30 0.8135
803.40 0.8134
803.50 0.8133
803.60 0.8132
803.70 0.8131
803.80 0.813
803.90 0.8129
804.00 0.8129
804.10 0.8128
804.20 0.8127
804.30 0.8126
804.40 0.8125
804.50 0.8124
804.60 0.8123
804.70 0.8122
804.80 0.8121
804.90 0.812
805.00 0.8119
805.10 0.8119
805.20 0.8118
805.30 0.8117
805.40 0.8116
805.50 0.8115
805.60 0.8114
805.70 0.8113
805.80 0.8112
805.90 0.8111
806.00 0.811
806.10 0.8109
806.20 0.8109
806.30 0.8108
806.40 0.8107
806.50 0.8106
806.60 0.8105
806.70 0.8104
806.80 0.8103
806.90 0.8102
807.00 0.8101
807.10 0.81
807.20 0.8099
807.30 0.8099
807.40 0.8098
807.50 0.8097
807.60 0.8096
807.70 0.8095
807.80 0.8094
807.90 0.8093
808.00 0.8092
808.10 0.8091
808.20 0.809
808.30 0.8089
808.40 0.8089
808.50 0.8088
808.60 0.8087
808.70 0.8086
808.80 0.8085
808.90 0.8084
809.00 0.8083
809.10 0.8082
809.20 0.8081
809.30 0.808
809.40 0.808
809.50 0.8079
809.60 0.8078
809.70 0.8077
809.80 0.8076
809.90 0.8075
810.00 0.8074
810.10 0.8072
810.20 0.8071
810.30 0.8069
810.40 0.8067
810.50 0.8066
810.60 0.8064
810.70 0.8062
810.80 0.806
810.90 0.8059
811.00 0.8057
811.10 0.8055
811.20 0.8053
811.30 0.8052
811.40 0.805
811.50 0.8048
811.60 0.8047
811.70 0.8045
811.80 0.8043
811.90 0.8041
812.00 0.804
812.10 0.8038
812.20 0.8036
812.30 0.8035
812.40 0.8033
812.50 0.8031
812.60 0.8029
812.70 0.8028
812.80 0.8026
812.90 0.8024
813.00 0.8023
813.10 0.8021
813.20 0.8019
813.30 0.8017
813.40 0.8016
813.50 0.8014
813.60 0.8012
813.70 0.8011
813.80 0.8009
813.90 0.8007
814.00 0.8005
814.10 0.8004
814.20 0.8002
814.30 0.8
814.40 0.7999
814.50 0.7997
814.60 0.7995
814.70 0.7994
814.80 0.7992
814.90 0.799
815.00 0.7988
815.10 0.7987
815.20 0.7985
815.30 0.7983
815.40 0.7982
815.50 0.798
815.60 0.7978
815.70 0.7977
815.80 0.7975
815.90 0.7973
816.00 0.7971
816.10 0.797
816.20 0.7968
816.30 0.7966
816.40 0.7965
816.50 0.7963
816.60 0.7961
816.70 0.796
816.80 0.7958
816.90 0.7956
817.00 0.7955
817.10 0.7953
817.20 0.7951
817.30 0.795
817.40 0.7948
817.50 0.7946
817.60 0.7944
817.70 0.7943
817.80 0.7941
817.90 0.7939
818.00 0.7938
818.10 0.7936
818.20 0.7934
818.30 0.7933
818.40 0.7931
818.50 0.7929
818.60 0.7928
818.70 0.7926
818.80 0.7924
818.90 0.7923
819.00 0.7921
819.10 0.7919
819.20 0.7918
819.30 0.7916
819.40 0.7914
819.50 0.7913
819.60 0.7911
819.70 0.7909
819.80 0.7908
819.90 0.7906
820.00 0.7904
820.10 0.7903
820.20 0.7901
820.30 0.7899
820.40 0.7897
820.50 0.7895
820.60 0.7893
820.70 0.7891
820.80 0.7889
820.90 0.7887
821.00 0.7885
821.10 0.7883
821.20 0.7881
821.30 0.7879
821.40 0.7877
821.50 0.7875
821.60 0.7873
821.70 0.7871
821.80 0.7869
821.90 0.7867
822.00 0.7865
822.10 0.7863
822.20 0.7861
822.30 0.7859
822.40 0.7857
822.50 0.7855
822.60 0.7852
822.70 0.785
822.80 0.7848
822.90 0.7846
823.00 0.7844
823.10 0.7842
823.20 0.784
823.30 0.7838
823.40 0.7836
823.50 0.7833
823.60 0.7831
823.70 0.7829
823.80 0.7827
823.90 0.7825
824.00 0.7823
824.10 0.7821
824.20 0.7819
824.30 0.7817
824.40 0.7815
824.50 0.7813
824.60 0.781
824.70 0.7808
824.80 0.7806
824.90 0.7804
825.00 0.7802
825.10 0.78
825.20 0.7798
825.30 0.7796
825.40 0.7794
825.50 0.7792
825.60 0.779
825.70 0.7787
825.80 0.7785
825.90 0.7783
826.00 0.7781
826.10 0.7779
826.20 0.7777
826.30 0.7775
826.40 0.7773
826.50 0.7771
826.60 0.7769
826.70 0.7767
826.80 0.7765
826.90 0.7763
827.00 0.776
827.10 0.7758
827.20 0.7756
827.30 0.7754
827.40 0.7752
827.50 0.775
827.60 0.7747
827.70 0.7745
827.80 0.7743
827.90 0.7741
828.00 0.7739
828.10 0.7736
828.20 0.7734
828.30 0.7732
828.40 0.773
828.50 0.7728
828.60 0.7725
828.70 0.7723
828.80 0.7721
828.90 0.7719
829.00 0.7717
829.10 0.7715
829.20 0.7712
829.30 0.771
829.40 0.7708
829.50 0.7706
829.60 0.7704
829.70 0.7702
829.80 0.7699
829.90 0.7697
830.00 0.7695
830.10 0.7693
830.20 0.7691
830.30 0.7689
830.40 0.7686
830.50 0.7684
830.60 0.7682
830.70 0.768
830.80 0.7678
830.90 0.7676
831.00 0.7673
831.10 0.7671
831.20 0.7669
831.30 0.7667
831.40 0.7665
831.50 0.7663
831.60 0.766
831.70 0.7658
831.80 0.7656
831.90 0.7654
832.00 0.7652
832.10 0.765
832.20 0.7647
832.30 0.7645
832.40 0.7643
832.50 0.7641
832.60 0.7639
832.70 0.7636
832.80 0.7634
832.90 0.7632
833.00 0.763
833.10 0.7627
833.20 0.7625
833.30 0.7623
833.40 0.7621
833.50 0.7619
833.60 0.7616
833.70 0.7614
833.80 0.7612
833.90 0.761
834.00 0.7608
834.10 0.7605
834.20 0.7603
834.30 0.7601
834.40 0.7599
834.50 0.7597
834.60 0.7594
834.70 0.7592
834.80 0.759
834.90 0.7588
835.00 0.7586
835.10 0.7583
835.20 0.7581
835.30 0.7579
835.40 0.7577
835.50 0.7575
835.60 0.7572
835.70 0.757
835.80 0.7568
835.90 0.7566
836.00 0.7564
836.10 0.7562
836.20 0.7559
836.30 0.7557
836.40 0.7555
836.50 0.7553
836.60 0.7551
836.70 0.7548
836.80 0.7546
836.90 0.7544
837.00 0.7542
837.10 0.754
837.20 0.7537
837.30 0.7535
837.40 0.7533
837.50 0.7531
837.60 0.7528
837.70 0.7526
837.80 0.7524
837.90 0.7522
838.00 0.7519
838.10 0.7517
838.20 0.7515
838.30 0.7513
838.40 0.7511
838.50 0.7508
838.60 0.7506
838.70 0.7504
838.80 0.7502
838.90 0.7499
839.00 0.7497
839.10 0.7495
839.20 0.7493
839.30 0.749
839.40 0.7488
839.50 0.7486
839.60 0.7484
839.70 0.7482
839.80 0.7479
839.90 0.7477
840.00 0.7475
840.10 0.7473
840.20 0.747
840.30 0.7468
840.40 0.7466
840.50 0.7464
840.60 0.7462
840.70 0.7459
840.80 0.7457
840.90 0.7455
841.00 0.7453
841.10 0.7451
841.20 0.7448
841.30 0.7446
841.40 0.7444
841.50 0.7442
841.60 0.7439
841.70 0.7437
841.80 0.7435
841.90 0.7433
842.00 0.7431
842.10 0.7428
842.20 0.7426
842.30 0.7424
842.40 0.7422
842.50 0.7419
842.60 0.7417
842.70 0.7415
842.80 0.7413
842.90 0.741
843.00 0.7408
843.10 0.7406
843.20 0.7404
843.30 0.7401
843.40 0.7399
843.50 0.7397
843.60 0.7395
843.70 0.7392
843.80 0.739
843.90 0.7388
844.00 0.7386
844.10 0.7383
844.20 0.7381
844.30 0.7379
844.40 0.7377
844.50 0.7374
844.60 0.7372
844.70 0.737
844.80 0.7368
844.90 0.7365
845.00 0.7363
845.10 0.7361
845.20 0.7359
845.30 0.7357
845.40 0.7354
845.50 0.7352
845.60 0.735
845.70 0.7348
845.80 0.7345
845.90 0.7343
846.00 0.7341
846.10 0.7339
846.20 0.7336
846.30 0.7334
846.40 0.7332
846.50 0.733
846.60 0.7328
846.70 0.7325
846.80 0.7323
846.90 0.7321
847.00 0.7319
847.10 0.7316
847.20 0.7314
847.30 0.7312
847.40 0.731
847.50 0.7307
847.60 0.7305
847.70 0.7303
847.80 0.73
847.90 0.7298
848.00 0.7296
848.10 0.7294
848.20 0.7291
848.30 0.7289
848.40 0.7287
848.50 0.7284
848.60 0.7282
848.70 0.728
848.80 0.7278
848.90 0.7275
849.00 0.7273
849.10 0.7271
849.20 0.7268
849.30 0.7266
849.40 0.7264
849.50 0.7262
849.60 0.7259
849.70 0.7257
849.80 0.7255
849.90 0.7253
850.00 0.725
850.10 0.7248
850.20 0.7246
850.30 0.7244
850.40 0.7241
850.50 0.7239
850.60 0.7237
850.70 0.7235
850.80 0.7232
850.90 0.723
851.00 0.7228
851.10 0.7225
851.20 0.7223
851.30 0.7221
851.40 0.7219
851.50 0.7216
851.60 0.7214
851.70 0.7212
851.80 0.721
851.90 0.7207
852.00 0.7205
852.10 0.7203
852.20 0.7201
852.30 0.7198
852.40 0.7196
852.50 0.7193
852.60 0.7191
852.70 0.7189
852.80 0.7186
852.90 0.7184
853.00 0.7182
853.10 0.7179
853.20 0.7177
853.30 0.7175
853.40 0.7172
853.50 0.717
853.60 0.7168
853.70 0.7165
853.80 0.7163
853.90 0.7161
854.00 0.7158
854.10 0.7156
854.20 0.7154
854.30 0.7151
854.40 0.7149
854.50 0.7147
854.60 0.7144
854.70 0.7142
854.80 0.714
854.90 0.7137
855.00 0.7135
855.10 0.7133
855.20 0.713
855.30 0.7128
855.40 0.7126
855.50 0.7123
855.60 0.7121
855.70 0.7119
855.80 0.7116
855.90 0.7114
856.00 0.7112
856.10 0.7109
856.20 0.7107
856.30 0.7105
856.40 0.7102
856.50 0.71
856.60 0.7098
856.70 0.7095
856.80 0.7093
856.90 0.7091
857.00 0.7088
857.10 0.7086
857.20 0.7084
857.30 0.7081
857.40 0.7079
857.50 0.7076
857.60 0.7074
857.70 0.7072
857.80 0.7069
857.90 0.7067
858.00 0.7064
858.10 0.7062
858.20 0.7059
858.30 0.7057
858.40 0.7055
858.50 0.7052
858.60 0.705
858.70 0.7047
858.80 0.7045
858.90 0.7043
859.00 0.704
859.10 0.7038
859.20 0.7035
859.30 0.7033
859.40 0.7031
859.50 0.7028
859.60 0.7026
859.70 0.7023
859.80 0.7021
859.90 0.7019
860.00 0.7016
860.10 0.7014
860.20 0.7011
860.30 0.7009
860.40 0.7007
860.50 0.7004
860.60 0.7002
860.70 0.7
860.80 0.6997
860.90 0.6995
861.00 0.6992
861.10 0.699
861.20 0.6988
861.30 0.6985
861.40 0.6983
861.50 0.698
861.60 0.6978
861.70 0.6976
861.80 0.6973
861.90 0.6971
862.00 0.6969
862.10 0.6966
862.20 0.6964
862.30 0.6961
862.40 0.6959
862.50 0.6956
862.60 0.6954
862.70 0.6951
862.80 0.6949
862.90 0.6946
863.00 0.6944
863.10 0.6941
863.20 0.6939
863.30 0.6936
863.40 0.6934
863.50 0.6931
863.60 0.6929
863.70 0.6926
863.80 0.6924
863.90 0.6921
864.00 0.6919
864.10 0.6916
864.20 0.6914
864.30 0.6911
864.40 0.6909
864.50 0.6906
864.60 0.6904
864.70 0.6901
864.80 0.6899
864.90 0.6896
865.00 0.6894
865.10 0.6891
865.20 0.6889
865.30 0.6887
865.40 0.6884
865.50 0.6882
865.60 0.6879
865.70 0.6877
865.80 0.6874
865.90 0.6872
866.00 0.6869
866.10 0.6867
866.20 0.6864
866.30 0.6862
866.40 0.6859
866.50 0.6857
866.60 0.6855
866.70 0.6852
866.80 0.685
866.90 0.6847
867.00 0.6845
867.10 0.6842
867.20 0.6839
867.30 0.6837
867.40 0.6834
867.50 0.6831
867.60 0.6829
867.70 0.6826
867.80 0.6823
867.90 0.6821
868.00 0.6818
868.10 0.6816
868.20 0.6813
868.30 0.681
868.40 0.6808
868.50 0.6805
868.60 0.6802
868.70 0.68
868.80 0.6797
868.90 0.6794
869.00 0.6792
869.10 0.6789
869.20 0.6786
869.30 0.6784
869.40 0.6781
869.50 0.6779
869.60 0.6776
869.70 0.6773
869.80 0.6771
869.90 0.6768
870.00 0.6765
870.10 0.6763
870.20 0.676
870.30 0.6758
870.40 0.6755
870.50 0.6752
870.60 0.675
870.70 0.6747
870.80 0.6744
870.90 0.6742
871.00 0.6739
871.10 0.6737
871.20 0.6734
871.30 0.6731
871.40 0.6729
871.50 0.6726
871.60 0.6723
871.70 0.6721
871.80 0.6718
871.90 0.6716
872.00 0.6713
872.10 0.671
872.20 0.6707
872.30 0.6705
872.40 0.6702
872.50 0.6699
872.60 0.6696
872.70 0.6693
872.80 0.6691
872.90 0.6688
873.00 0.6685
873.10 0.6682
873.20 0.6679
873.30 0.6677
873.40 0.6674
873.50 0.6671
873.60 0.6668
873.70 0.6665
873.80 0.6663
873.90 0.666
874.00 0.6657
874.10 0.6654
874.20 0.6652
874.30 0.6649
874.40 0.6646
874.50 0.6643
874.60 0.664
874.70 0.6638
874.80 0.6635
874.90 0.6632
875.00 0.6629
875.10 0.6627
875.20 0.6624
875.30 0.6621
875.40 0.6618
875.50 0.6616
875.60 0.6613
875.70 0.661
875.80 0.6607
875.90 0.6604
876.00 0.6602
876.10 0.6599
876.20 0.6596
876.30 0.6593
876.40 0.6591
876.50 0.6588
876.60 0.6585
876.70 0.6582
876.80 0.658
876.90 0.6577
877.00 0.6574
877.10 0.6571
877.20 0.6568
877.30 0.6565
877.40 0.6562
877.50 0.6559
877.60 0.6556
877.70 0.6553
877.80 0.655
877.90 0.6547
878.00 0.6544
878.10 0.6541
878.20 0.6538
878.30 0.6535
878.40 0.6532
878.50 0.6529
878.60 0.6526
878.70 0.6523
878.80 0.652
878.90 0.6517
879.00 0.6514
879.10 0.6512
879.20 0.6509
879.30 0.6506
879.40 0.6503
879.50 0.65
879.60 0.6497
879.70 0.6494
879.80 0.6491
879.90 0.6488
880.00 0.6485
880.10 0.6482
880.20 0.6479
880.30 0.6476
880.40 0.6473
880.50 0.647
880.60 0.6467
880.70 0.6464
880.80 0.6461
880.90 0.6458
881.00 0.6455
881.10 0.6452
881.20 0.6449
881.30 0.6446
881.40 0.6444
881.50 0.6441
881.60 0.6438
881.70 0.6435
881.80 0.6432
881.90 0.6429
882.00 0.6426
882.10 0.6423
882.20 0.6419
882.30 0.6416
882.40 0.6413
882.50 0.641
882.60 0.6407
882.70 0.6404
882.80 0.64
882.90 0.6397
883.00 0.6394
883.10 0.6391
883.20 0.6388
883.30 0.6384
883.40 0.6381
883.50 0.6378
883.60 0.6375
883.70 0.6372
883.80 0.6369
883.90 0.6365
884.00 0.6362
884.10 0.6359
884.20 0.6356
884.30 0.6353
884.40 0.635
884.50 0.6346
884.60 0.6343
884.70 0.634
884.80 0.6337
884.90 0.6334
885.00 0.6331
885.10 0.6327
885.20 0.6324
885.30 0.6321
885.40 0.6318
885.50 0.6315
885.60 0.6312
885.70 0.6309
885.80 0.6305
885.90 0.6302
886.00 0.6299
886.10 0.6296
886.20 0.6293
886.30 0.629
886.40 0.6287
886.50 0.6283
886.60 0.628
886.70 0.6277
886.80 0.6274
886.90 0.6271
887.00 0.6268
887.10 0.6264
887.20 0.6261
887.30 0.6258
887.40 0.6254
887.50 0.6251
887.60 0.6248
887.70 0.6244
887.80 0.6241
887.90 0.6238
888.00 0.6234
888.10 0.6231
888.20 0.6227
888.30 0.6224
888.40 0.6221
888.50 0.6217
888.60 0.6214
888.70 0.6211
888.80 0.6207
888.90 0.6204
889.00 0.6201
889.10 0.6197
889.20 0.6194
889.30 0.6191
889.40 0.6187
889.50 0.6184
889.60 0.6181
889.70 0.6177
889.80 0.6174
889.90 0.6171
890.00 0.6167
890.10 0.6164
890.20 0.6161
890.30 0.6157
890.40 0.6154
890.50 0.6151
890.60 0.6148
890.70 0.6144
890.80 0.6141
890.90 0.6138
891.00 0.6134
891.10 0.6131
891.20 0.6128
891.30 0.6124
891.40 0.6121
891.50 0.6118
891.60 0.6114
891.70 0.6111
891.80 0.6108
891.90 0.6105
892.00 0.6101
892.10 0.6098
892.20 0.6094
892.30 0.6091
892.40 0.6087
892.50 0.6083
892.60 0.608
892.70 0.6076
892.80 0.6073
892.90 0.6069
893.00 0.6066
893.10 0.6062
893.20 0.6059
893.30 0.6055
893.40 0.6052
893.50 0.6048
893.60 0.6044
893.70 0.6041
893.80 0.6037
893.90 0.6034
894.00 0.603
894.10 0.6027
894.20 0.6023
894.30 0.602
894.40 0.6016
894.50 0.6013
894.60 0.6009
894.70 0.6006
894.80 0.6002
894.90 0.5999
895.00 0.5995
895.10 0.5992
895.20 0.5988
895.30 0.5985
895.40 0.5981
895.50 0.5977
895.60 0.5974
895.70 0.597
895.80 0.5967
895.90 0.5963
896.00 0.596
896.10 0.5956
896.20 0.5953
896.30 0.5949
896.40 0.5946
896.50 0.5942
896.60 0.5939
896.70 0.5935
896.80 0.5932
896.90 0.5928
897.00 0.5925
897.10 0.5921
897.20 0.5918
897.30 0.5914
897.40 0.591
897.50 0.5906
897.60 0.5903
897.70 0.5899
897.80 0.5895
897.90 0.5892
898.00 0.5888
898.10 0.5884
898.20 0.5881
898.30 0.5877
898.40 0.5873
898.50 0.587
898.60 0.5866
898.70 0.5862
898.80 0.5859
898.90 0.5855
899.00 0.5851
899.10 0.5848
899.20 0.5844
899.30 0.584
899.40 0.5837
899.50 0.5833
899.60 0.5829
899.70 0.5826
899.80 0.5822
899.90 0.5818
900.00 0.5815
900.10 0.5811
900.20 0.5807
900.30 0.5804
900.40 0.58
900.50 0.5796
900.60 0.5793
900.70 0.5789
900.80 0.5786
900.90 0.5782
901.00 0.5778
901.10 0.5775
901.20 0.5771
901.30 0.5767
901.40 0.5764
901.50 0.576
901.60 0.5756
901.70 0.5753
901.80 0.5749
901.90 0.5746
902.00 0.5742
902.10 0.5738
902.20 0.5734
902.30 0.5731
902.40 0.5727
902.50 0.5723
902.60 0.5719
902.70 0.5716
902.80 0.5712
902.90 0.5708
903.00 0.5704
903.10 0.5701
903.20 0.5697
903.30 0.5693
903.40 0.5689
903.50 0.5686
903.60 0.5682
903.70 0.5678
903.80 0.5675
903.90 0.5671
904.00 0.5667
904.10 0.5663
904.20 0.566
904.30 0.5656
904.40 0.5652
904.50 0.5648
904.60 0.5645
904.70 0.5641
904.80 0.5637
904.90 0.5634
905.00 0.563
905.10 0.5626
905.20 0.5622
905.30 0.5619
905.40 0.5615
905.50 0.5611
905.60 0.5608
905.70 0.5604
905.80 0.56
905.90 0.5597
906.00 0.5593
906.10 0.5589
906.20 0.5585
906.30 0.5582
906.40 0.5578
906.50 0.5574
906.60 0.5571
906.70 0.5567
906.80 0.5563
906.90 0.556
907.00 0.5556
907.10 0.5552
907.20 0.5548
907.30 0.5544
907.40 0.554
907.50 0.5536
907.60 0.5533
907.70 0.5529
907.80 0.5525
907.90 0.5521
908.00 0.5517
908.10 0.5513
908.20 0.5509
908.30 0.5505
908.40 0.5501
908.50 0.5498
908.60 0.5494
908.70 0.549
908.80 0.5486
908.90 0.5482
909.00 0.5478
909.10 0.5474
909.20 0.547
909.30 0.5467
909.40 0.5463
909.50 0.5459
909.60 0.5455
909.70 0.5451
909.80 0.5447
909.90 0.5443
910.00 0.544
910.10 0.5436
910.20 0.5432
910.30 0.5428
910.40 0.5424
910.50 0.542
910.60 0.5416
910.70 0.5413
910.80 0.5409
910.90 0.5405
911.00 0.5401
911.10 0.5397
911.20 0.5393
911.30 0.5389
911.40 0.5386
911.50 0.5382
911.60 0.5378
911.70 0.5374
911.80 0.537
911.90 0.5367
912.00 0.5363
912.10 0.5359
912.20 0.5355
912.30 0.5351
912.40 0.5346
912.50 0.5342
912.60 0.5338
912.70 0.5334
912.80 0.533
912.90 0.5326
913.00 0.5322
913.10 0.5318
913.20 0.5314
913.30 0.531
913.40 0.5306
913.50 0.5302
913.60 0.5298
913.70 0.5294
913.80 0.529
913.90 0.5286
914.00 0.5282
914.10 0.5278
914.20 0.5274
914.30 0.527
914.40 0.5266
914.50 0.5262
914.60 0.5258
914.70 0.5254
914.80 0.525
914.90 0.5246
915.00 0.5242
915.10 0.5238
915.20 0.5234
915.30 0.523
915.40 0.5226
915.50 0.5222
915.60 0.5218
915.70 0.5214
915.80 0.521
915.90 0.5206
916.00 0.5202
916.10 0.5198
916.20 0.5194
916.30 0.519
916.40 0.5186
916.50 0.5182
916.60 0.5178
916.70 0.5174
916.80 0.517
916.90 0.5166
917.00 0.5162
917.10 0.5158
917.20 0.5154
917.30 0.515
917.40 0.5146
917.50 0.5142
917.60 0.5137
917.70 0.5133
917.80 0.5129
917.90 0.5125
918.00 0.5121
918.10 0.5117
918.20 0.5113
918.30 0.5109
918.40 0.5105
918.50 0.5101
918.60 0.5097
918.70 0.5093
918.80 0.5089
918.90 0.5085
919.00 0.5081
919.10 0.5077
919.20 0.5072
919.30 0.5068
919.40 0.5064
919.50 0.506
919.60 0.5056
919.70 0.5052
919.80 0.5048
919.90 0.5044
920.00 0.504
920.10 0.5036
920.20 0.5032
920.30 0.5028
920.40 0.5024
920.50 0.502
920.60 0.5016
920.70 0.5012
920.80 0.5008
920.90 0.5004
921.00 0.5
921.10 0.4996
921.20 0.4992
921.30 0.4988
921.40 0.4984
921.50 0.498
921.60 0.4976
921.70 0.4972
921.80 0.4968
921.90 0.4964
922.00 0.496
922.10 0.4956
922.20 0.4952
922.30 0.4947
922.40 0.4943
922.50 0.4939
922.60 0.4935
922.70 0.4931
922.80 0.4927
922.90 0.4923
923.00 0.4919
923.10 0.4915
923.20 0.4911
923.30 0.4907
923.40 0.4902
923.50 0.4898
923.60 0.4894
923.70 0.489
923.80 0.4886
923.90 0.4882
924.00 0.4878
924.10 0.4874
924.20 0.487
924.30 0.4866
924.40 0.4862
924.50 0.4858
924.60 0.4854
924.70 0.4849
924.80 0.4845
924.90 0.4841
925.00 0.4837
925.10 0.4833
925.20 0.4829
925.30 0.4825
925.40 0.4821
925.50 0.4817
925.60 0.4813
925.70 0.4809
925.80 0.4805
925.90 0.4801
926.00 0.4797
926.10 0.4793
926.20 0.4789
926.30 0.4785
926.40 0.4781
926.50 0.4777
926.60 0.4773
926.70 0.4769
926.80 0.4765
926.90 0.476
927.00 0.4756
927.10 0.4752
927.20 0.4748
927.30 0.4744
927.40 0.474
927.50 0.4736
927.60 0.4732
927.70 0.4728
927.80 0.4723
927.90 0.4719
928.00 0.4715
928.10 0.4711
928.20 0.4707
928.30 0.4703
928.40 0.4699
928.50 0.4695
928.60 0.4691
928.70 0.4686
928.80 0.4682
928.90 0.4678
929.00 0.4674
929.10 0.467
929.20 0.4666
929.30 0.4662
929.40 0.4658
929.50 0.4654
929.60 0.465
929.70 0.4646
929.80 0.4641
929.90 0.4637
930.00 0.4633
930.10 0.4629
930.20 0.4625
930.30 0.4621
930.40 0.4617
930.50 0.4613
930.60 0.4609
930.70 0.4605
930.80 0.4601
930.90 0.4597
931.00 0.4593
931.10 0.4589
931.20 0.4584
931.30 0.458
931.40 0.4576
931.50 0.4572
931.60 0.4568
931.70 0.4564
931.80 0.456
931.90 0.4556
932.00 0.4552
932.10 0.4548
932.20 0.4544
932.30 0.454
932.40 0.4536
932.50 0.4532
932.60 0.4528
932.70 0.4523
932.80 0.4519
932.90 0.4515
933.00 0.4511
933.10 0.4507
933.20 0.4503
933.30 0.4499
933.40 0.4495
933.50 0.4491
933.60 0.4487
933.70 0.4483
933.80 0.4479
933.90 0.4475
934.00 0.4471
934.10 0.4467
934.20 0.4463
934.30 0.4459
934.40 0.4454
934.50 0.445
934.60 0.4446
934.70 0.4442
934.80 0.4438
934.90 0.4434
935.00 0.443
935.10 0.4426
935.20 0.4422
935.30 0.4418
935.40 0.4414
935.50 0.441
935.60 0.4406
935.70 0.4402
935.80 0.4398
935.90 0.4394
936.00 0.439
936.10 0.4386
936.20 0.4382
936.30 0.4378
936.40 0.4373
936.50 0.4369
936.60 0.4365
936.70 0.4361
936.80 0.4357
936.90 0.4353
937.00 0.4349
937.10 0.4345
937.20 0.4341
937.30 0.4337
937.40 0.4333
937.50 0.4329
937.60 0.4325
937.70 0.4321
937.80 0.4317
937.90 0.4313
938.00 0.4309
938.10 0.4305
938.20 0.4301
938.30 0.4297
938.40 0.4293
938.50 0.4289
938.60 0.4285
938.70 0.4281
938.80 0.4277
938.90 0.4273
939.00 0.4268
939.10 0.4264
939.20 0.426
939.30 0.4256
939.40 0.4252
939.50 0.4248
939.60 0.4244
939.70 0.424
939.80 0.4236
939.90 0.4232
940.00 0.4228
940.10 0.4224
940.20 0.422
940.30 0.4216
940.40 0.4212
940.50 0.4208
940.60 0.4204
940.70 0.42
940.80 0.4196
940.90 0.4192
941.00 0.4188
941.10 0.4184
941.20 0.418
941.30 0.4176
941.40 0.4172
941.50 0.4168
941.60 0.4164
941.70 0.416
941.80 0.4156
941.90 0.4152
942.00 0.4148
942.10 0.4144
942.20 0.414
942.30 0.4136
942.40 0.4132
942.50 0.4128
942.60 0.4124
942.70 0.412
942.80 0.4116
942.90 0.4112
943.00 0.4108
943.10 0.4104
943.20 0.41
943.30 0.4096
943.40 0.4093
943.50 0.4089
943.60 0.4085
943.70 0.4081
943.80 0.4077
943.90 0.4073
944.00 0.4069
944.10 0.4065
944.20 0.4061
944.30 0.4057
944.40 0.4053
944.50 0.4049
944.60 0.4045
944.70 0.4041
944.80 0.4037
944.90 0.4033
945.00 0.4029
945.10 0.4026
945.20 0.4022
945.30 0.4018
945.40 0.4014
945.50 0.401
945.60 0.4006
945.70 0.4002
945.80 0.3998
945.90 0.3994
946.00 0.399
946.10 0.3986
946.20 0.3982
946.30 0.3979
946.40 0.3975
946.50 0.3971
946.60 0.3967
946.70 0.3963
946.80 0.3959
946.90 0.3955
947.00 0.3951
947.10 0.3947
947.20 0.3943
947.30 0.394
947.40 0.3936
947.50 0.3932
947.60 0.3928
947.70 0.3924
947.80 0.392
947.90 0.3916
948.00 0.3912
948.10 0.3908
948.20 0.3904
948.30 0.39
948.40 0.3896
948.50 0.3893
948.60 0.3889
948.70 0.3885
948.80 0.3881
948.90 0.3877
949.00 0.3873
949.10 0.3869
949.20 0.3865
949.30 0.3861
949.40 0.3857
949.50 0.3854
949.60 0.385
949.70 0.3846
949.80 0.3842
949.90 0.3838
950.00 0.3834
950.10 0.3831
950.20 0.3827
950.30 0.3823
950.40 0.3819
950.50 0.3815
950.60 0.3812
950.70 0.3808
950.80 0.3804
950.90 0.38
951.00 0.3796
951.10 0.3792
951.20 0.3789
951.30 0.3785
951.40 0.3781
951.50 0.3777
951.60 0.3773
951.70 0.377
951.80 0.3766
951.90 0.3762
952.00 0.3758
952.10 0.3755
952.20 0.3751
952.30 0.3747
952.40 0.3743
952.50 0.3739
952.60 0.3736
952.70 0.3732
952.80 0.3728
952.90 0.3724
953.00 0.3721
953.10 0.3717
953.20 0.3713
953.30 0.3709
953.40 0.3706
953.50 0.3702
953.60 0.3698
953.70 0.3694
953.80 0.3691
953.90 0.3687
954.00 0.3683
954.10 0.3679
954.20 0.3676
954.30 0.3672
954.40 0.3668
954.50 0.3664
954.60 0.3661
954.70 0.3657
954.80 0.3653
954.90 0.365
955.00 0.3646
955.10 0.3642
955.20 0.3638
955.30 0.3635
955.40 0.3631
955.50 0.3627
955.60 0.3624
955.70 0.362
955.80 0.3616
955.90 0.3612
956.00 0.3609
956.10 0.3605
956.20 0.3601
956.30 0.3597
956.40 0.3593
956.50 0.359
956.60 0.3586
956.70 0.3582
956.80 0.3578
956.90 0.3574
957.00 0.3571
957.10 0.3567
957.20 0.3563
957.30 0.356
957.40 0.3556
957.50 0.3552
957.60 0.3549
957.70 0.3545
957.80 0.3542
957.90 0.3538
958.00 0.3534
958.10 0.3531
958.20 0.3527
958.30 0.3523
958.40 0.352
958.50 0.3516
958.60 0.3513
958.70 0.3509
958.80 0.3505
958.90 0.3502
959.00 0.3498
959.10 0.3494
959.20 0.3491
959.30 0.3487
959.40 0.3484
959.50 0.348
959.60 0.3477
959.70 0.3473
959.80 0.3469
959.90 0.3466
960.00 0.3462
960.10 0.3459
960.20 0.3455
960.30 0.3452
960.40 0.3448
960.50 0.3444
960.60 0.3441
960.70 0.3437
960.80 0.3434
960.90 0.343
961.00 0.3427
961.10 0.3423
961.20 0.342
961.30 0.3416
961.40 0.3412
961.50 0.3409
961.60 0.3405
961.70 0.3402
961.80 0.3398
961.90 0.3395
962.00 0.3391
962.10 0.3388
962.20 0.3384
962.30 0.3381
962.40 0.3377
962.50 0.3374
962.60 0.337
962.70 0.3367
962.80 0.3363
962.90 0.336
963.00 0.3356
963.10 0.3353
963.20 0.3349
963.30 0.3346
963.40 0.3343
963.50 0.3339
963.60 0.3336
963.70 0.3332
963.80 0.3329
963.90 0.3325
964.00 0.3322
964.10 0.3318
964.20 0.3315
964.30 0.3311
964.40 0.3308
964.50 0.3305
964.60 0.3301
964.70 0.3298
964.80 0.3294
964.90 0.3291
965.00 0.3287
965.10 0.3284
965.20 0.328
965.30 0.3277
965.40 0.3273
965.50 0.327
965.60 0.3266
965.70 0.3263
965.80 0.3259
965.90 0.3256
966.00 0.3252
966.10 0.3249
966.20 0.3245
966.30 0.3242
966.40 0.3239
966.50 0.3235
966.60 0.3232
966.70 0.3229
966.80 0.3225
966.90 0.3222
967.00 0.3219
967.10 0.3215
967.20 0.3212
967.30 0.3209
967.40 0.3205
967.50 0.3202
967.60 0.3199
967.70 0.3195
967.80 0.3192
967.90 0.3189
968.00 0.3185
968.10 0.3182
968.20 0.3179
968.30 0.3175
968.40 0.3172
968.50 0.3169
968.60 0.3166
968.70 0.3162
968.80 0.3159
968.90 0.3156
969.00 0.3152
969.10 0.3149
969.20 0.3146
969.30 0.3143
969.40 0.3139
969.50 0.3136
969.60 0.3133
969.70 0.313
969.80 0.3126
969.90 0.3123
970.00 0.312
970.10 0.3117
970.20 0.3113
970.30 0.311
970.40 0.3107
970.50 0.3104
970.60 0.3101
970.70 0.3097
970.80 0.3094
970.90 0.3091
971.00 0.3088
971.10 0.3085
971.20 0.3082
971.30 0.3078
971.40 0.3075
971.50 0.3072
971.60 0.3069
971.70 0.3066
971.80 0.3062
971.90 0.3059
972.00 0.3056
972.10 0.3053
972.20 0.305
972.30 0.3047
972.40 0.3044
972.50 0.304
972.60 0.3037
972.70 0.3034
972.80 0.3031
972.90 0.3028
973.00 0.3025
973.10 0.3022
973.20 0.3019
973.30 0.3016
973.40 0.3012
973.50 0.3009
973.60 0.3006
973.70 0.3003
973.80 0.3
973.90 0.2997
974.00 0.2994
974.10 0.2991
974.20 0.2988
974.30 0.2985
974.40 0.2981
974.50 0.2978
974.60 0.2975
974.70 0.2972
974.80 0.2969
974.90 0.2966
975.00 0.2963
975.10 0.296
975.20 0.2957
975.30 0.2954
975.40 0.2951
975.50 0.2948
975.60 0.2945
975.70 0.2942
975.80 0.2939
975.90 0.2936
976.00 0.2933
976.10 0.293
976.20 0.2927
976.30 0.2924
976.40 0.2921
976.50 0.2917
976.60 0.2914
976.70 0.2911
976.80 0.2908
976.90 0.2905
977.00 0.2902
977.10 0.2899
977.20 0.2897
977.30 0.2894
977.40 0.2891
977.50 0.2888
977.60 0.2885
977.70 0.2882
977.80 0.2879
977.90 0.2876
978.00 0.2873
978.10 0.2871
978.20 0.2868
978.30 0.2865
978.40 0.2862
978.50 0.2859
978.60 0.2856
978.70 0.2853
978.80 0.285
978.90 0.2848
979.00 0.2845
979.10 0.2842
979.20 0.2839
979.30 0.2836
979.40 0.2833
979.50 0.283
979.60 0.2827
979.70 0.2825
979.80 0.2822
979.90 0.2819
980.00 0.2816
980.10 0.2813
980.20 0.281
980.30 0.2807
980.40 0.2805
980.50 0.2802
980.60 0.2799
980.70 0.2796
980.80 0.2793
980.90 0.279
981.00 0.2787
981.10 0.2785
981.20 0.2782
981.30 0.2779
981.40 0.2776
981.50 0.2773
981.60 0.277
981.70 0.2768
981.80 0.2765
981.90 0.2762
982.00 0.2759
982.10 0.2756
982.20 0.2754
982.30 0.2751
982.40 0.2748
982.50 0.2745
982.60 0.2743
982.70 0.274
982.80 0.2737
982.90 0.2734
983.00 0.2732
983.10 0.2729
983.20 0.2726
983.30 0.2723
983.40 0.2721
983.50 0.2718
983.60 0.2715
983.70 0.2713
983.80 0.271
983.90 0.2707
984.00 0.2704
984.10 0.2702
984.20 0.2699
984.30 0.2696
984.40 0.2694
984.50 0.2691
984.60 0.2688
984.70 0.2686
984.80 0.2683
984.90 0.268
985.00 0.2678
985.10 0.2675
985.20 0.2673
985.30 0.267
985.40 0.2668
985.50 0.2665
985.60 0.2663
985.70 0.266
985.80 0.2658
985.90 0.2655
986.00 0.2653
986.10 0.265
986.20 0.2648
986.30 0.2645
986.40 0.2642
986.50 0.264
986.60 0.2637
986.70 0.2635
986.80 0.2632
986.90 0.263
987.00 0.2627
987.10 0.2625
987.20 0.2622
987.30 0.2619
987.40 0.2617
987.50 0.2614
987.60 0.2612
987.70 0.2609
987.80 0.2606
987.90 0.2604
988.00 0.2601
988.10 0.2598
988.20 0.2596
988.30 0.2593
988.40 0.2591
988.50 0.2588
988.60 0.2585
988.70 0.2583
988.80 0.258
988.90 0.2577
989.00 0.2575
989.10 0.2572
989.20 0.257
989.30 0.2567
989.40 0.2564
989.50 0.2562
989.60 0.2559
989.70 0.2556
989.80 0.2554
989.90 0.2551
990.00 0.2549
990.10 0.2546
990.20 0.2543
990.30 0.2541
990.40 0.2538
990.50 0.2536
990.60 0.2533
990.70 0.253
990.80 0.2528
990.90 0.2525
991.00 0.2523
991.10 0.252
991.20 0.2517
991.30 0.2515
991.40 0.2512
991.50 0.251
991.60 0.2507
991.70 0.2504
991.80 0.2502
991.90 0.2499
992.00 0.2497
992.10 0.2494
992.20 0.2492
992.30 0.2489
992.40 0.2486
992.50 0.2484
992.60 0.2481
992.70 0.2479
992.80 0.2476
992.90 0.2473
993.00 0.2471
993.10 0.2468
993.20 0.2466
993.30 0.2463
993.40 0.2461
993.50 0.2458
993.60 0.2455
993.70 0.2453
993.80 0.245
993.90 0.2448
994.00 0.2445
994.10 0.2443
994.20 0.244
994.30 0.2437
994.40 0.2435
994.50 0.2432
994.60 0.243
994.70 0.2427
994.80 0.2424
994.90 0.2421
995.00 0.2417
995.10 0.2414
995.20 0.2411
995.30 0.2408
995.40 0.2405
995.50 0.2402
995.60 0.2399
995.70 0.2396
995.80 0.2394
995.90 0.2391
996.00 0.2389
996.10 0.2386
996.20 0.2384
996.30 0.2381
996.40 0.2379
996.50 0.2376
996.60 0.2374
996.70 0.2371
996.80 0.2369
996.90 0.2366
997.00 0.2364
997.10 0.2361
997.20 0.2359
997.30 0.2357
997.40 0.2354
997.50 0.2352
997.60 0.2349
997.70 0.2347
997.80 0.2345
997.90 0.2342
998.00 0.234
998.10 0.2338
998.20 0.2335
998.30 0.2333
998.40 0.233
998.50 0.2328
998.60 0.2326
998.70 0.2323
998.80 0.2321
998.90 0.2319
999.00 0.2316
999.10 0.2314
999.20 0.2312
999.30 0.2309
999.40 0.2307
999.50 0.2305
999.60 0.2302
999.70 0.23
999.80 0.2298
999.90 0.2296
1000.00 0.2293
1000.10 0.2291
1000.20 0.2289
1000.30 0.2287
1000.40 0.2284
1000.50 0.2282
1000.60 0.228
1000.70 0.2278
1000.80 0.2275
1000.90 0.2273
1001.00 0.2271
1001.10 0.2269
1001.20 0.2266
1001.30 0.2264
1001.40 0.2262
1001.50 0.226
1001.60 0.2257
1001.70 0.2255
1001.80 0.2253
1001.90 0.2251
1002.00 0.2249
1002.10 0.2246
1002.20 0.2244
1002.30 0.2242
1002.40 0.224
1002.50 0.2238
1002.60 0.2236
1002.70 0.2233
1002.80 0.2231
1002.90 0.2229
1003.00 0.2227
1003.10 0.2225
1003.20 0.2223
1003.30 0.2221
1003.40 0.2219
1003.50 0.2216
1003.60 0.2214
1003.70 0.2212
1003.80 0.221
1003.90 0.2208
1004.00 0.2206
1004.10 0.2204
1004.20 0.2202
1004.30 0.22
1004.40 0.2198
1004.50 0.2196
1004.60 0.2194
1004.70 0.2192
1004.80 0.2189
1004.90 0.2187
1005.00 0.2184
1005.10 0.2182
1005.20 0.218
1005.30 0.2178
1005.40 0.2176
1005.50 0.2174
1005.60 0.2172
1005.70 0.217
1005.80 0.2168
1005.90 0.2166
1006.00 0.2164
1006.10 0.2162
1006.20 0.216
1006.30 0.2158
1006.40 0.2156
1006.50 0.2154
1006.60 0.2152
1006.70 0.215
1006.80 0.2148
1006.90 0.2146
1007.00 0.2144
1007.10 0.2143
1007.20 0.2141
1007.30 0.2139
1007.40 0.2137
1007.50 0.2135
1007.60 0.2133
1007.70 0.2131
1007.80 0.2129
1007.90 0.2128
1008.00 0.2126
1008.10 0.2124
1008.20 0.2122
1008.30 0.212
1008.40 0.2118
1008.50 0.2117
1008.60 0.2115
1008.70 0.2113
1008.80 0.2111
1008.90 0.2109
1009.00 0.2108
1009.10 0.2106
1009.20 0.2104
1009.30 0.2102
1009.40 0.21
1009.50 0.2098
1009.60 0.2097
1009.70 0.2095
1009.80 0.2093
1009.90 0.2091
1010.00 0.209
1010.10 0.2088
1010.20 0.2086
1010.30 0.2084
1010.40 0.2083
1010.50 0.2081
1010.60 0.2079
1010.70 0.2078
1010.80 0.2076
1010.90 0.2074
1011.00 0.2072
1011.10 0.2071
1011.20 0.2069
1011.30 0.2067
1011.40 0.2066
1011.50 0.2064
1011.60 0.2062
1011.70 0.2061
1011.80 0.2059
1011.90 0.2057
1012.00 0.2056
1012.10 0.2054
1012.20 0.2052
1012.30 0.2051
1012.40 0.2049
1012.50 0.2048
1012.60 0.2046
1012.70 0.2044
1012.80 0.2043
1012.90 0.2041
1013.00 0.2039
1013.10 0.2038
1013.20 0.2036
1013.30 0.2035
1013.40 0.2033
1013.50 0.2031
1013.60 0.203
1013.70 0.2028
1013.80 0.2027
1013.90 0.2025
1014.00 0.2024
1014.10 0.2022
1014.20 0.2021
1014.30 0.2019
1014.40 0.2017
1014.50 0.2016
1014.60 0.2014
1014.70 0.2013
1014.80 0.2012
1014.90 0.201
1015.00 0.2009
1015.10 0.2008
1015.20 0.2006
1015.30 0.2005
1015.40 0.2004
1015.50 0.2002
1015.60 0.2001
1015.70 0.2
1015.80 0.1998
1015.90 0.1997
1016.00 0.1996
1016.10 0.1994
1016.20 0.1993
1016.30 0.1992
1016.40 0.1991
1016.50 0.1989
1016.60 0.1988
1016.70 0.1986
1016.80 0.1985
1016.90 0.1984
1017.00 0.1982
1017.10 0.1981
1017.20 0.1979
1017.30 0.1978
1017.40 0.1976
1017.50 0.1975
1017.60 0.1974
1017.70 0.1972
1017.80 0.1971
1017.90 0.1969
1018.00 0.1968
1018.10 0.1966
1018.20 0.1965
1018.30 0.1964
1018.40 0.1962
1018.50 0.1961
1018.60 0.1959
1018.70 0.1958
1018.80 0.1957
1018.90 0.1955
1019.00 0.1954
1019.10 0.1952
1019.20 0.1951
1019.30 0.195
1019.40 0.1948
1019.50 0.1947
1019.60 0.1946
1019.70 0.1944
1019.80 0.1943
1019.90 0.1941
1020.00 0.194
1020.10 0.1939
1020.20 0.1937
1020.30 0.1936
1020.40 0.1934
1020.50 0.1933
1020.60 0.1932
1020.70 0.193
1020.80 0.1929
1020.90 0.1928
1021.00 0.1926
1021.10 0.1925
1021.20 0.1924
1021.30 0.1922
1021.40 0.1921
1021.50 0.192
1021.60 0.1918
1021.70 0.1917
1021.80 0.1916
1021.90 0.1914
1022.00 0.1913
1022.10 0.1912
1022.20 0.191
1022.30 0.1909
1022.40 0.1908
1022.50 0.1906
1022.60 0.1905
1022.70 0.1904
1022.80 0.1903
1022.90 0.1901
1023.00 0.19
1023.10 0.1899
1023.20 0.1897
1023.30 0.1896
1023.40 0.1895
1023.50 0.1893
1023.60 0.1892
1023.70 0.1891
1023.80 0.189
1023.90 0.1888
1024.00 0.1887
1024.10 0.1886
1024.20 0.1884
1024.30 0.1883
1024.40 0.1882
1024.50 0.1881
1024.60 0.1879
1024.70 0.1878
1024.80 0.1877
1024.90 0.1875
1025.00 0.1874
1025.10 0.1873
1025.20 0.1872
1025.30 0.187
1025.40 0.1869
1025.50 0.1868
1025.60 0.1867
1025.70 0.1865
1025.80 0.1864
1025.90 0.1863
1026.00 0.1862
1026.10 0.186
1026.20 0.1859
1026.30 0.1858
1026.40 0.1857
1026.50 0.1855
1026.60 0.1854
1026.70 0.1853
1026.80 0.1852
1026.90 0.185
1027.00 0.1849
1027.10 0.1848
1027.20 0.1847
1027.30 0.1846
1027.40 0.1844
1027.50 0.1843
1027.60 0.1842
1027.70 0.1841
1027.80 0.184
1027.90 0.1839
1028.00 0.1837
1028.10 0.1836
1028.20 0.1835
1028.30 0.1834
1028.40 0.1833
1028.50 0.1832
1028.60 0.183
1028.70 0.1829
1028.80 0.1828
1028.90 0.1827
1029.00 0.1826
1029.10 0.1825
1029.20 0.1823
1029.30 0.1822
1029.40 0.1821
1029.50 0.182
1029.60 0.1819
1029.70 0.1818
1029.80 0.1816
1029.90 0.1815
1030.00 0.1814
1030.10 0.1813
1030.20 0.1812
1030.30 0.1811
1030.40 0.181
1030.50 0.1808
1030.60 0.1807
1030.70 0.1806
1030.80 0.1805
1030.90 0.1804
1031.00 0.1803
1031.10 0.1802
1031.20 0.18
1031.30 0.1799
1031.40 0.1798
1031.50 0.1797
1031.60 0.1796
1031.70 0.1795
1031.80 0.1793
1031.90 0.1792
1032.00 0.1791
1032.10 0.179
1032.20 0.1789
1032.30 0.1788
1032.40 0.1787
1032.50 0.1786
1032.60 0.1785
1032.70 0.1784
1032.80 0.1783
1032.90 0.1782
1033.00 0.1781
1033.10 0.1779
1033.20 0.1778
1033.30 0.1777
1033.40 0.1776
1033.50 0.1775
1033.60 0.1774
1033.70 0.1773
1033.80 0.1772
1033.90 0.1771
1034.00 0.177
1034.10 0.1769
1034.20 0.1768
1034.30 0.1767
1034.40 0.1766
1034.50 0.1765
1034.60 0.1764
1034.70 0.1763
1034.80 0.1761
1034.90 0.176
1035.00 0.1759
1035.10 0.1758
1035.20 0.1757
1035.30 0.1756
1035.40 0.1755
1035.50 0.1754
1035.60 0.1753
1035.70 0.1752
1035.80 0.1751
1035.90 0.175
1036.00 0.1749
1036.10 0.1748
1036.20 0.1747
1036.30 0.1746
1036.40 0.1745
1036.50 0.1744
1036.60 0.1742
1036.70 0.1741
1036.80 0.174
1036.90 0.1739
1037.00 0.1738
1037.10 0.1737
1037.20 0.1736
1037.30 0.1735
1037.40 0.1735
1037.50 0.1734
1037.60 0.1733
1037.70 0.1732
1037.80 0.1731
1037.90 0.173
1038.00 0.1729
1038.10 0.1728
1038.20 0.1727
1038.30 0.1726
1038.40 0.1725
1038.50 0.1724
1038.60 0.1723
1038.70 0.1722
1038.80 0.1721
1038.90 0.172
1039.00 0.1719
1039.10 0.1718
1039.20 0.1718
1039.30 0.1717
1039.40 0.1716
1039.50 0.1715
1039.60 0.1714
1039.70 0.1713
1039.80 0.1712
1039.90 0.1711
1040.00 0.171
1040.10 0.1709
1040.20 0.1708
1040.30 0.1707
1040.40 0.1706
1040.50 0.1705
1040.60 0.1704
1040.70 0.1703
1040.80 0.1703
1040.90 0.1702
1041.00 0.1701
1041.10 0.17
1041.20 0.1699
1041.30 0.1698
1041.40 0.1697
1041.50 0.1696
1041.60 0.1695
1041.70 0.1694
1041.80 0.1693
1041.90 0.1692
1042.00 0.1691
1042.10 0.1691
1042.20 0.169
1042.30 0.1689
1042.40 0.1688
1042.50 0.1687
1042.60 0.1686
1042.70 0.1686
1042.80 0.1685
1042.90 0.1684
1043.00 0.1683
1043.10 0.1682
1043.20 0.1681
1043.30 0.1681
1043.40 0.168
1043.50 0.1679
1043.60 0.1678
1043.70 0.1677
1043.80 0.1676
1043.90 0.1676
1044.00 0.1675
1044.10 0.1674
1044.20 0.1673
1044.30 0.1672
1044.40 0.1671
1044.50 0.1671
1044.60 0.167
1044.70 0.1669
1044.80 0.1668
1044.90 0.1667
1045.00 0.1666
1045.10 0.1666
1045.20 0.1665
1045.30 0.1664
1045.40 0.1663
1045.50 0.1662
1045.60 0.1661
1045.70 0.1661
1045.80 0.166
1045.90 0.1659
1046.00 0.1658
1046.10 0.1657
1046.20 0.1657
1046.30 0.1656
1046.40 0.1655
1046.50 0.1654
1046.60 0.1653
1046.70 0.1652
1046.80 0.1652
1046.90 0.1651
1047.00 0.165
1047.10 0.1649
1047.20 0.1648
1047.30 0.1648
1047.40 0.1647
1047.50 0.1646
1047.60 0.1646
1047.70 0.1645
1047.80 0.1644
1047.90 0.1643
1048.00 0.1643
1048.10 0.1642
1048.20 0.1641
1048.30 0.164
1048.40 0.164
1048.50 0.1639
1048.60 0.1638
1048.70 0.1638
1048.80 0.1637
1048.90 0.1636
1049.00 0.1635
1049.10 0.1635
1049.20 0.1634
1049.30 0.1633
1049.40 0.1632
1049.50 0.1632
1049.60 0.1631
1049.70 0.163
1049.80 0.163
1049.90 0.1629
1050.00 0.1628
1050.10 0.1627
1050.20 0.1627
1050.30 0.1626
1050.40 0.1625
1050.50 0.1624
1050.60 0.1624
1050.70 0.1623
1050.80 0.1622
1050.90 0.1622
1051.00 0.1621
1051.10 0.162
1051.20 0.1619
1051.30 0.1619
1051.40 0.1618
1051.50 0.1617
1051.60 0.1617
1051.70 0.1616
1051.80 0.1615
1051.90 0.1614
1052.00 0.1614
1052.10 0.1613
1052.20 0.1612
1052.30 0.1612
1052.40 0.1611
1052.50 0.161
1052.60 0.161
1052.70 0.1609
1052.80 0.1609
1052.90 0.1608
1053.00 0.1607
1053.10 0.1607
1053.20 0.1606
1053.30 0.1605
1053.40 0.1605
1053.50 0.1604
1053.60 0.1604
1053.70 0.1603
1053.80 0.1602
1053.90 0.1602
1054.00 0.1601
1054.10 0.16
1054.20 0.16
1054.30 0.1599
1054.40 0.1599
1054.50 0.1598
1054.60 0.1597
1054.70 0.1597
1054.80 0.1596
1054.90 0.1595
1055.00 0.1595
1055.10 0.1594
1055.20 0.1594
1055.30 0.1593
1055.40 0.1592
1055.50 0.1592
1055.60 0.1591
1055.70 0.159
1055.80 0.159
1055.90 0.1589
1056.00 0.1589
1056.10 0.1588
1056.20 0.1587
1056.30 0.1587
1056.40 0.1586
1056.50 0.1585
1056.60 0.1585
1056.70 0.1584
1056.80 0.1584
1056.90 0.1583
1057.00 0.1582
1057.10 0.1582
1057.20 0.1581
1057.30 0.1581
1057.40 0.158
1057.50 0.158
1057.60 0.1579
1057.70 0.1579
1057.80 0.1578
1057.90 0.1577
1058.00 0.1577
1058.10 0.1576
1058.20 0.1576
1058.30 0.1575
1058.40 0.1575
1058.50 0.1574
1058.60 0.1574
1058.70 0.1573
1058.80 0.1573
1058.90 0.1572
1059.00 0.1572
1059.10 0.1571
1059.20 0.1571
1059.30 0.157
1059.40 0.1569
1059.50 0.1569
1059.60 0.1568
1059.70 0.1568
1059.80 0.1567
1059.90 0.1567
1060.00 0.1566
1060.10 0.1566
1060.20 0.1565
1060.30 0.1565
1060.40 0.1564
1060.50 0.1564
1060.60 0.1563
1060.70 0.1563
1060.80 0.1562
1060.90 0.1562
1061.00 0.1561
1061.10 0.156
1061.20 0.156
1061.30 0.1559
1061.40 0.1559
1061.50 0.1558
1061.60 0.1558
1061.70 0.1557
1061.80 0.1557
1061.90 0.1556
1062.00 0.1556
1062.10 0.1555
1062.20 0.1555
1062.30 0.1554
1062.40 0.1554
1062.50 0.1553
1062.60 0.1553
1062.70 0.1553
1062.80 0.1552
1062.90 0.1552
1063.00 0.1551
1063.10 0.1551
1063.20 0.155
1063.30 0.155
1063.40 0.1549
1063.50 0.1549
1063.60 0.1549
1063.70 0.1548
1063.80 0.1548
1063.90 0.1547
1064.00 0.1547
1064.10 0.1546
1064.20 0.1546
1064.30 0.1545
1064.40 0.1545
1064.50 0.1545
1064.60 0.1544
1064.70 0.1544
1064.80 0.1543
1064.90 0.1543
1065.00 0.1542
1065.10 0.1542
1065.20 0.1541
1065.30 0.1541
1065.40 0.1541
1065.50 0.154
1065.60 0.154
1065.70 0.1539
1065.80 0.1539
1065.90 0.1538
1066.00 0.1538
1066.10 0.1537
1066.20 0.1537
1066.30 0.1537
1066.40 0.1536
1066.50 0.1536
1066.60 0.1535
1066.70 0.1535
1066.80 0.1534
1066.90 0.1534
1067.00 0.1533
1067.10 0.1533
1067.20 0.1533
1067.30 0.1532
1067.40 0.1532
1067.50 0.1532
1067.60 0.1531
1067.70 0.1531
1067.80 0.153
1067.90 0.153
1068.00 0.153
1068.10 0.1529
1068.20 0.1529
1068.30 0.1529
1068.40 0.1528
1068.50 0.1528
1068.60 0.1528
1068.70 0.1527
1068.80 0.1527
1068.90 0.1526
1069.00 0.1526
1069.10 0.1526
1069.20 0.1525
1069.30 0.1525
1069.40 0.1525
1069.50 0.1524
1069.60 0.1524
1069.70 0.1524
1069.80 0.1523
1069.90 0.1523
1070.00 0.1522
1070.10 0.1522
1070.20 0.1522
1070.30 0.1521
1070.40 0.1521
1070.50 0.1521
1070.60 0.152
1070.70 0.152
1070.80 0.152
1070.90 0.1519
1071.00 0.1519
1071.10 0.1518
1071.20 0.1518
1071.30 0.1518
1071.40 0.1517
1071.50 0.1517
1071.60 0.1517
1071.70 0.1516
1071.80 0.1516
1071.90 0.1516
1072.00 0.1515
1072.10 0.1515
1072.20 0.1515
1072.30 0.1514
1072.40 0.1514
1072.50 0.1514
1072.60 0.1513
1072.70 0.1513
1072.80 0.1513
1072.90 0.1512
1073.00 0.1512
1073.10 0.1512
1073.20 0.1511
1073.30 0.1511
1073.40 0.1511
1073.50 0.1511
1073.60 0.151
1073.70 0.151
1073.80 0.151
1073.90 0.1509
1074.00 0.1509
1074.10 0.1509
1074.20 0.1509
1074.30 0.1508
1074.40 0.1508
1074.50 0.1508
1074.60 0.1507
1074.70 0.1507
1074.80 0.1507
1074.90 0.1507
1075.00 0.1506
1075.10 0.1506
1075.20 0.1506
1075.30 0.1506
1075.40 0.1505
1075.50 0.1505
1075.60 0.1505
1075.70 0.1504
1075.80 0.1504
1075.90 0.1504
1076.00 0.1504
1076.10 0.1503
1076.20 0.1503
1076.30 0.1503
1076.40 0.1503
1076.50 0.1502
1076.60 0.1502
1076.70 0.1502
1076.80 0.1501
1076.90 0.1501
1077.00 0.1501
1077.10 0.1501
1077.20 0.15
1077.30 0.15
1077.40 0.15
1077.50 0.15
1077.60 0.1499
1077.70 0.1499
1077.80 0.1499
1077.90 0.1499
1078.00 0.1499
1078.10 0.1498
1078.20 0.1498
1078.30 0.1498
1078.40 0.1498
1078.50 0.1497
1078.60 0.1497
1078.70 0.1497
1078.80 0.1497
1078.90 0.1497
1079.00 0.1496
1079.10 0.1496
1079.20 0.1496
1079.30 0.1496
1079.40 0.1495
1079.50 0.1495
1079.60 0.1495
1079.70 0.1495
1079.80 0.1495
1079.90 0.1494
1080.00 0.1494
1080.10 0.1494
1080.20 0.1494
1080.30 0.1494
1080.40 0.1494
1080.50 0.1493
1080.60 0.1493
1080.70 0.1493
1080.80 0.1493
1080.90 0.1493
1081.00 0.1493
1081.10 0.1492
1081.20 0.1492
1081.30 0.1492
1081.40 0.1492
1081.50 0.1492
1081.60 0.1491
1081.70 0.1491
1081.80 0.1491
1081.90 0.1491
1082.00 0.1491
1082.10 0.1491
1082.20 0.149
1082.30 0.149
1082.40 0.149
1082.50 0.149
1082.60 0.149
1082.70 0.149
1082.80 0.1489
1082.90 0.1489
1083.00 0.1489
1083.10 0.1489
1083.20 0.1489
1083.30 0.1489
1083.40 0.1488
1083.50 0.1488
1083.60 0.1488
1083.70 0.1488
1083.80 0.1488
1083.90 0.1488
1084.00 0.1488
1084.10 0.1487
1084.20 0.1487
1084.30 0.1487
1084.40 0.1487
1084.50 0.1487
1084.60 0.1487
1084.70 0.1487
1084.80 0.1486
1084.90 0.1486
1085.00 0.1486
1085.10 0.1486
1085.20 0.1486
1085.30 0.1486
1085.40 0.1486
1085.50 0.1485
1085.60 0.1485
1085.70 0.1485
1085.80 0.1485
1085.90 0.1485
1086.00 0.1485
1086.10 0.1485
1086.20 0.1485
1086.30 0.1484
1086.40 0.1484
1086.50 0.1484
1086.60 0.1484
1086.70 0.1484
1086.80 0.1484
1086.90 0.1484
1087.00 0.1484
1087.10 0.1484
1087.20 0.1483
1087.30 0.1483
1087.40 0.1483
1087.50 0.1483
1087.60 0.1483
1087.70 0.1483
1087.80 0.1483
1087.90 0.1483
1088.00 0.1483
1088.10 0.1483
1088.20 0.1482
1088.30 0.1482
1088.40 0.1482
1088.50 0.1482
1088.60 0.1482
1088.70 0.1482
1088.80 0.1482
1088.90 0.1482
1089.00 0.1482
1089.10 0.1482
1089.20 0.1482
1089.30 0.1482
1089.40 0.1481
1089.50 0.1481
1089.60 0.1481
1089.70 0.1481
1089.80 0.1481
1089.90 0.1481
1090.00 0.1481
1090.10 0.1481
1090.20 0.1481
1090.30 0.1481
1090.40 0.1481
1090.50 0.1481
1090.60 0.148
1090.70 0.148
1090.80 0.148
1090.90 0.148
1091.00 0.148
1091.10 0.148
1091.20 0.148
1091.30 0.148
1091.40 0.148
1091.50 0.148
1091.60 0.148
1091.70 0.148
1091.80 0.148
1091.90 0.148
1092.00 0.148
1092.10 0.148
1092.20 0.148
1092.30 0.1479
1092.40 0.1479
1092.50 0.1479
1092.60 0.1479
1092.70 0.1479
1092.80 0.148
1092.90 0.148
1093.00 0.148
1093.10 0.148
1093.20 0.148
1093.30 0.148
1093.40 0.148
1093.50 0.148
1093.60 0.148
1093.70 0.148
1093.80 0.148
1093.90 0.148
1094.00 0.148
1094.10 0.148
1094.20 0.148
1094.30 0.1479
1094.40 0.1479
1094.50 0.1479
1094.60 0.1479
1094.70 0.1479
1094.80 0.1479
1094.90 0.1479
1095.00 0.1479
1095.10 0.1479
1095.20 0.1479
1095.30 0.1479
1095.40 0.1479
1095.50 0.1479
1095.60 0.1479
1095.70 0.1479
1095.80 0.1479
1095.90 0.1479
1096.00 0.1479
1096.10 0.1479
1096.20 0.1479
1096.30 0.1479
1096.40 0.1479
1096.50 0.1479
1096.60 0.1479
1096.70 0.1479
1096.80 0.1479
1096.90 0.1479
1097.00 0.1479
1097.10 0.1479
1097.20 0.1479
1097.30 0.1479
1097.40 0.1479
1097.50 0.1479
1097.60 0.1479
1097.70 0.1479
1097.80 0.1479
1097.90 0.1479
1098.00 0.1479
1098.10 0.1479
1098.20 0.1479
1098.30 0.1479
1098.40 0.1479
1098.50 0.1479
1098.60 0.1479
1098.70 0.1479
1098.80 0.1479
1098.90 0.1479
1099.00 0.1479
1099.10 0.1479
1099.20 0.1479
1099.30 0.1479
1099.40 0.1479
1099.50 0.1479
1099.60 0.1479
1099.70 0.1479
1099.80 0.1479
1099.90 0.1479
1100.00 0.1479
1100.10 0.1479
1100.20 0.1479
1100.30 0.1479
1100.40 0.1479
1100.50 0.1479
1100.60 0.1479
1100.70 0.1479
1100.80 0.1479
1100.90 0.1479
1101.00 0.1479
1101.10 0.148
1101.20 0.148
1101.30 0.148
1101.40 0.148
1101.50 0.148
1101.60 0.148
1101.70 0.148
1101.80 0.148
1101.90 0.148
1102.00 0.148
1102.10 0.148
1102.20 0.148
1102.30 0.148
1102.40 0.148
1102.50 0.148
1102.60 0.148
1102.70 0.148
1102.80 0.148
1102.90 0.148
1103.00 0.148
1103.10 0.148
1103.20 0.148
1103.30 0.148
1103.40 0.148
1103.50 0.148
1103.60 0.148
1103.70 0.148
1103.80 0.1481
1103.90 0.1481
1104.00 0.1481
1104.10 0.1481
1104.20 0.1481
1104.30 0.1481
1104.40 0.1481
1104.50 0.1481
1104.60 0.1481
1104.70 0.1481
1104.80 0.1481
1104.90 0.1481
1105.00 0.1481
1105.10 0.1481
1105.20 0.1482
1105.30 0.1482
1105.40 0.1482
1105.50 0.1482
1105.60 0.1482
1105.70 0.1482
1105.80 0.1482
1105.90 0.1482
1106.00 0.1482
1106.10 0.1482
1106.20 0.1482
1106.30 0.1482
1106.40 0.1482
1106.50 0.1482
1106.60 0.1482
1106.70 0.1483
1106.80 0.1483
1106.90 0.1483
1107.00 0.1483
1107.10 0.1483
1107.20 0.1483
1107.30 0.1483
1107.40 0.1483
1107.50 0.1483
1107.60 0.1483
1107.70 0.1483
1107.80 0.1483
1107.90 0.1483
1108.00 0.1483
1108.10 0.1484
1108.20 0.1484
1108.30 0.1484
1108.40 0.1484
1108.50 0.1484
1108.60 0.1484
1108.70 0.1484
1108.80 0.1484
1108.90 0.1484
1109.00 0.1484
1109.10 0.1484
1109.20 0.1484
1109.30 0.1484
1109.40 0.1484
1109.50 0.1485
1109.60 0.1485
1109.70 0.1485
1109.80 0.1485
1109.90 0.1485
1110.00 0.1485
1110.10 0.1485
1110.20 0.1485
1110.30 0.1485
1110.40 0.1485
1110.50 0.1485
1110.60 0.1486
1110.70 0.1486
1110.80 0.1486
1110.90 0.1486
1111.00 0.1486
1111.10 0.1486
1111.20 0.1486
1111.30 0.1486
1111.40 0.1486
1111.50 0.1486
1111.60 0.1486
1111.70 0.1486
1111.80 0.1487
1111.90 0.1487
1112.00 0.1487
1112.10 0.1487
1112.20 0.1487
1112.30 0.1487
1112.40 0.1487
1112.50 0.1487
1112.60 0.1487
1112.70 0.1487
1112.80 0.1488
1112.90 0.1488
1113.00 0.1488
1113.10 0.1488
1113.20 0.1488
1113.30 0.1488
1113.40 0.1488
1113.50 0.1488
1113.60 0.1488
1113.70 0.1488
1113.80 0.1489
1113.90 0.1489
1114.00 0.1489
1114.10 0.1489
1114.20 0.1489
1114.30 0.1489
1114.40 0.1489
1114.50 0.1489
1114.60 0.1489
1114.70 0.149
1114.80 0.149
1114.90 0.149
1115.00 0.149
1115.10 0.149
1115.20 0.149
1115.30 0.149
1115.40 0.149
1115.50 0.149
1115.60 0.1491
1115.70 0.1491
1115.80 0.1491
1115.90 0.1491
1116.00 0.1491
1116.10 0.1491
1116.20 0.1491
1116.30 0.1491
1116.40 0.1491
1116.50 0.1492
1116.60 0.1492
1116.70 0.1492
1116.80 0.1492
1116.90 0.1492
1117.00 0.1492
1117.10 0.1492
1117.20 0.1492
1117.30 0.1493
1117.40 0.1493
1117.50 0.1493
1117.60 0.1493
1117.70 0.1493
1117.80 0.1493
1117.90 0.1493
1118.00 0.1493
1118.10 0.1494
1118.20 0.1494
1118.30 0.1494
1118.40 0.1494
1118.50 0.1494
1118.60 0.1494
1118.70 0.1494
1118.80 0.1495
1118.90 0.1495
1119.00 0.1495
1119.10 0.1495
1119.20 0.1495
1119.30 0.1495
1119.40 0.1495
1119.50 0.1496
1119.60 0.1496
1119.70 0.1496
1119.80 0.1496
1119.90 0.1496
1120.00 0.1496
1120.10 0.1496
1120.20 0.1496
1120.30 0.1497
1120.40 0.1497
1120.50 0.1497
1120.60 0.1497
1120.70 0.1497
1120.80 0.1497
1120.90 0.1497
1121.00 0.1498
1121.10 0.1498
1121.20 0.1498
1121.30 0.1498
1121.40 0.1498
1121.50 0.1498
1121.60 0.1498
1121.70 0.1499
1121.80 0.1499
1121.90 0.1499
1122.00 0.1499
1122.10 0.1499
1122.20 0.1499
1122.30 0.1499
1122.40 0.15
1122.50 0.15
1122.60 0.15
1122.70 0.15
1122.80 0.15
1122.90 0.15
1123.00 0.15
1123.10 0.1501
1123.20 0.1501
1123.30 0.1501
1123.40 0.1501
1123.50 0.1501
1123.60 0.1501
1123.70 0.1501
1123.80 0.1502
1123.90 0.1502
1124.00 0.1502
1124.10 0.1502
1124.20 0.1502
1124.30 0.1502
1124.40 0.1502
1124.50 0.1503
1124.60 0.1503
1124.70 0.1503
1124.80 0.1503
1124.90 0.1503
1125.00 0.1503
1125.10 0.1503
1125.20 0.1504
1125.30 0.1504
1125.40 0.1504
1125.50 0.1504
1125.60 0.1504
1125.70 0.1504
1125.80 0.1504
1125.90 0.1505
1126.00 0.1505
1126.10 0.1505
1126.20 0.1505
1126.30 0.1505
1126.40 0.1505
1126.50 0.1505
1126.60 0.1506
1126.70 0.1506
1126.80 0.1506
1126.90 0.1506
1127.00 0.1506
1127.10 0.1506
1127.20 0.1506
1127.30 0.1507
1127.40 0.1507
1127.50 0.1507
1127.60 0.1507
1127.70 0.1507
1127.80 0.1508
1127.90 0.1508
1128.00 0.1508
1128.10 0.1508
1128.20 0.1508
1128.30 0.1508
1128.40 0.1509
1128.50 0.1509
1128.60 0.1509
1128.70 0.1509
1128.80 0.1509
1128.90 0.1509
1129.00 0.151
1129.10 0.151
1129.20 0.151
1129.30 0.151
1129.40 0.151
1129.50 0.1511
1129.60 0.1511
1129.70 0.1511
1129.80 0.1511
1129.90 0.1511
1130.00 0.1511
1130.10 0.1512
1130.20 0.1512
1130.30 0.1512
1130.40 0.1512
1130.50 0.1512
1130.60 0.1512
1130.70 0.1513
1130.80 0.1513
1130.90 0.1513
1131.00 0.1513
1131.10 0.1513
1131.20 0.1513
1131.30 0.1514
1131.40 0.1514
1131.50 0.1514
1131.60 0.1514
1131.70 0.1514
1131.80 0.1515
1131.90 0.1515
1132.00 0.1515
1132.10 0.1515
1132.20 0.1515
1132.30 0.1515
1132.40 0.1515
1132.50 0.1516
1132.60 0.1516
1132.70 0.1516
1132.80 0.1516
1132.90 0.1516
1133.00 0.1516
1133.10 0.1517
1133.20 0.1517
1133.30 0.1517
1133.40 0.1517
1133.50 0.1517
1133.60 0.1517
1133.70 0.1517
1133.80 0.1518
1133.90 0.1518
1134.00 0.1518
1134.10 0.1518
1134.20 0.1518
1134.30 0.1518
1134.40 0.1518
1134.50 0.1519
1134.60 0.1519
1134.70 0.1519
1134.80 0.1519
1134.90 0.1519
1135.00 0.1519
1135.10 0.152
1135.20 0.152
1135.30 0.152
1135.40 0.152
1135.50 0.152
1135.60 0.152
1135.70 0.152
1135.80 0.1521
1135.90 0.1521
1136.00 0.1521
1136.10 0.1521
1136.20 0.1521
1136.30 0.1521
1136.40 0.1521
1136.50 0.1522
1136.60 0.1522
1136.70 0.1522
1136.80 0.1522
1136.90 0.1522
1137.00 0.1522
1137.10 0.1522
1137.20 0.1523
1137.30 0.1523
1137.40 0.1523
1137.50 0.1523
1137.60 0.1523
1137.70 0.1523
1137.80 0.1523
1137.90 0.1524
1138.00 0.1524
1138.10 0.1524
1138.20 0.1524
1138.30 0.1524
1138.40 0.1524
1138.50 0.1524
1138.60 0.1525
1138.70 0.1525
1138.80 0.1525
1138.90 0.1525
1139.00 0.1525
1139.10 0.1525
1139.20 0.1525
1139.30 0.1526
1139.40 0.1526
1139.50 0.1526
1139.60 0.1526
1139.70 0.1526
1139.80 0.1526
1139.90 0.1526
1140.00 0.1527
1140.10 0.1527
1140.20 0.1527
1140.30 0.1527
1140.40 0.1527
1140.50 0.1527
1140.60 0.1527
1140.70 0.1527
1140.80 0.1528
1140.90 0.1528
1141.00 0.1528
1141.10 0.1528
1141.20 0.1528
1141.30 0.1528
1141.40 0.1528
1141.50 0.1529
1141.60 0.1529
1141.70 0.1529
1141.80 0.1529
1141.90 0.1529
1142.00 0.1529
1142.10 0.1529
1142.20 0.153
1142.30 0.153
1142.40 0.153
1142.50 0.153
1142.60 0.153
1142.70 0.153
1142.80 0.153
1142.90 0.1531
1143.00 0.1531
1143.10 0.1531
1143.20 0.1531
1143.30 0.1531
1143.40 0.1531
1143.50 0.1531
1143.60 0.1532
1143.70 0.1532
1143.80 0.1532
1143.90 0.1532
1144.00 0.1532
1144.10 0.1532
1144.20 0.1532
1144.30 0.1533
1144.40 0.1533
1144.50 0.1533
1144.60 0.1533
1144.70 0.1533
1144.80 0.1533
1144.90 0.1533
1145.00 0.1534
1145.10 0.1534
1145.20 0.1534
1145.30 0.1534
1145.40 0.1534
1145.50 0.1534
1145.60 0.1534
1145.70 0.1534
1145.80 0.1535
1145.90 0.1535
1146.00 0.1535
1146.10 0.1535
1146.20 0.1535
1146.30 0.1535
1146.40 0.1535
1146.50 0.1536
1146.60 0.1536
1146.70 0.1536
1146.80 0.1536
1146.90 0.1536
1147.00 0.1536
1147.10 0.1536
1147.20 0.1536
1147.30 0.1537
1147.40 0.1537
1147.50 0.1537
1147.60 0.1537
1147.70 0.1537
1147.80 0.1537
1147.90 0.1537
1148.00 0.1537
1148.10 0.1537
1148.20 0.1537
1148.30 0.1537
1148.40 0.1538
1148.50 0.1538
1148.60 0.1538
1148.70 0.1538
1148.80 0.1538
1148.90 0.1538
1149.00 0.1538
1149.10 0.1538
1149.20 0.1538
1149.30 0.1538
1149.40 0.1538
1149.50 0.1538
1149.60 0.1539
1149.70 0.1539
1149.80 0.1539
1149.90 0.1539
1150.00 0.1539
1150.10 0.1539
1150.20 0.1539
1150.30 0.1539
1150.40 0.1539
1150.50 0.1539
1150.60 0.1539
1150.70 0.1539
1150.80 0.154
1150.90 0.154
1151.00 0.154
1151.10 0.154
1151.20 0.154
1151.30 0.154
1151.40 0.154
1151.50 0.154
1151.60 0.154
1151.70 0.154
1151.80 0.154
1151.90 0.1541
1152.00 0.1541
1152.10 0.1541
1152.20 0.1541
1152.30 0.1541
1152.40 0.1541
1152.50 0.1541
1152.60 0.1541
1152.70 0.1541
1152.80 0.1541
1152.90 0.1541
1153.00 0.1541
1153.10 0.1541
1153.20 0.1541
1153.30 0.1542
1153.40 0.1542
1153.50 0.1542
1153.60 0.1542
1153.70 0.1542
1153.80 0.1542
1153.90 0.1542
1154.00 0.1542
1154.10 0.1542
1154.20 0.1542
1154.30 0.1542
1154.40 0.1542
1154.50 0.1542
1154.60 0.1542
1154.70 0.1542
1154.80 0.1543
1154.90 0.1543
1155.00 0.1543
1155.10 0.1543
1155.20 0.1543
1155.30 0.1543
1155.40 0.1543
1155.50 0.1543
1155.60 0.1543
1155.70 0.1543
1155.80 0.1543
1155.90 0.1543
1156.00 0.1543
1156.10 0.1543
1156.20 0.1543
1156.30 0.1544
1156.40 0.1544
1156.50 0.1544
1156.60 0.1544
1156.70 0.1544
1156.80 0.1544
1156.90 0.1544
1157.00 0.1544
1157.10 0.1544
1157.20 0.1544
1157.30 0.1544
1157.40 0.1544
1157.50 0.1544
1157.60 0.1544
1157.70 0.1544
1157.80 0.1544
1157.90 0.1544
1158.00 0.1544
1158.10 0.1544
1158.20 0.1544
1158.30 0.1544
1158.40 0.1544
1158.50 0.1544
1158.60 0.1544
1158.70 0.1544
1158.80 0.1544
1158.90 0.1544
1159.00 0.1544
1159.10 0.1544
1159.20 0.1544
1159.30 0.1544
1159.40 0.1544
1159.50 0.1544
1159.60 0.1544
1159.70 0.1544
1159.80 0.1544
1159.90 0.1544
1160.00 0.1544
1160.10 0.1544
1160.20 0.1544
1160.30 0.1544
1160.40 0.1544
1160.50 0.1544
1160.60 0.1544
1160.70 0.1544
1160.80 0.1544
1160.90 0.1544
1161.00 0.1544
1161.10 0.1544
1161.20 0.1544
1161.30 0.1544
1161.40 0.1544
1161.50 0.1544
1161.60 0.1544
1161.70 0.1544
1161.80 0.1544
1161.90 0.1544
1162.00 0.1544
1162.10 0.1544
1162.20 0.1544
1162.30 0.1544
1162.40 0.1544
1162.50 0.1544
1162.60 0.1544
1162.70 0.1544
1162.80 0.1544
1162.90 0.1544
1163.00 0.1544
1163.10 0.1544
1163.20 0.1544
1163.30 0.1544
1163.40 0.1544
1163.50 0.1544
1163.60 0.1544
1163.70 0.1544
1163.80 0.1544
1163.90 0.1544
1164.00 0.1544
1164.10 0.1544
1164.20 0.1544
1164.30 0.1544
1164.40 0.1543
1164.50 0.1543
1164.60 0.1543
1164.70 0.1543
1164.80 0.1543
1164.90 0.1543
1165.00 0.1543
1165.10 0.1543
1165.20 0.1543
1165.30 0.1543
1165.40 0.1543
1165.50 0.1543
1165.60 0.1543
1165.70 0.1543
1165.80 0.1543
1165.90 0.1543
1166.00 0.1543
1166.10 0.1543
1166.20 0.1543
1166.30 0.1543
1166.40 0.1543
1166.50 0.1543
1166.60 0.1543
1166.70 0.1543
1166.80 0.1543
1166.90 0.1542
1167.00 0.1542
1167.10 0.1542
1167.20 0.1542
1167.30 0.1542
1167.40 0.1542
1167.50 0.1542
1167.60 0.1542
1167.70 0.1542
1167.80 0.1542
1167.90 0.1542
1168.00 0.1542
1168.10 0.1542
1168.20 0.1541
1168.30 0.1541
1168.40 0.1541
1168.50 0.1541
1168.60 0.1541
1168.70 0.1541
1168.80 0.1541
1168.90 0.1541
1169.00 0.1541
1169.10 0.1541
1169.20 0.1541
1169.30 0.1541
1169.40 0.1541
1169.50 0.154
1169.60 0.154
1169.70 0.154
1169.80 0.154
1169.90 0.154
1170.00 0.154
1170.10 0.154
1170.20 0.154
1170.30 0.154
1170.40 0.154
1170.50 0.154
1170.60 0.154
1170.70 0.1539
1170.80 0.1539
1170.90 0.1539
1171.00 0.1539
1171.10 0.1539
1171.20 0.1539
1171.30 0.1539
1171.40 0.1539
1171.50 0.1539
1171.60 0.1539
1171.70 0.1539
1171.80 0.1539
1171.90 0.1539
1172.00 0.1538
1172.10 0.1538
1172.20 0.1538
1172.30 0.1538
1172.40 0.1538
1172.50 0.1538
1172.60 0.1538
1172.70 0.1537
1172.80 0.1537
1172.90 0.1537
1173.00 0.1537
1173.10 0.1537
1173.20 0.1537
1173.30 0.1537
1173.40 0.1536
1173.50 0.1536
1173.60 0.1536
1173.70 0.1536
1173.80 0.1536
1173.90 0.1536
1174.00 0.1536
1174.10 0.1535
1174.20 0.1535
1174.30 0.1535
1174.40 0.1535
1174.50 0.1535
1174.60 0.1535
1174.70 0.1535
1174.80 0.1534
1174.90 0.1534
1175.00 0.1534
1175.10 0.1534
1175.20 0.1534
1175.30 0.1534
1175.40 0.1534
1175.50 0.1534
1175.60 0.1533
1175.70 0.1533
1175.80 0.1533
1175.90 0.1533
1176.00 0.1533
1176.10 0.1533
1176.20 0.1533
1176.30 0.1532
1176.40 0.1532
1176.50 0.1532
1176.60 0.1532
1176.70 0.1532
1176.80 0.1532
1176.90 0.1532
1177.00 0.1531
1177.10 0.1531
1177.20 0.1531
1177.30 0.1531
1177.40 0.1531
1177.50 0.153
1177.60 0.153
1177.70 0.153
1177.80 0.153
1177.90 0.153
1178.00 0.153
1178.10 0.1529
1178.20 0.1529
1178.30 0.1529
1178.40 0.1529
1178.50 0.1529
1178.60 0.1528
1178.70 0.1528
1178.80 0.1528
1178.90 0.1528
1179.00 0.1528
1179.10 0.1527
1179.20 0.1527
1179.30 0.1527
1179.40 0.1527
1179.50 0.1527
1179.60 0.1527
1179.70 0.1526
1179.80 0.1526
1179.90 0.1526
1180.00 0.1526
1180.10 0.1526
1180.20 0.1525
1180.30 0.1525
1180.40 0.1525
1180.50 0.1525
1180.60 0.1525
1180.70 0.1524
1180.80 0.1524
1180.90 0.1524
1181.00 0.1524
1181.10 0.1524
1181.20 0.1523
1181.30 0.1523
1181.40 0.1523
1181.50 0.1523
1181.60 0.1523
1181.70 0.1523
1181.80 0.1522
1181.90 0.1522
1182.00 0.1522
1182.10 0.1522
1182.20 0.1521
1182.30 0.1521
1182.40 0.1521
1182.50 0.1521
1182.60 0.152
1182.70 0.152
1182.80 0.152
1182.90 0.152
1183.00 0.1519
1183.10 0.1519
1183.20 0.1519
1183.30 0.1519
1183.40 0.1518
1183.50 0.1518
1183.60 0.1518
1183.70 0.1518
1183.80 0.1517
1183.90 0.1517
1184.00 0.1517
1184.10 0.1517
1184.20 0.1516
1184.30 0.1516
1184.40 0.1516
1184.50 0.1516
1184.60 0.1515
1184.70 0.1515
1184.80 0.1515
1184.90 0.1515
1185.00 0.1514
1185.10 0.1514
1185.20 0.1514
1185.30 0.1514
1185.40 0.1513
1185.50 0.1513
1185.60 0.1513
1185.70 0.1513
1185.80 0.1512
1185.90 0.1512
1186.00 0.1512
1186.10 0.1511
1186.20 0.1511
1186.30 0.1511
1186.40 0.1511
1186.50 0.151
1186.60 0.151
1186.70 0.151
1186.80 0.151
1186.90 0.1509
1187.00 0.1509
1187.10 0.1509
1187.20 0.1509
1187.30 0.1508
1187.40 0.1508
1187.50 0.1508
1187.60 0.1508
1187.70 0.1507
1187.80 0.1507
1187.90 0.1507
1188.00 0.1507
1188.10 0.1506
1188.20 0.1506
1188.30 0.1506
1188.40 0.1506
1188.50 0.1505
1188.60 0.1505
1188.70 0.1505
1188.80 0.1505
1188.90 0.1504
1189.00 0.1504
1189.10 0.1504
1189.20 0.1504
1189.30 0.1503
1189.40 0.1503
1189.50 0.1503
1189.60 0.1503
1189.70 0.1502
1189.80 0.1502
1189.90 0.1502
1190.00 0.1502
1190.10 0.1501
1190.20 0.1501
1190.30 0.1501
1190.40 0.1501
1190.50 0.15
1190.60 0.15
1190.70 0.15
1190.80 0.15
1190.90 0.1499
1191.00 0.1499
1191.10 0.1499
1191.20 0.1499
1191.30 0.1498
1191.40 0.1498
1191.50 0.1498
1191.60 0.1498
1191.70 0.1497
1191.80 0.1497
1191.90 0.1497
1192.00 0.1497
1192.10 0.1496
1192.20 0.1496
1192.30 0.1496
1192.40 0.1496
1192.50 0.1495
1192.60 0.1495
1192.70 0.1495
1192.80 0.1494
1192.90 0.1494
1193.00 0.1494
1193.10 0.1494
1193.20 0.1493
1193.30 0.1493
1193.40 0.1493
1193.50 0.1493
1193.60 0.1492
1193.70 0.1492
1193.80 0.1492
1193.90 0.1491
1194.00 0.1491
1194.10 0.1491
1194.20 0.1491
1194.30 0.149
1194.40 0.149
1194.50 0.149
1194.60 0.149
1194.70 0.1489
1194.80 0.1489
1194.90 0.1489
1195.00 0.1488
1195.10 0.1488
1195.20 0.1488
1195.30 0.1488
1195.40 0.1487
1195.50 0.1487
1195.60 0.1487
1195.70 0.1487
1195.80 0.1486
1195.90 0.1486
1196.00 0.1486
1196.10 0.1485
1196.20 0.1485
1196.30 0.1485
1196.40 0.1485
1196.50 0.1484
1196.60 0.1484
1196.70 0.1484
1196.80 0.1484
1196.90 0.1483
1197.00 0.1483
1197.10 0.1483
1197.20 0.1482
1197.30 0.1482
1197.40 0.1482
1197.50 0.1481
1197.60 0.1481
1197.70 0.1481
1197.80 0.1481
1197.90 0.148
1198.00 0.148
1198.10 0.148
1198.20 0.1479
1198.30 0.1479
1198.40 0.1479
1198.50 0.1478
1198.60 0.1478
1198.70 0.1478
1198.80 0.1477
1198.90 0.1477
1199.00 0.1477
1199.10 0.1476
1199.20 0.1476
1199.30 0.1476
1199.40 0.1475
1199.50 0.1475
1199.60 0.1475
1199.70 0.1475
1199.80 0.1474
1199.90 0.1474
1200.00 0
