# Version 2.1 - nm, norm@500 to 1, cut digits, bergeron_10500_70.dat_10500
# Wavelength(nm)  Flambda(ergs/cm^s/s/nm)
300.00 1.413
300.10 1.412
300.20 1.412
300.30 1.411
300.40 1.41
300.50 1.409
300.60 1.409
300.70 1.408
300.80 1.407
300.90 1.407
301.00 1.406
301.10 1.405
301.20 1.404
301.30 1.404
301.40 1.403
301.50 1.402
301.60 1.402
301.70 1.401
301.80 1.4
301.90 1.399
302.00 1.399
302.10 1.398
302.20 1.397
302.30 1.397
302.40 1.396
302.50 1.395
302.60 1.394
302.70 1.394
302.80 1.393
302.90 1.392
303.00 1.392
303.10 1.391
303.20 1.39
303.30 1.389
303.40 1.389
303.50 1.388
303.60 1.387
303.70 1.387
303.80 1.386
303.90 1.385
304.00 1.385
304.10 1.384
304.20 1.383
304.30 1.382
304.40 1.382
304.50 1.381
304.60 1.38
304.70 1.38
304.80 1.379
304.90 1.378
305.00 1.378
305.10 1.377
305.20 1.376
305.30 1.375
305.40 1.375
305.50 1.374
305.60 1.373
305.70 1.373
305.80 1.372
305.90 1.371
306.00 1.371
306.10 1.37
306.20 1.369
306.30 1.368
306.40 1.368
306.50 1.367
306.60 1.366
306.70 1.366
306.80 1.365
306.90 1.364
307.00 1.364
307.10 1.363
307.20 1.362
307.30 1.361
307.40 1.361
307.50 1.36
307.60 1.359
307.70 1.359
307.80 1.358
307.90 1.357
308.00 1.357
308.10 1.356
308.20 1.355
308.30 1.355
308.40 1.354
308.50 1.353
308.60 1.352
308.70 1.352
308.80 1.351
308.90 1.35
309.00 1.35
309.10 1.349
309.20 1.348
309.30 1.348
309.40 1.347
309.50 1.346
309.60 1.346
309.70 1.345
309.80 1.344
309.90 1.344
310.00 1.343
310.10 1.342
310.20 1.342
310.30 1.341
310.40 1.34
310.50 1.339
310.60 1.339
310.70 1.338
310.80 1.337
310.90 1.337
311.00 1.336
311.10 1.335
311.20 1.335
311.30 1.334
311.40 1.333
311.50 1.333
311.60 1.332
311.70 1.331
311.80 1.331
311.90 1.33
312.00 1.329
312.10 1.329
312.20 1.328
312.30 1.327
312.40 1.327
312.50 1.326
312.60 1.325
312.70 1.325
312.80 1.324
312.90 1.323
313.00 1.323
313.10 1.322
313.20 1.321
313.30 1.32
313.40 1.32
313.50 1.319
313.60 1.318
313.70 1.318
313.80 1.317
313.90 1.316
314.00 1.316
314.10 1.315
314.20 1.314
314.30 1.314
314.40 1.313
314.50 1.312
314.60 1.312
314.70 1.311
314.80 1.31
314.90 1.31
315.00 1.309
315.10 1.308
315.20 1.308
315.30 1.307
315.40 1.306
315.50 1.306
315.60 1.305
315.70 1.304
315.80 1.304
315.90 1.303
316.00 1.303
316.10 1.302
316.20 1.301
316.30 1.301
316.40 1.3
316.50 1.299
316.60 1.299
316.70 1.298
316.80 1.297
316.90 1.297
317.00 1.296
317.10 1.295
317.20 1.295
317.30 1.294
317.40 1.293
317.50 1.293
317.60 1.292
317.70 1.291
317.80 1.291
317.90 1.29
318.00 1.289
318.10 1.289
318.20 1.288
318.30 1.287
318.40 1.287
318.50 1.286
318.60 1.285
318.70 1.285
318.80 1.284
318.90 1.283
319.00 1.283
319.10 1.282
319.20 1.281
319.30 1.281
319.40 1.28
319.50 1.28
319.60 1.279
319.70 1.278
319.80 1.278
319.90 1.277
320.00 1.276
320.10 1.276
320.20 1.275
320.30 1.274
320.40 1.274
320.50 1.273
320.60 1.272
320.70 1.272
320.80 1.271
320.90 1.27
321.00 1.27
321.10 1.269
321.20 1.269
321.30 1.268
321.40 1.267
321.50 1.267
321.60 1.266
321.70 1.265
321.80 1.265
321.90 1.264
322.00 1.263
322.10 1.263
322.20 1.262
322.30 1.261
322.40 1.261
322.50 1.26
322.60 1.26
322.70 1.259
322.80 1.258
322.90 1.258
323.00 1.257
323.10 1.256
323.20 1.256
323.30 1.255
323.40 1.254
323.50 1.254
323.60 1.253
323.70 1.253
323.80 1.252
323.90 1.251
324.00 1.251
324.10 1.25
324.20 1.249
324.30 1.249
324.40 1.248
324.50 1.248
324.60 1.247
324.70 1.246
324.80 1.246
324.90 1.245
325.00 1.244
325.10 1.244
325.20 1.243
325.30 1.242
325.40 1.242
325.50 1.241
325.60 1.241
325.70 1.24
325.80 1.239
325.90 1.239
326.00 1.238
326.10 1.237
326.20 1.237
326.30 1.236
326.40 1.236
326.50 1.235
326.60 1.234
326.70 1.234
326.80 1.233
326.90 1.232
327.00 1.232
327.10 1.231
327.20 1.231
327.30 1.23
327.40 1.229
327.50 1.229
327.60 1.228
327.70 1.228
327.80 1.227
327.90 1.226
328.00 1.226
328.10 1.225
328.20 1.224
328.30 1.224
328.40 1.223
328.50 1.223
328.60 1.222
328.70 1.221
328.80 1.221
328.90 1.22
329.00 1.219
329.10 1.219
329.20 1.218
329.30 1.218
329.40 1.217
329.50 1.216
329.60 1.216
329.70 1.215
329.80 1.215
329.90 1.214
330.00 1.213
330.10 1.213
330.20 1.212
330.30 1.212
330.40 1.211
330.50 1.21
330.60 1.21
330.70 1.209
330.80 1.208
330.90 1.208
331.00 1.207
331.10 1.207
331.20 1.206
331.30 1.205
331.40 1.205
331.50 1.204
331.60 1.204
331.70 1.203
331.80 1.202
331.90 1.202
332.00 1.201
332.10 1.201
332.20 1.2
332.30 1.199
332.40 1.199
332.50 1.198
332.60 1.198
332.70 1.197
332.80 1.196
332.90 1.196
333.00 1.195
333.10 1.195
333.20 1.194
333.30 1.193
333.40 1.193
333.50 1.192
333.60 1.192
333.70 1.191
333.80 1.19
333.90 1.19
334.00 1.189
334.10 1.189
334.20 1.188
334.30 1.187
334.40 1.187
334.50 1.186
334.60 1.186
334.70 1.185
334.80 1.184
334.90 1.184
335.00 1.183
335.10 1.183
335.20 1.182
335.30 1.181
335.40 1.181
335.50 1.18
335.60 1.18
335.70 1.179
335.80 1.178
335.90 1.178
336.00 1.177
336.10 1.177
336.20 1.176
336.30 1.175
336.40 1.175
336.50 1.174
336.60 1.174
336.70 1.173
336.80 1.173
336.90 1.172
337.00 1.171
337.10 1.171
337.20 1.17
337.30 1.17
337.40 1.169
337.50 1.168
337.60 1.168
337.70 1.167
337.80 1.167
337.90 1.166
338.00 1.165
338.10 1.165
338.20 1.164
338.30 1.164
338.40 1.163
338.50 1.163
338.60 1.162
338.70 1.161
338.80 1.161
338.90 1.16
339.00 1.16
339.10 1.159
339.20 1.158
339.30 1.158
339.40 1.157
339.50 1.157
339.60 1.156
339.70 1.156
339.80 1.155
339.90 1.154
340.00 1.154
340.10 1.153
340.20 1.153
340.30 1.152
340.40 1.152
340.50 1.151
340.60 1.15
340.70 1.15
340.80 1.149
340.90 1.149
341.00 1.148
341.10 1.148
341.20 1.147
341.30 1.146
341.40 1.146
341.50 1.145
341.60 1.145
341.70 1.144
341.80 1.144
341.90 1.143
342.00 1.142
342.10 1.142
342.20 1.141
342.30 1.141
342.40 1.14
342.50 1.14
342.60 1.139
342.70 1.138
342.80 1.138
342.90 1.137
343.00 1.137
343.10 1.136
343.20 1.136
343.30 1.135
343.40 1.134
343.50 1.134
343.60 1.133
343.70 1.133
343.80 1.132
343.90 1.132
344.00 1.131
344.10 1.13
344.20 1.13
344.30 1.129
344.40 1.129
344.50 1.128
344.60 1.128
344.70 1.127
344.80 1.127
344.90 1.126
345.00 1.125
345.10 1.125
345.20 1.124
345.30 1.124
345.40 1.123
345.50 1.123
345.60 1.122
345.70 1.122
345.80 1.121
345.90 1.12
346.00 1.12
346.10 1.119
346.20 1.119
346.30 1.118
346.40 1.118
346.50 1.117
346.60 1.116
346.70 1.116
346.80 1.115
346.90 1.115
347.00 1.114
347.10 1.114
347.20 1.113
347.30 1.113
347.40 1.112
347.50 1.112
347.60 1.111
347.70 1.11
347.80 1.11
347.90 1.109
348.00 1.109
348.10 1.108
348.20 1.108
348.30 1.107
348.40 1.107
348.50 1.106
348.60 1.105
348.70 1.105
348.80 1.104
348.90 1.104
349.00 1.103
349.10 1.103
349.20 1.102
349.30 1.102
349.40 1.101
349.50 1.101
349.60 1.1
349.70 1.099
349.80 1.099
349.90 1.098
350.00 1.098
350.10 1.097
350.20 1.097
350.30 1.096
350.40 1.096
350.50 1.095
350.60 1.095
350.70 1.094
350.80 1.093
350.90 1.093
351.00 1.092
351.10 1.092
351.20 1.091
351.30 1.091
351.40 1.09
351.50 1.09
351.60 1.089
351.70 1.089
351.80 1.088
351.90 1.088
352.00 1.087
352.10 1.086
352.20 1.086
352.30 1.085
352.40 1.085
352.50 1.084
352.60 1.084
352.70 1.083
352.80 1.083
352.90 1.082
353.00 1.082
353.10 1.081
353.20 1.081
353.30 1.08
353.40 1.079
353.50 1.079
353.60 1.078
353.70 1.078
353.80 1.077
353.90 1.077
354.00 1.076
354.10 1.076
354.20 1.075
354.30 1.075
354.40 1.074
354.50 1.074
354.60 1.073
354.70 1.073
354.80 1.072
354.90 1.071
355.00 1.071
355.10 1.07
355.20 1.07
355.30 1.069
355.40 1.069
355.50 1.068
355.60 1.068
355.70 1.067
355.80 1.067
355.90 1.066
356.00 1.066
356.10 1.065
356.20 1.065
356.30 1.064
356.40 1.064
356.50 1.063
356.60 1.063
356.70 1.062
356.80 1.062
356.90 1.061
357.00 1.06
357.10 1.06
357.20 1.059
357.30 1.059
357.40 1.058
357.50 1.058
357.60 1.057
357.70 1.057
357.80 1.056
357.90 1.056
358.00 1.055
358.10 1.055
358.20 1.054
358.30 1.054
358.40 1.053
358.50 1.053
358.60 1.052
358.70 1.052
358.80 1.051
358.90 1.051
359.00 1.05
359.10 1.05
359.20 1.049
359.30 1.049
359.40 1.048
359.50 1.048
359.60 1.047
359.70 1.046
359.80 1.046
359.90 1.045
360.00 1.045
360.10 1.044
360.20 1.044
360.30 1.043
360.40 1.043
360.50 1.042
360.60 1.042
360.70 1.041
360.80 1.041
360.90 1.04
361.00 1.04
361.10 1.039
361.20 1.039
361.30 1.038
361.40 1.038
361.50 1.037
361.60 1.037
361.70 1.036
361.80 1.036
361.90 1.035
362.00 1.035
362.10 1.034
362.20 1.034
362.30 1.033
362.40 1.033
362.50 1.032
362.60 1.032
362.70 1.031
362.80 1.031
362.90 1.03
363.00 1.03
363.10 1.029
363.20 1.029
363.30 1.028
363.40 1.028
363.50 1.027
363.60 1.026
363.70 1.026
363.80 1.025
363.90 1.025
364.00 1.024
364.10 1.024
364.20 1.023
364.30 1.023
364.40 1.022
364.50 1.022
364.60 1.021
364.70 1.021
364.80 1.02
364.90 1.02
365.00 1.019
365.10 1.019
365.20 1.018
365.30 1.018
365.40 1.017
365.50 1.017
365.60 1.016
365.70 1.016
365.80 1.015
365.90 1.015
366.00 1.014
366.10 1.014
366.20 1.014
366.30 1.013
366.40 1.013
366.50 1.012
366.60 1.012
366.70 1.012
366.80 1.011
366.90 1.011
367.00 1.01
367.10 1.01
367.20 1.009
367.30 1.009
367.40 1.009
367.50 1.008
367.60 1.008
367.70 1.007
367.80 1.007
367.90 1.007
368.00 1.006
368.10 1.007
368.20 1.007
368.30 1.008
368.40 1.009
368.50 1.009
368.60 1.01
368.70 1.011
368.80 1.011
368.90 1.012
369.00 1.013
369.10 1.013
369.20 1.014
369.30 1.015
369.40 1.015
369.50 1.016
369.60 1.016
369.70 1.017
369.80 1.018
369.90 1.018
370.00 1.019
370.10 1.022
370.20 1.024
370.30 1.027
370.40 1.029
370.50 1.032
370.60 1.034
370.70 1.037
370.80 1.04
370.90 1.042
371.00 1.045
371.10 1.047
371.20 1.05
371.30 1.052
371.40 1.055
371.50 1.057
371.60 1.06
371.70 1.062
371.80 1.065
371.90 1.067
372.00 1.07
372.10 1.074
372.20 1.078
372.30 1.082
372.40 1.086
372.50 1.09
372.60 1.094
372.70 1.098
372.80 1.102
372.90 1.105
373.00 1.109
373.10 1.113
373.20 1.117
373.30 1.121
373.40 1.125
373.50 1.129
373.60 1.133
373.70 1.137
373.80 1.141
373.90 1.144
374.00 1.148
374.10 1.152
374.20 1.156
374.30 1.16
374.40 1.164
374.50 1.167
374.60 1.171
374.70 1.175
374.80 1.179
374.90 1.183
375.00 1.186
375.10 1.19
375.20 1.194
375.30 1.198
375.40 1.201
375.50 1.205
375.60 1.209
375.70 1.213
375.80 1.217
375.90 1.22
376.00 1.224
376.10 1.226
376.20 1.228
376.30 1.229
376.40 1.231
376.50 1.233
376.60 1.235
376.70 1.237
376.80 1.238
376.90 1.24
377.00 1.242
377.10 1.239
377.20 1.236
377.30 1.233
377.40 1.23
377.50 1.227
377.60 1.224
377.70 1.221
377.80 1.218
377.90 1.215
378.00 1.213
378.10 1.194
378.20 1.175
378.30 1.157
378.40 1.138
378.50 1.12
378.60 1.101
378.70 1.083
378.80 1.064
378.90 1.046
379.00 1.027
379.10 1.008
379.20 0.9897
379.30 0.971
379.40 0.9524
379.50 0.9338
379.60 0.9152
379.70 0.8966
379.80 0.878
379.90 0.8595
380.00 0.8409
380.10 0.8691
380.20 0.8973
380.30 0.9255
380.40 0.9536
380.50 0.9817
380.60 1.01
380.70 1.038
380.80 1.066
380.90 1.094
381.00 1.122
381.10 1.132
381.20 1.142
381.30 1.152
381.40 1.162
381.50 1.172
381.60 1.173
381.70 1.171
381.80 1.166
381.90 1.159
382.00 1.149
382.10 1.135
382.20 1.117
382.30 1.082
382.40 1.048
382.50 1.014
382.60 0.9792
382.70 0.9449
382.80 0.9106
382.90 0.8764
383.00 0.8421
383.10 0.808
383.20 0.7738
383.30 0.7332
383.40 0.6897
383.50 0.6437
383.60 0.6541
383.70 0.699
383.80 0.7425
383.90 0.783
384.00 0.8234
384.10 0.8654
384.20 0.9079
384.30 0.9499
384.40 0.9902
384.50 1.028
384.60 1.062
384.70 1.094
384.80 1.123
384.90 1.148
385.00 1.171
385.10 1.19
385.20 1.206
385.30 1.22
385.40 1.232
385.50 1.241
385.60 1.25
385.70 1.256
385.80 1.261
385.90 1.264
386.00 1.266
386.10 1.267
386.20 1.266
386.30 1.263
386.40 1.259
386.50 1.255
386.60 1.247
386.70 1.239
386.80 1.23
386.90 1.218
387.00 1.206
387.10 1.191
387.20 1.174
387.30 1.155
387.40 1.135
387.50 1.11
387.60 1.083
387.70 1.054
387.80 1.02
387.90 0.9829
388.00 0.9439
388.10 0.9005
388.20 0.856
388.30 0.8104
388.40 0.765
388.50 0.7206
388.60 0.6773
388.70 0.6324
388.80 0.5846
388.90 0.5337
389.00 0.5813
389.10 0.6275
389.20 0.6724
389.30 0.7155
389.40 0.7595
389.50 0.8046
389.60 0.8504
389.70 0.8953
389.80 0.9393
389.90 0.9796
390.00 1.018
390.10 1.053
390.20 1.085
390.30 1.114
390.40 1.141
390.50 1.165
390.60 1.187
390.70 1.208
390.80 1.226
390.90 1.243
391.00 1.259
391.10 1.274
391.20 1.288
391.30 1.301
391.40 1.313
391.50 1.324
391.60 1.334
391.70 1.343
391.80 1.352
391.90 1.36
392.00 1.366
392.10 1.372
392.20 1.378
392.30 1.382
392.40 1.385
392.50 1.388
392.60 1.39
392.70 1.392
392.80 1.392
392.90 1.392
393.00 1.391
393.10 1.389
393.20 1.386
393.30 1.383
393.40 1.379
393.50 1.374
393.60 1.368
393.70 1.362
393.80 1.354
393.90 1.345
394.00 1.337
394.10 1.326
394.20 1.315
394.30 1.304
394.40 1.29
394.50 1.277
394.60 1.262
394.70 1.246
394.80 1.23
394.90 1.212
395.00 1.193
395.10 1.173
395.20 1.152
395.30 1.129
395.40 1.105
395.50 1.079
395.60 1.052
395.70 1.022
395.80 0.9912
395.90 0.9569
396.00 0.9208
396.10 0.8831
396.20 0.8424
396.30 0.8007
396.40 0.7579
396.50 0.7148
396.60 0.6725
396.70 0.6311
396.80 0.5872
396.90 0.5318
397.00 0.465
397.10 0.5272
397.20 0.5804
397.30 0.6247
397.40 0.6657
397.50 0.7074
397.60 0.7499
397.70 0.7923
397.80 0.8337
397.90 0.874
398.00 0.9115
398.10 0.9473
398.20 0.9813
398.30 1.012
398.40 1.041
398.50 1.069
398.60 1.094
398.70 1.119
398.80 1.142
398.90 1.163
399.00 1.183
399.10 1.203
399.20 1.221
399.30 1.238
399.40 1.255
399.50 1.271
399.60 1.286
399.70 1.301
399.80 1.314
399.90 1.327
400.00 1.34
400.10 1.351
400.20 1.362
400.30 1.373
400.40 1.383
400.50 1.392
400.60 1.402
400.70 1.41
400.80 1.418
400.90 1.426
401.00 1.433
401.10 1.439
401.20 1.446
401.30 1.451
401.40 1.457
401.50 1.462
401.60 1.467
401.70 1.471
401.80 1.475
401.90 1.479
402.00 1.483
402.10 1.486
402.20 1.489
402.30 1.491
402.40 1.494
402.50 1.496
402.60 1.497
402.70 1.499
402.80 1.5
402.90 1.501
403.00 1.502
403.10 1.502
403.20 1.502
403.30 1.503
403.40 1.502
403.50 1.502
403.60 1.501
403.70 1.5
403.80 1.499
403.90 1.497
404.00 1.495
404.10 1.493
404.20 1.491
404.30 1.489
404.40 1.486
404.50 1.483
404.60 1.48
404.70 1.476
404.80 1.472
404.90 1.468
405.00 1.464
405.10 1.459
405.20 1.454
405.30 1.449
405.40 1.443
405.50 1.437
405.60 1.431
405.70 1.424
405.80 1.417
405.90 1.41
406.00 1.402
406.10 1.394
406.20 1.386
406.30 1.377
406.40 1.367
406.50 1.358
406.60 1.347
406.70 1.336
406.80 1.325
406.90 1.313
407.00 1.301
407.10 1.288
407.20 1.274
407.30 1.26
407.40 1.245
407.50 1.229
407.60 1.213
407.70 1.196
407.80 1.178
407.90 1.159
408.00 1.14
408.10 1.12
408.20 1.098
408.30 1.076
408.40 1.054
408.50 1.03
408.60 1.005
408.70 0.9802
408.80 0.9533
408.90 0.9256
409.00 0.897
409.10 0.8664
409.20 0.8348
409.30 0.8022
409.40 0.7675
409.50 0.732
409.60 0.6955
409.70 0.6582
409.80 0.621
409.90 0.5839
410.00 0.5399
410.10 0.4894
410.20 0.4325
410.30 0.5067
410.40 0.5637
410.50 0.6033
410.60 0.64
410.70 0.6767
410.80 0.7133
410.90 0.7486
411.00 0.7828
411.10 0.816
411.20 0.8471
411.30 0.8772
411.40 0.9062
411.50 0.9332
411.60 0.9594
411.70 0.9846
411.80 1.008
411.90 1.031
412.00 1.054
412.10 1.075
412.20 1.095
412.30 1.115
412.40 1.133
412.50 1.151
412.60 1.168
412.70 1.185
412.80 1.2
412.90 1.215
413.00 1.229
413.10 1.243
413.20 1.256
413.30 1.268
413.40 1.28
413.50 1.291
413.60 1.302
413.70 1.312
413.80 1.322
413.90 1.331
414.00 1.339
414.10 1.348
414.20 1.356
414.30 1.364
414.40 1.371
414.50 1.378
414.60 1.385
414.70 1.391
414.80 1.397
414.90 1.403
415.00 1.409
415.10 1.414
415.20 1.419
415.30 1.424
415.40 1.429
415.50 1.433
415.60 1.437
415.70 1.441
415.80 1.445
415.90 1.449
416.00 1.452
416.10 1.456
416.20 1.459
416.30 1.462
416.40 1.465
416.50 1.468
416.60 1.47
416.70 1.473
416.80 1.475
416.90 1.477
417.00 1.479
417.10 1.481
417.20 1.483
417.30 1.485
417.40 1.487
417.50 1.488
417.60 1.49
417.70 1.491
417.80 1.493
417.90 1.494
418.00 1.495
418.10 1.496
418.20 1.497
418.30 1.498
418.40 1.499
418.50 1.5
418.60 1.501
418.70 1.501
418.80 1.502
418.90 1.502
419.00 1.503
419.10 1.503
419.20 1.504
419.30 1.504
419.40 1.504
419.50 1.504
419.60 1.504
419.70 1.505
419.80 1.505
419.90 1.505
420.00 1.505
420.10 1.505
420.20 1.504
420.30 1.504
420.40 1.504
420.50 1.504
420.60 1.503
420.70 1.503
420.80 1.503
420.90 1.502
421.00 1.502
421.10 1.501
421.20 1.501
421.30 1.5
421.40 1.5
421.50 1.499
421.60 1.499
421.70 1.498
421.80 1.497
421.90 1.496
422.00 1.496
422.10 1.495
422.20 1.494
422.30 1.493
422.40 1.492
422.50 1.491
422.60 1.49
422.70 1.489
422.80 1.488
422.90 1.487
423.00 1.486
423.10 1.484
423.20 1.483
423.30 1.482
423.40 1.481
423.50 1.479
423.60 1.478
423.70 1.476
423.80 1.475
423.90 1.473
424.00 1.472
424.10 1.47
424.20 1.469
424.30 1.467
424.40 1.465
424.50 1.464
424.60 1.462
424.70 1.46
424.80 1.458
424.90 1.456
425.00 1.454
425.10 1.452
425.20 1.45
425.30 1.448
425.40 1.446
425.50 1.443
425.60 1.441
425.70 1.439
425.80 1.436
425.90 1.434
426.00 1.431
426.10 1.429
426.20 1.425
426.30 1.422
426.40 1.42
426.50 1.417
426.60 1.414
426.70 1.411
426.80 1.407
426.90 1.404
427.00 1.401
427.10 1.397
427.20 1.394
427.30 1.39
427.40 1.386
427.50 1.383
427.60 1.379
427.70 1.375
427.80 1.37
427.90 1.366
428.00 1.362
428.10 1.357
428.20 1.352
428.30 1.348
428.40 1.343
428.50 1.337
428.60 1.332
428.70 1.327
428.80 1.321
428.90 1.315
429.00 1.309
429.10 1.303
429.20 1.296
429.30 1.29
429.40 1.283
429.50 1.276
429.60 1.269
429.70 1.261
429.80 1.253
429.90 1.245
430.00 1.237
430.10 1.228
430.20 1.219
430.30 1.21
430.40 1.2
430.50 1.191
430.60 1.18
430.70 1.17
430.80 1.159
430.90 1.148
431.00 1.136
431.10 1.124
431.20 1.112
431.30 1.1
431.40 1.087
431.50 1.073
431.60 1.059
431.70 1.044
431.80 1.029
431.90 1.013
432.00 0.9954
432.10 0.9774
432.20 0.9578
432.30 0.9371
432.40 0.9154
432.50 0.8914
432.60 0.8663
432.70 0.8402
432.80 0.8134
432.90 0.7869
433.00 0.7609
433.10 0.7361
433.20 0.7111
433.30 0.6857
433.40 0.6579
433.50 0.6288
433.60 0.5986
433.70 0.5674
433.80 0.5334
433.90 0.4968
434.00 0.4048
434.10 0.406
434.20 0.5
434.30 0.5357
434.40 0.5689
434.50 0.5997
434.60 0.6294
434.70 0.6578
434.80 0.685
434.90 0.7096
435.00 0.7339
435.10 0.758
435.20 0.7834
435.30 0.809
435.40 0.8349
435.50 0.8599
435.60 0.8838
435.70 0.9066
435.80 0.9271
435.90 0.9465
436.00 0.9649
436.10 0.9815
436.20 0.9975
436.30 1.013
436.40 1.027
436.50 1.04
436.60 1.053
436.70 1.065
436.80 1.076
436.90 1.088
437.00 1.098
437.10 1.109
437.20 1.119
437.30 1.128
437.40 1.138
437.50 1.147
437.60 1.156
437.70 1.164
437.80 1.172
437.90 1.18
438.00 1.187
438.10 1.194
438.20 1.201
438.30 1.207
438.40 1.214
438.50 1.22
438.60 1.225
438.70 1.231
438.80 1.236
438.90 1.241
439.00 1.246
439.10 1.251
439.20 1.255
439.30 1.259
439.40 1.263
439.50 1.267
439.60 1.271
439.70 1.274
439.80 1.278
439.90 1.281
440.00 1.284
440.10 1.287
440.20 1.29
440.30 1.293
440.40 1.295
440.50 1.298
440.60 1.3
440.70 1.303
440.80 1.305
440.90 1.307
441.00 1.309
441.10 1.311
441.20 1.313
441.30 1.314
441.40 1.316
441.50 1.318
441.60 1.319
441.70 1.321
441.80 1.322
441.90 1.323
442.00 1.324
442.10 1.325
442.20 1.327
442.30 1.328
442.40 1.329
442.50 1.33
442.60 1.33
442.70 1.331
442.80 1.332
442.90 1.333
443.00 1.333
443.10 1.334
443.20 1.335
443.30 1.335
443.40 1.336
443.50 1.336
443.60 1.337
443.70 1.337
443.80 1.338
443.90 1.338
444.00 1.338
444.10 1.338
444.20 1.339
444.30 1.339
444.40 1.339
444.50 1.339
444.60 1.339
444.70 1.34
444.80 1.34
444.90 1.34
445.00 1.34
445.10 1.34
445.20 1.34
445.30 1.34
445.40 1.34
445.50 1.34
445.60 1.34
445.70 1.34
445.80 1.339
445.90 1.339
446.00 1.339
446.10 1.339
446.20 1.339
446.30 1.339
446.40 1.339
446.50 1.338
446.60 1.338
446.70 1.338
446.80 1.338
446.90 1.337
447.00 1.337
447.10 1.337
447.20 1.336
447.30 1.336
447.40 1.336
447.50 1.335
447.60 1.335
447.70 1.335
447.80 1.334
447.90 1.334
448.00 1.334
448.10 1.333
448.20 1.333
448.30 1.332
448.40 1.332
448.50 1.332
448.60 1.331
448.70 1.331
448.80 1.33
448.90 1.33
449.00 1.329
449.10 1.329
449.20 1.329
449.30 1.328
449.40 1.328
449.50 1.327
449.60 1.327
449.70 1.326
449.80 1.326
449.90 1.325
450.00 1.324
450.10 1.324
450.20 1.323
450.30 1.323
450.40 1.322
450.50 1.322
450.60 1.321
450.70 1.321
450.80 1.32
450.90 1.32
451.00 1.319
451.10 1.318
451.20 1.318
451.30 1.317
451.40 1.317
451.50 1.316
451.60 1.315
451.70 1.315
451.80 1.314
451.90 1.314
452.00 1.313
452.10 1.312
452.20 1.312
452.30 1.311
452.40 1.311
452.50 1.31
452.60 1.309
452.70 1.309
452.80 1.308
452.90 1.307
453.00 1.307
453.10 1.306
453.20 1.306
453.30 1.305
453.40 1.304
453.50 1.304
453.60 1.303
453.70 1.302
453.80 1.302
453.90 1.301
454.00 1.3
454.10 1.3
454.20 1.299
454.30 1.298
454.40 1.298
454.50 1.297
454.60 1.296
454.70 1.296
454.80 1.295
454.90 1.294
455.00 1.294
455.10 1.293
455.20 1.292
455.30 1.292
455.40 1.291
455.50 1.29
455.60 1.29
455.70 1.289
455.80 1.288
455.90 1.288
456.00 1.287
456.10 1.286
456.20 1.286
456.30 1.285
456.40 1.284
456.50 1.284
456.60 1.283
456.70 1.282
456.80 1.282
456.90 1.281
457.00 1.28
457.10 1.28
457.20 1.279
457.30 1.278
457.40 1.278
457.50 1.277
457.60 1.276
457.70 1.275
457.80 1.275
457.90 1.274
458.00 1.273
458.10 1.273
458.20 1.272
458.30 1.271
458.40 1.271
458.50 1.27
458.60 1.269
458.70 1.268
458.80 1.268
458.90 1.267
459.00 1.266
459.10 1.266
459.20 1.265
459.30 1.264
459.40 1.263
459.50 1.263
459.60 1.262
459.70 1.261
459.80 1.261
459.90 1.26
460.00 1.259
460.10 1.258
460.20 1.258
460.30 1.257
460.40 1.256
460.50 1.255
460.60 1.255
460.70 1.254
460.80 1.253
460.90 1.253
461.00 1.252
461.10 1.251
461.20 1.25
461.30 1.25
461.40 1.249
461.50 1.248
461.60 1.247
461.70 1.247
461.80 1.246
461.90 1.245
462.00 1.244
462.10 1.244
462.20 1.243
462.30 1.242
462.40 1.241
462.50 1.241
462.60 1.24
462.70 1.239
462.80 1.238
462.90 1.238
463.00 1.237
463.10 1.236
463.20 1.235
463.30 1.235
463.40 1.234
463.50 1.233
463.60 1.232
463.70 1.232
463.80 1.231
463.90 1.23
464.00 1.229
464.10 1.229
464.20 1.228
464.30 1.227
464.40 1.226
464.50 1.225
464.60 1.225
464.70 1.224
464.80 1.223
464.90 1.222
465.00 1.222
465.10 1.221
465.20 1.22
465.30 1.219
465.40 1.218
465.50 1.218
465.60 1.217
465.70 1.216
465.80 1.215
465.90 1.215
466.00 1.214
466.10 1.213
466.20 1.212
466.30 1.211
466.40 1.211
466.50 1.21
466.60 1.209
466.70 1.208
466.80 1.207
466.90 1.206
467.00 1.206
467.10 1.205
467.20 1.204
467.30 1.203
467.40 1.202
467.50 1.202
467.60 1.201
467.70 1.2
467.80 1.199
467.90 1.198
468.00 1.197
468.10 1.197
468.20 1.196
468.30 1.195
468.40 1.194
468.50 1.193
468.60 1.192
468.70 1.191
468.80 1.19
468.90 1.19
469.00 1.189
469.10 1.188
469.20 1.187
469.30 1.186
469.40 1.185
469.50 1.184
469.60 1.183
469.70 1.182
469.80 1.182
469.90 1.181
470.00 1.18
470.10 1.179
470.20 1.178
470.30 1.177
470.40 1.176
470.50 1.175
470.60 1.174
470.70 1.173
470.80 1.172
470.90 1.171
471.00 1.171
471.10 1.17
471.20 1.169
471.30 1.168
471.40 1.167
471.50 1.166
471.60 1.165
471.70 1.164
471.80 1.163
471.90 1.162
472.00 1.161
472.10 1.16
472.20 1.158
472.30 1.157
472.40 1.156
472.50 1.155
472.60 1.154
472.70 1.153
472.80 1.152
472.90 1.151
473.00 1.15
473.10 1.149
473.20 1.148
473.30 1.146
473.40 1.145
473.50 1.144
473.60 1.143
473.70 1.142
473.80 1.14
473.90 1.139
474.00 1.138
474.10 1.137
474.20 1.135
474.30 1.134
474.40 1.133
474.50 1.131
474.60 1.13
474.70 1.129
474.80 1.127
474.90 1.126
475.00 1.125
475.10 1.123
475.20 1.122
475.30 1.12
475.40 1.119
475.50 1.117
475.60 1.116
475.70 1.114
475.80 1.113
475.90 1.111
476.00 1.11
476.10 1.108
476.20 1.107
476.30 1.105
476.40 1.103
476.50 1.101
476.60 1.1
476.70 1.098
476.80 1.096
476.90 1.094
477.00 1.093
477.10 1.091
477.20 1.089
477.30 1.087
477.40 1.085
477.50 1.083
477.60 1.081
477.70 1.079
477.80 1.076
477.90 1.074
478.00 1.072
478.10 1.07
478.20 1.068
478.30 1.065
478.40 1.063
478.50 1.06
478.60 1.057
478.70 1.055
478.80 1.052
478.90 1.05
479.00 1.047
479.10 1.045
479.20 1.042
479.30 1.038
479.40 1.035
479.50 1.032
479.60 1.029
479.70 1.026
479.80 1.022
479.90 1.019
480.00 1.016
480.10 1.013
480.20 1.009
480.30 1.005
480.40 1.001
480.50 0.9965
480.60 0.9923
480.70 0.9882
480.80 0.984
480.90 0.9799
481.00 0.9758
481.10 0.9716
481.20 0.9665
481.30 0.961
481.40 0.9554
481.50 0.9498
481.60 0.9443
481.70 0.9387
481.80 0.9332
481.90 0.9277
482.00 0.9221
482.10 0.9166
482.20 0.9096
482.30 0.902
482.40 0.8943
482.50 0.8867
482.60 0.8791
482.70 0.8715
482.80 0.8639
482.90 0.8563
483.00 0.8487
483.10 0.8411
483.20 0.8313
483.30 0.8205
483.40 0.8098
483.50 0.799
483.60 0.7883
483.70 0.7776
483.80 0.7668
483.90 0.7561
484.00 0.7454
484.10 0.7347
484.20 0.7222
484.30 0.7088
484.40 0.6955
484.50 0.6821
484.60 0.6688
484.70 0.6545
484.80 0.6399
484.90 0.6252
485.00 0.6106
485.10 0.5959
485.20 0.5806
485.30 0.565
485.40 0.5486
485.50 0.5318
485.60 0.5136
485.70 0.4949
485.80 0.4737
485.90 0.4514
486.00 0.4226
486.10 0.3266
486.20 0.3806
486.30 0.4339
486.40 0.4581
486.50 0.4803
486.60 0.4999
486.70 0.5183
486.80 0.5353
486.90 0.5517
487.00 0.5672
487.10 0.5823
487.20 0.5967
487.30 0.6107
487.40 0.6248
487.50 0.6388
487.60 0.6528
487.70 0.6659
487.80 0.6785
487.90 0.691
488.00 0.7036
488.10 0.7162
488.20 0.7269
488.30 0.7367
488.40 0.7465
488.50 0.7563
488.60 0.766
488.70 0.7758
488.80 0.7856
488.90 0.7953
489.00 0.8051
489.10 0.8148
489.20 0.8224
489.30 0.8289
489.40 0.8354
489.50 0.842
489.60 0.8485
489.70 0.855
489.80 0.8615
489.90 0.868
490.00 0.8745
490.10 0.8809
490.20 0.886
490.30 0.8903
490.40 0.8947
490.50 0.899
490.60 0.9034
490.70 0.9077
490.80 0.9121
490.90 0.9164
491.00 0.9207
491.10 0.9251
491.20 0.9284
491.30 0.9313
491.40 0.9342
491.50 0.9371
491.60 0.94
491.70 0.9429
491.80 0.9458
491.90 0.9487
492.00 0.9515
492.10 0.9544
492.20 0.9566
492.30 0.9586
492.40 0.9605
492.50 0.9624
492.60 0.9644
492.70 0.9663
492.80 0.9682
492.90 0.9701
493.00 0.9721
493.10 0.974
493.20 0.9755
493.30 0.9767
493.40 0.978
493.50 0.9793
493.60 0.9806
493.70 0.9819
493.80 0.9831
493.90 0.9844
494.00 0.9857
494.10 0.987
494.20 0.9879
494.30 0.9887
494.40 0.9895
494.50 0.9903
494.60 0.9911
494.70 0.9918
494.80 0.9926
494.90 0.9934
495.00 0.9942
495.10 0.995
495.20 0.9955
495.30 0.996
495.40 0.9965
495.50 0.9969
495.60 0.9974
495.70 0.9978
495.80 0.9983
495.90 0.9987
496.00 0.9992
496.10 0.9996
496.20 0.9999
496.30 1
496.40 1
496.50 1.001
496.60 1.001
496.70 1.001
496.80 1.001
496.90 1.001
497.00 1.002
497.10 1.002
497.20 1.002
497.30 1.002
497.40 1.002
497.50 1.002
497.60 1.002
497.70 1.002
497.80 1.002
497.90 1.002
498.00 1.002
498.10 1.002
498.20 1.002
498.30 1.002
498.40 1.002
498.50 1.002
498.60 1.002
498.70 1.002
498.80 1.002
498.90 1.002
499.00 1.002
499.10 1.002
499.20 1.001
499.30 1.001
499.40 1.001
499.50 1.001
499.60 1.001
499.70 1.001
499.80 1
499.90 1
500.00 1
500.10 0.9998
500.20 0.9996
500.30 0.9993
500.40 0.9991
500.50 0.9988
500.60 0.9986
500.70 0.9983
500.80 0.9981
500.90 0.9978
501.00 0.9976
501.10 0.9973
501.20 0.997
501.30 0.9967
501.40 0.9964
501.50 0.9961
501.60 0.9958
501.70 0.9955
501.80 0.9952
501.90 0.9949
502.00 0.9946
502.10 0.9943
502.20 0.9939
502.30 0.9936
502.40 0.9932
502.50 0.9929
502.60 0.9925
502.70 0.9922
502.80 0.9918
502.90 0.9915
503.00 0.9912
503.10 0.9908
503.20 0.9904
503.30 0.9901
503.40 0.9897
503.50 0.9893
503.60 0.9889
503.70 0.9885
503.80 0.9882
503.90 0.9878
504.00 0.9874
504.10 0.987
504.20 0.9866
504.30 0.9862
504.40 0.9858
504.50 0.9854
504.60 0.985
504.70 0.9846
504.80 0.9842
504.90 0.9838
505.00 0.9834
505.10 0.983
505.20 0.9826
505.30 0.9822
505.40 0.9817
505.50 0.9813
505.60 0.9809
505.70 0.9805
505.80 0.9801
505.90 0.9796
506.00 0.9792
506.10 0.9788
506.20 0.9784
506.30 0.9779
506.40 0.9775
506.50 0.9771
506.60 0.9766
506.70 0.9762
506.80 0.9757
506.90 0.9753
507.00 0.9749
507.10 0.9744
507.20 0.974
507.30 0.9735
507.40 0.9731
507.50 0.9726
507.60 0.9722
507.70 0.9718
507.80 0.9713
507.90 0.9709
508.00 0.9704
508.10 0.97
508.20 0.9695
508.30 0.969
508.40 0.9686
508.50 0.9681
508.60 0.9677
508.70 0.9672
508.80 0.9668
508.90 0.9663
509.00 0.9659
509.10 0.9654
509.20 0.9649
509.30 0.9645
509.40 0.964
509.50 0.9636
509.60 0.9631
509.70 0.9626
509.80 0.9622
509.90 0.9617
510.00 0.9612
510.10 0.9608
510.20 0.9603
510.30 0.9598
510.40 0.9594
510.50 0.9589
510.60 0.9584
510.70 0.958
510.80 0.9575
510.90 0.957
511.00 0.9566
511.10 0.9561
511.20 0.9556
511.30 0.9552
511.40 0.9547
511.50 0.9542
511.60 0.9537
511.70 0.9533
511.80 0.9528
511.90 0.9523
512.00 0.9519
512.10 0.9514
512.20 0.9509
512.30 0.9504
512.40 0.95
512.50 0.9495
512.60 0.949
512.70 0.9486
512.80 0.9481
512.90 0.9476
513.00 0.9471
513.10 0.9467
513.20 0.9462
513.30 0.9457
513.40 0.9452
513.50 0.9448
513.60 0.9443
513.70 0.9438
513.80 0.9433
513.90 0.9429
514.00 0.9424
514.10 0.9419
514.20 0.9414
514.30 0.941
514.40 0.9405
514.50 0.94
514.60 0.9395
514.70 0.9391
514.80 0.9386
514.90 0.9381
515.00 0.9376
515.10 0.9372
515.20 0.9367
515.30 0.9362
515.40 0.9357
515.50 0.9353
515.60 0.9348
515.70 0.9343
515.80 0.9338
515.90 0.9334
516.00 0.9329
516.10 0.9324
516.20 0.9319
516.30 0.9315
516.40 0.931
516.50 0.9305
516.60 0.93
516.70 0.9296
516.80 0.9291
516.90 0.9286
517.00 0.9281
517.10 0.9277
517.20 0.9272
517.30 0.9267
517.40 0.9262
517.50 0.9258
517.60 0.9253
517.70 0.9248
517.80 0.9243
517.90 0.9239
518.00 0.9234
518.10 0.9229
518.20 0.9225
518.30 0.922
518.40 0.9215
518.50 0.921
518.60 0.9206
518.70 0.9201
518.80 0.9196
518.90 0.9191
519.00 0.9187
519.10 0.9182
519.20 0.9177
519.30 0.9173
519.40 0.9168
519.50 0.9163
519.60 0.9158
519.70 0.9154
519.80 0.9149
519.90 0.9144
520.00 0.914
520.10 0.9135
520.20 0.913
520.30 0.9125
520.40 0.9121
520.50 0.9116
520.60 0.9111
520.70 0.9107
520.80 0.9102
520.90 0.9097
521.00 0.9092
521.10 0.9088
521.20 0.9083
521.30 0.9078
521.40 0.9074
521.50 0.9069
521.60 0.9064
521.70 0.906
521.80 0.9055
521.90 0.905
522.00 0.9046
522.10 0.9041
522.20 0.9036
522.30 0.9032
522.40 0.9027
522.50 0.9022
522.60 0.9018
522.70 0.9013
522.80 0.9008
522.90 0.9003
523.00 0.8999
523.10 0.8994
523.20 0.8989
523.30 0.8985
523.40 0.898
523.50 0.8976
523.60 0.8971
523.70 0.8966
523.80 0.8962
523.90 0.8957
524.00 0.8952
524.10 0.8948
524.20 0.8943
524.30 0.8938
524.40 0.8934
524.50 0.8929
524.60 0.8924
524.70 0.892
524.80 0.8915
524.90 0.8911
525.00 0.8906
525.10 0.8901
525.20 0.8897
525.30 0.8892
525.40 0.8888
525.50 0.8883
525.60 0.8878
525.70 0.8874
525.80 0.8869
525.90 0.8864
526.00 0.886
526.10 0.8855
526.20 0.8851
526.30 0.8846
526.40 0.8841
526.50 0.8837
526.60 0.8832
526.70 0.8828
526.80 0.8823
526.90 0.8818
527.00 0.8814
527.10 0.8809
527.20 0.8805
527.30 0.88
527.40 0.8796
527.50 0.8791
527.60 0.8786
527.70 0.8782
527.80 0.8777
527.90 0.8773
528.00 0.8768
528.10 0.8764
528.20 0.8759
528.30 0.8754
528.40 0.875
528.50 0.8745
528.60 0.8741
528.70 0.8736
528.80 0.8732
528.90 0.8727
529.00 0.8723
529.10 0.8718
529.20 0.8714
529.30 0.8709
529.40 0.8705
529.50 0.87
529.60 0.8696
529.70 0.8691
529.80 0.8686
529.90 0.8682
530.00 0.8677
530.10 0.8673
530.20 0.8668
530.30 0.8664
530.40 0.8659
530.50 0.8655
530.60 0.865
530.70 0.8646
530.80 0.8641
530.90 0.8637
531.00 0.8632
531.10 0.8628
531.20 0.8623
531.30 0.8619
531.40 0.8614
531.50 0.861
531.60 0.8605
531.70 0.8601
531.80 0.8597
531.90 0.8592
532.00 0.8588
532.10 0.8583
532.20 0.8579
532.30 0.8574
532.40 0.857
532.50 0.8565
532.60 0.8561
532.70 0.8556
532.80 0.8552
532.90 0.8548
533.00 0.8543
533.10 0.8539
533.20 0.8534
533.30 0.853
533.40 0.8525
533.50 0.8521
533.60 0.8517
533.70 0.8512
533.80 0.8508
533.90 0.8503
534.00 0.8499
534.10 0.8494
534.20 0.849
534.30 0.8486
534.40 0.8481
534.50 0.8477
534.60 0.8472
534.70 0.8468
534.80 0.8464
534.90 0.8459
535.00 0.8455
535.10 0.845
535.20 0.8446
535.30 0.8442
535.40 0.8437
535.50 0.8433
535.60 0.8429
535.70 0.8424
535.80 0.842
535.90 0.8415
536.00 0.8411
536.10 0.8407
536.20 0.8402
536.30 0.8398
536.40 0.8394
536.50 0.8389
536.60 0.8385
536.70 0.8381
536.80 0.8376
536.90 0.8372
537.00 0.8367
537.10 0.8363
537.20 0.8359
537.30 0.8354
537.40 0.835
537.50 0.8346
537.60 0.8341
537.70 0.8337
537.80 0.8333
537.90 0.8329
538.00 0.8324
538.10 0.832
538.20 0.8316
538.30 0.8311
538.40 0.8307
538.50 0.8303
538.60 0.8298
538.70 0.8294
538.80 0.829
538.90 0.8285
539.00 0.8281
539.10 0.8277
539.20 0.8273
539.30 0.8268
539.40 0.8264
539.50 0.826
539.60 0.8255
539.70 0.8251
539.80 0.8247
539.90 0.8243
540.00 0.8238
540.10 0.8234
540.20 0.823
540.30 0.8226
540.40 0.8221
540.50 0.8217
540.60 0.8213
540.70 0.8209
540.80 0.8204
540.90 0.82
541.00 0.8196
541.10 0.8192
541.20 0.8187
541.30 0.8183
541.40 0.8179
541.50 0.8175
541.60 0.817
541.70 0.8166
541.80 0.8162
541.90 0.8158
542.00 0.8154
542.10 0.8149
542.20 0.8145
542.30 0.8141
542.40 0.8137
542.50 0.8132
542.60 0.8128
542.70 0.8124
542.80 0.812
542.90 0.8116
543.00 0.8112
543.10 0.8107
543.20 0.8103
543.30 0.8099
543.40 0.8095
543.50 0.8091
543.60 0.8086
543.70 0.8082
543.80 0.8078
543.90 0.8074
544.00 0.807
544.10 0.8066
544.20 0.8061
544.30 0.8057
544.40 0.8053
544.50 0.8049
544.60 0.8045
544.70 0.8041
544.80 0.8036
544.90 0.8032
545.00 0.8028
545.10 0.8024
545.20 0.802
545.30 0.8016
545.40 0.8012
545.50 0.8007
545.60 0.8003
545.70 0.7999
545.80 0.7995
545.90 0.7991
546.00 0.7987
546.10 0.7983
546.20 0.7979
546.30 0.7975
546.40 0.7971
546.50 0.7967
546.60 0.7963
546.70 0.796
546.80 0.7956
546.90 0.7952
547.00 0.7948
547.10 0.7944
547.20 0.794
547.30 0.7936
547.40 0.7932
547.50 0.7928
547.60 0.7924
547.70 0.792
547.80 0.7916
547.90 0.7912
548.00 0.7908
548.10 0.7904
548.20 0.79
548.30 0.7895
548.40 0.7891
548.50 0.7887
548.60 0.7883
548.70 0.7879
548.80 0.7875
548.90 0.7871
549.00 0.7867
549.10 0.7863
549.20 0.7859
549.30 0.7855
549.40 0.7851
549.50 0.7847
549.60 0.7843
549.70 0.7839
549.80 0.7835
549.90 0.7831
550.00 0.7826
550.10 0.7822
550.20 0.7818
550.30 0.7814
550.40 0.781
550.50 0.7806
550.60 0.7802
550.70 0.7798
550.80 0.7794
550.90 0.779
551.00 0.7786
551.10 0.7782
551.20 0.7778
551.30 0.7774
551.40 0.777
551.50 0.7766
551.60 0.7762
551.70 0.7758
551.80 0.7754
551.90 0.775
552.00 0.7746
552.10 0.7742
552.20 0.7738
552.30 0.7734
552.40 0.773
552.50 0.7726
552.60 0.7723
552.70 0.7719
552.80 0.7715
552.90 0.7711
553.00 0.7707
553.10 0.7703
553.20 0.7699
553.30 0.7695
553.40 0.7691
553.50 0.7687
553.60 0.7683
553.70 0.7679
553.80 0.7675
553.90 0.7671
554.00 0.7667
554.10 0.7663
554.20 0.7659
554.30 0.7655
554.40 0.7652
554.50 0.7648
554.60 0.7644
554.70 0.764
554.80 0.7636
554.90 0.7632
555.00 0.7628
555.10 0.7624
555.20 0.762
555.30 0.7616
555.40 0.7612
555.50 0.7609
555.60 0.7605
555.70 0.7601
555.80 0.7597
555.90 0.7593
556.00 0.7589
556.10 0.7585
556.20 0.7581
556.30 0.7577
556.40 0.7574
556.50 0.757
556.60 0.7566
556.70 0.7562
556.80 0.7558
556.90 0.7554
557.00 0.755
557.10 0.7546
557.20 0.7543
557.30 0.7539
557.40 0.7535
557.50 0.7531
557.60 0.7527
557.70 0.7523
557.80 0.752
557.90 0.7516
558.00 0.7512
558.10 0.7508
558.20 0.7504
558.30 0.75
558.40 0.7497
558.50 0.7493
558.60 0.7489
558.70 0.7485
558.80 0.7481
558.90 0.7477
559.00 0.7474
559.10 0.747
559.20 0.7466
559.30 0.7462
559.40 0.7458
559.50 0.7455
559.60 0.7451
559.70 0.7447
559.80 0.7443
559.90 0.7439
560.00 0.7436
560.10 0.7432
560.20 0.7428
560.30 0.7424
560.40 0.742
560.50 0.7417
560.60 0.7413
560.70 0.7409
560.80 0.7405
560.90 0.7402
561.00 0.7398
561.10 0.7394
561.20 0.739
561.30 0.7387
561.40 0.7383
561.50 0.7379
561.60 0.7375
561.70 0.7371
561.80 0.7368
561.90 0.7364
562.00 0.736
562.10 0.7356
562.20 0.7353
562.30 0.7349
562.40 0.7345
562.50 0.7341
562.60 0.7338
562.70 0.7334
562.80 0.733
562.90 0.7327
563.00 0.7323
563.10 0.7319
563.20 0.7315
563.30 0.7312
563.40 0.7308
563.50 0.7304
563.60 0.7301
563.70 0.7297
563.80 0.7293
563.90 0.729
564.00 0.7286
564.10 0.7282
564.20 0.7278
564.30 0.7275
564.40 0.7271
564.50 0.7267
564.60 0.7264
564.70 0.726
564.80 0.7256
564.90 0.7253
565.00 0.7249
565.10 0.7245
565.20 0.7242
565.30 0.7238
565.40 0.7234
565.50 0.7231
565.60 0.7227
565.70 0.7223
565.80 0.722
565.90 0.7216
566.00 0.7212
566.10 0.7209
566.20 0.7205
566.30 0.7201
566.40 0.7198
566.50 0.7194
566.60 0.719
566.70 0.7187
566.80 0.7183
566.90 0.7179
567.00 0.7176
567.10 0.7172
567.20 0.7169
567.30 0.7165
567.40 0.7161
567.50 0.7158
567.60 0.7154
567.70 0.715
567.80 0.7147
567.90 0.7143
568.00 0.714
568.10 0.7136
568.20 0.7132
568.30 0.7129
568.40 0.7125
568.50 0.7122
568.60 0.7118
568.70 0.7114
568.80 0.7111
568.90 0.7107
569.00 0.7104
569.10 0.71
569.20 0.7096
569.30 0.7093
569.40 0.7089
569.50 0.7086
569.60 0.7082
569.70 0.7079
569.80 0.7075
569.90 0.7071
570.00 0.7068
570.10 0.7064
570.20 0.7061
570.30 0.7057
570.40 0.7054
570.50 0.705
570.60 0.7047
570.70 0.7043
570.80 0.7039
570.90 0.7036
571.00 0.7032
571.10 0.7029
571.20 0.7025
571.30 0.7022
571.40 0.7018
571.50 0.7015
571.60 0.7011
571.70 0.7008
571.80 0.7004
571.90 0.7001
572.00 0.6997
572.10 0.6994
572.20 0.699
572.30 0.6986
572.40 0.6983
572.50 0.6979
572.60 0.6976
572.70 0.6972
572.80 0.6969
572.90 0.6965
573.00 0.6962
573.10 0.6958
573.20 0.6955
573.30 0.6951
573.40 0.6948
573.50 0.6944
573.60 0.6941
573.70 0.6937
573.80 0.6934
573.90 0.6931
574.00 0.6927
574.10 0.6924
574.20 0.692
574.30 0.6917
574.40 0.6913
574.50 0.691
574.60 0.6906
574.70 0.6903
574.80 0.6899
574.90 0.6896
575.00 0.6892
575.10 0.6889
575.20 0.6885
575.30 0.6882
575.40 0.6878
575.50 0.6875
575.60 0.6872
575.70 0.6868
575.80 0.6865
575.90 0.6861
576.00 0.6858
576.10 0.6854
576.20 0.6851
576.30 0.6848
576.40 0.6844
576.50 0.6841
576.60 0.6837
576.70 0.6834
576.80 0.683
576.90 0.6827
577.00 0.6824
577.10 0.682
577.20 0.6817
577.30 0.6813
577.40 0.681
577.50 0.6807
577.60 0.6803
577.70 0.68
577.80 0.6796
577.90 0.6793
578.00 0.679
578.10 0.6786
578.20 0.6783
578.30 0.6779
578.40 0.6776
578.50 0.6773
578.60 0.6769
578.70 0.6766
578.80 0.6762
578.90 0.6759
579.00 0.6756
579.10 0.6752
579.20 0.6749
579.30 0.6746
579.40 0.6742
579.50 0.6739
579.60 0.6736
579.70 0.6732
579.80 0.6729
579.90 0.6725
580.00 0.6722
580.10 0.6719
580.20 0.6715
580.30 0.6712
580.40 0.6709
580.50 0.6705
580.60 0.6702
580.70 0.6699
580.80 0.6695
580.90 0.6692
581.00 0.6689
581.10 0.6685
581.20 0.6682
581.30 0.6679
581.40 0.6675
581.50 0.6672
581.60 0.6669
581.70 0.6665
581.80 0.6662
581.90 0.6659
582.00 0.6655
582.10 0.6652
582.20 0.6649
582.30 0.6645
582.40 0.6642
582.50 0.6639
582.60 0.6635
582.70 0.6632
582.80 0.6629
582.90 0.6626
583.00 0.6622
583.10 0.6619
583.20 0.6616
583.30 0.6612
583.40 0.6609
583.50 0.6606
583.60 0.6603
583.70 0.6599
583.80 0.6596
583.90 0.6593
584.00 0.6589
584.10 0.6586
584.20 0.6583
584.30 0.658
584.40 0.6576
584.50 0.6573
584.60 0.657
584.70 0.6567
584.80 0.6563
584.90 0.656
585.00 0.6557
585.10 0.6554
585.20 0.655
585.30 0.6547
585.40 0.6544
585.50 0.6541
585.60 0.6537
585.70 0.6534
585.80 0.6531
585.90 0.6528
586.00 0.6524
586.10 0.6521
586.20 0.6518
586.30 0.6515
586.40 0.6511
586.50 0.6508
586.60 0.6505
586.70 0.6502
586.80 0.6498
586.90 0.6495
587.00 0.6492
587.10 0.6489
587.20 0.6486
587.30 0.6482
587.40 0.6479
587.50 0.6476
587.60 0.6473
587.70 0.647
587.80 0.6466
587.90 0.6463
588.00 0.646
588.10 0.6457
588.20 0.6454
588.30 0.645
588.40 0.6447
588.50 0.6444
588.60 0.6441
588.70 0.6438
588.80 0.6434
588.90 0.6431
589.00 0.6428
589.10 0.6425
589.20 0.6422
589.30 0.6419
589.40 0.6415
589.50 0.6412
589.60 0.6409
589.70 0.6406
589.80 0.6403
589.90 0.64
590.00 0.6396
590.10 0.6393
590.20 0.639
590.30 0.6387
590.40 0.6384
590.50 0.6381
590.60 0.6378
590.70 0.6374
590.80 0.6371
590.90 0.6368
591.00 0.6365
591.10 0.6362
591.20 0.6359
591.30 0.6356
591.40 0.6352
591.50 0.6349
591.60 0.6346
591.70 0.6343
591.80 0.634
591.90 0.6337
592.00 0.6334
592.10 0.633
592.20 0.6327
592.30 0.6324
592.40 0.6321
592.50 0.6318
592.60 0.6315
592.70 0.6312
592.80 0.6309
592.90 0.6306
593.00 0.6302
593.10 0.6299
593.20 0.6296
593.30 0.6293
593.40 0.629
593.50 0.6287
593.60 0.6284
593.70 0.6281
593.80 0.6278
593.90 0.6275
594.00 0.6272
594.10 0.6269
594.20 0.6265
594.30 0.6262
594.40 0.6259
594.50 0.6256
594.60 0.6253
594.70 0.625
594.80 0.6247
594.90 0.6244
595.00 0.6241
595.10 0.6238
595.20 0.6235
595.30 0.6232
595.40 0.6229
595.50 0.6226
595.60 0.6222
595.70 0.6219
595.80 0.6216
595.90 0.6213
596.00 0.621
596.10 0.6207
596.20 0.6204
596.30 0.62
596.40 0.6197
596.50 0.6193
596.60 0.6189
596.70 0.6186
596.80 0.6182
596.90 0.6179
597.00 0.6175
597.10 0.6171
597.20 0.6168
597.30 0.6165
597.40 0.6162
597.50 0.6159
597.60 0.6156
597.70 0.6153
597.80 0.615
597.90 0.6147
598.00 0.6144
598.10 0.6141
598.20 0.6138
598.30 0.6135
598.40 0.6132
598.50 0.6129
598.60 0.6126
598.70 0.6123
598.80 0.612
598.90 0.6117
599.00 0.6114
599.10 0.6111
599.20 0.6108
599.30 0.6105
599.40 0.6102
599.50 0.6099
599.60 0.6096
599.70 0.6093
599.80 0.609
599.90 0.6087
600.00 0.6084
600.10 0.6081
600.20 0.6078
600.30 0.6075
600.40 0.6072
600.50 0.6069
600.60 0.6066
600.70 0.6063
600.80 0.606
600.90 0.6057
601.00 0.6054
601.10 0.6051
601.20 0.6048
601.30 0.6045
601.40 0.6042
601.50 0.6039
601.60 0.6036
601.70 0.6033
601.80 0.603
601.90 0.6027
602.00 0.6024
602.10 0.6021
602.20 0.6018
602.30 0.6015
602.40 0.6012
602.50 0.6009
602.60 0.6006
602.70 0.6003
602.80 0.6
602.90 0.5997
603.00 0.5994
603.10 0.5992
603.20 0.5989
603.30 0.5986
603.40 0.5983
603.50 0.598
603.60 0.5977
603.70 0.5974
603.80 0.5971
603.90 0.5968
604.00 0.5965
604.10 0.5962
604.20 0.5959
604.30 0.5956
604.40 0.5953
604.50 0.595
604.60 0.5948
604.70 0.5945
604.80 0.5942
604.90 0.5939
605.00 0.5936
605.10 0.5933
605.20 0.593
605.30 0.5927
605.40 0.5924
605.50 0.5921
605.60 0.5918
605.70 0.5915
605.80 0.5913
605.90 0.591
606.00 0.5907
606.10 0.5904
606.20 0.5901
606.30 0.5898
606.40 0.5895
606.50 0.5892
606.60 0.5889
606.70 0.5887
606.80 0.5884
606.90 0.5881
607.00 0.5878
607.10 0.5875
607.20 0.5872
607.30 0.5869
607.40 0.5866
607.50 0.5863
607.60 0.5861
607.70 0.5858
607.80 0.5855
607.90 0.5852
608.00 0.5849
608.10 0.5846
608.20 0.5843
608.30 0.584
608.40 0.5838
608.50 0.5835
608.60 0.5832
608.70 0.5829
608.80 0.5826
608.90 0.5823
609.00 0.582
609.10 0.5818
609.20 0.5815
609.30 0.5812
609.40 0.5809
609.50 0.5806
609.60 0.5803
609.70 0.5801
609.80 0.5798
609.90 0.5795
610.00 0.5792
610.10 0.5789
610.20 0.5786
610.30 0.5783
610.40 0.5781
610.50 0.5778
610.60 0.5775
610.70 0.5772
610.80 0.5769
610.90 0.5766
611.00 0.5764
611.10 0.5761
611.20 0.5758
611.30 0.5755
611.40 0.5752
611.50 0.575
611.60 0.5747
611.70 0.5744
611.80 0.5741
611.90 0.5738
612.00 0.5735
612.10 0.5733
612.20 0.573
612.30 0.5727
612.40 0.5724
612.50 0.5721
612.60 0.5719
612.70 0.5716
612.80 0.5713
612.90 0.571
613.00 0.5707
613.10 0.5705
613.20 0.5702
613.30 0.5699
613.40 0.5696
613.50 0.5693
613.60 0.5691
613.70 0.5688
613.80 0.5685
613.90 0.5682
614.00 0.5679
614.10 0.5677
614.20 0.5674
614.30 0.5671
614.40 0.5668
614.50 0.5666
614.60 0.5663
614.70 0.566
614.80 0.5657
614.90 0.5654
615.00 0.5652
615.10 0.5649
615.20 0.5646
615.30 0.5643
615.40 0.5641
615.50 0.5638
615.60 0.5635
615.70 0.5632
615.80 0.5629
615.90 0.5627
616.00 0.5624
616.10 0.5621
616.20 0.5618
616.30 0.5616
616.40 0.5613
616.50 0.561
616.60 0.5607
616.70 0.5605
616.80 0.5602
616.90 0.5599
617.00 0.5596
617.10 0.5594
617.20 0.5591
617.30 0.5588
617.40 0.5585
617.50 0.5582
617.60 0.558
617.70 0.5577
617.80 0.5574
617.90 0.5571
618.00 0.5569
618.10 0.5566
618.20 0.5563
618.30 0.556
618.40 0.5558
618.50 0.5555
618.60 0.5552
618.70 0.555
618.80 0.5547
618.90 0.5544
619.00 0.5541
619.10 0.5539
619.20 0.5536
619.30 0.5533
619.40 0.553
619.50 0.5528
619.60 0.5525
619.70 0.5522
619.80 0.5519
619.90 0.5517
620.00 0.5514
620.10 0.5511
620.20 0.5509
620.30 0.5506
620.40 0.5503
620.50 0.55
620.60 0.5498
620.70 0.5495
620.80 0.5492
620.90 0.549
621.00 0.5487
621.10 0.5484
621.20 0.5481
621.30 0.5479
621.40 0.5476
621.50 0.5473
621.60 0.547
621.70 0.5468
621.80 0.5465
621.90 0.5462
622.00 0.546
622.10 0.5457
622.20 0.5454
622.30 0.5451
622.40 0.5449
622.50 0.5446
622.60 0.5443
622.70 0.5441
622.80 0.5438
622.90 0.5435
623.00 0.5432
623.10 0.543
623.20 0.5427
623.30 0.5424
623.40 0.5422
623.50 0.5419
623.60 0.5416
623.70 0.5413
623.80 0.5411
623.90 0.5408
624.00 0.5405
624.10 0.5403
624.20 0.54
624.30 0.5397
624.40 0.5395
624.50 0.5392
624.60 0.5389
624.70 0.5386
624.80 0.5384
624.90 0.5381
625.00 0.5378
625.10 0.5376
625.20 0.5373
625.30 0.537
625.40 0.5368
625.50 0.5365
625.60 0.5362
625.70 0.5359
625.80 0.5357
625.90 0.5354
626.00 0.5351
626.10 0.5349
626.20 0.5346
626.30 0.5343
626.40 0.5341
626.50 0.5338
626.60 0.5335
626.70 0.5332
626.80 0.533
626.90 0.5327
627.00 0.5324
627.10 0.5322
627.20 0.5319
627.30 0.5316
627.40 0.5314
627.50 0.5311
627.60 0.5308
627.70 0.5305
627.80 0.5303
627.90 0.53
628.00 0.5297
628.10 0.5295
628.20 0.5292
628.30 0.5289
628.40 0.5287
628.50 0.5284
628.60 0.5281
628.70 0.5278
628.80 0.5276
628.90 0.5273
629.00 0.527
629.10 0.5268
629.20 0.5265
629.30 0.5262
629.40 0.5259
629.50 0.5257
629.60 0.5254
629.70 0.5251
629.80 0.5249
629.90 0.5246
630.00 0.5243
630.10 0.524
630.20 0.5238
630.30 0.5235
630.40 0.5232
630.50 0.523
630.60 0.5227
630.70 0.5224
630.80 0.5221
630.90 0.5219
631.00 0.5216
631.10 0.5213
631.20 0.521
631.30 0.5208
631.40 0.5205
631.50 0.5202
631.60 0.5199
631.70 0.5197
631.80 0.5194
631.90 0.5191
632.00 0.5188
632.10 0.5186
632.20 0.5183
632.30 0.518
632.40 0.5177
632.50 0.5175
632.60 0.5172
632.70 0.5169
632.80 0.5166
632.90 0.5164
633.00 0.5161
633.10 0.5158
633.20 0.5155
633.30 0.5153
633.40 0.515
633.50 0.5147
633.60 0.5144
633.70 0.5141
633.80 0.5138
633.90 0.5136
634.00 0.5133
634.10 0.513
634.20 0.5127
634.30 0.5124
634.40 0.5122
634.50 0.5119
634.60 0.5116
634.70 0.5113
634.80 0.511
634.90 0.5107
635.00 0.5105
635.10 0.5102
635.20 0.5099
635.30 0.5096
635.40 0.5093
635.50 0.509
635.60 0.5087
635.70 0.5084
635.80 0.5081
635.90 0.5079
636.00 0.5076
636.10 0.5073
636.20 0.507
636.30 0.5067
636.40 0.5064
636.50 0.5061
636.60 0.5058
636.70 0.5055
636.80 0.5052
636.90 0.5049
637.00 0.5046
637.10 0.5043
637.20 0.504
637.30 0.5037
637.40 0.5034
637.50 0.5031
637.60 0.5028
637.70 0.5025
637.80 0.5022
637.90 0.5019
638.00 0.5016
638.10 0.5013
638.20 0.501
638.30 0.5007
638.40 0.5003
638.50 0.5
638.60 0.4997
638.70 0.4994
638.80 0.4991
638.90 0.4988
639.00 0.4985
639.10 0.4981
639.20 0.4978
639.30 0.4975
639.40 0.4972
639.50 0.4968
639.60 0.4965
639.70 0.4962
639.80 0.4959
639.90 0.4955
640.00 0.4952
640.10 0.4949
640.20 0.4945
640.30 0.4942
640.40 0.4939
640.50 0.4935
640.60 0.4932
640.70 0.4928
640.80 0.4925
640.90 0.4921
641.00 0.4918
641.10 0.4914
641.20 0.4911
641.30 0.4907
641.40 0.4904
641.50 0.49
641.60 0.4896
641.70 0.4893
641.80 0.4889
641.90 0.4885
642.00 0.4881
642.10 0.4878
642.20 0.4874
642.30 0.487
642.40 0.4866
642.50 0.4862
642.60 0.4858
642.70 0.4855
642.80 0.4851
642.90 0.4847
643.00 0.4843
643.10 0.4839
643.20 0.4835
643.30 0.4831
643.40 0.4826
643.50 0.4822
643.60 0.4818
643.70 0.4813
643.80 0.4809
643.90 0.4805
644.00 0.48
644.10 0.4796
644.20 0.4792
644.30 0.4787
644.40 0.4782
644.50 0.4778
644.60 0.4773
644.70 0.4768
644.80 0.4763
644.90 0.4758
645.00 0.4753
645.10 0.4749
645.20 0.4744
645.30 0.4739
645.40 0.4733
645.50 0.4728
645.60 0.4723
645.70 0.4717
645.80 0.4712
645.90 0.4706
646.00 0.4701
646.10 0.4695
646.20 0.469
646.30 0.4684
646.40 0.4678
646.50 0.4672
646.60 0.4665
646.70 0.4659
646.80 0.4653
646.90 0.4647
647.00 0.464
647.10 0.4634
647.20 0.4628
647.30 0.4621
647.40 0.4614
647.50 0.4606
647.60 0.4599
647.70 0.4591
647.80 0.4584
647.90 0.4577
648.00 0.4569
648.10 0.4562
648.20 0.4554
648.30 0.4546
648.40 0.4537
648.50 0.4528
648.60 0.4519
648.70 0.451
648.80 0.4501
648.90 0.4492
649.00 0.4483
649.10 0.4474
649.20 0.4465
649.30 0.4455
649.40 0.4444
649.50 0.4433
649.60 0.4421
649.70 0.441
649.80 0.4399
649.90 0.4388
650.00 0.4376
650.10 0.4365
650.20 0.4354
650.30 0.4342
650.40 0.4328
650.50 0.4313
650.60 0.4299
650.70 0.4284
650.80 0.427
650.90 0.4256
651.00 0.4241
651.10 0.4227
651.20 0.4213
651.30 0.4198
651.40 0.4179
651.50 0.416
651.60 0.4141
651.70 0.4122
651.80 0.4103
651.90 0.4084
652.00 0.4066
652.10 0.4047
652.20 0.4028
652.30 0.4008
652.40 0.3983
652.50 0.3958
652.60 0.3934
652.70 0.3909
652.80 0.3884
652.90 0.3859
653.00 0.3834
653.10 0.381
653.20 0.3785
653.30 0.3759
653.40 0.3726
653.50 0.3694
653.60 0.3662
653.70 0.3629
653.80 0.3597
653.90 0.3565
654.00 0.3533
654.10 0.35
654.20 0.3468
654.30 0.3435
654.40 0.3397
654.50 0.3358
654.60 0.332
654.70 0.3282
654.80 0.3243
654.90 0.3198
655.00 0.3154
655.10 0.311
655.20 0.3065
655.30 0.302
655.40 0.2971
655.50 0.292
655.60 0.2865
655.70 0.2809
655.80 0.2747
655.90 0.2679
656.00 0.2593
656.10 0.25
656.20 0.2204
656.30 0.1886
656.40 0.2389
656.50 0.2536
656.60 0.2621
656.70 0.27
656.80 0.2761
656.90 0.282
657.00 0.2872
657.10 0.2924
657.20 0.2971
657.30 0.3017
657.40 0.3058
657.50 0.31
657.60 0.3142
657.70 0.3183
657.80 0.3224
657.90 0.3259
658.00 0.3294
658.10 0.3329
658.20 0.3364
658.30 0.3398
658.40 0.3427
658.50 0.3456
658.60 0.3484
658.70 0.3513
658.80 0.3542
658.90 0.3571
659.00 0.3599
659.10 0.3628
659.20 0.3657
659.30 0.3684
659.40 0.3705
659.50 0.3726
659.60 0.3747
659.70 0.3767
659.80 0.3788
659.90 0.3809
660.00 0.383
660.10 0.3851
660.20 0.3871
660.30 0.3891
660.40 0.3905
660.50 0.392
660.60 0.3935
660.70 0.3949
660.80 0.3964
660.90 0.3978
661.00 0.3993
661.10 0.4007
661.20 0.4022
661.30 0.4036
661.40 0.4045
661.50 0.4055
661.60 0.4065
661.70 0.4075
661.80 0.4085
661.90 0.4095
662.00 0.4105
662.10 0.4115
662.20 0.4125
662.30 0.4134
662.40 0.4141
662.50 0.4148
662.60 0.4155
662.70 0.4161
662.80 0.4168
662.90 0.4175
663.00 0.4182
663.10 0.4188
663.20 0.4195
663.30 0.4201
663.40 0.4206
663.50 0.421
663.60 0.4215
663.70 0.4219
663.80 0.4224
663.90 0.4228
664.00 0.4233
664.10 0.4237
664.20 0.4242
664.30 0.4246
664.40 0.4249
664.50 0.4252
664.60 0.4255
664.70 0.4258
664.80 0.4261
664.90 0.4263
665.00 0.4266
665.10 0.4269
665.20 0.4272
665.30 0.4275
665.40 0.4276
665.50 0.4278
665.60 0.428
665.70 0.4282
665.80 0.4283
665.90 0.4285
666.00 0.4287
666.10 0.4288
666.20 0.429
666.30 0.4292
666.40 0.4293
666.50 0.4293
666.60 0.4294
666.70 0.4295
666.80 0.4296
666.90 0.4297
667.00 0.4298
667.10 0.4299
667.20 0.43
667.30 0.43
667.40 0.4301
667.50 0.4301
667.60 0.4301
667.70 0.4302
667.80 0.4302
667.90 0.4302
668.00 0.4302
668.10 0.4303
668.20 0.4303
668.30 0.4303
668.40 0.4303
668.50 0.4303
668.60 0.4302
668.70 0.4302
668.80 0.4302
668.90 0.4302
669.00 0.4302
669.10 0.4301
669.20 0.4301
669.30 0.4301
669.40 0.43
669.50 0.43
669.60 0.4299
669.70 0.4299
669.80 0.4298
669.90 0.4298
670.00 0.4297
670.10 0.4297
670.20 0.4296
670.30 0.4295
670.40 0.4295
670.50 0.4294
670.60 0.4293
670.70 0.4292
670.80 0.4291
670.90 0.429
671.00 0.429
671.10 0.4289
671.20 0.4288
671.30 0.4287
671.40 0.4286
671.50 0.4285
671.60 0.4284
671.70 0.4283
671.80 0.4282
671.90 0.4281
672.00 0.428
672.10 0.4279
672.20 0.4278
672.30 0.4277
672.40 0.4276
672.50 0.4275
672.60 0.4273
672.70 0.4272
672.80 0.4271
672.90 0.427
673.00 0.4269
673.10 0.4267
673.20 0.4266
673.30 0.4265
673.40 0.4264
673.50 0.4262
673.60 0.4261
673.70 0.426
673.80 0.4259
673.90 0.4257
674.00 0.4256
674.10 0.4255
674.20 0.4253
674.30 0.4252
674.40 0.4251
674.50 0.4249
674.60 0.4248
674.70 0.4246
674.80 0.4245
674.90 0.4244
675.00 0.4242
675.10 0.4241
675.20 0.4239
675.30 0.4238
675.40 0.4237
675.50 0.4235
675.60 0.4234
675.70 0.4232
675.80 0.4231
675.90 0.4229
676.00 0.4228
676.10 0.4226
676.20 0.4225
676.30 0.4223
676.40 0.4222
676.50 0.422
676.60 0.4219
676.70 0.4217
676.80 0.4216
676.90 0.4214
677.00 0.4213
677.10 0.4211
677.20 0.421
677.30 0.4208
677.40 0.4206
677.50 0.4205
677.60 0.4203
677.70 0.4202
677.80 0.42
677.90 0.4198
678.00 0.4197
678.10 0.4195
678.20 0.4194
678.30 0.4192
678.40 0.4191
678.50 0.4189
678.60 0.4187
678.70 0.4186
678.80 0.4184
678.90 0.4182
679.00 0.4181
679.10 0.4179
679.20 0.4178
679.30 0.4176
679.40 0.4174
679.50 0.4173
679.60 0.4171
679.70 0.4169
679.80 0.4168
679.90 0.4166
680.00 0.4164
680.10 0.4163
680.20 0.4161
680.30 0.4159
680.40 0.4158
680.50 0.4156
680.60 0.4154
680.70 0.4153
680.80 0.4151
680.90 0.4149
681.00 0.4148
681.10 0.4146
681.20 0.4144
681.30 0.4143
681.40 0.4141
681.50 0.4139
681.60 0.4138
681.70 0.4136
681.80 0.4134
681.90 0.4133
682.00 0.4131
682.10 0.4129
682.20 0.4128
682.30 0.4126
682.40 0.4124
682.50 0.4122
682.60 0.4121
682.70 0.4119
682.80 0.4117
682.90 0.4116
683.00 0.4114
683.10 0.4112
683.20 0.4111
683.30 0.4109
683.40 0.4107
683.50 0.4105
683.60 0.4104
683.70 0.4102
683.80 0.41
683.90 0.4099
684.00 0.4097
684.10 0.4095
684.20 0.4094
684.30 0.4092
684.40 0.409
684.50 0.4088
684.60 0.4087
684.70 0.4085
684.80 0.4083
684.90 0.4082
685.00 0.408
685.10 0.4078
685.20 0.4076
685.30 0.4075
685.40 0.4073
685.50 0.4071
685.60 0.407
685.70 0.4068
685.80 0.4066
685.90 0.4064
686.00 0.4063
686.10 0.4061
686.20 0.4059
686.30 0.4058
686.40 0.4056
686.50 0.4054
686.60 0.4052
686.70 0.4051
686.80 0.4049
686.90 0.4047
687.00 0.4045
687.10 0.4044
687.20 0.4042
687.30 0.404
687.40 0.4039
687.50 0.4037
687.60 0.4035
687.70 0.4033
687.80 0.4032
687.90 0.403
688.00 0.4028
688.10 0.4027
688.20 0.4025
688.30 0.4023
688.40 0.4021
688.50 0.402
688.60 0.4018
688.70 0.4016
688.80 0.4015
688.90 0.4013
689.00 0.4011
689.10 0.4009
689.20 0.4008
689.30 0.4006
689.40 0.4004
689.50 0.4002
689.60 0.4001
689.70 0.3999
689.80 0.3997
689.90 0.3996
690.00 0.3994
690.10 0.3992
690.20 0.399
690.30 0.3989
690.40 0.3987
690.50 0.3985
690.60 0.3983
690.70 0.3982
690.80 0.398
690.90 0.3978
691.00 0.3977
691.10 0.3975
691.20 0.3973
691.30 0.3971
691.40 0.397
691.50 0.3968
691.60 0.3966
691.70 0.3965
691.80 0.3963
691.90 0.3961
692.00 0.3959
692.10 0.3958
692.20 0.3956
692.30 0.3954
692.40 0.3953
692.50 0.3951
692.60 0.3949
692.70 0.3947
692.80 0.3946
692.90 0.3944
693.00 0.3942
693.10 0.3941
693.20 0.3939
693.30 0.3937
693.40 0.3935
693.50 0.3934
693.60 0.3932
693.70 0.393
693.80 0.3929
693.90 0.3927
694.00 0.3925
694.10 0.3924
694.20 0.3922
694.30 0.392
694.40 0.3918
694.50 0.3917
694.60 0.3915
694.70 0.3913
694.80 0.3912
694.90 0.391
695.00 0.3908
695.10 0.3907
695.20 0.3905
695.30 0.3903
695.40 0.3902
695.50 0.39
695.60 0.3898
695.70 0.3896
695.80 0.3895
695.90 0.3893
696.00 0.3891
696.10 0.389
696.20 0.3888
696.30 0.3886
696.40 0.3885
696.50 0.3883
696.60 0.3881
696.70 0.388
696.80 0.3878
696.90 0.3876
697.00 0.3875
697.10 0.3873
697.20 0.3871
697.30 0.387
697.40 0.3868
697.50 0.3866
697.60 0.3865
697.70 0.3863
697.80 0.3861
697.90 0.386
698.00 0.3858
698.10 0.3856
698.20 0.3855
698.30 0.3853
698.40 0.3851
698.50 0.385
698.60 0.3848
698.70 0.3846
698.80 0.3845
698.90 0.3843
699.00 0.3841
699.10 0.384
699.20 0.3838
699.30 0.3836
699.40 0.3835
699.50 0.3833
699.60 0.3831
699.70 0.383
699.80 0.3828
699.90 0.3826
700.00 0.3825
700.10 0.3823
700.20 0.3822
700.30 0.3821
700.40 0.3819
700.50 0.3818
700.60 0.3817
700.70 0.3815
700.80 0.3814
700.90 0.3813
701.00 0.3811
701.10 0.381
701.20 0.3809
701.30 0.3807
701.40 0.3806
701.50 0.3804
701.60 0.3803
701.70 0.3802
701.80 0.38
701.90 0.3799
702.00 0.3798
702.10 0.3796
702.20 0.3795
702.30 0.3794
702.40 0.3792
702.50 0.3791
702.60 0.379
702.70 0.3788
702.80 0.3787
702.90 0.3786
703.00 0.3784
703.10 0.3783
703.20 0.3782
703.30 0.378
703.40 0.3779
703.50 0.3778
703.60 0.3776
703.70 0.3775
703.80 0.3774
703.90 0.3772
704.00 0.3771
704.10 0.377
704.20 0.3768
704.30 0.3767
704.40 0.3766
704.50 0.3764
704.60 0.3763
704.70 0.3762
704.80 0.376
704.90 0.3759
705.00 0.3758
705.10 0.3756
705.20 0.3754
705.30 0.3753
705.40 0.3751
705.50 0.3749
705.60 0.3748
705.70 0.3746
705.80 0.3745
705.90 0.3743
706.00 0.3741
706.10 0.374
706.20 0.3738
706.30 0.3736
706.40 0.3735
706.50 0.3733
706.60 0.3732
706.70 0.373
706.80 0.3728
706.90 0.3727
707.00 0.3725
707.10 0.3723
707.20 0.3722
707.30 0.372
707.40 0.3719
707.50 0.3717
707.60 0.3715
707.70 0.3714
707.80 0.3712
707.90 0.3711
708.00 0.3709
708.10 0.3707
708.20 0.3706
708.30 0.3704
708.40 0.3703
708.50 0.3701
708.60 0.3699
708.70 0.3698
708.80 0.3696
708.90 0.3694
709.00 0.3693
709.10 0.3691
709.20 0.369
709.30 0.3688
709.40 0.3686
709.50 0.3685
709.60 0.3683
709.70 0.3682
709.80 0.368
709.90 0.3679
710.00 0.3677
710.10 0.3675
710.20 0.3674
710.30 0.3672
710.40 0.3671
710.50 0.3669
710.60 0.3667
710.70 0.3666
710.80 0.3664
710.90 0.3663
711.00 0.3661
711.10 0.3659
711.20 0.3658
711.30 0.3656
711.40 0.3655
711.50 0.3653
711.60 0.3651
711.70 0.365
711.80 0.3648
711.90 0.3647
712.00 0.3645
712.10 0.3644
712.20 0.3642
712.30 0.364
712.40 0.3639
712.50 0.3637
712.60 0.3636
712.70 0.3634
712.80 0.3633
712.90 0.3631
713.00 0.3629
713.10 0.3628
713.20 0.3626
713.30 0.3625
713.40 0.3623
713.50 0.3622
713.60 0.362
713.70 0.3618
713.80 0.3617
713.90 0.3615
714.00 0.3614
714.10 0.3612
714.20 0.3611
714.30 0.3609
714.40 0.3607
714.50 0.3606
714.60 0.3604
714.70 0.3603
714.80 0.3601
714.90 0.36
715.00 0.3598
715.10 0.3597
715.20 0.3595
715.30 0.3594
715.40 0.3592
715.50 0.359
715.60 0.3589
715.70 0.3587
715.80 0.3586
715.90 0.3584
716.00 0.3583
716.10 0.3581
716.20 0.358
716.30 0.3578
716.40 0.3577
716.50 0.3575
716.60 0.3574
716.70 0.3572
716.80 0.3571
716.90 0.3569
717.00 0.3568
717.10 0.3566
717.20 0.3565
717.30 0.3563
717.40 0.3562
717.50 0.356
717.60 0.3559
717.70 0.3557
717.80 0.3556
717.90 0.3554
718.00 0.3553
718.10 0.3551
718.20 0.355
718.30 0.3548
718.40 0.3547
718.50 0.3545
718.60 0.3543
718.70 0.3542
718.80 0.354
718.90 0.3539
719.00 0.3537
719.10 0.3536
719.20 0.3534
719.30 0.3533
719.40 0.3531
719.50 0.353
719.60 0.3528
719.70 0.3527
719.80 0.3525
719.90 0.3524
720.00 0.3523
720.10 0.3521
720.20 0.3519
720.30 0.3518
720.40 0.3516
720.50 0.3515
720.60 0.3513
720.70 0.3512
720.80 0.351
720.90 0.3509
721.00 0.3507
721.10 0.3506
721.20 0.3504
721.30 0.3503
721.40 0.3501
721.50 0.35
721.60 0.3498
721.70 0.3497
721.80 0.3495
721.90 0.3494
722.00 0.3492
722.10 0.3491
722.20 0.3489
722.30 0.3488
722.40 0.3486
722.50 0.3485
722.60 0.3483
722.70 0.3482
722.80 0.348
722.90 0.3479
723.00 0.3477
723.10 0.3476
723.20 0.3474
723.30 0.3473
723.40 0.3471
723.50 0.347
723.60 0.3468
723.70 0.3467
723.80 0.3465
723.90 0.3464
724.00 0.3462
724.10 0.3461
724.20 0.3459
724.30 0.3458
724.40 0.3456
724.50 0.3455
724.60 0.3453
724.70 0.3452
724.80 0.345
724.90 0.3449
725.00 0.3447
725.10 0.3446
725.20 0.3444
725.30 0.3443
725.40 0.3441
725.50 0.344
725.60 0.3438
725.70 0.3437
725.80 0.3436
725.90 0.3434
726.00 0.3433
726.10 0.3431
726.20 0.343
726.30 0.3428
726.40 0.3427
726.50 0.3425
726.60 0.3424
726.70 0.3422
726.80 0.3421
726.90 0.3419
727.00 0.3418
727.10 0.3416
727.20 0.3415
727.30 0.3413
727.40 0.3412
727.50 0.3411
727.60 0.3409
727.70 0.3408
727.80 0.3406
727.90 0.3405
728.00 0.3403
728.10 0.3402
728.20 0.34
728.30 0.3399
728.40 0.3397
728.50 0.3396
728.60 0.3394
728.70 0.3393
728.80 0.3392
728.90 0.339
729.00 0.3389
729.10 0.3387
729.20 0.3386
729.30 0.3384
729.40 0.3383
729.50 0.3381
729.60 0.338
729.70 0.3378
729.80 0.3377
729.90 0.3376
730.00 0.3374
730.10 0.3373
730.20 0.3371
730.30 0.337
730.40 0.3368
730.50 0.3367
730.60 0.3365
730.70 0.3364
730.80 0.3363
730.90 0.3361
731.00 0.336
731.10 0.3358
731.20 0.3357
731.30 0.3355
731.40 0.3354
731.50 0.3353
731.60 0.3351
731.70 0.335
731.80 0.3348
731.90 0.3347
732.00 0.3345
732.10 0.3344
732.20 0.3343
732.30 0.3341
732.40 0.334
732.50 0.3338
732.60 0.3337
732.70 0.3335
732.80 0.3334
732.90 0.3333
733.00 0.3331
733.10 0.333
733.20 0.3328
733.30 0.3327
733.40 0.3326
733.50 0.3324
733.60 0.3323
733.70 0.3321
733.80 0.332
733.90 0.3318
734.00 0.3317
734.10 0.3316
734.20 0.3314
734.30 0.3313
734.40 0.3311
734.50 0.331
734.60 0.3309
734.70 0.3307
734.80 0.3306
734.90 0.3304
735.00 0.3303
735.10 0.3302
735.20 0.33
735.30 0.3299
735.40 0.3297
735.50 0.3296
735.60 0.3295
735.70 0.3293
735.80 0.3292
735.90 0.329
736.00 0.3289
736.10 0.3288
736.20 0.3286
736.30 0.3285
736.40 0.3283
736.50 0.3282
736.60 0.3281
736.70 0.3279
736.80 0.3278
736.90 0.3276
737.00 0.3275
737.10 0.3274
737.20 0.3272
737.30 0.3271
737.40 0.3269
737.50 0.3268
737.60 0.3267
737.70 0.3265
737.80 0.3264
737.90 0.3262
738.00 0.3261
738.10 0.326
738.20 0.3258
738.30 0.3257
738.40 0.3256
738.50 0.3254
738.60 0.3253
738.70 0.3251
738.80 0.325
738.90 0.3249
739.00 0.3247
739.10 0.3246
739.20 0.3244
739.30 0.3243
739.40 0.3242
739.50 0.324
739.60 0.3239
739.70 0.3238
739.80 0.3236
739.90 0.3235
740.00 0.3233
740.10 0.3232
740.20 0.3231
740.30 0.3229
740.40 0.3228
740.50 0.3227
740.60 0.3225
740.70 0.3224
740.80 0.3223
740.90 0.3221
741.00 0.322
741.10 0.3218
741.20 0.3217
741.30 0.3216
741.40 0.3214
741.50 0.3213
741.60 0.3212
741.70 0.321
741.80 0.3209
741.90 0.3208
742.00 0.3206
742.10 0.3205
742.20 0.3204
742.30 0.3202
742.40 0.3201
742.50 0.3199
742.60 0.3198
742.70 0.3197
742.80 0.3195
742.90 0.3194
743.00 0.3193
743.10 0.3191
743.20 0.319
743.30 0.3189
743.40 0.3187
743.50 0.3186
743.60 0.3185
743.70 0.3183
743.80 0.3182
743.90 0.3181
744.00 0.3179
744.10 0.3178
744.20 0.3177
744.30 0.3175
744.40 0.3174
744.50 0.3173
744.60 0.3171
744.70 0.317
744.80 0.3169
744.90 0.3167
745.00 0.3166
745.10 0.3165
745.20 0.3163
745.30 0.3162
745.40 0.3161
745.50 0.3159
745.60 0.3158
745.70 0.3157
745.80 0.3155
745.90 0.3154
746.00 0.3153
746.10 0.3151
746.20 0.315
746.30 0.3149
746.40 0.3147
746.50 0.3146
746.60 0.3145
746.70 0.3143
746.80 0.3142
746.90 0.3141
747.00 0.3139
747.10 0.3138
747.20 0.3137
747.30 0.3135
747.40 0.3134
747.50 0.3133
747.60 0.3131
747.70 0.313
747.80 0.3129
747.90 0.3127
748.00 0.3126
748.10 0.3125
748.20 0.3123
748.30 0.3122
748.40 0.3121
748.50 0.3119
748.60 0.3118
748.70 0.3117
748.80 0.3116
748.90 0.3114
749.00 0.3113
749.10 0.3112
749.20 0.311
749.30 0.3109
749.40 0.3108
749.50 0.3106
749.60 0.3105
749.70 0.3104
749.80 0.3102
749.90 0.3101
750.00 0.31
750.10 0.3099
750.20 0.3097
750.30 0.3096
750.40 0.3095
750.50 0.3093
750.60 0.3092
750.70 0.3091
750.80 0.3089
750.90 0.3088
751.00 0.3087
751.10 0.3086
751.20 0.3084
751.30 0.3083
751.40 0.3082
751.50 0.308
751.60 0.3079
751.70 0.3078
751.80 0.3077
751.90 0.3075
752.00 0.3074
752.10 0.3073
752.20 0.3071
752.30 0.307
752.40 0.3069
752.50 0.3068
752.60 0.3066
752.70 0.3065
752.80 0.3064
752.90 0.3062
753.00 0.3061
753.10 0.306
753.20 0.3059
753.30 0.3057
753.40 0.3056
753.50 0.3055
753.60 0.3053
753.70 0.3052
753.80 0.3051
753.90 0.305
754.00 0.3048
754.10 0.3047
754.20 0.3046
754.30 0.3045
754.40 0.3043
754.50 0.3042
754.60 0.3041
754.70 0.3039
754.80 0.3038
754.90 0.3037
755.00 0.3036
755.10 0.3034
755.20 0.3033
755.30 0.3032
755.40 0.3031
755.50 0.3029
755.60 0.3028
755.70 0.3027
755.80 0.3026
755.90 0.3024
756.00 0.3023
756.10 0.3022
756.20 0.3021
756.30 0.3019
756.40 0.3018
756.50 0.3017
756.60 0.3015
756.70 0.3014
756.80 0.3013
756.90 0.3012
757.00 0.301
757.10 0.3009
757.20 0.3008
757.30 0.3007
757.40 0.3005
757.50 0.3004
757.60 0.3003
757.70 0.3002
757.80 0.3
757.90 0.2999
758.00 0.2998
758.10 0.2997
758.20 0.2995
758.30 0.2994
758.40 0.2993
758.50 0.2992
758.60 0.299
758.70 0.2989
758.80 0.2988
758.90 0.2987
759.00 0.2985
759.10 0.2984
759.20 0.2983
759.30 0.2982
759.40 0.298
759.50 0.2979
759.60 0.2978
759.70 0.2977
759.80 0.2975
759.90 0.2974
760.00 0.2973
760.10 0.2972
760.20 0.2971
760.30 0.2969
760.40 0.2968
760.50 0.2967
760.60 0.2966
760.70 0.2964
760.80 0.2963
760.90 0.2962
761.00 0.2961
761.10 0.2959
761.20 0.2958
761.30 0.2957
761.40 0.2956
761.50 0.2955
761.60 0.2953
761.70 0.2952
761.80 0.2951
761.90 0.295
762.00 0.2948
762.10 0.2947
762.20 0.2946
762.30 0.2945
762.40 0.2944
762.50 0.2942
762.60 0.2941
762.70 0.294
762.80 0.2939
762.90 0.2937
763.00 0.2936
763.10 0.2935
763.20 0.2934
763.30 0.2933
763.40 0.2931
763.50 0.293
763.60 0.2929
763.70 0.2928
763.80 0.2927
763.90 0.2925
764.00 0.2924
764.10 0.2923
764.20 0.2922
764.30 0.2921
764.40 0.2919
764.50 0.2918
764.60 0.2917
764.70 0.2916
764.80 0.2914
764.90 0.2913
765.00 0.2912
765.10 0.2911
765.20 0.291
765.30 0.2908
765.40 0.2907
765.50 0.2906
765.60 0.2905
765.70 0.2904
765.80 0.2902
765.90 0.2901
766.00 0.29
766.10 0.2899
766.20 0.2898
766.30 0.2896
766.40 0.2895
766.50 0.2894
766.60 0.2893
766.70 0.2892
766.80 0.289
766.90 0.2889
767.00 0.2888
767.10 0.2887
767.20 0.2886
767.30 0.2884
767.40 0.2883
767.50 0.2882
767.60 0.2881
767.70 0.288
767.80 0.2879
767.90 0.2877
768.00 0.2876
768.10 0.2875
768.20 0.2874
768.30 0.2873
768.40 0.2871
768.50 0.287
768.60 0.2869
768.70 0.2868
768.80 0.2867
768.90 0.2865
769.00 0.2864
769.10 0.2863
769.20 0.2862
769.30 0.2861
769.40 0.286
769.50 0.2858
769.60 0.2857
769.70 0.2856
769.80 0.2855
769.90 0.2854
770.00 0.2852
770.10 0.2851
770.20 0.285
770.30 0.2849
770.40 0.2848
770.50 0.2847
770.60 0.2845
770.70 0.2844
770.80 0.2843
770.90 0.2842
771.00 0.2841
771.10 0.284
771.20 0.2838
771.30 0.2837
771.40 0.2836
771.50 0.2835
771.60 0.2834
771.70 0.2833
771.80 0.2831
771.90 0.283
772.00 0.2829
772.10 0.2828
772.20 0.2827
772.30 0.2826
772.40 0.2825
772.50 0.2823
772.60 0.2822
772.70 0.2821
772.80 0.282
772.90 0.2819
773.00 0.2818
773.10 0.2816
773.20 0.2815
773.30 0.2814
773.40 0.2813
773.50 0.2812
773.60 0.2811
773.70 0.281
773.80 0.2808
773.90 0.2807
774.00 0.2806
774.10 0.2805
774.20 0.2804
774.30 0.2803
774.40 0.2801
774.50 0.28
774.60 0.2799
774.70 0.2798
774.80 0.2797
774.90 0.2796
775.00 0.2795
775.10 0.2793
775.20 0.2792
775.30 0.2791
775.40 0.279
775.50 0.2789
775.60 0.2788
775.70 0.2787
775.80 0.2785
775.90 0.2784
776.00 0.2783
776.10 0.2782
776.20 0.2781
776.30 0.278
776.40 0.2779
776.50 0.2777
776.60 0.2776
776.70 0.2775
776.80 0.2774
776.90 0.2773
777.00 0.2772
777.10 0.2771
777.20 0.277
777.30 0.2768
777.40 0.2767
777.50 0.2766
777.60 0.2765
777.70 0.2764
777.80 0.2763
777.90 0.2762
778.00 0.276
778.10 0.2759
778.20 0.2758
778.30 0.2757
778.40 0.2756
778.50 0.2755
778.60 0.2754
778.70 0.2753
778.80 0.2751
778.90 0.275
779.00 0.2749
779.10 0.2748
779.20 0.2747
779.30 0.2746
779.40 0.2745
779.50 0.2744
779.60 0.2742
779.70 0.2741
779.80 0.274
779.90 0.2739
780.00 0.2738
780.10 0.2737
780.20 0.2736
780.30 0.2735
780.40 0.2734
780.50 0.2732
780.60 0.2731
780.70 0.273
780.80 0.2729
780.90 0.2728
781.00 0.2727
781.10 0.2726
781.20 0.2725
781.30 0.2724
781.40 0.2722
781.50 0.2721
781.60 0.272
781.70 0.2719
781.80 0.2718
781.90 0.2717
782.00 0.2716
782.10 0.2715
782.20 0.2714
782.30 0.2712
782.40 0.2711
782.50 0.271
782.60 0.2709
782.70 0.2708
782.80 0.2707
782.90 0.2706
783.00 0.2705
783.10 0.2704
783.20 0.2703
783.30 0.2701
783.40 0.27
783.50 0.2699
783.60 0.2698
783.70 0.2697
783.80 0.2696
783.90 0.2695
784.00 0.2694
784.10 0.2693
784.20 0.2692
784.30 0.2691
784.40 0.2689
784.50 0.2688
784.60 0.2687
784.70 0.2686
784.80 0.2685
784.90 0.2684
785.00 0.2683
785.10 0.2682
785.20 0.2681
785.30 0.268
785.40 0.2679
785.50 0.2677
785.60 0.2676
785.70 0.2675
785.80 0.2674
785.90 0.2673
786.00 0.2672
786.10 0.2671
786.20 0.267
786.30 0.2669
786.40 0.2668
786.50 0.2667
786.60 0.2666
786.70 0.2664
786.80 0.2663
786.90 0.2662
787.00 0.2661
787.10 0.266
787.20 0.2659
787.30 0.2658
787.40 0.2657
787.50 0.2656
787.60 0.2655
787.70 0.2654
787.80 0.2653
787.90 0.2652
788.00 0.265
788.10 0.2649
788.20 0.2648
788.30 0.2647
788.40 0.2646
788.50 0.2645
788.60 0.2644
788.70 0.2643
788.80 0.2642
788.90 0.2641
789.00 0.264
789.10 0.2639
789.20 0.2638
789.30 0.2637
789.40 0.2635
789.50 0.2634
789.60 0.2633
789.70 0.2632
789.80 0.2631
789.90 0.263
790.00 0.2629
790.10 0.2628
790.20 0.2627
790.30 0.2626
790.40 0.2625
790.50 0.2624
790.60 0.2623
790.70 0.2622
790.80 0.2621
790.90 0.262
791.00 0.2618
791.10 0.2617
791.20 0.2616
791.30 0.2615
791.40 0.2614
791.50 0.2613
791.60 0.2612
791.70 0.2611
791.80 0.261
791.90 0.2609
792.00 0.2608
792.10 0.2607
792.20 0.2606
792.30 0.2605
792.40 0.2604
792.50 0.2603
792.60 0.2602
792.70 0.2601
792.80 0.26
792.90 0.2599
793.00 0.2597
793.10 0.2596
793.20 0.2595
793.30 0.2594
793.40 0.2593
793.50 0.2592
793.60 0.2591
793.70 0.259
793.80 0.2589
793.90 0.2588
794.00 0.2587
794.10 0.2586
794.20 0.2585
794.30 0.2584
794.40 0.2583
794.50 0.2582
794.60 0.2581
794.70 0.258
794.80 0.2579
794.90 0.2578
795.00 0.2577
795.10 0.2576
795.20 0.2575
795.30 0.2574
795.40 0.2573
795.50 0.2571
795.60 0.257
795.70 0.2569
795.80 0.2568
795.90 0.2567
796.00 0.2566
796.10 0.2565
796.20 0.2564
796.30 0.2563
796.40 0.2562
796.50 0.2561
796.60 0.256
796.70 0.2559
796.80 0.2558
796.90 0.2557
797.00 0.2556
797.10 0.2555
797.20 0.2554
797.30 0.2553
797.40 0.2552
797.50 0.2551
797.60 0.255
797.70 0.2549
797.80 0.2548
797.90 0.2547
798.00 0.2546
798.10 0.2545
798.20 0.2544
798.30 0.2543
798.40 0.2542
798.50 0.2541
798.60 0.254
798.70 0.2539
798.80 0.2538
798.90 0.2537
799.00 0.2536
799.10 0.2535
799.20 0.2534
799.30 0.2533
799.40 0.2531
799.50 0.253
799.60 0.2529
799.70 0.2528
799.80 0.2527
799.90 0.2526
800.00 0.2525
800.10 0.2524
800.20 0.2523
800.30 0.2522
800.40 0.2521
800.50 0.252
800.60 0.2519
800.70 0.2518
800.80 0.2517
800.90 0.2516
801.00 0.2515
801.10 0.2514
801.20 0.2513
801.30 0.2512
801.40 0.2511
801.50 0.251
801.60 0.2509
801.70 0.2508
801.80 0.2507
801.90 0.2506
802.00 0.2505
802.10 0.2504
802.20 0.2503
802.30 0.2502
802.40 0.2501
802.50 0.25
802.60 0.2499
802.70 0.2498
802.80 0.2497
802.90 0.2496
803.00 0.2495
803.10 0.2494
803.20 0.2493
803.30 0.2492
803.40 0.2491
803.50 0.249
803.60 0.2489
803.70 0.2488
803.80 0.2487
803.90 0.2486
804.00 0.2485
804.10 0.2484
804.20 0.2483
804.30 0.2482
804.40 0.2481
804.50 0.248
804.60 0.248
804.70 0.2479
804.80 0.2478
804.90 0.2477
805.00 0.2476
805.10 0.2475
805.20 0.2474
805.30 0.2473
805.40 0.2472
805.50 0.2471
805.60 0.247
805.70 0.2469
805.80 0.2468
805.90 0.2467
806.00 0.2466
806.10 0.2465
806.20 0.2464
806.30 0.2463
806.40 0.2462
806.50 0.2461
806.60 0.246
806.70 0.2459
806.80 0.2458
806.90 0.2457
807.00 0.2456
807.10 0.2455
807.20 0.2454
807.30 0.2453
807.40 0.2452
807.50 0.2451
807.60 0.245
807.70 0.2449
807.80 0.2448
807.90 0.2447
808.00 0.2446
808.10 0.2445
808.20 0.2444
808.30 0.2443
808.40 0.2442
808.50 0.2441
808.60 0.244
808.70 0.2439
808.80 0.2438
808.90 0.2437
809.00 0.2436
809.10 0.2435
809.20 0.2435
809.30 0.2434
809.40 0.2433
809.50 0.2432
809.60 0.2431
809.70 0.243
809.80 0.2429
809.90 0.2428
810.00 0.2427
810.10 0.2426
810.20 0.2425
810.30 0.2424
810.40 0.2423
810.50 0.2422
810.60 0.2421
810.70 0.242
810.80 0.2419
810.90 0.2418
811.00 0.2417
811.10 0.2416
811.20 0.2415
811.30 0.2414
811.40 0.2413
811.50 0.2412
811.60 0.2411
811.70 0.2411
811.80 0.241
811.90 0.2409
812.00 0.2408
812.10 0.2407
812.20 0.2406
812.30 0.2405
812.40 0.2404
812.50 0.2403
812.60 0.2402
812.70 0.2401
812.80 0.24
812.90 0.2399
813.00 0.2398
813.10 0.2397
813.20 0.2396
813.30 0.2395
813.40 0.2394
813.50 0.2393
813.60 0.2393
813.70 0.2392
813.80 0.2391
813.90 0.239
814.00 0.2389
814.10 0.2388
814.20 0.2387
814.30 0.2386
814.40 0.2385
814.50 0.2384
814.60 0.2383
814.70 0.2382
814.80 0.2381
814.90 0.238
815.00 0.2379
815.10 0.2378
815.20 0.2377
815.30 0.2377
815.40 0.2376
815.50 0.2375
815.60 0.2374
815.70 0.2373
815.80 0.2372
815.90 0.2371
816.00 0.237
816.10 0.2369
816.20 0.2368
816.30 0.2367
816.40 0.2366
816.50 0.2365
816.60 0.2364
816.70 0.2363
816.80 0.2362
816.90 0.2362
817.00 0.2361
817.10 0.236
817.20 0.2359
817.30 0.2358
817.40 0.2357
817.50 0.2356
817.60 0.2355
817.70 0.2354
817.80 0.2353
817.90 0.2352
818.00 0.2351
818.10 0.235
818.20 0.2349
818.30 0.2349
818.40 0.2348
818.50 0.2347
818.60 0.2346
818.70 0.2345
818.80 0.2344
818.90 0.2343
819.00 0.2342
819.10 0.2341
819.20 0.234
819.30 0.2339
819.40 0.2338
819.50 0.2337
819.60 0.2337
819.70 0.2336
819.80 0.2335
819.90 0.2334
820.00 0.2333
820.10 0.2332
820.20 0.2331
820.30 0.233
820.40 0.2329
820.50 0.2328
820.60 0.2327
820.70 0.2327
820.80 0.2326
820.90 0.2325
821.00 0.2324
821.10 0.2323
821.20 0.2322
821.30 0.2321
821.40 0.232
821.50 0.2319
821.60 0.2318
821.70 0.2317
821.80 0.2316
821.90 0.2316
822.00 0.2315
822.10 0.2314
822.20 0.2313
822.30 0.2312
822.40 0.2311
822.50 0.231
822.60 0.2309
822.70 0.2308
822.80 0.2307
822.90 0.2307
823.00 0.2306
823.10 0.2305
823.20 0.2304
823.30 0.2303
823.40 0.2302
823.50 0.2301
823.60 0.23
823.70 0.2299
823.80 0.2298
823.90 0.2298
824.00 0.2297
824.10 0.2296
824.20 0.2295
824.30 0.2294
824.40 0.2293
824.50 0.2292
824.60 0.2291
824.70 0.229
824.80 0.2289
824.90 0.2289
825.00 0.2288
825.10 0.2287
825.20 0.2286
825.30 0.2285
825.40 0.2284
825.50 0.2283
825.60 0.2282
825.70 0.2281
825.80 0.228
825.90 0.228
826.00 0.2279
826.10 0.2278
826.20 0.2277
826.30 0.2276
826.40 0.2275
826.50 0.2274
826.60 0.2273
826.70 0.2272
826.80 0.2272
826.90 0.2271
827.00 0.227
827.10 0.2269
827.20 0.2268
827.30 0.2267
827.40 0.2266
827.50 0.2265
827.60 0.2265
827.70 0.2264
827.80 0.2263
827.90 0.2262
828.00 0.2261
828.10 0.226
828.20 0.2259
828.30 0.2258
828.40 0.2257
828.50 0.2257
828.60 0.2256
828.70 0.2255
828.80 0.2254
828.90 0.2253
829.00 0.2252
829.10 0.2251
829.20 0.225
829.30 0.225
829.40 0.2249
829.50 0.2248
829.60 0.2247
829.70 0.2246
829.80 0.2245
829.90 0.2244
830.00 0.2243
830.10 0.2243
830.20 0.2242
830.30 0.2241
830.40 0.224
830.50 0.2239
830.60 0.2238
830.70 0.2237
830.80 0.2236
830.90 0.2236
831.00 0.2235
831.10 0.2234
831.20 0.2233
831.30 0.2232
831.40 0.2231
831.50 0.223
831.60 0.223
831.70 0.2229
831.80 0.2228
831.90 0.2227
832.00 0.2226
832.10 0.2225
832.20 0.2224
832.30 0.2223
832.40 0.2223
832.50 0.2222
832.60 0.2221
832.70 0.222
832.80 0.2219
832.90 0.2218
833.00 0.2217
833.10 0.2217
833.20 0.2216
833.30 0.2215
833.40 0.2214
833.50 0.2213
833.60 0.2212
833.70 0.2211
833.80 0.2211
833.90 0.221
834.00 0.2209
834.10 0.2208
834.20 0.2207
834.30 0.2206
834.40 0.2205
834.50 0.2205
834.60 0.2204
834.70 0.2203
834.80 0.2202
834.90 0.2201
835.00 0.22
835.10 0.2199
835.20 0.2199
835.30 0.2198
835.40 0.2197
835.50 0.2196
835.60 0.2195
835.70 0.2194
835.80 0.2194
835.90 0.2193
836.00 0.2192
836.10 0.2191
836.20 0.219
836.30 0.2189
836.40 0.2188
836.50 0.2188
836.60 0.2187
836.70 0.2186
836.80 0.2185
836.90 0.2184
837.00 0.2183
837.10 0.2182
837.20 0.2182
837.30 0.2181
837.40 0.218
837.50 0.2179
837.60 0.2178
837.70 0.2177
837.80 0.2177
837.90 0.2176
838.00 0.2175
838.10 0.2174
838.20 0.2173
838.30 0.2172
838.40 0.2172
838.50 0.2171
838.60 0.217
838.70 0.2169
838.80 0.2168
838.90 0.2167
839.00 0.2167
839.10 0.2166
839.20 0.2165
839.30 0.2164
839.40 0.2163
839.50 0.2162
839.60 0.2162
839.70 0.2161
839.80 0.216
839.90 0.2159
840.00 0.2158
840.10 0.2157
840.20 0.2156
840.30 0.2156
840.40 0.2155
840.50 0.2154
840.60 0.2153
840.70 0.2152
840.80 0.2152
840.90 0.2151
841.00 0.215
841.10 0.2149
841.20 0.2148
841.30 0.2147
841.40 0.2147
841.50 0.2146
841.60 0.2145
841.70 0.2144
841.80 0.2143
841.90 0.2142
842.00 0.2142
842.10 0.2141
842.20 0.214
842.30 0.2139
842.40 0.2138
842.50 0.2137
842.60 0.2137
842.70 0.2136
842.80 0.2135
842.90 0.2134
843.00 0.2133
843.10 0.2132
843.20 0.2131
843.30 0.2131
843.40 0.213
843.50 0.2129
843.60 0.2128
843.70 0.2127
843.80 0.2126
843.90 0.2126
844.00 0.2125
844.10 0.2124
844.20 0.2123
844.30 0.2122
844.40 0.2121
844.50 0.2121
844.60 0.212
844.70 0.2119
844.80 0.2118
844.90 0.2117
845.00 0.2116
845.10 0.2116
845.20 0.2115
845.30 0.2114
845.40 0.2113
845.50 0.2112
845.60 0.2111
845.70 0.2111
845.80 0.211
845.90 0.2109
846.00 0.2108
846.10 0.2107
846.20 0.2107
846.30 0.2106
846.40 0.2105
846.50 0.2104
846.60 0.2103
846.70 0.2102
846.80 0.2102
846.90 0.2101
847.00 0.21
847.10 0.2099
847.20 0.2099
847.30 0.2099
847.40 0.2098
847.50 0.2098
847.60 0.2097
847.70 0.2097
847.80 0.2096
847.90 0.2096
848.00 0.2095
848.10 0.2095
848.20 0.2094
848.30 0.2094
848.40 0.2094
848.50 0.2093
848.60 0.2093
848.70 0.2092
848.80 0.2092
848.90 0.2091
849.00 0.2091
849.10 0.209
849.20 0.209
849.30 0.209
849.40 0.2089
849.50 0.2089
849.60 0.2088
849.70 0.2088
849.80 0.2087
849.90 0.2087
850.00 0.2086
850.10 0.2086
850.20 0.2085
850.30 0.2085
850.40 0.2085
850.50 0.2084
850.60 0.2084
850.70 0.2083
850.80 0.2083
850.90 0.2082
851.00 0.2082
851.10 0.2081
851.20 0.2081
851.30 0.2081
851.40 0.208
851.50 0.208
851.60 0.2079
851.70 0.2079
851.80 0.2078
851.90 0.2078
852.00 0.2077
852.10 0.2077
852.20 0.2076
852.30 0.2076
852.40 0.2075
852.50 0.2075
852.60 0.2074
852.70 0.2074
852.80 0.2073
852.90 0.2072
853.00 0.2072
853.10 0.2071
853.20 0.2071
853.30 0.207
853.40 0.207
853.50 0.2069
853.60 0.2069
853.70 0.2068
853.80 0.2068
853.90 0.2067
854.00 0.2066
854.10 0.2066
854.20 0.2065
854.30 0.2065
854.40 0.2064
854.50 0.2064
854.60 0.2063
854.70 0.2063
854.80 0.2062
854.90 0.2061
855.00 0.2061
855.10 0.206
855.20 0.206
855.30 0.2059
855.40 0.2059
855.50 0.2058
855.60 0.2058
855.70 0.2057
855.80 0.2057
855.90 0.2056
856.00 0.2056
856.10 0.2055
856.20 0.2054
856.30 0.2054
856.40 0.2053
856.50 0.2053
856.60 0.2052
856.70 0.2052
856.80 0.2051
856.90 0.2051
857.00 0.205
857.10 0.205
857.20 0.2049
857.30 0.2049
857.40 0.2048
857.50 0.2047
857.60 0.2047
857.70 0.2046
857.80 0.2046
857.90 0.2045
858.00 0.2045
858.10 0.2044
858.20 0.2044
858.30 0.2043
858.40 0.2043
858.50 0.2042
858.60 0.2042
858.70 0.2041
858.80 0.2041
858.90 0.204
859.00 0.204
859.10 0.2039
859.20 0.2039
859.30 0.2038
859.40 0.2037
859.50 0.2037
859.60 0.2036
859.70 0.2036
859.80 0.2035
859.90 0.2035
860.00 0.2034
860.10 0.2034
860.20 0.2033
860.30 0.2033
860.40 0.2032
860.50 0.2032
860.60 0.2031
860.70 0.2031
860.80 0.203
860.90 0.203
861.00 0.2029
861.10 0.2029
861.20 0.2028
861.30 0.2028
861.40 0.2027
861.50 0.2027
861.60 0.2026
861.70 0.2025
861.80 0.2025
861.90 0.2024
862.00 0.2024
862.10 0.2023
862.20 0.2022
862.30 0.2021
862.40 0.2019
862.50 0.2018
862.60 0.2017
862.70 0.2016
862.80 0.2015
862.90 0.2014
863.00 0.2013
863.10 0.2012
863.20 0.2011
863.30 0.201
863.40 0.2008
863.50 0.2007
863.60 0.2006
863.70 0.2005
863.80 0.2004
863.90 0.2003
864.00 0.2002
864.10 0.2001
864.20 0.2
864.30 0.1999
864.40 0.1998
864.50 0.1996
864.60 0.1995
864.70 0.1994
864.80 0.1993
864.90 0.1992
865.00 0.1991
865.10 0.199
865.20 0.1989
865.30 0.1988
865.40 0.1987
865.50 0.1986
865.60 0.1984
865.70 0.1983
865.80 0.1982
865.90 0.1981
866.00 0.198
866.10 0.1979
866.20 0.1978
866.30 0.1977
866.40 0.1976
866.50 0.1975
866.60 0.1974
866.70 0.1973
866.80 0.1971
866.90 0.197
867.00 0.1969
867.10 0.1969
867.20 0.1969
867.30 0.1969
867.40 0.197
867.50 0.197
867.60 0.197
867.70 0.197
867.80 0.197
867.90 0.197
868.00 0.197
868.10 0.197
868.20 0.197
868.30 0.197
868.40 0.197
868.50 0.197
868.60 0.197
868.70 0.1971
868.80 0.1971
868.90 0.1971
869.00 0.1971
869.10 0.1971
869.20 0.1971
869.30 0.1971
869.40 0.1971
869.50 0.1971
869.60 0.1971
869.70 0.1971
869.80 0.1971
869.90 0.1971
870.00 0.1972
870.10 0.1972
870.20 0.1972
870.30 0.1972
870.40 0.1972
870.50 0.1972
870.60 0.1972
870.70 0.1972
870.80 0.1972
870.90 0.1972
871.00 0.1972
871.10 0.1972
871.20 0.1972
871.30 0.1973
871.40 0.1973
871.50 0.1973
871.60 0.1973
871.70 0.1973
871.80 0.1973
871.90 0.1973
872.00 0.1973
872.10 0.1972
872.20 0.1971
872.30 0.1969
872.40 0.1968
872.50 0.1967
872.60 0.1966
872.70 0.1964
872.80 0.1963
872.90 0.1962
873.00 0.1961
873.10 0.196
873.20 0.1958
873.30 0.1957
873.40 0.1956
873.50 0.1955
873.60 0.1954
873.70 0.1952
873.80 0.1951
873.90 0.195
874.00 0.1949
874.10 0.1947
874.20 0.1946
874.30 0.1945
874.40 0.1944
874.50 0.1943
874.60 0.1941
874.70 0.194
874.80 0.1939
874.90 0.1938
875.00 0.1937
875.10 0.1935
875.20 0.1934
875.30 0.1933
875.40 0.1932
875.50 0.1931
875.60 0.1929
875.70 0.1928
875.80 0.1927
875.90 0.1926
876.00 0.1924
876.10 0.1923
876.20 0.1922
876.30 0.1921
876.40 0.192
876.50 0.1918
876.60 0.1917
876.70 0.1916
876.80 0.1915
876.90 0.1914
877.00 0.1912
877.10 0.1913
877.20 0.1913
877.30 0.1913
877.40 0.1913
877.50 0.1913
877.60 0.1913
877.70 0.1913
877.80 0.1913
877.90 0.1913
878.00 0.1913
878.10 0.1913
878.20 0.1914
878.30 0.1914
878.40 0.1914
878.50 0.1914
878.60 0.1914
878.70 0.1914
878.80 0.1914
878.90 0.1914
879.00 0.1914
879.10 0.1914
879.20 0.1914
879.30 0.1915
879.40 0.1915
879.50 0.1915
879.60 0.1915
879.70 0.1915
879.80 0.1915
879.90 0.1915
880.00 0.1915
880.10 0.1915
880.20 0.1915
880.30 0.1915
880.40 0.1916
880.50 0.1916
880.60 0.1916
880.70 0.1916
880.80 0.1916
880.90 0.1916
881.00 0.1916
881.10 0.1916
881.20 0.1916
881.30 0.1916
881.40 0.1916
881.50 0.1917
881.60 0.1917
881.70 0.1917
881.80 0.1917
881.90 0.1917
882.00 0.1917
882.10 0.1913
882.20 0.191
882.30 0.1906
882.40 0.1902
882.50 0.1899
882.60 0.1895
882.70 0.1892
882.80 0.1888
882.90 0.1884
883.00 0.1881
883.10 0.1877
883.20 0.1874
883.30 0.187
883.40 0.1866
883.50 0.1863
883.60 0.1859
883.70 0.1856
883.80 0.1852
883.90 0.1848
884.00 0.1845
884.10 0.1841
884.20 0.1838
884.30 0.1834
884.40 0.183
884.50 0.1827
884.60 0.1823
884.70 0.182
884.80 0.1816
884.90 0.1812
885.00 0.1809
885.10 0.1805
885.20 0.1802
885.30 0.1798
885.40 0.1795
885.50 0.1791
885.60 0.1787
885.70 0.1784
885.80 0.178
885.90 0.1777
886.00 0.1773
886.10 0.177
886.20 0.1766
886.30 0.1762
886.40 0.1759
886.50 0.1755
886.60 0.1752
886.70 0.1748
886.80 0.1745
886.90 0.1741
887.00 0.1738
887.10 0.174
887.20 0.1743
887.30 0.1746
887.40 0.1748
887.50 0.1751
887.60 0.1754
887.70 0.1756
887.80 0.1759
887.90 0.1762
888.00 0.1764
888.10 0.1767
888.20 0.177
888.30 0.1772
888.40 0.1775
888.50 0.1778
888.60 0.178
888.70 0.1783
888.80 0.1786
888.90 0.1788
889.00 0.1791
889.10 0.1794
889.20 0.1796
889.30 0.1799
889.40 0.1802
889.50 0.1804
889.60 0.1807
889.70 0.181
889.80 0.1812
889.90 0.1815
890.00 0.1818
890.10 0.182
890.20 0.1823
890.30 0.1825
890.40 0.1828
890.50 0.1831
890.60 0.1833
890.70 0.1836
890.80 0.1839
890.90 0.1841
891.00 0.1844
891.10 0.1847
891.20 0.1849
891.30 0.1852
891.40 0.1854
891.50 0.1857
891.60 0.186
891.70 0.1862
891.80 0.1865
891.90 0.1868
892.00 0.187
892.10 0.1869
892.20 0.1868
892.30 0.1867
892.40 0.1866
892.50 0.1865
892.60 0.1863
892.70 0.1862
892.80 0.1861
892.90 0.186
893.00 0.1859
893.10 0.1858
893.20 0.1857
893.30 0.1856
893.40 0.1854
893.50 0.1853
893.60 0.1852
893.70 0.1851
893.80 0.185
893.90 0.1849
894.00 0.1848
894.10 0.1847
894.20 0.1845
894.30 0.1844
894.40 0.1843
894.50 0.1842
894.60 0.1841
894.70 0.184
894.80 0.1839
894.90 0.1838
895.00 0.1836
895.10 0.1835
895.20 0.1834
895.30 0.1833
895.40 0.1832
895.50 0.1831
895.60 0.183
895.70 0.1829
895.80 0.1828
895.90 0.1826
896.00 0.1825
896.10 0.1824
896.20 0.1823
896.30 0.1822
896.40 0.1821
896.50 0.182
896.60 0.1819
896.70 0.1818
896.80 0.1816
896.90 0.1815
897.00 0.1814
897.10 0.1808
897.20 0.1802
897.30 0.1796
897.40 0.179
897.50 0.1784
897.60 0.1778
897.70 0.1772
897.80 0.1766
897.90 0.176
898.00 0.1754
898.10 0.1747
898.20 0.1741
898.30 0.1735
898.40 0.1729
898.50 0.1723
898.60 0.1717
898.70 0.1711
898.80 0.1705
898.90 0.1699
899.00 0.1693
899.10 0.1687
899.20 0.1681
899.30 0.1675
899.40 0.1669
899.50 0.1663
899.60 0.1657
899.70 0.1651
899.80 0.1645
899.90 0.1639
900.00 0.1633
900.10 0.1627
900.20 0.1621
900.30 0.1615
900.40 0.1609
900.50 0.1603
900.60 0.1597
900.70 0.1591
900.80 0.1585
900.90 0.1579
901.00 0.1573
901.10 0.1567
901.20 0.1561
901.30 0.1555
901.40 0.1549
901.50 0.1543
901.60 0.1537
901.70 0.1531
901.80 0.1525
901.90 0.1519
902.00 0.1513
902.10 0.1517
902.20 0.1522
902.30 0.1526
902.40 0.153
902.50 0.1534
902.60 0.1538
902.70 0.1542
902.80 0.1546
902.90 0.155
903.00 0.1555
903.10 0.1559
903.20 0.1563
903.30 0.1567
903.40 0.1571
903.50 0.1575
903.60 0.1579
903.70 0.1583
903.80 0.1587
903.90 0.1592
904.00 0.1596
904.10 0.16
904.20 0.1604
904.30 0.1608
904.40 0.1612
904.50 0.1616
904.60 0.162
904.70 0.1624
904.80 0.1628
904.90 0.1632
905.00 0.1637
905.10 0.1641
905.20 0.1645
905.30 0.1649
905.40 0.1653
905.50 0.1657
905.60 0.1661
905.70 0.1665
905.80 0.1669
905.90 0.1673
906.00 0.1677
906.10 0.1681
906.20 0.1685
906.30 0.1689
906.40 0.1693
906.50 0.1698
906.60 0.1702
906.70 0.1706
906.80 0.171
906.90 0.1714
907.00 0.1718
907.10 0.1718
907.20 0.1719
907.30 0.1719
907.40 0.172
907.50 0.172
907.60 0.1721
907.70 0.1721
907.80 0.1722
907.90 0.1722
908.00 0.1723
908.10 0.1723
908.20 0.1723
908.30 0.1724
908.40 0.1724
908.50 0.1725
908.60 0.1725
908.70 0.1726
908.80 0.1726
908.90 0.1727
909.00 0.1727
909.10 0.1728
909.20 0.1728
909.30 0.1729
909.40 0.1729
909.50 0.173
909.60 0.173
909.70 0.1731
909.80 0.1731
909.90 0.1732
910.00 0.1732
910.10 0.1732
910.20 0.1733
910.30 0.1733
910.40 0.1734
910.50 0.1734
910.60 0.1735
910.70 0.1735
910.80 0.1736
910.90 0.1736
911.00 0.1737
911.10 0.1737
911.20 0.1738
911.30 0.1738
911.40 0.1739
911.50 0.1739
911.60 0.174
911.70 0.174
911.80 0.174
911.90 0.1741
912.00 0.1741
912.10 0.1739
912.20 0.1737
912.30 0.1735
912.40 0.1732
912.50 0.173
912.60 0.1728
912.70 0.1726
912.80 0.1723
912.90 0.1721
913.00 0.1719
913.10 0.1717
913.20 0.1715
913.30 0.1712
913.40 0.171
913.50 0.1708
913.60 0.1706
913.70 0.1703
913.80 0.1701
913.90 0.1699
914.00 0.1697
914.10 0.1695
914.20 0.1692
914.30 0.169
914.40 0.1688
914.50 0.1686
914.60 0.1683
914.70 0.1681
914.80 0.1679
914.90 0.1677
915.00 0.1675
915.10 0.1672
915.20 0.167
915.30 0.1668
915.40 0.1666
915.50 0.1664
915.60 0.1661
915.70 0.1659
915.80 0.1657
915.90 0.1655
916.00 0.1653
916.10 0.165
916.20 0.1648
916.30 0.1646
916.40 0.1644
916.50 0.1642
916.60 0.1639
916.70 0.1637
916.80 0.1635
916.90 0.1633
917.00 0.1631
917.10 0.1624
917.20 0.1617
917.30 0.1611
917.40 0.1604
917.50 0.1597
917.60 0.1591
917.70 0.1584
917.80 0.1577
917.90 0.1571
918.00 0.1564
918.10 0.1557
918.20 0.1551
918.30 0.1544
918.40 0.1537
918.50 0.1531
918.60 0.1524
918.70 0.1517
918.80 0.1511
918.90 0.1504
919.00 0.1497
919.10 0.1491
919.20 0.1484
919.30 0.1478
919.40 0.1471
919.50 0.1464
919.60 0.1458
919.70 0.1451
919.80 0.1445
919.90 0.1438
920.00 0.1431
920.10 0.1425
920.20 0.1418
920.30 0.1412
920.40 0.1405
920.50 0.1398
920.60 0.1392
920.70 0.1385
920.80 0.1379
920.90 0.1372
921.00 0.1365
921.10 0.1359
921.20 0.1352
921.30 0.1346
921.40 0.1339
921.50 0.1333
921.60 0.1326
921.70 0.132
921.80 0.1313
921.90 0.1306
922.00 0.13
922.10 0.1304
922.20 0.1308
922.30 0.1312
922.40 0.1316
922.50 0.132
922.60 0.1324
922.70 0.1328
922.80 0.1332
922.90 0.1336
923.00 0.134
923.10 0.1344
923.20 0.1348
923.30 0.1352
923.40 0.1356
923.50 0.136
923.60 0.1364
923.70 0.1368
923.80 0.1372
923.90 0.1376
924.00 0.138
924.10 0.1384
924.20 0.1388
924.30 0.1392
924.40 0.1396
924.50 0.14
924.60 0.1404
924.70 0.1408
924.80 0.1412
924.90 0.1416
925.00 0.142
925.10 0.1424
925.20 0.1428
925.30 0.1432
925.40 0.1436
925.50 0.144
925.60 0.1444
925.70 0.1448
925.80 0.1452
925.90 0.1456
926.00 0.146
926.10 0.1464
926.20 0.1468
926.30 0.1472
926.40 0.1476
926.50 0.148
926.60 0.1484
926.70 0.1488
926.80 0.1492
926.90 0.1496
927.00 0.1499
927.10 0.1502
927.20 0.1504
927.30 0.1506
927.40 0.1509
927.50 0.1511
927.60 0.1513
927.70 0.1515
927.80 0.1518
927.90 0.152
928.00 0.1522
928.10 0.1524
928.20 0.1527
928.30 0.1529
928.40 0.1531
928.50 0.1533
928.60 0.1536
928.70 0.1538
928.80 0.154
928.90 0.1542
929.00 0.1545
929.10 0.1547
929.20 0.1549
929.30 0.1551
929.40 0.1553
929.50 0.1556
929.60 0.1558
929.70 0.156
929.80 0.1562
929.90 0.1565
930.00 0.1567
930.10 0.1569
930.20 0.1571
930.30 0.1574
930.40 0.1576
930.50 0.1578
930.60 0.158
930.70 0.1582
930.80 0.1585
930.90 0.1587
931.00 0.1589
931.10 0.1591
931.20 0.1594
931.30 0.1596
931.40 0.1598
931.50 0.16
931.60 0.1602
931.70 0.1605
931.80 0.1607
931.90 0.1609
932.00 0.1611
932.10 0.1612
932.20 0.1612
932.30 0.1613
932.40 0.1613
932.50 0.1614
932.60 0.1614
932.70 0.1615
932.80 0.1616
932.90 0.1616
933.00 0.1617
933.10 0.1617
933.20 0.1618
933.30 0.1618
933.40 0.1619
933.50 0.1619
933.60 0.162
933.70 0.162
933.80 0.1621
933.90 0.1621
934.00 0.1622
934.10 0.1622
934.20 0.1623
934.30 0.1623
934.40 0.1623
934.50 0.1623
934.60 0.1623
934.70 0.1623
934.80 0.1623
934.90 0.1623
935.00 0.1623
935.10 0.1623
935.20 0.1623
935.30 0.1623
935.40 0.1623
935.50 0.1623
935.60 0.1623
935.70 0.1623
935.80 0.1622
935.90 0.1622
936.00 0.1622
936.10 0.1622
936.20 0.1622
936.30 0.1622
936.40 0.1622
936.50 0.1622
936.60 0.1622
936.70 0.1622
936.80 0.1622
936.90 0.1622
937.00 0.1622
937.10 0.1621
937.20 0.1621
937.30 0.162
937.40 0.162
937.50 0.162
937.60 0.1619
937.70 0.1619
937.80 0.1618
937.90 0.1618
938.00 0.1617
938.10 0.1617
938.20 0.1617
938.30 0.1616
938.40 0.1615
938.50 0.1615
938.60 0.1614
938.70 0.1613
938.80 0.1613
938.90 0.1612
939.00 0.1611
939.10 0.1611
939.20 0.161
939.30 0.1609
939.40 0.1609
939.50 0.1608
939.60 0.1607
939.70 0.1606
939.80 0.1606
939.90 0.1605
940.00 0.1604
940.10 0.1604
940.20 0.1603
940.30 0.1602
940.40 0.1601
940.50 0.16
940.60 0.1599
940.70 0.1598
940.80 0.1597
940.90 0.1596
941.00 0.1595
941.10 0.1594
941.20 0.1593
941.30 0.1592
941.40 0.1591
941.50 0.159
941.60 0.1589
941.70 0.1588
941.80 0.1586
941.90 0.1585
942.00 0.1584
942.10 0.1583
942.20 0.1582
942.30 0.1581
942.40 0.1579
942.50 0.1577
942.60 0.1576
942.70 0.1574
942.80 0.1573
942.90 0.1571
943.00 0.1569
943.10 0.1568
943.20 0.1566
943.30 0.1565
943.40 0.1563
943.50 0.1561
943.60 0.156
943.70 0.1558
943.80 0.1557
943.90 0.1555
944.00 0.1553
944.10 0.1552
944.20 0.155
944.30 0.1549
944.40 0.1547
944.50 0.1544
944.60 0.1542
944.70 0.154
944.80 0.1538
944.90 0.1536
945.00 0.1534
945.10 0.1532
945.20 0.153
945.30 0.1528
945.40 0.1525
945.50 0.1522
945.60 0.1519
945.70 0.1517
945.80 0.1514
945.90 0.1511
946.00 0.1509
946.10 0.1506
946.20 0.1503
946.30 0.15
946.40 0.1498
946.50 0.1495
946.60 0.1492
946.70 0.149
946.80 0.1487
946.90 0.1484
947.00 0.1482
947.10 0.1478
947.20 0.1475
947.30 0.1472
947.40 0.1468
947.50 0.1464
947.60 0.146
947.70 0.1456
947.80 0.1452
947.90 0.1448
948.00 0.1444
948.10 0.144
948.20 0.1436
948.30 0.1432
948.40 0.1428
948.50 0.1424
948.60 0.142
948.70 0.1416
948.80 0.1412
948.90 0.1408
949.00 0.1404
949.10 0.14
949.20 0.1396
949.30 0.1392
949.40 0.1386
949.50 0.138
949.60 0.1375
949.70 0.1369
949.80 0.1363
949.90 0.1358
950.00 0.1352
950.10 0.1346
950.20 0.1341
950.30 0.1335
950.40 0.1329
950.50 0.1324
950.60 0.1318
950.70 0.1312
950.80 0.1307
950.90 0.1301
951.00 0.1295
951.10 0.129
951.20 0.1284
951.30 0.1279
951.40 0.1272
951.50 0.1265
951.60 0.1258
951.70 0.1251
951.80 0.1244
951.90 0.1237
952.00 0.123
952.10 0.1223
952.20 0.1215
952.30 0.1208
952.40 0.12
952.50 0.1193
952.60 0.1185
952.70 0.1178
952.80 0.117
952.90 0.1162
953.00 0.1155
953.10 0.1147
953.20 0.1139
953.30 0.1131
953.40 0.1123
953.50 0.1116
953.60 0.1109
953.70 0.1103
953.80 0.1097
953.90 0.109
954.00 0.1089
954.10 0.1087
954.20 0.1095
954.30 0.1116
954.40 0.1093
954.50 0.1085
954.60 0.1086
954.70 0.1087
954.80 0.1093
954.90 0.1098
955.00 0.1104
955.10 0.111
955.20 0.1117
955.30 0.1124
955.40 0.1131
955.50 0.1138
955.60 0.1145
955.70 0.1152
955.80 0.1159
955.90 0.1165
956.00 0.1171
956.10 0.1178
956.20 0.1184
956.30 0.119
956.40 0.1197
956.50 0.1203
956.60 0.121
956.70 0.1216
956.80 0.1222
956.90 0.1229
957.00 0.1235
957.10 0.1241
957.20 0.1246
957.30 0.1252
957.40 0.1256
957.50 0.1261
957.60 0.1265
957.70 0.127
957.80 0.1274
957.90 0.1279
958.00 0.1283
958.10 0.1288
958.20 0.1292
958.30 0.1297
958.40 0.1301
958.50 0.1306
958.60 0.131
958.70 0.1315
958.80 0.1319
958.90 0.1324
959.00 0.1328
959.10 0.1333
959.20 0.1337
959.30 0.1342
959.40 0.1344
959.50 0.1347
959.60 0.135
959.70 0.1353
959.80 0.1356
959.90 0.1359
960.00 0.1361
960.10 0.1364
960.20 0.1367
960.30 0.137
960.40 0.1373
960.50 0.1375
960.60 0.1378
960.70 0.1381
960.80 0.1384
960.90 0.1387
961.00 0.139
961.10 0.1392
961.20 0.1395
961.30 0.1398
961.40 0.14
961.50 0.1402
961.60 0.1404
961.70 0.1406
961.80 0.1408
961.90 0.141
962.00 0.1412
962.10 0.1413
962.20 0.1415
962.30 0.1416
962.40 0.1417
962.50 0.1419
962.60 0.142
962.70 0.1422
962.80 0.1423
962.90 0.1425
963.00 0.1426
963.10 0.1428
963.20 0.1429
963.30 0.1431
963.40 0.1432
963.50 0.1433
963.60 0.1434
963.70 0.1435
963.80 0.1436
963.90 0.1437
964.00 0.1438
964.10 0.1439
964.20 0.144
964.30 0.1441
964.40 0.1442
964.50 0.1443
964.60 0.1443
964.70 0.1444
964.80 0.1445
964.90 0.1445
965.00 0.1446
965.10 0.1446
965.20 0.1447
965.30 0.1448
965.40 0.1448
965.50 0.1449
965.60 0.145
965.70 0.145
965.80 0.1451
965.90 0.1452
966.00 0.1452
966.10 0.1453
966.20 0.1453
966.30 0.1454
966.40 0.1454
966.50 0.1455
966.60 0.1455
966.70 0.1455
966.80 0.1456
966.90 0.1456
967.00 0.1457
967.10 0.1457
967.20 0.1457
967.30 0.1457
967.40 0.1457
967.50 0.1458
967.60 0.1458
967.70 0.1458
967.80 0.1458
967.90 0.1458
968.00 0.1459
968.10 0.1459
968.20 0.1459
968.30 0.1459
968.40 0.1459
968.50 0.1459
968.60 0.1459
968.70 0.1459
968.80 0.1459
968.90 0.1459
969.00 0.1459
969.10 0.1459
969.20 0.1459
969.30 0.1459
969.40 0.1459
969.50 0.1459
969.60 0.1459
969.70 0.1459
969.80 0.1459
969.90 0.1459
970.00 0.1459
970.10 0.1459
970.20 0.1459
970.30 0.1459
970.40 0.1459
970.50 0.1459
970.60 0.1459
970.70 0.1459
970.80 0.1459
970.90 0.1459
971.00 0.1458
971.10 0.1458
971.20 0.1458
971.30 0.1458
971.40 0.1458
971.50 0.1458
971.60 0.1458
971.70 0.1458
971.80 0.1457
971.90 0.1457
972.00 0.1457
972.10 0.1457
972.20 0.1457
972.30 0.1456
972.40 0.1456
972.50 0.1456
972.60 0.1456
972.70 0.1455
972.80 0.1455
972.90 0.1455
973.00 0.1454
973.10 0.1454
973.20 0.1454
973.30 0.1454
973.40 0.1453
973.50 0.1453
973.60 0.1453
973.70 0.1453
973.80 0.1452
973.90 0.1452
974.00 0.1452
974.10 0.1452
974.20 0.1451
974.30 0.1451
974.40 0.1451
974.50 0.145
974.60 0.145
974.70 0.145
974.80 0.1449
974.90 0.1449
975.00 0.1449
975.10 0.1448
975.20 0.1448
975.30 0.1447
975.40 0.1447
975.50 0.1447
975.60 0.1446
975.70 0.1446
975.80 0.1446
975.90 0.1445
976.00 0.1445
976.10 0.1445
976.20 0.1444
976.30 0.1444
976.40 0.1443
976.50 0.1443
976.60 0.1443
976.70 0.1442
976.80 0.1442
976.90 0.1442
977.00 0.1441
977.10 0.1441
977.20 0.144
977.30 0.144
977.40 0.1439
977.50 0.1439
977.60 0.1438
977.70 0.1438
977.80 0.1437
977.90 0.1437
978.00 0.1436
978.10 0.1436
978.20 0.1435
978.30 0.1435
978.40 0.1434
978.50 0.1434
978.60 0.1433
978.70 0.1433
978.80 0.1432
978.90 0.1432
979.00 0.1431
979.10 0.1431
979.20 0.143
979.30 0.143
979.40 0.1429
979.50 0.1429
979.60 0.1428
979.70 0.1428
979.80 0.1427
979.90 0.1427
980.00 0.1426
980.10 0.1426
980.20 0.1425
980.30 0.1425
980.40 0.1424
980.50 0.1424
980.60 0.1423
980.70 0.1423
980.80 0.1422
980.90 0.1422
981.00 0.1421
981.10 0.1421
981.20 0.142
981.30 0.142
981.40 0.1419
981.50 0.1419
981.60 0.1418
981.70 0.1418
981.80 0.1417
981.90 0.1417
982.00 0.1416
982.10 0.1416
982.20 0.1415
982.30 0.1414
982.40 0.1414
982.50 0.1413
982.60 0.1412
982.70 0.1412
982.80 0.1411
982.90 0.1411
983.00 0.141
983.10 0.1409
983.20 0.1409
983.30 0.1408
983.40 0.1407
983.50 0.1407
983.60 0.1406
983.70 0.1406
983.80 0.1405
983.90 0.1404
984.00 0.1404
984.10 0.1403
984.20 0.1403
984.30 0.1402
984.40 0.1401
984.50 0.1401
984.60 0.14
984.70 0.1399
984.80 0.1399
984.90 0.1398
985.00 0.1397
985.10 0.1396
985.20 0.1396
985.30 0.1395
985.40 0.1394
985.50 0.1394
985.60 0.1393
985.70 0.1392
985.80 0.1391
985.90 0.1391
986.00 0.139
986.10 0.1389
986.20 0.1389
986.30 0.1388
986.40 0.1387
986.50 0.1386
986.60 0.1386
986.70 0.1385
986.80 0.1384
986.90 0.1383
987.00 0.1383
987.10 0.1382
987.20 0.1381
987.30 0.138
987.40 0.1379
987.50 0.1378
987.60 0.1378
987.70 0.1377
987.80 0.1376
987.90 0.1375
988.00 0.1374
988.10 0.1373
988.20 0.1372
988.30 0.1371
988.40 0.1371
988.50 0.137
988.60 0.1369
988.70 0.1368
988.80 0.1367
988.90 0.1366
989.00 0.1365
989.10 0.1364
989.20 0.1363
989.30 0.1362
989.40 0.1361
989.50 0.136
989.60 0.1359
989.70 0.1358
989.80 0.1357
989.90 0.1356
990.00 0.1355
990.10 0.1354
990.20 0.1353
990.30 0.1352
990.40 0.1351
990.50 0.135
990.60 0.1349
990.70 0.1348
990.80 0.1347
990.90 0.1345
991.00 0.1344
991.10 0.1343
991.20 0.1342
991.30 0.1341
991.40 0.1339
991.50 0.1338
991.60 0.1337
991.70 0.1336
991.80 0.1335
991.90 0.1333
992.00 0.1332
992.10 0.1331
992.20 0.133
992.30 0.1328
992.40 0.1327
992.50 0.1326
992.60 0.1324
992.70 0.1323
992.80 0.1321
992.90 0.1319
993.00 0.1318
993.10 0.1316
993.20 0.1315
993.30 0.1313
993.40 0.1311
993.50 0.131
993.60 0.1308
993.70 0.1307
993.80 0.1305
993.90 0.1303
994.00 0.1302
994.10 0.13
994.20 0.1299
994.30 0.1297
994.40 0.1296
994.50 0.1294
994.60 0.1292
994.70 0.129
994.80 0.1289
994.90 0.1287
995.00 0.1285
995.10 0.1283
995.20 0.1281
995.30 0.1279
995.40 0.1277
995.50 0.1275
995.60 0.1273
995.70 0.1271
995.80 0.1268
995.90 0.1266
996.00 0.1263
996.10 0.1261
996.20 0.1259
996.30 0.1256
996.40 0.1254
996.50 0.1251
996.60 0.1249
996.70 0.1247
996.80 0.1244
996.90 0.1242
997.00 0.1239
997.10 0.1236
997.20 0.1234
997.30 0.1231
997.40 0.1228
997.50 0.1225
997.60 0.1222
997.70 0.1219
997.80 0.1215
997.90 0.1212
998.00 0.1209
998.10 0.1205
998.20 0.1202
998.30 0.1198
998.40 0.1195
998.50 0.1191
998.60 0.1188
998.70 0.1184
998.80 0.1181
998.90 0.1177
999.00 0.1174
999.10 0.117
999.20 0.1167
999.30 0.1163
999.40 0.116
999.50 0.1156
999.60 0.1153
999.70 0.1148
999.80 0.1144
999.90 0.1139
1000.00 0.1134
1000.10 0.113
1000.20 0.1125
1000.30 0.112
1000.40 0.1116
1000.50 0.1111
1000.60 0.1106
1000.70 0.1101
1000.80 0.1097
1000.90 0.1092
1001.00 0.1087
1001.10 0.1083
1001.20 0.1078
1001.30 0.1073
1001.40 0.1069
1001.50 0.1064
1001.60 0.1059
1001.70 0.1054
1001.80 0.1049
1001.90 0.1043
1002.00 0.1038
1002.10 0.1031
1002.20 0.1025
1002.30 0.1019
1002.40 0.1013
1002.50 0.1007
1002.60 0.1001
1002.70 0.09947
1002.80 0.09885
1002.90 0.09824
1003.00 0.09763
1003.10 0.09702
1003.20 0.09633
1003.30 0.09562
1003.40 0.09491
1003.50 0.0942
1003.60 0.09349
1003.70 0.09278
1003.80 0.09207
1003.90 0.0913
1004.00 0.09052
1004.10 0.08973
1004.20 0.08895
1004.30 0.08814
1004.40 0.08732
1004.50 0.08659
1004.60 0.08693
1004.70 0.08639
1004.80 0.08684
1004.90 0.0876
1005.00 0.08837
1005.10 0.08911
1005.20 0.08984
1005.30 0.09057
1005.40 0.0913
1005.50 0.09196
1005.60 0.09261
1005.70 0.09326
1005.80 0.09391
1005.90 0.09455
1006.00 0.0952
1006.10 0.09585
1006.20 0.09643
1006.30 0.09698
1006.40 0.09754
1006.50 0.09809
1006.60 0.09865
1006.70 0.0992
1006.80 0.09975
1006.90 0.1003
1007.00 0.1009
1007.10 0.1013
1007.20 0.1018
1007.30 0.1023
1007.40 0.1028
1007.50 0.1033
1007.60 0.1038
1007.70 0.1042
1007.80 0.1046
1007.90 0.1049
1008.00 0.1053
1008.10 0.1057
1008.20 0.1061
1008.30 0.1065
1008.40 0.1069
1008.50 0.1073
1008.60 0.1076
1008.70 0.108
1008.80 0.1084
1008.90 0.1088
1009.00 0.1092
1009.10 0.1096
1009.20 0.11
1009.30 0.1103
1009.40 0.1107
1009.50 0.1111
1009.60 0.1115
1009.70 0.1118
1009.80 0.1121
1009.90 0.1123
1010.00 0.1126
1010.10 0.1128
1010.20 0.1131
1010.30 0.1134
1010.40 0.1136
1010.50 0.1139
1010.60 0.1141
1010.70 0.1144
1010.80 0.1147
1010.90 0.1149
1011.00 0.1152
1011.10 0.1154
1011.20 0.1157
1011.30 0.1159
1011.40 0.1162
1011.50 0.1165
1011.60 0.1167
1011.70 0.1169
1011.80 0.1171
1011.90 0.1173
1012.00 0.1175
1012.10 0.1177
1012.20 0.1178
1012.30 0.118
1012.40 0.1181
1012.50 0.1183
1012.60 0.1184
1012.70 0.1186
1012.80 0.1187
1012.90 0.1189
1013.00 0.1191
1013.10 0.1192
1013.20 0.1194
1013.30 0.1195
1013.40 0.1197
1013.50 0.1198
1013.60 0.12
1013.70 0.1201
1013.80 0.1202
1013.90 0.1203
1014.00 0.1204
1014.10 0.1205
1014.20 0.1206
1014.30 0.1207
1014.40 0.1209
1014.50 0.121
1014.60 0.1211
1014.70 0.1212
1014.80 0.1212
1014.90 0.1213
1015.00 0.1214
1015.10 0.1214
1015.20 0.1215
1015.30 0.1216
1015.40 0.1216
1015.50 0.1217
1015.60 0.1218
1015.70 0.1219
1015.80 0.1219
1015.90 0.122
1016.00 0.1221
1016.10 0.1221
1016.20 0.1222
1016.30 0.1223
1016.40 0.1223
1016.50 0.1224
1016.60 0.1225
1016.70 0.1225
1016.80 0.1226
1016.90 0.1226
1017.00 0.1227
1017.10 0.1227
1017.20 0.1227
1017.30 0.1228
1017.40 0.1228
1017.50 0.1228
1017.60 0.1229
1017.70 0.1229
1017.80 0.1229
1017.90 0.123
1018.00 0.123
1018.10 0.123
1018.20 0.1231
1018.30 0.1231
1018.40 0.1231
1018.50 0.1232
1018.60 0.1232
1018.70 0.1232
1018.80 0.1232
1018.90 0.1232
1019.00 0.1232
1019.10 0.1233
1019.20 0.1233
1019.30 0.1233
1019.40 0.1233
1019.50 0.1233
1019.60 0.1233
1019.70 0.1233
1019.80 0.1233
1019.90 0.1233
1020.00 0.1234
1020.10 0.1234
1020.20 0.1234
1020.30 0.1234
1020.40 0.1234
1020.50 0.1234
1020.60 0.1234
1020.70 0.1234
1020.80 0.1234
1020.90 0.1234
1021.00 0.1234
1021.10 0.1234
1021.20 0.1234
1021.30 0.1234
1021.40 0.1234
1021.50 0.1234
1021.60 0.1234
1021.70 0.1234
1021.80 0.1234
1021.90 0.1234
1022.00 0.1234
1022.10 0.1234
1022.20 0.1234
1022.30 0.1234
1022.40 0.1234
1022.50 0.1233
1022.60 0.1233
1022.70 0.1233
1022.80 0.1233
1022.90 0.1233
1023.00 0.1233
1023.10 0.1233
1023.20 0.1233
1023.30 0.1233
1023.40 0.1233
1023.50 0.1232
1023.60 0.1232
1023.70 0.1232
1023.80 0.1232
1023.90 0.1232
1024.00 0.1232
1024.10 0.1232
1024.20 0.1232
1024.30 0.1232
1024.40 0.1231
1024.50 0.1231
1024.60 0.1231
1024.70 0.1231
1024.80 0.1231
1024.90 0.1231
1025.00 0.123
1025.10 0.123
1025.20 0.123
1025.30 0.123
1025.40 0.123
1025.50 0.1229
1025.60 0.1229
1025.70 0.1229
1025.80 0.1229
1025.90 0.1228
1026.00 0.1228
1026.10 0.1228
1026.20 0.1228
1026.30 0.1228
1026.40 0.1227
1026.50 0.1227
1026.60 0.1227
1026.70 0.1227
1026.80 0.1227
1026.90 0.1226
1027.00 0.1226
1027.10 0.1226
1027.20 0.1226
1027.30 0.1225
1027.40 0.1225
1027.50 0.1225
1027.60 0.1224
1027.70 0.1224
1027.80 0.1224
1027.90 0.1224
1028.00 0.1223
1028.10 0.1223
1028.20 0.1223
1028.30 0.1223
1028.40 0.1222
1028.50 0.1222
1028.60 0.1222
1028.70 0.1221
1028.80 0.1221
1028.90 0.1221
1029.00 0.1221
1029.10 0.122
1029.20 0.122
1029.30 0.122
1029.40 0.1219
1029.50 0.1219
1029.60 0.1219
1029.70 0.1219
1029.80 0.1218
1029.90 0.1218
1030.00 0.1218
1030.10 0.1218
1030.20 0.1217
1030.30 0.1217
1030.40 0.1217
1030.50 0.1216
1030.60 0.1216
1030.70 0.1216
1030.80 0.1216
1030.90 0.1215
1031.00 0.1215
1031.10 0.1215
1031.20 0.1215
1031.30 0.1214
1031.40 0.1214
1031.50 0.1214
1031.60 0.1213
1031.70 0.1213
1031.80 0.1213
1031.90 0.1213
1032.00 0.1212
1032.10 0.1212
1032.20 0.1212
1032.30 0.1211
1032.40 0.1211
1032.50 0.1211
1032.60 0.121
1032.70 0.121
1032.80 0.121
1032.90 0.1209
1033.00 0.1209
1033.10 0.1209
1033.20 0.1208
1033.30 0.1208
1033.40 0.1208
1033.50 0.1207
1033.60 0.1207
1033.70 0.1207
1033.80 0.1206
1033.90 0.1206
1034.00 0.1206
1034.10 0.1205
1034.20 0.1205
1034.30 0.1205
1034.40 0.1204
1034.50 0.1204
1034.60 0.1204
1034.70 0.1203
1034.80 0.1203
1034.90 0.1203
1035.00 0.1202
1035.10 0.1202
1035.20 0.1202
1035.30 0.1201
1035.40 0.1201
1035.50 0.12
1035.60 0.12
1035.70 0.12
1035.80 0.1199
1035.90 0.1199
1036.00 0.1199
1036.10 0.1198
1036.20 0.1198
1036.30 0.1198
1036.40 0.1197
1036.50 0.1197
1036.60 0.1197
1036.70 0.1196
1036.80 0.1196
1036.90 0.1196
1037.00 0.1195
1037.10 0.1195
1037.20 0.1195
1037.30 0.1194
1037.40 0.1194
1037.50 0.1194
1037.60 0.1193
1037.70 0.1193
1037.80 0.1193
1037.90 0.1192
1038.00 0.1192
1038.10 0.1192
1038.20 0.1191
1038.30 0.1191
1038.40 0.119
1038.50 0.119
1038.60 0.119
1038.70 0.1189
1038.80 0.1189
1038.90 0.1189
1039.00 0.1188
1039.10 0.1188
1039.20 0.1188
1039.30 0.1187
1039.40 0.1187
1039.50 0.1186
1039.60 0.1186
1039.70 0.1186
1039.80 0.1185
1039.90 0.1185
1040.00 0.1185
1040.10 0.1184
1040.20 0.1184
1040.30 0.1184
1040.40 0.1183
1040.50 0.1183
1040.60 0.1183
1040.70 0.1182
1040.80 0.1182
1040.90 0.1182
1041.00 0.1181
1041.10 0.1181
1041.20 0.118
1041.30 0.118
1041.40 0.118
1041.50 0.1179
1041.60 0.1179
1041.70 0.1179
1041.80 0.1178
1041.90 0.1178
1042.00 0.1178
1042.10 0.1177
1042.20 0.1177
1042.30 0.1176
1042.40 0.1176
1042.50 0.1176
1042.60 0.1175
1042.70 0.1175
1042.80 0.1175
1042.90 0.1174
1043.00 0.1174
1043.10 0.1174
1043.20 0.1173
1043.30 0.1173
1043.40 0.1172
1043.50 0.1172
1043.60 0.1172
1043.70 0.1171
1043.80 0.1171
1043.90 0.1171
1044.00 0.117
1044.10 0.117
1044.20 0.1169
1044.30 0.1169
1044.40 0.1169
1044.50 0.1168
1044.60 0.1168
1044.70 0.1168
1044.80 0.1167
1044.90 0.1167
1045.00 0.1167
1045.10 0.1166
1045.20 0.1166
1045.30 0.1165
1045.40 0.1165
1045.50 0.1165
1045.60 0.1164
1045.70 0.1164
1045.80 0.1164
1045.90 0.1163
1046.00 0.1163
1046.10 0.1163
1046.20 0.1162
1046.30 0.1162
1046.40 0.1161
1046.50 0.1161
1046.60 0.1161
1046.70 0.116
1046.80 0.116
1046.90 0.116
1047.00 0.1159
1047.10 0.1159
1047.20 0.1159
1047.30 0.1158
1047.40 0.1158
1047.50 0.1157
1047.60 0.1157
1047.70 0.1157
1047.80 0.1156
1047.90 0.1156
1048.00 0.1156
1048.10 0.1155
1048.20 0.1155
1048.30 0.1154
1048.40 0.1154
1048.50 0.1154
1048.60 0.1153
1048.70 0.1153
1048.80 0.1153
1048.90 0.1152
1049.00 0.1152
1049.10 0.1151
1049.20 0.1151
1049.30 0.1151
1049.40 0.115
1049.50 0.115
1049.60 0.115
1049.70 0.1149
1049.80 0.1149
1049.90 0.1148
1050.00 0.1148
1050.10 0.1148
1050.20 0.1147
1050.30 0.1147
1050.40 0.1147
1050.50 0.1146
1050.60 0.1146
1050.70 0.1145
1050.80 0.1145
1050.90 0.1145
1051.00 0.1144
1051.10 0.1144
1051.20 0.1144
1051.30 0.1143
1051.40 0.1143
1051.50 0.1142
1051.60 0.1142
1051.70 0.1142
1051.80 0.1141
1051.90 0.1141
1052.00 0.1141
1052.10 0.114
1052.20 0.114
1052.30 0.1139
1052.40 0.1139
1052.50 0.1139
1052.60 0.1138
1052.70 0.1138
1052.80 0.1138
1052.90 0.1137
1053.00 0.1137
1053.10 0.1136
1053.20 0.1136
1053.30 0.1136
1053.40 0.1135
1053.50 0.1135
1053.60 0.1134
1053.70 0.1134
1053.80 0.1134
1053.90 0.1133
1054.00 0.1133
1054.10 0.1133
1054.20 0.1132
1054.30 0.1132
1054.40 0.1131
1054.50 0.1131
1054.60 0.1131
1054.70 0.113
1054.80 0.113
1054.90 0.113
1055.00 0.1129
1055.10 0.1129
1055.20 0.1128
1055.30 0.1128
1055.40 0.1128
1055.50 0.1127
1055.60 0.1127
1055.70 0.1127
1055.80 0.1126
1055.90 0.1126
1056.00 0.1125
1056.10 0.1125
1056.20 0.1125
1056.30 0.1124
1056.40 0.1124
1056.50 0.1124
1056.60 0.1123
1056.70 0.1123
1056.80 0.1122
1056.90 0.1122
1057.00 0.1122
1057.10 0.1121
1057.20 0.1121
1057.30 0.112
1057.40 0.112
1057.50 0.112
1057.60 0.1119
1057.70 0.1119
1057.80 0.1118
1057.90 0.1118
1058.00 0.1118
1058.10 0.1117
1058.20 0.1117
1058.30 0.1117
1058.40 0.1116
1058.50 0.1116
1058.60 0.1115
1058.70 0.1115
1058.80 0.1115
1058.90 0.1114
1059.00 0.1114
1059.10 0.1113
1059.20 0.1113
1059.30 0.1113
1059.40 0.1112
1059.50 0.1112
1059.60 0.1111
1059.70 0.1111
1059.80 0.1111
1059.90 0.111
1060.00 0.111
1060.10 0.111
1060.20 0.1109
1060.30 0.1109
1060.40 0.1108
1060.50 0.1108
1060.60 0.1108
1060.70 0.1107
1060.80 0.1107
1060.90 0.1106
1061.00 0.1106
1061.10 0.1106
1061.20 0.1105
1061.30 0.1105
1061.40 0.1105
1061.50 0.1104
1061.60 0.1104
1061.70 0.1103
1061.80 0.1103
1061.90 0.1103
1062.00 0.1102
1062.10 0.1102
1062.20 0.1101
1062.30 0.1101
1062.40 0.1101
1062.50 0.11
1062.60 0.11
1062.70 0.1099
1062.80 0.1099
1062.90 0.1098
1063.00 0.1098
1063.10 0.1098
1063.20 0.1097
1063.30 0.1097
1063.40 0.1096
1063.50 0.1096
1063.60 0.1096
1063.70 0.1095
1063.80 0.1095
1063.90 0.1094
1064.00 0.1094
1064.10 0.1093
1064.20 0.1093
1064.30 0.1093
1064.40 0.1092
1064.50 0.1092
1064.60 0.1091
1064.70 0.1091
1064.80 0.1091
1064.90 0.109
1065.00 0.109
1065.10 0.1089
1065.20 0.1089
1065.30 0.1089
1065.40 0.1088
1065.50 0.1088
1065.60 0.1087
1065.70 0.1087
1065.80 0.1086
1065.90 0.1086
1066.00 0.1086
1066.10 0.1085
1066.20 0.1085
1066.30 0.1084
1066.40 0.1084
1066.50 0.1084
1066.60 0.1083
1066.70 0.1083
1066.80 0.1082
1066.90 0.1082
1067.00 0.1082
1067.10 0.1081
1067.20 0.1081
1067.30 0.108
1067.40 0.108
1067.50 0.1079
1067.60 0.1079
1067.70 0.1078
1067.80 0.1078
1067.90 0.1077
1068.00 0.1077
1068.10 0.1077
1068.20 0.1076
1068.30 0.1076
1068.40 0.1075
1068.50 0.1075
1068.60 0.1074
1068.70 0.1074
1068.80 0.1073
1068.90 0.1073
1069.00 0.1072
1069.10 0.1072
1069.20 0.1072
1069.30 0.1071
1069.40 0.1071
1069.50 0.107
1069.60 0.107
1069.70 0.1069
1069.80 0.1069
1069.90 0.1068
1070.00 0.1068
1070.10 0.1067
1070.20 0.1067
1070.30 0.1067
1070.40 0.1066
1070.50 0.1066
1070.60 0.1065
1070.70 0.1065
1070.80 0.1064
1070.90 0.1064
1071.00 0.1063
1071.10 0.1063
1071.20 0.1062
1071.30 0.1062
1071.40 0.1062
1071.50 0.1061
1071.60 0.1061
1071.70 0.106
1071.80 0.106
1071.90 0.1059
1072.00 0.1059
1072.10 0.1058
1072.20 0.1058
1072.30 0.1057
1072.40 0.1057
1072.50 0.1056
1072.60 0.1056
1072.70 0.1055
1072.80 0.1055
1072.90 0.1054
1073.00 0.1053
1073.10 0.1053
1073.20 0.1052
1073.30 0.1052
1073.40 0.1051
1073.50 0.1051
1073.60 0.105
1073.70 0.1049
1073.80 0.1049
1073.90 0.1048
1074.00 0.1048
1074.10 0.1047
1074.20 0.1047
1074.30 0.1046
1074.40 0.1045
1074.50 0.1045
1074.60 0.1044
1074.70 0.1044
1074.80 0.1043
1074.90 0.1042
1075.00 0.1042
1075.10 0.1041
1075.20 0.1041
1075.30 0.104
1075.40 0.1039
1075.50 0.1039
1075.60 0.1038
1075.70 0.1038
1075.80 0.1037
1075.90 0.1037
1076.00 0.1036
1076.10 0.1035
1076.20 0.1035
1076.30 0.1034
1076.40 0.1034
1076.50 0.1033
1076.60 0.1032
1076.70 0.1032
1076.80 0.1031
1076.90 0.1031
1077.00 0.103
1077.10 0.1029
1077.20 0.1029
1077.30 0.1028
1077.40 0.1027
1077.50 0.1027
1077.60 0.1026
1077.70 0.1025
1077.80 0.1025
1077.90 0.1024
1078.00 0.1023
1078.10 0.1022
1078.20 0.1022
1078.30 0.1021
1078.40 0.102
1078.50 0.1019
1078.60 0.1019
1078.70 0.1018
1078.80 0.1017
1078.90 0.1017
1079.00 0.1016
1079.10 0.1015
1079.20 0.1014
1079.30 0.1014
1079.40 0.1013
1079.50 0.1012
1079.60 0.1011
1079.70 0.101
1079.80 0.1009
1079.90 0.1008
1080.00 0.1007
1080.10 0.1007
1080.20 0.1006
1080.30 0.1005
1080.40 0.1004
1080.50 0.1003
1080.60 0.1002
1080.70 0.1001
1080.80 0.1
1080.90 0.09991
1081.00 0.09981
1081.10 0.09972
1081.20 0.09963
1081.30 0.09954
1081.40 0.09944
1081.50 0.09935
1081.60 0.09924
1081.70 0.09914
1081.80 0.09904
1081.90 0.09893
1082.00 0.09883
1082.10 0.09871
1082.20 0.09858
1082.30 0.09846
1082.40 0.09834
1082.50 0.09821
1082.60 0.09809
1082.70 0.09797
1082.80 0.09784
1082.90 0.09772
1083.00 0.09759
1083.10 0.09747
1083.20 0.09735
1083.30 0.09722
1083.40 0.0971
1083.50 0.09697
1083.60 0.09683
1083.70 0.09668
1083.80 0.09654
1083.90 0.0964
1084.00 0.09625
1084.10 0.09611
1084.20 0.09597
1084.30 0.09582
1084.40 0.09568
1084.50 0.09552
1084.60 0.09534
1084.70 0.09515
1084.80 0.09496
1084.90 0.09478
1085.00 0.09459
1085.10 0.09441
1085.20 0.09422
1085.30 0.09403
1085.40 0.09385
1085.50 0.09366
1085.60 0.09348
1085.70 0.09329
1085.80 0.0931
1085.90 0.09292
1086.00 0.09273
1086.10 0.09255
1086.20 0.09236
1086.30 0.09218
1086.40 0.09199
1086.50 0.0918
1086.60 0.09158
1086.70 0.09136
1086.80 0.09114
1086.90 0.09092
1087.00 0.09071
1087.10 0.09044
1087.20 0.09018
1087.30 0.08992
1087.40 0.08966
1087.50 0.08939
1087.60 0.08913
1087.70 0.08887
1087.80 0.08861
1087.90 0.08834
1088.00 0.08808
1088.10 0.08782
1088.20 0.08756
1088.30 0.0873
1088.40 0.08704
1088.50 0.08675
1088.60 0.08642
1088.70 0.08609
1088.80 0.08576
1088.90 0.08543
1089.00 0.0851
1089.10 0.08477
1089.20 0.08444
1089.30 0.08411
1089.40 0.08378
1089.50 0.08345
1089.60 0.08312
1089.70 0.08279
1089.80 0.08246
1089.90 0.08213
1090.00 0.0818
1090.10 0.08148
1090.20 0.08115
1090.30 0.08082
1090.40 0.08049
1090.50 0.08013
1090.60 0.07971
1090.70 0.07928
1090.80 0.07886
1090.90 0.07843
1091.00 0.07801
1091.10 0.07758
1091.20 0.07716
1091.30 0.07674
1091.40 0.07631
1091.50 0.07589
1091.60 0.07547
1091.70 0.07504
1091.80 0.07462
1091.90 0.0742
1092.00 0.07376
1092.10 0.07323
1092.20 0.0727
1092.30 0.07217
1092.40 0.07164
1092.50 0.07111
1092.60 0.07058
1092.70 0.07
1092.80 0.06932
1092.90 0.06865
1093.00 0.06797
1093.10 0.06719
1093.20 0.06619
1093.30 0.06516
1093.40 0.06392
1093.50 0.06368
1093.60 0.06466
1093.70 0.06575
1093.80 0.06671
1093.90 0.06757
1094.00 0.0682
1094.10 0.06884
1094.20 0.06947
1094.30 0.07006
1094.40 0.07054
1094.50 0.07102
1094.60 0.07151
1094.70 0.07199
1094.80 0.07247
1094.90 0.07296
1095.00 0.0734
1095.10 0.07378
1095.20 0.07415
1095.30 0.07452
1095.40 0.0749
1095.50 0.07527
1095.60 0.07564
1095.70 0.07601
1095.80 0.07639
1095.90 0.07676
1096.00 0.07713
1096.10 0.0775
1096.20 0.07787
1096.30 0.07825
1096.40 0.07862
1096.50 0.07897
1096.60 0.07927
1096.70 0.07957
1096.80 0.07988
1096.90 0.08018
1097.00 0.08048
1097.10 0.08074
1097.20 0.081
1097.30 0.08126
1097.40 0.08152
1097.50 0.08178
1097.60 0.08204
1097.70 0.0823
1097.80 0.08256
1097.90 0.08282
1098.00 0.08308
1098.10 0.08334
1098.20 0.0836
1098.30 0.08385
1098.40 0.08411
1098.50 0.08435
1098.60 0.08454
1098.70 0.08472
1098.80 0.08491
1098.90 0.0851
1099.00 0.08529
1099.10 0.08548
1099.20 0.08566
1099.30 0.08585
1099.40 0.08604
1099.50 0.08623
1099.60 0.08641
1099.70 0.0866
1099.80 0.08679
1099.90 0.08698
1100.00 0.08716
1100.10 0.08735
1100.20 0.08754
1100.30 0.08772
1100.40 0.08791
1100.50 0.08808
1100.60 0.0882
1100.70 0.08833
1100.80 0.08845
1100.90 0.08858
1101.00 0.08871
1101.10 0.08883
1101.20 0.08896
1101.30 0.08908
1101.40 0.08921
1101.50 0.08933
1101.60 0.08945
1101.70 0.08958
1101.80 0.0897
1101.90 0.08983
1102.00 0.08995
1102.10 0.09006
1102.20 0.09017
1102.30 0.09028
1102.40 0.09038
1102.50 0.09048
1102.60 0.09056
1102.70 0.09064
1102.80 0.09071
1102.90 0.09079
1103.00 0.09087
1103.10 0.09095
1103.20 0.09103
1103.30 0.0911
1103.40 0.09118
1103.50 0.09125
1103.60 0.09131
1103.70 0.09136
1103.80 0.09141
1103.90 0.09147
1104.00 0.09152
1104.10 0.09157
1104.20 0.09163
1104.30 0.09168
1104.40 0.09173
1104.50 0.09179
1104.60 0.09184
1104.70 0.09189
1104.80 0.09195
1104.90 0.092
1105.00 0.09205
1105.10 0.0921
1105.20 0.09216
1105.30 0.09221
1105.40 0.09226
1105.50 0.09231
1105.60 0.09234
1105.70 0.09236
1105.80 0.09239
1105.90 0.09242
1106.00 0.09244
1106.10 0.09247
1106.20 0.0925
1106.30 0.09252
1106.40 0.09255
1106.50 0.09258
1106.60 0.0926
1106.70 0.09263
1106.80 0.09266
1106.90 0.09268
1107.00 0.09271
1107.10 0.09273
1107.20 0.09275
1107.30 0.09276
1107.40 0.09278
1107.50 0.0928
1107.60 0.09281
1107.70 0.09282
1107.80 0.09283
1107.90 0.09284
1108.00 0.09285
1108.10 0.09286
1108.20 0.09287
1108.30 0.09289
1108.40 0.0929
1108.50 0.09291
1108.60 0.09292
1108.70 0.09293
1108.80 0.09294
1108.90 0.09295
1109.00 0.09296
1109.10 0.09297
1109.20 0.09299
1109.30 0.093
1109.40 0.09301
1109.50 0.09301
1109.60 0.09301
1109.70 0.09301
1109.80 0.09301
1109.90 0.093
1110.00 0.093
1110.10 0.093
1110.20 0.093
1110.30 0.09299
1110.40 0.09299
1110.50 0.09299
1110.60 0.09298
1110.70 0.09298
1110.80 0.09298
1110.90 0.09298
1111.00 0.09297
1111.10 0.09297
1111.20 0.09297
1111.30 0.09297
1111.40 0.09296
1111.50 0.09296
1111.60 0.09296
1111.70 0.09295
1111.80 0.09295
1111.90 0.09295
1112.00 0.09295
1112.10 0.09294
1112.20 0.09293
1112.30 0.09292
1112.40 0.09291
1112.50 0.0929
1112.60 0.09289
1112.70 0.09288
1112.80 0.09287
1112.90 0.09286
1113.00 0.09285
1113.10 0.09285
1113.20 0.09284
1113.30 0.09283
1113.40 0.09282
1113.50 0.09281
1113.60 0.09279
1113.70 0.09278
1113.80 0.09276
1113.90 0.09275
1114.00 0.09274
1114.10 0.09272
1114.20 0.09271
1114.30 0.09269
1114.40 0.09268
1114.50 0.09267
1114.60 0.09265
1114.70 0.09264
1114.80 0.09262
1114.90 0.09261
1115.00 0.0926
1115.10 0.09258
1115.20 0.09257
1115.30 0.09255
1115.40 0.09254
1115.50 0.09253
1115.60 0.09251
1115.70 0.0925
1115.80 0.09248
1115.90 0.09247
1116.00 0.09245
1116.10 0.09244
1116.20 0.09243
1116.30 0.09241
1116.40 0.0924
1116.50 0.09238
1116.60 0.09237
1116.70 0.09236
1116.80 0.09234
1116.90 0.09233
1117.00 0.09231
1117.10 0.09229
1117.20 0.09227
1117.30 0.09225
1117.40 0.09223
1117.50 0.09221
1117.60 0.09219
1117.70 0.09217
1117.80 0.09215
1117.90 0.09213
1118.00 0.09211
1118.10 0.09208
1118.20 0.09206
1118.30 0.09204
1118.40 0.09202
1118.50 0.092
1118.60 0.09198
1118.70 0.09196
1118.80 0.09194
1118.90 0.09192
1119.00 0.0919
1119.10 0.09188
1119.20 0.09186
1119.30 0.09184
1119.40 0.09181
1119.50 0.09179
1119.60 0.09177
1119.70 0.09175
1119.80 0.09173
1119.90 0.09171
1120.00 0.09169
1120.10 0.09167
1120.20 0.09165
1120.30 0.09163
1120.40 0.09161
1120.50 0.09159
1120.60 0.09157
1120.70 0.09155
1120.80 0.09152
1120.90 0.0915
1121.00 0.09148
1121.10 0.09146
1121.20 0.09144
1121.30 0.09142
1121.40 0.0914
1121.50 0.09138
1121.60 0.09136
1121.70 0.09134
1121.80 0.09132
1121.90 0.0913
1122.00 0.09128
1122.10 0.09125
1122.20 0.09123
1122.30 0.09121
1122.40 0.09118
1122.50 0.09116
1122.60 0.09114
1122.70 0.09111
1122.80 0.09109
1122.90 0.09107
1123.00 0.09104
1123.10 0.09102
1123.20 0.09099
1123.30 0.09097
1123.40 0.09095
1123.50 0.09092
1123.60 0.0909
1123.70 0.09088
1123.80 0.09085
1123.90 0.09083
1124.00 0.09081
1124.10 0.09078
1124.20 0.09076
1124.30 0.09074
1124.40 0.09071
1124.50 0.09069
1124.60 0.09067
1124.70 0.09064
1124.80 0.09062
1124.90 0.0906
1125.00 0.09057
1125.10 0.09055
1125.20 0.09053
1125.30 0.0905
1125.40 0.09048
1125.50 0.09046
1125.60 0.09043
1125.70 0.09041
1125.80 0.09039
1125.90 0.09036
1126.00 0.09034
1126.10 0.09032
1126.20 0.09029
1126.30 0.09027
1126.40 0.09025
1126.50 0.09022
1126.60 0.0902
1126.70 0.09018
1126.80 0.09015
1126.90 0.09013
1127.00 0.09011
1127.10 0.09008
1127.20 0.09006
1127.30 0.09003
1127.40 0.09001
1127.50 0.08998
1127.60 0.08996
1127.70 0.08993
1127.80 0.08991
1127.90 0.08988
1128.00 0.08986
1128.10 0.08983
1128.20 0.08981
1128.30 0.08978
1128.40 0.08976
1128.50 0.08973
1128.60 0.08971
1128.70 0.08968
1128.80 0.08965
1128.90 0.08963
1129.00 0.0896
1129.10 0.08958
1129.20 0.08955
1129.30 0.08953
1129.40 0.0895
1129.50 0.08948
1129.60 0.08945
1129.70 0.08943
1129.80 0.0894
1129.90 0.08938
1130.00 0.08936
1130.10 0.08933
1130.20 0.08931
1130.30 0.08928
1130.40 0.08926
1130.50 0.08923
1130.60 0.08921
1130.70 0.08918
1130.80 0.08916
1130.90 0.08913
1131.00 0.08911
1131.10 0.08908
1131.20 0.08906
1131.30 0.08903
1131.40 0.08901
1131.50 0.08898
1131.60 0.08896
1131.70 0.08893
1131.80 0.08891
1131.90 0.08888
1132.00 0.08886
1132.10 0.08883
1132.20 0.08881
1132.30 0.08878
1132.40 0.08876
1132.50 0.08873
1132.60 0.0887
1132.70 0.08868
1132.80 0.08865
1132.90 0.08863
1133.00 0.0886
1133.10 0.08858
1133.20 0.08855
1133.30 0.08853
1133.40 0.0885
1133.50 0.08848
1133.60 0.08845
1133.70 0.08842
1133.80 0.0884
1133.90 0.08837
1134.00 0.08835
1134.10 0.08832
1134.20 0.0883
1134.30 0.08827
1134.40 0.08825
1134.50 0.08822
1134.60 0.0882
1134.70 0.08817
1134.80 0.08815
1134.90 0.08812
1135.00 0.08809
1135.10 0.08807
1135.20 0.08804
1135.30 0.08802
1135.40 0.08799
1135.50 0.08797
1135.60 0.08794
1135.70 0.08792
1135.80 0.08789
1135.90 0.08787
1136.00 0.08784
1136.10 0.08782
1136.20 0.08779
1136.30 0.08777
1136.40 0.08774
1136.50 0.08772
1136.60 0.08769
1136.70 0.08767
1136.80 0.08764
1136.90 0.08762
1137.00 0.08759
1137.10 0.08756
1137.20 0.08754
1137.30 0.08751
1137.40 0.08749
1137.50 0.08746
1137.60 0.08744
1137.70 0.08741
1137.80 0.08739
1137.90 0.08736
1138.00 0.08733
1138.10 0.08731
1138.20 0.08728
1138.30 0.08726
1138.40 0.08723
1138.50 0.08721
1138.60 0.08718
1138.70 0.08716
1138.80 0.08713
1138.90 0.0871
1139.00 0.08708
1139.10 0.08705
1139.20 0.08703
1139.30 0.087
1139.40 0.08698
1139.50 0.08695
1139.60 0.08693
1139.70 0.0869
1139.80 0.08688
1139.90 0.08685
1140.00 0.08683
1140.10 0.0868
1140.20 0.08677
1140.30 0.08675
1140.40 0.08672
1140.50 0.0867
1140.60 0.08667
1140.70 0.08665
1140.80 0.08662
1140.90 0.0866
1141.00 0.08657
1141.10 0.08655
1141.20 0.08652
1141.30 0.0865
1141.40 0.08647
1141.50 0.08645
1141.60 0.08642
1141.70 0.08639
1141.80 0.08637
1141.90 0.08634
1142.00 0.08632
1142.10 0.08629
1142.20 0.08627
1142.30 0.08624
1142.40 0.08622
1142.50 0.08619
1142.60 0.08617
1142.70 0.08614
1142.80 0.08612
1142.90 0.08609
1143.00 0.08606
1143.10 0.08604
1143.20 0.08601
1143.30 0.08599
1143.40 0.08596
1143.50 0.08594
1143.60 0.08591
1143.70 0.08589
1143.80 0.08586
1143.90 0.08584
1144.00 0.08581
1144.10 0.08579
1144.20 0.08576
1144.30 0.08573
1144.40 0.08571
1144.50 0.08568
1144.60 0.08566
1144.70 0.08563
1144.80 0.08561
1144.90 0.08558
1145.00 0.08556
1145.10 0.08553
1145.20 0.08551
1145.30 0.08548
1145.40 0.08546
1145.50 0.08543
1145.60 0.08541
1145.70 0.08538
1145.80 0.08536
1145.90 0.08533
1146.00 0.08531
1146.10 0.08528
1146.20 0.08525
1146.30 0.08523
1146.40 0.0852
1146.50 0.08518
1146.60 0.08515
1146.70 0.08513
1146.80 0.0851
1146.90 0.08508
1147.00 0.08505
1147.10 0.08503
1147.20 0.085
1147.30 0.08498
1147.40 0.08495
1147.50 0.08493
1147.60 0.0849
1147.70 0.08488
1147.80 0.08485
1147.90 0.08483
1148.00 0.0848
1148.10 0.08478
1148.20 0.08475
1148.30 0.08473
1148.40 0.0847
1148.50 0.08468
1148.60 0.08465
1148.70 0.08463
1148.80 0.0846
1148.90 0.08458
1149.00 0.08455
1149.10 0.08453
1149.20 0.0845
1149.30 0.08448
1149.40 0.08445
1149.50 0.08443
1149.60 0.0844
1149.70 0.08438
1149.80 0.08435
1149.90 0.08433
1150.00 0.0843
1150.10 0.08428
1150.20 0.08425
1150.30 0.08423
1150.40 0.0842
1150.50 0.08418
1150.60 0.08415
1150.70 0.08413
1150.80 0.0841
1150.90 0.08408
1151.00 0.08405
1151.10 0.08403
1151.20 0.084
1151.30 0.08398
1151.40 0.08395
1151.50 0.08393
1151.60 0.0839
1151.70 0.08388
1151.80 0.08385
1151.90 0.08383
1152.00 0.0838
1152.10 0.08378
1152.20 0.08375
1152.30 0.08373
1152.40 0.0837
1152.50 0.08368
1152.60 0.08365
1152.70 0.08363
1152.80 0.08361
1152.90 0.08358
1153.00 0.08356
1153.10 0.08353
1153.20 0.08351
1153.30 0.08348
1153.40 0.08346
1153.50 0.08343
1153.60 0.08341
1153.70 0.08338
1153.80 0.08336
1153.90 0.08333
1154.00 0.08331
1154.10 0.08328
1154.20 0.08326
1154.30 0.08323
1154.40 0.08321
1154.50 0.08319
1154.60 0.08316
1154.70 0.08314
1154.80 0.08311
1154.90 0.08309
1155.00 0.08306
1155.10 0.08304
1155.20 0.08301
1155.30 0.08299
1155.40 0.08296
1155.50 0.08294
1155.60 0.08291
1155.70 0.08289
1155.80 0.08287
1155.90 0.08284
1156.00 0.08282
1156.10 0.08279
1156.20 0.08277
1156.30 0.08274
1156.40 0.08272
1156.50 0.08269
1156.60 0.08267
1156.70 0.08265
1156.80 0.08262
1156.90 0.0826
1157.00 0.08257
1157.10 0.08255
1157.20 0.08252
1157.30 0.0825
1157.40 0.08247
1157.50 0.08245
1157.60 0.08242
1157.70 0.0824
1157.80 0.08238
1157.90 0.08235
1158.00 0.08233
1158.10 0.0823
1158.20 0.08228
1158.30 0.08225
1158.40 0.08223
1158.50 0.0822
1158.60 0.08218
1158.70 0.08216
1158.80 0.08213
1158.90 0.08211
1159.00 0.08208
1159.10 0.08206
1159.20 0.08203
1159.30 0.08201
1159.40 0.08199
1159.50 0.08196
1159.60 0.08194
1159.70 0.08191
1159.80 0.08189
1159.90 0.08186
1160.00 0.08184
1160.10 0.08182
1160.20 0.08179
1160.30 0.08177
1160.40 0.08174
1160.50 0.08172
1160.60 0.08169
1160.70 0.08167
1160.80 0.08165
1160.90 0.08162
1161.00 0.0816
1161.10 0.08157
1161.20 0.08155
1161.30 0.08152
1161.40 0.0815
1161.50 0.08148
1161.60 0.08145
1161.70 0.08143
1161.80 0.0814
1161.90 0.08138
1162.00 0.08136
1162.10 0.08133
1162.20 0.08131
1162.30 0.08128
1162.40 0.08126
1162.50 0.08123
1162.60 0.08121
1162.70 0.08119
1162.80 0.08116
1162.90 0.08114
1163.00 0.08111
1163.10 0.08109
1163.20 0.08107
1163.30 0.08104
1163.40 0.08102
1163.50 0.08099
1163.60 0.08097
1163.70 0.08095
1163.80 0.08092
1163.90 0.0809
1164.00 0.08087
1164.10 0.08085
1164.20 0.08083
1164.30 0.0808
1164.40 0.08078
1164.50 0.08075
1164.60 0.08073
1164.70 0.08071
1164.80 0.08068
1164.90 0.08066
1165.00 0.08063
1165.10 0.08061
1165.20 0.08059
1165.30 0.08056
1165.40 0.08054
1165.50 0.08051
1165.60 0.08049
1165.70 0.08047
1165.80 0.08044
1165.90 0.08042
1166.00 0.08039
1166.10 0.08037
1166.20 0.08035
1166.30 0.08032
1166.40 0.0803
1166.50 0.08028
1166.60 0.08025
1166.70 0.08023
1166.80 0.0802
1166.90 0.08018
1167.00 0.08016
1167.10 0.08013
1167.20 0.08011
1167.30 0.08008
1167.40 0.08006
1167.50 0.08004
1167.60 0.08001
1167.70 0.07999
1167.80 0.07997
1167.90 0.07994
1168.00 0.07992
1168.10 0.0799
1168.20 0.07987
1168.30 0.07985
1168.40 0.07982
1168.50 0.0798
1168.60 0.07978
1168.70 0.07975
1168.80 0.07973
1168.90 0.07971
1169.00 0.07968
1169.10 0.07966
1169.20 0.07964
1169.30 0.07961
1169.40 0.07959
1169.50 0.07956
1169.60 0.07954
1169.70 0.07952
1169.80 0.07949
1169.90 0.07947
1170.00 0.07945
1170.10 0.07942
1170.20 0.0794
1170.30 0.07938
1170.40 0.07935
1170.50 0.07933
1170.60 0.07931
1170.70 0.07928
1170.80 0.07926
1170.90 0.07924
1171.00 0.07921
1171.10 0.07919
1171.20 0.07917
1171.30 0.07914
1171.40 0.07912
1171.50 0.07909
1171.60 0.07907
1171.70 0.07905
1171.80 0.07902
1171.90 0.079
1172.00 0.07898
1172.10 0.07895
1172.20 0.07893
1172.30 0.07891
1172.40 0.07888
1172.50 0.07886
1172.60 0.07884
1172.70 0.07881
1172.80 0.07879
1172.90 0.07877
1173.00 0.07874
1173.10 0.07872
1173.20 0.0787
1173.30 0.07867
1173.40 0.07865
1173.50 0.07863
1173.60 0.07861
1173.70 0.07858
1173.80 0.07856
1173.90 0.07854
1174.00 0.07851
1174.10 0.07849
1174.20 0.07847
1174.30 0.07844
1174.40 0.07842
1174.50 0.0784
1174.60 0.07837
1174.70 0.07835
1174.80 0.07833
1174.90 0.0783
1175.00 0.07828
1175.10 0.07826
1175.20 0.07823
1175.30 0.07821
1175.40 0.07819
1175.50 0.07817
1175.60 0.07814
1175.70 0.07812
1175.80 0.0781
1175.90 0.07807
1176.00 0.07805
1176.10 0.07803
1176.20 0.078
1176.30 0.07798
1176.40 0.07796
1176.50 0.07793
1176.60 0.07791
1176.70 0.07789
1176.80 0.07787
1176.90 0.07784
1177.00 0.07782
1177.10 0.0778
1177.20 0.07777
1177.30 0.07775
1177.40 0.07773
1177.50 0.0777
1177.60 0.07768
1177.70 0.07766
1177.80 0.07764
1177.90 0.07761
1178.00 0.07759
1178.10 0.07757
1178.20 0.07754
1178.30 0.07752
1178.40 0.0775
1178.50 0.07748
1178.60 0.07745
1178.70 0.07743
1178.80 0.07741
1178.90 0.07738
1179.00 0.07736
1179.10 0.07734
1179.20 0.07732
1179.30 0.07729
1179.40 0.07727
1179.50 0.07725
1179.60 0.07722
1179.70 0.0772
1179.80 0.07718
1179.90 0.07716
1180.00 0.07713
1180.10 0.07711
1180.20 0.07709
1180.30 0.07706
1180.40 0.07704
1180.50 0.07702
1180.60 0.077
1180.70 0.07697
1180.80 0.07695
1180.90 0.07693
1181.00 0.0769
1181.10 0.07688
1181.20 0.07686
1181.30 0.07684
1181.40 0.07681
1181.50 0.07679
1181.60 0.07677
1181.70 0.07675
1181.80 0.07672
1181.90 0.0767
1182.00 0.07668
1182.10 0.07666
1182.20 0.07663
1182.30 0.07661
1182.40 0.07659
1182.50 0.07657
1182.60 0.07654
1182.70 0.07652
1182.80 0.0765
1182.90 0.07647
1183.00 0.07645
1183.10 0.07643
1183.20 0.07641
1183.30 0.07638
1183.40 0.07636
1183.50 0.07634
1183.60 0.07632
1183.70 0.07629
1183.80 0.07627
1183.90 0.07625
1184.00 0.07623
1184.10 0.0762
1184.20 0.07618
1184.30 0.07616
1184.40 0.07614
1184.50 0.07611
1184.60 0.07609
1184.70 0.07607
1184.80 0.07605
1184.90 0.07603
1185.00 0.076
1185.10 0.07598
1185.20 0.07596
1185.30 0.07594
1185.40 0.07591
1185.50 0.07589
1185.60 0.07587
1185.70 0.07585
1185.80 0.07582
1185.90 0.0758
1186.00 0.07578
1186.10 0.07576
1186.20 0.07573
1186.30 0.07571
1186.40 0.07569
1186.50 0.07567
1186.60 0.07565
1186.70 0.07562
1186.80 0.0756
1186.90 0.07558
1187.00 0.07556
1187.10 0.07553
1187.20 0.07551
1187.30 0.07549
1187.40 0.07547
1187.50 0.07544
1187.60 0.07542
1187.70 0.0754
1187.80 0.07538
1187.90 0.07536
1188.00 0.07533
1188.10 0.07531
1188.20 0.07529
1188.30 0.07527
1188.40 0.07525
1188.50 0.07522
1188.60 0.0752
1188.70 0.07518
1188.80 0.07516
1188.90 0.07513
1189.00 0.07511
1189.10 0.07509
1189.20 0.07507
1189.30 0.07505
1189.40 0.07502
1189.50 0.075
1189.60 0.07498
1189.70 0.07496
1189.80 0.07494
1189.90 0.07491
1190.00 0.07489
1190.10 0.07487
1190.20 0.07485
1190.30 0.07483
1190.40 0.0748
1190.50 0.07478
1190.60 0.07476
1190.70 0.07474
1190.80 0.07472
1190.90 0.07469
1191.00 0.07467
1191.10 0.07465
1191.20 0.07463
1191.30 0.07461
1191.40 0.07458
1191.50 0.07456
1191.60 0.07454
1191.70 0.07452
1191.80 0.0745
1191.90 0.07447
1192.00 0.07445
1192.10 0.07443
1192.20 0.07441
1192.30 0.07439
1192.40 0.07437
1192.50 0.07434
1192.60 0.07432
1192.70 0.0743
1192.80 0.07428
1192.90 0.07426
1193.00 0.07423
1193.10 0.07421
1193.20 0.07419
1193.30 0.07417
1193.40 0.07415
1193.50 0.07413
1193.60 0.0741
1193.70 0.07408
1193.80 0.07406
1193.90 0.07404
1194.00 0.07402
1194.10 0.07399
1194.20 0.07397
1194.30 0.07395
1194.40 0.07393
1194.50 0.07391
1194.60 0.07389
1194.70 0.07386
1194.80 0.07384
1194.90 0.07382
1195.00 0.0738
1195.10 0.07378
1195.20 0.07376
1195.30 0.07373
1195.40 0.07371
1195.50 0.07369
1195.60 0.07367
1195.70 0.07365
1195.80 0.07363
1195.90 0.0736
1196.00 0.07358
1196.10 0.07356
1196.20 0.07354
1196.30 0.07352
1196.40 0.0735
1196.50 0.07347
1196.60 0.07345
1196.70 0.07343
1196.80 0.07341
1196.90 0.07339
1197.00 0.07337
1197.10 0.07334
1197.20 0.07332
1197.30 0.0733
1197.40 0.07328
1197.50 0.07326
1197.60 0.07324
1197.70 0.07322
1197.80 0.07319
1197.90 0.07317
1198.00 0.07315
1198.10 0.07313
1198.20 0.07311
1198.30 0.07309
1198.40 0.07306
1198.50 0.07304
1198.60 0.07302
1198.70 0.073
1198.80 0.07298
1198.90 0.07296
1199.00 0.07294
1199.10 0.07291
1199.20 0.07289
1199.30 0.07287
1199.40 0.07285
1199.50 0.07283
1199.60 0.07281
1199.70 0.07279
1199.80 0.07277
1199.90 0.07274
1200.00 0
