# Version 2.1 - nm, norm@500 to 1, cut digits
# Wavelength(nm)  Flambda(ergs/cm^s/s/nm)
300.00 1.220054e-95
300.10 1.220054e-95
300.20 1.220054e-95
300.30 1.220054e-95
300.40 1.220054e-95
300.50 1.220054e-95
300.60 1.220054e-95
300.70 1.220054e-95
300.80 1.220054e-95
300.90 1.220054e-95
301.00 1.220054e-95
301.10 1.220054e-95
301.20 1.220054e-95
301.30 1.220054e-95
301.40 1.220054e-95
301.50 1.220054e-95
301.60 1.220054e-95
301.70 1.220054e-95
301.80 1.220054e-95
301.90 1.220054e-95
302.00 1.220054e-95
302.10 1.220054e-95
302.20 1.220054e-95
302.30 1.220054e-95
302.40 1.220054e-95
302.50 1.220054e-95
302.60 1.220054e-95
302.70 1.220054e-95
302.80 1.220054e-95
302.90 1.220054e-95
303.00 1.220054e-95
303.10 1.220054e-95
303.20 1.220054e-95
303.30 1.220054e-95
303.40 1.220054e-95
303.50 1.220054e-95
303.60 1.220054e-95
303.70 1.220054e-95
303.80 1.220054e-95
303.90 1.220054e-95
304.00 1.220054e-95
304.10 1.220054e-95
304.20 1.220054e-95
304.30 1.220054e-95
304.40 1.220054e-95
304.50 1.220054e-95
304.60 1.220054e-95
304.70 1.220054e-95
304.80 1.220054e-95
304.90 1.220054e-95
305.00 1.220054e-95
305.10 1.220054e-95
305.20 1.220054e-95
305.30 1.220054e-95
305.40 1.220054e-95
305.50 1.220054e-95
305.60 1.220054e-95
305.70 1.220054e-95
305.80 1.220054e-95
305.90 1.220054e-95
306.00 1.220054e-95
306.10 1.220054e-95
306.20 1.220054e-95
306.30 1.220054e-95
306.40 1.220054e-95
306.50 1.220054e-95
306.60 1.220054e-95
306.70 1.220054e-95
306.80 1.220054e-95
306.90 1.220054e-95
307.00 1.220054e-95
307.10 1.220054e-95
307.20 1.220054e-95
307.30 1.220054e-95
307.40 1.220054e-95
307.50 1.220054e-95
307.60 1.220054e-95
307.70 1.220054e-95
307.80 1.220054e-95
307.90 1.220054e-95
308.00 1.220054e-95
308.10 1.220054e-95
308.20 1.220054e-95
308.30 1.220054e-95
308.40 1.220054e-95
308.50 1.220054e-95
308.60 1.220054e-95
308.70 1.220054e-95
308.80 1.220054e-95
308.90 1.220054e-95
309.00 1.220054e-95
309.10 1.220054e-95
309.20 1.220054e-95
309.30 1.220054e-95
309.40 1.220054e-95
309.50 1.220054e-95
309.60 1.220054e-95
309.70 1.220054e-95
309.80 1.220054e-95
309.90 1.220054e-95
310.00 1.220054e-95
310.10 1.220054e-95
310.20 1.220054e-95
310.30 1.220054e-95
310.40 1.220054e-95
310.50 1.220054e-95
310.60 1.220054e-95
310.70 1.220054e-95
310.80 1.220054e-95
310.90 1.220054e-95
311.00 1.220054e-95
311.10 1.220054e-95
311.20 1.220054e-95
311.30 1.220054e-95
311.40 1.220054e-95
311.50 1.220054e-95
311.60 1.220054e-95
311.70 1.220054e-95
311.80 1.220054e-95
311.90 1.220054e-95
312.00 1.220054e-95
312.10 1.220054e-95
312.20 1.220054e-95
312.30 1.220054e-95
312.40 1.220054e-95
312.50 1.220054e-95
312.60 1.220054e-95
312.70 1.220054e-95
312.80 1.220054e-95
312.90 1.220054e-95
313.00 1.220054e-95
313.10 1.220054e-95
313.20 1.220054e-95
313.30 1.220054e-95
313.40 1.220054e-95
313.50 1.220054e-95
313.60 1.220054e-95
313.70 1.220054e-95
313.80 1.220054e-95
313.90 1.220054e-95
314.00 1.220054e-95
314.10 1.220054e-95
314.20 1.220054e-95
314.30 1.220054e-95
314.40 1.220054e-95
314.50 1.220054e-95
314.60 1.220054e-95
314.70 1.220054e-95
314.80 1.220054e-95
314.90 1.220054e-95
315.00 1.220054e-95
315.10 1.220054e-95
315.20 1.220054e-95
315.30 1.220054e-95
315.40 1.220054e-95
315.50 1.220054e-95
315.60 1.220054e-95
315.70 1.220054e-95
315.80 1.220054e-95
315.90 1.220054e-95
316.00 1.220054e-95
316.10 1.220054e-95
316.20 1.220054e-95
316.30 1.220054e-95
316.40 1.220054e-95
316.50 1.220054e-95
316.60 1.220054e-95
316.70 1.220054e-95
316.80 1.220054e-95
316.90 1.220054e-95
317.00 1.220054e-95
317.10 1.220054e-95
317.20 1.220054e-95
317.30 1.220054e-95
317.40 1.220054e-95
317.50 1.220054e-95
317.60 1.220054e-95
317.70 1.220054e-95
317.80 1.220054e-95
317.90 1.220054e-95
318.00 1.220054e-95
318.10 1.220054e-95
318.20 1.220054e-95
318.30 1.220054e-95
318.40 1.220054e-95
318.50 1.220054e-95
318.60 1.220054e-95
318.70 1.220054e-95
318.80 1.220054e-95
318.90 1.220054e-95
319.00 1.220054e-95
319.10 1.220054e-95
319.20 1.220054e-95
319.30 1.220054e-95
319.40 1.220054e-95
319.50 1.220054e-95
319.60 1.220054e-95
319.70 1.220054e-95
319.80 1.220054e-95
319.90 1.220054e-95
320.00 1.220054e-95
320.10 1.220054e-95
320.20 1.220054e-95
320.30 1.220054e-95
320.40 1.220054e-95
320.50 1.220054e-95
320.60 1.220054e-95
320.70 1.220054e-95
320.80 1.220054e-95
320.90 1.220054e-95
321.00 1.220054e-95
321.10 1.220054e-95
321.20 1.220054e-95
321.30 1.220054e-95
321.40 1.220054e-95
321.50 1.220054e-95
321.60 1.220054e-95
321.70 1.220054e-95
321.80 1.220054e-95
321.90 1.220054e-95
322.00 1.220054e-95
322.10 1.220054e-95
322.20 1.220054e-95
322.30 1.220054e-95
322.40 1.220054e-95
322.50 1.220054e-95
322.60 1.220054e-95
322.70 1.220054e-95
322.80 1.220054e-95
322.90 1.220054e-95
323.00 1.220054e-95
323.10 1.220054e-95
323.20 1.220054e-95
323.30 1.220054e-95
323.40 1.220054e-95
323.50 1.220054e-95
323.60 1.220054e-95
323.70 1.220054e-95
323.80 1.220054e-95
323.90 1.220054e-95
324.00 1.220054e-95
324.10 1.220054e-95
324.20 1.220054e-95
324.30 1.220054e-95
324.40 1.220054e-95
324.50 1.220054e-95
324.60 1.220054e-95
324.70 1.220054e-95
324.80 1.220054e-95
324.90 1.220054e-95
325.00 1.220054e-95
325.10 1.220054e-95
325.20 1.220054e-95
325.30 1.220054e-95
325.40 1.220054e-95
325.50 1.220054e-95
325.60 1.220054e-95
325.70 1.220054e-95
325.80 1.220054e-95
325.90 1.220054e-95
326.00 1.220054e-95
326.10 1.220054e-95
326.20 1.220054e-95
326.30 1.220054e-95
326.40 1.220054e-95
326.50 1.220054e-95
326.60 1.220054e-95
326.70 1.220054e-95
326.80 1.220054e-95
326.90 1.220054e-95
327.00 1.220054e-95
327.10 1.220054e-95
327.20 1.220054e-95
327.30 1.220054e-95
327.40 1.220054e-95
327.50 1.220054e-95
327.60 1.220054e-95
327.70 1.220054e-95
327.80 1.220054e-95
327.90 1.220054e-95
328.00 1.220054e-95
328.10 1.220054e-95
328.20 1.220054e-95
328.30 1.220054e-95
328.40 1.220054e-95
328.50 1.220054e-95
328.60 1.220054e-95
328.70 1.220054e-95
328.80 1.220054e-95
328.90 1.220054e-95
329.00 1.220054e-95
329.10 1.220054e-95
329.20 1.220054e-95
329.30 1.220054e-95
329.40 1.220054e-95
329.50 1.220054e-95
329.60 1.220054e-95
329.70 1.220054e-95
329.80 1.220054e-95
329.90 1.220054e-95
330.00 1.220054e-95
330.10 1.220054e-95
330.20 1.220054e-95
330.30 1.220054e-95
330.40 1.220054e-95
330.50 1.220054e-95
330.60 1.220054e-95
330.70 1.220054e-95
330.80 1.220054e-95
330.90 1.220054e-95
331.00 1.220054e-95
331.10 1.220054e-95
331.20 1.220054e-95
331.30 1.220054e-95
331.40 1.220054e-95
331.50 1.220054e-95
331.60 1.220054e-95
331.70 1.220054e-95
331.80 1.220054e-95
331.90 1.220054e-95
332.00 1.220054e-95
332.10 1.220054e-95
332.20 1.220054e-95
332.30 1.220054e-95
332.40 1.220054e-95
332.50 1.220054e-95
332.60 1.220054e-95
332.70 1.220054e-95
332.80 1.220054e-95
332.90 1.220054e-95
333.00 1.220054e-95
333.10 1.220054e-95
333.20 1.220054e-95
333.30 1.220054e-95
333.40 1.220054e-95
333.50 1.220054e-95
333.60 1.220054e-95
333.70 1.220054e-95
333.80 1.220054e-95
333.90 1.220054e-95
334.00 1.220054e-95
334.10 1.220054e-95
334.20 1.220054e-95
334.30 1.220054e-95
334.40 1.220054e-95
334.50 1.220054e-95
334.60 1.220054e-95
334.70 1.220054e-95
334.80 1.220054e-95
334.90 1.220054e-95
335.00 1.220054e-95
335.10 1.220054e-95
335.20 1.220054e-95
335.30 1.220054e-95
335.40 1.220054e-95
335.50 1.220054e-95
335.60 1.220054e-95
335.70 1.220054e-95
335.80 1.220054e-95
335.90 1.220054e-95
336.00 1.220054e-95
336.10 1.220054e-95
336.20 1.220054e-95
336.30 1.220054e-95
336.40 1.220054e-95
336.50 1.220054e-95
336.60 1.220054e-95
336.70 1.220054e-95
336.80 1.220054e-95
336.90 1.220054e-95
337.00 1.220054e-95
337.10 1.220054e-95
337.20 1.220054e-95
337.30 1.220054e-95
337.40 1.220054e-95
337.50 1.220054e-95
337.60 1.220054e-95
337.70 1.220054e-95
337.80 1.220054e-95
337.90 1.220054e-95
338.00 1.220054e-95
338.10 1.220054e-95
338.20 1.220054e-95
338.30 1.220054e-95
338.40 1.220054e-95
338.50 1.220054e-95
338.60 1.220054e-95
338.70 1.220054e-95
338.80 1.220054e-95
338.90 1.220054e-95
339.00 1.220054e-95
339.10 1.220054e-95
339.20 1.220054e-95
339.30 1.220054e-95
339.40 1.220054e-95
339.50 1.220054e-95
339.60 1.220054e-95
339.70 1.220054e-95
339.80 1.220054e-95
339.90 1.220054e-95
340.00 1.220054e-95
340.10 1.220054e-95
340.20 1.220054e-95
340.30 1.220054e-95
340.40 1.220054e-95
340.50 1.220054e-95
340.60 1.220054e-95
340.70 1.220054e-95
340.80 1.220054e-95
340.90 1.220054e-95
341.00 1.220054e-95
341.10 1.220054e-95
341.20 1.220054e-95
341.30 1.220054e-95
341.40 1.220054e-95
341.50 1.220054e-95
341.60 1.220054e-95
341.70 1.220054e-95
341.80 1.220054e-95
341.90 1.220054e-95
342.00 1.220054e-95
342.10 1.220054e-95
342.20 1.220054e-95
342.30 1.220054e-95
342.40 1.220054e-95
342.50 1.220054e-95
342.60 1.220054e-95
342.70 1.220054e-95
342.80 1.220054e-95
342.90 1.220054e-95
343.00 1.220054e-95
343.10 1.220054e-95
343.20 1.220054e-95
343.30 1.220054e-95
343.40 1.220054e-95
343.50 1.220054e-95
343.60 1.220054e-95
343.70 1.220054e-95
343.80 1.220054e-95
343.90 1.220054e-95
344.00 1.220054e-95
344.10 1.220054e-95
344.20 1.220054e-95
344.30 1.220054e-95
344.40 1.220054e-95
344.50 1.220054e-95
344.60 1.220054e-95
344.70 1.220054e-95
344.80 1.220054e-95
344.90 1.220054e-95
345.00 1.220054e-95
345.10 1.220054e-95
345.20 1.220054e-95
345.30 1.220054e-95
345.40 1.220054e-95
345.50 1.220054e-95
345.60 1.220054e-95
345.70 1.220054e-95
345.80 1.220054e-95
345.90 1.220054e-95
346.00 1.220054e-95
346.10 1.220054e-95
346.20 1.220054e-95
346.30 1.220054e-95
346.40 1.220054e-95
346.50 1.220054e-95
346.60 1.220054e-95
346.70 1.220054e-95
346.80 1.220054e-95
346.90 1.220054e-95
347.00 1.220054e-95
347.10 1.220054e-95
347.20 1.220054e-95
347.30 1.220054e-95
347.40 1.220054e-95
347.50 1.220054e-95
347.60 1.220054e-95
347.70 1.220054e-95
347.80 1.220054e-95
347.90 1.220054e-95
348.00 1.220054e-95
348.10 1.220054e-95
348.20 1.220054e-95
348.30 1.220054e-95
348.40 1.220054e-95
348.50 1.220054e-95
348.60 1.220054e-95
348.70 1.220054e-95
348.80 1.220054e-95
348.90 1.220054e-95
349.00 1.220054e-95
349.10 1.220054e-95
349.20 1.220054e-95
349.30 1.220054e-95
349.40 1.220054e-95
349.50 1.220054e-95
349.60 1.220054e-95
349.70 1.220054e-95
349.80 1.220054e-95
349.90 1.220054e-95
350.00 1.220054e-95
350.10 1.220054e-95
350.20 1.220054e-95
350.30 1.220054e-95
350.40 1.220054e-95
350.50 1.220054e-95
350.60 1.220054e-95
350.70 1.220054e-95
350.80 1.220054e-95
350.90 1.220054e-95
351.00 1.220054e-95
351.10 1.220054e-95
351.20 1.220054e-95
351.30 1.220054e-95
351.40 1.220054e-95
351.50 1.220054e-95
351.60 1.220054e-95
351.70 1.220054e-95
351.80 1.220054e-95
351.90 1.220054e-95
352.00 1.220054e-95
352.10 1.220054e-95
352.20 1.220054e-95
352.30 1.220054e-95
352.40 1.220054e-95
352.50 1.220054e-95
352.60 1.220054e-95
352.70 1.220054e-95
352.80 1.220054e-95
352.90 1.220054e-95
353.00 1.220054e-95
353.10 1.220054e-95
353.20 1.220054e-95
353.30 1.220054e-95
353.40 1.220054e-95
353.50 1.220054e-95
353.60 1.220054e-95
353.70 1.220054e-95
353.80 1.220054e-95
353.90 1.220054e-95
354.00 1.220054e-95
354.10 1.220054e-95
354.20 1.220054e-95
354.30 1.220054e-95
354.40 1.220054e-95
354.50 1.220054e-95
354.60 1.220054e-95
354.70 1.220054e-95
354.80 1.220054e-95
354.90 1.220054e-95
355.00 1.220054e-95
355.10 1.220054e-95
355.20 1.220054e-95
355.30 1.220054e-95
355.40 1.220054e-95
355.50 1.220054e-95
355.60 1.220054e-95
355.70 1.220054e-95
355.80 1.220054e-95
355.90 1.220054e-95
356.00 1.220054e-95
356.10 1.220054e-95
356.20 1.220054e-95
356.30 1.220054e-95
356.40 1.220054e-95
356.50 1.220054e-95
356.60 1.220054e-95
356.70 1.220054e-95
356.80 1.220054e-95
356.90 1.220054e-95
357.00 1.220054e-95
357.10 1.220054e-95
357.20 1.220054e-95
357.30 1.220054e-95
357.40 1.220054e-95
357.50 1.220054e-95
357.60 1.220054e-95
357.70 1.220054e-95
357.80 1.220054e-95
357.90 1.220054e-95
358.00 1.220054e-95
358.10 1.220054e-95
358.20 1.220054e-95
358.30 1.220054e-95
358.40 1.220054e-95
358.50 1.220054e-95
358.60 1.220054e-95
358.70 1.220054e-95
358.80 1.220054e-95
358.90 1.220054e-95
359.00 1.220054e-95
359.10 1.220054e-95
359.20 1.220054e-95
359.30 1.220054e-95
359.40 1.220054e-95
359.50 1.220054e-95
359.60 1.220054e-95
359.70 1.220054e-95
359.80 1.220054e-95
359.90 1.220054e-95
360.00 1.220054e-95
360.10 1.220054e-95
360.20 1.220054e-95
360.30 1.220054e-95
360.40 1.220054e-95
360.50 1.220054e-95
360.60 1.220054e-95
360.70 1.220054e-95
360.80 1.220054e-95
360.90 1.220054e-95
361.00 1.220054e-95
361.10 1.220054e-95
361.20 1.220054e-95
361.30 1.220054e-95
361.40 1.220054e-95
361.50 1.220054e-95
361.60 1.220054e-95
361.70 1.220054e-95
361.80 1.220054e-95
361.90 1.220054e-95
362.00 1.220054e-95
362.10 1.220054e-95
362.20 1.220054e-95
362.30 1.220054e-95
362.40 1.220054e-95
362.50 1.220054e-95
362.60 1.220054e-95
362.70 1.220054e-95
362.80 1.220054e-95
362.90 1.220054e-95
363.00 1.220054e-95
363.10 1.220054e-95
363.20 1.220054e-95
363.30 1.220054e-95
363.40 1.220054e-95
363.50 1.220054e-95
363.60 1.220054e-95
363.70 1.220054e-95
363.80 1.220054e-95
363.90 1.220054e-95
364.00 1.220054e-95
364.10 1.220054e-95
364.20 1.220054e-95
364.30 1.220054e-95
364.40 1.220054e-95
364.50 1.220054e-95
364.60 1.220054e-95
364.70 1.220054e-95
364.80 1.220054e-95
364.90 1.220054e-95
365.00 1.220054e-95
365.10 1.220054e-95
365.20 1.220054e-95
365.30 1.220054e-95
365.40 1.220054e-95
365.50 1.220054e-95
365.60 1.220054e-95
365.70 1.220054e-95
365.80 1.220054e-95
365.90 1.220054e-95
366.00 1.220054e-95
366.10 1.220054e-95
366.20 1.220054e-95
366.30 1.220054e-95
366.40 1.220054e-95
366.50 1.220054e-95
366.60 1.220054e-95
366.70 1.220054e-95
366.80 1.220054e-95
366.90 1.220054e-95
367.00 1.220054e-95
367.10 1.220054e-95
367.20 1.220054e-95
367.30 1.220054e-95
367.40 1.220054e-95
367.50 1.220054e-95
367.60 1.220054e-95
367.70 1.220054e-95
367.80 1.220054e-95
367.90 1.220054e-95
368.00 1.220054e-95
368.10 1.220054e-95
368.20 1.220054e-95
368.30 1.220054e-95
368.40 1.220054e-95
368.50 1.220054e-95
368.60 1.220054e-95
368.70 1.220054e-95
368.80 1.220054e-95
368.90 1.220054e-95
369.00 1.220054e-95
369.10 1.220054e-95
369.20 1.220054e-95
369.30 1.220054e-95
369.40 1.220054e-95
369.50 1.220054e-95
369.60 1.220054e-95
369.70 1.220054e-95
369.80 1.220054e-95
369.90 1.220054e-95
370.00 1.220054e-95
370.10 1.220054e-95
370.20 1.220054e-95
370.30 1.220054e-95
370.40 1.220054e-95
370.50 1.220054e-95
370.60 1.220054e-95
370.70 1.220054e-95
370.80 1.220054e-95
370.90 1.220054e-95
371.00 1.220054e-95
371.10 1.220054e-95
371.20 1.220054e-95
371.30 1.220054e-95
371.40 1.220054e-95
371.50 1.220054e-95
371.60 1.220054e-95
371.70 1.220054e-95
371.80 1.220054e-95
371.90 1.220054e-95
372.00 1.220054e-95
372.10 1.220054e-95
372.20 1.220054e-95
372.30 1.220054e-95
372.40 1.220054e-95
372.50 1.220054e-95
372.60 1.220054e-95
372.70 1.220054e-95
372.80 1.220054e-95
372.90 1.220054e-95
373.00 1.220054e-95
373.10 1.220054e-95
373.20 1.220054e-95
373.30 1.220054e-95
373.40 1.220054e-95
373.50 1.220054e-95
373.60 1.220054e-95
373.70 1.220054e-95
373.80 1.220054e-95
373.90 1.220054e-95
374.00 1.220054e-95
374.10 1.220054e-95
374.20 1.220054e-95
374.30 1.220054e-95
374.40 1.220054e-95
374.50 1.220054e-95
374.60 1.220054e-95
374.70 1.220054e-95
374.80 1.220054e-95
374.90 1.220054e-95
375.00 1.220054e-95
375.10 1.220054e-95
375.20 1.220054e-95
375.30 1.220054e-95
375.40 1.220054e-95
375.50 1.220054e-95
375.60 1.220054e-95
375.70 1.220054e-95
375.80 1.220054e-95
375.90 1.220054e-95
376.00 1.220054e-95
376.10 1.220054e-95
376.20 1.220054e-95
376.30 1.220054e-95
376.40 1.220054e-95
376.50 1.220054e-95
376.60 1.220054e-95
376.70 1.220054e-95
376.80 1.220054e-95
376.90 1.220054e-95
377.00 1.220054e-95
377.10 1.220054e-95
377.20 1.220054e-95
377.30 1.220054e-95
377.40 1.220054e-95
377.50 1.220054e-95
377.60 1.220054e-95
377.70 1.220054e-95
377.80 1.220054e-95
377.90 1.220054e-95
378.00 1.220054e-95
378.10 1.220054e-95
378.20 1.220054e-95
378.30 1.220054e-95
378.40 1.220054e-95
378.50 1.220054e-95
378.60 1.220054e-95
378.70 1.220054e-95
378.80 1.220054e-95
378.90 1.220054e-95
379.00 1.220054e-95
379.10 1.220054e-95
379.20 1.220054e-95
379.30 1.220054e-95
379.40 1.220054e-95
379.50 1.220054e-95
379.60 1.220054e-95
379.70 1.220054e-95
379.80 1.220054e-95
379.90 1.220054e-95
380.00 1.220054e-95
380.10 1.220054e-95
380.20 1.220054e-95
380.30 1.220054e-95
380.40 1.220054e-95
380.50 1.220054e-95
380.60 1.220054e-95
380.70 1.220054e-95
380.80 1.220054e-95
380.90 1.220054e-95
381.00 1.220054e-95
381.10 1.220054e-95
381.20 1.220054e-95
381.30 1.220054e-95
381.40 1.220054e-95
381.50 1.220054e-95
381.60 1.220054e-95
381.70 1.220054e-95
381.80 1.220054e-95
381.90 1.220054e-95
382.00 1.220054e-95
382.10 1.220054e-95
382.20 1.220054e-95
382.30 1.220054e-95
382.40 1.220054e-95
382.50 1.220054e-95
382.60 1.220054e-95
382.70 1.220054e-95
382.80 1.220054e-95
382.90 1.220054e-95
383.00 1.220054e-95
383.10 1.220054e-95
383.20 1.220054e-95
383.30 1.220054e-95
383.40 1.220054e-95
383.50 1.220054e-95
383.60 1.220054e-95
383.70 1.220054e-95
383.80 1.220054e-95
383.90 1.220054e-95
384.00 1.220054e-95
384.10 1.220054e-95
384.20 1.220054e-95
384.30 1.220054e-95
384.40 1.220054e-95
384.50 1.220054e-95
384.60 1.220054e-95
384.70 1.220054e-95
384.80 1.220054e-95
384.90 1.220054e-95
385.00 1.220054e-95
385.10 1.220054e-95
385.20 1.220054e-95
385.30 1.220054e-95
385.40 1.220054e-95
385.50 1.220054e-95
385.60 1.220054e-95
385.70 1.220054e-95
385.80 1.220054e-95
385.90 1.220054e-95
386.00 1.220054e-95
386.10 1.220054e-95
386.20 1.220054e-95
386.30 1.220054e-95
386.40 1.220054e-95
386.50 1.220054e-95
386.60 1.220054e-95
386.70 1.220054e-95
386.80 1.220054e-95
386.90 1.220054e-95
387.00 1.220054e-95
387.10 1.220054e-95
387.20 1.220054e-95
387.30 1.220054e-95
387.40 1.220054e-95
387.50 1.220054e-95
387.60 1.220054e-95
387.70 1.220054e-95
387.80 1.220054e-95
387.90 1.220054e-95
388.00 1.220054e-95
388.10 1.220054e-95
388.20 1.220054e-95
388.30 1.220054e-95
388.40 1.220054e-95
388.50 1.220054e-95
388.60 1.220054e-95
388.70 1.220054e-95
388.80 1.220054e-95
388.90 1.220054e-95
389.00 1.220054e-95
389.10 1.220054e-95
389.20 1.220054e-95
389.30 1.220054e-95
389.40 1.220054e-95
389.50 1.220054e-95
389.60 1.220054e-95
389.70 1.220054e-95
389.80 1.220054e-95
389.90 1.220054e-95
390.00 1.220054e-95
390.10 1.220054e-95
390.20 1.220054e-95
390.30 1.220054e-95
390.40 1.220054e-95
390.50 1.220054e-95
390.60 1.220054e-95
390.70 1.220054e-95
390.80 1.220054e-95
390.90 1.220054e-95
391.00 1.220054e-95
391.10 1.220054e-95
391.20 1.220054e-95
391.30 1.220054e-95
391.40 1.220054e-95
391.50 1.220054e-95
391.60 1.220054e-95
391.70 1.220054e-95
391.80 1.220054e-95
391.90 1.220054e-95
392.00 1.220054e-95
392.10 1.220054e-95
392.20 1.220054e-95
392.30 1.220054e-95
392.40 1.220054e-95
392.50 1.220054e-95
392.60 1.220054e-95
392.70 1.220054e-95
392.80 1.220054e-95
392.90 1.220054e-95
393.00 1.220054e-95
393.10 1.220054e-95
393.20 1.220054e-95
393.30 1.220054e-95
393.40 1.220054e-95
393.50 1.220054e-95
393.60 1.220054e-95
393.70 1.220054e-95
393.80 1.220054e-95
393.90 1.220054e-95
394.00 1.220054e-95
394.10 1.220054e-95
394.20 1.220054e-95
394.30 1.220054e-95
394.40 1.220054e-95
394.50 1.220054e-95
394.60 1.220054e-95
394.70 1.220054e-95
394.80 1.220054e-95
394.90 1.220054e-95
395.00 0.0113469
395.10 0.02178797
395.20 0.03131465
395.30 0.03999037
395.40 0.04783104
395.50 0.05483651
395.60 0.06118744
395.70 0.06706286
395.80 0.07259586
395.90 0.07816335
396.00 0.08466499
396.10 0.09321881
396.20 0.1045487
396.30 0.1186994
396.40 0.1349582
396.50 0.151938
396.60 0.1679069
396.70 0.1812207
396.80 0.1907149
396.90 0.1959102
397.00 0.1970632
397.10 0.1970632
397.20 0.1970632
397.30 0.1970632
397.40 0.1970632
397.50 0.1974217
397.60 0.1997739
397.70 0.2035026
397.80 0.2077214
397.90 0.2117362
398.00 0.2151742
398.10 0.2180568
398.20 0.2208382
398.30 0.2242357
398.40 0.2288475
398.50 0.2349224
398.60 0.2421242
398.70 0.2496297
398.80 0.2565396
398.90 0.2620958
399.00 0.2657156
399.10 0.2672525
399.20 0.2672525
399.30 0.2672525
399.40 0.2672525
399.50 0.2672525
399.60 0.2672525
399.70 0.2672525
399.80 0.2672525
399.90 0.2672525
400.00 0.2672525
400.10 0.2672525
400.20 0.2672525
400.30 0.2672525
400.40 0.2672525
400.50 0.2672525
400.60 0.2678778
400.70 0.2697575
400.80 0.2733219
400.90 0.2787805
401.00 0.2859198
401.10 0.2941778
401.20 0.3029043
401.30 0.3116627
401.40 0.3200116
401.50 0.3273866
401.60 0.3332888
401.70 0.3374491
401.80 0.3398826
401.90 0.3409932
402.00 0.3416721
402.10 0.3430046
402.20 0.3460648
402.30 0.3515613
402.40 0.3595762
402.50 0.3696497
402.60 0.3809456
402.70 0.3924757
402.80 0.4035537
402.90 0.4140455
403.00 0.4239197
403.10 0.4327569
403.20 0.4399731
403.30 0.4452474
403.40 0.4484855
403.50 0.449772
403.60 0.449772
403.70 0.449772
403.80 0.449772
403.90 0.449772
404.00 0.449772
404.10 0.4518748
404.20 0.4564682
404.30 0.4628816
404.40 0.470278
404.50 0.4780897
404.60 0.4859771
404.70 0.4935647
404.80 0.5005482
404.90 0.5067772
405.00 0.5009925
405.10 0.4960672
405.20 0.4930749
405.30 0.4929295
405.40 0.496073
405.50 0.5027095
405.60 0.5127891
405.70 0.5257033
405.80 0.54027
405.90 0.5548202
406.00 0.5672365
406.10 0.5754303
406.20 0.5780756
406.30 0.5751867
406.40 0.5681867
406.50 0.5593855
406.60 0.5511494
406.70 0.545595
406.80 0.544439
406.90 0.5483922
407.00 0.5568921
407.10 0.5665206
407.20 0.5756465
407.30 0.5838833
407.40 0.5907761
407.50 0.5955427
407.60 0.5964967
407.70 0.5946495
407.80 0.5915018
407.90 0.5882696
408.00 0.5859059
408.10 0.5850926
408.20 0.5859032
408.30 0.5877274
408.40 0.5899065
408.50 0.5920285
408.60 0.5937141
408.70 0.5946861
408.80 0.5948906
408.90 0.5945547
409.00 0.5940539
409.10 0.5935446
409.20 0.5935446
409.30 0.5935446
409.40 0.5935446
409.50 0.5953095
409.60 0.5997769
409.70 0.6073293
409.80 0.6176887
409.90 0.6299782
410.00 0.643272
410.10 0.6567597
410.20 0.6698259
410.30 0.682083
410.40 0.6934607
410.50 0.7043088
410.60 0.7143933
410.70 0.7232166
410.80 0.7303458
410.90 0.7355119
411.00 0.7388643
411.10 0.7408016
411.20 0.7417636
411.30 0.7424459
411.40 0.7439786
411.50 0.7475105
411.60 0.7537695
411.70 0.7628667
411.80 0.7743409
411.90 0.7870922
412.00 0.7996506
412.10 0.8107042
412.20 0.8191847
412.30 0.8246331
412.40 0.8273538
412.50 0.8281754
412.60 0.8279978
412.70 0.8272404
412.80 0.8256761
412.90 0.8226831
413.00 0.8179625
413.10 0.8121604
413.20 0.806707
413.30 0.8030564
413.40 0.8021817
413.50 0.8045927
413.60 0.8098924
413.70 0.8166248
413.80 0.8242405
413.90 0.8320143
414.00 0.8393141
414.10 0.8435777
414.20 0.8442324
414.30 0.8420281
414.40 0.8380588
414.50 0.8334368
414.60 0.8289486
414.70 0.8253557
414.80 0.8234564
414.90 0.823694
415.00 0.82599
415.10 0.8294342
415.20 0.832572
415.30 0.8340994
415.40 0.8332731
415.50 0.8295115
415.60 0.8222412
415.70 0.8116583
415.80 0.7987828
415.90 0.7849891
416.00 0.7717516
416.10 0.7602102
416.20 0.7510234
416.30 0.7442284
416.40 0.7391773
416.50 0.7349501
416.60 0.730761
416.70 0.725868
416.80 0.719498
416.90 0.7115392
417.00 0.702845
417.10 0.694571
417.20 0.6876999
417.30 0.6828314
417.40 0.6803225
417.50 0.6804278
417.60 0.6829345
417.70 0.6869633
417.80 0.6913582
417.90 0.6952232
418.00 0.6979499
418.10 0.6990938
418.20 0.6985363
418.30 0.6964787
418.40 0.6929664
418.50 0.6880993
418.60 0.6825567
418.70 0.6773279
418.80 0.673284
418.90 0.670983
419.00 0.6706746
419.10 0.6723924
419.20 0.6752154
419.30 0.6781792
419.40 0.6811467
419.50 0.6822304
419.60 0.680441
419.70 0.6754996
419.80 0.6681203
419.90 0.6596853
420.00 0.6515073
420.10 0.6446998
420.20 0.6400373
420.30 0.6377525
420.40 0.6374561
420.50 0.6382165
420.60 0.6390228
420.70 0.6394605
420.80 0.6396796
420.90 0.6398773
421.00 0.6401177
421.10 0.6403398
421.20 0.6402289
421.30 0.6390173
421.40 0.6358924
421.50 0.6305883
421.60 0.6233352
421.70 0.6147868
421.80 0.6058943
421.90 0.5977496
422.00 0.5911044
422.10 0.585872
422.20 0.58142
422.30 0.5770791
422.40 0.5723381
422.50 0.5669583
422.60 0.5612084
422.70 0.5561132
422.80 0.5530309
422.90 0.552941
423.00 0.556186
423.10 0.5623688
423.20 0.5703395
423.30 0.5785315
423.40 0.5854589
423.50 0.589945
423.60 0.5911609
423.70 0.5887242
423.80 0.5829057
423.90 0.5751319
424.00 0.5678321
424.10 0.5614657
424.20 0.5562176
424.30 0.553649
424.40 0.5544834
424.50 0.5580842
424.60 0.5636311
424.70 0.5701671
424.80 0.5765529
424.90 0.581863
425.00 0.5854567
425.10 0.5870103
425.20 0.5863842
425.30 0.583764
425.40 0.5795724
425.50 0.5742671
425.60 0.5685127
425.70 0.5631213
425.80 0.5586722
425.90 0.5551572
426.00 0.5520843
426.10 0.5491193
426.20 0.5461925
426.30 0.5433078
426.40 0.5406663
426.50 0.5386807
426.60 0.5378417
426.70 0.5383799
426.80 0.5401975
426.90 0.5428133
427.00 0.5453383
427.10 0.546904
427.20 0.5470039
427.30 0.5457484
427.40 0.543598
427.50 0.5407818
427.60 0.5374687
427.70 0.5340492
427.80 0.5309543
427.90 0.5284372
428.00 0.5265641
428.10 0.5253055
428.20 0.5244424
428.30 0.52381
428.40 0.5234138
428.50 0.5230715
428.60 0.5226074
428.70 0.5221602
428.80 0.5220817
428.90 0.5226728
429.00 0.5239249
429.10 0.5255622
429.20 0.5272224
429.30 0.5286765
429.40 0.5299418
429.50 0.5310303
429.60 0.5319473
429.70 0.5325681
429.80 0.532516
429.90 0.5315307
430.00 0.5295461
430.10 0.5265362
430.20 0.5226077
430.30 0.5179988
430.40 0.5130996
430.50 0.5084543
430.60 0.5044795
430.70 0.5010836
430.80 0.4976825
430.90 0.4937211
431.00 0.4888492
431.10 0.4832024
431.20 0.4774419
431.30 0.4722934
431.40 0.4682374
431.50 0.4653513
431.60 0.4633656
431.70 0.4619777
431.80 0.4608051
431.90 0.4592556
432.00 0.4567808
432.10 0.4532603
432.20 0.4491649
432.30 0.445095
432.40 0.4415386
432.50 0.4387411
432.60 0.4366824
432.70 0.4351114
432.80 0.4335154
432.90 0.431334
433.00 0.4280379
433.10 0.4232905
433.20 0.4172158
433.30 0.4103407
433.40 0.4034551
433.50 0.3973167
433.60 0.3925095
433.70 0.3895788
433.80 0.3888487
433.90 0.3895664
434.00 0.3898062
434.10 0.3898062
434.20 0.3898062
434.30 0.3881657
434.40 0.3839042
434.50 0.3771136
434.60 0.3692709
434.70 0.3612609
434.80 0.3534899
434.90 0.3461313
435.00 0.3390829
435.10 0.3320525
435.20 0.3249139
435.30 0.3178566
435.40 0.3118903
435.50 0.3073153
435.60 0.3052654
435.70 0.3055665
435.80 0.3073754
435.90 0.3099422
436.00 0.3126858
436.10 0.3151091
436.20 0.3167367
436.30 0.3171644
436.40 0.3162405
436.50 0.3142748
436.60 0.3115702
436.70 0.3081654
436.80 0.3043797
436.90 0.3006129
437.00 0.2974198
437.10 0.2953793
437.20 0.2948361
437.30 0.2955512
437.40 0.2969259
437.50 0.2985686
437.60 0.3003183
437.70 0.3021131
437.80 0.3040557
437.90 0.306467
438.00 0.3096405
438.10 0.3137235
438.20 0.3189406
438.30 0.3254664
438.40 0.3333743
438.50 0.3427546
438.60 0.3535004
438.70 0.3652476
438.80 0.3774719
438.90 0.389428
439.00 0.4005014
439.10 0.4105092
439.20 0.4194376
439.30 0.4271746
439.40 0.4335975
439.50 0.4387343
439.60 0.4426094
439.70 0.4453099
439.80 0.4469376
439.90 0.4474864
440.00 0.4469911
440.10 0.4455449
440.20 0.4431854
440.30 0.4402231
440.40 0.4374576
440.50 0.4357821
440.60 0.4358537
440.70 0.4379901
440.80 0.4422239
440.90 0.4483562
441.00 0.4560366
441.10 0.4645385
441.20 0.4730002
441.30 0.4808398
441.40 0.4876988
441.50 0.4935151
441.60 0.4985917
441.70 0.5030955
441.80 0.506907
441.90 0.5099509
442.00 0.5123592
442.10 0.5145673
442.20 0.5169564
442.30 0.5196065
442.40 0.5222628
442.50 0.5246215
442.60 0.526545
442.70 0.5280664
442.80 0.5294216
442.90 0.5308712
443.00 0.5327738
443.10 0.5355948
443.20 0.5394831
443.30 0.5441631
443.40 0.5492784
443.50 0.5545075
443.60 0.55962
443.70 0.5644531
443.80 0.5691019
443.90 0.5740752
444.00 0.5799812
444.10 0.5868106
444.20 0.5941258
444.30 0.6014247
444.40 0.6080461
444.50 0.6132776
444.60 0.6155003
444.70 0.6142943
444.80 0.6105953
444.90 0.6061772
445.00 0.6017737
445.10 0.5982906
445.20 0.5965555
445.30 0.5982335
445.40 0.6021375
445.50 0.6074872
445.60 0.6126184
445.70 0.6169878
445.80 0.6208552
445.90 0.6249784
446.00 0.6301878
446.10 0.6369445
446.20 0.6454172
446.30 0.6554876
446.40 0.6663544
446.50 0.6763364
446.60 0.683786
446.70 0.6881803
446.80 0.6899585
446.90 0.6900995
447.00 0.6898089
447.10 0.6890477
447.20 0.6887159
447.30 0.6891367
447.40 0.6905656
447.50 0.6931271
447.60 0.6967354
447.70 0.7010225
447.80 0.7055592
447.90 0.7100243
448.00 0.7142131
448.10 0.7177436
448.20 0.7198779
448.30 0.7202287
448.40 0.719025
448.50 0.7165962
448.60 0.7132729
448.70 0.7093511
448.80 0.7049915
448.90 0.7003498
449.00 0.6954906
449.10 0.6903558
449.20 0.6850738
449.30 0.680104
449.40 0.676058
449.50 0.6735445
449.60 0.6729784
449.70 0.6742933
449.80 0.6771834
449.90 0.6815503
450.00 0.6874757
450.10 0.6949802
450.20 0.7039556
450.30 0.7139881
450.40 0.7241425
450.50 0.7332349
450.60 0.7402666
450.70 0.7447188
450.80 0.7466961
450.90 0.7468592
451.00 0.7463772
451.10 0.7468286
451.20 0.7495977
451.30 0.755245
451.40 0.7634438
451.50 0.7733239
451.60 0.7837888
451.70 0.7939023
451.80 0.8033516
451.90 0.8123352
452.00 0.8211903
452.10 0.8301254
452.20 0.8392012
452.30 0.8486722
452.40 0.8589999
452.50 0.8703683
452.60 0.8824864
452.70 0.8947829
452.80 0.9065718
452.90 0.9171128
453.00 0.9257264
453.10 0.9318656
453.20 0.935174
453.30 0.9357937
453.40 0.9343218
453.50 0.9317055
453.60 0.9291248
453.70 0.9275356
453.80 0.9273417
453.90 0.9285669
454.00 0.9310635
454.10 0.9345994
454.20 0.9391486
454.30 0.9450483
454.40 0.9527668
454.50 0.9626168
454.60 0.9746271
454.70 0.9884254
454.80 1.002911
454.90 1.016535
455.00 1.029288
455.10 1.041346
455.20 1.052712
455.30 1.06183
455.40 1.069047
455.50 1.075054
455.60 1.080137
455.70 1.084089
455.80 1.086457
455.90 1.086813
456.00 1.085019
456.10 1.08127
456.20 1.076093
456.30 1.070319
456.40 1.065036
456.50 1.06156
456.60 1.06124
456.70 1.064779
456.80 1.071557
456.90 1.079949
457.00 1.087708
457.10 1.093884
457.20 1.097209
457.30 1.097776
457.40 1.096314
457.50 1.093921
457.60 1.091685
457.70 1.090571
457.80 1.091226
457.90 1.093651
458.00 1.097208
458.10 1.101129
458.20 1.104901
458.30 1.108152
458.40 1.110766
458.50 1.112904
458.60 1.11457
458.70 1.115599
458.80 1.115804
458.90 1.11514
459.00 1.113982
459.10 1.112801
459.20 1.111691
459.30 1.110562
459.40 1.109446
459.50 1.108479
459.60 1.108049
459.70 1.108838
459.80 1.11141
459.90 1.115816
460.00 1.121594
460.10 1.127988
460.20 1.134277
460.30 1.140056
460.40 1.144955
460.50 1.148539
460.60 1.150845
460.70 1.152355
460.80 1.153596
460.90 1.154896
461.00 1.156103
461.10 1.156729
461.20 1.156537
461.30 1.155934
461.40 1.155733
461.50 1.15671
461.60 1.159364
461.70 1.163519
461.80 1.168396
461.90 1.173179
462.00 1.177124
462.10 1.179647
462.20 1.180309
462.30 1.17868
462.40 1.174655
462.50 1.16865
462.60 1.161274
462.70 1.152959
462.80 1.144121
462.90 1.135486
463.00 1.12792
463.10 1.122455
463.20 1.120239
463.30 1.121903
463.40 1.127294
463.50 1.1354
463.60 1.144631
463.70 1.153352
463.80 1.160203
463.90 1.164168
464.00 1.164725
464.10 1.162123
464.20 1.157195
464.30 1.150806
464.40 1.143636
464.50 1.136184
464.60 1.128848
464.70 1.121942
464.80 1.115568
464.90 1.109673
465.00 1.104053
465.10 1.098419
465.20 1.092542
465.30 1.086194
465.40 1.079172
465.50 1.071576
465.60 1.063925
465.70 1.057061
465.80 1.052028
465.90 1.049491
466.00 1.049489
466.10 1.051599
466.20 1.054935
466.30 1.058428
466.40 1.06136
466.50 1.063583
466.60 1.065212
466.70 1.06657
466.80 1.068281
466.90 1.071276
467.00 1.076533
467.10 1.084474
467.20 1.094635
467.30 1.106078
467.40 1.117739
467.50 1.128596
467.60 1.137871
467.70 1.144875
467.80 1.148858
467.90 1.149219
468.00 1.145968
468.10 1.139866
468.20 1.132193
468.30 1.123927
468.40 1.115351
468.50 1.106807
468.60 1.099004
468.70 1.092647
468.80 1.088261
468.90 1.086149
469.00 1.086399
469.10 1.088995
469.20 1.0939
469.30 1.100941
469.40 1.109488
469.50 1.118553
469.60 1.127084
469.70 1.134129
469.80 1.139055
469.90 1.141454
470.00 1.14114
470.10 1.138328
470.20 1.133396
470.30 1.126687
470.40 1.118818
470.50 1.110869
470.60 1.1038
470.70 1.098152
470.80 1.094119
470.90 1.09142
471.00 1.0893
471.10 1.086831
471.20 1.083074
471.30 1.077104
471.40 1.068375
471.50 1.056894
471.60 1.043238
471.70 1.028706
471.80 1.014808
471.90 1.002521
472.00 0.9923244
472.10 0.9842473
472.20 0.9780806
472.30 0.9736306
472.40 0.9706301
472.50 0.9687255
472.60 0.9676679
472.70 0.9674989
472.80 0.9682912
472.90 0.969884
473.00 0.9718412
473.10 0.973281
473.20 0.9732022
473.30 0.9711404
473.40 0.9672131
473.50 0.9619829
473.60 0.9563558
473.70 0.9513463
473.80 0.9478054
473.90 0.9462183
474.00 0.9466121
474.10 0.9485174
474.20 0.9511008
474.30 0.9534598
474.40 0.9550119
474.50 0.9556444
474.60 0.9554849
474.70 0.9548224
474.80 0.9543489
474.90 0.954984
475.00 0.9574456
475.10 0.9620378
475.20 0.968526
475.30 0.9762731
475.40 0.9843311
475.50 0.991465
475.60 0.9964857
475.70 0.998574
475.80 0.9974066
475.90 0.9933804
476.00 0.9874108
476.10 0.9805385
476.20 0.9738247
476.30 0.9682177
476.40 0.9642274
476.50 0.9616575
476.60 0.9600106
476.70 0.9587665
476.80 0.9573809
476.90 0.9553002
477.00 0.9519695
477.10 0.947065
477.20 0.9404925
477.30 0.9322388
477.40 0.9225019
477.50 0.9117082
477.60 0.9004288
477.70 0.8894679
477.80 0.8798621
477.90 0.8729873
478.00 0.8700319
478.10 0.8712341
478.20 0.8758592
478.30 0.8826956
478.40 0.8904666
478.50 0.8978087
478.60 0.9035242
478.70 0.9068572
478.80 0.9076088
478.90 0.9060209
479.00 0.9023842
479.10 0.8970027
479.20 0.8903039
479.30 0.882463
479.40 0.8733446
479.50 0.8629429
479.60 0.8515609
479.70 0.8396964
479.80 0.8277406
479.90 0.816051
480.00 0.8049848
480.10 0.7948219
480.20 0.7859939
480.30 0.7791658
480.40 0.7749553
480.50 0.7735271
480.60 0.7746514
480.70 0.7778405
480.80 0.7824391
480.90 0.7878023
481.00 0.7933361
481.10 0.7985448
481.20 0.8031875
481.30 0.8073409
481.40 0.811145
481.50 0.8146352
481.60 0.8176432
481.70 0.8198228
481.80 0.820963
481.90 0.8212397
482.00 0.8210505
482.10 0.8208733
482.20 0.8211944
482.30 0.8223143
482.40 0.8244579
482.50 0.8277752
482.60 0.8321877
482.70 0.8372834
482.80 0.8426215
482.90 0.8480536
483.00 0.8535791
483.10 0.8591085
483.20 0.8643491
483.30 0.8688575
483.40 0.8722926
483.50 0.8746068
483.60 0.8759259
483.70 0.8766381
483.80 0.8771612
483.90 0.8777486
484.00 0.8786691
484.10 0.8802046
484.20 0.8824913
484.30 0.8854222
484.40 0.888674
484.50 0.8919531
484.60 0.8951464
484.70 0.8980542
484.80 0.9000549
484.90 0.900372
485.00 0.8985621
485.10 0.8944826
485.20 0.8885911
485.30 0.8820718
485.40 0.8764115
485.50 0.8730721
485.60 0.8732142
485.70 0.8773058
485.80 0.8849711
485.90 0.8952175
486.00 0.9068306
486.10 0.9186898
486.20 0.9298034
486.30 0.9392977
486.40 0.9465337
486.50 0.9512904
486.60 0.9536354
486.70 0.953792
486.80 0.9522979
486.90 0.9499486
487.00 0.9477496
487.10 0.9469384
487.20 0.9486555
487.30 0.9534126
487.40 0.9609178
487.50 0.9703251
487.60 0.9806154
487.70 0.9909332
487.80 1.000679
487.90 1.00916
488.00 1.015619
488.10 1.019809
488.20 1.022054
488.30 1.023058
488.40 1.023648
488.50 1.02444
488.60 1.025878
488.70 1.028285
488.80 1.031706
488.90 1.03598
489.00 1.040931
489.10 1.046176
489.20 1.051096
489.30 1.055442
489.40 1.059692
489.50 1.064422
489.60 1.069696
489.70 1.075325
489.80 1.081214
489.90 1.087222
490.00 1.093063
490.10 1.098592
490.20 1.103724
490.30 1.108107
490.40 1.111341
490.50 1.113229
490.60 1.113757
490.70 1.112976
490.80 1.1107
490.90 1.106685
491.00 1.101178
491.10 1.09476
491.20 1.087861
491.30 1.08073
491.40 1.07369
491.50 1.067013
491.60 1.060914
491.70 1.055718
491.80 1.051679
491.90 1.048831
492.00 1.047035
492.10 1.04596
492.20 1.04512
492.30 1.043903
492.40 1.041436
492.50 1.036811
492.60 1.029779
492.70 1.020981
492.80 1.011535
492.90 1.002507
493.00 0.9947669
493.10 0.9889505
493.20 0.9852742
493.30 0.9835337
493.40 0.9832063
493.50 0.9836151
493.60 0.9840692
493.70 0.9839683
493.80 0.9832239
493.90 0.9822968
494.00 0.9817424
494.10 0.9819432
494.20 0.9829451
494.30 0.984551
494.40 0.986543
494.50 0.9887157
494.60 0.9908728
494.70 0.9928861
494.80 0.9947569
494.90 0.9966424
495.00 0.9989432
495.10 1.002238
495.20 1.006867
495.30 1.012634
495.40 1.018807
495.50 1.024386
495.60 1.028539
495.70 1.030887
495.80 1.031462
495.90 1.030383
496.00 1.027787
496.10 1.023986
496.20 1.019609
496.30 1.015402
496.40 1.011914
496.50 1.009558
496.60 1.008604
496.70 1.009027
496.80 1.010479
496.90 1.012436
497.00 1.014247
497.10 1.015056
497.20 1.014005
497.30 1.01077
497.40 1.005699
497.50 0.9995046
497.60 0.9929613
497.70 0.9866626
497.80 0.9810831
497.90 0.9766108
498.00 0.9735268
498.10 0.9719173
498.20 0.9715416
498.30 0.9718831
498.40 0.9724416
498.50 0.9731487
498.60 0.9742263
498.70 0.9758947
498.80 0.9783046
498.90 0.9814944
499.00 0.9853145
499.10 0.9895447
499.20 0.9939423
499.30 0.998186
499.40 1.00175
499.50 1.004126
499.60 1.005237
499.70 1.005287
499.80 1.004435
499.90 1.002673
500.00 1
500.10 0.9963614
500.20 0.9916618
500.30 0.9860052
500.40 0.979607
500.50 0.9728108
500.60 0.9660808
500.70 0.9598833
500.80 0.9548464
500.90 0.951734
501.00 0.9511184
501.10 0.9532953
501.20 0.9583557
501.30 0.9661079
501.40 0.9759975
501.50 0.9873564
501.60 0.9994752
501.70 1.011493
501.80 1.0226
501.90 1.032134
502.00 1.039696
502.10 1.045307
502.20 1.049283
502.30 1.052051
502.40 1.054187
502.50 1.056305
502.60 1.058626
502.70 1.060953
502.80 1.06287
502.90 1.063972
503.00 1.064065
503.10 1.063268
503.20 1.062154
503.30 1.061569
503.40 1.062268
503.50 1.064773
503.60 1.069307
503.70 1.075664
503.80 1.083086
503.90 1.090398
504.00 1.096539
504.10 1.100952
504.20 1.10371
504.30 1.105211
504.40 1.105984
504.50 1.106639
504.60 1.107725
504.70 1.109706
504.80 1.112921
504.90 1.117309
505.00 1.12232
505.10 1.127245
505.20 1.131431
505.30 1.134393
505.40 1.135906
505.50 1.135873
505.60 1.134239
505.70 1.131144
505.80 1.126914
505.90 1.122088
506.00 1.117284
506.10 1.113054
506.20 1.10979
506.30 1.107629
506.40 1.106564
506.50 1.106339
506.60 1.106547
506.70 1.106997
506.80 1.107675
506.90 1.108508
507.00 1.109425
507.10 1.110484
507.20 1.111793
507.30 1.113289
507.40 1.114676
507.50 1.115577
507.60 1.115627
507.70 1.114686
507.80 1.112827
507.90 1.110376
508.00 1.107955
508.10 1.106147
508.20 1.105457
508.30 1.10642
508.40 1.109157
508.50 1.113052
508.60 1.117137
508.70 1.120523
508.80 1.122681
508.90 1.123494
509.00 1.123166
509.10 1.122153
509.20 1.121032
509.30 1.120354
509.40 1.120569
509.50 1.121935
509.60 1.124442
509.70 1.127793
509.80 1.13179
509.90 1.136565
510.00 1.142279
510.10 1.149007
510.20 1.156586
510.30 1.164564
510.40 1.172413
510.50 1.179588
510.60 1.185758
510.70 1.190782
510.80 1.194465
510.90 1.196607
511.00 1.19706
511.10 1.19578
511.20 1.19274
511.30 1.18798
511.40 1.181673
511.50 1.174012
511.60 1.165334
511.70 1.156212
511.80 1.147264
511.90 1.1391
512.00 1.132155
512.10 1.12666
512.20 1.122848
512.30 1.120935
512.40 1.12087
512.50 1.122317
512.60 1.124773
512.70 1.12756
512.80 1.129966
512.90 1.131375
513.00 1.131382
513.10 1.129813
513.20 1.126714
513.30 1.122347
513.40 1.117253
513.50 1.11208
513.60 1.10734
513.70 1.103353
513.80 1.100209
513.90 1.097905
514.00 1.096277
514.10 1.094897
514.20 1.093373
514.30 1.091674
514.40 1.089935
514.50 1.088329
514.60 1.087076
514.70 1.086291
514.80 1.085889
514.90 1.085708
515.00 1.085456
515.10 1.084728
515.20 1.08328
515.30 1.081034
515.40 1.078159
515.50 1.075094
515.60 1.072202
515.70 1.069705
515.80 1.067775
515.90 1.066395
516.00 1.06553
516.10 1.065276
516.20 1.065702
516.30 1.066965
516.40 1.069356
516.50 1.073149
516.60 1.078424
516.70 1.084852
516.80 1.091841
516.90 1.099132
517.00 1.106835
517.10 1.115017
517.20 1.123762
517.30 1.133357
517.40 1.14402
517.50 1.155698
517.60 1.168143
517.70 1.180807
517.80 1.192904
517.90 1.203666
518.00 1.212492
518.10 1.219212
518.20 1.22402
518.30 1.227165
518.40 1.229091
518.50 1.230586
518.60 1.23246
518.70 1.23522
518.80 1.2389
518.90 1.243031
519.00 1.246848
519.10 1.249547
519.20 1.250524
519.30 1.249497
519.40 1.246554
519.50 1.242273
519.60 1.237603
519.70 1.233614
519.80 1.231193
519.90 1.230854
520.00 1.232589
520.10 1.235784
520.20 1.23959
520.30 1.243332
520.40 1.246449
520.50 1.248485
520.60 1.249048
520.70 1.247984
520.80 1.245783
520.90 1.24335
521.00 1.241614
521.10 1.24125
521.20 1.242527
521.30 1.245215
521.40 1.248818
521.50 1.252936
521.60 1.257246
521.70 1.261479
521.80 1.265748
521.90 1.27059
522.00 1.276724
522.10 1.284674
522.20 1.294329
522.30 1.30498
522.40 1.315739
522.50 1.325799
522.60 1.33454
522.70 1.341639
522.80 1.347108
522.90 1.351356
523.00 1.355164
523.10 1.359422
523.20 1.364626
523.30 1.370593
523.40 1.376636
523.50 1.38192
523.60 1.385774
523.70 1.38784
523.80 1.388049
523.90 1.386528
524.00 1.383746
524.10 1.380551
524.20 1.377786
524.30 1.376129
524.40 1.375988
524.50 1.377141
524.60 1.378856
524.70 1.380476
524.80 1.38164
524.90 1.382147
525.00 1.381972
525.10 1.381323
525.20 1.380728
525.30 1.380979
525.40 1.382825
525.50 1.386902
525.60 1.39386
525.70 1.403822
525.80 1.416175
525.90 1.43003
526.00 1.444334
526.10 1.457817
526.20 1.469249
526.30 1.477731
526.40 1.482691
526.50 1.483938
526.60 1.4817
526.70 1.476675
526.80 1.46993
526.90 1.462306
527.00 1.45418
527.10 1.445865
527.20 1.437663
527.30 1.429798
527.40 1.422683
527.50 1.416857
527.60 1.412715
527.70 1.410328
527.80 1.409439
527.90 1.409489
528.00 1.40957
528.10 1.408603
528.20 1.405607
528.30 1.400065
528.40 1.39216
528.50 1.382621
528.60 1.372478
528.70 1.362905
528.80 1.354916
528.90 1.349215
529.00 1.346254
529.10 1.346154
529.20 1.348661
529.30 1.353247
529.40 1.359348
529.50 1.366309
529.60 1.373407
529.70 1.380162
529.80 1.38629
529.90 1.391642
530.00 1.396428
530.10 1.401246
530.20 1.406743
530.30 1.413271
530.40 1.420981
530.50 1.429994
530.60 1.440328
530.70 1.451737
530.80 1.463535
530.90 1.47479
531.00 1.48467
531.10 1.492592
531.20 1.498388
531.30 1.502441
531.40 1.50541
531.50 1.507947
531.60 1.51069
531.70 1.514065
531.80 1.517782
531.90 1.520804
532.00 1.521876
532.10 1.520037
532.20 1.514967
532.30 1.50724
532.40 1.498166
532.50 1.48938
532.60 1.48254
532.70 1.478996
532.80 1.479609
532.90 1.484412
533.00 1.492488
533.10 1.502434
533.20 1.512957
533.30 1.52331
533.40 1.533315
533.50 1.543083
533.60 1.552781
533.70 1.562498
533.80 1.572297
533.90 1.582272
534.00 1.592309
534.10 1.602063
534.20 1.611124
534.30 1.61904
534.40 1.625466
534.50 1.630455
534.60 1.63443
534.70 1.637824
534.80 1.640946
534.90 1.644096
535.00 1.64766
535.10 1.651921
535.20 1.656737
535.30 1.661747
535.40 1.666607
535.50 1.670874
535.60 1.673872
535.70 1.675148
535.80 1.674724
535.90 1.672947
536.00 1.670328
536.10 1.667425
536.20 1.664806
536.30 1.663048
536.40 1.662785
536.50 1.664691
536.60 1.669395
536.70 1.677027
536.80 1.687116
536.90 1.698948
537.00 1.711614
537.10 1.724051
537.20 1.735301
537.30 1.744621
537.40 1.751537
537.50 1.755985
537.60 1.758243
537.70 1.75883
537.80 1.758463
537.90 1.7579
538.00 1.757945
538.10 1.759496
538.20 1.763374
538.30 1.770068
538.40 1.779532
538.50 1.79109
538.60 1.803572
538.70 1.815546
538.80 1.825725
538.90 1.833227
539.00 1.837717
539.10 1.8397
539.20 1.84038
539.30 1.841176
539.40 1.843309
539.50 1.84757
539.60 1.854079
539.70 1.862178
539.80 1.870738
539.90 1.878573
540.00 1.884596
540.10 1.887977
540.20 1.888353
540.30 1.885894
540.40 1.8812
540.50 1.87481
540.60 1.866954
540.70 1.857978
540.80 1.848418
540.90 1.838759
541.00 1.829499
541.10 1.821212
541.20 1.8145
541.30 1.809819
541.40 1.807376
541.50 1.807061
541.60 1.80835
541.70 1.810592
541.80 1.813417
541.90 1.816938
542.00 1.821663
542.10 1.828102
542.20 1.836541
542.30 1.846818
542.40 1.85806
542.50 1.868993
542.60 1.878291
542.70 1.884844
542.80 1.88791
542.90 1.887304
543.00 1.883512
543.10 1.87747
543.20 1.870289
543.30 1.862838
543.40 1.855495
543.50 1.848312
543.60 1.841177
543.70 1.834062
543.80 1.827166
543.90 1.820665
544.00 1.814688
544.10 1.8093
544.20 1.804441
544.30 1.799875
544.40 1.795212
544.50 1.790047
544.60 1.783971
544.70 1.776715
544.80 1.76833
544.90 1.759145
545.00 1.749631
545.10 1.740256
545.20 1.731396
545.30 1.723185
545.40 1.715308
545.50 1.707197
545.60 1.698506
545.70 1.689236
545.80 1.679625
545.90 1.670062
546.00 1.661048
546.10 1.653106
546.20 1.64665
546.30 1.641661
546.40 1.6376
546.50 1.633661
546.60 1.628984
546.70 1.623057
546.80 1.61592
546.90 1.608093
547.00 1.60027
547.10 1.592902
547.20 1.586183
547.30 1.580111
547.40 1.574391
547.50 1.568599
547.60 1.562465
547.70 1.556051
547.80 1.549531
547.90 1.543057
548.00 1.536716
548.10 1.530466
548.20 1.524324
548.30 1.518246
548.40 1.512028
548.50 1.505579
548.60 1.498862
548.70 1.49182
548.80 1.484626
548.90 1.477769
549.00 1.471669
549.10 1.466294
549.20 1.461357
549.30 1.456556
549.40 1.451448
549.50 1.445351
549.60 1.437544
549.70 1.427595
549.80 1.41558
549.90 1.402092
550.00 1.226435
550.10 1.227458
550.20 1.229916
550.30 1.231103
550.40 1.228942
550.50 1.222574
550.60 1.212605
550.70 1.200254
550.80 1.18653
550.90 1.172367
551.00 1.15851
551.10 1.145524
551.20 1.134261
551.30 1.125651
551.40 1.120473
551.50 1.119455
551.60 1.122803
551.70 1.129786
551.80 1.139461
551.90 1.150874
552.00 1.16263
552.10 1.173362
552.20 1.182523
552.30 1.190358
552.40 1.197844
552.50 1.206105
552.60 1.215282
552.70 1.224491
552.80 1.232642
552.90 1.238918
553.00 1.242949
553.10 1.244998
553.20 1.245765
553.30 1.24611
553.40 1.247134
553.50 1.249701
553.60 1.25396
553.70 1.259542
553.80 1.26556
553.90 1.270872
554.00 1.274791
554.10 1.277243
554.20 1.278445
554.30 1.278873
554.40 1.279479
554.50 1.28112
554.60 1.28394
554.70 1.287662
554.80 1.291981
554.90 1.296454
555.00 1.299875
555.10 1.302739
555.20 1.309159
555.30 1.326054
555.40 1.362215
555.50 1.424288
555.60 1.514457
555.70 1.630282
555.80 1.763789
555.90 1.902864
556.00 2.034596
556.10 2.148042
556.20 2.236052
556.30 2.29705
556.40 2.336236
556.50 2.362134
556.60 2.382815
556.70 2.40448
556.80 2.429588
556.90 2.458345
557.00 2.489781
557.10 2.521812
557.20 2.552443
557.30 2.58024
557.40 2.604056
557.50 2.623213
557.60 2.637973
557.70 2.649334
557.80 2.658355
557.90 2.665751
558.00 2.672663
558.10 2.6809
558.20 2.691808
558.30 2.705528
558.40 2.721052
558.50 2.736751
558.60 2.751391
558.70 2.764542
558.80 2.776907
558.90 2.790418
559.00 2.807866
559.10 2.829569
559.20 2.851184
559.30 2.865044
559.40 2.86088
559.50 2.829442
559.60 2.76651
559.70 2.674371
559.80 2.561752
559.90 2.441563
560.00 2.328121
560.10 2.234621
560.20 2.169658
560.30 2.134421
560.40 2.12257
560.50 2.124828
560.60 2.133069
560.70 2.14107
560.80 2.145579
560.90 2.145278
561.00 2.140238
561.10 2.131852
561.20 2.121796
561.30 2.112348
561.40 2.105971
561.50 2.10391
561.60 2.106321
561.70 2.113122
561.80 2.124124
561.90 2.138563
562.00 2.154421
562.10 2.169147
562.20 2.181196
562.30 2.190424
562.40 2.197406
562.50 2.202954
562.60 2.207693
562.70 2.211444
562.80 2.213314
562.90 2.212674
563.00 2.209362
563.10 2.203293
563.20 2.194403
563.30 2.182779
563.40 2.16964
563.50 2.157508
563.60 2.148628
563.70 2.143813
563.80 2.142609
563.90 2.143781
564.00 2.14569
564.10 2.14644
564.20 2.144355
564.30 2.138479
564.40 2.128681
564.50 2.11563
564.60 2.100466
564.70 2.08487
564.80 2.07092
564.90 2.060196
565.00 2.053607
565.10 2.051515
565.20 2.053833
565.30 2.059794
565.40 2.068171
565.50 2.077943
565.60 2.088098
565.70 2.097546
565.80 2.105521
565.90 2.111783
566.00 2.116403
566.10 2.119833
566.20 2.122807
566.30 2.126126
566.40 2.130792
566.50 2.137819
566.60 2.148104
566.70 2.162549
566.80 2.181334
566.90 2.203397
567.00 2.227178
567.10 2.250704
567.20 2.271667
567.30 2.288342
567.40 2.300269
567.50 2.307894
567.60 2.312013
567.70 2.31404
567.80 2.315644
567.90 2.318241
568.00 2.322382
568.10 2.327525
568.20 2.332982
568.30 2.3383
568.40 2.342723
568.50 2.345942
568.60 2.34914
568.70 2.354388
568.80 2.363734
568.90 2.37868
569.00 2.399523
569.10 2.424945
569.20 2.452094
569.30 2.477245
569.40 2.497011
569.50 2.509332
569.60 2.513616
569.70 2.510296
569.80 2.500652
569.90 2.486318
570.00 2.468822
570.10 2.449336
570.20 2.428395
570.30 2.406104
570.40 2.382707
570.50 2.358895
570.60 2.335858
570.70 2.314892
570.80 2.296707
570.90 2.280838
571.00 2.266202
571.10 2.252438
571.20 2.240069
571.30 2.229862
571.40 2.221621
571.50 2.213971
571.60 2.205464
571.70 2.195086
571.80 2.182551
571.90 2.168065
572.00 2.15182
572.10 2.134316
572.20 2.116466
572.30 2.099569
572.40 2.084839
572.50 2.072329
572.60 2.060694
572.70 2.047944
572.80 2.032086
572.90 2.011624
573.00 1.986035
573.10 1.955885
573.20 1.922676
573.30 1.888764
573.40 1.856874
573.50 1.829174
573.60 1.80661
573.70 1.78885
573.80 1.774839
573.90 1.763562
574.00 1.75487
574.10 1.749128
574.20 1.74662
574.30 1.747577
574.40 1.751901
574.50 1.759194
574.60 1.768705
574.70 1.778945
574.80 1.788448
574.90 1.796808
575.00 1.804529
575.10 1.812628
575.20 1.822134
575.30 1.833268
575.40 1.84533
575.50 1.857531
575.60 1.869477
575.70 1.880843
575.80 1.891164
575.90 1.900165
576.00 1.907814
576.10 1.914295
576.20 1.919983
576.30 1.925307
576.40 1.930904
576.50 1.937179
576.60 1.944064
576.70 1.951648
576.80 1.960844
576.90 1.972899
577.00 1.98828
577.10 2.006587
577.20 2.026741
577.30 2.046665
577.40 2.063969
577.50 2.076928
577.60 2.084704
577.70 2.087333
577.80 2.085674
577.90 2.081644
578.00 2.077512
578.10 2.075162
578.20 2.075574
578.30 2.078512
578.40 2.083223
578.50 2.088535
578.60 2.093029
578.70 2.096013
578.80 2.097105
578.90 2.095672
579.00 2.091189
579.10 2.083195
579.20 2.071401
579.30 2.056378
579.40 2.040103
579.50 2.024951
579.60 2.01224
579.70 2.002152
579.80 1.994255
579.90 1.987878
580.00 1.982291
580.10 1.976571
580.20 1.97014
580.30 1.962794
580.40 1.954286
580.50 1.944715
580.60 1.934757
580.70 1.924969
580.80 1.914634
580.90 1.902323
581.00 1.887492
581.10 1.87083
581.20 1.853877
581.30 1.838871
581.40 1.828027
581.50 1.822739
581.60 1.82353
581.70 1.830257
581.80 1.841824
581.90 1.856291
582.00 1.871259
582.10 1.88425
582.20 1.894052
582.30 1.901142
582.40 1.906463
582.50 1.910671
582.60 1.913885
582.70 1.915548
582.80 1.915156
582.90 1.912353
583.00 1.906713
583.10 1.898047
583.20 1.886657
583.30 1.872678
583.40 1.855547
583.50 1.835007
583.60 1.811738
583.70 1.787305
583.80 1.763528
583.90 1.742072
584.00 1.724641
584.10 1.71242
584.20 1.705335
584.30 1.702457
584.40 1.702622
584.50 1.704742
584.60 1.707627
584.70 1.709769
584.80 1.710049
584.90 1.707628
585.00 1.701293
585.10 1.689452
585.20 1.671045
585.30 1.645948
585.40 1.614921
585.50 1.580016
585.60 1.544096
585.70 1.509915
585.80 1.479551
585.90 1.453374
586.00 1.43022
586.10 1.408487
586.20 1.38598
586.30 1.360217
586.40 1.330095
586.50 1.296549
586.60 1.262238
586.70 1.230988
586.80 1.206432
586.90 1.19086
587.00 1.184821
587.10 1.187598
587.20 1.197485
587.30 1.212429
587.40 1.230625
587.50 1.250378
587.60 1.270232
587.70 1.28876
587.80 1.304061
587.90 1.314087
588.00 1.31714
588.10 1.312416
588.20 1.300281
588.30 1.282297
588.40 1.261234
588.50 1.239953
588.60 1.220271
588.70 1.202865
588.80 1.187915
588.90 1.175653
589.00 1.166336
589.10 1.160204
589.20 1.15726
589.30 1.157334
589.40 1.160053
589.50 1.164467
589.60 1.169596
589.70 1.174646
589.80 1.178632
589.90 1.180783
590.00 1.181214
590.10 1.180705
590.20 1.179951
590.30 1.179132
590.40 1.17757
590.50 1.173962
590.60 1.166582
590.70 1.153858
590.80 1.135386
590.90 1.112421
591.00 1.087495
591.10 1.063165
591.20 1.041501
591.30 1.023765
591.40 1.009752
591.50 0.9978958
591.60 0.986211
591.70 0.972767
591.80 0.9567478
591.90 0.9391641
592.00 0.9226
592.10 0.910203
592.20 0.9045732
592.30 0.9070252
592.40 0.9171905
592.50 0.9336615
592.60 0.9545101
592.70 0.9776601
592.80 1.001309
592.90 1.023995
593.00 1.044409
593.10 1.06207
593.20 1.07767
593.30 1.092158
593.40 1.106173
593.50 1.120059
593.60 1.13394
593.70 1.147869
593.80 1.161872
593.90 1.176015
594.00 1.190533
594.10 1.206032
594.20 1.223646
594.30 1.24498
594.40 1.271353
594.50 1.302821
594.60 1.338077
594.70 1.374879
594.80 1.410805
594.90 1.44371
595.00 1.47161
595.10 1.492971
595.20 1.507415
595.30 1.516096
595.40 1.521327
595.50 1.525521
595.60 1.530101
595.70 1.535686
595.80 1.542832
595.90 1.551858
596.00 1.562239
596.10 1.57269
596.20 1.581896
596.30 1.588817
596.40 1.592752
596.50 1.593373
596.60 1.590794
596.70 1.58548
596.80 1.577921
596.90 1.568882
597.00 1.560072
597.10 1.553345
597.20 1.549301
597.30 1.54723
597.40 1.546074
597.50 1.544936
597.60 1.542725
597.70 1.538326
597.80 1.5316
597.90 1.523733
598.00 1.516794
598.10 1.512978
598.20 1.514027
598.30 1.52057
598.40 1.531654
598.50 1.545276
598.60 1.559429
598.70 1.5727
598.80 1.583779
598.90 1.591491
599.00 1.595379
599.10 1.595998
599.20 1.594409
599.30 1.591593
599.40 1.588515
599.50 1.586369
599.60 1.586806
599.70 1.591527
599.80 1.601681
599.90 1.617426
600.00 1.49599
600.10 1.680381
600.20 1.916044
600.30 2.16758
600.40 2.38697
600.50 2.524985
600.60 2.559545
600.70 2.506468
600.80 2.384612
600.90 2.214657
601.00 2.025534
601.10 1.846657
601.20 1.702959
601.30 1.607848
601.40 1.556219
601.50 1.530701
601.60 1.522654
601.70 1.531535
601.80 1.56851
601.90 1.643282
602.00 1.744044
602.10 1.838117
602.20 1.901364
602.30 1.917825
602.40 1.881981
602.50 1.805979
602.60 1.706052
602.70 1.602052
602.80 1.516627
602.90 1.475962
603.00 1.499073
603.10 1.577551
603.20 1.677086
603.30 1.763343
603.40 1.819941
603.50 1.858381
603.60 1.897161
603.70 1.941989
603.80 1.995467
603.90 2.056296
604.00 2.115174
604.10 2.162557
604.20 2.19431
604.30 2.204192
604.40 2.17873
604.50 2.116536
604.60 2.029349
604.70 1.940696
604.80 1.89017
604.90 1.89843
605.00 1.96432
605.10 2.087523
605.20 2.254892
605.30 2.442532
605.40 2.616326
605.50 2.73296
605.60 2.756344
605.70 2.677554
605.80 2.52184
605.90 2.327661
606.00 2.14574
606.10 2.016581
606.20 1.941382
606.30 1.905123
606.40 1.90062
606.50 1.925112
606.60 1.972172
606.70 2.037441
606.80 2.125834
606.90 2.237283
607.00 2.358165
607.10 2.467949
607.20 2.548567
607.30 2.584513
607.40 2.568741
607.50 2.508741
607.60 2.426647
607.70 2.361097
607.80 2.339378
607.90 2.365524
608.00 2.43655
608.10 2.532694
608.20 2.627202
608.30 2.712005
608.40 2.794047
608.50 2.860561
608.60 2.877475
608.70 2.831304
608.80 2.723593
608.90 2.561332
609.00 2.365427
609.10 2.162053
609.20 1.974482
609.30 1.82178
609.40 1.712971
609.50 1.645799
609.60 1.617085
609.70 1.62012
609.80 1.635193
609.90 1.654001
610.00 1.690717
610.10 1.745533
610.20 1.795114
610.30 1.826122
610.40 1.83797
610.50 1.830944
610.60 1.816248
610.70 1.815862
610.80 1.84838
610.90 1.918527
611.00 2.006016
611.10 2.076728
611.20 2.115965
611.30 2.137953
611.40 2.161913
611.50 2.205729
611.60 2.289596
611.70 2.41177
611.80 2.549366
611.90 2.674809
612.00 2.755423
612.10 2.755343
612.20 2.654832
612.30 2.474281
612.40 2.264007
612.50 2.075804
612.60 1.94694
612.70 1.882822
612.80 1.872753
612.90 1.911354
613.00 1.99337
613.10 2.106913
613.20 2.228479
613.30 2.330747
613.40 2.408609
613.50 2.482152
613.60 2.562139
613.70 2.629289
613.80 2.660939
613.90 2.651041
614.00 2.603082
614.10 2.533111
614.20 2.459781
614.30 2.37959
614.40 2.285809
614.50 2.187727
614.60 2.097982
614.70 2.031052
614.80 1.990447
614.90 1.963737
615.00 1.938242
615.10 1.921841
615.20 1.927599
615.30 1.953857
615.40 1.991698
615.50 2.023084
615.60 2.027285
615.70 2.000135
615.80 1.94878
615.90 1.887436
616.00 1.844878
616.10 1.839103
616.20 1.87396
616.30 1.953579
616.40 2.07249
616.50 2.197976
616.60 2.290932
616.70 2.339064
616.80 2.342538
616.90 2.301968
617.00 2.224103
617.10 2.135136
617.20 2.060693
617.30 2.00569
617.40 1.962486
617.50 1.923036
617.60 1.885006
617.70 1.844519
617.80 1.80515
617.90 1.782859
618.00 1.795645
618.10 1.841321
618.20 1.902359
618.30 1.973711
618.40 2.059243
618.50 2.147695
618.60 2.218617
618.70 2.264868
618.80 2.293334
618.90 2.311648
619.00 2.310853
619.10 2.274541
619.20 2.19934
619.30 2.102203
619.40 2.007303
619.50 1.929456
619.60 1.879116
619.70 1.861356
619.80 1.871663
619.90 1.902677
620.00 1.942758
620.10 1.972234
620.20 1.980729
620.30 1.967818
620.40 1.948823
620.50 1.950912
620.60 1.986482
620.70 2.053722
620.80 2.134589
620.90 2.205573
621.00 2.252562
621.10 2.259946
621.20 2.209032
621.30 2.091407
621.40 1.925483
621.50 1.7454
621.60 1.571381
621.70 1.422906
621.80 1.324446
621.90 1.29082
622.00 1.323922
622.10 1.403704
622.20 1.515614
622.30 1.658825
622.40 1.821295
622.50 1.97697
622.60 2.098256
622.70 2.174272
622.80 2.202066
622.90 2.188074
623.00 2.15265
623.10 2.109654
623.20 2.056307
623.30 1.992868
623.40 1.932206
623.50 1.894664
623.60 1.896782
623.70 1.937189
623.80 2.004075
623.90 2.087317
624.00 2.179591
624.10 2.264968
624.20 2.322484
624.30 2.330305
624.40 2.275808
624.50 2.172286
624.60 2.054069
624.70 1.952579
624.80 1.887913
624.90 1.873528
625.00 1.906956
625.10 1.981133
625.20 2.08494
625.30 2.198923
625.40 2.304861
625.50 2.391914
625.60 2.468242
625.70 2.54632
625.80 2.623385
625.90 2.689026
626.00 2.731051
626.10 2.732959
626.20 2.679675
626.30 2.56639
626.40 2.405419
626.50 2.222799
626.60 2.056289
626.70 1.943001
626.80 1.903972
626.90 1.937704
627.00 2.017969
627.10 2.120004
627.20 2.230562
627.30 2.341875
627.40 2.44496
627.50 2.525463
627.60 2.584524
627.70 2.634
627.80 2.672368
627.90 2.692013
628.00 2.69099
628.10 2.676017
628.20 2.663529
628.30 2.663631
628.40 2.673409
628.50 2.682275
628.60 2.674788
628.70 2.636065
628.80 2.563216
628.90 2.477385
629.00 2.398564
629.10 2.338428
629.20 2.313853
629.30 2.339586
629.40 2.412316
629.50 2.513995
629.60 2.595915
629.70 2.617535
629.80 2.587971
629.90 2.532455
630.00 2.48528
630.10 2.478562
630.20 2.526643
630.30 2.627447
630.40 2.772926
630.50 2.94213
630.60 3.102877
630.70 3.22239
630.80 3.290001
630.90 3.310715
631.00 3.314394
631.10 3.334556
631.20 3.375706
631.30 3.430176
631.40 3.478974
631.50 3.507741
631.60 3.515824
631.70 3.503274
631.80 3.460103
631.90 3.385731
632.00 3.296228
632.10 3.213269
632.20 3.148786
632.30 3.109769
632.40 3.112436
632.50 3.170251
632.60 3.270268
632.70 3.38805
632.80 3.507243
632.90 3.610144
633.00 3.684927
633.10 3.730136
633.20 3.752379
633.30 3.756741
633.40 3.746825
633.50 3.727568
633.60 3.70215
633.70 3.682732
633.80 3.682692
633.90 3.705553
634.00 3.754344
634.10 3.824437
634.20 3.900918
634.30 3.967693
634.40 4.006905
634.50 4.013443
634.60 4.000931
634.70 3.989549
634.80 3.990575
634.90 4.009561
635.00 4.057396
635.10 4.137077
635.20 4.230419
635.30 4.315661
635.40 4.381936
635.50 4.418413
635.60 4.403843
635.70 4.328072
635.80 4.214357
635.90 4.075037
636.00 3.905974
636.10 3.720344
636.20 3.559
636.30 3.459088
636.40 3.424542
636.50 3.450333
636.60 3.528316
636.70 3.637033
636.80 3.746191
636.90 3.833766
637.00 3.901635
637.10 3.953027
637.20 3.965712
637.30 3.934042
637.40 3.882127
637.50 3.836966
637.60 3.809961
637.70 3.799661
637.80 3.801877
637.90 3.809455
638.00 3.83234
638.10 3.882913
638.20 3.9615
638.30 4.063383
638.40 4.175642
638.50 4.279491
638.60 4.36265
638.70 4.424303
638.80 4.465176
638.90 4.47945
639.00 4.455257
639.10 4.397624
639.20 4.33267
639.30 4.278635
639.40 4.232269
639.50 4.194096
639.60 4.177836
639.70 4.192532
639.80 4.239476
639.90 4.321071
640.00 4.431149
640.10 4.548705
640.20 4.652187
640.30 4.718912
640.40 4.735097
640.50 4.698234
640.60 4.612481
640.70 4.487592
640.80 4.337663
640.90 4.180679
641.00 4.031573
641.10 3.906369
641.20 3.824284
641.30 3.795617
641.40 3.824612
641.50 3.913121
641.60 4.053836
641.70 4.237401
641.80 4.444931
641.90 4.637464
642.00 4.769804
642.10 4.812181
642.20 4.760601
642.30 4.632933
642.40 4.465729
642.50 4.300626
642.60 4.171609
642.70 4.106017
642.80 4.11829
642.90 4.197676
643.00 4.312103
643.10 4.418697
643.20 4.482408
643.30 4.496301
643.40 4.472202
643.50 4.429688
643.60 4.386707
643.70 4.348583
643.80 4.309296
643.90 4.268865
644.00 4.23529
644.10 4.206625
644.20 4.173377
644.30 4.138948
644.40 4.114818
644.50 4.111756
644.60 4.14004
644.70 4.202673
644.80 4.296893
644.90 4.409485
645.00 4.51723
645.10 4.598217
645.20 4.644686
645.30 4.654445
645.40 4.622686
645.50 4.55165
645.60 4.456147
645.70 4.353443
645.80 4.263879
645.90 4.206189
646.00 4.19039
646.10 4.217586
646.20 4.282056
646.30 4.382009
646.40 4.520016
646.50 4.693495
646.60 4.876225
646.70 5.025999
646.80 5.113441
646.90 5.132916
647.00 5.092258
647.10 5.009174
647.20 4.905784
647.30 4.804259
647.40 4.72597
647.50 4.687769
647.60 4.696072
647.70 4.735924
647.80 4.778001
647.90 4.798663
648.00 4.788942
648.10 4.757038
648.20 4.717818
648.30 4.684653
648.40 4.674073
648.50 4.694013
648.60 4.741709
648.70 4.813462
648.80 4.899843
648.90 4.986159
649.00 5.05657
649.10 5.108356
649.20 5.147066
649.30 5.175498
649.40 5.200804
649.50 5.226281
649.60 5.248637
649.70 5.25668
649.80 5.242766
649.90 5.214684
650.00 5.180549
650.10 5.14522
650.20 5.123108
650.30 5.127904
650.40 5.166415
650.50 5.2354
650.60 5.324174
650.70 5.419858
650.80 5.509143
650.90 5.591143
651.00 5.668869
651.10 5.745758
651.20 5.819842
651.30 5.885679
651.40 5.943848
651.50 5.99656
651.60 6.04099
651.70 6.071335
651.80 6.085108
651.90 6.082561
652.00 6.07053
652.10 6.064042
652.20 6.077338
652.30 6.11192
652.40 6.163283
652.50 6.233932
652.60 6.336469
652.70 6.477846
652.80 6.650053
652.90 6.83436
653.00 7.000366
653.10 7.122314
653.20 7.187212
653.30 7.202579
653.40 7.189073
653.50 7.164661
653.60 7.146942
653.70 7.149189
653.80 7.183462
653.90 7.26099
654.00 7.382435
654.10 7.532873
654.20 7.693278
654.30 7.849663
654.40 7.993602
654.50 8.111153
654.60 8.189168
654.70 8.221262
654.80 8.209122
654.90 8.154362
655.00 8.052682
655.10 7.916281
655.20 7.76628
655.30 7.616942
655.40 7.482192
655.50 7.376931
655.60 7.323933
655.70 7.361226
655.80 7.508618
655.90 7.756848
656.00 8.084038
656.10 8.448844
656.20 8.788946
656.30 9.04909
656.40 9.194184
656.50 9.206912
656.60 9.09643
656.70 8.891763
656.80 8.62337
656.90 8.327381
657.00 8.038034
657.10 7.768269
657.20 7.524877
657.30 7.317863
657.40 7.149404
657.50 7.012742
657.60 6.899747
657.70 6.801334
657.80 6.720892
657.90 6.670381
658.00 6.650422
658.10 6.654226
658.20 6.672386
658.30 6.698511
658.40 6.727363
658.50 6.749192
658.60 6.762236
658.70 6.771807
658.80 6.77711
658.90 6.771144
659.00 6.760816
659.10 6.774628
659.20 6.832854
659.30 6.930685
659.40 7.055243
659.50 7.197625
659.60 7.349293
659.70 7.493564
659.80 7.60062
659.90 7.644168
660.00 7.616139
660.10 7.531535
660.20 7.421066
660.30 7.318499
660.40 7.248547
660.50 7.216422
660.60 7.220502
660.70 7.271672
660.80 7.376692
660.90 7.516805
661.00 7.659661
661.10 7.773798
661.20 7.844382
661.30 7.870246
661.40 7.855058
661.50 7.804455
661.60 7.734385
661.70 7.677129
661.80 7.65934
661.90 7.685655
662.00 7.74179
662.10 7.790299
662.20 7.792867
662.30 7.732582
662.40 7.609842
662.50 7.448707
662.60 7.287715
662.70 7.161648
662.80 7.099317
662.90 7.125889
663.00 7.249227
663.10 7.44263
663.20 7.656847
663.30 7.849621
663.40 7.994132
663.50 8.080815
663.60 8.109272
663.70 8.087704
663.80 8.041728
663.90 7.994325
664.00 7.964875
664.10 7.98048
664.20 8.058008
664.30 8.187624
664.40 8.33736
664.50 8.477525
664.60 8.591041
664.70 8.669359
664.80 8.701439
664.90 8.676469
665.00 8.601301
665.10 8.49502
665.20 8.376846
665.30 8.266297
665.40 8.18013
665.50 8.124614
665.60 8.09708
665.70 8.086954
665.80 8.080429
665.90 8.070892
666.00 8.056815
666.10 8.037412
666.20 8.020266
666.30 8.017458
666.40 8.035183
666.50 8.079219
666.60 8.157646
666.70 8.274855
666.80 8.421576
666.90 8.570793
667.00 8.686583
667.10 8.749959
667.20 8.767076
667.30 8.755536
667.40 8.73469
667.50 8.716068
667.60 8.70335
667.70 8.697453
667.80 8.703541
667.90 8.724176
668.00 8.746034
668.10 8.749424
668.20 8.726101
668.30 8.686091
668.40 8.651682
668.50 8.633269
668.60 8.621114
668.70 8.602414
668.80 8.571289
668.90 8.526059
669.00 8.470239
669.10 8.41223
669.20 8.358259
669.30 8.315444
669.40 8.295263
669.50 8.305581
669.60 8.345459
669.70 8.402901
669.80 8.46068
669.90 8.512957
670.00 8.55883
670.10 8.585429
670.20 8.587437
670.30 8.574584
670.40 8.558305
670.50 8.552438
670.60 8.56632
670.70 8.605506
670.80 8.672629
670.90 8.769881
671.00 8.892955
671.10 9.027023
671.20 9.156873
671.30 9.266685
671.40 9.342351
671.50 9.37706
671.60 9.36442
671.70 9.308386
671.80 9.230106
671.90 9.143331
672.00 9.059595
672.10 8.99187
672.20 8.947249
672.30 8.923586
672.40 8.911659
672.50 8.902912
672.60 8.886312
672.70 8.846077
672.80 8.77575
672.90 8.686528
673.00 8.594499
673.10 8.516199
673.20 8.466305
673.30 8.462858
673.40 8.514341
673.50 8.610302
673.60 8.733929
673.70 8.871405
673.80 9.012032
673.90 9.146846
674.00 9.268237
674.10 9.373046
674.20 9.465088
674.30 9.541153
674.40 9.587752
674.50 9.596754
674.60 9.575747
674.70 9.543592
674.80 9.519331
674.90 9.511907
675.00 9.518015
675.10 9.534988
675.20 9.568381
675.30 9.613046
675.40 9.647536
675.50 9.647587
675.60 9.598136
675.70 9.51113
675.80 9.424166
675.90 9.363977
676.00 9.329929
676.10 9.31299
676.20 9.31783
676.30 9.362655
676.40 9.463096
676.50 9.609069
676.60 9.761987
676.70 9.890282
676.80 9.985661
676.90 10.04773
677.00 10.0699
677.10 10.04111
677.20 9.968094
677.30 9.884373
677.40 9.832538
677.50 9.838985
677.60 9.89927
677.70 9.984088
677.80 10.05585
677.90 10.08999
678.00 10.07937
678.10 10.02029
678.20 9.91003
678.30 9.756138
678.40 9.585202
678.50 9.433258
678.60 9.314666
678.70 9.227633
678.80 9.175193
678.90 9.162307
679.00 9.188581
679.10 9.24469
679.20 9.318069
679.30 9.392125
679.40 9.444288
679.50 9.456796
679.60 9.425003
679.70 9.366243
679.80 9.30312
679.90 9.247487
680.00 9.211468
680.10 9.201275
680.20 9.208956
680.30 9.22324
680.40 9.235077
680.50 9.244519
680.60 9.258593
680.70 9.277794
680.80 9.298331
680.90 9.315472
681.00 9.325684
681.10 9.323348
681.20 9.309278
681.30 9.288511
681.40 9.262898
681.50 9.239714
681.60 9.227891
681.70 9.230744
681.80 9.250621
681.90 9.286739
682.00 9.326894
682.10 9.361118
682.20 9.394776
682.30 9.438777
682.40 9.4925
682.50 9.542722
682.60 9.57347
682.70 9.575608
682.80 9.5528
682.90 9.51512
683.00 9.463218
683.10 9.39382
683.20 9.306295
683.30 9.198847
683.40 9.079163
683.50 8.958309
683.60 8.844997
683.70 8.750585
683.80 8.68584
683.90 8.65644
684.00 8.661779
684.10 8.696796
684.20 8.747022
684.30 8.787944
684.40 8.804677
684.50 8.790583
684.60 8.743237
684.70 8.670723
684.80 8.582459
684.90 8.489021
685.00 8.395501
685.10 8.304265
685.20 8.225014
685.30 8.172719
685.40 8.157238
685.50 8.174931
685.60 8.21128
685.70 8.249591
685.80 8.283621
685.90 8.324018
686.00 8.375581
686.10 8.431074
686.20 8.487392
686.30 8.540871
686.40 8.588421
686.50 8.628424
686.60 8.6582
686.70 8.670878
686.80 8.65526
686.90 8.603538
687.00 8.524045
687.10 8.439249
687.20 8.36759
687.30 8.317894
687.40 8.301694
687.50 8.325279
687.60 8.371277
687.70 8.412347
687.80 8.423255
687.90 8.391838
688.00 8.318352
688.10 8.212254
688.20 8.100532
688.30 8.022494
688.40 8.006019
688.50 8.054043
688.60 8.153723
688.70 8.277601
688.80 8.382826
688.90 8.430878
689.00 8.411375
689.10 8.329758
689.20 8.195691
689.30 8.025906
689.40 7.849978
689.50 7.697974
689.60 7.590229
689.70 7.535975
689.80 7.524349
689.90 7.539131
690.00 7.56801
690.10 7.60319
690.20 7.646652
690.30 7.70207
690.40 7.767155
690.50 7.840451
690.60 7.924277
690.70 8.016804
690.80 8.107987
690.90 8.190199
691.00 8.251465
691.10 8.278084
691.20 8.277256
691.30 8.258095
691.40 8.211665
691.50 8.126672
691.60 8.011207
691.70 7.89051
691.80 7.793052
691.90 7.750979
692.00 7.797354
692.10 7.941936
692.20 8.153273
692.30 8.379335
692.40 8.579555
692.50 8.732616
692.60 8.82726
692.70 8.867162
692.80 8.875432
692.90 8.8769
693.00 8.890109
693.10 8.928214
693.20 8.995597
693.30 9.087423
693.40 9.179768
693.50 9.241585
693.60 9.271965
693.70 9.287696
693.80 9.296644
693.90 9.309858
694.00 9.345775
694.10 9.421797
694.20 9.556579
694.30 9.771647
694.40 10.07218
694.50 10.43536
694.60 10.81588
694.70 11.14902
694.80 11.36878
694.90 11.43708
695.00 11.34213
695.10 11.10011
695.20 10.76638
695.30 10.40721
695.40 10.0819
695.50 9.844151
695.60 9.724499
695.70 9.721406
695.80 9.810669
695.90 9.95313
696.00 10.10694
696.10 10.24626
696.20 10.36967
696.30 10.48619
696.40 10.60348
696.50 10.72083
696.60 10.82245
696.70 10.89064
696.80 10.91155
696.90 10.87733
697.00 10.80276
697.10 10.70799
697.20 10.60462
697.30 10.51789
697.40 10.47568
697.50 10.48461
697.60 10.53387
697.70 10.60159
697.80 10.65962
697.90 10.68699
698.00 10.67518
698.10 10.63154
698.20 10.57988
698.30 10.53928
698.40 10.51596
698.50 10.52061
698.60 10.56558
698.70 10.63882
698.80 10.71058
698.90 10.76003
699.00 10.77003
699.10 10.72649
699.20 10.63513
699.30 10.52123
699.40 10.41589
699.50 10.33989
699.60 10.30073
699.70 10.30611
699.80 10.35569
699.90 10.43145
700.00 10.51418
700.10 10.59373
700.20 10.67443
700.30 10.76645
700.40 10.87649
700.50 11.01202
700.60 11.17178
700.70 11.34005
700.80 11.49662
700.90 11.62279
701.00 11.70666
701.10 11.74592
701.20 11.74224
701.30 11.70959
701.40 11.67614
701.50 11.66537
701.60 11.68978
701.70 11.75275
701.80 11.85483
701.90 11.99205
702.00 12.15032
702.10 12.30771
702.20 12.44167
702.30 12.54463
702.40 12.62511
702.50 12.6941
702.60 12.77065
702.70 12.87512
702.80 13.00735
702.90 13.16105
703.00 13.32847
703.10 13.49953
703.20 13.66556
703.30 13.81645
703.40 13.94702
703.50 14.06638
703.60 14.20016
703.70 14.36936
703.80 14.57539
703.90 14.80783
704.00 15.04626
704.10 15.2573
704.20 15.41096
704.30 15.49416
704.40 15.51278
704.50 15.48321
704.60 15.42342
704.70 15.35414
704.80 15.29628
704.90 15.25564
705.00 15.21479
705.10 15.14417
705.20 15.01635
705.30 14.81278
705.40 14.5364
705.50 14.21785
705.60 13.89997
705.70 13.61649
705.80 13.38569
705.90 13.21488
706.00 13.10152
706.10 13.0408
706.20 13.02422
706.30 13.03742
706.40 13.06572
706.50 13.0981
706.60 13.13504
706.70 13.19424
706.80 13.28177
706.90 13.38186
707.00 13.47732
707.10 13.55723
707.20 13.61415
707.30 13.64876
707.40 13.67831
707.50 13.71129
707.60 13.74413
707.70 13.77125
707.80 13.78305
707.90 13.77213
708.00 13.73645
708.10 13.67086
708.20 13.56818
708.30 13.42852
708.40 13.25716
708.50 13.07022
708.60 12.89905
708.70 12.76979
708.80 12.68422
708.90 12.6393
709.00 12.63103
709.10 12.65597
709.20 12.71385
709.30 12.79506
709.40 12.87953
709.50 12.94148
709.60 12.96538
709.70 12.95984
709.80 12.95096
709.90 12.96606
710.00 13.01679
710.10 13.09789
710.20 13.20278
710.30 13.32393
710.40 13.45519
710.50 13.58971
710.60 13.71417
710.70 13.81466
710.80 13.87474
710.90 13.89204
711.00 13.88474
711.10 13.86431
711.20 13.83136
711.30 13.79069
711.40 13.75348
711.50 13.73701
711.60 13.7587
711.70 13.82696
711.80 13.93361
711.90 14.05925
712.00 14.18514
712.10 14.29645
712.20 14.37705
712.30 14.40229
712.40 14.36546
712.50 14.2831
712.60 14.17136
712.70 14.0463
712.80 13.93222
712.90 13.8502
713.00 13.80453
713.10 13.78785
713.20 13.79229
713.30 13.80778
713.40 13.81772
713.50 13.80528
713.60 13.76998
713.70 13.72754
713.80 13.68379
713.90 13.64055
714.00 13.6139
714.10 13.62056
714.20 13.65989
714.30 13.72283
714.40 13.80472
714.50 13.90022
714.60 13.99852
714.70 14.09048
714.80 14.17346
714.90 14.25116
715.00 14.32353
715.10 14.38725
715.20 14.45221
715.30 14.52869
715.40 14.60783
715.50 14.67397
715.60 14.71503
715.70 14.72162
715.80 14.694
715.90 14.64253
716.00 14.57994
716.10 14.52208
716.20 14.49373
716.30 14.51781
716.40 14.60701
716.50 14.75468
716.60 14.92245
716.70 15.06697
716.80 15.16964
716.90 15.23427
717.00 15.27258
717.10 15.29682
717.20 15.31639
717.30 15.33353
717.40 15.35012
717.50 15.3671
717.60 15.37162
717.70 15.34834
717.80 15.29955
717.90 15.24967
718.00 15.23193
718.10 15.27003
718.20 15.36429
718.30 15.49013
718.40 15.62298
718.50 15.74935
718.60 15.85968
718.70 15.94995
718.80 16.02377
718.90 16.09091
719.00 16.16521
719.10 16.25431
719.20 16.35089
719.30 16.43085
719.40 16.46589
719.50 16.45253
719.60 16.41076
719.70 16.36171
719.80 16.3221
719.90 16.30563
720.00 16.32523
720.10 16.3845
720.20 16.46902
720.30 16.55309
720.40 16.61405
720.50 16.64092
720.60 16.63269
720.70 16.60254
720.80 16.57605
720.90 16.56566
721.00 16.56892
721.10 16.5885
721.20 16.63233
721.30 16.7013
721.40 16.78331
721.50 16.86165
721.60 16.9302
721.70 16.99043
721.80 17.04248
721.90 17.08575
722.00 17.12377
722.10 17.16471
722.20 17.21298
722.30 17.26487
722.40 17.32102
722.50 17.38821
722.60 17.46771
722.70 17.55948
722.80 17.66318
722.90 17.77945
723.00 17.90036
723.10 18.01325
723.20 18.11776
723.30 18.21254
723.40 18.30056
723.50 18.40443
723.60 18.54228
723.70 18.71527
723.80 18.89911
723.90 19.06128
724.00 19.19912
724.10 19.31132
724.20 19.38065
724.30 19.39358
724.40 19.35889
724.50 19.2953
724.60 19.21014
724.70 19.12363
724.80 19.06232
724.90 19.03027
725.00 19.02545
725.10 19.05901
725.20 19.15466
725.30 19.32052
725.40 19.52362
725.50 19.72584
725.60 19.90699
725.70 20.06133
725.80 20.18777
725.90 20.28636
726.00 20.3575
726.10 20.39785
726.20 20.40554
726.30 20.38272
726.40 20.34033
726.50 20.28538
726.60 20.22103
726.70 20.15825
726.80 20.11116
726.90 20.10241
727.00 20.16874
727.10 20.32747
727.20 20.56802
727.30 20.85559
727.40 21.13034
727.50 21.33045
727.60 21.41319
727.70 21.36729
727.80 21.22364
727.90 21.05385
728.00 20.93564
728.10 20.92287
728.20 21.04054
728.30 21.26007
728.40 21.50213
728.50 21.69189
728.60 21.77253
728.70 21.71619
728.80 21.54717
728.90 21.32597
729.00 21.13242
729.10 21.0457
729.20 21.10235
729.30 21.28129
729.40 21.53971
729.50 21.82531
729.60 22.07182
729.70 22.24057
729.80 22.32822
729.90 22.34397
730.00 22.30978
730.10 22.25542
730.20 22.21908
730.30 22.23379
730.40 22.30624
730.50 22.43379
730.60 22.61728
730.70 22.84938
730.80 23.1106
730.90 23.39112
731.00 23.69375
731.10 24.01484
731.20 24.34281
731.30 24.65088
731.40 24.89861
731.50 25.06839
731.60 25.16335
731.70 25.19383
731.80 25.18365
731.90 25.14776
732.00 25.09489
732.10 25.04296
732.20 25.01358
732.30 25.02548
732.40 25.08893
732.50 25.18177
732.60 25.23564
732.70 25.18999
732.80 25.03056
732.90 24.77314
733.00 24.45868
733.10 24.148
733.20 23.9043
733.30 23.79228
733.40 23.87548
733.50 24.19521
733.60 24.74436
733.70 25.4424
733.80 26.16673
733.90 26.80489
734.00 27.27702
734.10 27.52542
734.20 27.51845
734.30 27.27323
734.40 26.83984
734.50 26.29599
734.60 25.74194
734.70 25.26407
734.80 24.90389
734.90 24.66829
735.00 24.54649
735.10 24.52446
735.20 24.57221
735.30 24.63982
735.40 24.70631
735.50 24.77925
735.60 24.85883
735.70 24.92964
735.80 24.98576
735.90 25.02919
736.00 25.06641
736.10 25.12358
736.20 25.23651
736.30 25.42306
736.40 25.68445
736.50 25.99673
736.60 26.30801
736.70 26.58174
736.80 26.78263
736.90 26.86879
737.00 26.82172
737.10 26.65039
737.20 26.37946
737.30 26.04608
737.40 25.69249
737.50 25.35802
737.60 25.07825
737.70 24.88272
737.80 24.77213
737.90 24.72991
738.00 24.74735
738.10 24.80146
738.20 24.85878
738.30 24.89599
738.40 24.91329
738.50 24.92791
738.60 24.97155
738.70 25.08592
738.80 25.27966
738.90 25.50846
739.00 25.70374
739.10 25.79969
739.20 25.74529
739.30 25.52236
739.40 25.15788
739.50 24.72588
739.60 24.32359
739.70 24.03292
739.80 23.89958
739.90 23.92916
740.00 24.09141
740.10 24.31894
740.20 24.52866
740.30 24.66737
740.40 24.71904
740.50 24.69316
740.60 24.62236
740.70 24.5404
740.80 24.47445
740.90 24.43821
741.00 24.42447
741.10 24.42956
741.20 24.45823
741.30 24.50403
741.40 24.53562
741.50 24.52143
741.60 24.45692
741.70 24.35408
741.80 24.22411
741.90 24.07809
742.00 23.92913
742.10 23.79597
742.20 23.69546
742.30 23.63315
742.40 23.61923
742.50 23.66306
742.60 23.75079
742.70 23.86213
742.80 23.98849
742.90 24.11411
743.00 24.21424
743.10 24.26495
743.20 24.25385
743.30 24.17881
743.40 24.04713
743.50 23.8855
743.60 23.74291
743.70 23.66675
743.80 23.66628
743.90 23.72306
744.00 23.80781
744.10 23.87501
744.20 23.86801
744.30 23.74814
744.40 23.51522
744.50 23.20138
744.60 22.85427
744.70 22.53439
744.80 22.3113
744.90 22.23277
745.00 22.29466
745.10 22.44906
745.20 22.63568
745.30 22.78888
745.40 22.85782
745.50 22.83286
745.60 22.73343
745.70 22.59539
745.80 22.46488
745.90 22.39028
746.00 22.41178
746.10 22.5438
746.20 22.7645
746.30 23.02174
746.40 23.25487
746.50 23.42649
746.60 23.53015
746.70 23.58193
746.80 23.60187
746.90 23.59676
747.00 23.57823
747.10 23.56357
747.20 23.55755
747.30 23.55338
747.40 23.54151
747.50 23.50704
747.60 23.44835
747.70 23.40047
747.80 23.41248
747.90 23.5091
748.00 23.69125
748.10 23.94132
748.20 24.21344
748.30 24.45048
748.40 24.61079
748.50 24.68073
748.60 24.66143
748.70 24.55992
748.80 24.3909
748.90 24.19014
749.00 24.00173
749.10 23.84093
749.20 23.70498
749.30 23.59273
749.40 23.49746
749.50 23.41355
749.60 23.35838
749.70 23.35997
749.80 23.42231
749.90 23.53002
750.00 23.6725
750.10 23.83432
750.20 23.98949
750.30 24.11229
750.40 24.1866
750.50 24.21674
750.60 24.21633
750.70 24.19676
750.80 24.17259
750.90 24.15991
751.00 24.15865
751.10 24.16563
751.20 24.2007
751.30 24.2707
751.40 24.35299
751.50 24.41738
751.60 24.44247
751.70 24.43481
751.80 24.42076
751.90 24.42973
752.00 24.4745
752.10 24.54308
752.20 24.62083
752.30 24.69777
752.40 24.76984
752.50 24.82828
752.60 24.85366
752.70 24.83471
752.80 24.77864
752.90 24.70431
753.00 24.63122
753.10 24.5722
753.20 24.52992
753.30 24.49966
753.40 24.48266
753.50 24.49676
753.60 24.55353
753.70 24.64008
753.80 24.74056
753.90 24.84894
754.00 24.95489
754.10 25.04821
754.20 25.12005
754.30 25.15918
754.40 25.15714
754.50 25.09968
754.60 24.97601
754.70 24.7912
754.80 24.56746
754.90 24.34367
755.00 24.16439
755.10 24.07278
755.20 24.08791
755.30 24.18875
755.40 24.33138
755.50 24.47652
755.60 24.59706
755.70 24.68146
755.80 24.73858
755.90 24.78344
756.00 24.82099
756.10 24.844
756.20 24.83958
756.30 24.79509
756.40 24.69758
756.50 24.55419
756.60 24.41192
756.70 24.31739
756.80 24.29091
756.90 24.33322
757.00 24.43895
757.10 24.57933
757.20 24.70176
757.30 24.76709
757.40 24.75899
757.50 24.68724
757.60 24.58804
757.70 24.50968
757.80 24.49735
757.90 24.56669
758.00 24.69285
758.10 24.83621
758.20 24.95117
758.30 24.98472
758.40 24.88351
758.50 24.62148
758.60 24.2061
758.70 23.66917
758.80 23.05948
758.90 22.42998
759.00 21.8319
759.10 21.31102
759.20 20.90664
759.30 20.63674
759.40 20.47926
759.50 20.3999
759.60 20.38237
759.70 20.40239
759.80 20.43362
759.90 20.47093
760.00 20.49363
760.10 20.46372
760.20 20.37917
760.30 20.26844
760.40 20.16945
760.50 20.11128
760.60 20.09033
760.70 20.08139
760.80 20.0635
760.90 20.02946
761.00 19.97951
761.10 19.93151
761.20 19.89989
761.30 19.87792
761.40 19.87531
761.50 19.90892
761.60 19.97002
761.70 20.03559
761.80 20.05967
761.90 19.9867
762.00 19.80474
762.10 19.5392
762.20 19.2245
762.30 18.88926
762.40 18.54402
762.50 18.17891
762.60 17.77623
762.70 17.3308
762.80 16.85371
762.90 16.37109
763.00 15.91106
763.10 15.49563
763.20 15.13496
763.30 14.83127
763.40 14.57537
763.50 14.34939
763.60 14.14575
763.70 13.94715
763.80 13.71852
763.90 13.43012
764.00 13.07488
764.10 12.66962
764.20 12.24527
764.30 11.82985
764.40 11.4325
764.50 11.04517
764.60 10.66873
764.70 10.3156
764.80 9.97751
764.90 9.626846
765.00 9.236405
765.10 8.793679
765.20 8.307246
765.30 7.800826
765.40 7.300453
765.50 6.81836
765.60 6.356523
765.70 5.921859
765.80 5.523896
765.90 5.157207
766.00 4.815649
766.10 4.49391
766.20 4.188837
766.30 3.912964
766.40 3.678906
766.50 3.504045
766.60 3.412175
766.70 3.419055
766.80 3.530122
766.90 3.744665
767.00 4.05231
767.10 4.424417
767.20 4.827581
767.30 5.243466
767.40 5.656782
767.50 6.049404
767.60 6.411326
767.70 6.737967
767.80 7.03506
767.90 7.315959
768.00 7.598535
768.10 7.89152
768.20 8.185131
768.30 8.455849
768.40 8.667184
768.50 8.786608
768.60 8.798886
768.70 8.716478
768.80 8.569048
768.90 8.382249
769.00 8.169207
769.10 7.929681
769.20 7.654651
769.30 7.336197
769.40 6.971365
769.50 6.564339
769.60 6.127685
769.70 5.684182
769.80 5.274591
769.90 4.94578
770.00 4.733044
770.10 4.646401
770.20 4.67761
770.30 4.821932
770.40 5.074742
770.50 5.424701
770.60 5.869949
770.70 6.421702
770.80 7.06913
770.90 7.769251
771.00 8.479438
771.10 9.167934
771.20 9.805669
771.30 10.34946
771.40 10.75793
771.50 11.01838
771.60 11.1459
771.70 11.17839
771.80 11.18617
771.90 11.2608
772.00 11.46494
772.10 11.80949
772.20 12.28108
772.30 12.87435
772.40 13.56429
772.50 14.28778
772.60 14.96382
772.70 15.53745
772.80 15.99497
772.90 16.33472
773.00 16.56729
773.10 16.72031
773.20 16.82261
773.30 16.91018
773.40 17.02069
773.50 17.17782
773.60 17.38848
773.70 17.63915
773.80 17.90827
773.90 18.17333
774.00 18.41762
774.10 18.63122
774.20 18.79667
774.30 18.90641
774.40 18.98097
774.50 19.05507
774.60 19.15805
774.70 19.30919
774.80 19.50654
774.90 19.72957
775.00 19.95284
775.10 20.12856
775.20 20.2205
775.30 20.23675
775.40 20.20586
775.50 20.15764
775.60 20.1183
775.70 20.1087
775.80 20.13238
775.90 20.17059
776.00 20.21041
776.10 20.2403
776.20 20.24973
776.30 20.24147
776.40 20.23113
776.50 20.26468
776.60 20.38804
776.70 20.61882
776.80 20.95579
776.90 21.37658
777.00 21.84225
777.10 22.30011
777.20 22.68129
777.30 22.92613
777.40 22.98999
777.50 22.85898
777.60 22.58982
777.70 22.2732
777.80 21.99085
777.90 21.81304
778.00 21.76646
778.10 21.82228
778.20 21.92452
778.30 22.01933
778.40 22.06888
778.50 22.05618
778.60 21.99767
778.70 21.94473
778.80 21.96926
778.90 22.13493
779.00 22.44241
779.10 22.83322
779.20 23.21831
779.30 23.48761
779.40 23.52941
779.50 23.25073
779.60 22.58964
779.70 21.54957
779.80 20.23586
779.90 18.84203
780.00 17.61085
780.10 16.76688
780.20 16.46502
780.30 16.76688
780.40 17.62525
780.50 18.88765
780.60 20.33826
780.70 21.73034
780.80 22.85674
780.90 23.60886
781.00 23.99237
781.10 24.1013
781.20 24.06095
781.30 24.00064
781.40 24.0182
781.50 24.17594
781.60 24.49351
781.70 24.91741
781.80 25.35027
781.90 25.7148
782.00 25.96627
782.10 26.07749
782.20 26.03674
782.30 25.85891
782.40 25.57742
782.50 25.23123
782.60 24.8633
782.70 24.51236
782.80 24.22024
782.90 24.0126
783.00 23.89051
783.10 23.86596
783.20 23.96804
783.30 24.1968
783.40 24.49957
783.50 24.8403
783.60 25.21299
783.70 25.6043
783.80 25.99104
783.90 26.35406
784.00 26.6961
784.10 27.02822
784.20 27.35586
784.30 27.68466
784.40 28.01047
784.50 28.29861
784.60 28.48377
784.70 28.53268
784.80 28.49149
784.90 28.41488
785.00 28.3007
785.10 28.13875
785.20 27.95976
785.30 27.82031
785.40 27.75123
785.50 27.75007
785.60 27.81251
785.70 27.92792
785.80 28.08318
785.90 28.26747
786.00 28.47958
786.10 28.70027
786.20 28.8583
786.30 28.88203
786.40 28.78602
786.50 28.63363
786.60 28.4749
786.70 28.32191
786.80 28.16839
786.90 28.01991
787.00 27.85462
787.10 27.64005
787.20 27.37284
787.30 27.07886
787.40 26.80061
787.50 26.59126
787.60 26.51622
787.70 26.63536
787.80 26.95083
787.90 27.41161
788.00 27.93386
788.10 28.42399
788.20 28.81492
788.30 29.065
788.40 29.19306
788.50 29.25522
788.60 29.27561
788.70 29.27681
788.80 29.30028
788.90 29.37977
789.00 29.51763
789.10 29.6706
789.20 29.78968
789.30 29.83408
789.40 29.78239
789.50 29.63526
789.60 29.39936
789.70 29.09397
789.80 28.73804
789.90 28.36087
790.00 28.03083
790.10 27.81588
790.20 27.74017
790.30 27.78752
790.40 27.92262
790.50 28.11214
790.60 28.31777
790.70 28.49395
790.80 28.61347
790.90 28.69386
791.00 28.76955
791.10 28.8786
791.20 29.0284
791.30 29.19825
791.40 29.36072
791.50 29.47073
791.60 29.50667
791.70 29.46748
791.80 29.36302
791.90 29.22366
792.00 29.0807
792.10 28.95319
792.20 28.83747
792.30 28.71049
792.40 28.55755
792.50 28.37954
792.60 28.21808
792.70 28.13669
792.80 28.19099
792.90 28.43007
793.00 28.86791
793.10 29.47692
793.20 30.18777
793.30 30.888
793.40 31.45412
793.50 31.79165
793.60 31.85183
793.70 31.63848
793.80 31.20122
793.90 30.61251
794.00 29.94245
794.10 29.24931
794.20 28.56186
794.30 27.86059
794.40 27.09169
794.50 26.22443
794.60 25.29349
794.70 24.3974
794.80 23.68323
794.90 23.31121
795.00 23.40494
795.10 24.00232
795.20 25.03932
795.30 26.3719
795.40 27.81421
795.50 29.15852
795.60 30.22362
795.70 30.91926
795.80 31.26864
795.90 31.38613
796.00 31.38273
796.10 31.3223
796.20 31.26845
796.30 31.28098
796.40 31.37772
796.50 31.53571
796.60 31.7202
796.70 31.90484
796.80 32.06844
796.90 32.19936
797.00 32.2951
797.10 32.35961
797.20 32.38182
797.30 32.33371
797.40 32.23814
797.50 32.16414
797.60 32.13917
797.70 32.1432
797.80 32.16278
797.90 32.18955
798.00 32.20414
798.10 32.17485
798.20 32.06979
798.30 31.88266
798.40 31.633
798.50 31.35396
798.60 31.09677
798.70 30.92709
798.80 30.88062
798.90 30.94783
799.00 31.11465
799.10 31.36187
799.20 31.64116
799.30 31.90717
799.40 32.12802
799.50 32.28705
799.60 32.39568
799.70 32.47347
799.80 32.54834
799.90 32.6479
800.00 32.79288
800.10 32.98296
800.20 33.20195
800.30 33.42961
800.40 33.62763
800.50 33.77321
800.60 33.86715
800.70 33.91729
800.80 33.95703
800.90 34.03579
801.00 34.19252
801.10 34.44832
801.20 34.78814
801.30 35.16467
801.40 35.52014
801.50 35.79934
801.60 35.95807
801.70 35.99013
801.80 35.93463
801.90 35.83703
802.00 35.76541
802.10 35.79397
802.20 35.95938
802.30 36.28345
802.40 36.76455
802.50 37.36041
802.60 38.01722
802.70 38.67165
802.80 39.24612
802.90 39.68515
803.00 39.97298
803.10 40.11174
803.20 40.1063
803.30 39.97291
803.40 39.72841
803.50 39.40852
803.60 39.07743
803.70 38.78412
803.80 38.55618
803.90 38.41451
804.00 38.38512
804.10 38.50068
804.20 38.76366
804.30 39.1239
804.40 39.50173
804.50 39.83358
804.60 40.09378
804.70 40.30508
804.80 40.54528
804.90 40.89699
805.00 41.40439
805.10 42.06
805.20 42.81872
805.30 43.62703
805.40 44.40708
805.50 45.06939
805.60 45.56286
805.70 45.85785
805.80 45.95942
805.90 45.92738
806.00 45.83793
806.10 45.74616
806.20 45.65668
806.30 45.55771
806.40 45.45687
806.50 45.37397
806.60 45.33652
806.70 45.36391
806.80 45.46298
806.90 45.63468
807.00 45.86954
807.10 46.18242
807.20 46.6049
807.30 47.13186
807.40 47.72072
807.50 48.31904
807.60 48.87663
807.70 49.3554
807.80 49.73745
807.90 50.04302
808.00 50.31646
808.10 50.59332
808.20 50.88899
808.30 51.19484
808.40 51.48755
808.50 51.71505
808.60 51.80826
808.70 51.73468
808.80 51.51652
808.90 51.21551
809.00 50.91529
809.10 50.68535
809.20 50.57103
809.30 50.58188
809.40 50.6713
809.50 50.7731
809.60 50.8335
809.70 50.8203
809.80 50.74402
809.90 50.65914
810.00 50.63267
810.10 50.70139
810.20 50.87464
810.30 51.14929
810.40 51.51013
810.50 51.92669
810.60 52.34574
810.70 52.70932
810.80 52.98988
810.90 53.20153
811.00 53.37772
811.10 53.53819
811.20 53.67575
811.30 53.78898
811.40 53.90319
811.50 54.07205
811.60 54.35607
811.70 54.77848
811.80 55.30207
811.90 55.85573
812.00 56.36349
812.10 56.75265
812.20 56.99832
812.30 57.1174
812.40 57.16015
812.50 57.22391
812.60 57.40575
812.70 57.75446
812.80 58.24609
812.90 58.80123
813.00 59.32323
813.10 59.72912
813.20 59.991
813.30 60.16046
813.40 60.33581
813.50 60.6091
813.60 61.00658
813.70 61.47394
813.80 61.90091
813.90 62.13651
814.00 62.05054
814.10 61.60578
814.20 60.86604
814.30 59.96553
814.40 59.04337
814.50 58.21733
814.60 57.60405
814.70 57.28189
814.80 57.25263
814.90 57.45467
815.00 57.80943
815.10 58.25141
815.20 58.73564
815.30 59.24561
815.40 59.77487
815.50 60.28872
815.60 60.73515
815.70 61.06272
815.80 61.26524
815.90 61.40074
816.00 61.54333
816.10 61.75178
816.20 62.06708
816.30 62.48888
816.40 62.97143
816.50 63.46963
816.60 63.95547
816.70 64.40847
816.80 64.81057
816.90 65.16709
817.00 65.50544
817.10 65.86321
817.20 66.25817
817.30 66.65596
817.40 66.95751
817.50 67.0224
817.60 66.72094
817.70 65.98093
817.80 64.76956
817.90 63.05824
818.00 60.86786
818.10 58.32932
818.20 55.68976
818.30 53.2778
818.40 51.42755
818.50 50.37247
818.60 50.1897
818.70 50.78258
818.80 51.89464
818.90 53.14331
819.00 54.0965
819.10 54.39105
819.20 53.84463
819.30 52.52739
819.40 50.72491
819.50 48.85004
819.60 47.33894
819.70 46.52368
819.80 46.565
819.90 47.47595
820.00 49.14369
820.10 51.3277
820.20 53.70543
820.30 55.95732
820.40 57.84824
820.50 59.26813
820.60 60.2263
820.70 60.80631
820.80 61.13011
820.90 61.32358
821.00 61.46928
821.10 61.60358
821.20 61.75472
821.30 61.92708
821.40 62.08779
821.50 62.20603
821.60 62.28777
821.70 62.38743
821.80 62.565
821.90 62.85921
822.00 63.26765
822.10 63.73939
822.20 64.199
822.30 64.58424
822.40 64.90323
822.50 65.2047
822.60 65.52053
822.70 65.85474
822.80 66.20408
822.90 66.57336
823.00 66.94441
823.10 67.26883
823.20 67.49379
823.30 67.5914
823.40 67.58623
823.50 67.54909
823.60 67.5612
823.70 67.68435
823.80 67.93296
823.90 68.28549
824.00 68.70647
824.10 69.16866
824.20 69.64457
824.30 70.10816
824.40 70.56378
824.50 71.03658
824.60 71.54514
824.70 72.03842
824.80 72.40083
824.90 72.51517
825.00 72.31823
825.10 71.80966
825.20 71.03381
825.30 70.0834
825.40 69.10412
825.50 68.26316
825.60 67.7245
825.70 67.59629
825.80 67.86311
825.90 68.40868
826.00 69.07963
826.10 69.74768
826.20 70.33165
826.30 70.78355
826.40 71.0657
826.50 71.16023
826.60 71.10613
826.70 70.97431
826.80 70.80996
826.90 70.62027
827.00 70.38206
827.10 70.0893
827.20 69.79654
827.30 69.59713
827.40 69.57294
827.50 69.76352
827.60 70.15229
827.70 70.6643
827.80 71.19116
827.90 71.61307
828.00 71.81408
828.10 71.7398
828.20 71.3968
828.30 70.84085
828.40 70.19297
828.50 69.57031
828.60 69.02973
828.70 68.55418
828.80 68.0833
828.90 67.56536
829.00 66.98592
829.10 66.37702
829.20 65.80699
829.30 65.35092
829.40 65.06891
829.50 64.97205
829.60 65.03532
829.70 65.20919
829.80 65.38134
829.90 65.41189
830.00 65.22241
830.10 64.82494
830.20 64.29287
830.30 63.72448
830.40 63.19955
830.50 62.77636
830.60 62.50616
830.70 62.42707
830.80 62.54304
830.90 62.82027
831.00 63.20807
831.10 63.64611
831.20 64.07746
831.30 64.48356
831.40 64.87441
831.50 65.26394
831.60 65.66307
831.70 66.08383
831.80 66.54672
831.90 67.05861
832.00 67.58505
832.10 68.07422
832.20 68.46611
832.30 68.69423
832.40 68.70351
832.50 68.48576
832.60 68.10276
832.70 67.66056
832.80 67.27403
832.90 67.0432
833.00 67.03145
833.10 67.23078
833.20 67.57014
833.30 67.95514
833.40 68.29594
833.50 68.52704
833.60 68.64722
833.70 68.71386
833.80 68.79735
833.90 68.93817
834.00 69.12804
834.10 69.3405
834.20 69.60134
834.30 69.93939
834.40 70.32985
834.50 70.73194
834.60 71.09991
834.70 71.39085
834.80 71.56609
834.90 71.5933
835.00 71.4283
835.10 71.05629
835.20 70.53804
835.30 69.98057
835.40 69.50169
835.50 69.19501
835.60 69.05971
835.70 69.03562
835.80 69.08249
835.90 69.18366
836.00 69.33298
836.10 69.5265
836.20 69.76165
836.30 70.04389
836.40 70.40789
836.50 70.87423
836.60 71.41295
836.70 71.96878
836.80 72.48018
836.90 72.87137
837.00 73.04202
837.10 72.91679
837.20 72.48323
837.30 71.78862
837.40 70.94255
837.50 70.09828
837.60 69.4355
837.70 69.12564
837.80 69.24379
837.90 69.73043
838.00 70.43559
838.10 71.17341
838.20 71.75447
838.30 72.00351
838.40 71.81078
838.50 71.16594
838.60 70.16497
838.70 68.98478
838.80 67.82841
838.90 66.8891
839.00 66.2897
839.10 66.04227
839.20 66.12608
839.30 66.53844
839.40 67.24675
839.50 68.17297
839.60 69.25917
839.70 70.4763
839.80 71.78168
839.90 73.11347
840.00 74.33962
840.10 75.28259
840.20 75.83115
840.30 75.96418
840.40 75.76983
840.50 75.4115
840.60 75.02466
840.70 74.69371
840.80 74.46045
840.90 74.35304
841.00 74.37362
841.10 74.49155
841.20 74.68474
841.30 74.91596
841.40 75.16003
841.50 75.41718
841.60 75.64231
841.70 75.74877
841.80 75.64494
841.90 75.28325
842.00 74.69499
842.10 73.98809
842.20 73.31315
842.30 72.79214
842.40 72.48725
842.50 72.39593
842.60 72.46586
842.70 72.68151
842.80 73.01552
842.90 73.36737
843.00 73.60826
843.10 73.56746
843.20 73.06826
843.30 72.01722
843.40 70.45457
843.50 68.52375
843.60 66.44928
843.70 64.48441
843.80 62.83282
843.90 61.62715
844.00 60.89558
844.10 60.49311
844.20 60.20154
844.30 59.86085
844.40 59.38848
844.50 58.819
844.60 58.26203
844.70 57.80644
844.80 57.43324
844.90 57.05728
845.00 56.63226
845.10 56.15668
845.20 55.64342
845.30 55.10454
845.40 54.55859
845.50 54.05357
845.60 53.66258
845.70 53.43633
845.80 53.38004
845.90 53.44836
846.00 53.58407
846.10 53.74727
846.20 53.92623
846.30 54.11666
846.40 54.31926
846.50 54.53452
846.60 54.72821
846.70 54.87502
846.80 54.96179
846.90 54.97955
847.00 54.92758
847.10 54.81862
847.20 54.67471
847.30 54.52587
847.40 54.38906
847.50 54.25765
847.60 54.16038
847.70 54.13802
847.80 54.14006
847.90 54.06082
848.00 53.85429
848.10 53.53023
848.20 53.15114
848.30 52.81477
848.40 52.59774
848.50 52.54256
848.60 52.67566
848.70 53.02103
848.80 53.58188
848.90 54.33117
849.00 55.20091
849.10 56.09618
849.20 56.94383
849.30 57.69328
849.40 58.27692
849.50 58.61349
849.60 58.64505
849.70 58.37638
849.80 57.89422
849.90 57.36172
850.00 56.94527
850.10 56.73658
850.20 56.76132
850.30 56.99602
850.40 57.38731
850.50 57.8607
850.60 58.30583
850.70 58.62117
850.80 58.76976
850.90 58.77828
851.00 58.69571
851.10 58.54843
851.20 58.33456
851.30 58.01876
851.40 57.56088
851.50 56.94363
851.60 56.14098
851.70 55.09692
851.80 53.7625
851.90 52.16163
852.00 50.43971
852.10 48.86194
852.20 47.71798
852.30 47.2246
852.40 47.48521
852.50 48.48088
852.60 50.07819
852.70 52.04525
852.80 54.08605
852.90 55.91616
853.00 57.34099
853.10 58.32035
853.20 58.92269
853.30 59.23379
853.40 59.33143
853.50 59.26124
853.60 59.08544
853.70 58.92034
853.80 58.87197
853.90 58.9853
854.00 59.26192
854.10 59.67832
854.20 60.19119
854.30 60.73243
854.40 61.24339
854.50 61.69269
854.60 62.10063
854.70 62.54685
854.80 63.10877
854.90 63.81309
855.00 64.61042
855.10 65.38643
855.20 66.02812
855.30 66.4739
855.40 66.70105
855.50 66.71182
855.60 66.53139
855.70 66.21697
855.80 65.84521
855.90 65.48087
856.00 65.14116
856.10 64.82115
856.20 64.53351
856.30 64.31289
856.40 64.20437
856.50 64.23536
856.60 64.39932
856.70 64.66074
856.80 64.9556
856.90 65.19911
857.00 65.33316
857.10 65.34301
857.20 65.23179
857.30 65.01738
857.40 64.75713
857.50 64.53494
857.60 64.43185
857.70 64.49525
857.80 64.70066
857.90 64.9876
858.00 65.31138
858.10 65.63243
858.20 65.92026
858.30 66.17525
858.40 66.4275
858.50 66.69332
858.60 66.95794
858.70 67.18539
858.80 67.33251
858.90 67.36059
859.00 67.24019
859.10 66.99028
859.20 66.7046
859.30 66.49241
859.40 66.43638
859.50 66.58063
859.60 66.89904
859.70 67.3293
859.80 67.7865
859.90 68.18102
860.00 68.45002
860.10 68.5759
860.20 68.5751
860.30 68.48614
860.40 68.36057
860.50 68.20448
860.60 67.96559
860.70 67.57374
860.80 66.93203
860.90 65.95973
861.00 64.67916
861.10 63.14524
861.20 61.39505
861.30 59.49954
861.40 57.57788
861.50 55.76764
861.60 54.19595
861.70 52.94245
861.80 52.01843
861.90 51.3953
862.00 51.00622
862.10 50.7512
862.20 50.54886
862.30 50.33784
862.40 50.0508
862.50 49.63942
862.60 49.11695
862.70 48.55413
862.80 48.04456
862.90 47.65549
863.00 47.4134
863.10 47.33861
863.20 47.4466
863.30 47.7162
863.40 48.08886
863.50 48.50587
863.60 48.92147
863.70 49.30249
863.80 49.63151
863.90 49.92419
864.00 50.22357
864.10 50.55167
864.20 50.89447
864.30 51.23976
864.40 51.59542
864.50 51.97274
864.60 52.37448
864.70 52.80461
864.80 53.2898
864.90 53.87532
865.00 54.59245
865.10 55.41771
865.20 56.27075
865.30 57.06994
865.40 57.76396
865.50 58.33228
865.60 58.79409
865.70 59.21118
865.80 59.63185
865.90 60.03643
866.00 60.361
866.10 60.55164
866.20 60.6
866.30 60.52215
866.40 60.31725
866.50 59.9947
866.60 59.57956
866.70 59.09885
866.80 58.58163
866.90 58.0616
867.00 57.58031
867.10 57.15741
867.20 56.80233
867.30 56.5845
867.40 56.62646
867.50 56.99496
867.60 57.64018
867.70 58.41458
867.80 59.14287
867.90 59.68451
868.00 59.98593
868.10 60.04553
868.20 59.88824
868.30 59.58771
868.40 59.23828
868.50 58.91375
868.60 58.65515
868.70 58.42581
868.80 58.09602
868.90 57.52189
869.00 56.58877
869.10 55.23956
869.20 53.50183
869.30 51.47661
869.40 49.31166
869.50 47.22664
869.60 45.46966
869.70 44.2054
869.80 43.49408
869.90 43.33119
870.00 43.65183
870.10 44.33038
870.20 45.20855
870.30 46.11509
870.40 46.89479
870.50 47.44412
870.60 47.71523
870.70 47.70668
870.80 47.44421
870.90 46.95387
871.00 46.26751
871.10 45.46888
871.20 44.67807
871.30 43.99756
871.40 43.49915
871.50 43.2122
871.60 43.12276
871.70 43.20096
871.80 43.41949
871.90 43.73988
872.00 44.12197
872.10 44.55291
872.20 45.06613
872.30 45.71115
872.40 46.52173
872.50 47.49597
872.60 48.58237
872.70 49.67137
872.80 50.6181
872.90 51.30965
873.00 51.68759
873.10 51.72604
873.20 51.43146
873.30 50.87033
873.40 50.1624
873.50 49.46298
873.60 48.9318
873.70 48.67876
873.80 48.7488
873.90 49.14743
874.00 49.84562
874.10 50.80323
874.20 51.95831
874.30 53.17119
874.40 54.24614
874.50 55.00938
874.60 55.37138
874.70 55.33263
874.80 54.99171
874.90 54.50275
875.00 54.01038
875.10 53.64944
875.20 53.52677
875.30 53.67754
875.40 54.09406
875.50 54.73541
875.60 55.52218
875.70 56.4024
875.80 57.3727
875.90 58.42071
876.00 59.46549
876.10 60.37056
876.20 60.99674
876.30 61.23491
876.40 61.00432
876.50 60.33716
876.60 59.44651
876.70 58.64864
876.80 58.24735
876.90 58.45126
877.00 59.37324
877.10 61.00452
877.20 63.19523
877.30 65.66843
877.40 68.02458
877.50 69.89795
877.60 71.04286
877.70 71.34162
877.80 70.87106
877.90 69.82788
878.00 68.42098
878.10 66.87356
878.20 65.43612
878.30 64.33438
878.40 63.67766
878.50 63.4294
878.60 63.456
878.70 63.62885
878.80 63.95236
878.90 64.45179
879.00 65.07462
879.10 65.76921
879.20 66.51691
879.30 67.31468
879.40 68.14025
879.50 68.93482
879.60 69.54261
879.70 69.75253
879.80 69.40044
879.90 68.42245
880.00 66.88957
880.10 64.99357
880.20 62.96931
880.30 61.0536
880.40 59.47867
880.50 58.42528
880.60 58.01231
880.70 58.30599
880.80 59.29569
880.90 60.88948
881.00 62.98576
881.10 65.50199
881.20 68.34384
881.30 71.38536
881.40 74.44433
881.50 77.28011
881.60 79.63973
881.70 81.31728
881.80 82.18938
881.90 82.22246
882.00 81.44952
882.10 79.94532
882.20 77.87781
882.30 75.5409
882.40 73.25402
882.50 71.30756
882.60 69.99673
882.70 69.53539
882.80 69.92996
882.90 71.01733
883.00 72.53066
883.10 74.1593
883.20 75.64901
883.30 76.84543
883.40 77.70806
883.50 78.33752
883.60 78.92624
883.70 79.65314
883.80 80.62146
883.90 81.78529
884.00 82.88408
884.10 83.54213
884.20 83.44861
884.30 82.40194
884.40 80.37434
884.50 77.5669
884.60 74.37137
884.70 71.32961
884.80 69.01786
884.90 67.88289
885.00 68.11937
885.10 69.62002
885.20 72.01529
885.30 74.75198
885.40 77.21477
885.50 78.89316
885.60 79.48082
885.70 78.91469
885.80 77.36323
885.90 75.18269
886.00 72.84402
886.10 70.79803
886.20 69.35503
886.30 68.62689
886.40 68.547
886.50 68.92972
886.60 69.52376
886.70 70.01465
886.80 70.0645
886.90 69.42436
887.00 68.03269
887.10 66.04222
887.20 63.7713
887.30 61.65243
887.40 60.13805
887.50 59.56618
887.60 60.09473
887.70 61.65337
887.80 63.94755
887.90 66.53214
888.00 68.92353
888.10 70.73702
888.20 71.71434
888.30 71.86257
888.40 71.55097
888.50 71.28628
888.60 71.4592
888.70 72.23328
888.80 73.51395
888.90 74.99344
889.00 76.26669
889.10 76.94727
889.20 76.73128
889.30 75.47538
889.40 73.27945
889.50 70.51904
889.60 67.82461
889.70 65.78573
889.80 64.68366
889.90 64.62224
890.00 65.64792
890.10 67.66876
890.20 70.39928
890.30 73.43365
890.40 76.29544
890.50 78.52065
890.60 79.7946
890.70 79.99165
890.80 79.1863
890.90 77.65607
891.00 75.81632
891.10 74.11859
891.20 72.97289
891.30 72.61675
891.40 73.07264
891.50 74.22229
891.60 75.86188
891.70 77.74914
891.80 79.64609
891.90 81.32939
892.00 82.59177
892.10 83.24584
892.20 83.1736
892.30 82.37083
892.40 80.9424
892.50 79.11111
892.60 77.19762
892.70 75.55844
892.80 74.54872
892.90 74.45641
893.00 75.3943
893.10 77.23258
893.20 79.61586
893.30 82.05281
893.40 84.03408
893.50 85.17815
893.60 85.25291
893.70 84.17359
893.80 82.05337
893.90 79.13673
894.00 75.73196
894.10 72.24784
894.20 69.11918
894.30 66.68798
894.40 65.1864
894.50 64.71067
894.60 65.19803
894.70 66.4405
894.80 68.10956
894.90 69.8093
895.00 71.21103
895.10 72.19013
895.20 72.82965
895.30 73.38033
895.40 74.17427
895.50 75.46331
895.60 77.31872
895.70 79.64761
895.80 82.18843
895.90 84.51504
896.00 86.18746
896.10 86.89224
896.20 86.53273
896.30 85.25281
896.40 83.35802
896.50 81.20265
896.60 79.1557
896.70 77.558
896.80 76.63556
896.90 76.49341
897.00 77.10232
897.10 78.27917
897.20 79.78611
897.30 81.45043
897.40 83.15761
897.50 84.79432
897.60 86.21535
897.70 87.29489
897.80 87.98936
897.90 88.34583
898.00 88.4785
898.10 88.55785
898.20 88.82796
898.30 89.51443
898.40 90.71483
898.50 92.36345
898.60 94.20924
898.70 95.8446
898.80 96.85913
898.90 97.03532
899.00 96.38996
899.10 95.09269
899.20 93.39152
899.30 91.52704
899.40 89.71321
899.50 88.1378
899.60 86.88257
899.70 85.91338
899.80 85.23872
899.90 85.01208
900.00 84.22218
900.10 84.18197
900.20 85.66385
900.30 87.1866
900.40 90.71195
900.50 94.2373
900.60 93.4755
900.70 90.9626
900.80 88.81439
900.90 87.21323
901.00 85.60231
901.10 83.87912
901.20 82.15593
901.30 83.90164
901.40 86.6835
901.50 88.71969
901.60 89.88055
901.70 91.0721
901.80 92.43765
901.90 93.80321
902.00 92.91644
902.10 91.56836
902.20 89.93979
902.30 88.05231
902.40 86.27262
902.50 84.89845
902.60 83.52427
902.70 80.99847
902.80 78.34472
902.90 78.06514
903.00 79.43541
903.10 81.06312
903.20 83.38686
903.30 85.7106
903.40 90.40175
903.50 95.19153
903.60 97.40215
903.70 98.224
903.80 98.73213
903.90 98.63129
904.00 98.47287
904.10 96.45312
904.20 94.43337
904.30 93.15366
904.40 92.16175
904.50 91.64031
904.60 91.82458
904.70 91.97216
904.80 91.74886
904.90 91.52557
905.00 90.04909
905.10 88.21915
905.20 86.64591
905.30 85.36214
905.40 84.3866
905.50 85.02928
905.60 85.67196
905.70 87.31605
905.80 89.13686
905.90 89.53973
906.00 88.68519
906.10 87.57926
906.20 85.58201
906.30 83.58477
906.40 83.97668
906.50 84.60487
906.60 85.55145
906.70 86.71028
906.80 87.89095
906.90 89.12511
907.00 90.35927
907.10 88.01096
907.20 85.58954
907.30 86.37556
907.40 88.74137
907.50 91.14056
907.60 93.60175
907.70 96.05989
907.80 98.44499
907.90 100.8301
908.00 100.3853
908.10 98.89373
908.20 97.54299
908.30 96.3867
908.40 95.2123
908.50 93.89135
908.60 92.57041
908.70 91.16039
908.80 89.7281
908.90 89.47801
909.00 90.45836
909.10 91.44025
909.20 92.42912
909.30 93.41799
909.40 94.3309
909.50 95.23246
909.60 95.06126
909.70 94.01235
909.80 93.12793
909.90 92.76436
910.00 92.40078
910.10 92.34548
910.20 92.31339
910.30 92.23486
910.40 92.12786
910.50 91.7591
910.60 90.80767
910.70 89.85625
910.80 91.99091
910.90 94.12558
911.00 96.07309
911.10 97.93651
911.20 99.06142
911.30 98.98137
911.40 98.71329
911.50 95.94698
911.60 93.18067
911.70 94.72682
911.80 97.63479
911.90 99.58856
912.00 100.3761
912.10 101.313
912.20 103.2493
912.30 105.1856
912.40 105.5699
912.50 105.6135
912.60 105.8944
912.70 106.4032
912.80 106.409
912.90 104.4029
913.00 102.3968
913.10 101.9884
913.20 101.7774
913.30 102.1983
913.40 103.0768
913.50 103.6673
913.60 103.4791
913.70 103.2908
913.80 101.2896
913.90 99.21275
914.00 97.78501
914.10 96.70678
914.20 95.57257
914.30 94.3297
914.40 93.17333
914.50 94.81426
914.60 96.45518
914.70 96.95173
914.80 97.00324
914.90 97.51015
915.00 98.67239
915.10 99.7253
915.20 99.79425
915.30 99.8632
915.40 101.7863
915.50 104.2023
915.60 107.0995
915.70 110.5178
915.80 113.328
915.90 113.1689
916.00 113.0098
916.10 109.4304
916.20 105.2942
916.30 101.6161
916.40 98.31263
916.50 96.47054
916.60 99.25606
916.70 102.0416
916.80 105.5951
916.90 109.2065
917.00 110.4048
917.10 110.1243
917.20 109.3055
917.30 107.289
917.40 105.2724
917.50 102.9864
917.60 100.7003
917.70 100.5872
917.80 101.4502
917.90 102.3386
918.00 103.2685
918.10 104.1853
918.20 104.9289
918.30 105.6724
918.40 105.0825
918.50 104.0714
918.60 104.1171
918.70 105.4543
918.80 106.9311
918.90 109.2661
919.00 111.6011
919.10 113.7095
919.20 115.7714
919.30 115.539
919.40 113.1888
919.50 110.7479
919.60 107.9657
919.70 105.1835
919.80 105.9235
919.90 107.0549
920.00 108.9295
920.10 111.3208
920.20 113.1838
920.30 113.6884
920.40 114.1931
920.50 112.1781
920.60 110.0853
920.70 108.0876
920.80 106.139
920.90 103.8738
921.00 101.0207
921.10 98.27625
921.20 98.13915
921.30 98.00204
921.40 99.5631
921.50 101.7523
921.60 103.928
921.70 106.0853
921.80 108.1685
921.90 109.6525
922.00 111.1365
922.10 110.9603
922.20 110.3691
922.30 109.8633
922.40 109.4464
922.50 108.8841
922.60 107.6593
922.70 106.4344
922.80 105.2244
922.90 104.0166
923.00 101.927
923.10 99.14466
923.20 97.28514
923.30 98.19414
923.40 99.10314
923.50 100.689
923.60 102.3105
923.70 103.6938
923.80 104.943
923.90 106.2375
924.00 107.624
924.10 109.0363
924.20 111.7119
924.30 114.3875
924.40 114.6069
924.50 113.8231
924.60 111.7242
924.70 107.6528
924.80 103.7275
924.90 101.2792
925.00 98.83089
925.10 97.89942
925.20 97.39577
925.30 98.24601
925.40 100.623
925.50 103.005
925.60 105.4135
925.70 107.822
925.80 109.5501
925.90 111.1581
926.00 109.9633
926.10 106.3808
926.20 103.6196
926.30 103.4591
926.40 103.2987
926.50 105.8536
926.60 108.613
926.70 110.8003
926.80 112.637
926.90 112.9571
927.00 109.9015
927.10 106.8459
927.20 104.6042
927.30 102.3626
927.40 101.0055
927.50 100.0457
927.60 98.87861
927.70 97.37321
927.80 95.8608
927.90 94.25534
928.00 92.64989
928.10 92.59751
928.20 93.03558
928.30 94.46739
928.40 97.1138
928.50 99.44328
928.60 99.97684
928.70 100.5104
928.80 98.43119
928.90 95.8543
929.00 94.67476
929.10 94.7344
929.20 95.17862
929.30 96.98637
929.40 98.79412
929.50 98.96565
929.60 98.97536
929.70 98.91255
929.80 98.8014
929.90 99.16572
930.00 100.6941
930.10 102.2225
930.20 101.2632
930.30 100.2531
930.40 99.06045
930.50 97.7819
930.60 96.50908
930.70 95.246
930.80 94.0398
930.90 93.72497
931.00 93.41014
931.10 94.33091
931.20 95.66354
931.30 97.99444
931.40 101.5959
931.50 104.6866
931.60 104.4681
931.70 104.3106
931.80 104.1531
931.90 105.712
932.00 107.42
932.10 108.8088
932.20 108.9206
932.30 109.0323
932.40 107.5113
932.50 104.2215
932.60 100.9318
932.70 99.54028
932.80 98.74825
932.90 98.02967
933.00 99.07372
933.10 100.1178
933.20 100.5642
933.30 99.79725
933.40 99.03029
933.50 98.41166
933.60 97.88784
933.70 97.36403
933.80 97.73337
933.90 98.2131
934.00 98.92195
934.10 100.7495
934.20 102.577
934.30 103.642
934.40 103.7749
934.50 103.9078
934.60 104.2233
934.70 104.6029
934.80 104.9812
934.90 105.2964
935.00 105.6115
935.10 105.5408
935.20 104.5698
935.30 103.5987
935.40 101.8169
935.50 99.44813
935.60 97.07933
935.70 96.94544
935.80 97.14551
935.90 97.79035
936.00 100.9556
936.10 104.1209
936.20 106.6401
936.30 108.3031
936.40 109.9661
936.50 109.5995
936.60 108.4039
936.70 107.2084
936.80 105.0818
936.90 102.9553
937.00 101.3352
937.10 101.0176
937.20 100.6999
937.30 101.0654
937.40 101.9678
937.50 102.8703
937.60 103.3286
937.70 103.7023
937.80 103.9008
937.90 102.9258
938.00 101.9509
938.10 101.527
938.20 101.896
938.30 102.265
938.40 102.6084
938.50 102.9402
938.60 103.2721
938.70 102.3035
938.80 101.3084
938.90 100.8649
939.00 101.9914
939.10 103.118
939.20 104.2154
939.30 105.288
939.40 106.3606
939.50 106.9503
939.60 107.4411
939.70 107.6057
939.80 105.1301
939.90 102.6546
940.00 100.8796
940.10 100.2004
940.20 99.52111
940.30 100.601
940.40 102.5088
940.50 104.4166
940.60 107.0449
940.70 109.7032
940.80 111.4248
940.90 110.3367
941.00 109.2485
941.10 108.4836
941.20 108.0054
941.30 107.5272
941.40 107.5128
941.50 107.6072
941.60 107.6927
941.70 107.6979
941.80 107.7031
941.90 107.0337
942.00 105.2636
942.10 103.4935
942.20 103.3017
942.30 103.8873
942.40 104.4728
942.50 104.3969
942.60 104.2862
942.70 104.7871
942.80 107.3354
942.90 109.8837
943.00 112.2577
943.10 114.4707
943.20 116.6838
943.30 118.8416
943.40 120.9856
943.50 122.7158
943.60 120.2611
943.70 117.8064
943.80 115.8651
943.90 114.7979
944.00 113.7307
944.10 112.8531
944.20 112.0732
944.30 111.2933
944.40 110.8463
944.50 110.4205
944.60 109.8452
944.70 108.7692
944.80 107.6931
944.90 107.5379
945.00 108.2675
945.10 108.9971
945.20 110.6473
945.30 112.5277
945.40 114.2859
945.50 114.6392
945.60 114.9925
945.70 114.8959
945.80 114.0332
945.90 113.1705
946.00 111.6244
946.10 109.7102
946.20 107.796
946.30 107.2275
946.40 106.745
946.50 106.6835
946.60 108.115
946.70 109.5464
946.80 110.9358
946.90 112.2848
947.00 113.6338
947.10 114.1711
947.20 114.4927
947.30 114.8463
947.40 115.5688
947.50 116.2913
947.60 116.6214
947.70 116.2834
947.80 115.9453
947.90 115.3049
948.00 114.5017
948.10 113.6985
948.20 113.6425
948.30 113.6343
948.40 114.1926
948.50 116.7595
948.60 119.3264
948.70 121.8574
948.80 124.3539
948.90 126.8504
949.00 127.5832
949.10 127.8751
949.20 127.9313
949.30 125.2759
949.40 122.6205
949.50 120.699
949.60 120.0273
949.70 119.3556
949.80 119.2698
949.90 119.4995
950.00 119.7292
950.10 120.435
950.20 121.1711
950.30 121.5691
950.40 120.8346
950.50 120.1001
950.60 120.5415
950.70 122.1127
950.80 123.6838
950.90 123.6042
951.00 123.1119
951.10 122.7033
951.20 123.1406
951.30 123.5779
951.40 123.0656
951.50 120.9365
951.60 118.8073
951.70 117.0082
951.80 115.3791
951.90 113.75
952.00 113.2825
952.10 112.8762
952.20 113.5157
952.30 117.6564
952.40 121.7972
952.50 125.7149
952.60 129.4267
952.70 133.1385
952.80 132.1781
952.90 130.1217
953.00 127.9343
953.10 124.5678
953.20 121.2013
953.30 118.652
953.40 117.436
953.50 116.2201
953.60 117.2306
953.70 119.3378
953.80 121.445
953.90 121.0982
954.00 120.6491
954.10 120.2756
954.20 120.1419
954.30 120.0081
954.40 120.6892
954.50 122.0928
954.60 123.4964
954.70 126.4275
954.80 129.694
954.90 132.6674
955.00 133.2698
955.10 133.8722
955.20 133.6338
955.30 132.1342
955.40 130.6347
955.50 129.1996
955.60 127.795
955.70 126.3904
955.80 125.6518
955.90 124.9339
956.00 124.3497
956.10 124.1462
956.20 123.9427
956.30 124.2439
956.40 124.9579
956.50 125.672
956.60 126.1478
956.70 126.5782
956.80 126.9889
956.90 127.2547
957.00 127.5205
957.10 127.6862
957.20 127.7078
957.30 127.7295
957.40 127.671
957.50 127.5783
957.60 127.4856
957.70 126.5092
957.80 125.524
957.90 124.6299
958.00 123.9706
958.10 123.3113
958.20 122.7704
958.30 122.319
958.40 121.8675
958.50 120.3961
958.60 118.7447
958.70 117.1521
958.80 115.92
958.90 114.688
959.00 113.1392
959.10 111.1705
959.20 109.2018
959.30 108.747
959.40 108.8809
959.50 109.0153
959.60 109.1917
959.70 109.3682
959.80 109.7471
959.90 110.5981
960.00 111.4491
960.10 112.5097
960.20 113.7159
960.30 114.9221
960.40 115.6791
960.50 116.3749
960.60 116.9237
960.70 116.7009
960.80 116.4782
960.90 115.4886
961.00 113.5617
961.10 111.6349
961.20 110.5889
961.30 109.8524
961.40 109.1855
961.50 110.7709
961.60 112.3562
961.70 114.1204
961.80 116.2646
961.90 118.4088
962.00 119.6834
962.10 120.402
962.20 121.1206
962.30 120.2982
962.40 119.3047
962.50 118.2845
962.60 117.1511
962.70 116.0177
962.80 115.2947
962.90 115.0162
963.00 114.7377
963.10 115.5413
963.20 116.6681
963.30 117.6576
963.40 116.4955
963.50 115.3334
963.60 113.7333
963.70 111.3197
963.80 108.9061
963.90 107.1125
964.00 105.6675
964.10 104.2225
964.20 105.4876
964.30 106.9568
964.40 108.1454
964.50 108.3394
964.60 108.5335
964.70 109.2985
964.80 110.6121
964.90 111.9257
965.00 112.0625
965.10 111.9051
965.20 111.7503
965.30 111.6222
965.40 111.494
965.50 111.5635
965.60 111.9554
965.70 112.3474
965.80 114.3953
965.90 117.2588
966.00 120.1223
966.10 120.5215
966.20 120.8181
966.30 121.0917
966.40 121.2966
966.50 121.5014
966.60 121.6236
966.70 121.6752
966.80 121.7269
966.90 122.4548
967.00 123.3212
967.10 123.7993
967.20 121.4299
967.30 119.0604
967.40 117.1144
967.50 115.7532
967.60 114.392
967.70 114.7011
967.80 115.6924
967.90 116.6838
968.00 118.0785
968.10 119.4731
968.20 120.5883
968.30 121.0191
968.40 121.45
968.50 120.9549
968.60 119.7894
968.70 118.6239
968.80 118.2572
968.90 118.0098
969.00 117.92
969.10 118.6577
969.20 119.3954
969.30 120.436
969.40 121.8469
969.50 123.2577
969.60 124.0365
969.70 124.5932
969.80 125.1271
969.90 125.1148
970.00 125.1025
970.10 124.8201
970.20 123.9895
970.30 123.1589
970.40 122.0206
970.50 120.6937
970.60 119.3667
970.70 119.5754
970.80 119.936
970.90 120.7528
971.00 123.3947
971.10 126.0366
971.20 128.5605
971.30 130.9614
971.40 133.3624
971.50 133.6298
971.60 133.33
971.70 132.8953
971.80 130.909
971.90 128.9228
972.00 127.5338
972.10 127.1619
972.20 126.79
972.30 127.0904
972.40 127.7371
972.50 128.3837
972.60 127.6123
972.70 126.7663
972.80 125.792
972.90 124.4328
973.00 123.0736
973.10 122.4224
973.20 122.3745
973.30 122.3265
973.40 122.4232
973.50 122.5495
973.60 122.6383
973.70 122.4519
973.80 122.2654
973.90 122.268
974.00 122.5316
974.10 122.7952
974.20 122.6358
974.30 122.3036
974.40 121.9714
974.50 121.7199
974.60 121.4685
974.70 121.3336
974.80 121.4843
974.90 121.635
975.00 122.4223
975.10 123.652
975.20 124.8816
975.30 125.4219
975.40 125.8681
975.50 126.324
975.60 126.8274
975.70 127.3309
975.80 127.6393
975.90 127.7188
976.00 127.7983
976.10 128.2977
976.20 128.9297
976.30 129.5382
976.40 129.7007
976.50 129.8631
976.60 129.9476
976.70 129.8809
976.80 129.8141
976.90 129.2793
977.00 128.4813
977.10 127.6833
977.20 127.736
977.30 127.8527
977.40 128.1976
977.50 129.3514
977.60 130.5053
977.70 130.9368
977.80 130.7016
977.90 130.4663
978.00 129.4364
978.10 128.2201
978.20 126.9946
978.30 125.6866
978.40 124.3787
978.50 123.5872
978.60 123.5705
978.70 123.5538
978.80 123.9096
978.90 124.4328
979.00 124.956
979.10 127.4304
979.20 129.9446
979.30 132.1644
979.40 133.6271
979.50 135.0899
979.60 135.6495
979.70 135.5279
979.80 135.4063
979.90 134.9432
980.00 134.4245
980.10 133.8998
980.20 133.3433
980.30 132.7868
980.40 132.3733
980.50 132.1344
980.60 131.8956
980.70 131.3877
980.80 130.7902
980.90 130.2071
981.00 129.9688
981.10 129.7305
981.20 129.207
981.30 128.1045
981.40 127.0019
981.50 127.3571
981.60 128.5684
981.70 129.7796
981.80 130.479
981.90 131.1338
982.00 131.6946
982.10 131.9219
982.20 132.1492
982.30 132.3349
982.40 132.4807
982.50 132.6264
982.60 133.1153
982.70 133.6899
982.80 134.0959
982.90 132.984
983.00 131.872
983.10 130.7556
983.20 129.6323
983.30 128.5089
983.40 128.0848
983.50 127.9749
983.60 127.8649
983.70 128.4578
983.80 129.065
983.90 129.8178
984.00 130.9453
984.10 132.0728
984.20 132.7933
984.30 133.2067
984.40 133.6202
984.50 132.2941
984.60 130.7081
984.70 128.9668
984.80 126.4108
984.90 123.8547
985.00 122.5634
985.10 122.757
985.20 122.9505
985.30 124.4046
985.40 126.2789
985.50 128.1208
985.60 129.3453
985.70 130.5699
985.80 131.3055
985.90 131.0918
986.00 130.878
986.10 131.206
986.20 131.8389
986.30 132.4717
986.40 132.7263
986.50 132.9524
986.60 132.9
986.70 131.915
986.80 130.9301
986.90 130.9146
987.00 131.7941
987.10 132.6735
987.20 134.9511
987.30 137.5355
987.40 139.8015
987.50 139.4903
987.60 139.179
987.70 137.8576
987.80 135.0825
987.90 132.3074
988.00 131.3535
988.10 131.1434
988.20 130.9333
988.30 133.7811
988.40 136.6289
988.50 138.9251
988.60 139.9342
988.70 140.9433
988.80 140.7166
988.90 139.631
989.00 138.5455
989.10 135.6993
989.20 132.6355
989.30 129.1011
989.40 123.4224
989.50 117.7437
989.60 112.0271
989.70 106.2692
989.80 100.5114
989.90 96.91529
990.00 93.92887
990.10 91.02447
990.20 89.20984
990.30 87.39521
990.40 85.25494
990.50 82.56022
990.60 79.8655
990.70 78.34897
990.80 77.4394
990.90 76.52984
991.00 77.34203
991.10 78.22597
991.20 78.68241
991.30 77.9221
991.40 77.16178
991.50 76.66383
991.60 76.38055
991.70 76.09726
991.80 76.32629
991.90 76.64574
992.00 76.96616
992.10 77.29213
992.20 77.6181
992.30 77.45166
992.40 76.65851
992.50 75.86536
992.60 77.05261
992.70 78.93567
992.80 80.83673
992.90 83.16969
993.00 85.50266
993.10 87.30221
993.20 88.01873
993.30 88.73526
993.40 89.11006
993.50 89.28414
993.60 89.45823
993.70 91.09651
993.80 92.845
993.90 94.68944
994.00 96.87412
994.10 99.05879
994.20 100.5339
994.30 101.354
994.40 102.1741
994.50 102.4491
994.60 102.6045
994.70 102.8068
994.80 103.3893
994.90 103.9717
995.00 104.9484
995.10 106.4923
995.20 108.0362
995.30 108.2567
995.40 107.9367
995.50 107.5977
995.60 105.3839
995.70 103.1702
995.80 101.2025
995.90 99.80891
996.00 98.41535
996.10 99.44283
996.20 102.0843
996.30 104.7258
996.40 107.4469
996.50 110.1768
996.60 111.9124
996.70 109.4094
996.80 106.9064
996.90 103.333
997.00 98.64568
997.10 93.95833
997.20 91.65653
997.30 89.98887
997.40 88.67409
997.50 90.92738
997.60 93.18067
997.70 95.20356
997.80 96.85054
997.90 98.49752
998.00 99.28599
998.10 99.67044
998.20 100.0549
998.30 98.41066
998.40 96.72503
998.50 95.29537
998.60 94.52392
998.70 93.75247
998.80 93.27291
998.90 93.00472
999.00 92.73653
999.10 93.14188
999.20 93.64787
999.30 93.89618
999.40 92.8864
999.50 91.87661
999.60 92.27931
999.70 94.27481
999.80 96.27031
999.90 99.30283
1000.00 102.6451
1000.10 105.9563
1000.20 108.8551
1000.30 111.7539
1000.40 113.1797
1000.50 111.9868
1000.60 110.7939
1000.70 108.872
1000.80 106.5744
1000.90 104.2768
1001.00 102.5617
1001.10 100.8708
1001.20 99.94269
1001.30 101.1856
1001.40 102.4284
1001.50 103.9851
1001.60 105.7884
1001.70 107.5917
1001.80 108.3705
1001.90 108.9825
1002.00 109.5207
1002.10 109.6404
1002.20 109.7601
1002.30 110.2714
1002.40 111.2613
1002.50 112.2513
1002.60 112.9641
1002.70 113.5845
1002.80 114.0972
1002.90 112.5638
1003.00 111.0304
1003.10 109.5958
1003.20 108.3448
1003.30 107.0938
1003.40 105.9505
1003.50 104.8651
1003.60 103.7797
1003.70 104.4763
1003.80 105.2668
1003.90 106.293
1004.00 108.0266
1004.10 109.7602
1004.20 112.279
1004.30 115.4665
1004.40 118.654
1004.50 118.9147
1004.60 118.6178
1004.70 117.8517
1004.80 114.2026
1004.90 110.5535
1005.00 106.1854
1005.10 100.902
1005.20 95.61864
1005.30 93.01692
1005.40 91.3574
1005.50 89.78076
1005.60 90.19353
1005.70 90.60629
1005.80 91.29397
1005.90 92.5153
1006.00 93.73664
1006.10 94.72451
1006.20 95.58105
1006.30 96.4376
1006.40 99.18744
1006.50 102.0581
1006.60 104.8687
1006.70 107.4886
1006.80 110.1086
1006.90 111.5959
1007.00 112.1184
1007.10 112.6408
1007.20 112.2659
1007.30 111.7201
1007.40 111.4359
1007.50 112.7591
1007.60 114.0823
1007.70 116.1678
1007.80 119.2234
1007.90 122.2791
1008.00 123.843
1008.10 124.8828
1008.20 125.8407
1008.30 124.8355
1008.40 123.8303
1008.50 122.5307
1008.60 120.6596
1008.70 118.7886
1008.80 117.0083
1008.90 115.279
1009.00 113.5498
1009.10 112.821
1009.20 112.1676
1009.30 112.0208
1009.40 113.5703
1009.50 115.1198
1009.60 118.3188
1009.70 122.9806
1009.80 127.6423
1009.90 130.9489
1010.00 133.9779
1010.10 136.7215
1010.20 137.5544
1010.30 138.3874
1010.40 137.6131
1010.50 134.7082
1010.60 131.8032
1010.70 128.7468
1010.80 125.6344
1010.90 122.5089
1011.00 118.9589
1011.10 115.4088
1011.20 112.267
1011.30 109.9173
1011.40 107.5677
1011.50 106.1402
1011.60 105.2312
1011.70 104.3223
1011.80 106.5843
1011.90 109.0487
1012.00 112.0339
1012.10 116.6685
1012.20 121.3032
1012.30 124.7693
1012.40 127.2401
1012.50 129.711
1012.60 130.1295
1012.70 130.1571
1012.80 130.0776
1012.90 129.3399
1013.00 128.6022
1013.10 126.6957
1013.20 123.3017
1013.30 119.9077
1013.40 115.4246
1013.50 110.5587
1013.60 105.8302
1013.70 104.3963
1013.80 102.9624
1013.90 103.2677
1014.00 106.9491
1014.10 110.6306
1014.20 113.0931
1014.30 114.8699
1014.40 116.6468
1014.50 115.5271
1014.60 114.2225
1014.70 113.4542
1014.80 114.384
1014.90 115.3137
1015.00 117.1832
1015.10 119.853
1015.20 122.5229
1015.30 122.1322
1015.40 121.2014
1015.50 119.8989
1015.60 116.49
1015.70 113.0811
1015.80 110.5956
1015.90 109.2387
1016.00 107.8817
1016.10 109.1397
1016.20 111.2693
1016.30 113.365
1016.40 114.817
1016.50 116.2691
1016.60 117.2653
1016.70 117.415
1016.80 117.5646
1016.90 117.2618
1017.00 116.7153
1017.10 116.1688
1017.20 119.4285
1017.30 122.8885
1017.40 125.9373
1017.50 127.8159
1017.60 129.6944
1017.70 129.09
1017.80 126.5348
1017.90 123.9796
1018.00 119.9553
1018.10 115.6919
1018.20 111.8695
1018.30 110.3622
1018.40 108.8549
1018.50 108.6503
1018.60 109.975
1018.70 111.2998
1018.80 112.9625
1018.90 114.732
1019.00 116.4216
1019.10 117.0503
1019.20 117.6791
1019.30 117.8935
1019.40 117.4024
1019.50 116.9113
1019.60 116.8799
1019.70 117.0748
1019.80 117.2697
1019.90 118.2575
1020.00 119.2699
1020.10 120.3811
1020.20 121.7598
1020.30 123.1384
1020.40 124.5942
1020.50 126.1081
1020.60 127.622
1020.70 126.7913
1020.80 125.6408
1020.90 124.246
1021.00 121.7382
1021.10 119.2305
1021.20 116.5162
1021.30 113.5782
1021.40 110.6402
1021.50 108.3746
1021.60 106.2985
1021.70 104.2991
1021.80 103.1799
1021.90 102.0607
1022.00 102.0734
1022.10 103.8567
1022.20 105.64
1022.30 107.9702
1022.40 110.5461
1022.50 113.122
1022.60 114.699
1022.70 116.266
1022.80 117.1702
1022.90 116.4515
1023.00 115.7328
1023.10 114.972
1023.20 114.1831
1023.30 113.3941
1023.40 114.8831
1023.50 116.6252
1023.60 118.5828
1023.70 121.4023
1023.80 124.2218
1023.90 126.7757
1024.00 129.0641
1024.10 131.3526
1024.20 131.0627
1024.30 130.168
1024.40 129.1852
1024.50 127.4901
1024.60 125.795
1024.70 123.6633
1024.80 120.9035
1024.90 118.1437
1025.00 116.4558
1025.10 115.2058
1025.20 113.98
1025.30 113.9425
1025.40 113.9051
1025.50 113.9941
1025.60 114.3522
1025.70 114.7102
1025.80 113.2221
1025.90 110.6026
1026.00 107.9831
1026.10 105.2895
1026.20 102.5904
1026.30 101.0509
1026.40 103.3939
1026.50 105.7369
1026.60 109.0719
1026.70 113.2865
1026.80 117.5011
1026.90 119.6191
1027.00 121.3378
1027.10 122.5479
1027.20 120.6341
1027.30 118.7203
1027.40 117.1941
1027.50 116.1611
1027.60 115.1281
1027.70 113.6125
1027.80 111.9274
1027.90 110.2122
1028.00 107.9237
1028.10 105.6353
1028.20 104.0914
1028.30 103.93
1028.40 103.7686
1028.50 105.9415
1028.60 109.3712
1028.70 112.8009
1028.80 115.6476
1028.90 118.47
1029.00 120.4401
1029.10 119.9846
1029.20 119.5292
1029.30 118.8625
1029.40 118.0298
1029.50 117.1971
1029.60 116.6986
1029.70 116.2501
1029.80 115.8334
1029.90 115.572
1030.00 115.3106
1030.10 115.4904
1030.20 116.1678
1030.30 116.8451
1030.40 118.2136
1030.50 119.777
1030.60 121.2336
1030.70 121.4617
1030.80 121.6899
1030.90 121.7218
1031.00 121.4467
1031.10 121.1715
1031.20 120.597
1031.30 119.8879
1031.40 119.1789
1031.50 118.385
1031.60 117.5902
1031.70 116.8383
1031.80 116.1862
1031.90 115.5341
1032.00 114.7925
1032.10 113.9912
1032.20 113.1899
1032.30 113.0799
1032.40 113.0467
1032.50 113.669
1032.60 116.7568
1032.70 119.8446
1032.80 123.8061
1032.90 128.607
1033.00 133.4079
1033.10 135.2049
1033.20 136.3425
1033.30 136.8577
1033.40 132.8082
1033.50 128.7587
1033.60 124.7547
1033.70 120.8133
1033.80 116.872
1033.90 115.5373
1034.00 115.1667
1034.10 114.8773
1034.20 117.2094
1034.30 119.5416
1034.40 121.4956
1034.50 122.7158
1034.60 123.9359
1034.70 123.5819
1034.80 122.3424
1034.90 121.1029
1035.00 119.5467
1035.10 117.9738
1035.20 116.8505
1035.30 117.0759
1035.40 117.3013
1035.50 118.64
1035.60 120.8533
1035.70 123.0666
1035.80 125.331
1035.90 127.6036
1036.00 129.7196
1036.10 131.0128
1036.20 132.3061
1036.30 133.2511
1036.40 133.8034
1036.50 134.3556
1036.60 134.8163
1036.70 135.2497
1036.80 135.8438
1036.90 138.2863
1037.00 140.7288
1037.10 142.7688
1037.20 144.152
1037.30 145.5353
1037.40 143.9988
1037.50 141.1504
1037.60 138.3021
1037.70 132.1646
1037.80 125.9939
1037.90 120.9449
1038.00 118.5132
1038.10 116.0816
1038.20 116.3916
1038.30 118.5295
1038.40 120.6673
1038.50 122.3447
1038.60 123.9766
1038.70 125.0518
1038.80 124.0329
1038.90 123.0139
1039.00 122.0839
1039.10 121.2362
1039.20 120.3885
1039.30 121.0844
1039.40 122.1192
1039.50 123.2436
1039.60 124.967
1039.70 126.6904
1039.80 128.1555
1039.90 129.2781
1040.00 130.4007
1040.10 131.528
1040.20 132.6569
1040.30 133.7892
1040.40 135.0013
1040.50 136.2134
1040.60 137.3143
1040.70 138.2086
1040.80 139.103
1040.90 137.8518
1041.00 135.4453
1041.10 133.0388
1041.20 130.3418
1041.30 127.6326
1041.40 125.8384
1041.50 126.6481
1041.60 127.4578
1041.70 129.6377
1041.80 132.8513
1041.90 136.065
1042.00 135.8356
1042.10 135.0917
1042.20 133.7641
1042.30 129.7774
1042.40 125.7906
1042.50 121.9533
1042.60 118.2779
1042.70 114.6024
1042.80 115.4083
1042.90 117.4055
1043.00 119.6403
1043.10 124.0138
1043.20 128.3874
1043.30 132.6445
1043.40 136.7267
1043.50 140.8089
1043.60 142.3686
1043.70 142.898
1043.80 143.4223
1043.90 143.4374
1044.00 143.4526
1044.10 143.2862
1044.20 142.7341
1044.30 142.182
1044.40 141.6731
1044.50 141.1908
1044.60 140.7084
1044.70 141.2536
1044.80 141.8762
1044.90 143.1806
1045.00 146.6444
1045.10 150.1083
1045.20 153.3285
1045.30 156.3412
1045.40 159.3539
1045.50 158.2618
1045.60 156.4453
1045.70 154.2233
1045.80 149.7035
1045.90 145.1836
1046.00 141.3755
1046.10 138.4027
1046.20 135.43
1046.30 132.915
1046.40 130.5446
1046.50 128.1419
1046.60 125.3109
1046.70 122.4799
1046.80 120.3742
1046.90 119.4519
1047.00 118.5296
1047.10 119.312
1047.20 120.8967
1047.30 122.4815
1047.40 123.2893
1047.50 124.0893
1047.60 124.5711
1047.70 124.3102
1047.80 124.0493
1047.90 124.5959
1048.00 125.6809
1048.10 126.7659
1048.20 129.5418
1048.30 132.4849
1048.40 135.2303
1048.50 137.2322
1048.60 139.2341
1048.70 140.426
1048.80 140.8702
1048.90 141.3145
1049.00 141.3365
1049.10 141.2721
1049.20 140.9626
1049.30 139.013
1049.40 137.0633
1049.50 134.9282
1049.60 132.5571
1049.70 130.186
1049.80 130.2115
1049.90 131.0358
1050.00 131.9519
1050.10 134.6121
1050.20 137.2723
1050.30 139.0706
1050.40 139.3367
1050.50 139.6028
1050.60 138.3555
1050.70 136.3627
1050.80 134.3699
1050.90 131.7819
1051.00 129.1755
1051.10 126.5885
1051.20 124.0515
1051.30 121.5145
1051.40 119.8699
1051.50 118.8453
1051.60 117.8208
1051.70 117.7634
1051.80 117.8255
1051.90 118.1837
1052.00 119.7262
1052.10 121.2687
1052.20 123.2491
1052.30 125.6502
1052.40 128.0514
1052.50 130.9268
1052.60 133.9135
1052.70 136.6515
1052.80 137.566
1052.90 138.4805
1053.00 138.9126
1053.10 138.7051
1053.20 138.4976
1053.30 138.3596
1053.40 138.2473
1053.50 138.1178
1053.60 137.5751
1053.70 137.0323
1053.80 136.6486
1053.90 136.5601
1054.00 136.4716
1054.10 136.1272
1054.20 135.6508
1054.30 135.1745
1054.40 133.1683
1054.50 131.0983
1054.60 129.0511
1054.70 127.0654
1054.80 125.0797
1054.90 125.0393
1055.00 126.4076
1055.10 127.7759
1055.20 129.4051
1055.30 131.07
1055.40 132.0091
1055.50 129.8544
1055.60 127.6997
1055.70 124.9173
1055.80 121.507
1055.90 118.0968
1056.00 116.745
1056.10 115.9079
1056.20 115.2719
1056.30 116.2625
1056.40 117.253
1056.50 118.3877
1056.60 119.7212
1056.70 121.0548
1056.80 121.6865
1056.90 122.0586
1057.00 122.4232
1057.10 122.6085
1057.20 122.7938
1057.30 123.3052
1057.40 124.4495
1057.50 125.5939
1057.60 126.535
1057.70 127.3667
1057.80 128.1983
1057.90 128.6192
1058.00 129.023
1058.10 129.1008
1058.20 128.2508
1058.30 127.4007
1058.40 126.7729
1058.50 126.3127
1058.60 125.8524
1058.70 125.192
1058.80 124.5043
1058.90 124.0136
1059.00 124.3629
1059.10 124.7122
1059.20 124.9737
1059.30 125.1472
1059.40 125.3208
1059.50 125.6158
1059.60 125.9411
1059.70 126.1684
1059.80 125.6023
1059.90 125.0362
1060.00 124.3219
1060.10 123.4028
1060.20 122.4837
1060.30 121.5071
1060.40 120.5094
1060.50 119.5194
1060.60 118.7796
1060.70 118.0398
1060.80 117.6872
1060.90 118.086
1061.00 118.4848
1061.10 119.5527
1061.20 120.9809
1061.30 122.409
1061.40 122.8286
1061.50 123.2062
1061.60 123.5008
1061.70 123.5711
1061.80 123.6415
1061.90 123.7551
1062.00 123.9014
1062.10 124.0478
1062.20 125.4888
1062.30 127.1063
1062.40 128.7927
1062.50 130.7724
1062.60 132.7522
1062.70 134.3884
1062.80 135.681
1062.90 136.9735
1063.00 136.5763
1063.10 135.7826
1063.20 135.0817
1063.30 135.1314
1063.40 135.1811
1063.50 135.8639
1063.60 137.4211
1063.70 138.9782
1063.80 140.3667
1063.90 141.6928
1064.00 142.9526
1064.10 142.6229
1064.20 142.2931
1064.30 141.8453
1064.40 141.1782
1064.50 140.5111
1064.60 140.3133
1064.70 140.3574
1064.80 140.4015
1064.90 139.9694
1065.00 139.5175
1065.10 138.4605
1065.20 135.7675
1065.30 133.0745
1065.40 130.4626
1065.50 127.9094
1065.60 125.3563
1065.70 125.2644
1065.80 125.4767
1065.90 125.4826
1066.00 124.6625
1066.10 123.8424
1066.20 122.5992
1066.30 120.9495
1066.40 119.2999
1066.50 118.5781
1066.60 118.0739
1066.70 117.8154
1066.80 119.3579
1066.90 120.9004
1067.00 122.0664
1067.10 122.7334
1067.20 123.4004
1067.30 125.4447
1067.40 127.973
1067.50 130.4831
1067.60 132.6468
1067.70 134.8105
1067.80 136.7559
1067.90 138.3132
1068.00 139.8706
1068.10 141.146
1068.20 142.2825
1068.30 143.4191
1068.40 144.2287
1068.50 145.0317
1068.60 145.597
1068.70 145.5513
1068.80 145.5055
1068.90 144.9013
1069.00 143.909
1069.10 142.9167
1069.20 141.804
1069.30 140.6778
1069.40 139.1698
1069.50 136.2255
1069.60 133.2812
1069.70 131.4669
1069.80 130.6959
1069.90 129.9248
1070.00 130.3869
1070.10 131.1017
1070.20 131.8411
1070.30 132.732
1070.40 133.6229
1070.50 133.7008
1070.60 132.7851
1070.70 131.8694
1070.80 132.1627
1070.90 132.8379
1071.00 133.5711
1071.10 135.2129
1071.20 136.8548
1071.30 138.3955
1071.40 139.764
1071.50 141.1324
1071.60 142.1224
1071.70 142.9344
1071.80 143.7463
1071.90 143.5417
1072.00 143.3268
1072.10 142.937
1072.20 142.1392
1072.30 141.3414
1072.40 140.8357
1072.50 140.5166
1072.60 140.1976
1072.70 141.182
1072.80 142.2798
1072.90 143.0924
1073.00 142.9501
1073.10 142.8079
1073.20 142.7857
1073.30 142.8659
1073.40 142.946
1073.50 143.0273
1073.60 143.1088
1073.70 143.3452
1073.80 144.3946
1073.90 145.444
1074.00 146.1424
1074.10 146.4449
1074.20 146.7475
1074.30 147.7659
1074.40 148.9862
1074.50 150.1653
1074.60 150.8703
1074.70 151.5754
1074.80 151.4545
1074.90 150.0416
1075.00 148.6288
1075.10 145.9523
1075.20 142.7342
1075.30 139.5402
1075.40 138.7319
1075.50 137.9235
1075.60 138.221
1075.70 140.8682
1075.80 143.5154
1075.90 145.2609
1076.00 146.4767
1076.10 147.6926
1076.20 146.5759
1076.30 145.3104
1076.40 144.3502
1076.50 144.306
1076.60 144.2617
1076.70 144.9192
1076.80 146.1281
1076.90 147.337
1077.00 148.0554
1077.10 148.7006
1077.20 149.0236
1077.30 147.8791
1077.40 146.7345
1077.50 146.1123
1077.60 146.0337
1077.70 145.9551
1077.80 146.6729
1077.90 147.5898
1078.00 148.4698
1078.10 149.0513
1078.20 149.6329
1078.30 149.4849
1078.40 148.3295
1078.50 147.174
1078.60 145.6524
1078.70 143.9954
1078.80 142.3226
1078.90 140.2707
1079.00 138.2188
1079.10 136.1759
1079.20 134.1499
1079.30 132.1238
1079.40 131.6466
1079.50 131.9673
1079.60 132.288
1079.70 134.2403
1079.80 136.2431
1079.90 138.0245
1080.00 139.237
1080.10 140.4494
1080.20 141.1259
1080.30 141.4299
1080.40 141.734
1080.50 142.9946
1080.60 144.3615
1080.70 145.5358
1080.80 145.9855
1080.90 146.4352
1081.00 146.9203
1081.10 147.438
1081.20 147.9558
1081.30 148.7546
1081.40 149.6109
1081.50 150.6236
1081.60 152.5969
1081.70 154.5702
1081.80 155.2085
1081.90 154.215
1082.00 153.2215
1082.10 151.4765
1082.20 149.4942
1082.30 147.5295
1082.40 145.7988
1082.50 144.0681
1082.60 143.488
1082.70 144.7852
1082.80 146.0824
1082.90 147.8832
1083.00 149.9102
1083.10 151.9373
1083.20 153.9038
1083.30 155.8703
1083.40 157.3194
1083.50 157.6168
1083.60 157.9142
1083.70 157.2936
1083.80 156.1102
1083.90 154.9269
1084.00 154.1565
1084.10 153.4173
1084.20 152.2962
1084.30 149.9659
1084.40 147.6356
1084.50 146.3216
1084.60 145.8391
1084.70 145.3566
1084.80 145.1725
1084.90 145.0371
1085.00 145.1224
1085.10 146.2853
1085.20 147.4482
1085.30 147.7799
1085.40 147.2112
1085.50 146.6424
1085.60 148.0278
1085.70 149.9327
1085.80 151.868
1085.90 154.0766
1086.00 156.2852
1086.10 158.0136
1086.20 159.051
1086.30 160.0884
1086.40 159.3381
1086.50 157.8926
1086.60 156.524
1086.70 156.9989
1086.80 157.4737
1086.90 157.9689
1087.00 158.5018
1087.10 159.0347
1087.20 158.9818
1087.30 158.6273
1087.40 158.2727
1087.50 156.6471
1087.60 154.9823
1087.70 153.549
1087.80 152.7112
1087.90 151.8735
1088.00 151.6085
1088.10 151.7415
1088.20 151.8746
1088.30 151.9588
1088.40 152.0376
1088.50 152.1611
1088.60 152.4529
1088.70 152.7447
1088.80 152.3518
1088.90 151.3271
1089.00 150.3023
1089.10 149.6986
1089.20 149.1812
1089.30 148.9627
1089.40 150.5801
1089.50 152.1975
1089.60 153.9452
1089.70 155.8523
1089.80 157.7595
1089.90 160.0265
1090.00 162.4071
1090.10 164.6278
1090.20 164.7234
1090.30 164.8191
1090.40 163.9943
1090.50 161.7301
1090.60 159.4658
1090.70 155.9633
1090.80 151.9301
1090.90 147.9368
1091.00 147.8971
1091.10 147.8575
1091.20 148.7915
1091.30 151.7945
1091.40 154.7975
1091.50 157.7213
1091.60 160.5986
1091.70 163.4759
1091.80 163.5773
1091.90 163.5016
1092.00 163.0899
1092.10 161.67
1092.20 160.2502
1092.30 158.6333
1092.40 156.8616
1092.50 155.0899
1092.60 154.0402
1092.70 153.0983
1092.80 152.4397
1092.90 153.0721
1093.00 153.7045
1093.10 154.5451
1093.20 155.5938
1093.30 156.6426
1093.40 156.6774
1093.50 156.4745
1093.60 156.296
1093.70 156.2975
1093.80 156.2991
1093.90 156.3809
1094.00 156.569
1094.10 156.7572
1094.20 156.0291
1094.30 154.9789
1094.40 153.8923
1094.50 152.111
1094.60 150.3298
1094.70 150.0919
1094.80 152.5976
1094.90 155.1033
1095.00 159.0879
1095.10 163.801
1095.20 168.5142
1095.30 170.6765
1095.40 172.7868
1095.50 173.7954
1095.60 172.2335
1095.70 170.6716
1095.80 169.1796
1095.90 167.7322
1096.00 166.2848
1096.10 166.9939
1096.20 167.8905
1096.30 168.5757
1096.40 168.5529
1096.50 168.5301
1096.60 166.5733
1096.70 162.969
1096.80 159.3647
1096.90 155.7596
1097.00 152.1542
1097.10 149.0498
1097.20 148.5747
1097.30 148.0997
1097.40 149.0997
1097.50 151.7632
1097.60 154.4266
1097.70 156.5703
1097.80 158.5757
1097.90 160.3749
1098.00 160.3178
1098.10 160.2606
1098.20 159.3173
1098.30 157.0988
1098.40 154.8803
1098.50 153.4539
1098.60 152.3356
1098.70 151.2844
1098.80 152.4034
1098.90 153.5224
1099.00 155.1834
1099.10 157.8963
1099.20 160.6092
1099.30 162.2024
1099.40 163.1928
1099.50 164.1831
1099.60 164.7319
1099.70 165.267
1099.80 165.418
1099.90 164.5814
1100.00 163.7448
1100.10 162.9112
1100.20 162.0798
1100.30 161.2483
1100.40 160.1419
1100.50 159.005
1100.60 158.0368
1100.70 157.7032
1100.80 157.3695
1100.90 157.2828
1101.00 157.424
1101.10 157.5653
1101.20 157.7128
1101.30 157.8615
1101.40 157.9442
1101.50 157.6529
1101.60 157.3616
1101.70 156.7473
1101.80 155.7536
1101.90 154.76
1102.00 152.9587
1102.10 150.9161
1102.20 149.1426
1102.30 150.4627
1102.40 151.7829
1102.50 153.4293
1102.60 155.5863
1102.70 157.7432
1102.80 158.4824
1102.90 158.6425
1103.00 158.7376
1103.10 155.6485
1103.20 152.5594
1103.30 149.9198
1103.40 148.1928
1103.50 146.4659
1103.60 146.0434
1103.70 146.3548
1103.80 146.6662
1103.90 148.2656
1104.00 149.9328
1104.10 151.5016
1104.20 152.7903
1104.30 154.079
1104.40 154.9669
1104.50 155.5646
1104.60 156.1623
1104.70 155.6141
1104.80 154.9241
1104.90 154.0345
1105.00 152.346
1105.10 150.6575
1105.20 148.2141
1105.30 145.0454
1105.40 141.8766
1105.50 141.0612
1105.60 140.7623
1105.70 140.7313
1105.80 142.3452
1105.90 143.9592
1106.00 145.3718
1106.10 146.5383
1106.20 147.7048
1106.30 147.77
1106.40 147.4874
1106.50 147.0811
1106.60 145.0315
1106.70 142.982
1106.80 141.74
1106.90 141.8157
1107.00 141.8914
1107.10 142.7451
1107.20 143.9324
1107.30 145.1166
1107.40 145.9981
1107.50 146.8796
1107.60 147.0566
1107.70 145.7364
1107.80 144.4163
1107.90 144.9084
1108.00 146.4649
1108.10 148.0214
1108.20 150.5591
1108.30 153.1596
1108.40 155.3269
1108.50 156.2615
1108.60 157.1961
1108.70 157.1422
1108.80 156.3427
1108.90 155.5432
1109.00 155.0212
1109.10 154.5369
1109.20 154.5265
1109.30 156.5359
1109.40 158.5453
1109.50 160.2182
1109.60 161.5547
1109.70 162.8912
1109.80 161.5737
1109.90 159.6735
1110.00 157.4325
1110.10 152.9101
1110.20 148.3877
1110.30 145.2529
1110.40 143.8841
1110.50 142.5153
1110.60 142.78
1110.70 143.5891
1110.80 144.2956
1110.90 143.6389
1111.00 142.9821
1111.10 141.8368
1111.20 139.8943
1111.30 137.9518
1111.40 137.5744
1111.50 137.9002
1111.60 138.226
1111.70 139.3102
1111.80 140.3943
1111.90 140.9074
1112.00 140.1495
1112.10 139.3916
1112.20 140.0734
1112.30 141.6008
1112.40 143.1282
1112.50 145.5816
1112.60 148.0941
1112.70 150.5102
1112.80 152.6373
1112.90 154.7645
1113.00 155.3024
1113.10 154.5918
1113.20 153.8812
1113.30 152.043
1113.40 150.051
1113.50 147.8695
1113.60 144.8806
1113.70 141.8917
1113.80 141.0249
1113.90 142.28
1114.00 143.5351
1114.10 147.1966
1114.20 151.4225
1114.30 155.5198
1114.40 158.7571
1114.50 161.9944
1114.60 163.0607
1114.70 161.3639
1114.80 159.6671
1114.90 157.1928
1115.00 154.4595
1115.10 151.7767
1115.20 149.8854
1115.30 147.9941
1115.40 147.3912
1115.50 148.9822
1115.60 150.5731
1115.70 151.8139
1115.80 152.8974
1115.90 153.9809
1116.00 153.7605
1116.10 153.5402
1116.20 153.2327
1116.30 152.7311
1116.40 152.2295
1116.50 151.7994
1116.60 151.4131
1116.70 151.0268
1116.80 149.4694
1116.90 147.8372
1117.00 145.8432
1117.10 142.7636
1117.20 139.684
1117.30 137.6626
1117.40 136.4727
1117.50 135.2827
1117.60 136.5066
1117.70 138.0913
1117.80 139.9269
1117.90 142.8324
1118.00 145.7379
1118.10 148.4843
1118.20 151.0715
1118.30 153.6586
1118.40 154.9002
1118.50 155.8261
1118.60 156.4608
1118.70 154.9602
1118.80 153.3162
1118.90 151.4821
1119.00 149.648
1119.10 148.094
1119.20 147.9071
1119.30 147.7202
1119.40 147.5333
1119.50 147.5456
1119.60 147.5753
1119.70 147.6049
1119.80 148.1446
1119.90 148.9471
1120.00 149.7496
1120.10 150.5313
1120.20 151.282
1120.30 152.0327
1120.40 152.8959
1120.50 154.4505
1120.60 156.0051
1120.70 157.5597
1120.80 157.3714
1120.90 156.9678
1121.00 156.5642
1121.10 155.9117
1121.20 155.1131
1121.30 154.3145
1121.40 153.4356
1121.50 152.4259
1121.60 151.4162
1121.70 150.4016
1121.80 149.3516
1121.90 148.3016
1122.00 147.2516
1122.10 146.7489
1122.20 146.3353
1122.30 145.9217
1122.40 146.8354
1122.50 148.5976
1122.60 150.3598
1122.70 152.0084
1122.80 153.4459
1122.90 154.8835
1123.00 156.0516
1123.10 154.7951
1123.20 153.5386
1123.30 152.2821
1123.40 151.6924
1123.50 151.2298
1123.60 150.7672
1123.70 151.7344
1123.80 153.737
1123.90 155.7395
1124.00 157.7485
1124.10 159.7704
1124.20 161.7924
1124.30 163.6067
1124.40 162.6629
1124.50 161.7191
1124.60 160.7753
1124.70 158.2663
1124.80 155.4138
1124.90 152.5613
1125.00 150.1971
1125.10 148.2167
1125.20 146.2363
1125.30 145.2814
1125.40 146.6091
1125.50 147.9368
1125.60 149.3109
1125.70 151.5679
1125.80 153.825
1125.90 156.082
1126.00 156.606
1126.10 156.6969
1126.20 156.7877
1126.30 157.0359
1126.40 157.4181
1126.50 157.8003
1126.60 158.5869
1126.70 160.3637
1126.80 162.1406
1126.90 163.8639
1127.00 163.8574
1127.10 163.8509
1127.20 163.8445
1127.30 161.4828
1127.40 158.4569
1127.50 155.431
1127.60 153.5408
1127.70 152.699
1127.80 151.8571
1127.90 151.4289
1128.00 152.1189
1128.10 152.8089
1128.20 153.5013
1128.30 154.4201
1128.40 155.339
1128.50 156.2579
1128.60 156.3428
1128.70 156.1644
1128.80 155.986
1128.90 156.1792
1129.00 156.7294
1129.10 157.2796
1129.20 157.6665
1129.30 157.5635
1129.40 157.4606
1129.50 157.3577
1129.60 157.0777
1129.70 156.7978
1129.80 156.5178
1129.90 155.9298
1130.00 155.2336
1130.10 154.5373
1130.20 153.4241
1130.30 151.8768
1130.40 150.3296
1130.50 149.0601
1130.60 148.6701
1130.70 148.2801
1130.80 147.89
1130.90 148.8215
1131.00 149.78
1131.10 150.7384
1131.20 152.5553
1131.30 154.6897
1131.40 156.824
1131.50 158.1212
1131.60 158.5113
1131.70 158.9015
1131.80 159.1839
1131.90 159.0845
1132.00 158.9851
1132.10 158.8856
1132.20 157.9249
1132.30 156.9375
1132.40 155.9501
1132.50 155.9392
1132.60 156.3272
1132.70 156.7152
1132.80 156.439
1132.90 155.3831
1133.00 154.3271
1133.10 153.0983
1133.20 151.2187
1133.30 149.3391
1133.40 147.4595
1133.50 145.7361
1133.60 144.0192
1133.70 142.3023
1133.80 140.9345
1133.90 139.7162
1134.00 138.4979
1134.10 137.2815
1134.20 136.0673
1134.30 134.8531
1134.40 134.0617
1134.50 134.9616
1134.60 135.8615
1134.70 136.7615
1134.80 139.3002
1134.90 141.9435
1135.00 144.5868
1135.10 146.2759
1135.20 147.5365
1135.30 148.797
1135.40 149.0626
1135.50 148.0621
1135.60 147.0615
1135.70 146.2207
1135.80 146.0608
1135.90 145.901
1136.00 145.7412
1136.10 146.1718
1136.20 146.6402
1136.30 147.1085
1136.40 146.9603
1136.50 146.5219
1136.60 146.0835
1136.70 145.3547
1136.80 144.2409
1136.90 143.1271
1137.00 142.0185
1137.10 140.9333
1137.20 139.8481
1137.30 138.7629
1137.40 136.605
1137.50 134.3665
1137.60 132.1279
1137.70 127.7803
1137.80 122.3938
1137.90 117.0074
1138.00 112.8874
1138.10 110.5165
1138.20 108.1456
1138.30 106.7235
1138.40 109.9339
1138.50 113.1443
1138.60 116.3547
1138.70 121.8386
1138.80 127.5202
1138.90 133.2018
1139.00 136.4866
1139.10 138.591
1139.20 140.6954
1139.30 141.1468
1139.40 139.3156
1139.50 137.4845
1139.60 135.3487
1139.70 131.6133
1139.80 127.8779
1139.90 124.1425
1140.00 119.2441
1140.10 114.2307
1140.20 109.2173
1140.30 105.6214
1140.40 102.7558
1140.50 99.89009
1140.60 99.33646
1140.70 102.1099
1140.80 104.8833
1140.90 108.256
1141.00 114.7746
1141.10 121.2933
1141.20 127.812
1141.30 133.141
1141.40 138.3524
1141.50 143.5638
1141.60 145.9869
1141.70 146.9735
1141.80 147.9601
1141.90 148.7177
1142.00 149.1457
1142.10 149.5736
1142.20 149.9385
1142.30 149.972
1142.40 150.0055
1142.50 150.039
1142.60 150.8686
1142.70 151.777
1142.80 152.6853
1142.90 152.8981
1143.00 152.7363
1143.10 152.5745
1143.20 152.1288
1143.30 151.2572
1143.40 150.3856
1143.50 149.5714
1143.60 149.0823
1143.70 148.5932
1143.80 148.1042
1143.90 147.5381
1144.00 146.9636
1144.10 146.389
1144.20 146.0085
1144.30 145.7325
1144.40 145.4564
1144.50 145.2023
1144.60 144.9809
1144.70 144.7595
1144.80 144.7066
1144.90 145.608
1145.00 146.5094
1145.10 147.4108
1145.20 147.5632
1145.30 147.6324
1145.40 147.7015
1145.50 147.9507
1145.60 148.2969
1145.70 148.643
1145.80 149.2771
1145.90 150.3432
1146.00 151.4092
1146.10 152.5096
1146.20 153.8045
1146.30 155.0994
1146.40 156.3943
1146.50 157.4219
1146.60 158.4197
1146.70 159.4176
1146.80 159.5956
1146.90 159.3321
1147.00 159.0687
1147.10 158.6021
1147.20 157.8309
1147.30 157.0598
1147.40 156.4371
1147.50 156.6559
1147.60 156.8747
1147.70 157.0936
1147.80 158.362
1147.90 159.7342
1148.00 161.1064
1148.10 161.7074
1148.20 161.9112
1148.30 162.115
1148.40 161.9804
1148.50 161.3589
1148.60 160.7375
1148.70 160.3199
1148.80 160.9726
1148.90 161.6253
1149.00 162.278
1149.10 162.4992
1149.20 162.6776
1149.30 162.856
1149.40 162.1371
1149.50 160.9558
1149.60 159.7746
1149.70 159.0089
1149.80 158.8411
1149.90 158.6734
1150.00 158.6915
1150.10 159.6852
1150.20 160.6788
1150.30 161.6725
1150.40 162.8285
1150.50 164.0006
1150.60 165.1727
1150.70 165.3431
1150.80 164.9974
1150.90 164.6518
1151.00 164.3991
1151.10 164.2749
1151.20 164.1507
1151.30 163.9199
1151.40 163.1687
1151.50 162.4176
1151.60 161.6664
1151.70 161.0124
1151.80 160.3669
1151.90 159.7213
1152.00 158.2532
1152.10 156.38
1152.20 154.5067
1152.30 152.8933
1152.40 151.6389
1152.50 150.3844
1152.60 149.4132
1152.70 149.8253
1152.80 150.2373
1152.90 150.6494
1153.00 152.0768
1153.10 153.5807
1153.20 155.0846
1153.30 155.6616
1153.40 155.8024
1153.50 155.9432
1153.60 156.1324
1153.70 156.3858
1153.80 156.6391
1153.90 156.934
1154.00 157.4179
1154.10 157.9017
1154.20 158.3856
1154.30 158.6716
1154.40 158.9427
1154.50 159.2137
1154.60 159.3449
1154.70 159.4132
1154.80 159.4815
1154.90 159.6775
1155.00 160.0361
1155.10 160.3946
1155.20 160.683
1155.30 160.6723
1155.40 160.6616
1155.50 160.6509
1155.60 160.3169
1155.70 159.9624
1155.80 159.6078
1155.90 159.9357
1156.00 160.556
1156.10 161.1764
1156.20 161.7132
1156.30 162.1481
1156.40 162.583
1156.50 162.8732
1156.60 162.5851
1156.70 162.2969
1156.80 162.0087
1156.90 161.328
1157.00 160.6309
1157.10 159.9338
1157.20 158.9684
1157.30 157.8933
1157.40 156.8182
1157.50 156.043
1157.60 155.6197
1157.70 155.1963
1157.80 155.1111
1157.90 156.2975
1158.00 157.484
1158.10 158.6704
1158.20 159.7238
1158.30 160.7731
1158.40 161.8224
1158.50 161.0879
1158.60 159.6598
1158.70 158.2317
1158.80 156.635
1158.90 154.848
1159.00 153.0611
1159.10 151.3102
1159.20 149.68
1159.30 148.0498
1159.40 146.4196
1159.50 146.2684
1159.60 146.1475
1159.70 146.0265
1159.80 146.1919
1159.90 146.4633
1160.00 146.7347
1160.10 147.401
1160.20 148.4785
1160.30 149.5559
1160.40 150.4796
1160.50 150.9162
1160.60 151.3528
1160.70 151.7895
1160.80 152.9371
1160.90 154.0847
1161.00 155.2322
1161.10 156.583
1161.20 158.0016
1161.30 159.4201
1161.40 160.1551
1161.50 160.2065
1161.60 160.2579
1161.70 160.045
1161.80 159.0795
1161.90 158.1139
1162.00 157.1576
1162.10 157.1083
1162.20 157.059
1162.30 157.0097
1162.40 157.9862
1162.50 159.2691
1162.60 160.5521
1162.70 161.9216
1162.80 163.3711
1162.90 164.8207
1163.00 165.7862
1163.10 165.4432
1163.20 165.1002
1163.30 164.7091
1163.40 162.7603
1163.50 160.8116
1163.60 158.8628
1163.70 157.2714
1163.80 155.7806
1163.90 154.2899
1164.00 154.1208
1164.10 155.0774
1164.20 156.034
1164.30 157.2094
1164.40 158.9202
1164.50 160.631
1164.60 162.213
1164.70 161.3492
1164.80 160.4854
1164.90 159.6216
1165.00 157.7891
1165.10 155.7144
1165.20 153.6397
1165.30 152.2783
1165.40 151.4775
1165.50 150.6766
1165.60 150.601
1165.70 152.1399
1165.80 153.6788
1165.90 155.1954
1166.00 156.4165
1166.10 157.6376
1166.20 158.8587
1166.30 158.7
1166.40 158.2384
1166.50 157.7767
1166.60 156.9109
1166.70 155.7525
1166.80 154.5941
1166.90 153.5293
1167.00 152.6546
1167.10 151.7799
1167.20 150.946
1167.30 150.5238
1167.40 150.1016
1167.50 149.6794
1167.60 148.8658
1167.70 147.9777
1167.80 147.0896
1167.90 145.8345
1168.00 144.3347
1168.10 142.8349
1168.20 140.4932
1168.30 136.5879
1168.40 132.6826
1168.50 128.5319
1168.60 122.3951
1168.70 116.2584
1168.80 110.1216
1168.90 105.7962
1169.00 101.7656
1169.10 97.73502
1169.20 97.56188
1169.30 99.75299
1169.40 101.9441
1169.50 105.551
1169.60 111.5687
1169.70 117.5864
1169.80 123.51
1169.90 128.8035
1170.00 134.0971
1170.10 139.3907
1170.20 142.6515
1170.30 145.6611
1170.40 148.6707
1170.50 150.5866
1170.60 151.8874
1170.70 153.1881
1170.80 153.9742
1170.90 153.9884
1171.00 154.0026
1171.10 153.9784
1171.20 153.7365
1171.30 153.4945
1171.40 153.2525
1171.50 153.2977
1171.60 153.3713
1171.70 153.4449
1171.80 153.4262
1171.90 153.3619
1172.00 153.2977
1172.10 153.3485
1172.20 153.5579
1172.30 153.7674
1172.40 154.0754
1172.50 154.8317
1172.60 155.588
1172.70 156.3443
1172.80 156.8068
1172.90 157.2505
1173.00 157.6943
1173.10 157.5065
1173.20 157.0349
1173.30 156.5634
1173.40 155.8205
1173.50 154.7459
1173.60 153.6714
1173.70 152.7848
1173.80 152.6054
1173.90 152.426
1174.00 152.2466
1174.10 153.0788
1174.20 153.9532
1174.30 154.8276
1174.40 155.6
1174.50 156.3327
1174.60 157.0654
1174.70 156.9503
1174.80 155.9166
1174.90 154.883
1175.00 153.6496
1175.10 151.7477
1175.20 149.8458
1175.30 147.9438
1175.40 147.1506
1175.50 146.3686
1175.60 145.5866
1175.70 144.9691
1175.80 144.4065
1175.90 143.8439
1176.00 142.8483
1176.10 141.4196
1176.20 139.9909
1176.30 137.8954
1176.40 133.9024
1176.50 129.9094
1176.60 125.8667
1176.70 119.3869
1176.80 112.9072
1176.90 106.4274
1177.00 100.4503
1177.10 94.61498
1177.20 88.77963
1177.30 86.05994
1177.40 86.1032
1177.50 86.14645
1177.60 87.60876
1177.70 92.54531
1177.80 97.48186
1177.90 102.4919
1178.00 108.8988
1178.10 115.3056
1178.20 121.7125
1178.30 126.3196
1178.40 130.5045
1178.50 134.6894
1178.60 137.9054
1178.70 140.3601
1178.80 142.8148
1178.90 144.7186
1179.00 145.4521
1179.10 146.1855
1179.20 146.8657
1179.30 146.9342
1179.40 147.0027
1179.50 147.0712
1179.60 147.4026
1179.70 147.784
1179.80 148.1654
1179.90 149.0301
1180.00 150.217
1180.10 151.4038
1180.20 152.502
1180.30 153.4355
1180.40 154.3689
1180.50 155.1629
1180.60 154.8282
1180.70 154.4936
1180.80 154.1589
1180.90 153.4326
1181.00 152.6478
1181.10 151.8629
1181.20 151.2307
1181.30 150.6881
1181.40 150.1456
1181.50 149.8998
1181.60 150.1183
1181.70 150.3369
1181.80 150.6384
1181.90 151.4104
1182.00 152.1824
1182.10 152.9544
1182.20 153.3277
1182.30 153.6567
1182.40 153.9857
1182.50 154.1349
1182.60 154.1914
1182.70 154.2479
1182.80 154.2768
1182.90 154.2676
1183.00 154.2584
1183.10 154.0417
1183.20 152.8792
1183.30 151.7168
1183.40 150.5544
1183.50 149.5003
1183.60 148.4531
1183.70 147.406
1183.80 147.7745
1183.90 148.7498
1184.00 149.725
1184.10 150.9052
1184.20 152.3258
1184.30 153.7465
1184.40 154.6425
1184.50 153.6786
1184.60 152.7146
1184.70 151.7507
1184.80 150.3112
1184.90 148.8571
1185.00 147.403
1185.10 147.4606
1185.20 148.0773
1185.30 148.6941
1185.40 149.7191
1185.50 151.1692
1185.60 152.6192
1185.70 153.887
1185.80 154.6083
1185.90 155.3296
1186.00 156.0394
1186.10 155.6141
1186.20 155.1887
1186.30 154.7634
1186.40 154.0136
1186.50 153.1669
1186.60 152.3202
1186.70 151.6654
1186.80 151.1809
1186.90 150.6964
1187.00 150.4835
1187.10 150.9357
1187.20 151.3878
1187.30 151.8459
1187.40 152.4169
1187.50 152.9879
1187.60 153.5589
1187.70 152.6199
1187.80 151.3269
1187.90 150.0338
1188.00 148.0657
1188.10 145.5884
1188.20 143.1111
1188.30 141.2775
1188.40 140.7507
1188.50 140.224
1188.60 139.8829
1188.70 141.4189
1188.80 142.955
1188.90 144.4911
1189.00 146.0686
1189.10 147.6534
1189.20 149.2382
1189.30 150.1744
1189.40 150.6959
1189.50 151.2174
1189.60 151.7983
1189.70 152.4801
1189.80 153.162
1189.90 153.7067
1190.00 153.3338
1190.10 152.9609
1190.20 152.588
1190.30 152.0952
1190.40 151.5877
1190.50 151.0801
1190.60 150.8217
1190.70 150.6974
1190.80 150.5731
1190.90 150.8614
1191.00 151.7434
1191.10 152.6254
1191.20 153.4673
1191.30 154.1135
1191.40 154.7596
1191.50 155.4057
1191.60 155.6165
1191.70 155.7945
1191.80 155.9725
1191.90 155.6769
1192.00 155.1687
1192.10 154.6604
1192.20 154.4465
1192.30 154.5925
1192.40 154.7384
1192.50 154.9142
1192.60 155.2025
1192.70 155.4908
1192.80 155.7792
1192.90 156.0673
1193.00 156.3555
1193.10 156.6437
1193.20 155.683
1193.30 154.2603
1193.40 152.8377
1193.50 151.3038
1193.60 149.654
1193.70 148.0042
1193.80 146.499
1193.90 145.4054
1194.00 144.3117
1194.10 143.2306
1194.20 142.7633
1194.30 142.296
1194.40 141.8287
1194.50 140.6139
1194.60 139.1881
1194.70 137.7624
1194.80 137.017
1194.90 136.8512
1195.00 136.6853
1195.10 137.0116
1195.20 138.486
1195.30 139.9605
1195.40 141.394
1195.50 142.1852
1195.60 142.9764
1195.70 143.7676
1195.80 142.9541
1195.90 141.7885
1196.00 140.6228
1196.10 139.5667
1196.20 138.5898
1196.30 137.613
1196.40 136.9728
1196.50 136.986
1196.60 136.9992
1196.70 136.9049
1196.80 135.9412
1196.90 134.9775
1197.00 134.0139
1197.10 131.9922
1197.20 129.8124
1197.30 127.6326
1197.40 125.9262
1197.50 124.498
1197.60 123.0697
1197.70 122.4866
1197.80 123.2255
1197.90 123.9645
1198.00 124.9545
1198.10 127.3672
1198.20 129.7799
1198.30 132.1927
1198.40 133.5557
1198.50 134.815
1198.60 136.0743
1198.70 135.6276
1198.80 134.3782
1198.90 133.1287
1199.00 131.3556
1199.10 128.9158
1199.20 126.4761
1199.30 124.4916
1199.40 124.3276
1199.50 124.1636
1199.60 123.9996
1199.70 124.5517
1199.80 125.1337
1199.90 125.7157
1200.00 126.2275
1200.10 126.7119
1200.20 127.1964
1200.30 127.7095
1200.40 128.2523
1200.50 128.7952
1200.60 129.4613
1200.70 130.4968
1200.80 131.5324
1200.90 132.5612
1201.00 132.9162
1201.10 133.2712
1201.20 133.6261
1201.30 133.1541
1201.40 132.435
1201.50 131.7158
1201.60 131.1667
1201.70 130.7624
1201.80 130.3582
1201.90 130.1507
1202.00 130.4026
1202.10 130.6545
1202.20 130.9145
1202.30 131.3034
1202.40 131.6923
1202.50 132.0812
1202.60 131.4776
1202.70 130.6562
1202.80 129.8348
1202.90 129.5407
1203.00 129.613
1203.10 129.6853
1203.20 130.4138
1203.30 132.361
1203.40 134.3081
1203.50 136.3231
1203.60 138.887
1203.70 141.4508
1203.80 144.0147
1203.90 144.8351
1204.00 145.3949
1204.10 145.9548
1204.20 145.298
1204.30 143.9569
1204.40 142.6157
1204.50 141.555
1204.60 140.9148
1204.70 140.2746
1204.80 139.9131
1204.90 141.0143
1205.00 142.1156
1205.10 143.2169
1205.20 144.8078
1205.30 146.4355
1205.40 148.0632
1205.50 149.2551
1205.60 150.2511
1205.70 151.2472
1205.80 151.8227
1205.90 151.8843
1206.00 151.946
1206.10 151.7197
1206.20 150.4728
1206.30 149.2259
1206.40 147.979
1206.50 146.6103
1206.60 145.2391
1206.70 143.8679
1206.80 144.0129
1206.90 144.6906
1207.00 145.3684
1207.10 146.7217
1207.20 148.724
1207.30 150.7264
1207.40 152.5838
1207.50 154.0492
1207.60 155.5147
1207.70 156.9432
1207.80 157.1775
1207.90 157.4119
1208.00 157.6463
1208.10 157.019
1208.20 156.1764
1208.30 155.3338
1208.40 153.4661
1208.50 150.7928
1208.60 148.1196
1208.70 145.6059
1208.80 143.431
1208.90 141.2561
1209.00 139.3806
1209.10 140.5328
1209.20 141.6851
1209.30 142.8374
1209.40 145.8004
1209.50 149.0829
1209.60 152.3655
1209.70 153.8713
1209.80 154.288
1209.90 154.7047
1210.00 153.7011
1210.10 150.3802
1210.20 147.0593
1210.30 143.6765
1210.40 139.913
1210.50 136.1495
1210.60 132.386
1210.70 131.1412
1210.80 130.1454
1210.90 129.1497
1211.00 129.711
1211.10 131.0391
1211.20 132.3672
1211.30 133.7842
1211.40 135.3189
1211.50 136.8536
1211.60 138.3913
1211.70 139.941
1211.80 141.4906
1211.90 143.0402
1212.00 145.1512
1212.10 147.2856
1212.20 149.42
1212.30 150.2413
1212.40 150.5769
1212.50 150.9126
1212.60 149.8878
1212.70 147.447
1212.80 145.0063
1212.90 142.7237
1213.00 140.8913
1213.10 139.0589
1213.20 137.3067
1213.30 139.4902
1213.40 141.6736
1213.50 143.857
1213.60 147.0927
1213.70 150.6081
1213.80 154.1235
1213.90 156.3481
1214.00 157.5165
1214.10 158.6849
1214.20 159.2363
1214.30 158.4763
1214.40 157.7163
1214.50 157.011
1214.60 156.9339
1214.70 156.8568
1214.80 156.7797
1214.90 157.1104
1215.00 157.513
1215.10 157.9155
1215.20 157.5679
1215.30 156.7407
1215.40 155.9135
1215.50 154.84
1215.60 153.3647
1215.70 151.8893
1215.80 150.5755
1215.90 150.2536
1216.00 149.9316
1216.10 149.6097
1216.20 150.2531
1216.30 151.0039
1216.40 151.7546
1216.50 152.8062
1216.60 154.0061
1216.70 155.206
1216.80 156.0749
1216.90 156.5224
1217.00 156.9699
1217.10 157.2451
1217.20 156.8309
1217.30 156.4167
1217.40 156.0025
1217.50 156.271
1217.60 156.5606
1217.70 156.8502
1217.80 157.7283
1217.90 158.8242
1218.00 159.9201
1218.10 161.0023
1218.20 162.0708
1218.30 163.1393
1218.40 163.6566
1218.50 162.605
1218.60 161.5535
1218.70 160.5128
1218.80 159.8226
1218.90 159.1324
1219.00 158.4422
1219.10 158.0174
1219.20 157.6632
1219.30 157.3089
1219.40 157.1279
1219.50 157.083
1219.60 157.0381
1219.70 156.8969
1219.80 156.5511
1219.90 156.2054
1220.00 155.9144
1220.10 156.1768
1220.20 156.4392
1220.30 156.7017
1220.40 156.8175
1220.50 156.9095
1220.60 157.0014
1220.70 156.2447
1220.80 154.9679
1220.90 153.691
1221.00 152.3933
1221.10 151.0629
1221.20 149.7325
1221.30 148.5224
1221.40 147.9936
1221.50 147.4648
1221.60 146.9359
1221.70 147.0784
1221.80 147.2792
1221.90 147.4799
1222.00 147.4775
1222.10 147.3837
1222.20 147.2899
1222.30 147.405
1222.40 147.7756
1222.50 148.1461
1222.60 148.967
1222.70 151.3848
1222.80 153.8027
1222.90 156.2205
1223.00 159.1564
1223.10 162.1028
1223.20 165.0493
1223.30 166.6281
1223.40 167.7511
1223.50 168.874
1223.60 168.9038
1223.70 167.9246
1223.80 166.9454
1223.90 165.9402
1224.00 164.8683
1224.10 163.7963
1224.20 162.7763
1224.30 162.7429
1224.40 162.7094
1224.50 162.676
1224.60 163.3914
1224.70 164.2712
1224.80 165.1509
1224.90 165.8569
1225.00 166.437
1225.10 167.0171
1225.20 166.9591
1225.30 165.7162
1225.40 164.4732
1225.50 163.2237
1225.60 161.9264
1225.70 160.629
1225.80 159.3317
1225.90 159.7403
1226.00 160.3815
1226.10 161.0226
1226.20 162.5011
1226.30 164.4305
1226.40 166.3598
1226.50 167.6499
1226.60 168.0572
1226.70 168.4644
1226.80 168.5352
1226.90 167.073
1227.00 165.6108
1227.10 164.1486
1227.20 163.5566
1227.30 163.0104
1227.40 162.4641
1227.50 163.1114
1227.60 164.2228
1227.70 165.3343
1227.80 166.3264
1227.90 167.1894
1228.00 168.0523
1228.10 168.6409
1228.20 168.4064
1228.30 168.1719
1228.40 167.9163
1228.50 166.6287
1228.60 165.3411
1228.70 164.0535
1228.80 162.953
1228.90 161.9023
1229.00 160.8516
1229.10 159.4587
1229.20 157.7856
1229.30 156.1126
1229.40 154.801
1229.50 154.2575
1229.60 153.7139
1229.70 153.3192
1229.80 154.43
1229.90 155.5407
1230.00 156.6514
1230.10 158.8683
1230.20 161.2805
1230.30 163.6926
1230.40 165.1436
1230.50 166.0055
1230.60 166.8675
1230.70 166.9825
1230.80 165.9293
1230.90 164.876
1231.00 163.8517
1231.10 162.9795
1231.20 162.1072
1231.30 161.2349
1231.40 160.9388
1231.50 160.6928
1231.60 160.4468
1231.70 160.2813
1231.80 160.1519
1231.90 160.0226
1232.00 159.829
1232.10 159.5601
1232.20 159.2911
1232.30 159.0644
1232.40 158.9788
1232.50 158.8932
1232.60 158.8076
1232.70 157.9489
1232.80 157.0902
1232.90 156.2314
1233.00 155.521
1233.10 154.8575
1233.20 154.1939
1233.30 154.2643
1233.40 154.9857
1233.50 155.7071
1233.60 156.5395
1233.70 157.631
1233.80 158.7225
1233.90 159.6807
1234.00 158.8671
1234.10 158.0536
1234.20 157.2401
1234.30 156.4193
1234.40 155.5971
1234.50 154.7748
1234.60 154.9023
1234.70 155.6631
1234.80 156.4239
1234.90 157.4114
1235.00 158.7848
1235.10 160.1583
1235.20 161.2521
1235.30 160.6275
1235.40 160.0028
1235.50 159.3782
1235.60 158.2441
1235.70 157.0595
1235.80 155.8749
1235.90 155.4434
1236.00 155.3665
1236.10 155.2895
1236.20 156.14
1236.30 158.1711
1236.40 160.2022
1236.50 162.0165
1236.60 163.0149
1236.70 164.0133
1236.80 165.0117
1236.90 163.7599
1237.00 162.4622
1237.10 161.1646
1237.20 159.3192
1237.30 157.2912
1237.40 155.2632
1237.50 154.4723
1237.60 154.8233
1237.70 155.1743
1237.80 155.9064
1237.90 157.5714
1238.00 159.2365
1238.10 160.7796
1238.20 160.4106
1238.30 160.0416
1238.40 159.6727
1238.50 156.7971
1238.60 153.3713
1238.70 149.9454
1238.80 146.6331
1238.90 143.3997
1239.00 140.1663
1239.10 137.9853
1239.20 137.6749
1239.30 137.3646
1239.40 137.3078
1239.50 138.9471
1239.60 140.5864
1239.70 142.2257
1239.80 143.2517
1239.90 144.2095
1240.00 145.1674
1240.10 144.6441
1240.20 143.3912
1240.30 142.1383
1240.40 141.1563
1240.50 140.5191
1240.60 139.8819
1240.70 139.7073
1240.80 141.2732
1240.90 142.8391
1241.00 144.4049
1241.10 145.7028
1241.20 146.9924
1241.30 148.282
1241.40 147.4901
1241.50 145.9668
1241.60 144.4436
1241.70 142.7071
1241.80 140.7659
1241.90 138.8246
1242.00 137.3075
1242.10 136.8812
1242.20 136.4548
1242.30 135.9929
1242.40 134.8553
1242.50 133.7178
1242.60 132.5802
1242.70 129.1099
1242.80 125.1275
1242.90 121.1451
1243.00 117.3203
1243.10 113.6052
1243.20 109.89
1243.30 107.8018
1243.40 108.6059
1243.50 109.41
1243.60 110.678
1243.70 115.0501
1243.80 119.4222
1243.90 123.7943
1244.00 127.7891
1244.10 131.742
1244.20 135.695
1244.30 138.5433
1244.40 140.8476
1244.50 143.1519
1244.60 145.3297
1244.70 147.3465
1244.80 149.3632
1244.90 151.2233
1245.00 152.4938
1245.10 153.7642
1245.20 155.0347
1245.30 155.126
1245.40 155.1934
1245.50 155.2607
1245.60 154.4242
1245.70 153.2865
1245.80 152.1488
1245.90 151.2328
1246.00 150.5213
1246.10 149.8099
1246.20 149.5627
1246.30 150.4525
1246.40 151.3422
1246.50 152.2771
1246.60 153.9211
1246.70 155.5651
1246.80 157.2091
1246.90 158.0354
1247.00 158.6943
1247.10 159.3532
1247.20 159.2089
1247.30 158.529
1247.40 157.8491
1247.50 157.0946
1247.60 156.213
1247.70 155.3313
1247.80 154.465
1247.90 153.6926
1248.00 152.9202
1248.10 152.1478
1248.20 152.0552
1248.30 152.0298
1248.40 152.0045
1248.50 152.3679
1248.60 152.9143
1248.70 153.4607
1248.80 153.8622
1248.90 154.0866
1249.00 154.3111
1249.10 154.3901
1249.20 153.9534
1249.30 153.5166
1249.40 153.0799
1249.50 152.5278
1249.60 151.9744
1249.70 151.4211
1249.80 151.611
1249.90 152.0355
1250.00 152.46
1250.10 152.5806
1250.20 152.4317
1250.30 152.2828
1250.40 151.9668
1250.50 151.2612
1250.60 150.5555
1250.70 149.8062
1250.80 148.4762
1250.90 147.1462
1251.00 145.8162
1251.10 144.5366
1251.20 143.2666
1251.30 141.9965
1251.40 139.709
1251.50 136.7709
1251.60 133.8328
1251.70 129.945
1251.80 124.5078
1251.90 119.0706
1252.00 113.7944
1252.10 109.4307
1252.20 105.0669
1252.30 100.7032
1252.40 102.001
1252.50 103.7911
1252.60 105.5811
1252.70 110.7101
1252.80 117.3391
1252.90 123.9682
1253.00 130.071
1253.10 135.5561
1253.20 141.0412
1253.30 145.7654
1253.40 147.9423
1253.50 150.1192
1253.60 152.2961
1253.70 153.5003
1253.80 154.7045
1253.90 155.9087
1254.00 156.2765
1254.10 156.4084
1254.20 156.5404
1254.30 156.5075
1254.40 156.3399
1254.50 156.1723
1254.60 155.9818
1254.70 155.7426
1254.80 155.5034
1254.90 155.421
1255.00 156.9235
1255.10 158.4261
1255.20 159.9286
1255.30 161.3988
1255.40 162.8637
1255.50 164.3285
1255.60 165.4883
1255.70 166.4688
1255.80 167.4494
1255.90 167.5816
1256.00 166.4414
1256.10 165.3011
1256.20 164.1841
1256.30 163.1805
1256.40 162.1768
1256.50 161.1732
1256.60 161.1416
1256.70 161.172
1256.80 161.2025
1256.90 161.5673
1257.00 162.0686
1257.10 162.5699
1257.20 162.8262
1257.30 162.8275
1257.40 162.8288
1257.50 163.0278
1257.60 163.7895
1257.70 164.5513
1257.80 165.3317
1257.90 166.7139
1258.00 168.0962
1258.10 169.4785
1258.20 169.7786
1258.30 169.8082
1258.40 169.8378
1258.50 168.6551
1258.60 166.5576
1258.70 164.4602
1258.80 162.3589
1258.90 160.25
1259.00 158.1412
1259.10 156.2081
1259.20 155.6977
1259.30 155.1873
1259.40 154.6769
1259.50 155.7687
1259.60 157.0586
1259.70 158.3484
1259.80 159.5102
1259.90 160.6059
1260.00 161.7017
1260.10 162.7035
1260.20 163.5807
1260.30 164.458
1260.40 165.3914
1260.50 166.5493
1260.60 167.7073
1260.70 168.8652
1260.80 170.6068
1260.90 172.3664
1261.00 174.126
1261.10 174.3613
1261.20 174.0611
1261.30 173.7609
1261.40 172.7044
1261.50 170.9496
1261.60 169.1948
1261.70 167.5377
1261.80 166.1199
1261.90 164.7021
1262.00 163.4057
1262.10 164.0125
1262.20 164.6192
1262.30 165.226
1262.40 166.0258
1262.50 166.8653
1262.60 167.7047
1262.70 168.023
1262.80 167.9938
1262.90 167.9647
1263.00 167.7336
1263.10 167.173
1263.20 166.6125
1263.30 166.0157
1263.40 165.2134
1263.50 164.4111
1263.60 163.6088
1263.70 162.6351
1263.80 161.6465
1263.90 160.6578
1264.00 159.613
1264.10 158.5428
1264.20 157.4726
1264.30 157.045
1264.40 157.3418
1264.50 157.6387
1264.60 158.2265
1264.70 159.7354
1264.80 161.2443
1264.90 162.7486
1265.00 163.7868
1265.10 164.825
1265.20 165.8632
1265.30 166.1718
1265.40 166.2745
1265.50 166.3772
1265.60 166.282
1265.70 166.0249
1265.80 165.7678
1265.90 165.6637
1266.00 165.8705
1266.10 166.0772
1266.20 166.2541
1266.30 166.1629
1266.40 166.0716
1266.50 165.9804
1266.60 166.5919
1266.70 167.3085
1266.80 168.025
1266.90 168.8926
1267.00 169.8451
1267.10 170.7975
1267.20 171.7158
1267.30 172.5868
1267.40 173.4578
1267.50 174.2579
1267.60 174.7559
1267.70 175.2538
1267.80 175.7517
1267.90 175.5226
1268.00 175.2631
1268.10 175.0037
1268.20 174.339
1268.30 173.5244
1268.40 172.7098
1268.50 171.8913
1268.60 171.069
1268.70 170.2467
1268.80 169.6546
1268.90 169.6541
1269.00 169.6537
1269.10 169.6481
1269.20 169.544
1269.30 169.4398
1269.40 169.3357
1269.50 168.7069
1269.60 167.9629
1269.70 167.219
1269.80 166.4753
1269.90 165.7318
1270.00 164.9883
1270.10 164.3365
1270.20 163.8409
1270.30 163.3452
1270.40 163.1098
1270.50 164.4731
1270.60 165.8363
1270.70 167.1995
1270.80 168.8892
1270.90 170.6073
1271.00 172.3254
1271.10 173.669
1271.20 174.8444
1271.30 176.0198
1271.40 176.3432
1271.50 175.6665
1271.60 174.9898
1271.70 174.3763
1271.80 173.9631
1271.90 173.5499
1272.00 173.1402
1272.10 173.0719
1272.20 173.0036
1272.30 172.9353
1272.40 172.6709
1272.50 172.3512
1272.60 172.0316
1272.70 171.373
1272.80 170.4372
1272.90 169.5013
1273.00 168.7636
1273.10 168.4281
1273.20 168.0925
1273.30 167.7357
1273.40 167.1875
1273.50 166.6393
1273.60 166.091
1273.70 164.8463
1273.80 163.5065
1273.90 162.1668
1274.00 161.6021
1274.10 161.4547
1274.20 161.3073
1274.30 162.1507
1274.40 164.3622
1274.50 166.5738
1274.60 168.6304
1274.70 170.0675
1274.80 171.5046
1274.90 172.9417
1275.00 172.3097
1275.10 171.6136
1275.20 170.9176
1275.30 170.7644
1275.40 170.8019
1275.50 170.8395
1275.60 171.765
1275.70 173.5101
1275.80 175.2552
1275.90 176.5934
1276.00 176.935
1276.10 177.2766
1276.20 177.5207
1276.30 176.2362
1276.40 174.9517
1276.50 173.6672
1276.60 172.8059
1276.70 172.0251
1276.80 171.2444
1276.90 171.6585
1277.00 172.8366
1277.10 174.0146
1277.20 174.9011
1277.30 175.3117
1277.40 175.7224
1277.50 175.9767
1277.60 175.4108
1277.70 174.8449
1277.80 174.2789
1277.90 172.2708
1278.00 170.154
1278.10 168.0373
1278.20 167.0671
1278.30 166.5652
1278.40 166.0634
1278.50 166.0275
1278.60 166.4965
1278.70 166.9655
1278.80 167.789
1278.90 169.6759
1279.00 171.5628
1279.10 173.4265
1279.20 174.5408
1279.30 175.6551
1279.40 176.7694
1279.50 177.0639
1279.60 177.1535
1279.70 177.243
1279.80 176.6337
1279.90 175.4972
1280.00 174.3606
1280.10 173.2329
1280.20 172.1214
1280.30 171.0099
1280.40 169.9654
1280.50 169.4119
1280.60 168.8584
1280.70 168.3049
1280.80 168.3067
1280.90 168.3702
1281.00 168.4337
1281.10 168.6783
1281.20 169.0122
1281.30 169.346
1281.40 169.691
1281.50 170.0504
1281.60 170.4097
1281.70 170.726
1281.80 170.8898
1281.90 171.0536
1282.00 171.2174
1282.10 171.9088
1282.20 172.6056
1282.30 173.3024
1282.40 173.7597
1282.50 174.1456
1282.60 174.5314
1282.70 174.4669
1282.80 174.0187
1282.90 173.5706
1283.00 173.1588
1283.10 172.8244
1283.20 172.49
1283.30 172.1597
1283.40 171.8709
1283.50 171.5821
1283.60 171.2933
1283.70 170.9873
1283.80 170.6784
1283.90 170.3696
1284.00 169.9453
1284.10 169.4562
1284.20 168.967
1284.30 168.9223
1284.40 169.517
1284.50 170.1117
1284.60 170.7474
1284.70 171.5579
1284.80 172.3684
1284.90 173.1789
1285.00 173.0315
1285.10 172.8442
1285.20 172.6568
1285.30 171.2718
1285.40 169.466
1285.50 167.6602
1285.60 165.8479
1285.70 164.0292
1285.80 162.2106
1285.90 160.8067
1286.00 160.4183
1286.10 160.0299
1286.20 159.7437
1286.30 161.0581
1286.40 162.3725
1286.50 163.6869
1286.60 165.8033
1286.70 168.0841
1286.80 170.3648
1286.90 172.013
1287.00 173.2568
1287.10 174.5007
1287.20 174.8891
1287.30 173.8819
1287.40 172.8747
1287.50 171.648
1287.60 169.2684
1287.70 166.8889
1287.80 164.5094
1287.90 163.2705
1288.00 162.1175
1288.10 160.9645
1288.20 160.9257
1288.30 161.342
1288.40 161.7583
1288.50 162.7521
1288.60 164.3716
1288.70 165.9912
1288.80 167.4636
1288.90 168.5172
1289.00 169.5709
1289.10 170.6078
1289.20 171.1037
1289.30 171.5997
1289.40 172.0956
1289.50 171.4675
1289.60 170.5758
1289.70 169.6841
1289.80 168.903
1289.90 168.202
1290.00 167.501
1290.10 167.1333
1290.20 167.3581
1290.30 167.583
1290.40 167.8039
1290.50 167.9984
1290.60 168.1928
1290.70 168.3873
1290.80 168.4815
1290.90 168.5658
1291.00 168.6501
1291.10 168.3455
1291.20 167.8578
1291.30 167.3701
1291.40 167.2238
1291.50 167.4781
1291.60 167.7325
1291.70 168.1293
1291.80 169.0033
1291.90 169.8773
1292.00 170.7486
1292.10 171.3495
1292.20 171.9505
1292.30 172.5514
1292.40 171.9306
1292.50 170.9652
1292.60 169.9998
1292.70 168.639
1292.80 166.9673
1292.90 165.2957
1293.00 164.2961
1293.10 164.6607
1293.20 165.0252
1293.30 165.4398
1293.40 166.2585
1293.50 167.0772
1293.60 167.896
1293.70 168.688
1293.80 169.4765
1293.90 170.2649
1294.00 170.4263
1294.10 170.2647
1294.20 170.1031
1294.30 170.1963
1294.40 170.6139
1294.50 171.0315
1294.60 171.5068
1294.70 172.1991
1294.80 172.8915
1294.90 173.5838
1295.00 172.7885
1295.10 171.9781
1295.20 171.1678
1295.30 169.4359
1295.40 167.413
1295.50 165.3901
1295.60 163.9068
1295.70 162.8834
1295.80 161.8599
1295.90 161.4129
1296.00 162.2489
1296.10 163.085
1296.20 163.8947
1296.30 164.4382
1296.40 164.9818
1296.50 165.5253
1296.60 165.8128
1296.70 166.0586
1296.80 166.3043
1296.90 166.5108
1297.00 166.6951
1297.10 166.8795
1297.20 167.1196
1297.30 167.4367
1297.40 167.7538
1297.50 167.9841
1297.60 167.8444
1297.70 167.7047
1297.80 167.565
1297.90 168.0425
1298.00 168.5392
1298.10 169.0358
1298.20 170.199
1298.30 171.5964
1298.40 172.9937
1298.50 174.1314
1298.60 175.0293
1298.70 175.9273
1298.80 176.3933
1298.90 175.8018
1299.00 175.2104
1299.10 174.5652
1299.20 173.2061
1299.30 171.847
1299.40 170.4879
1299.50 169.2863
1299.60 168.1124
1299.70 166.9386
1299.80 166.1624
1299.90 165.63
