# Version 2.1 - nm, norm@500 to 1, cut digits
# Wavelength(nm)  Flambda(ergs/cm^s/s/nm)
300.00 0.00794852
300.10 0.007984919
300.20 0.008055751
300.30 0.008089986
300.40 0.008123347
300.50 0.008155808
300.60 0.008187366
300.70 0.008218041
300.80 0.008247864
300.90 0.008276872
301.00 0.008305104
301.10 0.008332596
301.20 0.008359386
301.30 0.008385504
301.40 0.008410983
301.50 0.008435852
301.60 0.008460138
301.70 0.008483866
301.80 0.008507062
301.90 0.008529748
302.00 0.008551946
302.10 0.008573676
302.20 0.008594959
302.30 0.008615812
302.40 0.008636253
302.50 0.008656298
302.60 0.008675963
302.70 0.008695262
302.80 0.008714209
302.90 0.008732818
303.00 0.008751101
303.10 0.00876907
303.20 0.008786738
303.30 0.008804126
303.40 0.008821268
303.50 0.008838221
303.60 0.008855069
303.70 0.008871934
303.80 0.008888974
303.90 0.008906373
304.00 0.008924335
304.10 0.008943061
304.20 0.008962737
304.30 0.008983516
304.40 0.009005511
304.50 0.009028791
304.60 0.009053388
304.70 0.009079303
304.80 0.009106516
304.90 0.009134999
305.00 0.009217332
305.10 0.009293426
305.20 0.009364159
305.30 0.009430813
305.40 0.009494817
305.50 0.009557504
305.60 0.009619926
305.70 0.009682775
305.80 0.009746384
305.90 0.009810806
306.00 0.009875885
306.10 0.009941382
306.20 0.01000707
306.30 0.01007274
306.40 0.01013823
306.50 0.01020343
306.60 0.01026823
306.70 0.01033261
306.80 0.01039654
306.90 0.01046
307.00 0.01052299
307.10 0.01058552
307.20 0.01064759
307.30 0.01070919
307.40 0.01077037
307.50 0.01083116
307.60 0.01089164
307.70 0.01095192
307.80 0.01101217
307.90 0.01107256
308.00 0.01113333
308.10 0.01119469
308.20 0.01125685
308.30 0.01132003
308.40 0.01138436
308.50 0.01144996
308.60 0.01151691
308.70 0.01158526
308.80 0.01165503
308.90 0.01172622
309.00 0.01179884
309.10 0.01187289
309.20 0.01194838
309.30 0.0120253
309.40 0.01210369
309.50 0.01218361
309.60 0.01226512
309.70 0.01234838
309.80 0.01243355
309.90 0.01252085
310.00 0.01261054
310.10 0.01270285
310.20 0.01279805
310.30 0.01289635
310.40 0.01299793
310.50 0.01310291
310.60 0.01321139
310.70 0.01332342
310.80 0.01343902
310.90 0.0135582
311.00 0.01368097
311.10 0.01380733
311.20 0.01393726
311.30 0.01407075
311.40 0.01420772
311.50 0.01434805
311.60 0.01449153
311.70 0.01463781
311.80 0.01478646
311.90 0.01493692
312.00 0.01508858
312.10 0.0152408
312.20 0.01539294
312.30 0.01554447
312.40 0.01569494
312.50 0.01584402
312.60 0.01599149
312.70 0.01613722
312.80 0.01628115
312.90 0.01642324
313.00 0.0165635
313.10 0.01670193
313.20 0.01683852
313.30 0.01697328
313.40 0.01710626
313.50 0.0172375
313.60 0.0173671
313.70 0.01749522
313.80 0.01762205
313.90 0.01774785
314.00 0.01787288
314.10 0.01799744
314.20 0.01812181
314.30 0.01824624
314.40 0.01837093
314.50 0.01849602
314.60 0.01862162
314.70 0.01874778
314.80 0.01887453
314.90 0.01900188
315.00 0.01912984
315.10 0.01925841
315.20 0.01938759
315.30 0.01951737
315.40 0.01964776
315.50 0.01977877
315.60 0.0199104
315.70 0.02004266
315.80 0.02017557
315.90 0.02030914
316.00 0.0204434
316.10 0.02057837
316.20 0.02071407
316.30 0.02085051
316.40 0.02098771
316.50 0.02112569
316.60 0.02126445
316.70 0.02140399
316.80 0.02154431
316.90 0.02168543
317.00 0.02182733
317.10 0.02197002
317.20 0.0221135
317.30 0.02225778
317.40 0.02240292
317.50 0.02254899
317.60 0.02269613
317.70 0.02284456
317.80 0.02299457
317.90 0.02314649
318.00 0.02330074
318.10 0.02345773
318.20 0.02361786
318.30 0.02378147
318.40 0.02394886
318.50 0.02412024
318.60 0.02429574
318.70 0.02447546
318.80 0.02465943
318.90 0.02484767
319.00 0.02504019
319.10 0.02523698
319.20 0.02543804
319.30 0.02564336
319.40 0.02585291
319.50 0.02606664
319.60 0.02628444
319.70 0.02650618
319.80 0.02673166
319.90 0.02696063
320.00 0.02719283
320.10 0.02742796
320.20 0.02766576
320.30 0.02790599
320.40 0.02814845
320.50 0.02839299
320.60 0.02863953
320.70 0.02888799
320.80 0.02913836
320.90 0.02939062
321.00 0.02964477
321.10 0.0299008
321.20 0.03015874
321.30 0.03041861
321.40 0.03068049
321.50 0.03094458
321.60 0.03121116
321.70 0.03148069
321.80 0.03175377
321.90 0.03203115
322.00 0.03231367
322.10 0.0326022
322.20 0.03289761
322.30 0.03320062
322.40 0.03351185
322.50 0.03383174
322.60 0.03416059
322.70 0.03449859
322.80 0.03484581
322.90 0.0352023
323.00 0.03556806
323.10 0.03594309
323.20 0.03632737
323.30 0.03672084
323.40 0.03712329
323.50 0.03753436
323.60 0.03795342
323.70 0.03837951
323.80 0.03881134
323.90 0.03924733
324.00 0.0396857
324.10 0.04012458
324.20 0.04056217
324.30 0.0409969
324.40 0.04142747
324.50 0.04185294
324.60 0.04227268
324.70 0.0426863
324.80 0.04309363
324.90 0.04349458
325.00 0.04388914
325.10 0.0442773
325.20 0.04465909
325.30 0.04503454
325.40 0.04540378
325.50 0.04576706
325.60 0.04612476
325.70 0.04647752
325.80 0.04682616
325.90 0.04717168
326.00 0.04751526
326.10 0.04785808
326.20 0.0482013
326.30 0.04854593
326.40 0.04889281
326.50 0.04924254
326.60 0.04959554
326.70 0.04995204
326.80 0.05031216
326.90 0.05067596
327.00 0.05104344
327.10 0.05141461
327.20 0.05178944
327.30 0.0521679
327.40 0.05254985
327.50 0.05293501
327.60 0.05332296
327.70 0.05371301
327.80 0.05410427
327.90 0.05449562
328.00 0.05488581
328.10 0.05527352
328.20 0.05565749
328.30 0.05603661
328.40 0.05640997
328.50 0.05677692
328.60 0.05713699
328.70 0.05748993
328.80 0.05783561
328.90 0.05817397
329.00 0.05850501
329.10 0.05882871
329.20 0.05914508
329.30 0.05945408
329.40 0.05975562
329.50 0.06004954
329.60 0.06033557
329.70 0.06061327
329.80 0.06088209
329.90 0.06114132
330.00 0.06139017
330.10 0.06162781
330.20 0.06185345
330.30 0.0620664
330.40 0.06226608
330.50 0.06245208
330.60 0.0626241
330.70 0.062782
330.80 0.06292568
330.90 0.06305511
331.00 0.06317028
331.10 0.0632712
331.20 0.06335787
331.30 0.06343038
331.40 0.06348888
331.50 0.06353372
331.60 0.06356547
331.70 0.06358501
331.80 0.06359348
331.90 0.06359235
332.00 0.06358322
332.10 0.0635678
332.20 0.06354772
332.30 0.0635244
332.40 0.06349902
332.50 0.06347245
332.60 0.06344525
332.70 0.06341777
332.80 0.06339018
332.90 0.06336255
333.00 0.06333489
333.10 0.06330721
333.20 0.0632795
333.30 0.06325182
333.40 0.06322424
333.50 0.06319695
333.60 0.06317025
333.70 0.0631446
333.80 0.06312061
333.90 0.06309903
334.00 0.06308073
334.10 0.06306659
334.20 0.06305748
334.30 0.06305415
334.40 0.06305721
334.50 0.06306712
334.60 0.06308419
334.70 0.06310858
334.80 0.0631404
334.90 0.06317968
335.00 0.06322642
335.10 0.06328063
335.20 0.0633423
335.30 0.06341138
335.40 0.06348776
335.50 0.06357123
335.60 0.06366141
335.70 0.06375774
335.80 0.06385949
335.90 0.06396571
336.00 0.06407538
336.10 0.06418739
336.20 0.0643007
336.30 0.06441439
336.40 0.06452771
336.50 0.0646401
336.60 0.06475119
336.70 0.06486076
336.80 0.0649687
336.90 0.06507497
337.00 0.06517956
337.10 0.06528247
337.20 0.06538369
337.30 0.06548322
337.40 0.06558105
337.50 0.06567713
337.60 0.06577142
337.70 0.06586382
337.80 0.06595421
337.90 0.06604246
338.00 0.0661284
338.10 0.06621185
338.20 0.06629267
338.30 0.06637069
338.40 0.06644581
338.50 0.06651794
338.60 0.06658702
338.70 0.06665302
338.80 0.06671591
338.90 0.0667757
339.00 0.06683238
339.10 0.06688595
339.20 0.06693643
339.30 0.06698387
339.40 0.06702842
339.50 0.06707039
339.60 0.06711028
339.70 0.06714884
339.80 0.0671871
339.90 0.06722633
340.00 0.06726794
340.10 0.06731342
340.20 0.06736421
340.30 0.06742155
340.40 0.06748648
340.50 0.06755976
340.60 0.06764188
340.70 0.06773315
340.80 0.06783372
340.90 0.06794364
341.00 0.06806294
341.10 0.0681916
341.20 0.06832963
341.30 0.06847698
341.40 0.06863357
341.50 0.06879923
341.60 0.06897365
341.70 0.06915639
341.80 0.06934684
341.90 0.06954427
342.00 0.06974784
342.10 0.06995667
342.20 0.07016991
342.30 0.07038683
342.40 0.07060683
342.50 0.07082946
342.60 0.07105442
342.70 0.07128153
342.80 0.07151071
342.90 0.07174192
343.00 0.07197516
343.10 0.07221042
343.20 0.07244772
343.30 0.07268709
343.40 0.07292866
343.50 0.07317265
343.60 0.07341946
343.70 0.07366965
343.80 0.07392401
343.90 0.07418351
344.00 0.07444924
344.10 0.07472234
344.20 0.07500389
344.30 0.07529486
344.40 0.07559603
344.50 0.07590798
344.60 0.07623111
344.70 0.07656563
344.80 0.07691166
344.90 0.07726925
345.00 0.07763841
345.10 0.07801914
345.20 0.07841141
345.30 0.07881515
345.40 0.07923014
345.50 0.07965594
345.60 0.08009185
345.70 0.08053677
345.80 0.08098923
345.90 0.08144744
346.00 0.08190935
346.10 0.08237283
346.20 0.08283584
346.30 0.08329657
346.40 0.08375356
346.50 0.08420573
346.60 0.08465235
346.70 0.08509299
346.80 0.08552744
346.90 0.08595562
347.00 0.0863775
347.10 0.08679308
347.20 0.0872024
347.30 0.08760563
347.40 0.08800316
347.50 0.08839581
347.60 0.08878493
347.70 0.08917258
347.80 0.08956151
347.90 0.08995514
348.00 0.09035732
348.10 0.09077205
348.20 0.09120319
348.30 0.09165415
348.40 0.09212768
348.50 0.09262585
348.60 0.09315
348.70 0.09370094
348.80 0.09427909
348.90 0.0948846
349.00 0.09551751
349.10 0.09617782
349.20 0.09686546
349.30 0.0975801
349.40 0.09832097
349.50 0.09908647
349.60 0.09987394
349.70 0.1006794
349.80 0.1014974
349.90 0.1023212
350.00 0.1031434
350.10 0.1039561
350.20 0.1047517
350.30 0.1055236
350.40 0.1062664
350.50 0.106976
350.60 0.1076498
350.70 0.1082862
350.80 0.1088844
350.90 0.1094441
351.00 0.1099652
351.10 0.1104478
351.20 0.1108918
351.30 0.1112973
351.40 0.1116647
351.50 0.1119946
351.60 0.1122879
351.70 0.1125461
351.80 0.1127713
351.90 0.1129658
352.00 0.1131325
352.10 0.1132743
352.20 0.1133939
352.30 0.1134939
352.40 0.1135763
352.50 0.1136425
352.60 0.1136935
352.70 0.1137299
352.80 0.113752
352.90 0.1137599
353.00 0.1137537
353.10 0.1137333
353.20 0.1136988
353.30 0.1136502
353.40 0.1135878
353.50 0.113512
353.60 0.1134235
353.70 0.1133234
353.80 0.1132132
353.90 0.1130947
354.00 0.1129701
354.10 0.1128413
354.20 0.1127105
354.30 0.1125796
354.40 0.1124499
354.50 0.1123226
354.60 0.1121984
354.70 0.1120777
354.80 0.1119608
354.90 0.1118478
355.00 0.1117386
355.10 0.1116333
355.20 0.1115318
355.30 0.1114343
355.40 0.111341
355.50 0.1112521
355.60 0.1111685
355.70 0.1110909
355.80 0.1110207
355.90 0.1109595
356.00 0.110909
356.10 0.1108712
356.20 0.1108477
356.30 0.1108403
356.40 0.1108502
356.50 0.1108783
356.60 0.1109252
356.70 0.1109914
356.80 0.111077
356.90 0.1111822
357.00 0.1113068
357.10 0.111451
357.20 0.1116146
357.30 0.1117977
357.40 0.1119998
357.50 0.1122205
357.60 0.1124587
357.70 0.112713
357.80 0.1129814
357.90 0.1132615
358.00 0.1135506
358.10 0.1138457
358.20 0.1141442
358.30 0.1144436
358.40 0.1147419
358.50 0.1150376
358.60 0.1153296
358.70 0.1156171
358.80 0.1158995
358.90 0.1161765
359.00 0.1164476
359.10 0.1167125
359.20 0.116971
359.30 0.1172229
359.40 0.1174691
359.50 0.117711
359.60 0.1179517
359.70 0.1181956
359.80 0.1184488
359.90 0.118719
360.00 0.1190147
360.10 0.1193448
360.20 0.119718
360.30 0.1201418
360.40 0.1206225
360.50 0.1211645
360.60 0.121771
360.70 0.1224437
360.80 0.1231835
360.90 0.1239908
361.00 0.1248657
361.10 0.1258082
361.20 0.1268181
361.30 0.1278951
361.40 0.129038
361.50 0.1302447
361.60 0.1315115
361.70 0.132833
361.80 0.1342016
361.90 0.1356083
362.00 0.1370426
362.10 0.1384939
362.20 0.1399517
362.30 0.141407
362.40 0.1428522
362.50 0.1442819
362.60 0.1456924
362.70 0.1470815
362.80 0.1484482
362.90 0.149792
363.00 0.1511129
363.10 0.1524107
363.20 0.1536856
363.30 0.1549374
363.40 0.1561661
363.50 0.1573713
363.60 0.1585526
363.70 0.1597093
363.80 0.1608405
363.90 0.1619451
364.00 0.1630217
364.10 0.164069
364.20 0.1650858
364.30 0.1660709
364.40 0.1670233
364.50 0.1679424
364.60 0.1688278
364.70 0.1696791
364.80 0.1704963
364.90 0.1712792
365.00 0.1720279
365.10 0.1727423
365.20 0.1734225
365.30 0.1740683
365.40 0.1746796
365.50 0.175256
365.60 0.1757967
365.70 0.1763007
365.80 0.1767666
365.90 0.1771927
366.00 0.1775771
366.10 0.1779177
366.20 0.1782125
366.30 0.1784598
366.40 0.1786582
366.50 0.1788067
366.60 0.1789046
366.70 0.1789515
366.80 0.1789472
366.90 0.1788915
367.00 0.1787846
367.10 0.1786263
367.20 0.1784167
367.30 0.178156
367.40 0.1778448
367.50 0.1774841
367.60 0.1770755
367.70 0.1766218
367.80 0.1761263
367.90 0.1755935
368.00 0.1750282
368.10 0.1744355
368.20 0.1738203
368.30 0.1731869
368.40 0.172539
368.50 0.1718791
368.60 0.1712092
368.70 0.1705304
368.80 0.1698435
368.90 0.169149
369.00 0.1684474
369.10 0.1677389
369.20 0.1670241
369.30 0.1663034
369.40 0.1655773
369.50 0.164847
369.60 0.1641137
369.70 0.1633796
369.80 0.1626473
369.90 0.1619202
370.00 0.1612018
370.10 0.1604961
370.20 0.1598067
370.30 0.1591369
370.40 0.1584893
370.50 0.157866
370.60 0.1572681
370.70 0.1566965
370.80 0.1561516
370.90 0.1556335
371.00 0.1551422
371.10 0.1546778
371.20 0.1542403
371.30 0.1538297
371.40 0.1534461
371.50 0.1530899
371.60 0.1527614
371.70 0.1524614
371.80 0.1521907
371.90 0.1519505
372.00 0.151742
372.10 0.1515666
372.20 0.1514255
372.30 0.1513198
372.40 0.1512504
372.50 0.1512181
372.60 0.1512233
372.70 0.1512661
372.80 0.1513469
372.90 0.1514655
373.00 0.1516221
373.10 0.1518166
373.20 0.152049
373.30 0.1523192
373.40 0.1526267
373.50 0.1529709
373.60 0.1533506
373.70 0.1537639
373.80 0.1542083
373.90 0.1546809
374.00 0.1551782
374.10 0.1556966
374.20 0.1562326
374.30 0.1567833
374.40 0.1573461
374.50 0.1579193
374.60 0.1585016
374.70 0.1590924
374.80 0.1596911
374.90 0.1602978
375.00 0.1609123
375.10 0.1615347
375.20 0.162165
375.30 0.1628029
375.40 0.1634482
375.50 0.1641001
375.60 0.1647575
375.70 0.1654186
375.80 0.166081
375.90 0.1667419
376.00 0.1673977
376.10 0.1680452
376.20 0.1686809
376.30 0.169302
376.40 0.169906
376.50 0.1704911
376.60 0.1710563
376.70 0.1716008
376.80 0.1721242
376.90 0.1726264
377.00 0.1731074
377.10 0.1735672
377.20 0.1740059
377.30 0.1744236
377.40 0.1748209
377.50 0.1751989
377.60 0.1755595
377.70 0.1759056
377.80 0.176241
377.90 0.1765703
378.00 0.1768989
378.10 0.1772324
378.20 0.177576
378.30 0.1779346
378.40 0.1783118
378.50 0.1787105
378.60 0.1791327
378.70 0.1795794
378.80 0.1800512
378.90 0.1805483
379.00 0.1810707
379.10 0.1816185
379.20 0.1821916
379.30 0.1827895
379.40 0.1834113
379.50 0.1840546
379.60 0.184716
379.70 0.1853902
379.80 0.1860698
379.90 0.1867458
380.00 0.1874082
380.10 0.1880465
380.20 0.1886504
380.30 0.1892111
380.40 0.1897213
380.50 0.1901757
380.60 0.1905705
380.70 0.1909038
380.80 0.1911744
380.90 0.1913819
381.00 0.1915263
381.10 0.1916075
381.20 0.1916256
381.30 0.1915809
381.40 0.1914741
381.50 0.1913067
381.60 0.1910813
381.70 0.1908014
381.80 0.1904722
381.90 0.1901
382.00 0.1896917
382.10 0.1892546
382.20 0.1887958
382.30 0.1883216
382.40 0.1878369
382.50 0.1873456
382.60 0.1868501
382.70 0.1863518
382.80 0.1858515
382.90 0.1853496
383.00 0.184846
383.10 0.1843408
383.20 0.183834
383.30 0.1833259
383.40 0.182817
383.50 0.1823085
383.60 0.1818021
383.70 0.1813008
383.80 0.1808084
383.90 0.1803296
384.00 0.1798697
384.10 0.1794343
384.20 0.1790287
384.30 0.1786577
384.40 0.178325
384.50 0.1780335
384.60 0.1777851
384.70 0.1775809
384.80 0.1774214
384.90 0.177307
385.00 0.1772376
385.10 0.1772132
385.20 0.1772338
385.30 0.1772991
385.40 0.1774084
385.50 0.1775602
385.60 0.1777523
385.70 0.177981
385.80 0.1782416
385.90 0.178528
386.00 0.1788337
386.10 0.1791516
386.20 0.1794749
386.30 0.1797979
386.40 0.1801157
386.50 0.1804246
386.60 0.1807224
386.70 0.1810077
386.80 0.1812796
386.90 0.181538
387.00 0.1817828
387.10 0.182014
387.20 0.1822315
387.30 0.1824357
387.40 0.1826269
387.50 0.1828058
387.60 0.182974
387.70 0.1831335
387.80 0.1832871
387.90 0.1834382
388.00 0.1835908
388.10 0.183749
388.20 0.1839166
388.30 0.1840972
388.40 0.1842936
388.50 0.1845077
388.60 0.1847412
388.70 0.1849946
388.80 0.1852686
388.90 0.1855631
389.00 0.1858783
389.10 0.1862142
389.20 0.1865707
389.30 0.1869475
389.40 0.1873442
389.50 0.1877597
389.60 0.1881919
389.70 0.1886382
389.80 0.1890946
389.90 0.1895566
390.00 0.1900188
390.10 0.1904756
390.20 0.1909218
390.30 0.1913526
390.40 0.1917643
390.50 0.192154
390.60 0.1925198
390.70 0.1928607
390.80 0.193176
390.90 0.1934656
391.00 0.1937293
391.10 0.1939673
391.20 0.1941796
391.30 0.194367
391.40 0.1945315
391.50 0.1946766
391.60 0.1948089
391.70 0.1949377
391.80 0.195076
391.90 0.1952394
392.00 0.195446
392.10 0.1957143
392.20 0.1960623
392.30 0.1965057
392.40 0.1970574
392.50 0.1977268
392.60 0.1985204
392.70 0.1994418
392.80 0.200493
392.90 0.2016746
393.00 0.202987
393.10 0.20443
393.20 0.2060035
393.30 0.2077071
393.40 0.2095394
393.50 0.211498
393.60 0.2135786
393.70 0.2157747
393.80 0.2180778
393.90 0.2204772
394.00 0.2229607
394.10 0.2255159
394.20 0.2281308
394.30 0.2307945
394.40 0.2334986
394.50 0.2362366
394.60 0.2390041
394.70 0.2417988
394.80 0.2446193
394.90 0.2474652
395.00 0.2503362
395.10 0.2532325
395.20 0.2561539
395.30 0.2591006
395.40 0.2620722
395.50 0.2650687
395.60 0.2680896
395.70 0.2711344
395.80 0.2742024
395.90 0.2772925
396.00 0.2804037
396.10 0.2835349
396.20 0.2866851
396.30 0.2898532
396.40 0.2930386
396.50 0.2962407
396.60 0.2994591
396.70 0.3026936
396.80 0.305944
396.90 0.3092103
397.00 0.3124926
397.10 0.3157907
397.20 0.3191047
397.30 0.3224344
397.40 0.3257791
397.50 0.3291377
397.60 0.3325085
397.70 0.3358884
397.80 0.3392737
397.90 0.3426597
398.00 0.346041
398.10 0.3494121
398.20 0.3527675
398.30 0.3561027
398.40 0.3594136
398.50 0.3626976
398.60 0.3659527
398.70 0.3691777
398.80 0.3723722
398.90 0.3755359
399.00 0.3786688
399.10 0.3817708
399.20 0.384842
399.30 0.3878825
399.40 0.3908929
399.50 0.393874
399.60 0.3968273
399.70 0.399755
399.80 0.4026601
399.90 0.4055465
400.00 0.4084183
400.10 0.4112799
400.20 0.4141355
400.30 0.4169889
400.40 0.4198431
400.50 0.4227003
400.60 0.4255621
400.70 0.4284293
400.80 0.4313024
400.90 0.4341815
401.00 0.4370666
401.10 0.4399579
401.20 0.4428552
401.30 0.4457584
401.40 0.4486672
401.50 0.4515807
401.60 0.4544979
401.70 0.4574168
401.80 0.460335
401.90 0.4632493
402.00 0.4661565
402.10 0.4690528
402.20 0.4719347
402.30 0.4747993
402.40 0.4776441
402.50 0.4804671
402.60 0.4832672
402.70 0.4860437
402.80 0.4887962
402.90 0.4915246
403.00 0.4942287
403.10 0.4969087
403.20 0.4995643
403.30 0.5021949
403.40 0.5047989
403.50 0.5073729
403.60 0.5099114
403.70 0.5124059
403.80 0.5148451
403.90 0.5172152
404.00 0.5195002
404.10 0.5216838
404.20 0.5237502
404.30 0.5256854
404.40 0.5274781
404.50 0.5291199
404.60 0.5306052
404.70 0.5319308
404.80 0.5330949
404.90 0.5340969
405.00 0.5349366
405.10 0.5356141
405.20 0.5361296
405.30 0.5364843
405.40 0.5366811
405.50 0.536726
405.60 0.536629
405.70 0.5364049
405.80 0.5360739
405.90 0.5356611
406.00 0.5351944
406.10 0.5347033
406.20 0.5342159
406.30 0.5337571
406.40 0.5333472
406.50 0.5330009
406.60 0.5327284
406.70 0.5325355
406.80 0.5324252
406.90 0.5323986
407.00 0.5324561
407.10 0.5325975
407.20 0.5328229
407.30 0.5331317
407.40 0.5335224
407.50 0.5339923
407.60 0.5345368
407.70 0.5351489
407.80 0.5358192
407.90 0.5365361
408.00 0.5372864
408.10 0.5380564
408.20 0.5388331
408.30 0.5396048
408.40 0.5403622
408.50 0.5410981
408.60 0.541808
408.70 0.5424892
408.80 0.5431402
408.90 0.5437605
409.00 0.54435
409.10 0.5449087
409.20 0.5454366
409.30 0.5459341
409.40 0.546402
409.50 0.5468419
409.60 0.5472566
409.70 0.5476502
409.80 0.5480282
409.90 0.5483977
410.00 0.5487663
410.10 0.5491421
410.20 0.5495329
410.30 0.5499457
410.40 0.5503859
410.50 0.5508578
410.60 0.551364
410.70 0.5519062
410.80 0.5524852
410.90 0.5531013
411.00 0.5537547
411.10 0.5544453
411.20 0.5551729
411.30 0.5559369
411.40 0.5567356
411.50 0.5575655
411.60 0.5584209
411.70 0.5592932
411.80 0.5601706
411.90 0.5610389
412.00 0.5618816
412.10 0.5626819
412.20 0.5634235
412.30 0.5640921
412.40 0.5646758
412.50 0.5651661
412.60 0.5655573
412.70 0.5658459
412.80 0.5660302
412.90 0.5661095
413.00 0.5660837
413.10 0.5659527
413.20 0.5657168
413.30 0.5653765
413.40 0.5649334
413.50 0.5643908
413.60 0.5637537
413.70 0.5630304
413.80 0.5622315
413.90 0.5613703
414.00 0.5604618
414.10 0.5595217
414.20 0.558565
414.30 0.5576049
414.40 0.5566523
414.50 0.5557152
414.60 0.5547987
414.70 0.5539061
414.80 0.553039
414.90 0.552198
415.00 0.5513832
415.10 0.5505947
415.20 0.5498322
415.30 0.549095
415.40 0.548381
415.50 0.5476865
415.60 0.5470048
415.70 0.5463259
415.80 0.5456365
415.90 0.54492
416.00 0.5441578
416.10 0.5433304
416.20 0.5424191
416.30 0.5414075
416.40 0.5402821
416.50 0.5390329
416.60 0.5376535
416.70 0.5361399
416.80 0.53449
416.90 0.5327032
417.00 0.5307792
417.10 0.5287181
417.20 0.5265201
417.30 0.5241865
417.40 0.5217203
417.50 0.5191276
417.60 0.5164188
417.70 0.5136095
417.80 0.5107205
417.90 0.5077777
418.00 0.5048104
418.10 0.501849
418.20 0.4989226
418.30 0.4960572
418.40 0.4932737
418.50 0.4905876
418.60 0.4880093
418.70 0.4855448
418.80 0.4831974
418.90 0.4809681
419.00 0.4788572
419.10 0.4768649
419.20 0.4749908
419.30 0.4732347
419.40 0.4715952
419.50 0.4700698
419.60 0.4686545
419.70 0.467343
419.80 0.4661268
419.90 0.4649957
420.00 0.463938
420.10 0.4629413
420.20 0.461994
420.30 0.4610857
420.40 0.460208
420.50 0.4593547
420.60 0.4585216
420.70 0.4577064
420.80 0.4569076
420.90 0.456125
421.00 0.4553583
421.10 0.4546075
421.20 0.4538726
421.30 0.4531536
421.40 0.4524502
421.50 0.451762
421.60 0.4510881
421.70 0.4504275
421.80 0.4497787
421.90 0.4491396
422.00 0.4485082
422.10 0.4478822
422.20 0.4472595
422.30 0.4466381
422.40 0.4460166
422.50 0.4453938
422.60 0.4447689
422.70 0.4441415
422.80 0.4435113
422.90 0.4428783
423.00 0.4422424
423.10 0.4416037
423.20 0.4409622
423.30 0.4403185
423.40 0.4396736
423.50 0.4390301
423.60 0.438392
423.70 0.4377654
423.80 0.4371583
423.90 0.4365811
424.00 0.436045
424.10 0.4355621
424.20 0.4351437
424.30 0.4348
424.40 0.4345392
424.50 0.4343673
424.60 0.4342884
424.70 0.4343048
424.80 0.4344179
424.90 0.4346281
425.00 0.4349354
425.10 0.4353399
425.20 0.4358417
425.30 0.4364416
425.40 0.4371411
425.50 0.4379436
425.60 0.4388548
425.70 0.439883
425.80 0.4410398
425.90 0.4423392
426.00 0.443797
426.10 0.44543
426.20 0.4472539
426.30 0.4492829
426.40 0.4515284
426.50 0.4539988
426.60 0.4566998
426.70 0.4596346
426.80 0.4628051
426.90 0.4662118
427.00 0.4698549
427.10 0.4737344
427.20 0.47785
427.30 0.4822002
427.40 0.4867815
427.50 0.4915866
427.60 0.4966036
427.70 0.5018143
427.80 0.5071942
427.90 0.5127132
428.00 0.5183371
428.10 0.5240304
428.20 0.529759
428.30 0.5354927
428.40 0.541207
428.50 0.5468838
428.60 0.5525111
428.70 0.5580816
428.80 0.5635918
428.90 0.5690403
429.00 0.5744267
429.10 0.579751
429.20 0.5850134
429.30 0.590214
429.40 0.5953536
429.50 0.6004337
429.60 0.6054567
429.70 0.6104263
429.80 0.6153474
429.90 0.6202262
430.00 0.6250694
430.10 0.6298845
430.20 0.6346781
430.30 0.6394565
430.40 0.6442246
430.50 0.648986
430.60 0.6537433
430.70 0.6584978
430.80 0.6632503
430.90 0.6680011
431.00 0.6727502
431.10 0.6774976
431.20 0.6822433
431.30 0.6869868
431.40 0.691727
431.50 0.6964619
431.60 0.7011878
431.70 0.7058992
431.80 0.710589
431.90 0.7152482
432.00 0.7198665
432.10 0.7244333
432.20 0.7289386
432.30 0.7333733
432.40 0.7377301
432.50 0.7420036
432.60 0.7461902
432.70 0.7502878
432.80 0.7542953
432.90 0.7582124
433.00 0.7620388
433.10 0.7657746
433.20 0.7694199
433.30 0.772975
433.40 0.7764407
433.50 0.7798189
433.60 0.7831123
433.70 0.7863252
433.80 0.7894635
433.90 0.7925345
434.00 0.7955461
434.10 0.7985069
434.20 0.801425
434.30 0.8043075
434.40 0.8071604
434.50 0.8099879
434.60 0.8127929
434.70 0.8155772
434.80 0.8183415
434.90 0.8210862
435.00 0.8238113
435.10 0.826517
435.20 0.829203
435.30 0.831869
435.40 0.8345138
435.50 0.837135
435.60 0.839729
435.70 0.8422898
435.80 0.8448099
435.90 0.8472795
436.00 0.8496878
436.10 0.8520237
436.20 0.8542761
436.30 0.8564356
436.40 0.8584944
436.50 0.8604467
436.60 0.8622887
436.70 0.8640182
436.80 0.8656339
436.90 0.8671354
437.00 0.8685227
437.10 0.8697957
437.20 0.8709546
437.30 0.8719998
437.40 0.8729326
437.50 0.8737555
437.60 0.8744728
437.70 0.8750909
437.80 0.8756183
437.90 0.8760656
438.00 0.876445
438.10 0.8767688
438.20 0.8770491
438.30 0.8772964
438.40 0.8775195
438.50 0.8777246
438.60 0.8779161
438.70 0.8780963
438.80 0.8782667
438.90 0.8784276
439.00 0.8785793
439.10 0.8787217
439.20 0.8788548
439.30 0.8789789
439.40 0.8790946
439.50 0.8792031
439.60 0.8793063
439.70 0.8794072
439.80 0.8795098
439.90 0.879619
440.00 0.8797405
440.10 0.87988
440.20 0.8800431
440.30 0.8802347
440.40 0.8804589
440.50 0.8807186
440.60 0.8810158
440.70 0.8813516
440.80 0.8817268
440.90 0.8821413
441.00 0.8825955
441.10 0.8830891
441.20 0.8836224
441.30 0.8841957
441.40 0.8848098
441.50 0.8854667
441.60 0.8861693
441.70 0.8869223
441.80 0.8877319
441.90 0.8886057
442.00 0.8895523
442.10 0.8905808
442.20 0.8916999
442.30 0.8929171
442.40 0.8942388
442.50 0.8956694
442.60 0.8972121
442.70 0.8988686
442.80 0.9006399
442.90 0.9025263
443.00 0.904528
443.10 0.9066448
443.20 0.9088769
443.30 0.9112241
443.40 0.9136862
443.50 0.9162629
443.60 0.9189535
443.70 0.9217571
443.80 0.9246725
443.90 0.927698
444.00 0.9308319
444.10 0.9340724
444.20 0.9374177
444.30 0.9408662
444.40 0.9444166
444.50 0.9480681
444.60 0.9518199
444.70 0.9556717
444.80 0.9596234
444.90 0.9636749
445.00 0.9678261
445.10 0.972077
445.20 0.9764274
445.30 0.9808759
445.40 0.9854197
445.50 0.9900523
445.60 0.9947634
445.70 0.9995374
445.80 1.004353
445.90 1.009184
446.00 1.014001
446.10 1.018774
446.20 1.023472
446.30 1.028071
446.40 1.032547
446.50 1.036887
446.60 1.041079
446.70 1.045117
446.80 1.048999
446.90 1.052723
447.00 1.056288
447.10 1.059695
447.20 1.062943
447.30 1.066035
447.40 1.068971
447.50 1.071757
447.60 1.074401
447.70 1.076913
447.80 1.07931
447.90 1.081611
448.00 1.083837
448.10 1.086012
448.20 1.088156
448.30 1.09029
448.40 1.092428
448.50 1.094583
448.60 1.096762
448.70 1.098969
448.80 1.101208
448.90 1.103478
449.00 1.105781
449.10 1.108115
449.20 1.110482
449.30 1.11288
449.40 1.11531
449.50 1.117772
449.60 1.120264
449.70 1.122785
449.80 1.125335
449.90 1.127911
450.00 1.130511
450.10 1.133134
450.20 1.135776
450.30 1.138437
450.40 1.141115
450.50 1.143809
450.60 1.146517
450.70 1.14924
450.80 1.151978
450.90 1.15473
451.00 1.157497
451.10 1.160277
451.20 1.163072
451.30 1.165881
451.40 1.168702
451.50 1.171533
451.60 1.17437
451.70 1.177206
451.80 1.180033
451.90 1.182839
452.00 1.185614
452.10 1.188344
452.20 1.191017
452.30 1.193623
452.40 1.196153
452.50 1.1986
452.60 1.200961
452.70 1.203232
452.80 1.205413
452.90 1.207504
453.00 1.209503
453.10 1.211411
453.20 1.213228
453.30 1.214954
453.40 1.216589
453.50 1.218135
453.60 1.219592
453.70 1.220962
453.80 1.222246
453.90 1.223449
454.00 1.224573
454.10 1.225622
454.20 1.226598
454.30 1.227505
454.40 1.228344
454.50 1.229118
454.60 1.229827
454.70 1.230473
454.80 1.231055
454.90 1.231573
455.00 1.232029
455.10 1.232421
455.20 1.23275
455.30 1.233016
455.40 1.233223
455.50 1.233375
455.60 1.233478
455.70 1.233544
455.80 1.233589
455.90 1.233632
456.00 1.233692
456.10 1.233794
456.20 1.233957
456.30 1.2342
456.40 1.23454
456.50 1.234986
456.60 1.235547
456.70 1.236227
456.80 1.237028
456.90 1.237952
457.00 1.238997
457.10 1.240166
457.20 1.241456
457.30 1.242867
457.40 1.244397
457.50 1.246039
457.60 1.247786
457.70 1.249625
457.80 1.251536
457.90 1.253498
458.00 1.255485
458.10 1.257473
458.20 1.259435
458.30 1.261349
458.40 1.263198
458.50 1.264968
458.60 1.26665
458.70 1.26824
458.80 1.269734
458.90 1.271131
459.00 1.272431
459.10 1.273635
459.20 1.274741
459.30 1.275752
459.40 1.276667
459.50 1.277488
459.60 1.278219
459.70 1.278864
459.80 1.27943
459.90 1.279925
460.00 1.280358
460.10 1.280738
460.20 1.281074
460.30 1.281374
460.40 1.281645
460.50 1.281892
460.60 1.282117
460.70 1.282323
460.80 1.28251
460.90 1.282679
461.00 1.28283
461.10 1.282963
461.20 1.283078
461.30 1.283176
461.40 1.283256
461.50 1.28332
461.60 1.28337
461.70 1.28341
461.80 1.283443
461.90 1.283475
462.00 1.283512
462.10 1.283559
462.20 1.283623
462.30 1.283709
462.40 1.283822
462.50 1.283963
462.60 1.284135
462.70 1.284341
462.80 1.284579
462.90 1.28485
463.00 1.285156
463.10 1.285494
463.20 1.285866
463.30 1.286271
463.40 1.286707
463.50 1.287172
463.60 1.287662
463.70 1.288169
463.80 1.288685
463.90 1.289199
464.00 1.289698
464.10 1.290169
464.20 1.290599
464.30 1.290977
464.40 1.291295
464.50 1.291545
464.60 1.291724
464.70 1.291828
464.80 1.291856
464.90 1.291808
465.00 1.291684
465.10 1.291483
465.20 1.291206
465.30 1.290853
465.40 1.290425
465.50 1.289923
465.60 1.289352
465.70 1.288714
465.80 1.288017
465.90 1.287268
466.00 1.286475
466.10 1.285648
466.20 1.284795
466.30 1.283923
466.40 1.283039
466.50 1.282147
466.60 1.28125
466.70 1.280351
466.80 1.279449
466.90 1.278545
467.00 1.27764
467.10 1.276733
467.20 1.275824
467.30 1.274913
467.40 1.274001
467.50 1.273088
467.60 1.272173
467.70 1.271256
467.80 1.270338
467.90 1.269419
468.00 1.2685
468.10 1.26758
468.20 1.266659
468.30 1.265739
468.40 1.264819
468.50 1.263898
468.60 1.262978
468.70 1.262059
468.80 1.261139
468.90 1.260221
469.00 1.259302
469.10 1.258384
469.20 1.257466
469.30 1.256547
469.40 1.255625
469.50 1.254696
469.60 1.253752
469.70 1.252782
469.80 1.251771
469.90 1.2507
470.00 1.249547
470.10 1.248292
470.20 1.246912
470.30 1.245389
470.40 1.243708
470.50 1.241857
470.60 1.23983
470.70 1.237621
470.80 1.235229
470.90 1.232652
471.00 1.229891
471.10 1.226944
471.20 1.223814
471.30 1.2205
471.40 1.217007
471.50 1.21334
471.60 1.209509
471.70 1.205532
471.80 1.20143
471.90 1.197228
472.00 1.192958
472.10 1.18865
472.20 1.184335
472.30 1.180039
472.40 1.175784
472.50 1.171586
472.60 1.167455
472.70 1.163398
472.80 1.159418
472.90 1.155516
473.00 1.151692
473.10 1.147947
473.20 1.14428
473.30 1.140692
473.40 1.137183
473.50 1.133755
473.60 1.130408
473.70 1.127146
473.80 1.123971
473.90 1.120889
474.00 1.117904
474.10 1.11502
474.20 1.112244
474.30 1.109578
474.40 1.107026
474.50 1.104592
474.60 1.102276
474.70 1.10008
474.80 1.098004
474.90 1.096048
475.00 1.094213
475.10 1.092498
475.20 1.090903
475.30 1.089428
475.40 1.088073
475.50 1.086834
475.60 1.08571
475.70 1.084697
475.80 1.083787
475.90 1.082975
476.00 1.082251
476.10 1.081608
476.20 1.081037
476.30 1.080531
476.40 1.080083
476.50 1.079691
476.60 1.07935
476.70 1.079059
476.80 1.078817
476.90 1.078624
477.00 1.07848
477.10 1.078385
477.20 1.078338
477.30 1.07834
477.40 1.078392
477.50 1.078494
477.60 1.078647
477.70 1.078854
477.80 1.079118
477.90 1.079441
478.00 1.079829
478.10 1.080284
478.20 1.080812
478.30 1.081415
478.40 1.082096
478.50 1.082857
478.60 1.0837
478.70 1.084626
478.80 1.085635
478.90 1.086727
479.00 1.087902
479.10 1.089161
479.20 1.090502
479.30 1.091928
479.40 1.093437
479.50 1.095031
479.60 1.096712
479.70 1.098482
479.80 1.100346
479.90 1.102307
480.00 1.104372
480.10 1.106544
480.20 1.108829
480.30 1.111232
480.40 1.113756
480.50 1.116404
480.60 1.119178
480.70 1.122078
480.80 1.125106
480.90 1.128261
481.00 1.131544
481.10 1.134955
481.20 1.138493
481.30 1.142158
481.40 1.145947
481.50 1.149859
481.60 1.153886
481.70 1.15802
481.80 1.162249
481.90 1.166559
482.00 1.170934
482.10 1.175356
482.20 1.179809
482.30 1.184278
482.40 1.188752
482.50 1.193221
482.60 1.197681
482.70 1.202128
482.80 1.20656
482.90 1.210976
483.00 1.215376
483.10 1.21976
483.20 1.224128
483.30 1.22848
483.40 1.232815
483.50 1.237131
483.60 1.241426
483.70 1.245696
483.80 1.249936
483.90 1.254139
484.00 1.258297
484.10 1.262403
484.20 1.26645
484.30 1.270431
484.40 1.274341
484.50 1.278175
484.60 1.281932
484.70 1.28561
484.80 1.289207
484.90 1.292724
485.00 1.29616
485.10 1.299516
485.20 1.302791
485.30 1.305986
485.40 1.309101
485.50 1.312136
485.60 1.315092
485.70 1.31797
485.80 1.320772
485.90 1.3235
486.00 1.326156
486.10 1.328741
486.20 1.331259
486.30 1.33371
486.40 1.336098
486.50 1.338422
486.60 1.340683
486.70 1.342883
486.80 1.34502
486.90 1.347096
487.00 1.34911
487.10 1.351063
487.20 1.352954
487.30 1.354782
487.40 1.356548
487.50 1.358249
487.60 1.359883
487.70 1.361445
487.80 1.36293
487.90 1.364331
488.00 1.36564
488.10 1.366849
488.20 1.36795
488.30 1.368936
488.40 1.369802
488.50 1.370543
488.60 1.371156
488.70 1.371641
488.80 1.371995
488.90 1.37222
489.00 1.372314
489.10 1.372277
489.20 1.372111
489.30 1.371814
489.40 1.371388
489.50 1.370833
489.60 1.370151
489.70 1.369345
489.80 1.368418
489.90 1.367373
490.00 1.366216
490.10 1.364952
490.20 1.363584
490.30 1.362118
490.40 1.360556
490.50 1.358901
490.60 1.357155
490.70 1.355318
490.80 1.353392
490.90 1.351375
491.00 1.349269
491.10 1.347074
491.20 1.344788
491.30 1.342413
491.40 1.339949
491.50 1.337396
491.60 1.334757
491.70 1.332032
491.80 1.329225
491.90 1.326339
492.00 1.323377
492.10 1.320344
492.20 1.317242
492.30 1.314076
492.40 1.310848
492.50 1.307559
492.60 1.304212
492.70 1.300807
492.80 1.297344
492.90 1.293823
493.00 1.290245
493.10 1.28661
493.20 1.282917
493.30 1.279167
493.40 1.275359
493.50 1.271493
493.60 1.267569
493.70 1.263587
493.80 1.259547
493.90 1.255447
494.00 1.251287
494.10 1.247067
494.20 1.242785
494.30 1.238442
494.40 1.234037
494.50 1.229569
494.60 1.225039
494.70 1.220446
494.80 1.215789
494.90 1.21107
495.00 1.206288
495.10 1.201444
495.20 1.196536
495.30 1.191566
495.40 1.186536
495.50 1.181449
495.60 1.176311
495.70 1.171131
495.80 1.16592
495.90 1.160693
496.00 1.155467
496.10 1.150259
496.20 1.145085
496.30 1.13996
496.40 1.134896
496.50 1.129901
496.60 1.124981
496.70 1.12014
496.80 1.11538
496.90 1.110701
497.00 1.106103
497.10 1.101586
497.20 1.097151
497.30 1.092797
497.40 1.088524
497.50 1.084331
497.60 1.080216
497.70 1.07618
497.80 1.072218
497.90 1.068328
498.00 1.064508
498.10 1.060753
498.20 1.05706
498.30 1.053427
498.40 1.049852
498.50 1.046332
498.60 1.042866
498.70 1.039455
498.80 1.036096
498.90 1.032791
499.00 1.02954
499.10 1.026342
499.20 1.023197
499.30 1.020105
499.40 1.017067
499.50 1.014083
499.60 1.011153
499.70 1.008278
499.80 1.005461
499.90 1.002701
500.00 1
500.10 0.9973607
500.20 0.9947842
500.30 0.9922719
500.40 0.9898251
500.50 0.9874445
500.60 0.9851307
500.70 0.9828841
500.80 0.9807048
500.90 0.9785929
501.00 0.9765485
501.10 0.9745715
501.20 0.9726618
501.30 0.9708193
501.40 0.9690432
501.50 0.9673326
501.60 0.9656852
501.70 0.9640981
501.80 0.9625673
501.90 0.9610876
502.00 0.9596533
502.10 0.9582586
502.20 0.9568978
502.30 0.9555657
502.40 0.9542583
502.50 0.9529726
502.60 0.9517066
502.70 0.9504591
502.80 0.9492294
502.90 0.9480174
503.00 0.9468229
503.10 0.945646
503.20 0.9444868
503.30 0.9433455
503.40 0.9422228
503.50 0.9411202
503.60 0.94004
503.70 0.9389859
503.80 0.9379627
503.90 0.9369764
504.00 0.9360337
504.10 0.9351416
504.20 0.9343071
504.30 0.9335359
504.40 0.9328331
504.50 0.9322021
504.60 0.9316453
504.70 0.9311643
504.80 0.9307597
504.90 0.9304317
505.00 0.9301805
505.10 0.930006
505.20 0.9299082
505.30 0.9298862
505.40 0.9299385
505.50 0.9300616
505.60 0.93025
505.70 0.9304951
505.80 0.9307854
505.90 0.9311067
506.00 0.9314431
506.10 0.9317779
506.20 0.932095
506.30 0.9323802
506.40 0.9326222
506.50 0.9328124
506.60 0.932945
506.70 0.9330169
506.80 0.9330262
506.90 0.9329724
507.00 0.9328551
507.10 0.9326746
507.20 0.9324308
507.30 0.9321239
507.40 0.9317546
507.50 0.9313242
507.60 0.9308347
507.70 0.9302894
507.80 0.9296925
507.90 0.9290494
508.00 0.928366
508.10 0.9276486
508.20 0.9269032
508.30 0.9261351
508.40 0.9253485
508.50 0.9245466
508.60 0.9237316
508.70 0.9229048
508.80 0.9220667
508.90 0.9212176
509.00 0.9203576
509.10 0.9194866
509.20 0.9186047
509.30 0.9177118
509.40 0.9168079
509.50 0.9158929
509.60 0.9149664
509.70 0.9140283
509.80 0.913078
509.90 0.912115
510.00 0.9111387
510.10 0.9101485
510.20 0.9091438
510.30 0.9081239
510.40 0.9070886
510.50 0.9060374
510.60 0.9049701
510.70 0.9038866
510.80 0.9027869
510.90 0.9016708
511.00 0.9005385
511.10 0.8993899
511.20 0.8982251
511.30 0.8970445
511.40 0.8958489
511.50 0.8946402
511.60 0.8934215
511.70 0.8921974
511.80 0.8909741
511.90 0.8897593
512.00 0.8885619
512.10 0.8873907
512.20 0.8862545
512.30 0.885161
512.40 0.8841164
512.50 0.8831255
512.60 0.8821912
512.70 0.8813153
512.80 0.8804988
512.90 0.8797421
513.00 0.8790452
513.10 0.8784082
513.20 0.877831
513.30 0.8773136
513.40 0.876856
513.50 0.876458
513.60 0.8761197
513.70 0.8758407
513.80 0.8756208
513.90 0.8754597
514.00 0.8753569
514.10 0.8753122
514.20 0.875325
514.30 0.8753952
514.40 0.8755224
514.50 0.8757064
514.60 0.8759471
514.70 0.8762444
514.80 0.8765983
514.90 0.8770087
515.00 0.8774757
515.10 0.8779992
515.20 0.8785795
515.30 0.8792177
515.40 0.8799162
515.50 0.8806803
515.60 0.8815186
515.70 0.8824442
515.80 0.8834746
515.90 0.8846317
516.00 0.8859399
516.10 0.8874248
516.20 0.889111
516.30 0.8910202
516.40 0.8931699
516.50 0.8955733
516.60 0.898239
516.70 0.9011721
516.80 0.9043753
516.90 0.9078496
517.00 0.9115952
517.10 0.915612
517.20 0.9199
517.30 0.9244584
517.40 0.929285
517.50 0.934376
517.60 0.9397247
517.70 0.9453208
517.80 0.9511508
517.90 0.9571979
518.00 0.963443
518.10 0.9698664
518.20 0.9764491
518.30 0.9831741
518.40 0.990028
518.50 0.9970005
518.60 1.004085
518.70 1.011277
518.80 1.018576
518.90 1.025979
519.00 1.033488
519.10 1.041102
519.20 1.04882
519.30 1.056642
519.40 1.064565
519.50 1.072584
519.60 1.08069
519.70 1.088868
519.80 1.097103
519.90 1.105369
520.00 1.113644
520.10 1.121899
520.20 1.13011
520.30 1.138255
520.40 1.146315
520.50 1.154277
520.60 1.162131
520.70 1.169873
520.80 1.1775
520.90 1.185011
521.00 1.192405
521.10 1.199683
521.20 1.206845
521.30 1.213892
521.40 1.220828
521.50 1.227658
521.60 1.234395
521.70 1.241054
521.80 1.247658
521.90 1.254235
522.00 1.260815
522.10 1.267431
522.20 1.274114
522.30 1.280892
522.40 1.287787
522.50 1.294815
522.60 1.301988
522.70 1.309313
522.80 1.316792
522.90 1.324426
523.00 1.332216
523.10 1.340163
523.20 1.348265
523.30 1.356523
523.40 1.364934
523.50 1.373494
523.60 1.382197
523.70 1.391035
523.80 1.399993
523.90 1.409056
524.00 1.418208
524.10 1.427428
524.20 1.436699
524.30 1.446007
524.40 1.455337
524.50 1.46468
524.60 1.47403
524.70 1.483384
524.80 1.492739
524.90 1.502095
525.00 1.511452
525.10 1.520809
525.20 1.530167
525.30 1.539523
525.40 1.548872
525.50 1.558205
525.60 1.567506
525.70 1.576751
525.80 1.585908
525.90 1.594936
526.00 1.60379
526.10 1.612424
526.20 1.620791
526.30 1.628851
526.40 1.636573
526.50 1.643933
526.60 1.650913
526.70 1.657505
526.80 1.663704
526.90 1.669508
527.00 1.674917
527.10 1.67993
527.20 1.684549
527.30 1.688774
527.40 1.692611
527.50 1.69607
527.60 1.699166
527.70 1.701925
527.80 1.704378
527.90 1.706567
528.00 1.708537
528.10 1.710336
528.20 1.712011
528.30 1.713601
528.40 1.715139
528.50 1.716651
528.60 1.718152
528.70 1.719652
528.80 1.721155
528.90 1.722664
529.00 1.724179
529.10 1.7257
529.20 1.727227
529.30 1.728761
529.40 1.730303
529.50 1.731856
529.60 1.733426
529.70 1.735021
529.80 1.73665
529.90 1.738328
530.00 1.740068
530.10 1.741886
530.20 1.743797
530.30 1.745813
530.40 1.747946
530.50 1.750203
530.60 1.752589
530.70 1.755107
530.80 1.757759
530.90 1.760546
531.00 1.763468
531.10 1.766524
531.20 1.769714
531.30 1.773037
531.40 1.776488
531.50 1.78006
531.60 1.783737
531.70 1.787499
531.80 1.791317
531.90 1.795157
532.00 1.798977
532.10 1.802737
532.20 1.806397
532.30 1.809921
532.40 1.813281
532.50 1.816457
532.60 1.819432
532.70 1.822201
532.80 1.824757
532.90 1.8271
533.00 1.829229
533.10 1.831144
533.20 1.832845
533.30 1.834333
533.40 1.83561
533.50 1.836679
533.60 1.837545
533.70 1.838218
533.80 1.838707
533.90 1.839029
534.00 1.839197
534.10 1.839229
534.20 1.839142
534.30 1.838947
534.40 1.838659
534.50 1.838283
534.60 1.837827
534.70 1.837294
534.80 1.836685
534.90 1.836001
535.00 1.835242
535.10 1.834408
535.20 1.833499
535.30 1.832517
535.40 1.831463
535.50 1.830343
535.60 1.829165
535.70 1.827941
535.80 1.826688
535.90 1.825427
536.00 1.824181
536.10 1.822974
536.20 1.82183
536.30 1.82077
536.40 1.81981
536.50 1.818962
536.60 1.818235
536.70 1.817633
536.80 1.81716
536.90 1.816816
537.00 1.816601
537.10 1.816516
537.20 1.816559
537.30 1.81673
537.40 1.817025
537.50 1.817435
537.60 1.817947
537.70 1.818542
537.80 1.819193
537.90 1.819865
538.00 1.820523
538.10 1.821126
538.20 1.821637
538.30 1.822023
538.40 1.822258
538.50 1.822321
538.60 1.822198
538.70 1.821883
538.80 1.821371
538.90 1.82066
539.00 1.81975
539.10 1.818642
539.20 1.817335
539.30 1.815831
539.40 1.814133
539.50 1.812247
539.60 1.810185
539.70 1.807963
539.80 1.805602
539.90 1.803131
540.00 1.80058
540.10 1.797981
540.20 1.795365
540.30 1.79276
540.40 1.790187
540.50 1.787664
540.60 1.7852
540.70 1.782803
540.80 1.780476
540.90 1.778219
541.00 1.776034
541.10 1.77392
541.20 1.771877
541.30 1.769905
541.40 1.768004
541.50 1.766172
541.60 1.764409
541.70 1.762711
541.80 1.761075
541.90 1.759498
542.00 1.757975
542.10 1.756502
542.20 1.755073
542.30 1.753685
542.40 1.752335
542.50 1.751021
542.60 1.74974
542.70 1.748492
542.80 1.747277
542.90 1.746093
543.00 1.744942
543.10 1.743823
543.20 1.742736
543.30 1.741681
543.40 1.740657
543.50 1.739662
543.60 1.738693
543.70 1.737746
543.80 1.736815
543.90 1.735893
544.00 1.734971
544.10 1.734041
544.20 1.733095
544.30 1.732125
544.40 1.731126
544.50 1.730093
544.60 1.729023
544.70 1.727914
544.80 1.726767
544.90 1.725579
545.00 1.724352
545.10 1.723085
545.20 1.721779
545.30 1.720433
545.40 1.719052
545.50 1.717638
545.60 1.7162
545.70 1.714749
545.80 1.7133
545.90 1.711872
546.00 1.710486
546.10 1.709165
546.20 1.707929
546.30 1.706798
546.40 1.705787
546.50 1.704907
546.60 1.704165
546.70 1.703567
546.80 1.703114
546.90 1.702808
547.00 1.702648
547.10 1.702634
547.20 1.702767
547.30 1.703046
547.40 1.703472
547.50 1.704044
547.60 1.704762
547.70 1.705627
547.80 1.706637
547.90 1.707793
548.00 1.709094
548.10 1.71054
548.20 1.712131
548.30 1.713867
548.40 1.715746
548.50 1.71777
548.60 1.719938
548.70 1.722249
548.80 1.724705
548.90 1.727304
549.00 1.730047
549.10 1.732934
549.20 1.735964
549.30 1.739138
549.40 1.742451
549.50 1.745901
549.60 1.749479
549.70 1.753173
549.80 1.756968
549.90 1.760845
550.00 1.721276
550.10 1.723689
550.20 1.726358
550.30 1.729284
550.40 1.732466
550.50 1.735902
550.60 1.739588
550.70 1.743518
550.80 1.747687
550.90 1.752084
551.00 1.7567
551.10 1.761525
551.20 1.766549
551.30 1.771762
551.40 1.777158
551.50 1.782732
551.60 1.788479
551.70 1.794398
551.80 1.800488
551.90 1.806748
552.00 1.813178
552.10 1.819779
552.20 1.826549
552.30 1.833487
552.40 1.840586
552.50 1.847835
552.60 1.855215
552.70 1.862695
552.80 1.870236
552.90 1.877789
553.00 1.885298
553.10 1.892705
553.20 1.899956
553.30 1.907
553.40 1.913798
553.50 1.920321
553.60 1.926549
553.70 1.93247
553.80 1.938078
553.90 1.943371
554.00 1.948349
554.10 1.953012
554.20 1.957359
554.30 1.96139
554.40 1.965107
554.50 1.968511
554.60 1.971603
554.70 1.974387
554.80 1.976867
554.90 1.979047
555.00 1.980934
555.10 1.982533
555.20 1.98385
555.30 1.98489
555.40 1.985656
555.50 1.986153
555.60 1.986382
555.70 1.986345
555.80 1.986041
555.90 1.985471
556.00 1.984635
556.10 1.983534
556.20 1.982166
556.30 1.980534
556.40 1.97864
556.50 1.976488
556.60 1.974086
556.70 1.971447
556.80 1.968585
556.90 1.965521
557.00 1.962278
557.10 1.958878
557.20 1.955344
557.30 1.951696
557.40 1.947949
557.50 1.944116
557.60 1.940205
557.70 1.93622
557.80 1.932163
557.90 1.928036
558.00 1.923838
558.10 1.91957
558.20 1.915232
558.30 1.910827
558.40 1.90636
558.50 1.901843
558.60 1.897296
558.70 1.892747
558.80 1.888238
558.90 1.883816
559.00 1.879537
559.10 1.875458
559.20 1.871636
559.30 1.868119
559.40 1.864947
559.50 1.862149
559.60 1.859745
559.70 1.857747
559.80 1.856159
559.90 1.854985
560.00 1.854226
560.10 1.85388
560.20 1.853949
560.30 1.85443
560.40 1.855323
560.50 1.856624
560.60 1.858327
560.70 1.860423
560.80 1.862899
560.90 1.86574
561.00 1.868929
561.10 1.872449
561.20 1.876282
561.30 1.880414
561.40 1.884831
561.50 1.889525
561.60 1.89449
561.70 1.899722
561.80 1.905219
561.90 1.910981
562.00 1.917007
562.10 1.923298
562.20 1.929853
562.30 1.936669
562.40 1.94374
562.50 1.951053
562.60 1.958586
562.70 1.966306
562.80 1.97417
562.90 1.982122
563.00 1.990102
563.10 1.998045
563.20 2.005889
563.30 2.013581
563.40 2.021075
563.50 2.02834
563.60 2.035353
563.70 2.042101
563.80 2.048579
563.90 2.054783
564.00 2.060713
564.10 2.066369
564.20 2.071751
564.30 2.07686
564.40 2.081699
564.50 2.086273
564.60 2.09059
564.70 2.094663
564.80 2.09851
564.90 2.102152
565.00 2.105614
565.10 2.108921
565.20 2.112097
565.30 2.115163
565.40 2.118138
565.50 2.121034
565.60 2.123859
565.70 2.126619
565.80 2.129316
565.90 2.131952
566.00 2.134526
566.10 2.137039
566.20 2.13949
566.30 2.14188
566.40 2.144209
566.50 2.146477
566.60 2.148686
566.70 2.150838
566.80 2.152934
566.90 2.154978
567.00 2.156972
567.10 2.158919
567.20 2.160823
567.30 2.162686
567.40 2.164511
567.50 2.1663
567.60 2.168052
567.70 2.16977
567.80 2.171452
567.90 2.1731
568.00 2.174714
568.10 2.176292
568.20 2.177837
568.30 2.179348
568.40 2.180827
568.50 2.182279
568.60 2.18371
568.70 2.185131
568.80 2.186556
568.90 2.188002
569.00 2.189489
569.10 2.191036
569.20 2.192664
569.30 2.194389
569.40 2.196226
569.50 2.198184
569.60 2.200272
569.70 2.202492
569.80 2.204847
569.90 2.207338
570.00 2.209965
570.10 2.212728
570.20 2.215627
570.30 2.218662
570.40 2.221831
570.50 2.225133
570.60 2.228567
570.70 2.232127
570.80 2.235809
570.90 2.239606
571.00 2.243511
571.10 2.247516
571.20 2.251615
571.30 2.255801
571.40 2.260068
571.50 2.264413
571.60 2.268833
571.70 2.273327
571.80 2.277894
571.90 2.282533
572.00 2.287245
572.10 2.292029
572.20 2.296886
572.30 2.301812
572.40 2.306802
572.50 2.311846
572.60 2.316925
572.70 2.322011
572.80 2.327067
572.90 2.332046
573.00 2.336897
573.10 2.341564
573.20 2.345996
573.30 2.350146
573.40 2.353977
573.50 2.35746
573.60 2.360579
573.70 2.363321
573.80 2.365681
573.90 2.367658
574.00 2.369249
574.10 2.370456
574.20 2.371279
574.30 2.37172
574.40 2.371782
574.50 2.371476
574.60 2.370815
574.70 2.369822
574.80 2.368528
574.90 2.366969
575.00 2.365188
575.10 2.363228
575.20 2.361131
575.30 2.358935
575.40 2.35667
575.50 2.354359
575.60 2.352015
575.70 2.349648
575.80 2.347263
575.90 2.344861
576.00 2.342442
576.10 2.340007
576.20 2.337555
576.30 2.335088
576.40 2.332606
576.50 2.330114
576.60 2.327616
576.70 2.325121
576.80 2.322639
576.90 2.320185
577.00 2.317772
577.10 2.315418
577.20 2.313137
577.30 2.310943
577.40 2.308846
577.50 2.306855
577.60 2.304976
577.70 2.303211
577.80 2.301562
577.90 2.30003
578.00 2.298614
578.10 2.297315
578.20 2.296133
578.30 2.295068
578.40 2.294121
578.50 2.293291
578.60 2.292581
578.70 2.291992
578.80 2.291527
578.90 2.291189
579.00 2.290981
579.10 2.290907
579.20 2.290971
579.30 2.291175
579.40 2.291523
579.50 2.292015
579.60 2.292654
579.70 2.29344
579.80 2.294374
579.90 2.295455
580.00 2.296683
580.10 2.29806
580.20 2.299583
580.30 2.301253
580.40 2.303065
580.50 2.305012
580.60 2.307083
580.70 2.309261
580.80 2.311522
580.90 2.313836
581.00 2.316172
581.10 2.318494
581.20 2.320769
581.30 2.322969
581.40 2.32507
581.50 2.327055
581.60 2.328912
581.70 2.330633
581.80 2.332216
581.90 2.333659
582.00 2.334962
582.10 2.336125
582.20 2.337147
582.30 2.338028
582.40 2.338766
582.50 2.339355
582.60 2.339789
582.70 2.340055
582.80 2.340139
582.90 2.340021
583.00 2.339679
583.10 2.339092
583.20 2.338236
583.30 2.337094
583.40 2.33565
583.50 2.333892
583.60 2.331813
583.70 2.329407
583.80 2.326674
583.90 2.323611
584.00 2.320219
584.10 2.316498
584.20 2.312447
584.30 2.308062
584.40 2.303333
584.50 2.298241
584.60 2.292755
584.70 2.286825
584.80 2.280387
584.90 2.273361
585.00 2.265655
585.10 2.257174
585.20 2.247828
585.30 2.237536
585.40 2.226233
585.50 2.213871
585.60 2.200417
585.70 2.185853
585.80 2.170168
585.90 2.15336
586.00 2.135426
586.10 2.116368
586.20 2.096188
586.30 2.074896
586.40 2.052521
586.50 2.029119
586.60 2.004783
586.70 1.979654
586.80 1.953923
586.90 1.927824
587.00 1.901624
587.10 1.875598
587.20 1.850011
587.30 1.825099
587.40 1.801053
587.50 1.778012
587.60 1.756071
587.70 1.735286
587.80 1.715684
587.90 1.697277
588.00 1.680067
588.10 1.664055
588.20 1.649239
588.30 1.635624
588.40 1.623214
588.50 1.612018
588.60 1.602055
588.70 1.59335
588.80 1.585938
588.90 1.579863
589.00 1.575173
589.10 1.571918
589.20 1.570149
589.30 1.569908
589.40 1.571229
589.50 1.574139
589.60 1.578656
589.70 1.584789
589.80 1.592543
589.90 1.601921
590.00 1.612923
590.10 1.625549
590.20 1.639796
590.30 1.655652
590.40 1.673086
590.50 1.692037
590.60 1.712401
590.70 1.734023
590.80 1.756694
590.90 1.780154
591.00 1.804111
591.10 1.82826
591.20 1.85231
591.30 1.876001
591.40 1.899123
591.50 1.921521
591.60 1.943092
591.70 1.963774
591.80 1.983537
591.90 2.002368
592.00 2.020264
592.10 2.037226
592.20 2.053254
592.30 2.068352
592.40 2.082527
592.50 2.095795
592.60 2.108183
592.70 2.119733
592.80 2.130497
592.90 2.140545
593.00 2.149951
593.10 2.158795
593.20 2.167154
593.30 2.175094
593.40 2.182671
593.50 2.189924
593.60 2.196881
593.70 2.203558
593.80 2.209962
593.90 2.216097
594.00 2.221964
594.10 2.227562
594.20 2.232892
594.30 2.237955
594.40 2.242754
594.50 2.247294
594.60 2.251587
594.70 2.255647
594.80 2.259493
594.90 2.263152
595.00 2.266651
595.10 2.270019
595.20 2.273286
595.30 2.276475
595.40 2.279608
595.50 2.282698
595.60 2.285757
595.70 2.28879
595.80 2.291799
595.90 2.294787
596.00 2.297753
596.10 2.300698
596.20 2.303621
596.30 2.306522
596.40 2.3094
596.50 2.312254
596.60 2.315082
596.70 2.317881
596.80 2.320644
596.90 2.323368
597.00 2.326045
597.10 2.328668
597.20 2.33123
597.30 2.333727
597.40 2.336153
597.50 2.338505
597.60 2.340781
597.70 2.342979
597.80 2.345098
597.90 2.347138
598.00 2.349099
598.10 2.350982
598.20 2.352785
598.30 2.354511
598.40 2.356162
598.50 2.357741
598.60 2.359257
598.70 2.360721
598.80 2.362148
598.90 2.363556
599.00 2.364969
599.10 2.366407
599.20 2.367892
599.30 2.369443
599.40 2.371076
599.50 2.372801
599.60 2.374626
599.70 2.376556
599.80 2.378593
599.90 2.380738
600.00 2.375913
600.10 2.377187
600.20 2.378467
600.30 2.379766
600.40 2.381114
600.50 2.382561
600.60 2.384175
600.70 2.386039
600.80 2.38824
600.90 2.390858
601.00 2.393946
601.10 2.397524
601.20 2.401573
601.30 2.406039
601.40 2.410842
601.50 2.415895
601.60 2.421115
601.70 2.426433
601.80 2.4318
601.90 2.437188
602.00 2.44258
602.10 2.447972
602.20 2.453361
602.30 2.458738
602.40 2.464085
602.50 2.469371
602.60 2.474555
602.70 2.479587
602.80 2.484411
602.90 2.48898
603.00 2.49326
603.10 2.49724
603.20 2.500932
603.30 2.504369
603.40 2.507598
603.50 2.510675
603.60 2.513649
603.70 2.516563
603.80 2.519447
603.90 2.522318
604.00 2.525187
604.10 2.528055
604.20 2.530922
604.30 2.533779
604.40 2.536613
604.50 2.5394
604.60 2.542108
604.70 2.544697
604.80 2.547127
604.90 2.549359
605.00 2.551367
605.10 2.553144
605.20 2.554697
605.30 2.556053
605.40 2.557249
605.50 2.558326
605.60 2.559324
605.70 2.560276
605.80 2.561204
605.90 2.562123
606.00 2.563039
606.10 2.563956
606.20 2.564869
606.30 2.565771
606.40 2.566641
606.50 2.567448
606.60 2.568151
606.70 2.568696
606.80 2.569028
606.90 2.569098
607.00 2.56887
607.10 2.568334
607.20 2.5675
607.30 2.566404
607.40 2.565095
607.50 2.563628
607.60 2.562056
607.70 2.560422
607.80 2.558757
607.90 2.557079
608.00 2.555399
608.10 2.553718
608.20 2.552038
608.30 2.55036
608.40 2.548688
608.50 2.547026
608.60 2.545382
608.70 2.543765
608.80 2.542184
608.90 2.540648
609.00 2.539163
609.10 2.537731
609.20 2.53635
609.30 2.535014
609.40 2.533714
609.50 2.53244
609.60 2.531185
609.70 2.529941
609.80 2.528702
609.90 2.527465
610.00 2.526228
610.10 2.524992
610.20 2.523747
610.30 2.522466
610.40 2.521094
610.50 2.519541
610.60 2.517682
610.70 2.515364
610.80 2.512425
610.90 2.508722
611.00 2.504154
611.10 2.498686
611.20 2.492353
611.30 2.485256
611.40 2.477538
611.50 2.469361
611.60 2.460878
611.70 2.452214
611.80 2.443459
611.90 2.434668
612.00 2.425868
612.10 2.417069
612.20 2.408287
612.30 2.399583
612.40 2.391074
612.50 2.382954
612.60 2.37549
612.70 2.36901
612.80 2.363861
612.90 2.360353
613.00 2.358698
613.10 2.358975
613.20 2.361107
613.30 2.364878
613.40 2.36998
613.50 2.376067
613.60 2.38281
613.70 2.389941
613.80 2.397268
613.90 2.404672
614.00 2.412094
614.10 2.419516
614.20 2.426901
614.30 2.434122
614.40 2.440931
614.50 2.446922
614.60 2.45153
614.70 2.454063
614.80 2.453792
614.90 2.450064
615.00 2.442429
615.10 2.430724
615.20 2.415111
615.30 2.396042
615.40 2.374169
615.50 2.350221
615.60 2.324889
615.70 2.29874
615.80 2.272179
615.90 2.245454
616.00 2.218691
616.10 2.191929
616.20 2.165212
616.30 2.138697
616.40 2.112691
616.50 2.087691
616.60 2.064395
616.70 2.043654
616.80 2.026368
616.90 2.013339
617.00 2.005123
617.10 2.00192
617.20 2.00353
617.30 2.009397
617.40 2.018718
617.50 2.030595
617.60 2.044176
617.70 2.058764
617.80 2.07386
617.90 2.089157
618.00 2.1045
618.10 2.119844
618.20 2.135164
618.30 2.150384
618.40 2.165349
618.50 2.179813
618.60 2.193425
618.70 2.20576
618.80 2.216371
618.90 2.224855
619.00 2.230936
619.10 2.234513
619.20 2.235685
619.30 2.234732
619.40 2.232054
619.50 2.228099
619.60 2.223293
619.70 2.217985
619.80 2.212422
619.90 2.206759
620.00 2.201073
620.10 2.195387
620.20 2.189702
620.30 2.184019
620.40 2.178342
620.50 2.172678
620.60 2.167035
620.70 2.161423
620.80 2.155855
620.90 2.150339
621.00 2.144883
621.10 2.13949
621.20 2.134156
621.30 2.128875
621.40 2.123636
621.50 2.11843
621.60 2.113244
621.70 2.108072
621.80 2.102905
621.90 2.097741
622.00 2.092577
622.10 2.087414
622.20 2.082256
622.30 2.077126
622.40 2.072063
622.50 2.067134
622.60 2.062432
622.70 2.058069
622.80 2.054167
622.90 2.05083
623.00 2.048135
623.10 2.046106
623.20 2.044717
623.30 2.043895
623.40 2.043533
623.50 2.04351
623.60 2.043715
623.70 2.044053
623.80 2.044459
623.90 2.044891
624.00 2.04533
624.10 2.045769
624.20 2.046213
624.30 2.046682
624.40 2.047212
624.50 2.047863
624.60 2.048719
624.70 2.049884
624.80 2.051465
624.90 2.053559
625.00 2.056233
625.10 2.059512
625.20 2.06337
625.30 2.067742
625.40 2.07253
625.50 2.077626
625.60 2.082927
625.70 2.08835
625.80 2.093834
625.90 2.099342
626.00 2.104856
626.10 2.11037
626.20 2.115885
626.30 2.121408
626.40 2.12695
626.50 2.132528
626.60 2.138169
626.70 2.143904
626.80 2.149765
626.90 2.155783
627.00 2.161978
627.10 2.168356
627.20 2.174911
627.30 2.181622
627.40 2.18846
627.50 2.195392
627.60 2.202386
627.70 2.209417
627.80 2.216467
627.90 2.223524
628.00 2.230583
628.10 2.237642
628.20 2.244695
628.30 2.251722
628.40 2.258682
628.50 2.265511
628.60 2.272118
628.70 2.278391
628.80 2.284214
628.90 2.289481
629.00 2.29412
629.10 2.298106
629.20 2.301463
629.30 2.304265
629.40 2.306616
629.50 2.308634
629.60 2.31043
629.70 2.312095
629.80 2.313693
629.90 2.315264
630.00 2.31683
630.10 2.318396
630.20 2.319962
630.30 2.321526
630.40 2.323089
630.50 2.324648
630.60 2.326201
630.70 2.327743
630.80 2.329272
630.90 2.330785
631.00 2.332279
631.10 2.333753
631.20 2.335209
631.30 2.336649
631.40 2.338075
631.50 2.339491
631.60 2.340901
631.70 2.342307
631.80 2.343711
631.90 2.345114
632.00 2.346516
632.10 2.347919
632.20 2.349322
632.30 2.350727
632.40 2.352134
632.50 2.353547
632.60 2.354969
632.70 2.356407
632.80 2.357864
632.90 2.359346
633.00 2.360855
633.10 2.362393
633.20 2.363959
633.30 2.365549
633.40 2.367159
633.50 2.368784
633.60 2.370418
633.70 2.372058
633.80 2.373702
633.90 2.375346
634.00 2.37699
634.10 2.378635
634.20 2.380279
634.30 2.38192
634.40 2.383555
634.50 2.385176
634.60 2.386775
634.70 2.38834
634.80 2.38986
634.90 2.391324
635.00 2.392724
635.10 2.394058
635.20 2.395329
635.30 2.396544
635.40 2.397713
635.50 2.398849
635.60 2.399962
635.70 2.401062
635.80 2.402155
635.90 2.403245
636.00 2.404335
636.10 2.405425
636.20 2.406515
636.30 2.407606
636.40 2.408697
636.50 2.409791
636.60 2.410888
636.70 2.411991
636.80 2.413101
636.90 2.41422
637.00 2.415349
637.10 2.416489
637.20 2.417639
637.30 2.418798
637.40 2.419965
637.50 2.421137
637.60 2.422312
637.70 2.42349
637.80 2.424669
637.90 2.425848
638.00 2.427027
638.10 2.428207
638.20 2.429381
638.30 2.430531
638.40 2.431624
638.50 2.4326
638.60 2.43338
638.70 2.433865
638.80 2.433953
638.90 2.43355
639.00 2.432593
639.10 2.431058
639.20 2.428969
639.30 2.426389
639.40 2.423411
639.50 2.420139
639.60 2.416671
639.70 2.413087
639.80 2.409444
639.90 2.405778
640.00 2.402106
640.10 2.398435
640.20 2.394767
640.30 2.391116
640.40 2.387505
640.50 2.383976
640.60 2.380584
640.70 2.377398
640.80 2.374491
640.90 2.371926
641.00 2.369749
641.10 2.367977
641.20 2.366592
641.30 2.365551
641.40 2.364787
641.50 2.36423
641.60 2.36381
641.70 2.363472
641.80 2.363174
641.90 2.362892
642.00 2.362615
642.10 2.362337
642.20 2.362055
642.30 2.361753
642.40 2.361403
642.50 2.360957
642.60 2.360348
642.70 2.359496
642.80 2.358313
642.90 2.356724
643.00 2.354676
643.10 2.352149
643.20 2.349162
643.30 2.345769
643.40 2.342046
643.50 2.33808
643.60 2.33395
643.70 2.329725
643.80 2.325451
643.90 2.321157
644.00 2.31686
644.10 2.312562
644.20 2.308269
644.30 2.303995
644.40 2.299771
644.50 2.295646
644.60 2.291686
644.70 2.287976
644.80 2.284603
644.90 2.281645
645.00 2.279157
645.10 2.277158
645.20 2.275628
645.30 2.274514
645.40 2.273737
645.50 2.273209
645.60 2.272848
645.70 2.272584
645.80 2.27237
645.90 2.272176
646.00 2.271986
646.10 2.271797
646.20 2.271607
646.30 2.271418
646.40 2.271231
646.50 2.271047
646.60 2.270868
646.70 2.270698
646.80 2.270538
646.90 2.270391
647.00 2.27026
647.10 2.270145
647.20 2.270045
647.30 2.269958
647.40 2.269882
647.50 2.269814
647.60 2.269751
647.70 2.269692
647.80 2.269634
647.90 2.269577
648.00 2.26952
648.10 2.269463
648.20 2.269414
648.30 2.269403
648.40 2.269485
648.50 2.269752
648.60 2.270332
648.70 2.271382
648.80 2.273068
648.90 2.274936
649.00 2.275744
649.10 2.273832
649.20 2.267208
649.30 2.254042
649.40 2.233417
649.50 2.206038
649.60 2.17459
649.70 2.143402
649.80 2.117488
649.90 2.101292
650.00 2.0974
650.10 2.105661
650.20 2.123037
650.30 2.144269
650.40 2.163179
650.50 2.174168
650.60 2.173425
650.70 2.159503
650.80 2.133127
650.90 2.096997
651.00 2.054855
651.10 2.010261
651.20 1.966187
651.30 1.924823
651.40 1.887616
651.50 1.855453
651.60 1.828829
651.70 1.808065
651.80 1.793405
651.90 1.784924
652.00 1.782436
652.10 1.785438
652.20 1.79312
652.30 1.804471
652.40 1.818399
652.50 1.83388
652.60 1.850099
652.70 1.866514
652.80 1.882855
652.90 1.899079
653.00 1.915305
653.10 1.931719
653.20 1.94844
653.30 1.96543
653.40 1.982427
653.50 1.998902
653.60 2.014055
653.70 2.026886
653.80 2.036325
653.90 2.041489
654.00 2.041956
654.10 2.037958
654.20 2.030492
654.30 2.021284
654.40 2.012588
654.50 2.006846
654.60 2.006262
654.70 2.012406
654.80 2.025953
654.90 2.046606
655.00 2.073196
655.10 2.10394
655.20 2.136819
655.30 2.169866
655.40 2.201314
655.50 2.229661
655.60 2.253612
655.70 2.271968
655.80 2.283577
655.90 2.287333
656.00 2.282342
656.10 2.268214
656.20 2.245294
656.30 2.214802
656.40 2.178788
656.50 2.13989
656.60 2.100963
656.70 2.064678
656.80 2.033179
656.90 2.007879
657.00 1.989451
657.10 1.977966
657.20 1.973079
657.30 1.974267
657.40 1.980995
657.50 1.992737
657.60 2.008947
657.70 2.029017
657.80 2.052251
657.90 2.077899
658.00 2.105194
658.10 2.133447
658.20 2.162177
658.30 2.19119
658.40 2.220598
658.50 2.250794
658.60 2.282377
658.70 2.316021
658.80 2.352261
658.90 2.391282
659.00 2.432781
659.10 2.47587
659.20 2.519102
659.30 2.560616
659.40 2.598406
659.50 2.630617
659.60 2.655798
659.70 2.673079
659.80 2.682195
659.90 2.683395
660.00 2.677269
660.10 2.664554
660.20 2.64603
660.30 2.622527
660.40 2.594979
660.50 2.564507
660.60 2.532457
660.70 2.50034
660.80 2.469712
660.90 2.441963
661.00 2.418034
661.10 2.398245
661.20 2.382221
661.30 2.368961
661.40 2.357015
661.50 2.344762
661.60 2.330722
661.70 2.313794
661.80 2.293405
661.90 2.269545
662.00 2.242699
662.10 2.2137
662.20 2.183515
662.30 2.153205
662.40 2.124007
662.50 2.09741
662.60 2.075282
662.70 2.059948
662.80 2.054092
662.90 2.060497
663.00 2.081539
663.10 2.118585
663.20 2.17155
663.30 2.238668
663.40 2.316608
663.50 2.400931
663.60 2.486784
663.70 2.569605
663.80 2.645685
663.90 2.71248
664.00 2.768615
664.10 2.813651
664.20 2.847782
664.30 2.871485
664.40 2.885289
664.50 2.889795
664.60 2.885757
664.70 2.874163
664.80 2.856256
664.90 2.833448
665.00 2.807208
665.10 2.779049
665.20 2.750524
665.30 2.723263
665.40 2.699086
665.50 2.680097
665.60 2.668629
665.70 2.667065
665.80 2.677387
665.90 2.700578
666.00 2.736191
666.10 2.782113
666.20 2.834647
666.30 2.888957
666.40 2.939798
666.50 2.982356
666.60 3.012987
666.70 3.029694
666.80 3.032223
666.90 3.021829
667.00 3.000818
667.10 2.97192
667.20 2.937874
667.30 2.901323
667.40 2.864812
667.50 2.830953
667.60 2.802571
667.70 2.782678
667.80 2.774305
667.90 2.780042
668.00 2.801368
668.10 2.838177
668.20 2.888529
668.30 2.948772
668.40 3.014034
668.50 3.078996
668.60 3.13879
668.70 3.189794
668.80 3.230114
668.90 3.259698
669.00 3.280104
669.10 3.294027
669.20 3.304615
669.30 3.314814
669.40 3.326986
669.50 3.342701
669.60 3.362731
669.70 3.387196
669.80 3.415757
669.90 3.447886
670.00 3.482938
670.10 3.520033
670.20 3.557943
670.30 3.594962
670.40 3.62886
670.50 3.65701
670.60 3.676664
670.70 3.685445
670.80 3.68191
670.90 3.665952
671.00 3.638989
671.10 3.603855
671.20 3.564389
671.30 3.524805
671.40 3.48905
671.50 3.460299
671.60 3.440664
671.70 3.431175
671.80 3.431989
671.90 3.442661
672.00 3.462488
672.10 3.49051
672.20 3.525214
672.30 3.56428
672.40 3.604307
672.50 3.640741
672.60 3.668163
672.70 3.680885
672.80 3.673955
672.90 3.644303
673.00 3.591529
673.10 3.518275
673.20 3.429988
673.30 3.334118
673.40 3.23886
673.50 3.151745
673.60 3.078466
673.70 3.022171
673.80 2.983309
673.90 2.960002
674.00 2.948727
674.10 2.94531
674.20 2.945995
674.30 2.948191
674.40 2.950881
674.50 2.954757
674.60 2.962064
674.70 2.976194
674.80 3.00096
674.90 3.039707
675.00 3.094601
675.10 3.166115
675.20 3.252817
675.30 3.351526
675.40 3.457825
675.50 3.566832
675.60 3.673904
675.70 3.775145
675.80 3.867672
675.90 3.949569
676.00 4.019648
676.10 4.077202
676.20 4.121754
676.30 4.152938
676.40 4.170625
676.50 4.17507
676.60 4.167005
676.70 4.147607
676.80 4.118342
676.90 4.080791
677.00 4.03655
677.10 3.987178
677.20 3.934212
677.30 3.879282
677.40 3.82419
677.50 3.770869
677.60 3.721279
677.70 3.677189
677.80 3.63988
677.90 3.609926
678.00 3.587139
678.10 3.57065
678.20 3.559119
678.30 3.55102
678.40 3.544941
678.50 3.539802
678.60 3.534971
678.70 3.530275
678.80 3.525941
678.90 3.522483
679.00 3.520527
679.10 3.52072
679.20 3.523737
679.30 3.530285
679.40 3.541152
679.50 3.557248
679.60 3.579594
679.70 3.609235
679.80 3.64691
679.90 3.692637
680.00 3.745398
680.10 3.802917
680.20 3.861685
680.30 3.917292
680.40 3.965014
680.50 4.000628
680.60 4.02122
680.70 4.025728
680.80 4.015138
680.90 3.99228
681.00 3.961291
681.10 3.926808
681.20 3.893252
681.30 3.864365
681.40 3.842973
681.50 3.831037
681.60 3.829889
681.70 3.840444
681.80 3.863413
681.90 3.899211
682.00 3.94757
682.10 4.00722
682.20 4.075651
682.30 4.149121
682.40 4.223002
682.50 4.29236
682.60 4.352557
682.70 4.399798
682.80 4.431488
682.90 4.446228
683.00 4.443573
683.10 4.423708
683.20 4.387103
683.30 4.334428
683.40 4.266744
683.50 4.185736
683.60 4.093931
683.70 3.994732
683.80 3.892164
683.90 3.790461
684.00 3.693637
684.10 3.60504
684.20 3.527103
684.30 3.461362
684.40 3.408673
684.50 3.369446
684.60 3.343882
684.70 3.331939
684.80 3.333059
684.90 3.345898
685.00 3.368115
685.10 3.396358
685.20 3.426561
685.30 3.454404
685.40 3.47595
685.50 3.488284
685.60 3.489924
685.70 3.480924
685.80 3.462685
685.90 3.437556
686.00 3.408259
686.10 3.377355
686.20 3.346926
686.30 3.318402
686.40 3.292577
686.50 3.26973
686.60 3.249776
686.70 3.23248
686.80 3.217608
686.90 3.204952
687.00 3.194326
687.10 3.185554
687.20 3.178461
687.30 3.172876
687.40 3.168633
687.50 3.16547
687.60 3.162912
687.70 3.160186
687.80 3.156127
687.90 3.14915
688.00 3.137355
688.10 3.118741
688.20 3.091598
688.30 3.054932
688.40 3.008787
688.50 2.954387
688.60 2.894069
688.70 2.830957
688.80 2.768467
688.90 2.709991
689.00 2.658757
689.10 2.617756
689.20 2.589908
689.30 2.578251
689.40 2.585985
689.50 2.616295
689.60 2.671559
689.70 2.752216
689.80 2.855906
689.90 2.976913
690.00 3.106236
690.10 3.232497
690.20 3.343486
690.30 3.428183
690.40 3.478736
690.50 3.491746
690.60 3.468688
690.70 3.415378
690.80 3.34069
690.90 3.254686
691.00 3.166885
691.10 3.085151
691.20 3.015109
691.30 2.960214
691.40 2.922228
691.50 2.901752
691.60 2.898868
691.70 2.913308
691.80 2.94404
691.90 2.988886
692.00 3.044203
692.10 3.104852
692.20 3.164613
692.30 3.216902
692.40 3.255965
692.50 3.278201
692.60 3.283034
692.70 3.273293
692.80 3.254962
692.90 3.236306
693.00 3.226425
693.10 3.23336
693.20 3.262383
693.30 3.314887
693.40 3.387931
693.50 3.474602
693.60 3.565133
693.70 3.648694
693.80 3.715465
693.90 3.758353
694.00 3.774062
694.10 3.763427
694.20 3.730934
694.30 3.683661
694.40 3.629688
694.50 3.576506
694.60 3.529922
694.70 3.493441
694.80 3.468185
694.90 3.453251
695.00 3.446306
695.10 3.444437
695.20 3.444907
695.30 3.445508
695.40 3.44474
695.50 3.441806
695.60 3.436478
695.70 3.428932
695.80 3.419512
695.90 3.408608
696.00 3.39669
696.10 3.384352
696.20 3.37237
696.30 3.361726
696.40 3.353561
696.50 3.349058
696.60 3.349255
696.70 3.354805
696.80 3.365819
696.90 3.381789
697.00 3.401636
697.10 3.423883
697.20 3.446897
697.30 3.469182
697.40 3.489614
697.50 3.507581
697.60 3.523011
697.70 3.536308
697.80 3.548207
697.90 3.559578
698.00 3.571252
698.10 3.583942
698.20 3.598198
698.30 3.614422
698.40 3.632913
698.50 3.653901
698.60 3.677582
698.70 3.704029
698.80 3.733025
698.90 3.763941
699.00 3.795635
699.10 3.822266
699.20 3.831907
699.30 3.80881
699.40 3.733908
699.50 3.588099
699.60 3.357458
699.70 3.03857
699.80 2.641964
699.90 2.192109
700.00 3.818198
700.10 3.781565
700.20 3.744931
700.30 3.769672
700.40 3.794412
700.50 3.819153
700.60 3.843893
700.70 3.868633
700.80 3.893374
700.90 3.918114
701.00 3.937002
701.10 3.955889
701.20 3.974776
701.30 3.993664
701.40 4.012551
701.50 4.031438
701.60 4.050326
701.70 4.067324
701.80 4.084323
701.90 4.101322
702.00 4.11832
702.10 4.135319
702.20 4.152318
702.30 4.169316
702.40 4.186149
702.50 4.202982
702.60 4.219814
702.70 4.236647
702.80 4.253479
702.90 4.270312
703.00 4.287145
703.10 4.295592
703.20 4.304039
703.30 4.312487
703.40 4.320934
703.50 4.329382
703.60 4.337829
703.70 4.346277
703.80 4.369543
703.90 4.39281
704.00 4.416077
704.10 4.439344
704.20 4.46261
704.30 4.485877
704.40 4.509144
704.50 4.46479
704.60 4.420435
704.70 4.376081
704.80 4.331727
704.90 4.287373
705.00 4.243019
705.10 4.198664
705.20 4.179694
705.30 4.160724
705.40 4.141753
705.50 4.122783
705.60 4.103812
705.70 4.084842
705.80 4.065872
705.90 4.162924
706.00 4.259976
706.10 4.357028
706.20 4.45408
706.30 4.551132
706.40 4.648184
706.50 4.745236
706.60 4.82394
706.70 4.902645
706.80 4.981349
706.90 5.060053
707.00 5.138758
707.10 5.217462
707.20 5.296166
707.30 5.24872
707.40 5.201273
707.50 5.153826
707.60 5.106379
707.70 5.058933
707.80 5.011486
707.90 4.964039
708.00 4.909411
708.10 4.854783
708.20 4.800155
708.30 4.745527
708.40 4.690899
708.50 4.63627
708.60 4.581642
708.70 4.587246
708.80 4.59285
708.90 4.598454
709.00 4.604058
709.10 4.609662
709.20 4.615266
709.30 4.62087
709.40 4.741293
709.50 4.861715
709.60 4.982138
709.70 5.10256
709.80 5.222983
709.90 5.343406
710.00 5.463828
710.10 5.364493
710.20 5.265158
710.30 5.165823
710.40 5.066488
710.50 4.967152
710.60 4.867817
710.70 4.768482
710.80 4.762256
710.90 4.756029
711.00 4.749802
711.10 4.743576
711.20 4.737349
711.30 4.731122
711.40 4.724896
711.50 4.857792
711.60 4.990689
711.70 5.123586
711.80 5.256482
711.90 5.389379
712.00 5.522275
712.10 5.655172
712.20 5.580889
712.30 5.506605
712.40 5.432322
712.50 5.358038
712.60 5.283755
712.70 5.209471
712.80 5.135188
712.90 5.120202
713.00 5.105217
713.10 5.090232
713.20 5.075246
713.30 5.060261
713.40 5.045276
713.50 5.03029
713.60 5.137263
713.70 5.244237
713.80 5.35121
713.90 5.458183
714.00 5.565156
714.10 5.672129
714.20 5.779102
714.30 5.644296
714.40 5.50949
714.50 5.374684
714.60 5.239878
714.70 5.105072
714.80 4.970266
714.90 4.83546
715.00 4.783322
715.10 4.731185
715.20 4.679047
715.30 4.62691
715.40 4.574772
715.50 4.522635
715.60 4.470497
715.70 4.563772
715.80 4.657047
715.90 4.750321
716.00 4.843596
716.10 4.93687
716.20 5.030145
716.30 5.12342
716.40 5.072631
716.50 5.021843
716.60 4.971054
716.70 4.920266
716.80 4.869478
716.90 4.818689
717.00 4.767901
717.10 4.757482
717.20 4.747063
717.30 4.736643
717.40 4.726224
717.50 4.715805
717.60 4.705386
717.70 4.694967
717.80 4.660015
717.90 4.625063
718.00 4.590111
718.10 4.555159
718.20 4.520206
718.30 4.485254
718.40 4.450302
718.50 4.49337
718.60 4.536437
718.70 4.579505
718.80 4.622572
718.90 4.665639
719.00 4.708707
719.10 4.751774
719.20 4.823256
719.30 4.894737
719.40 4.966218
719.50 5.0377
719.60 5.109181
719.70 5.180663
719.80 5.252144
719.90 5.211339
720.00 5.170534
720.10 5.129729
720.20 5.088924
720.30 5.048119
720.40 5.007314
720.50 4.966509
720.60 4.964496
720.70 4.962483
720.80 4.960469
720.90 4.958456
721.00 4.956443
721.10 4.954429
721.20 4.952416
721.30 4.980893
721.40 5.009369
721.50 5.037845
721.60 5.066322
721.70 5.094798
721.80 5.123274
721.90 5.151751
722.00 5.118376
722.10 5.085001
722.20 5.051627
722.30 5.018252
722.40 4.984878
722.50 4.951503
722.60 4.918128
722.70 5.098451
722.80 5.278773
722.90 5.459096
723.00 5.639419
723.10 5.819741
723.20 6.000064
723.30 6.180386
723.40 6.020051
723.50 5.859716
723.60 5.699381
723.70 5.539046
723.80 5.378711
723.90 5.218375
724.00 5.05804
724.10 4.893595
724.20 4.729151
724.30 4.564706
724.40 4.400261
724.50 4.235817
724.60 4.071372
724.70 3.906927
724.80 4.025461
724.90 4.143995
725.00 4.262529
725.10 4.381063
725.20 4.499596
725.30 4.61813
725.40 4.736664
725.50 4.777407
725.60 4.81815
725.70 4.858892
725.80 4.899635
725.90 4.940378
726.00 4.981121
726.10 5.021864
726.20 5.03357
726.30 5.045276
726.40 5.056982
726.50 5.068688
726.60 5.080394
726.70 5.0921
726.80 5.103806
726.90 5.112523
727.00 5.12124
727.10 5.129958
727.20 5.138675
727.30 5.147392
727.40 5.156109
727.50 5.164827
727.60 5.174104
727.70 5.183382
727.80 5.192659
727.90 5.201937
728.00 5.211215
728.10 5.220492
728.20 5.22977
728.30 5.342181
728.40 5.454592
728.50 5.567003
728.60 5.679414
728.70 5.791825
728.80 5.904236
728.90 6.016647
729.00 5.987424
729.10 5.9582
729.20 5.928977
729.30 5.899753
729.40 5.87053
729.50 5.841306
729.60 5.812082
729.70 5.862331
729.80 5.91258
729.90 5.962829
730.00 6.013077
730.10 6.063326
730.20 6.113575
730.30 6.163824
730.40 6.002907
730.50 5.841991
730.60 5.681075
730.70 5.520158
730.80 5.359242
730.90 5.198326
731.00 5.037409
731.10 5.052561
731.20 5.067712
731.30 5.082864
731.40 5.098015
731.50 5.113166
731.60 5.128318
731.70 5.143469
731.80 5.150609
731.90 5.157749
732.00 5.164889
732.10 5.172029
732.20 5.179168
732.30 5.186308
732.40 5.193448
732.50 5.266133
732.60 5.338819
732.70 5.411504
732.80 5.484189
732.90 5.556875
733.00 5.62956
733.10 5.702245
733.20 5.706957
733.30 5.711668
733.40 5.71638
733.50 5.721091
733.60 5.725802
733.70 5.730514
733.80 5.735225
733.90 5.695645
734.00 5.656064
734.10 5.616484
734.20 5.576903
734.30 5.537323
734.40 5.497743
734.50 5.458162
734.60 5.303784
734.70 5.149405
734.80 4.995027
734.90 4.840649
735.00 4.68627
735.10 4.531892
735.20 4.377513
735.30 4.539384
735.40 4.701256
735.50 4.863127
735.60 5.024998
735.70 5.186869
735.80 5.34874
735.90 5.510611
736.00 5.599361
736.10 5.688111
736.20 5.776861
736.30 5.865611
736.40 5.95436
736.50 6.04311
736.60 6.13186
736.70 6.047282
736.80 5.962704
736.90 5.878126
737.00 5.793548
737.10 5.70897
737.20 5.624392
737.30 5.539814
737.40 5.484999
737.50 5.430184
737.60 5.375369
737.70 5.320554
737.80 5.265739
737.90 5.210924
738.00 5.156109
738.10 5.237761
738.20 5.319412
738.30 5.401064
738.40 5.482716
738.50 5.564367
738.60 5.646019
738.70 5.72767
738.80 5.657559
738.90 5.587447
739.00 5.517336
739.10 5.447224
739.20 5.377112
739.30 5.307001
739.40 5.236889
739.50 5.320139
739.60 5.403389
739.70 5.486638
739.80 5.569888
739.90 5.653138
740.00 5.736388
740.10 5.819637
740.20 5.651893
740.30 5.484148
740.40 5.316403
740.50 5.148658
740.60 4.980913
740.70 4.813168
740.80 4.645424
740.90 4.721658
741.00 4.797892
741.10 4.874127
741.20 4.950361
741.30 5.026596
741.40 5.10283
741.50 5.179065
741.60 5.107957
741.70 5.036849
741.80 4.965741
741.90 4.894633
742.00 4.823525
742.10 4.752417
742.20 4.68131
742.30 4.686498
742.40 4.691687
742.50 4.696876
742.60 4.702065
742.70 4.707254
742.80 4.712443
742.90 4.717631
743.00 4.780188
743.10 4.842745
743.20 4.905301
743.30 4.967858
743.40 5.030415
743.50 5.092971
743.60 5.155528
743.70 5.055757
743.80 4.955986
743.90 4.856215
744.00 4.756444
744.10 4.656673
744.20 4.556902
744.30 4.457131
744.40 4.486147
744.50 4.515163
744.60 4.544179
744.70 4.573195
744.80 4.602211
744.90 4.631227
745.00 4.660243
745.10 4.67199
745.20 4.683738
745.30 4.695486
745.40 4.707233
745.50 4.718981
745.60 4.730728
745.70 4.742476
745.80 4.580625
745.90 4.418775
746.00 4.256925
746.10 4.095074
746.20 3.933224
746.30 3.771374
746.40 3.609523
746.50 3.587959
746.60 3.566394
746.70 3.544829
746.80 3.523264
746.90 3.501699
747.00 3.480135
747.10 3.45857
747.20 3.483414
747.30 3.508258
747.40 3.533102
747.50 3.557946
747.60 3.582791
747.70 3.607635
747.80 3.632479
747.90 3.622641
748.00 3.612803
748.10 3.602965
748.20 3.593127
748.30 3.583289
748.40 3.573451
748.50 3.563613
748.60 3.509088
748.70 3.454564
748.80 3.40004
748.90 3.345515
749.00 3.290991
749.10 3.236467
749.20 3.181942
749.30 3.263843
749.40 3.345744
749.50 3.427644
749.60 3.509545
749.70 3.591446
749.80 3.673346
749.90 3.755247
750.00 3.767119
750.10 3.778991
750.20 3.790863
750.30 3.802735
750.40 3.814607
750.50 3.826479
750.60 3.838351
750.70 3.693728
750.80 3.549105
750.90 3.404481
751.00 3.259858
751.10 3.115235
751.20 2.970611
751.30 2.825988
751.40 2.946888
751.50 3.067788
751.60 3.188688
751.70 3.309588
751.80 3.430488
751.90 3.551388
752.00 3.672288
752.10 3.626335
752.20 3.580383
752.30 3.534431
752.40 3.488478
752.50 3.442526
752.60 3.396573
752.70 3.350621
752.80 3.198381
752.90 3.04614
753.00 2.893899
753.10 2.741659
753.20 2.589418
753.30 2.437178
753.40 2.284937
753.50 2.222318
753.60 2.159699
753.70 2.09708
753.80 2.034461
753.90 1.971842
754.00 1.909223
754.10 1.846605
754.20 1.879855
754.30 1.913105
754.40 1.946355
754.50 1.979605
754.60 2.012855
754.70 2.046105
754.80 2.079355
754.90 2.174581
755.00 2.269806
755.10 2.365032
755.20 2.460258
755.30 2.555483
755.40 2.650709
755.50 2.745934
755.60 2.747865
755.70 2.749795
755.80 2.751725
755.90 2.753655
756.00 2.755586
756.10 2.757516
756.20 2.759446
756.30 2.640933
756.40 2.52242
756.50 2.403907
756.60 2.285394
756.70 2.166881
756.80 2.048367
756.90 1.929854
757.00 2.020846
757.10 2.111837
757.20 2.202829
757.30 2.29382
757.40 2.384812
757.50 2.475803
757.60 2.566795
757.70 2.531345
757.80 2.495895
757.90 2.460444
758.00 2.424994
758.10 2.389544
758.20 2.354094
758.30 2.318644
758.40 2.152385
758.50 1.986126
758.60 1.819867
758.70 1.653609
758.80 1.48735
758.90 1.321091
759.00 1.154832
759.10 1.002224
759.20 0.8496158
759.30 0.6970074
759.40 0.544399
759.50 0.3917907
759.60 0.2391823
759.70 0.08657394
759.80 0.1313354
759.90 0.1760968
760.00 0.2208582
760.10 0.2656197
760.20 0.3103811
760.30 0.3551425
760.40 0.3999039
760.50 0.4587848
760.60 0.5176657
760.70 0.5765466
760.80 0.6354275
760.90 0.6943084
761.00 0.7531893
761.10 0.8120701
761.20 0.887217
761.30 0.9623639
761.40 1.037511
761.50 1.112658
761.60 1.187804
761.70 1.262951
761.80 1.338098
761.90 1.217238
762.00 1.096377
762.10 0.9755165
762.20 0.854656
762.30 0.7337954
762.40 0.6129349
762.50 0.4920743
762.60 0.4034766
762.70 0.3148788
762.80 0.226281
762.90 0.1376832
763.00 0.04908539
763.10 9.474055e-11
763.20 9.474055e-11
763.30 9.474055e-11
763.40 9.474055e-11
763.50 9.474055e-11
763.60 0.02707184
763.70 0.06586735
763.80 0.1046629
763.90 0.1434584
764.00 0.1534394
764.10 0.1634205
764.20 0.1734015
764.30 0.1833825
764.40 0.1933636
764.50 0.2033446
764.60 0.2133257
764.70 0.2422898
764.80 0.2712539
764.90 0.300218
765.00 0.3291821
765.10 0.3581462
765.20 0.3871103
765.30 0.4160744
765.40 0.2957411
765.50 0.1754077
765.60 0.05507435
765.70 9.474055e-11
765.80 9.474055e-11
765.90 9.474055e-11
766.00 9.474055e-11
766.10 9.474055e-11
766.20 9.474055e-11
766.30 9.474055e-11
766.40 9.474055e-11
766.50 9.474055e-11
766.60 9.474055e-11
766.70 9.474055e-11
766.80 9.474055e-11
766.90 9.474055e-11
767.00 9.474055e-11
767.10 9.474055e-11
767.20 9.474055e-11
767.30 9.474055e-11
767.40 9.474055e-11
767.50 9.474055e-11
767.60 9.474055e-11
767.70 9.474055e-11
767.80 0.01343329
767.90 0.02997572
768.00 0.04651816
768.10 0.0630606
768.20 0.05316276
768.30 0.04326493
768.40 0.03336709
768.50 0.02346925
768.60 0.01357141
768.70 0.003673575
768.80 9.474055e-11
768.90 0.06956687
769.00 0.145358
769.10 0.2211491
769.20 0.2969403
769.30 0.3727314
769.40 0.4485225
769.50 0.5243137
769.60 0.3556722
769.70 0.1870307
769.80 0.01838925
769.90 9.474055e-11
770.00 9.474055e-11
770.10 9.474055e-11
770.20 9.474055e-11
770.30 9.474055e-11
770.40 9.474055e-11
770.50 9.474055e-11
770.60 9.474055e-11
770.70 0.1168672
770.80 0.271476
770.90 0.4260847
771.00 0.6065796
771.10 0.7870745
771.20 0.9675693
771.30 1.148064
771.40 1.328559
771.50 1.509054
771.60 1.689549
771.70 1.431934
771.80 1.174319
771.90 0.9167039
772.00 0.659089
772.10 0.4014741
772.20 0.1438591
772.30 9.474055e-11
772.40 9.474055e-11
772.50 0.07884443
772.60 0.1751445
772.70 0.2714446
772.80 0.3677447
772.90 0.4640449
773.00 0.560345
773.10 0.5296768
773.20 0.4990087
773.30 0.4683406
773.40 0.4376725
773.50 0.4070043
773.60 0.3763362
773.70 0.3456681
773.80 0.4754057
773.90 0.6051433
774.00 0.7348809
774.10 0.8646186
774.20 0.9943562
774.30 1.124094
774.40 1.253831
774.50 1.346753
774.60 1.439675
774.70 1.532597
774.80 1.625518
774.90 1.71844
775.00 1.811362
775.10 1.904284
775.20 1.898887
775.30 1.893491
775.40 1.888095
775.50 1.882698
775.60 1.877302
775.70 1.871905
775.80 1.866509
775.90 1.770744
776.00 1.674978
776.10 1.579213
776.20 1.483448
776.30 1.387683
776.40 1.291918
776.50 1.196152
776.60 1.258273
776.70 1.320394
776.80 1.382515
776.90 1.444635
777.00 1.506756
777.10 1.568877
777.20 1.630998
777.30 1.728797
777.40 1.826596
777.50 1.924396
777.60 2.022195
777.70 2.119994
777.80 2.217793
777.90 2.315593
778.00 2.345771
778.10 2.375949
778.20 2.406128
778.30 2.436306
778.40 2.466484
778.50 2.496662
778.60 2.526841
778.70 2.553636
778.80 2.580431
778.90 2.607226
779.00 2.634021
779.10 2.660817
779.20 2.687612
779.30 2.714407
779.40 2.615944
779.50 2.51748
779.60 2.419017
779.70 2.320553
779.80 2.22209
779.90 2.123626
780.00 2.025163
780.10 1.90373
780.20 1.782296
780.30 1.660863
780.40 1.539429
780.50 1.417996
780.60 1.296563
780.70 1.175129
780.80 1.517773
780.90 1.860417
781.00 2.203061
781.10 2.545705
781.20 2.888349
781.30 3.230993
781.40 3.573637
781.50 3.564775
781.60 3.555912
781.70 3.54705
781.80 3.538187
781.90 3.529325
782.00 3.520462
782.10 3.5116
782.20 3.590906
782.30 3.670212
782.40 3.749518
782.50 3.828825
782.60 3.908131
782.70 3.987437
782.80 4.066743
782.90 4.026519
783.00 3.986296
783.10 3.946072
783.20 3.905848
783.30 3.865624
783.40 3.8254
783.50 3.785176
783.60 4.027516
783.70 4.269855
783.80 4.512195
783.90 4.754535
784.00 4.996874
784.10 5.239214
784.20 5.481553
784.30 5.385103
784.40 5.288653
784.50 5.192203
784.60 5.095753
784.70 4.999303
784.80 4.902852
784.90 4.806402
785.00 4.812919
785.10 4.819437
785.20 4.825954
785.30 4.832471
785.40 4.838988
785.50 4.845505
785.60 4.852022
785.70 5.045442
785.80 5.238861
785.90 5.43228
786.00 5.625699
786.10 5.819119
786.20 6.012538
786.30 6.205957
786.40 5.879703
786.50 5.55345
786.60 5.227196
786.70 4.900943
786.80 4.574689
786.90 4.248436
787.00 3.922182
787.10 4.03422
787.20 4.146257
787.30 4.258295
787.40 4.370332
787.50 4.482369
787.60 4.594407
787.70 4.706444
787.80 4.777739
787.90 4.849034
788.00 4.920328
788.10 4.991623
788.20 5.062918
788.30 5.134212
788.40 5.205507
788.50 5.349944
788.60 5.49438
788.70 5.638817
788.80 5.783253
788.90 5.92769
789.00 6.072126
789.10 6.216563
789.20 6.257098
789.30 6.297633
789.40 6.338169
789.50 6.378704
789.60 6.419239
789.70 6.459774
789.80 6.50031
789.90 6.513697
790.00 6.527084
790.10 6.540471
790.20 6.553858
790.30 6.567246
790.40 6.580633
790.50 6.59402
790.60 6.699997
790.70 6.805974
790.80 6.911951
790.90 7.017928
791.00 7.123904
791.10 7.229881
791.20 7.335858
791.30 7.314688
791.40 7.293517
791.50 7.272347
791.60 7.251176
791.70 7.230006
791.80 7.208835
791.90 7.187665
792.00 7.163485
792.10 7.139305
792.20 7.115125
792.30 7.090945
792.40 7.066765
792.50 7.042585
792.60 7.018405
792.70 6.988476
792.80 6.958546
792.90 6.928617
793.00 6.898688
793.10 6.868759
793.20 6.838829
793.30 6.8089
793.40 6.812989
793.50 6.817078
793.60 6.821167
793.70 6.825255
793.80 6.829344
793.90 6.833433
794.00 6.837522
794.10 6.675941
794.20 6.514361
794.30 6.35278
794.40 6.1912
794.50 6.029619
794.60 5.868039
794.70 5.706458
794.80 5.690269
794.90 5.67408
795.00 5.657891
795.10 5.641702
795.20 5.625513
795.30 5.609323
795.40 5.593134
795.50 5.855316
795.60 6.117498
795.70 6.379679
795.80 6.641861
795.90 6.904043
796.00 7.166225
796.10 7.428406
796.20 7.515454
796.30 7.602502
796.40 7.68955
796.50 7.776598
796.60 7.863646
796.70 7.950694
796.80 8.037742
796.90 8.236516
797.00 8.43529
797.10 8.634065
797.20 8.832839
797.30 9.031613
797.40 9.230387
797.50 9.429161
797.60 9.358219
797.70 9.287277
797.80 9.216335
797.90 9.145394
798.00 9.074452
798.10 9.00351
798.20 8.932568
798.30 8.987009
798.40 9.041451
798.50 9.095892
798.60 9.150333
798.70 9.204775
798.80 9.259216
798.90 9.313657
799.00 9.628495
799.10 9.943334
799.20 10.25817
799.30 10.57301
799.40 10.88785
799.50 11.20269
799.60 11.51752
799.70 11.46375
799.80 11.40997
799.90 11.35619
800.00 11.30242
800.10 11.24864
800.20 11.19486
800.30 11.14108
800.40 10.985
800.50 10.82892
800.60 10.67284
800.70 10.51676
800.80 10.36068
800.90 10.2046
801.00 10.04852
801.10 10.14304
801.20 10.23756
801.30 10.33208
801.40 10.4266
801.50 10.52112
801.60 10.61564
801.70 10.71016
801.80 10.87789
801.90 11.04561
802.00 11.21333
802.10 11.38106
802.20 11.54878
802.30 11.71651
802.40 11.88423
802.50 11.82211
802.60 11.75999
802.70 11.69787
802.80 11.63575
802.90 11.57363
803.00 11.5115
803.10 11.44938
803.20 11.38681
803.30 11.32423
803.40 11.26165
803.50 11.19907
803.60 11.1365
803.70 11.07392
803.80 11.01134
803.90 11.07267
804.00 11.13401
804.10 11.19534
804.20 11.25667
804.30 11.318
804.40 11.37933
804.50 11.44067
804.60 11.68189
804.70 11.9231
804.80 12.16432
804.90 12.40554
805.00 12.64676
805.10 12.88798
805.20 13.1292
805.30 13.22907
805.40 13.32895
805.50 13.42882
805.60 13.5287
805.70 13.62857
805.80 13.72845
805.90 13.82832
806.00 13.80026
806.10 13.7722
806.20 13.74414
806.30 13.71608
806.40 13.68802
806.50 13.65995
806.60 13.63189
806.70 13.69777
806.80 13.76365
806.90 13.82953
807.00 13.8954
807.10 13.96128
807.20 14.02716
807.30 14.09304
807.40 14.0097
807.50 13.92637
807.60 13.84304
807.70 13.7597
807.80 13.67637
807.90 13.59304
808.00 13.50971
808.10 13.61873
808.20 13.72776
808.30 13.83679
808.40 13.94582
808.50 14.05485
808.60 14.16387
808.70 14.2729
808.80 14.35823
808.90 14.44355
809.00 14.52888
809.10 14.6142
809.20 14.69953
809.30 14.78485
809.40 14.87018
809.50 14.99264
809.60 15.11509
809.70 15.23755
809.80 15.36001
809.90 15.48246
810.00 15.60492
810.10 15.72738
810.20 15.63481
810.30 15.54224
810.40 15.44967
810.50 15.3571
810.60 15.26453
810.70 15.17196
810.80 15.07939
810.90 15.02066
811.00 14.96192
811.10 14.90318
811.20 14.84444
811.30 14.7857
811.40 14.72697
811.50 14.66823
811.60 14.69334
811.70 14.71846
811.80 14.74357
811.90 14.76869
812.00 14.7938
812.10 14.81891
812.20 14.84403
812.30 14.92061
812.40 14.9972
812.50 15.07379
812.60 15.15038
812.70 15.22696
812.80 15.30355
812.90 15.38014
813.00 15.38865
813.10 15.39716
813.20 15.40567
813.30 15.41418
813.40 15.42269
813.50 15.4312
813.60 15.43971
813.70 15.52439
813.80 15.60907
813.90 15.69375
814.00 15.77843
814.10 15.86312
814.20 15.9478
814.30 16.03248
814.40 15.8791
814.50 15.72572
814.60 15.57233
814.70 15.41895
814.80 15.26557
814.90 15.11219
815.00 14.9588
815.10 14.92394
815.20 14.88907
815.30 14.8542
815.40 14.81933
815.50 14.78446
815.60 14.74959
815.70 14.71472
815.80 14.74751
815.90 14.78031
816.00 14.8131
816.10 14.8459
816.20 14.87869
816.30 14.91148
816.40 14.94428
816.50 15.052
816.60 15.15972
816.70 15.26744
816.80 15.37516
816.90 15.48288
817.00 15.5906
817.10 15.69832
817.20 15.69624
817.30 15.69417
817.40 15.69209
817.50 15.69002
817.60 15.68794
817.70 15.68586
817.80 15.68379
817.90 15.45423
818.00 15.22468
818.10 14.99513
818.20 14.76557
818.30 14.53602
818.40 14.30646
818.50 14.07691
818.60 14.22697
818.70 14.37703
818.80 14.52709
818.90 14.67715
819.00 14.82722
819.10 14.97728
819.20 15.12734
819.30 15.19542
819.40 15.26349
819.50 15.33157
819.60 15.39965
819.70 15.46773
819.80 15.5358
819.90 15.60388
820.00 15.73173
820.10 15.85959
820.20 15.98744
820.30 16.11529
820.40 16.24315
820.50 16.371
820.60 16.49885
820.70 16.75394
820.80 17.00902
820.90 17.2641
821.00 17.51919
821.10 17.77427
821.20 18.02935
821.30 18.28444
821.40 18.19021
821.50 18.09598
821.60 18.00175
821.70 17.90752
821.80 17.81329
821.90 17.71906
822.00 17.62483
822.10 17.50798
822.20 17.39113
822.30 17.27427
822.40 17.15742
822.50 17.04057
822.60 16.92371
822.70 16.80686
822.80 16.93119
822.90 17.05551
823.00 17.17984
823.10 17.30416
823.20 17.42848
823.30 17.55281
823.40 17.67713
823.50 17.91167
823.60 18.14621
823.70 18.38074
823.80 18.61528
823.90 18.84981
824.00 19.08435
824.10 19.31888
824.20 19.46957
824.30 19.62025
824.40 19.77094
824.50 19.92162
824.60 20.0723
824.70 20.22299
824.80 20.37367
824.90 20.34503
825.00 20.31639
825.10 20.28774
825.20 20.2591
825.30 20.23046
825.40 20.20182
825.50 20.17317
825.60 20.1958
825.70 20.21842
825.80 20.24104
825.90 20.26367
826.00 20.28629
826.10 20.30891
826.20 20.33154
826.30 20.37637
826.40 20.4212
826.50 20.46603
826.60 20.51086
826.70 20.5557
826.80 20.60053
826.90 20.64536
827.00 20.72278
827.10 20.80019
827.20 20.87761
827.30 20.95503
827.40 21.03245
827.50 21.10986
827.60 21.18728
827.70 21.32572
827.80 21.46416
827.90 21.6026
828.00 21.74103
828.10 21.87947
828.20 22.01791
828.30 22.15635
828.40 22.37303
828.50 22.58972
828.60 22.80641
828.70 23.02309
828.80 23.23978
828.90 23.45646
829.00 23.67315
829.10 23.73064
829.20 23.78814
829.30 23.84563
829.40 23.90312
829.50 23.96061
829.60 24.0181
829.70 24.0756
829.80 23.88921
829.90 23.70283
830.00 23.51645
830.10 23.33006
830.20 23.14368
830.30 22.9573
830.40 22.77092
830.50 22.72152
830.60 22.67212
830.70 22.62272
830.80 22.57332
830.90 22.52393
831.00 22.47453
831.10 22.42513
831.20 22.52932
831.30 22.63351
831.40 22.73771
831.50 22.8419
831.60 22.94609
831.70 23.05028
831.80 23.15447
831.90 23.12313
832.00 23.09179
832.10 23.06045
832.20 23.02911
832.30 22.99777
832.40 22.96643
832.50 22.93509
832.60 23.13227
832.70 23.32944
832.80 23.52662
832.90 23.72379
833.00 23.92097
833.10 24.11815
833.20 24.31532
833.30 24.42616
833.40 24.53699
833.50 24.64782
833.60 24.75866
833.70 24.86949
833.80 24.98032
833.90 25.09116
834.00 25.06459
834.10 25.03802
834.20 25.01146
834.30 24.98489
834.40 24.95832
834.50 24.93176
834.60 24.90519
834.70 24.86368
834.80 24.82217
834.90 24.78066
835.00 24.73915
835.10 24.69764
835.20 24.65612
835.30 24.61461
835.40 24.28232
835.50 23.95003
835.60 23.61773
835.70 23.28544
835.80 22.95315
835.90 22.62085
836.00 22.28856
836.10 22.51562
836.20 22.74269
836.30 22.96975
836.40 23.19682
836.50 23.42388
836.60 23.65094
836.70 23.87801
836.80 24.05173
836.90 24.22545
837.00 24.39917
837.10 24.5729
837.20 24.74662
837.30 24.92034
837.40 25.09406
837.50 25.15156
837.60 25.20905
837.70 25.26654
837.80 25.32403
837.90 25.38152
838.00 25.43902
838.10 25.49651
838.20 25.71299
838.30 25.92947
838.40 26.14594
838.50 26.36242
838.60 26.5789
838.70 26.79538
838.80 27.01186
838.90 27.0789
839.00 27.14594
839.10 27.21298
839.20 27.28002
839.30 27.34706
839.40 27.4141
839.50 27.48114
839.60 27.64739
839.70 27.81364
839.80 27.97989
839.90 28.14614
840.00 28.31239
840.10 28.47864
840.20 28.64489
840.30 28.7111
840.40 28.77731
840.50 28.84352
840.60 28.90973
840.70 28.97594
840.80 29.04215
840.90 29.10836
841.00 29.09072
841.10 29.07307
841.20 29.05543
841.30 29.03779
841.40 29.02015
841.50 29.0025
841.60 28.98486
841.70 29.01247
841.80 29.04007
841.90 29.06768
842.00 29.09528
842.10 29.12289
842.20 29.15049
842.30 29.1781
842.40 28.99794
842.50 28.81778
842.60 28.63763
842.70 28.45747
842.80 28.27731
842.90 28.09716
843.00 27.917
843.10 27.38027
843.20 26.84353
843.30 26.3068
843.40 25.77006
843.50 25.23333
843.60 24.6966
843.70 24.15986
843.80 24.28585
843.90 24.41183
844.00 24.53782
844.10 24.6638
844.20 24.78979
844.30 24.91577
844.40 25.04176
844.50 24.97638
844.60 24.911
844.70 24.84562
844.80 24.78024
844.90 24.71486
845.00 24.64948
845.10 24.5841
845.20 24.70199
845.30 24.81988
845.40 24.93777
845.50 25.05567
845.60 25.17356
845.70 25.29145
845.80 25.40934
845.90 25.51913
846.00 25.62893
846.10 25.73872
846.20 25.84852
846.30 25.95832
846.40 26.06811
846.50 26.17791
846.60 26.24868
846.70 26.31946
846.80 26.39024
846.90 26.46101
847.00 26.53179
847.10 26.60256
847.20 26.67334
847.30 26.46931
847.40 26.26529
847.50 26.06126
847.60 25.85724
847.70 25.65321
847.80 25.44919
847.90 25.24516
848.00 25.24537
848.10 25.24558
848.20 25.24578
848.30 25.24599
848.40 25.2462
848.50 25.24641
848.60 25.24661
848.70 25.34105
848.80 25.43549
848.90 25.52993
849.00 25.62436
849.10 25.7188
849.20 25.81324
849.30 25.90767
849.40 25.84727
849.50 25.78688
849.60 25.72648
849.70 25.66608
849.80 25.60568
849.90 25.54528
850.00 25.48489
850.10 25.63183
850.20 25.77878
850.30 25.92573
850.40 26.07268
850.50 26.21963
850.60 26.36657
850.70 26.51352
850.80 26.1391
850.90 25.76467
851.00 25.39024
851.10 25.01582
851.20 24.64139
851.30 24.26696
851.40 23.89253
851.50 23.40354
851.60 22.91454
851.70 22.42555
851.80 21.93655
851.90 21.44755
852.00 20.95856
852.10 20.46956
852.20 20.78048
852.30 21.09139
852.40 21.40231
852.50 21.71322
852.60 22.02414
852.70 22.33505
852.80 22.64597
852.90 23.3118
853.00 23.97763
853.10 24.64346
853.20 25.3093
853.30 25.97513
853.40 26.64096
853.50 27.30679
853.60 27.43983
853.70 27.57288
853.80 27.70592
853.90 27.83896
854.00 27.972
854.10 28.10504
854.20 28.23809
854.30 28.3815
854.40 28.52492
854.50 28.66834
854.60 28.81176
854.70 28.95518
854.80 29.0986
854.90 29.24202
855.00 29.35659
855.10 29.47116
855.20 29.58573
855.30 29.7003
855.40 29.81487
855.50 29.92944
855.60 30.04401
855.70 30.05542
855.80 30.06684
855.90 30.07826
856.00 30.08967
856.10 30.10109
856.20 30.1125
856.30 30.12392
856.40 30.2883
856.50 30.45268
856.60 30.61706
856.70 30.78145
856.80 30.94583
856.90 31.11021
857.00 31.27459
857.10 31.31299
857.20 31.35139
857.30 31.38979
857.40 31.42818
857.50 31.46658
857.60 31.50498
857.70 31.54338
857.80 31.51183
857.90 31.48028
858.00 31.44873
858.10 31.41718
858.20 31.38564
858.30 31.35409
858.40 31.32254
858.50 31.47115
858.60 31.61976
858.70 31.76836
858.80 31.91697
858.90 32.06558
859.00 32.21419
859.10 32.3628
859.20 32.37961
859.30 32.39642
859.40 32.41323
859.50 32.43005
859.60 32.44686
859.70 32.46367
859.80 32.48048
859.90 32.154
860.00 31.82752
860.10 31.50104
860.20 31.17455
860.30 30.84807
860.40 30.52159
860.50 30.19511
860.60 29.66128
860.70 29.12745
860.80 28.59362
860.90 28.0598
861.00 27.52597
861.10 26.99214
861.20 26.45831
861.30 25.44628
861.40 24.43425
861.50 23.42222
861.60 22.41019
861.70 21.39816
861.80 20.38612
861.90 19.37409
862.00 18.98701
862.10 18.59992
862.20 18.21283
862.30 17.82574
862.40 17.43866
862.50 17.05157
862.60 16.66448
862.70 16.59578
862.80 16.52708
862.90 16.45838
863.00 16.38968
863.10 16.32098
863.20 16.25228
863.30 16.18358
863.40 16.02189
863.50 15.86021
863.60 15.69853
863.70 15.53684
863.80 15.37516
863.90 15.21347
864.00 15.05179
864.10 15.62567
864.20 16.19956
864.30 16.77345
864.40 17.34733
864.50 17.92122
864.60 18.4951
864.70 19.06899
864.80 19.20224
864.90 19.33549
865.00 19.46874
865.10 19.60199
865.20 19.73524
865.30 19.86849
865.40 20.00173
865.50 20.39941
865.60 20.79708
865.70 21.19475
865.80 21.59243
865.90 21.9901
866.00 22.38777
866.10 22.78544
866.20 22.97328
866.30 23.16112
866.40 23.34895
866.50 23.53679
866.60 23.72462
866.70 23.91246
866.80 24.1003
866.90 23.85538
867.00 23.61047
867.10 23.36556
867.20 23.12064
867.30 22.87573
867.40 22.63082
867.50 22.3859
867.60 22.34086
867.70 22.29582
867.80 22.25079
867.90 22.20575
868.00 22.16071
868.10 22.11567
868.20 22.07063
868.30 22.0781
868.40 22.08557
868.50 22.09305
868.60 22.10052
868.70 22.10799
868.80 22.11546
868.90 22.12293
869.00 22.0258
869.10 21.92866
869.20 21.83153
869.30 21.73439
869.40 21.63726
869.50 21.54012
869.60 21.44299
869.70 21.22755
869.80 21.01211
869.90 20.79667
870.00 20.58122
870.10 20.36578
870.20 20.15034
870.30 19.9349
870.40 19.67982
870.50 19.42474
870.60 19.16965
870.70 18.91457
870.80 18.65949
870.90 18.4044
871.00 18.14932
871.10 18.03454
871.20 17.91976
871.30 17.80499
871.40 17.69021
871.50 17.57543
871.60 17.46066
871.70 17.34588
871.80 17.49677
871.90 17.64766
872.00 17.79855
872.10 17.94944
872.20 18.10034
872.30 18.25123
872.40 18.40212
872.50 18.50154
872.60 18.60096
872.70 18.70037
872.80 18.79979
872.90 18.89921
873.00 18.99863
873.10 19.09805
873.20 19.23565
873.30 19.37326
873.40 19.51087
873.50 19.64848
873.60 19.78609
873.70 19.92369
873.80 20.0613
873.90 20.07479
874.00 20.08828
874.10 20.10178
874.20 20.11527
874.30 20.12876
874.40 20.14225
874.50 20.15574
874.60 20.58081
874.70 21.00588
874.80 21.43095
874.90 21.85602
875.00 22.28109
875.10 22.70616
875.20 23.13123
875.30 23.05651
875.40 22.98179
875.50 22.90707
875.60 22.83235
875.70 22.75763
875.80 22.68291
875.90 22.60819
876.00 22.82654
876.10 23.04489
876.20 23.26323
876.30 23.48158
876.40 23.69993
876.50 23.91827
876.60 24.13662
876.70 24.28855
876.80 24.44048
876.90 24.59241
877.00 24.74433
877.10 24.89626
877.20 25.04819
877.30 25.20012
877.40 25.08887
877.50 24.97763
877.60 24.86638
877.70 24.75513
877.80 24.64388
877.90 24.53263
878.00 24.42138
878.10 24.02765
878.20 23.63392
878.30 23.24019
878.40 22.84646
878.50 22.45274
878.60 22.05901
878.70 21.66528
878.80 21.883
878.90 22.10072
879.00 22.31845
879.10 22.53617
879.20 22.7539
879.30 22.97162
879.40 23.18934
879.50 23.05443
879.60 22.91952
879.70 22.78461
879.80 22.6497
879.90 22.51479
880.00 22.37988
880.10 22.24497
880.20 22.60985
880.30 22.97473
880.40 23.33961
880.50 23.70449
880.60 24.06937
880.70 24.43425
880.80 24.79913
880.90 25.03449
881.00 25.26986
881.10 25.50523
881.20 25.74059
881.30 25.97596
881.40 26.21132
881.50 26.44669
881.60 26.75387
881.70 27.06105
881.80 27.36823
881.90 27.67541
882.00 27.98259
882.10 28.28977
882.20 28.59695
882.30 28.89022
882.40 29.18349
882.50 29.47677
882.60 29.77004
882.70 30.06331
882.80 30.35658
882.90 30.64986
883.00 30.30947
883.10 29.96908
883.20 29.62869
883.30 29.28831
883.40 28.94792
883.50 28.60753
883.60 28.26714
883.70 28.39167
883.80 28.51621
883.90 28.64074
884.00 28.76527
884.10 28.8898
884.20 29.01434
884.30 29.13887
884.40 28.95747
884.50 28.77606
884.60 28.59466
884.70 28.41326
884.80 28.23186
884.90 28.05046
885.00 27.86905
885.10 27.95955
885.20 28.05004
885.30 28.14053
885.40 28.23103
885.50 28.32152
885.60 28.41201
885.70 28.50251
885.80 28.25448
885.90 28.00646
886.00 27.75843
886.10 27.5104
886.20 27.26238
886.30 27.01435
886.40 26.76632
886.50 27.13348
886.60 27.50065
886.70 27.86781
886.80 28.23497
886.90 28.60213
887.00 28.9693
887.10 29.33646
887.20 29.66688
887.30 29.99731
887.40 30.32773
887.50 30.65816
887.60 30.98859
887.70 31.31901
887.80 31.64944
887.90 31.698
888.00 31.74657
888.10 31.79514
888.20 31.84371
888.30 31.89227
888.40 31.94084
888.50 31.98941
888.60 32.19384
888.70 32.39827
888.80 32.6027
888.90 32.80713
889.00 33.01156
889.10 33.216
889.20 33.42043
889.30 33.62486
889.40 33.82929
889.50 34.03372
889.60 34.23815
889.70 34.44258
889.80 34.64701
889.90 34.85144
890.00 35.05588
890.10 35.26031
890.20 35.46474
890.30 35.66917
890.40 35.8736
890.50 36.07803
890.60 36.10215
890.70 36.08119
890.80 36.06023
890.90 36.03926
891.00 36.0183
891.10 35.99734
891.20 35.97638
891.30 35.95542
891.40 35.93446
891.50 35.9135
891.60 35.89254
891.70 35.87157
891.80 35.94433
891.90 36.15766
892.00 36.37099
892.10 36.58432
892.20 36.79765
892.30 37.01098
892.40 37.22431
892.50 37.43764
892.60 37.65097
892.70 37.8643
892.80 38.07763
892.90 38.29096
893.00 38.50429
893.10 38.58544
893.20 38.66526
893.30 38.74507
893.40 38.82489
893.50 38.9047
893.60 38.98452
893.70 39.06433
893.80 39.14414
893.90 39.22396
894.00 39.30377
894.10 39.38359
894.20 39.4634
894.30 39.46584
894.40 39.41452
894.50 39.36319
894.60 39.31187
894.70 39.26054
894.80 39.20922
894.90 39.1579
895.00 39.10657
895.10 39.05525
895.20 39.00392
895.30 38.9526
895.40 38.90127
895.50 38.87794
895.60 38.98216
895.70 39.08639
895.80 39.19061
895.90 39.29483
896.00 39.39905
896.10 39.50327
896.20 39.60749
896.30 39.71171
896.40 39.81593
896.50 39.92015
896.60 40.02437
896.70 40.12859
896.80 40.21946
896.90 40.30656
897.00 40.39366
897.10 40.48076
897.20 40.56787
897.30 40.65497
897.40 40.74207
897.50 40.82917
897.60 40.91628
897.70 41.00338
897.80 41.09048
897.90 41.17758
898.00 41.07979
898.10 40.66716
898.20 40.25454
898.30 39.84192
898.40 39.42929
898.50 39.01667
898.60 38.60404
898.70 38.19142
898.80 37.7788
898.90 37.36617
899.00 36.95355
899.10 36.54093
899.20 36.1283
899.30 36.02303
899.40 35.93057
899.50 35.8381
899.60 35.74564
899.70 35.65318
899.80 35.56071
899.90 35.46825
900.00 35.37578
900.10 35.28332
900.20 35.19085
900.30 35.09839
900.40 35.00593
900.50 34.98701
900.60 35.02828
900.70 35.06955
900.80 35.11082
900.90 35.15209
901.00 35.19336
901.10 35.23462
901.20 35.27589
901.30 35.31716
901.40 35.35843
901.50 35.3997
901.60 35.44096
901.70 35.47464
901.80 35.46168
901.90 35.44872
902.00 35.43576
902.10 35.4228
902.20 35.40984
902.30 35.39688
902.40 35.38392
902.50 35.37096
902.60 35.358
902.70 35.34504
902.80 35.33208
902.90 35.31912
903.00 35.3477
903.10 35.39165
903.20 35.4356
903.30 35.47955
903.40 35.5235
903.50 35.56745
903.60 35.6114
903.70 35.65535
903.80 35.6993
903.90 35.74325
904.00 35.7872
904.10 35.83115
904.20 35.92014
904.30 36.10487
904.40 36.2896
904.50 36.47433
904.60 36.65906
904.70 36.84379
904.80 37.02852
904.90 37.21325
905.00 37.39798
905.10 37.58271
905.20 37.76744
905.30 37.95217
905.40 38.1369
905.50 38.28385
905.60 38.42706
905.70 38.57028
905.80 38.7135
905.90 38.85671
906.00 38.99993
906.10 39.14314
906.20 39.28636
906.30 39.42957
906.40 39.57279
906.50 39.716
906.60 39.85922
906.70 39.97224
906.80 40.05507
906.90 40.13791
907.00 40.22074
907.10 40.30357
907.20 40.38641
907.30 40.46924
907.40 40.55207
907.50 40.6349
907.60 40.71774
907.70 40.80057
907.80 40.8834
907.90 41.00627
908.00 41.58958
908.10 42.17288
908.20 42.75618
908.30 43.33949
908.40 43.92279
908.50 44.5061
908.60 45.0894
908.70 45.67271
908.80 46.25601
908.90 46.83931
909.00 47.42262
909.10 48.00592
909.20 48.3843
909.30 48.66173
909.40 48.93917
909.50 49.21661
909.60 49.49405
909.70 49.77149
909.80 50.04893
909.90 50.32637
910.00 50.6038
910.10 50.88124
910.20 51.15868
910.30 51.43612
910.40 51.56921
910.50 51.26929
910.60 50.96936
910.70 50.66943
910.80 50.3695
910.90 50.06957
911.00 49.76964
911.10 49.46971
911.20 49.16978
911.30 48.86985
911.40 48.56992
911.50 48.26999
911.60 47.97006
911.70 47.7785
911.80 47.60757
911.90 47.43664
912.00 47.26571
912.10 47.09478
912.20 46.92385
912.30 46.75292
912.40 46.58199
912.50 46.41106
912.60 46.24013
912.70 46.0692
912.80 45.89827
912.90 45.90652
913.00 46.16221
913.10 46.4179
913.20 46.67359
913.30 46.92927
913.40 47.18496
913.50 47.44065
913.60 47.69633
913.70 47.95202
913.80 48.20771
913.90 48.4634
914.00 48.71908
914.10 48.97744
914.20 49.50009
914.30 50.02274
914.40 50.54539
914.50 51.06804
914.60 51.59069
914.70 52.11334
914.80 52.63598
914.90 53.15863
915.00 53.68128
915.10 54.20393
915.20 54.72658
915.30 55.24923
915.40 55.55911
915.50 55.72112
915.60 55.88314
915.70 56.04515
915.80 56.20717
915.90 56.36918
916.00 56.5312
916.10 56.69321
916.20 56.85523
916.30 57.01724
916.40 57.17926
916.50 57.34128
916.60 57.42408
916.70 57.12012
916.80 56.81616
916.90 56.5122
917.00 56.20825
917.10 55.90429
917.20 55.60033
917.30 55.29637
917.40 54.99242
917.50 54.68846
917.60 54.3845
917.70 54.08054
917.80 53.77659
917.90 53.86163
918.00 54.07635
918.10 54.29106
918.20 54.50578
918.30 54.72049
918.40 54.9352
918.50 55.14992
918.60 55.36463
918.70 55.57935
918.80 55.79406
918.90 56.00878
919.00 56.22349
919.10 56.45697
919.20 56.72855
919.30 57.00013
919.40 57.2717
919.50 57.54328
919.60 57.81486
919.70 58.08644
919.80 58.35801
919.90 58.62959
920.00 58.90117
920.10 59.17275
920.20 59.44433
920.30 59.7159
920.40 59.64255
920.50 59.53508
920.60 59.42761
920.70 59.32014
920.80 59.21268
920.90 59.10521
921.00 58.99774
921.10 58.89027
921.20 58.7828
921.30 58.67533
921.40 58.56787
921.50 58.4604
921.60 58.38877
921.70 58.35443
921.80 58.3201
921.90 58.28577
922.00 58.25143
922.10 58.2171
922.20 58.18277
922.30 58.14843
922.40 58.1141
922.50 58.07977
922.60 58.04543
922.70 58.0111
922.80 57.97503
922.90 57.91591
923.00 57.85679
923.10 57.79767
923.20 57.73855
923.30 57.67943
923.40 57.6203
923.50 57.56118
923.60 57.50206
923.70 57.44294
923.80 57.38382
923.90 57.3247
924.00 57.26558
924.10 57.15517
924.20 57.01714
924.30 56.87911
924.40 56.74108
924.50 56.60305
924.60 56.46502
924.70 56.32699
924.80 56.18896
924.90 56.05094
925.00 55.91291
925.10 55.77488
925.20 55.63685
925.30 55.54407
925.40 55.61175
925.50 55.67942
925.60 55.74709
925.70 55.81476
925.80 55.88243
925.90 55.95011
926.00 56.01778
926.10 56.08545
926.20 56.15312
926.30 56.2208
926.40 56.28847
926.50 56.35614
926.60 56.22997
926.70 56.05535
926.80 55.88072
926.90 55.7061
927.00 55.53147
927.10 55.35685
927.20 55.18222
927.30 55.00759
927.40 54.83297
927.50 54.65834
927.60 54.48372
927.70 54.30909
927.80 54.09779
927.90 53.82405
928.00 53.55031
928.10 53.27657
928.20 53.00283
928.30 52.72908
928.40 52.45534
928.50 52.1816
928.60 51.90786
928.70 51.63412
928.80 51.36038
928.90 51.08663
929.00 50.81289
929.10 50.80736
929.20 50.81593
929.30 50.82451
929.40 50.83309
929.50 50.84167
929.60 50.85025
929.70 50.85883
929.80 50.86741
929.90 50.87599
930.00 50.88457
930.10 50.89315
930.20 50.90173
930.30 51.06007
930.40 51.35666
930.50 51.65325
930.60 51.94983
930.70 52.24642
930.80 52.54301
930.90 52.8396
931.00 53.13619
931.10 53.43277
931.20 53.72936
931.30 54.02595
931.40 54.32254
931.50 54.63431
931.60 55.08279
931.70 55.53126
931.80 55.97974
931.90 56.42821
932.00 56.87669
932.10 57.32516
932.20 57.77363
932.30 58.22211
932.40 58.67058
932.50 59.11906
932.60 59.56753
932.70 60.01601
932.80 60.29727
932.90 60.49617
933.00 60.69507
933.10 60.89398
933.20 61.09288
933.30 61.29178
933.40 61.49068
933.50 61.68959
933.60 61.88849
933.70 62.08739
933.80 62.28629
933.90 62.4852
934.00 62.598
934.10 62.43815
934.20 62.27829
934.30 62.11844
934.40 61.95859
934.50 61.79874
934.60 61.63889
934.70 61.47904
934.80 61.31919
934.90 61.15933
935.00 60.99948
935.10 60.83963
935.20 60.67978
935.30 60.20902
935.40 59.66533
935.50 59.12164
935.60 58.57796
935.70 58.03427
935.80 57.49058
935.90 56.94689
936.00 56.4032
936.10 55.85951
936.20 55.31582
936.30 54.77214
936.40 54.22845
936.50 54.02732
936.60 54.38512
936.70 54.74291
936.80 55.10071
936.90 55.4585
937.00 55.8163
937.10 56.17409
937.20 56.53189
937.30 56.88968
937.40 57.24748
937.50 57.60528
937.60 57.96307
937.70 58.32087
937.80 58.58943
937.90 58.8533
938.00 59.11716
938.10 59.38103
938.20 59.6449
938.30 59.90876
938.40 60.17263
938.50 60.4365
938.60 60.70037
938.70 60.96423
938.80 61.2281
938.90 61.49197
939.00 61.63494
939.10 61.66633
939.20 61.69771
939.30 61.72909
939.40 61.76048
939.50 61.79186
939.60 61.82324
939.70 61.85463
939.80 61.88601
939.90 61.91739
940.00 61.94878
940.10 61.98016
940.20 62.04032
940.30 62.39149
940.40 62.74266
940.50 63.09383
940.60 63.445
940.70 63.79616
940.80 64.14733
940.90 64.4985
941.00 64.84967
941.10 65.20084
941.20 65.552
941.30 65.90317
941.40 66.25434
941.50 66.3946
941.60 66.4262
941.70 66.4578
941.80 66.48941
941.90 66.52101
942.00 66.55261
942.10 66.58422
942.20 66.61582
942.30 66.64742
942.40 66.67903
942.50 66.71063
942.60 66.74224
942.70 66.66238
942.80 66.18736
942.90 65.71234
943.00 65.23733
943.10 64.76231
943.20 64.28729
943.30 63.81227
943.40 63.33725
943.50 62.86223
943.60 62.38721
943.70 61.91219
943.80 61.43717
943.90 60.96215
944.00 60.87068
944.10 60.88115
944.20 60.89163
944.30 60.90211
944.40 60.91258
944.50 60.92306
944.60 60.93353
944.70 60.94401
944.80 60.95449
944.90 60.96496
945.00 60.97544
945.10 60.98591
945.20 61.24298
945.30 61.95801
945.40 62.67304
945.50 63.38807
945.60 64.1031
945.70 64.81813
945.80 65.53316
945.90 66.24819
946.00 66.96322
946.10 67.67825
946.20 68.39328
946.30 69.10831
946.40 69.82334
946.50 70.38404
946.60 70.93132
946.70 71.4786
946.80 72.02588
946.90 72.57316
947.00 73.12045
947.10 73.66773
947.20 74.21501
947.30 74.76229
947.40 75.30957
947.50 75.85685
947.60 76.40413
947.70 76.62301
947.80 76.48613
947.90 76.34925
948.00 76.21236
948.10 76.07548
948.20 75.9386
948.30 75.80171
948.40 75.66483
948.50 75.52794
948.60 75.39106
948.70 75.25418
948.80 75.11729
948.90 74.96208
949.00 74.45851
949.10 73.95494
949.20 73.45138
949.30 72.94781
949.40 72.44425
949.50 71.94068
949.60 71.43711
949.70 70.93355
949.80 70.42998
949.90 69.92642
950.00 69.42285
950.10 68.91928
950.20 68.45744
950.30 68.02228
950.40 67.58712
950.50 67.15196
950.60 66.7168
950.70 66.28163
950.80 65.84647
950.90 65.41131
951.00 64.97615
951.10 64.54099
951.20 64.10582
951.30 63.67066
951.40 63.36636
951.50 63.70093
951.60 64.0355
951.70 64.37007
951.80 64.70464
951.90 65.03921
952.00 65.37378
952.10 65.70835
952.20 66.04292
952.30 66.37749
952.40 66.71206
952.50 67.04663
952.60 67.3812
952.70 67.51923
952.80 67.58458
952.90 67.64992
953.00 67.71526
953.10 67.78061
953.20 67.84595
953.30 67.9113
953.40 67.97664
953.50 68.04199
953.60 68.10733
953.70 68.17268
953.80 68.23802
953.90 68.39733
954.00 68.78668
954.10 69.17604
954.20 69.5654
954.30 69.95475
954.40 70.34411
954.50 70.73347
954.60 71.12282
954.70 71.51218
954.80 71.90154
954.90 72.29089
955.00 72.68025
955.10 73.06961
955.20 73.47486
955.30 73.88291
955.40 74.29097
955.50 74.69902
955.60 75.10708
955.70 75.51513
955.80 75.92319
955.90 76.33124
956.00 76.73929
956.10 77.14735
956.20 77.5554
956.30 77.96346
956.40 78.12877
956.50 77.94478
956.60 77.76079
956.70 77.5768
956.80 77.39281
956.90 77.20881
957.00 77.02482
957.10 76.84083
957.20 76.65684
957.30 76.47285
957.40 76.28886
957.50 76.10486
957.60 75.92087
957.70 75.79832
957.80 75.67767
957.90 75.55701
958.00 75.43636
958.10 75.31571
958.20 75.19505
958.30 75.0744
958.40 74.95375
958.50 74.8331
958.60 74.71244
958.70 74.59179
958.80 74.47114
958.90 74.33884
959.00 74.19579
959.10 74.05275
959.20 73.9097
959.30 73.76666
959.40 73.62361
959.50 73.48057
959.60 73.33752
959.70 73.19448
959.80 73.05143
959.90 72.90839
960.00 72.76534
960.10 72.62283
960.20 72.48639
960.30 72.34996
960.40 72.21352
960.50 72.07709
960.60 71.94065
960.70 71.80422
960.80 71.66778
960.90 71.53135
961.00 71.39491
961.10 71.25848
961.20 71.12204
961.30 70.98561
961.40 70.96797
961.50 71.01716
961.60 71.06635
961.70 71.11554
961.80 71.16472
961.90 71.21391
962.00 71.2631
962.10 71.31229
962.20 71.36147
962.30 71.41066
962.40 71.45985
962.50 71.50904
962.60 71.5937
962.70 71.82962
962.80 72.06554
962.90 72.30146
963.00 72.53737
963.10 72.77329
963.20 73.00921
963.30 73.24512
963.40 73.48104
963.50 73.71696
963.60 73.95287
963.70 74.18879
963.80 74.42471
963.90 74.60461
964.00 74.76584
964.10 74.92707
964.20 75.08829
964.30 75.24952
964.40 75.41075
964.50 75.57198
964.60 75.73321
964.70 75.89444
964.80 76.05566
964.90 76.21689
965.00 76.37812
965.10 76.48627
965.20 76.47058
965.30 76.45488
965.40 76.43918
965.50 76.42349
965.60 76.40779
965.70 76.3921
965.80 76.3764
965.90 76.36071
966.00 76.34501
966.10 76.32931
966.20 76.31362
966.30 76.29792
966.40 76.02668
966.50 75.71034
966.60 75.394
966.70 75.07766
966.80 74.76132
966.90 74.44499
967.00 74.12865
967.10 73.81231
967.20 73.49597
967.30 73.17963
967.40 72.86329
967.50 72.54695
967.60 72.41143
967.70 72.53611
967.80 72.66079
967.90 72.78547
968.00 72.91014
968.10 73.03482
968.20 73.1595
968.30 73.28418
968.40 73.40886
968.50 73.53354
968.60 73.65822
968.70 73.7829
968.80 73.90758
968.90 74.37395
969.00 74.85457
969.10 75.33519
969.20 75.8158
969.30 76.29642
969.40 76.77703
969.50 77.25765
969.60 77.73826
969.70 78.21888
969.80 78.6995
969.90 79.18011
970.00 79.66073
970.10 79.94415
970.20 80.03812
970.30 80.13208
970.40 80.22604
970.50 80.32001
970.60 80.41397
970.70 80.50794
970.80 80.6019
970.90 80.69587
971.00 80.78983
971.10 80.88379
971.20 80.97776
971.30 81.05246
971.40 80.82544
971.50 80.59842
971.60 80.3714
971.70 80.14438
971.80 79.91735
971.90 79.69033
972.00 79.46331
972.10 79.23629
972.20 79.00927
972.30 78.78224
972.40 78.55522
972.50 78.3282
972.60 78.16176
972.70 78.03404
972.80 77.90633
972.90 77.77862
973.00 77.6509
973.10 77.52319
973.20 77.39548
973.30 77.26777
973.40 77.14005
973.50 77.01234
973.60 76.88463
973.70 76.75691
973.80 76.67198
973.90 76.81162
974.00 76.95126
974.10 77.0909
974.20 77.23053
974.30 77.37017
974.40 77.50981
974.50 77.64945
974.60 77.78909
974.70 77.92873
974.80 78.06837
974.90 78.20801
975.00 78.34765
975.10 78.61431
975.20 78.93286
975.30 79.25141
975.40 79.56996
975.50 79.88851
975.60 80.20706
975.70 80.5256
975.80 80.84415
975.90 81.1627
976.00 81.48125
976.10 81.7998
976.20 82.11834
976.30 82.40628
976.40 82.60236
976.50 82.79845
976.60 82.99453
976.70 83.19062
976.80 83.38671
976.90 83.58279
977.00 83.77888
977.10 83.97496
977.20 84.17105
977.30 84.36713
977.40 84.56322
977.50 84.7593
977.60 84.70478
977.70 84.58761
977.80 84.47043
977.90 84.35326
978.00 84.23608
978.10 84.11891
978.20 84.00173
978.30 83.88455
978.40 83.76738
978.50 83.6502
978.60 83.53303
978.70 83.41585
978.80 83.28476
978.90 83.12781
979.00 82.97086
979.10 82.81391
979.20 82.65697
979.30 82.50002
979.40 82.34307
979.50 82.18612
979.60 82.02918
979.70 81.87223
979.80 81.71528
979.90 81.55833
980.00 81.40138
980.10 81.58672
980.20 81.81436
980.30 82.042
980.40 82.26964
980.50 82.49728
980.60 82.72492
980.70 82.95256
980.80 83.1802
980.90 83.40784
981.00 83.63548
981.10 83.86312
981.20 84.09076
981.30 84.41494
981.40 84.86199
981.50 85.30903
981.60 85.75608
981.70 86.20312
981.80 86.65017
981.90 87.09721
982.00 87.54426
982.10 87.9913
982.20 88.43835
982.30 88.88539
982.40 89.33244
982.50 89.77948
982.60 89.59005
982.70 89.38762
982.80 89.1852
982.90 88.98278
983.00 88.78036
983.10 88.57793
983.20 88.37551
983.30 88.17309
983.40 87.97066
983.50 87.76824
983.60 87.56582
983.70 87.36339
983.80 87.1452
983.90 86.91245
984.00 86.6797
984.10 86.44695
984.20 86.21419
984.30 85.98144
984.40 85.74869
984.50 85.51594
984.60 85.28319
984.70 85.05044
984.80 84.81768
984.90 84.58493
985.00 84.34955
985.10 84.07297
985.20 83.79638
985.30 83.5198
985.40 83.24322
985.50 82.96664
985.60 82.69005
985.70 82.41347
985.80 82.13689
985.90 81.8603
986.00 81.58372
986.10 81.30714
986.20 81.03055
986.30 81.01012
986.40 81.15345
986.50 81.29677
986.60 81.4401
986.70 81.58343
986.80 81.72676
986.90 81.87009
987.00 82.01342
987.10 82.15675
987.20 82.30007
987.30 82.4434
987.40 82.58673
987.50 82.68015
987.60 82.49075
987.70 82.30135
987.80 82.11196
987.90 81.92256
988.00 81.73316
988.10 81.54376
988.20 81.35436
988.30 81.16496
988.40 80.97556
988.50 80.78617
988.60 80.59677
988.70 80.40737
988.80 79.50541
988.90 78.28332
989.00 77.06122
989.10 75.83913
989.20 74.61703
989.30 73.39494
989.40 72.17284
989.50 70.95075
989.60 69.72866
989.70 68.50656
989.80 67.28447
989.90 66.06237
990.00 64.83675
990.10 63.59932
990.20 62.3619
990.30 61.12447
990.40 59.88704
990.50 58.64961
990.60 57.41218
990.70 56.17476
990.80 54.93733
990.90 53.6999
991.00 52.46247
991.10 51.22505
991.20 49.98762
991.30 49.39728
991.40 49.00023
991.50 48.60317
991.60 48.20612
991.70 47.80907
991.80 47.41201
991.90 47.01496
992.00 46.61791
992.10 46.22085
992.20 45.8238
992.30 45.42675
992.40 45.02969
992.50 44.83461
992.60 45.11078
992.70 45.38696
992.80 45.66313
992.90 45.93931
993.00 46.21548
993.10 46.49166
993.20 46.76783
993.30 47.04401
993.40 47.32018
993.50 47.59635
993.60 47.87253
993.70 48.1487
993.80 48.67484
993.90 49.24858
994.00 49.82233
994.10 50.39608
994.20 50.96982
994.30 51.54357
994.40 52.11731
994.50 52.69106
994.60 53.26481
994.70 53.83855
994.80 54.4123
994.90 54.98604
995.00 55.35191
995.10 55.37862
995.20 55.40532
995.30 55.43202
995.40 55.45873
995.50 55.48543
995.60 55.51214
995.70 55.53884
995.80 55.56554
995.90 55.59225
996.00 55.61895
996.10 55.64566
996.20 55.67236
996.30 55.55109
996.40 55.41519
996.50 55.27929
996.60 55.14339
996.70 55.00749
996.80 54.87159
996.90 54.73569
997.00 54.59979
997.10 54.46389
997.20 54.32799
997.30 54.19208
997.40 54.05618
997.50 53.90414
997.60 53.73235
997.70 53.56057
997.80 53.38879
997.90 53.21701
998.00 53.04523
998.10 52.87344
998.20 52.70166
998.30 52.52988
998.40 52.3581
998.50 52.18632
998.60 52.01454
998.70 51.84275
998.80 51.73541
998.90 51.62938
999.00 51.52336
999.10 51.41733
999.20 51.3113
999.30 51.20528
999.40 51.09925
999.50 50.99322
999.60 50.88719
999.70 50.78117
999.80 50.67514
999.90 50.56911
1000.00 50.73936
1000.10 51.16464
1000.20 51.58991
1000.30 52.01519
1000.40 52.44047
1000.50 52.86574
1000.60 53.29102
1000.70 53.71629
1000.80 54.14157
1000.90 54.56685
1001.00 54.99212
1001.10 55.4174
1001.20 55.82317
1001.30 56.05345
1001.40 56.28372
1001.50 56.514
1001.60 56.74427
1001.70 56.97455
1001.80 57.20482
1001.90 57.4351
1002.00 57.66537
1002.10 57.89565
1002.20 58.12592
1002.30 58.3562
1002.40 58.58647
1002.50 58.75917
1002.60 58.89349
1002.70 59.0278
1002.80 59.16212
1002.90 59.29643
1003.00 59.43075
1003.10 59.56507
1003.20 59.69938
1003.30 59.8337
1003.40 59.96801
1003.50 60.10233
1003.60 60.23664
1003.70 60.34364
1003.80 60.20482
1003.90 60.06599
1004.00 59.92717
1004.10 59.78834
1004.20 59.64952
1004.30 59.51069
1004.40 59.37187
1004.50 59.23304
1004.60 59.09422
1004.70 58.95539
1004.80 58.81657
1004.90 58.67774
1005.00 58.28952
1005.10 57.73502
1005.20 57.18053
1005.30 56.62603
1005.40 56.07154
1005.50 55.51704
1005.60 54.96255
1005.70 54.40805
1005.80 53.85356
1005.90 53.29906
1006.00 52.74457
1006.10 52.19008
1006.20 51.78824
1006.30 51.99705
1006.40 52.20586
1006.50 52.41466
1006.60 52.62347
1006.70 52.83228
1006.80 53.04108
1006.90 53.24989
1007.00 53.4587
1007.10 53.66751
1007.20 53.87631
1007.30 54.08512
1007.40 54.29393
1007.50 54.80644
1007.60 55.44911
1007.70 56.09178
1007.80 56.73445
1007.90 57.37712
1008.00 58.01979
1008.10 58.66246
1008.20 59.30513
1008.30 59.94781
1008.40 60.59048
1008.50 61.23315
1008.60 61.87582
1008.70 62.478
1008.80 62.91821
1008.90 63.35841
1009.00 63.79862
1009.10 64.23883
1009.20 64.67904
1009.30 65.11925
1009.40 65.55946
1009.50 65.99967
1009.60 66.43988
1009.70 66.88009
1009.80 67.3203
1009.90 67.76051
1010.00 67.80969
1010.10 67.76112
1010.20 67.71255
1010.30 67.66398
1010.40 67.6154
1010.50 67.56683
1010.60 67.51826
1010.70 67.46969
1010.80 67.42111
1010.90 67.37254
1011.00 67.32397
1011.10 67.2754
1011.20 67.14737
1011.30 66.83394
1011.40 66.52052
1011.50 66.20709
1011.60 65.89366
1011.70 65.58024
1011.80 65.26681
1011.90 64.95339
1012.00 64.63996
1012.10 64.32653
1012.20 64.01311
1012.30 63.69968
1012.40 63.38626
1012.50 63.15165
1012.60 62.93676
1012.70 62.72186
1012.80 62.50696
1012.90 62.29206
1013.00 62.07716
1013.10 61.86227
1013.20 61.64737
1013.30 61.43247
1013.40 61.21757
1013.50 61.00268
1013.60 60.78778
1013.70 60.65529
1013.80 60.71509
1013.90 60.7749
1014.00 60.8347
1014.10 60.8945
1014.20 60.9543
1014.30 61.0141
1014.40 61.07391
1014.50 61.13371
1014.60 61.19351
1014.70 61.25331
1014.80 61.31312
1014.90 61.37292
1015.00 61.63092
1015.10 61.91094
1015.20 62.19096
1015.30 62.47098
1015.40 62.751
1015.50 63.03102
1015.60 63.31105
1015.70 63.59107
1015.80 63.87109
1015.90 64.15111
1016.00 64.43113
1016.10 64.71115
1016.20 64.96993
1016.30 65.19685
1016.40 65.42376
1016.50 65.65068
1016.60 65.87759
1016.70 66.10451
1016.80 66.33143
1016.90 66.55834
1017.00 66.78526
1017.10 67.01217
1017.20 67.23909
1017.30 67.46601
1017.40 67.69292
1017.50 67.52358
1017.60 67.3102
1017.70 67.09683
1017.80 66.88345
1017.90 66.67008
1018.00 66.4567
1018.10 66.24333
1018.20 66.02995
1018.30 65.81658
1018.40 65.6032
1018.50 65.38983
1018.60 65.17645
1018.70 65.08087
1018.80 65.16199
1018.90 65.2431
1019.00 65.32422
1019.10 65.40533
1019.20 65.48645
1019.30 65.56756
1019.40 65.64868
1019.50 65.72979
1019.60 65.81091
1019.70 65.89202
1019.80 65.97314
1019.90 66.05425
1020.00 65.95819
1020.10 65.86212
1020.20 65.76606
1020.30 65.66999
1020.40 65.57393
1020.50 65.47787
1020.60 65.3818
1020.70 65.28574
1020.80 65.18967
1020.90 65.09361
1021.00 64.99755
1021.10 64.90148
1021.20 64.8298
1021.30 64.78251
1021.40 64.73521
1021.50 64.68792
1021.60 64.64063
1021.70 64.59333
1021.80 64.54604
1021.90 64.49874
1022.00 64.45145
1022.10 64.40416
1022.20 64.35686
1022.30 64.30957
1022.40 64.26227
1022.50 64.75711
1022.60 65.25195
1022.70 65.74679
1022.80 66.24163
1022.90 66.73646
1023.00 67.2313
1023.10 67.72614
1023.20 68.22098
1023.30 68.71581
1023.40 69.21065
1023.50 69.70549
1023.60 70.20033
1023.70 70.49264
1023.80 70.58243
1023.90 70.67221
1024.00 70.762
1024.10 70.85179
1024.20 70.94158
1024.30 71.03137
1024.40 71.12115
1024.50 71.21094
1024.60 71.30073
1024.70 71.39052
1024.80 71.4803
1024.90 71.57009
1025.00 71.05236
1025.10 70.53464
1025.20 70.01691
1025.30 69.49918
1025.40 68.98145
1025.50 68.46373
1025.60 67.946
1025.70 67.42827
1025.80 66.91054
1025.90 66.39282
1026.00 65.87509
1026.10 65.35736
1026.20 65.07352
1026.30 64.9456
1026.40 64.81767
1026.50 64.68975
1026.60 64.56183
1026.70 64.4339
1026.80 64.30598
1026.90 64.17806
1027.00 64.05014
1027.10 63.92221
1027.20 63.79429
1027.30 63.66637
1027.40 63.57999
1027.50 63.86753
1027.60 64.15507
1027.70 64.44262
1027.80 64.73016
1027.90 65.0177
1028.00 65.30524
1028.10 65.59278
1028.20 65.88032
1028.30 66.16786
1028.40 66.45541
1028.50 66.74295
1028.60 67.03049
1028.70 67.236
1028.80 67.38684
1028.90 67.53767
1029.00 67.6885
1029.10 67.83933
1029.20 67.99016
1029.30 68.14099
1029.40 68.29183
1029.50 68.44266
1029.60 68.59349
1029.70 68.74432
1029.80 68.89515
1029.90 69.03489
1030.00 69.07474
1030.10 69.1146
1030.20 69.15445
1030.30 69.19431
1030.40 69.23416
1030.50 69.27402
1030.60 69.31387
1030.70 69.35373
1030.80 69.39358
1030.90 69.43344
1031.00 69.4733
1031.10 69.51315
1031.20 69.82754
1031.30 70.32496
1031.40 70.82238
1031.50 71.3198
1031.60 71.81722
1031.70 72.31463
1031.80 72.81205
1031.90 73.30947
1032.00 73.80689
1032.10 74.30431
1032.20 74.80172
1032.30 75.29914
1032.40 75.79253
1032.50 76.24961
1032.60 76.70669
1032.70 77.16377
1032.80 77.62085
1032.90 78.07793
1033.00 78.53502
1033.10 78.9921
1033.20 79.44918
1033.30 79.90626
1033.40 80.36334
1033.50 80.82042
1033.60 81.27751
1033.70 81.19948
1033.80 80.89212
1033.90 80.58476
1034.00 80.2774
1034.10 79.97004
1034.20 79.66269
1034.30 79.35533
1034.40 79.04797
1034.50 78.74061
1034.60 78.43325
1034.70 78.12589
1034.80 77.81853
1034.90 77.51166
1035.00 77.20674
1035.10 76.90183
1035.20 76.59691
1035.30 76.29199
1035.40 75.98707
1035.50 75.68216
1035.60 75.37724
1035.70 75.07232
1035.80 74.7674
1035.90 74.46248
1036.00 74.15757
1036.10 73.85265
1036.20 73.68884
1036.30 73.58551
1036.40 73.48219
1036.50 73.37886
1036.60 73.27553
1036.70 73.1722
1036.80 73.06887
1036.90 72.96554
1037.00 72.86222
1037.10 72.75889
1037.20 72.65556
1037.30 72.55223
1037.40 72.44176
1037.50 72.30275
1037.60 72.16374
1037.70 72.02473
1037.80 71.88572
1037.90 71.74671
1038.00 71.6077
1038.10 71.46869
1038.20 71.32968
1038.30 71.19066
1038.40 71.05165
1038.50 70.91264
1038.60 70.77363
1038.70 70.78604
1038.80 70.86335
1038.90 70.94065
1039.00 71.01796
1039.10 71.09526
1039.20 71.17256
1039.30 71.24987
1039.40 71.32717
1039.50 71.40448
1039.60 71.48178
1039.70 71.55909
1039.80 71.63639
1039.90 71.79672
1040.00 72.28917
1040.10 72.78161
1040.20 73.27405
1040.30 73.7665
1040.40 74.25894
1040.50 74.75138
1040.60 75.24383
1040.70 75.73627
1040.80 76.22871
1040.90 76.72116
1041.00 77.2136
1041.10 77.70604
1041.20 77.94454
1041.30 78.07419
1041.40 78.20385
1041.50 78.3335
1041.60 78.46315
1041.70 78.59281
1041.80 78.72246
1041.90 78.85212
1042.00 78.98177
1042.10 79.11143
1042.20 79.24108
1042.30 79.37074
1042.40 79.53547
1042.50 79.84054
1042.60 80.14561
1042.70 80.45068
1042.80 80.75575
1042.90 81.06082
1043.00 81.36589
1043.10 81.67096
1043.20 81.97603
1043.30 82.28109
1043.40 82.58616
1043.50 82.89123
1043.60 83.1963
1043.70 83.78435
1043.80 84.49367
1043.90 85.20298
1044.00 85.9123
1044.10 86.62162
1044.20 87.33094
1044.30 88.04026
1044.40 88.74958
1044.50 89.4589
1044.60 90.16822
1044.70 90.87754
1044.80 91.58686
1044.90 92.13726
1045.00 92.31686
1045.10 92.49646
1045.20 92.67606
1045.30 92.85566
1045.40 93.03526
1045.50 93.21486
1045.60 93.39445
1045.70 93.57405
1045.80 93.75365
1045.90 93.93325
1046.00 94.11285
1046.10 94.29245
1046.20 93.79061
1046.30 93.11842
1046.40 92.44623
1046.50 91.77403
1046.60 91.10184
1046.70 90.42965
1046.80 89.75745
1046.90 89.08526
1047.00 88.41307
1047.10 87.74087
1047.20 87.06868
1047.30 86.39649
1047.40 86.00863
1047.50 86.28421
1047.60 86.55979
1047.70 86.83537
1047.80 87.11095
1047.90 87.38653
1048.00 87.66212
1048.10 87.9377
1048.20 88.21328
1048.30 88.48886
1048.40 88.76444
1048.50 89.04002
1048.60 89.3156
1048.70 89.63591
1048.80 89.9674
1048.90 90.29889
1049.00 90.63038
1049.10 90.96186
1049.20 91.29335
1049.30 91.62484
1049.40 91.95633
1049.50 92.28782
1049.60 92.6193
1049.70 92.95079
1049.80 93.28228
1049.90 93.44598
1050.00 93.21817
1050.10 92.99036
1050.20 92.76255
1050.30 92.53473
1050.40 92.30692
1050.50 92.07911
1050.60 91.8513
1050.70 91.62349
1050.80 91.39568
1050.90 91.16787
1051.00 90.94006
1051.10 90.71225
1051.20 90.82882
1051.30 91.03149
1051.40 91.23416
1051.50 91.43683
1051.60 91.6395
1051.70 91.84217
1051.80 92.04484
1051.90 92.24751
1052.00 92.45018
1052.10 92.65285
1052.20 92.85552
1052.30 93.05819
1052.40 93.29433
1052.50 93.60857
1052.60 93.9228
1052.70 94.23703
1052.80 94.55126
1052.90 94.8655
1053.00 95.17973
1053.10 95.49396
1053.20 95.8082
1053.30 96.12243
1053.40 96.43666
1053.50 96.75089
1053.60 96.94917
1053.70 96.87686
1053.80 96.80456
1053.90 96.73225
1054.00 96.65995
1054.10 96.58765
1054.20 96.51534
1054.30 96.44304
1054.40 96.37073
1054.50 96.29843
1054.60 96.22613
1054.70 96.15382
1054.80 96.08152
1054.90 95.97336
1055.00 95.86122
1055.10 95.74908
1055.20 95.63694
1055.30 95.5248
1055.40 95.41266
1055.50 95.30052
1055.60 95.18837
1055.70 95.07623
1055.80 94.96409
1055.90 94.85195
1056.00 94.73981
1056.10 94.70502
1056.20 94.74757
1056.30 94.79013
1056.40 94.83268
1056.50 94.87524
1056.60 94.91779
1056.70 94.96035
1056.80 95.0029
1056.90 95.04546
1057.00 95.08801
1057.10 95.13057
1057.20 95.17312
1057.30 95.22359
1057.40 95.34526
1057.50 95.46692
1057.60 95.58859
1057.70 95.71026
1057.80 95.83192
1057.90 95.95359
1058.00 96.07526
1058.10 96.19692
1058.20 96.31859
1058.30 96.44026
1058.40 96.56192
1058.50 96.68359
1058.60 96.65634
1058.70 96.56528
1058.80 96.47421
1058.90 96.38315
1059.00 96.29208
1059.10 96.20101
1059.20 96.10995
1059.30 96.01888
1059.40 95.92781
1059.50 95.83675
1059.60 95.74568
1059.70 95.65462
1059.80 95.56387
1059.90 95.47439
1060.00 95.3849
1060.10 95.29542
1060.20 95.20594
1060.30 95.11646
1060.40 95.02698
1060.50 94.9375
1060.60 94.84802
1060.70 94.75854
1060.80 94.66906
1060.90 94.57958
1061.00 94.4901
1061.10 94.62273
1061.20 94.81089
1061.30 94.99905
1061.40 95.18721
1061.50 95.37537
1061.60 95.56352
1061.70 95.75168
1061.80 95.93984
1061.90 96.128
1062.00 96.31616
1062.10 96.50432
1062.20 96.69248
1062.30 96.94285
1062.40 97.28655
1062.50 97.63025
1062.60 97.97395
1062.70 98.31765
1062.80 98.66135
1062.90 99.00505
1063.00 99.34874
1063.10 99.69244
1063.20 100.0361
1063.30 100.3798
1063.40 100.7235
1063.50 101.0672
1063.60 101.1058
1063.70 101.1444
1063.80 101.183
1063.90 101.2216
1064.00 101.2602
1064.10 101.2987
1064.20 101.3373
1064.30 101.3759
1064.40 101.4145
1064.50 101.4531
1064.60 101.4917
1064.70 101.5302
1064.80 101.3778
1064.90 101.098
1065.00 100.8182
1065.10 100.5384
1065.20 100.2586
1065.30 99.97879
1065.40 99.69899
1065.50 99.41919
1065.60 99.13939
1065.70 98.85959
1065.80 98.57978
1065.90 98.29998
1066.00 98.04724
1066.10 98.03802
1066.20 98.0288
1066.30 98.01958
1066.40 98.01036
1066.50 98.00114
1066.60 97.99192
1066.70 97.98269
1066.80 97.97347
1066.90 97.96425
1067.00 97.95503
1067.10 97.94581
1067.20 97.93659
1067.30 98.12579
1067.40 98.40003
1067.50 98.67428
1067.60 98.94852
1067.70 99.22276
1067.80 99.497
1067.90 99.77124
1068.00 100.0455
1068.10 100.3197
1068.20 100.594
1068.30 100.8682
1068.40 101.1425
1068.50 101.351
1068.60 101.4064
1068.70 101.4617
1068.80 101.517
1068.90 101.5724
1069.00 101.6277
1069.10 101.6831
1069.20 101.7384
1069.30 101.7937
1069.40 101.8491
1069.50 101.9044
1069.60 101.9597
1069.70 102.0151
1069.80 102.0494
1069.90 102.0815
1070.00 102.1135
1070.10 102.1455
1070.20 102.1776
1070.30 102.2096
1070.40 102.2416
1070.50 102.2737
1070.60 102.3057
1070.70 102.3377
1070.80 102.3698
1070.90 102.4018
1071.00 102.5283
1071.10 102.7492
1071.20 102.97
1071.30 103.1909
1071.40 103.4118
1071.50 103.6327
1071.60 103.8536
1071.70 104.0745
1071.80 104.2953
1071.90 104.5162
1072.00 104.7371
1072.10 104.958
1072.20 105.1789
1072.30 105.5319
1072.40 105.885
1072.50 106.2381
1072.60 106.5912
1072.70 106.9442
1072.80 107.2973
1072.90 107.6504
1073.00 108.0035
1073.10 108.3565
1073.20 108.7096
1073.30 109.0627
1073.40 109.4157
1073.50 109.6675
1073.60 109.8518
1073.70 110.036
1073.80 110.2203
1073.90 110.4046
1074.00 110.5888
1074.10 110.7731
1074.20 110.9573
1074.30 111.1416
1074.40 111.3258
1074.50 111.5101
1074.60 111.6944
1074.70 111.8246
1074.80 111.7387
1074.90 111.6529
1075.00 111.567
1075.10 111.4811
1075.20 111.3953
1075.30 111.3094
1075.40 111.2236
1075.50 111.1377
1075.60 111.0518
1075.70 110.966
1075.80 110.8801
1075.90 110.7943
1076.00 110.5677
1076.10 110.3059
1076.20 110.0441
1076.30 109.7824
1076.40 109.5206
1076.50 109.2588
1076.60 108.997
1076.70 108.7353
1076.80 108.4735
1076.90 108.2117
1077.00 107.9499
1077.10 107.6882
1077.20 107.4641
1077.30 107.3281
1077.40 107.192
1077.50 107.0559
1077.60 106.9199
1077.70 106.7838
1077.80 106.6478
1077.90 106.5117
1078.00 106.3757
1078.10 106.2396
1078.20 106.1036
1078.30 105.9675
1078.40 105.8315
1078.50 105.6867
1078.60 105.5409
1078.70 105.3951
1078.80 105.2494
1078.90 105.1036
1079.00 104.9578
1079.10 104.8121
1079.20 104.6663
1079.30 104.5205
1079.40 104.3747
1079.50 104.229
1079.60 104.0832
1079.70 104.0824
1079.80 104.2266
1079.90 104.3707
1080.00 104.5149
1080.10 104.6591
1080.20 104.8032
1080.30 104.9474
1080.40 105.0915
1080.50 105.2357
1080.60 105.3799
1080.70 105.524
1080.80 105.6682
1080.90 105.8395
1081.00 106.2552
1081.10 106.6709
1081.20 107.0865
1081.30 107.5022
1081.40 107.9179
1081.50 108.3336
1081.60 108.7492
1081.70 109.1649
1081.80 109.5806
1081.90 109.9963
1082.00 110.4119
1082.10 110.8276
1082.20 111.1975
1082.30 111.5477
1082.40 111.898
1082.50 112.2482
1082.60 112.5985
1082.70 112.9487
1082.80 113.299
1082.90 113.6492
1083.00 113.9995
1083.10 114.3497
1083.20 114.7
1083.30 115.0502
1083.40 115.3097
1083.50 115.2064
1083.60 115.1031
1083.70 114.9998
1083.80 114.8965
1083.90 114.7932
1084.00 114.6899
1084.10 114.5866
1084.20 114.4833
1084.30 114.38
1084.40 114.2767
1084.50 114.1734
1084.60 114.0701
1084.70 114.1098
1084.80 114.1854
1084.90 114.2609
1085.00 114.3364
1085.10 114.412
1085.20 114.4875
1085.30 114.5631
1085.40 114.6386
1085.50 114.7141
1085.60 114.7897
1085.70 114.8652
1085.80 114.9408
1085.90 115.0784
1086.00 115.3092
1086.10 115.5401
1086.20 115.7709
1086.30 116.0017
1086.40 116.2326
1086.50 116.4634
1086.60 116.6942
1086.70 116.9251
1086.80 117.1559
1086.90 117.3867
1087.00 117.6176
1087.10 117.8484
1087.20 117.8495
1087.30 117.8506
1087.40 117.8518
1087.50 117.8529
1087.60 117.854
1087.70 117.8551
1087.80 117.8563
1087.90 117.8574
1088.00 117.8585
1088.10 117.8597
1088.20 117.8608
1088.30 117.8619
1088.40 117.9198
1088.50 118.0346
1088.60 118.1493
1088.70 118.2641
1088.80 118.3788
1088.90 118.4936
1089.00 118.6083
1089.10 118.723
1089.20 118.8378
1089.30 118.9525
1089.40 119.0673
1089.50 119.182
1089.60 119.3024
1089.70 119.474
1089.80 119.6455
1089.90 119.817
1090.00 119.9886
1090.10 120.1601
1090.20 120.3316
1090.30 120.5032
1090.40 120.6747
1090.50 120.8462
1090.60 121.0178
1090.70 121.1893
1090.80 121.3608
1090.90 121.4529
1091.00 121.5109
1091.10 121.569
1091.20 121.627
1091.30 121.685
1091.40 121.7431
1091.50 121.8011
1091.60 121.8591
1091.70 121.9172
1091.80 121.9752
1091.90 122.0332
1092.00 122.0913
1092.10 122.1247
1092.20 122.0594
1092.30 121.9942
1092.40 121.9289
1092.50 121.8637
1092.60 121.7984
1092.70 121.7332
1092.80 121.6679
1092.90 121.6027
1093.00 121.5374
1093.10 121.4722
1093.20 121.4069
1093.30 121.3417
1093.40 121.27
1093.50 121.1968
1093.60 121.1236
1093.70 121.0504
1093.80 120.9772
1093.90 120.9039
1094.00 120.8307
1094.10 120.7575
1094.20 120.6843
1094.30 120.6111
1094.40 120.5378
1094.50 120.4646
1094.60 120.5374
1094.70 120.8292
1094.80 121.121
1094.90 121.4128
1095.00 121.7046
1095.10 121.9964
1095.20 122.2883
1095.30 122.5801
1095.40 122.8719
1095.50 123.1637
1095.60 123.4555
1095.70 123.7473
1095.80 124.0391
1095.90 123.9838
1096.00 123.9284
1096.10 123.8731
1096.20 123.8178
1096.30 123.7625
1096.40 123.7071
1096.50 123.6518
1096.60 123.5965
1096.70 123.5412
1096.80 123.4858
1096.90 123.4305
1097.00 123.3752
1097.10 123.2304
1097.20 122.9961
1097.30 122.7618
1097.40 122.5275
1097.50 122.2932
1097.60 122.0589
1097.70 121.8246
1097.80 121.5904
1097.90 121.3561
1098.00 121.1218
1098.10 120.8875
1098.20 120.6532
1098.30 120.4385
1098.40 120.4
1098.50 120.3615
1098.60 120.323
1098.70 120.2845
1098.80 120.2461
1098.90 120.2076
1099.00 120.1691
1099.10 120.1306
1099.20 120.0921
1099.30 120.0536
1099.40 120.0151
1099.50 119.9766
1099.60 119.9242
1099.70 119.8658
1099.80 119.8074
1099.90 119.749
1100.00 119.6906
1100.10 119.6322
1100.20 119.5738
1100.30 119.5154
1100.40 119.457
1100.50 119.3985
1100.60 119.3401
1100.70 119.2817
1100.80 119.2409
1100.90 119.2701
1101.00 119.2993
1101.10 119.3286
1101.20 119.3578
1101.30 119.387
1101.40 119.4163
1101.50 119.4455
1101.60 119.4747
1101.70 119.504
1101.80 119.5332
1101.90 119.5624
1102.00 119.5917
1102.10 119.6677
1102.20 119.7555
1102.30 119.8433
1102.40 119.931
1102.50 120.0188
1102.60 120.1066
1102.70 120.1943
1102.80 120.2821
1102.90 120.3699
1103.00 120.4576
1103.10 120.5454
1103.20 120.6332
1103.30 120.5309
1103.40 120.1437
1103.50 119.7564
1103.60 119.3692
1103.70 118.9819
1103.80 118.5946
1103.90 118.2074
1104.00 117.8201
1104.10 117.4329
1104.20 117.0456
1104.30 116.6583
1104.40 116.2711
1104.50 115.8838
1104.60 115.4993
1104.70 115.1148
1104.80 114.7303
1104.90 114.3459
1105.00 113.9614
1105.10 113.5769
1105.20 113.1924
1105.30 112.8079
1105.40 112.4234
1105.50 112.0389
1105.60 111.6544
1105.70 111.2699
1105.80 111.0739
1105.90 111.0663
1106.00 111.0587
1106.10 111.0512
1106.20 111.0436
1106.30 111.036
1106.40 111.0284
1106.50 111.0208
1106.60 111.0133
1106.70 111.0057
1106.80 110.9981
1106.90 110.9905
1107.00 111.0111
1107.10 111.2852
1107.20 111.5593
1107.30 111.8333
1107.40 112.1074
1107.50 112.3815
1107.60 112.6556
1107.70 112.9296
1107.80 113.2037
1107.90 113.4778
1108.00 113.7519
1108.10 114.026
1108.20 114.3
1108.30 114.4078
1108.40 114.4443
1108.50 114.4809
1108.60 114.5174
1108.70 114.5539
1108.80 114.5904
1108.90 114.6269
1109.00 114.6635
1109.10 114.7
1109.20 114.7365
1109.30 114.773
1109.40 114.8095
1109.50 114.7521
1109.60 114.3188
1109.70 113.8855
1109.80 113.4522
1109.90 113.0189
1110.00 112.5855
1110.10 112.1522
1110.20 111.7189
1110.30 111.2856
1110.40 110.8523
1110.50 110.419
1110.60 109.9857
1110.70 109.5524
1110.80 109.2705
1110.90 109.0265
1111.00 108.7825
1111.10 108.5385
1111.20 108.2945
1111.30 108.0505
1111.40 107.8064
1111.50 107.5624
1111.60 107.3184
1111.70 107.0744
1111.80 106.8304
1111.90 106.5864
1112.00 106.5361
1112.10 106.7765
1112.20 107.017
1112.30 107.2574
1112.40 107.4978
1112.50 107.7382
1112.60 107.9786
1112.70 108.219
1112.80 108.4594
1112.90 108.6998
1113.00 108.9402
1113.10 109.1806
1113.20 109.4211
1113.30 109.7393
1113.40 110.0661
1113.50 110.3929
1113.60 110.7198
1113.70 111.0466
1113.80 111.3734
1113.90 111.7003
1114.00 112.0271
1114.10 112.354
1114.20 112.6808
1114.30 113.0076
1114.40 113.3345
1114.50 113.4877
1114.60 113.4672
1114.70 113.4467
1114.80 113.4262
1114.90 113.4057
1115.00 113.3853
1115.10 113.3648
1115.20 113.3443
1115.30 113.3238
1115.40 113.3033
1115.50 113.2828
1115.60 113.2624
1115.70 113.2261
1115.80 113.0478
1115.90 112.8695
1116.00 112.6912
1116.10 112.513
1116.20 112.3347
1116.30 112.1564
1116.40 111.9781
1116.50 111.7998
1116.60 111.6215
1116.70 111.4433
1116.80 111.265
1116.90 111.0867
1117.00 110.978
1117.10 110.9157
1117.20 110.8535
1117.30 110.7912
1117.40 110.729
1117.50 110.6667
1117.60 110.6044
1117.70 110.5422
1117.80 110.4799
1117.90 110.4176
1118.00 110.3554
1118.10 110.2931
1118.20 110.26
1118.30 110.3436
1118.40 110.4272
1118.50 110.5108
1118.60 110.5944
1118.70 110.678
1118.80 110.7615
1118.90 110.8451
1119.00 110.9287
1119.10 111.0123
1119.20 111.0959
1119.30 111.1795
1119.40 111.2631
1119.50 111.3103
1119.60 111.3485
1119.70 111.3867
1119.80 111.4249
1119.90 111.4631
1120.00 111.5013
1120.10 111.5395
1120.20 111.5777
1120.30 111.6159
1120.40 111.6541
1120.50 111.6923
1120.60 111.7305
1120.70 111.7537
1120.80 111.7422
1120.90 111.7306
1121.00 111.719
1121.10 111.7075
1121.20 111.6959
1121.30 111.6843
1121.40 111.6728
1121.50 111.6612
1121.60 111.6497
1121.70 111.6381
1121.80 111.6265
1121.90 111.615
1122.00 111.7749
1122.10 111.9539
1122.20 112.1329
1122.30 112.3119
1122.40 112.4909
1122.50 112.6699
1122.60 112.8489
1122.70 113.028
1122.80 113.207
1122.90 113.386
1123.00 113.565
1123.10 113.744
1123.20 114.086
1123.30 114.6727
1123.40 115.2594
1123.50 115.8461
1123.60 116.4327
1123.70 117.0194
1123.80 117.6061
1123.90 118.1927
1124.00 118.7794
1124.10 119.3661
1124.20 119.9527
1124.30 120.5394
1124.40 121.1261
1124.50 121.3763
1124.60 121.6266
1124.70 121.8768
1124.80 122.1271
1124.90 122.3774
1125.00 122.6276
1125.10 122.8779
1125.20 123.1281
1125.30 123.3784
1125.40 123.6286
1125.50 123.8789
1125.60 124.1292
1125.70 124.1423
1125.80 123.9972
1125.90 123.8522
1126.00 123.7072
1126.10 123.5622
1126.20 123.4172
1126.30 123.2721
1126.40 123.1271
1126.50 122.9821
1126.60 122.8371
1126.70 122.6921
1126.80 122.547
1126.90 122.4087
1127.00 122.3302
1127.10 122.2517
1127.20 122.1732
1127.30 122.0947
1127.40 122.0162
1127.50 121.9377
1127.60 121.8592
1127.70 121.7806
1127.80 121.7021
1127.90 121.6236
1128.00 121.5451
1128.10 121.4666
1128.20 121.5264
1128.30 121.6455
1128.40 121.7646
1128.50 121.8837
1128.60 122.0028
1128.70 122.1218
1128.80 122.2409
1128.90 122.36
1129.00 122.4791
1129.10 122.5981
1129.20 122.7172
1129.30 122.8363
1129.40 122.9053
1129.50 122.8573
1129.60 122.8094
1129.70 122.7615
1129.80 122.7136
1129.90 122.6657
1130.00 122.6177
1130.10 122.5698
1130.20 122.5219
1130.30 122.474
1130.40 122.4261
1130.50 122.3781
1130.60 122.3302
1130.70 122.0221
1130.80 121.6489
1130.90 121.2757
1131.00 120.9025
1131.10 120.5293
1131.20 120.1561
1131.30 119.7829
1131.40 119.4097
1131.50 119.0366
1131.60 118.6634
1131.70 118.2902
1131.80 117.917
1131.90 117.4732
1132.00 116.9233
1132.10 116.3735
1132.20 115.8237
1132.30 115.2739
1132.40 114.7241
1132.50 114.1743
1132.60 113.6245
1132.70 113.0747
1132.80 112.5249
1132.90 111.9751
1133.00 111.4253
1133.10 110.8755
1133.20 110.3766
1133.30 109.8833
1133.40 109.39
1133.50 108.8968
1133.60 108.4035
1133.70 107.9102
1133.80 107.4169
1133.90 106.9237
1134.00 106.4304
1134.10 105.9371
1134.20 105.4438
1134.30 104.9506
1134.40 104.7407
1134.50 104.8141
1134.60 104.8876
1134.70 104.9611
1134.80 105.0345
1134.90 105.108
1135.00 105.1814
1135.10 105.2549
1135.20 105.3284
1135.30 105.4018
1135.40 105.4753
1135.50 105.5488
1135.60 105.6185
1135.70 105.6542
1135.80 105.6899
1135.90 105.7257
1136.00 105.7614
1136.10 105.7972
1136.20 105.8329
1136.30 105.8686
1136.40 105.9044
1136.50 105.9401
1136.60 105.9759
1136.70 106.0116
1136.80 106.0473
1136.90 105.8276
1137.00 105.4376
1137.10 105.0476
1137.20 104.6576
1137.30 104.2676
1137.40 103.8776
1137.50 103.4876
1137.60 103.0976
1137.70 102.7076
1137.80 102.3176
1137.90 101.9276
1138.00 101.5376
1138.10 101.1621
1138.20 100.8445
1138.30 100.5268
1138.40 100.2092
1138.50 99.89159
1138.60 99.57397
1138.70 99.25635
1138.80 98.93873
1138.90 98.6211
1139.00 98.30348
1139.10 97.98586
1139.20 97.66824
1139.30 97.35062
1139.40 97.21443
1139.50 97.156
1139.60 97.09756
1139.70 97.03913
1139.80 96.9807
1139.90 96.92227
1140.00 96.86384
1140.10 96.80541
1140.20 96.74698
1140.30 96.68855
1140.40 96.63011
1140.50 96.57168
1140.60 96.71286
1140.70 97.31977
1140.80 97.92669
1140.90 98.5336
1141.00 99.14052
1141.10 99.74743
1141.20 100.3543
1141.30 100.9613
1141.40 101.5682
1141.50 102.1751
1141.60 102.782
1141.70 103.3889
1141.80 103.9958
1141.90 104.4305
1142.00 104.846
1142.10 105.2615
1142.20 105.677
1142.30 106.0925
1142.40 106.508
1142.50 106.9236
1142.60 107.3391
1142.70 107.7546
1142.80 108.1701
1142.90 108.5856
1143.00 109.0011
1143.10 109.2429
1143.20 109.2242
1143.30 109.2055
1143.40 109.1868
1143.50 109.168
1143.60 109.1493
1143.70 109.1306
1143.80 109.1119
1143.90 109.0931
1144.00 109.0744
1144.10 109.0557
1144.20 109.037
1144.30 109.0182
1144.40 109.2532
1144.50 109.4882
1144.60 109.7231
1144.70 109.9581
1144.80 110.193
1144.90 110.428
1145.00 110.663
1145.10 110.8979
1145.20 111.1329
1145.30 111.3678
1145.40 111.6028
1145.50 111.8378
1145.60 112.1822
1145.70 112.6361
1145.80 113.09
1145.90 113.5439
1146.00 113.9978
1146.10 114.4517
1146.20 114.9055
1146.30 115.3594
1146.40 115.8133
1146.50 116.2672
1146.60 116.7211
1146.70 117.175
1146.80 117.6309
1146.90 118.1051
1147.00 118.5793
1147.10 119.0535
1147.20 119.5277
1147.30 120.0019
1147.40 120.476
1147.50 120.9502
1147.60 121.4244
1147.70 121.8986
1147.80 122.3728
1147.90 122.847
1148.00 123.3211
1148.10 123.7256
1148.20 124.0834
1148.30 124.4413
1148.40 124.7992
1148.50 125.1571
1148.60 125.515
1148.70 125.8729
1148.80 126.2308
1148.90 126.5887
1149.00 126.9465
1149.10 127.3044
1149.20 127.6623
1149.30 127.9691
1149.40 128.0715
1149.50 128.1739
1149.60 128.2762
1149.70 128.3786
1149.80 128.481
1149.90 128.5834
1150.00 128.6858
1150.10 128.7882
1150.20 128.8905
1150.30 128.9929
1150.40 129.0953
1150.50 129.1977
1150.60 128.9565
1150.70 128.6294
1150.80 128.3023
1150.90 127.9752
1151.00 127.6481
1151.10 127.321
1151.20 126.9939
1151.30 126.6668
1151.40 126.3397
1151.50 126.0126
1151.60 125.6855
1151.70 125.3584
1151.80 125.0149
1151.90 124.6331
1152.00 124.2512
1152.10 123.8694
1152.20 123.4876
1152.30 123.1057
1152.40 122.7239
1152.50 122.3421
1152.60 121.9602
1152.70 121.5784
1152.80 121.1966
1152.90 120.8147
1153.00 120.4329
1153.10 120.5352
1153.20 120.6913
1153.30 120.8474
1153.40 121.0035
1153.50 121.1596
1153.60 121.3157
1153.70 121.4718
1153.80 121.6279
1153.90 121.784
1154.00 121.9401
1154.10 122.0962
1154.20 122.2522
1154.30 122.3703
1154.40 122.4312
1154.50 122.4921
1154.60 122.5531
1154.70 122.614
1154.80 122.6749
1154.90 122.7358
1155.00 122.7968
1155.10 122.8577
1155.20 122.9186
1155.30 122.9795
1155.40 123.0405
1155.50 123.1014
1155.60 122.9013
1155.70 122.7012
1155.80 122.501
1155.90 122.3009
1156.00 122.1008
1156.10 121.9007
1156.20 121.7005
1156.30 121.5004
1156.40 121.3003
1156.50 121.1002
1156.60 120.9
1156.70 120.6999
1156.80 120.5279
1156.90 120.3839
1157.00 120.24
1157.10 120.096
1157.20 119.9521
1157.30 119.8082
1157.40 119.6642
1157.50 119.5203
1157.60 119.3763
1157.70 119.2324
1157.80 119.0885
1157.90 118.9445
1158.00 118.8002
1158.10 118.6528
1158.20 118.5053
1158.30 118.3579
1158.40 118.2104
1158.50 118.063
1158.60 117.9155
1158.70 117.7681
1158.80 117.6206
1158.90 117.4732
1159.00 117.3257
1159.10 117.1783
1159.20 117.0308
1159.30 117.0129
1159.40 117.0812
1159.50 117.1495
1159.60 117.2178
1159.70 117.2861
1159.80 117.3545
1159.90 117.4228
1160.00 117.4911
1160.10 117.5594
1160.20 117.6277
1160.30 117.6961
1160.40 117.7644
1160.50 117.8851
1160.60 118.2151
1160.70 118.5452
1160.80 118.8753
1160.90 119.2053
1161.00 119.5354
1161.10 119.8655
1161.20 120.1955
1161.30 120.5256
1161.40 120.8557
1161.50 121.1858
1161.60 121.5158
1161.70 121.8459
1161.80 122.0329
1161.90 122.1585
1162.00 122.2842
1162.10 122.4098
1162.20 122.5355
1162.30 122.6611
1162.40 122.7868
1162.50 122.9124
1162.60 123.0381
1162.70 123.1637
1162.80 123.2894
1162.90 123.415
1163.00 123.428
1163.10 123.1781
1163.20 122.9283
1163.30 122.6784
1163.40 122.4285
1163.50 122.1787
1163.60 121.9288
1163.70 121.6789
1163.80 121.429
1163.90 121.1792
1164.00 120.9293
1164.10 120.6794
1164.20 120.4296
1164.30 120.1512
1164.40 119.8696
1164.50 119.5881
1164.60 119.3065
1164.70 119.025
1164.80 118.7434
1164.90 118.4618
1165.00 118.1803
1165.10 117.8987
1165.20 117.6172
1165.30 117.3356
1165.40 117.0541
1165.50 116.7754
1165.60 116.5012
1165.70 116.2269
1165.80 115.9527
1165.90 115.6785
1166.00 115.4042
1166.10 115.13
1166.20 114.8557
1166.30 114.5815
1166.40 114.3073
1166.50 114.033
1166.60 113.7588
1166.70 113.4845
1166.80 112.705
1166.90 111.9256
1167.00 111.1461
1167.10 110.3666
1167.20 109.5871
1167.30 108.8076
1167.40 108.0281
1167.50 107.2486
1167.60 106.4692
1167.70 105.6897
1167.80 104.9102
1167.90 104.1307
1168.00 103.253
1168.10 102.2771
1168.20 101.3012
1168.30 100.3253
1168.40 99.34942
1168.50 98.37352
1168.60 97.39762
1168.70 96.42172
1168.80 95.44583
1168.90 94.46993
1169.00 93.49403
1169.10 92.51813
1169.20 91.67438
1169.30 92.02002
1169.40 92.36565
1169.50 92.71128
1169.60 93.05692
1169.70 93.40255
1169.80 93.74818
1169.90 94.09382
1170.00 94.43945
1170.10 94.78508
1170.20 95.13072
1170.30 95.47635
1170.40 95.82198
1170.50 96.60462
1170.60 97.6786
1170.70 98.75258
1170.80 99.82656
1170.90 100.9005
1171.00 101.9745
1171.10 103.0485
1171.20 104.1225
1171.30 105.1965
1171.40 106.2704
1171.50 107.3444
1171.60 108.4184
1171.70 109.3709
1171.80 109.8376
1171.90 110.3043
1172.00 110.7711
1172.10 111.2378
1172.20 111.7045
1172.30 112.1712
1172.40 112.6379
1172.50 113.1046
1172.60 113.5713
1172.70 114.038
1172.80 114.5047
1172.90 114.9714
1173.00 115.1232
1173.10 115.1399
1173.20 115.1567
1173.30 115.1734
1173.40 115.1902
1173.50 115.2069
1173.60 115.2236
1173.70 115.2404
1173.80 115.2571
1173.90 115.2739
1174.00 115.2906
1174.10 115.3074
1174.20 115.153
1174.30 114.5996
1174.40 114.0461
1174.50 113.4927
1174.60 112.9392
1174.70 112.3858
1174.80 111.8323
1174.90 111.2789
1175.00 110.7254
1175.10 110.172
1175.20 109.6185
1175.30 109.0651
1175.40 108.5116
1175.50 107.4163
1175.60 106.1854
1175.70 104.9546
1175.80 103.7238
1175.90 102.4929
1176.00 101.2621
1176.10 100.0313
1176.20 98.80043
1176.30 97.5696
1176.40 96.33877
1176.50 95.10794
1176.60 93.87711
1176.70 92.90381
1176.80 92.31683
1176.90 91.72984
1177.00 91.14286
1177.10 90.55587
1177.20 89.96889
1177.30 89.3819
1177.40 88.79492
1177.50 88.20793
1177.60 87.62095
1177.70 87.03396
1177.80 86.44698
1177.90 85.85999
1178.00 86.5815
1178.10 87.44839
1178.20 88.31528
1178.30 89.18217
1178.40 90.04906
1178.50 90.91595
1178.60 91.78284
1178.70 92.64973
1178.80 93.51662
1178.90 94.38351
1179.00 95.2504
1179.10 96.11729
1179.20 97.09772
1179.30 98.24847
1179.40 99.39922
1179.50 100.55
1179.60 101.7007
1179.70 102.8515
1179.80 104.0022
1179.90 105.153
1180.00 106.3037
1180.10 107.4544
1180.20 108.6052
1180.30 109.7559
1180.40 110.9067
1180.50 111.5179
1180.60 112.1292
1180.70 112.7404
1180.80 113.3516
1180.90 113.9628
1181.00 114.5741
1181.10 115.1853
1181.20 115.7965
1181.30 116.4078
1181.40 117.019
1181.50 117.6302
1181.60 118.2415
1181.70 118.6974
1181.80 118.998
1181.90 119.2986
1182.00 119.5992
1182.10 119.8998
1182.20 120.2004
1182.30 120.501
1182.40 120.8016
1182.50 121.1022
1182.60 121.4028
1182.70 121.7034
1182.80 122.004
1182.90 122.2946
1183.00 122.4945
1183.10 122.6944
1183.20 122.8944
1183.30 123.0943
1183.40 123.2943
1183.50 123.4942
1183.60 123.6941
1183.70 123.8941
1183.80 124.094
1183.90 124.294
1184.00 124.4939
1184.10 124.6938
1184.20 124.7937
1184.30 124.8268
1184.40 124.8599
1184.50 124.893
1184.60 124.9261
1184.70 124.9592
1184.80 124.9923
1184.90 125.0254
1185.00 125.0585
1185.10 125.0916
1185.20 125.1247
1185.30 125.1578
1185.40 125.1666
1185.50 125.0781
1185.60 124.9896
1185.70 124.9012
1185.80 124.8127
1185.90 124.7242
1186.00 124.6358
1186.10 124.5473
1186.20 124.4588
1186.30 124.3704
1186.40 124.2819
1186.50 124.1935
1186.60 124.105
1186.70 123.9489
1186.80 123.7638
1186.90 123.5787
1187.00 123.3936
1187.10 123.2085
1187.20 123.0234
1187.30 122.8383
1187.40 122.6532
1187.50 122.4681
1187.60 122.283
1187.70 122.0979
1187.80 121.9128
1187.90 121.7688
1188.00 121.7206
1188.10 121.6724
1188.20 121.6243
1188.30 121.5761
1188.40 121.5279
1188.50 121.4798
1188.60 121.4316
1188.70 121.3834
1188.80 121.3353
1188.90 121.2871
1189.00 121.2389
1189.10 121.1908
1189.20 121.2656
1189.30 121.3711
1189.40 121.4766
1189.50 121.5821
1189.60 121.6876
1189.70 121.7932
1189.80 121.8987
1189.90 122.0042
1190.00 122.1097
1190.10 122.2152
1190.20 122.3208
1190.30 122.4263
1190.40 122.5317
1190.50 122.637
1190.60 122.7423
1190.70 122.8476
1190.80 122.9529
1190.90 123.0582
1191.00 123.1635
1191.10 123.2688
1191.20 123.3742
1191.30 123.4795
1191.40 123.5848
1191.50 123.6901
1191.60 123.7954
1191.70 123.6752
1191.80 123.53
1191.90 123.3848
1192.00 123.2396
1192.10 123.0944
1192.20 122.9492
1192.30 122.804
1192.40 122.6588
1192.50 122.5136
1192.60 122.3684
1192.70 122.2232
1192.80 122.0779
1192.90 121.8328
1193.00 121.4377
1193.10 121.0427
1193.20 120.6476
1193.30 120.2526
1193.40 119.8575
1193.50 119.4625
1193.60 119.0674
1193.70 118.6724
1193.80 118.2773
1193.90 117.8823
1194.00 117.4872
1194.10 117.0922
1194.20 116.8053
1194.30 116.5185
1194.40 116.2317
1194.50 115.9449
1194.60 115.6581
1194.70 115.3712
1194.80 115.0844
1194.90 114.7976
1195.00 114.5108
1195.10 114.224
1195.20 113.9371
1195.30 113.6503
1195.40 113.3238
1195.50 112.9577
1195.60 112.5915
1195.70 112.2253
1195.80 111.8592
1195.90 111.493
1196.00 111.1269
1196.10 110.7607
1196.20 110.3945
1196.30 110.0284
1196.40 109.6622
1196.50 109.2961
1196.60 108.9233
1196.70 108.4916
1196.80 108.0598
1196.90 107.6281
1197.00 107.1963
1197.10 106.7645
1197.20 106.3328
1197.30 105.901
1197.40 105.4693
1197.50 105.0375
1197.60 104.6057
1197.70 104.174
1197.80 103.7422
1197.90 103.3949
1198.00 103.1038
1198.10 102.8127
1198.20 102.5216
1198.30 102.2305
1198.40 101.9394
1198.50 101.6483
1198.60 101.3572
1198.70 101.0661
1198.80 100.7751
1198.90 100.484
1199.00 100.1929
1199.10 99.92681
1199.20 99.76087
1199.30 99.59493
1199.40 99.42899
1199.50 99.26305
1199.60 99.09711
1199.70 98.93116
1199.80 98.76522
1199.90 98.59928
1200.00 98.43334
1200.10 98.2674
1200.20 98.10146
1200.30 97.93551
1200.40 97.94776
1200.50 98.03638
1200.60 98.12499
1200.70 98.2136
1200.80 98.30222
1200.90 98.39083
1201.00 98.47944
1201.10 98.56806
1201.20 98.65667
1201.30 98.74529
1201.40 98.8339
1201.50 98.92251
1201.60 99.05684
1201.70 99.37402
1201.80 99.69121
1201.90 100.0084
1202.00 100.3256
1202.10 100.6428
1202.20 100.9599
1202.30 101.2771
1202.40 101.5943
1202.50 101.9115
1202.60 102.2287
1202.70 102.5459
1202.80 102.863
1202.90 103.3028
1203.00 103.7731
1203.10 104.2435
1203.20 104.7138
1203.30 105.1842
1203.40 105.6546
1203.50 106.1249
1203.60 106.5953
1203.70 107.0656
1203.80 107.536
1203.90 108.0064
1204.00 108.4767
1204.10 108.9158
1204.20 109.2819
1204.30 109.648
1204.40 110.014
1204.50 110.3801
1204.60 110.7462
1204.70 111.1123
1204.80 111.4783
1204.90 111.8444
1205.00 112.2105
1205.10 112.5766
1205.20 112.9427
1205.30 113.3087
1205.40 113.7271
1205.50 114.1512
1205.60 114.5754
1205.70 114.9996
1205.80 115.4237
1205.90 115.8479
1206.00 116.272
1206.10 116.6962
1206.20 117.1204
1206.30 117.5445
1206.40 117.9687
1206.50 118.3928
1206.60 118.7621
1206.70 119.0491
1206.80 119.3361
1206.90 119.623
1207.00 119.91
1207.10 120.197
1207.20 120.4839
1207.30 120.7709
1207.40 121.0579
1207.50 121.3449
1207.60 121.6318
1207.70 121.9188
1207.80 122.2058
1207.90 122.0687
1208.00 121.8844
1208.10 121.7002
1208.20 121.516
1208.30 121.3317
1208.40 121.1475
1208.50 120.9633
1208.60 120.779
1208.70 120.5948
1208.80 120.4106
1208.90 120.2263
1209.00 120.0421
1209.10 119.6702
1209.20 119.1108
1209.30 118.5513
1209.40 117.9919
1209.50 117.4324
1209.60 116.8729
1209.70 116.3135
1209.80 115.754
1209.90 115.1945
1210.00 114.6351
1210.10 114.0756
1210.20 113.5162
1210.30 112.9567
1210.40 112.7265
1210.50 112.4964
1210.60 112.2662
1210.70 112.036
1210.80 111.8059
1210.90 111.5757
1211.00 111.3456
1211.10 111.1154
1211.20 110.8852
1211.30 110.6551
1211.40 110.4249
1211.50 110.1947
1211.60 110.2875
1211.70 110.5956
1211.80 110.9036
1211.90 111.2117
1212.00 111.5198
1212.10 111.8278
1212.20 112.1359
1212.30 112.444
1212.40 112.7521
1212.50 113.0601
1212.60 113.3682
1212.70 113.6763
1212.80 113.9953
1212.90 114.4134
1213.00 114.8315
1213.10 115.2496
1213.20 115.6677
1213.30 116.0858
1213.40 116.5039
1213.50 116.922
1213.60 117.3401
1213.70 117.7581
1213.80 118.1762
1213.90 118.5943
1214.00 119.0124
1214.10 119.3579
1214.20 119.655
1214.30 119.9521
1214.40 120.2492
1214.50 120.5463
1214.60 120.8434
1214.70 121.1405
1214.80 121.4376
1214.90 121.7347
1215.00 122.0318
1215.10 122.3289
1215.20 122.626
1215.30 122.9082
1215.40 123.1307
1215.50 123.3532
1215.60 123.5757
1215.70 123.7982
1215.80 124.0206
1215.90 124.2431
1216.00 124.4656
1216.10 124.6881
1216.20 124.9106
1216.30 125.1331
1216.40 125.3556
1216.50 125.5781
1216.60 125.7951
1216.70 126.0098
1216.80 126.2244
1216.90 126.4391
1217.00 126.6538
1217.10 126.8685
1217.20 127.0831
1217.30 127.2978
1217.40 127.5125
1217.50 127.7272
1217.60 127.9418
1217.70 128.1565
1217.80 128.3391
1217.90 128.3933
1218.00 128.4475
1218.10 128.5016
1218.20 128.5558
1218.30 128.61
1218.40 128.6642
1218.50 128.7183
1218.60 128.7725
1218.70 128.8267
1218.80 128.8809
1218.90 128.9351
1219.00 128.9892
1219.10 128.8406
1219.20 128.6413
1219.30 128.4419
1219.40 128.2426
1219.50 128.0433
1219.60 127.8439
1219.70 127.6446
1219.80 127.4453
1219.90 127.2459
1220.00 127.0466
1220.10 126.8473
1220.20 126.6479
1220.30 126.4052
1220.40 126.0614
1220.50 125.7175
1220.60 125.3736
1220.70 125.0298
1220.80 124.6859
1220.90 124.342
1221.00 123.9982
1221.10 123.6543
1221.20 123.3104
1221.30 122.9666
1221.40 122.6227
1221.50 122.2788
1221.60 122.2476
1221.70 122.2944
1221.80 122.3413
1221.90 122.3882
1222.00 122.435
1222.10 122.4819
1222.20 122.5288
1222.30 122.5756
1222.40 122.6225
1222.50 122.6694
1222.60 122.7162
1222.70 122.7631
1222.80 123.0149
1222.90 123.5743
1223.00 124.1336
1223.10 124.6929
1223.20 125.2522
1223.30 125.8116
1223.40 126.3709
1223.50 126.9302
1223.60 127.4895
1223.70 128.0488
1223.80 128.6082
1223.90 129.1675
1224.00 129.7268
1224.10 130.1479
1224.20 130.5537
1224.30 130.9594
1224.40 131.3652
1224.50 131.771
1224.60 132.1767
1224.70 132.5825
1224.80 132.9883
1224.90 133.394
1225.00 133.7998
1225.10 134.2055
1225.20 134.6113
1225.30 134.8605
1225.40 134.9531
1225.50 135.0456
1225.60 135.1382
1225.70 135.2308
1225.80 135.3234
1225.90 135.4159
1226.00 135.5085
1226.10 135.6011
1226.20 135.6937
1226.30 135.7863
1226.40 135.8788
1226.50 135.9714
1226.60 136.0073
1226.70 136.0431
1226.80 136.0789
1226.90 136.1148
1227.00 136.1506
1227.10 136.1865
1227.20 136.2223
1227.30 136.2582
1227.40 136.294
1227.50 136.3299
1227.60 136.3657
1227.70 136.4016
1227.80 136.2755
1227.90 135.9877
1228.00 135.6998
1228.10 135.412
1228.20 135.1241
1228.30 134.8363
1228.40 134.5484
1228.50 134.2605
1228.60 133.9727
1228.70 133.6848
1228.80 133.397
1228.90 133.1091
1229.00 132.834
1229.10 132.6732
1229.20 132.5125
1229.30 132.3517
1229.40 132.191
1229.50 132.0302
1229.60 131.8695
1229.70 131.7088
1229.80 131.548
1229.90 131.3873
1230.00 131.2265
1230.10 131.0658
1230.20 130.905
1230.30 130.799
1230.40 130.7295
1230.50 130.66
1230.60 130.5905
1230.70 130.5211
1230.80 130.4516
1230.90 130.3821
1231.00 130.3126
1231.10 130.2431
1231.20 130.1736
1231.30 130.1041
1231.40 130.0346
1231.50 129.946
1231.60 129.6851
1231.70 129.4242
1231.80 129.1633
1231.90 128.9025
1232.00 128.6416
1232.10 128.3807
1232.20 128.1198
1232.30 127.859
1232.40 127.5981
1232.50 127.3372
1232.60 127.0764
1232.70 126.8155
1232.80 126.6433
1232.90 126.5092
1233.00 126.3751
1233.10 126.241
1233.20 126.1069
1233.30 125.9728
1233.40 125.8387
1233.50 125.7046
1233.60 125.5705
1233.70 125.4364
1233.80 125.3023
1233.90 125.1682
1234.00 125.0818
1234.10 125.1861
1234.20 125.2904
1234.30 125.3947
1234.40 125.499
1234.50 125.6033
1234.60 125.7077
1234.70 125.812
1234.80 125.9163
1234.90 126.0206
1235.00 126.1249
1235.10 126.2292
1235.20 126.3336
1235.30 126.3881
1235.40 126.4214
1235.50 126.4547
1235.60 126.4879
1235.70 126.5212
1235.80 126.5545
1235.90 126.5877
1236.00 126.621
1236.10 126.6543
1236.20 126.6875
1236.30 126.7208
1236.40 126.7541
1236.50 126.7582
1236.60 126.646
1236.70 126.5337
1236.80 126.4215
1236.90 126.3093
1237.00 126.197
1237.10 126.0848
1237.20 125.9726
1237.30 125.8603
1237.40 125.7481
1237.50 125.6359
1237.60 125.5236
1237.70 125.4114
1237.80 125.0868
1237.90 124.7091
1238.00 124.3314
1238.10 123.9537
1238.20 123.576
1238.30 123.1983
1238.40 122.8206
1238.50 122.4429
1238.60 122.0652
1238.70 121.6875
1238.80 121.3098
1238.90 120.9321
1239.00 120.5328
1239.10 120.0831
1239.20 119.6334
1239.30 119.1838
1239.40 118.7341
1239.50 118.2844
1239.60 117.8348
1239.70 117.3851
1239.80 116.9354
1239.90 116.4858
1240.00 116.0361
1240.10 115.5864
1240.20 115.1367
1240.30 114.7479
1240.40 114.3743
1240.50 114.0007
1240.60 113.627
1240.70 113.2534
1240.80 112.8798
1240.90 112.5062
1241.00 112.1325
1241.10 111.7589
1241.20 111.3853
1241.30 111.0117
1241.40 110.6381
1241.50 110.1541
1241.60 109.5048
1241.70 108.8554
1241.80 108.206
1241.90 107.5567
1242.00 106.9073
1242.10 106.2579
1242.20 105.6086
1242.30 104.9592
1242.40 104.3098
1242.50 103.6605
1242.60 103.0111
1242.70 102.3617
1242.80 102.2566
1242.90 102.2119
1243.00 102.1672
1243.10 102.1225
1243.20 102.0778
1243.30 102.0331
1243.40 101.9884
1243.50 101.9437
1243.60 101.899
1243.70 101.8543
1243.80 101.8096
1243.90 101.7649
1244.00 102.0872
1244.10 102.9603
1244.20 103.8333
1244.30 104.7064
1244.40 105.5794
1244.50 106.4524
1244.60 107.3255
1244.70 108.1985
1244.80 109.0715
1244.90 109.9446
1245.00 110.8176
1245.10 111.6907
1245.20 112.5637
1245.30 113.3243
1245.40 114.0849
1245.50 114.8455
1245.60 115.606
1245.70 116.3666
1245.80 117.1272
1245.90 117.8878
1246.00 118.6484
1246.10 119.409
1246.20 120.1696
1246.30 120.9301
1246.40 121.6907
1246.50 122.1927
1246.60 122.436
1246.70 122.6793
1246.80 122.9227
1246.90 123.166
1247.00 123.4093
1247.10 123.6527
1247.20 123.896
1247.30 124.1393
1247.40 124.3826
1247.50 124.626
1247.60 124.8693
1247.70 125.1126
1247.80 124.9219
1247.90 124.7311
1248.00 124.5404
1248.10 124.3496
1248.20 124.1589
1248.30 123.9681
1248.40 123.7774
1248.50 123.5867
1248.60 123.3959
1248.70 123.2052
1248.80 123.0144
1248.90 122.8237
1249.00 122.5338
1249.10 122.1448
1249.20 121.7558
1249.30 121.3669
1249.40 120.9779
1249.50 120.5889
1249.60 120.1999
1249.70 119.8109
1249.80 119.4219
1249.90 119.033
1250.00 118.644
1250.10 118.255
1250.20 117.8369
1250.30 117.1566
1250.40 116.4763
1250.50 115.796
1250.60 115.1157
1250.70 114.4354
1250.80 113.7551
1250.90 113.0748
1251.00 112.3945
1251.10 111.7142
1251.20 111.0339
1251.30 110.3536
1251.40 109.6733
1251.50 109.1971
1251.60 108.857
1251.70 108.5169
1251.80 108.1767
1251.90 107.8366
1252.00 107.4965
1252.10 107.1563
1252.20 106.8162
1252.30 106.4761
1252.40 106.1359
1252.50 105.7958
1252.60 105.4556
1252.70 105.2333
1252.80 106.0709
1252.90 106.9085
1253.00 107.7461
1253.10 108.5837
1253.20 109.4213
1253.30 110.259
1253.40 111.0966
1253.50 111.9342
1253.60 112.7718
1253.70 113.6094
1253.80 114.447
1253.90 115.2846
1254.00 116.3333
1254.10 117.5227
1254.20 118.7121
1254.30 119.9015
1254.40 121.0909
1254.50 122.2803
1254.60 123.4697
1254.70 124.6591
1254.80 125.8485
1254.90 127.0379
1255.00 128.2273
1255.10 129.4167
1255.20 130.5194
1255.30 131.275
1255.40 132.0306
1255.50 132.7862
1255.60 133.5418
1255.70 134.2974
1255.80 135.053
1255.90 135.8086
1256.00 136.5643
1256.10 137.3199
1256.20 138.0755
1256.30 138.8311
1256.40 139.5867
1256.50 139.8918
1256.60 140.0037
1256.70 140.1157
1256.80 140.2277
1256.90 140.3397
1257.00 140.4517
1257.10 140.5636
1257.20 140.6756
1257.30 140.7876
1257.40 140.8996
1257.50 141.0115
1257.60 141.1235
1257.70 141.2002
1257.80 141.136
1257.90 141.0718
1258.00 141.0075
1258.10 140.9433
1258.20 140.879
1258.30 140.8148
1258.40 140.7506
1258.50 140.6863
1258.60 140.6221
1258.70 140.5578
1258.80 140.4936
1258.90 140.4294
1259.00 140.4702
1259.10 140.5562
1259.20 140.6421
1259.30 140.728
1259.40 140.814
1259.50 140.8999
1259.60 140.9858
1259.70 141.0718
1259.80 141.1577
1259.90 141.2436
1260.00 141.3295
1260.10 141.4155
1260.20 141.5555
1260.30 141.8216
1260.40 142.0877
1260.50 142.3539
1260.60 142.62
1260.70 142.8861
1260.80 143.1523
1260.90 143.4184
1261.00 143.6845
1261.10 143.9507
1261.20 144.2168
1261.30 144.4829
1261.40 144.749
1261.50 144.775
1261.60 144.7409
1261.70 144.7069
1261.80 144.6728
1261.90 144.6387
1262.00 144.6046
1262.10 144.5705
1262.20 144.5365
1262.30 144.5024
1262.40 144.4683
1262.50 144.4342
1262.60 144.4001
1262.70 144.3178
1262.80 144.123
1262.90 143.9281
1263.00 143.7332
1263.10 143.5383
1263.20 143.3435
1263.30 143.1486
1263.40 142.9537
1263.50 142.7589
1263.60 142.564
1263.70 142.3691
1263.80 142.1742
1263.90 141.9794
1264.00 142.0335
1264.10 142.15
1264.20 142.2664
1264.30 142.3828
1264.40 142.4993
1264.50 142.6157
1264.60 142.7321
1264.70 142.8485
1264.80 142.965
1264.90 143.0814
1265.00 143.1978
1265.10 143.3143
1265.20 143.5133
1265.30 143.8362
1265.40 144.1591
1265.50 144.482
1265.60 144.8049
1265.70 145.1278
1265.80 145.4507
1265.90 145.7736
1266.00 146.0965
1266.10 146.4194
1266.20 146.7423
1266.30 147.0652
1266.40 147.3881
1266.50 147.6708
1266.60 147.949
1266.70 148.2273
1266.80 148.5055
1266.90 148.7838
1267.00 149.0621
1267.10 149.3403
1267.20 149.6186
1267.30 149.8968
1267.40 150.1751
1267.50 150.4533
1267.60 150.7316
1267.70 150.9534
1267.80 151.0904
1267.90 151.2274
1268.00 151.3645
1268.10 151.5015
1268.20 151.6385
1268.30 151.7756
1268.40 151.9126
1268.50 152.0496
1268.60 152.1867
1268.70 152.3237
1268.80 152.4607
1268.90 152.5978
1269.00 152.4
1269.10 152.1649
1269.20 151.9299
1269.30 151.6949
1269.40 151.4599
1269.50 151.2249
1269.60 150.9899
1269.70 150.7548
1269.80 150.5198
1269.90 150.2848
1270.00 150.0498
1270.10 149.8148
1270.20 149.5247
1270.30 149.1521
1270.40 148.7794
1270.50 148.4068
1270.60 148.0342
1270.70 147.6615
1270.80 147.2889
1270.90 146.9162
1271.00 146.5436
1271.10 146.171
1271.20 145.7983
1271.30 145.4257
1271.40 145.053
1271.50 145.0133
1271.60 144.9735
1271.70 144.9337
1271.80 144.8939
1271.90 144.8541
1272.00 144.8143
1272.10 144.7745
1272.20 144.7348
1272.30 144.695
1272.40 144.6552
1272.50 144.6154
1272.60 144.5756
1272.70 144.5562
1272.80 144.5571
1272.90 144.558
1273.00 144.559
1273.10 144.5599
1273.20 144.5608
1273.30 144.5618
1273.40 144.5627
1273.50 144.5636
1273.60 144.5646
1273.70 144.5655
1273.80 144.5664
1273.90 144.5673
1274.00 144.9898
1274.10 145.4123
1274.20 145.8347
1274.30 146.2572
1274.40 146.6796
1274.50 147.1021
1274.60 147.5246
1274.70 147.947
1274.80 148.3695
1274.90 148.792
1275.00 149.2144
1275.10 149.6369
1275.20 150.0164
1275.30 150.353
1275.40 150.6896
1275.50 151.0262
1275.60 151.3628
1275.70 151.6994
1275.80 152.036
1275.90 152.3726
1276.00 152.7092
1276.10 153.0458
1276.20 153.3824
1276.30 153.719
1276.40 154.0556
1276.50 153.5954
1276.60 153.1352
1276.70 152.6749
1276.80 152.2147
1276.90 151.7545
1277.00 151.2942
1277.10 150.834
1277.20 150.3738
1277.30 149.9135
1277.40 149.4533
1277.50 148.9931
1277.60 148.5328
1277.70 148.2747
1277.80 148.1512
1277.90 148.0278
1278.00 147.9044
1278.10 147.7809
1278.20 147.6575
1278.30 147.5341
1278.40 147.4106
1278.50 147.2872
1278.60 147.1638
1278.70 147.0403
1278.80 146.9169
1278.90 146.8345
1279.00 147.122
1279.10 147.4094
1279.20 147.6968
1279.30 147.9843
1279.40 148.2717
1279.50 148.5592
1279.60 148.8466
1279.70 149.134
1279.80 149.4215
1279.90 149.7089
1280.00 149.9963
1280.10 150.2838
1280.20 150.3649
1280.30 150.3084
1280.40 150.2519
1280.50 150.1954
1280.60 150.1389
1280.70 150.0824
1280.80 150.0259
1280.90 149.9694
1281.00 149.913
1281.10 149.8565
1281.20 149.8
1281.30 149.7435
1281.40 149.6954
1281.50 149.7226
1281.60 149.7498
1281.70 149.777
1281.80 149.8042
1281.90 149.8314
1282.00 149.8586
1282.10 149.8858
1282.20 149.913
1282.30 149.9402
1282.40 149.9673
1282.50 149.9945
1282.60 150.0217
1282.70 150.0229
1282.80 150.0066
1282.90 149.9903
1283.00 149.974
1283.10 149.9577
1283.20 149.9414
1283.30 149.9251
1283.40 149.9088
1283.50 149.8926
1283.60 149.8763
1283.70 149.86
1283.80 149.8437
1283.90 149.7678
1284.00 149.4534
1284.10 149.139
1284.20 148.8246
1284.30 148.5102
1284.40 148.1958
1284.50 147.8814
1284.60 147.567
1284.70 147.2526
1284.80 146.9382
1284.90 146.6238
1285.00 146.3094
1285.10 145.995
1285.20 145.6419
1285.30 145.2722
1285.40 144.9025
1285.50 144.5328
1285.60 144.1631
1285.70 143.7934
1285.80 143.4237
1285.90 143.054
1286.00 142.6843
1286.10 142.3146
1286.20 141.9449
1286.30 141.5752
1286.40 141.2774
1286.50 141.2668
1286.60 141.2562
1286.70 141.2456
1286.80 141.235
1286.90 141.2244
1287.00 141.2138
1287.10 141.2032
1287.20 141.1927
1287.30 141.1821
1287.40 141.1715
1287.50 141.1609
1287.60 141.1503
1287.70 141.3101
1287.80 141.5429
1287.90 141.7757
1288.00 142.0084
1288.10 142.2412
1288.20 142.474
1288.30 142.7068
1288.40 142.9396
1288.50 143.1724
1288.60 143.4051
1288.70 143.6379
1288.80 143.8707
1288.90 144.0831
1289.00 144.2136
1289.10 144.3441
1289.20 144.4746
1289.30 144.6052
1289.40 144.7357
1289.50 144.8662
1289.60 144.9967
1289.70 145.1273
1289.80 145.2578
1289.90 145.3883
1290.00 145.5188
1290.10 145.6494
1290.20 145.6405
1290.30 145.5718
1290.40 145.5031
1290.50 145.4344
1290.60 145.3658
1290.70 145.2971
1290.80 145.2284
1290.90 145.1598
1291.00 145.0911
1291.10 145.0224
1291.20 144.9537
1291.30 144.8851
1291.40 144.7992
1291.50 144.6733
1291.60 144.5473
1291.70 144.4214
1291.80 144.2955
1291.90 144.1695
1292.00 144.0436
1292.10 143.9177
1292.20 143.7917
1292.30 143.6658
1292.40 143.5399
1292.50 143.4139
1292.60 143.288
1292.70 143.1556
1292.80 143.0216
1292.90 142.8876
1293.00 142.7536
1293.10 142.6195
1293.20 142.4855
1293.30 142.3515
1293.40 142.2175
1293.50 142.0835
1293.60 141.9495
1293.70 141.8155
1293.80 141.6815
1293.90 141.5628
1294.00 141.4798
1294.10 141.3969
1294.20 141.3139
1294.30 141.231
1294.40 141.148
1294.50 141.0651
1294.60 140.9822
1294.70 140.8992
1294.80 140.8163
1294.90 140.7333
1295.00 140.6504
1295.10 140.5675
1295.20 140.5425
1295.30 140.5321
1295.40 140.5216
1295.50 140.5112
1295.60 140.5007
1295.70 140.4903
1295.80 140.4798
1295.90 140.4694
1296.00 140.4589
1296.10 140.4485
1296.20 140.438
1296.30 140.4276
1296.40 140.5025
1296.50 140.7768
1296.60 141.0512
1296.70 141.3255
1296.80 141.5998
1296.90 141.8741
1297.00 142.1484
1297.10 142.4227
1297.20 142.697
1297.30 142.9713
1297.40 143.2456
1297.50 143.5199
1297.60 143.7942
1297.70 143.9396
1297.80 144.0529
1297.90 144.1661
1298.00 144.2794
1298.10 144.3926
1298.20 144.5059
1298.30 144.6191
1298.40 144.7323
1298.50 144.8456
1298.60 144.9588
1298.70 145.0721
1298.80 145.1853
1298.90 145.1795
1299.00 144.896
1299.10 144.6126
1299.20 144.3291
1299.30 144.0456
1299.40 143.7621
1299.50 143.4786
1299.60 143.1951
1299.70 142.9117
1299.80 142.6282
1299.90 142.3447
1300.00 142.0612
1300.10 141.7777
1300.20 141.4839
1300.30 141.1876
1300.40 140.8913
1300.50 140.5949
1300.60 140.2986
1300.70 140.0022
1300.80 139.7059
1300.90 139.4096
1301.00 139.1132
1301.10 138.8169
1301.20 138.5205
1301.30 138.2242
1301.40 138.0473
1301.50 138.0494
1301.60 138.0516
1301.70 138.0538
1301.80 138.0559
1301.90 138.0581
1302.00 138.0602
1302.10 138.0624
1302.20 138.0646
1302.30 138.0667
1302.40 138.0689
1302.50 138.071
1302.60 138.0732
1302.70 138.2474
1302.80 138.4407
1302.90 138.634
1303.00 138.8274
1303.10 139.0207
1303.20 139.214
1303.30 139.4073
1303.40 139.6006
1303.50 139.7939
1303.60 139.9872
1303.70 140.1805
1303.80 140.3739
1303.90 140.5489
1304.00 140.6965
1304.10 140.8441
1304.20 140.9918
1304.30 141.1394
1304.40 141.287
1304.50 141.4346
1304.60 141.5823
1304.70 141.7299
1304.80 141.8775
1304.90 142.0251
1305.00 142.1728
1305.10 142.3204
1305.20 142.3608
1305.30 142.3894
1305.40 142.4179
1305.50 142.4464
1305.60 142.475
1305.70 142.5035
1305.80 142.532
1305.90 142.5606
1306.00 142.5891
1306.10 142.6176
1306.20 142.6462
1306.30 142.6747
1306.40 142.6631
1306.50 142.5913
1306.60 142.5195
1306.70 142.4477
1306.80 142.3759
1306.90 142.3041
1307.00 142.2323
1307.10 142.1605
1307.20 142.0886
1307.30 142.0168
1307.40 141.945
1307.50 141.8732
1307.60 141.8014
1307.70 141.8318
1307.80 141.8736
1307.90 141.9154
1308.00 141.9572
1308.10 141.999
1308.20 142.0408
1308.30 142.0826
1308.40 142.1243
1308.50 142.1661
1308.60 142.2079
1308.70 142.2497
1308.80 142.2915
1308.90 142.2856
1309.00 142.2084
1309.10 142.1311
1309.20 142.0538
1309.30 141.9766
1309.40 141.8993
1309.50 141.822
1309.60 141.7448
1309.70 141.6675
1309.80 141.5902
1309.90 141.5129
1310.00 141.4357
1310.10 141.3584
1310.20 141.3238
1310.30 141.294
1310.40 141.2641
1310.50 141.2343
1310.60 141.2044
1310.70 141.1746
1310.80 141.1447
1310.90 141.1149
1311.00 141.085
1311.10 141.0552
1311.20 141.0253
1311.30 140.9955
1311.40 141.0542
1311.50 141.2459
1311.60 141.4375
1311.70 141.6292
1311.80 141.8208
1311.90 142.0125
1312.00 142.2041
1312.10 142.3958
1312.20 142.5874
1312.30 142.7791
1312.40 142.9707
1312.50 143.1624
1312.60 143.354
1312.70 143.4525
1312.80 143.5509
1312.90 143.6493
1313.00 143.7477
1313.10 143.8461
1313.20 143.9445
1313.30 144.0429
1313.40 144.1413
1313.50 144.2398
1313.60 144.3382
1313.70 144.4366
1313.80 144.535
1313.90 144.5664
1314.00 144.5308
1314.10 144.4952
1314.20 144.4596
1314.30 144.4239
1314.40 144.3883
1314.50 144.3527
1314.60 144.3171
1314.70 144.2815
1314.80 144.2459
1314.90 144.2103
1315.00 144.1746
1315.10 144.139
1315.20 143.9556
1315.30 143.7721
1315.40 143.5886
1315.50 143.4051
1315.60 143.2216
1315.70 143.0382
1315.80 142.8547
1315.90 142.6712
1316.00 142.4877
1316.10 142.3042
1316.20 142.1207
1316.30 141.9373
1316.40 141.7105
1316.50 141.4403
1316.60 141.1702
1316.70 140.9001
1316.80 140.63
1316.90 140.3599
1317.00 140.0898
1317.10 139.8196
1317.20 139.5495
1317.30 139.2794
1317.40 139.0093
1317.50 138.7392
1317.60 138.469
1317.70 138.6122
1317.80 138.7553
1317.90 138.8984
1318.00 139.0415
1318.10 139.1846
1318.20 139.3277
1318.30 139.4708
1318.40 139.614
1318.50 139.7571
1318.60 139.9002
1318.70 140.0433
1318.80 140.1864
1318.90 140.3818
1319.00 140.6295
1319.10 140.8772
1319.20 141.1249
1319.30 141.3726
1319.40 141.6203
1319.50 141.868
1319.60 142.1157
1319.70 142.3634
1319.80 142.6111
1319.90 142.8588
1320.00 143.1065
1320.10 143.3542
1320.20 143.3308
1320.30 143.3074
1320.40 143.2839
1320.50 143.2605
1320.60 143.2371
1320.70 143.2137
1320.80 143.1902
1320.90 143.1668
1321.00 143.1434
1321.10 143.12
1321.20 143.0966
1321.30 143.0731
1321.40 143.0271
1321.50 142.9585
1321.60 142.8899
1321.70 142.8213
1321.80 142.7527
1321.90 142.6841
1322.00 142.6155
1322.10 142.5469
1322.20 142.4783
1322.30 142.4097
1322.40 142.3411
1322.50 142.2725
1322.60 142.204
1322.70 141.9337
1322.80 141.6635
1322.90 141.3933
1323.00 141.1231
1323.10 140.8529
1323.20 140.5827
1323.30 140.3125
1323.40 140.0423
1323.50 139.772
1323.60 139.5018
1323.70 139.2316
1323.80 138.9614
1323.90 138.743
1324.00 138.5763
1324.10 138.4096
1324.20 138.2429
1324.30 138.0762
1324.40 137.9095
1324.50 137.7428
1324.60 137.5761
1324.70 137.4094
1324.80 137.2427
1324.90 137.076
1325.00 136.9093
1325.10 136.7426
1325.20 136.6648
1325.30 136.5871
1325.40 136.5093
1325.50 136.4315
1325.60 136.3537
1325.70 136.276
1325.80 136.1982
1325.90 136.1204
1326.00 136.0427
1326.10 135.9649
1326.20 135.8871
1326.30 135.8094
1326.40 135.7078
1326.50 135.5824
1326.60 135.4571
1326.70 135.3317
1326.80 135.2064
1326.90 135.081
1327.00 134.9557
1327.10 134.8303
1327.20 134.705
1327.30 134.5796
1327.40 134.4543
1327.50 134.3289
1327.60 134.2035
1327.70 133.808
1327.80 133.4125
1327.90 133.017
1328.00 132.6215
1328.10 132.226
1328.20 131.8305
1328.30 131.435
1328.40 131.0395
1328.50 130.644
1328.60 130.2485
1328.70 129.853
1328.80 129.4575
1328.90 128.9741
1329.00 128.4028
1329.10 127.8316
1329.20 127.2604
1329.30 126.6891
1329.40 126.1179
1329.50 125.5467
1329.60 124.9754
1329.70 124.4042
1329.80 123.833
1329.90 123.2617
1330.00 122.6905
1330.10 122.1193
1330.20 121.4056
1330.30 120.692
1330.40 119.9784
1330.50 119.2647
1330.60 118.5511
1330.70 117.8375
1330.80 117.1239
1330.90 116.4102
1331.00 115.6966
1331.10 114.983
1331.20 114.2693
1331.30 113.5557
1331.40 112.8097
1331.50 112.0312
1331.60 111.2527
1331.70 110.4742
1331.80 109.6957
1331.90 108.9172
1332.00 108.1387
1332.10 107.3603
1332.20 106.5818
1332.30 105.8033
1332.40 105.0248
1332.50 104.2463
1332.60 103.4678
1332.70 102.8086
1332.80 102.1493
1332.90 101.4901
1333.00 100.8308
1333.10 100.1715
1333.20 99.51228
1333.30 98.85303
1333.40 98.19377
1333.50 97.53451
1333.60 96.87526
1333.70 96.216
1333.80 95.55674
1333.90 94.74054
1334.00 93.7674
1334.10 92.79425
1334.20 91.82111
1334.30 90.84796
1334.40 89.87482
1334.50 88.90167
1334.60 87.92853
1334.70 86.95538
1334.80 85.98224
1334.90 85.00909
1335.00 84.03595
1335.10 83.0789
1335.20 82.26677
1335.30 81.45463
1335.40 80.6425
1335.50 79.83036
1335.60 79.01823
1335.70 78.2061
1335.80 77.39396
1335.90 76.58183
1336.00 75.76969
1336.10 74.95756
1336.20 74.14543
1336.30 73.33329
1336.40 72.82962
1336.50 72.5316
1336.60 72.23357
1336.70 71.93555
1336.80 71.63752
1336.90 71.3395
1337.00 71.04147
1337.10 70.74345
1337.20 70.44542
1337.30 70.14739
1337.40 69.84937
1337.50 69.55134
1337.60 69.29092
1337.70 69.36896
1337.80 69.447
1337.90 69.52504
1338.00 69.60307
1338.10 69.68111
1338.20 69.75915
1338.30 69.83718
1338.40 69.91522
1338.50 69.99326
1338.60 70.07129
1338.70 70.14933
1338.80 70.22737
1338.90 70.32953
1339.00 70.44777
1339.10 70.56601
1339.20 70.68425
1339.30 70.80249
1339.40 70.92073
1339.50 71.03897
1339.60 71.15721
1339.70 71.27545
1339.80 71.39369
1339.90 71.51193
1340.00 71.63017
1340.10 71.72461
1340.20 71.6048
1340.30 71.48499
1340.40 71.36518
1340.50 71.24537
1340.60 71.12556
1340.70 71.00575
1340.80 70.88594
1340.90 70.76613
1341.00 70.64632
1341.10 70.52651
1341.20 70.4067
1341.30 70.28689
1341.40 69.95763
1341.50 69.48874
1341.60 69.01984
1341.70 68.55094
1341.80 68.08205
1341.90 67.61315
1342.00 67.14426
1342.10 66.67536
1342.20 66.20647
1342.30 65.73757
1342.40 65.26868
1342.50 64.79978
1342.60 64.3547
1342.70 64.12394
1342.80 63.89318
1342.90 63.66241
1343.00 63.43165
1343.10 63.20089
1343.20 62.97012
1343.30 62.73936
1343.40 62.5086
1343.50 62.27783
1343.60 62.04707
1343.70 61.81631
1343.80 61.58554
1343.90 61.58474
1344.00 61.73723
1344.10 61.88972
1344.20 62.04222
1344.30 62.19471
1344.40 62.3472
1344.50 62.4997
1344.60 62.65219
1344.70 62.80469
1344.80 62.95718
1344.90 63.10967
1345.00 63.26217
1345.10 63.41861
1345.20 63.61059
1345.30 63.80256
1345.40 63.99454
1345.50 64.18652
1345.60 64.37849
1345.70 64.57047
1345.80 64.76245
1345.90 64.95443
1346.00 65.1464
1346.10 65.33838
1346.20 65.53036
1346.30 65.72233
1346.40 65.72119
1346.50 65.59129
1346.60 65.46139
1346.70 65.33149
1346.80 65.20159
1346.90 65.07169
1347.00 64.94179
1347.10 64.8119
1347.20 64.682
1347.30 64.5521
1347.40 64.4222
1347.50 64.2923
1347.60 64.15607
1347.70 63.9629
1347.80 63.76973
1347.90 63.57655
1348.00 63.38338
1348.10 63.1902
1348.20 62.99703
1348.30 62.80385
1348.40 62.61068
1348.50 62.41751
1348.60 62.22433
1348.70 62.03116
1348.80 61.83798
1348.90 61.7461
1349.00 61.72173
1349.10 61.69737
1349.20 61.67301
1349.30 61.64865
1349.40 61.62429
1349.50 61.59993
1349.60 61.57556
1349.70 61.5512
1349.80 61.52684
1349.90 61.50248
1350.00 61.47812
1350.10 61.45681
1350.20 61.46305
1350.30 61.46928
1350.40 61.47551
1350.50 61.48174
1350.60 61.48797
1350.70 61.49421
1350.80 61.50044
1350.90 61.50667
1351.00 61.5129
1351.10 61.51913
1351.20 61.52536
1351.30 61.5316
1351.40 61.53783
1351.50 61.54406
1351.60 61.55029
1351.70 61.55652
1351.80 61.56276
1351.90 61.56899
1352.00 61.57522
1352.10 61.58145
1352.20 61.58768
1352.30 61.59391
1352.40 61.60015
1352.50 61.60638
1352.60 61.61261
1352.70 61.61884
1352.80 61.62507
1352.90 61.63131
1353.00 61.63754
1353.10 61.64377
1353.20 61.65
1353.30 61.65623
1353.40 61.66247
1353.50 61.6687
1353.60 61.67493
1353.70 61.68116
1353.80 61.68739
1353.90 61.69362
1354.00 61.69986
1354.10 61.70609
1354.20 61.71232
1354.30 61.71855
1354.40 61.72478
1354.50 61.73102
1354.60 61.73725
1354.70 61.74348
1354.80 61.74971
1354.90 61.75594
1355.00 61.76217
1355.10 61.76841
1355.20 61.77464
1355.30 61.78087
1355.40 61.7871
1355.50 61.79333
1355.60 61.79957
1355.70 61.8058
1355.80 61.81203
1355.90 61.81826
1356.00 61.82449
1356.10 61.83073
1356.20 61.83696
1356.30 61.84319
1356.40 61.84942
1356.50 61.85565
1356.60 61.86188
1356.70 61.86812
1356.80 61.87435
1356.90 61.88058
1357.00 61.88681
1357.10 61.89304
1357.20 61.89928
1357.30 61.90551
1357.40 61.91174
1357.50 61.91797
1357.60 61.9242
1357.70 61.93043
1357.80 61.93667
1357.90 61.9429
1358.00 61.94913
1358.10 61.95536
1358.20 61.96159
1358.30 61.96783
1358.40 61.97406
1358.50 61.98029
1358.60 61.98652
1358.70 61.99275
1358.80 61.99899
1358.90 62.00522
1359.00 62.01145
1359.10 62.01768
1359.20 62.02391
1359.30 62.03014
1359.40 62.03638
1359.50 62.04261
1359.60 62.04884
1359.70 62.05507
1359.80 62.0613
1359.90 62.06754
1360.00 62.07377
1360.10 62.08
1360.20 62.08623
1360.30 62.09246
1360.40 62.09869
1360.50 62.10493
1360.60 62.11116
1360.70 62.11739
1360.80 62.12362
1360.90 62.12985
1361.00 62.13609
1361.10 62.14232
1361.20 62.14855
1361.30 62.15478
1361.40 62.16101
1361.50 62.16725
1361.60 62.17348
1361.70 62.17971
1361.80 62.18594
1361.90 62.19217
1362.00 62.1984
1362.10 62.20464
1362.20 62.21087
1362.30 62.2171
1362.40 62.22333
1362.50 62.22956
1362.60 62.2358
1362.70 62.24203
1362.80 62.24826
1362.90 62.25449
1363.00 62.26072
1363.10 62.26696
1363.20 62.27319
1363.30 62.27942
1363.40 62.28565
1363.50 62.29188
1363.60 62.29811
1363.70 62.30435
1363.80 62.31058
1363.90 62.31681
1364.00 62.32304
1364.10 62.32927
1364.20 62.33551
1364.30 62.34174
1364.40 62.34797
1364.50 62.3542
1364.60 62.36043
1364.70 62.36666
1364.80 62.3729
1364.90 62.37913
1365.00 62.38536
1365.10 62.39159
1365.20 62.39782
1365.30 62.40406
1365.40 62.41029
1365.50 62.41652
1365.60 62.42275
1365.70 62.42898
1365.80 62.43522
1365.90 62.44145
1366.00 62.44768
1366.10 62.45391
1366.20 62.46014
1366.30 62.46637
1366.40 62.47261
1366.50 62.47884
1366.60 62.48507
1366.70 62.4913
1366.80 62.49753
1366.90 62.50377
1367.00 62.51
1367.10 62.51623
1367.20 62.52246
1367.30 62.52869
1367.40 62.53492
1367.50 62.54116
1367.60 62.54739
1367.70 62.55362
1367.80 62.55985
1367.90 62.56608
1368.00 62.57232
1368.10 62.57855
1368.20 62.58478
1368.30 62.59101
1368.40 62.59724
1368.50 62.60348
1368.60 62.60971
1368.70 62.61594
1368.80 62.62217
1368.90 62.6284
1369.00 62.63463
1369.10 62.64087
1369.20 62.6471
1369.30 62.65333
1369.40 62.65956
1369.50 62.66579
1369.60 62.67203
1369.70 62.67826
1369.80 62.68449
1369.90 62.69072
1370.00 62.69695
1370.10 62.70318
1370.20 62.70942
1370.30 62.71565
1370.40 62.72188
1370.50 62.72811
1370.60 62.73434
1370.70 62.74058
1370.80 62.74681
1370.90 62.75304
1371.00 62.75927
1371.10 62.7655
1371.20 62.77174
1371.30 62.77797
1371.40 62.7842
1371.50 62.79043
1371.60 62.79666
1371.70 62.80289
1371.80 62.80913
1371.90 62.81536
1372.00 62.82159
1372.10 62.82782
1372.20 62.83405
1372.30 62.84029
1372.40 62.84652
1372.50 62.85275
1372.60 62.85898
1372.70 62.86521
1372.80 62.87144
1372.90 62.87768
1373.00 62.88391
1373.10 62.89014
1373.20 62.89637
1373.30 62.9026
1373.40 62.90884
1373.50 62.91507
1373.60 62.9213
1373.70 62.92753
1373.80 62.93376
1373.90 62.94
1374.00 62.94623
1374.10 62.95246
1374.20 62.95869
1374.30 62.96492
1374.40 62.97115
1374.50 62.97739
1374.60 62.98362
1374.70 62.98985
1374.80 62.99608
1374.90 63.00231
1375.00 63.00855
1375.10 63.01478
1375.20 63.02101
1375.30 63.02724
1375.40 63.03347
1375.50 63.0397
1375.60 63.04594
1375.70 63.05217
1375.80 63.0584
1375.90 63.06463
1376.00 63.07086
1376.10 63.0771
1376.20 63.08333
1376.30 63.08956
1376.40 63.09579
1376.50 63.10202
1376.60 63.10826
1376.70 63.11449
1376.80 63.12072
1376.90 63.12695
1377.00 63.13318
1377.10 63.13941
1377.20 63.14565
1377.30 63.15188
1377.40 63.15811
1377.50 63.16434
1377.60 63.17057
1377.70 63.17681
1377.80 63.18304
1377.90 63.18927
1378.00 63.1955
1378.10 63.20173
1378.20 63.20797
1378.30 63.2142
1378.40 63.22043
1378.50 63.22666
1378.60 63.23289
1378.70 63.23912
1378.80 63.24536
1378.90 63.25159
1379.00 63.25782
1379.10 63.26405
1379.20 63.27028
1379.30 63.27652
1379.40 63.28275
1379.50 63.28898
1379.60 63.29521
1379.70 63.30144
1379.80 63.30767
1379.90 63.31391
1380.00 63.32014
1380.10 63.32637
1380.20 63.3326
1380.30 63.33883
1380.40 63.34507
1380.50 63.3513
1380.60 63.35753
1380.70 63.36376
1380.80 63.36999
1380.90 63.37623
1381.00 63.38246
1381.10 63.38869
1381.20 63.39492
1381.30 63.40115
1381.40 63.40738
1381.50 63.41362
1381.60 63.41985
1381.70 63.42608
1381.80 63.43231
1381.90 63.43854
1382.00 63.44478
1382.10 63.45101
1382.20 63.45724
1382.30 63.46347
1382.40 63.4697
1382.50 63.47593
1382.60 63.48217
1382.70 63.4884
1382.80 63.49463
1382.90 63.50086
1383.00 63.50709
1383.10 63.51333
1383.20 63.51956
1383.30 63.52579
1383.40 63.53202
1383.50 63.53825
1383.60 63.54449
1383.70 63.55072
1383.80 63.55695
1383.90 63.56318
1384.00 63.56941
1384.10 63.57564
1384.20 63.58188
1384.30 63.58811
1384.40 63.59434
1384.50 63.60057
1384.60 63.6068
1384.70 63.61304
1384.80 63.61927
1384.90 63.6255
1385.00 63.63173
1385.10 63.63796
1385.20 63.64419
1385.30 63.65043
1385.40 63.65666
1385.50 63.66289
1385.60 63.66912
1385.70 63.67535
1385.80 63.68159
1385.90 63.68782
1386.00 63.69405
1386.10 63.70028
1386.20 63.70651
1386.30 63.71275
1386.40 63.71898
1386.50 63.72521
1386.60 63.73144
1386.70 63.73767
1386.80 63.7439
1386.90 63.75014
1387.00 63.75637
1387.10 63.7626
1387.20 63.76883
1387.30 63.77506
1387.40 63.7813
1387.50 63.78753
1387.60 63.79376
1387.70 63.79999
1387.80 63.80622
1387.90 63.81245
1388.00 63.81869
1388.10 63.82492
1388.20 63.83115
1388.30 63.83738
1388.40 63.84361
1388.50 63.84985
1388.60 63.85608
1388.70 63.86231
1388.80 63.86854
1388.90 63.87477
1389.00 63.88101
1389.10 63.88724
1389.20 63.89347
1389.30 63.8997
1389.40 63.90593
1389.50 63.91216
1389.60 63.9184
1389.70 63.92463
1389.80 63.93086
1389.90 63.93709
1390.00 63.94332
1390.10 63.94956
1390.20 63.95579
1390.30 63.96202
1390.40 63.96825
1390.50 63.97448
1390.60 63.98071
1390.70 63.98695
1390.80 63.99318
1390.90 63.99941
1391.00 64.00564
1391.10 64.01187
1391.20 64.01811
1391.30 64.02434
1391.40 64.03057
1391.50 64.0368
1391.60 64.04303
1391.70 64.04927
1391.80 64.0555
1391.90 64.06173
1392.00 64.06796
1392.10 64.07419
1392.20 64.08042
1392.30 64.08666
1392.40 64.09289
1392.50 64.09912
1392.60 64.10535
1392.70 64.11158
1392.80 64.11782
1392.90 64.12405
1393.00 64.13028
1393.10 64.13651
1393.20 64.14274
1393.30 64.14898
1393.40 64.15521
1393.50 64.16144
1393.60 64.16767
1393.70 64.1739
1393.80 64.18013
1393.90 64.18637
1394.00 64.1926
1394.10 64.19883
1394.20 64.20506
1394.30 64.21129
1394.40 64.21753
1394.50 64.22376
1394.60 64.22999
1394.70 64.23622
1394.80 64.24245
1394.90 64.24868
1395.00 64.25492
1395.10 64.26115
1395.20 64.26738
1395.30 64.27361
1395.40 64.27984
1395.50 64.28608
1395.60 64.29231
1395.70 64.29854
1395.80 64.30477
1395.90 64.311
1396.00 64.31724
1396.10 64.32347
1396.20 64.3297
1396.30 64.33593
1396.40 64.34216
1396.50 64.34839
1396.60 64.35463
1396.70 64.36086
1396.80 64.36709
1396.90 64.37332
1397.00 64.37955
1397.10 64.38579
1397.20 64.39202
1397.30 64.39825
1397.40 64.40448
1397.50 64.41071
1397.60 64.41694
1397.70 64.42318
1397.80 64.42941
1397.90 64.43564
1398.00 64.44187
1398.10 64.4481
1398.20 64.45434
1398.30 64.46057
1398.40 64.4668
1398.50 64.47303
1398.60 64.47926
1398.70 64.4855
1398.80 64.49173
1398.90 64.49796
1399.00 64.50419
1399.10 64.51042
1399.20 64.51665
1399.30 64.52289
1399.40 64.52912
1399.50 64.53535
1399.60 64.54158
1399.70 64.54781
1399.80 64.55405
1399.90 64.56028
