# Version 2.1 - nm, norm@500 to 1, cut digits
# Wavelength(nm)  Flambda(ergs/cm^s/s/nm)
300.00 0.01088019
300.10 0.01446247
300.20 0.01664386
300.30 0.01754559
300.40 0.01778141
300.50 0.01785027
300.60 0.01791912
300.70 0.01798869
300.80 0.01806181
300.90 0.01814395
301.00 0.01824113
301.10 0.01835601
301.20 0.01848591
301.30 0.01862485
301.40 0.01876734
301.50 0.01891053
301.60 0.01905373
301.70 0.01919693
301.80 0.01934013
301.90 0.01948333
302.00 0.01962653
302.10 0.01976973
302.20 0.01991293
302.30 0.02005613
302.40 0.02019933
302.50 0.02034253
302.60 0.02048573
302.70 0.02062947
302.80 0.0207759
302.90 0.02092919
303.00 0.0210939
303.10 0.02127204
303.20 0.02146159
303.30 0.021658
303.40 0.02185711
303.50 0.02205675
303.60 0.0222564
303.70 0.02245604
303.80 0.02265569
303.90 0.02285533
304.00 0.02305498
304.10 0.02325463
304.20 0.02345427
304.30 0.02365392
304.40 0.02385356
304.50 0.02405321
304.60 0.02425285
304.70 0.02445085
304.80 0.02464059
304.90 0.02480937
305.00 0.02494325
305.10 0.02503602
305.20 0.02509388
305.30 0.02513079
305.40 0.02515944
305.50 0.02518645
305.60 0.02521345
305.70 0.02524045
305.80 0.02526745
305.90 0.02529445
306.00 0.02532145
306.10 0.02534846
306.20 0.02537546
306.30 0.02540246
306.40 0.02542946
306.50 0.02545646
306.60 0.02548347
306.70 0.02551047
306.80 0.02553749
306.90 0.02556456
307.00 0.02559171
307.10 0.02561894
307.20 0.02564625
307.30 0.02567361
307.40 0.02570098
307.50 0.02572836
307.60 0.02575573
307.70 0.02578311
307.80 0.02581049
307.90 0.02583786
308.00 0.02586524
308.10 0.02589261
308.20 0.02591999
308.30 0.02594737
308.40 0.02597474
308.50 0.02600212
308.60 0.0260295
308.70 0.02606101
308.80 0.02611318
308.90 0.0262178
309.00 0.02640978
309.10 0.02670463
309.20 0.02708686
309.30 0.02752153
309.40 0.02797685
309.50 0.02843631
309.60 0.02889577
309.70 0.02935523
309.80 0.02981469
309.90 0.03027415
310.00 0.03073362
310.10 0.03119308
310.20 0.03165254
310.30 0.032112
310.40 0.03257146
310.50 0.03303092
310.60 0.03349038
310.70 0.03394568
310.80 0.03438022
310.90 0.03476204
311.00 0.03505603
311.10 0.0352466
311.20 0.03534935
311.30 0.03539937
311.40 0.03542863
311.50 0.03545373
311.60 0.03547883
311.70 0.03550393
311.80 0.03552903
311.90 0.03555413
312.00 0.03557923
312.10 0.03560433
312.20 0.03562943
312.30 0.03565453
312.40 0.03567963
312.50 0.03570473
312.60 0.03572983
312.70 0.03576007
312.80 0.03581595
312.90 0.03593695
313.00 0.03616641
313.10 0.03652361
313.20 0.03698927
313.30 0.03752005
313.40 0.03807647
313.50 0.03863803
313.60 0.03919959
313.70 0.03976115
313.80 0.04032271
313.90 0.04088427
314.00 0.04144583
314.10 0.04200739
314.20 0.04256895
314.30 0.04313051
314.40 0.04369207
314.50 0.04425363
314.60 0.04481519
314.70 0.04538033
314.80 0.04596331
314.90 0.04659162
315.00 0.04729544
315.10 0.04808817
315.20 0.04895641
315.30 0.04986997
315.40 0.05080138
315.50 0.05173636
315.60 0.05267135
315.70 0.05360634
315.80 0.05454132
315.90 0.05547631
316.00 0.0564113
316.10 0.05734629
316.20 0.05828127
316.30 0.05921626
316.40 0.06015125
316.50 0.06108623
316.60 0.06202122
316.70 0.06294306
316.80 0.06379929
316.90 0.0644889
317.00 0.06490098
317.10 0.06498623
317.20 0.06479393
317.30 0.06443502
317.40 0.0640105
317.50 0.06357284
317.60 0.06313517
317.70 0.06269751
317.80 0.06225984
317.90 0.06182217
318.00 0.06138451
318.10 0.06094684
318.20 0.06050917
318.30 0.06007151
318.40 0.05963384
318.50 0.05919618
318.60 0.05875851
318.70 0.05833091
318.80 0.05795353
318.90 0.05770369
319.00 0.05766631
319.10 0.05787911
319.20 0.05830437
319.30 0.05885716
319.40 0.05946019
319.50 0.06007327
319.60 0.06068636
319.70 0.06129944
319.80 0.06191253
319.90 0.06252561
320.00 0.0631387
320.10 0.06375178
320.20 0.06436487
320.30 0.06497795
320.40 0.06559104
320.50 0.06620412
320.60 0.06681721
320.70 0.06742657
320.80 0.06801736
320.90 0.06856098
321.00 0.06902601
321.10 0.06939852
321.20 0.06969246
321.30 0.06993922
321.40 0.07016741
321.50 0.07039187
321.60 0.07061633
321.70 0.0708408
321.80 0.07106526
321.90 0.07128973
322.00 0.07151419
322.10 0.07173866
322.20 0.07196312
322.30 0.07218758
322.40 0.07241205
322.50 0.07263651
322.60 0.07286098
322.70 0.07309904
322.80 0.07340495
322.90 0.07388316
323.00 0.07464838
323.10 0.07575158
323.20 0.0771418
323.30 0.07870432
323.40 0.08033469
323.50 0.08197865
323.60 0.08362261
323.70 0.08526657
323.80 0.08691053
323.90 0.0885545
324.00 0.09019846
324.10 0.09184242
324.20 0.09348638
324.30 0.09513035
324.40 0.09677431
324.50 0.09841827
324.60 0.1000622
324.70 0.101704
324.80 0.1033347
324.90 0.1049375
325.00 0.1064936
325.10 0.1079948
325.20 0.1094494
325.30 0.110876
325.40 0.1122916
325.50 0.113705
325.60 0.1151184
325.70 0.1165317
325.80 0.1179451
325.90 0.1193585
326.00 0.1207719
326.10 0.1221852
326.20 0.1235986
326.30 0.125012
326.40 0.1264254
326.50 0.1278388
326.60 0.1292521
326.70 0.1306703
326.80 0.1321122
326.90 0.1336144
327.00 0.1352171
327.10 0.1369381
327.20 0.1387596
327.30 0.1406415
327.40 0.1425471
327.50 0.1444575
327.60 0.1463678
327.70 0.1482782
327.80 0.1501885
327.90 0.1520989
328.00 0.1540093
328.10 0.1559196
328.20 0.15783
328.30 0.1597403
328.40 0.1616507
328.50 0.1635611
328.60 0.1654714
328.70 0.1673539
328.80 0.1690969
328.90 0.170486
329.00 0.1712855
329.10 0.1713908
329.20 0.1709064
329.30 0.1700681
329.40 0.1690904
329.50 0.1680848
329.60 0.1670791
329.70 0.1660735
329.80 0.1650679
329.90 0.1640623
330.00 0.1630567
330.10 0.162051
330.20 0.1610454
330.30 0.1600398
330.40 0.1590342
330.50 0.1580286
330.60 0.1570229
330.70 0.156038
330.80 0.1551565
330.90 0.1545376
331.00 0.154356
331.10 0.1546894
331.20 0.1554602
331.30 0.1564936
331.40 0.1576304
331.50 0.1587878
331.60 0.1599453
331.70 0.1611028
331.80 0.1622603
331.90 0.1634177
332.00 0.1645752
332.10 0.1657327
332.20 0.1668902
332.30 0.1680477
332.40 0.1692051
332.50 0.1703626
332.60 0.1715201
332.70 0.1726644
332.80 0.1737433
332.90 0.174656
333.00 0.1752917
333.10 0.1756014
333.20 0.1756341
333.30 0.1755006
333.40 0.1753017
333.50 0.1750896
333.60 0.1748775
333.70 0.1746655
333.80 0.1744534
333.90 0.1742413
334.00 0.1740292
334.10 0.1738172
334.20 0.1736051
334.30 0.173393
334.40 0.1731809
334.50 0.1729689
334.60 0.1729333
334.70 0.1734737
334.80 0.1747438
334.90 0.1760341
335.00 0.1759934
335.10 0.1742535
335.20 0.1729407
335.30 0.1760303
335.40 0.1862852
335.50 0.2021361
335.60 0.2175141
335.70 0.2253802
335.80 0.2222657
335.90 0.2099901
336.00 0.1937202
336.10 0.1787752
336.20 0.1688651
336.30 0.1655449
336.40 0.1675551
336.50 0.1709773
336.60 0.1715824
336.70 0.1683392
336.80 0.1647274
336.90 0.166008
337.00 0.1747162
337.10 0.1881897
337.20 0.2000915
337.30 0.2047652
337.40 0.2012057
337.50 0.1936865
337.60 0.1884914
337.70 0.1892537
337.80 0.1948225
337.90 0.201372
338.00 0.2059772
338.10 0.2078335
338.20 0.2065167
338.30 0.2006367
338.40 0.1897205
338.50 0.1769942
338.60 0.1688826
338.70 0.1703931
338.80 0.1804423
338.90 0.1922021
339.00 0.1985864
339.10 0.1980536
339.20 0.1955566
339.30 0.1976716
339.40 0.2065429
339.50 0.2184927
339.60 0.2279988
339.70 0.232334
339.80 0.2322633
339.90 0.229309
340.00 0.2240772
340.10 0.2171942
340.20 0.2101074
340.30 0.2039158
340.40 0.1978793
340.50 0.1901942
340.60 0.1804262
340.70 0.1705149
340.80 0.1632377
340.90 0.1601744
341.00 0.1612192
341.10 0.1654077
341.20 0.1716284
341.30 0.1785756
341.40 0.1847106
341.50 0.1888572
341.60 0.1908994
341.70 0.1918327
341.80 0.1930071
341.90 0.1951302
342.00 0.1976393
342.10 0.1988118
342.20 0.1968135
342.30 0.1912407
342.40 0.1839507
342.50 0.1781216
342.60 0.1761166
342.70 0.1780106
342.80 0.1818979
342.90 0.1853971
343.00 0.1871158
343.10 0.1872758
343.20 0.1871954
343.30 0.1880069
343.40 0.1896705
343.50 0.1912072
343.60 0.1917352
343.70 0.1910124
343.80 0.1892267
343.90 0.1868198
344.00 0.1845997
344.10 0.1835007
344.20 0.1837666
344.30 0.1845394
344.40 0.184612
344.50 0.1835839
344.60 0.182186
344.70 0.1816403
344.80 0.1828805
344.90 0.1862365
345.00 0.1915335
345.10 0.1982242
345.20 0.205417
345.30 0.2118777
345.40 0.2162273
345.50 0.2176059
345.60 0.2163912
345.70 0.2141351
345.80 0.212503
345.90 0.2121089
346.00 0.212241
346.10 0.2114846
346.20 0.2087092
346.30 0.2039585
346.40 0.1987361
346.50 0.1951309
346.60 0.1941561
346.70 0.194869
346.80 0.1952473
346.90 0.1938354
347.00 0.1904946
347.10 0.1861249
347.20 0.1822193
347.30 0.1804425
347.40 0.181853
347.50 0.1860688
347.60 0.1914455
347.70 0.19634
347.80 0.20021
347.90 0.2035966
348.00 0.2072711
348.10 0.2113715
348.20 0.2151253
348.30 0.2173597
348.40 0.2174525
348.50 0.2158767
348.60 0.2137133
348.70 0.2116651
348.80 0.2097265
348.90 0.207671
349.00 0.2055101
349.10 0.2034357
349.20 0.2016199
349.30 0.2003097
349.40 0.1999485
349.50 0.200819
349.60 0.2024899
349.70 0.2038811
349.80 0.2042194
349.90 0.2041256
350.00 0.2055402
350.10 0.2101947
350.20 0.2179516
350.30 0.2266309
350.40 0.2334971
350.50 0.2369886
350.60 0.2372319
350.70 0.2353106
350.80 0.2323437
350.90 0.2289572
351.00 0.2250404
351.10 0.2197978
351.20 0.212371
351.30 0.2029428
351.40 0.1933407
351.50 0.1861585
351.60 0.1829186
351.70 0.1829983
351.80 0.1843534
351.90 0.185222
352.00 0.1851087
352.10 0.1843706
352.20 0.1834234
352.30 0.1826273
352.40 0.1827558
352.50 0.1852262
352.60 0.1913216
352.70 0.2008635
352.80 0.2117051
352.90 0.2209293
353.00 0.2269966
353.10 0.2307289
353.20 0.2340489
353.30 0.2380224
353.40 0.2423896
353.50 0.2466279
353.60 0.2508438
353.70 0.2554398
353.80 0.2604094
353.90 0.2653106
354.00 0.2695654
354.10 0.272423
354.20 0.2729777
354.30 0.2708676
354.40 0.2670576
354.50 0.2635121
354.60 0.2617267
354.70 0.2616257
354.80 0.2619764
354.90 0.2616826
355.00 0.2605394
355.10 0.2589872
355.20 0.257495
355.30 0.2562797
355.40 0.2554461
355.50 0.2550399
355.60 0.2548043
355.70 0.2540207
355.80 0.2518431
355.90 0.2480017
356.00 0.2431236
356.10 0.2382231
356.20 0.2338323
356.30 0.2295763
356.40 0.2245838
356.50 0.2184349
356.60 0.2118492
356.70 0.2064296
356.80 0.2035442
356.90 0.2033158
357.00 0.2046327
357.10 0.2060078
357.20 0.2063565
357.30 0.2052167
357.40 0.2026128
357.50 0.1989104
357.60 0.1947092
357.70 0.190633
357.80 0.1870767
357.90 0.1841167
358.00 0.1817306
358.10 0.1801794
358.20 0.1801088
358.30 0.1821259
358.40 0.1861899
358.50 0.1913927
358.60 0.19631
358.70 0.1996117
358.80 0.2006154
358.90 0.1996167
359.00 0.1979096
359.10 0.1973018
359.20 0.199119
359.30 0.2032806
359.40 0.2081937
359.50 0.2117499
359.60 0.212755
359.70 0.2116703
359.80 0.2100897
359.90 0.2093926
360.00 0.2096486
360.10 0.2096197
360.20 0.2078171
360.30 0.2036973
360.40 0.1981186
360.50 0.192913
360.60 0.190036
360.70 0.1907895
360.80 0.1952336
360.90 0.2020511
361.00 0.209194
361.10 0.2150491
361.20 0.2192025
361.30 0.2221226
361.40 0.2242147
361.50 0.2253911
361.60 0.2256301
361.70 0.2255827
361.80 0.2262191
361.90 0.2278435
362.00 0.2297308
362.10 0.2308863
362.20 0.2309603
362.30 0.2303476
362.40 0.22971
362.50 0.2295999
362.60 0.2302014
362.70 0.2310123
362.80 0.2309344
362.90 0.2291463
363.00 0.2260611
363.10 0.2232034
363.20 0.2219807
363.30 0.2226348
363.40 0.2243435
363.50 0.226082
363.60 0.227282
363.70 0.2278873
363.80 0.2280133
363.90 0.2276127
364.00 0.2263923
364.10 0.224017
364.20 0.2204492
364.30 0.216137
364.40 0.2119204
364.50 0.2087575
364.60 0.2073542
364.70 0.2077703
364.80 0.2093344
364.90 0.2111515
365.00 0.2129204
365.10 0.2152381
365.20 0.2188638
365.30 0.2235886
365.40 0.2279607
365.50 0.2302903
365.60 0.2300433
365.70 0.228246
365.80 0.2264959
365.90 0.2256656
366.00 0.225576
366.10 0.2257242
366.20 0.2260754
366.30 0.2269945
366.40 0.2285761
366.50 0.2302771
366.60 0.2312023
366.70 0.2306825
366.80 0.2286231
366.90 0.2254541
367.00 0.2219045
367.10 0.2188028
367.20 0.2169014
367.30 0.2166836
367.40 0.2181546
367.50 0.2207986
367.60 0.2238311
367.70 0.2266065
367.80 0.2288865
367.90 0.2307967
368.00 0.2325604
368.10 0.2342305
368.20 0.2355944
368.30 0.2362782
368.40 0.2359891
368.50 0.2347908
368.60 0.2332184
368.70 0.2320559
368.80 0.2318585
368.90 0.2326132
369.00 0.2338935
369.10 0.2353616
369.20 0.2369998
369.30 0.2387922
369.40 0.2403188
369.50 0.2408606
369.60 0.2400217
369.70 0.2382155
369.80 0.2365203
369.90 0.2360684
370.00 0.2374584
370.10 0.2405203
370.20 0.244508
370.30 0.2485008
370.40 0.2517209
370.50 0.2536634
370.60 0.2541537
370.70 0.2534852
370.80 0.2524378
370.90 0.2519296
371.00 0.252421
371.10 0.2535333
371.20 0.2541914
371.30 0.2531802
371.40 0.249823
371.50 0.2444309
371.60 0.2382571
371.70 0.2329105
371.80 0.2296214
371.90 0.2288422
372.00 0.2302854
372.10 0.2330071
372.20 0.2353415
372.30 0.2351908
372.40 0.2309955
372.50 0.2229569
372.60 0.2134059
372.70 0.205759
372.80 0.2027781
372.90 0.2053609
373.00 0.2124732
373.10 0.2219005
373.20 0.2311663
373.30 0.238202
373.40 0.2417618
373.50 0.2415106
373.60 0.237796
373.70 0.2313167
373.80 0.2229738
373.90 0.2139543
374.00 0.2057458
374.10 0.199879
374.20 0.1975375
374.30 0.1993494
374.40 0.2054362
374.50 0.2154567
374.60 0.2284806
374.70 0.2428116
374.80 0.2560935
374.90 0.2659084
375.00 0.2706061
375.10 0.2698353
375.20 0.2644858
375.30 0.2562253
375.40 0.2469876
375.50 0.2385665
375.60 0.2321885
375.70 0.2281848
375.80 0.2260106
375.90 0.2246976
376.00 0.2235259
376.10 0.2225519
376.20 0.2227222
376.30 0.2254813
376.40 0.2320673
376.50 0.2429788
376.60 0.2579614
376.70 0.2761722
376.80 0.2960629
376.90 0.3150553
377.00 0.3297529
377.10 0.3371041
377.20 0.3357987
377.30 0.3267756
377.40 0.3125325
377.50 0.2959447
377.60 0.2794431
377.70 0.2647771
377.80 0.2529529
377.90 0.2441799
378.00 0.2379969
378.10 0.2336709
378.20 0.2306261
378.30 0.228552
378.40 0.2272332
378.50 0.2264919
378.60 0.2263563
378.70 0.2271537
378.80 0.2293699
378.90 0.2335495
379.00 0.2404598
379.10 0.251186
379.20 0.2666805
379.30 0.2869298
379.40 0.3104387
379.50 0.334446
379.60 0.3555614
379.70 0.370441
379.80 0.3765442
379.90 0.3729248
380.00 0.3607159
380.10 0.3427995
380.20 0.3227081
380.30 0.303414
380.40 0.2867046
380.50 0.2732265
380.60 0.2628371
380.70 0.2549069
380.80 0.2485431
380.90 0.2429772
381.00 0.2379438
381.10 0.2336693
381.20 0.2304161
381.30 0.2280521
381.40 0.2261787
381.50 0.2246946
381.60 0.2240177
381.70 0.2245539
381.80 0.225949
381.90 0.2270153
382.00 0.2265956
382.10 0.2246402
382.20 0.222105
382.30 0.2197971
382.40 0.2168266
382.50 0.2106882
382.60 0.2001491
382.70 0.187984
382.80 0.180508
382.90 0.1826394
383.00 0.1928657
383.10 0.2036608
383.20 0.2077201
383.30 0.2039288
383.40 0.1974458
383.50 0.1941947
383.60 0.1950842
383.70 0.1959487
383.80 0.1924934
383.90 0.1854337
384.00 0.1809263
384.10 0.1860892
384.20 0.2033063
384.30 0.2281001
384.40 0.2517751
384.50 0.2667221
384.60 0.2708934
384.70 0.2672187
384.80 0.2592235
384.90 0.2486659
385.00 0.2378167
385.10 0.231078
385.20 0.231644
385.30 0.2366209
385.40 0.2385616
385.50 0.2323341
385.60 0.2189011
385.70 0.203365
385.80 0.1909885
385.90 0.1852965
386.00 0.1874852
386.10 0.1964594
386.20 0.2096848
386.30 0.2243758
386.40 0.2382506
386.50 0.2496806
386.60 0.258273
386.70 0.2650811
386.80 0.2712096
386.90 0.2753304
387.00 0.2735118
387.10 0.2629059
387.20 0.2457101
387.30 0.2286447
387.40 0.2173925
387.50 0.2120813
387.60 0.2086015
387.70 0.203862
387.80 0.199395
387.90 0.1997023
388.00 0.2077468
388.10 0.2218133
388.20 0.236234
388.30 0.2446494
388.40 0.243073
388.50 0.2323837
388.60 0.2187938
388.70 0.2109082
388.80 0.2138532
388.90 0.2260012
389.00 0.2419744
389.10 0.2574115
389.20 0.269841
389.30 0.2761186
389.40 0.2737327
389.50 0.2654015
389.60 0.2587371
389.70 0.2587923
389.80 0.2622606
389.90 0.2616345
390.00 0.2539232
390.10 0.2434802
390.20 0.2366721
390.30 0.2367417
390.40 0.2435405
390.50 0.2552086
390.60 0.2688399
390.70 0.280503
390.80 0.2871803
390.90 0.2891683
391.00 0.2896699
391.10 0.2922011
391.20 0.2981761
391.30 0.3060499
391.40 0.3122961
391.50 0.3129572
391.60 0.3058788
391.70 0.2924274
391.80 0.276544
391.90 0.2614873
392.00 0.2478647
392.10 0.2350503
392.20 0.2240881
392.30 0.2179708
392.40 0.2183203
392.50 0.2226644
392.60 0.2258831
392.70 0.2240931
392.80 0.2163377
392.90 0.2039918
393.00 0.1898961
393.10 0.1783503
393.20 0.1736857
393.30 0.1766741
393.40 0.1834868
393.50 0.1896796
393.60 0.1943524
393.70 0.1996368
393.80 0.2070461
393.90 0.2154558
394.00 0.2224311
394.10 0.2253949
394.20 0.2223888
394.30 0.2143364
394.40 0.2063434
394.50 0.2047607
394.60 0.2119823
394.70 0.2249555
394.80 0.2393303
394.90 0.2537188
395.00 0.2695076
395.10 0.2870631
395.20 0.3034741
395.30 0.3145293
395.40 0.3178499
395.50 0.3133556
395.60 0.3017719
395.70 0.2843521
395.80 0.2636436
395.90 0.2425311
396.00 0.2222373
396.10 0.2035284
396.20 0.1893145
396.30 0.1832511
396.40 0.1852383
396.50 0.1904668
396.60 0.1946001
396.70 0.1976659
396.80 0.2015044
396.90 0.205411
397.00 0.2065418
397.10 0.2049628
397.20 0.2062695
397.30 0.2172129
397.40 0.2388457
397.50 0.2649434
397.60 0.2877106
397.70 0.3046102
397.80 0.3182997
397.90 0.3306843
398.00 0.339737
398.10 0.3429313
398.20 0.342123
398.30 0.3430678
398.40 0.3497265
398.50 0.3610034
398.60 0.3726141
398.70 0.3802215
398.80 0.3812517
398.90 0.376213
399.00 0.3699917
399.10 0.369615
399.20 0.3781938
399.30 0.3916508
399.40 0.4024096
399.50 0.4052709
399.60 0.3994042
399.70 0.3872789
399.80 0.3742541
399.90 0.3680721
400.00 0.3747103
400.10 0.3928929
400.20 0.4135405
400.30 0.425411
400.40 0.4224666
400.50 0.4072402
400.60 0.3882814
400.70 0.3746829
400.80 0.3718291
400.90 0.3800902
401.00 0.3959878
401.10 0.4143557
401.20 0.4303022
401.30 0.4406841
401.40 0.4448479
401.50 0.4439927
401.60 0.4401595
401.70 0.435476
401.80 0.4315338
401.90 0.4294519
402.00 0.4300639
402.10 0.4333987
402.20 0.438008
402.30 0.4417639
402.40 0.4438094
402.50 0.4457532
402.60 0.4492012
402.70 0.4514542
402.80 0.4452087
402.90 0.4238249
403.00 0.3879236
403.10 0.3468415
403.20 0.3136258
403.30 0.2981434
403.40 0.3036776
403.50 0.3277673
403.60 0.3645277
403.70 0.4061393
403.80 0.4436014
403.90 0.468483
404.00 0.4764091
404.10 0.4692712
404.20 0.452551
404.30 0.4301131
404.40 0.4030023
404.50 0.374596
404.60 0.3545175
404.70 0.3532713
404.80 0.3725864
404.90 0.4032229
405.00 0.432682
405.10 0.4537673
405.20 0.4660169
405.30 0.4716789
405.40 0.4726705
405.50 0.4702787
405.60 0.4658453
405.70 0.4612984
405.80 0.458522
405.90 0.4577592
406.00 0.4558525
406.10 0.4469372
406.20 0.4272991
406.30 0.4010901
406.40 0.3802299
406.50 0.3761152
406.60 0.3905204
406.70 0.4143556
406.80 0.4344535
406.90 0.4416555
407.00 0.4347155
407.10 0.4203306
407.20 0.4096618
407.30 0.4112109
407.40 0.4238786
407.50 0.4368652
407.60 0.4385248
407.70 0.4268515
407.80 0.412015
407.90 0.4079957
408.00 0.4211627
408.10 0.4459594
408.20 0.4707328
408.30 0.4872982
408.40 0.495625
408.50 0.5011993
408.60 0.50917
408.70 0.5208712
408.80 0.5337587
408.90 0.5433606
409.00 0.5460708
409.10 0.5418374
409.20 0.5342828
409.30 0.5266188
409.40 0.5174597
409.50 0.5025122
409.60 0.480679
409.70 0.4564415
409.80 0.4357043
409.90 0.4209449
410.00 0.4117093
410.10 0.4080548
410.20 0.4113344
410.30 0.4220601
410.40 0.4377933
410.50 0.4535905
410.60 0.4649027
410.70 0.4705126
410.80 0.4726159
410.90 0.4739571
411.00 0.4755018
411.10 0.4769208
411.20 0.4785486
411.30 0.4816994
411.40 0.4873763
411.50 0.4949853
411.60 0.5018258
411.70 0.5042605
411.80 0.5004809
411.90 0.492932
412.00 0.4870893
412.10 0.4872257
412.20 0.4938975
412.30 0.5053343
412.40 0.519629
412.50 0.534231
412.60 0.5447017
412.70 0.5464596
412.80 0.53837
412.90 0.5229483
413.00 0.5030195
413.10 0.48001
413.20 0.4562836
413.30 0.4377034
413.40 0.4313733
413.50 0.4403051
413.60 0.4607502
413.70 0.4844287
413.80 0.5031062
413.90 0.5115361
414.00 0.5070077
414.10 0.4885778
414.20 0.45896
414.30 0.4271201
414.40 0.4061346
414.50 0.405155
414.60 0.4230572
414.70 0.4505982
414.80 0.4778683
414.90 0.4988783
415.00 0.5111374
415.10 0.5145693
415.20 0.5121381
415.30 0.5093597
415.40 0.5108486
415.50 0.5172779
415.60 0.5262177
415.70 0.5353906
415.80 0.5443151
415.90 0.5532744
416.00 0.5620694
416.10 0.5697043
416.20 0.5743479
416.30 0.5735351
416.40 0.5655943
416.50 0.5518894
416.60 0.536861
416.70 0.5251713
416.80 0.5184136
416.90 0.514194
417.00 0.507878
417.10 0.4957689
417.20 0.4782811
417.30 0.4606419
417.40 0.4499838
417.50 0.450945
417.60 0.463791
417.70 0.4858045
417.80 0.512801
417.90 0.5386898
418.00 0.555718
418.10 0.5586244
418.20 0.549571
418.30 0.5372018
418.40 0.5291979
418.50 0.5260781
418.60 0.5233291
418.70 0.5184635
418.80 0.5135308
418.90 0.5112999
419.00 0.5120597
419.10 0.5154124
419.20 0.5227677
419.30 0.5352012
419.40 0.5491924
419.50 0.5568035
419.60 0.5511104
419.70 0.5313379
419.80 0.5032183
419.90 0.4752275
420.00 0.4542241
420.10 0.4433681
420.20 0.4428738
420.30 0.451882
420.40 0.4689699
420.50 0.4909591
420.60 0.5126457
420.70 0.5290871
420.80 0.5387288
420.90 0.5437902
421.00 0.5470995
421.10 0.5489102
421.20 0.546479
421.30 0.536153
421.40 0.5160519
421.50 0.4881226
421.60 0.4584938
421.70 0.4346787
421.80 0.4202485
421.90 0.4117045
422.00 0.401396
422.10 0.3835377
422.20 0.3571735
422.30 0.3240664
422.40 0.286208
422.50 0.2468665
422.60 0.2125193
422.70 0.1914011
422.80 0.1890455
422.90 0.2047389
423.00 0.2321142
423.10 0.2630787
423.20 0.2917983
423.30 0.3166488
423.40 0.3391856
423.50 0.361347
423.60 0.3836446
423.70 0.4047349
423.80 0.422237
423.90 0.4347421
424.00 0.4436008
424.10 0.452501
424.20 0.4646793
424.30 0.4800997
424.40 0.4954827
424.50 0.5067538
424.60 0.5109116
424.70 0.506845
424.80 0.4952161
424.90 0.4780163
425.00 0.4575927
425.10 0.435393
425.20 0.4119013
425.30 0.3886839
425.40 0.3709116
425.50 0.3662969
425.60 0.3791795
425.70 0.4045734
425.80 0.4297738
425.90 0.4439905
426.00 0.4474917
426.10 0.4508268
426.20 0.4645345
426.30 0.4897312
426.40 0.5180614
426.50 0.53948
426.60 0.5493821
426.70 0.5489815
426.80 0.5404136
426.90 0.5229548
427.00 0.4944622
427.10 0.456234
427.20 0.4154764
427.30 0.3823312
427.40 0.364931
427.50 0.3671744
427.60 0.3893864
427.70 0.4283077
427.80 0.4755495
427.90 0.5181256
428.00 0.5435937
428.10 0.5470459
428.20 0.5339904
428.30 0.5161439
428.40 0.5034039
428.50 0.4980843
428.60 0.4942355
428.70 0.4822827
428.80 0.4569645
428.90 0.4234531
429.00 0.3962669
429.10 0.3896952
429.20 0.4075075
429.30 0.4412523
429.40 0.4771057
429.50 0.5038313
429.60 0.5159222
429.70 0.5126719
429.80 0.4968823
429.90 0.4743061
430.00 0.4524471
430.10 0.4384509
430.20 0.4367465
430.30 0.4469041
430.40 0.4625978
430.50 0.4732383
430.60 0.4700066
430.70 0.4535496
430.80 0.4360669
430.90 0.4340484
431.00 0.4562818
431.10 0.4972215
431.20 0.541536
431.30 0.5753121
431.40 0.5942939
431.50 0.6032337
431.60 0.6091145
431.70 0.6157821
431.80 0.6237642
431.90 0.6323951
432.00 0.6405728
432.10 0.6456018
432.20 0.6425708
432.30 0.6264647
432.40 0.5967566
432.50 0.5619283
432.60 0.5381661
432.70 0.5399997
432.80 0.569528
432.90 0.614447
433.00 0.6571838
433.10 0.6867761
433.20 0.703206
433.30 0.7121824
433.40 0.7169954
433.50 0.714901
433.60 0.701179
433.70 0.6761227
433.80 0.6475031
433.90 0.6260882
434.00 0.6187174
434.10 0.6249168
434.20 0.6382601
434.30 0.6507372
434.40 0.6577402
434.50 0.6612118
434.60 0.668043
434.70 0.6834794
434.80 0.7042704
434.90 0.7180159
435.00 0.7111347
435.10 0.6805831
435.20 0.6391779
435.30 0.6080952
435.40 0.6020483
435.50 0.6203317
435.60 0.6504583
435.70 0.6783599
435.80 0.6957552
435.90 0.7016689
436.00 0.7005456
436.10 0.6988602
436.20 0.7016139
436.30 0.710623
436.40 0.7246322
436.50 0.7396184
436.60 0.7498704
436.70 0.7513101
436.80 0.7446229
436.90 0.7343633
437.00 0.724695
437.10 0.7165122
437.20 0.7080373
437.30 0.6967985
437.40 0.6818147
437.50 0.6657248
437.60 0.6538752
437.70 0.6491474
437.80 0.6478656
437.90 0.6423989
438.00 0.6272352
438.10 0.6012095
438.20 0.5664652
438.30 0.5299437
438.40 0.5055875
438.50 0.5086235
438.60 0.5426277
438.70 0.593367
438.80 0.6387477
438.90 0.665887
439.00 0.6780869
439.10 0.6867433
439.20 0.6987446
439.30 0.7120513
439.40 0.7216674
439.50 0.7271379
439.60 0.7328162
439.70 0.7416904
439.80 0.7510632
439.90 0.7552601
440.00 0.7507579
440.10 0.7363775
440.20 0.7100746
440.30 0.6700729
440.40 0.6210768
440.50 0.5768506
440.60 0.5534349
440.70 0.5592137
440.80 0.591557
440.90 0.6405256
441.00 0.6933821
441.10 0.7371646
441.20 0.7613747
441.30 0.761684
441.40 0.7426434
441.50 0.7173396
441.60 0.7027393
441.70 0.7109907
441.80 0.7410501
441.90 0.7783742
442.00 0.804881
442.10 0.8107139
442.20 0.797457
442.30 0.7719985
442.40 0.7400685
442.50 0.7064349
442.60 0.6785355
442.70 0.6656122
442.80 0.6725057
442.90 0.6956329
443.00 0.7256777
443.10 0.752272
443.20 0.7651715
443.30 0.7553961
443.40 0.7220527
443.50 0.679802
443.60 0.6545241
443.70 0.665679
443.80 0.7107112
443.90 0.7667309
444.00 0.8078633
444.10 0.8223906
444.20 0.816968
444.30 0.8084435
444.40 0.8113859
444.50 0.8292077
444.60 0.8537398
444.70 0.8728459
444.80 0.8796055
444.90 0.8750418
445.00 0.8625984
445.10 0.8415751
445.20 0.8068301
445.30 0.7549799
445.40 0.6916078
445.50 0.6327483
445.60 0.5973865
445.70 0.5948635
445.80 0.617653
445.90 0.6474898
446.00 0.6705925
446.10 0.6877275
446.20 0.7098859
446.30 0.7451107
446.40 0.7898207
446.50 0.8321216
446.60 0.8618744
446.70 0.8770583
446.80 0.8823954
446.90 0.8845857
447.00 0.8891641
447.10 0.8990758
447.20 0.9129636
447.30 0.9249823
447.40 0.9293658
447.50 0.9267995
447.60 0.9247232
447.70 0.929113
447.80 0.9361335
447.90 0.9338963
448.00 0.9141712
448.10 0.8824064
448.20 0.8559526
448.30 0.8518838
448.40 0.8745605
448.50 0.9124038
448.60 0.9455206
448.70 0.9583415
448.80 0.948676
448.90 0.9276855
449.00 0.9111359
449.10 0.9081147
449.20 0.9151356
449.30 0.9199407
449.40 0.9121518
449.50 0.8925862
449.60 0.873751
449.70 0.8706087
449.80 0.8888967
449.90 0.9209087
450.00 0.9526929
450.10 0.9756648
450.20 0.9913064
450.30 1.005247
450.40 1.018808
450.50 1.02763
450.60 1.027662
450.70 1.020446
450.80 1.011748
450.90 1.005912
451.00 1.002061
451.10 0.9958469
451.20 0.9848004
451.30 0.9719175
451.40 0.9634609
451.50 0.9624211
451.60 0.9647734
451.70 0.9640599
451.80 0.9599923
451.90 0.9599413
452.00 0.9701469
452.10 0.9870231
452.20 0.9994229
452.30 0.9983888
452.40 0.9818197
452.50 0.9513007
452.60 0.9097882
452.70 0.8645288
452.80 0.8282469
452.90 0.8120552
453.00 0.8155088
453.10 0.8247057
453.20 0.8213697
453.30 0.796148
453.40 0.7573694
453.50 0.7287892
453.60 0.7354765
453.70 0.785979
453.80 0.8645796
453.90 0.9419039
454.00 0.9953802
454.10 1.020828
454.20 1.026732
454.30 1.021229
454.40 1.006863
454.50 0.9854615
454.60 0.9627247
454.70 0.9456568
454.80 0.9381229
454.90 0.9404344
455.00 0.9509063
455.10 0.9652658
455.20 0.9760137
455.30 0.9769926
455.40 0.9703929
455.50 0.9674012
455.60 0.9798337
455.70 1.010614
455.80 1.05178
455.90 1.090737
456.00 1.118142
456.10 1.131145
456.20 1.131814
456.30 1.12429
456.40 1.113785
456.50 1.10676
456.60 1.109125
456.70 1.121616
456.80 1.136508
456.90 1.141552
457.00 1.130215
457.10 1.108988
457.20 1.093105
457.30 1.093543
457.40 1.108237
457.50 1.125137
457.60 1.131833
457.70 1.12221
457.80 1.097239
457.90 1.063719
458.00 1.033371
458.10 1.019064
458.20 1.026327
458.30 1.046612
458.40 1.061864
458.50 1.060043
458.60 1.047116
458.70 1.041526
458.80 1.055723
458.90 1.084105
459.00 1.108925
459.10 1.1164
459.20 1.106896
459.30 1.092128
459.40 1.085059
459.50 1.091642
459.60 1.108718
459.70 1.127132
459.80 1.137044
459.90 1.132627
460.00 1.114846
460.10 1.091327
460.20 1.072802
460.30 1.067065
460.40 1.074095
460.50 1.087041
460.60 1.099321
460.70 1.111132
460.80 1.127917
460.90 1.152059
461.00 1.177433
461.10 1.193711
461.20 1.195553
461.30 1.186657
461.40 1.175228
461.50 1.166846
461.60 1.162145
461.70 1.159842
461.80 1.160295
461.90 1.165434
462.00 1.175535
462.10 1.186854
462.20 1.193004
462.30 1.188939
462.40 1.174356
462.50 1.154436
462.60 1.137641
462.70 1.131329
462.80 1.13754
462.90 1.152126
463.00 1.167989
463.10 1.179192
463.20 1.182989
463.30 1.179982
463.40 1.17313
463.50 1.165068
463.60 1.155001
463.70 1.139516
463.80 1.11815
463.90 1.097805
464.00 1.089761
464.10 1.100741
464.20 1.125751
464.30 1.148877
464.40 1.152521
464.50 1.129774
464.60 1.091061
464.70 1.057987
464.80 1.047401
464.90 1.05891
465.00 1.077334
465.10 1.08735
465.20 1.085403
465.30 1.078348
465.40 1.074012
465.50 1.076182
465.60 1.0875
465.70 1.112007
465.80 1.151023
465.90 1.197645
466.00 1.238286
466.10 1.260631
466.20 1.260277
466.30 1.24106
466.40 1.210268
466.50 1.173174
466.60 1.131637
466.70 1.088654
466.80 1.053618
466.90 1.03979
467.00 1.053639
467.10 1.086963
467.20 1.121878
467.30 1.144397
467.40 1.15342
467.50 1.157843
467.60 1.165943
467.70 1.177161
467.80 1.18264
467.90 1.172922
468.00 1.146473
468.10 1.112429
468.20 1.085102
468.30 1.074698
468.40 1.0815
468.50 1.097705
468.60 1.114475
468.70 1.127144
468.80 1.134789
468.90 1.137434
469.00 1.135288
469.10 1.130227
469.20 1.126255
469.30 1.12753
469.40 1.13573
469.50 1.148828
469.60 1.161498
469.70 1.167383
469.80 1.163272
469.90 1.151581
470.00 1.137743
470.10 1.125106
470.20 1.113737
470.30 1.104022
470.40 1.09861
470.50 1.098955
470.60 1.101969
470.70 1.102898
470.80 1.101194
470.90 1.101919
471.00 1.111027
471.10 1.129226
471.20 1.149763
471.30 1.162485
471.40 1.161664
471.50 1.151023
471.60 1.140649
471.70 1.138327
471.80 1.144314
471.90 1.153714
472.00 1.161247
472.10 1.163609
472.20 1.160251
472.30 1.153965
472.40 1.149298
472.50 1.147727
472.60 1.144753
472.70 1.134249
472.80 1.116125
472.90 1.09837
473.00 1.090491
473.10 1.095057
473.20 1.106112
473.30 1.115227
473.40 1.118092
473.50 1.115753
473.60 1.111495
473.70 1.108068
473.80 1.106907
473.90 1.107793
474.00 1.108925
474.10 1.108694
474.20 1.107906
474.30 1.109399
474.40 1.115091
474.50 1.123985
474.60 1.133059
474.70 1.13939
474.80 1.141544
474.90 1.139684
475.00 1.134553
475.10 1.126345
475.20 1.115011
475.30 1.102059
475.40 1.091155
475.50 1.085316
475.60 1.083308
475.70 1.079933
475.80 1.070687
475.90 1.055856
476.00 1.039301
476.10 1.023662
476.20 1.00799
476.30 0.9902719
476.40 0.9709405
476.50 0.9530472
476.60 0.9396825
476.70 0.9319898
476.80 0.9289624
476.90 0.9279416
477.00 0.9259814
477.10 0.9219628
477.20 0.9174564
477.30 0.9147114
477.40 0.9137167
477.50 0.9119077
477.60 0.9066148
477.70 0.8972911
477.80 0.8855013
477.90 0.8734304
478.00 0.8625636
478.10 0.8536605
478.20 0.8479536
478.30 0.8480975
478.40 0.8569176
478.50 0.8743591
478.60 0.8960736
478.70 0.9160173
478.80 0.9309578
478.90 0.9420916
479.00 0.9524684
479.10 0.9638485
479.20 0.9765429
479.30 0.9910456
479.40 1.008118
479.50 1.026954
479.60 1.044269
479.70 1.055987
479.80 1.05983
479.90 1.056931
480.00 1.051912
480.10 1.051067
480.20 1.058555
480.30 1.072794
480.40 1.086712
480.50 1.092583
480.60 1.087625
480.70 1.075582
480.80 1.063327
480.90 1.055949
481.00 1.054282
481.10 1.055996
481.20 1.058429
481.30 1.060481
481.40 1.062769
481.50 1.066618
481.60 1.072689
481.70 1.079904
481.80 1.08545
481.90 1.086093
482.00 1.079981
482.10 1.067507
482.20 1.051002
482.30 1.03428
482.40 1.022036
482.50 1.01793
482.60 1.02167
482.70 1.028185
482.80 1.030973
482.90 1.027018
483.00 1.018828
483.10 1.012259
483.20 1.0125
483.30 1.020794
483.40 1.033437
483.50 1.044104
483.60 1.048569
483.70 1.047812
483.80 1.046199
483.90 1.046666
484.00 1.0479
484.10 1.04623
484.20 1.040148
484.30 1.033225
484.40 1.032744
484.50 1.0444
484.60 1.0671
484.70 1.093003
484.80 1.113222
484.90 1.123598
485.00 1.125538
485.10 1.122742
485.20 1.118016
485.30 1.112542
485.40 1.106825
485.50 1.101986
485.60 1.099842
485.70 1.100528
485.80 1.099996
485.90 1.092023
486.00 1.07448
486.10 1.053242
486.20 1.038549
486.30 1.037174
486.40 1.048268
486.50 1.065645
486.60 1.082874
486.70 1.096074
486.80 1.102788
486.90 1.099882
487.00 1.084902
487.10 1.060946
487.20 1.038609
487.30 1.029623
487.40 1.036995
487.50 1.052631
487.60 1.065451
487.70 1.07115
487.80 1.073606
487.90 1.07807
488.00 1.085174
488.10 1.091627
488.20 1.094773
488.30 1.094657
488.40 1.092075
488.50 1.086921
488.60 1.079462
488.70 1.071138
488.80 1.062169
488.90 1.050183
489.00 1.034209
489.10 1.020486
489.20 1.021207
489.30 1.044665
489.40 1.08669
489.50 1.132859
489.60 1.168748
489.70 1.187722
489.80 1.190968
489.90 1.183413
490.00 1.170806
490.10 1.158182
490.20 1.148656
490.30 1.14395
490.40 1.146375
490.50 1.158407
490.60 1.178853
490.70 1.200754
490.80 1.215579
490.90 1.220033
491.00 1.217622
491.10 1.213634
491.20 1.209956
491.30 1.205408
491.40 1.199577
491.50 1.193829
491.60 1.187178
491.70 1.172644
491.80 1.141443
491.90 1.093694
492.00 1.044632
492.10 1.016904
492.20 1.023604
492.30 1.058236
492.40 1.102044
492.50 1.140741
492.60 1.173046
492.70 1.204378
492.80 1.235907
492.90 1.261728
493.00 1.274361
493.10 1.270189
493.20 1.250978
493.30 1.223416
493.40 1.197187
493.50 1.179932
493.60 1.171612
493.70 1.164809
493.80 1.152591
493.90 1.136327
494.00 1.125095
494.10 1.127642
494.20 1.14487
494.30 1.169273
494.40 1.191115
494.50 1.205935
494.60 1.217286
494.70 1.232453
494.80 1.254688
494.90 1.279467
495.00 1.298411
495.10 1.305599
495.20 1.299261
495.30 1.278313
495.40 1.23952
495.50 1.180186
495.60 1.10498
495.70 1.029838
495.80 0.9770319
495.90 0.9621984
496.00 0.9827402
496.10 1.018803
496.20 1.047538
496.30 1.058453
496.40 1.056698
496.50 1.053303
496.60 1.053746
496.70 1.055957
496.80 1.05708
496.90 1.059498
497.00 1.069234
497.10 1.089332
497.20 1.115765
497.30 1.139949
497.40 1.154985
497.50 1.159532
497.60 1.156332
497.70 1.148152
497.80 1.135246
497.90 1.115234
498.00 1.084596
498.10 1.042579
498.20 0.9968187
498.30 0.9638493
498.40 0.9590645
498.50 0.9835768
498.60 1.022047
498.70 1.054208
498.80 1.06801
498.90 1.063637
499.00 1.0496
499.10 1.036735
499.20 1.032709
499.30 1.038789
499.40 1.051205
499.50 1.065388
499.60 1.068045
499.70 1.025994
499.80 0.8990046
499.90 0.6791582
500.00 1
500.10 0.9119344
500.20 0.9135018
500.30 0.9776087
500.40 1.035013
500.50 1.067339
500.60 1.044712
500.70 0.964915
500.80 0.9028362
500.90 0.9080952
501.00 0.9603592
501.10 1.026586
501.20 1.054958
501.30 1.011308
501.40 0.915282
501.50 0.8379278
501.60 0.8360274
501.70 0.9028587
501.80 0.9881281
501.90 1.043938
502.00 1.069285
502.10 1.08489
502.20 1.038927
502.30 0.9562092
502.40 0.936218
502.50 0.9889162
502.60 1.03583
502.70 1.04882
502.80 1.017533
502.90 0.9896176
503.00 0.998282
503.10 1.056757
503.20 1.110033
503.30 1.115638
503.40 1.091826
503.50 1.053464
503.60 1.003322
503.70 0.9518164
503.80 0.9692099
503.90 0.995309
504.00 0.9484377
504.10 0.8651856
504.20 0.8377871
504.30 0.8792071
504.40 0.9426552
504.50 0.9991299
504.60 1.047766
504.70 1.100374
504.80 1.12883
504.90 1.108097
505.00 1.024579
505.10 0.9589878
505.20 0.9802554
505.30 1.026146
505.40 1.039044
505.50 1.026688
505.60 1.000779
505.70 1.004972
505.80 1.056438
505.90 1.080126
506.00 1.081186
506.10 1.080796
506.20 1.08198
506.30 1.080937
506.40 1.04073
506.50 0.9733192
506.60 0.9351727
506.70 0.9507344
506.80 0.9764438
506.90 0.9664163
507.00 0.9654736
507.10 0.9662033
507.20 0.9607922
507.30 0.9516118
507.40 0.9775841
507.50 1.033767
507.60 1.047425
507.70 0.995155
507.80 0.9787371
507.90 0.9873434
508.00 0.9814046
508.10 0.9571881
508.20 0.9376581
508.30 0.9118662
508.40 0.8961343
508.50 0.9253177
508.60 0.9929699
508.70 1.035315
508.80 1.0435
508.90 1.0234
509.00 0.9797626
509.10 0.9589628
509.20 0.9876078
509.30 1.0218
509.40 1.067348
509.50 1.061699
509.60 0.9860717
509.70 0.9546658
509.80 1.008247
509.90 1.061653
510.00 1.008295
510.10 0.9231984
510.20 0.8948079
510.30 0.9089033
510.40 0.9305662
510.50 0.9256348
510.60 0.8999157
510.70 0.8869264
510.80 0.9092049
510.90 0.9323609
511.00 0.9450432
511.10 0.9575988
511.20 0.9563737
511.30 0.9342201
511.40 0.9508784
511.50 1.001152
511.60 1.052314
511.70 1.074773
511.80 1.06729
511.90 1.06212
512.00 1.038133
512.10 0.9820348
512.20 0.9666567
512.30 0.9868806
512.40 0.9616065
512.50 0.9052879
512.60 0.8818061
512.70 0.8953178
512.80 0.9153548
512.90 0.9047965
513.00 0.8664818
513.10 0.8652485
513.20 0.9317133
513.30 1.019834
513.40 1.038732
513.50 1.005832
513.60 0.9857376
513.70 1.018551
513.80 1.026206
513.90 1.023063
514.00 0.9813626
514.10 0.9763649
514.20 1.009102
514.30 1.025042
514.40 1.004865
514.50 0.9943174
514.60 0.9772152
514.70 0.9317604
514.80 0.9249696
514.90 0.953665
515.00 0.9673287
515.10 0.9685889
515.20 0.9424507
515.30 0.8714634
515.40 0.8123586
515.50 0.8153142
515.60 0.8809115
515.70 0.9823573
515.80 1.052408
515.90 1.102381
516.00 1.120206
516.10 1.136147
516.20 1.165034
516.30 1.14231
516.40 1.102173
516.50 1.091446
516.60 1.048376
516.70 0.8961312
516.80 0.743899
516.90 0.7025588
517.00 0.7404562
517.10 0.7668378
517.20 0.7430698
517.30 0.6806662
517.40 0.6285644
517.50 0.6654946
517.60 0.7688863
517.70 0.8553999
517.80 0.881039
517.90 0.8629276
518.00 0.8448339
518.10 0.82543
518.20 0.7552568
518.30 0.662345
518.40 0.618223
518.50 0.6423625
518.60 0.7565662
518.70 0.9141806
518.80 1.01935
518.90 1.049728
519.00 1.063208
519.10 1.07209
519.20 1.038472
519.30 0.9694706
519.40 0.9480568
519.50 0.9828052
519.60 1.027758
519.70 1.082505
519.80 1.135266
519.90 1.156402
520.00 1.156486
520.10 1.14205
520.20 1.113952
520.30 1.069494
520.40 0.9871239
520.50 0.8613403
520.60 0.74697
520.70 0.676439
520.80 0.6736199
520.90 0.6705635
521.00 0.6631487
521.10 0.7185213
521.20 0.8791285
521.30 1.080478
521.40 1.233054
521.50 1.273774
521.60 1.231879
521.70 1.212238
521.80 1.23988
521.90 1.278719
522.00 1.323243
522.10 1.372588
522.20 1.399749
522.30 1.387259
522.40 1.33468
522.50 1.25749
522.60 1.187185
522.70 1.12203
522.80 1.085334
522.90 1.134164
523.00 1.262477
523.10 1.351168
523.20 1.355724
523.30 1.295468
523.40 1.240595
523.50 1.254448
523.60 1.331799
523.70 1.416249
523.80 1.443786
523.90 1.433001
524.00 1.421431
524.10 1.400274
524.20 1.36987
524.30 1.352877
524.40 1.365601
524.50 1.40238
524.60 1.414851
524.70 1.341492
524.80 1.246333
524.90 1.234085
525.00 1.284937
525.10 1.296739
525.20 1.265783
525.30 1.268917
525.40 1.316644
525.50 1.337056
525.60 1.336034
525.70 1.350454
525.80 1.37887
525.90 1.427536
526.00 1.437317
526.10 1.379659
526.20 1.289056
526.30 1.199461
526.40 1.119725
526.50 1.060462
526.60 1.008996
526.70 1.011439
526.80 1.07056
526.90 1.067385
527.00 0.9540394
527.10 0.8582376
527.20 0.9488693
527.30 1.128949
527.40 1.251414
527.50 1.307178
527.60 1.329525
527.70 1.328303
527.80 1.37826
527.90 1.440661
528.00 1.444301
528.10 1.414131
528.20 1.357892
528.30 1.266924
528.40 1.243502
528.50 1.286046
528.60 1.370442
528.70 1.461352
528.80 1.502693
528.90 1.486792
529.00 1.478244
529.10 1.465206
529.20 1.449241
529.30 1.456564
529.40 1.469314
529.50 1.481768
529.60 1.448815
529.70 1.343065
529.80 1.218302
529.90 1.136223
530.00 1.164573
530.10 1.259468
530.20 1.331156
530.30 1.366203
530.40 1.412607
530.50 1.48139
530.60 1.515864
530.70 1.488138
530.80 1.453247
530.90 1.454678
531.00 1.487608
531.10 1.509154
531.20 1.518229
531.30 1.506602
531.40 1.493079
531.50 1.485156
531.60 1.493212
531.70 1.504804
531.80 1.522164
531.90 1.539618
532.00 1.511759
532.10 1.46758
532.20 1.456056
532.30 1.449385
532.40 1.40735
532.50 1.365206
532.60 1.355704
532.70 1.332953
532.80 1.23057
532.90 1.062227
533.00 1.018097
533.10 1.147314
533.20 1.309539
533.30 1.386198
533.40 1.417308
533.50 1.438048
533.60 1.456244
533.70 1.468954
533.80 1.4679
533.90 1.449014
534.00 1.409277
534.10 1.345666
534.20 1.315972
534.30 1.342597
534.40 1.415605
534.50 1.434974
534.60 1.395719
534.70 1.338351
534.80 1.336644
534.90 1.347192
535.00 1.342499
535.10 1.384793
535.20 1.499086
535.30 1.578375
535.40 1.559939
535.50 1.522488
535.60 1.522412
535.70 1.558746
535.80 1.608496
535.90 1.630015
536.00 1.6196
536.10 1.600352
536.20 1.578241
536.30 1.569759
536.40 1.54681
536.50 1.514415
536.60 1.500874
536.70 1.496882
536.80 1.515465
536.90 1.525839
537.00 1.479474
537.10 1.341382
537.20 1.199657
537.30 1.18154
537.40 1.324121
537.50 1.499584
537.60 1.577699
537.70 1.577314
537.80 1.574241
537.90 1.608568
538.00 1.642237
538.10 1.670176
538.20 1.651981
538.30 1.601617
538.40 1.537697
538.50 1.516235
538.60 1.566513
538.70 1.624121
538.80 1.638497
538.90 1.626076
539.00 1.593943
539.10 1.572849
539.20 1.563787
539.30 1.53617
539.40 1.507856
539.50 1.486191
539.60 1.443112
539.70 1.361678
539.80 1.309155
539.90 1.350395
540.00 1.462277
540.10 1.543901
540.20 1.559628
540.30 1.561358
540.40 1.53384
540.50 1.452134
540.60 1.331707
540.70 1.271932
540.80 1.32597
540.90 1.408339
541.00 1.385281
541.10 1.327128
541.20 1.344328
541.30 1.445761
541.40 1.554923
541.50 1.620424
541.60 1.638213
541.70 1.630978
541.80 1.64577
541.90 1.684985
542.00 1.685728
542.10 1.627258
542.20 1.600402
542.30 1.627789
542.40 1.641308
542.50 1.615111
542.60 1.594365
542.70 1.629833
542.80 1.674588
542.90 1.630626
543.00 1.465293
543.10 1.340384
543.20 1.36426
543.30 1.455469
543.40 1.475927
543.50 1.417219
543.60 1.389887
543.70 1.455282
543.80 1.548651
543.90 1.601351
544.00 1.613687
544.10 1.645867
544.20 1.709308
544.30 1.749365
544.40 1.73893
544.50 1.67737
544.60 1.569239
544.70 1.411257
544.80 1.299327
544.90 1.300849
545.00 1.387919
545.10 1.450422
545.20 1.47689
545.30 1.488697
545.40 1.488124
545.50 1.425446
545.60 1.331576
545.70 1.296387
545.80 1.373042
545.90 1.498799
546.00 1.562001
546.10 1.549131
546.20 1.494883
546.30 1.453436
546.40 1.440728
546.50 1.464809
546.60 1.504204
546.70 1.539006
546.80 1.579228
546.90 1.611872
547.00 1.586597
547.10 1.539704
547.20 1.527404
547.30 1.553537
547.40 1.575269
547.50 1.546844
547.60 1.491616
547.70 1.456219
547.80 1.441375
547.90 1.465532
548.00 1.522368
548.10 1.565744
548.20 1.542582
548.30 1.504227
548.40 1.525709
548.50 1.598883
548.60 1.633962
548.70 1.617185
548.80 1.569841
548.90 1.548007
549.00 1.567617
549.10 1.604005
549.20 1.643333
549.30 1.673151
549.40 1.676983
549.50 1.645202
549.60 1.607211
549.70 1.569958
549.80 1.527995
549.90 1.505547
550.00 1.52499
550.10 1.542877
550.20 1.518846
550.30 1.496539
550.40 1.524254
550.50 1.541099
550.60 1.507773
550.70 1.45232
550.80 1.454027
550.90 1.533339
551.00 1.622859
551.10 1.620746
551.20 1.530323
551.30 1.416732
551.40 1.348483
551.50 1.347854
551.60 1.383078
551.70 1.449943
551.80 1.542809
551.90 1.61539
552.00 1.637697
552.10 1.637702
552.20 1.654942
552.30 1.692684
552.40 1.70605
552.50 1.677074
552.60 1.657122
552.70 1.646856
552.80 1.593665
552.90 1.518387
553.00 1.508552
553.10 1.593994
553.20 1.662937
553.30 1.662429
553.40 1.64163
553.50 1.629398
553.60 1.616239
553.70 1.614822
553.80 1.625269
553.90 1.626314
554.00 1.635907
554.10 1.655271
554.20 1.686138
554.30 1.668759
554.40 1.640928
554.50 1.631687
554.60 1.635061
554.70 1.641047
554.80 1.64688
554.90 1.671548
555.00 1.69157
555.10 1.69105
555.20 1.6884
555.30 1.699345
555.40 1.71089
555.50 1.701827
555.60 1.665601
555.70 1.629882
555.80 1.63162
555.90 1.670265
556.00 1.702367
556.10 1.716613
556.20 1.686018
556.30 1.640114
556.40 1.612275
556.50 1.60944
556.60 1.596623
556.70 1.562743
556.80 1.525952
556.90 1.548914
557.00 1.570987
557.10 1.559535
557.20 1.553471
557.30 1.553462
557.40 1.553653
557.50 1.553653
557.60 1.553653
557.70 1.553653
557.80 1.553653
557.90 1.553653
558.00 1.553653
558.10 1.553656
558.20 1.553643
558.30 1.553199
558.40 1.550386
558.50 1.576939
558.60 1.632804
558.70 1.591617
558.80 1.480595
558.90 1.377847
559.00 1.32867
559.10 1.365081
559.20 1.471965
559.30 1.563567
559.40 1.561251
559.50 1.509266
559.60 1.49723
559.70 1.546462
559.80 1.54603
559.90 1.453413
560.00 1.390478
560.10 1.413835
560.20 1.452132
560.30 1.453728
560.40 1.466571
560.50 1.5222
560.60 1.605483
560.70 1.660428
560.80 1.669177
560.90 1.671169
561.00 1.6829
561.10 1.694811
561.20 1.69771
561.30 1.698203
561.40 1.69397
561.50 1.63155
561.60 1.526446
561.70 1.468214
561.80 1.495968
561.90 1.56017
562.00 1.578628
562.10 1.559332
562.20 1.589804
562.30 1.643718
562.40 1.675913
562.50 1.641853
562.60 1.590367
562.70 1.590118
562.80 1.63014
562.90 1.649164
563.00 1.627822
563.10 1.60849
563.20 1.639004
563.30 1.682875
563.40 1.709769
563.50 1.733985
563.60 1.731189
563.70 1.703825
563.80 1.687256
563.90 1.681299
564.00 1.676804
564.10 1.682982
564.20 1.677527
564.30 1.672108
564.40 1.672146
564.50 1.674343
564.60 1.670821
564.70 1.684779
564.80 1.701703
564.90 1.70523
565.00 1.714836
565.10 1.731773
565.20 1.737192
565.30 1.762227
565.40 1.779983
565.50 1.788065
565.60 1.778745
565.70 1.774437
565.80 1.742895
565.90 1.677202
566.00 1.630095
566.10 1.647364
566.20 1.677202
566.30 1.655567
566.40 1.625272
566.50 1.663358
566.60 1.720884
566.70 1.75884
566.80 1.75499
566.90 1.727918
567.00 1.691418
567.10 1.68087
567.20 1.673752
567.30 1.671738
567.40 1.701582
567.50 1.729391
567.60 1.728225
567.70 1.73973
567.80 1.77431
567.90 1.799683
568.00 1.793244
568.10 1.773865
568.20 1.752366
568.30 1.707618
568.40 1.673194
568.50 1.692864
568.60 1.759593
568.70 1.781616
568.80 1.707274
568.90 1.612569
569.00 1.610301
569.10 1.689195
569.20 1.757697
569.30 1.798402
569.40 1.81917
569.50 1.823238
569.60 1.788967
569.70 1.780738
569.80 1.777826
569.90 1.745684
570.00 1.720943
570.10 1.728116
570.20 1.734547
570.30 1.716337
570.40 1.704085
570.50 1.729016
570.60 1.767688
570.70 1.785606
570.80 1.74349
570.90 1.710217
571.00 1.705199
571.10 1.695756
571.20 1.66959
571.30 1.683002
571.40 1.734504
571.50 1.774815
571.60 1.801184
571.70 1.804379
571.80 1.802136
571.90 1.816263
572.00 1.835851
572.10 1.846549
572.20 1.859131
572.30 1.884071
572.40 1.894965
572.50 1.864109
572.60 1.846478
572.70 1.807739
572.80 1.745141
572.90 1.72894
573.00 1.785725
573.10 1.82149
573.20 1.8079
573.30 1.810202
573.40 1.834301
573.50 1.86058
573.60 1.875637
573.70 1.869624
573.80 1.853451
573.90 1.847724
574.00 1.855658
574.10 1.86835
574.20 1.880012
574.30 1.881525
574.40 1.871671
574.50 1.869801
574.60 1.882893
574.70 1.895939
574.80 1.893131
574.90 1.900309
575.00 1.900262
575.10 1.907971
575.20 1.923567
575.30 1.914891
575.40 1.88629
575.50 1.868343
575.60 1.887579
575.70 1.917494
575.80 1.939872
575.90 1.941685
576.00 1.92203
576.10 1.896641
576.20 1.862732
576.30 1.818891
576.40 1.782113
576.50 1.790651
576.60 1.829415
576.70 1.872864
576.80 1.897102
576.90 1.907247
577.00 1.89855
577.10 1.892468
577.20 1.896278
577.30 1.897873
577.40 1.884455
577.50 1.875911
577.60 1.859192
577.70 1.852722
577.80 1.872555
577.90 1.881391
578.00 1.865234
578.10 1.835839
578.20 1.806987
578.30 1.791743
578.40 1.79279
578.50 1.801827
578.60 1.796819
578.70 1.797
578.80 1.824658
578.90 1.861786
579.00 1.879363
579.10 1.861157
579.20 1.830376
579.30 1.836283
579.40 1.885892
579.50 1.950327
579.60 1.975626
579.70 1.954895
579.80 1.936844
579.90 1.924742
580.00 1.932316
580.10 1.950893
580.20 1.986941
580.30 1.993706
580.40 1.980824
580.50 1.96784
580.60 1.963254
580.70 1.96488
580.80 1.964053
580.90 1.966142
581.00 1.958788
581.10 1.948348
581.20 1.937432
581.30 1.936428
581.40 1.929421
581.50 1.91155
581.60 1.886486
581.70 1.876017
581.80 1.869445
581.90 1.874658
582.00 1.904712
582.10 1.905749
582.20 1.896134
582.30 1.892022
582.40 1.899903
582.50 1.907357
582.60 1.920968
582.70 1.924911
582.80 1.926263
582.90 1.923239
583.00 1.919512
583.10 1.926987
583.20 1.935618
583.30 1.944994
583.40 1.943987
583.50 1.937423
583.60 1.924542
583.70 1.921439
583.80 1.907576
583.90 1.904718
584.00 1.913198
584.10 1.929784
584.20 1.944513
584.30 1.962333
584.40 1.959973
584.50 1.937344
584.60 1.926969
584.70 1.92916
584.80 1.928082
584.90 1.91172
585.00 1.884688
585.10 1.871053
585.20 1.850779
585.30 1.829856
585.40 1.799862
585.50 1.797373
585.60 1.792075
585.70 1.742864
585.80 1.659144
585.90 1.612671
586.00 1.66925
586.10 1.77546
586.20 1.830708
586.30 1.819853
586.40 1.791714
586.50 1.78589
586.60 1.782105
586.70 1.768474
586.80 1.738395
586.90 1.742085
587.00 1.785207
587.10 1.816107
587.20 1.813248
587.30 1.798679
587.40 1.787554
587.50 1.776441
587.60 1.77097
587.70 1.755047
587.80 1.728097
587.90 1.701382
588.00 1.669109
588.10 1.639114
588.20 1.610723
588.30 1.578603
588.40 1.536619
588.50 1.488315
588.60 1.416252
588.70 1.320017
588.80 1.169487
588.90 0.9757634
589.00 0.7867517
589.10 0.6657834
589.20 0.6308165
589.30 0.7164531
589.40 0.8409842
589.50 0.9177556
589.60 0.8601827
589.70 0.754584
589.80 0.7356837
589.90 0.8805112
590.00 1.070699
590.10 1.231264
590.20 1.353911
590.30 1.459477
590.40 1.534042
590.50 1.57786
590.60 1.61055
590.70 1.639021
590.80 1.650882
590.90 1.66662
591.00 1.683226
591.10 1.708881
591.20 1.733383
591.30 1.736289
591.40 1.721182
591.50 1.708148
591.60 1.713718
591.70 1.708731
591.80 1.722437
591.90 1.735152
592.00 1.738412
592.10 1.738734
592.20 1.734557
592.30 1.740159
592.40 1.744436
592.50 1.746892
592.60 1.750353
592.70 1.763719
592.80 1.780516
592.90 1.786409
593.00 1.785153
593.10 1.775533
593.20 1.772674
593.30 1.794852
593.40 1.817475
593.50 1.822155
593.60 1.830977
593.70 1.823118
593.80 1.816476
593.90 1.823228
594.00 1.830798
594.10 1.817922
594.20 1.797523
594.30 1.785179
594.40 1.802586
594.50 1.838844
594.60 1.869833
594.70 1.882487
594.80 1.872283
594.90 1.855166
595.00 1.82294
595.10 1.786152
595.20 1.782646
595.30 1.799063
595.40 1.808467
595.50 1.795116
595.60 1.79058
595.70 1.788251
595.80 1.77252
595.90 1.765468
596.00 1.795868
596.10 1.840398
596.20 1.865288
596.30 1.864052
596.40 1.84896
596.50 1.843026
596.60 1.830504
596.70 1.815159
596.80 1.816981
596.90 1.840486
597.00 1.858971
597.10 1.868137
597.20 1.871138
597.30 1.872085
597.40 1.866129
597.50 1.853867
597.60 1.843504
597.70 1.833213
597.80 1.820061
597.90 1.802753
598.00 1.799188
598.10 1.832588
598.20 1.86477
598.30 1.87889
598.40 1.879038
598.50 1.862804
598.60 1.860333
598.70 1.863868
598.80 1.869838
598.90 1.87147
599.00 1.871162
599.10 1.875926
599.20 1.887396
599.30 1.911488
599.40 1.9335
599.50 1.949303
599.60 1.958906
599.70 1.957335
599.80 1.942564
599.90 1.914855
600.00 1.902789
600.10 1.89685
600.20 1.885276
600.30 1.87333
600.40 1.874991
600.50 1.88655
600.60 1.88855
600.70 1.893643
600.80 1.879972
600.90 1.853936
601.00 1.848828
601.10 1.879812
601.20 1.91601
601.30 1.918338
601.40 1.893708
601.50 1.888409
601.60 1.902706
601.70 1.902037
601.80 1.888844
601.90 1.889741
602.00 1.899334
602.10 1.901754
602.20 1.882658
602.30 1.864347
602.40 1.879427
602.50 1.907339
602.60 1.927364
602.70 1.938479
602.80 1.962257
602.90 1.988238
603.00 1.999617
603.10 2.000717
603.20 2.004434
603.30 2.017361
603.40 2.021429
603.50 2.020177
603.60 2.018561
603.70 2.006995
603.80 1.986687
603.90 1.967336
604.00 1.951772
604.10 1.94717
604.20 1.950316
604.30 1.977273
604.40 2.007373
604.50 2.027248
604.60 2.042307
604.70 2.062883
604.80 2.069843
604.90 2.058029
605.00 2.053612
605.10 2.056502
605.20 2.050033
605.30 2.026699
605.40 2.011915
605.50 2.005065
605.60 2.000604
605.70 1.993997
605.80 1.986628
605.90 1.986477
606.00 2.004453
606.10 2.027318
606.20 2.04379
606.30 2.037004
606.40 2.007763
606.50 1.963239
606.60 1.917543
606.70 1.912099
606.80 1.948678
606.90 2.005273
607.00 2.051197
607.10 2.072603
607.20 2.078408
607.30 2.072752
607.40 2.060663
607.50 2.054442
607.60 2.062935
607.70 2.070699
607.80 2.074243
607.90 2.058001
608.00 2.033293
608.10 2.013981
608.20 1.995302
608.30 1.981606
608.40 1.986129
608.50 2.006287
608.60 2.018819
608.70 2.023846
608.80 2.03766
608.90 2.038379
609.00 2.026593
609.10 1.999565
609.20 1.980384
609.30 1.987081
609.40 2.020341
609.50 2.052042
609.60 2.074243
609.70 2.075351
609.80 2.061737
609.90 2.056521
610.00 2.057202
610.10 2.034688
610.20 1.937623
610.30 1.800018
610.40 1.707496
610.50 1.72268
610.60 1.8489
610.70 1.98297
610.80 2.055907
610.90 2.065561
611.00 2.050268
611.10 2.0327
611.20 2.021573
611.30 2.029231
611.40 2.051198
611.50 2.074428
611.60 2.090251
611.70 2.081314
611.80 2.055919
611.90 2.021716
612.00 1.963528
612.10 1.856955
612.20 1.702579
612.30 1.565753
612.40 1.528184
612.50 1.624273
612.60 1.793616
612.70 1.926209
612.80 1.9845
612.90 2.02114
613.00 2.060041
613.10 2.085475
613.20 2.094931
613.30 2.099598
613.40 2.088401
613.50 2.050442
613.60 1.997546
613.70 1.924657
613.80 1.868288
613.90 1.859915
614.00 1.914358
614.10 1.99483
614.20 2.04115
614.30 2.044454
614.40 2.047824
614.50 2.071184
614.60 2.090733
614.70 2.099657
614.80 2.089656
614.90 2.066224
615.00 2.027039
615.10 1.997
615.20 1.994201
615.30 2.008311
615.40 2.020504
615.50 2.00965
615.60 1.989662
615.70 1.975627
615.80 1.968716
615.90 1.930144
616.00 1.8324
616.10 1.66895
616.20 1.475579
616.30 1.316518
616.40 1.258702
616.50 1.327547
616.60 1.467456
616.70 1.58106
616.80 1.630134
616.90 1.621103
617.00 1.579155
617.10 1.561393
617.20 1.607919
617.30 1.698067
617.40 1.759697
617.50 1.7929
617.60 1.802843
617.70 1.817979
617.80 1.845463
617.90 1.866617
618.00 1.886672
618.10 1.892252
618.20 1.890338
618.30 1.885182
618.40 1.888693
618.50 1.877417
618.60 1.849352
618.70 1.810409
618.80 1.779977
618.90 1.76335
619.00 1.742773
619.10 1.708991
619.20 1.658411
619.30 1.624061
619.40 1.642908
619.50 1.688539
619.60 1.735436
619.70 1.771065
619.80 1.782721
619.90 1.768515
620.00 1.746569
620.10 1.736942
620.20 1.748653
620.30 1.776074
620.40 1.810243
620.50 1.833646
620.60 1.846489
620.70 1.846157
620.80 1.849682
620.90 1.854738
621.00 1.853003
621.10 1.827689
621.20 1.790642
621.30 1.762243
621.40 1.726299
621.50 1.675116
621.60 1.625589
621.70 1.59086
621.80 1.586841
621.90 1.609126
622.00 1.637446
622.10 1.647489
622.20 1.647699
622.30 1.644063
622.40 1.627489
622.50 1.605574
622.60 1.596082
622.70 1.615672
622.80 1.637285
622.90 1.634953
623.00 1.604592
623.10 1.569561
623.20 1.544607
623.30 1.545637
623.40 1.585054
623.50 1.642975
623.60 1.702351
623.70 1.727037
623.80 1.718124
623.90 1.692304
624.00 1.668247
624.10 1.644021
624.20 1.617432
624.30 1.599732
624.40 1.598382
624.50 1.613776
624.60 1.634784
624.70 1.654415
624.80 1.685272
624.90 1.719616
625.00 1.7368
625.10 1.730525
625.20 1.712455
625.30 1.696411
625.40 1.674914
625.50 1.666972
625.60 1.676272
625.70 1.677019
625.80 1.640076
625.90 1.579533
626.00 1.542352
626.10 1.555384
626.20 1.617661
626.30 1.696691
626.40 1.76371
626.50 1.798265
626.60 1.806411
626.70 1.796396
626.80 1.779132
626.90 1.775745
627.00 1.769698
627.10 1.763902
627.20 1.776064
627.30 1.809469
627.40 1.834325
627.50 1.821109
627.60 1.782326
627.70 1.749659
627.80 1.735798
627.90 1.735044
628.00 1.73794
628.10 1.733338
628.20 1.732099
628.30 1.751073
628.40 1.781633
628.50 1.804651
628.60 1.815243
628.70 1.835052
628.80 1.867689
628.90 1.895199
629.00 1.911168
629.10 1.903095
629.20 1.878914
629.30 1.852225
629.40 1.830021
629.50 1.82838
629.60 1.827961
629.70 1.823634
629.80 1.819742
629.90 1.836958
630.00 1.875723
630.10 1.892677
630.20 1.852682
630.30 1.849415
630.40 1.844806
630.50 1.824977
630.60 1.840403
630.70 1.871295
630.80 1.910514
630.90 1.935753
631.00 1.948798
631.10 1.959994
631.20 1.959623
631.30 1.948987
631.40 1.952462
631.50 1.961854
631.60 1.962453
631.70 1.947346
631.80 1.928571
631.90 1.92116
632.00 1.933291
632.10 1.955697
632.20 1.977278
632.30 1.98216
632.40 1.976856
632.50 1.981584
632.60 1.993551
632.70 1.996131
632.80 1.990469
632.90 1.992771
633.00 1.995606
633.10 2.000292
633.20 2.012409
633.30 2.036936
633.40 2.054754
633.50 2.046318
633.60 2.008467
633.70 1.966233
633.80 1.953317
633.90 1.974673
634.00 2.01464
634.10 2.05466
634.20 2.079351
634.30 2.077288
634.40 2.047311
634.50 2.014174
634.60 2.006556
634.70 2.031685
634.80 2.070807
634.90 2.096662
635.00 2.104924
635.10 2.107983
635.20 2.112072
635.30 2.112961
635.40 2.089062
635.50 2.056977
635.60 2.036131
635.70 2.027849
635.80 2.005011
635.90 1.967871
636.00 1.946915
636.10 1.940514
636.20 1.925729
636.30 1.908222
636.40 1.910632
636.50 1.945883
636.60 1.963262
636.70 1.958282
636.80 1.973465
636.90 1.982228
637.00 1.977519
637.10 1.9736
637.20 1.99359
637.30 2.014152
637.40 2.020656
637.50 2.011496
637.60 1.998642
637.70 1.989218
637.80 1.974906
637.90 1.940396
638.00 1.884739
638.10 1.829497
638.20 1.793789
638.30 1.788497
638.40 1.819378
638.50 1.861595
638.60 1.890761
638.70 1.888198
638.80 1.861677
638.90 1.839015
639.00 1.836962
639.10 1.861612
639.20 1.891809
639.30 1.896781
639.40 1.875997
639.50 1.870812
639.60 1.905146
639.70 1.956448
639.80 2.001473
639.90 2.008448
640.00 1.977873
640.10 1.938118
640.20 1.926597
640.30 1.963797
640.40 2.02569
640.50 2.072127
640.60 2.08669
640.70 2.093245
640.80 2.089657
640.90 2.082701
641.00 2.083568
641.10 2.083675
641.20 2.069478
641.30 2.046442
641.40 2.040897
641.50 2.061571
641.60 2.088123
641.70 2.10642
641.80 2.107172
641.90 2.103018
642.00 2.084203
642.10 2.053031
642.20 2.031357
642.30 2.034483
642.40 2.068734
642.50 2.114741
642.60 2.14933
642.70 2.158225
642.80 2.146772
642.90 2.139661
643.00 2.129033
643.10 2.104652
643.20 2.076713
643.30 2.072046
643.40 2.091475
643.50 2.119715
643.60 2.143668
643.70 2.145412
643.80 2.092272
643.90 1.9847
644.00 1.883284
644.10 1.864232
644.20 1.939922
644.30 2.056656
644.40 2.161601
644.50 2.224662
644.60 2.245814
644.70 2.243388
644.80 2.211483
644.90 2.141038
645.00 2.056108
645.10 1.990399
645.20 1.983924
645.30 2.047991
645.40 2.137285
645.50 2.189047
645.60 2.192287
645.70 2.184572
645.80 2.190381
645.90 2.212741
646.00 2.23321
646.10 2.211733
646.20 2.122477
646.30 1.994135
646.40 1.902607
646.50 1.906086
646.60 1.995733
646.70 2.111717
646.80 2.19274
646.90 2.227922
647.00 2.230383
647.10 2.212659
647.20 2.178022
647.30 2.153142
647.40 2.156195
647.50 2.190382
647.60 2.225379
647.70 2.24378
647.80 2.255673
647.90 2.266382
648.00 2.272199
648.10 2.257584
648.20 2.227068
648.30 2.203532
648.40 2.188611
648.50 2.184621
648.60 2.19044
648.70 2.208234
648.80 2.230674
648.90 2.237425
649.00 2.236895
649.10 2.237187
649.20 2.223762
649.30 2.165767
649.40 2.052171
649.50 1.923093
649.60 1.852262
649.70 1.86405
649.80 1.933323
649.90 1.997986
650.00 2.032101
650.10 2.05636
650.20 2.096328
650.30 2.157493
650.40 2.206114
650.50 2.231761
650.60 2.249993
650.70 2.265873
650.80 2.268625
650.90 2.255167
651.00 2.245523
651.10 2.247933
651.20 2.260331
651.30 2.271472
651.40 2.265439
651.50 2.253578
651.60 2.248658
651.70 2.243793
651.80 2.234425
651.90 2.221046
652.00 2.230631
652.10 2.257138
652.20 2.276457
652.30 2.279207
652.40 2.27762
652.50 2.274409
652.60 2.27775
652.70 2.291589
652.80 2.311677
652.90 2.324526
653.00 2.324431
653.10 2.313179
653.20 2.296128
653.30 2.280924
653.40 2.279463
653.50 2.294383
653.60 2.312038
653.70 2.322432
653.80 2.33075
653.90 2.339026
654.00 2.342628
654.10 2.343012
654.20 2.349827
654.30 2.351653
654.40 2.326897
654.50 2.281715
654.60 2.242433
654.70 2.217416
654.80 2.200697
654.90 2.208451
655.00 2.237034
655.10 2.26358
655.20 2.277072
655.30 2.261986
655.40 2.232111
655.50 2.208105
655.60 2.184182
655.70 2.172621
655.80 2.182209
655.90 2.210369
656.00 2.253148
656.10 2.269068
656.20 2.218539
656.30 2.119994
656.40 2.030493
656.50 2.009144
656.60 2.069434
656.70 2.165969
656.80 2.23176
656.90 2.255709
657.00 2.244956
657.10 2.226198
657.20 2.203323
657.30 2.160922
657.40 2.124361
657.50 2.113617
657.60 2.136051
657.70 2.181718
657.80 2.229406
657.90 2.249413
658.00 2.238632
658.10 2.222559
658.20 2.216755
658.30 2.231314
658.40 2.254507
658.50 2.268833
658.60 2.272719
658.70 2.274301
658.80 2.274015
658.90 2.280925
659.00 2.294595
659.10 2.288775
659.20 2.261989
659.30 2.212745
659.40 2.156769
659.50 2.129178
659.60 2.145317
659.70 2.192134
659.80 2.237684
659.90 2.254393
660.00 2.245707
660.10 2.238769
660.20 2.252971
660.30 2.277628
660.40 2.29028
660.50 2.283527
660.60 2.262376
660.70 2.242152
660.80 2.22853
660.90 2.211708
661.00 2.209193
661.10 2.221902
661.20 2.238657
661.30 2.253373
661.40 2.25843
661.50 2.263687
661.60 2.259464
661.70 2.252352
661.80 2.254033
661.90 2.257562
662.00 2.258193
662.10 2.251893
662.20 2.247306
662.30 2.247125
662.40 2.243656
662.50 2.231914
662.60 2.208337
662.70 2.195995
662.80 2.191874
662.90 2.19355
663.00 2.194033
663.10 2.194484
663.20 2.201365
663.30 2.205006
663.40 2.200743
663.50 2.194708
663.60 2.195495
663.70 2.199534
663.80 2.19789
663.90 2.198923
664.00 2.211591
664.10 2.226484
664.20 2.226587
664.30 2.218681
664.40 2.208785
664.50 2.200804
664.60 2.198351
664.70 2.208548
664.80 2.223916
664.90 2.226893
665.00 2.213546
665.10 2.184995
665.20 2.159351
665.30 2.140583
665.40 2.133447
665.50 2.134342
665.60 2.144442
665.70 2.153212
665.80 2.150893
665.90 2.145727
666.00 2.134801
666.10 2.131813
666.20 2.126455
666.30 2.112637
666.40 2.104094
666.50 2.100987
666.60 2.101942
666.70 2.108454
666.80 2.126547
666.90 2.150737
667.00 2.170509
667.10 2.182827
667.20 2.197364
667.30 2.207651
667.40 2.19954
667.50 2.181775
667.60 2.163691
667.70 2.144145
667.80 2.110964
667.90 2.070816
668.00 2.043284
668.10 2.036272
668.20 2.034351
668.30 2.034974
668.40 2.038896
668.50 2.046767
668.60 2.063031
668.70 2.074031
668.80 2.082344
668.90 2.088678
669.00 2.080912
669.10 2.062552
669.20 2.05021
669.30 2.051736
669.40 2.059662
669.50 2.068171
669.60 2.066729
669.70 2.055373
669.80 2.040953
669.90 2.034825
670.00 2.054398
670.10 2.079679
670.20 2.090784
670.30 2.097187
670.40 2.097293
670.50 2.09197
670.60 2.09398
670.70 2.094549
670.80 2.089899
670.90 2.088821
671.00 2.089928
671.10 2.093052
671.20 2.093113
671.30 2.082751
671.40 2.063742
671.50 2.031932
671.60 1.990413
671.70 1.93201
671.80 1.87281
671.90 1.83316
672.00 1.831311
672.10 1.871074
672.20 1.921428
672.30 1.955258
672.40 1.968562
672.50 1.977331
672.60 1.978648
672.70 1.97373
672.80 1.975422
672.90 1.981383
673.00 1.984976
673.10 1.984084
673.20 1.984643
673.30 1.989671
673.40 1.987921
673.50 1.983844
673.60 1.982576
673.70 1.990586
673.80 2.00041
673.90 2.005089
674.00 2.008863
674.10 2.00915
674.20 2.003257
674.30 1.991239
674.40 1.977811
674.50 1.975236
674.60 1.975312
674.70 1.970899
674.80 1.960143
674.90 1.938619
675.00 1.915367
675.10 1.898662
675.20 1.899097
675.30 1.91315
675.40 1.924801
675.50 1.931488
675.60 1.933302
675.70 1.942548
675.80 1.961516
675.90 1.981219
676.00 1.990453
676.10 1.984651
676.20 1.976865
676.30 1.973165
676.40 1.97347
676.50 1.97865
676.60 1.972104
676.70 1.961117
676.80 1.951437
676.90 1.938093
677.00 1.927076
677.10 1.926077
677.20 1.947214
677.30 1.970543
677.40 1.974259
677.50 1.973659
677.60 1.983222
677.70 1.997968
677.80 2.00239
677.90 1.992856
678.00 1.982259
678.10 1.973776
678.20 1.953732
678.30 1.923438
678.40 1.890678
678.50 1.869657
678.60 1.869559
678.70 1.87246
678.80 1.872786
678.90 1.875254
679.00 1.88659
679.10 1.895759
679.20 1.895865
679.30 1.893827
679.40 1.892705
679.50 1.892621
679.60 1.89088
679.70 1.885105
679.80 1.87852
679.90 1.876499
680.00 1.882169
680.10 1.895479
680.20 1.909269
680.30 1.921659
680.40 1.930122
680.50 1.925051
680.60 1.911664
680.70 1.891528
680.80 1.871322
680.90 1.865128
681.00 1.872315
681.10 1.878202
681.20 1.885696
681.30 1.897802
681.40 1.905886
681.50 1.908783
681.60 1.897606
681.70 1.876773
681.80 1.855035
681.90 1.84464
682.00 1.841617
682.10 1.850019
682.20 1.865038
682.30 1.868747
682.40 1.867743
682.50 1.868886
682.60 1.870122
682.70 1.872754
682.80 1.873769
682.90 1.873965
683.00 1.874318
683.10 1.873475
683.20 1.873626
683.30 1.867479
683.40 1.861983
683.50 1.869167
683.60 1.883063
683.70 1.879891
683.80 1.859305
683.90 1.849155
684.00 1.854387
684.10 1.864329
684.20 1.86845
684.30 1.869188
684.40 1.87266
684.50 1.868273
684.60 1.854565
684.70 1.841791
684.80 1.835808
684.90 1.839514
685.00 1.842497
685.10 1.842822
685.20 1.838783
685.30 1.821658
685.40 1.809955
685.50 1.810947
685.60 1.818358
685.70 1.814377
685.80 1.800062
685.90 1.797127
686.00 1.799111
686.10 1.791805
686.20 1.777994
686.30 1.776051
686.40 1.791786
686.50 1.820277
686.60 1.844719
686.70 1.853847
686.80 1.844923
686.90 1.824773
687.00 1.812479
687.10 1.810285
687.20 1.811481
687.30 1.81245
687.40 1.81706
687.50 1.830655
687.60 1.843832
687.70 1.860486
687.80 1.884433
687.90 1.902793
688.00 1.911738
688.10 1.896408
688.20 1.8623
688.30 1.830366
688.40 1.817109
688.50 1.815084
688.60 1.807362
688.70 1.808603
688.80 1.82782
688.90 1.854928
689.00 1.88884
689.10 1.908757
689.20 1.900058
689.30 1.886346
689.40 1.886782
689.50 1.900045
689.60 1.909445
689.70 1.907796
689.80 1.903744
689.90 1.903279
690.00 1.89143
690.10 1.857073
690.20 1.813498
690.30 1.798427
690.40 1.829771
690.50 1.884293
690.60 1.927558
690.70 1.950178
690.80 1.972114
690.90 1.991352
691.00 1.999772
691.10 1.994724
691.20 1.982265
691.30 1.976505
691.40 1.978456
691.50 1.976372
691.60 1.975082
691.70 1.968154
691.80 1.943142
691.90 1.889641
692.00 1.842077
692.10 1.841884
692.20 1.887827
692.30 1.95411
692.40 1.99378
692.50 2.009529
692.60 2.014577
692.70 2.023373
692.80 2.045725
692.90 2.071138
693.00 2.098403
693.10 2.118373
693.20 2.130385
693.30 2.136428
693.40 2.136643
693.50 2.130058
693.60 2.11846
693.70 2.109975
693.80 2.108439
693.90 2.113702
694.00 2.116544
694.10 2.123978
694.20 2.140849
694.30 2.161913
694.40 2.180402
694.50 2.19013
694.60 2.189678
694.70 2.193264
694.80 2.20943
694.90 2.22609
695.00 2.239772
695.10 2.233724
695.20 2.217741
695.30 2.214166
695.40 2.204216
695.50 2.191057
695.60 2.182381
695.70 2.175081
695.80 2.164375
695.90 2.150689
696.00 2.141569
696.10 2.138362
696.20 2.141635
696.30 2.148158
696.40 2.156738
696.50 2.167947
696.60 2.179165
696.70 2.184182
696.80 2.181005
696.90 2.182929
697.00 2.189055
697.10 2.189558
697.20 2.181138
697.30 2.171861
697.40 2.161775
697.50 2.157443
697.60 2.160886
697.70 2.158728
697.80 2.143999
697.90 2.11846
698.00 2.086365
698.10 2.079659
698.20 2.10633
698.30 2.137945
698.40 2.171729
698.50 2.202694
698.60 2.220132
698.70 2.220827
698.80 2.20804
698.90 2.192522
699.00 2.18295
699.10 2.175631
699.20 2.168904
699.30 2.165226
699.40 2.164047
699.50 2.165375
699.60 2.173983
699.70 2.19122
699.80 2.212609
699.90 2.222535
700.00 2.218784
700.10 2.21007
700.20 2.213183
700.30 2.235751
700.40 2.245099
700.50 2.233551
700.60 2.21589
700.70 2.208739
700.80 2.214615
700.90 2.224945
701.00 2.2389
701.10 2.244572
701.20 2.234627
701.30 2.235809
701.40 2.263709
701.50 2.280387
701.60 2.266975
701.70 2.233118
701.80 2.205073
701.90 2.212071
702.00 2.24375
702.10 2.277936
702.20 2.297475
702.30 2.290387
702.40 2.267128
702.50 2.247967
702.60 2.236297
702.70 2.231791
702.80 2.245393
702.90 2.276173
703.00 2.320721
703.10 2.36226
703.20 2.375619
703.30 2.363085
703.40 2.348421
703.50 2.35535
703.60 2.378731
703.70 2.391039
703.80 2.377924
703.90 2.347113
704.00 2.328565
704.10 2.347807
704.20 2.3926
704.30 2.437752
704.40 2.468342
704.50 2.482027
704.60 2.487412
704.70 2.492646
704.80 2.496922
704.90 2.497305
705.00 2.489259
705.10 2.475312
705.20 2.459124
705.30 2.431832
705.40 2.386787
705.50 2.320711
705.60 2.24472
705.70 2.194615
705.80 2.186246
705.90 2.215373
706.00 2.236596
706.10 2.214249
706.20 2.178634
706.30 2.160531
706.40 2.16471
706.50 2.185706
706.60 2.206984
706.70 2.218473
706.80 2.221964
706.90 2.218215
707.00 2.223157
707.10 2.238938
707.20 2.258048
707.30 2.280436
707.40 2.297592
707.50 2.299635
707.60 2.294906
707.70 2.294465
707.80 2.295233
707.90 2.294498
708.00 2.289877
708.10 2.287321
708.20 2.295778
708.30 2.301892
708.40 2.297208
708.50 2.277091
708.60 2.242608
708.70 2.196031
708.80 2.137002
708.90 2.075252
709.00 2.020628
709.10 2.004196
709.20 2.036266
709.30 2.082277
709.40 2.109153
709.50 2.107702
709.60 2.092673
709.70 2.078607
709.80 2.07462
709.90 2.083267
710.00 2.098867
710.10 2.115292
710.20 2.119036
710.30 2.111491
710.40 2.108144
710.50 2.114629
710.60 2.128883
710.70 2.143601
710.80 2.154896
710.90 2.166059
711.00 2.174525
711.10 2.172156
711.20 2.167295
711.30 2.164369
711.40 2.165569
711.50 2.168073
711.60 2.173275
711.70 2.181301
711.80 2.186196
711.90 2.198631
712.00 2.216238
712.10 2.229308
712.20 2.238141
712.30 2.237321
712.40 2.223834
712.50 2.185512
712.60 2.110695
712.70 2.019296
712.80 1.944689
712.90 1.918999
713.00 1.939151
713.10 1.97023
713.20 1.974832
713.30 1.951635
713.40 1.93711
713.50 1.943428
713.60 1.960281
713.70 1.973756
713.80 1.977178
713.90 1.969595
714.00 1.959984
714.10 1.959527
714.20 1.972164
714.30 1.993122
714.40 2.011869
714.50 2.020207
714.60 2.017004
714.70 1.988425
714.80 1.923229
714.90 1.864781
715.00 1.850593
715.10 1.888308
715.20 1.966294
715.30 2.039328
715.40 2.077539
715.50 2.09023
715.60 2.098599
715.70 2.114727
715.80 2.123983
715.90 2.112132
716.00 2.085821
716.10 2.064097
716.20 2.063347
716.30 2.077942
716.40 2.089985
716.50 2.092764
716.60 2.088203
716.70 2.085525
716.80 2.094525
716.90 2.108167
717.00 2.11616
717.10 2.119402
717.20 2.122886
717.30 2.129192
717.40 2.134151
717.50 2.137486
717.60 2.137586
717.70 2.131692
717.80 2.126829
717.90 2.122999
718.00 2.122553
718.10 2.130233
718.20 2.142546
718.30 2.159485
718.40 2.181402
718.50 2.204478
718.60 2.216451
718.70 2.194249
718.80 2.144587
718.90 2.102407
719.00 2.093479
719.10 2.11785
719.20 2.152372
719.30 2.180445
719.40 2.195778
719.50 2.202938
719.60 2.213259
719.70 2.218754
719.80 2.203792
719.90 2.168161
720.00 2.132566
720.10 2.109927
720.20 2.080302
720.30 2.046806
720.40 2.035493
720.50 2.057938
720.60 2.103359
720.70 2.128334
720.80 2.110914
720.90 2.074496
721.00 2.046664
721.10 2.042108
721.20 2.065165
721.30 2.107991
721.40 2.151991
721.50 2.184075
721.60 2.195901
721.70 2.19131
721.80 2.187981
721.90 2.193615
722.00 2.214949
722.10 2.238827
722.20 2.250629
722.30 2.248785
722.40 2.235473
722.50 2.233068
722.60 2.247708
722.70 2.260391
722.80 2.261714
722.90 2.252581
723.00 2.241275
723.10 2.238142
723.20 2.248648
723.30 2.261788
723.40 2.267854
723.50 2.263512
723.60 2.254663
723.70 2.264537
723.80 2.287404
723.90 2.298091
724.00 2.289956
724.10 2.270933
724.20 2.255095
724.30 2.245666
724.40 2.237582
724.50 2.228907
724.60 2.218169
724.70 2.214409
724.80 2.239243
724.90 2.283716
725.00 2.324148
725.10 2.336712
725.20 2.311212
725.30 2.275768
725.40 2.25252
725.50 2.252465
725.60 2.277748
725.70 2.313155
725.80 2.33379
725.90 2.333588
726.00 2.323799
726.10 2.31283
726.20 2.306617
726.30 2.309789
726.40 2.322503
726.50 2.338464
726.60 2.351388
726.70 2.359082
726.80 2.36314
726.90 2.372197
727.00 2.3788
727.10 2.365817
727.20 2.337964
727.30 2.320171
727.40 2.334917
727.50 2.376156
727.60 2.409267
727.70 2.40998
727.80 2.398579
727.90 2.384166
728.00 2.370332
728.10 2.364085
728.20 2.373888
728.30 2.396321
728.40 2.404169
728.50 2.4046
728.60 2.402132
728.70 2.398464
728.80 2.40156
728.90 2.407483
729.00 2.412557
729.10 2.412611
729.20 2.397714
729.30 2.379858
729.40 2.373226
729.50 2.38407
729.60 2.406284
729.70 2.427289
729.80 2.440665
729.90 2.438869
730.00 2.428428
730.10 2.416735
730.20 2.415055
730.30 2.422552
730.40 2.427888
730.50 2.418763
730.60 2.400509
730.70 2.398716
730.80 2.409449
730.90 2.418974
731.00 2.423573
731.10 2.422996
731.20 2.421806
731.30 2.422455
731.40 2.433639
731.50 2.456548
731.60 2.476978
731.70 2.475332
731.80 2.456227
731.90 2.447495
732.00 2.447143
732.10 2.448054
732.20 2.45614
732.30 2.472059
732.40 2.476058
732.50 2.443421
732.60 2.377261
732.70 2.311957
732.80 2.281209
732.90 2.303337
733.00 2.376031
733.10 2.454654
733.20 2.484315
733.30 2.474737
733.40 2.464098
733.50 2.467173
733.60 2.480375
733.70 2.486019
733.80 2.490277
733.90 2.512963
734.00 2.525551
734.10 2.511711
734.20 2.494311
734.30 2.465799
734.40 2.4419
734.50 2.428717
734.60 2.409805
734.70 2.413767
734.80 2.441266
734.90 2.468785
735.00 2.484406
735.10 2.482277
735.20 2.47508
735.30 2.477356
735.40 2.479708
735.50 2.461552
735.60 2.416721
735.70 2.363444
735.80 2.331536
735.90 2.334705
736.00 2.368435
736.10 2.414201
736.20 2.44083
736.30 2.438753
736.40 2.418206
736.50 2.406126
736.60 2.417219
736.70 2.43846
736.80 2.472727
736.90 2.500265
737.00 2.510623
737.10 2.522146
737.20 2.520494
737.30 2.521383
737.40 2.535574
737.50 2.538526
737.60 2.537289
737.70 2.532437
737.80 2.525814
737.90 2.531077
738.00 2.541185
738.10 2.547845
738.20 2.55172
738.30 2.544257
738.40 2.527635
738.50 2.516097
738.60 2.50954
738.70 2.507149
738.80 2.499491
738.90 2.484362
739.00 2.476057
739.10 2.472841
739.20 2.470914
739.30 2.469905
739.40 2.471765
739.50 2.481742
739.60 2.499058
739.70 2.519845
739.80 2.530857
739.90 2.520605
740.00 2.485895
740.10 2.443608
740.20 2.42723
740.30 2.44428
740.40 2.483955
740.50 2.526392
740.60 2.547932
740.70 2.550453
740.80 2.544552
740.90 2.532744
741.00 2.515548
741.10 2.495874
741.20 2.485575
741.30 2.4867
741.40 2.493483
741.50 2.502738
741.60 2.50805
741.70 2.508176
741.80 2.507167
741.90 2.509921
742.00 2.517758
742.10 2.526059
742.20 2.523254
742.30 2.507063
742.40 2.491878
742.50 2.484225
742.60 2.488361
742.70 2.509407
742.80 2.542257
742.90 2.569528
743.00 2.578993
743.10 2.575939
743.20 2.563738
743.30 2.547744
743.40 2.540329
743.50 2.544421
743.60 2.550413
743.70 2.560812
743.80 2.578718
743.90 2.584637
744.00 2.567249
744.10 2.539608
744.20 2.519569
744.30 2.517139
744.40 2.523888
744.50 2.527626
744.60 2.515379
744.70 2.485332
744.80 2.463955
744.90 2.46931
745.00 2.499567
745.10 2.534423
745.20 2.553303
745.30 2.560042
745.40 2.565841
745.50 2.572246
745.60 2.577427
745.70 2.581442
745.80 2.588281
745.90 2.596522
746.00 2.589612
746.10 2.558764
746.20 2.516608
746.30 2.471025
746.40 2.433521
746.50 2.434209
746.60 2.476015
746.70 2.534091
746.80 2.576856
746.90 2.585069
747.00 2.574693
747.10 2.567789
747.20 2.573432
747.30 2.583985
747.40 2.583812
747.50 2.578021
747.60 2.578873
747.70 2.57898
747.80 2.576595
747.90 2.579841
748.00 2.586319
748.10 2.590171
748.20 2.590165
748.30 2.584168
748.40 2.579089
748.50 2.581492
748.60 2.583309
748.70 2.583001
748.80 2.577998
748.90 2.5685
749.00 2.55939
749.10 2.545756
749.20 2.530178
749.30 2.522986
749.40 2.516912
749.50 2.499791
749.60 2.47576
749.70 2.469251
749.80 2.489872
749.90 2.52412
750.00 2.561181
750.10 2.584317
750.20 2.592664
750.30 2.598869
750.40 2.597049
750.50 2.581008
750.60 2.563703
750.70 2.556173
750.80 2.555732
750.90 2.556447
751.00 2.547609
751.10 2.52563
751.20 2.504918
751.30 2.50077
751.40 2.517739
751.50 2.552924
751.60 2.589555
751.70 2.612826
751.80 2.622058
751.90 2.620384
752.00 2.613278
752.10 2.601019
752.20 2.591351
752.30 2.587205
752.40 2.583857
752.50 2.5855
752.60 2.583452
752.70 2.575055
752.80 2.563122
752.90 2.555296
753.00 2.556194
753.10 2.562278
753.20 2.566096
753.30 2.561774
753.40 2.561996
753.50 2.571869
753.60 2.590828
753.70 2.611937
753.80 2.624407
753.90 2.631171
754.00 2.634322
754.10 2.629551
754.20 2.619812
754.30 2.617022
754.40 2.624658
754.50 2.629551
754.60 2.621897
754.70 2.611433
754.80 2.608999
754.90 2.611784
755.00 2.612239
755.10 2.612018
755.20 2.621087
755.30 2.630412
755.40 2.625616
755.50 2.613305
755.60 2.601149
755.70 2.592983
755.80 2.594778
755.90 2.601956
756.00 2.611591
756.10 2.622582
756.20 2.629848
756.30 2.63171
756.40 2.627948
756.50 2.623191
756.60 2.620216
756.70 2.612737
756.80 2.600626
756.90 2.591398
757.00 2.584945
757.10 2.582136
757.20 2.588865
757.30 2.601713
757.40 2.615273
757.50 2.620772
757.60 2.609799
757.70 2.601794
757.80 2.60714
757.90 2.612578
758.00 2.617644
758.10 2.621342
758.20 2.622096
758.30 2.613945
758.40 2.598783
758.50 2.585222
758.60 2.564665
758.70 2.547508
758.80 2.54653
758.90 2.548171
759.00 2.539798
759.10 2.523833
759.20 2.517733
759.30 2.531959
759.40 2.562613
759.50 2.576129
759.60 2.553535
759.70 2.526537
759.80 2.524709
759.90 2.564216
760.00 2.600847
760.10 2.584008
760.20 2.539311
760.30 2.497495
760.40 2.493458
760.50 2.529958
760.60 2.566483
760.70 2.576876
760.80 2.553732
760.90 2.523868
761.00 2.508556
761.10 2.51156
761.20 2.531174
761.30 2.552487
761.40 2.56761
761.50 2.567611
761.60 2.536031
761.70 2.488505
761.80 2.475277
761.90 2.507259
762.00 2.551445
762.10 2.569458
762.20 2.546641
762.30 2.519165
762.40 2.524174
762.50 2.558088
762.60 2.594235
762.70 2.598911
762.80 2.565863
762.90 2.523706
763.00 2.508187
763.10 2.517897
763.20 2.509532
763.30 2.491908
763.40 2.513913
763.50 2.539557
763.60 2.523232
763.70 2.500687
763.80 2.502935
763.90 2.522855
764.00 2.534864
764.10 2.515532
764.20 2.498482
764.30 2.520196
764.40 2.543066
764.50 2.53577
764.60 2.510652
764.70 2.490815
764.80 2.516271
764.90 2.557908
765.00 2.541907
765.10 2.48929
765.20 2.462784
765.30 2.496248
765.40 2.547364
765.50 2.523934
765.60 2.456301
765.70 2.442149
765.80 2.482551
765.90 2.528373
766.00 2.522459
766.10 2.465858
766.20 2.429801
766.30 2.421409
766.40 2.378421
766.50 2.24718
766.60 2.060054
766.70 1.951126
766.80 2.009256
766.90 2.198517
767.00 2.390987
767.10 2.474845
767.20 2.459534
767.30 2.414604
767.40 2.398999
767.50 2.427658
767.60 2.456023
767.70 2.459366
767.80 2.447143
767.90 2.434017
768.00 2.442922
768.10 2.463071
768.20 2.475955
768.30 2.472555
768.40 2.45214
768.50 2.440333
768.60 2.4442
768.70 2.457056
768.80 2.473711
768.90 2.482038
769.00 2.478137
769.10 2.467299
769.20 2.459571
769.30 2.460031
769.40 2.466741
769.50 2.478353
769.60 2.48514
769.70 2.460234
769.80 2.380591
769.90 2.2563
770.00 2.137285
770.10 2.086901
770.20 2.138725
770.30 2.262038
770.40 2.381008
770.50 2.442686
770.60 2.451211
770.70 2.447116
770.80 2.44734
770.90 2.439733
771.00 2.424825
771.10 2.42133
771.20 2.435347
771.30 2.442113
771.40 2.418044
771.50 2.383385
771.60 2.371564
771.70 2.389788
771.80 2.421089
771.90 2.441553
772.00 2.461161
772.10 2.485868
772.20 2.480457
772.30 2.457342
772.40 2.448843
772.50 2.449721
772.60 2.455933
772.70 2.459687
772.80 2.456775
772.90 2.455093
773.00 2.458304
773.10 2.467042
773.20 2.481683
773.30 2.497684
773.40 2.505814
773.50 2.503055
773.60 2.501263
773.70 2.50868
773.80 2.51553
773.90 2.516386
774.00 2.514342
774.10 2.510502
774.20 2.505527
774.30 2.497404
774.40 2.483414
774.50 2.467099
774.60 2.454766
774.70 2.444043
774.80 2.424439
774.90 2.392115
775.00 2.361862
775.10 2.360512
775.20 2.381805
775.30 2.405857
775.40 2.423909
775.50 2.433481
775.60 2.446528
775.70 2.456679
775.80 2.453941
775.90 2.452285
776.00 2.459752
776.10 2.46602
776.20 2.463694
776.30 2.459375
776.40 2.452331
776.50 2.445754
776.60 2.448708
776.70 2.452805
776.80 2.451487
776.90 2.448165
777.00 2.451438
777.10 2.464226
777.20 2.472953
777.30 2.473574
777.40 2.477526
777.50 2.483333
777.60 2.480597
777.70 2.475611
777.80 2.476136
777.90 2.476128
778.00 2.467716
778.10 2.44979
778.20 2.427978
778.30 2.412202
778.40 2.412673
778.50 2.423028
778.60 2.42863
778.70 2.42935
778.80 2.430595
778.90 2.428312
779.00 2.417423
779.10 2.410291
779.20 2.41822
779.30 2.444992
779.40 2.481498
779.50 2.498139
779.60 2.489963
779.70 2.479205
779.80 2.469481
779.90 2.455523
780.00 2.439766
780.10 2.428142
780.20 2.429085
780.30 2.44142
780.40 2.45908
780.50 2.476272
780.60 2.486758
780.70 2.49335
780.80 2.495137
780.90 2.493604
781.00 2.497646
781.10 2.495902
781.20 2.486418
781.30 2.488068
781.40 2.498342
781.50 2.504011
781.60 2.501424
781.70 2.496539
781.80 2.499197
781.90 2.507687
782.00 2.506086
782.10 2.492008
782.20 2.482594
782.30 2.480387
782.40 2.475515
782.50 2.469497
782.60 2.472653
782.70 2.481176
782.80 2.480574
782.90 2.473672
783.00 2.460692
783.10 2.441209
783.20 2.423393
783.30 2.408557
783.40 2.394513
783.50 2.383783
783.60 2.376747
783.70 2.376804
783.80 2.387326
783.90 2.40222
784.00 2.423396
784.10 2.451814
784.20 2.474751
784.30 2.486059
784.40 2.487668
784.50 2.486545
784.60 2.489578
784.70 2.491232
784.80 2.490845
784.90 2.48991
785.00 2.487501
785.10 2.490408
785.20 2.497987
785.30 2.503596
785.40 2.510223
785.50 2.519495
785.60 2.516098
785.70 2.499174
785.80 2.494343
785.90 2.499205
786.00 2.506112
786.10 2.518417
786.20 2.514705
786.30 2.497718
786.40 2.493929
786.50 2.500331
786.60 2.511163
786.70 2.52193
786.80 2.522378
786.90 2.51875
787.00 2.517752
787.10 2.507838
787.20 2.49091
787.30 2.482959
787.40 2.488428
787.50 2.500155
787.60 2.509751
787.70 2.515705
787.80 2.518785
787.90 2.518381
788.00 2.515912
788.10 2.515082
788.20 2.515018
788.30 2.519305
788.40 2.528544
788.50 2.526935
788.60 2.512389
788.70 2.501848
788.80 2.503911
788.90 2.523163
789.00 2.546017
789.10 2.543972
789.20 2.527941
789.30 2.523865
789.40 2.522127
789.50 2.512856
789.60 2.503517
789.70 2.503524
789.80 2.513825
789.90 2.524471
790.00 2.530294
790.10 2.532106
790.20 2.528331
790.30 2.518879
790.40 2.509687
790.50 2.506355
790.60 2.509378
790.70 2.510601
790.80 2.506063
790.90 2.497783
791.00 2.488781
791.10 2.482254
791.20 2.483164
791.30 2.502747
791.40 2.51261
791.50 2.490292
791.60 2.486468
791.70 2.515474
791.80 2.530576
791.90 2.520515
792.00 2.510641
792.10 2.517293
792.20 2.526015
792.30 2.517287
792.40 2.505379
792.50 2.500147
792.60 2.50387
792.70 2.5118
792.80 2.506457
792.90 2.497975
793.00 2.499029
793.10 2.500396
793.20 2.504733
793.30 2.518086
793.40 2.532933
793.50 2.54984
793.60 2.550689
793.70 2.518823
793.80 2.479867
793.90 2.454619
794.00 2.452438
794.10 2.47484
794.20 2.504717
794.30 2.521054
794.40 2.512689
794.50 2.489533
794.60 2.467277
794.70 2.446549
794.80 2.424981
794.90 2.413698
795.00 2.421902
795.10 2.452346
795.20 2.497533
795.30 2.531001
795.40 2.543794
795.50 2.550805
795.60 2.551422
795.70 2.546455
795.80 2.549979
795.90 2.550045
796.00 2.533762
796.10 2.514649
796.20 2.502736
796.30 2.504115
796.40 2.516763
796.50 2.534989
796.60 2.557841
796.70 2.573866
796.80 2.581057
796.90 2.57586
797.00 2.556781
797.10 2.553
797.20 2.563259
797.30 2.564466
797.40 2.562507
797.50 2.557951
797.60 2.554095
797.70 2.560828
797.80 2.560918
797.90 2.547367
798.00 2.529056
798.10 2.510258
798.20 2.511247
798.30 2.533352
798.40 2.552367
798.50 2.565629
798.60 2.570073
798.70 2.557835
798.80 2.546118
798.90 2.541625
799.00 2.534838
799.10 2.541793
799.20 2.563091
799.30 2.580494
799.40 2.598411
799.50 2.602198
799.60 2.584092
799.70 2.557275
799.80 2.522249
799.90 2.483384
800.00 2.450824
800.10 2.440509
800.20 2.462679
800.30 2.498373
800.40 2.526675
800.50 2.545336
800.60 2.55621
800.70 2.563135
800.80 2.561857
800.90 2.550175
801.00 2.541082
801.10 2.542451
801.20 2.55014
801.30 2.556698
801.40 2.558507
801.50 2.556501
801.60 2.557373
801.70 2.567563
801.80 2.578554
801.90 2.579138
802.00 2.574756
802.10 2.56793
802.20 2.556998
802.30 2.550555
802.40 2.547407
802.50 2.544689
802.60 2.536591
802.70 2.513697
802.80 2.491485
802.90 2.48639
803.00 2.497689
803.10 2.523183
803.20 2.550422
803.30 2.564858
803.40 2.57316
803.50 2.577235
803.60 2.573915
803.70 2.570567
803.80 2.565444
803.90 2.559613
804.00 2.563954
804.10 2.571828
804.20 2.574961
804.30 2.577215
804.40 2.576794
804.50 2.564644
804.60 2.533901
804.70 2.491129
804.80 2.457454
804.90 2.457971
805.00 2.491472
805.10 2.532425
805.20 2.568785
805.30 2.59349
805.40 2.599311
805.50 2.59073
805.60 2.583525
805.70 2.591102
805.80 2.599089
805.90 2.598572
806.00 2.603006
806.10 2.609366
806.20 2.616364
806.30 2.622975
806.40 2.611499
806.50 2.588824
806.60 2.572316
806.70 2.563347
806.80 2.563563
806.90 2.55928
807.00 2.542986
807.10 2.529335
807.20 2.528348
807.30 2.544736
807.40 2.565682
807.50 2.572602
807.60 2.570097
807.70 2.566121
807.80 2.568967
807.90 2.582823
808.00 2.597502
808.10 2.604236
808.20 2.602598
808.30 2.598609
808.40 2.595447
808.50 2.586333
808.60 2.568466
808.70 2.554666
808.80 2.556879
808.90 2.574355
809.00 2.593596
809.10 2.604059
809.20 2.610944
809.30 2.609479
809.40 2.595651
809.50 2.583069
809.60 2.576322
809.70 2.573143
809.80 2.576824
809.90 2.582461
810.00 2.581873
810.10 2.583482
810.20 2.594279
810.30 2.60537
810.40 2.610231
810.50 2.608988
810.60 2.600528
810.70 2.588185
810.80 2.583098
810.90 2.586603
811.00 2.589207
811.10 2.58848
811.20 2.589654
811.30 2.595016
811.40 2.599215
811.50 2.593485
811.60 2.569021
811.70 2.531482
811.80 2.501011
811.90 2.492034
812.00 2.508931
812.10 2.541742
812.20 2.572662
812.30 2.592309
812.40 2.598354
812.50 2.593779
812.60 2.587263
812.70 2.586334
812.80 2.592397
812.90 2.595632
813.00 2.588089
813.10 2.580331
813.20 2.580684
813.30 2.586174
813.40 2.588824
813.50 2.580341
813.60 2.570347
813.70 2.57174
813.80 2.584955
813.90 2.606896
814.00 2.622273
814.10 2.616177
814.20 2.595829
814.30 2.575093
814.40 2.562326
814.50 2.565163
814.60 2.580243
814.70 2.589959
814.80 2.585835
814.90 2.573696
815.00 2.562548
815.10 2.565352
815.20 2.581681
815.30 2.592792
815.40 2.591108
815.50 2.583443
815.60 2.57333
815.70 2.57056
815.80 2.581141
815.90 2.590745
816.00 2.587165
816.10 2.570975
816.20 2.547632
816.30 2.529488
816.40 2.525266
816.50 2.53355
816.60 2.556928
816.70 2.587079
816.80 2.603804
816.90 2.603768
817.00 2.590771
817.10 2.569212
817.20 2.5548
817.30 2.558507
817.40 2.576137
817.50 2.593821
817.60 2.595939
817.70 2.583119
817.80 2.567552
817.90 2.559057
818.00 2.563035
818.10 2.556872
818.20 2.50375
818.30 2.393125
818.40 2.25401
818.50 2.155289
818.60 2.15633
818.70 2.245809
818.80 2.360068
818.90 2.449778
819.00 2.503357
819.10 2.535604
819.20 2.551515
819.30 2.514073
819.40 2.397243
819.50 2.233455
819.60 2.086328
819.70 2.020861
819.80 2.076738
819.90 2.217473
820.00 2.357251
820.10 2.447637
820.20 2.490639
820.30 2.508667
820.40 2.517698
820.50 2.518837
820.60 2.510109
820.70 2.497101
820.80 2.493398
820.90 2.505141
821.00 2.525506
821.10 2.538709
821.20 2.534767
821.30 2.522403
821.40 2.513227
821.50 2.511452
821.60 2.519457
821.70 2.534442
821.80 2.544757
821.90 2.537843
822.00 2.513476
822.10 2.4813
822.20 2.452219
822.30 2.441817
822.40 2.462065
822.50 2.506323
822.60 2.550829
822.70 2.57232
822.80 2.565368
822.90 2.540386
823.00 2.523028
823.10 2.533767
823.20 2.553843
823.30 2.553792
823.40 2.536583
823.50 2.519786
823.60 2.514032
823.70 2.527836
823.80 2.556605
823.90 2.579544
824.00 2.592277
824.10 2.602508
824.20 2.602674
824.30 2.590113
824.40 2.574468
824.50 2.56669
824.60 2.577477
824.70 2.6043
824.80 2.639562
824.90 2.67128
825.00 2.68269
825.10 2.680239
825.20 2.680073
825.30 2.676248
825.40 2.659515
825.50 2.631528
825.60 2.59122
825.70 2.544628
825.80 2.513305
825.90 2.510802
826.00 2.529591
826.10 2.56002
826.20 2.59308
826.30 2.61249
826.40 2.618476
826.50 2.624385
826.60 2.63281
826.70 2.646169
826.80 2.664904
826.90 2.677045
827.00 2.676304
827.10 2.666135
827.20 2.644567
827.30 2.610545
827.40 2.566145
827.50 2.517314
827.60 2.484255
827.70 2.478387
827.80 2.493901
827.90 2.522002
828.00 2.5433
828.10 2.546323
828.20 2.539855
828.30 2.534878
828.40 2.539779
828.50 2.557645
828.60 2.586115
828.70 2.600307
828.80 2.569378
828.90 2.509519
829.00 2.460146
829.10 2.448624
829.20 2.475085
829.30 2.497476
829.40 2.492521
829.50 2.479913
829.60 2.473256
829.70 2.496282
829.80 2.55206
829.90 2.59115
830.00 2.581362
830.10 2.578953
830.20 2.576544
830.30 2.567452
830.40 2.558361
830.50 2.530218
830.60 2.502076
830.70 2.490512
830.80 2.478948
830.90 2.494299
831.00 2.509651
831.10 2.525146
831.20 2.540641
831.30 2.540931
831.40 2.54122
831.50 2.543753
831.60 2.546287
831.70 2.544164
831.80 2.542042
831.90 2.538825
832.00 2.535608
832.10 2.528093
832.20 2.520577
832.30 2.513829
832.40 2.507081
832.50 2.501604
832.60 2.496127
832.70 2.445508
832.80 2.394888
832.90 2.374963
833.00 2.355037
833.10 2.390642
833.20 2.426246
833.30 2.439698
833.40 2.453149
833.50 2.452404
833.60 2.451658
833.70 2.468358
833.80 2.485058
833.90 2.486279
834.00 2.4875
834.10 2.48645
834.20 2.4854
834.30 2.521449
834.40 2.557497
834.50 2.568297
834.60 2.579096
834.70 2.555223
834.80 2.531351
834.90 2.52115
835.00 2.51095
835.10 2.50602
835.20 2.501091
835.30 2.517074
835.40 2.533058
835.50 2.530342
835.60 2.527627
835.70 2.533794
835.80 2.53996
835.90 2.538171
836.00 2.536381
836.10 2.532303
836.20 2.528226
836.30 2.505583
836.40 2.482941
836.50 2.451858
836.60 2.420775
836.70 2.435032
836.80 2.44929
836.90 2.49016
837.00 2.531029
837.10 2.542546
837.20 2.554062
837.30 2.549055
837.40 2.544048
837.50 2.534214
837.60 2.524379
837.70 2.497446
837.80 2.470513
837.90 2.459867
838.00 2.449221
838.10 2.44783
838.20 2.44644
838.30 2.416767
838.40 2.387095
838.50 2.374308
838.60 2.361522
838.70 2.346407
838.80 2.331292
838.90 2.302702
839.00 2.274112
839.10 2.323701
839.20 2.373291
839.30 2.437858
839.40 2.502426
839.50 2.503857
839.60 2.505288
839.70 2.492551
839.80 2.479814
839.90 2.478897
840.00 2.477981
840.10 2.491761
840.20 2.506034
840.30 2.519086
840.40 2.528754
840.50 2.534922
840.60 2.544879
840.70 2.55441
840.80 2.56031
840.90 2.561451
841.00 2.555977
841.10 2.542202
841.20 2.511543
841.30 2.471377
841.40 2.444097
841.50 2.43478
841.60 2.443859
841.70 2.463321
841.80 2.482967
841.90 2.496868
842.00 2.509471
842.10 2.513979
842.20 2.513336
842.30 2.508464
842.40 2.493598
842.50 2.469305
842.60 2.4361
842.70 2.40436
842.80 2.39047
842.90 2.395314
843.00 2.421616
843.10 2.45916
843.20 2.49019
843.30 2.491294
843.40 2.469984
843.50 2.389117
843.60 2.292679
843.70 2.229655
843.80 2.210179
843.90 2.235542
844.00 2.299534
844.10 2.369682
844.20 2.419228
844.30 2.458981
844.40 2.485399
844.50 2.50406
844.60 2.514564
844.70 2.521086
844.80 2.532908
844.90 2.544258
845.00 2.531873
845.10 2.512424
845.20 2.497665
845.30 2.487819
845.40 2.485028
845.50 2.489147
845.60 2.496156
845.70 2.494507
845.80 2.491698
845.90 2.49035
846.00 2.491707
846.10 2.496307
846.20 2.499811
846.30 2.499926
846.40 2.494985
846.50 2.483568
846.60 2.464356
846.70 2.431338
846.80 2.384578
846.90 2.337013
847.00 2.310825
847.10 2.313068
847.20 2.342913
847.30 2.381748
847.40 2.41872
847.50 2.448101
847.60 2.468812
847.70 2.478461
847.80 2.481784
847.90 2.482786
848.00 2.483632
848.10 2.482593
848.20 2.478318
848.30 2.472526
848.40 2.470031
848.50 2.473299
848.60 2.481774
848.70 2.489228
848.80 2.493959
848.90 2.496579
849.00 2.498604
849.10 2.499639
849.20 2.498709
849.30 2.491797
849.40 2.476962
849.50 2.444991
849.60 2.386768
849.70 2.305833
849.80 2.208687
849.90 2.112053
850.00 2.066117
850.10 2.092191
850.20 2.16439
850.30 2.251805
850.40 2.330418
850.50 2.384389
850.60 2.421388
850.70 2.436989
850.80 2.443433
850.90 2.451823
851.00 2.458701
851.10 2.461481
851.20 2.452896
851.30 2.430805
851.40 2.390096
851.50 2.346917
851.60 2.310358
851.70 2.294533
851.80 2.298542
851.90 2.315758
852.00 2.334971
852.10 2.362309
852.20 2.393947
852.30 2.423659
852.40 2.442201
852.50 2.448972
852.60 2.446118
852.70 2.439797
852.80 2.432614
852.90 2.431792
853.00 2.433309
853.10 2.43411
853.20 2.433533
853.30 2.429496
853.40 2.42152
853.50 2.410361
853.60 2.39263
853.70 2.360983
853.80 2.317346
853.90 2.25404
854.00 2.158979
854.10 2.037531
854.20 1.892328
854.30 1.760656
854.40 1.695602
854.50 1.704422
854.60 1.782059
854.70 1.901185
854.80 2.025408
854.90 2.12828
855.00 2.206267
855.10 2.258093
855.20 2.30452
855.30 2.345
855.40 2.375588
855.50 2.396022
855.60 2.407092
855.70 2.413234
855.80 2.416326
855.90 2.423938
856.00 2.429053
856.10 2.431616
856.20 2.433739
856.30 2.436421
856.40 2.435136
856.50 2.438598
856.60 2.447164
856.70 2.452685
856.80 2.454999
856.90 2.455826
857.00 2.456714
857.10 2.458506
857.20 2.457844
857.30 2.458057
857.40 2.461739
857.50 2.464988
857.60 2.466454
857.70 2.466743
857.80 2.468566
857.90 2.475063
858.00 2.481726
858.10 2.48055
858.20 2.469858
858.30 2.453615
858.40 2.440576
858.50 2.435907
858.60 2.442529
858.70 2.456274
858.80 2.47093
858.90 2.482106
859.00 2.489114
859.10 2.490707
859.20 2.487147
859.30 2.478873
859.40 2.473068
859.50 2.47251
859.60 2.471435
859.70 2.466988
859.80 2.45904
859.90 2.450274
860.00 2.445384
860.10 2.446242
860.20 2.45028
860.30 2.456615
860.40 2.464324
860.50 2.470996
860.60 2.475009
860.70 2.475913
860.80 2.474088
860.90 2.469518
861.00 2.460011
861.10 2.443054
861.20 2.420515
861.30 2.397318
861.40 2.383988
861.50 2.388211
861.60 2.406626
861.70 2.421297
861.80 2.433681
861.90 2.442802
862.00 2.446516
862.10 2.441339
862.20 2.431729
862.30 2.427649
862.40 2.430654
862.50 2.435493
862.60 2.441331
862.70 2.449441
862.80 2.456856
862.90 2.459329
863.00 2.45718
863.10 2.457903
863.20 2.456572
863.30 2.451368
863.40 2.444594
863.50 2.440753
863.60 2.441508
863.70 2.44584
863.80 2.457565
863.90 2.46968
864.00 2.477315
864.10 2.481943
864.20 2.48501
864.30 2.485816
864.40 2.486077
864.50 2.487857
864.60 2.486829
864.70 2.485069
864.80 2.481656
864.90 2.475677
865.00 2.467948
865.10 2.462881
865.20 2.459651
865.30 2.453333
865.40 2.441704
865.50 2.429477
865.60 2.417594
865.70 2.403626
865.80 2.375848
865.90 2.335481
866.00 2.258899
866.10 2.150096
866.20 2.017387
866.30 1.893697
866.40 1.806662
866.50 1.803424
866.60 1.872242
866.70 2.009179
866.80 2.140988
866.90 2.249157
867.00 2.326088
867.10 2.374737
867.20 2.395287
867.30 2.404921
867.40 2.394276
867.50 2.367596
867.60 2.333216
867.70 2.312641
867.80 2.318669
867.90 2.350287
868.00 2.388827
868.10 2.417902
868.20 2.432263
868.30 2.428324
868.40 2.417252
868.50 2.406485
868.60 2.391698
868.70 2.367557
868.80 2.322342
868.90 2.256707
869.00 2.191602
869.10 2.158099
869.20 2.167456
869.30 2.211278
869.40 2.269679
869.50 2.323516
869.60 2.359604
869.70 2.384678
869.80 2.394836
869.90 2.39672
870.00 2.396053
870.10 2.395237
870.20 2.395254
870.30 2.405265
870.40 2.418799
870.50 2.430302
870.60 2.440537
870.70 2.448803
870.80 2.453145
870.90 2.448366
871.00 2.433783
871.10 2.413309
871.20 2.395052
871.30 2.381329
871.40 2.374186
871.50 2.374067
871.60 2.379295
871.70 2.38526
871.80 2.391888
871.90 2.39763
872.00 2.400385
872.10 2.404997
872.20 2.416304
872.30 2.430624
872.40 2.440843
872.50 2.449238
872.60 2.456673
872.70 2.463534
872.80 2.467268
872.90 2.468532
873.00 2.469012
873.10 2.470835
873.20 2.467633
873.30 2.460139
873.40 2.445273
873.50 2.423496
873.60 2.401887
873.70 2.38835
873.80 2.385497
873.90 2.396053
874.00 2.414654
874.10 2.431328
874.20 2.442598
874.30 2.452686
874.40 2.462723
874.50 2.469001
874.60 2.465843
874.70 2.464474
874.80 2.463977
874.90 2.45992
875.00 2.4526
875.10 2.447433
875.20 2.449187
875.30 2.459091
875.40 2.464514
875.50 2.459555
875.60 2.450013
875.70 2.435672
875.80 2.422066
875.90 2.413879
876.00 2.414833
876.10 2.424569
876.20 2.440563
876.30 2.44502
876.40 2.433981
876.50 2.41555
876.60 2.396592
876.70 2.383083
876.80 2.381839
876.90 2.394895
877.00 2.411107
877.10 2.426032
877.20 2.425549
877.30 2.408244
877.40 2.383383
877.50 2.363897
877.60 2.360359
877.70 2.382355
877.80 2.413727
877.90 2.440525
878.00 2.454314
878.10 2.458274
878.20 2.459951
878.30 2.468905
878.40 2.475509
878.50 2.481882
878.60 2.486752
878.70 2.490135
878.80 2.493279
878.90 2.495303
879.00 2.493789
879.10 2.486063
879.20 2.474271
879.30 2.458506
879.40 2.440994
879.50 2.429133
879.60 2.427975
879.70 2.437852
879.80 2.453238
879.90 2.465491
880.00 2.472497
880.10 2.468204
880.20 2.452198
880.30 2.425918
880.40 2.3907
880.50 2.343041
880.60 2.284337
880.70 2.216063
880.80 2.160164
880.90 2.146203
881.00 2.17972
881.10 2.246834
881.20 2.325669
881.30 2.399505
881.40 2.447871
881.50 2.476424
881.60 2.492945
881.70 2.499872
881.80 2.499371
881.90 2.497482
882.00 2.492459
882.10 2.485065
882.20 2.463673
882.30 2.424754
882.40 2.369569
882.50 2.312612
882.60 2.269382
882.70 2.263873
882.80 2.296492
882.90 2.351357
883.00 2.402303
883.10 2.438988
883.20 2.46293
883.30 2.480118
883.40 2.491024
883.50 2.498109
883.60 2.495335
883.70 2.484963
883.80 2.468735
883.90 2.449693
884.00 2.431979
884.10 2.423603
884.20 2.431037
884.30 2.446704
884.40 2.461727
884.50 2.471844
884.60 2.476614
884.70 2.477447
884.80 2.475201
884.90 2.471738
885.00 2.470572
885.10 2.47198
885.20 2.480105
885.30 2.48966
885.40 2.498153
885.50 2.505292
885.60 2.51083
885.70 2.506611
885.80 2.505071
885.90 2.501661
886.00 2.495385
886.10 2.484283
886.20 2.468995
886.30 2.450745
886.40 2.440493
886.50 2.426849
886.60 2.413375
886.70 2.399996
886.80 2.38584
886.90 2.375563
887.00 2.376807
887.10 2.381275
887.20 2.397586
887.30 2.416995
887.40 2.425258
887.50 2.430396
887.60 2.436257
887.70 2.441275
887.80 2.447374
887.90 2.454012
888.00 2.457221
888.10 2.462404
888.20 2.465825
888.30 2.468637
888.40 2.473132
888.50 2.477099
888.60 2.476014
888.70 2.47201
888.80 2.468663
888.90 2.471601
889.00 2.476537
889.10 2.47869
889.20 2.475696
889.30 2.472037
889.40 2.465965
889.50 2.464482
889.60 2.463446
889.70 2.460489
889.80 2.457293
889.90 2.456733
890.00 2.456328
890.10 2.459407
890.20 2.464474
890.30 2.471303
890.40 2.478272
890.50 2.483213
890.60 2.486214
890.70 2.49011
890.80 2.492467
890.90 2.488946
891.00 2.479875
891.10 2.470937
891.20 2.464352
891.30 2.459573
891.40 2.455763
891.50 2.455928
891.60 2.458185
891.70 2.458029
891.80 2.456357
891.90 2.452009
892.00 2.444716
892.10 2.436043
892.20 2.429089
892.30 2.427315
892.40 2.428718
892.50 2.429466
892.60 2.430062
892.70 2.431574
892.80 2.433959
892.90 2.434547
893.00 2.431351
893.10 2.433693
893.20 2.436135
893.30 2.436361
893.40 2.440694
893.50 2.450387
893.60 2.46111
893.70 2.470973
893.80 2.475794
893.90 2.474567
894.00 2.466331
894.10 2.454782
894.20 2.444287
894.30 2.434772
894.40 2.422804
894.50 2.409131
894.60 2.395137
894.70 2.381319
894.80 2.375103
894.90 2.380171
895.00 2.394651
895.10 2.415768
895.20 2.437764
895.30 2.451227
895.40 2.455021
895.50 2.455223
895.60 2.45335
895.70 2.450591
895.80 2.448605
895.90 2.450592
896.00 2.456405
896.10 2.457866
896.20 2.458552
896.30 2.459003
896.40 2.457723
896.50 2.454646
896.60 2.45009
896.70 2.442152
896.80 2.43365
896.90 2.431526
897.00 2.433455
897.10 2.436394
897.20 2.438321
897.30 2.437722
897.40 2.43419
897.50 2.427833
897.60 2.415847
897.70 2.404077
897.80 2.396854
897.90 2.396902
898.00 2.405017
898.10 2.420937
898.20 2.437656
898.30 2.449453
898.40 2.454972
898.50 2.456165
898.60 2.454833
898.70 2.45265
898.80 2.450615
898.90 2.444452
899.00 2.433109
899.10 2.427483
899.20 2.428226
899.30 2.434832
899.40 2.445073
899.50 2.455407
899.60 2.463156
899.70 2.46363
899.80 2.448218
899.90 2.416243
900.00 2.376647
900.10 2.345843
900.20 2.332962
900.30 2.340435
900.40 2.370397
900.50 2.414057
900.60 2.443032
900.70 2.451714
900.80 2.444776
900.90 2.420906
901.00 2.380645
901.10 2.33261
901.20 2.29505
901.30 2.277409
901.40 2.283209
901.50 2.29819
901.60 2.309365
901.70 2.308559
901.80 2.2979
901.90 2.290195
902.00 2.292413
902.10 2.294591
902.20 2.301115
902.30 2.312412
902.40 2.323466
902.50 2.329906
902.60 2.338655
902.70 2.350746
902.80 2.363081
902.90 2.373877
903.00 2.384452
903.10 2.396407
903.20 2.410264
903.30 2.426438
903.40 2.438338
903.50 2.443785
903.60 2.44645
903.70 2.445685
903.80 2.444585
903.90 2.446958
904.00 2.453536
904.10 2.462258
904.20 2.468251
904.30 2.468723
904.40 2.465528
904.50 2.463325
904.60 2.461524
904.70 2.457164
904.80 2.452858
904.90 2.454712
905.00 2.459009
905.10 2.464542
905.20 2.467133
905.30 2.464756
905.40 2.462187
905.50 2.463319
905.60 2.466248
905.70 2.464612
905.80 2.460836
905.90 2.45625
906.00 2.450014
906.10 2.442468
906.20 2.433224
906.30 2.424019
906.40 2.419595
906.50 2.417753
906.60 2.420487
906.70 2.427624
906.80 2.435316
906.90 2.439604
907.00 2.441351
907.10 2.44269
907.20 2.442434
907.30 2.440387
907.40 2.44315
907.50 2.447005
907.60 2.446705
907.70 2.444089
907.80 2.441886
907.90 2.439713
908.00 2.431546
908.10 2.420994
908.20 2.415813
908.30 2.418375
908.40 2.422367
908.50 2.427209
908.60 2.424797
908.70 2.407471
908.80 2.375302
908.90 2.335583
909.00 2.297115
909.10 2.270543
909.20 2.266712
909.30 2.291826
909.40 2.334892
909.50 2.378601
909.60 2.412377
909.70 2.430492
909.80 2.434722
909.90 2.428669
910.00 2.418488
910.10 2.412344
910.20 2.412196
910.30 2.418968
910.40 2.425658
910.50 2.429752
910.60 2.430887
910.70 2.430064
910.80 2.422287
910.90 2.417289
911.00 2.418322
911.10 2.423591
911.20 2.427475
911.30 2.428512
911.40 2.42784
911.50 2.425547
911.60 2.422187
911.70 2.413137
911.80 2.395134
911.90 2.376521
912.00 2.359064
912.10 2.349014
912.20 2.355378
912.30 2.374191
912.40 2.39328
912.50 2.413542
912.60 2.427457
912.70 2.433689
912.80 2.438266
912.90 2.443815
913.00 2.447751
913.10 2.449739
913.20 2.447937
913.30 2.446716
913.40 2.448851
913.50 2.451475
913.60 2.450699
913.70 2.447398
913.80 2.442672
913.90 2.431793
914.00 2.419094
914.10 2.408542
914.20 2.399903
914.30 2.39599
914.40 2.398897
914.50 2.403009
914.60 2.403706
914.70 2.398919
914.80 2.390561
914.90 2.385391
915.00 2.386861
915.10 2.392737
915.20 2.403812
915.30 2.41454
915.40 2.417363
915.50 2.418479
915.60 2.41798
915.70 2.41901
915.80 2.42259
915.90 2.427534
916.00 2.428384
916.10 2.429459
916.20 2.430231
916.30 2.427898
916.40 2.420331
916.50 2.4099
916.60 2.403077
916.70 2.402228
916.80 2.403133
916.90 2.400666
917.00 2.398176
917.10 2.396646
917.20 2.393536
917.30 2.386132
917.40 2.377303
917.50 2.373576
917.60 2.379938
917.70 2.389378
917.80 2.399832
917.90 2.409591
918.00 2.415757
918.10 2.420035
918.20 2.421938
918.30 2.422831
918.40 2.422172
918.50 2.422755
918.60 2.422806
918.70 2.421502
918.80 2.419876
918.90 2.421427
919.00 2.424494
919.10 2.421479
919.20 2.419156
919.30 2.416887
919.40 2.411649
919.50 2.405469
919.60 2.403228
919.70 2.404598
919.80 2.408926
919.90 2.416559
920.00 2.42329
920.10 2.425397
920.20 2.425211
920.30 2.42663
920.40 2.430085
920.50 2.433115
920.60 2.435672
920.70 2.434271
920.80 2.425211
920.90 2.411329
921.00 2.392247
921.10 2.374417
921.20 2.365437
921.30 2.371142
921.40 2.383245
921.50 2.399677
921.60 2.413455
921.70 2.418984
921.80 2.418538
921.90 2.419599
922.00 2.422391
922.10 2.42965
922.20 2.438012
922.30 2.441081
922.40 2.438407
922.50 2.431805
922.60 2.422976
922.70 2.416572
922.80 2.414837
922.90 2.41014
923.00 2.403298
923.10 2.39252
923.20 2.378801
923.30 2.364145
923.40 2.355646
923.50 2.360456
923.60 2.378107
923.70 2.396511
923.80 2.409343
923.90 2.415195
924.00 2.415364
924.10 2.41421
924.20 2.412048
924.30 2.412222
924.40 2.414438
924.50 2.415476
924.60 2.413344
924.70 2.404661
924.80 2.391958
924.90 2.383096
925.00 2.381633
925.10 2.388557
925.20 2.399937
925.30 2.40561
925.40 2.403738
925.50 2.393593
925.60 2.369776
925.70 2.339693
925.80 2.318843
925.90 2.308887
926.00 2.317248
926.10 2.338403
926.20 2.362375
926.30 2.384963
926.40 2.405907
926.50 2.416448
926.60 2.420676
926.70 2.426475
926.80 2.435806
926.90 2.443129
927.00 2.444241
927.10 2.43985
927.20 2.434181
927.30 2.424278
927.40 2.415687
927.50 2.410366
927.60 2.407787
927.70 2.40494
927.80 2.399572
927.90 2.391269
928.00 2.388124
928.10 2.386272
928.20 2.386196
928.30 2.389253
928.40 2.395109
928.50 2.399428
928.60 2.399797
928.70 2.398167
928.80 2.390644
928.90 2.375913
929.00 2.358326
929.10 2.340718
929.20 2.327105
929.30 2.320443
929.40 2.319883
929.50 2.327163
929.60 2.343851
929.70 2.356755
929.80 2.36416
929.90 2.370481
930.00 2.377247
930.10 2.38182
930.20 2.382387
930.30 2.385906
930.40 2.390191
930.50 2.39382
930.60 2.39427
930.70 2.389713
930.80 2.382874
930.90 2.375313
931.00 2.372217
931.10 2.373463
931.20 2.374456
931.30 2.377304
931.40 2.384084
931.50 2.38986
931.60 2.391604
931.70 2.389025
931.80 2.37847
931.90 2.374123
932.00 2.371181
932.10 2.374537
932.20 2.380009
932.30 2.386581
932.40 2.389241
932.50 2.386909
932.60 2.38145
932.70 2.380103
932.80 2.378773
932.90 2.380067
933.00 2.389689
933.10 2.396128
933.20 2.396591
933.30 2.391654
933.40 2.384768
933.50 2.376243
933.60 2.371566
933.70 2.37149
933.80 2.376673
933.90 2.383873
934.00 2.390533
934.10 2.391838
934.20 2.387666
934.30 2.380765
934.40 2.374633
934.50 2.368586
934.60 2.363017
934.70 2.363203
934.80 2.36845
934.90 2.380078
935.00 2.381007
935.10 2.375697
935.20 2.362035
935.30 2.349688
935.40 2.341347
935.50 2.338985
935.60 2.337453
935.70 2.338838
935.80 2.335353
935.90 2.330211
936.00 2.321705
936.10 2.312467
936.20 2.311127
936.30 2.311388
936.40 2.314948
936.50 2.319865
936.60 2.327559
936.70 2.334656
936.80 2.343467
936.90 2.348659
937.00 2.349238
937.10 2.346412
937.20 2.336997
937.30 2.329156
937.40 2.324852
937.50 2.324851
937.60 2.330268
937.70 2.339561
937.80 2.348195
937.90 2.351106
938.00 2.351744
938.10 2.347654
938.20 2.345565
938.30 2.344641
938.40 2.351533
938.50 2.358079
938.60 2.36536
938.70 2.368525
938.80 2.370065
938.90 2.365647
939.00 2.361891
939.10 2.360326
939.20 2.365267
939.30 2.368358
939.40 2.368023
939.50 2.360953
939.60 2.353523
939.70 2.347107
939.80 2.344402
939.90 2.340564
940.00 2.337337
940.10 2.334301
940.20 2.332427
940.30 2.329265
940.40 2.326987
940.50 2.325144
940.60 2.322817
940.70 2.322642
940.80 2.323602
940.90 2.324197
941.00 2.32367
941.10 2.322047
941.20 2.316555
941.30 2.304704
941.40 2.289267
941.50 2.270817
941.60 2.257011
941.70 2.244101
941.80 2.244768
941.90 2.258831
942.00 2.277744
942.10 2.301117
942.20 2.321823
942.30 2.337755
942.40 2.348136
942.50 2.353804
942.60 2.353758
942.70 2.350102
942.80 2.344508
942.90 2.340568
943.00 2.336146
943.10 2.333556
943.20 2.331613
943.30 2.333519
943.40 2.33357
943.50 2.335736
943.60 2.332077
943.70 2.329233
943.80 2.32138
943.90 2.313554
944.00 2.303588
944.10 2.296378
944.20 2.294707
944.30 2.295435
944.40 2.299398
944.50 2.295454
944.60 2.287135
944.70 2.274542
944.80 2.260097
944.90 2.25487
945.00 2.257345
945.10 2.270108
945.20 2.288141
945.30 2.303051
945.40 2.31132
945.50 2.315534
945.60 2.316597
945.70 2.318398
945.80 2.320036
945.90 2.320542
946.00 2.325242
946.10 2.330346
946.20 2.332612
946.30 2.327876
946.40 2.32144
946.50 2.319821
946.60 2.323667
946.70 2.327618
946.80 2.329067
946.90 2.328926
947.00 2.329939
947.10 2.331539
947.20 2.330253
947.30 2.330647
947.40 2.333984
947.50 2.339354
947.60 2.3406
947.70 2.339599
947.80 2.3394
947.90 2.341903
948.00 2.342336
948.10 2.340169
948.20 2.33269
948.30 2.331838
948.40 2.333846
948.50 2.340909
948.60 2.343331
948.70 2.344769
948.80 2.343701
948.90 2.343318
949.00 2.341714
949.10 2.342478
949.20 2.342486
949.30 2.345079
949.40 2.342188
949.50 2.333886
949.60 2.324263
949.70 2.316313
949.80 2.316649
949.90 2.325194
950.00 2.335512
950.10 2.341694
950.20 2.342607
950.30 2.340043
950.40 2.337009
950.50 2.330355
950.60 2.328903
950.70 2.326748
950.80 2.324231
950.90 2.317178
951.00 2.31298
951.10 2.309399
951.20 2.310039
951.30 2.308936
951.40 2.309394
951.50 2.310406
951.60 2.312775
951.70 2.316689
951.80 2.32027
951.90 2.321811
952.00 2.321458
952.10 2.322657
952.20 2.327657
952.30 2.334058
952.40 2.342022
952.50 2.348501
952.60 2.352025
952.70 2.352081
952.80 2.350447
952.90 2.346904
953.00 2.343216
953.10 2.337435
953.20 2.334663
953.30 2.334399
953.40 2.334901
953.50 2.332381
953.60 2.325208
953.70 2.320167
953.80 2.319397
953.90 2.324442
954.00 2.332522
954.10 2.339524
954.20 2.343303
954.30 2.341992
954.40 2.327743
954.50 2.307573
954.60 2.283949
954.70 2.263427
954.80 2.253811
954.90 2.258158
955.00 2.266597
955.10 2.290106
955.20 2.308603
955.30 2.322208
955.40 2.329782
955.50 2.335673
955.60 2.336651
955.70 2.333158
955.80 2.328728
955.90 2.326963
956.00 2.329671
956.10 2.334501
956.20 2.341369
956.30 2.347336
956.40 2.348806
956.50 2.346755
956.60 2.340288
956.70 2.337265
956.80 2.333463
956.90 2.332281
957.00 2.326597
957.10 2.318058
957.20 2.306108
957.30 2.291698
957.40 2.27771
957.50 2.267793
957.60 2.264237
957.70 2.265728
957.80 2.278233
957.90 2.292179
958.00 2.304845
958.10 2.314735
958.20 2.319439
958.30 2.323461
958.40 2.326524
958.50 2.330938
958.60 2.335797
958.70 2.338957
958.80 2.337645
958.90 2.334547
959.00 2.331074
959.10 2.328924
959.20 2.32741
959.30 2.32805
959.40 2.329778
959.50 2.331006
959.60 2.332864
959.70 2.325932
959.80 2.309433
959.90 2.288033
960.00 2.261282
960.10 2.236758
960.20 2.223574
960.30 2.225702
960.40 2.239539
960.50 2.2642
960.60 2.282706
960.70 2.297334
960.80 2.301124
960.90 2.306688
961.00 2.313852
961.10 2.32003
961.20 2.324278
961.30 2.326721
961.40 2.327511
961.50 2.326583
961.60 2.325382
961.70 2.323253
961.80 2.321326
961.90 2.320725
962.00 2.32044
962.10 2.320112
962.20 2.319374
962.30 2.318056
962.40 2.315492
962.50 2.31261
962.60 2.310372
962.70 2.306268
962.80 2.30435
962.90 2.30451
963.00 2.309297
963.10 2.320638
963.20 2.330102
963.30 2.335104
963.40 2.336776
963.50 2.330523
963.60 2.311362
963.70 2.284384
963.80 2.239934
963.90 2.184947
964.00 2.149232
964.10 2.14081
964.20 2.147246
964.30 2.190599
964.40 2.230371
964.50 2.264935
964.60 2.2747
964.70 2.257073
964.80 2.23533
964.90 2.215288
965.00 2.207531
965.10 2.217911
965.20 2.232749
965.30 2.246427
965.40 2.257831
965.50 2.26168
965.60 2.263894
965.70 2.264752
965.80 2.269321
965.90 2.274389
966.00 2.276948
966.10 2.277252
966.20 2.273398
966.30 2.271236
966.40 2.270297
966.50 2.269078
966.60 2.270028
966.70 2.272393
966.80 2.274591
966.90 2.274775
967.00 2.269106
967.10 2.260498
967.20 2.252606
967.30 2.243938
967.40 2.227977
967.50 2.206594
967.60 2.178089
967.70 2.148361
967.80 2.136844
967.90 2.147281
968.00 2.170898
968.10 2.217322
968.20 2.252267
968.30 2.281006
968.40 2.293867
968.50 2.299911
968.60 2.298016
968.70 2.286938
968.80 2.269032
968.90 2.244066
969.00 2.224068
969.10 2.206716
969.20 2.20605
969.30 2.222355
969.40 2.243119
969.50 2.26623
969.60 2.28519
969.70 2.294914
969.80 2.300221
969.90 2.303119
970.00 2.301038
970.10 2.292705
970.20 2.281925
970.30 2.265911
970.40 2.246919
970.50 2.22072
970.60 2.192323
970.70 2.160363
970.80 2.153758
970.90 2.168106
971.00 2.190001
971.10 2.228191
971.20 2.2582
971.30 2.281425
971.40 2.293835
971.50 2.300558
971.60 2.296636
971.70 2.287512
971.80 2.276674
971.90 2.262214
972.00 2.251153
972.10 2.244468
972.20 2.245863
972.30 2.254429
972.40 2.266356
972.50 2.274796
972.60 2.281904
972.70 2.269437
972.80 2.245691
972.90 2.217246
973.00 2.188524
973.10 2.175707
973.20 2.176947
973.30 2.192068
973.40 2.214579
973.50 2.232526
973.60 2.240259
973.70 2.24138
973.80 2.233279
973.90 2.228139
974.00 2.226381
974.10 2.225592
974.20 2.226451
974.30 2.219008
974.40 2.205746
974.50 2.184848
974.60 2.173361
974.70 2.177067
974.80 2.18786
974.90 2.209682
975.00 2.232545
975.10 2.250431
975.20 2.261723
975.30 2.268678
975.40 2.269991
975.50 2.271426
975.60 2.273439
975.70 2.276468
975.80 2.282529
975.90 2.287818
976.00 2.291834
976.10 2.293967
976.20 2.292928
976.30 2.28747
976.40 2.278062
976.50 2.269852
976.60 2.267188
976.70 2.26648
976.80 2.263819
976.90 2.25648
977.00 2.239926
977.10 2.2211
977.20 2.200493
977.30 2.196264
977.40 2.205681
977.50 2.222101
977.60 2.247998
977.70 2.265743
977.80 2.277777
977.90 2.282928
978.00 2.286967
978.10 2.278406
978.20 2.255877
978.30 2.224568
978.40 2.17776
978.50 2.140896
978.60 2.114178
978.70 2.104768
978.80 2.107749
978.90 2.124533
979.00 2.14757
979.10 2.171906
979.20 2.20023
979.30 2.228079
979.40 2.254731
979.50 2.273422
979.60 2.281481
979.70 2.28479
979.80 2.284294
979.90 2.282726
980.00 2.279136
980.10 2.275489
980.20 2.27163
980.30 2.269033
980.40 2.271457
980.50 2.275381
980.60 2.279586
980.70 2.282861
980.80 2.283832
980.90 2.28336
981.00 2.281836
981.10 2.28133
981.20 2.280134
981.30 2.279164
981.40 2.277959
981.50 2.278088
981.60 2.278141
981.70 2.277935
981.80 2.276367
981.90 2.276775
982.00 2.278083
982.10 2.279801
982.20 2.280075
982.30 2.277235
982.40 2.273517
982.50 2.27004
982.60 2.268146
982.70 2.268405
982.80 2.269489
982.90 2.271595
983.00 2.271672
983.10 2.268737
983.20 2.263216
983.30 2.255132
983.40 2.245556
983.50 2.24218
983.60 2.245001
983.70 2.251418
983.80 2.260837
983.90 2.268413
984.00 2.275196
984.10 2.280735
984.20 2.283946
984.30 2.284534
984.40 2.283838
984.50 2.28318
984.60 2.282633
984.70 2.280841
984.80 2.280127
984.90 2.280683
985.00 2.281287
985.10 2.279079
985.20 2.27539
985.30 2.271673
985.40 2.270705
985.50 2.270492
985.60 2.270714
985.70 2.271279
985.80 2.272652
985.90 2.273253
986.00 2.271269
986.10 2.265444
986.20 2.260598
986.30 2.257564
986.40 2.256342
986.50 2.256636
986.60 2.260522
986.70 2.265094
986.80 2.268907
986.90 2.268054
987.00 2.267458
987.10 2.26769
987.20 2.268687
987.30 2.271347
987.40 2.274144
987.50 2.276934
987.60 2.278565
987.70 2.278363
987.80 2.277681
987.90 2.275724
988.00 2.273268
988.10 2.270581
988.20 2.269173
988.30 2.267661
988.40 2.269382
988.50 2.270978
988.60 2.273473
988.70 2.274837
988.80 2.270867
988.90 2.263054
989.00 2.255113
989.10 2.249796
989.20 2.247301
989.30 2.24784
989.40 2.249597
989.50 2.249151
989.60 2.244953
989.70 2.237328
989.80 2.227093
989.90 2.216192
990.00 2.212254
990.10 2.21073
990.20 2.209443
990.30 2.205788
990.40 2.198011
990.50 2.188489
990.60 2.176005
990.70 2.162824
990.80 2.154276
990.90 2.15038
991.00 2.148745
991.10 2.153088
991.20 2.15601
991.30 2.158388
991.40 2.156961
991.50 2.15171
991.60 2.145121
991.70 2.139582
991.80 2.134506
991.90 2.138423
992.00 2.145235
992.10 2.153995
992.20 2.159868
992.30 2.158172
992.40 2.153842
992.50 2.147123
992.60 2.140717
992.70 2.138593
992.80 2.138726
992.90 2.13969
993.00 2.146575
993.10 2.157517
993.20 2.170112
993.30 2.180553
993.40 2.184967
993.50 2.182889
993.60 2.180871
993.70 2.180509
993.80 2.187537
993.90 2.19476
994.00 2.201975
994.10 2.206835
994.20 2.206714
994.30 2.20372
994.40 2.199302
994.50 2.196019
994.60 2.193504
994.70 2.192584
994.80 2.191818
994.90 2.193225
995.00 2.195011
995.10 2.199424
995.20 2.20526
995.30 2.209528
995.40 2.210814
995.50 2.211289
995.60 2.212888
995.70 2.210403
995.80 2.207431
995.90 2.203096
996.00 2.197987
996.10 2.190444
996.20 2.184986
996.30 2.182528
996.40 2.183088
996.50 2.190867
996.60 2.200539
996.70 2.210693
996.80 2.21734
996.90 2.218606
997.00 2.213519
997.10 2.203218
997.20 2.190338
997.30 2.182685
997.40 2.178542
997.50 2.176929
997.60 2.17992
997.70 2.1834
997.80 2.187243
997.90 2.191261
998.00 2.193662
998.10 2.194303
998.20 2.193446
998.30 2.192109
998.40 2.18484
998.50 2.178681
998.60 2.172988
998.70 2.170213
998.80 2.171615
998.90 2.176581
999.00 2.181678
999.10 2.184101
999.20 2.183889
999.30 2.184278
999.40 2.185547
999.50 2.187982
999.60 2.18732
999.70 2.183144
999.80 2.176819
999.90 2.17073
1000.00 2.171583
1000.10 2.173532
1000.20 2.175909
1000.30 2.176916
1000.40 2.175801
1000.50 2.174646
1000.60 2.173297
1000.70 2.173892
1000.80 2.174113
1000.90 2.172319
1001.00 2.168501
1001.10 2.162575
1001.20 2.159416
1001.30 2.158023
1001.40 2.162474
1001.50 2.172415
1001.60 2.183557
1001.70 2.194512
1001.80 2.205576
1001.90 2.211458
1002.00 2.211905
1002.10 2.209685
1002.20 2.203907
1002.30 2.201678
1002.40 2.201959
1002.50 2.204605
1002.60 2.207502
1002.70 2.209197
1002.80 2.209119
1002.90 2.207373
1003.00 2.204811
1003.10 2.204305
1003.20 2.204068
1003.30 2.201807
1003.40 2.194781
1003.50 2.182271
1003.60 2.169128
1003.70 2.156034
1003.80 2.152809
1003.90 2.157724
1004.00 2.166778
1004.10 2.18117
1004.20 2.196192
1004.30 2.2094
1004.40 2.219274
1004.50 2.225717
1004.60 2.226892
1004.70 2.224502
1004.80 2.219478
1004.90 2.206859
1005.00 2.194707
1005.10 2.183866
1005.20 2.176084
1005.30 2.172045
1005.40 2.171884
1005.50 2.16791
1005.60 2.160812
1005.70 2.151471
1005.80 2.145233
1005.90 2.139921
1006.00 2.136418
1006.10 2.137036
1006.20 2.140604
1006.30 2.143244
1006.40 2.143767
1006.50 2.146053
1006.60 2.14813
1006.70 2.149762
1006.80 2.15308
1006.90 2.163745
1007.00 2.175422
1007.10 2.185115
1007.20 2.191416
1007.30 2.19339
1007.40 2.195156
1007.50 2.197253
1007.60 2.202759
1007.70 2.208704
1007.80 2.212548
1007.90 2.212956
1008.00 2.209793
1008.10 2.20294
1008.20 2.195564
1008.30 2.188507
1008.40 2.185487
1008.50 2.187116
1008.60 2.189461
1008.70 2.191807
1008.80 2.194691
1008.90 2.194774
1009.00 2.193596
1009.10 2.191522
1009.20 2.192861
1009.30 2.197296
1009.40 2.20257
1009.50 2.209193
1009.60 2.211857
1009.70 2.215522
1009.80 2.218537
1009.90 2.220279
1010.00 2.219609
1010.10 2.220348
1010.20 2.222168
1010.30 2.223289
1010.40 2.222931
1010.50 2.220803
1010.60 2.217395
1010.70 2.214851
1010.80 2.212308
1010.90 2.209597
1011.00 2.206398
1011.10 2.201899
1011.20 2.194742
1011.30 2.187129
1011.40 2.180734
1011.50 2.178026
1011.60 2.176609
1011.70 2.175265
1011.80 2.173246
1011.90 2.173792
1012.00 2.174464
1012.10 2.175468
1012.20 2.179051
1012.30 2.183994
1012.40 2.187553
1012.50 2.189475
1012.60 2.19037
1012.70 2.188285
1012.80 2.187179
1012.90 2.187177
1013.00 2.189054
1013.10 2.191801
1013.20 2.194328
1013.30 2.196059
1013.40 2.197808
1013.50 2.193912
1013.60 2.187718
1013.70 2.180256
1013.80 2.175744
1013.90 2.171771
1014.00 2.169973
1014.10 2.172274
1014.20 2.176386
1014.30 2.177051
1014.40 2.172291
1014.50 2.163804
1014.60 2.147946
1014.70 2.135867
1014.80 2.126248
1014.90 2.124096
1015.00 2.133778
1015.10 2.14994
1015.20 2.166718
1015.30 2.180356
1015.40 2.182614
1015.50 2.179751
1015.60 2.174057
1015.70 2.164352
1015.80 2.158623
1015.90 2.157715
1016.00 2.160233
1016.10 2.165121
1016.20 2.17143
1016.30 2.176009
1016.40 2.177331
1016.50 2.175643
1016.60 2.173726
1016.70 2.172828
1016.80 2.17199
1016.90 2.16973
1017.00 2.16381
1017.10 2.15903
1017.20 2.155753
1017.30 2.157889
1017.40 2.16322
1017.50 2.170545
1017.60 2.179658
1017.70 2.185879
1017.80 2.187026
1017.90 2.185608
1018.00 2.182131
1018.10 2.177606
1018.20 2.174178
1018.30 2.172357
1018.40 2.171004
1018.50 2.167745
1018.60 2.163094
1018.70 2.158763
1018.80 2.155019
1018.90 2.157662
1019.00 2.160745
1019.10 2.163878
1019.20 2.164841
1019.30 2.163826
1019.40 2.161426
1019.50 2.15813
1019.60 2.154831
1019.70 2.153886
1019.80 2.155673
1019.90 2.159694
1020.00 2.163279
1020.10 2.16547
1020.20 2.167458
1020.30 2.169328
1020.40 2.170155
1020.50 2.171307
1020.60 2.172711
1020.70 2.174236
1020.80 2.175111
1020.90 2.175635
1021.00 2.175684
1021.10 2.173586
1021.20 2.17029
1021.30 2.16522
1021.40 2.157782
1021.50 2.146385
1021.60 2.133965
1021.70 2.120065
1021.80 2.105302
1021.90 2.090815
1022.00 2.090712
1022.10 2.098124
1022.20 2.110583
1022.30 2.123774
1022.40 2.139095
1022.50 2.151565
1022.60 2.16092
1022.70 2.16444
1022.80 2.164958
1022.90 2.1629
1023.00 2.159042
1023.10 2.156369
1023.20 2.156735
1023.30 2.158381
1023.40 2.15854
1023.50 2.158399
1023.60 2.159382
1023.70 2.16257
1023.80 2.1659
1023.90 2.167529
1024.00 2.169833
1024.10 2.172555
1024.20 2.175653
1024.30 2.176221
1024.40 2.175557
1024.50 2.174179
1024.60 2.170747
1024.70 2.169088
1024.80 2.16786
1024.90 2.166508
1025.00 2.164095
1025.10 2.159806
1025.20 2.154759
1025.30 2.149338
1025.40 2.145139
1025.50 2.143346
1025.60 2.142415
1025.70 2.142936
1025.80 2.143692
1025.90 2.142921
1026.00 2.141179
1026.10 2.13793
1026.20 2.133022
1026.30 2.127499
1026.40 2.123426
1026.50 2.12326
1026.60 2.126736
1026.70 2.132846
1026.80 2.139835
1026.90 2.147775
1027.00 2.154491
1027.10 2.158824
1027.20 2.158836
1027.30 2.152219
1027.40 2.142224
1027.50 2.135637
1027.60 2.132176
1027.70 2.13182
1027.80 2.134214
1027.90 2.137061
1028.00 2.140292
1028.10 2.140679
1028.20 2.137887
1028.30 2.13366
1028.40 2.129288
1028.50 2.125653
1028.60 2.129131
1028.70 2.134564
1028.80 2.140341
1028.90 2.144416
1029.00 2.148481
1029.10 2.151644
1029.20 2.151519
1029.30 2.147813
1029.40 2.144906
1029.50 2.143394
1029.60 2.143921
1029.70 2.144277
1029.80 2.143597
1029.90 2.14255
1030.00 2.141474
1030.10 2.139785
1030.20 2.138306
1030.30 2.138043
1030.40 2.139075
1030.50 2.142499
1030.60 2.145646
1030.70 2.149041
1030.80 2.150242
1030.90 2.148368
1031.00 2.145125
1031.10 2.14264
1031.20 2.142327
1031.30 2.143894
1031.40 2.145567
1031.50 2.147665
1031.60 2.148777
1031.70 2.148032
1031.80 2.145901
1031.90 2.142496
1032.00 2.139622
1032.10 2.139046
1032.20 2.139189
1032.30 2.139426
1032.40 2.13656
1032.50 2.129923
1032.60 2.121032
1032.70 2.110719
1032.80 2.102387
1032.90 2.100092
1033.00 2.10182
1033.10 2.106957
1033.20 2.116165
1033.30 2.125504
1033.40 2.133372
1033.50 2.136001
1033.60 2.133961
1033.70 2.128759
1033.80 2.120879
1033.90 2.11166
1034.00 2.099215
1034.10 2.079111
1034.20 2.052278
1034.30 2.009681
1034.40 1.960226
1034.50 1.915631
1034.60 1.888064
1034.70 1.889981
1034.80 1.924809
1034.90 1.967987
1035.00 2.017759
1035.10 2.060008
1035.20 2.085861
1035.30 2.101782
1035.40 2.109655
1035.50 2.116505
1035.60 2.121602
1035.70 2.125713
1035.80 2.128377
1035.90 2.132161
1036.00 2.135805
1036.10 2.139456
1036.20 2.142638
1036.30 2.14534
1036.40 2.147074
1036.50 2.147438
1036.60 2.147407
1036.70 2.147032
1036.80 2.145688
1036.90 2.142612
1037.00 2.139307
1037.10 2.134013
1037.20 2.128711
1037.30 2.12427
1037.40 2.123576
1037.50 2.123861
1037.60 2.124646
1037.70 2.12611
1037.80 2.12398
1037.90 2.116357
1038.00 2.106593
1038.10 2.097606
1038.20 2.093729
1038.30 2.097497
1038.40 2.103379
1038.50 2.111175
1038.60 2.121351
1038.70 2.12892
1038.80 2.133577
1038.90 2.134069
1039.00 2.131725
1039.10 2.129004
1039.20 2.126643
1039.30 2.125602
1039.40 2.119989
1039.50 2.104628
1039.60 2.082048
1039.70 2.052762
1039.80 2.032234
1039.90 2.023555
1040.00 2.027794
1040.10 2.045539
1040.20 2.075623
1040.30 2.100191
1040.40 2.118607
1040.50 2.127047
1040.60 2.129966
1040.70 2.13158
1040.80 2.132081
1040.90 2.134255
1041.00 2.1348
1041.10 2.133909
1041.20 2.13062
1041.30 2.12651
1041.40 2.122841
1041.50 2.121353
1041.60 2.121644
1041.70 2.122284
1041.80 2.123276
1041.90 2.124714
1042.00 2.127385
1042.10 2.126592
1042.20 2.121909
1042.30 2.113029
1042.40 2.100917
1042.50 2.092053
1042.60 2.086957
1042.70 2.084886
1042.80 2.084948
1042.90 2.087523
1043.00 2.091799
1043.10 2.098298
1043.20 2.108568
1043.30 2.117128
1043.40 2.124734
1043.50 2.130802
1043.60 2.135588
1043.70 2.135618
1043.80 2.134877
1043.90 2.131923
1044.00 2.127483
1044.10 2.124568
1044.20 2.125614
1044.30 2.127781
1044.40 2.129344
1044.50 2.128766
1044.60 2.128089
1044.70 2.127127
1044.80 2.126988
1044.90 2.127263
1045.00 2.12863
1045.10 2.131845
1045.20 2.133745
1045.30 2.132887
1045.40 2.131429
1045.50 2.129995
1045.60 2.128271
1045.70 2.128686
1045.80 2.129902
1045.90 2.129657
1046.00 2.124546
1046.10 2.119411
1046.20 2.114865
1046.30 2.112678
1046.40 2.113189
1046.50 2.114461
1046.60 2.115187
1046.70 2.113951
1046.80 2.107038
1046.90 2.096857
1047.00 2.084947
1047.10 2.073778
1047.20 2.06832
1047.30 2.06804
1047.40 2.07408
1047.50 2.085683
1047.60 2.094965
1047.70 2.100645
1047.80 2.104051
1047.90 2.10758
1048.00 2.110454
1048.10 2.112312
1048.20 2.112712
1048.30 2.114363
1048.40 2.112811
1048.50 2.109107
1048.60 2.103495
1048.70 2.099396
1048.80 2.095127
1048.90 2.0924
1049.00 2.09289
1049.10 2.098984
1049.20 2.105195
1049.30 2.110888
1049.40 2.112648
1049.50 2.103824
1049.60 2.0881
1049.70 2.069408
1049.80 2.049433
1049.90 2.043159
1050.00 2.046643
1050.10 2.060182
1050.20 2.082398
1050.30 2.099277
1050.40 2.108717
1050.50 2.111485
1050.60 2.110514
1050.70 2.112157
1050.80 2.113214
1050.90 2.111773
1051.00 2.106022
1051.10 2.098926
1051.20 2.091973
1051.30 2.084969
1051.40 2.079317
1051.50 2.076556
1051.60 2.076003
1051.70 2.078412
1051.80 2.082211
1051.90 2.084445
1052.00 2.084997
1052.10 2.085694
1052.20 2.088082
1052.30 2.092491
1052.40 2.096596
1052.50 2.099142
1052.60 2.10189
1052.70 2.105403
1052.80 2.109355
1052.90 2.112529
1053.00 2.112078
1053.10 2.107486
1053.20 2.099774
1053.30 2.0894
1053.40 2.082791
1053.50 2.081128
1053.60 2.083669
1053.70 2.088981
1053.80 2.095766
1053.90 2.101255
1054.00 2.104689
1054.10 2.104447
1054.20 2.105631
1054.30 2.107773
1054.40 2.110249
1054.50 2.110049
1054.60 2.107374
1054.70 2.105124
1054.80 2.102859
1054.90 2.102334
1055.00 2.102604
1055.10 2.101882
1055.20 2.0991
1055.30 2.095624
1055.40 2.091592
1055.50 2.088156
1055.60 2.084276
1055.70 2.082867
1055.80 2.080935
1055.90 2.078356
1056.00 2.075309
1056.10 2.074339
1056.20 2.075247
1056.30 2.076947
1056.40 2.079391
1056.50 2.07946
1056.60 2.079591
1056.70 2.079798
1056.80 2.079958
1056.90 2.079543
1057.00 2.080523
1057.10 2.082815
1057.20 2.085972
1057.30 2.086306
1057.40 2.085098
1057.50 2.083362
1057.60 2.083707
1057.70 2.085445
1057.80 2.087079
1057.90 2.087726
1058.00 2.088448
1058.10 2.087868
1058.20 2.085717
1058.30 2.079239
1058.40 2.056931
1058.50 2.024219
1058.60 1.995877
1058.70 1.974249
1058.80 1.966915
1058.90 1.981217
1059.00 2.006715
1059.10 2.038216
1059.20 2.060577
1059.30 2.07502
1059.40 2.08349
1059.50 2.086219
1059.60 2.087735
1059.70 2.089974
1059.80 2.091924
1059.90 2.091317
1060.00 2.087735
1060.10 2.083574
1060.20 2.077354
1060.30 2.06723
1060.40 2.054035
1060.50 2.043365
1060.60 2.034252
1060.70 2.026205
1060.80 2.025223
1060.90 2.029692
1061.00 2.03738
1061.10 2.045189
1061.20 2.053782
1061.30 2.06187
1061.40 2.069474
1061.50 2.074321
1061.60 2.074966
1061.70 2.073799
1061.80 2.072006
1061.90 2.07207
1062.00 2.072948
1062.10 2.073621
1062.20 2.073738
1062.30 2.074469
1062.40 2.075583
1062.50 2.077136
1062.60 2.078901
1062.70 2.079053
1062.80 2.07875
1062.90 2.078791
1063.00 2.080056
1063.10 2.078676
1063.20 2.077298
1063.30 2.075992
1063.40 2.075616
1063.50 2.077766
1063.60 2.079873
1063.70 2.081735
1063.80 2.082876
1063.90 2.084619
1064.00 2.086251
1064.10 2.087434
1064.20 2.088532
1064.30 2.086861
1064.40 2.083974
1064.50 2.081102
1064.60 2.080065
1064.70 2.078166
1064.80 2.07551
1064.90 2.071884
1065.00 2.068421
1065.10 2.067885
1065.20 2.06932
1065.30 2.07096
1065.40 2.071304
1065.50 2.07047
1065.60 2.0684
1065.70 2.065651
1065.80 2.06335
1065.90 2.056338
1066.00 2.045031
1066.10 2.027198
1066.20 2.002187
1066.30 1.979001
1066.40 1.965436
1066.50 1.96553
1066.60 1.98122
1066.70 1.998897
1066.80 2.016892
1066.90 2.031831
1067.00 2.037008
1067.10 2.03819
1067.20 2.036937
1067.30 2.035838
1067.40 2.039597
1067.50 2.043409
1067.60 2.045361
1067.70 2.043922
1067.80 2.04319
1067.90 2.04309
1068.00 2.043636
1068.10 2.043843
1068.20 2.050678
1068.30 2.058053
1068.40 2.065409
1068.50 2.068557
1068.60 2.067568
1068.70 2.065313
1068.80 2.061209
1068.90 2.05405
1069.00 2.045872
1069.10 2.040608
1069.20 2.037865
1069.30 2.034936
1069.40 2.035022
1069.50 2.03654
1069.60 2.037488
1069.70 2.036387
1069.80 2.039232
1069.90 2.04476
1070.00 2.053102
1070.10 2.060036
1070.20 2.064039
1070.30 2.06432
1070.40 2.062985
1070.50 2.057577
1070.60 2.055024
1070.70 2.054161
1070.80 2.055164
1070.90 2.053421
1071.00 2.051782
1071.10 2.051153
1071.20 2.051515
1071.30 2.053162
1071.40 2.0557
1071.50 2.05871
1071.60 2.062315
1071.70 2.065467
1071.80 2.06737
1071.90 2.067265
1072.00 2.06605
1072.10 2.064731
1072.20 2.06293
1072.30 2.059734
1072.40 2.053207
1072.50 2.041615
1072.60 2.024188
1072.70 2.000876
1072.80 1.977326
1072.90 1.968355
1073.00 1.970089
1073.10 1.979083
1073.20 1.992336
1073.30 2.000216
1073.40 2.00456
1073.50 2.004391
1073.60 2.005812
1073.70 2.012989
1073.80 2.025706
1073.90 2.041298
1074.00 2.05197
1074.10 2.057213
1074.20 2.058578
1074.30 2.056888
1074.40 2.053679
1074.50 2.050303
1074.60 2.044233
1074.70 2.035831
1074.80 2.022917
1074.90 2.009093
1075.00 1.995664
1075.10 1.984504
1075.20 1.981564
1075.30 1.985075
1075.40 1.993856
1075.50 2.006201
1075.60 2.018402
1075.70 2.029811
1075.80 2.03992
1075.90 2.046713
1076.00 2.049611
1076.10 2.051531
1076.20 2.051818
1076.30 2.050584
1076.40 2.049947
1076.50 2.049917
1076.60 2.050238
1076.70 2.049483
1076.80 2.050385
1076.90 2.051486
1077.00 2.052046
1077.10 2.049947
1077.20 2.046987
1077.30 2.043404
1077.40 2.037759
1077.50 2.028526
1077.60 2.020403
1077.70 2.014596
1077.80 2.011196
1077.90 2.013607
1078.00 2.017419
1078.10 2.020416
1078.20 2.020989
1078.30 2.015067
1078.40 2.009354
1078.50 2.003318
1078.60 1.996724
1078.70 1.988806
1078.80 1.984347
1078.90 1.983238
1079.00 1.984145
1079.10 1.992468
1079.20 2.003485
1079.30 2.013698
1079.40 2.018786
1079.50 2.022588
1079.60 2.02595
1079.70 2.029295
1079.80 2.032738
1079.90 2.033488
1080.00 2.031838
1080.10 2.028163
1080.20 2.023325
1080.30 2.020916
1080.40 2.020771
1080.50 2.022119
1080.60 2.024146
1080.70 2.024615
1080.80 2.024269
1080.90 2.021122
1081.00 2.003342
1081.10 1.974951
1081.20 1.948621
1081.30 1.929791
1081.40 1.922531
1081.50 1.931935
1081.60 1.951415
1081.70 1.975135
1081.80 1.988866
1081.90 1.997445
1082.00 2.002474
1082.10 2.002983
1082.20 2.000711
1082.30 1.998249
1082.40 1.995553
1082.50 1.992459
1082.60 1.980053
1082.70 1.963989
1082.80 1.943945
1082.90 1.918472
1083.00 1.886275
1083.10 1.866012
1083.20 1.860481
1083.30 1.865923
1083.40 1.881078
1083.50 1.901567
1083.60 1.922861
1083.70 1.939728
1083.80 1.953756
1083.90 1.965967
1084.00 1.976791
1084.10 1.988572
1084.20 1.996602
1084.30 2.000487
1084.40 2.001789
1084.50 2.001804
1084.60 1.998623
1084.70 1.995667
1084.80 1.993552
1084.90 1.992837
1085.00 1.995255
1085.10 2.000142
1085.20 2.006617
1085.30 2.011434
1085.40 2.015099
1085.50 2.017788
1085.60 2.01933
1085.70 2.020903
1085.80 2.022098
1085.90 2.023812
1086.00 2.025945
1086.10 2.026408
1086.20 2.021985
1086.30 2.015746
1086.40 2.008268
1086.50 2.001898
1086.60 1.996275
1086.70 1.991052
1086.80 1.985693
1086.90 1.969016
1087.00 1.948833
1087.10 1.930268
1087.20 1.921748
1087.30 1.918426
1087.40 1.924858
1087.50 1.940293
1087.60 1.961538
1087.70 1.977359
1087.80 1.989792
1087.90 1.998738
1088.00 2.001037
1088.10 1.997844
1088.20 1.993192
1088.30 1.987912
1088.40 1.984359
1088.50 1.981896
1088.60 1.979939
1088.70 1.978875
1088.80 1.982954
1088.90 1.987776
1089.00 1.990971
1089.10 1.990798
1089.20 1.988552
1089.30 1.986521
1089.40 1.984773
1089.50 1.98278
1089.60 1.978053
1089.70 1.974763
1089.80 1.974084
1089.90 1.97704
1090.00 1.981536
1090.10 1.986713
1090.20 1.991918
1090.30 1.996492
1090.40 1.996709
1090.50 1.992919
1090.60 1.986915
1090.70 1.978253
1090.80 1.972084
1090.90 1.971084
1091.00 1.974484
1091.10 1.980172
1091.20 1.984391
1091.30 1.987216
1091.40 1.988587
1091.50 1.98732
1091.60 1.984064
1091.70 1.982993
1091.80 1.985251
1091.90 1.991223
1092.00 1.995534
1092.10 1.998608
1092.20 2.000793
1092.30 2.001589
1092.40 2.001753
1092.50 2.001755
1092.60 2.001787
1092.70 2.000755
1092.80 1.997893
1092.90 1.994215
1093.00 1.990998
1093.10 1.992292
1093.20 1.996354
1093.30 2.00148
1093.40 2.006502
1093.50 2.008892
1093.60 2.009533
1093.70 2.008899
1093.80 2.007141
1093.90 2.01021
1094.00 2.017564
1094.10 2.023664
1094.20 2.024614
1094.30 2.02137
1094.40 2.017071
1094.50 2.011084
1094.60 2.004915
1094.70 2.002061
1094.80 2.000212
1094.90 1.999358
1095.00 1.999709
1095.10 2.000427
1095.20 1.998854
1095.30 1.994443
1095.40 1.988131
1095.50 1.980888
1095.60 1.973376
1095.70 1.965721
1095.80 1.958063
1095.90 1.952908
1096.00 1.952139
1096.10 1.956944
1096.20 1.964644
1096.30 1.967569
1096.40 1.966418
1096.50 1.961764
1096.60 1.947415
1096.70 1.930307
1096.80 1.919506
1096.90 1.92047
1097.00 1.92846
1097.10 1.939012
1097.20 1.949816
1097.30 1.95994
1097.40 1.964628
1097.50 1.967523
1097.60 1.969325
1097.70 1.968617
1097.80 1.967315
1097.90 1.961513
1098.00 1.953335
1098.10 1.943906
1098.20 1.942809
1098.30 1.945119
1098.40 1.949653
1098.50 1.958002
1098.60 1.966703
1098.70 1.972925
1098.80 1.976188
1098.90 1.977633
1099.00 1.978543
1099.10 1.980448
1099.20 1.98244
1099.30 1.983471
1099.40 1.981933
1099.50 1.979682
1099.60 1.977448
1099.70 1.975123
1099.80 1.973401
1099.90 1.973043
1100.00 1.973627
1100.10 1.975979
1100.20 1.977854
1100.30 1.978947
1100.40 1.978113
1100.50 1.97631
1100.60 1.975401
1100.70 1.976524
1100.80 1.978331
1100.90 1.979424
1101.00 1.979911
1101.10 1.979664
1101.20 1.977545
1101.30 1.973611
1101.40 1.967452
1101.50 1.957722
1101.60 1.945014
1101.70 1.932837
1101.80 1.927103
1101.90 1.925012
1102.00 1.928008
1102.10 1.933942
1102.20 1.941913
1102.30 1.948486
1102.40 1.952944
1102.50 1.955453
1102.60 1.962403
1102.70 1.969399
1102.80 1.97378
1102.90 1.974504
1103.00 1.974149
1103.10 1.972218
1103.20 1.968718
1103.30 1.968646
1103.40 1.968896
1103.50 1.969058
1103.60 1.968658
1103.70 1.969985
1103.80 1.970323
1103.90 1.970699
1104.00 1.971496
1104.10 1.971561
1104.20 1.97127
1104.30 1.971302
1104.40 1.971942
1104.50 1.97218
1104.60 1.972131
1104.70 1.971575
1104.80 1.970503
1104.90 1.969993
1105.00 1.970146
1105.10 1.970794
1105.20 1.973577
1105.30 1.975549
1105.40 1.975527
1105.50 1.972204
1105.60 1.969017
1105.70 1.965675
1105.80 1.962146
1105.90 1.959282
1106.00 1.959257
1106.10 1.959411
1106.20 1.960351
1106.30 1.962719
1106.40 1.96696
1106.50 1.969348
1106.60 1.970517
1106.70 1.970925
1106.80 1.969397
1106.90 1.966554
1107.00 1.963504
1107.10 1.960991
1107.20 1.958185
1107.30 1.956236
1107.40 1.955819
1107.50 1.957765
1107.60 1.9635
1107.70 1.969739
1107.80 1.974198
1107.90 1.973393
1108.00 1.970886
1108.10 1.968755
1108.20 1.967436
1108.30 1.96644
1108.40 1.96716
1108.50 1.968762
1108.60 1.970738
1108.70 1.972343
1108.80 1.971531
1108.90 1.969591
1109.00 1.966326
1109.10 1.962577
1109.20 1.962024
1109.30 1.96328
1109.40 1.965455
1109.50 1.967581
1109.60 1.971467
1109.70 1.974165
1109.80 1.974966
1109.90 1.973727
1110.00 1.974071
1110.10 1.973673
1110.20 1.972463
1110.30 1.967281
1110.40 1.963948
1110.50 1.962501
1110.60 1.963203
1110.70 1.964574
1110.80 1.965378
1110.90 1.966249
1111.00 1.966972
1111.10 1.967231
1111.20 1.965199
1111.30 1.962469
1111.40 1.958487
1111.50 1.954611
1111.60 1.952678
1111.70 1.952837
1111.80 1.953667
1111.90 1.948363
1112.00 1.93659
1112.10 1.923146
1112.20 1.912159
1112.30 1.909727
1112.40 1.913999
1112.50 1.927123
1112.60 1.943404
1112.70 1.952906
1112.80 1.958728
1112.90 1.962665
1113.00 1.963342
1113.10 1.960305
1113.20 1.957575
1113.30 1.956072
1113.40 1.956018
1113.50 1.956701
1113.60 1.955983
1113.70 1.954584
1113.80 1.954605
1113.90 1.957089
1114.00 1.959634
1114.10 1.962123
1114.20 1.963249
1114.30 1.96377
1114.40 1.962603
1114.50 1.961473
1114.60 1.957668
1114.70 1.953836
1114.80 1.949924
1114.90 1.94528
1115.00 1.937714
1115.10 1.931414
1115.20 1.930004
1115.30 1.933096
1115.40 1.939295
1115.50 1.946399
1115.60 1.95116
1115.70 1.947921
1115.80 1.932574
1115.90 1.919223
1116.00 1.911811
1116.10 1.910862
1116.20 1.918005
1116.30 1.931056
1116.40 1.944476
1116.50 1.952598
1116.60 1.958577
1116.70 1.962816
1116.80 1.965553
1116.90 1.965409
1117.00 1.966531
1117.10 1.962062
1117.20 1.956412
1117.30 1.948047
1117.40 1.944285
1117.50 1.941799
1117.60 1.943314
1117.70 1.946807
1117.80 1.953234
1117.90 1.956931
1118.00 1.958809
1118.10 1.956087
1118.20 1.955008
1118.30 1.952957
1118.40 1.947948
1118.50 1.946425
1118.60 1.947379
1118.70 1.948277
1118.80 1.946253
1118.90 1.939641
1119.00 1.934326
1119.10 1.930163
1119.20 1.927949
1119.30 1.929449
1119.40 1.935334
1119.50 1.94104
1119.60 1.94479
1119.70 1.945259
1119.80 1.940605
1119.90 1.933915
1120.00 1.927657
1120.10 1.922701
1120.20 1.917611
1120.30 1.917656
1120.40 1.92695
1120.50 1.937639
1120.60 1.94696
1120.70 1.953143
1120.80 1.955717
1120.90 1.955966
1121.00 1.954805
1121.10 1.950763
1121.20 1.947776
1121.30 1.942828
1121.40 1.939536
1121.50 1.93828
1121.60 1.940386
1121.70 1.94342
1121.80 1.944856
1121.90 1.945454
1122.00 1.945569
1122.10 1.945581
1122.20 1.944334
1122.30 1.939967
1122.40 1.936919
1122.50 1.937511
1122.60 1.938523
1122.70 1.939346
1122.80 1.937406
1122.90 1.938785
1123.00 1.944617
1123.10 1.946225
1123.20 1.94643
1123.30 1.94477
1123.40 1.940982
1123.50 1.938332
1123.60 1.929782
1123.70 1.924534
1123.80 1.924282
1123.90 1.928896
1124.00 1.940458
1124.10 1.94912
1124.20 1.955577
1124.30 1.954739
1124.40 1.944105
1124.50 1.934193
1124.60 1.92508
1124.70 1.92529
1124.80 1.92672
1124.90 1.926393
1125.00 1.924245
1125.10 1.910954
1125.20 1.890388
1125.30 1.861538
1125.40 1.820129
1125.50 1.778429
1125.60 1.751494
1125.70 1.755491
1125.80 1.779237
1125.90 1.823516
1126.00 1.854385
1126.10 1.885272
1126.20 1.902382
1126.30 1.916437
1126.40 1.920655
1126.50 1.92574
1126.60 1.933483
1126.70 1.939438
1126.80 1.944193
1126.90 1.946888
1127.00 1.946049
1127.10 1.94478
1127.20 1.940933
1127.30 1.937854
1127.40 1.93337
1127.50 1.928807
1127.60 1.926255
1127.70 1.927782
1127.80 1.929661
1127.90 1.931489
1128.00 1.933256
1128.10 1.935812
1128.20 1.940457
1128.30 1.941078
1128.40 1.941776
1128.50 1.940997
1128.60 1.940917
1128.70 1.94078
1128.80 1.940612
1128.90 1.94167
1129.00 1.942869
1129.10 1.941935
1129.20 1.939247
1129.30 1.934874
1129.40 1.93027
1129.50 1.926184
1129.60 1.918256
1129.70 1.909731
1129.80 1.902597
1129.90 1.901816
1130.00 1.903717
1130.10 1.907347
1130.20 1.910137
1130.30 1.911911
1130.40 1.914906
1130.50 1.919431
1130.60 1.92268
1130.70 1.924827
1130.80 1.922969
1130.90 1.919676
1131.00 1.915959
1131.10 1.909849
1131.20 1.904971
1131.30 1.900912
1131.40 1.898667
1131.50 1.896568
1131.60 1.899698
1131.70 1.904273
1131.80 1.911429
1131.90 1.916326
1132.00 1.920057
1132.10 1.922344
1132.20 1.923134
1132.30 1.924172
1132.40 1.923386
1132.50 1.924542
1132.60 1.925421
1132.70 1.926025
1132.80 1.926091
1132.90 1.924305
1133.00 1.92061
1133.10 1.912876
1133.20 1.902609
1133.30 1.892125
1133.40 1.883448
1133.50 1.879557
1133.60 1.8775
1133.70 1.883893
1133.80 1.892992
1133.90 1.901708
1134.00 1.907025
1134.10 1.908231
1134.20 1.905702
1134.30 1.903383
1134.40 1.900221
1134.50 1.898727
1134.60 1.897721
1134.70 1.891914
1134.80 1.89481
1134.90 1.898497
1135.00 1.90878
1135.10 1.923216
1135.20 1.929643
1135.30 1.936226
1135.40 1.933822
1135.50 1.923077
1135.60 1.911221
1135.70 1.89901
1135.80 1.894187
1135.90 1.890605
1136.00 1.884363
1136.10 1.88619
1136.20 1.890798
1136.30 1.901947
1136.40 1.915275
1136.50 1.923142
1136.60 1.927432
1136.70 1.923775
1136.80 1.916489
1136.90 1.908852
1137.00 1.902284
1137.10 1.899755
1137.20 1.896196
1137.30 1.88702
1137.40 1.875268
1137.50 1.861403
1137.60 1.847971
1137.70 1.838892
1137.80 1.830948
1137.90 1.818942
1138.00 1.8073
1138.10 1.785026
1138.20 1.760321
1138.30 1.727545
1138.40 1.70046
1138.50 1.687944
1138.60 1.72079
1138.70 1.756746
1138.80 1.799225
1138.90 1.825805
1139.00 1.849788
1139.10 1.858993
1139.20 1.860042
1139.30 1.856733
1139.40 1.854342
1139.50 1.853359
1139.60 1.855696
1139.70 1.857576
1139.80 1.857299
1139.90 1.848149
1140.00 1.84097
1140.10 1.824917
1140.20 1.788233
1140.30 1.749269
1140.40 1.693093
1140.50 1.64515
1140.60 1.588565
1140.70 1.576244
1140.80 1.584304
1140.90 1.623485
1141.00 1.68346
1141.10 1.752296
1141.20 1.805171
1141.30 1.846955
1141.40 1.869504
1141.50 1.877376
1141.60 1.883911
1141.70 1.885285
1141.80 1.886431
1141.90 1.888728
1142.00 1.886151
1142.10 1.879623
1142.20 1.867131
1142.30 1.853894
1142.40 1.841147
1142.50 1.83854
1142.60 1.839276
1142.70 1.846108
1142.80 1.858444
1142.90 1.87015
1143.00 1.880371
1143.10 1.887137
1143.20 1.892966
1143.30 1.896096
1143.40 1.897204
1143.50 1.895717
1143.60 1.890891
1143.70 1.884265
1143.80 1.869603
1143.90 1.857295
1144.00 1.841495
1144.10 1.831125
1144.20 1.820479
1144.30 1.818859
1144.40 1.826655
1144.50 1.842608
1144.60 1.861202
1144.70 1.875915
1144.80 1.884016
1144.90 1.884205
1145.00 1.883049
1145.10 1.880828
1145.20 1.88204
1145.30 1.884199
1145.40 1.885931
1145.50 1.887383
1145.60 1.887374
1145.70 1.887045
1145.80 1.886699
1145.90 1.887335
1146.00 1.888988
1146.10 1.891396
1146.20 1.892479
1146.30 1.893083
1146.40 1.891403
1146.50 1.889261
1146.60 1.887696
1146.70 1.886749
1146.80 1.889416
1146.90 1.89172
1147.00 1.893322
1147.10 1.893123
1147.20 1.888161
1147.30 1.880915
1147.40 1.870085
1147.50 1.861827
1147.60 1.856706
1147.70 1.863921
1147.80 1.872788
1147.90 1.881788
1148.00 1.886408
1148.10 1.887667
1148.20 1.886033
1148.30 1.879907
1148.40 1.871537
1148.50 1.861791
1148.60 1.852342
1148.70 1.843329
1148.80 1.839471
1148.90 1.839482
1149.00 1.851089
1149.10 1.864594
1149.20 1.87738
1149.30 1.885608
1149.40 1.887881
1149.50 1.884989
1149.60 1.87785
1149.70 1.869564
1149.80 1.868532
1149.90 1.869226
1150.00 1.874098
1150.10 1.879324
1150.20 1.883547
1150.30 1.886644
1150.40 1.883227
1150.50 1.879653
1150.60 1.876069
1150.70 1.873707
1150.80 1.871681
1150.90 1.870266
1151.00 1.870188
1151.10 1.873034
1151.20 1.875784
1151.30 1.878471
1151.40 1.879719
1151.50 1.880427
1151.60 1.881057
1151.70 1.880618
1151.80 1.880241
1151.90 1.876919
1152.00 1.872646
1152.10 1.867925
1152.20 1.865418
1152.30 1.865898
1152.40 1.866115
1152.50 1.864947
1152.60 1.860942
1152.70 1.857359
1152.80 1.856424
1152.90 1.861011
1153.00 1.8702
1153.10 1.878405
1153.20 1.883953
1153.30 1.882392
1153.40 1.877956
1153.50 1.872464
1153.60 1.868958
1153.70 1.868878
1153.80 1.869015
1153.90 1.869614
1154.00 1.870824
1154.10 1.871734
1154.20 1.871556
1154.30 1.871159
1154.40 1.870506
1154.50 1.872794
1154.60 1.874534
1154.70 1.874389
1154.80 1.87305
1154.90 1.870453
1155.00 1.870356
1155.10 1.870052
1155.20 1.869662
1155.30 1.868386
1155.40 1.866374
1155.50 1.864352
1155.60 1.862713
1155.70 1.862641
1155.80 1.863724
1155.90 1.867209
1156.00 1.870485
1156.10 1.874119
1156.20 1.876276
1156.30 1.87505
1156.40 1.872932
1156.50 1.869708
1156.60 1.868682
1156.70 1.86789
1156.80 1.866969
1156.90 1.866014
1157.00 1.864204
1157.10 1.863661
1157.20 1.862346
1157.30 1.861635
1157.40 1.860403
1157.50 1.859508
1157.60 1.85935
1157.70 1.859542
1157.80 1.85988
1157.90 1.861217
1158.00 1.863278
1158.10 1.866609
1158.20 1.869409
1158.30 1.870934
1158.40 1.870837
1158.50 1.868896
1158.60 1.865513
1158.70 1.860716
1158.80 1.85625
1158.90 1.853362
1159.00 1.848572
1159.10 1.842569
1159.20 1.835501
1159.30 1.826693
1159.40 1.814946
1159.50 1.801261
1159.60 1.789676
1159.70 1.794428
1159.80 1.799214
1159.90 1.808996
1160.00 1.819086
1160.10 1.829969
1160.20 1.839429
1160.30 1.843833
1160.40 1.844102
1160.50 1.837904
1160.60 1.826231
1160.70 1.803209
1160.80 1.777365
1160.90 1.746373
1161.00 1.725536
1161.10 1.704562
1161.20 1.697677
1161.30 1.706204
1161.40 1.721987
1161.50 1.750214
1161.60 1.776751
1161.70 1.802713
1161.80 1.822038
1161.90 1.835945
1162.00 1.842934
1162.10 1.847023
1162.20 1.848702
1162.30 1.84856
1162.40 1.848684
1162.50 1.848515
1162.60 1.848464
1162.70 1.848237
1162.80 1.847791
1162.90 1.847416
1163.00 1.846879
1163.10 1.845613
1163.20 1.843591
1163.30 1.840124
1163.40 1.838011
1163.50 1.835076
1163.60 1.826521
1163.70 1.816578
1163.80 1.799118
1163.90 1.781229
1164.00 1.762259
1164.10 1.752693
1164.20 1.753105
1164.30 1.762135
1164.40 1.779562
1164.50 1.79859
1164.60 1.81456
1164.70 1.827779
1164.80 1.836665
1164.90 1.839479
1165.00 1.842188
1165.10 1.843512
1165.20 1.843537
1165.30 1.843225
1165.40 1.842114
1165.50 1.840181
1165.60 1.837307
1165.70 1.834036
1165.80 1.83136
1165.90 1.82961
1166.00 1.827849
1166.10 1.826557
1166.20 1.828745
1166.30 1.831847
1166.40 1.835486
1166.50 1.836786
1166.60 1.83704
1166.70 1.835624
1166.80 1.833293
1166.90 1.830791
1167.00 1.828269
1167.10 1.826198
1167.20 1.82503
1167.30 1.824306
1167.40 1.824159
1167.50 1.825326
1167.60 1.826543
1167.70 1.827476
1167.80 1.829041
1167.90 1.830479
1168.00 1.832209
1168.10 1.832203
1168.20 1.831234
1168.30 1.830431
1168.40 1.829726
1168.50 1.829439
1168.60 1.829052
1168.70 1.826474
1168.80 1.814029
1168.90 1.799546
1169.00 1.773702
1169.10 1.745844
1169.20 1.71595
1169.30 1.700018
1169.40 1.702606
1169.50 1.714496
1169.60 1.741004
1169.70 1.767255
1169.80 1.789404
1169.90 1.806797
1170.00 1.818975
1170.10 1.82312
1170.20 1.827139
1170.30 1.828493
1170.40 1.830267
1170.50 1.83214
1170.60 1.832891
1170.70 1.833086
1170.80 1.833025
1170.90 1.831543
1171.00 1.82997
1171.10 1.828276
1171.20 1.827664
1171.30 1.827768
1171.40 1.829291
1171.50 1.831027
1171.60 1.832744
1171.70 1.833412
1171.80 1.833492
1171.90 1.833173
1172.00 1.8317
1172.10 1.829735
1172.20 1.827269
1172.30 1.825139
1172.40 1.823403
1172.50 1.822452
1172.60 1.822255
1172.70 1.823712
1172.80 1.825486
1172.90 1.827341
1173.00 1.828472
1173.10 1.829663
1173.20 1.831108
1173.30 1.833006
1173.40 1.835256
1173.50 1.836012
1173.60 1.83529
1173.70 1.832859
1173.80 1.830016
1173.90 1.827504
1174.00 1.826244
1174.10 1.825595
1174.20 1.825453
1174.30 1.826376
1174.40 1.827568
1174.50 1.82936
1174.60 1.830638
1174.70 1.831692
1174.80 1.831251
1174.90 1.829318
1175.00 1.825752
1175.10 1.821949
1175.20 1.817732
1175.30 1.812737
1175.40 1.807911
1175.50 1.803554
1175.60 1.804784
1175.70 1.806562
1175.80 1.808642
1175.90 1.809732
1176.00 1.810516
1176.10 1.809984
1176.20 1.810472
1176.30 1.811955
1176.40 1.813961
1176.50 1.814949
1176.60 1.813293
1176.70 1.810598
1176.80 1.804255
1176.90 1.790093
1177.00 1.776418
1177.10 1.756068
1177.20 1.735126
1177.30 1.712123
1177.40 1.696886
1177.50 1.689989
1177.60 1.687476
1177.70 1.701218
1177.80 1.719101
1177.90 1.738927
1178.00 1.756269
1178.10 1.766607
1178.20 1.760825
1178.30 1.751986
1178.40 1.735625
1178.50 1.728798
1178.60 1.724505
1178.70 1.731156
1178.80 1.74327
1178.90 1.759574
1179.00 1.77684
1179.10 1.790271
1179.20 1.79469
1179.30 1.793678
1179.40 1.787521
1179.50 1.779059
1179.60 1.771702
1179.70 1.765293
1179.80 1.763494
1179.90 1.763265
1180.00 1.768338
1180.10 1.774914
1180.20 1.781907
1180.30 1.78892
1180.40 1.795228
1180.50 1.800737
1180.60 1.804768
1180.70 1.807367
1180.80 1.808601
1180.90 1.809686
1181.00 1.810293
1181.10 1.809554
1181.20 1.80845
1181.30 1.806353
1181.40 1.804284
1181.50 1.801856
1181.60 1.800163
1181.70 1.798524
1181.80 1.797112
1181.90 1.796029
1182.00 1.794162
1182.10 1.790217
1182.20 1.785873
1182.30 1.779982
1182.40 1.765208
1182.50 1.748734
1182.60 1.719897
1182.70 1.677129
1182.80 1.627335
1182.90 1.57504
1183.00 1.536771
1183.10 1.518687
1183.20 1.522585
1183.30 1.540678
1183.40 1.584906
1183.50 1.633063
1183.60 1.68474
1183.70 1.714276
1183.80 1.741109
1183.90 1.756135
1184.00 1.764952
1184.10 1.770783
1184.20 1.775108
1184.30 1.779388
1184.40 1.784188
1184.50 1.787689
1184.60 1.789993
1184.70 1.79164
1184.80 1.792816
1184.90 1.793884
1185.00 1.794731
1185.10 1.795798
1185.20 1.797444
1185.30 1.798669
1185.40 1.799211
1185.50 1.799369
1185.60 1.799666
1185.70 1.800212
1185.80 1.800487
1185.90 1.800501
1186.00 1.800296
1186.10 1.800183
1186.20 1.800026
1186.30 1.79862
1186.40 1.796984
1186.50 1.794425
1186.60 1.791886
1186.70 1.789647
1186.80 1.78886
1186.90 1.789158
1187.00 1.790405
1187.10 1.791073
1187.20 1.791585
1187.30 1.791357
1187.40 1.791148
1187.50 1.790918
1187.60 1.788922
1187.70 1.787638
1187.80 1.78528
1187.90 1.778303
1188.00 1.770814
1188.10 1.750185
1188.20 1.718669
1188.30 1.679496
1188.40 1.63633
1188.50 1.600789
1188.60 1.584087
1188.70 1.583141
1188.80 1.596952
1188.90 1.631551
1189.00 1.668493
1189.10 1.707167
1189.20 1.724241
1189.30 1.73779
1189.40 1.738087
1189.50 1.739191
1189.60 1.740586
1189.70 1.744865
1189.80 1.750877
1189.90 1.758933
1190.00 1.767256
1190.10 1.77512
1190.20 1.780346
1190.30 1.783175
1190.40 1.783115
1190.50 1.781791
1190.60 1.780711
1190.70 1.780802
1190.80 1.780956
1190.90 1.781173
1191.00 1.782271
1191.10 1.783342
1191.20 1.784279
1191.30 1.785068
1191.40 1.786012
1191.50 1.787347
1191.60 1.787891
1191.70 1.78802
1191.80 1.788018
1191.90 1.788448
1192.00 1.789404
1192.10 1.789098
1192.20 1.788493
1192.30 1.786358
1192.40 1.784587
1192.50 1.782894
1192.60 1.781435
1192.70 1.78055
1192.80 1.780933
1192.90 1.782005
1193.00 1.783387
1193.10 1.783976
1193.20 1.784376
1193.30 1.784569
1193.40 1.784159
1193.50 1.783924
1193.60 1.782483
1193.70 1.780641
1193.80 1.778297
1193.90 1.776017
1194.00 1.774396
1194.10 1.773754
1194.20 1.773586
1194.30 1.774315
1194.40 1.775118
1194.50 1.775259
1194.60 1.773514
1194.70 1.768143
1194.80 1.762496
1194.90 1.753302
1195.00 1.743984
1195.10 1.73367
1195.20 1.726867
1195.30 1.723026
1195.40 1.724314
1195.50 1.727591
1195.60 1.732624
1195.70 1.735677
1195.80 1.738581
1195.90 1.739388
1196.00 1.742729
1196.10 1.746841
1196.20 1.752209
1196.30 1.756382
1196.40 1.75982
1196.50 1.76199
1196.60 1.763105
1196.70 1.762895
1196.80 1.761528
1196.90 1.757992
1197.00 1.743258
1197.10 1.725429
1197.20 1.696097
1197.30 1.655419
1197.40 1.612394
1197.50 1.573946
1197.60 1.55757
1197.70 1.552477
1197.80 1.577275
1197.90 1.60651
1198.00 1.643039
1198.10 1.676685
1198.20 1.702151
1198.30 1.703896
1198.40 1.701037
1198.50 1.691738
1198.60 1.68568
1198.70 1.681214
1198.80 1.678478
1198.90 1.68194
1199.00 1.68844
1199.10 1.69248
1199.20 1.693524
1199.30 1.691365
1199.40 1.69024
1199.50 1.691442
1199.60 1.700032
1199.70 1.710832
1199.80 1.724378
1199.90 1.73376
1200.00 1.742412
