# Version 2.1 - nm, norm@500 to 1, cut digits
# Wavelength(nm)  Flambda(ergs/cm^s/s/nm)
300.00 0.01121652
300.10 0.0149099
300.20 0.01715877
300.30 0.01808818
300.40 0.01833101
300.50 0.01840179
300.60 0.01847265
300.70 0.0185443
300.80 0.01861965
300.90 0.01870432
301.00 0.01880449
301.10 0.01892292
301.20 0.01905684
301.30 0.01920007
301.40 0.01934696
301.50 0.01949459
301.60 0.01964221
301.70 0.01978983
301.80 0.01993745
301.90 0.02008508
302.00 0.0202327
302.10 0.02038032
302.20 0.02052794
302.30 0.02067556
302.40 0.02082318
302.50 0.02097081
302.60 0.02111843
302.70 0.0212666
302.80 0.02141756
302.90 0.02157558
303.00 0.02174537
303.10 0.02192902
303.20 0.02212443
303.30 0.0223269
303.40 0.02253216
303.50 0.02273797
303.60 0.02294379
303.70 0.0231496
303.80 0.02335541
303.90 0.02356122
304.00 0.02376703
304.10 0.02397285
304.20 0.02417866
304.30 0.02438447
304.40 0.02459028
304.50 0.0247961
304.60 0.02500191
304.70 0.02520603
304.80 0.02540164
304.90 0.02557564
305.00 0.02571366
305.10 0.02580929
305.20 0.02586893
305.30 0.02590697
305.40 0.0259365
305.50 0.02596433
305.60 0.02599217
305.70 0.02602
305.80 0.02604784
305.90 0.02607567
306.00 0.02610351
306.10 0.02613135
306.20 0.02615918
306.30 0.02618702
306.40 0.02621485
306.50 0.02624269
306.60 0.02627052
306.70 0.02629836
306.80 0.02632622
306.90 0.02635413
307.00 0.02638211
307.10 0.02641018
307.20 0.02643834
307.30 0.02646654
307.40 0.02649475
307.50 0.02652298
307.60 0.0265512
307.70 0.02657942
307.80 0.02660764
307.90 0.02663587
308.00 0.02666409
308.10 0.02669231
308.20 0.02672053
308.30 0.02674875
308.40 0.02677697
308.50 0.02680519
308.60 0.0268334
308.70 0.02686587
308.80 0.02691963
308.90 0.02702746
309.00 0.02722536
309.10 0.02752933
309.20 0.02792338
309.30 0.02837149
309.40 0.0288409
309.50 0.02931456
309.60 0.02978822
309.70 0.03026187
309.80 0.03073552
309.90 0.03120917
310.00 0.03168283
310.10 0.03215648
310.20 0.03263013
310.30 0.03310378
310.40 0.03357744
310.50 0.03405109
310.60 0.03452475
310.70 0.03499414
310.80 0.03544212
310.90 0.03583574
311.00 0.03613882
311.10 0.03633527
311.20 0.03644117
311.30 0.03649272
311.40 0.03652286
311.50 0.03654873
311.60 0.0365746
311.70 0.03660047
311.80 0.03662635
311.90 0.03665222
312.00 0.0366781
312.10 0.03670397
312.20 0.03672985
312.30 0.03675572
312.40 0.0367816
312.50 0.03680747
312.60 0.03683333
312.70 0.03686448
312.80 0.03692206
312.90 0.03704677
313.00 0.03728331
313.10 0.03765155
313.20 0.03813162
313.30 0.03867882
313.40 0.03925244
313.50 0.03983136
313.60 0.04041027
313.70 0.04098918
313.80 0.04156808
313.90 0.04214699
314.00 0.04272589
314.10 0.04330479
314.20 0.0438837
314.30 0.0444626
314.40 0.0450415
314.50 0.0456204
314.60 0.04619929
314.70 0.04678187
314.80 0.04738284
314.90 0.04803054
315.00 0.04875609
315.10 0.04957331
315.20 0.05046838
315.30 0.05141017
315.40 0.05237036
315.50 0.05333424
315.60 0.05429811
315.70 0.05526197
315.80 0.05622584
315.90 0.0571897
316.00 0.05815356
316.10 0.05911743
316.20 0.06008129
316.30 0.06104516
316.40 0.06200903
316.50 0.06297291
316.60 0.06393681
316.70 0.06488718
316.80 0.06576992
316.90 0.06648089
317.00 0.06690571
317.10 0.06699357
317.20 0.06679528
317.30 0.06642522
317.40 0.06598753
317.50 0.06553632
317.60 0.06508512
317.70 0.06463392
317.80 0.06418274
317.90 0.06373155
318.00 0.06328037
318.10 0.06282919
318.20 0.062378
318.30 0.06192682
318.40 0.06147563
318.50 0.06102443
318.60 0.06057323
318.70 0.06013237
318.80 0.05974329
318.90 0.05948569
319.00 0.05944714
319.10 0.05966653
319.20 0.06010496
319.30 0.06067488
319.40 0.06129657
319.50 0.06192862
319.60 0.06256065
319.70 0.06319268
319.80 0.0638247
319.90 0.06445672
320.00 0.06508874
320.10 0.06572076
320.20 0.06635278
320.30 0.0669848
320.40 0.06761682
320.50 0.06824885
320.60 0.06888088
320.70 0.06950908
320.80 0.07011813
320.90 0.07067855
321.00 0.07115796
321.10 0.07154197
321.20 0.07184497
321.30 0.07209933
321.40 0.07233455
321.50 0.07256594
321.60 0.07279733
321.70 0.07302872
321.80 0.07326012
321.90 0.07349152
322.00 0.07372291
322.10 0.07395431
322.20 0.07418571
322.30 0.0744171
322.40 0.07464849
322.50 0.07487987
322.60 0.07511123
322.70 0.07535659
322.80 0.07567188
322.90 0.07616479
323.00 0.07695363
323.10 0.07809092
323.20 0.07952414
323.30 0.08113499
323.40 0.08281577
323.50 0.08451054
323.60 0.08620529
323.70 0.08790003
323.80 0.08959477
323.90 0.09128951
324.00 0.09298424
324.10 0.09467898
324.20 0.09637372
324.30 0.09806845
324.40 0.09976319
324.50 0.1014579
324.60 0.1031527
324.70 0.1048451
324.80 0.1065262
324.90 0.1081785
325.00 0.1097827
325.10 0.1113303
325.20 0.1128298
325.30 0.1143004
325.40 0.1157597
325.50 0.1172168
325.60 0.1186738
325.70 0.1201308
325.80 0.1215878
325.90 0.1230449
326.00 0.1245019
326.10 0.1259589
326.20 0.127416
326.30 0.128873
326.40 0.13033
326.50 0.1317871
326.60 0.1332441
326.70 0.134706
326.80 0.1361924
326.90 0.137741
327.00 0.1393932
327.10 0.1411674
327.20 0.1430452
327.30 0.1449852
327.40 0.1469496
327.50 0.148919
327.60 0.1508884
327.70 0.1528578
327.80 0.1548271
327.90 0.1567965
328.00 0.1587658
328.10 0.1607352
328.20 0.1627046
328.30 0.1646739
328.40 0.1666433
328.50 0.1686127
328.60 0.1705821
328.70 0.1725228
328.80 0.1743199
328.90 0.175752
329.00 0.1765763
329.10 0.1766847
329.20 0.1761852
329.30 0.1753209
329.40 0.1743129
329.50 0.1732761
329.60 0.1722394
329.70 0.1712027
329.80 0.170166
329.90 0.1691294
330.00 0.1680927
330.10 0.167056
330.20 0.1660193
330.30 0.1649826
330.40 0.1639459
330.50 0.1629092
330.60 0.1618725
330.70 0.1608571
330.80 0.1599483
330.90 0.1593101
331.00 0.1591229
331.10 0.1594666
331.20 0.1602614
331.30 0.1613267
331.40 0.1624987
331.50 0.163692
331.60 0.1648852
331.70 0.1660785
331.80 0.1672717
331.90 0.1684649
332.00 0.1696581
332.10 0.1708514
332.20 0.1720446
332.30 0.1732378
332.40 0.1744311
332.50 0.1756243
332.60 0.1768176
332.70 0.1779973
332.80 0.1791096
332.90 0.1800505
333.00 0.1807059
333.10 0.1810251
333.20 0.1810588
333.30 0.1809211
333.40 0.180716
333.50 0.1804973
333.60 0.1802787
333.70 0.18006
333.80 0.1798414
333.90 0.1796228
334.00 0.1794041
334.10 0.1791855
334.20 0.1789669
334.30 0.1787482
334.40 0.1785295
334.50 0.1783108
334.60 0.1782741
334.70 0.1788313
334.80 0.1801409
334.90 0.1814711
335.00 0.1814287
335.10 0.1796337
335.20 0.1782788
335.30 0.1814634
335.40 0.1920367
335.50 0.2083804
335.60 0.2242369
335.70 0.2323479
335.80 0.2291366
335.90 0.2164792
336.00 0.1997033
336.10 0.184294
336.20 0.1740766
336.30 0.1706544
336.40 0.1727284
336.50 0.1762579
336.60 0.1768819
336.70 0.1735373
336.80 0.1698123
336.90 0.1711318
337.00 0.1801105
337.10 0.1940029
337.20 0.2062748
337.30 0.2110934
337.40 0.2074223
337.50 0.1996681
337.60 0.1943107
337.70 0.1950965
337.80 0.2008386
337.90 0.2075922
338.00 0.2123411
338.10 0.2142556
338.20 0.2128982
338.30 0.2068356
338.40 0.1955799
338.50 0.1824575
338.60 0.1740936
338.70 0.1756513
338.80 0.1860135
338.90 0.1981393
339.00 0.2047217
339.10 0.2041711
339.20 0.2015948
339.30 0.2037743
339.40 0.2129207
339.50 0.2252418
339.60 0.2350433
339.70 0.239513
339.80 0.2394399
339.90 0.2363937
340.00 0.2309996
340.10 0.2239032
340.20 0.216597
340.30 0.2102142
340.40 0.2039915
340.50 0.1960688
340.60 0.185998
340.70 0.1757792
340.80 0.1682762
340.90 0.1651181
341.00 0.1661956
341.10 0.1705144
341.20 0.1769284
341.30 0.1840912
341.40 0.1904164
341.50 0.1946913
341.60 0.1967962
341.70 0.1977579
341.80 0.1989684
341.90 0.2011575
342.00 0.2037448
342.10 0.2049541
342.20 0.2028939
342.30 0.1971479
342.40 0.1896312
342.50 0.1836209
342.60 0.1815537
342.70 0.1835069
342.80 0.1875154
342.90 0.1911235
343.00 0.1928955
343.10 0.1930602
343.20 0.1929769
343.30 0.1938134
343.40 0.1955287
343.50 0.1971132
343.60 0.1976578
343.70 0.1969126
343.80 0.1950713
343.90 0.1925896
344.00 0.1903005
344.10 0.1891675
344.20 0.189442
344.30 0.190239
344.40 0.1903139
344.50 0.1892537
344.60 0.187812
344.70 0.1872489
344.80 0.1885271
344.90 0.1919868
345.00 0.197448
345.10 0.2043461
345.20 0.211762
345.30 0.2184232
345.40 0.2229075
345.50 0.2243285
345.60 0.2230755
345.70 0.220749
345.80 0.2190661
345.90 0.21866
346.00 0.2187968
346.10 0.2180173
346.20 0.215156
346.30 0.2102579
346.40 0.2048734
346.50 0.2011564
346.60 0.2001518
346.70 0.2008876
346.80 0.2012782
346.90 0.1998228
347.00 0.1963784
347.10 0.1918728
347.20 0.1878456
347.30 0.1860134
347.40 0.1874676
347.50 0.1918143
347.60 0.1973579
347.70 0.2024041
347.80 0.2063937
347.90 0.2098849
348.00 0.213673
348.10 0.2179005
348.20 0.2217707
348.30 0.2240743
348.40 0.2241698
348.50 0.2225449
348.60 0.2203143
348.70 0.2182025
348.80 0.216204
348.90 0.2140849
349.00 0.2118571
349.10 0.2097184
349.20 0.2078463
349.30 0.2064956
349.40 0.2061232
349.50 0.2070208
349.60 0.2087437
349.70 0.2101779
349.80 0.2105262
349.90 0.2104287
350.00 0.2118865
350.10 0.216685
350.20 0.2246827
350.30 0.2336315
350.40 0.2407108
350.50 0.2443104
350.60 0.244561
350.70 0.2425799
350.80 0.239521
350.90 0.2360298
351.00 0.2319921
351.10 0.2265876
351.20 0.2189309
351.30 0.2092103
351.40 0.1993104
351.50 0.1919057
351.60 0.1885658
351.70 0.1886488
351.80 0.1900467
351.90 0.1909428
352.00 0.190826
352.10 0.1900649
352.20 0.1890879
352.30 0.1882664
352.40 0.1883981
352.50 0.1909445
352.60 0.1972286
352.70 0.2070663
352.80 0.2182442
352.90 0.2277541
353.00 0.2340088
353.10 0.2378558
353.20 0.2412778
353.30 0.2453738
353.40 0.2498757
353.50 0.2542449
353.60 0.258591
353.70 0.2633291
353.80 0.2684525
353.90 0.2735056
354.00 0.2778924
354.10 0.2808386
354.20 0.2814104
354.30 0.2792344
354.40 0.2753059
354.50 0.2716501
354.60 0.2698094
354.70 0.2697057
354.80 0.2700676
354.90 0.269765
355.00 0.2685864
355.10 0.2669861
355.20 0.2654477
355.30 0.2641947
355.40 0.2633355
355.50 0.262917
355.60 0.2626745
355.70 0.2618671
355.80 0.2596224
355.90 0.2556621
356.00 0.2506329
356.10 0.2455808
356.20 0.2410545
356.30 0.2366671
356.40 0.2315204
356.50 0.225181
356.60 0.2183912
356.70 0.2128035
356.80 0.2098289
356.90 0.2095941
357.00 0.2109525
357.10 0.2123709
357.20 0.2127309
357.30 0.2115559
357.40 0.2088715
357.50 0.2050543
357.60 0.2007228
357.70 0.1965204
357.80 0.1928539
357.90 0.1898023
358.00 0.1873422
358.10 0.1857428
358.20 0.1856698
358.30 0.1877494
358.40 0.1919397
358.50 0.197304
358.60 0.202374
358.70 0.2057781
358.80 0.2068126
358.90 0.2057822
359.00 0.2040215
359.10 0.2033943
359.20 0.2052677
359.30 0.2095586
359.40 0.2146244
359.50 0.218291
359.60 0.2193272
359.70 0.2182085
359.80 0.2165785
359.90 0.2158599
360.00 0.2161242
360.10 0.2160949
360.20 0.2142367
360.30 0.209989
360.40 0.2042369
360.50 0.1988693
360.60 0.1959027
360.70 0.1966794
360.80 0.2012615
360.90 0.2082908
361.00 0.2156553
361.10 0.2216919
361.20 0.2259738
361.30 0.2289839
361.40 0.2311404
361.50 0.232353
361.60 0.2325989
361.70 0.2325497
361.80 0.2332056
361.90 0.2348804
362.00 0.2368263
362.10 0.2380177
362.20 0.2380939
362.30 0.237462
362.40 0.2368045
362.50 0.236691
362.60 0.2373113
362.70 0.2381477
362.80 0.2380676
362.90 0.236224
363.00 0.2330429
363.10 0.2300962
363.20 0.2288355
363.30 0.2295101
363.40 0.231272
363.50 0.2330647
363.60 0.234302
363.70 0.2349262
363.80 0.2350563
363.90 0.2346434
364.00 0.2333854
364.10 0.2309366
364.20 0.2272581
364.30 0.2228122
364.40 0.2184648
364.50 0.2152038
364.60 0.213757
364.70 0.2141862
364.80 0.2157989
364.90 0.2176723
365.00 0.2194958
365.10 0.2218852
365.20 0.2256232
365.30 0.2304947
365.40 0.2350025
365.50 0.2374043
365.60 0.2371493
365.70 0.2352958
365.80 0.233491
365.90 0.2326349
366.00 0.2325425
366.10 0.2326952
366.20 0.2330574
366.30 0.2340051
366.40 0.2356358
366.50 0.2373899
366.60 0.2383441
366.70 0.2378082
366.80 0.2356849
366.90 0.2324175
367.00 0.2287577
367.10 0.2255596
367.20 0.2235991
367.30 0.2233746
367.40 0.2248913
367.50 0.2276174
367.60 0.230744
367.70 0.2336054
367.80 0.235956
367.90 0.2379251
368.00 0.2397434
368.10 0.2414652
368.20 0.2428714
368.30 0.2435764
368.40 0.2432781
368.50 0.2420425
368.60 0.2404211
368.70 0.2392224
368.80 0.2390188
368.90 0.239797
369.00 0.241117
369.10 0.2426306
369.20 0.2443197
369.30 0.2461677
369.40 0.2477418
369.50 0.2483003
369.60 0.2474352
369.70 0.2455726
369.80 0.2438244
369.90 0.2433582
370.00 0.2447911
370.10 0.247948
370.20 0.2520595
370.30 0.2561763
370.40 0.2594962
370.50 0.2614988
370.60 0.262004
370.70 0.2613145
370.80 0.2602343
370.90 0.2597103
371.00 0.2602171
371.10 0.2613643
371.20 0.2620433
371.30 0.2610012
371.40 0.25754
371.50 0.2519806
371.60 0.2456151
371.70 0.2401026
371.80 0.2367115
371.90 0.2359085
372.00 0.2373971
372.10 0.2402042
372.20 0.2426119
372.30 0.2424571
372.40 0.2381319
372.50 0.2298435
372.60 0.2199954
372.70 0.2121106
372.80 0.209037
372.90 0.2117001
373.00 0.2190334
373.10 0.2287537
373.20 0.2383074
373.30 0.2455617
373.40 0.2492319
373.50 0.2489729
373.60 0.245143
373.70 0.2384626
373.80 0.2298609
373.90 0.2205614
374.00 0.2120981
374.10 0.206049
374.20 0.2036345
374.30 0.2055023
374.40 0.2117776
374.50 0.2221086
374.60 0.2355365
374.70 0.250312
374.80 0.2640059
374.90 0.2741252
375.00 0.2789684
375.10 0.2781732
375.20 0.2726573
375.30 0.2641401
375.40 0.2546157
375.50 0.2459335
375.60 0.2393581
375.70 0.2352307
375.80 0.2329897
375.90 0.2316364
376.00 0.2304283
376.10 0.2294236
376.20 0.2295982
376.30 0.2324418
376.40 0.2392309
376.50 0.2504797
376.60 0.2659261
376.70 0.2847011
376.80 0.3052085
376.90 0.32479
377.00 0.3399435
377.10 0.3475228
377.20 0.3461765
377.30 0.3368731
377.40 0.322188
377.50 0.3050858
377.60 0.2880727
377.70 0.2729527
377.80 0.2607628
377.90 0.2517189
378.00 0.2453454
378.10 0.2408861
378.20 0.2377477
378.30 0.2356098
378.40 0.2342503
378.50 0.2334861
378.60 0.233346
378.70 0.2341675
378.80 0.2364516
378.90 0.2407595
379.00 0.2478826
379.10 0.2589398
379.20 0.2749134
379.30 0.2957896
379.40 0.320027
379.50 0.3447785
379.60 0.3665488
379.70 0.3818898
379.80 0.3881821
379.90 0.3844501
380.00 0.3718622
380.10 0.3533898
380.20 0.3326754
380.30 0.3127836
380.40 0.2955571
380.50 0.2816624
380.60 0.2709524
380.70 0.2627778
380.80 0.2562179
380.90 0.2504805
381.00 0.2452917
381.10 0.2408853
381.20 0.2375317
381.30 0.2350948
381.40 0.2331636
381.50 0.2316336
381.60 0.2309346
381.70 0.2314835
381.80 0.2329146
381.90 0.2340018
382.00 0.2335501
382.10 0.2314759
382.20 0.2289811
382.30 0.2289785
382.40 0.2365947
382.50 0.2585092
382.60 0.2975144
382.70 0.3403535
382.80 0.359914
382.90 0.3414654
383.00 0.305465
383.10 0.2943264
383.20 0.3276298
383.30 0.3806078
383.40 0.4136379
383.50 0.4164799
383.60 0.4108778
383.70 0.4134528
383.80 0.4104867
383.90 0.378679
384.00 0.3215704
384.10 0.2681174
384.20 0.2418435
384.30 0.2416618
384.40 0.2528891
384.50 0.2641748
384.60 0.2674975
384.70 0.2576919
384.80 0.2374244
384.90 0.2186959
385.00 0.2148104
385.10 0.2295536
385.20 0.2520449
385.30 0.2636848
385.40 0.2509275
385.50 0.2171809
385.60 0.1808889
385.70 0.1588788
385.80 0.1564343
385.90 0.1714894
386.00 0.2024764
386.10 0.249851
386.20 0.3096267
386.30 0.3645912
386.40 0.3892754
386.50 0.3724886
386.60 0.3371001
386.70 0.3250426
386.80 0.3531244
386.90 0.3918121
387.00 0.3956604
387.10 0.3513857
387.20 0.2881935
387.30 0.2457468
387.40 0.2384104
387.50 0.2509246
387.60 0.2621724
387.70 0.2691469
387.80 0.284987
387.90 0.3129344
388.00 0.3329112
388.10 0.3239027
388.20 0.2943684
388.30 0.2745374
388.40 0.2796275
388.50 0.2957986
388.60 0.3050443
388.70 0.3088727
388.80 0.3203296
388.90 0.345701
389.00 0.379685
389.10 0.4100759
389.20 0.4240999
389.30 0.4176922
389.40 0.4052466
389.50 0.4112509
389.60 0.4435425
389.70 0.4804755
389.80 0.4912184
389.90 0.4641689
390.00 0.4153932
390.10 0.3682137
390.20 0.333673
390.30 0.3164748
390.40 0.3225677
390.50 0.3479827
390.60 0.367079
390.70 0.349028
390.80 0.2946292
390.90 0.2437935
391.00 0.2358777
391.10 0.2714909
391.20 0.3195411
391.30 0.3526312
391.40 0.3649594
391.50 0.3618718
391.60 0.345223
391.70 0.3158061
391.80 0.2815641
391.90 0.2542803
392.00 0.2379245
392.10 0.2301061
392.20 0.2328596
392.30 0.2512263
392.40 0.2776615
392.50 0.2904108
392.60 0.2749049
392.70 0.2399065
392.80 0.2077487
392.90 0.1926695
393.00 0.1950346
393.10 0.2080819
393.20 0.2222586
393.30 0.2260696
393.40 0.2103109
393.50 0.1787628
393.60 0.148875
393.70 0.1409159
393.80 0.1647321
393.90 0.2155173
394.00 0.2791144
394.10 0.335218
394.20 0.3621806
394.30 0.3475858
394.40 0.2990182
394.50 0.2467519
394.60 0.2274623
394.70 0.2560598
394.80 0.3107991
394.90 0.3520793
395.00 0.3582449
395.10 0.3431341
395.20 0.3317185
395.30 0.3318836
395.40 0.3381142
395.50 0.3479147
395.60 0.3578518
395.70 0.3549151
395.80 0.331078
395.90 0.3022413
396.00 0.2960348
396.10 0.3196838
396.20 0.3533516
396.30 0.3729192
396.40 0.3679427
396.50 0.3425912
396.60 0.3115226
396.70 0.2949559
396.80 0.3065672
396.90 0.337953
397.00 0.3602871
397.10 0.3485994
397.20 0.3060074
397.30 0.2617829
397.40 0.2452849
397.50 0.2621935
397.60 0.2964592
397.70 0.3309627
397.80 0.362458
397.90 0.3974385
398.00 0.4368344
398.10 0.470626
398.20 0.4868168
398.30 0.4847343
398.40 0.4741031
398.50 0.4636786
398.60 0.454153
398.70 0.4395406
398.80 0.4145255
398.90 0.3807903
399.00 0.3528792
399.10 0.3486653
399.20 0.3736483
399.30 0.4168388
399.40 0.4628733
399.50 0.5000599
399.60 0.516812
399.70 0.5065104
399.80 0.481562
399.90 0.4710462
400.00 0.4902335
400.10 0.5211755
400.20 0.533031
400.30 0.5169419
400.40 0.4922151
400.50 0.4800361
400.60 0.4795855
400.70 0.4732018
400.80 0.4509223
400.90 0.4240487
401.00 0.415945
401.10 0.4379986
401.20 0.4765495
401.30 0.5057834
401.40 0.5120888
401.50 0.5050913
401.60 0.5014447
401.70 0.5037549
401.80 0.4995951
401.90 0.4813839
402.00 0.4589825
402.10 0.4508202
402.20 0.4665366
402.30 0.5002044
402.40 0.5360779
402.50 0.558129
402.60 0.558048
402.70 0.5371075
402.80 0.501236
402.90 0.4548407
403.00 0.4004917
403.10 0.3453042
403.20 0.3010282
403.30 0.2744517
403.40 0.2631266
403.50 0.2624913
403.60 0.277276
403.70 0.3204893
403.80 0.3953894
403.90 0.4801212
404.00 0.5376166
404.10 0.5442985
404.20 0.5063195
404.30 0.446921
404.40 0.3865034
404.50 0.3408121
404.60 0.3229702
404.70 0.3342408
404.80 0.3595852
404.90 0.3833059
405.00 0.40459
405.10 0.4301854
405.20 0.4576474
405.30 0.4760955
405.40 0.4806197
405.50 0.4755214
405.60 0.4651572
405.70 0.4490305
405.80 0.4278894
405.90 0.4103359
406.00 0.4065902
406.10 0.4159933
406.20 0.4260611
406.30 0.4255742
406.40 0.4148087
406.50 0.4003051
406.60 0.3877565
406.70 0.3834613
406.80 0.3934053
406.90 0.412247
407.00 0.4202018
407.10 0.4017284
407.20 0.3649818
407.30 0.3343714
407.40 0.3249406
407.50 0.3318227
407.60 0.3429744
407.70 0.3536153
407.80 0.3671404
407.90 0.3898465
408.00 0.4274695
408.10 0.478218
408.20 0.5266847
408.30 0.553238
408.40 0.5532643
408.50 0.5432307
408.60 0.5416483
408.70 0.551078
408.80 0.5608528
408.90 0.5601891
409.00 0.5452364
409.10 0.5197305
409.20 0.4940033
409.30 0.4797856
409.40 0.4816956
409.50 0.4923587
409.60 0.4979673
409.70 0.4887456
409.80 0.4677397
409.90 0.4498484
410.00 0.4488298
410.10 0.4623
410.20 0.4741139
410.30 0.4758054
410.40 0.4780555
410.50 0.4950007
410.60 0.5236413
410.70 0.5484453
410.80 0.561473
410.90 0.5690218
411.00 0.5750715
411.10 0.5720432
411.20 0.5533411
411.30 0.528461
411.40 0.5169118
411.50 0.5250851
411.60 0.5364309
411.70 0.5277442
411.80 0.4958231
411.90 0.4662263
412.00 0.4696102
412.10 0.5115443
412.20 0.5660069
412.30 0.5984331
412.40 0.59595
412.50 0.5759257
412.60 0.5641131
412.70 0.5669503
412.80 0.5695791
412.90 0.5569321
413.00 0.5310762
413.10 0.5037054
413.20 0.4799346
413.30 0.4588157
413.40 0.4426394
413.50 0.43566
413.60 0.4347744
413.70 0.4309416
413.80 0.4224163
413.90 0.4182571
414.00 0.4235174
414.10 0.4288094
414.20 0.4214075
414.30 0.4011208
414.40 0.3817421
414.50 0.3756627
414.60 0.3839745
414.70 0.4008623
414.80 0.4214736
414.90 0.4406231
415.00 0.4493479
415.10 0.4408118
415.20 0.422405
415.30 0.4165286
415.40 0.440312
415.50 0.4840383
415.60 0.519222
415.70 0.5304115
415.80 0.5304376
415.90 0.5386979
416.00 0.5550097
416.10 0.5637517
416.20 0.5582224
416.30 0.5475312
416.40 0.5390403
416.50 0.5270598
416.60 0.5046861
416.70 0.4780254
416.80 0.4615139
416.90 0.4605233
417.00 0.4660892
417.10 0.466323
417.20 0.4579338
417.30 0.4464028
417.40 0.439143
417.50 0.4429348
417.60 0.4616627
417.70 0.4918689
417.80 0.5210651
417.90 0.5346405
418.00 0.524864
418.10 0.4948855
418.20 0.4569518
418.30 0.4268182
418.40 0.4149709
418.50 0.4183395
418.60 0.4242139
418.70 0.4249312
418.80 0.427618
418.90 0.4430856
419.00 0.4685759
419.10 0.49017
419.20 0.5017435
419.30 0.5144558
419.40 0.5410147
419.50 0.5745671
419.60 0.5911932
419.70 0.5743545
419.80 0.5312525
419.90 0.4830713
420.00 0.4458336
420.10 0.422916
420.20 0.4104151
420.30 0.4044269
420.40 0.4036091
420.50 0.4102773
420.60 0.4293746
420.70 0.4603402
420.80 0.4916842
420.90 0.5084766
421.00 0.5068942
421.10 0.499043
421.20 0.5023203
421.30 0.5212686
421.40 0.5406009
421.50 0.5366188
421.60 0.4955176
421.70 0.4251731
421.80 0.3497164
421.90 0.2924756
422.00 0.2632377
422.10 0.256964
422.20 0.2599844
422.30 0.25826
422.40 0.244122
422.50 0.2196753
422.60 0.1960343
422.70 0.1860837
422.80 0.1942331
422.90 0.2152219
423.00 0.2390762
423.10 0.2578514
423.20 0.2686867
423.30 0.273915
423.40 0.2785692
423.50 0.28563
423.60 0.2924939
423.70 0.2949146
423.80 0.2971113
423.90 0.3111431
424.00 0.3438247
424.10 0.3869621
424.20 0.4237626
424.30 0.4443044
424.40 0.451154
424.50 0.4502976
424.60 0.4439185
424.70 0.432432
424.80 0.4168355
424.90 0.3969943
425.00 0.3722197
425.10 0.3461983
425.20 0.3293505
425.30 0.3310146
425.40 0.3511439
425.50 0.3820427
425.60 0.413059
425.70 0.43429
425.80 0.4403137
425.90 0.4345621
426.00 0.429655
426.10 0.4373673
426.20 0.4576205
426.30 0.4792291
426.40 0.4915545
426.50 0.493011
426.60 0.4901095
426.70 0.4903963
426.80 0.4960399
426.90 0.5024884
427.00 0.5009408
427.10 0.4858285
427.20 0.4622275
427.30 0.4414861
427.40 0.4301031
427.50 0.4258412
427.60 0.4251955
427.70 0.4293975
427.80 0.4403929
427.90 0.4531017
428.00 0.4575839
428.10 0.4481936
428.20 0.4280045
428.30 0.4055393
428.40 0.3889386
428.50 0.383598
428.60 0.3910587
428.70 0.405391
428.80 0.4126075
428.90 0.4002625
429.00 0.3704859
429.10 0.3402674
429.20 0.3274772
429.30 0.3394993
429.40 0.3726852
429.50 0.4157702
429.60 0.451713
429.70 0.4655408
429.80 0.4567368
429.90 0.4404977
430.00 0.4317719
430.10 0.430898
430.20 0.4285233
430.30 0.4216085
430.40 0.4179995
430.50 0.424064
430.60 0.4334083
430.70 0.4323276
430.80 0.4163519
430.90 0.3964713
431.00 0.3869858
431.10 0.3906907
431.20 0.4017468
431.30 0.4204243
431.40 0.4541335
431.50 0.5007241
431.60 0.5407247
431.70 0.5548501
431.80 0.5454503
431.90 0.5327445
432.00 0.5304971
432.10 0.5336436
432.20 0.5301843
432.30 0.5176853
432.40 0.5039262
432.50 0.4966705
432.60 0.4967308
432.70 0.4993481
432.80 0.5004187
432.90 0.5005949
433.00 0.5046962
433.10 0.516971
433.20 0.5356886
433.30 0.5530835
433.40 0.5610587
433.50 0.5567549
433.60 0.5423924
433.70 0.5227871
433.80 0.5044363
433.90 0.4950492
434.00 0.5016134
434.10 0.5221467
434.20 0.5432632
434.30 0.5493756
434.40 0.5358986
434.50 0.5122999
434.60 0.4938472
434.70 0.4917899
434.80 0.5085381
434.90 0.537456
435.00 0.5639212
435.10 0.5727973
435.20 0.5584895
435.30 0.5289903
435.40 0.5008833
435.50 0.487428
435.60 0.4890592
435.70 0.4946079
435.80 0.4934156
435.90 0.4853607
436.00 0.4790046
436.10 0.4822897
436.20 0.4980477
436.30 0.5265934
436.40 0.5665021
436.50 0.6094324
436.60 0.6407617
436.70 0.6495314
436.80 0.6365222
436.90 0.6120322
437.00 0.5881511
437.10 0.5728132
437.20 0.5678674
437.30 0.5695942
437.40 0.5712051
437.50 0.5683492
437.60 0.5626664
437.70 0.5593164
437.80 0.5617017
437.90 0.5678395
438.00 0.5702865
438.10 0.5597318
438.20 0.5319892
438.30 0.4941276
438.40 0.4647446
438.50 0.4619991
438.60 0.4876962
438.70 0.5253675
438.80 0.5548345
438.90 0.5691321
439.00 0.5749298
439.10 0.579964
439.20 0.5861382
439.30 0.5922382
439.40 0.5973811
439.50 0.600114
439.60 0.5987052
439.70 0.5963075
439.80 0.6002799
439.90 0.6123847
440.00 0.6225083
440.10 0.61643
440.20 0.591255
440.30 0.560934
440.40 0.544446
440.50 0.5490604
440.60 0.5676027
440.70 0.5885634
440.80 0.6075772
440.90 0.626087
441.00 0.6417277
441.10 0.6490047
441.20 0.6463961
441.30 0.6388886
441.40 0.6309892
441.50 0.6226314
441.60 0.6161365
441.70 0.6200836
441.80 0.6406405
441.90 0.6721498
442.00 0.6998534
442.10 0.7118751
442.20 0.7061058
442.30 0.6871333
442.40 0.661618
442.50 0.6373966
442.60 0.6234287
442.70 0.625868
442.80 0.6432216
442.90 0.6656265
443.00 0.6827121
443.10 0.6924249
443.20 0.6995896
443.30 0.7068644
443.40 0.7089452
443.50 0.699339
443.60 0.6815457
443.70 0.6692955
443.80 0.6730221
443.90 0.6879991
444.00 0.701118
444.10 0.7069799
444.20 0.7138172
444.30 0.7319229
444.40 0.761703
444.50 0.7934699
444.60 0.8148809
444.70 0.8182283
444.80 0.805175
444.90 0.7874735
445.00 0.7785293
445.10 0.7785193
445.20 0.7710216
445.30 0.7395338
445.40 0.6878648
445.50 0.6413138
445.60 0.6258344
445.70 0.6461592
445.80 0.6827391
445.90 0.710088
446.00 0.719091
446.10 0.7226758
446.20 0.7386913
446.30 0.7692341
446.40 0.8002502
446.50 0.8198281
446.60 0.8291403
446.70 0.8341753
446.80 0.8364459
446.90 0.8348724
447.00 0.831361
447.10 0.8287544
447.20 0.8253968
447.30 0.8189222
447.40 0.8136345
447.50 0.8185209
447.60 0.8363263
447.70 0.8567788
447.80 0.8637473
447.90 0.850942
448.00 0.8292066
448.10 0.8159982
448.20 0.8204187
448.30 0.8365216
448.40 0.8510732
448.50 0.8570007
448.60 0.8574078
448.70 0.8596472
448.80 0.8668797
448.90 0.8754549
449.00 0.8799999
449.10 0.8793425
449.20 0.8764086
449.30 0.8732716
449.40 0.8678718
449.50 0.8569217
449.60 0.8422126
449.70 0.8321239
449.80 0.8351292
449.90 0.8521085
450.00 0.8751526
450.10 0.8951535
450.20 0.9099573
450.30 0.9221491
450.40 0.9302135
450.50 0.9255523
450.60 0.901092
450.70 0.8623561
450.80 0.8271735
450.90 0.8134645
451.00 0.8258777
451.10 0.8519169
451.20 0.8706459
451.30 0.8696649
451.40 0.8564839
451.50 0.850995
451.60 0.8660257
451.70 0.8956632
451.80 0.9238166
451.90 0.940879
452.00 0.9489798
452.10 0.9551217
452.20 0.9633039
452.30 0.9707776
452.40 0.9672401
452.50 0.9404718
452.60 0.8884134
452.70 0.8280239
452.80 0.7866954
452.90 0.7804541
453.00 0.8021621
453.10 0.8284392
453.20 0.8364463
453.30 0.8169745
453.40 0.7784907
453.50 0.7432947
453.60 0.7359535
453.70 0.7687808
453.80 0.8332714
453.90 0.9058273
454.00 0.9641575
454.10 0.9999899
454.20 1.017136
454.30 1.019861
454.40 1.008453
454.50 0.985068
454.60 0.9568869
454.70 0.9294297
454.80 0.9029292
454.90 0.8796952
455.00 0.8683771
455.10 0.8748937
455.20 0.8913692
455.30 0.9028451
455.40 0.9055761
455.50 0.9128776
455.60 0.9397575
455.70 0.9851905
455.80 1.032256
455.90 1.064031
456.00 1.078003
456.10 1.084562
456.20 1.094433
456.30 1.109945
456.40 1.127657
456.50 1.145326
456.60 1.16266
456.70 1.175758
456.80 1.176469
456.90 1.160701
457.00 1.134322
457.10 1.10879
457.20 1.092535
457.30 1.08809
457.40 1.094935
457.50 1.109216
457.60 1.121058
457.70 1.118566
457.80 1.097813
457.90 1.067871
458.00 1.045384
458.10 1.042796
458.20 1.057868
458.30 1.072177
458.40 1.062871
458.50 1.021545
458.60 0.9630646
458.70 0.9143556
458.80 0.8939611
458.90 0.9017301
459.00 0.9241443
459.10 0.946617
459.20 0.9633152
459.30 0.9777907
459.40 0.9945265
459.50 1.012372
459.60 1.027261
459.70 1.03797
459.80 1.045473
459.90 1.047722
460.00 1.040668
460.10 1.026245
460.20 1.014252
460.30 1.013151
460.40 1.021472
460.50 1.030206
460.60 1.033923
460.70 1.036994
460.80 1.047731
460.90 1.068518
461.00 1.094029
461.10 1.118113
461.20 1.138144
461.30 1.152709
461.40 1.160059
461.50 1.161359
461.60 1.163302
461.70 1.174691
461.80 1.199393
461.90 1.233607
462.00 1.26674
462.10 1.284514
462.20 1.277134
462.30 1.246401
462.40 1.203193
462.50 1.157574
462.60 1.113282
462.70 1.073248
462.80 1.045384
462.90 1.036709
463.00 1.043823
463.10 1.053586
463.20 1.054632
463.30 1.047164
463.40 1.039355
463.50 1.035697
463.60 1.03286
463.70 1.028279
463.80 1.027715
463.90 1.038588
464.00 1.057788
464.10 1.07318
464.20 1.077834
464.30 1.075754
464.40 1.070542
464.50 1.056006
464.60 1.025819
464.70 0.988303
464.80 0.9637476
464.90 0.964517
465.00 0.9823188
465.10 0.9990707
465.20 1.007892
465.30 1.01865
465.40 1.041958
465.50 1.073623
465.60 1.100627
465.70 1.119422
465.80 1.13995
465.90 1.16934
466.00 1.198892
466.10 1.212399
466.20 1.203801
466.30 1.182854
466.40 1.165666
466.50 1.161696
466.60 1.166049
466.70 1.163018
466.80 1.139094
466.90 1.094848
467.00 1.043619
467.10 0.9977497
467.20 0.9614094
467.30 0.9367351
467.40 0.9297197
467.50 0.9461902
467.60 0.9837406
467.70 1.029704
467.80 1.067334
467.90 1.084173
468.00 1.077482
468.10 1.055863
468.20 1.032709
468.30 1.017104
468.40 1.011819
468.50 1.016733
468.60 1.03189
468.70 1.056599
468.80 1.086165
468.90 1.112085
469.00 1.126872
469.10 1.129108
469.20 1.125823
469.30 1.126812
469.40 1.134197
469.50 1.140396
469.60 1.137789
469.70 1.128565
469.80 1.122814
469.90 1.126595
470.00 1.135198
470.10 1.139739
470.20 1.138106
470.30 1.138381
470.40 1.150096
470.50 1.171188
470.60 1.186549
470.70 1.183839
470.80 1.169767
470.90 1.164851
471.00 1.180097
471.10 1.202655
471.20 1.207013
471.30 1.178329
471.40 1.124202
471.50 1.067379
471.60 1.029577
471.70 1.019229
471.80 1.030345
471.90 1.050638
472.00 1.069282
472.10 1.079925
472.20 1.080864
472.30 1.07538
472.40 1.071248
472.50 1.075804
472.60 1.089061
472.70 1.102494
472.80 1.10706
472.90 1.104255
473.00 1.106375
473.10 1.121894
473.20 1.143487
473.30 1.155208
473.40 1.15071
473.50 1.1388
473.60 1.130737
473.70 1.129329
473.80 1.132283
473.90 1.139052
474.00 1.150101
474.10 1.162775
474.20 1.172674
474.30 1.178475
474.40 1.183552
474.50 1.192466
474.60 1.205542
474.70 1.217228
474.80 1.221717
474.90 1.220182
475.00 1.218994
475.10 1.221171
475.20 1.223131
475.30 1.221223
475.40 1.216378
475.50 1.210258
475.60 1.200434
475.70 1.181796
475.80 1.15203
475.90 1.113505
476.00 1.070441
476.10 1.025497
476.20 0.9791352
476.30 0.9325839
476.40 0.8903957
476.50 0.8586088
476.60 0.841642
476.70 0.8393246
476.80 0.8449722
476.90 0.8479349
477.00 0.8413181
477.10 0.8290743
477.20 0.8239279
477.30 0.8354785
477.40 0.8603197
477.50 0.8848728
477.60 0.8964196
477.70 0.8913016
477.80 0.8743552
477.90 0.8530824
478.00 0.8331462
478.10 0.8186634
478.20 0.8140786
478.30 0.8237307
478.40 0.848634
478.50 0.882605
478.60 0.9139426
478.70 0.9332801
478.80 0.9394686
478.90 0.9375248
479.00 0.9326474
479.10 0.9287673
479.20 0.932015
479.30 0.9489021
479.40 0.9780949
479.50 1.00855
479.60 1.029132
479.70 1.038337
479.80 1.042856
479.90 1.049319
480.00 1.060787
480.10 1.07744
480.20 1.094359
480.30 1.100471
480.40 1.085066
480.50 1.047078
480.60 0.9959614
480.70 0.9438859
480.80 0.9005482
480.90 0.8739028
481.00 0.8689182
481.10 0.8831298
481.20 0.9066263
481.30 0.9292037
481.40 0.9470763
481.50 0.9611553
481.60 0.9719135
481.70 0.9789769
481.80 0.9835173
481.90 0.9882167
482.00 0.9950473
482.10 1.00427
482.20 1.015234
482.30 1.024797
482.40 1.026055
482.50 1.014279
482.60 0.9955025
482.70 0.9855147
482.80 0.9950263
482.90 1.016535
483.00 1.031507
483.10 1.031158
483.20 1.025304
483.30 1.028306
483.40 1.040175
483.50 1.048402
483.60 1.047582
483.70 1.047626
483.80 1.059335
483.90 1.078367
484.00 1.089209
484.10 1.08353
484.20 1.06771
484.30 1.05264
484.40 1.043125
484.50 1.038251
484.60 1.036526
484.70 1.037259
484.80 1.03835
484.90 1.036277
485.00 1.028789
485.10 1.015824
485.20 0.9989603
485.30 0.9811381
485.40 0.9664842
485.50 0.9590875
485.60 0.9606721
485.70 0.969279
485.80 0.9805269
485.90 0.98997
486.00 0.9946567
486.10 0.9930499
486.20 0.9849871
486.30 0.9733138
486.40 0.9639868
486.50 0.9629712
486.60 0.9726842
486.70 0.991153
486.80 1.014055
486.90 1.036429
487.00 1.052865
487.10 1.059053
487.20 1.054875
487.30 1.045299
487.40 1.037352
487.50 1.035495
487.60 1.04012
487.70 1.04999
487.80 1.064126
487.90 1.080483
488.00 1.095543
488.10 1.106662
488.20 1.113254
488.30 1.115553
488.40 1.114792
488.50 1.116082
488.60 1.126515
488.70 1.145951
488.80 1.163335
488.90 1.167824
489.00 1.160948
489.10 1.1534
489.20 1.151499
489.30 1.151115
489.40 1.144995
489.50 1.132152
489.60 1.119052
489.70 1.113823
489.80 1.119041
489.90 1.128777
490.00 1.134253
490.10 1.133194
490.20 1.132861
490.30 1.143138
490.40 1.168326
490.50 1.205952
490.60 1.250552
490.70 1.295148
490.80 1.33015
490.90 1.346202
491.00 1.341046
491.10 1.322477
491.20 1.302326
491.30 1.288609
491.40 1.284148
491.50 1.289572
491.60 1.302613
491.70 1.314827
491.80 1.314883
491.90 1.298643
492.00 1.275682
492.10 1.263924
492.20 1.276537
492.30 1.312343
492.40 1.35743
492.50 1.396528
492.60 1.424449
492.70 1.446633
492.80 1.469346
492.90 1.49246
493.00 1.510784
493.10 1.519342
493.20 1.516117
493.30 1.502365
493.40 1.48334
493.50 1.46638
493.60 1.45526
493.70 1.446957
493.80 1.435471
493.90 1.419129
494.00 1.405138
494.10 1.406215
494.20 1.429885
494.30 1.469186
494.40 1.505882
494.50 1.526229
494.60 1.532624
494.70 1.537413
494.80 1.547905
494.90 1.562059
495.00 1.575889
495.10 1.586052
495.20 1.582033
495.30 1.542084
495.40 1.445682
495.50 1.294248
495.60 1.117829
495.70 0.9594451
495.80 0.8515867
495.90 0.8035602
496.00 0.8048487
496.10 0.8354206
496.20 0.8739555
496.30 0.903947
496.40 0.9194308
496.50 0.9258365
496.60 0.9334795
496.70 0.9488496
496.80 0.9713657
496.90 0.9969871
497.00 1.023036
497.10 1.04948
497.20 1.076953
497.30 1.104299
497.40 1.128175
497.50 1.145803
497.60 1.158013
497.70 1.167692
497.80 1.172628
497.90 1.162095
498.00 1.126576
498.10 1.073738
498.20 1.031147
498.30 1.026526
498.40 1.063261
498.50 1.118306
498.60 1.16322
498.70 1.18453
498.80 1.187142
498.90 1.18527
499.00 1.192048
499.10 1.211334
499.20 1.234518
499.30 1.248102
499.40 1.248203
499.50 1.244302
499.60 1.235389
499.70 1.185705
499.80 1.04209
499.90 0.7893178
500.00 1
500.10 0.8948556
500.20 1.017807
500.30 1.057608
500.40 1.03766
500.50 0.9870206
500.60 1.046543
500.70 1.091009
500.80 0.9826995
500.90 0.8269213
501.00 0.9274328
501.10 1.108007
501.20 1.127048
501.30 1.009452
501.40 0.9513135
501.50 0.9860301
501.60 1.010797
501.70 1.006045
501.80 1.010095
501.90 1.024065
502.00 1.131505
502.10 1.195369
502.20 1.104519
502.30 1.030287
502.40 0.9877346
502.50 1.016867
502.60 1.129644
502.70 1.096686
502.80 1.042577
502.90 1.09152
503.00 1.061641
503.10 1.119791
503.20 1.159807
503.30 1.164239
503.40 1.168108
503.50 1.16544
503.60 1.199472
503.70 1.155546
503.80 1.121297
503.90 1.103346
504.00 1.050942
504.10 0.9716696
504.20 1.019246
504.30 1.113585
504.40 1.153464
504.50 1.240356
504.60 1.222768
504.70 1.283057
504.80 1.366355
504.90 1.31669
505.00 1.152973
505.10 1.153877
505.20 1.148968
505.30 1.103329
505.40 1.162603
505.50 1.24793
505.60 1.149558
505.70 1.14881
505.80 1.261398
505.90 1.314123
506.00 1.313705
506.10 1.300325
506.20 1.284808
506.30 1.240901
506.40 1.187982
506.50 1.168587
506.60 1.160264
506.70 1.13965
506.80 1.139791
506.90 1.161146
507.00 1.118836
507.10 1.145604
507.20 1.261236
507.30 1.228367
507.40 1.176405
507.50 1.256793
507.60 1.300236
507.70 1.266212
507.80 1.188008
507.90 1.191656
508.00 1.166273
508.10 1.135347
508.20 1.164963
508.30 1.192077
508.40 1.135387
508.50 1.177632
508.60 1.26464
508.70 1.26286
508.80 1.2554
508.90 1.307302
509.00 1.268031
509.10 1.239325
509.20 1.275644
509.30 1.301349
509.40 1.343422
509.50 1.27526
509.60 1.122372
509.70 1.171711
509.80 1.277046
509.90 1.289706
510.00 1.256687
510.10 1.225405
510.20 1.239284
510.30 1.24535
510.40 1.237433
510.50 1.199571
510.60 1.106509
510.70 1.134903
510.80 1.235728
510.90 1.217513
511.00 1.192245
511.10 1.198641
511.20 1.21413
511.30 1.157017
511.40 1.265678
511.50 1.391093
511.60 1.344886
511.70 1.37696
511.80 1.45812
511.90 1.465705
512.00 1.366557
512.10 1.329653
512.20 1.341547
512.30 1.321719
512.40 1.262028
512.50 1.21546
512.60 1.273334
512.70 1.293212
512.80 1.22024
512.90 1.174762
513.00 1.158332
513.10 1.140766
513.20 1.140854
513.30 1.284851
513.40 1.350769
513.50 1.290484
513.60 1.204468
513.70 1.285037
513.80 1.393342
513.90 1.362692
514.00 1.222574
514.10 1.248231
514.20 1.344157
514.30 1.353185
514.40 1.349853
514.50 1.286658
514.60 1.213751
514.70 1.126179
514.80 1.181097
514.90 1.294481
515.00 1.281652
515.10 1.172756
515.20 1.158538
515.30 1.121763
515.40 1.037906
515.50 1.013426
515.60 1.205876
515.70 1.328144
515.80 1.402759
515.90 1.464566
516.00 1.435411
516.10 1.507864
516.20 1.599612
516.30 1.489924
516.40 1.462316
516.50 1.526496
516.60 1.406179
516.70 1.169534
516.80 0.9377587
516.90 0.7648725
517.00 0.6980903
517.10 0.7437205
517.20 0.7029816
517.30 0.6381298
517.40 0.6622756
517.50 0.7460716
517.60 0.8558744
517.70 0.9415599
517.80 0.9014939
517.90 0.8734721
518.00 0.8840004
518.10 0.8647555
518.20 0.7877615
518.30 0.7049011
518.40 0.6906335
518.50 0.803387
518.60 1.022286
518.70 1.144104
518.80 1.116817
518.90 1.128308
519.00 1.152181
519.10 1.170209
519.20 1.114101
519.30 1.084316
519.40 1.077268
519.50 1.0987
519.60 1.132884
519.70 1.213918
519.80 1.285712
519.90 1.222299
520.00 1.212292
520.10 1.311723
520.20 1.280213
520.30 1.230152
520.40 1.155065
520.50 1.010906
520.60 0.8680637
520.70 0.8275421
520.80 0.8447244
520.90 0.8008166
521.00 0.8268676
521.10 0.8780715
521.20 1.05853
521.30 1.26733
521.40 1.42704
521.50 1.463753
521.60 1.361819
521.70 1.361251
521.80 1.528023
521.90 1.499506
522.00 1.451881
522.10 1.506295
522.20 1.521111
522.30 1.522076
522.40 1.616899
522.50 1.612877
522.60 1.510142
522.70 1.373779
522.80 1.363164
522.90 1.450834
523.00 1.620873
523.10 1.729169
523.20 1.74974
523.30 1.704276
523.40 1.705359
523.50 1.614248
523.60 1.661191
523.70 1.743933
523.80 1.788906
523.90 1.753944
524.00 1.760295
524.10 1.658693
524.20 1.466384
524.30 1.395475
524.40 1.455968
524.50 1.554363
524.60 1.592732
524.70 1.538155
524.80 1.429523
524.90 1.443021
525.00 1.498818
525.10 1.507238
525.20 1.424863
525.30 1.419237
525.40 1.495351
525.50 1.545013
525.60 1.619261
525.70 1.641117
525.80 1.57418
525.90 1.674836
526.00 1.644983
526.10 1.546806
526.20 1.446848
526.30 1.400671
526.40 1.347167
526.50 1.267411
526.60 1.19927
526.70 1.288599
526.80 1.429392
526.90 1.348983
527.00 1.187085
527.10 1.089047
527.20 1.245131
527.30 1.396653
527.40 1.470098
527.50 1.566949
527.60 1.695743
527.70 1.679014
527.80 1.689871
527.90 1.67296
528.00 1.634046
528.10 1.619502
528.20 1.648303
528.30 1.609443
528.40 1.587524
528.50 1.601447
528.60 1.704048
528.70 1.732611
528.80 1.821737
528.90 1.870422
529.00 1.838028
529.10 1.773805
529.20 1.687953
529.30 1.690082
529.40 1.72261
529.50 1.771991
529.60 1.752808
529.70 1.654731
529.80 1.606154
529.90 1.527367
530.00 1.521615
530.10 1.665359
530.20 1.755571
530.30 1.744087
530.40 1.80567
530.50 1.85277
530.60 1.914129
530.70 1.85181
530.80 1.792294
530.90 1.684753
531.00 1.761289
531.10 1.740877
531.20 1.732136
531.30 1.761996
531.40 1.764324
531.50 1.68513
531.60 1.764989
531.70 1.812303
531.80 1.767781
531.90 1.878006
532.00 1.911073
532.10 1.824644
532.20 1.763684
532.30 1.788233
532.40 1.769061
532.50 1.68814
532.60 1.679163
532.70 1.767521
532.80 1.679011
532.90 1.447278
533.00 1.352341
533.10 1.532803
533.20 1.671162
533.30 1.708736
533.40 1.740925
533.50 1.761602
533.60 1.753911
533.70 1.764653
533.80 1.786064
533.90 1.763706
534.00 1.684516
534.10 1.671761
534.20 1.720789
534.30 1.735162
534.40 1.754951
534.50 1.796241
534.60 1.772781
534.70 1.697812
534.80 1.669323
534.90 1.688406
535.00 1.713635
535.10 1.746648
535.20 1.859311
535.30 1.986101
535.40 2.021259
535.50 1.926082
535.60 1.861598
535.70 1.877219
535.80 1.912511
535.90 1.822194
536.00 1.817951
536.10 1.883762
536.20 1.881828
536.30 1.857957
536.40 1.860505
536.50 1.791268
536.60 1.859772
536.70 1.950071
536.80 1.910514
536.90 1.818897
537.00 1.806004
537.10 1.744124
537.20 1.653775
537.30 1.657983
537.40 1.834009
537.50 1.943671
537.60 1.92946
537.70 1.919638
537.80 1.977144
537.90 2.081963
538.00 2.011631
538.10 2.046612
538.20 2.046124
538.30 2.025019
538.40 1.994366
538.50 1.958255
538.60 1.99605
538.70 2.042485
538.80 2.132223
538.90 2.095411
539.00 2.027049
539.10 2.02105
539.20 2.030081
539.30 2.025194
539.40 2.032426
539.50 1.967376
539.60 1.841953
539.70 1.799353
539.80 1.786129
539.90 1.828253
540.00 1.959647
540.10 2.087116
540.20 2.10793
540.30 2.172337
540.40 2.128291
540.50 1.985405
540.60 1.859189
540.70 1.807157
540.80 1.847635
540.90 1.882939
541.00 1.858057
541.10 1.832412
541.20 1.850153
541.30 1.917098
541.40 2.032756
541.50 2.11232
541.60 2.164599
541.70 2.128765
541.80 2.089855
541.90 2.131621
542.00 2.193007
542.10 2.170236
542.20 2.142305
542.30 2.083204
542.40 2.038298
542.50 2.018564
542.60 2.11079
542.70 2.147531
542.80 2.190442
542.90 2.127006
543.00 2.002758
543.10 1.911803
543.20 1.942755
543.30 1.973089
543.40 1.927537
543.50 1.935239
543.60 1.95478
543.70 2.037762
543.80 2.127304
543.90 2.116027
544.00 2.158577
544.10 2.233483
544.20 2.281484
544.30 2.31408
544.40 2.351601
544.50 2.293655
544.60 2.082207
544.70 1.916898
544.80 1.754041
544.90 1.622548
545.00 1.580858
545.10 1.46947
545.20 1.330078
545.30 1.337278
545.40 1.414178
545.50 1.418046
545.60 1.441199
545.70 1.376442
545.80 1.374416
545.90 1.484216
546.00 1.567069
546.10 1.515815
546.20 1.507791
546.30 1.516823
546.40 1.508309
546.50 1.610413
546.60 1.612544
546.70 1.582199
546.80 1.645666
546.90 1.712757
547.00 1.667724
547.10 1.609585
547.20 1.662923
547.30 1.752475
547.40 1.812723
547.50 1.757355
547.60 1.703653
547.70 1.672964
547.80 1.674106
547.90 1.735914
548.00 1.788474
548.10 1.777925
548.20 1.742356
548.30 1.763259
548.40 1.793492
548.50 1.888736
548.60 1.90864
548.70 1.915895
548.80 1.875122
548.90 1.83371
549.00 1.82691
549.10 1.845243
549.20 1.878558
549.30 1.969467
549.40 2.000244
549.50 1.913029
549.60 1.88927
549.70 1.82044
549.80 1.657447
549.90 1.568134
550.00 1.621362
550.10 1.555668
550.20 1.461872
550.30 1.455611
550.40 1.518775
550.50 1.521363
550.60 1.485922
550.70 1.461458
550.80 1.479902
550.90 1.613168
551.00 1.680506
551.10 1.667504
551.20 1.595463
551.30 1.496105
551.40 1.476814
551.50 1.47015
551.60 1.446089
551.70 1.497789
551.80 1.627961
551.90 1.628804
552.00 1.589479
552.10 1.614729
552.20 1.686033
552.30 1.711471
552.40 1.761865
552.50 1.716102
552.60 1.662255
552.70 1.629376
552.80 1.609695
552.90 1.586595
553.00 1.584527
553.10 1.664895
553.20 1.652326
553.30 1.559626
553.40 1.522611
553.50 1.588626
553.60 1.625597
553.70 1.536015
553.80 1.501525
553.90 1.531998
554.00 1.564392
554.10 1.480297
554.20 1.510076
554.30 1.540449
554.40 1.577855
554.50 1.561591
554.60 1.570308
554.70 1.621863
554.80 1.645592
554.90 1.669422
555.00 1.732969
555.10 1.697763
555.20 1.667538
555.30 1.589429
555.40 1.57487
555.50 1.681949
555.60 1.619434
555.70 1.561908
555.80 1.601427
555.90 1.736319
556.00 1.808812
556.10 1.785869
556.20 1.747136
556.30 1.73894
556.40 1.656419
556.50 1.643043
556.60 1.728182
556.70 1.784604
556.80 1.768434
556.90 1.786976
557.00 1.826602
557.10 1.809336
557.20 1.789356
557.30 1.787055
557.40 1.788421
557.50 1.788399
557.60 1.788399
557.70 1.788399
557.80 1.788399
557.90 1.788399
558.00 1.788399
558.10 1.7884
558.20 1.788597
558.30 1.787825
558.40 1.775469
558.50 1.812989
558.60 1.916166
558.70 1.94653
558.80 1.871515
558.90 1.783292
559.00 1.731287
559.10 1.721168
559.20 1.810343
559.30 1.870434
559.40 1.861161
559.50 1.783103
559.60 1.801062
559.70 1.846052
559.80 1.726981
559.90 1.512405
560.00 1.465814
560.10 1.571633
560.20 1.593128
560.30 1.598546
560.40 1.635301
560.50 1.617737
560.60 1.659991
560.70 1.722499
560.80 1.698976
560.90 1.666946
561.00 1.696608
561.10 1.75968
561.20 1.800038
561.30 1.812519
561.40 1.761451
561.50 1.736346
561.60 1.714124
561.70 1.660242
561.80 1.614787
561.90 1.611469
562.00 1.679561
562.10 1.673499
562.20 1.706901
562.30 1.718039
562.40 1.773484
562.50 1.772687
562.60 1.774869
562.70 1.809545
562.80 1.798165
562.90 1.704991
563.00 1.632748
563.10 1.493822
563.20 1.519325
563.30 1.654613
563.40 1.765269
563.50 1.809062
563.60 1.786525
563.70 1.761251
563.80 1.710795
563.90 1.667477
564.00 1.727056
564.10 1.739274
564.20 1.692987
564.30 1.649045
564.40 1.660907
564.50 1.658395
564.60 1.666268
564.70 1.706686
564.80 1.751174
564.90 1.828804
565.00 1.888415
565.10 1.881533
565.20 1.878781
565.30 1.860442
565.40 1.849441
565.50 1.880521
565.60 1.985128
565.70 2.01669
565.80 1.98142
565.90 1.870885
566.00 1.879174
566.10 1.92817
566.20 1.9163
566.30 1.889082
566.40 1.863031
566.50 1.830752
566.60 1.777722
566.70 1.822778
566.80 1.857996
566.90 1.779169
567.00 1.690711
567.10 1.76561
567.20 1.808028
567.30 1.768786
567.40 1.777506
567.50 1.864829
567.60 1.856852
567.70 1.859251
567.80 1.918633
567.90 1.980307
568.00 2.003892
568.10 1.978216
568.20 1.912029
568.30 1.864959
568.40 1.880849
568.50 1.873336
568.60 1.94718
568.70 2.032365
568.80 1.936028
568.90 1.818934
569.00 1.826082
569.10 1.869187
569.20 1.886263
569.30 1.926215
569.40 1.957446
569.50 1.984789
569.60 1.887148
569.70 1.900425
569.80 2.002704
569.90 2.010177
570.00 1.937816
570.10 1.942051
570.20 1.986193
570.30 2.051
570.40 2.053257
570.50 1.976232
570.60 1.999567
570.70 2.14839
570.80 2.109617
570.90 2.056347
571.00 2.063195
571.10 2.054812
571.20 2.048858
571.30 2.183733
571.40 2.231058
571.50 2.136731
571.60 2.113826
571.70 2.147544
571.80 2.164489
571.90 2.161975
572.00 2.092894
572.10 2.038193
572.20 2.109126
572.30 2.169328
572.40 2.109027
572.50 2.082002
572.60 2.105632
572.70 2.120245
572.80 2.024893
572.90 2.04249
573.00 2.130874
573.10 2.157688
573.20 2.112215
573.30 2.176507
573.40 2.127541
573.50 2.163061
573.60 2.275242
573.70 2.195307
573.80 2.114649
573.90 2.137719
574.00 2.231464
574.10 2.250229
574.20 2.255694
574.30 2.200917
574.40 2.17594
574.50 2.232409
574.60 2.269826
574.70 2.295164
574.80 2.283778
574.90 2.243302
575.00 2.303201
575.10 2.347321
575.20 2.33932
575.30 2.341166
575.40 2.344329
575.50 2.332728
575.60 2.282473
575.70 2.363407
575.80 2.378396
575.90 2.350273
576.00 2.24774
576.10 2.174469
576.20 2.166368
576.30 2.069286
576.40 1.944072
576.50 1.946518
576.60 1.96946
576.70 1.979836
576.80 1.982259
576.90 2.102229
577.00 2.197971
577.10 2.139754
577.20 2.076267
577.30 2.100082
577.40 2.111613
577.50 2.060747
577.60 2.070834
577.70 2.125123
577.80 2.190806
577.90 2.111853
578.00 2.024025
578.10 2.088957
578.20 2.161676
578.30 2.212879
578.40 2.235672
578.50 2.290589
578.60 2.26932
578.70 2.239519
578.80 2.264281
578.90 2.306355
579.00 2.331143
579.10 2.218802
579.20 2.147364
579.30 2.226821
579.40 2.260935
579.50 2.268237
579.60 2.357342
579.70 2.389522
579.80 2.339272
579.90 2.348551
580.00 2.410812
580.10 2.442623
580.20 2.406593
580.30 2.397349
580.40 2.470734
580.50 2.529794
580.60 2.537222
580.70 2.556039
580.80 2.530097
580.90 2.488656
581.00 2.453339
581.10 2.38594
581.20 2.331114
581.30 2.230459
581.40 2.099288
581.50 2.058386
581.60 2.074805
581.70 2.049174
581.80 2.077558
581.90 2.046618
582.00 2.010384
582.10 1.962859
582.20 1.957077
582.30 1.933599
582.40 1.923167
582.50 1.991194
582.60 2.066526
582.70 2.051546
582.80 2.031224
582.90 2.021586
583.00 2.058344
583.10 2.12423
583.20 2.134754
583.30 2.109827
583.40 2.159685
583.50 2.225633
583.60 2.199177
583.70 2.086301
583.80 2.022
583.90 2.020384
584.00 2.048143
584.10 2.067178
584.20 2.141055
584.30 2.191939
584.40 2.151468
584.50 2.153078
584.60 2.131732
584.70 2.090798
584.80 2.04855
584.90 1.980883
585.00 1.890251
585.10 1.794915
585.20 1.736825
585.30 1.759321
585.40 1.747994
585.50 1.735395
585.60 1.704332
585.70 1.673168
585.80 1.646006
585.90 1.665562
586.00 1.741617
586.10 1.849457
586.20 1.838245
586.30 1.712264
586.40 1.64633
586.50 1.679561
586.60 1.701298
586.70 1.698999
586.80 1.750794
586.90 1.721334
587.00 1.659
587.10 1.587772
587.20 1.607572
587.30 1.627709
587.40 1.57426
587.50 1.473128
587.60 1.408869
587.70 1.43179
587.80 1.434751
587.90 1.393518
588.00 1.360419
588.10 1.373421
588.20 1.309782
588.30 1.273257
588.40 1.248067
588.50 1.142021
588.60 1.12962
588.70 1.207023
588.80 1.019939
588.90 0.7742111
589.00 0.7067611
589.10 0.6339678
589.20 0.4790412
589.30 0.571807
589.40 0.6552278
589.50 0.6455124
589.60 0.6672264
589.70 0.6926036
589.80 0.6147985
589.90 0.6285409
590.00 0.8464822
590.10 0.918496
590.20 0.865117
590.30 1.061664
590.40 1.162637
590.50 1.136443
590.60 1.172423
590.70 1.301992
590.80 1.312015
590.90 1.240824
591.00 1.265976
591.10 1.40539
591.20 1.460753
591.30 1.405233
591.40 1.368818
591.50 1.389052
591.60 1.45434
591.70 1.470887
591.80 1.520142
591.90 1.523142
592.00 1.57721
592.10 1.577044
592.20 1.517697
592.30 1.468955
592.40 1.412121
592.50 1.368911
592.60 1.429848
592.70 1.46623
592.80 1.444852
592.90 1.411163
593.00 1.512758
593.10 1.573677
593.20 1.579115
593.30 1.580864
593.40 1.604231
593.50 1.630598
593.60 1.604713
593.70 1.600473
593.80 1.61485
593.90 1.645404
594.00 1.700699
594.10 1.729225
594.20 1.652823
594.30 1.627151
594.40 1.709568
594.50 1.798257
594.60 1.808571
594.70 1.804956
594.80 1.750301
594.90 1.72759
595.00 1.690845
595.10 1.615886
595.20 1.506737
595.30 1.474441
595.40 1.564747
595.50 1.629624
595.60 1.610218
595.70 1.546796
595.80 1.496463
595.90 1.517315
596.00 1.591068
596.10 1.641404
596.20 1.61425
596.30 1.582796
596.40 1.565043
596.50 1.563306
596.60 1.578518
596.70 1.662766
596.80 1.739464
596.90 1.759452
597.00 1.761189
597.10 1.727423
597.20 1.725494
597.30 1.699176
597.40 1.681093
597.50 1.668995
597.60 1.620248
597.70 1.632346
597.80 1.663691
597.90 1.689696
598.00 1.674788
598.10 1.680421
598.20 1.784088
598.30 1.847721
598.40 1.761648
598.50 1.791362
598.60 1.85839
598.70 1.870124
598.80 1.795663
598.90 1.832785
599.00 1.841896
599.10 1.813696
599.20 1.773316
599.30 1.861436
599.40 1.964631
599.50 1.996797
599.60 2.016318
599.70 2.003493
599.80 1.966794
599.90 1.920111
600.00 1.924585
600.10 1.902914
600.20 1.863775
600.30 1.852655
600.40 1.864304
600.50 1.89625
600.60 1.932207
600.70 1.949801
600.80 1.902816
600.90 1.843587
601.00 1.890525
601.10 1.924589
601.20 1.955038
601.30 1.955027
601.40 1.934322
601.50 1.917394
601.60 1.9285
601.70 1.966128
601.80 2.001114
601.90 2.011624
602.00 2.00945
602.10 2.032179
602.20 2.028691
602.30 1.957612
602.40 1.943996
602.50 1.944977
602.60 1.939866
602.70 1.958731
602.80 2.054523
602.90 2.158674
603.00 2.160275
603.10 2.130248
603.20 2.115244
603.30 2.11768
603.40 2.162274
603.50 2.210952
603.60 2.193376
603.70 2.065562
603.80 1.944659
603.90 1.936155
604.00 1.984036
604.10 2.062429
604.20 2.074008
604.30 2.114151
604.40 2.127233
604.50 2.119582
604.60 2.164909
604.70 2.218168
604.80 2.20785
604.90 2.193095
605.00 2.235427
605.10 2.304095
605.20 2.280087
605.30 2.184824
605.40 2.114812
605.50 2.132828
605.60 2.200648
605.70 2.230019
605.80 2.259801
605.90 2.293838
606.00 2.258349
606.10 2.233142
606.20 2.272282
606.30 2.32844
606.40 2.269516
606.50 2.075174
606.60 2.008022
606.70 2.095274
606.80 2.182932
606.90 2.229692
607.00 2.276513
607.10 2.283517
607.20 2.264118
607.30 2.26674
607.40 2.240829
607.50 2.234063
607.60 2.265261
607.70 2.323935
607.80 2.354216
607.90 2.32176
608.00 2.253691
608.10 2.184208
608.20 2.14931
608.30 2.13491
608.40 2.168354
608.50 2.239527
608.60 2.281404
608.70 2.292795
608.80 2.293674
608.90 2.286339
609.00 2.289023
609.10 2.281731
609.20 2.286084
609.30 2.318819
609.40 2.378835
609.50 2.429234
609.60 2.494291
609.70 2.447413
609.80 2.398775
609.90 2.374824
610.00 2.386943
610.10 2.403665
610.20 2.291741
610.30 2.117332
610.40 1.960071
610.50 1.971167
610.60 2.131169
610.70 2.284743
610.80 2.400581
610.90 2.409165
611.00 2.372922
611.10 2.319768
611.20 2.267195
611.30 2.297057
611.40 2.35899
611.50 2.401175
611.60 2.38806
611.70 2.354718
611.80 2.295298
611.90 2.18164
612.00 2.135587
612.10 2.127804
612.20 2.043363
612.30 1.907621
612.40 1.84629
612.50 1.934162
612.60 2.083827
612.70 2.243987
612.80 2.346748
612.90 2.428284
613.00 2.435315
613.10 2.425448
613.20 2.372765
613.30 2.393703
613.40 2.385711
613.50 2.337004
613.60 2.31398
613.70 2.377186
613.80 2.394186
613.90 2.368853
614.00 2.342638
614.10 2.370066
614.20 2.392317
614.30 2.380066
614.40 2.448953
614.50 2.537587
614.60 2.565644
614.70 2.489618
614.80 2.438813
614.90 2.386685
615.00 2.236952
615.10 2.151368
615.20 2.175201
615.30 2.234663
615.40 2.231138
615.50 2.15593
615.60 2.065669
615.70 2.009372
615.80 1.972367
615.90 1.926578
616.00 1.789181
616.10 1.594397
616.20 1.427647
616.30 1.34275
616.40 1.330349
616.50 1.358839
616.60 1.41185
616.70 1.446223
616.80 1.425534
616.90 1.437588
617.00 1.482443
617.10 1.512998
617.20 1.530653
617.30 1.558297
617.40 1.576228
617.50 1.567341
617.60 1.546895
617.70 1.57667
617.80 1.611027
617.90 1.655969
618.00 1.723757
618.10 1.737226
618.20 1.692905
618.30 1.617371
618.40 1.608425
618.50 1.579859
618.60 1.500752
618.70 1.419012
618.80 1.38573
618.90 1.345777
619.00 1.339074
619.10 1.348177
619.20 1.28844
619.30 1.264437
619.40 1.284133
619.50 1.323188
619.60 1.329745
619.70 1.349691
619.80 1.398481
619.90 1.39644
620.00 1.36686
620.10 1.370281
620.20 1.423637
620.30 1.474601
620.40 1.474978
620.50 1.488648
620.60 1.522912
620.70 1.512425
620.80 1.523071
620.90 1.531475
621.00 1.545683
621.10 1.508357
621.20 1.448549
621.30 1.417645
621.40 1.368184
621.50 1.325238
621.60 1.288816
621.70 1.237151
621.80 1.197258
621.90 1.212847
622.00 1.292494
622.10 1.326023
622.20 1.34694
622.30 1.322423
622.40 1.233254
622.50 1.185262
622.60 1.193797
622.70 1.214833
622.80 1.195668
622.90 1.209195
623.00 1.248448
623.10 1.248882
623.20 1.203988
623.30 1.189082
623.40 1.278581
623.50 1.335658
623.60 1.381942
623.70 1.359477
623.80 1.358337
623.90 1.358619
624.00 1.332999
624.10 1.324978
624.20 1.30869
624.30 1.304594
624.40 1.264463
624.50 1.287194
624.60 1.289911
624.70 1.302353
624.80 1.342016
624.90 1.410344
625.00 1.455268
625.10 1.465896
625.20 1.478555
625.30 1.471183
625.40 1.462664
625.50 1.471954
625.60 1.484042
625.70 1.504183
625.80 1.480081
625.90 1.497861
626.00 1.479774
626.10 1.496234
626.20 1.563822
626.30 1.573136
626.40 1.638856
626.50 1.697409
626.60 1.745195
626.70 1.692605
626.80 1.642259
626.90 1.677138
627.00 1.676834
627.10 1.631092
627.20 1.589471
627.30 1.635262
627.40 1.699298
627.50 1.693117
627.60 1.654289
627.70 1.620164
627.80 1.592716
627.90 1.570515
628.00 1.590958
628.10 1.591408
628.20 1.605761
628.30 1.632183
628.40 1.695483
628.50 1.743165
628.60 1.776135
628.70 1.814013
628.80 1.856558
628.90 1.885239
629.00 1.852285
629.10 1.821367
629.20 1.816997
629.30 1.823081
629.40 1.84108
629.50 1.801046
629.60 1.799153
629.70 1.863432
629.80 1.970774
629.90 2.125517
630.00 2.246667
630.10 2.308434
630.20 2.040814
630.30 1.825899
630.40 1.920377
630.50 2.045861
630.60 2.027123
630.70 1.946773
630.80 2.069227
630.90 2.153731
631.00 2.130311
631.10 2.133454
631.20 2.169767
631.30 2.239638
631.40 2.298402
631.50 2.259196
631.60 2.279675
631.70 2.285912
631.80 2.276379
631.90 2.290771
632.00 2.292999
632.10 2.32491
632.20 2.332404
632.30 2.295674
632.40 2.248703
632.50 2.276506
632.60 2.296234
632.70 2.30953
632.80 2.36186
632.90 2.396257
633.00 2.399188
633.10 2.361829
633.20 2.382784
633.30 2.387393
633.40 2.395957
633.50 2.428295
633.60 2.437821
633.70 2.456185
633.80 2.487267
633.90 2.532105
634.00 2.520273
634.10 2.502828
634.20 2.531211
634.30 2.595447
634.40 2.614797
634.50 2.589247
634.60 2.59845
634.70 2.628347
634.80 2.682037
634.90 2.710671
635.00 2.696077
635.10 2.71182
635.20 2.691457
635.30 2.642999
635.40 2.59519
635.50 2.536385
635.60 2.536958
635.70 2.501999
635.80 2.446527
635.90 2.365645
636.00 2.315808
636.10 2.349717
636.20 2.40613
636.30 2.456761
636.40 2.448929
636.50 2.4398
636.60 2.467461
636.70 2.349437
636.80 2.291056
636.90 2.321973
637.00 2.328204
637.10 2.307613
637.20 2.347288
637.30 2.453821
637.40 2.496501
637.50 2.466301
637.60 2.416967
637.70 2.401605
637.80 2.392916
637.90 2.357976
638.00 2.263522
638.10 2.126847
638.20 2.055005
638.30 2.022875
638.40 2.028904
638.50 2.08276
638.60 2.137875
638.70 2.182278
638.80 2.138352
638.90 2.068804
639.00 2.059149
639.10 2.10599
639.20 2.184168
639.30 2.255523
639.40 2.306157
639.50 2.327826
639.60 2.399901
639.70 2.536638
639.80 2.61754
639.90 2.593696
640.00 2.546735
640.10 2.548153
640.20 2.567014
640.30 2.61147
640.40 2.675504
640.50 2.729116
640.60 2.77148
640.70 2.804877
640.80 2.807944
640.90 2.795716
641.00 2.804042
641.10 2.846442
641.20 2.906225
641.30 2.850502
641.40 2.766687
641.50 2.729395
641.60 2.75029
641.70 2.747922
641.80 2.699546
641.90 2.714851
642.00 2.742421
642.10 2.733554
642.20 2.709146
642.30 2.695411
642.40 2.735174
642.50 2.781712
642.60 2.8031
642.70 2.788823
642.80 2.797871
642.90 2.84932
643.00 2.874191
643.10 2.861543
643.20 2.861993
643.30 2.883549
643.40 2.869706
643.50 2.83744
643.60 2.839726
643.70 2.853428
643.80 2.836303
643.90 2.747506
644.00 2.650007
644.10 2.63243
644.20 2.747976
644.30 2.906919
644.40 2.999015
644.50 3.077251
644.60 3.131631
644.70 3.155704
644.80 3.083543
644.90 2.946436
645.00 2.844732
645.10 2.769781
645.20 2.772207
645.30 2.873817
645.40 3.029742
645.50 3.114976
645.60 3.136314
645.70 3.127755
645.80 3.116818
645.90 3.149673
646.00 3.163975
646.10 3.124037
646.20 2.990565
646.30 2.843543
646.40 2.800312
646.50 2.820575
646.60 2.901894
646.70 3.042044
646.80 3.133192
646.90 3.226722
647.00 3.28231
647.10 3.252203
647.20 3.18936
647.30 3.149756
647.40 3.237075
647.50 3.306969
647.60 3.329547
647.70 3.354874
647.80 3.389006
647.90 3.402106
648.00 3.364989
648.10 3.259392
648.20 3.142732
648.30 3.126632
648.40 3.137925
648.50 3.103735
648.60 3.049286
648.70 3.041792
648.80 3.087637
648.90 3.131119
649.00 3.172186
649.10 3.214485
649.20 3.210702
649.30 3.110509
649.40 2.974018
649.50 2.900299
649.60 2.885674
649.70 2.923859
649.80 3.011001
649.90 3.075406
650.00 3.079532
650.10 3.053138
650.20 3.108353
650.30 3.254418
650.40 3.348171
650.50 3.371301
650.60 3.409261
650.70 3.464749
650.80 3.49403
650.90 3.478061
651.00 3.467721
651.10 3.483372
651.20 3.49648
651.30 3.50055
651.40 3.412727
651.50 3.333103
651.60 3.356238
651.70 3.423923
651.80 3.456348
651.90 3.440662
652.00 3.464779
652.10 3.519946
652.20 3.550374
652.30 3.59327
652.40 3.622289
652.50 3.600091
652.60 3.613478
652.70 3.659558
652.80 3.68777
652.90 3.676881
653.00 3.645594
653.10 3.655862
653.20 3.675565
653.30 3.691106
653.40 3.733105
653.50 3.807906
653.60 3.865547
653.70 3.852013
653.80 3.835839
653.90 3.86759
654.00 3.938093
654.10 3.981773
654.20 3.962772
654.30 3.899671
654.40 3.835078
654.50 3.751104
654.60 3.652811
654.70 3.572845
654.80 3.52971
654.90 3.546754
655.00 3.556763
655.10 3.534671
655.20 3.514262
655.30 3.447933
655.40 3.391152
655.50 3.39303
655.60 3.398769
655.70 3.410378
655.80 3.41842
655.90 3.456058
656.00 3.524996
656.10 3.563542
656.20 3.494003
656.30 3.389953
656.40 3.29045
656.50 3.22068
656.60 3.184714
656.70 3.184862
656.80 3.24435
656.90 3.304467
657.00 3.317784
657.10 3.29301
657.20 3.235571
657.30 3.133748
657.40 3.049486
657.50 3.036808
657.60 3.125112
657.70 3.241446
657.80 3.302141
657.90 3.262561
658.00 3.172081
658.10 3.148595
658.20 3.175525
658.30 3.219288
658.40 3.288302
658.50 3.342279
658.60 3.364468
658.70 3.390733
658.80 3.430423
658.90 3.464914
659.00 3.485102
659.10 3.451799
659.20 3.438779
659.30 3.398599
659.40 3.300063
659.50 3.210185
659.60 3.158734
659.70 3.188228
659.80 3.256812
659.90 3.310927
660.00 3.305639
660.10 3.26928
660.20 3.241226
660.30 3.271422
660.40 3.338491
660.50 3.360133
660.60 3.324607
660.70 3.2741
660.80 3.263239
660.90 3.230487
661.00 3.183061
661.10 3.19348
661.20 3.23916
661.30 3.298294
661.40 3.337368
661.50 3.330522
661.60 3.268835
661.70 3.227222
661.80 3.23519
661.90 3.259074
662.00 3.226844
662.10 3.16779
662.20 3.136157
662.30 3.122853
662.40 3.074766
662.50 3.023483
662.60 2.974226
662.70 2.91296
662.80 2.857481
662.90 2.872943
663.00 2.929073
663.10 2.977144
663.20 3.006025
663.30 3.045844
663.40 3.080391
663.50 3.065219
663.60 2.980356
663.70 2.872279
663.80 2.786908
663.90 2.786624
664.00 2.889954
664.10 2.951751
664.20 2.97035
664.30 3.015239
664.40 3.050771
664.50 3.071799
664.60 3.050008
664.70 3.026063
664.80 3.02126
664.90 2.994363
665.00 2.907998
665.10 2.76947
665.20 2.61483
665.30 2.506196
665.40 2.472526
665.50 2.504099
665.60 2.590664
665.70 2.611047
665.80 2.588526
665.90 2.572278
666.00 2.564193
666.10 2.584531
666.20 2.587458
666.30 2.603622
666.40 2.670627
666.50 2.716974
666.60 2.71348
666.70 2.726579
666.80 2.781801
666.90 2.834645
667.00 2.837482
667.10 2.820813
667.20 2.833186
667.30 2.848971
667.40 2.838194
667.50 2.795872
667.60 2.768205
667.70 2.772219
667.80 2.774627
667.90 2.732442
668.00 2.656401
668.10 2.544757
668.20 2.409115
668.30 2.295114
668.40 2.2164
668.50 2.218302
668.60 2.279231
668.70 2.344802
668.80 2.400606
668.90 2.412768
669.00 2.410094
669.10 2.399723
669.20 2.338525
669.30 2.308062
669.40 2.332514
669.50 2.387891
669.60 2.428398
669.70 2.396345
669.80 2.395589
669.90 2.445532
670.00 2.498708
670.10 2.51378
670.20 2.497716
670.30 2.523514
670.40 2.567213
670.50 2.58658
670.60 2.57814
670.70 2.542162
670.80 2.534334
670.90 2.538341
671.00 2.565962
671.10 2.612259
671.20 2.605466
671.30 2.563866
671.40 2.505865
671.50 2.42272
671.60 2.319619
671.70 2.18107
671.80 2.091983
671.90 2.029413
672.00 1.985639
672.10 1.993661
672.20 2.036165
672.30 2.077479
672.40 2.083813
672.50 2.113522
672.60 2.142318
672.70 2.143997
672.80 2.161656
672.90 2.177432
673.00 2.197097
673.10 2.207124
673.20 2.19642
673.30 2.193031
673.40 2.198397
673.50 2.211595
673.60 2.187602
673.70 2.222616
673.80 2.296766
673.90 2.338717
674.00 2.341111
674.10 2.323423
674.20 2.302158
674.30 2.30409
674.40 2.345611
674.50 2.414135
674.60 2.44871
674.70 2.377261
674.80 2.261699
674.90 2.169968
675.00 2.120846
675.10 2.092433
675.20 2.079076
675.30 2.12382
675.40 2.162578
675.50 2.1661
675.60 2.159582
675.70 2.162369
675.80 2.195623
675.90 2.244635
676.00 2.237455
676.10 2.21758
676.20 2.221096
676.30 2.246066
676.40 2.287074
676.50 2.314524
676.60 2.339718
676.70 2.367194
676.80 2.374776
676.90 2.361787
677.00 2.326227
677.10 2.314908
677.20 2.358102
677.30 2.365092
677.40 2.333045
677.50 2.326213
677.60 2.375431
677.70 2.44083
677.80 2.44571
677.90 2.431302
678.00 2.400522
678.10 2.343218
678.20 2.296638
678.30 2.240354
678.40 2.154102
678.50 2.07168
678.60 2.049192
678.70 2.053702
678.80 2.083953
678.90 2.108309
679.00 2.131362
679.10 2.125168
679.20 2.123219
679.30 2.155535
679.40 2.138409
679.50 2.119887
679.60 2.133668
679.70 2.145463
679.80 2.164198
679.90 2.167976
680.00 2.186614
680.10 2.173663
680.20 2.166566
680.30 2.240878
680.40 2.319276
680.50 2.302666
680.60 2.222052
680.70 2.17644
680.80 2.157444
680.90 2.144278
681.00 2.145877
681.10 2.179607
681.20 2.246096
681.30 2.257463
681.40 2.236647
681.50 2.253598
681.60 2.233198
681.70 2.17782
681.80 2.133359
681.90 2.137944
682.00 2.149564
682.10 2.133772
682.20 2.158133
682.30 2.204672
682.40 2.195374
682.50 2.16319
682.60 2.191403
682.70 2.238905
682.80 2.282651
682.90 2.292492
683.00 2.306686
683.10 2.352399
683.20 2.320027
683.30 2.266788
683.40 2.262183
683.50 2.309879
683.60 2.360206
683.70 2.335023
683.80 2.275149
683.90 2.227669
684.00 2.245271
684.10 2.281114
684.20 2.29717
684.30 2.325126
684.40 2.343143
684.50 2.335228
684.60 2.306183
684.70 2.260278
684.80 2.238248
684.90 2.25693
685.00 2.280987
685.10 2.245348
685.20 2.177475
685.30 2.135076
685.40 2.140795
685.50 2.149721
685.60 2.159393
685.70 2.166002
685.80 2.152249
685.90 2.136104
686.00 2.126085
686.10 2.157915
686.20 2.160108
686.30 2.158122
686.40 2.199943
686.50 2.262323
686.60 2.279748
686.70 2.260675
686.80 2.220435
686.90 2.201363
687.00 2.180317
687.10 2.140472
687.20 2.15181
687.30 2.184629
687.40 2.237859
687.50 2.292875
687.60 2.34083
687.70 2.365091
687.80 2.357136
687.90 2.399064
688.00 2.464499
688.10 2.447488
688.20 2.37446
688.30 2.338421
688.40 2.33403
688.50 2.316115
688.60 2.242284
688.70 2.247557
688.80 2.346934
688.90 2.374146
689.00 2.406802
689.10 2.426486
689.20 2.382835
689.30 2.351997
689.40 2.368372
689.50 2.421443
689.60 2.458513
689.70 2.452491
689.80 2.476344
689.90 2.518626
690.00 2.486418
690.10 2.401811
690.20 2.29866
690.30 2.242344
690.40 2.288109
690.50 2.356134
690.60 2.447389
690.70 2.561508
690.80 2.624224
690.90 2.633035
691.00 2.647008
691.10 2.66119
691.20 2.666944
691.30 2.668177
691.40 2.684224
691.50 2.739796
691.60 2.78159
691.70 2.73853
691.80 2.59062
691.90 2.431888
692.00 2.343645
692.10 2.338619
692.20 2.437431
692.30 2.604
692.40 2.740245
692.50 2.826332
692.60 2.82012
692.70 2.799268
692.80 2.840693
692.90 2.870481
693.00 2.900437
693.10 2.924621
693.20 2.960044
693.30 2.997774
693.40 3.007094
693.50 3.017371
693.60 3.048375
693.70 3.095186
693.80 3.114718
693.90 3.095249
694.00 3.066584
694.10 3.085493
694.20 3.139794
694.30 3.180168
694.40 3.240037
694.50 3.316385
694.60 3.368738
694.70 3.419524
694.80 3.457377
694.90 3.464001
695.00 3.471475
695.10 3.435528
695.20 3.382807
695.30 3.354198
695.40 3.312143
695.50 3.278488
695.60 3.271874
695.70 3.241752
695.80 3.214268
695.90 3.208414
696.00 3.223861
696.10 3.233176
696.20 3.218504
696.30 3.207635
696.40 3.263947
696.50 3.34093
696.60 3.379748
696.70 3.39579
696.80 3.380633
696.90 3.379067
697.00 3.382886
697.10 3.37392
697.20 3.380429
697.30 3.352625
697.40 3.310208
697.50 3.334538
697.60 3.383156
697.70 3.433482
697.80 3.471702
697.90 3.480036
698.00 3.499466
698.10 3.521196
698.20 3.521956
698.30 3.510957
698.40 3.521427
698.50 3.564826
698.60 3.605431
698.70 3.619682
698.80 3.599193
698.90 3.585367
699.00 3.590994
699.10 3.538025
699.20 3.461277
699.30 3.421578
699.40 3.430081
699.50 3.469743
699.60 3.520086
699.70 3.584192
699.80 3.630658
699.90 3.605093
700.00 3.566925
700.10 3.605128
700.20 3.664089
700.30 3.705654
700.40 3.688097
700.50 3.663142
700.60 3.657498
700.70 3.615274
700.80 3.622505
700.90 3.684766
701.00 3.724109
701.10 3.699896
701.20 3.693031
701.30 3.791639
701.40 3.896967
701.50 3.920275
701.60 3.896485
701.70 3.876832
701.80 3.855591
701.90 3.861076
702.00 3.915195
702.10 3.980379
702.20 4.001109
702.30 3.952854
702.40 3.877733
702.50 3.803961
702.60 3.760962
702.70 3.772606
702.80 3.844678
702.90 3.998149
703.00 4.187631
703.10 4.324102
703.20 4.347197
703.30 4.277802
703.40 4.225243
703.50 4.265491
703.60 4.38665
703.70 4.500796
703.80 4.535393
703.90 4.531756
704.00 4.518111
704.10 4.562014
704.20 4.673748
704.30 4.778014
704.40 4.824467
704.50 4.843152
704.60 4.886936
704.70 4.90882
704.80 4.915524
704.90 4.935844
705.00 4.924892
705.10 4.898206
705.20 4.859903
705.30 4.747584
705.40 4.506976
705.50 4.109633
705.60 3.645026
705.70 3.319395
705.80 3.200145
705.90 3.237717
706.00 3.309904
706.10 3.286223
706.20 3.191689
706.30 3.145392
706.40 3.182288
706.50 3.256373
706.60 3.321846
706.70 3.374886
706.80 3.440608
706.90 3.4597
707.00 3.465062
707.10 3.510893
707.20 3.589782
707.30 3.653762
707.40 3.666276
707.50 3.650812
707.60 3.640724
707.70 3.656602
707.80 3.670554
707.90 3.693078
708.00 3.713015
708.10 3.717464
708.20 3.734464
708.30 3.742523
708.40 3.759793
708.50 3.794318
708.60 3.786509
708.70 3.66565
708.80 3.37072
708.90 2.963929
709.00 2.638565
709.10 2.51222
709.20 2.573151
709.30 2.695334
709.40 2.762655
709.50 2.749
709.60 2.70818
709.70 2.686717
709.80 2.700691
709.90 2.751234
710.00 2.803742
710.10 2.835455
710.20 2.861235
710.30 2.847488
710.40 2.839644
710.50 2.890202
710.60 2.94239
710.70 2.968386
710.80 3.01077
710.90 3.106612
711.00 3.192684
711.10 3.244988
711.20 3.283642
711.30 3.306806
711.40 3.330278
711.50 3.330416
711.60 3.293505
711.70 3.243392
711.80 3.238211
711.90 3.295399
712.00 3.377018
712.10 3.472239
712.20 3.547294
712.30 3.559119
712.40 3.490609
712.50 3.302097
712.60 2.976063
712.70 2.577839
712.80 2.247744
712.90 2.136921
713.00 2.213817
713.10 2.330248
713.20 2.367611
713.30 2.308416
713.40 2.257849
713.50 2.24924
713.60 2.256207
713.70 2.301712
713.80 2.351949
713.90 2.363519
714.00 2.363574
714.10 2.362414
714.20 2.406343
714.30 2.478175
714.40 2.526278
714.50 2.559808
714.60 2.56512
714.70 2.541152
714.80 2.50959
714.90 2.480349
715.00 2.485769
715.10 2.536872
715.20 2.628536
715.30 2.722096
715.40 2.773335
715.50 2.802827
715.60 2.841783
715.70 2.906262
715.80 2.94696
715.90 2.898096
716.00 2.797862
716.10 2.716463
716.20 2.680839
716.30 2.68549
716.40 2.717225
716.50 2.756069
716.60 2.77836
716.70 2.791491
716.80 2.804267
716.90 2.816102
717.00 2.847152
717.10 2.888827
717.20 2.914228
717.30 2.928884
717.40 2.952928
717.50 2.944084
717.60 2.906913
717.70 2.891889
717.80 2.907049
717.90 2.940685
718.00 2.958804
718.10 2.993318
718.20 3.075145
718.30 3.138749
718.40 3.182056
718.50 3.251219
718.60 3.303118
718.70 3.298367
718.80 3.268034
718.90 3.256631
719.00 3.270688
719.10 3.292918
719.20 3.344396
719.30 3.362656
719.40 3.339077
719.50 3.346557
719.60 3.342228
719.70 3.326741
719.80 3.245173
719.90 3.115811
720.00 3.01362
720.10 2.951027
720.20 2.90097
720.30 2.859634
720.40 2.864053
720.50 2.897076
720.60 2.956856
720.70 3.026497
720.80 3.068991
720.90 3.0663
721.00 3.04031
721.10 3.03311
721.20 3.073357
721.30 3.131585
721.40 3.171263
721.50 3.202351
721.60 3.232177
721.70 3.241677
721.80 3.255301
721.90 3.292868
722.00 3.331569
722.10 3.361846
722.20 3.387304
722.30 3.399465
722.40 3.419287
722.50 3.463931
722.60 3.519326
722.70 3.55349
722.80 3.553282
722.90 3.53708
723.00 3.534797
723.10 3.531391
723.20 3.504758
723.30 3.484301
723.40 3.473254
723.50 3.515775
723.60 3.573492
723.70 3.596243
723.80 3.63345
723.90 3.719467
724.00 3.821057
724.10 3.802501
724.20 3.600447
724.30 3.408677
724.40 3.506432
724.50 3.712771
724.60 3.737951
724.70 3.705999
724.80 3.734174
724.90 3.789114
725.00 3.856032
725.10 3.917484
725.20 3.93278
725.30 3.906327
725.40 3.865781
725.50 3.886898
725.60 3.976548
725.70 4.047296
725.80 4.052817
725.90 3.997374
726.00 3.974506
726.10 4.033592
726.20 4.106874
726.30 4.175953
726.40 4.235115
726.50 4.244829
726.60 4.247794
726.70 4.237204
726.80 4.221718
726.90 4.23671
727.00 4.215531
727.10 4.130119
727.20 4.048588
727.30 4.007177
727.40 4.017753
727.50 4.143446
727.60 4.28495
727.70 4.363812
727.80 4.370892
727.90 4.249377
728.00 4.163847
728.10 4.161926
728.20 4.180607
728.30 4.238954
728.40 4.359415
728.50 4.500185
728.60 4.542777
728.70 4.477659
728.80 4.407823
728.90 4.402472
729.00 4.468861
729.10 4.548919
729.20 4.536032
729.30 4.477445
729.40 4.453644
729.50 4.477682
729.60 4.532472
729.70 4.592684
729.80 4.63616
729.90 4.603285
730.00 4.540009
730.10 4.516499
730.20 4.571185
730.30 4.656228
730.40 4.682361
730.50 4.662608
730.60 4.62669
730.70 4.645773
730.80 4.680674
730.90 4.671966
731.00 4.68089
731.10 4.723899
731.20 4.757812
731.30 4.784475
731.40 4.835354
731.50 4.890847
731.60 4.978941
731.70 4.991091
731.80 4.887165
731.90 4.859615
732.00 4.869562
732.10 4.876386
732.20 4.923859
732.30 4.958401
732.40 4.978922
732.50 4.92422
732.60 4.768485
732.70 4.626031
732.80 4.575318
732.90 4.65194
733.00 4.80242
733.10 4.935382
733.20 4.990647
733.30 4.97193
733.40 4.957905
733.50 4.994092
733.60 5.058218
733.70 5.09561
733.80 5.119415
733.90 5.169805
734.00 5.213201
734.10 5.241325
734.20 5.275946
734.30 5.219836
734.40 5.08673
734.50 5.023019
734.60 4.986398
734.70 4.974785
734.80 4.997677
734.90 5.054352
735.00 5.148089
735.10 5.196153
735.20 5.211813
735.30 5.24025
735.40 5.255424
735.50 5.241486
735.60 5.154805
735.70 5.025468
735.80 4.956892
735.90 4.990633
736.00 5.075728
736.10 5.168226
736.20 5.207218
736.30 5.161256
736.40 5.147177
736.50 5.168381
736.60 5.181326
736.70 5.222306
736.80 5.306474
736.90 5.410727
737.00 5.460033
737.10 5.498872
737.20 5.523899
737.30 5.475225
737.40 5.440387
737.50 5.401729
737.60 5.363722
737.70 5.380363
737.80 5.375172
737.90 5.3784
738.00 5.461807
738.10 5.529547
738.20 5.52728
738.30 5.470003
738.40 5.415381
738.50 5.448901
738.60 5.500679
738.70 5.523677
738.80 5.54374
738.90 5.559367
739.00 5.586626
739.10 5.601238
739.20 5.577878
739.30 5.529966
739.40 5.507608
739.50 5.505205
739.60 5.505819
739.70 5.540904
739.80 5.539534
739.90 5.535224
740.00 5.529181
740.10 5.462883
740.20 5.482305
740.30 5.56638
740.40 5.554375
740.50 5.518254
740.60 5.493253
740.70 5.491146
740.80 5.518029
740.90 5.510793
741.00 5.519675
741.10 5.562299
741.20 5.592001
741.30 5.597822
741.40 5.597893
741.50 5.614113
741.60 5.62756
741.70 5.613994
741.80 5.587021
741.90 5.541735
742.00 5.510968
742.10 5.524743
742.20 5.573191
742.30 5.603727
742.40 5.595103
742.50 5.600835
742.60 5.60051
742.70 5.611638
742.80 5.662298
742.90 5.703555
743.00 5.743202
743.10 5.799882
743.20 5.800658
743.30 5.761698
743.40 5.735168
743.50 5.679306
743.60 5.626578
743.70 5.633895
743.80 5.68509
743.90 5.751292
744.00 5.781681
744.10 5.764229
744.20 5.730007
744.30 5.677556
744.40 5.643024
744.50 5.660604
744.60 5.659751
744.70 5.62892
744.80 5.597284
744.90 5.574685
745.00 5.601003
745.10 5.647721
745.20 5.682065
745.30 5.70728
745.40 5.718465
745.50 5.722587
745.60 5.73266
745.70 5.737263
745.80 5.761612
745.90 5.828579
746.00 5.865415
746.10 5.82361
746.20 5.733397
746.30 5.676184
746.40 5.668541
746.50 5.674998
746.60 5.702396
746.70 5.737937
746.80 5.7754
746.90 5.825062
747.00 5.845128
747.10 5.853036
747.20 5.893645
747.30 5.92401
747.40 5.922653
747.50 5.878431
747.60 5.788136
747.70 5.756693
747.80 5.81215
747.90 5.864378
748.00 5.870968
748.10 5.838281
748.20 5.826946
748.30 5.853634
748.40 5.899427
748.50 5.92015
748.60 5.859073
748.70 5.769243
748.80 5.745539
748.90 5.794727
749.00 5.848064
749.10 5.807405
749.20 5.729191
749.30 5.731569
749.40 5.756484
749.50 5.761642
749.60 5.741904
749.70 5.721423
749.80 5.754714
749.90 5.831744
750.00 5.944271
750.10 6.014287
750.20 5.982706
750.30 5.942145
750.40 5.930056
750.50 5.922002
750.60 5.917437
750.70 5.89247
750.80 5.86582
750.90 5.891518
751.00 5.94365
751.10 5.971178
751.20 5.969452
751.30 5.960507
751.40 5.958666
751.50 5.999897
751.60 6.073131
751.70 6.124031
751.80 6.150616
751.90 6.12327
752.00 6.036583
752.10 5.964439
752.20 5.996263
752.30 6.091207
752.40 6.157876
752.50 6.149763
752.60 6.051644
752.70 5.914776
752.80 5.828229
752.90 5.832534
753.00 5.866334
753.10 5.916227
753.20 5.9804
753.30 6.048814
753.40 6.07367
753.50 6.024373
753.60 5.991243
753.70 6.024716
753.80 6.095805
753.90 6.18145
754.00 6.245185
754.10 6.286934
754.20 6.296391
754.30 6.23462
754.40 6.190127
754.50 6.215195
754.60 6.242454
754.70 6.25401
754.80 6.228675
754.90 6.176598
755.00 6.157611
755.10 6.181733
755.20 6.211258
755.30 6.221368
755.40 6.221729
755.50 6.197184
755.60 6.172921
755.70 6.181026
755.80 6.188247
755.90 6.18708
756.00 6.213403
756.10 6.270247
756.20 6.300644
756.30 6.284583
756.40 6.25064
756.50 6.2032
756.60 6.141273
756.70 6.078581
756.80 6.043837
756.90 6.050693
757.00 6.062099
757.10 6.077968
757.20 6.14687
757.30 6.254101
757.40 6.352879
757.50 6.382095
757.60 6.302611
757.70 6.240753
757.80 6.234885
757.90 6.231423
758.00 6.231349
758.10 6.240304
758.20 6.280402
758.30 6.324964
758.40 6.331339
758.50 6.300884
758.60 6.264354
758.70 6.28621
758.80 6.258316
758.90 6.051492
759.00 5.747758
759.10 5.455504
759.20 5.27641
759.30 5.2729
759.40 5.37642
759.50 5.470589
759.60 5.507114
759.70 5.515171
759.80 5.546336
759.90 5.634782
760.00 5.752375
760.10 5.755319
760.20 5.604916
760.30 5.45908
760.40 5.416659
760.50 5.479704
760.60 5.604088
760.70 5.620746
760.80 5.523636
760.90 5.53723
761.00 5.590204
761.10 5.55826
761.20 5.538386
761.30 5.575269
761.40 5.67894
761.50 5.768513
761.60 5.759871
761.70 5.726553
761.80 5.757043
761.90 5.87423
762.00 5.996398
762.10 6.017631
762.20 5.940279
762.30 5.837586
762.40 5.815551
762.50 5.849737
762.60 5.826569
762.70 5.75617
762.80 5.634726
762.90 5.444807
763.00 5.262546
763.10 5.106423
763.20 5.038929
763.30 5.095751
763.40 5.200302
763.50 5.255522
763.60 5.176243
763.70 5.110422
763.80 5.132364
763.90 5.120545
764.00 5.129744
764.10 5.168302
764.20 5.162696
764.30 5.173738
764.40 5.219571
764.50 5.246959
764.60 5.229941
764.70 5.187811
764.80 5.234184
764.90 5.334544
765.00 5.320202
765.10 5.198046
765.20 5.100126
765.30 5.138851
765.40 5.239468
765.50 5.232324
765.60 5.148042
765.70 5.141472
765.80 5.250941
765.90 5.374436
766.00 5.387073
766.10 5.238868
766.20 5.007212
766.30 4.769783
766.40 4.440551
766.50 3.934574
766.60 3.37697
766.70 3.062735
766.80 3.157373
766.90 3.588037
767.00 4.089006
767.10 4.384236
767.20 4.430782
767.30 4.34143
767.40 4.270509
767.50 4.286449
767.60 4.3708
767.70 4.460448
767.80 4.501402
767.90 4.517553
768.00 4.545
768.10 4.591266
768.20 4.647577
768.30 4.672539
768.40 4.667237
768.50 4.654533
768.60 4.649082
768.70 4.662925
768.80 4.683291
768.90 4.714507
769.00 4.748077
769.10 4.759874
769.20 4.752457
769.30 4.771873
769.40 4.824594
769.50 4.83322
769.60 4.749269
769.70 4.581934
769.80 4.290221
769.90 3.873036
770.00 3.495767
770.10 3.333762
770.20 3.475661
770.30 3.851151
770.40 4.240911
770.50 4.499515
770.60 4.57633
770.70 4.541371
770.80 4.501995
770.90 4.482366
771.00 4.524721
771.10 4.6488
771.20 4.79024
771.30 4.866998
771.40 4.819829
771.50 4.625262
771.60 4.474427
771.70 4.580918
771.80 4.729015
771.90 4.716778
772.00 4.697345
772.10 4.731621
772.20 4.789562
772.30 4.858918
772.40 4.889188
772.50 4.899122
772.60 4.92819
772.70 4.94978
772.80 4.950517
772.90 4.966393
773.00 5.004634
773.10 5.029714
773.20 5.034988
773.30 5.066614
773.40 5.11939
773.50 5.157177
773.60 5.189876
773.70 5.193959
773.80 5.154851
773.90 5.127591
774.00 5.137777
774.10 5.165435
774.20 5.209948
774.30 5.19959
774.40 5.091138
774.50 4.965309
774.60 4.889475
774.70 4.878036
774.80 4.861272
774.90 4.783017
775.00 4.719385
775.10 4.716904
775.20 4.636687
775.30 4.528933
775.40 4.444584
775.50 4.37707
775.60 4.502836
775.70 4.667252
775.80 4.660357
775.90 4.643615
776.00 4.748173
776.10 4.834497
776.20 4.797626
776.30 4.745394
776.40 4.717263
776.50 4.658653
776.60 4.627697
776.70 4.664621
776.80 4.727984
776.90 4.797474
777.00 4.855439
777.10 4.888981
777.20 4.912412
777.30 4.940708
777.40 4.956612
777.50 4.953765
777.60 4.93265
777.70 4.910024
777.80 4.93245
777.90 4.986604
778.00 5.023229
778.10 5.027947
778.20 4.978139
778.30 4.873069
778.40 4.760598
778.50 4.673493
778.60 4.617518
778.70 4.58844
778.80 4.636033
778.90 4.743342
779.00 4.792229
779.10 4.811501
779.20 4.844031
779.30 4.909282
779.40 5.059993
779.50 5.171836
779.60 5.135331
779.70 4.993405
779.80 4.833273
779.90 4.736946
780.00 4.709398
780.10 4.748443
780.20 4.790116
780.30 4.828804
780.40 4.944915
780.50 5.068229
780.60 5.146164
780.70 5.213998
780.80 5.241032
780.90 5.294949
781.00 5.404362
781.10 5.390454
781.20 5.263917
781.30 5.209675
781.40 5.232613
781.50 5.272356
781.60 5.296994
781.70 5.267859
781.80 5.257514
781.90 5.322912
782.00 5.358482
782.10 5.330308
782.20 5.319754
782.30 5.301919
782.40 5.210874
782.50 5.10919
782.60 5.065396
782.70 5.065723
782.80 5.059907
782.90 5.012284
783.00 4.922119
783.10 4.836249
783.20 4.804926
783.30 4.825823
783.40 4.866382
783.50 4.914401
783.60 4.962268
783.70 5.001467
783.80 5.025482
783.90 5.006798
784.00 4.987425
784.10 5.026628
784.20 5.09962
784.30 5.1524
784.40 5.141898
784.50 5.115725
784.60 5.138081
784.70 5.187197
784.80 5.211408
784.90 5.183087
785.00 5.158528
785.10 5.213856
785.20 5.306975
785.30 5.377155
785.40 5.450704
785.50 5.466324
785.60 5.372482
785.70 5.332572
785.80 5.341995
785.90 5.300522
786.00 5.29701
786.10 5.314592
786.20 5.282062
786.30 5.209554
786.40 5.130754
786.50 5.117106
786.60 5.19443
786.70 5.305226
786.80 5.362873
786.90 5.367241
787.00 5.361701
787.10 5.35217
787.20 5.352067
787.30 5.313837
787.40 5.220532
787.50 5.155822
787.60 5.187574
787.70 5.294634
787.80 5.391525
787.90 5.457895
788.00 5.495487
788.10 5.509329
788.20 5.536238
788.30 5.55419
788.40 5.54782
788.50 5.564641
788.60 5.582248
788.70 5.568314
788.80 5.564024
788.90 5.602369
789.00 5.666544
789.10 5.710214
789.20 5.69814
789.30 5.656681
789.40 5.622304
789.50 5.596626
789.60 5.581766
789.70 5.586692
789.80 5.599866
789.90 5.615451
790.00 5.619398
790.10 5.586732
790.20 5.537369
790.30 5.500307
790.40 5.521192
790.50 5.577579
790.60 5.595757
790.70 5.558609
790.80 5.467253
790.90 5.39569
791.00 5.38246
791.10 5.351104
791.20 5.342422
791.30 5.445347
791.40 5.569266
791.50 5.580587
791.60 5.499346
791.70 5.420516
791.80 5.421259
791.90 5.473536
792.00 5.530362
792.10 5.579627
792.20 5.592342
792.30 5.570668
792.40 5.534913
792.50 5.488282
792.60 5.465696
792.70 5.479693
792.80 5.499883
792.90 5.530977
793.00 5.576758
793.10 5.621046
793.20 5.700882
793.30 5.782524
793.40 5.783068
793.50 5.75488
793.60 5.725924
793.70 5.670116
793.80 5.649137
793.90 5.647576
794.00 5.635922
794.10 5.647468
794.20 5.667385
794.30 5.684302
794.40 5.709937
794.50 5.717139
794.60 5.678703
794.70 5.611189
794.80 5.554794
794.90 5.522089
795.00 5.500638
795.10 5.536273
795.20 5.624144
795.30 5.718276
795.40 5.811085
795.50 5.864434
795.60 5.866803
795.70 5.864763
795.80 5.890306
795.90 5.890459
796.00 5.843123
796.10 5.792475
796.20 5.748863
796.30 5.79398
796.40 5.939659
796.50 6.083506
796.60 6.148423
796.70 6.055018
796.80 5.893133
796.90 5.824553
797.00 5.838056
797.10 5.905099
797.20 5.975846
797.30 5.991368
797.40 5.985215
797.50 5.964426
797.60 5.940142
797.70 5.975552
797.80 6.032415
797.90 6.069832
798.00 6.099527
798.10 6.081797
798.20 6.009373
798.30 5.913288
798.40 5.847
798.50 5.869196
798.60 5.92727
798.70 5.916236
798.80 5.863599
798.90 5.845371
799.00 5.836664
799.10 5.86104
799.20 5.959443
799.30 6.099556
799.40 6.253915
799.50 6.311306
799.60 6.176959
799.70 5.949981
799.80 5.814992
799.90 5.791317
800.00 5.790835
800.10 5.849164
800.20 5.963813
800.30 6.014888
800.40 6.015323
800.50 6.030938
800.60 6.042323
800.70 6.072451
800.80 6.086339
800.90 6.045444
801.00 6.025725
801.10 6.048132
801.20 6.095454
801.30 6.176687
801.40 6.225193
801.50 6.17699
801.60 6.101422
801.70 6.085081
801.80 6.097284
801.90 6.114591
802.00 6.167273
802.10 6.200252
802.20 6.149048
802.30 6.083563
802.40 6.073435
802.50 6.098347
802.60 6.139732
802.70 6.191931
802.80 6.199207
802.90 6.165259
803.00 6.163711
803.10 6.201246
803.20 6.253158
803.30 6.262969
803.40 6.261665
803.50 6.296057
803.60 6.296948
803.70 6.269155
803.80 6.251759
803.90 6.242142
804.00 6.261483
804.10 6.283808
804.20 6.265666
804.30 6.257554
804.40 6.290171
804.50 6.320297
804.60 6.318977
804.70 6.270043
804.80 6.202971
804.90 6.180374
805.00 6.216381
805.10 6.300503
805.20 6.404167
805.30 6.481542
805.40 6.505576
805.50 6.469049
805.60 6.405411
805.70 6.413245
805.80 6.482284
805.90 6.524521
806.00 6.556116
806.10 6.573155
806.20 6.606588
806.30 6.653917
806.40 6.582963
806.50 6.446457
806.60 6.369951
806.70 6.36139
806.80 6.416746
806.90 6.470059
807.00 6.466516
807.10 6.428123
807.20 6.403214
807.30 6.436694
807.40 6.492646
807.50 6.503295
807.60 6.498263
807.70 6.520038
807.80 6.550989
807.90 6.585786
808.00 6.597986
808.10 6.578209
808.20 6.581246
808.30 6.619842
808.40 6.666742
808.50 6.685951
808.60 6.648337
808.70 6.600453
808.80 6.598647
808.90 6.617655
809.00 6.621972
809.10 6.633918
809.20 6.675176
809.30 6.702809
809.40 6.684549
809.50 6.657323
809.60 6.616283
809.70 6.566744
809.80 6.575166
809.90 6.603204
810.00 6.604568
810.10 6.634039
810.20 6.670209
810.30 6.662943
810.40 6.639254
810.50 6.621545
810.60 6.610654
810.70 6.604545
810.80 6.606296
810.90 6.621179
811.00 6.635072
811.10 6.643749
811.20 6.658154
811.30 6.682451
811.40 6.715602
811.50 6.721207
811.60 6.675185
811.70 6.595371
811.80 6.479109
811.90 6.402416
812.00 6.468318
812.10 6.605868
812.20 6.704056
812.30 6.750398
812.40 6.743843
812.50 6.73369
812.60 6.770858
812.70 6.807314
812.80 6.828602
812.90 6.822052
813.00 6.784968
813.10 6.78393
813.20 6.799186
813.30 6.792323
813.40 6.779021
813.50 6.767254
813.60 6.775004
813.70 6.804305
813.80 6.834794
813.90 6.867886
814.00 6.873705
814.10 6.82676
814.20 6.787752
814.30 6.766019
814.40 6.73716
814.50 6.726534
814.60 6.741117
814.70 6.77334
814.80 6.788287
814.90 6.752541
815.00 6.692273
815.10 6.673386
815.20 6.705566
815.30 6.73999
815.40 6.762098
815.50 6.769262
815.60 6.751907
815.70 6.731145
815.80 6.732978
815.90 6.753925
816.00 6.76089
816.10 6.720761
816.20 6.653001
816.30 6.599056
816.40 6.570394
816.50 6.581213
816.60 6.640994
816.70 6.723256
816.80 6.813065
816.90 6.88779
817.00 6.893783
817.10 6.833017
817.20 6.768469
817.30 6.760253
817.40 6.80038
817.50 6.832223
817.60 6.828594
817.70 6.773325
817.80 6.684291
817.90 6.609773
818.00 6.561423
818.10 6.469505
818.20 6.234427
818.30 5.78593
818.40 5.207021
818.50 4.808649
818.60 4.817549
818.70 5.192121
818.80 5.690832
818.90 6.068287
819.00 6.280765
819.10 6.3691
819.20 6.339074
819.30 6.148911
819.40 5.721491
819.50 5.097607
819.60 4.540492
819.70 4.32739
819.80 4.559998
819.90 5.098781
820.00 5.630208
820.10 5.978383
820.20 6.191719
820.30 6.352801
820.40 6.460212
820.50 6.487132
820.60 6.453167
820.70 6.407044
820.80 6.395052
820.90 6.419021
821.00 6.453515
821.10 6.487725
821.20 6.516826
821.30 6.547844
821.40 6.582068
821.50 6.585895
821.60 6.570141
821.70 6.556087
821.80 6.537927
821.90 6.540426
822.00 6.544748
822.10 6.520184
822.20 6.482836
822.30 6.469055
822.40 6.522422
822.50 6.623118
822.60 6.695506
822.70 6.702717
822.80 6.676527
822.90 6.64367
823.00 6.625183
823.10 6.672421
823.20 6.746332
823.30 6.750953
823.40 6.692934
823.50 6.618251
823.60 6.550245
823.70 6.538404
823.80 6.631658
823.90 6.770064
824.00 6.836352
824.10 6.842806
824.20 6.849194
824.30 6.823019
824.40 6.749459
824.50 6.706957
824.60 6.748485
824.70 6.85038
824.80 6.99191
824.90 7.113005
825.00 7.148825
825.10 7.141209
825.20 7.118397
825.30 7.038838
825.40 6.923735
825.50 6.832845
825.60 6.747724
825.70 6.645838
825.80 6.576911
825.90 6.58708
826.00 6.672599
826.10 6.782684
826.20 6.862902
826.30 6.898415
826.40 6.913932
826.50 6.932264
826.60 6.956344
826.70 6.98851
826.80 7.032192
826.90 7.064055
827.00 7.048681
827.10 6.989061
827.20 6.901205
827.30 6.793288
827.40 6.674837
827.50 6.564956
827.60 6.502436
827.70 6.501785
827.80 6.565842
827.90 6.680636
828.00 6.781454
828.10 6.794535
828.20 6.691187
828.30 6.585934
828.40 6.583142
828.50 6.622779
828.60 6.693596
828.70 6.749002
828.80 6.676651
828.90 6.566759
829.00 6.487938
829.10 6.368806
829.20 6.264283
829.30 6.250339
829.40 6.287945
829.50 6.365723
829.60 6.465043
829.70 6.556885
829.80 6.682973
829.90 6.853501
830.00 6.780351
830.10 6.671855
830.20 6.563359
830.30 6.496659
830.40 6.429959
830.50 6.426823
830.60 6.423688
830.70 6.419983
830.80 6.416278
830.90 6.449976
831.00 6.483674
831.10 6.570303
831.20 6.656933
831.30 6.621106
831.40 6.585279
831.50 6.561035
831.60 6.536791
831.70 6.546596
831.80 6.556401
831.90 6.550874
832.00 6.545347
832.10 6.519589
832.20 6.49383
832.30 6.488719
832.40 6.483608
832.50 6.501833
832.60 6.520059
832.70 6.413229
832.80 6.306399
832.90 6.264179
833.00 6.221959
833.10 6.322758
833.20 6.423557
833.30 6.458996
833.40 6.494435
833.50 6.43934
833.60 6.384245
833.70 6.369432
833.80 6.354618
833.90 6.403169
834.00 6.45172
834.10 6.50199
834.20 6.55226
834.30 6.668455
834.40 6.784651
834.50 6.842639
834.60 6.900628
834.70 6.653489
834.80 6.40635
834.90 6.355713
835.00 6.305076
835.10 6.427309
835.20 6.549541
835.30 6.546311
835.40 6.543082
835.50 6.478747
835.60 6.414412
835.70 6.456418
835.80 6.498424
835.90 6.526529
836.00 6.554634
836.10 6.546245
836.20 6.537857
836.30 6.486302
836.40 6.434746
836.50 6.358039
836.60 6.281331
836.70 6.32082
836.80 6.360309
836.90 6.461022
837.00 6.561734
837.10 6.602817
837.20 6.6439
837.30 6.598749
837.40 6.553598
837.50 6.479907
837.60 6.406216
837.70 6.341357
837.80 6.276498
837.90 6.284582
838.00 6.292667
838.10 6.316578
838.20 6.340489
838.30 6.248576
838.40 6.156663
838.50 6.105023
838.60 6.053383
838.70 6.024714
838.80 5.996045
838.90 5.964566
839.00 5.933087
839.10 6.043208
839.20 6.153329
839.30 6.293118
839.40 6.432908
839.50 6.405503
839.60 6.378098
839.70 6.390777
839.80 6.403456
839.90 6.419149
840.00 6.434841
840.10 6.377843
840.20 6.445376
840.30 6.496322
840.40 6.509051
840.50 6.518923
840.60 6.535195
840.70 6.55551
840.80 6.568579
840.90 6.566884
841.00 6.555
841.10 6.497741
841.20 6.436675
841.30 6.341887
841.40 6.232633
841.50 6.219438
841.60 6.293803
841.70 6.353498
841.80 6.398634
841.90 6.437623
842.00 6.421898
842.10 6.409323
842.20 6.413366
842.30 6.393336
842.40 6.371319
842.50 6.336008
842.60 6.296245
842.70 6.210637
842.80 6.107143
842.90 6.100944
843.00 6.182772
843.10 6.245353
843.20 6.297265
843.30 6.320276
843.40 6.133147
843.50 5.883571
843.60 5.665627
843.70 5.450903
843.80 5.365277
843.90 5.605267
844.00 5.823333
844.10 5.988181
844.20 6.140404
844.30 6.165383
844.40 6.153171
844.50 6.156828
844.60 6.132389
844.70 6.118797
844.80 6.135808
844.90 6.140225
845.00 6.106668
845.10 6.112077
845.20 6.082642
845.30 6.056362
845.40 6.04798
845.50 6.046066
845.60 6.03128
845.70 6.052988
845.80 6.062332
845.90 6.074114
846.00 6.066323
846.10 6.059545
846.20 6.071588
846.30 6.087027
846.40 6.065545
846.50 6.039467
846.60 6.002906
846.70 5.937483
846.80 5.874707
846.90 5.79862
847.00 5.714896
847.10 5.705321
847.20 5.766321
847.30 5.836521
847.40 5.897096
847.50 5.952938
847.60 5.978274
847.70 5.995123
847.80 6.019104
847.90 6.043576
848.00 6.055883
848.10 6.058073
848.20 6.057964
848.30 6.050305
848.40 6.041554
848.50 6.055425
848.60 6.086774
848.70 6.112671
848.80 6.125223
848.90 6.138228
849.00 6.162345
849.10 6.18862
849.20 6.213136
849.30 6.220766
849.40 6.181334
849.50 6.118434
849.60 6.034625
849.70 5.817831
849.80 5.58799
849.90 5.417203
850.00 5.287324
850.10 5.272078
850.20 5.486526
850.30 5.703701
850.40 5.87125
850.50 6.011747
850.60 6.033745
850.70 6.002156
850.80 6.003617
850.90 6.006913
851.00 6.029608
851.10 6.061505
851.20 6.081131
851.30 6.04467
851.40 5.986677
851.50 5.900587
851.60 5.816423
851.70 5.741737
851.80 5.745062
851.90 5.757883
852.00 5.794979
852.10 5.835645
852.20 5.892127
852.30 5.959028
852.40 6.026387
852.50 6.05417
852.60 6.076066
852.70 6.078043
852.80 6.069685
852.90 6.057998
853.00 6.071602
853.10 6.085109
853.20 6.062755
853.30 6.042441
853.40 6.048667
853.50 6.063705
853.60 6.058315
853.70 6.033547
853.80 5.986212
853.90 5.859316
854.00 5.712052
854.10 5.428006
854.20 5.10145
854.30 4.815103
854.40 4.58903
854.50 4.493286
854.60 4.784832
854.70 5.083698
854.80 5.350775
854.90 5.597362
855.00 5.770362
855.10 5.886177
855.20 5.986777
855.30 6.047588
855.40 6.100447
855.50 6.124325
855.60 6.14718
855.70 6.166895
855.80 6.184458
855.90 6.166146
856.00 6.137348
856.10 6.123421
856.20 6.109025
856.30 6.096393
856.40 6.119026
856.50 6.148681
856.60 6.185879
856.70 6.209382
856.80 6.21262
856.90 6.218834
857.00 6.233164
857.10 6.232123
857.20 6.219425
857.30 6.206432
857.40 6.196772
857.50 6.198511
857.60 6.203313
857.70 6.20772
857.80 6.219356
857.90 6.230433
858.00 6.229819
858.10 6.241811
858.20 6.248451
858.30 6.229187
858.40 6.216003
858.50 6.222962
858.60 6.230699
858.70 6.244173
858.80 6.274057
858.90 6.296711
859.00 6.300086
859.10 6.298258
859.20 6.282812
859.30 6.266005
859.40 6.257201
859.50 6.237477
859.60 6.231954
859.70 6.235791
859.80 6.234579
859.90 6.226322
860.00 6.221001
860.10 6.225148
860.20 6.237141
860.30 6.2464
860.40 6.251401
860.50 6.261631
860.60 6.273432
860.70 6.279771
860.80 6.269735
860.90 6.262769
861.00 6.251697
861.10 6.235816
861.20 6.218084
861.30 6.186693
861.40 6.156766
861.50 6.170518
861.60 6.210273
861.70 6.239373
861.80 6.243659
861.90 6.260571
862.00 6.280416
862.10 6.290424
862.20 6.279969
862.30 6.263978
862.40 6.243162
862.50 6.228882
862.60 6.220142
862.70 6.240576
862.80 6.260401
862.90 6.273454
863.00 6.285357
863.10 6.290349
863.20 6.28937
863.30 6.294575
863.40 6.271108
863.50 6.237933
863.60 6.226953
863.70 6.235768
863.80 6.241159
863.90 6.258087
864.00 6.282567
864.10 6.298778
864.20 6.315885
864.30 6.340847
864.40 6.369028
864.50 6.37361
864.60 6.366651
864.70 6.351606
864.80 6.326882
864.90 6.306266
865.00 6.30182
865.10 6.302398
865.20 6.315964
865.30 6.317456
865.40 6.311977
865.50 6.306222
865.60 6.298176
865.70 6.279485
865.80 6.25066
865.90 6.15999
866.00 6.023054
866.10 5.818857
866.20 5.469446
866.30 5.160152
866.40 5.010699
866.50 4.916313
866.60 5.077329
866.70 5.438778
866.80 5.762369
866.90 5.984144
867.00 6.174089
867.10 6.2407
867.20 6.288858
867.30 6.31622
867.40 6.313271
867.50 6.268823
867.60 6.185796
867.70 6.123467
867.80 6.137457
867.90 6.158973
868.00 6.228733
868.10 6.327448
868.20 6.364165
868.30 6.323519
868.40 6.287938
868.50 6.266917
868.60 6.238716
868.70 6.18976
868.80 6.130842
868.90 6.004443
869.00 5.838314
869.10 5.70976
869.20 5.764504
869.30 5.824811
869.40 5.899955
869.50 5.978823
869.60 6.042057
869.70 6.062488
869.80 6.094146
869.90 6.118127
870.00 6.136411
870.10 6.137542
870.20 6.133247
870.30 6.14142
870.40 6.162952
870.50 6.176421
870.60 6.193985
870.70 6.208386
870.80 6.219619
870.90 6.233944
871.00 6.217362
871.10 6.186237
871.20 6.161191
871.30 6.134966
871.40 6.122347
871.50 6.150789
871.60 6.180955
871.70 6.185688
871.80 6.180577
871.90 6.183993
872.00 6.180973
872.10 6.183748
872.20 6.227367
872.30 6.279953
872.40 6.316544
872.50 6.342433
872.60 6.369769
872.70 6.389646
872.80 6.4202
872.90 6.454462
873.00 6.474521
873.10 6.451626
873.20 6.426687
873.30 6.37941
873.40 6.328222
873.50 6.298634
873.60 6.284
873.70 6.270476
873.80 6.275419
873.90 6.287562
874.00 6.312266
874.10 6.337314
874.20 6.368247
874.30 6.398176
874.40 6.429623
874.50 6.44625
874.60 6.452931
874.70 6.435633
874.80 6.437759
874.90 6.429562
875.00 6.392717
875.10 6.373315
875.20 6.390923
875.30 6.406494
875.40 6.433984
875.50 6.468933
875.60 6.469915
875.70 6.423675
875.80 6.391547
875.90 6.393878
876.00 6.399133
876.10 6.425471
876.20 6.465261
876.30 6.470571
876.40 6.448211
876.50 6.413267
876.60 6.354985
876.70 6.308754
876.80 6.310008
876.90 6.320179
877.00 6.372604
877.10 6.430764
877.20 6.475656
877.30 6.473315
877.40 6.466493
877.50 6.447571
877.60 6.423912
877.70 6.410397
877.80 6.471687
877.90 6.504221
878.00 6.455598
878.10 6.422124
878.20 6.416228
878.30 6.400068
878.40 6.413712
878.50 6.441073
878.60 6.454879
878.70 6.460904
878.80 6.466752
878.90 6.464366
879.00 6.459025
879.10 6.4633
879.20 6.467591
879.30 6.462216
879.40 6.440597
879.50 6.425242
879.60 6.431442
879.70 6.439332
879.80 6.443754
879.90 6.450501
880.00 6.422107
880.10 6.400652
880.20 6.3778
880.30 6.301881
880.40 6.216252
880.50 6.151246
880.60 6.067318
880.70 5.994078
880.80 5.908054
880.90 5.850243
881.00 5.955949
881.10 6.094793
881.20 6.255827
881.30 6.418716
881.40 6.535973
881.50 6.577917
881.60 6.60057
881.70 6.602863
881.80 6.610991
881.90 6.615514
882.00 6.613122
882.10 6.566591
882.20 6.513602
882.30 6.437885
882.40 6.299485
882.50 6.180094
882.60 6.131481
882.70 6.097339
882.80 6.167923
882.90 6.302011
883.00 6.436448
883.10 6.489258
883.20 6.532016
883.30 6.565708
883.40 6.604113
883.50 6.604787
883.60 6.590384
883.70 6.576356
883.80 6.573908
883.90 6.575383
884.00 6.562338
884.10 6.544314
884.20 6.556795
884.30 6.586721
884.40 6.589744
884.50 6.579064
884.60 6.56858
884.70 6.562601
884.80 6.559703
884.90 6.547078
885.00 6.526108
885.10 6.553832
885.20 6.577201
885.30 6.608287
885.40 6.663795
885.50 6.702712
885.60 6.688272
885.70 6.677793
885.80 6.617891
885.90 6.560245
886.00 6.481761
886.10 6.37773
886.20 6.295098
886.30 6.271991
886.40 6.245788
886.50 6.297589
886.60 6.330699
886.70 6.342599
886.80 6.331653
886.90 6.298169
887.00 6.235161
887.10 6.193161
887.20 6.14991
887.30 6.106841
887.40 6.119828
887.50 6.138076
887.60 6.157681
887.70 6.194
887.80 6.227121
887.90 6.279303
888.00 6.343222
888.10 6.369408
888.20 6.376549
888.30 6.376541
888.40 6.362078
888.50 6.353441
888.60 6.325185
888.70 6.280563
888.80 6.280761
888.90 6.30014
889.00 6.315621
889.10 6.345162
889.20 6.374017
889.30 6.379099
889.40 6.380755
889.50 6.352514
889.60 6.311495
889.70 6.280223
889.80 6.254425
889.90 6.235389
890.00 6.249096
890.10 6.263384
890.20 6.297648
890.30 6.333704
890.40 6.357374
890.50 6.369484
890.60 6.378452
890.70 6.387538
890.80 6.403415
890.90 6.38973
891.00 6.364541
891.10 6.340532
891.20 6.297166
891.30 6.264731
891.40 6.274839
891.50 6.286569
891.60 6.30397
891.70 6.327811
891.80 6.343998
891.90 6.363192
892.00 6.381043
892.10 6.380006
892.20 6.371745
892.30 6.354891
892.40 6.340838
892.50 6.334233
892.60 6.336578
892.70 6.33617
892.80 6.317622
892.90 6.298894
893.00 6.31415
893.10 6.341965
893.20 6.375396
893.30 6.405414
893.40 6.429674
893.50 6.454518
893.60 6.465721
893.70 6.438778
893.80 6.427601
893.90 6.401141
894.00 6.349603
894.10 6.326503
894.20 6.306227
894.30 6.285579
894.40 6.299622
894.50 6.321555
894.60 6.3074
894.70 6.273626
894.80 6.257456
894.90 6.272542
895.00 6.277508
895.10 6.292039
895.20 6.319132
895.30 6.34562
895.40 6.37327
895.50 6.404595
895.60 6.410237
895.70 6.416714
895.80 6.42334
895.90 6.42691
896.00 6.407303
896.10 6.386854
896.20 6.368275
896.30 6.379342
896.40 6.391697
896.50 6.38997
896.60 6.380225
896.70 6.368272
896.80 6.357566
896.90 6.367599
897.00 6.374832
897.10 6.381086
897.20 6.400544
897.30 6.41894
897.40 6.411722
897.50 6.391926
897.60 6.388214
897.70 6.380413
897.80 6.365334
897.90 6.372965
898.00 6.38093
898.10 6.396202
898.20 6.424482
898.30 6.461748
898.40 6.460782
898.50 6.475893
898.60 6.516719
898.70 6.541311
898.80 6.531326
898.90 6.522033
899.00 6.503464
899.10 6.487998
899.20 6.488876
899.30 6.499926
899.40 6.511883
899.50 6.529067
899.60 6.546398
899.70 6.530785
899.80 6.509068
899.90 6.472265
900.00 6.395573
900.10 6.340551
900.20 6.348877
900.30 6.358839
900.40 6.448442
900.50 6.566147
900.60 6.634743
900.70 6.656944
900.80 6.652224
900.90 6.622787
901.00 6.604249
901.10 6.549633
901.20 6.468125
901.30 6.448365
901.40 6.488105
901.50 6.523233
901.60 6.552014
901.70 6.570501
901.80 6.544598
901.90 6.519117
902.00 6.502624
902.10 6.483685
902.20 6.462938
902.30 6.459663
902.40 6.459456
902.50 6.462127
902.60 6.468217
902.70 6.474743
902.80 6.46987
902.90 6.46929
903.00 6.462941
903.10 6.465138
903.20 6.520808
903.30 6.585345
903.40 6.604501
903.50 6.599733
903.60 6.598676
903.70 6.616618
903.80 6.629139
903.90 6.62464
904.00 6.612815
904.10 6.614578
904.20 6.635954
904.30 6.631106
904.40 6.586693
904.50 6.560992
904.60 6.567093
904.70 6.569641
904.80 6.559398
904.90 6.538949
905.00 6.524222
905.10 6.552199
905.20 6.556764
905.30 6.527083
905.40 6.50685
905.50 6.508816
905.60 6.512747
905.70 6.512354
905.80 6.498121
905.90 6.490377
906.00 6.474271
906.10 6.462648
906.20 6.433896
906.30 6.394029
906.40 6.365125
906.50 6.36454
906.60 6.366424
906.70 6.396893
906.80 6.429338
906.90 6.46106
907.00 6.494515
907.10 6.508972
907.20 6.517175
907.30 6.553055
907.40 6.574525
907.50 6.584417
907.60 6.577928
907.70 6.573153
907.80 6.594262
907.90 6.615686
908.00 6.620687
908.10 6.616876
908.20 6.598383
908.30 6.590641
908.40 6.592266
908.50 6.577061
908.60 6.548437
908.70 6.504777
908.80 6.445897
908.90 6.38156
909.00 6.285741
909.10 6.203906
909.20 6.220755
909.30 6.256051
909.40 6.31803
909.50 6.398778
909.60 6.467169
909.70 6.504373
909.80 6.539504
909.90 6.555591
910.00 6.569875
910.10 6.59252
910.20 6.618743
910.30 6.628676
910.40 6.629083
910.50 6.625765
910.60 6.604391
910.70 6.58693
910.80 6.57069
910.90 6.545511
911.00 6.547082
911.10 6.556216
911.20 6.56207
911.30 6.560256
911.40 6.552364
911.50 6.543515
911.60 6.552407
911.70 6.544004
911.80 6.533979
911.90 6.53556
912.00 6.516921
912.10 6.501614
912.20 6.519672
912.30 6.537596
912.40 6.548216
912.50 6.587801
912.60 6.623446
912.70 6.612199
912.80 6.600549
912.90 6.603316
913.00 6.608097
913.10 6.614477
913.20 6.622285
913.30 6.643203
913.40 6.69199
913.50 6.73302
913.60 6.729792
913.70 6.719405
913.80 6.67536
913.90 6.622512
914.00 6.567544
914.10 6.51834
914.20 6.48907
914.30 6.517655
914.40 6.548306
914.50 6.580801
914.60 6.593073
914.70 6.571116
914.80 6.549216
914.90 6.519764
915.00 6.516574
915.10 6.520723
915.20 6.531357
915.30 6.536323
915.40 6.56857
915.50 6.61063
915.60 6.647931
915.70 6.664414
915.80 6.669403
915.90 6.660139
916.00 6.664655
916.10 6.653761
916.20 6.644278
916.30 6.629625
916.40 6.598716
916.50 6.58074
916.60 6.595444
916.70 6.603567
916.80 6.600742
916.90 6.601676
917.00 6.597483
917.10 6.601805
917.20 6.60516
917.30 6.606792
917.40 6.611316
917.50 6.615573
917.60 6.621107
917.70 6.640556
917.80 6.676221
917.90 6.715788
918.00 6.706689
918.10 6.696596
918.20 6.664954
918.30 6.625846
918.40 6.597842
918.50 6.608793
918.60 6.620966
918.70 6.619805
918.80 6.620984
918.90 6.645175
919.00 6.662416
919.10 6.673079
919.20 6.678766
919.30 6.651037
919.40 6.63191
919.50 6.62234
919.60 6.632842
919.70 6.643233
919.80 6.669311
919.90 6.675782
920.00 6.66888
920.10 6.665271
920.20 6.664517
920.30 6.688602
920.40 6.711725
920.50 6.724899
920.60 6.742604
920.70 6.732408
920.80 6.698868
920.90 6.657712
921.00 6.583231
921.10 6.522162
921.20 6.536516
921.30 6.549775
921.40 6.575207
921.50 6.605724
921.60 6.624604
921.70 6.635838
921.80 6.648735
921.90 6.639101
922.00 6.630528
922.10 6.611607
922.20 6.587513
922.30 6.569494
922.40 6.569289
922.50 6.572414
922.60 6.538632
922.70 6.490698
922.80 6.46078
922.90 6.438306
923.00 6.404835
923.10 6.371982
923.20 6.337645
923.30 6.314492
923.40 6.298913
923.50 6.33761
923.60 6.379958
923.70 6.426683
923.80 6.470218
923.90 6.509735
924.00 6.508891
924.10 6.51563
924.20 6.545749
924.30 6.564764
924.40 6.579824
924.50 6.60314
924.60 6.594287
924.70 6.562142
924.80 6.539758
924.90 6.525029
925.00 6.509939
925.10 6.516345
925.20 6.539088
925.30 6.565763
925.40 6.569775
925.50 6.57705
925.60 6.567758
925.70 6.543027
925.80 6.531502
925.90 6.527252
926.00 6.49771
926.10 6.470357
926.20 6.452592
926.30 6.43964
926.40 6.43007
926.50 6.433501
926.60 6.438035
926.70 6.446089
926.80 6.476678
926.90 6.498554
927.00 6.511699
927.10 6.53024
927.20 6.545041
927.30 6.5576
927.40 6.549249
927.50 6.520587
927.60 6.494242
927.70 6.46753
927.80 6.44102
927.90 6.433894
928.00 6.43202
928.10 6.435857
928.20 6.414455
928.30 6.413274
928.40 6.451389
928.50 6.47942
928.60 6.483963
928.70 6.490545
928.80 6.464115
928.90 6.42654
929.00 6.395919
929.10 6.370607
929.20 6.347455
929.30 6.33289
929.40 6.312351
929.50 6.342782
929.60 6.397838
929.70 6.439381
929.80 6.465725
929.90 6.478221
930.00 6.451801
930.10 6.429593
930.20 6.4349
930.30 6.44335
930.40 6.461875
930.50 6.483695
930.60 6.502853
930.70 6.494902
930.80 6.481483
930.90 6.479192
931.00 6.484233
931.10 6.493052
931.20 6.462714
931.30 6.435475
931.40 6.486458
931.50 6.54088
931.60 6.530183
931.70 6.517855
931.80 6.485272
931.90 6.450283
932.00 6.420038
932.10 6.458123
932.20 6.494745
932.30 6.525055
932.40 6.547938
932.50 6.54485
932.60 6.537313
932.70 6.533764
932.80 6.498704
932.90 6.460995
933.00 6.488805
933.10 6.505431
933.20 6.505309
933.30 6.491514
933.40 6.484304
933.50 6.464459
933.60 6.446383
933.70 6.441613
933.80 6.455013
933.90 6.513892
934.00 6.584363
934.10 6.600046
934.20 6.560819
934.30 6.516376
934.40 6.501361
934.50 6.508426
934.60 6.479379
934.70 6.433064
934.80 6.440922
934.90 6.498613
935.00 6.532989
935.10 6.519799
935.20 6.493573
935.30 6.462184
935.40 6.440588
935.50 6.420608
935.60 6.397515
935.70 6.393284
935.80 6.388705
935.90 6.393046
936.00 6.413966
936.10 6.421838
936.20 6.425396
936.30 6.424393
936.40 6.422963
936.50 6.433584
936.60 6.453025
936.70 6.469204
936.80 6.433743
936.90 6.407323
937.00 6.394112
937.10 6.397435
937.20 6.406297
937.30 6.394326
937.40 6.358346
937.50 6.300747
937.60 6.362172
937.70 6.426339
937.80 6.472046
937.90 6.457483
938.00 6.462258
938.10 6.448689
938.20 6.424789
938.30 6.39955
938.40 6.404992
938.50 6.411418
938.60 6.413653
938.70 6.407847
938.80 6.414359
938.90 6.408445
939.00 6.38575
939.10 6.35322
939.20 6.364409
939.30 6.394342
939.40 6.423382
939.50 6.390123
939.60 6.363658
939.70 6.343749
939.80 6.339507
939.90 6.333076
940.00 6.338722
940.10 6.350177
940.20 6.35576
940.30 6.349069
940.40 6.3346
940.50 6.320127
940.60 6.326794
940.70 6.331363
940.80 6.338491
940.90 6.349261
941.00 6.369028
941.10 6.375226
941.20 6.380999
941.30 6.392051
941.40 6.384566
941.50 6.37402
941.60 6.365896
941.70 6.355638
941.80 6.34571
941.90 6.346196
942.00 6.356752
942.10 6.361772
942.20 6.376975
942.30 6.391923
942.40 6.40399
942.50 6.413574
942.60 6.424398
942.70 6.430243
942.80 6.427452
942.90 6.440257
943.00 6.443948
943.10 6.440509
943.20 6.42468
943.30 6.463587
943.40 6.497741
943.50 6.515593
943.60 6.479671
943.70 6.463716
943.80 6.434621
943.90 6.397181
944.00 6.367805
944.10 6.354722
944.20 6.346563
944.30 6.339642
944.40 6.35164
944.50 6.356766
944.60 6.36055
944.70 6.350698
944.80 6.332775
944.90 6.336752
945.00 6.353224
945.10 6.367149
945.20 6.382578
945.30 6.397777
945.40 6.40726
945.50 6.400593
945.60 6.404992
945.70 6.398381
945.80 6.38311
945.90 6.370744
946.00 6.396165
946.10 6.429715
946.20 6.459399
946.30 6.450618
946.40 6.432934
946.50 6.42485
946.60 6.440873
946.70 6.459042
946.80 6.463276
946.90 6.459844
947.00 6.46198
947.10 6.442488
947.20 6.419786
947.30 6.40156
947.40 6.40608
947.50 6.413349
947.60 6.415997
947.70 6.411131
947.80 6.402603
947.90 6.414834
948.00 6.431446
948.10 6.445415
948.20 6.431674
948.30 6.434479
948.40 6.436655
948.50 6.439328
948.60 6.422149
948.70 6.431727
948.80 6.455075
948.90 6.48663
949.00 6.477899
949.10 6.46222
949.20 6.446822
949.30 6.44338
949.40 6.449853
949.50 6.430474
949.60 6.390976
949.70 6.357817
949.80 6.388643
949.90 6.424344
950.00 6.450306
950.10 6.478697
950.20 6.52299
950.30 6.537576
950.40 6.496982
950.50 6.449243
950.60 6.442556
950.70 6.455789
950.80 6.467593
950.90 6.451101
951.00 6.433346
951.10 6.417334
951.20 6.414452
951.30 6.412387
951.40 6.402569
951.50 6.389315
951.60 6.382946
951.70 6.402875
951.80 6.42736
951.90 6.449641
952.00 6.457256
952.10 6.458156
952.20 6.466409
952.30 6.486183
952.40 6.503904
952.50 6.515203
952.60 6.519912
952.70 6.519686
952.80 6.528781
952.90 6.545991
953.00 6.557105
953.10 6.539034
953.20 6.520293
953.30 6.504818
953.40 6.494337
953.50 6.483437
953.60 6.458241
953.70 6.430883
953.80 6.409603
953.90 6.419821
954.00 6.423361
954.10 6.419625
954.20 6.405217
954.30 6.39361
954.40 6.357472
954.50 6.310758
954.60 6.27081
954.70 6.213791
954.80 6.150275
954.90 6.115982
955.00 6.184095
955.10 6.237488
955.20 6.288392
955.30 6.339007
955.40 6.398406
955.50 6.40771
955.60 6.411754
955.70 6.421353
955.80 6.449665
955.90 6.468976
956.00 6.480361
956.10 6.483651
956.20 6.4886
956.30 6.487545
956.40 6.484308
956.50 6.487042
956.60 6.474677
956.70 6.469751
956.80 6.46978
956.90 6.485328
957.00 6.48821
957.10 6.482963
957.20 6.471778
957.30 6.464674
957.40 6.409078
957.50 6.346112
957.60 6.29543
957.70 6.32247
957.80 6.336006
957.90 6.355449
958.00 6.385033
958.10 6.419838
958.20 6.430876
958.30 6.430638
958.40 6.428936
958.50 6.432031
958.60 6.428188
958.70 6.420118
958.80 6.402363
958.90 6.398008
959.00 6.390196
959.10 6.382809
959.20 6.378883
959.30 6.386273
959.40 6.391227
959.50 6.39104
959.60 6.377092
959.70 6.370251
959.80 6.324541
959.90 6.223672
960.00 6.133689
960.10 6.100479
960.20 6.072412
960.30 6.028106
960.40 6.128245
960.50 6.233258
960.60 6.312209
960.70 6.33068
960.80 6.366361
960.90 6.394606
961.00 6.418825
961.10 6.443659
961.20 6.43837
961.30 6.431576
961.40 6.427287
961.50 6.42365
961.60 6.413864
961.70 6.409528
961.80 6.407298
961.90 6.394907
962.00 6.396027
962.10 6.41062
962.20 6.426938
962.30 6.40881
962.40 6.390894
962.50 6.385605
962.60 6.406507
962.70 6.426404
962.80 6.434817
962.90 6.437006
963.00 6.440834
963.10 6.441317
963.20 6.438289
963.30 6.428606
963.40 6.399808
963.50 6.376904
963.60 6.300214
963.70 6.164704
963.80 6.062759
963.90 5.941557
964.00 5.799117
964.10 5.665952
964.20 5.841814
964.30 5.976833
964.40 6.08678
964.50 6.157437
964.60 6.271673
964.70 6.254222
964.80 6.163165
964.90 6.079075
965.00 6.122556
965.10 6.156241
965.20 6.189607
965.30 6.250915
965.40 6.315176
965.50 6.344956
965.60 6.337623
965.70 6.334835
965.80 6.328955
965.90 6.327945
966.00 6.329683
966.10 6.326488
966.20 6.322743
966.30 6.320274
966.40 6.32482
966.50 6.338504
966.60 6.339971
966.70 6.3342
966.80 6.327412
966.90 6.318076
967.00 6.310208
967.10 6.297593
967.20 6.269673
967.30 6.249171
967.40 6.166709
967.50 6.033882
967.60 5.914833
967.70 5.877726
967.80 5.836498
967.90 5.809746
968.00 5.991752
968.10 6.150276
968.20 6.255309
968.30 6.288929
968.40 6.349951
968.50 6.357106
968.60 6.34793
968.70 6.342988
968.80 6.26285
968.90 6.185412
969.00 6.133666
969.10 6.138665
969.20 6.108303
969.30 6.148468
969.40 6.239888
969.50 6.328036
969.60 6.359226
969.70 6.388155
969.80 6.411308
969.90 6.385481
970.00 6.373268
970.10 6.354886
970.20 6.327665
970.30 6.308678
970.40 6.212998
970.50 6.097727
970.60 5.993604
970.70 5.949427
970.80 5.879702
970.90 5.883366
971.00 6.045587
971.10 6.174061
971.20 6.248697
971.30 6.296413
971.40 6.354913
971.50 6.365353
971.60 6.382215
971.70 6.390067
971.80 6.345905
971.90 6.311353
972.00 6.284547
972.10 6.262054
972.20 6.231241
972.30 6.252559
972.40 6.287536
972.50 6.314372
972.60 6.264491
972.70 6.240351
972.80 6.181937
972.90 6.058916
973.00 5.932942
973.10 5.935163
973.20 5.994713
973.30 6.037889
973.40 6.120878
973.50 6.20769
973.60 6.271631
973.70 6.253655
973.80 6.249674
973.90 6.251697
974.00 6.258698
974.10 6.25957
974.20 6.200158
974.30 6.138468
974.40 6.08178
974.50 6.034444
974.60 5.974624
974.70 5.975626
974.80 6.061696
974.90 6.132481
975.00 6.190869
975.10 6.241282
975.20 6.291847
975.30 6.295606
975.40 6.309475
975.50 6.326131
975.60 6.338949
975.70 6.351362
975.80 6.363054
975.90 6.376738
976.00 6.386516
976.10 6.375348
976.20 6.367164
976.30 6.364271
976.40 6.371494
976.50 6.366626
976.60 6.36149
976.70 6.35503
976.80 6.356513
976.90 6.291558
977.00 6.215527
977.10 6.148976
977.20 6.127695
977.30 6.082094
977.40 6.084989
977.50 6.183279
977.60 6.269263
977.70 6.306512
977.80 6.316366
977.90 6.329772
978.00 6.306537
978.10 6.299172
978.20 6.267271
978.30 6.121372
978.40 5.993403
978.50 5.915175
978.60 5.87964
978.70 5.825123
978.80 5.877008
978.90 5.932035
979.00 5.981946
979.10 6.075314
979.20 6.164568
979.30 6.251279
979.40 6.329879
979.50 6.416971
979.60 6.428961
979.70 6.416367
979.80 6.411437
979.90 6.409975
980.00 6.413003
980.10 6.416013
980.20 6.416481
980.30 6.417891
980.40 6.421834
980.50 6.429333
980.60 6.436959
980.70 6.42813
980.80 6.417296
980.90 6.410631
981.00 6.418037
981.10 6.417001
981.20 6.407122
981.30 6.389915
981.40 6.379336
981.50 6.359519
981.60 6.336925
981.70 6.318795
981.80 6.330869
981.90 6.337571
982.00 6.344543
982.10 6.344037
982.20 6.346908
982.30 6.346835
982.40 6.345164
982.50 6.342231
982.60 6.347602
982.70 6.354861
982.80 6.359843
982.90 6.357739
983.00 6.360453
983.10 6.355481
983.20 6.341915
983.30 6.327901
983.40 6.326339
983.50 6.330547
983.60 6.335862
983.70 6.357869
983.80 6.37575
983.90 6.398467
984.00 6.421437
984.10 6.436351
984.20 6.437002
984.30 6.43342
984.40 6.429948
984.50 6.418933
984.60 6.410294
984.70 6.408485
984.80 6.414349
984.90 6.420807
985.00 6.411799
985.10 6.398527
985.20 6.388651
985.30 6.38407
985.40 6.371931
985.50 6.364768
985.60 6.383197
985.70 6.401128
985.80 6.408957
985.90 6.407237
986.00 6.410321
986.10 6.410139
986.20 6.410236
986.30 6.411937
986.40 6.424926
986.50 6.43466
986.60 6.439431
986.70 6.439015
986.80 6.443356
986.90 6.436844
987.00 6.425935
987.10 6.416888
987.20 6.434525
987.30 6.445962
987.40 6.456455
987.50 6.459176
987.60 6.466605
987.70 6.463504
987.80 6.460633
987.90 6.465779
988.00 6.463829
988.10 6.454106
988.20 6.447918
988.30 6.46411
988.40 6.470012
988.50 6.479326
988.60 6.490485
988.70 6.502946
988.80 6.484196
988.90 6.463383
989.00 6.446447
989.10 6.433393
989.20 6.42082
989.30 6.402376
989.40 6.374358
989.50 6.360262
989.60 6.313898
989.70 6.260381
989.80 6.221162
989.90 6.216962
990.00 6.194922
990.10 6.174563
990.20 6.17674
990.30 6.179886
990.40 6.146019
990.50 6.08194
990.60 6.02705
990.70 5.99656
990.80 5.957713
990.90 5.923725
991.00 5.960215
991.10 5.976057
991.20 5.98405
991.30 5.983454
991.40 5.999117
991.50 5.969341
991.60 5.917037
991.70 5.867768
991.80 5.880438
991.90 5.875024
992.00 5.880797
992.10 5.913997
992.20 5.958034
992.30 5.956795
992.40 5.936393
992.50 5.929785
992.60 5.939837
992.70 5.938013
992.80 5.942822
992.90 5.992625
993.00 6.023557
993.10 6.047024
993.20 6.070508
993.30 6.110734
993.40 6.084233
993.50 6.043505
993.60 6.014827
993.70 6.05372
993.80 6.066434
993.90 6.092258
994.00 6.137799
994.10 6.187911
994.20 6.192284
994.30 6.188045
994.40 6.195637
994.50 6.200302
994.60 6.195772
994.70 6.196881
994.80 6.217413
994.90 6.228938
995.00 6.242648
995.10 6.254311
995.20 6.262716
995.30 6.243998
995.40 6.227206
995.50 6.207866
995.60 6.170542
995.70 6.154917
995.80 6.144659
995.90 6.142805
996.00 6.13297
996.10 6.130972
996.20 6.11892
996.30 6.105536
996.40 6.137914
996.50 6.157901
996.60 6.175573
996.70 6.192199
996.80 6.235942
996.90 6.196896
997.00 6.130385
997.10 6.081658
997.20 6.054994
997.30 6.013607
997.40 5.989251
997.50 6.020846
997.60 6.022637
997.70 6.040294
997.80 6.072901
997.90 6.106322
998.00 6.125701
998.10 6.144346
998.20 6.153846
998.30 6.09913
998.40 6.07083
998.50 6.045764
998.60 6.027791
998.70 6.004945
998.80 6.018144
998.90 6.03728
999.00 6.048113
999.10 6.039667
999.20 6.030345
999.30 6.034017
999.40 6.059511
999.50 6.083738
999.60 6.084259
999.70 6.073668
999.80 6.068971
999.90 6.078591
1000.00 6.07801
1000.10 6.085103
1000.20 6.11677
1000.30 6.144174
1000.40 6.151289
1000.50 6.145741
1000.60 6.148685
1000.70 6.126162
1000.80 6.109241
1000.90 6.094157
1001.00 6.065551
1001.10 6.032612
1001.20 6.02822
1001.30 6.057453
1001.40 6.063563
1001.50 6.092114
1001.60 6.123917
1001.70 6.150793
1001.80 6.163189
1001.90 6.195108
1002.00 6.208164
1002.10 6.17963
1002.20 6.157141
1002.30 6.169055
1002.40 6.198955
1002.50 6.220279
1002.60 6.224977
1002.70 6.229216
1002.80 6.222801
1002.90 6.187466
1003.00 6.164907
1003.10 6.157822
1003.20 6.16027
1003.30 6.156925
1003.40 6.121302
1003.50 6.080851
1003.60 6.045196
1003.70 6.035251
1003.80 6.01316
1003.90 6.019245
1004.00 6.066427
1004.10 6.100775
1004.20 6.138726
1004.30 6.175536
1004.40 6.211313
1004.50 6.208207
1004.60 6.216205
1004.70 6.211334
1004.80 6.171956
1004.90 6.145326
1005.00 6.090952
1005.10 6.029162
1005.20 5.975899
1005.30 5.949145
1005.40 5.921313
1005.50 5.902435
1005.60 5.911146
1005.70 5.896806
1005.80 5.902145
1005.90 5.920517
1006.00 5.931615
1006.10 5.943741
1006.20 5.961635
1006.30 5.978198
1006.40 5.994316
1006.50 6.009293
1006.60 6.033668
1006.70 6.063784
1006.80 6.083126
1006.90 6.107319
1007.00 6.138749
1007.10 6.167664
1007.20 6.139355
1007.30 6.122627
1007.40 6.12111
1007.50 6.149212
1007.60 6.16076
1007.70 6.17869
1007.80 6.197479
1007.90 6.216008
1008.00 6.207589
1008.10 6.200688
1008.20 6.197116
1008.30 6.19696
1008.40 6.192346
1008.50 6.191566
1008.60 6.197159
1008.70 6.204344
1008.80 6.173594
1008.90 6.141109
1009.00 6.113636
1009.10 6.10555
1009.20 6.087142
1009.30 6.082619
1009.40 6.089801
1009.50 6.083978
1009.60 6.10245
1009.70 6.126328
1009.80 6.149575
1009.90 6.18474
1010.00 6.217847
1010.10 6.24204
1010.20 6.248889
1010.30 6.264039
1010.40 6.249695
1010.50 6.225618
1010.60 6.210923
1010.70 6.191853
1010.80 6.17819
1010.90 6.167062
1011.00 6.160135
1011.10 6.152618
1011.20 6.134258
1011.30 6.102736
1011.40 6.066002
1011.50 6.062082
1011.60 6.064586
1011.70 6.065222
1011.80 6.061046
1011.90 6.052654
1012.00 6.06569
1012.10 6.099482
1012.20 6.108229
1012.30 6.114659
1012.40 6.130751
1012.50 6.151654
1012.60 6.138871
1012.70 6.135879
1012.80 6.134902
1012.90 6.145287
1013.00 6.153561
1013.10 6.161925
1013.20 6.172838
1013.30 6.183459
1013.40 6.148403
1013.50 6.120528
1013.60 6.091207
1013.70 6.052199
1013.80 6.004717
1013.90 6.003445
1014.00 6.034225
1014.10 6.046546
1014.20 6.072859
1014.30 6.097133
1014.40 6.112182
1014.50 6.08559
1014.60 6.081248
1014.70 6.064309
1014.80 6.032624
1014.90 5.998874
1015.00 6.029392
1015.10 6.070321
1015.20 6.100396
1015.30 6.1042
1015.40 6.127329
1015.50 6.127935
1015.60 6.096832
1015.70 6.089412
1015.80 6.089168
1015.90 6.080465
1016.00 6.063823
1016.10 6.08817
1016.20 6.10359
1016.30 6.108164
1016.40 6.087051
1016.50 6.075605
1016.60 6.080701
1016.70 6.09819
1016.80 6.110156
1016.90 6.09068
1017.00 6.080306
1017.10 6.07415
1017.20 6.074275
1017.30 6.056787
1017.40 6.071953
1017.50 6.120671
1017.60 6.150264
1017.70 6.138772
1017.80 6.136514
1017.90 6.143613
1018.00 6.115596
1018.10 6.090007
1018.20 6.078192
1018.30 6.084816
1018.40 6.084155
1018.50 6.076585
1018.60 6.060332
1018.70 6.043898
1018.80 6.05563
1018.90 6.054502
1019.00 6.05809
1019.10 6.07971
1019.20 6.108692
1019.30 6.116267
1019.40 6.111106
1019.50 6.112895
1019.60 6.116547
1019.70 6.117816
1019.80 6.117585
1019.90 6.113708
1020.00 6.11658
1020.10 6.115325
1020.20 6.109083
1020.30 6.097777
1020.40 6.108292
1020.50 6.120494
1020.60 6.130132
1020.70 6.135413
1020.80 6.146089
1020.90 6.151308
1021.00 6.149682
1021.10 6.155403
1021.20 6.135891
1021.30 6.117119
1021.40 6.105413
1021.50 6.082188
1021.60 6.047176
1021.70 6.014203
1021.80 5.9889
1021.90 5.96838
1022.00 5.966547
1022.10 5.966378
1022.20 5.959254
1022.30 5.998467
1022.40 6.031268
1022.50 6.057291
1022.60 6.058216
1022.70 6.077068
1022.80 6.078085
1022.90 6.068213
1023.00 6.06378
1023.10 6.066898
1023.20 6.076571
1023.30 6.088834
1023.40 6.097461
1023.50 6.088821
1023.60 6.092726
1023.70 6.105963
1023.80 6.117191
1023.90 6.126469
1024.00 6.14272
1024.10 6.163435
1024.20 6.1815
1024.30 6.193371
1024.40 6.184756
1024.50 6.138045
1024.60 6.111289
1024.70 6.096574
1024.80 6.092351
1024.90 6.085055
1025.00 6.076437
1025.10 6.069714
1025.20 6.059643
1025.30 6.040505
1025.40 6.01639
1025.50 6.018284
1025.60 6.038661
1025.70 6.047715
1025.80 6.028129
1025.90 6.017209
1026.00 6.00687
1026.10 5.974871
1026.20 5.942419
1026.30 5.933284
1026.40 5.94257
1026.50 5.929754
1026.60 5.952556
1026.70 5.983173
1026.80 6.009077
1026.90 6.035376
1027.00 6.075622
1027.10 6.094951
1027.20 6.077066
1027.30 6.074894
1027.40 6.059802
1027.50 6.042913
1027.60 6.02876
1027.70 6.027734
1027.80 6.017614
1027.90 6.008374
1028.00 6.004534
1028.10 6.009948
1028.20 5.998932
1028.30 5.973236
1028.40 5.949358
1028.50 5.969727
1028.60 5.9798
1028.70 5.991656
1028.80 6.023277
1028.90 6.049783
1029.00 6.058707
1029.10 6.061257
1029.20 6.083051
1029.30 6.074527
1029.40 6.050798
1029.50 6.030521
1029.60 6.04205
1029.70 6.050732
1029.80 6.048924
1029.90 6.031521
1030.00 6.021113
1030.10 6.030461
1030.20 6.043311
1030.30 6.053296
1030.40 6.065358
1030.50 6.067998
1030.60 6.073174
1030.70 6.085842
1030.80 6.110929
1030.90 6.10962
1031.00 6.094073
1031.10 6.083743
1031.20 6.099462
1031.30 6.113012
1031.40 6.122473
1031.50 6.103646
1031.60 6.094349
1031.70 6.071595
1031.80 6.045642
1031.90 6.026651
1032.00 6.028317
1032.10 6.026223
1032.20 6.020456
1032.30 6.021943
1032.40 6.030707
1032.50 6.03412
1032.60 6.023656
1032.70 6.003324
1032.80 6.021447
1032.90 6.042509
1033.00 6.055924
1033.10 6.058537
1033.20 6.075222
1033.30 6.079731
1033.40 6.073141
1033.50 6.091116
1033.60 6.064039
1033.70 6.012399
1033.80 5.967354
1033.90 5.940046
1034.00 5.899535
1034.10 5.852617
1034.20 5.745655
1034.30 5.650681
1034.40 5.526034
1034.50 5.364462
1034.60 5.196445
1034.70 5.253083
1034.80 5.356501
1034.90 5.457365
1035.00 5.608912
1035.10 5.775644
1035.20 5.884989
1035.30 5.904019
1035.40 5.926762
1035.50 5.962448
1035.60 5.997284
1035.70 6.031566
1035.80 6.033069
1035.90 6.031776
1036.00 6.0418
1036.10 6.071346
1036.20 6.100997
1036.30 6.09996
1036.40 6.092322
1036.50 6.090915
1036.60 6.107087
1036.70 6.120405
1036.80 6.129534
1036.90 6.123759
1037.00 6.113797
1037.10 6.120876
1037.20 6.137121
1037.30 6.148886
1037.40 6.136438
1037.50 6.135189
1037.60 6.126848
1037.70 6.092996
1037.80 6.073944
1037.90 6.042485
1038.00 6.001565
1038.10 5.961247
1038.20 5.964096
1038.30 5.956391
1038.40 5.953058
1038.50 5.986272
1038.60 6.007599
1038.70 6.019665
1038.80 6.031968
1038.90 6.058777
1039.00 6.056386
1039.10 6.04427
1039.20 6.033595
1039.30 6.016844
1039.40 6.005155
1039.50 5.976846
1039.60 5.897012
1039.70 5.818703
1039.80 5.786208
1039.90 5.775484
1040.00 5.756314
1040.10 5.836602
1040.20 5.921415
1040.30 5.996526
1040.40 6.029303
1040.50 6.071294
1040.60 6.091701
1040.70 6.092843
1040.80 6.098648
1040.90 6.102086
1041.00 6.116463
1041.10 6.118957
1041.20 6.063311
1041.30 6.016847
1041.40 5.998396
1041.50 6.004922
1041.60 6.001325
1041.70 6.032107
1041.80 6.054504
1041.90 6.066922
1042.00 6.066358
1042.10 6.084037
1042.20 6.073394
1042.30 6.04058
1042.40 6.023919
1042.50 5.99673
1042.60 5.967032
1042.70 5.939148
1042.80 5.941106
1042.90 5.930681
1043.00 5.94173
1043.10 5.979113
1043.20 5.986352
1043.30 6.008496
1043.40 6.041911
1043.50 6.07476
1043.60 6.079356
1043.70 6.097609
1043.80 6.108728
1043.90 6.08827
1044.00 6.070005
1044.10 6.065748
1044.20 6.075966
1044.30 6.084024
1044.40 6.078819
1044.50 6.07378
1044.60 6.06954
1044.70 6.071267
1044.80 6.062225
1044.90 6.063235
1045.00 6.075298
1045.10 6.083958
1045.20 6.0985
1045.30 6.111892
1045.40 6.121609
1045.50 6.10093
1045.60 6.089782
1045.70 6.07201
1045.80 6.058191
1045.90 6.055556
1046.00 6.034972
1046.10 6.010502
1046.20 5.989309
1046.30 6.004774
1046.40 6.017279
1046.50 6.025994
1046.60 6.018668
1046.70 6.014362
1046.80 5.999028
1046.90 5.976202
1047.00 5.953968
1047.10 5.950507
1047.20 5.93789
1047.30 5.93471
1047.40 5.962995
1047.50 5.980676
1047.60 5.986993
1047.70 5.987416
1047.80 5.991748
1047.90 6.00344
1048.00 6.020861
1048.10 6.040485
1048.20 6.045093
1048.30 6.038577
1048.40 6.034208
1048.50 6.03162
1048.60 6.03205
1048.70 6.017163
1048.80 5.9987
1048.90 5.98201
1049.00 6.003361
1049.10 6.027592
1049.20 6.043618
1049.30 6.035653
1049.40 6.032114
1049.50 5.979807
1049.60 5.911843
1049.70 5.854032
1049.80 5.834549
1049.90 5.791342
1050.00 5.787994
1050.10 5.881377
1050.20 5.957736
1050.30 5.998405
1050.40 6.022914
1050.50 6.05579
1050.60 6.054697
1050.70 6.053966
1050.80 6.053057
1050.90 6.040938
1051.00 6.028554
1051.10 6.006691
1051.20 5.984965
1051.30 5.970704
1051.40 5.956476
1051.50 5.93249
1051.60 5.913757
1051.70 5.930261
1051.80 5.936995
1051.90 5.937335
1052.00 5.930946
1052.10 5.929734
1052.20 5.946308
1052.30 5.966248
1052.40 5.986685
1052.50 6.005601
1052.60 6.011434
1052.70 6.019216
1052.80 6.032807
1052.90 6.053198
1053.00 6.045554
1053.10 6.037117
1053.20 6.038974
1053.30 6.037209
1053.40 6.022581
1053.50 6.012515
1053.60 6.01029
1053.70 6.010739
1053.80 6.010785
1053.90 6.015135
1054.00 6.022073
1054.10 6.020375
1054.20 6.009594
1054.30 6.003596
1054.40 6.011565
1054.50 6.027289
1054.60 6.02479
1054.70 6.013775
1054.80 6.008511
1054.90 6.01383
1055.00 6.005292
1055.10 5.998383
1055.20 6.002741
1055.30 6.010242
1055.40 6.004303
1055.50 5.988023
1055.60 5.981829
1055.70 5.963128
1055.80 5.944668
1055.90 5.929348
1056.00 5.921984
1056.10 5.902746
1056.20 5.89235
1056.30 5.901918
1056.40 5.907769
1056.50 5.919398
1056.60 5.927401
1056.70 5.931203
1056.80 5.925057
1056.90 5.926269
1057.00 5.929803
1057.10 5.941258
1057.20 5.948989
1057.30 5.951879
1057.40 5.947171
1057.50 5.940277
1057.60 5.957712
1057.70 5.983013
1057.80 6.001777
1057.90 5.995636
1058.00 5.989129
1058.10 5.987985
1058.20 5.995422
1058.30 6.004951
1058.40 5.930536
1058.50 5.841469
1058.60 5.759647
1058.70 5.747156
1058.80 5.720267
1058.90 5.732666
1059.00 5.800359
1059.10 5.860151
1059.20 5.894278
1059.30 5.918628
1059.40 5.946059
1059.50 5.950825
1059.60 5.953412
1059.70 5.955333
1059.80 5.963371
1059.90 5.982112
1060.00 5.976578
1060.10 5.956478
1060.20 5.937857
1060.30 5.931517
1060.40 5.924994
1060.50 5.913078
1060.60 5.889563
1060.70 5.871956
1060.80 5.861074
1060.90 5.853159
1061.00 5.844169
1061.10 5.865066
1061.20 5.878136
1061.30 5.894641
1061.40 5.924885
1061.50 5.953925
1061.60 5.961235
1061.70 5.955751
1061.80 5.95982
1061.90 5.953034
1062.00 5.942358
1062.10 5.932421
1062.20 5.936073
1062.30 5.937292
1062.40 5.948518
1062.50 5.963545
1062.60 5.969008
1062.70 5.978419
1062.80 5.989149
1062.90 5.996963
1063.00 5.980018
1063.10 5.979048
1063.20 5.96904
1063.30 5.949609
1063.40 5.932336
1063.50 5.938504
1063.60 5.949812
1063.70 5.960044
1063.80 5.971017
1063.90 5.977608
1064.00 5.983331
1064.10 5.986606
1064.20 5.992129
1064.30 5.984362
1064.40 5.970351
1064.50 5.958733
1064.60 5.961415
1064.70 5.969888
1064.80 5.976236
1064.90 5.964282
1065.00 5.949969
1065.10 5.943174
1065.20 5.948544
1065.30 5.957036
1065.40 5.934038
1065.50 5.90557
1065.60 5.884977
1065.70 5.903412
1065.80 5.911354
1065.90 5.903084
1066.00 5.870862
1066.10 5.843664
1066.20 5.784299
1066.30 5.720264
1066.40 5.6685
1066.50 5.70803
1066.60 5.726028
1066.70 5.757309
1066.80 5.808492
1066.90 5.861772
1067.00 5.864313
1067.10 5.845846
1067.20 5.832885
1067.30 5.869145
1067.40 5.893547
1067.50 5.910924
1067.60 5.901707
1067.70 5.89855
1067.80 5.88989
1067.90 5.88152
1068.00 5.873779
1068.10 5.881455
1068.20 5.886574
1068.30 5.893224
1068.40 5.900129
1068.50 5.905489
1068.60 5.896695
1068.70 5.876755
1068.80 5.862415
1068.90 5.860105
1069.00 5.865661
1069.10 5.872704
1069.20 5.878203
1069.30 5.879849
1069.40 5.878494
1069.50 5.882084
1069.60 5.89207
1069.70 5.904367
1069.80 5.906999
1069.90 5.913593
1070.00 5.940453
1070.10 5.965262
1070.20 5.971212
1070.30 5.955438
1070.40 5.944544
1070.50 5.943973
1070.60 5.937863
1070.70 5.928209
1070.80 5.916887
1070.90 5.908998
1071.00 5.897549
1071.10 5.894874
1071.20 5.8946
1071.30 5.908397
1071.40 5.924092
1071.50 5.935894
1071.60 5.937832
1071.70 5.94723
1071.80 5.950139
1071.90 5.936374
1072.00 5.921644
1072.10 5.923333
1072.20 5.940647
1072.30 5.957158
1072.40 5.912741
1072.50 5.867869
1072.60 5.828899
1072.70 5.798881
1072.80 5.753667
1072.90 5.738445
1073.00 5.750081
1073.10 5.752711
1073.20 5.752591
1073.30 5.766548
1073.40 5.780715
1073.50 5.781888
1073.60 5.776138
1073.70 5.799665
1073.80 5.861825
1073.90 5.913742
1074.00 5.934391
1074.10 5.94718
1074.20 5.962204
1074.30 5.96227
1074.40 5.966112
1074.50 5.957493
1074.60 5.930391
1074.70 5.907505
1074.80 5.896594
1074.90 5.886868
1075.00 5.874138
1075.10 5.868612
1075.20 5.863695
1075.30 5.860939
1075.40 5.865467
1075.50 5.87348
1075.60 5.888617
1075.70 5.896331
1075.80 5.897911
1075.90 5.904587
1076.00 5.919214
1076.10 5.92495
1076.20 5.910671
1076.30 5.901124
1076.40 5.902069
1076.50 5.912074
1076.60 5.92031
1076.70 5.916929
1076.80 5.912517
1076.90 5.910274
1077.00 5.912293
1077.10 5.91545
1077.20 5.909995
1077.30 5.900025
1077.40 5.893698
1077.50 5.866353
1077.60 5.830886
1077.70 5.801184
1077.80 5.815557
1077.90 5.815037
1078.00 5.823948
1078.10 5.843695
1078.20 5.865255
1078.30 5.861651
1078.40 5.848422
1078.50 5.837553
1078.60 5.836197
1078.70 5.839
1078.80 5.836993
1078.90 5.834792
1079.00 5.838396
1079.10 5.83912
1079.20 5.835407
1079.30 5.830195
1079.40 5.826533
1079.50 5.814754
1079.60 5.81317
1079.70 5.838737
1079.80 5.860545
1079.90 5.871093
1080.00 5.875727
1080.10 5.88206
1080.20 5.883029
1080.30 5.878603
1080.40 5.87335
1080.50 5.869284
1080.60 5.864052
1080.70 5.863222
1080.80 5.868728
1080.90 5.877002
1081.00 5.857279
1081.10 5.832261
1081.20 5.808437
1081.30 5.787669
1081.40 5.763582
1081.50 5.763074
1081.60 5.800645
1081.70 5.837159
1081.80 5.850081
1081.90 5.855088
1082.00 5.857478
1082.10 5.843036
1082.20 5.840819
1082.30 5.839451
1082.40 5.838598
1082.50 5.833211
1082.60 5.825494
1082.70 5.805428
1082.80 5.782352
1082.90 5.747596
1083.00 5.706488
1083.10 5.669373
1083.20 5.644447
1083.30 5.633667
1083.40 5.639881
1083.50 5.668352
1083.60 5.703038
1083.70 5.720126
1083.80 5.720645
1083.90 5.726904
1084.00 5.757537
1084.10 5.779027
1084.20 5.789182
1084.30 5.796199
1084.40 5.809434
1084.50 5.805417
1084.60 5.798066
1084.70 5.790905
1084.80 5.801369
1084.90 5.803967
1085.00 5.81827
1085.10 5.833703
1085.20 5.843177
1085.30 5.832673
1085.40 5.830596
1085.50 5.833746
1085.60 5.850909
1085.70 5.856399
1085.80 5.862677
1085.90 5.864564
1086.00 5.866189
1086.10 5.872836
1086.20 5.885203
1086.30 5.896376
1086.40 5.877014
1086.50 5.863099
1086.60 5.847822
1086.70 5.83856
1086.80 5.830748
1086.90 5.819055
1087.00 5.794685
1087.10 5.765534
1087.20 5.762545
1087.30 5.775259
1087.40 5.780281
1087.50 5.775624
1087.60 5.777007
1087.70 5.799183
1087.80 5.828269
1087.90 5.850592
1088.00 5.843822
1088.10 5.836779
1088.20 5.827259
1088.30 5.819819
1088.40 5.814398
1088.50 5.813611
1088.60 5.811422
1088.70 5.803929
1088.80 5.801825
1088.90 5.806275
1089.00 5.811913
1089.10 5.808438
1089.20 5.805772
1089.30 5.798506
1089.40 5.787699
1089.50 5.778785
1089.60 5.77791
1089.70 5.768079
1089.80 5.761852
1089.90 5.791506
1090.00 5.821085
1090.10 5.834158
1090.20 5.827518
1090.30 5.826623
1090.40 5.825904
1090.50 5.828541
1090.60 5.830881
1090.70 5.803514
1090.80 5.776808
1090.90 5.754163
1091.00 5.747983
1091.10 5.742088
1091.20 5.750775
1091.30 5.761147
1091.40 5.767789
1091.50 5.780478
1091.60 5.786326
1091.70 5.787219
1091.80 5.779707
1091.90 5.78514
1092.00 5.793034
1092.10 5.801694
1092.20 5.809498
1092.30 5.812901
1092.40 5.81868
1092.50 5.824603
1092.60 5.836397
1092.70 5.848926
1092.80 5.849958
1092.90 5.836357
1093.00 5.821547
1093.10 5.820462
1093.20 5.824211
1093.30 5.828332
1093.40 5.827966
1093.50 5.822753
1093.60 5.82161
1093.70 5.827249
1093.80 5.832155
1093.90 5.842589
1094.00 5.846614
1094.10 5.848979
1094.20 5.845888
1094.30 5.863389
1094.40 5.85578
1094.50 5.813299
1094.60 5.777262
1094.70 5.785947
1094.80 5.802251
1094.90 5.817919
1095.00 5.830583
1095.10 5.83099
1095.20 5.828818
1095.30 5.82586
1095.40 5.82745
1095.50 5.816852
1095.60 5.805052
1095.70 5.795647
1095.80 5.793983
1095.90 5.794939
1096.00 5.800353
1096.10 5.807154
1096.20 5.806565
1096.30 5.806251
1096.40 5.809849
1096.50 5.813662
1096.60 5.785609
1096.70 5.762891
1096.80 5.741137
1096.90 5.727581
1097.00 5.710383
1097.10 5.701625
1097.20 5.697323
1097.30 5.691569
1097.40 5.714395
1097.50 5.736098
1097.60 5.750571
1097.70 5.732741
1097.80 5.719357
1097.90 5.712423
1098.00 5.714887
1098.10 5.714248
1098.20 5.703344
1098.30 5.699121
1098.40 5.699663
1098.50 5.706199
1098.60 5.707655
1098.70 5.707708
1098.80 5.701436
1098.90 5.693814
1099.00 5.694957
1099.10 5.698744
1099.20 5.702185
1099.30 5.715029
1099.40 5.728048
1099.50 5.734321
1099.60 5.728305
1099.70 5.726664
1099.80 5.721711
1099.90 5.71803
1100.00 5.71485
1100.10 5.722852
1100.20 5.732947
1100.30 5.738257
1100.40 5.728692
1100.50 5.721314
1100.60 5.721474
1100.70 5.721031
1100.80 5.716931
1100.90 5.725833
1101.00 5.733786
1101.10 5.735763
1101.20 5.724827
1101.30 5.716949
1101.40 5.714432
1101.50 5.710705
1101.60 5.706301
1101.70 5.693686
1101.80 5.689665
1101.90 5.685615
1102.00 5.682279
1102.10 5.675768
1102.20 5.672198
1102.30 5.667462
1102.40 5.659183
1102.50 5.67624
1102.60 5.685896
1102.70 5.692488
1102.80 5.706238
1102.90 5.73039
1103.00 5.739198
1103.10 5.728708
1103.20 5.72765
1103.30 5.697102
1103.40 5.661936
1103.50 5.632214
1103.60 5.638169
1103.70 5.629302
1103.80 5.63937
1103.90 5.674775
1104.00 5.706328
1104.10 5.722059
1104.20 5.73103
1104.30 5.740584
1104.40 5.724973
1104.50 5.70737
1104.60 5.696786
1104.70 5.701755
1104.80 5.700173
1104.90 5.691158
1105.00 5.683998
1105.10 5.678635
1105.20 5.650593
1105.30 5.625234
1105.40 5.606395
1105.50 5.628183
1105.60 5.64036
1105.70 5.650572
1105.80 5.647404
1105.90 5.637765
1106.00 5.642006
1106.10 5.655007
1106.20 5.665324
1106.30 5.654583
1106.40 5.646858
1106.50 5.647275
1106.60 5.6622
1106.70 5.674809
1106.80 5.660104
1106.90 5.638612
1107.00 5.620556
1107.10 5.629101
1107.20 5.62398
1107.30 5.625352
1107.40 5.637182
1107.50 5.646549
1107.60 5.648788
1107.70 5.648442
1107.80 5.651586
1107.90 5.646747
1108.00 5.64642
1108.10 5.650936
1108.20 5.670359
1108.30 5.682613
1108.40 5.686782
1108.50 5.688907
1108.60 5.69271
1108.70 5.692976
1108.80 5.695455
1108.90 5.69709
1109.00 5.697075
1109.10 5.699246
1109.20 5.707977
1109.30 5.719016
1109.40 5.726134
1109.50 5.723046
1109.60 5.718453
1109.70 5.714151
1109.80 5.700801
1109.90 5.691796
1110.00 5.67586
1110.10 5.65851
1110.20 5.644656
1110.30 5.633523
1110.40 5.628235
1110.50 5.625155
1110.60 5.621054
1110.70 5.603071
1110.80 5.60313
1110.90 5.629756
1111.00 5.657621
1111.10 5.647737
1111.20 5.622007
1111.30 5.598072
1111.40 5.609553
1111.50 5.624653
1111.60 5.639245
1111.70 5.642779
1111.80 5.639428
1111.90 5.623749
1112.00 5.606042
1112.10 5.591472
1112.20 5.570697
1112.30 5.546413
1112.40 5.539336
1112.50 5.577345
1112.60 5.605091
1112.70 5.629932
1112.80 5.651974
1112.90 5.675342
1113.00 5.673814
1113.10 5.681574
1113.20 5.685876
1113.30 5.680104
1113.40 5.669067
1113.50 5.665077
1113.60 5.67449
1113.70 5.689168
1113.80 5.669427
1113.90 5.637033
1114.00 5.616443
1114.10 5.635528
1114.20 5.642323
1114.30 5.64943
1114.40 5.653467
1114.50 5.655576
1114.60 5.653669
1114.70 5.655928
1114.80 5.655615
1114.90 5.641889
1115.00 5.650983
1115.10 5.659348
1115.20 5.670447
1115.30 5.669119
1115.40 5.677353
1115.50 5.685561
1115.60 5.690304
1115.70 5.659206
1115.80 5.626296
1115.90 5.601787
1116.00 5.583991
1116.10 5.567579
1116.20 5.5875
1116.30 5.623698
1116.40 5.659078
1116.50 5.646713
1116.60 5.661512
1116.70 5.683398
1116.80 5.715877
1116.90 5.726113
1117.00 5.718902
1117.10 5.692223
1117.20 5.682533
1117.30 5.645103
1117.40 5.612738
1117.50 5.601203
1117.60 5.612418
1117.70 5.610273
1117.80 5.62759
1117.90 5.649441
1118.00 5.675977
1118.10 5.671403
1118.20 5.676436
1118.30 5.680527
1118.40 5.661495
1118.50 5.6331
1118.60 5.629017
1118.70 5.655904
1118.80 5.669567
1118.90 5.649734
1119.00 5.63828
1119.10 5.632558
1119.20 5.634453
1119.30 5.631427
1119.40 5.631225
1119.50 5.643763
1119.60 5.636805
1119.70 5.637963
1119.80 5.634437
1119.90 5.630506
1120.00 5.617629
1120.10 5.609988
1120.20 5.609483
1120.30 5.61391
1120.40 5.621441
1120.50 5.635849
1120.60 5.633557
1120.70 5.629876
1120.80 5.635599
1120.90 5.647914
1121.00 5.651038
1121.10 5.635955
1121.20 5.629306
1121.30 5.609733
1121.40 5.584638
1121.50 5.561706
1121.60 5.59542
1121.70 5.63223
1121.80 5.651201
1121.90 5.647422
1122.00 5.645926
1122.10 5.649841
1122.20 5.657591
1122.30 5.668018
1122.40 5.695657
1122.50 5.723634
1122.60 5.743428
1122.70 5.725714
1122.80 5.708203
1122.90 5.697193
1123.00 5.708399
1123.10 5.690625
1123.20 5.690401
1123.30 5.683748
1123.40 5.655679
1123.50 5.651569
1123.60 5.615137
1123.70 5.607871
1123.80 5.596752
1123.90 5.600899
1124.00 5.646024
1124.10 5.67216
1124.20 5.69658
1124.30 5.683225
1124.40 5.659956
1124.50 5.650702
1124.60 5.632291
1124.70 5.62319
1124.80 5.611375
1124.90 5.603676
1125.00 5.575794
1125.10 5.535962
1125.20 5.485252
1125.30 5.399696
1125.40 5.331214
1125.50 5.290391
1125.60 5.266554
1125.70 5.289918
1125.80 5.235524
1125.90 5.338254
1126.00 5.444305
1126.10 5.582978
1126.20 5.636841
1126.30 5.6304
1126.40 5.621313
1126.50 5.617066
1126.60 5.635652
1126.70 5.64987
1126.80 5.6558
1126.90 5.654758
1127.00 5.644907
1127.10 5.644036
1127.20 5.631874
1127.30 5.614202
1127.40 5.605125
1127.50 5.607383
1127.60 5.617769
1127.70 5.627725
1127.80 5.630623
1127.90 5.627395
1128.00 5.627059
1128.10 5.616825
1128.20 5.635038
1128.30 5.645067
1128.40 5.660472
1128.50 5.63546
1128.60 5.610411
1128.70 5.588863
1128.80 5.581921
1128.90 5.581429
1129.00 5.582678
1129.10 5.590908
1129.20 5.600626
1129.30 5.591134
1129.40 5.58051
1129.50 5.578358
1129.60 5.587817
1129.70 5.602595
1129.80 5.582864
1129.90 5.572043
1130.00 5.563188
1130.10 5.569466
1130.20 5.572139
1130.30 5.567732
1130.40 5.563293
1130.50 5.556217
1130.60 5.548382
1130.70 5.539522
1130.80 5.537969
1130.90 5.545071
1131.00 5.546543
1131.10 5.545218
1131.20 5.543487
1131.30 5.542728
1131.40 5.538762
1131.50 5.534279
1131.60 5.53181
1131.70 5.531847
1131.80 5.541277
1131.90 5.54815
1132.00 5.556447
1132.10 5.563576
1132.20 5.565605
1132.30 5.576541
1132.40 5.57062
1132.50 5.565363
1132.60 5.557752
1132.70 5.558845
1132.80 5.568081
1132.90 5.570513
1133.00 5.561528
1133.10 5.535404
1133.20 5.50821
1133.30 5.49706
1133.40 5.485605
1133.50 5.486051
1133.60 5.479922
1133.70 5.496301
1133.80 5.520731
1133.90 5.544167
1134.00 5.563212
1134.10 5.567038
1134.20 5.5578
1134.30 5.542661
1134.40 5.510944
1134.50 5.473855
1134.60 5.436443
1134.70 5.402889
1134.80 5.447752
1134.90 5.509833
1135.00 5.597813
1135.10 5.660786
1135.20 5.684496
1135.30 5.690062
1135.40 5.673849
1135.50 5.654531
1135.60 5.651108
1135.70 5.625875
1135.80 5.60082
1135.90 5.586858
1136.00 5.52206
1136.10 5.509946
1136.20 5.479047
1136.30 5.512055
1136.40 5.544707
1136.50 5.571428
1136.60 5.571445
1136.70 5.540804
1136.80 5.5094
1136.90 5.485696
1137.00 5.462701
1137.10 5.446846
1137.20 5.422912
1137.30 5.402467
1137.40 5.371767
1137.50 5.367087
1137.60 5.338495
1137.70 5.278704
1137.80 5.220735
1137.90 5.151326
1138.00 5.028494
1138.10 4.875697
1138.20 4.729327
1138.30 4.624739
1138.40 4.589596
1138.50 4.50138
1138.60 4.59611
1138.70 4.810117
1138.80 4.984329
1138.90 5.141396
1139.00 5.223816
1139.10 5.309409
1139.20 5.365761
1139.30 5.351417
1139.40 5.328956
1139.50 5.318418
1139.60 5.320534
1139.70 5.315122
1139.80 5.336785
1139.90 5.287964
1140.00 5.198066
1140.10 5.127176
1140.20 5.00458
1140.30 4.810052
1140.40 4.599353
1140.50 4.424432
1140.60 4.372725
1140.70 4.354444
1140.80 4.329732
1140.90 4.490759
1141.00 4.744611
1141.10 4.948468
1141.20 5.124697
1141.30 5.2093
1141.40 5.337152
1141.50 5.403366
1141.60 5.41929
1141.70 5.436609
1141.80 5.454396
1141.90 5.455108
1142.00 5.453564
1142.10 5.457957
1142.20 5.424547
1142.30 5.39076
1142.40 5.352526
1142.50 5.366959
1142.60 5.3898
1142.70 5.403803
1142.80 5.416788
1142.90 5.427659
1143.00 5.440367
1143.10 5.448176
1143.20 5.447167
1143.30 5.443522
1143.40 5.442125
1143.50 5.445041
1143.60 5.446268
1143.70 5.458697
1143.80 5.43241
1143.90 5.392489
1144.00 5.359087
1144.10 5.34967
1144.20 5.372413
1144.30 5.394087
1144.40 5.405256
1144.50 5.413559
1144.60 5.420334
1144.70 5.427956
1144.80 5.458104
1144.90 5.474202
1145.00 5.494194
1145.10 5.473944
1145.20 5.466483
1145.30 5.462179
1145.40 5.468727
1145.50 5.47497
1145.60 5.482809
1145.70 5.49209
1145.80 5.501274
1145.90 5.505829
1146.00 5.503005
1146.10 5.499092
1146.20 5.489101
1146.30 5.485079
1146.40 5.484156
1146.50 5.492037
1146.60 5.506549
1146.70 5.508581
1146.80 5.507985
1146.90 5.505026
1147.00 5.507833
1147.10 5.509249
1147.20 5.505378
1147.30 5.50841
1147.40 5.493759
1147.50 5.495941
1147.60 5.466337
1147.70 5.458284
1147.80 5.44145
1147.90 5.443169
1148.00 5.456781
1148.10 5.471142
1148.20 5.481447
1148.30 5.47479
1148.40 5.445162
1148.50 5.417538
1148.60 5.398735
1148.70 5.386578
1148.80 5.390158
1148.90 5.382183
1149.00 5.412453
1149.10 5.434813
1149.20 5.449382
1149.30 5.470355
1149.40 5.4772
1149.50 5.494394
1149.60 5.490466
1149.70 5.473712
1149.80 5.473949
1149.90 5.481186
1150.00 5.509524
1150.10 5.526386
1150.20 5.519416
1150.30 5.520907
1150.40 5.508145
1150.50 5.504994
1150.60 5.490472
1150.70 5.474942
1150.80 5.461867
1150.90 5.453804
1151.00 5.45055
1151.10 5.453127
1151.20 5.458583
1151.30 5.460883
1151.40 5.462491
1151.50 5.454339
1151.60 5.467802
1151.70 5.475135
1151.80 5.490348
1151.90 5.47538
1152.00 5.457205
1152.10 5.436857
1152.20 5.433497
1152.30 5.437203
1152.40 5.438506
1152.50 5.437722
1152.60 5.422094
1152.70 5.423381
1152.80 5.413579
1152.90 5.428894
1153.00 5.436523
1153.10 5.4359
1153.20 5.442201
1153.30 5.440053
1153.40 5.443342
1153.50 5.438433
1153.60 5.42906
1153.70 5.423084
1153.80 5.418585
1153.90 5.423502
1154.00 5.43079
1154.10 5.440834
1154.20 5.445266
1154.30 5.44634
1154.40 5.444032
1154.50 5.44181
1154.60 5.436109
1154.70 5.43261
1154.80 5.426564
1154.90 5.424162
1155.00 5.421504
1155.10 5.420708
1155.20 5.426394
1155.30 5.428349
1155.40 5.429136
1155.50 5.430699
1155.60 5.431483
1155.70 5.439963
1155.80 5.435908
1155.90 5.436029
1156.00 5.431623
1156.10 5.435548
1156.20 5.448099
1156.30 5.460978
1156.40 5.470446
1156.50 5.456125
1156.60 5.441689
1156.70 5.420296
1156.80 5.412259
1156.90 5.396914
1157.00 5.388443
1157.10 5.384575
1157.20 5.390541
1157.30 5.393263
1157.40 5.398341
1157.50 5.404486
1157.60 5.413317
1157.70 5.421046
1157.80 5.419071
1157.90 5.420818
1158.00 5.414888
1158.10 5.428352
1158.20 5.438595
1158.30 5.451251
1158.40 5.453881
1158.50 5.447301
1158.60 5.445306
1158.70 5.443527
1158.80 5.438911
1158.90 5.436125
1159.00 5.429421
1159.10 5.405497
1159.20 5.37894
1159.30 5.350397
1159.40 5.320161
1159.50 5.286675
1159.60 5.252373
1159.70 5.245914
1159.80 5.269188
1159.90 5.284007
1160.00 5.30853
1160.10 5.337066
1160.20 5.365115
1160.30 5.383998
1160.40 5.370462
1160.50 5.356461
1160.60 5.352338
1160.70 5.308129
1160.80 5.243623
1160.90 5.182645
1161.00 5.151754
1161.10 5.158578
1161.20 5.142614
1161.30 5.154147
1161.40 5.202832
1161.50 5.253781
1161.60 5.297766
1161.70 5.320883
1161.80 5.335454
1161.90 5.360481
1162.00 5.36091
1162.10 5.353944
1162.20 5.357862
1162.30 5.354971
1162.40 5.361569
1162.50 5.361032
1162.60 5.364687
1162.70 5.372628
1162.80 5.377881
1162.90 5.380021
1163.00 5.378321
1163.10 5.375157
1163.20 5.375543
1163.30 5.36432
1163.40 5.346367
1163.50 5.340187
1163.60 5.317163
1163.70 5.278312
1163.80 5.249021
1163.90 5.22252
1164.00 5.214503
1164.10 5.194118
1164.20 5.185484
1164.30 5.22873
1164.40 5.277006
1164.50 5.31488
1164.60 5.334978
1164.70 5.342995
1164.80 5.367859
1164.90 5.377611
1165.00 5.378037
1165.10 5.383634
1165.20 5.380387
1165.30 5.363124
1165.40 5.341024
1165.50 5.320746
1165.60 5.31135
1165.70 5.307681
1165.80 5.299479
1165.90 5.291107
1166.00 5.29442
1166.10 5.292249
1166.20 5.307114
1166.30 5.312421
1166.40 5.321564
1166.50 5.32306
1166.60 5.321211
1166.70 5.325717
1166.80 5.332778
1166.90 5.333035
1167.00 5.328352
1167.10 5.319421
1167.20 5.307615
1167.30 5.299968
1167.40 5.29362
1167.50 5.294737
1167.60 5.293049
1167.70 5.289851
1167.80 5.290345
1167.90 5.296766
1168.00 5.304719
1168.10 5.311958
1168.20 5.313455
1168.30 5.31499
1168.40 5.316885
1168.50 5.30219
1168.60 5.279726
1168.70 5.272142
1168.80 5.219929
1168.90 5.110971
1169.00 5.029709
1169.10 4.942646
1169.20 4.905416
1169.30 4.836465
1169.40 4.816106
1169.50 4.923739
1169.60 5.044841
1169.70 5.134924
1169.80 5.195464
1169.90 5.231168
1170.00 5.28646
1170.10 5.302036
1170.20 5.298808
1170.30 5.312261
1170.40 5.319101
1170.50 5.316546
1170.60 5.320141
1170.70 5.326299
1170.80 5.326982
1170.90 5.325611
1171.00 5.32461
1171.10 5.321651
1171.20 5.31859
1171.30 5.312569
1171.40 5.314362
1171.50 5.313877
1171.60 5.315234
1171.70 5.307272
1171.80 5.298604
1171.90 5.294967
1172.00 5.294817
1172.10 5.299617
1172.20 5.302861
1172.30 5.30407
1172.40 5.308189
1172.50 5.312022
1172.60 5.31414
1172.70 5.318728
1172.80 5.318089
1172.90 5.318758
1173.00 5.318529
1173.10 5.318504
1173.20 5.318706
1173.30 5.318161
1173.40 5.311187
1173.50 5.303974
1173.60 5.297774
1173.70 5.28996
1173.80 5.288867
1173.90 5.288172
1174.00 5.296462
1174.10 5.313016
1174.20 5.321165
1174.30 5.327907
1174.40 5.331353
1174.50 5.334824
1174.60 5.339039
1174.70 5.332894
1174.80 5.323805
1174.90 5.310237
1175.00 5.281029
1175.10 5.254966
1175.20 5.232992
1175.30 5.211364
1175.40 5.198928
1175.50 5.178091
1175.60 5.174324
1175.70 5.178885
1175.80 5.18598
1175.90 5.200117
1176.00 5.209103
1176.10 5.216302
1176.20 5.221755
1176.30 5.224809
1176.40 5.235803
1176.50 5.246632
1176.60 5.236839
1176.70 5.201274
1176.80 5.193409
1176.90 5.14343
1177.00 5.035073
1177.10 4.949104
1177.20 4.855867
1177.30 4.785669
1177.40 4.693481
1177.50 4.618829
1177.60 4.679116
1177.70 4.774807
1177.80 4.829289
1177.90 4.921031
1178.00 5.003474
1178.10 5.104289
1178.20 5.131317
1178.30 5.099223
1178.40 5.091168
1178.50 5.093328
1178.60 5.102088
1178.70 5.111577
1178.80 5.130152
1178.90 5.165298
1179.00 5.200111
1179.10 5.231645
1179.20 5.233035
1179.30 5.225707
1179.40 5.232212
1179.50 5.217003
1179.60 5.199931
1179.70 5.181057
1179.80 5.178954
1179.90 5.185348
1180.00 5.184521
1180.10 5.180448
1180.20 5.180043
1180.30 5.1836
1180.40 5.189806
1180.50 5.201754
1180.60 5.212252
1180.70 5.228279
1180.80 5.23571
1180.90 5.240822
1181.00 5.24649
1181.10 5.246344
1181.20 5.242789
1181.30 5.236246
1181.40 5.229833
1181.50 5.223425
1181.60 5.217922
1181.70 5.21494
1181.80 5.214511
1181.90 5.219997
1182.00 5.223468
1182.10 5.224844
1182.20 5.221572
1182.30 5.217354
1182.40 5.196865
1182.50 5.152821
1182.60 5.11724
1182.70 5.048985
1182.80 4.938874
1182.90 4.822541
1183.00 4.732351
1183.10 4.730479
1183.20 4.751605
1183.30 4.756415
1183.40 4.845645
1183.50 4.937572
1183.60 5.037557
1183.70 5.08393
1183.80 5.103678
1183.90 5.120865
1184.00 5.130258
1184.10 5.143732
1184.20 5.157546
1184.30 5.170405
1184.40 5.179047
1184.50 5.186453
1184.60 5.203508
1184.70 5.208954
1184.80 5.198055
1184.90 5.192318
1185.00 5.18611
1185.10 5.192144
1185.20 5.188877
1185.30 5.188536
1185.40 5.198624
1185.50 5.209542
1185.60 5.218334
1185.70 5.218916
1185.80 5.215347
1185.90 5.21428
1186.00 5.210981
1186.10 5.208989
1186.20 5.206045
1186.30 5.208614
1186.40 5.208629
1186.50 5.212017
1186.60 5.208269
1186.70 5.196885
1186.80 5.186605
1186.90 5.182341
1187.00 5.191001
1187.10 5.199995
1187.20 5.205388
1187.30 5.209388
1187.40 5.214673
1187.50 5.220436
1187.60 5.21702
1187.70 5.204569
1187.80 5.197828
1187.90 5.180514
1188.00 5.139822
1188.10 5.114853
1188.20 5.069733
1188.30 4.97028
1188.40 4.859984
1188.50 4.763167
1188.60 4.763838
1188.70 4.807045
1188.80 4.803307
1188.90 4.881805
1189.00 4.973822
1189.10 5.069662
1189.20 5.101989
1189.30 5.079592
1189.40 5.068406
1189.50 5.069704
1189.60 5.081327
1189.70 5.092358
1189.80 5.10105
1189.90 5.115652
1190.00 5.127824
1190.10 5.148432
1190.20 5.16067
1190.30 5.167328
1190.40 5.177975
1190.50 5.17795
1190.60 5.17259
1190.70 5.164799
1190.80 5.15868
1190.90 5.162201
1191.00 5.165012
1191.10 5.166001
1191.20 5.164659
1191.30 5.162752
1191.40 5.161012
1191.50 5.165795
1191.60 5.170532
1191.70 5.176279
1191.80 5.177318
1191.90 5.177536
1192.00 5.177686
1192.10 5.17994
1192.20 5.179839
1192.30 5.179979
1192.40 5.1785
1192.50 5.170382
1192.60 5.162145
1192.70 5.152952
1192.80 5.153981
1192.90 5.158443
1193.00 5.161037
1193.10 5.1639
1193.20 5.160604
1193.30 5.160283
1193.40 5.157375
1193.50 5.149591
1193.60 5.14646
1193.70 5.143525
1193.80 5.138823
1193.90 5.133193
1194.00 5.124512
1194.10 5.124606
1194.20 5.131238
1194.30 5.135713
1194.40 5.134741
1194.50 5.125292
1194.60 5.11656
1194.70 5.098547
1194.80 5.064661
1194.90 5.03286
1195.00 5.002897
1195.10 4.984545
1195.20 4.96871
1195.30 4.952027
1195.40 4.975562
1195.50 5.009161
1195.60 5.042214
1195.70 5.057945
1195.80 5.053124
1195.90 5.056982
1196.00 5.062898
1196.10 5.070187
1196.20 5.07828
1196.30 5.082389
1196.40 5.083167
1196.50 5.083993
1196.60 5.083406
1196.70 5.082128
1196.80 5.078617
1196.90 5.077832
1197.00 5.041876
1197.10 4.972356
1197.20 4.930391
1197.30 4.848292
1197.40 4.751404
1197.50 4.645748
1197.60 4.589547
1197.70 4.635079
1197.80 4.684027
1197.90 4.724824
1198.00 4.810628
1198.10 4.89426
1198.20 4.983089
1198.30 4.997927
1198.40 4.997644
1198.50 5.005274
1198.60 5.013482
1198.70 5.010987
1198.80 5.017569
1198.90 5.02211
1199.00 5.016228
1199.10 5.011444
1199.20 5.007109
1199.30 5.009666
1199.40 5.018137
1199.50 5.023138
1199.60 5.03386
1199.70 5.042394
1199.80 5.048901
1199.90 5.053292
1200.00 5.049988
