# Version 2.1 - nm, norm@500 to 1, cut digits, bergeron_14000_75.dat_14000
# Wavelength(nm)  Flambda(ergs/cm^s/s/nm)
300.00 1.997
300.10 1.995
300.20 1.994
300.30 1.992
300.40 1.991
300.50 1.989
300.60 1.988
300.70 1.987
300.80 1.985
300.90 1.984
301.00 1.982
301.10 1.981
301.20 1.979
301.30 1.978
301.40 1.976
301.50 1.975
301.60 1.974
301.70 1.972
301.80 1.971
301.90 1.969
302.00 1.968
302.10 1.966
302.20 1.965
302.30 1.964
302.40 1.962
302.50 1.961
302.60 1.959
302.70 1.958
302.80 1.956
302.90 1.955
303.00 1.954
303.10 1.952
303.20 1.951
303.30 1.949
303.40 1.948
303.50 1.946
303.60 1.945
303.70 1.944
303.80 1.942
303.90 1.941
304.00 1.939
304.10 1.938
304.20 1.937
304.30 1.935
304.40 1.934
304.50 1.932
304.60 1.931
304.70 1.93
304.80 1.928
304.90 1.927
305.00 1.925
305.10 1.924
305.20 1.923
305.30 1.921
305.40 1.92
305.50 1.919
305.60 1.917
305.70 1.916
305.80 1.914
305.90 1.913
306.00 1.912
306.10 1.91
306.20 1.909
306.30 1.908
306.40 1.906
306.50 1.905
306.60 1.903
306.70 1.902
306.80 1.901
306.90 1.899
307.00 1.898
307.10 1.897
307.20 1.895
307.30 1.894
307.40 1.893
307.50 1.891
307.60 1.89
307.70 1.888
307.80 1.887
307.90 1.886
308.00 1.884
308.10 1.883
308.20 1.882
308.30 1.88
308.40 1.879
308.50 1.878
308.60 1.876
308.70 1.875
308.80 1.874
308.90 1.872
309.00 1.871
309.10 1.87
309.20 1.868
309.30 1.867
309.40 1.866
309.50 1.864
309.60 1.863
309.70 1.862
309.80 1.86
309.90 1.859
310.00 1.858
310.10 1.856
310.20 1.855
310.30 1.854
310.40 1.852
310.50 1.851
310.60 1.85
310.70 1.849
310.80 1.847
310.90 1.846
311.00 1.845
311.10 1.843
311.20 1.842
311.30 1.841
311.40 1.839
311.50 1.838
311.60 1.837
311.70 1.835
311.80 1.834
311.90 1.833
312.00 1.832
312.10 1.83
312.20 1.829
312.30 1.828
312.40 1.826
312.50 1.825
312.60 1.824
312.70 1.822
312.80 1.821
312.90 1.82
313.00 1.819
313.10 1.817
313.20 1.816
313.30 1.815
313.40 1.814
313.50 1.812
313.60 1.811
313.70 1.81
313.80 1.808
313.90 1.807
314.00 1.806
314.10 1.805
314.20 1.803
314.30 1.802
314.40 1.801
314.50 1.8
314.60 1.798
314.70 1.797
314.80 1.796
314.90 1.794
315.00 1.793
315.10 1.792
315.20 1.791
315.30 1.789
315.40 1.788
315.50 1.787
315.60 1.786
315.70 1.784
315.80 1.783
315.90 1.782
316.00 1.781
316.10 1.779
316.20 1.778
316.30 1.777
316.40 1.776
316.50 1.774
316.60 1.773
316.70 1.772
316.80 1.771
316.90 1.769
317.00 1.768
317.10 1.767
317.20 1.766
317.30 1.765
317.40 1.763
317.50 1.762
317.60 1.761
317.70 1.76
317.80 1.758
317.90 1.757
318.00 1.756
318.10 1.755
318.20 1.753
318.30 1.752
318.40 1.751
318.50 1.75
318.60 1.749
318.70 1.747
318.80 1.746
318.90 1.745
319.00 1.744
319.10 1.743
319.20 1.741
319.30 1.74
319.40 1.739
319.50 1.738
319.60 1.736
319.70 1.735
319.80 1.734
319.90 1.733
320.00 1.732
320.10 1.73
320.20 1.729
320.30 1.728
320.40 1.727
320.50 1.726
320.60 1.724
320.70 1.723
320.80 1.722
320.90 1.721
321.00 1.72
321.10 1.719
321.20 1.717
321.30 1.716
321.40 1.715
321.50 1.714
321.60 1.713
321.70 1.711
321.80 1.71
321.90 1.709
322.00 1.708
322.10 1.707
322.20 1.705
322.30 1.704
322.40 1.703
322.50 1.702
322.60 1.701
322.70 1.7
322.80 1.698
322.90 1.697
323.00 1.696
323.10 1.695
323.20 1.694
323.30 1.693
323.40 1.691
323.50 1.69
323.60 1.689
323.70 1.688
323.80 1.687
323.90 1.686
324.00 1.684
324.10 1.683
324.20 1.682
324.30 1.681
324.40 1.68
324.50 1.679
324.60 1.678
324.70 1.676
324.80 1.675
324.90 1.674
325.00 1.673
325.10 1.672
325.20 1.671
325.30 1.67
325.40 1.668
325.50 1.667
325.60 1.666
325.70 1.665
325.80 1.664
325.90 1.663
326.00 1.662
326.10 1.66
326.20 1.659
326.30 1.658
326.40 1.657
326.50 1.656
326.60 1.655
326.70 1.654
326.80 1.652
326.90 1.651
327.00 1.65
327.10 1.649
327.20 1.648
327.30 1.647
327.40 1.646
327.50 1.645
327.60 1.643
327.70 1.642
327.80 1.641
327.90 1.64
328.00 1.639
328.10 1.638
328.20 1.637
328.30 1.636
328.40 1.635
328.50 1.633
328.60 1.632
328.70 1.631
328.80 1.63
328.90 1.629
329.00 1.628
329.10 1.627
329.20 1.626
329.30 1.625
329.40 1.624
329.50 1.622
329.60 1.621
329.70 1.62
329.80 1.619
329.90 1.618
330.00 1.617
330.10 1.616
330.20 1.615
330.30 1.614
330.40 1.613
330.50 1.611
330.60 1.61
330.70 1.609
330.80 1.608
330.90 1.607
331.00 1.606
331.10 1.605
331.20 1.604
331.30 1.603
331.40 1.602
331.50 1.601
331.60 1.6
331.70 1.598
331.80 1.597
331.90 1.596
332.00 1.595
332.10 1.594
332.20 1.593
332.30 1.592
332.40 1.591
332.50 1.59
332.60 1.589
332.70 1.588
332.80 1.587
332.90 1.586
333.00 1.584
333.10 1.583
333.20 1.582
333.30 1.581
333.40 1.58
333.50 1.579
333.60 1.578
333.70 1.577
333.80 1.576
333.90 1.575
334.00 1.574
334.10 1.573
334.20 1.572
334.30 1.571
334.40 1.57
334.50 1.569
334.60 1.568
334.70 1.567
334.80 1.565
334.90 1.564
335.00 1.563
335.10 1.562
335.20 1.561
335.30 1.56
335.40 1.559
335.50 1.558
335.60 1.557
335.70 1.556
335.80 1.555
335.90 1.554
336.00 1.553
336.10 1.552
336.20 1.551
336.30 1.55
336.40 1.549
336.50 1.548
336.60 1.547
336.70 1.546
336.80 1.545
336.90 1.544
337.00 1.543
337.10 1.542
337.20 1.541
337.30 1.54
337.40 1.539
337.50 1.537
337.60 1.536
337.70 1.535
337.80 1.534
337.90 1.533
338.00 1.532
338.10 1.531
338.20 1.53
338.30 1.529
338.40 1.528
338.50 1.527
338.60 1.526
338.70 1.525
338.80 1.524
338.90 1.523
339.00 1.522
339.10 1.521
339.20 1.52
339.30 1.519
339.40 1.518
339.50 1.517
339.60 1.516
339.70 1.515
339.80 1.514
339.90 1.513
340.00 1.512
340.10 1.511
340.20 1.51
340.30 1.509
340.40 1.508
340.50 1.507
340.60 1.506
340.70 1.505
340.80 1.504
340.90 1.503
341.00 1.502
341.10 1.501
341.20 1.5
341.30 1.499
341.40 1.498
341.50 1.497
341.60 1.496
341.70 1.495
341.80 1.494
341.90 1.493
342.00 1.492
342.10 1.491
342.20 1.49
342.30 1.489
342.40 1.488
342.50 1.487
342.60 1.486
342.70 1.485
342.80 1.484
342.90 1.484
343.00 1.483
343.10 1.482
343.20 1.481
343.30 1.48
343.40 1.479
343.50 1.478
343.60 1.477
343.70 1.476
343.80 1.475
343.90 1.474
344.00 1.473
344.10 1.472
344.20 1.471
344.30 1.47
344.40 1.469
344.50 1.468
344.60 1.467
344.70 1.466
344.80 1.465
344.90 1.464
345.00 1.463
345.10 1.462
345.20 1.461
345.30 1.46
345.40 1.459
345.50 1.458
345.60 1.457
345.70 1.456
345.80 1.456
345.90 1.455
346.00 1.454
346.10 1.453
346.20 1.452
346.30 1.451
346.40 1.45
346.50 1.449
346.60 1.448
346.70 1.447
346.80 1.446
346.90 1.445
347.00 1.444
347.10 1.443
347.20 1.442
347.30 1.441
347.40 1.44
347.50 1.439
347.60 1.439
347.70 1.438
347.80 1.437
347.90 1.436
348.00 1.435
348.10 1.434
348.20 1.433
348.30 1.432
348.40 1.431
348.50 1.43
348.60 1.429
348.70 1.428
348.80 1.427
348.90 1.426
349.00 1.425
349.10 1.425
349.20 1.424
349.30 1.423
349.40 1.422
349.50 1.421
349.60 1.42
349.70 1.419
349.80 1.418
349.90 1.417
350.00 1.416
350.10 1.415
350.20 1.414
350.30 1.414
350.40 1.413
350.50 1.412
350.60 1.411
350.70 1.41
350.80 1.409
350.90 1.408
351.00 1.407
351.10 1.406
351.20 1.405
351.30 1.404
351.40 1.404
351.50 1.403
351.60 1.402
351.70 1.401
351.80 1.4
351.90 1.399
352.00 1.398
352.10 1.397
352.20 1.396
352.30 1.395
352.40 1.394
352.50 1.394
352.60 1.393
352.70 1.392
352.80 1.391
352.90 1.39
353.00 1.389
353.10 1.388
353.20 1.387
353.30 1.386
353.40 1.386
353.50 1.385
353.60 1.384
353.70 1.383
353.80 1.382
353.90 1.381
354.00 1.38
354.10 1.379
354.20 1.378
354.30 1.378
354.40 1.377
354.50 1.376
354.60 1.375
354.70 1.374
354.80 1.373
354.90 1.372
355.00 1.371
355.10 1.37
355.20 1.37
355.30 1.369
355.40 1.368
355.50 1.367
355.60 1.366
355.70 1.365
355.80 1.364
355.90 1.363
356.00 1.363
356.10 1.362
356.20 1.361
356.30 1.36
356.40 1.359
356.50 1.358
356.60 1.357
356.70 1.356
356.80 1.356
356.90 1.355
357.00 1.354
357.10 1.353
357.20 1.352
357.30 1.351
357.40 1.35
357.50 1.35
357.60 1.349
357.70 1.348
357.80 1.347
357.90 1.346
358.00 1.345
358.10 1.344
358.20 1.344
358.30 1.343
358.40 1.342
358.50 1.341
358.60 1.34
358.70 1.339
358.80 1.338
358.90 1.338
359.00 1.337
359.10 1.336
359.20 1.335
359.30 1.334
359.40 1.333
359.50 1.332
359.60 1.332
359.70 1.331
359.80 1.33
359.90 1.329
360.00 1.328
360.10 1.327
360.20 1.327
360.30 1.326
360.40 1.325
360.50 1.324
360.60 1.323
360.70 1.322
360.80 1.322
360.90 1.321
361.00 1.32
361.10 1.319
361.20 1.318
361.30 1.317
361.40 1.317
361.50 1.316
361.60 1.315
361.70 1.314
361.80 1.313
361.90 1.312
362.00 1.312
362.10 1.311
362.20 1.31
362.30 1.309
362.40 1.308
362.50 1.307
362.60 1.307
362.70 1.306
362.80 1.305
362.90 1.304
363.00 1.303
363.10 1.302
363.20 1.301
363.30 1.301
363.40 1.3
363.50 1.299
363.60 1.298
363.70 1.297
363.80 1.296
363.90 1.295
364.00 1.294
364.10 1.294
364.20 1.293
364.30 1.292
364.40 1.291
364.50 1.29
364.60 1.289
364.70 1.288
364.80 1.287
364.90 1.287
365.00 1.286
365.10 1.285
365.20 1.284
365.30 1.283
365.40 1.282
365.50 1.281
365.60 1.281
365.70 1.28
365.80 1.279
365.90 1.278
366.00 1.277
366.10 1.276
366.20 1.275
366.30 1.275
366.40 1.274
366.50 1.273
366.60 1.272
366.70 1.271
366.80 1.271
366.90 1.27
367.00 1.269
367.10 1.268
367.20 1.267
367.30 1.267
367.40 1.266
367.50 1.265
367.60 1.264
367.70 1.264
367.80 1.263
367.90 1.262
368.00 1.261
368.10 1.261
368.20 1.26
368.30 1.26
368.40 1.259
368.50 1.259
368.60 1.258
368.70 1.258
368.80 1.258
368.90 1.257
369.00 1.257
369.10 1.256
369.20 1.256
369.30 1.255
369.40 1.255
369.50 1.255
369.60 1.254
369.70 1.254
369.80 1.253
369.90 1.253
370.00 1.252
370.10 1.253
370.20 1.253
370.30 1.254
370.40 1.255
370.50 1.255
370.60 1.256
370.70 1.256
370.80 1.257
370.90 1.257
371.00 1.258
371.10 1.258
371.20 1.259
371.30 1.259
371.40 1.26
371.50 1.26
371.60 1.261
371.70 1.261
371.80 1.262
371.90 1.262
372.00 1.263
372.10 1.265
372.20 1.266
372.30 1.268
372.40 1.27
372.50 1.272
372.60 1.273
372.70 1.275
372.80 1.277
372.90 1.278
373.00 1.28
373.10 1.282
373.20 1.284
373.30 1.285
373.40 1.287
373.50 1.289
373.60 1.291
373.70 1.292
373.80 1.294
373.90 1.296
374.00 1.297
374.10 1.3
374.20 1.302
374.30 1.304
374.40 1.306
374.50 1.308
374.60 1.311
374.70 1.313
374.80 1.315
374.90 1.317
375.00 1.319
375.10 1.322
375.20 1.324
375.30 1.326
375.40 1.328
375.50 1.33
375.60 1.332
375.70 1.335
375.80 1.337
375.90 1.339
376.00 1.341
376.10 1.342
376.20 1.343
376.30 1.345
376.40 1.346
376.50 1.347
376.60 1.348
376.70 1.349
376.80 1.35
376.90 1.351
377.00 1.352
377.10 1.351
377.20 1.349
377.30 1.347
377.40 1.345
377.50 1.344
377.60 1.342
377.70 1.34
377.80 1.338
377.90 1.337
378.00 1.335
378.10 1.324
378.20 1.314
378.30 1.303
378.40 1.293
378.50 1.282
378.60 1.271
378.70 1.261
378.80 1.25
378.90 1.24
379.00 1.229
379.10 1.221
379.20 1.213
379.30 1.205
379.40 1.197
379.50 1.189
379.60 1.181
379.70 1.173
379.80 1.165
379.90 1.157
380.00 1.149
380.10 1.162
380.20 1.174
380.30 1.187
380.40 1.2
380.50 1.212
380.60 1.225
380.70 1.237
380.80 1.25
380.90 1.262
381.00 1.275
381.10 1.279
381.20 1.284
381.30 1.288
381.40 1.293
381.50 1.298
381.60 1.297
381.70 1.294
381.80 1.29
381.90 1.285
382.00 1.277
382.10 1.267
382.20 1.256
382.30 1.234
382.40 1.212
382.50 1.19
382.60 1.168
382.70 1.146
382.80 1.124
382.90 1.102
383.00 1.081
383.10 1.059
383.20 1.037
383.30 1.018
383.40 0.9965
383.50 0.9736
383.60 0.9781
383.70 1.002
383.80 1.023
383.90 1.042
384.00 1.064
384.10 1.09
384.20 1.117
384.30 1.145
384.40 1.172
384.50 1.197
384.60 1.221
384.70 1.242
384.80 1.261
384.90 1.277
385.00 1.292
385.10 1.304
385.20 1.315
385.30 1.325
385.40 1.332
385.50 1.338
385.60 1.344
385.70 1.347
385.80 1.35
385.90 1.351
386.00 1.351
386.10 1.351
386.20 1.349
386.30 1.345
386.40 1.341
386.50 1.336
386.60 1.329
386.70 1.321
386.80 1.312
386.90 1.302
387.00 1.291
387.10 1.279
387.20 1.265
387.30 1.25
387.40 1.233
387.50 1.215
387.60 1.194
387.70 1.173
387.80 1.148
387.90 1.121
388.00 1.092
388.10 1.06
388.20 1.026
388.30 0.9905
388.40 0.9548
388.50 0.9215
388.60 0.8908
388.70 0.8622
388.80 0.8349
388.90 0.8086
389.00 0.8324
389.10 0.8583
389.20 0.8865
389.30 0.9165
389.40 0.9491
389.50 0.9844
389.60 1.02
389.70 1.054
389.80 1.087
389.90 1.117
390.00 1.145
390.10 1.171
390.20 1.194
390.30 1.216
390.40 1.237
390.50 1.256
390.60 1.274
390.70 1.291
390.80 1.307
390.90 1.323
391.00 1.337
391.10 1.351
391.20 1.364
391.30 1.377
391.40 1.388
391.50 1.399
391.60 1.409
391.70 1.419
391.80 1.427
391.90 1.436
392.00 1.442
392.10 1.449
392.20 1.454
392.30 1.459
392.40 1.463
392.50 1.466
392.60 1.467
392.70 1.468
392.80 1.469
392.90 1.468
393.00 1.466
393.10 1.464
393.20 1.46
393.30 1.456
393.40 1.451
393.50 1.444
393.60 1.437
393.70 1.429
393.80 1.42
393.90 1.41
394.00 1.4
394.10 1.388
394.20 1.375
394.30 1.362
394.40 1.348
394.50 1.333
394.60 1.318
394.70 1.302
394.80 1.285
394.90 1.267
395.00 1.249
395.10 1.23
395.20 1.211
395.30 1.191
395.40 1.17
395.50 1.149
395.60 1.126
395.70 1.103
395.80 1.079
395.90 1.052
396.00 1.025
396.10 0.9969
396.20 0.9656
396.30 0.9326
396.40 0.8978
396.50 0.8606
396.60 0.8244
396.70 0.789
396.80 0.755
396.90 0.7157
397.00 0.6711
397.10 0.7119
397.20 0.7491
397.30 0.7827
397.40 0.8171
397.50 0.8524
397.60 0.8887
397.70 0.923
397.80 0.9555
397.90 0.9862
398.00 1.014
398.10 1.04
398.20 1.066
398.30 1.09
398.40 1.113
398.50 1.135
398.60 1.156
398.70 1.176
398.80 1.196
398.90 1.215
399.00 1.234
399.10 1.252
399.20 1.27
399.30 1.288
399.40 1.305
399.50 1.322
399.60 1.338
399.70 1.354
399.80 1.37
399.90 1.385
400.00 1.4
400.10 1.414
400.20 1.427
400.30 1.44
400.40 1.453
400.50 1.465
400.60 1.477
400.70 1.488
400.80 1.498
400.90 1.508
401.00 1.518
401.10 1.527
401.20 1.536
401.30 1.544
401.40 1.552
401.50 1.559
401.60 1.566
401.70 1.573
401.80 1.579
401.90 1.584
402.00 1.589
402.10 1.594
402.20 1.598
402.30 1.602
402.40 1.606
402.50 1.609
402.60 1.612
402.70 1.614
402.80 1.616
402.90 1.617
403.00 1.619
403.10 1.619
403.20 1.62
403.30 1.62
403.40 1.62
403.50 1.619
403.60 1.618
403.70 1.617
403.80 1.615
403.90 1.613
404.00 1.61
404.10 1.607
404.20 1.604
404.30 1.6
404.40 1.596
404.50 1.592
404.60 1.587
404.70 1.582
404.80 1.576
404.90 1.57
405.00 1.564
405.10 1.557
405.20 1.55
405.30 1.542
405.40 1.534
405.50 1.526
405.60 1.517
405.70 1.507
405.80 1.497
405.90 1.487
406.00 1.477
406.10 1.466
406.20 1.454
406.30 1.442
406.40 1.43
406.50 1.417
406.60 1.404
406.70 1.39
406.80 1.376
406.90 1.361
407.00 1.346
407.10 1.33
407.20 1.314
407.30 1.297
407.40 1.28
407.50 1.263
407.60 1.245
407.70 1.227
407.80 1.208
407.90 1.189
408.00 1.17
408.10 1.15
408.20 1.13
408.30 1.11
408.40 1.09
408.50 1.069
408.60 1.048
408.70 1.027
408.80 1.006
408.90 0.9834
409.00 0.9611
409.10 0.9377
409.20 0.9137
409.30 0.889
409.40 0.8619
409.50 0.8333
409.60 0.8033
409.70 0.7709
409.80 0.7381
409.90 0.705
410.00 0.6662
410.10 0.6262
410.20 0.585
410.30 0.6415
410.40 0.6868
410.50 0.7212
410.60 0.7535
410.70 0.7851
410.80 0.8161
410.90 0.8441
411.00 0.8707
411.10 0.8958
411.20 0.9189
411.30 0.9414
411.40 0.9633
411.50 0.9843
411.60 1.005
411.70 1.025
411.80 1.045
411.90 1.064
412.00 1.084
412.10 1.102
412.20 1.121
412.30 1.139
412.40 1.157
412.50 1.175
412.60 1.192
412.70 1.209
412.80 1.226
412.90 1.242
413.00 1.258
413.10 1.274
413.20 1.289
413.30 1.303
413.40 1.318
413.50 1.331
413.60 1.345
413.70 1.357
413.80 1.37
413.90 1.382
414.00 1.394
414.10 1.405
414.20 1.416
414.30 1.427
414.40 1.437
414.50 1.447
414.60 1.457
414.70 1.466
414.80 1.475
414.90 1.483
415.00 1.492
415.10 1.5
415.20 1.507
415.30 1.515
415.40 1.522
415.50 1.529
415.60 1.535
415.70 1.541
415.80 1.547
415.90 1.553
416.00 1.559
416.10 1.564
416.20 1.569
416.30 1.574
416.40 1.579
416.50 1.583
416.60 1.587
416.70 1.591
416.80 1.595
416.90 1.599
417.00 1.602
417.10 1.606
417.20 1.609
417.30 1.612
417.40 1.615
417.50 1.618
417.60 1.62
417.70 1.623
417.80 1.625
417.90 1.627
418.00 1.629
418.10 1.631
418.20 1.633
418.30 1.635
418.40 1.636
418.50 1.638
418.60 1.639
418.70 1.64
418.80 1.641
418.90 1.642
419.00 1.643
419.10 1.644
419.20 1.645
419.30 1.646
419.40 1.646
419.50 1.647
419.60 1.647
419.70 1.648
419.80 1.648
419.90 1.648
420.00 1.648
420.10 1.648
420.20 1.648
420.30 1.648
420.40 1.648
420.50 1.648
420.60 1.648
420.70 1.647
420.80 1.647
420.90 1.646
421.00 1.646
421.10 1.645
421.20 1.645
421.30 1.644
421.40 1.643
421.50 1.643
421.60 1.642
421.70 1.641
421.80 1.64
421.90 1.639
422.00 1.638
422.10 1.637
422.20 1.635
422.30 1.634
422.40 1.633
422.50 1.631
422.60 1.63
422.70 1.629
422.80 1.627
422.90 1.625
423.00 1.624
423.10 1.622
423.20 1.62
423.30 1.618
423.40 1.617
423.50 1.615
423.60 1.613
423.70 1.611
423.80 1.608
423.90 1.606
424.00 1.604
424.10 1.602
424.20 1.599
424.30 1.597
424.40 1.594
424.50 1.592
424.60 1.589
424.70 1.586
424.80 1.583
424.90 1.58
425.00 1.577
425.10 1.574
425.20 1.571
425.30 1.568
425.40 1.565
425.50 1.561
425.60 1.558
425.70 1.554
425.80 1.55
425.90 1.547
426.00 1.543
426.10 1.539
426.20 1.534
426.30 1.529
426.40 1.525
426.50 1.52
426.60 1.516
426.70 1.511
426.80 1.506
426.90 1.501
427.00 1.496
427.10 1.491
427.20 1.486
427.30 1.48
427.40 1.475
427.50 1.469
427.60 1.463
427.70 1.457
427.80 1.451
427.90 1.444
428.00 1.438
428.10 1.431
428.20 1.424
428.30 1.417
428.40 1.41
428.50 1.402
428.60 1.395
428.70 1.387
428.80 1.379
428.90 1.37
429.00 1.362
429.10 1.353
429.20 1.344
429.30 1.335
429.40 1.326
429.50 1.316
429.60 1.306
429.70 1.296
429.80 1.285
429.90 1.275
430.00 1.264
430.10 1.253
430.20 1.241
430.30 1.23
430.40 1.218
430.50 1.206
430.60 1.194
430.70 1.181
430.80 1.168
430.90 1.155
431.00 1.142
431.10 1.128
431.20 1.115
431.30 1.101
431.40 1.086
431.50 1.072
431.60 1.057
431.70 1.042
431.80 1.027
431.90 1.011
432.00 0.9953
432.10 0.9789
432.20 0.9618
432.30 0.9443
432.40 0.9263
432.50 0.9071
432.60 0.8874
432.70 0.8671
432.80 0.8465
432.90 0.826
433.00 0.8058
433.10 0.7865
433.20 0.767
433.30 0.7473
433.40 0.7255
433.50 0.7023
433.60 0.6776
433.70 0.6495
433.80 0.6184
433.90 0.5842
434.00 0.5107
434.10 0.5116
434.20 0.587
434.30 0.6199
434.40 0.65
434.50 0.6773
434.60 0.7011
434.70 0.7235
434.80 0.7443
434.90 0.7631
435.00 0.7818
435.10 0.8002
435.20 0.8195
435.30 0.839
435.40 0.8586
435.50 0.8776
435.60 0.8961
435.70 0.914
435.80 0.9307
435.90 0.9469
436.00 0.9626
436.10 0.9775
436.20 0.9922
436.30 1.006
436.40 1.02
436.50 1.034
436.60 1.047
436.70 1.06
436.80 1.072
436.90 1.084
437.00 1.096
437.10 1.108
437.20 1.12
437.30 1.131
437.40 1.142
437.50 1.153
437.60 1.163
437.70 1.173
437.80 1.183
437.90 1.193
438.00 1.202
438.10 1.211
438.20 1.22
438.30 1.229
438.40 1.237
438.50 1.245
438.60 1.253
438.70 1.26
438.80 1.268
438.90 1.275
439.00 1.282
439.10 1.288
439.20 1.295
439.30 1.301
439.40 1.307
439.50 1.312
439.60 1.318
439.70 1.323
439.80 1.328
439.90 1.333
440.00 1.338
440.10 1.342
440.20 1.347
440.30 1.351
440.40 1.355
440.50 1.359
440.60 1.363
440.70 1.366
440.80 1.37
440.90 1.373
441.00 1.376
441.10 1.379
441.20 1.382
441.30 1.385
441.40 1.388
441.50 1.39
441.60 1.393
441.70 1.395
441.80 1.397
441.90 1.4
442.00 1.402
442.10 1.404
442.20 1.405
442.30 1.407
442.40 1.409
442.50 1.41
442.60 1.412
442.70 1.413
442.80 1.415
442.90 1.416
443.00 1.417
443.10 1.418
443.20 1.419
443.30 1.42
443.40 1.421
443.50 1.422
443.60 1.423
443.70 1.424
443.80 1.425
443.90 1.425
444.00 1.426
444.10 1.427
444.20 1.427
444.30 1.428
444.40 1.428
444.50 1.428
444.60 1.429
444.70 1.429
444.80 1.429
444.90 1.43
445.00 1.43
445.10 1.43
445.20 1.43
445.30 1.43
445.40 1.43
445.50 1.43
445.60 1.43
445.70 1.43
445.80 1.43
445.90 1.43
446.00 1.43
446.10 1.43
446.20 1.43
446.30 1.43
446.40 1.429
446.50 1.429
446.60 1.429
446.70 1.429
446.80 1.428
446.90 1.428
447.00 1.428
447.10 1.428
447.20 1.427
447.30 1.427
447.40 1.426
447.50 1.426
447.60 1.426
447.70 1.425
447.80 1.425
447.90 1.424
448.00 1.424
448.10 1.423
448.20 1.423
448.30 1.422
448.40 1.422
448.50 1.421
448.60 1.42
448.70 1.42
448.80 1.419
448.90 1.419
449.00 1.418
449.10 1.418
449.20 1.417
449.30 1.417
449.40 1.416
449.50 1.415
449.60 1.415
449.70 1.414
449.80 1.413
449.90 1.413
450.00 1.412
450.10 1.411
450.20 1.411
450.30 1.41
450.40 1.409
450.50 1.409
450.60 1.408
450.70 1.407
450.80 1.406
450.90 1.406
451.00 1.405
451.10 1.404
451.20 1.403
451.30 1.403
451.40 1.402
451.50 1.401
451.60 1.4
451.70 1.4
451.80 1.399
451.90 1.398
452.00 1.397
452.10 1.396
452.20 1.396
452.30 1.395
452.40 1.394
452.50 1.393
452.60 1.392
452.70 1.392
452.80 1.391
452.90 1.39
453.00 1.389
453.10 1.388
453.20 1.387
453.30 1.387
453.40 1.386
453.50 1.385
453.60 1.384
453.70 1.383
453.80 1.382
453.90 1.381
454.00 1.381
454.10 1.38
454.20 1.379
454.30 1.378
454.40 1.377
454.50 1.376
454.60 1.375
454.70 1.375
454.80 1.374
454.90 1.373
455.00 1.372
455.10 1.371
455.20 1.37
455.30 1.369
455.40 1.368
455.50 1.367
455.60 1.367
455.70 1.366
455.80 1.365
455.90 1.364
456.00 1.363
456.10 1.362
456.20 1.361
456.30 1.36
456.40 1.359
456.50 1.358
456.60 1.358
456.70 1.357
456.80 1.356
456.90 1.355
457.00 1.354
457.10 1.353
457.20 1.352
457.30 1.352
457.40 1.351
457.50 1.35
457.60 1.349
457.70 1.348
457.80 1.347
457.90 1.346
458.00 1.345
458.10 1.344
458.20 1.343
458.30 1.342
458.40 1.341
458.50 1.34
458.60 1.34
458.70 1.339
458.80 1.338
458.90 1.337
459.00 1.336
459.10 1.335
459.20 1.334
459.30 1.333
459.40 1.332
459.50 1.331
459.60 1.33
459.70 1.329
459.80 1.328
459.90 1.327
460.00 1.326
460.10 1.325
460.20 1.324
460.30 1.323
460.40 1.323
460.50 1.322
460.60 1.321
460.70 1.32
460.80 1.319
460.90 1.318
461.00 1.317
461.10 1.316
461.20 1.315
461.30 1.314
461.40 1.313
461.50 1.312
461.60 1.311
461.70 1.31
461.80 1.309
461.90 1.308
462.00 1.307
462.10 1.306
462.20 1.305
462.30 1.304
462.40 1.303
462.50 1.302
462.60 1.301
462.70 1.3
462.80 1.299
462.90 1.298
463.00 1.297
463.10 1.296
463.20 1.295
463.30 1.294
463.40 1.293
463.50 1.292
463.60 1.291
463.70 1.29
463.80 1.289
463.90 1.288
464.00 1.287
464.10 1.286
464.20 1.285
464.30 1.284
464.40 1.283
464.50 1.282
464.60 1.281
464.70 1.28
464.80 1.279
464.90 1.278
465.00 1.277
465.10 1.276
465.20 1.275
465.30 1.274
465.40 1.273
465.50 1.272
465.60 1.271
465.70 1.27
465.80 1.269
465.90 1.268
466.00 1.267
466.10 1.266
466.20 1.265
466.30 1.264
466.40 1.263
466.50 1.262
466.60 1.261
466.70 1.26
466.80 1.259
466.90 1.257
467.00 1.256
467.10 1.255
467.20 1.254
467.30 1.253
467.40 1.252
467.50 1.251
467.60 1.25
467.70 1.249
467.80 1.248
467.90 1.247
468.00 1.245
468.10 1.244
468.20 1.243
468.30 1.242
468.40 1.241
468.50 1.24
468.60 1.239
468.70 1.238
468.80 1.236
468.90 1.235
469.00 1.234
469.10 1.233
469.20 1.232
469.30 1.231
469.40 1.229
469.50 1.228
469.60 1.227
469.70 1.226
469.80 1.225
469.90 1.224
470.00 1.222
470.10 1.221
470.20 1.22
470.30 1.219
470.40 1.217
470.50 1.216
470.60 1.215
470.70 1.214
470.80 1.213
470.90 1.211
471.00 1.21
471.10 1.209
471.20 1.208
471.30 1.206
471.40 1.205
471.50 1.204
471.60 1.202
471.70 1.201
471.80 1.2
471.90 1.198
472.00 1.197
472.10 1.196
472.20 1.194
472.30 1.193
472.40 1.191
472.50 1.19
472.60 1.188
472.70 1.187
472.80 1.185
472.90 1.184
473.00 1.183
473.10 1.181
473.20 1.18
473.30 1.178
473.40 1.176
473.50 1.175
473.60 1.173
473.70 1.172
473.80 1.17
473.90 1.168
474.00 1.167
474.10 1.165
474.20 1.163
474.30 1.162
474.40 1.16
474.50 1.158
474.60 1.156
474.70 1.154
474.80 1.153
474.90 1.151
475.00 1.149
475.10 1.147
475.20 1.145
475.30 1.143
475.40 1.141
475.50 1.139
475.60 1.137
475.70 1.135
475.80 1.133
475.90 1.131
476.00 1.129
476.10 1.127
476.20 1.125
476.30 1.122
476.40 1.12
476.50 1.118
476.60 1.115
476.70 1.113
476.80 1.11
476.90 1.108
477.00 1.106
477.10 1.103
477.20 1.101
477.30 1.098
477.40 1.095
477.50 1.092
477.60 1.089
477.70 1.087
477.80 1.084
477.90 1.081
478.00 1.078
478.10 1.075
478.20 1.072
478.30 1.069
478.40 1.065
478.50 1.062
478.60 1.058
478.70 1.055
478.80 1.052
478.90 1.048
479.00 1.045
479.10 1.041
479.20 1.037
479.30 1.033
479.40 1.029
479.50 1.025
479.60 1.021
479.70 1.017
479.80 1.012
479.90 1.008
480.00 1.004
480.10 1
480.20 0.9952
480.30 0.99
480.40 0.9849
480.50 0.9798
480.60 0.9747
480.70 0.9696
480.80 0.9645
480.90 0.9594
481.00 0.9543
481.10 0.9492
481.20 0.9432
481.30 0.9369
481.40 0.9305
481.50 0.9242
481.60 0.9178
481.70 0.9115
481.80 0.9052
481.90 0.8988
482.00 0.8925
482.10 0.8862
482.20 0.8789
482.30 0.8712
482.40 0.8634
482.50 0.8557
482.60 0.8479
482.70 0.8402
482.80 0.8325
482.90 0.8248
483.00 0.8171
483.10 0.8093
483.20 0.8005
483.30 0.791
483.40 0.7816
483.50 0.7722
483.60 0.7628
483.70 0.7534
483.80 0.7441
483.90 0.7347
484.00 0.7253
484.10 0.716
484.20 0.7057
484.30 0.6951
484.40 0.6844
484.50 0.6738
484.60 0.6631
484.70 0.6519
484.80 0.6405
484.90 0.629
485.00 0.6176
485.10 0.6061
485.20 0.5944
485.30 0.5825
485.40 0.57
485.50 0.5572
485.60 0.5432
485.70 0.5286
485.80 0.5104
485.90 0.4905
486.00 0.4624
486.10 0.3821
486.20 0.4207
486.30 0.4738
486.40 0.496
486.50 0.5157
486.60 0.5316
486.70 0.5457
486.80 0.5585
486.90 0.5708
487.00 0.5823
487.10 0.5936
487.20 0.6045
487.30 0.6153
487.40 0.626
487.50 0.6367
487.60 0.6475
487.70 0.6576
487.80 0.6674
487.90 0.6772
488.00 0.687
488.10 0.6968
488.20 0.7056
488.30 0.714
488.40 0.7224
488.50 0.7307
488.60 0.7391
488.70 0.7475
488.80 0.7558
488.90 0.7642
489.00 0.7725
489.10 0.7808
489.20 0.7879
489.30 0.7945
489.40 0.801
489.50 0.8075
489.60 0.8139
489.70 0.8204
489.80 0.8269
489.90 0.8334
490.00 0.8399
490.10 0.8463
490.20 0.8518
490.30 0.8567
490.40 0.8616
490.50 0.8666
490.60 0.8715
490.70 0.8764
490.80 0.8813
490.90 0.8863
491.00 0.8912
491.10 0.8961
491.20 0.9001
491.30 0.9037
491.40 0.9073
491.50 0.9109
491.60 0.9145
491.70 0.9181
491.80 0.9217
491.90 0.9253
492.00 0.9289
492.10 0.9324
492.20 0.9353
492.30 0.9379
492.40 0.9405
492.50 0.943
492.60 0.9456
492.70 0.9482
492.80 0.9507
492.90 0.9533
493.00 0.9558
493.10 0.9584
493.20 0.9604
493.30 0.9622
493.40 0.964
493.50 0.9658
493.60 0.9676
493.70 0.9694
493.80 0.9712
493.90 0.973
494.00 0.9748
494.10 0.9766
494.20 0.9779
494.30 0.9791
494.40 0.9803
494.50 0.9815
494.60 0.9826
494.70 0.9838
494.80 0.985
494.90 0.9861
495.00 0.9873
495.10 0.9885
495.20 0.9893
495.30 0.9901
495.40 0.9908
495.50 0.9915
495.60 0.9922
495.70 0.9929
495.80 0.9937
495.90 0.9944
496.00 0.9951
496.10 0.9958
496.20 0.9963
496.30 0.9967
496.40 0.9971
496.50 0.9975
496.60 0.9979
496.70 0.9983
496.80 0.9987
496.90 0.9991
497.00 0.9995
497.10 0.9998
497.20 1
497.30 1
497.40 1
497.50 1.001
497.60 1.001
497.70 1.001
497.80 1.001
497.90 1.001
498.00 1.001
498.10 1.002
498.20 1.002
498.30 1.002
498.40 1.002
498.50 1.002
498.60 1.001
498.70 1.001
498.80 1.001
498.90 1.001
499.00 1.001
499.10 1.001
499.20 1.001
499.30 1.001
499.40 1.001
499.50 1.001
499.60 1.001
499.70 1
499.80 1
499.90 1
500.00 1
500.10 0.9998
500.20 0.9996
500.30 0.9994
500.40 0.9991
500.50 0.9989
500.60 0.9986
500.70 0.9983
500.80 0.9981
500.90 0.9978
501.00 0.9976
501.10 0.9973
501.20 0.997
501.30 0.9967
501.40 0.9964
501.50 0.996
501.60 0.9957
501.70 0.9954
501.80 0.995
501.90 0.9947
502.00 0.9944
502.10 0.9941
502.20 0.9937
502.30 0.9933
502.40 0.9929
502.50 0.9925
502.60 0.9921
502.70 0.9917
502.80 0.9913
502.90 0.9909
503.00 0.9905
503.10 0.9901
503.20 0.9897
503.30 0.9893
503.40 0.9889
503.50 0.9885
503.60 0.988
503.70 0.9876
503.80 0.9872
503.90 0.9868
504.00 0.9863
504.10 0.9859
504.20 0.9855
504.30 0.985
504.40 0.9845
504.50 0.9841
504.60 0.9836
504.70 0.9831
504.80 0.9827
504.90 0.9822
505.00 0.9818
505.10 0.9813
505.20 0.9808
505.30 0.9803
505.40 0.9798
505.50 0.9793
505.60 0.9788
505.70 0.9783
505.80 0.9779
505.90 0.9774
506.00 0.9769
506.10 0.9764
506.20 0.9759
506.30 0.9754
506.40 0.9749
506.50 0.9744
506.60 0.9739
506.70 0.9733
506.80 0.9728
506.90 0.9723
507.00 0.9718
507.10 0.9713
507.20 0.9708
507.30 0.9703
507.40 0.9698
507.50 0.9692
507.60 0.9687
507.70 0.9682
507.80 0.9677
507.90 0.9671
508.00 0.9666
508.10 0.9661
508.20 0.9656
508.30 0.965
508.40 0.9645
508.50 0.964
508.60 0.9635
508.70 0.9629
508.80 0.9624
508.90 0.9619
509.00 0.9614
509.10 0.9608
509.20 0.9603
509.30 0.9597
509.40 0.9592
509.50 0.9587
509.60 0.9581
509.70 0.9576
509.80 0.957
509.90 0.9565
510.00 0.9559
510.10 0.9554
510.20 0.9548
510.30 0.9543
510.40 0.9537
510.50 0.9532
510.60 0.9526
510.70 0.9521
510.80 0.9515
510.90 0.951
511.00 0.9505
511.10 0.9499
511.20 0.9494
511.30 0.9488
511.40 0.9482
511.50 0.9477
511.60 0.9471
511.70 0.9466
511.80 0.946
511.90 0.9455
512.00 0.9449
512.10 0.9444
512.20 0.9438
512.30 0.9433
512.40 0.9427
512.50 0.9421
512.60 0.9416
512.70 0.941
512.80 0.9405
512.90 0.9399
513.00 0.9394
513.10 0.9388
513.20 0.9383
513.30 0.9377
513.40 0.9372
513.50 0.9366
513.60 0.9361
513.70 0.9355
513.80 0.9349
513.90 0.9344
514.00 0.9338
514.10 0.9333
514.20 0.9327
514.30 0.9322
514.40 0.9316
514.50 0.931
514.60 0.9305
514.70 0.9299
514.80 0.9293
514.90 0.9288
515.00 0.9282
515.10 0.9277
515.20 0.9271
515.30 0.9265
515.40 0.926
515.50 0.9254
515.60 0.9249
515.70 0.9243
515.80 0.9237
515.90 0.9232
516.00 0.9226
516.10 0.9221
516.20 0.9215
516.30 0.921
516.40 0.9204
516.50 0.9198
516.60 0.9193
516.70 0.9187
516.80 0.9182
516.90 0.9176
517.00 0.9171
517.10 0.9165
517.20 0.916
517.30 0.9154
517.40 0.9149
517.50 0.9143
517.60 0.9138
517.70 0.9132
517.80 0.9127
517.90 0.9121
518.00 0.9116
518.10 0.911
518.20 0.9105
518.30 0.9099
518.40 0.9094
518.50 0.9088
518.60 0.9083
518.70 0.9077
518.80 0.9072
518.90 0.9066
519.00 0.9061
519.10 0.9055
519.20 0.905
519.30 0.9044
519.40 0.9039
519.50 0.9033
519.60 0.9028
519.70 0.9022
519.80 0.9017
519.90 0.9011
520.00 0.9005
520.10 0.9
520.20 0.8994
520.30 0.8989
520.40 0.8983
520.50 0.8978
520.60 0.8972
520.70 0.8967
520.80 0.8961
520.90 0.8956
521.00 0.895
521.10 0.8945
521.20 0.894
521.30 0.8934
521.40 0.8929
521.50 0.8923
521.60 0.8918
521.70 0.8912
521.80 0.8907
521.90 0.8901
522.00 0.8896
522.10 0.889
522.20 0.8885
522.30 0.8879
522.40 0.8874
522.50 0.8869
522.60 0.8863
522.70 0.8858
522.80 0.8852
522.90 0.8847
523.00 0.8842
523.10 0.8836
523.20 0.8831
523.30 0.8825
523.40 0.882
523.50 0.8815
523.60 0.8809
523.70 0.8804
523.80 0.8798
523.90 0.8793
524.00 0.8788
524.10 0.8782
524.20 0.8777
524.30 0.8771
524.40 0.8766
524.50 0.8761
524.60 0.8755
524.70 0.875
524.80 0.8745
524.90 0.8739
525.00 0.8734
525.10 0.8728
525.20 0.8723
525.30 0.8718
525.40 0.8712
525.50 0.8707
525.60 0.8702
525.70 0.8696
525.80 0.8691
525.90 0.8686
526.00 0.868
526.10 0.8675
526.20 0.867
526.30 0.8664
526.40 0.8659
526.50 0.8654
526.60 0.8648
526.70 0.8643
526.80 0.8638
526.90 0.8633
527.00 0.8627
527.10 0.8622
527.20 0.8617
527.30 0.8611
527.40 0.8606
527.50 0.8601
527.60 0.8596
527.70 0.859
527.80 0.8585
527.90 0.858
528.00 0.8574
528.10 0.8569
528.20 0.8564
528.30 0.8559
528.40 0.8553
528.50 0.8548
528.60 0.8543
528.70 0.8538
528.80 0.8532
528.90 0.8527
529.00 0.8522
529.10 0.8517
529.20 0.8512
529.30 0.8506
529.40 0.8501
529.50 0.8496
529.60 0.8491
529.70 0.8485
529.80 0.848
529.90 0.8475
530.00 0.847
530.10 0.8465
530.20 0.8459
530.30 0.8454
530.40 0.8449
530.50 0.8444
530.60 0.8439
530.70 0.8434
530.80 0.8428
530.90 0.8423
531.00 0.8418
531.10 0.8413
531.20 0.8408
531.30 0.8403
531.40 0.8397
531.50 0.8392
531.60 0.8387
531.70 0.8382
531.80 0.8377
531.90 0.8372
532.00 0.8367
532.10 0.8362
532.20 0.8356
532.30 0.8351
532.40 0.8346
532.50 0.8341
532.60 0.8336
532.70 0.8331
532.80 0.8326
532.90 0.8321
533.00 0.8316
533.10 0.831
533.20 0.8305
533.30 0.83
533.40 0.8295
533.50 0.829
533.60 0.8285
533.70 0.828
533.80 0.8275
533.90 0.827
534.00 0.8265
534.10 0.826
534.20 0.8255
534.30 0.825
534.40 0.8245
534.50 0.824
534.60 0.8235
534.70 0.823
534.80 0.8225
534.90 0.822
535.00 0.8215
535.10 0.8209
535.20 0.8204
535.30 0.8199
535.40 0.8194
535.50 0.8189
535.60 0.8184
535.70 0.8179
535.80 0.8174
535.90 0.8169
536.00 0.8164
536.10 0.8159
536.20 0.8154
536.30 0.815
536.40 0.8145
536.50 0.814
536.60 0.8135
536.70 0.813
536.80 0.8125
536.90 0.812
537.00 0.8115
537.10 0.811
537.20 0.8105
537.30 0.81
537.40 0.8095
537.50 0.809
537.60 0.8085
537.70 0.808
537.80 0.8075
537.90 0.807
538.00 0.8066
538.10 0.8061
538.20 0.8056
538.30 0.8051
538.40 0.8046
538.50 0.8041
538.60 0.8036
538.70 0.8031
538.80 0.8026
538.90 0.8021
539.00 0.8017
539.10 0.8012
539.20 0.8007
539.30 0.8002
539.40 0.7997
539.50 0.7992
539.60 0.7987
539.70 0.7983
539.80 0.7978
539.90 0.7973
540.00 0.7968
540.10 0.7963
540.20 0.7958
540.30 0.7953
540.40 0.7949
540.50 0.7944
540.60 0.7939
540.70 0.7934
540.80 0.7929
540.90 0.7924
541.00 0.792
541.10 0.7915
541.20 0.791
541.30 0.7905
541.40 0.7901
541.50 0.7896
541.60 0.7891
541.70 0.7886
541.80 0.7881
541.90 0.7877
542.00 0.7872
542.10 0.7867
542.20 0.7862
542.30 0.7858
542.40 0.7853
542.50 0.7848
542.60 0.7843
542.70 0.7839
542.80 0.7834
542.90 0.7829
543.00 0.7824
543.10 0.782
543.20 0.7815
543.30 0.781
543.40 0.7805
543.50 0.7801
543.60 0.7796
543.70 0.7791
543.80 0.7787
543.90 0.7782
544.00 0.7777
544.10 0.7772
544.20 0.7768
544.30 0.7763
544.40 0.7758
544.50 0.7754
544.60 0.7749
544.70 0.7744
544.80 0.774
544.90 0.7735
545.00 0.773
545.10 0.7726
545.20 0.7721
545.30 0.7716
545.40 0.7712
545.50 0.7707
545.60 0.7702
545.70 0.7698
545.80 0.7693
545.90 0.7688
546.00 0.7684
546.10 0.7679
546.20 0.7675
546.30 0.767
546.40 0.7666
546.50 0.7662
546.60 0.7658
546.70 0.7653
546.80 0.7649
546.90 0.7645
547.00 0.7641
547.10 0.7636
547.20 0.7632
547.30 0.7627
547.40 0.7623
547.50 0.7618
547.60 0.7613
547.70 0.7609
547.80 0.7604
547.90 0.76
548.00 0.7595
548.10 0.759
548.20 0.7586
548.30 0.7581
548.40 0.7577
548.50 0.7572
548.60 0.7568
548.70 0.7563
548.80 0.7558
548.90 0.7554
549.00 0.7549
549.10 0.7545
549.20 0.754
549.30 0.7536
549.40 0.7531
549.50 0.7527
549.60 0.7522
549.70 0.7518
549.80 0.7513
549.90 0.7509
550.00 0.7504
550.10 0.75
550.20 0.7495
550.30 0.749
550.40 0.7486
550.50 0.7481
550.60 0.7477
550.70 0.7473
550.80 0.7468
550.90 0.7464
551.00 0.7459
551.10 0.7455
551.20 0.745
551.30 0.7446
551.40 0.7441
551.50 0.7437
551.60 0.7432
551.70 0.7428
551.80 0.7423
551.90 0.7419
552.00 0.7414
552.10 0.741
552.20 0.7406
552.30 0.7401
552.40 0.7397
552.50 0.7392
552.60 0.7388
552.70 0.7383
552.80 0.7379
552.90 0.7375
553.00 0.737
553.10 0.7366
553.20 0.7361
553.30 0.7357
553.40 0.7352
553.50 0.7348
553.60 0.7344
553.70 0.7339
553.80 0.7335
553.90 0.733
554.00 0.7326
554.10 0.7322
554.20 0.7317
554.30 0.7313
554.40 0.7309
554.50 0.7304
554.60 0.73
554.70 0.7296
554.80 0.7291
554.90 0.7287
555.00 0.7282
555.10 0.7278
555.20 0.7274
555.30 0.7269
555.40 0.7265
555.50 0.7261
555.60 0.7256
555.70 0.7252
555.80 0.7248
555.90 0.7243
556.00 0.7239
556.10 0.7235
556.20 0.7231
556.30 0.7226
556.40 0.7222
556.50 0.7218
556.60 0.7213
556.70 0.7209
556.80 0.7205
556.90 0.72
557.00 0.7196
557.10 0.7192
557.20 0.7188
557.30 0.7183
557.40 0.7179
557.50 0.7175
557.60 0.7171
557.70 0.7166
557.80 0.7162
557.90 0.7158
558.00 0.7154
558.10 0.7149
558.20 0.7145
558.30 0.7141
558.40 0.7137
558.50 0.7132
558.60 0.7128
558.70 0.7124
558.80 0.712
558.90 0.7115
559.00 0.7111
559.10 0.7107
559.20 0.7103
559.30 0.7099
559.40 0.7094
559.50 0.709
559.60 0.7086
559.70 0.7082
559.80 0.7078
559.90 0.7073
560.00 0.7069
560.10 0.7065
560.20 0.7061
560.30 0.7057
560.40 0.7052
560.50 0.7048
560.60 0.7044
560.70 0.704
560.80 0.7036
560.90 0.7032
561.00 0.7027
561.10 0.7023
561.20 0.7019
561.30 0.7015
561.40 0.7011
561.50 0.7007
561.60 0.7003
561.70 0.6998
561.80 0.6994
561.90 0.699
562.00 0.6986
562.10 0.6982
562.20 0.6978
562.30 0.6974
562.40 0.6969
562.50 0.6965
562.60 0.6961
562.70 0.6957
562.80 0.6953
562.90 0.6949
563.00 0.6945
563.10 0.6941
563.20 0.6937
563.30 0.6933
563.40 0.6929
563.50 0.6924
563.60 0.692
563.70 0.6916
563.80 0.6912
563.90 0.6908
564.00 0.6904
564.10 0.69
564.20 0.6896
564.30 0.6892
564.40 0.6888
564.50 0.6884
564.60 0.688
564.70 0.6876
564.80 0.6872
564.90 0.6868
565.00 0.6864
565.10 0.686
565.20 0.6856
565.30 0.6852
565.40 0.6848
565.50 0.6843
565.60 0.6839
565.70 0.6835
565.80 0.6831
565.90 0.6827
566.00 0.6823
566.10 0.6819
566.20 0.6815
566.30 0.6811
566.40 0.6807
566.50 0.6803
566.60 0.6799
566.70 0.6795
566.80 0.6791
566.90 0.6787
567.00 0.6783
567.10 0.678
567.20 0.6776
567.30 0.6772
567.40 0.6768
567.50 0.6764
567.60 0.676
567.70 0.6756
567.80 0.6752
567.90 0.6748
568.00 0.6744
568.10 0.674
568.20 0.6736
568.30 0.6732
568.40 0.6728
568.50 0.6724
568.60 0.672
568.70 0.6716
568.80 0.6712
568.90 0.6709
569.00 0.6705
569.10 0.6701
569.20 0.6697
569.30 0.6693
569.40 0.6689
569.50 0.6685
569.60 0.6681
569.70 0.6677
569.80 0.6673
569.90 0.6669
570.00 0.6666
570.10 0.6662
570.20 0.6658
570.30 0.6654
570.40 0.665
570.50 0.6646
570.60 0.6642
570.70 0.6638
570.80 0.6635
570.90 0.6631
571.00 0.6627
571.10 0.6623
571.20 0.6619
571.30 0.6615
571.40 0.6611
571.50 0.6608
571.60 0.6604
571.70 0.66
571.80 0.6596
571.90 0.6592
572.00 0.6588
572.10 0.6584
572.20 0.6581
572.30 0.6577
572.40 0.6573
572.50 0.6569
572.60 0.6565
572.70 0.6562
572.80 0.6558
572.90 0.6554
573.00 0.655
573.10 0.6546
573.20 0.6543
573.30 0.6539
573.40 0.6535
573.50 0.6531
573.60 0.6527
573.70 0.6524
573.80 0.652
573.90 0.6516
574.00 0.6512
574.10 0.6509
574.20 0.6505
574.30 0.6501
574.40 0.6497
574.50 0.6493
574.60 0.649
574.70 0.6486
574.80 0.6482
574.90 0.6478
575.00 0.6475
575.10 0.6471
575.20 0.6467
575.30 0.6463
575.40 0.646
575.50 0.6456
575.60 0.6452
575.70 0.6448
575.80 0.6445
575.90 0.6441
576.00 0.6437
576.10 0.6434
576.20 0.643
576.30 0.6426
576.40 0.6422
576.50 0.6419
576.60 0.6415
576.70 0.6411
576.80 0.6408
576.90 0.6404
577.00 0.64
577.10 0.6397
577.20 0.6393
577.30 0.6389
577.40 0.6385
577.50 0.6382
577.60 0.6378
577.70 0.6374
577.80 0.6371
577.90 0.6367
578.00 0.6363
578.10 0.636
578.20 0.6356
578.30 0.6352
578.40 0.6349
578.50 0.6345
578.60 0.6341
578.70 0.6338
578.80 0.6334
578.90 0.6331
579.00 0.6327
579.10 0.6323
579.20 0.632
579.30 0.6316
579.40 0.6312
579.50 0.6309
579.60 0.6305
579.70 0.6301
579.80 0.6298
579.90 0.6294
580.00 0.6291
580.10 0.6287
580.20 0.6283
580.30 0.628
580.40 0.6276
580.50 0.6273
580.60 0.6269
580.70 0.6265
580.80 0.6262
580.90 0.6258
581.00 0.6255
581.10 0.6251
581.20 0.6247
581.30 0.6244
581.40 0.624
581.50 0.6237
581.60 0.6233
581.70 0.623
581.80 0.6226
581.90 0.6222
582.00 0.6219
582.10 0.6215
582.20 0.6212
582.30 0.6208
582.40 0.6205
582.50 0.6201
582.60 0.6198
582.70 0.6194
582.80 0.619
582.90 0.6187
583.00 0.6183
583.10 0.618
583.20 0.6176
583.30 0.6173
583.40 0.6169
583.50 0.6166
583.60 0.6162
583.70 0.6159
583.80 0.6155
583.90 0.6152
584.00 0.6148
584.10 0.6145
584.20 0.6141
584.30 0.6138
584.40 0.6134
584.50 0.6131
584.60 0.6127
584.70 0.6124
584.80 0.612
584.90 0.6117
585.00 0.6113
585.10 0.611
585.20 0.6106
585.30 0.6103
585.40 0.6099
585.50 0.6096
585.60 0.6092
585.70 0.6089
585.80 0.6085
585.90 0.6082
586.00 0.6078
586.10 0.6075
586.20 0.6071
586.30 0.6068
586.40 0.6065
586.50 0.6061
586.60 0.6058
586.70 0.6054
586.80 0.6051
586.90 0.6047
587.00 0.6044
587.10 0.604
587.20 0.6037
587.30 0.6034
587.40 0.603
587.50 0.6027
587.60 0.6023
587.70 0.602
587.80 0.6016
587.90 0.6013
588.00 0.601
588.10 0.6006
588.20 0.6003
588.30 0.5999
588.40 0.5996
588.50 0.5993
588.60 0.5989
588.70 0.5986
588.80 0.5982
588.90 0.5979
589.00 0.5976
589.10 0.5972
589.20 0.5969
589.30 0.5965
589.40 0.5962
589.50 0.5959
589.60 0.5955
589.70 0.5952
589.80 0.5949
589.90 0.5945
590.00 0.5942
590.10 0.5938
590.20 0.5935
590.30 0.5932
590.40 0.5928
590.50 0.5925
590.60 0.5922
590.70 0.5918
590.80 0.5915
590.90 0.5912
591.00 0.5908
591.10 0.5905
591.20 0.5902
591.30 0.5898
591.40 0.5895
591.50 0.5892
591.60 0.5888
591.70 0.5885
591.80 0.5882
591.90 0.5878
592.00 0.5875
592.10 0.5872
592.20 0.5868
592.30 0.5865
592.40 0.5862
592.50 0.5859
592.60 0.5855
592.70 0.5852
592.80 0.5849
592.90 0.5845
593.00 0.5842
593.10 0.5839
593.20 0.5835
593.30 0.5832
593.40 0.5829
593.50 0.5826
593.60 0.5822
593.70 0.5819
593.80 0.5816
593.90 0.5812
594.00 0.5809
594.10 0.5806
594.20 0.5803
594.30 0.5799
594.40 0.5796
594.50 0.5793
594.60 0.579
594.70 0.5786
594.80 0.5783
594.90 0.578
595.00 0.5777
595.10 0.5773
595.20 0.577
595.30 0.5767
595.40 0.5764
595.50 0.576
595.60 0.5757
595.70 0.5754
595.80 0.5751
595.90 0.5748
596.00 0.5744
596.10 0.5741
596.20 0.5737
596.30 0.5734
596.40 0.573
596.50 0.5726
596.60 0.5722
596.70 0.5718
596.80 0.5714
596.90 0.571
597.00 0.5706
597.10 0.5703
597.20 0.5699
597.30 0.5696
597.40 0.5693
597.50 0.569
597.60 0.5686
597.70 0.5683
597.80 0.568
597.90 0.5677
598.00 0.5674
598.10 0.567
598.20 0.5667
598.30 0.5664
598.40 0.5661
598.50 0.5658
598.60 0.5654
598.70 0.5651
598.80 0.5648
598.90 0.5645
599.00 0.5642
599.10 0.5638
599.20 0.5635
599.30 0.5632
599.40 0.5629
599.50 0.5626
599.60 0.5623
599.70 0.5619
599.80 0.5616
599.90 0.5613
600.00 0.561
600.10 0.5607
600.20 0.5604
600.30 0.5601
600.40 0.5597
600.50 0.5594
600.60 0.5591
600.70 0.5588
600.80 0.5585
600.90 0.5582
601.00 0.5579
601.10 0.5575
601.20 0.5572
601.30 0.5569
601.40 0.5566
601.50 0.5563
601.60 0.556
601.70 0.5557
601.80 0.5554
601.90 0.555
602.00 0.5547
602.10 0.5544
602.20 0.5541
602.30 0.5538
602.40 0.5535
602.50 0.5532
602.60 0.5529
602.70 0.5526
602.80 0.5522
602.90 0.5519
603.00 0.5516
603.10 0.5513
603.20 0.551
603.30 0.5507
603.40 0.5504
603.50 0.5501
603.60 0.5498
603.70 0.5495
603.80 0.5492
603.90 0.5489
604.00 0.5485
604.10 0.5482
604.20 0.5479
604.30 0.5476
604.40 0.5473
604.50 0.547
604.60 0.5467
604.70 0.5464
604.80 0.5461
604.90 0.5458
605.00 0.5455
605.10 0.5452
605.20 0.5449
605.30 0.5446
605.40 0.5443
605.50 0.544
605.60 0.5436
605.70 0.5433
605.80 0.543
605.90 0.5427
606.00 0.5424
606.10 0.5421
606.20 0.5418
606.30 0.5415
606.40 0.5412
606.50 0.5409
606.60 0.5406
606.70 0.5403
606.80 0.54
606.90 0.5397
607.00 0.5394
607.10 0.5391
607.20 0.5388
607.30 0.5385
607.40 0.5382
607.50 0.5379
607.60 0.5376
607.70 0.5373
607.80 0.537
607.90 0.5367
608.00 0.5364
608.10 0.5361
608.20 0.5358
608.30 0.5355
608.40 0.5352
608.50 0.5349
608.60 0.5346
608.70 0.5343
608.80 0.534
608.90 0.5337
609.00 0.5334
609.10 0.5331
609.20 0.5328
609.30 0.5325
609.40 0.5322
609.50 0.5319
609.60 0.5316
609.70 0.5313
609.80 0.531
609.90 0.5307
610.00 0.5304
610.10 0.5301
610.20 0.5298
610.30 0.5296
610.40 0.5293
610.50 0.529
610.60 0.5287
610.70 0.5284
610.80 0.5281
610.90 0.5278
611.00 0.5275
611.10 0.5272
611.20 0.5269
611.30 0.5266
611.40 0.5263
611.50 0.526
611.60 0.5257
611.70 0.5254
611.80 0.5251
611.90 0.5248
612.00 0.5246
612.10 0.5243
612.20 0.524
612.30 0.5237
612.40 0.5234
612.50 0.5231
612.60 0.5228
612.70 0.5225
612.80 0.5222
612.90 0.5219
613.00 0.5216
613.10 0.5213
613.20 0.521
613.30 0.5208
613.40 0.5205
613.50 0.5202
613.60 0.5199
613.70 0.5196
613.80 0.5193
613.90 0.519
614.00 0.5187
614.10 0.5184
614.20 0.5181
614.30 0.5179
614.40 0.5176
614.50 0.5173
614.60 0.517
614.70 0.5167
614.80 0.5164
614.90 0.5161
615.00 0.5158
615.10 0.5156
615.20 0.5153
615.30 0.515
615.40 0.5147
615.50 0.5144
615.60 0.5141
615.70 0.5138
615.80 0.5135
615.90 0.5132
616.00 0.513
616.10 0.5127
616.20 0.5124
616.30 0.5121
616.40 0.5118
616.50 0.5115
616.60 0.5112
616.70 0.511
616.80 0.5107
616.90 0.5104
617.00 0.5101
617.10 0.5098
617.20 0.5095
617.30 0.5092
617.40 0.509
617.50 0.5087
617.60 0.5084
617.70 0.5081
617.80 0.5078
617.90 0.5075
618.00 0.5073
618.10 0.507
618.20 0.5067
618.30 0.5064
618.40 0.5061
618.50 0.5058
618.60 0.5055
618.70 0.5053
618.80 0.505
618.90 0.5047
619.00 0.5044
619.10 0.5041
619.20 0.5038
619.30 0.5036
619.40 0.5033
619.50 0.503
619.60 0.5027
619.70 0.5024
619.80 0.5022
619.90 0.5019
620.00 0.5016
620.10 0.5013
620.20 0.501
620.30 0.5007
620.40 0.5005
620.50 0.5002
620.60 0.4999
620.70 0.4996
620.80 0.4993
620.90 0.4991
621.00 0.4988
621.10 0.4985
621.20 0.4982
621.30 0.4979
621.40 0.4976
621.50 0.4974
621.60 0.4971
621.70 0.4968
621.80 0.4965
621.90 0.4962
622.00 0.496
622.10 0.4957
622.20 0.4954
622.30 0.4951
622.40 0.4948
622.50 0.4946
622.60 0.4943
622.70 0.494
622.80 0.4937
622.90 0.4934
623.00 0.4932
623.10 0.4929
623.20 0.4926
623.30 0.4923
623.40 0.4921
623.50 0.4918
623.60 0.4915
623.70 0.4912
623.80 0.4909
623.90 0.4907
624.00 0.4904
624.10 0.4901
624.20 0.4898
624.30 0.4895
624.40 0.4893
624.50 0.489
624.60 0.4887
624.70 0.4884
624.80 0.4882
624.90 0.4879
625.00 0.4876
625.10 0.4873
625.20 0.487
625.30 0.4868
625.40 0.4865
625.50 0.4862
625.60 0.4859
625.70 0.4856
625.80 0.4854
625.90 0.4851
626.00 0.4848
626.10 0.4845
626.20 0.4843
626.30 0.484
626.40 0.4837
626.50 0.4834
626.60 0.4831
626.70 0.4829
626.80 0.4826
626.90 0.4823
627.00 0.482
627.10 0.4818
627.20 0.4815
627.30 0.4812
627.40 0.4809
627.50 0.4806
627.60 0.4804
627.70 0.4801
627.80 0.4798
627.90 0.4795
628.00 0.4793
628.10 0.479
628.20 0.4787
628.30 0.4784
628.40 0.4781
628.50 0.4779
628.60 0.4776
628.70 0.4773
628.80 0.477
628.90 0.4768
629.00 0.4765
629.10 0.4762
629.20 0.4759
629.30 0.4756
629.40 0.4754
629.50 0.4751
629.60 0.4748
629.70 0.4745
629.80 0.4742
629.90 0.474
630.00 0.4737
630.10 0.4734
630.20 0.4731
630.30 0.4728
630.40 0.4726
630.50 0.4723
630.60 0.472
630.70 0.4717
630.80 0.4714
630.90 0.4712
631.00 0.4709
631.10 0.4706
631.20 0.4703
631.30 0.47
631.40 0.4698
631.50 0.4695
631.60 0.4692
631.70 0.4689
631.80 0.4686
631.90 0.4684
632.00 0.4681
632.10 0.4678
632.20 0.4675
632.30 0.4672
632.40 0.4669
632.50 0.4667
632.60 0.4664
632.70 0.4661
632.80 0.4658
632.90 0.4655
633.00 0.4652
633.10 0.4649
633.20 0.4647
633.30 0.4644
633.40 0.4641
633.50 0.4638
633.60 0.4635
633.70 0.4632
633.80 0.4629
633.90 0.4626
634.00 0.4624
634.10 0.4621
634.20 0.4618
634.30 0.4615
634.40 0.4612
634.50 0.4609
634.60 0.4606
634.70 0.4603
634.80 0.46
634.90 0.4597
635.00 0.4594
635.10 0.4591
635.20 0.4588
635.30 0.4586
635.40 0.4583
635.50 0.458
635.60 0.4577
635.70 0.4574
635.80 0.4571
635.90 0.4568
636.00 0.4565
636.10 0.4562
636.20 0.4559
636.30 0.4556
636.40 0.4553
636.50 0.455
636.60 0.4546
636.70 0.4543
636.80 0.454
636.90 0.4537
637.00 0.4534
637.10 0.4531
637.20 0.4528
637.30 0.4525
637.40 0.4522
637.50 0.4519
637.60 0.4516
637.70 0.4512
637.80 0.4509
637.90 0.4506
638.00 0.4503
638.10 0.45
638.20 0.4497
638.30 0.4493
638.40 0.449
638.50 0.4487
638.60 0.4484
638.70 0.448
638.80 0.4477
638.90 0.4474
639.00 0.4471
639.10 0.4467
639.20 0.4464
639.30 0.4461
639.40 0.4457
639.50 0.4454
639.60 0.4451
639.70 0.4447
639.80 0.4444
639.90 0.444
640.00 0.4437
640.10 0.4434
640.20 0.443
640.30 0.4427
640.40 0.4423
640.50 0.4419
640.60 0.4416
640.70 0.4412
640.80 0.4409
640.90 0.4405
641.00 0.4401
641.10 0.4398
641.20 0.4394
641.30 0.4391
641.40 0.4387
641.50 0.4383
641.60 0.4379
641.70 0.4375
641.80 0.4372
641.90 0.4368
642.00 0.4364
642.10 0.436
642.20 0.4356
642.30 0.4352
642.40 0.4348
642.50 0.4344
642.60 0.434
642.70 0.4336
642.80 0.4332
642.90 0.4328
643.00 0.4324
643.10 0.4319
643.20 0.4315
643.30 0.4311
643.40 0.4307
643.50 0.4302
643.60 0.4298
643.70 0.4293
643.80 0.4289
643.90 0.4284
644.00 0.428
644.10 0.4275
644.20 0.4271
644.30 0.4266
644.40 0.4261
644.50 0.4256
644.60 0.4251
644.70 0.4246
644.80 0.4241
644.90 0.4236
645.00 0.4231
645.10 0.4226
645.20 0.4221
645.30 0.4216
645.40 0.421
645.50 0.4204
645.60 0.4199
645.70 0.4193
645.80 0.4188
645.90 0.4182
646.00 0.4176
646.10 0.4171
646.20 0.4165
646.30 0.4159
646.40 0.4153
646.50 0.4146
646.60 0.414
646.70 0.4133
646.80 0.4127
646.90 0.412
647.00 0.4114
647.10 0.4108
647.20 0.4101
647.30 0.4094
647.40 0.4087
647.50 0.4079
647.60 0.4072
647.70 0.4064
647.80 0.4057
647.90 0.4049
648.00 0.4041
648.10 0.4034
648.20 0.4026
648.30 0.4019
648.40 0.4009
648.50 0.4
648.60 0.3991
648.70 0.3982
648.80 0.3973
648.90 0.3964
649.00 0.3955
649.10 0.3946
649.20 0.3937
649.30 0.3928
649.40 0.3917
649.50 0.3906
649.60 0.3896
649.70 0.3885
649.80 0.3874
649.90 0.3863
650.00 0.3853
650.10 0.3842
650.20 0.3831
650.30 0.382
650.40 0.3807
650.50 0.3793
650.60 0.378
650.70 0.3767
650.80 0.3754
650.90 0.3741
651.00 0.3728
651.10 0.3715
651.20 0.3701
651.30 0.3688
651.40 0.3672
651.50 0.3656
651.60 0.3639
651.70 0.3623
651.80 0.3607
651.90 0.3591
652.00 0.3575
652.10 0.3559
652.20 0.3543
652.30 0.3526
652.40 0.3506
652.50 0.3487
652.60 0.3467
652.70 0.3447
652.80 0.3428
652.90 0.3408
653.00 0.3388
653.10 0.3369
653.20 0.3349
653.30 0.3328
653.40 0.3304
653.50 0.328
653.60 0.3256
653.70 0.3232
653.80 0.3208
653.90 0.3184
654.00 0.316
654.10 0.3136
654.20 0.3111
654.30 0.3087
654.40 0.3059
654.50 0.3031
654.60 0.3003
654.70 0.2975
654.80 0.2946
654.90 0.2914
655.00 0.2882
655.10 0.285
655.20 0.2818
655.30 0.2785
655.40 0.275
655.50 0.2713
655.60 0.2674
655.70 0.2632
655.80 0.2584
655.90 0.253
656.00 0.2455
656.10 0.2373
656.20 0.211
656.30 0.186
656.40 0.2265
656.50 0.2404
656.60 0.2478
656.70 0.2546
656.80 0.2592
656.90 0.2636
657.00 0.2674
657.10 0.271
657.20 0.2743
657.30 0.2775
657.40 0.2805
657.50 0.2834
657.60 0.2864
657.70 0.2893
657.80 0.2922
657.90 0.2947
658.00 0.2972
658.10 0.2997
658.20 0.3021
658.30 0.3046
658.40 0.3066
658.50 0.3087
658.60 0.3108
658.70 0.3129
658.80 0.315
658.90 0.317
659.00 0.3191
659.10 0.3212
659.20 0.3233
659.30 0.3253
659.40 0.3269
659.50 0.3285
659.60 0.3301
659.70 0.3317
659.80 0.3332
659.90 0.3348
660.00 0.3364
660.10 0.338
660.20 0.3396
660.30 0.3411
660.40 0.3423
660.50 0.3436
660.60 0.3448
660.70 0.346
660.80 0.3472
660.90 0.3484
661.00 0.3496
661.10 0.3508
661.20 0.352
661.30 0.3531
661.40 0.354
661.50 0.3549
661.60 0.3558
661.70 0.3567
661.80 0.3576
661.90 0.3584
662.00 0.3593
662.10 0.3602
662.20 0.3611
662.30 0.3619
662.40 0.3626
662.50 0.3632
662.60 0.3638
662.70 0.3645
662.80 0.3651
662.90 0.3658
663.00 0.3664
663.10 0.367
663.20 0.3677
663.30 0.3683
663.40 0.3687
663.50 0.3692
663.60 0.3696
663.70 0.3701
663.80 0.3705
663.90 0.371
664.00 0.3714
664.10 0.3718
664.20 0.3723
664.30 0.3727
664.40 0.373
664.50 0.3733
664.60 0.3736
664.70 0.3739
664.80 0.3742
664.90 0.3745
665.00 0.3748
665.10 0.3751
665.20 0.3754
665.30 0.3757
665.40 0.3759
665.50 0.3761
665.60 0.3762
665.70 0.3764
665.80 0.3766
665.90 0.3768
666.00 0.377
666.10 0.3772
666.20 0.3774
666.30 0.3775
666.40 0.3776
666.50 0.3778
666.60 0.3779
666.70 0.378
666.80 0.3781
666.90 0.3782
667.00 0.3783
667.10 0.3784
667.20 0.3785
667.30 0.3786
667.40 0.3786
667.50 0.3787
667.60 0.3787
667.70 0.3788
667.80 0.3788
667.90 0.3788
668.00 0.3789
668.10 0.3789
668.20 0.379
668.30 0.379
668.40 0.379
668.50 0.379
668.60 0.379
668.70 0.379
668.80 0.379
668.90 0.379
669.00 0.379
669.10 0.3789
669.20 0.3789
669.30 0.3789
669.40 0.3789
669.50 0.3788
669.60 0.3788
669.70 0.3788
669.80 0.3787
669.90 0.3787
670.00 0.3786
670.10 0.3786
670.20 0.3785
670.30 0.3785
670.40 0.3784
670.50 0.3783
670.60 0.3783
670.70 0.3782
670.80 0.3781
670.90 0.3781
671.00 0.378
671.10 0.3779
671.20 0.3779
671.30 0.3778
671.40 0.3777
671.50 0.3776
671.60 0.3775
671.70 0.3774
671.80 0.3773
671.90 0.3772
672.00 0.3771
672.10 0.377
672.20 0.3769
672.30 0.3768
672.40 0.3767
672.50 0.3766
672.60 0.3765
672.70 0.3764
672.80 0.3763
672.90 0.3762
673.00 0.3761
673.10 0.376
673.20 0.3759
673.30 0.3758
673.40 0.3756
673.50 0.3755
673.60 0.3754
673.70 0.3753
673.80 0.3751
673.90 0.375
674.00 0.3749
674.10 0.3748
674.20 0.3747
674.30 0.3745
674.40 0.3744
674.50 0.3743
674.60 0.3741
674.70 0.374
674.80 0.3739
674.90 0.3737
675.00 0.3736
675.10 0.3735
675.20 0.3733
675.30 0.3732
675.40 0.3731
675.50 0.3729
675.60 0.3728
675.70 0.3726
675.80 0.3725
675.90 0.3724
676.00 0.3722
676.10 0.3721
676.20 0.3719
676.30 0.3718
676.40 0.3716
676.50 0.3715
676.60 0.3714
676.70 0.3712
676.80 0.3711
676.90 0.3709
677.00 0.3708
677.10 0.3706
677.20 0.3705
677.30 0.3703
677.40 0.3702
677.50 0.37
677.60 0.3699
677.70 0.3697
677.80 0.3696
677.90 0.3694
678.00 0.3693
678.10 0.3691
678.20 0.369
678.30 0.3688
678.40 0.3686
678.50 0.3685
678.60 0.3683
678.70 0.3682
678.80 0.368
678.90 0.3679
679.00 0.3677
679.10 0.3676
679.20 0.3674
679.30 0.3672
679.40 0.3671
679.50 0.3669
679.60 0.3668
679.70 0.3666
679.80 0.3664
679.90 0.3663
680.00 0.3661
680.10 0.366
680.20 0.3658
680.30 0.3657
680.40 0.3655
680.50 0.3653
680.60 0.3652
680.70 0.365
680.80 0.3648
680.90 0.3647
681.00 0.3645
681.10 0.3644
681.20 0.3642
681.30 0.364
681.40 0.3639
681.50 0.3637
681.60 0.3636
681.70 0.3634
681.80 0.3632
681.90 0.3631
682.00 0.3629
682.10 0.3627
682.20 0.3626
682.30 0.3624
682.40 0.3622
682.50 0.3621
682.60 0.3619
682.70 0.3618
682.80 0.3616
682.90 0.3614
683.00 0.3613
683.10 0.3611
683.20 0.3609
683.30 0.3608
683.40 0.3606
683.50 0.3604
683.60 0.3603
683.70 0.3601
683.80 0.3599
683.90 0.3598
684.00 0.3596
684.10 0.3594
684.20 0.3593
684.30 0.3591
684.40 0.3589
684.50 0.3588
684.60 0.3586
684.70 0.3585
684.80 0.3583
684.90 0.3581
685.00 0.358
685.10 0.3578
685.20 0.3576
685.30 0.3575
685.40 0.3573
685.50 0.3571
685.60 0.357
685.70 0.3568
685.80 0.3566
685.90 0.3565
686.00 0.3563
686.10 0.3561
686.20 0.356
686.30 0.3558
686.40 0.3556
686.50 0.3555
686.60 0.3553
686.70 0.3551
686.80 0.355
686.90 0.3548
687.00 0.3546
687.10 0.3545
687.20 0.3543
687.30 0.3541
687.40 0.354
687.50 0.3538
687.60 0.3536
687.70 0.3535
687.80 0.3533
687.90 0.3531
688.00 0.353
688.10 0.3528
688.20 0.3526
688.30 0.3525
688.40 0.3523
688.50 0.3521
688.60 0.352
688.70 0.3518
688.80 0.3516
688.90 0.3515
689.00 0.3513
689.10 0.3511
689.20 0.351
689.30 0.3508
689.40 0.3506
689.50 0.3505
689.60 0.3503
689.70 0.3501
689.80 0.35
689.90 0.3498
690.00 0.3496
690.10 0.3495
690.20 0.3493
690.30 0.3491
690.40 0.349
690.50 0.3488
690.60 0.3486
690.70 0.3485
690.80 0.3483
690.90 0.3481
691.00 0.348
691.10 0.3478
691.20 0.3476
691.30 0.3475
691.40 0.3473
691.50 0.3471
691.60 0.347
691.70 0.3468
691.80 0.3467
691.90 0.3465
692.00 0.3463
692.10 0.3462
692.20 0.346
692.30 0.3458
692.40 0.3457
692.50 0.3455
692.60 0.3453
692.70 0.3452
692.80 0.345
692.90 0.3448
693.00 0.3447
693.10 0.3445
693.20 0.3443
693.30 0.3442
693.40 0.344
693.50 0.3438
693.60 0.3437
693.70 0.3435
693.80 0.3434
693.90 0.3432
694.00 0.343
694.10 0.3429
694.20 0.3427
694.30 0.3425
694.40 0.3424
694.50 0.3422
694.60 0.342
694.70 0.3419
694.80 0.3417
694.90 0.3416
695.00 0.3414
695.10 0.3412
695.20 0.3411
695.30 0.3409
695.40 0.3407
695.50 0.3406
695.60 0.3404
695.70 0.3403
695.80 0.3401
695.90 0.3399
696.00 0.3398
696.10 0.3396
696.20 0.3394
696.30 0.3393
696.40 0.3391
696.50 0.339
696.60 0.3388
696.70 0.3386
696.80 0.3385
696.90 0.3383
697.00 0.3382
697.10 0.338
697.20 0.3378
697.30 0.3377
697.40 0.3375
697.50 0.3373
697.60 0.3372
697.70 0.337
697.80 0.3369
697.90 0.3367
698.00 0.3365
698.10 0.3364
698.20 0.3362
698.30 0.3361
698.40 0.3359
698.50 0.3357
698.60 0.3356
698.70 0.3354
698.80 0.3353
698.90 0.3351
699.00 0.3349
699.10 0.3348
699.20 0.3346
699.30 0.3345
699.40 0.3343
699.50 0.3341
699.60 0.334
699.70 0.3338
699.80 0.3337
699.90 0.3335
700.00 0.3333
700.10 0.3332
700.20 0.333
700.30 0.3329
700.40 0.3327
700.50 0.3326
700.60 0.3325
700.70 0.3323
700.80 0.3322
700.90 0.332
701.00 0.3319
701.10 0.3317
701.20 0.3316
701.30 0.3314
701.40 0.3313
701.50 0.3311
701.60 0.331
701.70 0.3308
701.80 0.3307
701.90 0.3305
702.00 0.3304
702.10 0.3302
702.20 0.3301
702.30 0.3299
702.40 0.3298
702.50 0.3296
702.60 0.3295
702.70 0.3293
702.80 0.3292
702.90 0.329
703.00 0.3289
703.10 0.3287
703.20 0.3286
703.30 0.3285
703.40 0.3283
703.50 0.3282
703.60 0.328
703.70 0.3279
703.80 0.3277
703.90 0.3276
704.00 0.3274
704.10 0.3273
704.20 0.3271
704.30 0.327
704.40 0.3268
704.50 0.3267
704.60 0.3265
704.70 0.3264
704.80 0.3263
704.90 0.3261
705.00 0.326
705.10 0.3258
705.20 0.3257
705.30 0.3255
705.40 0.3253
705.50 0.3252
705.60 0.325
705.70 0.3249
705.80 0.3247
705.90 0.3246
706.00 0.3244
706.10 0.3243
706.20 0.3241
706.30 0.3239
706.40 0.3238
706.50 0.3236
706.60 0.3235
706.70 0.3233
706.80 0.3232
706.90 0.323
707.00 0.3229
707.10 0.3227
707.20 0.3225
707.30 0.3224
707.40 0.3222
707.50 0.3221
707.60 0.3219
707.70 0.3218
707.80 0.3216
707.90 0.3215
708.00 0.3213
708.10 0.3212
708.20 0.321
708.30 0.3209
708.40 0.3207
708.50 0.3205
708.60 0.3204
708.70 0.3202
708.80 0.3201
708.90 0.3199
709.00 0.3198
709.10 0.3196
709.20 0.3195
709.30 0.3193
709.40 0.3192
709.50 0.319
709.60 0.3189
709.70 0.3187
709.80 0.3186
709.90 0.3184
710.00 0.3183
710.10 0.3181
710.20 0.3179
710.30 0.3178
710.40 0.3176
710.50 0.3175
710.60 0.3173
710.70 0.3172
710.80 0.317
710.90 0.3169
711.00 0.3167
711.10 0.3166
711.20 0.3164
711.30 0.3163
711.40 0.3161
711.50 0.316
711.60 0.3158
711.70 0.3157
711.80 0.3155
711.90 0.3154
712.00 0.3152
712.10 0.3151
712.20 0.3149
712.30 0.3148
712.40 0.3146
712.50 0.3145
712.60 0.3143
712.70 0.3142
712.80 0.314
712.90 0.3139
713.00 0.3137
713.10 0.3136
713.20 0.3134
713.30 0.3133
713.40 0.3131
713.50 0.313
713.60 0.3128
713.70 0.3127
713.80 0.3125
713.90 0.3124
714.00 0.3122
714.10 0.3121
714.20 0.3119
714.30 0.3118
714.40 0.3116
714.50 0.3115
714.60 0.3113
714.70 0.3112
714.80 0.311
714.90 0.3109
715.00 0.3107
715.10 0.3106
715.20 0.3105
715.30 0.3103
715.40 0.3102
715.50 0.31
715.60 0.3099
715.70 0.3097
715.80 0.3096
715.90 0.3094
716.00 0.3093
716.10 0.3092
716.20 0.309
716.30 0.3089
716.40 0.3087
716.50 0.3086
716.60 0.3084
716.70 0.3083
716.80 0.3081
716.90 0.308
717.00 0.3079
717.10 0.3077
717.20 0.3076
717.30 0.3074
717.40 0.3073
717.50 0.3071
717.60 0.307
717.70 0.3069
717.80 0.3067
717.90 0.3066
718.00 0.3064
718.10 0.3063
718.20 0.3061
718.30 0.306
718.40 0.3059
718.50 0.3057
718.60 0.3056
718.70 0.3054
718.80 0.3053
718.90 0.3051
719.00 0.305
719.10 0.3049
719.20 0.3047
719.30 0.3046
719.40 0.3044
719.50 0.3043
719.60 0.3041
719.70 0.304
719.80 0.3039
719.90 0.3037
720.00 0.3036
720.10 0.3034
720.20 0.3033
720.30 0.3031
720.40 0.303
720.50 0.3029
720.60 0.3027
720.70 0.3026
720.80 0.3024
720.90 0.3023
721.00 0.3021
721.10 0.302
721.20 0.3019
721.30 0.3017
721.40 0.3016
721.50 0.3014
721.60 0.3013
721.70 0.3011
721.80 0.301
721.90 0.3009
722.00 0.3007
722.10 0.3006
722.20 0.3004
722.30 0.3003
722.40 0.3001
722.50 0.3
722.60 0.2999
722.70 0.2997
722.80 0.2996
722.90 0.2994
723.00 0.2993
723.10 0.2991
723.20 0.299
723.30 0.2989
723.40 0.2987
723.50 0.2986
723.60 0.2984
723.70 0.2983
723.80 0.2982
723.90 0.298
724.00 0.2979
724.10 0.2977
724.20 0.2976
724.30 0.2975
724.40 0.2973
724.50 0.2972
724.60 0.297
724.70 0.2969
724.80 0.2967
724.90 0.2966
725.00 0.2965
725.10 0.2963
725.20 0.2962
725.30 0.296
725.40 0.2959
725.50 0.2958
725.60 0.2956
725.70 0.2955
725.80 0.2954
725.90 0.2952
726.00 0.2951
726.10 0.2949
726.20 0.2948
726.30 0.2947
726.40 0.2945
726.50 0.2944
726.60 0.2942
726.70 0.2941
726.80 0.294
726.90 0.2938
727.00 0.2937
727.10 0.2935
727.20 0.2934
727.30 0.2933
727.40 0.2931
727.50 0.293
727.60 0.2929
727.70 0.2927
727.80 0.2926
727.90 0.2924
728.00 0.2923
728.10 0.2922
728.20 0.292
728.30 0.2919
728.40 0.2918
728.50 0.2916
728.60 0.2915
728.70 0.2913
728.80 0.2912
728.90 0.2911
729.00 0.2909
729.10 0.2908
729.20 0.2907
729.30 0.2905
729.40 0.2904
729.50 0.2902
729.60 0.2901
729.70 0.29
729.80 0.2898
729.90 0.2897
730.00 0.2896
730.10 0.2894
730.20 0.2893
730.30 0.2892
730.40 0.289
730.50 0.2889
730.60 0.2888
730.70 0.2886
730.80 0.2885
730.90 0.2883
731.00 0.2882
731.10 0.2881
731.20 0.2879
731.30 0.2878
731.40 0.2877
731.50 0.2875
731.60 0.2874
731.70 0.2873
731.80 0.2871
731.90 0.287
732.00 0.2869
732.10 0.2867
732.20 0.2866
732.30 0.2865
732.40 0.2863
732.50 0.2862
732.60 0.2861
732.70 0.2859
732.80 0.2858
732.90 0.2857
733.00 0.2855
733.10 0.2854
733.20 0.2853
733.30 0.2851
733.40 0.285
733.50 0.2849
733.60 0.2847
733.70 0.2846
733.80 0.2845
733.90 0.2843
734.00 0.2842
734.10 0.2841
734.20 0.2839
734.30 0.2838
734.40 0.2837
734.50 0.2835
734.60 0.2834
734.70 0.2833
734.80 0.2831
734.90 0.283
735.00 0.2829
735.10 0.2827
735.20 0.2826
735.30 0.2825
735.40 0.2824
735.50 0.2822
735.60 0.2821
735.70 0.282
735.80 0.2818
735.90 0.2817
736.00 0.2816
736.10 0.2814
736.20 0.2813
736.30 0.2812
736.40 0.281
736.50 0.2809
736.60 0.2808
736.70 0.2806
736.80 0.2805
736.90 0.2804
737.00 0.2802
737.10 0.2801
737.20 0.28
737.30 0.2799
737.40 0.2797
737.50 0.2796
737.60 0.2795
737.70 0.2793
737.80 0.2792
737.90 0.2791
738.00 0.2789
738.10 0.2788
738.20 0.2787
738.30 0.2786
738.40 0.2784
738.50 0.2783
738.60 0.2782
738.70 0.278
738.80 0.2779
738.90 0.2778
739.00 0.2776
739.10 0.2775
739.20 0.2774
739.30 0.2773
739.40 0.2771
739.50 0.277
739.60 0.2769
739.70 0.2767
739.80 0.2766
739.90 0.2765
740.00 0.2763
740.10 0.2762
740.20 0.2761
740.30 0.276
740.40 0.2758
740.50 0.2757
740.60 0.2756
740.70 0.2755
740.80 0.2753
740.90 0.2752
741.00 0.2751
741.10 0.275
741.20 0.2748
741.30 0.2747
741.40 0.2746
741.50 0.2744
741.60 0.2743
741.70 0.2742
741.80 0.2741
741.90 0.2739
742.00 0.2738
742.10 0.2737
742.20 0.2736
742.30 0.2734
742.40 0.2733
742.50 0.2732
742.60 0.2731
742.70 0.2729
742.80 0.2728
742.90 0.2727
743.00 0.2726
743.10 0.2724
743.20 0.2723
743.30 0.2722
743.40 0.272
743.50 0.2719
743.60 0.2718
743.70 0.2717
743.80 0.2715
743.90 0.2714
744.00 0.2713
744.10 0.2712
744.20 0.271
744.30 0.2709
744.40 0.2708
744.50 0.2707
744.60 0.2705
744.70 0.2704
744.80 0.2703
744.90 0.2702
745.00 0.27
745.10 0.2699
745.20 0.2698
745.30 0.2697
745.40 0.2696
745.50 0.2694
745.60 0.2693
745.70 0.2692
745.80 0.2691
745.90 0.2689
746.00 0.2688
746.10 0.2687
746.20 0.2686
746.30 0.2684
746.40 0.2683
746.50 0.2682
746.60 0.2681
746.70 0.2679
746.80 0.2678
746.90 0.2677
747.00 0.2676
747.10 0.2674
747.20 0.2673
747.30 0.2672
747.40 0.2671
747.50 0.267
747.60 0.2668
747.70 0.2667
747.80 0.2666
747.90 0.2665
748.00 0.2663
748.10 0.2662
748.20 0.2661
748.30 0.266
748.40 0.2658
748.50 0.2657
748.60 0.2656
748.70 0.2655
748.80 0.2654
748.90 0.2652
749.00 0.2651
749.10 0.265
749.20 0.2649
749.30 0.2647
749.40 0.2646
749.50 0.2645
749.60 0.2644
749.70 0.2643
749.80 0.2641
749.90 0.264
750.00 0.2639
750.10 0.2638
750.20 0.2637
750.30 0.2635
750.40 0.2634
750.50 0.2633
750.60 0.2632
750.70 0.2631
750.80 0.2629
750.90 0.2628
751.00 0.2627
751.10 0.2626
751.20 0.2625
751.30 0.2623
751.40 0.2622
751.50 0.2621
751.60 0.262
751.70 0.2619
751.80 0.2617
751.90 0.2616
752.00 0.2615
752.10 0.2614
752.20 0.2613
752.30 0.2611
752.40 0.261
752.50 0.2609
752.60 0.2608
752.70 0.2607
752.80 0.2605
752.90 0.2604
753.00 0.2603
753.10 0.2602
753.20 0.2601
753.30 0.26
753.40 0.2598
753.50 0.2597
753.60 0.2596
753.70 0.2595
753.80 0.2594
753.90 0.2592
754.00 0.2591
754.10 0.259
754.20 0.2589
754.30 0.2588
754.40 0.2586
754.50 0.2585
754.60 0.2584
754.70 0.2583
754.80 0.2582
754.90 0.2581
755.00 0.2579
755.10 0.2578
755.20 0.2577
755.30 0.2576
755.40 0.2575
755.50 0.2574
755.60 0.2572
755.70 0.2571
755.80 0.257
755.90 0.2569
756.00 0.2568
756.10 0.2567
756.20 0.2565
756.30 0.2564
756.40 0.2563
756.50 0.2562
756.60 0.2561
756.70 0.256
756.80 0.2558
756.90 0.2557
757.00 0.2556
757.10 0.2555
757.20 0.2554
757.30 0.2553
757.40 0.2551
757.50 0.255
757.60 0.2549
757.70 0.2548
757.80 0.2547
757.90 0.2546
758.00 0.2544
758.10 0.2543
758.20 0.2542
758.30 0.2541
758.40 0.254
758.50 0.2539
758.60 0.2537
758.70 0.2536
758.80 0.2535
758.90 0.2534
759.00 0.2533
759.10 0.2532
759.20 0.253
759.30 0.2529
759.40 0.2528
759.50 0.2527
759.60 0.2526
759.70 0.2525
759.80 0.2524
759.90 0.2522
760.00 0.2521
760.10 0.252
760.20 0.2519
760.30 0.2518
760.40 0.2517
760.50 0.2516
760.60 0.2514
760.70 0.2513
760.80 0.2512
760.90 0.2511
761.00 0.251
761.10 0.2509
761.20 0.2508
761.30 0.2507
761.40 0.2505
761.50 0.2504
761.60 0.2503
761.70 0.2502
761.80 0.2501
761.90 0.25
762.00 0.2499
762.10 0.2498
762.20 0.2496
762.30 0.2495
762.40 0.2494
762.50 0.2493
762.60 0.2492
762.70 0.2491
762.80 0.249
762.90 0.2489
763.00 0.2487
763.10 0.2486
763.20 0.2485
763.30 0.2484
763.40 0.2483
763.50 0.2482
763.60 0.2481
763.70 0.248
763.80 0.2478
763.90 0.2477
764.00 0.2476
764.10 0.2475
764.20 0.2474
764.30 0.2473
764.40 0.2472
764.50 0.2471
764.60 0.247
764.70 0.2468
764.80 0.2467
764.90 0.2466
765.00 0.2465
765.10 0.2464
765.20 0.2463
765.30 0.2462
765.40 0.2461
765.50 0.246
765.60 0.2458
765.70 0.2457
765.80 0.2456
765.90 0.2455
766.00 0.2454
766.10 0.2453
766.20 0.2452
766.30 0.2451
766.40 0.245
766.50 0.2448
766.60 0.2447
766.70 0.2446
766.80 0.2445
766.90 0.2444
767.00 0.2443
767.10 0.2442
767.20 0.2441
767.30 0.244
767.40 0.2439
767.50 0.2437
767.60 0.2436
767.70 0.2435
767.80 0.2434
767.90 0.2433
768.00 0.2432
768.10 0.2431
768.20 0.243
768.30 0.2429
768.40 0.2428
768.50 0.2427
768.60 0.2425
768.70 0.2424
768.80 0.2423
768.90 0.2422
769.00 0.2421
769.10 0.242
769.20 0.2419
769.30 0.2418
769.40 0.2417
769.50 0.2416
769.60 0.2415
769.70 0.2413
769.80 0.2412
769.90 0.2411
770.00 0.241
770.10 0.2409
770.20 0.2408
770.30 0.2407
770.40 0.2406
770.50 0.2405
770.60 0.2404
770.70 0.2403
770.80 0.2402
770.90 0.2401
771.00 0.2399
771.10 0.2398
771.20 0.2397
771.30 0.2396
771.40 0.2395
771.50 0.2394
771.60 0.2393
771.70 0.2392
771.80 0.2391
771.90 0.239
772.00 0.2389
772.10 0.2388
772.20 0.2387
772.30 0.2386
772.40 0.2385
772.50 0.2383
772.60 0.2382
772.70 0.2381
772.80 0.238
772.90 0.2379
773.00 0.2378
773.10 0.2377
773.20 0.2376
773.30 0.2375
773.40 0.2374
773.50 0.2373
773.60 0.2372
773.70 0.2371
773.80 0.237
773.90 0.2369
774.00 0.2368
774.10 0.2367
774.20 0.2366
774.30 0.2364
774.40 0.2363
774.50 0.2362
774.60 0.2361
774.70 0.236
774.80 0.2359
774.90 0.2358
775.00 0.2357
775.10 0.2356
775.20 0.2355
775.30 0.2354
775.40 0.2353
775.50 0.2352
775.60 0.2351
775.70 0.235
775.80 0.2349
775.90 0.2348
776.00 0.2347
776.10 0.2346
776.20 0.2345
776.30 0.2343
776.40 0.2342
776.50 0.2341
776.60 0.234
776.70 0.2339
776.80 0.2338
776.90 0.2337
777.00 0.2336
777.10 0.2335
777.20 0.2334
777.30 0.2333
777.40 0.2332
777.50 0.2331
777.60 0.233
777.70 0.2329
777.80 0.2328
777.90 0.2327
778.00 0.2326
778.10 0.2325
778.20 0.2324
778.30 0.2323
778.40 0.2322
778.50 0.2321
778.60 0.232
778.70 0.2319
778.80 0.2318
778.90 0.2317
779.00 0.2315
779.10 0.2314
779.20 0.2313
779.30 0.2312
779.40 0.2311
779.50 0.231
779.60 0.2309
779.70 0.2308
779.80 0.2307
779.90 0.2306
780.00 0.2305
780.10 0.2304
780.20 0.2303
780.30 0.2302
780.40 0.2301
780.50 0.23
780.60 0.2299
780.70 0.2298
780.80 0.2297
780.90 0.2296
781.00 0.2295
781.10 0.2294
781.20 0.2293
781.30 0.2292
781.40 0.2291
781.50 0.229
781.60 0.2289
781.70 0.2288
781.80 0.2287
781.90 0.2286
782.00 0.2285
782.10 0.2284
782.20 0.2283
782.30 0.2282
782.40 0.2281
782.50 0.228
782.60 0.2279
782.70 0.2278
782.80 0.2277
782.90 0.2276
783.00 0.2275
783.10 0.2274
783.20 0.2273
783.30 0.2272
783.40 0.2271
783.50 0.227
783.60 0.2269
783.70 0.2268
783.80 0.2267
783.90 0.2266
784.00 0.2265
784.10 0.2264
784.20 0.2263
784.30 0.2262
784.40 0.2261
784.50 0.226
784.60 0.2259
784.70 0.2258
784.80 0.2257
784.90 0.2256
785.00 0.2255
785.10 0.2254
785.20 0.2253
785.30 0.2252
785.40 0.2251
785.50 0.225
785.60 0.2249
785.70 0.2248
785.80 0.2247
785.90 0.2246
786.00 0.2245
786.10 0.2244
786.20 0.2243
786.30 0.2242
786.40 0.2241
786.50 0.224
786.60 0.2239
786.70 0.2238
786.80 0.2237
786.90 0.2236
787.00 0.2235
787.10 0.2234
787.20 0.2233
787.30 0.2232
787.40 0.2231
787.50 0.223
787.60 0.2229
787.70 0.2228
787.80 0.2227
787.90 0.2226
788.00 0.2225
788.10 0.2224
788.20 0.2223
788.30 0.2222
788.40 0.2221
788.50 0.222
788.60 0.222
788.70 0.2219
788.80 0.2218
788.90 0.2217
789.00 0.2216
789.10 0.2215
789.20 0.2214
789.30 0.2213
789.40 0.2212
789.50 0.2211
789.60 0.221
789.70 0.2209
789.80 0.2208
789.90 0.2207
790.00 0.2206
790.10 0.2205
790.20 0.2204
790.30 0.2203
790.40 0.2202
790.50 0.2201
790.60 0.22
790.70 0.2199
790.80 0.2198
790.90 0.2197
791.00 0.2196
791.10 0.2195
791.20 0.2194
791.30 0.2193
791.40 0.2192
791.50 0.2191
791.60 0.2191
791.70 0.219
791.80 0.2189
791.90 0.2188
792.00 0.2187
792.10 0.2186
792.20 0.2185
792.30 0.2184
792.40 0.2183
792.50 0.2182
792.60 0.2181
792.70 0.218
792.80 0.2179
792.90 0.2178
793.00 0.2177
793.10 0.2176
793.20 0.2175
793.30 0.2174
793.40 0.2173
793.50 0.2172
793.60 0.2172
793.70 0.2171
793.80 0.217
793.90 0.2169
794.00 0.2168
794.10 0.2167
794.20 0.2166
794.30 0.2165
794.40 0.2164
794.50 0.2163
794.60 0.2162
794.70 0.2161
794.80 0.216
794.90 0.2159
795.00 0.2158
795.10 0.2157
795.20 0.2156
795.30 0.2156
795.40 0.2155
795.50 0.2154
795.60 0.2153
795.70 0.2152
795.80 0.2151
795.90 0.215
796.00 0.2149
796.10 0.2148
796.20 0.2147
796.30 0.2146
796.40 0.2145
796.50 0.2144
796.60 0.2143
796.70 0.2142
796.80 0.2142
796.90 0.2141
797.00 0.214
797.10 0.2139
797.20 0.2138
797.30 0.2137
797.40 0.2136
797.50 0.2135
797.60 0.2134
797.70 0.2133
797.80 0.2132
797.90 0.2131
798.00 0.213
798.10 0.2129
798.20 0.2128
798.30 0.2128
798.40 0.2127
798.50 0.2126
798.60 0.2125
798.70 0.2124
798.80 0.2123
798.90 0.2122
799.00 0.2121
799.10 0.212
799.20 0.2119
799.30 0.2118
799.40 0.2117
799.50 0.2116
799.60 0.2116
799.70 0.2115
799.80 0.2114
799.90 0.2113
800.00 0.2112
800.10 0.2111
800.20 0.211
800.30 0.2109
800.40 0.2108
800.50 0.2107
800.60 0.2106
800.70 0.2106
800.80 0.2105
800.90 0.2104
801.00 0.2103
801.10 0.2102
801.20 0.2101
801.30 0.21
801.40 0.2099
801.50 0.2098
801.60 0.2097
801.70 0.2096
801.80 0.2096
801.90 0.2095
802.00 0.2094
802.10 0.2093
802.20 0.2092
802.30 0.2091
802.40 0.209
802.50 0.2089
802.60 0.2088
802.70 0.2087
802.80 0.2087
802.90 0.2086
803.00 0.2085
803.10 0.2084
803.20 0.2083
803.30 0.2082
803.40 0.2081
803.50 0.208
803.60 0.2079
803.70 0.2078
803.80 0.2078
803.90 0.2077
804.00 0.2076
804.10 0.2075
804.20 0.2074
804.30 0.2073
804.40 0.2072
804.50 0.2071
804.60 0.207
804.70 0.207
804.80 0.2069
804.90 0.2068
805.00 0.2067
805.10 0.2066
805.20 0.2065
805.30 0.2064
805.40 0.2063
805.50 0.2062
805.60 0.2062
805.70 0.2061
805.80 0.206
805.90 0.2059
806.00 0.2058
806.10 0.2057
806.20 0.2056
806.30 0.2055
806.40 0.2054
806.50 0.2054
806.60 0.2053
806.70 0.2052
806.80 0.2051
806.90 0.205
807.00 0.2049
807.10 0.2048
807.20 0.2047
807.30 0.2047
807.40 0.2046
807.50 0.2045
807.60 0.2044
807.70 0.2043
807.80 0.2042
807.90 0.2041
808.00 0.204
808.10 0.2039
808.20 0.2039
808.30 0.2038
808.40 0.2037
808.50 0.2036
808.60 0.2035
808.70 0.2034
808.80 0.2033
808.90 0.2032
809.00 0.2032
809.10 0.2031
809.20 0.203
809.30 0.2029
809.40 0.2028
809.50 0.2027
809.60 0.2026
809.70 0.2025
809.80 0.2025
809.90 0.2024
810.00 0.2023
810.10 0.2022
810.20 0.2021
810.30 0.202
810.40 0.2019
810.50 0.2019
810.60 0.2018
810.70 0.2017
810.80 0.2016
810.90 0.2015
811.00 0.2014
811.10 0.2013
811.20 0.2013
811.30 0.2012
811.40 0.2011
811.50 0.201
811.60 0.2009
811.70 0.2008
811.80 0.2007
811.90 0.2007
812.00 0.2006
812.10 0.2005
812.20 0.2004
812.30 0.2003
812.40 0.2002
812.50 0.2001
812.60 0.2001
812.70 0.2
812.80 0.1999
812.90 0.1998
813.00 0.1997
813.10 0.1996
813.20 0.1996
813.30 0.1995
813.40 0.1994
813.50 0.1993
813.60 0.1992
813.70 0.1991
813.80 0.199
813.90 0.199
814.00 0.1989
814.10 0.1988
814.20 0.1987
814.30 0.1986
814.40 0.1985
814.50 0.1984
814.60 0.1984
814.70 0.1983
814.80 0.1982
814.90 0.1981
815.00 0.198
815.10 0.1979
815.20 0.1979
815.30 0.1978
815.40 0.1977
815.50 0.1976
815.60 0.1975
815.70 0.1974
815.80 0.1974
815.90 0.1973
816.00 0.1972
816.10 0.1971
816.20 0.197
816.30 0.1969
816.40 0.1969
816.50 0.1968
816.60 0.1967
816.70 0.1966
816.80 0.1965
816.90 0.1964
817.00 0.1963
817.10 0.1963
817.20 0.1962
817.30 0.1961
817.40 0.196
817.50 0.1959
817.60 0.1958
817.70 0.1958
817.80 0.1957
817.90 0.1956
818.00 0.1955
818.10 0.1954
818.20 0.1953
818.30 0.1953
818.40 0.1952
818.50 0.1951
818.60 0.195
818.70 0.1949
818.80 0.1948
818.90 0.1948
819.00 0.1947
819.10 0.1946
819.20 0.1945
819.30 0.1944
819.40 0.1944
819.50 0.1943
819.60 0.1942
819.70 0.1941
819.80 0.194
819.90 0.1939
820.00 0.1939
820.10 0.1938
820.20 0.1937
820.30 0.1936
820.40 0.1935
820.50 0.1934
820.60 0.1934
820.70 0.1933
820.80 0.1932
820.90 0.1931
821.00 0.193
821.10 0.193
821.20 0.1929
821.30 0.1928
821.40 0.1927
821.50 0.1926
821.60 0.1926
821.70 0.1925
821.80 0.1924
821.90 0.1923
822.00 0.1922
822.10 0.1921
822.20 0.1921
822.30 0.192
822.40 0.1919
822.50 0.1918
822.60 0.1917
822.70 0.1917
822.80 0.1916
822.90 0.1915
823.00 0.1914
823.10 0.1913
823.20 0.1913
823.30 0.1912
823.40 0.1911
823.50 0.191
823.60 0.1909
823.70 0.1909
823.80 0.1908
823.90 0.1907
824.00 0.1906
824.10 0.1905
824.20 0.1905
824.30 0.1904
824.40 0.1903
824.50 0.1902
824.60 0.1901
824.70 0.1901
824.80 0.19
824.90 0.1899
825.00 0.1898
825.10 0.1897
825.20 0.1897
825.30 0.1896
825.40 0.1895
825.50 0.1894
825.60 0.1893
825.70 0.1893
825.80 0.1892
825.90 0.1891
826.00 0.189
826.10 0.1889
826.20 0.1889
826.30 0.1888
826.40 0.1887
826.50 0.1886
826.60 0.1885
826.70 0.1885
826.80 0.1884
826.90 0.1883
827.00 0.1882
827.10 0.1881
827.20 0.1881
827.30 0.188
827.40 0.1879
827.50 0.1878
827.60 0.1877
827.70 0.1877
827.80 0.1876
827.90 0.1875
828.00 0.1874
828.10 0.1874
828.20 0.1873
828.30 0.1872
828.40 0.1871
828.50 0.187
828.60 0.187
828.70 0.1869
828.80 0.1868
828.90 0.1867
829.00 0.1866
829.10 0.1866
829.20 0.1865
829.30 0.1864
829.40 0.1863
829.50 0.1863
829.60 0.1862
829.70 0.1861
829.80 0.186
829.90 0.1859
830.00 0.1859
830.10 0.1858
830.20 0.1857
830.30 0.1856
830.40 0.1856
830.50 0.1855
830.60 0.1854
830.70 0.1853
830.80 0.1852
830.90 0.1852
831.00 0.1851
831.10 0.185
831.20 0.1849
831.30 0.1849
831.40 0.1848
831.50 0.1847
831.60 0.1846
831.70 0.1845
831.80 0.1845
831.90 0.1844
832.00 0.1843
832.10 0.1842
832.20 0.1842
832.30 0.1841
832.40 0.184
832.50 0.1839
832.60 0.1839
832.70 0.1838
832.80 0.1837
832.90 0.1836
833.00 0.1835
833.10 0.1835
833.20 0.1834
833.30 0.1833
833.40 0.1832
833.50 0.1832
833.60 0.1831
833.70 0.183
833.80 0.1829
833.90 0.1829
834.00 0.1828
834.10 0.1827
834.20 0.1826
834.30 0.1826
834.40 0.1825
834.50 0.1824
834.60 0.1823
834.70 0.1823
834.80 0.1822
834.90 0.1821
835.00 0.182
835.10 0.1819
835.20 0.1819
835.30 0.1818
835.40 0.1817
835.50 0.1816
835.60 0.1816
835.70 0.1815
835.80 0.1814
835.90 0.1813
836.00 0.1813
836.10 0.1812
836.20 0.1811
836.30 0.181
836.40 0.181
836.50 0.1809
836.60 0.1808
836.70 0.1807
836.80 0.1807
836.90 0.1806
837.00 0.1805
837.10 0.1804
837.20 0.1804
837.30 0.1803
837.40 0.1802
837.50 0.1801
837.60 0.1801
837.70 0.18
837.80 0.1799
837.90 0.1798
838.00 0.1798
838.10 0.1797
838.20 0.1796
838.30 0.1795
838.40 0.1795
838.50 0.1794
838.60 0.1793
838.70 0.1792
838.80 0.1792
838.90 0.1791
839.00 0.179
839.10 0.1789
839.20 0.1789
839.30 0.1788
839.40 0.1787
839.50 0.1786
839.60 0.1786
839.70 0.1785
839.80 0.1784
839.90 0.1784
840.00 0.1783
840.10 0.1782
840.20 0.1781
840.30 0.1781
840.40 0.178
840.50 0.1779
840.60 0.1778
840.70 0.1778
840.80 0.1777
840.90 0.1776
841.00 0.1775
841.10 0.1775
841.20 0.1774
841.30 0.1773
841.40 0.1772
841.50 0.1772
841.60 0.1771
841.70 0.177
841.80 0.177
841.90 0.1769
842.00 0.1768
842.10 0.1767
842.20 0.1767
842.30 0.1766
842.40 0.1765
842.50 0.1764
842.60 0.1764
842.70 0.1763
842.80 0.1762
842.90 0.1761
843.00 0.1761
843.10 0.176
843.20 0.1759
843.30 0.1759
843.40 0.1758
843.50 0.1757
843.60 0.1756
843.70 0.1756
843.80 0.1755
843.90 0.1754
844.00 0.1753
844.10 0.1753
844.20 0.1752
844.30 0.1751
844.40 0.1751
844.50 0.175
844.60 0.1749
844.70 0.1748
844.80 0.1748
844.90 0.1747
845.00 0.1746
845.10 0.1746
845.20 0.1745
845.30 0.1744
845.40 0.1743
845.50 0.1743
845.60 0.1742
845.70 0.1741
845.80 0.174
845.90 0.174
846.00 0.1739
846.10 0.1738
846.20 0.1738
846.30 0.1737
846.40 0.1736
846.50 0.1735
846.60 0.1735
846.70 0.1734
846.80 0.1733
846.90 0.1733
847.00 0.1732
847.10 0.1731
847.20 0.1731
847.30 0.173
847.40 0.1729
847.50 0.1729
847.60 0.1728
847.70 0.1728
847.80 0.1727
847.90 0.1726
848.00 0.1726
848.10 0.1725
848.20 0.1725
848.30 0.1724
848.40 0.1724
848.50 0.1723
848.60 0.1722
848.70 0.1722
848.80 0.1721
848.90 0.1721
849.00 0.172
849.10 0.1719
849.20 0.1719
849.30 0.1718
849.40 0.1718
849.50 0.1717
849.60 0.1716
849.70 0.1716
849.80 0.1715
849.90 0.1715
850.00 0.1714
850.10 0.1713
850.20 0.1713
850.30 0.1712
850.40 0.1712
850.50 0.1711
850.60 0.1711
850.70 0.171
850.80 0.1709
850.90 0.1709
851.00 0.1708
851.10 0.1708
851.20 0.1707
851.30 0.1706
851.40 0.1706
851.50 0.1705
851.60 0.1705
851.70 0.1704
851.80 0.1704
851.90 0.1703
852.00 0.1702
852.10 0.1702
852.20 0.1701
852.30 0.1701
852.40 0.17
852.50 0.1699
852.60 0.1699
852.70 0.1698
852.80 0.1698
852.90 0.1697
853.00 0.1696
853.10 0.1696
853.20 0.1695
853.30 0.1695
853.40 0.1694
853.50 0.1694
853.60 0.1693
853.70 0.1692
853.80 0.1692
853.90 0.1691
854.00 0.1691
854.10 0.169
854.20 0.1689
854.30 0.1689
854.40 0.1688
854.50 0.1688
854.60 0.1687
854.70 0.1686
854.80 0.1686
854.90 0.1685
855.00 0.1685
855.10 0.1684
855.20 0.1684
855.30 0.1683
855.40 0.1682
855.50 0.1682
855.60 0.1681
855.70 0.1681
855.80 0.168
855.90 0.1679
856.00 0.1679
856.10 0.1678
856.20 0.1678
856.30 0.1677
856.40 0.1677
856.50 0.1676
856.60 0.1675
856.70 0.1675
856.80 0.1674
856.90 0.1674
857.00 0.1673
857.10 0.1673
857.20 0.1672
857.30 0.1671
857.40 0.1671
857.50 0.167
857.60 0.167
857.70 0.1669
857.80 0.1669
857.90 0.1668
858.00 0.1668
858.10 0.1667
858.20 0.1667
858.30 0.1666
858.40 0.1666
858.50 0.1665
858.60 0.1665
858.70 0.1664
858.80 0.1664
858.90 0.1663
859.00 0.1662
859.10 0.1662
859.20 0.1661
859.30 0.1661
859.40 0.166
859.50 0.166
859.60 0.1659
859.70 0.1659
859.80 0.1658
859.90 0.1658
860.00 0.1657
860.10 0.1657
860.20 0.1656
860.30 0.1656
860.40 0.1655
860.50 0.1655
860.60 0.1654
860.70 0.1654
860.80 0.1653
860.90 0.1652
861.00 0.1652
861.10 0.1651
861.20 0.1651
861.30 0.165
861.40 0.165
861.50 0.1649
861.60 0.1649
861.70 0.1648
861.80 0.1648
861.90 0.1647
862.00 0.1647
862.10 0.1646
862.20 0.1646
862.30 0.1645
862.40 0.1644
862.50 0.1644
862.60 0.1643
862.70 0.1643
862.80 0.1642
862.90 0.1641
863.00 0.1641
863.10 0.164
863.20 0.164
863.30 0.1639
863.40 0.1638
863.50 0.1638
863.60 0.1637
863.70 0.1637
863.80 0.1636
863.90 0.1635
864.00 0.1635
864.10 0.1634
864.20 0.1634
864.30 0.1633
864.40 0.1633
864.50 0.1632
864.60 0.1631
864.70 0.1631
864.80 0.163
864.90 0.163
865.00 0.1629
865.10 0.1628
865.20 0.1628
865.30 0.1627
865.40 0.1627
865.50 0.1626
865.60 0.1625
865.70 0.1625
865.80 0.1624
865.90 0.1624
866.00 0.1623
866.10 0.1622
866.20 0.1622
866.30 0.1621
866.40 0.1621
866.50 0.162
866.60 0.162
866.70 0.1619
866.80 0.1618
866.90 0.1618
867.00 0.1617
867.10 0.1617
867.20 0.1617
867.30 0.1616
867.40 0.1616
867.50 0.1616
867.60 0.1615
867.70 0.1615
867.80 0.1615
867.90 0.1614
868.00 0.1614
868.10 0.1614
868.20 0.1613
868.30 0.1613
868.40 0.1613
868.50 0.1612
868.60 0.1612
868.70 0.1612
868.80 0.1611
868.90 0.1611
869.00 0.1611
869.10 0.161
869.20 0.161
869.30 0.161
869.40 0.1609
869.50 0.1609
869.60 0.1609
869.70 0.1608
869.80 0.1608
869.90 0.1608
870.00 0.1607
870.10 0.1607
870.20 0.1607
870.30 0.1606
870.40 0.1606
870.50 0.1606
870.60 0.1606
870.70 0.1605
870.80 0.1605
870.90 0.1605
871.00 0.1604
871.10 0.1604
871.20 0.1604
871.30 0.1603
871.40 0.1603
871.50 0.1603
871.60 0.1602
871.70 0.1602
871.80 0.1602
871.90 0.1601
872.00 0.1601
872.10 0.16
872.20 0.16
872.30 0.1599
872.40 0.1598
872.50 0.1598
872.60 0.1597
872.70 0.1597
872.80 0.1596
872.90 0.1595
873.00 0.1595
873.10 0.1594
873.20 0.1593
873.30 0.1593
873.40 0.1592
873.50 0.1592
873.60 0.1591
873.70 0.159
873.80 0.159
873.90 0.1589
874.00 0.1588
874.10 0.1588
874.20 0.1587
874.30 0.1587
874.40 0.1586
874.50 0.1585
874.60 0.1585
874.70 0.1584
874.80 0.1583
874.90 0.1583
875.00 0.1582
875.10 0.1582
875.20 0.1581
875.30 0.158
875.40 0.158
875.50 0.1579
875.60 0.1579
875.70 0.1578
875.80 0.1577
875.90 0.1577
876.00 0.1576
876.10 0.1575
876.20 0.1575
876.30 0.1574
876.40 0.1574
876.50 0.1573
876.60 0.1572
876.70 0.1572
876.80 0.1571
876.90 0.157
877.00 0.157
877.10 0.157
877.20 0.1569
877.30 0.1569
877.40 0.1569
877.50 0.1569
877.60 0.1568
877.70 0.1568
877.80 0.1568
877.90 0.1568
878.00 0.1567
878.10 0.1567
878.20 0.1567
878.30 0.1567
878.40 0.1566
878.50 0.1566
878.60 0.1566
878.70 0.1566
878.80 0.1565
878.90 0.1565
879.00 0.1565
879.10 0.1565
879.20 0.1564
879.30 0.1564
879.40 0.1564
879.50 0.1564
879.60 0.1564
879.70 0.1563
879.80 0.1563
879.90 0.1563
880.00 0.1563
880.10 0.1562
880.20 0.1562
880.30 0.1562
880.40 0.1562
880.50 0.1561
880.60 0.1561
880.70 0.1561
880.80 0.1561
880.90 0.156
881.00 0.156
881.10 0.156
881.20 0.156
881.30 0.1559
881.40 0.1559
881.50 0.1559
881.60 0.1559
881.70 0.1558
881.80 0.1558
881.90 0.1558
882.00 0.1558
882.10 0.1556
882.20 0.1555
882.30 0.1553
882.40 0.1551
882.50 0.155
882.60 0.1548
882.70 0.1547
882.80 0.1545
882.90 0.1543
883.00 0.1542
883.10 0.154
883.20 0.1539
883.30 0.1537
883.40 0.1535
883.50 0.1534
883.60 0.1532
883.70 0.1531
883.80 0.1529
883.90 0.1527
884.00 0.1526
884.10 0.1524
884.20 0.1523
884.30 0.1521
884.40 0.1519
884.50 0.1518
884.60 0.1516
884.70 0.1515
884.80 0.1513
884.90 0.1511
885.00 0.151
885.10 0.1508
885.20 0.1507
885.30 0.1505
885.40 0.1504
885.50 0.1502
885.60 0.15
885.70 0.1499
885.80 0.1497
885.90 0.1496
886.00 0.1494
886.10 0.1493
886.20 0.1491
886.30 0.1489
886.40 0.1488
886.50 0.1486
886.60 0.1485
886.70 0.1483
886.80 0.1482
886.90 0.148
887.00 0.1478
887.10 0.1479
887.20 0.148
887.30 0.148
887.40 0.1481
887.50 0.1482
887.60 0.1482
887.70 0.1483
887.80 0.1484
887.90 0.1485
888.00 0.1485
888.10 0.1486
888.20 0.1487
888.30 0.1487
888.40 0.1488
888.50 0.1489
888.60 0.1489
888.70 0.149
888.80 0.1491
888.90 0.1491
889.00 0.1492
889.10 0.1493
889.20 0.1493
889.30 0.1494
889.40 0.1495
889.50 0.1495
889.60 0.1496
889.70 0.1497
889.80 0.1498
889.90 0.1498
890.00 0.1499
890.10 0.15
890.20 0.15
890.30 0.1501
890.40 0.1502
890.50 0.1502
890.60 0.1503
890.70 0.1504
890.80 0.1504
890.90 0.1505
891.00 0.1506
891.10 0.1506
891.20 0.1507
891.30 0.1508
891.40 0.1508
891.50 0.1509
891.60 0.151
891.70 0.151
891.80 0.1511
891.90 0.1512
892.00 0.1512
892.10 0.1512
892.20 0.1511
892.30 0.151
892.40 0.151
892.50 0.1509
892.60 0.1508
892.70 0.1507
892.80 0.1507
892.90 0.1506
893.00 0.1505
893.10 0.1505
893.20 0.1504
893.30 0.1503
893.40 0.1503
893.50 0.1502
893.60 0.1501
893.70 0.15
893.80 0.15
893.90 0.1499
894.00 0.1498
894.10 0.1498
894.20 0.1497
894.30 0.1496
894.40 0.1496
894.50 0.1495
894.60 0.1494
894.70 0.1493
894.80 0.1493
894.90 0.1492
895.00 0.1491
895.10 0.1491
895.20 0.149
895.30 0.1489
895.40 0.1489
895.50 0.1488
895.60 0.1487
895.70 0.1487
895.80 0.1486
895.90 0.1485
896.00 0.1484
896.10 0.1484
896.20 0.1483
896.30 0.1482
896.40 0.1482
896.50 0.1481
896.60 0.148
896.70 0.148
896.80 0.1479
896.90 0.1478
897.00 0.1478
897.10 0.1475
897.20 0.1472
897.30 0.1469
897.40 0.1466
897.50 0.1464
897.60 0.1461
897.70 0.1458
897.80 0.1455
897.90 0.1452
898.00 0.145
898.10 0.1447
898.20 0.1444
898.30 0.1441
898.40 0.1438
898.50 0.1436
898.60 0.1433
898.70 0.143
898.80 0.1427
898.90 0.1425
899.00 0.1422
899.10 0.1419
899.20 0.1416
899.30 0.1413
899.40 0.1411
899.50 0.1408
899.60 0.1405
899.70 0.1402
899.80 0.14
899.90 0.1397
900.00 0.1394
900.10 0.1391
900.20 0.1388
900.30 0.1386
900.40 0.1383
900.50 0.138
900.60 0.1377
900.70 0.1375
900.80 0.1372
900.90 0.1369
901.00 0.1366
901.10 0.1364
901.20 0.1361
901.30 0.1358
901.40 0.1355
901.50 0.1353
901.60 0.135
901.70 0.1347
901.80 0.1344
901.90 0.1342
902.00 0.1339
902.10 0.134
902.20 0.1342
902.30 0.1344
902.40 0.1345
902.50 0.1347
902.60 0.1349
902.70 0.135
902.80 0.1352
902.90 0.1353
903.00 0.1355
903.10 0.1357
903.20 0.1358
903.30 0.136
903.40 0.1361
903.50 0.1363
903.60 0.1365
903.70 0.1366
903.80 0.1368
903.90 0.1369
904.00 0.1371
904.10 0.1372
904.20 0.1374
904.30 0.1376
904.40 0.1377
904.50 0.1379
904.60 0.138
904.70 0.1382
904.80 0.1384
904.90 0.1385
905.00 0.1387
905.10 0.1388
905.20 0.139
905.30 0.1392
905.40 0.1393
905.50 0.1395
905.60 0.1396
905.70 0.1398
905.80 0.1399
905.90 0.1401
906.00 0.1403
906.10 0.1404
906.20 0.1406
906.30 0.1407
906.40 0.1409
906.50 0.141
906.60 0.1412
906.70 0.1414
906.80 0.1415
906.90 0.1417
907.00 0.1418
907.10 0.1418
907.20 0.1419
907.30 0.1419
907.40 0.1419
907.50 0.1419
907.60 0.1419
907.70 0.1419
907.80 0.1419
907.90 0.1419
908.00 0.142
908.10 0.142
908.20 0.142
908.30 0.142
908.40 0.142
908.50 0.142
908.60 0.142
908.70 0.142
908.80 0.142
908.90 0.1421
909.00 0.1421
909.10 0.1421
909.20 0.1421
909.30 0.1421
909.40 0.1421
909.50 0.1421
909.60 0.1421
909.70 0.1422
909.80 0.1422
909.90 0.1422
910.00 0.1422
910.10 0.1422
910.20 0.1422
910.30 0.1422
910.40 0.1422
910.50 0.1422
910.60 0.1423
910.70 0.1423
910.80 0.1423
910.90 0.1423
911.00 0.1423
911.10 0.1423
911.20 0.1423
911.30 0.1423
911.40 0.1423
911.50 0.1424
911.60 0.1424
911.70 0.1424
911.80 0.1424
911.90 0.1424
912.00 0.1424
912.10 0.1423
912.20 0.1421
912.30 0.142
912.40 0.1419
912.50 0.1417
912.60 0.1416
912.70 0.1415
912.80 0.1413
912.90 0.1412
913.00 0.1411
913.10 0.1409
913.20 0.1408
913.30 0.1407
913.40 0.1405
913.50 0.1404
913.60 0.1403
913.70 0.1401
913.80 0.14
913.90 0.1399
914.00 0.1397
914.10 0.1396
914.20 0.1395
914.30 0.1393
914.40 0.1392
914.50 0.1391
914.60 0.1389
914.70 0.1388
914.80 0.1387
914.90 0.1385
915.00 0.1384
915.10 0.1383
915.20 0.1381
915.30 0.138
915.40 0.1379
915.50 0.1377
915.60 0.1376
915.70 0.1375
915.80 0.1373
915.90 0.1372
916.00 0.1371
916.10 0.1369
916.20 0.1368
916.30 0.1367
916.40 0.1366
916.50 0.1364
916.60 0.1363
916.70 0.1362
916.80 0.136
916.90 0.1359
917.00 0.1358
917.10 0.1354
917.20 0.135
917.30 0.1347
917.40 0.1343
917.50 0.1339
917.60 0.1336
917.70 0.1332
917.80 0.1328
917.90 0.1325
918.00 0.1321
918.10 0.1317
918.20 0.1314
918.30 0.131
918.40 0.1306
918.50 0.1303
918.60 0.1299
918.70 0.1295
918.80 0.1292
918.90 0.1288
919.00 0.1285
919.10 0.1281
919.20 0.1277
919.30 0.1274
919.40 0.127
919.50 0.1266
919.60 0.1263
919.70 0.1259
919.80 0.1256
919.90 0.1252
920.00 0.1248
920.10 0.1245
920.20 0.1241
920.30 0.1237
920.40 0.1234
920.50 0.123
920.60 0.1227
920.70 0.1223
920.80 0.1219
920.90 0.1216
921.00 0.1212
921.10 0.1209
921.20 0.1205
921.30 0.1201
921.40 0.1198
921.50 0.1194
921.60 0.1191
921.70 0.1187
921.80 0.1183
921.90 0.118
922.00 0.1176
922.10 0.1177
922.20 0.1177
922.30 0.1177
922.40 0.1178
922.50 0.1178
922.60 0.1179
922.70 0.1179
922.80 0.118
922.90 0.118
923.00 0.118
923.10 0.1181
923.20 0.1181
923.30 0.1182
923.40 0.1182
923.50 0.1182
923.60 0.1183
923.70 0.1183
923.80 0.1184
923.90 0.1184
924.00 0.1184
924.10 0.1185
924.20 0.1185
924.30 0.1186
924.40 0.1186
924.50 0.1187
924.60 0.1187
924.70 0.1187
924.80 0.1188
924.90 0.1188
925.00 0.1189
925.10 0.1189
925.20 0.1189
925.30 0.119
925.40 0.119
925.50 0.1191
925.60 0.1191
925.70 0.1191
925.80 0.1192
925.90 0.1192
926.00 0.1193
926.10 0.1193
926.20 0.1193
926.30 0.1194
926.40 0.1194
926.50 0.1195
926.60 0.1195
926.70 0.1196
926.80 0.1196
926.90 0.1196
927.00 0.1197
927.10 0.1198
927.20 0.12
927.30 0.1201
927.40 0.1203
927.50 0.1204
927.60 0.1206
927.70 0.1207
927.80 0.1209
927.90 0.121
928.00 0.1212
928.10 0.1213
928.20 0.1215
928.30 0.1216
928.40 0.1218
928.50 0.1219
928.60 0.1221
928.70 0.1222
928.80 0.1224
928.90 0.1225
929.00 0.1227
929.10 0.1228
929.20 0.123
929.30 0.1231
929.40 0.1233
929.50 0.1234
929.60 0.1236
929.70 0.1237
929.80 0.1239
929.90 0.124
930.00 0.1242
930.10 0.1243
930.20 0.1245
930.30 0.1246
930.40 0.1248
930.50 0.1249
930.60 0.1251
930.70 0.1252
930.80 0.1254
930.90 0.1255
931.00 0.1257
931.10 0.1258
931.20 0.126
931.30 0.1261
931.40 0.1263
931.50 0.1264
931.60 0.1266
931.70 0.1267
931.80 0.1268
931.90 0.127
932.00 0.1271
932.10 0.1272
932.20 0.1272
932.30 0.1273
932.40 0.1273
932.50 0.1274
932.60 0.1274
932.70 0.1275
932.80 0.1275
932.90 0.1276
933.00 0.1276
933.10 0.1277
933.20 0.1277
933.30 0.1278
933.40 0.1278
933.50 0.1279
933.60 0.1279
933.70 0.128
933.80 0.128
933.90 0.1281
934.00 0.1281
934.10 0.1282
934.20 0.1282
934.30 0.1283
934.40 0.1283
934.50 0.1283
934.60 0.1283
934.70 0.1283
934.80 0.1283
934.90 0.1283
935.00 0.1283
935.10 0.1283
935.20 0.1283
935.30 0.1283
935.40 0.1283
935.50 0.1283
935.60 0.1283
935.70 0.1283
935.80 0.1283
935.90 0.1283
936.00 0.1283
936.10 0.1283
936.20 0.1283
936.30 0.1283
936.40 0.1283
936.50 0.1283
936.60 0.1283
936.70 0.1283
936.80 0.1283
936.90 0.1283
937.00 0.1283
937.10 0.1282
937.20 0.1282
937.30 0.1281
937.40 0.1281
937.50 0.1281
937.60 0.128
937.70 0.128
937.80 0.128
937.90 0.1279
938.00 0.1279
938.10 0.1279
938.20 0.1278
938.30 0.1278
938.40 0.1277
938.50 0.1277
938.60 0.1276
938.70 0.1275
938.80 0.1275
938.90 0.1274
939.00 0.1273
939.10 0.1273
939.20 0.1272
939.30 0.1271
939.40 0.1271
939.50 0.127
939.60 0.1269
939.70 0.1269
939.80 0.1268
939.90 0.1267
940.00 0.1267
940.10 0.1266
940.20 0.1266
940.30 0.1265
940.40 0.1264
940.50 0.1263
940.60 0.1262
940.70 0.1261
940.80 0.126
940.90 0.1259
941.00 0.1258
941.10 0.1257
941.20 0.1256
941.30 0.1255
941.40 0.1254
941.50 0.1253
941.60 0.1252
941.70 0.1251
941.80 0.125
941.90 0.1249
942.00 0.1248
942.10 0.1247
942.20 0.1246
942.30 0.1244
942.40 0.1243
942.50 0.1241
942.60 0.124
942.70 0.1238
942.80 0.1237
942.90 0.1236
943.00 0.1234
943.10 0.1233
943.20 0.1231
943.30 0.123
943.40 0.1228
943.50 0.1227
943.60 0.1225
943.70 0.1224
943.80 0.1222
943.90 0.1221
944.00 0.1219
944.10 0.1218
944.20 0.1216
944.30 0.1215
944.40 0.1213
944.50 0.1211
944.60 0.1209
944.70 0.1207
944.80 0.1206
944.90 0.1204
945.00 0.1202
945.10 0.12
945.20 0.1198
945.30 0.1196
945.40 0.1194
945.50 0.1192
945.60 0.119
945.70 0.1187
945.80 0.1185
945.90 0.1183
946.00 0.1181
946.10 0.1178
946.20 0.1176
946.30 0.1174
946.40 0.1172
946.50 0.1169
946.60 0.1167
946.70 0.1165
946.80 0.1163
946.90 0.116
947.00 0.1158
947.10 0.1156
947.20 0.1153
947.30 0.1151
947.40 0.1148
947.50 0.1145
947.60 0.1142
947.70 0.1139
947.80 0.1136
947.90 0.1133
948.00 0.113
948.10 0.1128
948.20 0.1125
948.30 0.1122
948.40 0.1119
948.50 0.1116
948.60 0.1113
948.70 0.111
948.80 0.1107
948.90 0.1105
949.00 0.1102
949.10 0.1099
949.20 0.1096
949.30 0.1093
949.40 0.109
949.50 0.1086
949.60 0.1083
949.70 0.1079
949.80 0.1076
949.90 0.1073
950.00 0.1069
950.10 0.1066
950.20 0.1062
950.30 0.1059
950.40 0.1055
950.50 0.1052
950.60 0.1049
950.70 0.1045
950.80 0.1042
950.90 0.1038
951.00 0.1035
951.10 0.1032
951.20 0.1028
951.30 0.1025
951.40 0.1021
951.50 0.1018
951.60 0.1014
951.70 0.101
951.80 0.1007
951.90 0.1003
952.00 0.09993
952.10 0.09957
952.20 0.09922
952.30 0.09886
952.40 0.09851
952.50 0.09815
952.60 0.09779
952.70 0.09744
952.80 0.09709
952.90 0.09679
953.00 0.0965
953.10 0.09621
953.20 0.09592
953.30 0.09563
953.40 0.09534
953.50 0.09505
953.60 0.09497
953.70 0.09488
953.80 0.0948
953.90 0.09473
954.00 0.09523
954.10 0.09573
954.20 0.09677
954.30 0.0979
954.40 0.09659
954.50 0.09539
954.60 0.09486
954.70 0.09433
954.80 0.09436
954.90 0.09439
955.00 0.09442
955.10 0.09446
955.20 0.09468
955.30 0.09491
955.40 0.09514
955.50 0.09536
955.60 0.09559
955.70 0.09581
955.80 0.09604
955.90 0.09632
956.00 0.09661
956.10 0.09689
956.20 0.09717
956.30 0.09746
956.40 0.09774
956.50 0.09803
956.60 0.09831
956.70 0.09859
956.80 0.09887
956.90 0.09916
957.00 0.09944
957.10 0.09972
957.20 0.1
957.30 0.1003
957.40 0.1005
957.50 0.1008
957.60 0.101
957.70 0.1013
957.80 0.1015
957.90 0.1018
958.00 0.1021
958.10 0.1023
958.20 0.1026
958.30 0.1028
958.40 0.1031
958.50 0.1033
958.60 0.1036
958.70 0.1038
958.80 0.1041
958.90 0.1043
959.00 0.1046
959.10 0.1048
959.20 0.1051
959.30 0.1053
959.40 0.1055
959.50 0.1057
959.60 0.1059
959.70 0.1061
959.80 0.1063
959.90 0.1065
960.00 0.1066
960.10 0.1068
960.20 0.107
960.30 0.1072
960.40 0.1074
960.50 0.1076
960.60 0.1078
960.70 0.108
960.80 0.1082
960.90 0.1083
961.00 0.1085
961.10 0.1087
961.20 0.1089
961.30 0.1091
961.40 0.1092
961.50 0.1094
961.60 0.1095
961.70 0.1097
961.80 0.1098
961.90 0.11
962.00 0.1101
962.10 0.1103
962.20 0.1104
962.30 0.1105
962.40 0.1106
962.50 0.1108
962.60 0.1109
962.70 0.111
962.80 0.1111
962.90 0.1112
963.00 0.1114
963.10 0.1115
963.20 0.1116
963.30 0.1117
963.40 0.1118
963.50 0.1119
963.60 0.112
963.70 0.1121
963.80 0.1122
963.90 0.1123
964.00 0.1124
964.10 0.1125
964.20 0.1126
964.30 0.1127
964.40 0.1128
964.50 0.1128
964.60 0.1129
964.70 0.113
964.80 0.113
964.90 0.1131
965.00 0.1132
965.10 0.1132
965.20 0.1133
965.30 0.1134
965.40 0.1134
965.50 0.1135
965.60 0.1136
965.70 0.1136
965.80 0.1137
965.90 0.1138
966.00 0.1138
966.10 0.1139
966.20 0.114
966.30 0.114
966.40 0.1141
966.50 0.1141
966.60 0.1142
966.70 0.1142
966.80 0.1143
966.90 0.1143
967.00 0.1143
967.10 0.1144
967.20 0.1144
967.30 0.1144
967.40 0.1145
967.50 0.1145
967.60 0.1145
967.70 0.1146
967.80 0.1146
967.90 0.1146
968.00 0.1147
968.10 0.1147
968.20 0.1147
968.30 0.1148
968.40 0.1148
968.50 0.1148
968.60 0.1148
968.70 0.1148
968.80 0.1148
968.90 0.1148
969.00 0.1149
969.10 0.1149
969.20 0.1149
969.30 0.1149
969.40 0.1149
969.50 0.1149
969.60 0.1149
969.70 0.115
969.80 0.115
969.90 0.115
970.00 0.115
970.10 0.115
970.20 0.115
970.30 0.115
970.40 0.115
970.50 0.115
970.60 0.115
970.70 0.115
970.80 0.115
970.90 0.115
971.00 0.115
971.10 0.115
971.20 0.115
971.30 0.115
971.40 0.115
971.50 0.115
971.60 0.115
971.70 0.115
971.80 0.115
971.90 0.115
972.00 0.115
972.10 0.115
972.20 0.115
972.30 0.115
972.40 0.1149
972.50 0.1149
972.60 0.1149
972.70 0.1149
972.80 0.1149
972.90 0.1149
973.00 0.1148
973.10 0.1148
973.20 0.1148
973.30 0.1148
973.40 0.1148
973.50 0.1148
973.60 0.1148
973.70 0.1147
973.80 0.1147
973.90 0.1147
974.00 0.1147
974.10 0.1147
974.20 0.1147
974.30 0.1147
974.40 0.1146
974.50 0.1146
974.60 0.1146
974.70 0.1145
974.80 0.1145
974.90 0.1145
975.00 0.1145
975.10 0.1144
975.20 0.1144
975.30 0.1144
975.40 0.1143
975.50 0.1143
975.60 0.1143
975.70 0.1143
975.80 0.1142
975.90 0.1142
976.00 0.1142
976.10 0.1142
976.20 0.1141
976.30 0.1141
976.40 0.1141
976.50 0.114
976.60 0.114
976.70 0.114
976.80 0.114
976.90 0.1139
977.00 0.1139
977.10 0.1139
977.20 0.1138
977.30 0.1138
977.40 0.1137
977.50 0.1137
977.60 0.1136
977.70 0.1136
977.80 0.1136
977.90 0.1135
978.00 0.1135
978.10 0.1134
978.20 0.1134
978.30 0.1133
978.40 0.1133
978.50 0.1133
978.60 0.1132
978.70 0.1132
978.80 0.1131
978.90 0.1131
979.00 0.113
979.10 0.113
979.20 0.113
979.30 0.1129
979.40 0.1129
979.50 0.1128
979.60 0.1128
979.70 0.1127
979.80 0.1127
979.90 0.1127
980.00 0.1126
980.10 0.1126
980.20 0.1125
980.30 0.1125
980.40 0.1124
980.50 0.1124
980.60 0.1124
980.70 0.1123
980.80 0.1123
980.90 0.1122
981.00 0.1122
981.10 0.1122
981.20 0.1121
981.30 0.1121
981.40 0.112
981.50 0.112
981.60 0.1119
981.70 0.1119
981.80 0.1119
981.90 0.1118
982.00 0.1118
982.10 0.1117
982.20 0.1117
982.30 0.1116
982.40 0.1115
982.50 0.1115
982.60 0.1114
982.70 0.1114
982.80 0.1113
982.90 0.1112
983.00 0.1112
983.10 0.1111
983.20 0.1111
983.30 0.111
983.40 0.111
983.50 0.1109
983.60 0.1108
983.70 0.1108
983.80 0.1107
983.90 0.1107
984.00 0.1106
984.10 0.1105
984.20 0.1105
984.30 0.1104
984.40 0.1104
984.50 0.1103
984.60 0.1103
984.70 0.1102
984.80 0.1101
984.90 0.11
985.00 0.11
985.10 0.1099
985.20 0.1098
985.30 0.1098
985.40 0.1097
985.50 0.1096
985.60 0.1096
985.70 0.1095
985.80 0.1094
985.90 0.1093
986.00 0.1093
986.10 0.1092
986.20 0.1091
986.30 0.1091
986.40 0.109
986.50 0.1089
986.60 0.1088
986.70 0.1088
986.80 0.1087
986.90 0.1086
987.00 0.1086
987.10 0.1085
987.20 0.1084
987.30 0.1083
987.40 0.1082
987.50 0.1082
987.60 0.1081
987.70 0.108
987.80 0.1079
987.90 0.1078
988.00 0.1077
988.10 0.1077
988.20 0.1076
988.30 0.1075
988.40 0.1074
988.50 0.1073
988.60 0.1072
988.70 0.1072
988.80 0.1071
988.90 0.107
989.00 0.1069
989.10 0.1068
989.20 0.1067
989.30 0.1066
989.40 0.1065
989.50 0.1064
989.60 0.1063
989.70 0.1062
989.80 0.1061
989.90 0.106
990.00 0.1059
990.10 0.1058
990.20 0.1057
990.30 0.1056
990.40 0.1055
990.50 0.1054
990.60 0.1053
990.70 0.1052
990.80 0.1051
990.90 0.1049
991.00 0.1048
991.10 0.1047
991.20 0.1046
991.30 0.1045
991.40 0.1044
991.50 0.1043
991.60 0.1041
991.70 0.104
991.80 0.1039
991.90 0.1038
992.00 0.1037
992.10 0.1035
992.20 0.1034
992.30 0.1033
992.40 0.1032
992.50 0.103
992.60 0.1029
992.70 0.1028
992.80 0.1026
992.90 0.1025
993.00 0.1023
993.10 0.1022
993.20 0.1021
993.30 0.1019
993.40 0.1018
993.50 0.1016
993.60 0.1015
993.70 0.1013
993.80 0.1012
993.90 0.101
994.00 0.1009
994.10 0.1007
994.20 0.1006
994.30 0.1005
994.40 0.1003
994.50 0.1002
994.60 0.1
994.70 0.09986
994.80 0.09969
994.90 0.09952
995.00 0.09935
995.10 0.09918
995.20 0.09901
995.30 0.09884
995.40 0.09867
995.50 0.09851
995.60 0.09834
995.70 0.09815
995.80 0.09796
995.90 0.09777
996.00 0.09758
996.10 0.09739
996.20 0.0972
996.30 0.09701
996.40 0.09682
996.50 0.09663
996.60 0.09643
996.70 0.09624
996.80 0.09605
996.90 0.09586
997.00 0.09567
997.10 0.09546
997.20 0.09525
997.30 0.09504
997.40 0.09483
997.50 0.09461
997.60 0.0944
997.70 0.09417
997.80 0.09393
997.90 0.09368
998.00 0.09344
998.10 0.0932
998.20 0.09296
998.30 0.09272
998.40 0.09247
998.50 0.09223
998.60 0.09199
998.70 0.09175
998.80 0.09151
998.90 0.09127
999.00 0.09103
999.10 0.09078
999.20 0.09054
999.30 0.0903
999.40 0.09006
999.50 0.08982
999.60 0.08958
999.70 0.0893
999.80 0.08901
999.90 0.08872
1000.00 0.08843
1000.10 0.08813
1000.20 0.08784
1000.30 0.08755
1000.40 0.08726
1000.50 0.08697
1000.60 0.08668
1000.70 0.08639
1000.80 0.0861
1000.90 0.08581
1001.00 0.08552
1001.10 0.08523
1001.20 0.08494
1001.30 0.08465
1001.40 0.08436
1001.50 0.08407
1001.60 0.08378
1001.70 0.08346
1001.80 0.08314
1001.90 0.08282
1002.00 0.0825
1002.10 0.08217
1002.20 0.08183
1002.30 0.08149
1002.40 0.08116
1002.50 0.08082
1002.60 0.08048
1002.70 0.08015
1002.80 0.07981
1002.90 0.07948
1003.00 0.07914
1003.10 0.0788
1003.20 0.07846
1003.30 0.0781
1003.40 0.07775
1003.50 0.0774
1003.60 0.07705
1003.70 0.0767
1003.80 0.07635
1003.90 0.07601
1004.00 0.07568
1004.10 0.07534
1004.20 0.07501
1004.30 0.0748
1004.40 0.07463
1004.50 0.07474
1004.60 0.07564
1004.70 0.075
1004.80 0.07448
1004.90 0.07459
1005.00 0.07472
1005.10 0.07496
1005.20 0.07525
1005.30 0.07553
1005.40 0.07581
1005.50 0.07611
1005.60 0.07641
1005.70 0.07671
1005.80 0.07701
1005.90 0.07731
1006.00 0.07761
1006.10 0.07791
1006.20 0.07819
1006.30 0.07848
1006.40 0.07876
1006.50 0.07904
1006.60 0.07932
1006.70 0.07961
1006.80 0.07989
1006.90 0.08017
1007.00 0.08045
1007.10 0.08072
1007.20 0.08098
1007.30 0.08124
1007.40 0.0815
1007.50 0.08177
1007.60 0.08203
1007.70 0.08226
1007.80 0.08249
1007.90 0.08272
1008.00 0.08294
1008.10 0.08317
1008.20 0.08339
1008.30 0.08362
1008.40 0.08385
1008.50 0.08407
1008.60 0.0843
1008.70 0.08452
1008.80 0.08475
1008.90 0.08497
1009.00 0.0852
1009.10 0.08542
1009.20 0.08565
1009.30 0.08587
1009.40 0.0861
1009.50 0.08632
1009.60 0.08655
1009.70 0.08673
1009.80 0.0869
1009.90 0.08707
1010.00 0.08725
1010.10 0.08742
1010.20 0.08759
1010.30 0.08776
1010.40 0.08793
1010.50 0.0881
1010.60 0.08827
1010.70 0.08844
1010.80 0.08861
1010.90 0.08878
1011.00 0.08895
1011.10 0.08912
1011.20 0.08929
1011.30 0.08946
1011.40 0.08963
1011.50 0.0898
1011.60 0.08997
1011.70 0.09012
1011.80 0.09026
1011.90 0.0904
1012.00 0.09054
1012.10 0.09066
1012.20 0.09078
1012.30 0.0909
1012.40 0.09102
1012.50 0.09114
1012.60 0.09125
1012.70 0.09137
1012.80 0.09149
1012.90 0.09161
1013.00 0.09173
1013.10 0.09185
1013.20 0.09197
1013.30 0.09209
1013.40 0.09221
1013.50 0.09232
1013.60 0.09244
1013.70 0.09254
1013.80 0.09264
1013.90 0.09273
1014.00 0.09282
1014.10 0.09292
1014.20 0.09301
1014.30 0.0931
1014.40 0.0932
1014.50 0.09329
1014.60 0.09338
1014.70 0.09346
1014.80 0.09353
1014.90 0.0936
1015.00 0.09367
1015.10 0.09374
1015.20 0.09381
1015.30 0.09388
1015.40 0.09395
1015.50 0.09402
1015.60 0.09409
1015.70 0.09416
1015.80 0.09422
1015.90 0.09429
1016.00 0.09436
1016.10 0.09443
1016.20 0.0945
1016.30 0.09457
1016.40 0.09464
1016.50 0.09471
1016.60 0.09478
1016.70 0.09483
1016.80 0.09489
1016.90 0.09494
1017.00 0.09499
1017.10 0.09503
1017.20 0.09507
1017.30 0.09511
1017.40 0.09515
1017.50 0.09519
1017.60 0.09523
1017.70 0.09528
1017.80 0.09532
1017.90 0.09536
1018.00 0.0954
1018.10 0.09544
1018.20 0.09548
1018.30 0.09552
1018.40 0.09556
1018.50 0.0956
1018.60 0.09564
1018.70 0.09567
1018.80 0.09569
1018.90 0.09572
1019.00 0.09574
1019.10 0.09577
1019.20 0.09579
1019.30 0.09581
1019.40 0.09584
1019.50 0.09586
1019.60 0.09588
1019.70 0.09591
1019.80 0.09593
1019.90 0.09595
1020.00 0.09598
1020.10 0.096
1020.20 0.09603
1020.30 0.09605
1020.40 0.09607
1020.50 0.0961
1020.60 0.09612
1020.70 0.09613
1020.80 0.09614
1020.90 0.09615
1021.00 0.09616
1021.10 0.09617
1021.20 0.09618
1021.30 0.09619
1021.40 0.0962
1021.50 0.09621
1021.60 0.09622
1021.70 0.09623
1021.80 0.09624
1021.90 0.09625
1022.00 0.09626
1022.10 0.09626
1022.20 0.09626
1022.30 0.09626
1022.40 0.09626
1022.50 0.09626
1022.60 0.09626
1022.70 0.09626
1022.80 0.09626
1022.90 0.09626
1023.00 0.09626
1023.10 0.09626
1023.20 0.09625
1023.30 0.09625
1023.40 0.09625
1023.50 0.09625
1023.60 0.09625
1023.70 0.09625
1023.80 0.09625
1023.90 0.09625
1024.00 0.09625
1024.10 0.09625
1024.20 0.09625
1024.30 0.09625
1024.40 0.09625
1024.50 0.09625
1024.60 0.09625
1024.70 0.09624
1024.80 0.09623
1024.90 0.09622
1025.00 0.09621
1025.10 0.0962
1025.20 0.09619
1025.30 0.09617
1025.40 0.09616
1025.50 0.09615
1025.60 0.09614
1025.70 0.09613
1025.80 0.09612
1025.90 0.09611
1026.00 0.0961
1026.10 0.09609
1026.20 0.09608
1026.30 0.09607
1026.40 0.09605
1026.50 0.09604
1026.60 0.09603
1026.70 0.09602
1026.80 0.09601
1026.90 0.096
1027.00 0.09599
1027.10 0.09597
1027.20 0.09595
1027.30 0.09593
1027.40 0.09591
1027.50 0.09589
1027.60 0.09587
1027.70 0.09585
1027.80 0.09583
1027.90 0.09582
1028.00 0.0958
1028.10 0.09578
1028.20 0.09576
1028.30 0.09574
1028.40 0.09572
1028.50 0.0957
1028.60 0.09568
1028.70 0.09566
1028.80 0.09564
1028.90 0.09562
1029.00 0.0956
1029.10 0.09559
1029.20 0.09557
1029.30 0.09555
1029.40 0.09553
1029.50 0.09551
1029.60 0.09549
1029.70 0.09547
1029.80 0.09545
1029.90 0.09543
1030.00 0.09541
1030.10 0.09539
1030.20 0.09537
1030.30 0.09536
1030.40 0.09534
1030.50 0.09532
1030.60 0.0953
1030.70 0.09528
1030.80 0.09526
1030.90 0.09524
1031.00 0.09522
1031.10 0.0952
1031.20 0.09518
1031.30 0.09516
1031.40 0.09515
1031.50 0.09513
1031.60 0.09511
1031.70 0.09509
1031.80 0.09507
1031.90 0.09505
1032.00 0.09503
1032.10 0.09501
1032.20 0.09498
1032.30 0.09495
1032.40 0.09493
1032.50 0.0949
1032.60 0.09487
1032.70 0.09485
1032.80 0.09482
1032.90 0.09479
1033.00 0.09477
1033.10 0.09474
1033.20 0.09471
1033.30 0.09469
1033.40 0.09466
1033.50 0.09464
1033.60 0.09461
1033.70 0.09458
1033.80 0.09456
1033.90 0.09453
1034.00 0.0945
1034.10 0.09448
1034.20 0.09445
1034.30 0.09443
1034.40 0.0944
1034.50 0.09437
1034.60 0.09435
1034.70 0.09432
1034.80 0.09429
1034.90 0.09427
1035.00 0.09424
1035.10 0.09422
1035.20 0.09419
1035.30 0.09416
1035.40 0.09414
1035.50 0.09411
1035.60 0.09408
1035.70 0.09406
1035.80 0.09403
1035.90 0.09401
1036.00 0.09398
1036.10 0.09395
1036.20 0.09393
1036.30 0.0939
1036.40 0.09388
1036.50 0.09385
1036.60 0.09382
1036.70 0.0938
1036.80 0.09377
1036.90 0.09375
1037.00 0.09372
1037.10 0.09369
1037.20 0.09366
1037.30 0.09363
1037.40 0.0936
1037.50 0.09357
1037.60 0.09355
1037.70 0.09352
1037.80 0.09349
1037.90 0.09346
1038.00 0.09343
1038.10 0.0934
1038.20 0.09337
1038.30 0.09334
1038.40 0.09331
1038.50 0.09328
1038.60 0.09325
1038.70 0.09323
1038.80 0.0932
1038.90 0.09317
1039.00 0.09314
1039.10 0.09311
1039.20 0.09308
1039.30 0.09305
1039.40 0.09302
1039.50 0.09299
1039.60 0.09297
1039.70 0.09294
1039.80 0.09291
1039.90 0.09288
1040.00 0.09285
1040.10 0.09282
1040.20 0.09279
1040.30 0.09276
1040.40 0.09273
1040.50 0.09271
1040.60 0.09268
1040.70 0.09265
1040.80 0.09262
1040.90 0.09259
1041.00 0.09256
1041.10 0.09253
1041.20 0.0925
1041.30 0.09248
1041.40 0.09245
1041.50 0.09242
1041.60 0.09239
1041.70 0.09236
1041.80 0.09233
1041.90 0.0923
1042.00 0.09228
1042.10 0.09224
1042.20 0.09221
1042.30 0.09218
1042.40 0.09215
1042.50 0.09212
1042.60 0.09209
1042.70 0.09206
1042.80 0.09203
1042.90 0.092
1043.00 0.09197
1043.10 0.09194
1043.20 0.09191
1043.30 0.09188
1043.40 0.09185
1043.50 0.09182
1043.60 0.09179
1043.70 0.09176
1043.80 0.09172
1043.90 0.09169
1044.00 0.09166
1044.10 0.09163
1044.20 0.0916
1044.30 0.09157
1044.40 0.09154
1044.50 0.09151
1044.60 0.09148
1044.70 0.09145
1044.80 0.09142
1044.90 0.09139
1045.00 0.09136
1045.10 0.09133
1045.20 0.0913
1045.30 0.09127
1045.40 0.09124
1045.50 0.09121
1045.60 0.09118
1045.70 0.09115
1045.80 0.09112
1045.90 0.09109
1046.00 0.09106
1046.10 0.09103
1046.20 0.091
1046.30 0.09097
1046.40 0.09094
1046.50 0.09091
1046.60 0.09088
1046.70 0.09084
1046.80 0.09081
1046.90 0.09078
1047.00 0.09075
1047.10 0.09072
1047.20 0.09069
1047.30 0.09066
1047.40 0.09063
1047.50 0.0906
1047.60 0.09057
1047.70 0.09053
1047.80 0.0905
1047.90 0.09047
1048.00 0.09044
1048.10 0.09041
1048.20 0.09038
1048.30 0.09034
1048.40 0.09031
1048.50 0.09028
1048.60 0.09025
1048.70 0.09022
1048.80 0.09019
1048.90 0.09016
1049.00 0.09013
1049.10 0.09009
1049.20 0.09006
1049.30 0.09003
1049.40 0.09
1049.50 0.08997
1049.60 0.08994
1049.70 0.08991
1049.80 0.08987
1049.90 0.08984
1050.00 0.08981
1050.10 0.08978
1050.20 0.08975
1050.30 0.08972
1050.40 0.08969
1050.50 0.08966
1050.60 0.08962
1050.70 0.08959
1050.80 0.08956
1050.90 0.08953
1051.00 0.0895
1051.10 0.08947
1051.20 0.08944
1051.30 0.08941
1051.40 0.08938
1051.50 0.08934
1051.60 0.08931
1051.70 0.08928
1051.80 0.08925
1051.90 0.08922
1052.00 0.08919
1052.10 0.08916
1052.20 0.08912
1052.30 0.08909
1052.40 0.08906
1052.50 0.08903
1052.60 0.08899
1052.70 0.08896
1052.80 0.08893
1052.90 0.0889
1053.00 0.08887
1053.10 0.08883
1053.20 0.0888
1053.30 0.08877
1053.40 0.08874
1053.50 0.0887
1053.60 0.08867
1053.70 0.08864
1053.80 0.08861
1053.90 0.08858
1054.00 0.08854
1054.10 0.08851
1054.20 0.08848
1054.30 0.08845
1054.40 0.08841
1054.50 0.08838
1054.60 0.08835
1054.70 0.08832
1054.80 0.08829
1054.90 0.08825
1055.00 0.08822
1055.10 0.08819
1055.20 0.08816
1055.30 0.08813
1055.40 0.08809
1055.50 0.08806
1055.60 0.08803
1055.70 0.088
1055.80 0.08797
1055.90 0.08793
1056.00 0.0879
1056.10 0.08787
1056.20 0.08784
1056.30 0.08781
1056.40 0.08777
1056.50 0.08774
1056.60 0.08771
1056.70 0.08768
1056.80 0.08765
1056.90 0.08762
1057.00 0.08758
1057.10 0.08755
1057.20 0.08752
1057.30 0.08748
1057.40 0.08745
1057.50 0.08742
1057.60 0.08738
1057.70 0.08735
1057.80 0.08731
1057.90 0.08728
1058.00 0.08725
1058.10 0.08721
1058.20 0.08718
1058.30 0.08715
1058.40 0.08711
1058.50 0.08708
1058.60 0.08705
1058.70 0.08701
1058.80 0.08698
1058.90 0.08695
1059.00 0.08691
1059.10 0.08688
1059.20 0.08685
1059.30 0.08681
1059.40 0.08678
1059.50 0.08675
1059.60 0.08671
1059.70 0.08668
1059.80 0.08665
1059.90 0.08661
1060.00 0.08658
1060.10 0.08655
1060.20 0.08651
1060.30 0.08648
1060.40 0.08645
1060.50 0.08641
1060.60 0.08638
1060.70 0.08635
1060.80 0.08631
1060.90 0.08628
1061.00 0.08625
1061.10 0.08621
1061.20 0.08618
1061.30 0.08615
1061.40 0.08611
1061.50 0.08608
1061.60 0.08605
1061.70 0.08601
1061.80 0.08598
1061.90 0.08595
1062.00 0.08591
1062.10 0.08588
1062.20 0.08584
1062.30 0.08581
1062.40 0.08577
1062.50 0.08573
1062.60 0.0857
1062.70 0.08566
1062.80 0.08562
1062.90 0.08559
1063.00 0.08555
1063.10 0.08552
1063.20 0.08548
1063.30 0.08544
1063.40 0.08541
1063.50 0.08537
1063.60 0.08533
1063.70 0.0853
1063.80 0.08526
1063.90 0.08523
1064.00 0.08519
1064.10 0.08515
1064.20 0.08512
1064.30 0.08508
1064.40 0.08505
1064.50 0.08501
1064.60 0.08497
1064.70 0.08494
1064.80 0.0849
1064.90 0.08487
1065.00 0.08483
1065.10 0.08479
1065.20 0.08476
1065.30 0.08472
1065.40 0.08469
1065.50 0.08465
1065.60 0.08461
1065.70 0.08458
1065.80 0.08454
1065.90 0.08451
1066.00 0.08447
1066.10 0.08443
1066.20 0.0844
1066.30 0.08436
1066.40 0.08433
1066.50 0.08429
1066.60 0.08425
1066.70 0.08422
1066.80 0.08418
1066.90 0.08415
1067.00 0.08411
1067.10 0.08407
1067.20 0.08403
1067.30 0.08399
1067.40 0.08394
1067.50 0.0839
1067.60 0.08386
1067.70 0.08382
1067.80 0.08378
1067.90 0.08373
1068.00 0.08369
1068.10 0.08365
1068.20 0.08361
1068.30 0.08357
1068.40 0.08352
1068.50 0.08348
1068.60 0.08344
1068.70 0.0834
1068.80 0.08336
1068.90 0.08332
1069.00 0.08327
1069.10 0.08323
1069.20 0.08319
1069.30 0.08315
1069.40 0.08311
1069.50 0.08307
1069.60 0.08302
1069.70 0.08298
1069.80 0.08294
1069.90 0.0829
1070.00 0.08286
1070.10 0.08282
1070.20 0.08277
1070.30 0.08273
1070.40 0.08269
1070.50 0.08265
1070.60 0.08261
1070.70 0.08257
1070.80 0.08253
1070.90 0.08248
1071.00 0.08244
1071.10 0.0824
1071.20 0.08236
1071.30 0.08232
1071.40 0.08228
1071.50 0.08224
1071.60 0.08219
1071.70 0.08215
1071.80 0.08211
1071.90 0.08207
1072.00 0.08203
1072.10 0.08198
1072.20 0.08193
1072.30 0.08188
1072.40 0.08183
1072.50 0.08178
1072.60 0.08173
1072.70 0.08168
1072.80 0.08163
1072.90 0.08158
1073.00 0.08153
1073.10 0.08149
1073.20 0.08144
1073.30 0.08139
1073.40 0.08134
1073.50 0.08129
1073.60 0.08123
1073.70 0.08117
1073.80 0.08112
1073.90 0.08106
1074.00 0.081
1074.10 0.08095
1074.20 0.08089
1074.30 0.08084
1074.40 0.08078
1074.50 0.08072
1074.60 0.08067
1074.70 0.08061
1074.80 0.08056
1074.90 0.0805
1075.00 0.08044
1075.10 0.08039
1075.20 0.08033
1075.30 0.08028
1075.40 0.08022
1075.50 0.08016
1075.60 0.08011
1075.70 0.08005
1075.80 0.08
1075.90 0.07994
1076.00 0.07988
1076.10 0.07983
1076.20 0.07977
1076.30 0.07972
1076.40 0.07966
1076.50 0.07961
1076.60 0.07955
1076.70 0.07949
1076.80 0.07944
1076.90 0.07938
1077.00 0.07933
1077.10 0.07926
1077.20 0.0792
1077.30 0.07914
1077.40 0.07908
1077.50 0.07901
1077.60 0.07894
1077.70 0.07887
1077.80 0.0788
1077.90 0.07872
1078.00 0.07865
1078.10 0.07858
1078.20 0.07851
1078.30 0.07844
1078.40 0.07837
1078.50 0.0783
1078.60 0.07823
1078.70 0.07815
1078.80 0.07808
1078.90 0.07801
1079.00 0.07794
1079.10 0.07787
1079.20 0.0778
1079.30 0.07773
1079.40 0.07766
1079.50 0.07758
1079.60 0.0775
1079.70 0.07741
1079.80 0.07733
1079.90 0.07724
1080.00 0.07716
1080.10 0.07708
1080.20 0.07699
1080.30 0.07691
1080.40 0.07682
1080.50 0.07674
1080.60 0.07665
1080.70 0.07657
1080.80 0.07649
1080.90 0.0764
1081.00 0.07632
1081.10 0.07623
1081.20 0.07615
1081.30 0.07607
1081.40 0.07598
1081.50 0.07589
1081.60 0.0758
1081.70 0.07571
1081.80 0.07561
1081.90 0.07552
1082.00 0.07543
1082.10 0.07532
1082.20 0.07522
1082.30 0.07512
1082.40 0.07501
1082.50 0.07491
1082.60 0.0748
1082.70 0.0747
1082.80 0.07459
1082.90 0.07449
1083.00 0.07439
1083.10 0.07428
1083.20 0.07418
1083.30 0.07407
1083.40 0.07397
1083.50 0.07386
1083.60 0.07374
1083.70 0.07362
1083.80 0.07351
1083.90 0.07339
1084.00 0.07327
1084.10 0.07315
1084.20 0.07303
1084.30 0.07291
1084.40 0.0728
1084.50 0.07267
1084.60 0.07253
1084.70 0.0724
1084.80 0.07226
1084.90 0.07212
1085.00 0.07198
1085.10 0.07185
1085.20 0.07171
1085.30 0.07157
1085.40 0.07144
1085.50 0.0713
1085.60 0.07116
1085.70 0.07102
1085.80 0.07089
1085.90 0.07075
1086.00 0.07061
1086.10 0.07048
1086.20 0.07034
1086.30 0.0702
1086.40 0.07007
1086.50 0.06992
1086.60 0.06977
1086.70 0.06961
1086.80 0.06945
1086.90 0.0693
1087.00 0.06914
1087.10 0.06897
1087.20 0.06879
1087.30 0.06862
1087.40 0.06845
1087.50 0.06827
1087.60 0.0681
1087.70 0.06793
1087.80 0.06776
1087.90 0.06758
1088.00 0.06741
1088.10 0.06724
1088.20 0.06707
1088.30 0.06689
1088.40 0.06672
1088.50 0.06654
1088.60 0.06633
1088.70 0.06613
1088.80 0.06592
1088.90 0.06572
1089.00 0.06551
1089.10 0.06531
1089.20 0.0651
1089.30 0.06489
1089.40 0.06469
1089.50 0.06448
1089.60 0.06428
1089.70 0.06407
1089.80 0.06387
1089.90 0.06366
1090.00 0.06346
1090.10 0.06325
1090.20 0.06305
1090.30 0.06284
1090.40 0.06264
1090.50 0.06242
1090.60 0.06218
1090.70 0.06193
1090.80 0.06169
1090.90 0.06144
1091.00 0.06119
1091.10 0.06095
1091.20 0.0607
1091.30 0.06046
1091.40 0.06021
1091.50 0.05997
1091.60 0.05972
1091.70 0.05948
1091.80 0.05923
1091.90 0.05899
1092.00 0.05873
1092.10 0.05843
1092.20 0.05813
1092.30 0.05783
1092.40 0.05752
1092.50 0.05722
1092.60 0.05692
1092.70 0.05659
1092.80 0.05621
1092.90 0.05582
1093.00 0.05544
1093.10 0.05503
1093.20 0.05459
1093.30 0.05416
1093.40 0.05399
1093.50 0.05415
1093.60 0.054
1093.70 0.05435
1093.80 0.05477
1093.90 0.05516
1094.00 0.05551
1094.10 0.05586
1094.20 0.05621
1094.30 0.05653
1094.40 0.05679
1094.50 0.05706
1094.60 0.05732
1094.70 0.05759
1094.80 0.05785
1094.90 0.05812
1095.00 0.05836
1095.10 0.05857
1095.20 0.05877
1095.30 0.05898
1095.40 0.05918
1095.50 0.05939
1095.60 0.05959
1095.70 0.0598
1095.80 0.06
1095.90 0.06021
1096.00 0.06041
1096.10 0.06061
1096.20 0.06082
1096.30 0.06102
1096.40 0.06123
1096.50 0.06142
1096.60 0.0616
1096.70 0.06177
1096.80 0.06195
1096.90 0.06213
1097.00 0.0623
1097.10 0.06246
1097.20 0.06261
1097.30 0.06277
1097.40 0.06292
1097.50 0.06307
1097.60 0.06323
1097.70 0.06338
1097.80 0.06354
1097.90 0.06369
1098.00 0.06384
1098.10 0.064
1098.20 0.06415
1098.30 0.06431
1098.40 0.06446
1098.50 0.0646
1098.60 0.06472
1098.70 0.06484
1098.80 0.06496
1098.90 0.06508
1099.00 0.0652
1099.10 0.06532
1099.20 0.06544
1099.30 0.06556
1099.40 0.06568
1099.50 0.06579
1099.60 0.06591
1099.70 0.06603
1099.80 0.06615
1099.90 0.06627
1100.00 0.06639
1100.10 0.06651
1100.20 0.06663
1100.30 0.06675
1100.40 0.06686
1100.50 0.06697
1100.60 0.06706
1100.70 0.06715
1100.80 0.06724
1100.90 0.06733
1101.00 0.06742
1101.10 0.06751
1101.20 0.0676
1101.30 0.06769
1101.40 0.06778
1101.50 0.06787
1101.60 0.06796
1101.70 0.06805
1101.80 0.06813
1101.90 0.06822
1102.00 0.06831
1102.10 0.06838
1102.20 0.06846
1102.30 0.06853
1102.40 0.0686
1102.50 0.06867
1102.60 0.06874
1102.70 0.0688
1102.80 0.06887
1102.90 0.06893
1103.00 0.069
1103.10 0.06906
1103.20 0.06913
1103.30 0.06919
1103.40 0.06926
1103.50 0.06932
1103.60 0.06937
1103.70 0.06941
1103.80 0.06946
1103.90 0.06951
1104.00 0.06956
1104.10 0.0696
1104.20 0.06965
1104.30 0.0697
1104.40 0.06975
1104.50 0.06979
1104.60 0.06984
1104.70 0.06989
1104.80 0.06994
1104.90 0.06998
1105.00 0.07003
1105.10 0.07008
1105.20 0.07013
1105.30 0.07017
1105.40 0.07022
1105.50 0.07026
1105.60 0.0703
1105.70 0.07033
1105.80 0.07036
1105.90 0.07039
1106.00 0.07042
1106.10 0.07046
1106.20 0.07049
1106.30 0.07052
1106.40 0.07055
1106.50 0.07058
1106.60 0.07062
1106.70 0.07065
1106.80 0.07068
1106.90 0.07071
1107.00 0.07074
1107.10 0.07077
1107.20 0.07079
1107.30 0.07081
1107.40 0.07084
1107.50 0.07086
1107.60 0.07087
1107.70 0.07089
1107.80 0.07091
1107.90 0.07092
1108.00 0.07094
1108.10 0.07096
1108.20 0.07097
1108.30 0.07099
1108.40 0.07101
1108.50 0.07102
1108.60 0.07104
1108.70 0.07106
1108.80 0.07107
1108.90 0.07109
1109.00 0.07111
1109.10 0.07112
1109.20 0.07114
1109.30 0.07116
1109.40 0.07117
1109.50 0.07119
1109.60 0.07119
1109.70 0.0712
1109.80 0.0712
1109.90 0.07121
1110.00 0.07121
1110.10 0.07122
1110.20 0.07122
1110.30 0.07123
1110.40 0.07124
1110.50 0.07124
1110.60 0.07125
1110.70 0.07125
1110.80 0.07126
1110.90 0.07126
1111.00 0.07127
1111.10 0.07127
1111.20 0.07128
1111.30 0.07129
1111.40 0.07129
1111.50 0.0713
1111.60 0.0713
1111.70 0.07131
1111.80 0.07131
1111.90 0.07132
1112.00 0.07132
1112.10 0.07132
1112.20 0.07132
1112.30 0.07132
1112.40 0.07131
1112.50 0.07131
1112.60 0.07131
1112.70 0.0713
1112.80 0.0713
1112.90 0.0713
1113.00 0.0713
1113.10 0.07129
1113.20 0.07129
1113.30 0.07129
1113.40 0.07128
1113.50 0.07128
1113.60 0.07127
1113.70 0.07126
1113.80 0.07126
1113.90 0.07125
1114.00 0.07124
1114.10 0.07123
1114.20 0.07122
1114.30 0.07122
1114.40 0.07121
1114.50 0.0712
1114.60 0.07119
1114.70 0.07118
1114.80 0.07118
1114.90 0.07117
1115.00 0.07116
1115.10 0.07115
1115.20 0.07114
1115.30 0.07114
1115.40 0.07113
1115.50 0.07112
1115.60 0.07111
1115.70 0.0711
1115.80 0.0711
1115.90 0.07109
1116.00 0.07108
1116.10 0.07107
1116.20 0.07106
1116.30 0.07106
1116.40 0.07105
1116.50 0.07104
1116.60 0.07103
1116.70 0.07102
1116.80 0.07102
1116.90 0.07101
1117.00 0.071
1117.10 0.07099
1117.20 0.07097
1117.30 0.07096
1117.40 0.07094
1117.50 0.07093
1117.60 0.07091
1117.70 0.0709
1117.80 0.07088
1117.90 0.07087
1118.00 0.07085
1118.10 0.07084
1118.20 0.07083
1118.30 0.07081
1118.40 0.0708
1118.50 0.07078
1118.60 0.07077
1118.70 0.07075
1118.80 0.07074
1118.90 0.07072
1119.00 0.07071
1119.10 0.0707
1119.20 0.07068
1119.30 0.07067
1119.40 0.07065
1119.50 0.07064
1119.60 0.07062
1119.70 0.07061
1119.80 0.07059
1119.90 0.07058
1120.00 0.07056
1120.10 0.07055
1120.20 0.07054
1120.30 0.07052
1120.40 0.07051
1120.50 0.07049
1120.60 0.07048
1120.70 0.07046
1120.80 0.07045
1120.90 0.07044
1121.00 0.07042
1121.10 0.07041
1121.20 0.07039
1121.30 0.07038
1121.40 0.07036
1121.50 0.07035
1121.60 0.07033
1121.70 0.07032
1121.80 0.07031
1121.90 0.07029
1122.00 0.07028
1122.10 0.07026
1122.20 0.07024
1122.30 0.07022
1122.40 0.0702
1122.50 0.07019
1122.60 0.07017
1122.70 0.07015
1122.80 0.07013
1122.90 0.07011
1123.00 0.07009
1123.10 0.07008
1123.20 0.07006
1123.30 0.07004
1123.40 0.07002
1123.50 0.07
1123.60 0.06998
1123.70 0.06997
1123.80 0.06995
1123.90 0.06993
1124.00 0.06991
1124.10 0.06989
1124.20 0.06988
1124.30 0.06986
1124.40 0.06984
1124.50 0.06982
1124.60 0.0698
1124.70 0.06978
1124.80 0.06977
1124.90 0.06975
1125.00 0.06973
1125.10 0.06971
1125.20 0.06969
1125.30 0.06968
1125.40 0.06966
1125.50 0.06964
1125.60 0.06962
1125.70 0.0696
1125.80 0.06959
1125.90 0.06957
1126.00 0.06955
1126.10 0.06953
1126.20 0.06951
1126.30 0.0695
1126.40 0.06948
1126.50 0.06946
1126.60 0.06944
1126.70 0.06942
1126.80 0.06941
1126.90 0.06939
1127.00 0.06937
1127.10 0.06935
1127.20 0.06933
1127.30 0.06931
1127.40 0.06929
1127.50 0.06927
1127.60 0.06925
1127.70 0.06923
1127.80 0.06921
1127.90 0.06919
1128.00 0.06917
1128.10 0.06915
1128.20 0.06913
1128.30 0.06911
1128.40 0.06909
1128.50 0.06907
1128.60 0.06905
1128.70 0.06903
1128.80 0.06901
1128.90 0.06899
1129.00 0.06897
1129.10 0.06895
1129.20 0.06893
1129.30 0.06891
1129.40 0.06889
1129.50 0.06887
1129.60 0.06885
1129.70 0.06883
1129.80 0.06881
1129.90 0.0688
1130.00 0.06878
1130.10 0.06876
1130.20 0.06874
1130.30 0.06872
1130.40 0.0687
1130.50 0.06868
1130.60 0.06866
1130.70 0.06864
1130.80 0.06862
1130.90 0.0686
1131.00 0.06858
1131.10 0.06856
1131.20 0.06854
1131.30 0.06852
1131.40 0.0685
1131.50 0.06848
1131.60 0.06846
1131.70 0.06844
1131.80 0.06842
1131.90 0.0684
1132.00 0.06838
1132.10 0.06836
1132.20 0.06834
1132.30 0.06832
1132.40 0.0683
1132.50 0.06828
1132.60 0.06826
1132.70 0.06824
1132.80 0.06822
1132.90 0.0682
1133.00 0.06818
1133.10 0.06816
1133.20 0.06814
1133.30 0.06812
1133.40 0.0681
1133.50 0.06808
1133.60 0.06805
1133.70 0.06803
1133.80 0.06801
1133.90 0.06799
1134.00 0.06797
1134.10 0.06795
1134.20 0.06793
1134.30 0.06791
1134.40 0.06789
1134.50 0.06787
1134.60 0.06785
1134.70 0.06783
1134.80 0.06781
1134.90 0.06779
1135.00 0.06777
1135.10 0.06775
1135.20 0.06773
1135.30 0.06771
1135.40 0.06769
1135.50 0.06767
1135.60 0.06765
1135.70 0.06763
1135.80 0.06761
1135.90 0.06759
1136.00 0.06757
1136.10 0.06755
1136.20 0.06753
1136.30 0.06751
1136.40 0.06749
1136.50 0.06746
1136.60 0.06744
1136.70 0.06742
1136.80 0.0674
1136.90 0.06738
1137.00 0.06736
1137.10 0.06734
1137.20 0.06732
1137.30 0.0673
1137.40 0.06728
1137.50 0.06726
1137.60 0.06724
1137.70 0.06722
1137.80 0.0672
1137.90 0.06718
1138.00 0.06716
1138.10 0.06714
1138.20 0.06712
1138.30 0.0671
1138.40 0.06708
1138.50 0.06705
1138.60 0.06703
1138.70 0.06701
1138.80 0.06699
1138.90 0.06697
1139.00 0.06695
1139.10 0.06693
1139.20 0.06691
1139.30 0.06689
1139.40 0.06687
1139.50 0.06685
1139.60 0.06683
1139.70 0.06681
1139.80 0.06679
1139.90 0.06677
1140.00 0.06675
1140.10 0.06673
1140.20 0.06671
1140.30 0.06669
1140.40 0.06667
1140.50 0.06665
1140.60 0.06662
1140.70 0.0666
1140.80 0.06658
1140.90 0.06656
1141.00 0.06654
1141.10 0.06652
1141.20 0.0665
1141.30 0.06648
1141.40 0.06646
1141.50 0.06644
1141.60 0.06642
1141.70 0.0664
1141.80 0.06638
1141.90 0.06636
1142.00 0.06634
1142.10 0.06632
1142.20 0.0663
1142.30 0.06628
1142.40 0.06626
1142.50 0.06624
1142.60 0.06622
1142.70 0.0662
1142.80 0.06617
1142.90 0.06615
1143.00 0.06613
1143.10 0.06611
1143.20 0.06609
1143.30 0.06607
1143.40 0.06605
1143.50 0.06603
1143.60 0.06601
1143.70 0.06599
1143.80 0.06597
1143.90 0.06595
1144.00 0.06593
1144.10 0.06591
1144.20 0.06589
1144.30 0.06587
1144.40 0.06585
1144.50 0.06583
1144.60 0.06581
1144.70 0.06579
1144.80 0.06576
1144.90 0.06574
1145.00 0.06572
1145.10 0.0657
1145.20 0.06568
1145.30 0.06566
1145.40 0.06564
1145.50 0.06562
1145.60 0.0656
1145.70 0.06558
1145.80 0.06556
1145.90 0.06554
1146.00 0.06552
1146.10 0.0655
1146.20 0.06548
1146.30 0.06546
1146.40 0.06544
1146.50 0.06542
1146.60 0.0654
1146.70 0.06538
1146.80 0.06536
1146.90 0.06534
1147.00 0.06532
1147.10 0.0653
1147.20 0.06528
1147.30 0.06526
1147.40 0.06523
1147.50 0.06521
1147.60 0.06519
1147.70 0.06517
1147.80 0.06515
1147.90 0.06513
1148.00 0.06511
1148.10 0.06509
1148.20 0.06507
1148.30 0.06505
1148.40 0.06503
1148.50 0.06501
1148.60 0.06499
1148.70 0.06497
1148.80 0.06495
1148.90 0.06493
1149.00 0.06491
1149.10 0.06489
1149.20 0.06487
1149.30 0.06485
1149.40 0.06483
1149.50 0.06481
1149.60 0.06479
1149.70 0.06477
1149.80 0.06475
1149.90 0.06473
1150.00 0.06471
1150.10 0.06469
1150.20 0.06467
1150.30 0.06465
1150.40 0.06463
1150.50 0.06461
1150.60 0.06459
1150.70 0.06457
1150.80 0.06455
1150.90 0.06453
1151.00 0.06451
1151.10 0.06449
1151.20 0.06447
1151.30 0.06445
1151.40 0.06443
1151.50 0.06441
1151.60 0.06438
1151.70 0.06436
1151.80 0.06434
1151.90 0.06432
1152.00 0.0643
1152.10 0.06428
1152.20 0.06426
1152.30 0.06424
1152.40 0.06422
1152.50 0.0642
1152.60 0.06418
1152.70 0.06416
1152.80 0.06414
1152.90 0.06412
1153.00 0.0641
1153.10 0.06408
1153.20 0.06406
1153.30 0.06404
1153.40 0.06402
1153.50 0.064
1153.60 0.06398
1153.70 0.06396
1153.80 0.06394
1153.90 0.06392
1154.00 0.0639
1154.10 0.06388
1154.20 0.06386
1154.30 0.06384
1154.40 0.06382
1154.50 0.0638
1154.60 0.06378
1154.70 0.06376
1154.80 0.06374
1154.90 0.06372
1155.00 0.0637
1155.10 0.06368
1155.20 0.06366
1155.30 0.06364
1155.40 0.06362
1155.50 0.0636
1155.60 0.06358
1155.70 0.06356
1155.80 0.06354
1155.90 0.06352
1156.00 0.0635
1156.10 0.06348
1156.20 0.06346
1156.30 0.06344
1156.40 0.06342
1156.50 0.0634
1156.60 0.06338
1156.70 0.06336
1156.80 0.06334
1156.90 0.06332
1157.00 0.0633
1157.10 0.06328
1157.20 0.06326
1157.30 0.06324
1157.40 0.06322
1157.50 0.0632
1157.60 0.06319
1157.70 0.06317
1157.80 0.06315
1157.90 0.06313
1158.00 0.06311
1158.10 0.06309
1158.20 0.06307
1158.30 0.06305
1158.40 0.06303
1158.50 0.06301
1158.60 0.06299
1158.70 0.06297
1158.80 0.06295
1158.90 0.06293
1159.00 0.06291
1159.10 0.06289
1159.20 0.06287
1159.30 0.06285
1159.40 0.06283
1159.50 0.06281
1159.60 0.06279
1159.70 0.06277
1159.80 0.06275
1159.90 0.06273
1160.00 0.06271
1160.10 0.06269
1160.20 0.06267
1160.30 0.06265
1160.40 0.06263
1160.50 0.06261
1160.60 0.06259
1160.70 0.06257
1160.80 0.06255
1160.90 0.06253
1161.00 0.06251
1161.10 0.06249
1161.20 0.06248
1161.30 0.06246
1161.40 0.06244
1161.50 0.06242
1161.60 0.0624
1161.70 0.06238
1161.80 0.06236
1161.90 0.06234
1162.00 0.06232
1162.10 0.0623
1162.20 0.06228
1162.30 0.06226
1162.40 0.06224
1162.50 0.06222
1162.60 0.0622
1162.70 0.06218
1162.80 0.06216
1162.90 0.06214
1163.00 0.06212
1163.10 0.0621
1163.20 0.06208
1163.30 0.06207
1163.40 0.06205
1163.50 0.06203
1163.60 0.06201
1163.70 0.06199
1163.80 0.06197
1163.90 0.06195
1164.00 0.06193
1164.10 0.06191
1164.20 0.06189
1164.30 0.06187
1164.40 0.06185
1164.50 0.06183
1164.60 0.06181
1164.70 0.06179
1164.80 0.06177
1164.90 0.06175
1165.00 0.06174
1165.10 0.06172
1165.20 0.0617
1165.30 0.06168
1165.40 0.06166
1165.50 0.06164
1165.60 0.06162
1165.70 0.0616
1165.80 0.06158
1165.90 0.06156
1166.00 0.06154
1166.10 0.06152
1166.20 0.0615
1166.30 0.06148
1166.40 0.06146
1166.50 0.06145
1166.60 0.06143
1166.70 0.06141
1166.80 0.06139
1166.90 0.06137
1167.00 0.06135
1167.10 0.06133
1167.20 0.06131
1167.30 0.06129
1167.40 0.06127
1167.50 0.06125
1167.60 0.06123
1167.70 0.06121
1167.80 0.0612
1167.90 0.06118
1168.00 0.06116
1168.10 0.06114
1168.20 0.06112
1168.30 0.0611
1168.40 0.06108
1168.50 0.06106
1168.60 0.06104
1168.70 0.06102
1168.80 0.061
1168.90 0.06098
1169.00 0.06097
1169.10 0.06095
1169.20 0.06093
1169.30 0.06091
1169.40 0.06089
1169.50 0.06087
1169.60 0.06085
1169.70 0.06083
1169.80 0.06081
1169.90 0.06079
1170.00 0.06077
1170.10 0.06076
1170.20 0.06074
1170.30 0.06072
1170.40 0.0607
1170.50 0.06068
1170.60 0.06066
1170.70 0.06064
1170.80 0.06062
1170.90 0.0606
1171.00 0.06058
1171.10 0.06056
1171.20 0.06055
1171.30 0.06053
1171.40 0.06051
1171.50 0.06049
1171.60 0.06047
1171.70 0.06045
1171.80 0.06043
1171.90 0.06041
1172.00 0.06039
1172.10 0.06038
1172.20 0.06036
1172.30 0.06034
1172.40 0.06032
1172.50 0.0603
1172.60 0.06028
1172.70 0.06026
1172.80 0.06024
1172.90 0.06022
1173.00 0.06021
1173.10 0.06019
1173.20 0.06017
1173.30 0.06015
1173.40 0.06013
1173.50 0.06011
1173.60 0.06009
1173.70 0.06007
1173.80 0.06005
1173.90 0.06004
1174.00 0.06002
1174.10 0.06
1174.20 0.05998
1174.30 0.05996
1174.40 0.05994
1174.50 0.05992
1174.60 0.0599
1174.70 0.05989
1174.80 0.05987
1174.90 0.05985
1175.00 0.05983
1175.10 0.05981
1175.20 0.05979
1175.30 0.05977
1175.40 0.05976
1175.50 0.05974
1175.60 0.05972
1175.70 0.0597
1175.80 0.05968
1175.90 0.05966
1176.00 0.05964
1176.10 0.05962
1176.20 0.05961
1176.30 0.05959
1176.40 0.05957
1176.50 0.05955
1176.60 0.05953
1176.70 0.05951
1176.80 0.05949
1176.90 0.05948
1177.00 0.05946
1177.10 0.05944
1177.20 0.05942
1177.30 0.0594
1177.40 0.05938
1177.50 0.05936
1177.60 0.05935
1177.70 0.05933
1177.80 0.05931
1177.90 0.05929
1178.00 0.05927
1178.10 0.05925
1178.20 0.05923
1178.30 0.05922
1178.40 0.0592
1178.50 0.05918
1178.60 0.05916
1178.70 0.05914
1178.80 0.05912
1178.90 0.0591
1179.00 0.05909
1179.10 0.05907
1179.20 0.05905
1179.30 0.05903
1179.40 0.05901
1179.50 0.05899
1179.60 0.05898
1179.70 0.05896
1179.80 0.05894
1179.90 0.05892
1180.00 0.0589
1180.10 0.05888
1180.20 0.05886
1180.30 0.05885
1180.40 0.05883
1180.50 0.05881
1180.60 0.05879
1180.70 0.05877
1180.80 0.05875
1180.90 0.05874
1181.00 0.05872
1181.10 0.0587
1181.20 0.05868
1181.30 0.05866
1181.40 0.05864
1181.50 0.05863
1181.60 0.05861
1181.70 0.05859
1181.80 0.05857
1181.90 0.05855
1182.00 0.05853
1182.10 0.05852
1182.20 0.0585
1182.30 0.05848
1182.40 0.05846
1182.50 0.05844
1182.60 0.05842
1182.70 0.05841
1182.80 0.05839
1182.90 0.05837
1183.00 0.05835
1183.10 0.05833
1183.20 0.05832
1183.30 0.0583
1183.40 0.05828
1183.50 0.05826
1183.60 0.05824
1183.70 0.05823
1183.80 0.05821
1183.90 0.05819
1184.00 0.05817
1184.10 0.05815
1184.20 0.05813
1184.30 0.05812
1184.40 0.0581
1184.50 0.05808
1184.60 0.05806
1184.70 0.05804
1184.80 0.05803
1184.90 0.05801
1185.00 0.05799
1185.10 0.05797
1185.20 0.05795
1185.30 0.05794
1185.40 0.05792
1185.50 0.0579
1185.60 0.05788
1185.70 0.05786
1185.80 0.05785
1185.90 0.05783
1186.00 0.05781
1186.10 0.05779
1186.20 0.05777
1186.30 0.05775
1186.40 0.05774
1186.50 0.05772
1186.60 0.0577
1186.70 0.05768
1186.80 0.05766
1186.90 0.05765
1187.00 0.05763
1187.10 0.05761
1187.20 0.05759
1187.30 0.05758
1187.40 0.05756
1187.50 0.05754
1187.60 0.05752
1187.70 0.0575
1187.80 0.05749
1187.90 0.05747
1188.00 0.05745
1188.10 0.05743
1188.20 0.05741
1188.30 0.0574
1188.40 0.05738
1188.50 0.05736
1188.60 0.05734
1188.70 0.05732
1188.80 0.05731
1188.90 0.05729
1189.00 0.05727
1189.10 0.05725
1189.20 0.05724
1189.30 0.05722
1189.40 0.0572
1189.50 0.05718
1189.60 0.05716
1189.70 0.05715
1189.80 0.05713
1189.90 0.05711
1190.00 0.05709
1190.10 0.05708
1190.20 0.05706
1190.30 0.05704
1190.40 0.05702
1190.50 0.057
1190.60 0.05699
1190.70 0.05697
1190.80 0.05695
1190.90 0.05693
1191.00 0.05692
1191.10 0.0569
1191.20 0.05688
1191.30 0.05686
1191.40 0.05684
1191.50 0.05683
1191.60 0.05681
1191.70 0.05679
1191.80 0.05677
1191.90 0.05676
1192.00 0.05674
1192.10 0.05672
1192.20 0.0567
1192.30 0.05669
1192.40 0.05667
1192.50 0.05665
1192.60 0.05663
1192.70 0.05662
1192.80 0.0566
1192.90 0.05658
1193.00 0.05656
1193.10 0.05654
1193.20 0.05653
1193.30 0.05651
1193.40 0.05649
1193.50 0.05647
1193.60 0.05646
1193.70 0.05644
1193.80 0.05642
1193.90 0.0564
1194.00 0.05639
1194.10 0.05637
1194.20 0.05635
1194.30 0.05633
1194.40 0.05632
1194.50 0.0563
1194.60 0.05628
1194.70 0.05626
1194.80 0.05625
1194.90 0.05623
1195.00 0.05621
1195.10 0.05619
1195.20 0.05618
1195.30 0.05616
1195.40 0.05614
1195.50 0.05612
1195.60 0.05611
1195.70 0.05609
1195.80 0.05607
1195.90 0.05606
1196.00 0.05604
1196.10 0.05602
1196.20 0.056
1196.30 0.05599
1196.40 0.05597
1196.50 0.05595
1196.60 0.05593
1196.70 0.05592
1196.80 0.0559
1196.90 0.05588
1197.00 0.05586
1197.10 0.05585
1197.20 0.05583
1197.30 0.05581
1197.40 0.05579
1197.50 0.05578
1197.60 0.05576
1197.70 0.05574
1197.80 0.05573
1197.90 0.05571
1198.00 0.05569
1198.10 0.05567
1198.20 0.05566
1198.30 0.05564
1198.40 0.05562
1198.50 0.0556
1198.60 0.05559
1198.70 0.05557
1198.80 0.05555
1198.90 0.05554
1199.00 0.05552
1199.10 0.0555
1199.20 0.05548
1199.30 0.05547
1199.40 0.05545
1199.50 0.05543
1199.60 0.05542
1199.70 0.0554
1199.80 0.05538
1199.90 0.05536
1200.00 0
