# Version 2.1 - nm, norm@500 to 1, cut digits, bergeron_9000_85.dat_9000
# Wavelength(nm)  Flambda(ergs/cm^s/s/nm)
300.00 1.635
300.10 1.634
300.20 1.634
300.30 1.634
300.40 1.633
300.50 1.633
300.60 1.633
300.70 1.632
300.80 1.632
300.90 1.632
301.00 1.631
301.10 1.631
301.20 1.631
301.30 1.63
301.40 1.63
301.50 1.63
301.60 1.629
301.70 1.629
301.80 1.629
301.90 1.628
302.00 1.628
302.10 1.628
302.20 1.627
302.30 1.627
302.40 1.627
302.50 1.626
302.60 1.626
302.70 1.626
302.80 1.625
302.90 1.625
303.00 1.625
303.10 1.624
303.20 1.624
303.30 1.624
303.40 1.623
303.50 1.623
303.60 1.623
303.70 1.622
303.80 1.622
303.90 1.622
304.00 1.621
304.10 1.621
304.20 1.621
304.30 1.62
304.40 1.62
304.50 1.62
304.60 1.619
304.70 1.619
304.80 1.619
304.90 1.618
305.00 1.618
305.10 1.618
305.20 1.617
305.30 1.617
305.40 1.617
305.50 1.616
305.60 1.616
305.70 1.616
305.80 1.615
305.90 1.615
306.00 1.615
306.10 1.614
306.20 1.614
306.30 1.614
306.40 1.613
306.50 1.613
306.60 1.613
306.70 1.612
306.80 1.612
306.90 1.612
307.00 1.611
307.10 1.611
307.20 1.61
307.30 1.61
307.40 1.61
307.50 1.609
307.60 1.609
307.70 1.609
307.80 1.608
307.90 1.608
308.00 1.608
308.10 1.607
308.20 1.607
308.30 1.607
308.40 1.606
308.50 1.606
308.60 1.606
308.70 1.605
308.80 1.605
308.90 1.604
309.00 1.604
309.10 1.604
309.20 1.603
309.30 1.603
309.40 1.603
309.50 1.602
309.60 1.602
309.70 1.602
309.80 1.601
309.90 1.601
310.00 1.601
310.10 1.6
310.20 1.6
310.30 1.599
310.40 1.599
310.50 1.599
310.60 1.598
310.70 1.598
310.80 1.598
310.90 1.597
311.00 1.597
311.10 1.597
311.20 1.596
311.30 1.596
311.40 1.595
311.50 1.595
311.60 1.595
311.70 1.594
311.80 1.594
311.90 1.594
312.00 1.593
312.10 1.593
312.20 1.593
312.30 1.592
312.40 1.592
312.50 1.591
312.60 1.591
312.70 1.591
312.80 1.59
312.90 1.59
313.00 1.59
313.10 1.589
313.20 1.589
313.30 1.588
313.40 1.588
313.50 1.588
313.60 1.587
313.70 1.587
313.80 1.587
313.90 1.586
314.00 1.586
314.10 1.585
314.20 1.585
314.30 1.585
314.40 1.584
314.50 1.584
314.60 1.584
314.70 1.583
314.80 1.583
314.90 1.582
315.00 1.582
315.10 1.582
315.20 1.581
315.30 1.581
315.40 1.581
315.50 1.58
315.60 1.58
315.70 1.579
315.80 1.579
315.90 1.579
316.00 1.578
316.10 1.578
316.20 1.578
316.30 1.577
316.40 1.577
316.50 1.576
316.60 1.576
316.70 1.576
316.80 1.575
316.90 1.575
317.00 1.574
317.10 1.574
317.20 1.574
317.30 1.573
317.40 1.573
317.50 1.573
317.60 1.572
317.70 1.572
317.80 1.571
317.90 1.571
318.00 1.571
318.10 1.57
318.20 1.57
318.30 1.569
318.40 1.569
318.50 1.569
318.60 1.568
318.70 1.568
318.80 1.568
318.90 1.567
319.00 1.567
319.10 1.566
319.20 1.566
319.30 1.566
319.40 1.565
319.50 1.565
319.60 1.564
319.70 1.564
319.80 1.564
319.90 1.563
320.00 1.563
320.10 1.562
320.20 1.562
320.30 1.562
320.40 1.561
320.50 1.561
320.60 1.56
320.70 1.56
320.80 1.56
320.90 1.559
321.00 1.559
321.10 1.558
321.20 1.558
321.30 1.558
321.40 1.557
321.50 1.557
321.60 1.557
321.70 1.556
321.80 1.556
321.90 1.555
322.00 1.555
322.10 1.555
322.20 1.554
322.30 1.554
322.40 1.553
322.50 1.553
322.60 1.553
322.70 1.552
322.80 1.552
322.90 1.551
323.00 1.551
323.10 1.551
323.20 1.55
323.30 1.55
323.40 1.549
323.50 1.549
323.60 1.549
323.70 1.548
323.80 1.548
323.90 1.547
324.00 1.547
324.10 1.546
324.20 1.546
324.30 1.546
324.40 1.545
324.50 1.545
324.60 1.544
324.70 1.544
324.80 1.544
324.90 1.543
325.00 1.543
325.10 1.542
325.20 1.542
325.30 1.542
325.40 1.541
325.50 1.541
325.60 1.54
325.70 1.54
325.80 1.54
325.90 1.539
326.00 1.539
326.10 1.538
326.20 1.538
326.30 1.538
326.40 1.537
326.50 1.537
326.60 1.536
326.70 1.536
326.80 1.536
326.90 1.535
327.00 1.535
327.10 1.534
327.20 1.534
327.30 1.533
327.40 1.533
327.50 1.533
327.60 1.532
327.70 1.532
327.80 1.531
327.90 1.531
328.00 1.531
328.10 1.53
328.20 1.53
328.30 1.529
328.40 1.529
328.50 1.529
328.60 1.528
328.70 1.528
328.80 1.527
328.90 1.527
329.00 1.526
329.10 1.526
329.20 1.526
329.30 1.525
329.40 1.525
329.50 1.524
329.60 1.524
329.70 1.524
329.80 1.523
329.90 1.523
330.00 1.522
330.10 1.522
330.20 1.521
330.30 1.521
330.40 1.521
330.50 1.52
330.60 1.52
330.70 1.519
330.80 1.519
330.90 1.519
331.00 1.518
331.10 1.518
331.20 1.517
331.30 1.517
331.40 1.516
331.50 1.516
331.60 1.516
331.70 1.515
331.80 1.515
331.90 1.514
332.00 1.514
332.10 1.514
332.20 1.513
332.30 1.513
332.40 1.512
332.50 1.512
332.60 1.511
332.70 1.511
332.80 1.511
332.90 1.51
333.00 1.51
333.10 1.509
333.20 1.509
333.30 1.508
333.40 1.508
333.50 1.508
333.60 1.507
333.70 1.507
333.80 1.506
333.90 1.506
334.00 1.506
334.10 1.505
334.20 1.505
334.30 1.504
334.40 1.504
334.50 1.503
334.60 1.503
334.70 1.503
334.80 1.502
334.90 1.502
335.00 1.501
335.10 1.501
335.20 1.5
335.30 1.5
335.40 1.5
335.50 1.499
335.60 1.499
335.70 1.498
335.80 1.498
335.90 1.497
336.00 1.497
336.10 1.497
336.20 1.496
336.30 1.496
336.40 1.495
336.50 1.495
336.60 1.494
336.70 1.494
336.80 1.494
336.90 1.493
337.00 1.493
337.10 1.492
337.20 1.492
337.30 1.491
337.40 1.491
337.50 1.491
337.60 1.49
337.70 1.49
337.80 1.489
337.90 1.489
338.00 1.488
338.10 1.488
338.20 1.488
338.30 1.487
338.40 1.487
338.50 1.486
338.60 1.486
338.70 1.485
338.80 1.485
338.90 1.484
339.00 1.484
339.10 1.484
339.20 1.483
339.30 1.483
339.40 1.482
339.50 1.482
339.60 1.481
339.70 1.481
339.80 1.481
339.90 1.48
340.00 1.48
340.10 1.479
340.20 1.479
340.30 1.478
340.40 1.478
340.50 1.478
340.60 1.477
340.70 1.477
340.80 1.476
340.90 1.476
341.00 1.475
341.10 1.475
341.20 1.475
341.30 1.474
341.40 1.474
341.50 1.473
341.60 1.473
341.70 1.472
341.80 1.472
341.90 1.471
342.00 1.471
342.10 1.471
342.20 1.47
342.30 1.47
342.40 1.469
342.50 1.469
342.60 1.468
342.70 1.468
342.80 1.468
342.90 1.467
343.00 1.467
343.10 1.466
343.20 1.466
343.30 1.465
343.40 1.465
343.50 1.465
343.60 1.464
343.70 1.464
343.80 1.463
343.90 1.463
344.00 1.462
344.10 1.462
344.20 1.461
344.30 1.461
344.40 1.461
344.50 1.46
344.60 1.46
344.70 1.459
344.80 1.459
344.90 1.458
345.00 1.458
345.10 1.457
345.20 1.457
345.30 1.457
345.40 1.456
345.50 1.456
345.60 1.455
345.70 1.455
345.80 1.454
345.90 1.454
346.00 1.454
346.10 1.453
346.20 1.453
346.30 1.452
346.40 1.452
346.50 1.451
346.60 1.451
346.70 1.45
346.80 1.45
346.90 1.45
347.00 1.449
347.10 1.449
347.20 1.448
347.30 1.448
347.40 1.447
347.50 1.447
347.60 1.446
347.70 1.446
347.80 1.446
347.90 1.445
348.00 1.445
348.10 1.444
348.20 1.444
348.30 1.443
348.40 1.443
348.50 1.442
348.60 1.442
348.70 1.442
348.80 1.441
348.90 1.441
349.00 1.44
349.10 1.44
349.20 1.439
349.30 1.439
349.40 1.438
349.50 1.438
349.60 1.438
349.70 1.437
349.80 1.437
349.90 1.436
350.00 1.436
350.10 1.435
350.20 1.435
350.30 1.434
350.40 1.434
350.50 1.434
350.60 1.433
350.70 1.433
350.80 1.432
350.90 1.432
351.00 1.431
351.10 1.431
351.20 1.43
351.30 1.43
351.40 1.43
351.50 1.429
351.60 1.429
351.70 1.428
351.80 1.428
351.90 1.427
352.00 1.427
352.10 1.426
352.20 1.426
352.30 1.426
352.40 1.425
352.50 1.425
352.60 1.424
352.70 1.424
352.80 1.423
352.90 1.423
353.00 1.422
353.10 1.422
353.20 1.422
353.30 1.421
353.40 1.421
353.50 1.42
353.60 1.42
353.70 1.419
353.80 1.419
353.90 1.418
354.00 1.418
354.10 1.418
354.20 1.417
354.30 1.417
354.40 1.416
354.50 1.416
354.60 1.415
354.70 1.415
354.80 1.414
354.90 1.414
355.00 1.413
355.10 1.413
355.20 1.413
355.30 1.412
355.40 1.412
355.50 1.411
355.60 1.411
355.70 1.41
355.80 1.41
355.90 1.409
356.00 1.409
356.10 1.409
356.20 1.408
356.30 1.408
356.40 1.407
356.50 1.407
356.60 1.406
356.70 1.406
356.80 1.405
356.90 1.405
357.00 1.404
357.10 1.404
357.20 1.404
357.30 1.403
357.40 1.403
357.50 1.402
357.60 1.402
357.70 1.401
357.80 1.401
357.90 1.4
358.00 1.4
358.10 1.4
358.20 1.399
358.30 1.399
358.40 1.398
358.50 1.398
358.60 1.397
358.70 1.397
358.80 1.396
358.90 1.396
359.00 1.395
359.10 1.395
359.20 1.395
359.30 1.394
359.40 1.394
359.50 1.393
359.60 1.393
359.70 1.392
359.80 1.392
359.90 1.391
360.00 1.391
360.10 1.391
360.20 1.39
360.30 1.39
360.40 1.389
360.50 1.389
360.60 1.388
360.70 1.388
360.80 1.387
360.90 1.387
361.00 1.386
361.10 1.386
361.20 1.386
361.30 1.385
361.40 1.385
361.50 1.384
361.60 1.384
361.70 1.383
361.80 1.383
361.90 1.382
362.00 1.382
362.10 1.382
362.20 1.381
362.30 1.381
362.40 1.38
362.50 1.38
362.60 1.379
362.70 1.379
362.80 1.378
362.90 1.378
363.00 1.377
363.10 1.377
363.20 1.376
363.30 1.376
363.40 1.375
363.50 1.375
363.60 1.374
363.70 1.374
363.80 1.373
363.90 1.373
364.00 1.372
364.10 1.372
364.20 1.371
364.30 1.371
364.40 1.37
364.50 1.37
364.60 1.369
364.70 1.369
364.80 1.368
364.90 1.368
365.00 1.367
365.10 1.367
365.20 1.366
365.30 1.366
365.40 1.365
365.50 1.365
365.60 1.364
365.70 1.364
365.80 1.363
365.90 1.363
366.00 1.362
366.10 1.362
366.20 1.361
366.30 1.361
366.40 1.36
366.50 1.36
366.60 1.359
366.70 1.359
366.80 1.359
366.90 1.358
367.00 1.358
367.10 1.357
367.20 1.357
367.30 1.356
367.40 1.356
367.50 1.355
367.60 1.355
367.70 1.354
367.80 1.354
367.90 1.353
368.00 1.353
368.10 1.353
368.20 1.352
368.30 1.352
368.40 1.351
368.50 1.351
368.60 1.351
368.70 1.35
368.80 1.35
368.90 1.349
369.00 1.349
369.10 1.349
369.20 1.348
369.30 1.348
369.40 1.347
369.50 1.347
369.60 1.347
369.70 1.346
369.80 1.346
369.90 1.345
370.00 1.345
370.10 1.345
370.20 1.344
370.30 1.344
370.40 1.344
370.50 1.344
370.60 1.344
370.70 1.343
370.80 1.343
370.90 1.343
371.00 1.343
371.10 1.343
371.20 1.342
371.30 1.342
371.40 1.342
371.50 1.342
371.60 1.342
371.70 1.341
371.80 1.341
371.90 1.341
372.00 1.341
372.10 1.341
372.20 1.341
372.30 1.341
372.40 1.341
372.50 1.341
372.60 1.341
372.70 1.341
372.80 1.341
372.90 1.341
373.00 1.341
373.10 1.342
373.20 1.342
373.30 1.342
373.40 1.342
373.50 1.342
373.60 1.342
373.70 1.342
373.80 1.342
373.90 1.342
374.00 1.342
374.10 1.342
374.20 1.343
374.30 1.343
374.40 1.343
374.50 1.344
374.60 1.344
374.70 1.344
374.80 1.344
374.90 1.345
375.00 1.345
375.10 1.345
375.20 1.345
375.30 1.346
375.40 1.346
375.50 1.346
375.60 1.346
375.70 1.347
375.80 1.347
375.90 1.347
376.00 1.347
376.10 1.347
376.20 1.348
376.30 1.348
376.40 1.348
376.50 1.348
376.60 1.348
376.70 1.348
376.80 1.349
376.90 1.349
377.00 1.349
377.10 1.348
377.20 1.348
377.30 1.348
377.40 1.347
377.50 1.347
377.60 1.347
377.70 1.346
377.80 1.346
377.90 1.345
378.00 1.345
378.10 1.342
378.20 1.34
378.30 1.337
378.40 1.334
378.50 1.332
378.60 1.329
378.70 1.327
378.80 1.324
378.90 1.321
379.00 1.319
379.10 1.315
379.20 1.311
379.30 1.307
379.40 1.303
379.50 1.299
379.60 1.295
379.70 1.291
379.80 1.287
379.90 1.283
380.00 1.279
380.10 1.284
380.20 1.29
380.30 1.295
380.40 1.301
380.50 1.306
380.60 1.312
380.70 1.317
380.80 1.322
380.90 1.328
381.00 1.333
381.10 1.334
381.20 1.335
381.30 1.336
381.40 1.337
381.50 1.339
381.60 1.338
381.70 1.338
381.80 1.337
381.90 1.335
382.00 1.333
382.10 1.33
382.20 1.327
382.30 1.318
382.40 1.309
382.50 1.299
382.60 1.29
382.70 1.281
382.80 1.272
382.90 1.262
383.00 1.253
383.10 1.244
383.20 1.235
383.30 1.218
383.40 1.199
383.50 1.18
383.60 1.184
383.70 1.204
383.80 1.223
383.90 1.239
384.00 1.254
384.10 1.269
384.20 1.282
384.30 1.293
384.40 1.303
384.50 1.312
384.60 1.319
384.70 1.325
384.80 1.33
384.90 1.334
385.00 1.337
385.10 1.34
385.20 1.342
385.30 1.344
385.40 1.346
385.50 1.347
385.60 1.348
385.70 1.348
385.80 1.349
385.90 1.349
386.00 1.348
386.10 1.347
386.20 1.347
386.30 1.345
386.40 1.344
386.50 1.342
386.60 1.34
386.70 1.338
386.80 1.335
386.90 1.332
387.00 1.328
387.10 1.324
387.20 1.32
387.30 1.315
387.40 1.31
387.50 1.303
387.60 1.296
387.70 1.288
387.80 1.279
387.90 1.268
388.00 1.255
388.10 1.239
388.20 1.22
388.30 1.199
388.40 1.173
388.50 1.144
388.60 1.114
388.70 1.079
388.80 1.045
388.90 1.014
389.00 1.043
389.10 1.075
389.20 1.111
389.30 1.142
389.40 1.171
389.50 1.198
389.60 1.219
389.70 1.239
389.80 1.255
389.90 1.268
390.00 1.28
390.10 1.29
390.20 1.299
390.30 1.306
390.40 1.313
390.50 1.319
390.60 1.324
390.70 1.33
390.80 1.334
390.90 1.338
391.00 1.342
391.10 1.345
391.20 1.348
391.30 1.351
391.40 1.354
391.50 1.356
391.60 1.358
391.70 1.36
391.80 1.362
391.90 1.363
392.00 1.364
392.10 1.365
392.20 1.366
392.30 1.366
392.40 1.367
392.50 1.367
392.60 1.367
392.70 1.366
392.80 1.366
392.90 1.365
393.00 1.364
393.10 1.363
393.20 1.362
393.30 1.36
393.40 1.358
393.50 1.356
393.60 1.354
393.70 1.352
393.80 1.349
393.90 1.346
394.00 1.342
394.10 1.339
394.20 1.335
394.30 1.331
394.40 1.326
394.50 1.321
394.60 1.316
394.70 1.31
394.80 1.304
394.90 1.298
395.00 1.291
395.10 1.283
395.20 1.275
395.30 1.266
395.40 1.257
395.50 1.247
395.60 1.236
395.70 1.224
395.80 1.211
395.90 1.196
396.00 1.18
396.10 1.162
396.20 1.139
396.30 1.112
396.40 1.081
396.50 1.04
396.60 0.9935
396.70 0.9413
396.80 0.8821
396.90 0.82
397.00 0.7552
397.10 0.8141
397.20 0.8733
397.30 0.9328
397.40 0.9856
397.50 1.033
397.60 1.075
397.70 1.106
397.80 1.133
397.90 1.156
398.00 1.174
398.10 1.191
398.20 1.206
398.30 1.218
398.40 1.23
398.50 1.241
398.60 1.251
398.70 1.26
398.80 1.269
398.90 1.277
399.00 1.284
399.10 1.291
399.20 1.298
399.30 1.304
399.40 1.31
399.50 1.315
399.60 1.32
399.70 1.325
399.80 1.33
399.90 1.334
400.00 1.338
400.10 1.341
400.20 1.345
400.30 1.348
400.40 1.351
400.50 1.354
400.60 1.357
400.70 1.359
400.80 1.361
400.90 1.363
401.00 1.365
401.10 1.367
401.20 1.369
401.30 1.371
401.40 1.372
401.50 1.373
401.60 1.374
401.70 1.376
401.80 1.377
401.90 1.377
402.00 1.378
402.10 1.379
402.20 1.38
402.30 1.38
402.40 1.38
402.50 1.381
402.60 1.381
402.70 1.381
402.80 1.381
402.90 1.381
403.00 1.381
403.10 1.381
403.20 1.381
403.30 1.38
403.40 1.38
403.50 1.38
403.60 1.379
403.70 1.378
403.80 1.378
403.90 1.377
404.00 1.376
404.10 1.375
404.20 1.374
404.30 1.373
404.40 1.372
404.50 1.37
404.60 1.369
404.70 1.367
404.80 1.366
404.90 1.364
405.00 1.362
405.10 1.36
405.20 1.358
405.30 1.356
405.40 1.354
405.50 1.352
405.60 1.349
405.70 1.347
405.80 1.344
405.90 1.341
406.00 1.338
406.10 1.334
406.20 1.331
406.30 1.327
406.40 1.324
406.50 1.32
406.60 1.315
406.70 1.311
406.80 1.306
406.90 1.301
407.00 1.296
407.10 1.291
407.20 1.285
407.30 1.279
407.40 1.272
407.50 1.265
407.60 1.258
407.70 1.25
407.80 1.242
407.90 1.233
408.00 1.224
408.10 1.215
408.20 1.204
408.30 1.193
408.40 1.181
408.50 1.169
408.60 1.155
408.70 1.141
408.80 1.126
408.90 1.109
409.00 1.092
409.10 1.072
409.20 1.05
409.30 1.026
409.40 0.9971
409.50 0.9633
409.60 0.9249
409.70 0.8725
409.80 0.8118
409.90 0.7428
410.00 0.6656
410.10 0.6031
410.20 0.555
410.30 0.6316
410.40 0.7071
410.50 0.7815
410.60 0.8445
410.70 0.8992
410.80 0.9454
410.90 0.9794
411.00 1.009
411.10 1.036
411.20 1.057
411.30 1.077
411.40 1.095
411.50 1.111
411.60 1.126
411.70 1.141
411.80 1.154
411.90 1.166
412.00 1.177
412.10 1.188
412.20 1.198
412.30 1.207
412.40 1.216
412.50 1.224
412.60 1.231
412.70 1.238
412.80 1.245
412.90 1.252
413.00 1.257
413.10 1.263
413.20 1.268
413.30 1.273
413.40 1.278
413.50 1.282
413.60 1.286
413.70 1.29
413.80 1.294
413.90 1.297
414.00 1.301
414.10 1.304
414.20 1.306
414.30 1.309
414.40 1.312
414.50 1.314
414.60 1.316
414.70 1.319
414.80 1.321
414.90 1.323
415.00 1.324
415.10 1.326
415.20 1.328
415.30 1.329
415.40 1.331
415.50 1.332
415.60 1.333
415.70 1.334
415.80 1.336
415.90 1.337
416.00 1.338
416.10 1.339
416.20 1.339
416.30 1.34
416.40 1.341
416.50 1.342
416.60 1.342
416.70 1.343
416.80 1.343
416.90 1.344
417.00 1.344
417.10 1.345
417.20 1.345
417.30 1.346
417.40 1.346
417.50 1.346
417.60 1.346
417.70 1.347
417.80 1.347
417.90 1.347
418.00 1.347
418.10 1.347
418.20 1.347
418.30 1.347
418.40 1.348
418.50 1.348
418.60 1.348
418.70 1.347
418.80 1.347
418.90 1.347
419.00 1.347
419.10 1.347
419.20 1.347
419.30 1.347
419.40 1.347
419.50 1.347
419.60 1.346
419.70 1.346
419.80 1.346
419.90 1.346
420.00 1.345
420.10 1.345
420.20 1.345
420.30 1.345
420.40 1.344
420.50 1.344
420.60 1.344
420.70 1.343
420.80 1.343
420.90 1.343
421.00 1.342
421.10 1.342
421.20 1.342
421.30 1.341
421.40 1.341
421.50 1.34
421.60 1.34
421.70 1.339
421.80 1.339
421.90 1.338
422.00 1.338
422.10 1.337
422.20 1.337
422.30 1.336
422.40 1.336
422.50 1.335
422.60 1.335
422.70 1.334
422.80 1.334
422.90 1.333
423.00 1.333
423.10 1.332
423.20 1.331
423.30 1.331
423.40 1.33
423.50 1.329
423.60 1.329
423.70 1.328
423.80 1.327
423.90 1.327
424.00 1.326
424.10 1.325
424.20 1.325
424.30 1.324
424.40 1.323
424.50 1.322
424.60 1.321
424.70 1.321
424.80 1.32
424.90 1.319
425.00 1.318
425.10 1.317
425.20 1.316
425.30 1.315
425.40 1.315
425.50 1.314
425.60 1.313
425.70 1.312
425.80 1.311
425.90 1.31
426.00 1.309
426.10 1.307
426.20 1.306
426.30 1.305
426.40 1.304
426.50 1.303
426.60 1.301
426.70 1.3
426.80 1.299
426.90 1.297
427.00 1.296
427.10 1.295
427.20 1.293
427.30 1.292
427.40 1.29
427.50 1.289
427.60 1.287
427.70 1.285
427.80 1.284
427.90 1.282
428.00 1.28
428.10 1.278
428.20 1.276
428.30 1.274
428.40 1.272
428.50 1.27
428.60 1.267
428.70 1.265
428.80 1.263
428.90 1.26
429.00 1.258
429.10 1.255
429.20 1.252
429.30 1.249
429.40 1.246
429.50 1.243
429.60 1.24
429.70 1.237
429.80 1.233
429.90 1.23
430.00 1.226
430.10 1.222
430.20 1.218
430.30 1.214
430.40 1.209
430.50 1.204
430.60 1.2
430.70 1.194
430.80 1.189
430.90 1.183
431.00 1.178
431.10 1.171
431.20 1.165
431.30 1.158
431.40 1.151
431.50 1.143
431.60 1.135
431.70 1.127
431.80 1.118
431.90 1.108
432.00 1.098
432.10 1.087
432.20 1.075
432.30 1.063
432.40 1.049
432.50 1.034
432.60 1.018
432.70 1
432.80 0.9803
432.90 0.9592
433.00 0.9369
433.10 0.9124
433.20 0.886
433.30 0.8579
433.40 0.8228
433.50 0.7817
433.60 0.7347
433.70 0.6698
433.80 0.6021
433.90 0.5316
434.00 0.4682
434.10 0.47
434.20 0.5368
434.30 0.6073
434.40 0.6744
434.50 0.7379
434.60 0.7836
434.70 0.8235
434.80 0.8575
434.90 0.8848
435.00 0.9103
435.10 0.934
435.20 0.9554
435.30 0.9756
435.40 0.9946
435.50 1.011
435.60 1.027
435.70 1.041
435.80 1.053
435.90 1.065
436.00 1.076
436.10 1.086
436.20 1.095
436.30 1.104
436.40 1.112
436.50 1.119
436.60 1.126
436.70 1.133
436.80 1.139
436.90 1.145
437.00 1.15
437.10 1.156
437.20 1.161
437.30 1.165
437.40 1.169
437.50 1.174
437.60 1.177
437.70 1.181
437.80 1.185
437.90 1.188
438.00 1.191
438.10 1.194
438.20 1.197
438.30 1.199
438.40 1.202
438.50 1.204
438.60 1.206
438.70 1.208
438.80 1.21
438.90 1.212
439.00 1.214
439.10 1.216
439.20 1.217
439.30 1.219
439.40 1.22
439.50 1.222
439.60 1.223
439.70 1.224
439.80 1.225
439.90 1.226
440.00 1.227
440.10 1.228
440.20 1.229
440.30 1.23
440.40 1.23
440.50 1.231
440.60 1.232
440.70 1.232
440.80 1.233
440.90 1.234
441.00 1.234
441.10 1.235
441.20 1.235
441.30 1.235
441.40 1.236
441.50 1.236
441.60 1.236
441.70 1.237
441.80 1.237
441.90 1.237
442.00 1.237
442.10 1.237
442.20 1.238
442.30 1.238
442.40 1.238
442.50 1.238
442.60 1.238
442.70 1.238
442.80 1.238
442.90 1.238
443.00 1.238
443.10 1.238
443.20 1.238
443.30 1.238
443.40 1.238
443.50 1.238
443.60 1.237
443.70 1.237
443.80 1.237
443.90 1.237
444.00 1.237
444.10 1.237
444.20 1.237
444.30 1.236
444.40 1.236
444.50 1.236
444.60 1.236
444.70 1.236
444.80 1.235
444.90 1.235
445.00 1.235
445.10 1.235
445.20 1.235
445.30 1.234
445.40 1.234
445.50 1.234
445.60 1.234
445.70 1.233
445.80 1.233
445.90 1.233
446.00 1.232
446.10 1.232
446.20 1.232
446.30 1.232
446.40 1.231
446.50 1.231
446.60 1.231
446.70 1.23
446.80 1.23
446.90 1.23
447.00 1.229
447.10 1.229
447.20 1.229
447.30 1.228
447.40 1.228
447.50 1.228
447.60 1.227
447.70 1.227
447.80 1.227
447.90 1.226
448.00 1.226
448.10 1.225
448.20 1.225
448.30 1.225
448.40 1.224
448.50 1.224
448.60 1.224
448.70 1.223
448.80 1.223
448.90 1.223
449.00 1.222
449.10 1.222
449.20 1.221
449.30 1.221
449.40 1.221
449.50 1.22
449.60 1.22
449.70 1.219
449.80 1.219
449.90 1.219
450.00 1.218
450.10 1.218
450.20 1.217
450.30 1.217
450.40 1.217
450.50 1.216
450.60 1.216
450.70 1.215
450.80 1.215
450.90 1.215
451.00 1.214
451.10 1.214
451.20 1.213
451.30 1.213
451.40 1.212
451.50 1.212
451.60 1.212
451.70 1.211
451.80 1.211
451.90 1.21
452.00 1.21
452.10 1.21
452.20 1.209
452.30 1.209
452.40 1.208
452.50 1.208
452.60 1.207
452.70 1.207
452.80 1.206
452.90 1.206
453.00 1.206
453.10 1.205
453.20 1.205
453.30 1.204
453.40 1.204
453.50 1.203
453.60 1.203
453.70 1.203
453.80 1.202
453.90 1.202
454.00 1.201
454.10 1.201
454.20 1.2
454.30 1.2
454.40 1.199
454.50 1.199
454.60 1.199
454.70 1.198
454.80 1.198
454.90 1.197
455.00 1.197
455.10 1.196
455.20 1.196
455.30 1.196
455.40 1.195
455.50 1.195
455.60 1.194
455.70 1.194
455.80 1.193
455.90 1.193
456.00 1.192
456.10 1.192
456.20 1.191
456.30 1.191
456.40 1.191
456.50 1.19
456.60 1.19
456.70 1.189
456.80 1.189
456.90 1.188
457.00 1.188
457.10 1.187
457.20 1.187
457.30 1.187
457.40 1.186
457.50 1.186
457.60 1.185
457.70 1.185
457.80 1.184
457.90 1.184
458.00 1.183
458.10 1.183
458.20 1.182
458.30 1.182
458.40 1.182
458.50 1.181
458.60 1.181
458.70 1.18
458.80 1.18
458.90 1.179
459.00 1.179
459.10 1.178
459.20 1.178
459.30 1.177
459.40 1.177
459.50 1.176
459.60 1.176
459.70 1.176
459.80 1.175
459.90 1.175
460.00 1.174
460.10 1.174
460.20 1.173
460.30 1.173
460.40 1.172
460.50 1.172
460.60 1.171
460.70 1.171
460.80 1.171
460.90 1.17
461.00 1.17
461.10 1.169
461.20 1.169
461.30 1.168
461.40 1.168
461.50 1.167
461.60 1.167
461.70 1.166
461.80 1.166
461.90 1.165
462.00 1.165
462.10 1.164
462.20 1.164
462.30 1.164
462.40 1.163
462.50 1.163
462.60 1.162
462.70 1.162
462.80 1.161
462.90 1.161
463.00 1.16
463.10 1.16
463.20 1.159
463.30 1.159
463.40 1.158
463.50 1.158
463.60 1.157
463.70 1.157
463.80 1.156
463.90 1.156
464.00 1.156
464.10 1.155
464.20 1.155
464.30 1.154
464.40 1.154
464.50 1.153
464.60 1.153
464.70 1.152
464.80 1.152
464.90 1.151
465.00 1.151
465.10 1.15
465.20 1.15
465.30 1.149
465.40 1.149
465.50 1.148
465.60 1.148
465.70 1.147
465.80 1.147
465.90 1.146
466.00 1.146
466.10 1.145
466.20 1.145
466.30 1.144
466.40 1.144
466.50 1.143
466.60 1.143
466.70 1.143
466.80 1.142
466.90 1.142
467.00 1.141
467.10 1.141
467.20 1.14
467.30 1.14
467.40 1.139
467.50 1.139
467.60 1.138
467.70 1.138
467.80 1.137
467.90 1.137
468.00 1.136
468.10 1.136
468.20 1.135
468.30 1.135
468.40 1.134
468.50 1.134
468.60 1.133
468.70 1.133
468.80 1.132
468.90 1.132
469.00 1.131
469.10 1.131
469.20 1.13
469.30 1.13
469.40 1.129
469.50 1.128
469.60 1.128
469.70 1.127
469.80 1.127
469.90 1.126
470.00 1.126
470.10 1.125
470.20 1.125
470.30 1.124
470.40 1.124
470.50 1.123
470.60 1.123
470.70 1.122
470.80 1.122
470.90 1.121
471.00 1.121
471.10 1.12
471.20 1.12
471.30 1.119
471.40 1.118
471.50 1.118
471.60 1.117
471.70 1.117
471.80 1.116
471.90 1.116
472.00 1.115
472.10 1.115
472.20 1.114
472.30 1.113
472.40 1.113
472.50 1.112
472.60 1.112
472.70 1.111
472.80 1.111
472.90 1.11
473.00 1.109
473.10 1.109
473.20 1.108
473.30 1.108
473.40 1.107
473.50 1.106
473.60 1.106
473.70 1.105
473.80 1.104
473.90 1.104
474.00 1.103
474.10 1.103
474.20 1.102
474.30 1.101
474.40 1.101
474.50 1.1
474.60 1.099
474.70 1.099
474.80 1.098
474.90 1.097
475.00 1.097
475.10 1.096
475.20 1.095
475.30 1.094
475.40 1.094
475.50 1.093
475.60 1.092
475.70 1.092
475.80 1.091
475.90 1.09
476.00 1.089
476.10 1.089
476.20 1.088
476.30 1.087
476.40 1.086
476.50 1.085
476.60 1.084
476.70 1.084
476.80 1.083
476.90 1.082
477.00 1.081
477.10 1.08
477.20 1.079
477.30 1.078
477.40 1.077
477.50 1.076
477.60 1.075
477.70 1.074
477.80 1.073
477.90 1.072
478.00 1.071
478.10 1.07
478.20 1.069
478.30 1.068
478.40 1.067
478.50 1.065
478.60 1.064
478.70 1.063
478.80 1.062
478.90 1.06
479.00 1.059
479.10 1.058
479.20 1.057
479.30 1.055
479.40 1.053
479.50 1.052
479.60 1.05
479.70 1.048
479.80 1.047
479.90 1.045
480.00 1.044
480.10 1.042
480.20 1.04
480.30 1.038
480.40 1.036
480.50 1.034
480.60 1.031
480.70 1.029
480.80 1.027
480.90 1.025
481.00 1.023
481.10 1.021
481.20 1.018
481.30 1.015
481.40 1.012
481.50 1.009
481.60 1.007
481.70 1.004
481.80 1.001
481.90 0.998
482.00 0.9951
482.10 0.9922
482.20 0.9884
482.30 0.9842
482.40 0.9799
482.50 0.9757
482.60 0.9714
482.70 0.9672
482.80 0.9629
482.90 0.9587
483.00 0.9545
483.10 0.9502
483.20 0.944
483.30 0.9369
483.40 0.9298
483.50 0.9227
483.60 0.9157
483.70 0.9086
483.80 0.9015
483.90 0.8944
484.00 0.8874
484.10 0.8803
484.20 0.8703
484.30 0.8589
484.40 0.8475
484.50 0.8361
484.60 0.8247
484.70 0.8094
484.80 0.7924
484.90 0.7754
485.00 0.7583
485.10 0.7413
485.20 0.72
485.30 0.6966
485.40 0.6696
485.50 0.641
485.60 0.6081
485.70 0.5733
485.80 0.535
485.90 0.495
486.00 0.453
486.10 0.3996
486.20 0.4207
486.30 0.4676
486.40 0.5081
486.50 0.5478
486.60 0.584
486.70 0.6184
486.80 0.6487
486.90 0.6768
487.00 0.7014
487.10 0.7243
487.20 0.7427
487.30 0.7592
487.40 0.7756
487.50 0.792
487.60 0.8083
487.70 0.8209
487.80 0.8315
487.90 0.8422
488.00 0.8529
488.10 0.8635
488.20 0.8712
488.30 0.8775
488.40 0.8838
488.50 0.8901
488.60 0.8964
488.70 0.9027
488.80 0.909
488.90 0.9152
489.00 0.9215
489.10 0.9278
489.20 0.9321
489.30 0.9355
489.40 0.9389
489.50 0.9423
489.60 0.9457
489.70 0.9491
489.80 0.9525
489.90 0.9559
490.00 0.9592
490.10 0.9626
490.20 0.9651
490.30 0.9671
490.40 0.9691
490.50 0.9711
490.60 0.9731
490.70 0.9751
490.80 0.9771
490.90 0.9791
491.00 0.9811
491.10 0.9831
491.20 0.9846
491.30 0.9859
491.40 0.9871
491.50 0.9884
491.60 0.9896
491.70 0.9909
491.80 0.9921
491.90 0.9933
492.00 0.9946
492.10 0.9958
492.20 0.9967
492.30 0.9974
492.40 0.9982
492.50 0.9989
492.60 0.9996
492.70 1
492.80 1.001
492.90 1.002
493.00 1.003
493.10 1.003
493.20 1.004
493.30 1.004
493.40 1.004
493.50 1.005
493.60 1.005
493.70 1.006
493.80 1.006
493.90 1.006
494.00 1.007
494.10 1.007
494.20 1.007
494.30 1.007
494.40 1.007
494.50 1.008
494.60 1.008
494.70 1.008
494.80 1.008
494.90 1.008
495.00 1.008
495.10 1.008
495.20 1.008
495.30 1.008
495.40 1.008
495.50 1.008
495.60 1.008
495.70 1.008
495.80 1.008
495.90 1.008
496.00 1.008
496.10 1.008
496.20 1.008
496.30 1.008
496.40 1.008
496.50 1.007
496.60 1.007
496.70 1.007
496.80 1.007
496.90 1.007
497.00 1.007
497.10 1.007
497.20 1.007
497.30 1.006
497.40 1.006
497.50 1.006
497.60 1.006
497.70 1.006
497.80 1.005
497.90 1.005
498.00 1.005
498.10 1.005
498.20 1.005
498.30 1.004
498.40 1.004
498.50 1.004
498.60 1.004
498.70 1.003
498.80 1.003
498.90 1.003
499.00 1.003
499.10 1.002
499.20 1.002
499.30 1.002
499.40 1.002
499.50 1.001
499.60 1.001
499.70 1.001
499.80 1.001
499.90 1
500.00 1
500.10 0.9997
500.20 0.9994
500.30 0.9991
500.40 0.9988
500.50 0.9985
500.60 0.9983
500.70 0.998
500.80 0.9977
500.90 0.9974
501.00 0.9971
501.10 0.9968
501.20 0.9965
501.30 0.9961
501.40 0.9958
501.50 0.9955
501.60 0.9952
501.70 0.9949
501.80 0.9946
501.90 0.9942
502.00 0.9939
502.10 0.9936
502.20 0.9933
502.30 0.993
502.40 0.9926
502.50 0.9923
502.60 0.992
502.70 0.9917
502.80 0.9913
502.90 0.991
503.00 0.9907
503.10 0.9903
503.20 0.99
503.30 0.9897
503.40 0.9893
503.50 0.989
503.60 0.9886
503.70 0.9883
503.80 0.988
503.90 0.9876
504.00 0.9873
504.10 0.9869
504.20 0.9866
504.30 0.9863
504.40 0.9859
504.50 0.9856
504.60 0.9852
504.70 0.9849
504.80 0.9845
504.90 0.9842
505.00 0.9838
505.10 0.9835
505.20 0.9831
505.30 0.9828
505.40 0.9824
505.50 0.9821
505.60 0.9817
505.70 0.9814
505.80 0.981
505.90 0.9807
506.00 0.9803
506.10 0.98
506.20 0.9796
506.30 0.9792
506.40 0.9789
506.50 0.9785
506.60 0.9782
506.70 0.9778
506.80 0.9775
506.90 0.9771
507.00 0.9768
507.10 0.9764
507.20 0.976
507.30 0.9757
507.40 0.9753
507.50 0.975
507.60 0.9746
507.70 0.9742
507.80 0.9739
507.90 0.9735
508.00 0.9732
508.10 0.9728
508.20 0.9724
508.30 0.9721
508.40 0.9717
508.50 0.9713
508.60 0.971
508.70 0.9706
508.80 0.9703
508.90 0.9699
509.00 0.9695
509.10 0.9692
509.20 0.9688
509.30 0.9684
509.40 0.9681
509.50 0.9677
509.60 0.9673
509.70 0.967
509.80 0.9666
509.90 0.9662
510.00 0.9659
510.10 0.9655
510.20 0.9652
510.30 0.9648
510.40 0.9644
510.50 0.9641
510.60 0.9637
510.70 0.9633
510.80 0.963
510.90 0.9626
511.00 0.9622
511.10 0.9619
511.20 0.9615
511.30 0.9611
511.40 0.9608
511.50 0.9604
511.60 0.96
511.70 0.9597
511.80 0.9593
511.90 0.9589
512.00 0.9586
512.10 0.9582
512.20 0.9578
512.30 0.9575
512.40 0.9571
512.50 0.9567
512.60 0.9564
512.70 0.956
512.80 0.9556
512.90 0.9553
513.00 0.9549
513.10 0.9546
513.20 0.9542
513.30 0.9538
513.40 0.9535
513.50 0.9531
513.60 0.9527
513.70 0.9523
513.80 0.952
513.90 0.9516
514.00 0.9512
514.10 0.9509
514.20 0.9505
514.30 0.9501
514.40 0.9498
514.50 0.9494
514.60 0.949
514.70 0.9487
514.80 0.9483
514.90 0.9479
515.00 0.9476
515.10 0.9472
515.20 0.9469
515.30 0.9465
515.40 0.9461
515.50 0.9458
515.60 0.9454
515.70 0.945
515.80 0.9447
515.90 0.9443
516.00 0.9439
516.10 0.9436
516.20 0.9432
516.30 0.9428
516.40 0.9425
516.50 0.9421
516.60 0.9417
516.70 0.9414
516.80 0.941
516.90 0.9406
517.00 0.9403
517.10 0.9399
517.20 0.9395
517.30 0.9392
517.40 0.9388
517.50 0.9384
517.60 0.9381
517.70 0.9377
517.80 0.9373
517.90 0.937
518.00 0.9366
518.10 0.9363
518.20 0.9359
518.30 0.9355
518.40 0.9352
518.50 0.9348
518.60 0.9344
518.70 0.9341
518.80 0.9337
518.90 0.9333
519.00 0.933
519.10 0.9326
519.20 0.9323
519.30 0.9319
519.40 0.9315
519.50 0.9312
519.60 0.9308
519.70 0.9304
519.80 0.9301
519.90 0.9297
520.00 0.9293
520.10 0.929
520.20 0.9286
520.30 0.9283
520.40 0.9279
520.50 0.9275
520.60 0.9272
520.70 0.9268
520.80 0.9264
520.90 0.9261
521.00 0.9257
521.10 0.9254
521.20 0.925
521.30 0.9246
521.40 0.9243
521.50 0.9239
521.60 0.9236
521.70 0.9232
521.80 0.9228
521.90 0.9225
522.00 0.9221
522.10 0.9218
522.20 0.9214
522.30 0.921
522.40 0.9207
522.50 0.9203
522.60 0.92
522.70 0.9196
522.80 0.9192
522.90 0.9189
523.00 0.9185
523.10 0.9182
523.20 0.9178
523.30 0.9174
523.40 0.9171
523.50 0.9167
523.60 0.9164
523.70 0.916
523.80 0.9156
523.90 0.9153
524.00 0.9149
524.10 0.9146
524.20 0.9142
524.30 0.9139
524.40 0.9135
524.50 0.9131
524.60 0.9128
524.70 0.9124
524.80 0.9121
524.90 0.9117
525.00 0.9114
525.10 0.911
525.20 0.9107
525.30 0.9103
525.40 0.9099
525.50 0.9096
525.60 0.9092
525.70 0.9089
525.80 0.9085
525.90 0.9082
526.00 0.9078
526.10 0.9074
526.20 0.9071
526.30 0.9067
526.40 0.9064
526.50 0.906
526.60 0.9057
526.70 0.9053
526.80 0.9049
526.90 0.9046
527.00 0.9042
527.10 0.9039
527.20 0.9035
527.30 0.9032
527.40 0.9028
527.50 0.9025
527.60 0.9021
527.70 0.9017
527.80 0.9014
527.90 0.901
528.00 0.9007
528.10 0.9003
528.20 0.9
528.30 0.8996
528.40 0.8993
528.50 0.8989
528.60 0.8986
528.70 0.8982
528.80 0.8979
528.90 0.8975
529.00 0.8972
529.10 0.8968
529.20 0.8965
529.30 0.8961
529.40 0.8958
529.50 0.8954
529.60 0.8951
529.70 0.8947
529.80 0.8944
529.90 0.894
530.00 0.8936
530.10 0.8933
530.20 0.8929
530.30 0.8926
530.40 0.8922
530.50 0.8919
530.60 0.8915
530.70 0.8912
530.80 0.8908
530.90 0.8905
531.00 0.8901
531.10 0.8898
531.20 0.8894
531.30 0.8891
531.40 0.8887
531.50 0.8884
531.60 0.888
531.70 0.8877
531.80 0.8873
531.90 0.887
532.00 0.8866
532.10 0.8863
532.20 0.8859
532.30 0.8856
532.40 0.8852
532.50 0.8849
532.60 0.8845
532.70 0.8842
532.80 0.8839
532.90 0.8835
533.00 0.8832
533.10 0.8828
533.20 0.8825
533.30 0.8821
533.40 0.8818
533.50 0.8814
533.60 0.8811
533.70 0.8807
533.80 0.8804
533.90 0.88
534.00 0.8797
534.10 0.8793
534.20 0.879
534.30 0.8787
534.40 0.8783
534.50 0.878
534.60 0.8776
534.70 0.8773
534.80 0.8769
534.90 0.8766
535.00 0.8762
535.10 0.8759
535.20 0.8756
535.30 0.8752
535.40 0.8749
535.50 0.8745
535.60 0.8742
535.70 0.8738
535.80 0.8735
535.90 0.8732
536.00 0.8728
536.10 0.8725
536.20 0.8721
536.30 0.8718
536.40 0.8714
536.50 0.8711
536.60 0.8708
536.70 0.8704
536.80 0.8701
536.90 0.8697
537.00 0.8694
537.10 0.869
537.20 0.8687
537.30 0.8684
537.40 0.868
537.50 0.8677
537.60 0.8673
537.70 0.867
537.80 0.8666
537.90 0.8663
538.00 0.866
538.10 0.8656
538.20 0.8653
538.30 0.8649
538.40 0.8646
538.50 0.8643
538.60 0.8639
538.70 0.8636
538.80 0.8632
538.90 0.8629
539.00 0.8626
539.10 0.8622
539.20 0.8619
539.30 0.8615
539.40 0.8612
539.50 0.8609
539.60 0.8605
539.70 0.8602
539.80 0.8599
539.90 0.8595
540.00 0.8592
540.10 0.8588
540.20 0.8585
540.30 0.8582
540.40 0.8578
540.50 0.8575
540.60 0.8572
540.70 0.8568
540.80 0.8565
540.90 0.8562
541.00 0.8558
541.10 0.8555
541.20 0.8552
541.30 0.8548
541.40 0.8545
541.50 0.8541
541.60 0.8538
541.70 0.8535
541.80 0.8531
541.90 0.8528
542.00 0.8525
542.10 0.8521
542.20 0.8518
542.30 0.8515
542.40 0.8511
542.50 0.8508
542.60 0.8505
542.70 0.8501
542.80 0.8498
542.90 0.8494
543.00 0.8491
543.10 0.8488
543.20 0.8484
543.30 0.8481
543.40 0.8478
543.50 0.8474
543.60 0.8471
543.70 0.8468
543.80 0.8465
543.90 0.8461
544.00 0.8458
544.10 0.8455
544.20 0.8451
544.30 0.8448
544.40 0.8445
544.50 0.8441
544.60 0.8438
544.70 0.8435
544.80 0.8431
544.90 0.8428
545.00 0.8425
545.10 0.8421
545.20 0.8418
545.30 0.8415
545.40 0.8412
545.50 0.8408
545.60 0.8405
545.70 0.8402
545.80 0.8398
545.90 0.8395
546.00 0.8392
546.10 0.8388
546.20 0.8385
546.30 0.8382
546.40 0.8379
546.50 0.8375
546.60 0.8372
546.70 0.8369
546.80 0.8366
546.90 0.8363
547.00 0.836
547.10 0.8356
547.20 0.8353
547.30 0.835
547.40 0.8347
547.50 0.8343
547.60 0.834
547.70 0.8337
547.80 0.8333
547.90 0.833
548.00 0.8327
548.10 0.8324
548.20 0.832
548.30 0.8317
548.40 0.8314
548.50 0.8311
548.60 0.8307
548.70 0.8304
548.80 0.8301
548.90 0.8297
549.00 0.8294
549.10 0.8291
549.20 0.8288
549.30 0.8284
549.40 0.8281
549.50 0.8278
549.60 0.8275
549.70 0.8271
549.80 0.8268
549.90 0.8265
550.00 0.8262
550.10 0.8258
550.20 0.8255
550.30 0.8252
550.40 0.8249
550.50 0.8245
550.60 0.8242
550.70 0.8239
550.80 0.8236
550.90 0.8232
551.00 0.8229
551.10 0.8226
551.20 0.8223
551.30 0.822
551.40 0.8216
551.50 0.8213
551.60 0.821
551.70 0.8207
551.80 0.8203
551.90 0.82
552.00 0.8197
552.10 0.8194
552.20 0.8191
552.30 0.8187
552.40 0.8184
552.50 0.8181
552.60 0.8178
552.70 0.8174
552.80 0.8171
552.90 0.8168
553.00 0.8165
553.10 0.8162
553.20 0.8158
553.30 0.8155
553.40 0.8152
553.50 0.8149
553.60 0.8146
553.70 0.8142
553.80 0.8139
553.90 0.8136
554.00 0.8133
554.10 0.813
554.20 0.8126
554.30 0.8123
554.40 0.812
554.50 0.8117
554.60 0.8114
554.70 0.8111
554.80 0.8107
554.90 0.8104
555.00 0.8101
555.10 0.8098
555.20 0.8095
555.30 0.8091
555.40 0.8088
555.50 0.8085
555.60 0.8082
555.70 0.8079
555.80 0.8076
555.90 0.8072
556.00 0.8069
556.10 0.8066
556.20 0.8063
556.30 0.806
556.40 0.8057
556.50 0.8053
556.60 0.805
556.70 0.8047
556.80 0.8044
556.90 0.8041
557.00 0.8038
557.10 0.8035
557.20 0.8031
557.30 0.8028
557.40 0.8025
557.50 0.8022
557.60 0.8019
557.70 0.8016
557.80 0.8012
557.90 0.8009
558.00 0.8006
558.10 0.8003
558.20 0.8
558.30 0.7997
558.40 0.7994
558.50 0.799
558.60 0.7987
558.70 0.7984
558.80 0.7981
558.90 0.7978
559.00 0.7975
559.10 0.7972
559.20 0.7969
559.30 0.7965
559.40 0.7962
559.50 0.7959
559.60 0.7956
559.70 0.7953
559.80 0.795
559.90 0.7947
560.00 0.7944
560.10 0.7941
560.20 0.7937
560.30 0.7934
560.40 0.7931
560.50 0.7928
560.60 0.7925
560.70 0.7922
560.80 0.7919
560.90 0.7916
561.00 0.7912
561.10 0.7909
561.20 0.7906
561.30 0.7903
561.40 0.79
561.50 0.7897
561.60 0.7894
561.70 0.7891
561.80 0.7888
561.90 0.7885
562.00 0.7882
562.10 0.7878
562.20 0.7875
562.30 0.7872
562.40 0.7869
562.50 0.7866
562.60 0.7863
562.70 0.786
562.80 0.7857
562.90 0.7854
563.00 0.7851
563.10 0.7848
563.20 0.7845
563.30 0.7841
563.40 0.7838
563.50 0.7835
563.60 0.7832
563.70 0.7829
563.80 0.7826
563.90 0.7823
564.00 0.782
564.10 0.7817
564.20 0.7814
564.30 0.7811
564.40 0.7808
564.50 0.7805
564.60 0.7802
564.70 0.7799
564.80 0.7796
564.90 0.7793
565.00 0.779
565.10 0.7787
565.20 0.7784
565.30 0.778
565.40 0.7777
565.50 0.7774
565.60 0.7771
565.70 0.7768
565.80 0.7765
565.90 0.7762
566.00 0.7759
566.10 0.7756
566.20 0.7753
566.30 0.775
566.40 0.7747
566.50 0.7744
566.60 0.7741
566.70 0.7738
566.80 0.7735
566.90 0.7732
567.00 0.7729
567.10 0.7726
567.20 0.7723
567.30 0.772
567.40 0.7717
567.50 0.7714
567.60 0.7711
567.70 0.7708
567.80 0.7705
567.90 0.7702
568.00 0.7699
568.10 0.7696
568.20 0.7693
568.30 0.769
568.40 0.7687
568.50 0.7684
568.60 0.7681
568.70 0.7678
568.80 0.7675
568.90 0.7672
569.00 0.7669
569.10 0.7666
569.20 0.7663
569.30 0.766
569.40 0.7657
569.50 0.7654
569.60 0.7651
569.70 0.7648
569.80 0.7645
569.90 0.7642
570.00 0.7639
570.10 0.7636
570.20 0.7633
570.30 0.763
570.40 0.7627
570.50 0.7624
570.60 0.7621
570.70 0.7618
570.80 0.7615
570.90 0.7612
571.00 0.7609
571.10 0.7606
571.20 0.7603
571.30 0.76
571.40 0.7597
571.50 0.7594
571.60 0.7591
571.70 0.7588
571.80 0.7585
571.90 0.7582
572.00 0.7579
572.10 0.7576
572.20 0.7573
572.30 0.757
572.40 0.7567
572.50 0.7564
572.60 0.7562
572.70 0.7559
572.80 0.7556
572.90 0.7553
573.00 0.755
573.10 0.7547
573.20 0.7544
573.30 0.7541
573.40 0.7538
573.50 0.7535
573.60 0.7532
573.70 0.7529
573.80 0.7526
573.90 0.7523
574.00 0.752
574.10 0.7517
574.20 0.7515
574.30 0.7512
574.40 0.7509
574.50 0.7506
574.60 0.7503
574.70 0.75
574.80 0.7497
574.90 0.7494
575.00 0.7491
575.10 0.7488
575.20 0.7485
575.30 0.7482
575.40 0.748
575.50 0.7477
575.60 0.7474
575.70 0.7471
575.80 0.7468
575.90 0.7465
576.00 0.7462
576.10 0.7459
576.20 0.7456
576.30 0.7453
576.40 0.745
576.50 0.7447
576.60 0.7445
576.70 0.7442
576.80 0.7439
576.90 0.7436
577.00 0.7433
577.10 0.743
577.20 0.7427
577.30 0.7424
577.40 0.7421
577.50 0.7419
577.60 0.7416
577.70 0.7413
577.80 0.741
577.90 0.7407
578.00 0.7404
578.10 0.7401
578.20 0.7398
578.30 0.7395
578.40 0.7393
578.50 0.739
578.60 0.7387
578.70 0.7384
578.80 0.7381
578.90 0.7378
579.00 0.7375
579.10 0.7372
579.20 0.737
579.30 0.7367
579.40 0.7364
579.50 0.7361
579.60 0.7358
579.70 0.7355
579.80 0.7352
579.90 0.735
580.00 0.7347
580.10 0.7344
580.20 0.7341
580.30 0.7338
580.40 0.7335
580.50 0.7332
580.60 0.733
580.70 0.7327
580.80 0.7324
580.90 0.7321
581.00 0.7318
581.10 0.7315
581.20 0.7313
581.30 0.731
581.40 0.7307
581.50 0.7304
581.60 0.7301
581.70 0.7298
581.80 0.7295
581.90 0.7293
582.00 0.729
582.10 0.7287
582.20 0.7284
582.30 0.7281
582.40 0.7278
582.50 0.7276
582.60 0.7273
582.70 0.727
582.80 0.7267
582.90 0.7264
583.00 0.7261
583.10 0.7259
583.20 0.7256
583.30 0.7253
583.40 0.725
583.50 0.7247
583.60 0.7245
583.70 0.7242
583.80 0.7239
583.90 0.7236
584.00 0.7233
584.10 0.723
584.20 0.7228
584.30 0.7225
584.40 0.7222
584.50 0.7219
584.60 0.7216
584.70 0.7214
584.80 0.7211
584.90 0.7208
585.00 0.7205
585.10 0.7203
585.20 0.72
585.30 0.7197
585.40 0.7194
585.50 0.7191
585.60 0.7189
585.70 0.7186
585.80 0.7183
585.90 0.718
586.00 0.7177
586.10 0.7175
586.20 0.7172
586.30 0.7169
586.40 0.7166
586.50 0.7163
586.60 0.7161
586.70 0.7158
586.80 0.7155
586.90 0.7152
587.00 0.715
587.10 0.7147
587.20 0.7144
587.30 0.7141
587.40 0.7138
587.50 0.7136
587.60 0.7133
587.70 0.713
587.80 0.7127
587.90 0.7125
588.00 0.7122
588.10 0.7119
588.20 0.7116
588.30 0.7114
588.40 0.7111
588.50 0.7108
588.60 0.7105
588.70 0.7103
588.80 0.71
588.90 0.7097
589.00 0.7094
589.10 0.7092
589.20 0.7089
589.30 0.7086
589.40 0.7083
589.50 0.7081
589.60 0.7078
589.70 0.7075
589.80 0.7072
589.90 0.707
590.00 0.7067
590.10 0.7064
590.20 0.7061
590.30 0.7059
590.40 0.7056
590.50 0.7053
590.60 0.705
590.70 0.7048
590.80 0.7045
590.90 0.7042
591.00 0.704
591.10 0.7037
591.20 0.7034
591.30 0.7031
591.40 0.7029
591.50 0.7026
591.60 0.7023
591.70 0.702
591.80 0.7018
591.90 0.7015
592.00 0.7012
592.10 0.701
592.20 0.7007
592.30 0.7004
592.40 0.7001
592.50 0.6999
592.60 0.6996
592.70 0.6993
592.80 0.6991
592.90 0.6988
593.00 0.6985
593.10 0.6983
593.20 0.698
593.30 0.6977
593.40 0.6974
593.50 0.6972
593.60 0.6969
593.70 0.6966
593.80 0.6964
593.90 0.6961
594.00 0.6958
594.10 0.6956
594.20 0.6953
594.30 0.695
594.40 0.6948
594.50 0.6945
594.60 0.6942
594.70 0.6939
594.80 0.6937
594.90 0.6934
595.00 0.6931
595.10 0.6929
595.20 0.6926
595.30 0.6923
595.40 0.6921
595.50 0.6918
595.60 0.6915
595.70 0.6913
595.80 0.691
595.90 0.6907
596.00 0.6905
596.10 0.6902
596.20 0.6899
596.30 0.6896
596.40 0.6893
596.50 0.689
596.60 0.6888
596.70 0.6885
596.80 0.6882
596.90 0.6879
597.00 0.6876
597.10 0.6873
597.20 0.687
597.30 0.6868
597.40 0.6865
597.50 0.6862
597.60 0.686
597.70 0.6857
597.80 0.6854
597.90 0.6852
598.00 0.6849
598.10 0.6846
598.20 0.6844
598.30 0.6841
598.40 0.6838
598.50 0.6836
598.60 0.6833
598.70 0.683
598.80 0.6828
598.90 0.6825
599.00 0.6822
599.10 0.682
599.20 0.6817
599.30 0.6815
599.40 0.6812
599.50 0.6809
599.60 0.6807
599.70 0.6804
599.80 0.6802
599.90 0.6799
600.00 0.6796
600.10 0.6794
600.20 0.6791
600.30 0.6788
600.40 0.6786
600.50 0.6783
600.60 0.6781
600.70 0.6778
600.80 0.6775
600.90 0.6773
601.00 0.677
601.10 0.6767
601.20 0.6765
601.30 0.6762
601.40 0.676
601.50 0.6757
601.60 0.6754
601.70 0.6752
601.80 0.6749
601.90 0.6746
602.00 0.6744
602.10 0.6741
602.20 0.6739
602.30 0.6736
602.40 0.6733
602.50 0.6731
602.60 0.6728
602.70 0.6726
602.80 0.6723
602.90 0.672
603.00 0.6718
603.10 0.6715
603.20 0.6713
603.30 0.671
603.40 0.6707
603.50 0.6705
603.60 0.6702
603.70 0.67
603.80 0.6697
603.90 0.6694
604.00 0.6692
604.10 0.6689
604.20 0.6687
604.30 0.6684
604.40 0.6682
604.50 0.6679
604.60 0.6676
604.70 0.6674
604.80 0.6671
604.90 0.6669
605.00 0.6666
605.10 0.6663
605.20 0.6661
605.30 0.6658
605.40 0.6656
605.50 0.6653
605.60 0.6651
605.70 0.6648
605.80 0.6645
605.90 0.6643
606.00 0.664
606.10 0.6638
606.20 0.6635
606.30 0.6633
606.40 0.663
606.50 0.6627
606.60 0.6625
606.70 0.6622
606.80 0.662
606.90 0.6617
607.00 0.6615
607.10 0.6612
607.20 0.6609
607.30 0.6607
607.40 0.6604
607.50 0.6602
607.60 0.6599
607.70 0.6597
607.80 0.6594
607.90 0.6592
608.00 0.6589
608.10 0.6586
608.20 0.6584
608.30 0.6581
608.40 0.6579
608.50 0.6576
608.60 0.6574
608.70 0.6571
608.80 0.6569
608.90 0.6566
609.00 0.6564
609.10 0.6561
609.20 0.6559
609.30 0.6556
609.40 0.6554
609.50 0.6551
609.60 0.6548
609.70 0.6546
609.80 0.6543
609.90 0.6541
610.00 0.6538
610.10 0.6536
610.20 0.6533
610.30 0.6531
610.40 0.6528
610.50 0.6526
610.60 0.6523
610.70 0.6521
610.80 0.6518
610.90 0.6516
611.00 0.6513
611.10 0.6511
611.20 0.6508
611.30 0.6506
611.40 0.6503
611.50 0.6501
611.60 0.6498
611.70 0.6496
611.80 0.6493
611.90 0.6491
612.00 0.6488
612.10 0.6486
612.20 0.6483
612.30 0.6481
612.40 0.6478
612.50 0.6476
612.60 0.6473
612.70 0.6471
612.80 0.6468
612.90 0.6465
613.00 0.6463
613.10 0.646
613.20 0.6458
613.30 0.6455
613.40 0.6453
613.50 0.6451
613.60 0.6448
613.70 0.6446
613.80 0.6443
613.90 0.6441
614.00 0.6438
614.10 0.6436
614.20 0.6433
614.30 0.6431
614.40 0.6428
614.50 0.6426
614.60 0.6423
614.70 0.6421
614.80 0.6418
614.90 0.6416
615.00 0.6413
615.10 0.6411
615.20 0.6408
615.30 0.6406
615.40 0.6403
615.50 0.6401
615.60 0.6398
615.70 0.6396
615.80 0.6393
615.90 0.6391
616.00 0.6388
616.10 0.6386
616.20 0.6383
616.30 0.6381
616.40 0.6378
616.50 0.6376
616.60 0.6373
616.70 0.6371
616.80 0.6369
616.90 0.6366
617.00 0.6364
617.10 0.6361
617.20 0.6359
617.30 0.6356
617.40 0.6354
617.50 0.6351
617.60 0.6349
617.70 0.6346
617.80 0.6344
617.90 0.6341
618.00 0.6339
618.10 0.6336
618.20 0.6334
618.30 0.6332
618.40 0.6329
618.50 0.6327
618.60 0.6324
618.70 0.6322
618.80 0.6319
618.90 0.6317
619.00 0.6314
619.10 0.6312
619.20 0.631
619.30 0.6307
619.40 0.6305
619.50 0.6302
619.60 0.63
619.70 0.6297
619.80 0.6295
619.90 0.6292
620.00 0.629
620.10 0.6288
620.20 0.6285
620.30 0.6283
620.40 0.628
620.50 0.6278
620.60 0.6275
620.70 0.6273
620.80 0.627
620.90 0.6268
621.00 0.6266
621.10 0.6263
621.20 0.6261
621.30 0.6258
621.40 0.6256
621.50 0.6253
621.60 0.6251
621.70 0.6249
621.80 0.6246
621.90 0.6244
622.00 0.6241
622.10 0.6239
622.20 0.6236
622.30 0.6234
622.40 0.6232
622.50 0.6229
622.60 0.6227
622.70 0.6224
622.80 0.6222
622.90 0.6219
623.00 0.6217
623.10 0.6215
623.20 0.6212
623.30 0.621
623.40 0.6207
623.50 0.6205
623.60 0.6202
623.70 0.62
623.80 0.6198
623.90 0.6195
624.00 0.6193
624.10 0.619
624.20 0.6188
624.30 0.6185
624.40 0.6183
624.50 0.6181
624.60 0.6178
624.70 0.6176
624.80 0.6173
624.90 0.6171
625.00 0.6169
625.10 0.6166
625.20 0.6164
625.30 0.6161
625.40 0.6159
625.50 0.6156
625.60 0.6154
625.70 0.6152
625.80 0.6149
625.90 0.6147
626.00 0.6144
626.10 0.6142
626.20 0.6139
626.30 0.6137
626.40 0.6135
626.50 0.6132
626.60 0.613
626.70 0.6128
626.80 0.6125
626.90 0.6123
627.00 0.612
627.10 0.6118
627.20 0.6116
627.30 0.6113
627.40 0.6111
627.50 0.6108
627.60 0.6106
627.70 0.6103
627.80 0.6101
627.90 0.6099
628.00 0.6096
628.10 0.6094
628.20 0.6091
628.30 0.6089
628.40 0.6087
628.50 0.6084
628.60 0.6082
628.70 0.6079
628.80 0.6077
628.90 0.6075
629.00 0.6072
629.10 0.607
629.20 0.6067
629.30 0.6065
629.40 0.6062
629.50 0.606
629.60 0.6058
629.70 0.6055
629.80 0.6053
629.90 0.605
630.00 0.6048
630.10 0.6046
630.20 0.6043
630.30 0.6041
630.40 0.6038
630.50 0.6036
630.60 0.6034
630.70 0.6031
630.80 0.6029
630.90 0.6026
631.00 0.6024
631.10 0.6022
631.20 0.6019
631.30 0.6017
631.40 0.6014
631.50 0.6012
631.60 0.6009
631.70 0.6007
631.80 0.6005
631.90 0.6002
632.00 0.6
632.10 0.5997
632.20 0.5995
632.30 0.5992
632.40 0.599
632.50 0.5988
632.60 0.5985
632.70 0.5983
632.80 0.598
632.90 0.5978
633.00 0.5975
633.10 0.5973
633.20 0.5971
633.30 0.5968
633.40 0.5966
633.50 0.5963
633.60 0.5961
633.70 0.5958
633.80 0.5956
633.90 0.5953
634.00 0.5951
634.10 0.5949
634.20 0.5946
634.30 0.5944
634.40 0.5941
634.50 0.5939
634.60 0.5936
634.70 0.5934
634.80 0.5931
634.90 0.5929
635.00 0.5927
635.10 0.5924
635.20 0.5922
635.30 0.5919
635.40 0.5917
635.50 0.5914
635.60 0.5912
635.70 0.5909
635.80 0.5907
635.90 0.5904
636.00 0.5902
636.10 0.5899
636.20 0.5897
636.30 0.5894
636.40 0.5892
636.50 0.5889
636.60 0.5887
636.70 0.5884
636.80 0.5882
636.90 0.5879
637.00 0.5877
637.10 0.5874
637.20 0.5872
637.30 0.5869
637.40 0.5867
637.50 0.5864
637.60 0.5861
637.70 0.5859
637.80 0.5856
637.90 0.5854
638.00 0.5851
638.10 0.5849
638.20 0.5846
638.30 0.5843
638.40 0.5841
638.50 0.5838
638.60 0.5836
638.70 0.5833
638.80 0.583
638.90 0.5828
639.00 0.5825
639.10 0.5823
639.20 0.582
639.30 0.5817
639.40 0.5815
639.50 0.5812
639.60 0.5809
639.70 0.5807
639.80 0.5804
639.90 0.5801
640.00 0.5799
640.10 0.5796
640.20 0.5793
640.30 0.5791
640.40 0.5788
640.50 0.5785
640.60 0.5782
640.70 0.578
640.80 0.5777
640.90 0.5774
641.00 0.5771
641.10 0.5769
641.20 0.5766
641.30 0.5763
641.40 0.576
641.50 0.5757
641.60 0.5755
641.70 0.5752
641.80 0.5749
641.90 0.5746
642.00 0.5743
642.10 0.574
642.20 0.5737
642.30 0.5734
642.40 0.5731
642.50 0.5728
642.60 0.5725
642.70 0.5722
642.80 0.5719
642.90 0.5716
643.00 0.5713
643.10 0.571
643.20 0.5707
643.30 0.5704
643.40 0.5701
643.50 0.5697
643.60 0.5694
643.70 0.5691
643.80 0.5688
643.90 0.5684
644.00 0.5681
644.10 0.5678
644.20 0.5674
644.30 0.5671
644.40 0.5667
644.50 0.5663
644.60 0.566
644.70 0.5656
644.80 0.5652
644.90 0.5648
645.00 0.5645
645.10 0.5641
645.20 0.5637
645.30 0.5633
645.40 0.5628
645.50 0.5623
645.60 0.5618
645.70 0.5613
645.80 0.5608
645.90 0.5603
646.00 0.5598
646.10 0.5593
646.20 0.5588
646.30 0.5583
646.40 0.5576
646.50 0.5569
646.60 0.5562
646.70 0.5556
646.80 0.5549
646.90 0.5542
647.00 0.5535
647.10 0.5528
647.20 0.5522
647.30 0.5515
647.40 0.5507
647.50 0.55
647.60 0.5492
647.70 0.5485
647.80 0.5477
647.90 0.547
648.00 0.5462
648.10 0.5455
648.20 0.5447
648.30 0.544
648.40 0.5431
648.50 0.5423
648.60 0.5414
648.70 0.5406
648.80 0.5398
648.90 0.5389
649.00 0.5381
649.10 0.5373
649.20 0.5364
649.30 0.5356
649.40 0.5346
649.50 0.5336
649.60 0.5326
649.70 0.5316
649.80 0.5306
649.90 0.5297
650.00 0.5287
650.10 0.5277
650.20 0.5267
650.30 0.5257
650.40 0.5244
650.50 0.5231
650.60 0.5218
650.70 0.5205
650.80 0.5192
650.90 0.5179
651.00 0.5167
651.10 0.5154
651.20 0.5141
651.30 0.5127
651.40 0.5111
651.50 0.5094
651.60 0.5078
651.70 0.5061
651.80 0.5044
651.90 0.5028
652.00 0.5011
652.10 0.4995
652.20 0.4978
652.30 0.496
652.40 0.4937
652.50 0.4913
652.60 0.489
652.70 0.4867
652.80 0.4843
652.90 0.482
653.00 0.4797
653.10 0.4773
653.20 0.475
653.30 0.4724
653.40 0.4687
653.50 0.465
653.60 0.4613
653.70 0.4576
653.80 0.4539
653.90 0.4502
654.00 0.4465
654.10 0.4428
654.20 0.4391
654.30 0.4351
654.40 0.4297
654.50 0.4242
654.60 0.4188
654.70 0.4134
654.80 0.4076
654.90 0.4004
655.00 0.3933
655.10 0.3861
655.20 0.3789
655.30 0.3716
655.40 0.3632
655.50 0.3548
655.60 0.3461
655.70 0.3374
655.80 0.3284
655.90 0.3191
656.00 0.3088
656.10 0.2982
656.20 0.2818
656.30 0.2663
656.40 0.2896
656.50 0.302
656.60 0.3121
656.70 0.322
656.80 0.3308
656.90 0.3396
657.00 0.348
657.10 0.3563
657.20 0.3644
657.30 0.3722
657.40 0.3791
657.50 0.386
657.60 0.3928
657.70 0.3997
657.80 0.4062
657.90 0.4113
658.00 0.4163
658.10 0.4214
658.20 0.4265
658.30 0.4312
658.40 0.4345
658.50 0.4379
658.60 0.4412
658.70 0.4445
658.80 0.4478
658.90 0.4511
659.00 0.4545
659.10 0.4578
659.20 0.4611
659.30 0.4641
659.40 0.4661
659.50 0.468
659.60 0.4699
659.70 0.4719
659.80 0.4738
659.90 0.4757
660.00 0.4777
660.10 0.4796
660.20 0.4815
660.30 0.4833
660.40 0.4845
660.50 0.4858
660.60 0.487
660.70 0.4883
660.80 0.4895
660.90 0.4908
661.00 0.492
661.10 0.4932
661.20 0.4945
661.30 0.4956
661.40 0.4965
661.50 0.4974
661.60 0.4982
661.70 0.4991
661.80 0.4999
661.90 0.5008
662.00 0.5017
662.10 0.5025
662.20 0.5034
662.30 0.5042
662.40 0.5047
662.50 0.5053
662.60 0.5058
662.70 0.5064
662.80 0.5069
662.90 0.5075
663.00 0.5081
663.10 0.5086
663.20 0.5092
663.30 0.5097
663.40 0.5101
663.50 0.5105
663.60 0.5109
663.70 0.5113
663.80 0.5117
663.90 0.5121
664.00 0.5125
664.10 0.5129
664.20 0.5133
664.30 0.5137
664.40 0.514
664.50 0.5143
664.60 0.5146
664.70 0.5149
664.80 0.5152
664.90 0.5155
665.00 0.5158
665.10 0.5161
665.20 0.5164
665.30 0.5167
665.40 0.517
665.50 0.5172
665.60 0.5174
665.70 0.5177
665.80 0.5179
665.90 0.5181
666.00 0.5183
666.10 0.5186
666.20 0.5188
666.30 0.519
666.40 0.5191
666.50 0.5191
666.60 0.5192
666.70 0.5192
666.80 0.5193
666.90 0.5194
667.00 0.5194
667.10 0.5195
667.20 0.5195
667.30 0.5196
667.40 0.5195
667.50 0.5195
667.60 0.5194
667.70 0.5194
667.80 0.5193
667.90 0.5193
668.00 0.5192
668.10 0.5192
668.20 0.5191
668.30 0.5191
668.40 0.519
668.50 0.5189
668.60 0.5188
668.70 0.5187
668.80 0.5186
668.90 0.5185
669.00 0.5184
669.10 0.5183
669.20 0.5183
669.30 0.5182
669.40 0.518
669.50 0.5179
669.60 0.5178
669.70 0.5177
669.80 0.5176
669.90 0.5174
670.00 0.5173
670.10 0.5172
670.20 0.5171
670.30 0.517
670.40 0.5168
670.50 0.5167
670.60 0.5166
670.70 0.5164
670.80 0.5163
670.90 0.5162
671.00 0.516
671.10 0.5159
671.20 0.5158
671.30 0.5157
671.40 0.5155
671.50 0.5154
671.60 0.5152
671.70 0.5151
671.80 0.5149
671.90 0.5148
672.00 0.5147
672.10 0.5145
672.20 0.5144
672.30 0.5142
672.40 0.5141
672.50 0.5139
672.60 0.5138
672.70 0.5136
672.80 0.5135
672.90 0.5133
673.00 0.5132
673.10 0.513
673.20 0.5129
673.30 0.5127
673.40 0.5126
673.50 0.5124
673.60 0.5122
673.70 0.5121
673.80 0.5119
673.90 0.5118
674.00 0.5116
674.10 0.5115
674.20 0.5113
674.30 0.5111
674.40 0.511
674.50 0.5108
674.60 0.5107
674.70 0.5105
674.80 0.5103
674.90 0.5102
675.00 0.51
675.10 0.5098
675.20 0.5097
675.30 0.5095
675.40 0.5094
675.50 0.5092
675.60 0.509
675.70 0.5089
675.80 0.5087
675.90 0.5085
676.00 0.5084
676.10 0.5082
676.20 0.508
676.30 0.5079
676.40 0.5077
676.50 0.5075
676.60 0.5074
676.70 0.5072
676.80 0.507
676.90 0.5069
677.00 0.5067
677.10 0.5065
677.20 0.5064
677.30 0.5062
677.40 0.506
677.50 0.5059
677.60 0.5057
677.70 0.5055
677.80 0.5053
677.90 0.5052
678.00 0.505
678.10 0.5048
678.20 0.5047
678.30 0.5045
678.40 0.5043
678.50 0.5042
678.60 0.504
678.70 0.5038
678.80 0.5036
678.90 0.5035
679.00 0.5033
679.10 0.5031
679.20 0.503
679.30 0.5028
679.40 0.5026
679.50 0.5024
679.60 0.5023
679.70 0.5021
679.80 0.5019
679.90 0.5017
680.00 0.5016
680.10 0.5014
680.20 0.5012
680.30 0.5011
680.40 0.5009
680.50 0.5007
680.60 0.5005
680.70 0.5003
680.80 0.5002
680.90 0.5
681.00 0.4998
681.10 0.4996
681.20 0.4995
681.30 0.4993
681.40 0.4991
681.50 0.4989
681.60 0.4988
681.70 0.4986
681.80 0.4984
681.90 0.4983
682.00 0.4981
682.10 0.4979
682.20 0.4977
682.30 0.4976
682.40 0.4974
682.50 0.4972
682.60 0.497
682.70 0.4969
682.80 0.4967
682.90 0.4965
683.00 0.4963
683.10 0.4962
683.20 0.496
683.30 0.4958
683.40 0.4956
683.50 0.4955
683.60 0.4953
683.70 0.4951
683.80 0.4949
683.90 0.4948
684.00 0.4946
684.10 0.4944
684.20 0.4942
684.30 0.4941
684.40 0.4939
684.50 0.4937
684.60 0.4935
684.70 0.4934
684.80 0.4932
684.90 0.493
685.00 0.4928
685.10 0.4927
685.20 0.4925
685.30 0.4923
685.40 0.4921
685.50 0.492
685.60 0.4918
685.70 0.4916
685.80 0.4914
685.90 0.4913
686.00 0.4911
686.10 0.4909
686.20 0.4907
686.30 0.4906
686.40 0.4904
686.50 0.4902
686.60 0.49
686.70 0.4899
686.80 0.4897
686.90 0.4895
687.00 0.4893
687.10 0.4892
687.20 0.489
687.30 0.4888
687.40 0.4886
687.50 0.4885
687.60 0.4883
687.70 0.4881
687.80 0.4879
687.90 0.4878
688.00 0.4876
688.10 0.4874
688.20 0.4872
688.30 0.4871
688.40 0.4869
688.50 0.4867
688.60 0.4865
688.70 0.4864
688.80 0.4862
688.90 0.486
689.00 0.4858
689.10 0.4857
689.20 0.4855
689.30 0.4853
689.40 0.4851
689.50 0.485
689.60 0.4848
689.70 0.4846
689.80 0.4844
689.90 0.4843
690.00 0.4841
690.10 0.4839
690.20 0.4837
690.30 0.4836
690.40 0.4834
690.50 0.4832
690.60 0.483
690.70 0.4829
690.80 0.4827
690.90 0.4825
691.00 0.4823
691.10 0.4822
691.20 0.482
691.30 0.4818
691.40 0.4816
691.50 0.4815
691.60 0.4813
691.70 0.4811
691.80 0.4809
691.90 0.4808
692.00 0.4806
692.10 0.4804
692.20 0.4803
692.30 0.4801
692.40 0.4799
692.50 0.4797
692.60 0.4796
692.70 0.4794
692.80 0.4792
692.90 0.479
693.00 0.4789
693.10 0.4787
693.20 0.4785
693.30 0.4783
693.40 0.4782
693.50 0.478
693.60 0.4778
693.70 0.4777
693.80 0.4775
693.90 0.4773
694.00 0.4771
694.10 0.477
694.20 0.4768
694.30 0.4766
694.40 0.4765
694.50 0.4763
694.60 0.4761
694.70 0.4759
694.80 0.4758
694.90 0.4756
695.00 0.4754
695.10 0.4753
695.20 0.4751
695.30 0.4749
695.40 0.4747
695.50 0.4746
695.60 0.4744
695.70 0.4742
695.80 0.4741
695.90 0.4739
696.00 0.4737
696.10 0.4735
696.20 0.4734
696.30 0.4732
696.40 0.473
696.50 0.4729
696.60 0.4727
696.70 0.4725
696.80 0.4724
696.90 0.4722
697.00 0.472
697.10 0.4718
697.20 0.4717
697.30 0.4715
697.40 0.4713
697.50 0.4712
697.60 0.471
697.70 0.4708
697.80 0.4707
697.90 0.4705
698.00 0.4703
698.10 0.4702
698.20 0.47
698.30 0.4698
698.40 0.4696
698.50 0.4695
698.60 0.4693
698.70 0.4691
698.80 0.469
698.90 0.4688
699.00 0.4686
699.10 0.4685
699.20 0.4683
699.30 0.4681
699.40 0.468
699.50 0.4678
699.60 0.4676
699.70 0.4675
699.80 0.4673
699.90 0.4671
700.00 0.467
700.10 0.4668
700.20 0.4667
700.30 0.4665
700.40 0.4663
700.50 0.4662
700.60 0.466
700.70 0.4659
700.80 0.4657
700.90 0.4656
701.00 0.4654
701.10 0.4653
701.20 0.4651
701.30 0.465
701.40 0.4648
701.50 0.4647
701.60 0.4645
701.70 0.4644
701.80 0.4642
701.90 0.4641
702.00 0.4639
702.10 0.4638
702.20 0.4636
702.30 0.4635
702.40 0.4633
702.50 0.4632
702.60 0.463
702.70 0.4629
702.80 0.4627
702.90 0.4626
703.00 0.4624
703.10 0.4623
703.20 0.4621
703.30 0.462
703.40 0.4618
703.50 0.4617
703.60 0.4615
703.70 0.4614
703.80 0.4612
703.90 0.4611
704.00 0.4609
704.10 0.4608
704.20 0.4606
704.30 0.4605
704.40 0.4603
704.50 0.4602
704.60 0.46
704.70 0.4599
704.80 0.4597
704.90 0.4596
705.00 0.4594
705.10 0.4593
705.20 0.4591
705.30 0.459
705.40 0.4588
705.50 0.4586
705.60 0.4585
705.70 0.4583
705.80 0.4581
705.90 0.458
706.00 0.4578
706.10 0.4576
706.20 0.4575
706.30 0.4573
706.40 0.4571
706.50 0.457
706.60 0.4568
706.70 0.4566
706.80 0.4565
706.90 0.4563
707.00 0.4561
707.10 0.456
707.20 0.4558
707.30 0.4557
707.40 0.4555
707.50 0.4553
707.60 0.4552
707.70 0.455
707.80 0.4548
707.90 0.4547
708.00 0.4545
708.10 0.4543
708.20 0.4542
708.30 0.454
708.40 0.4538
708.50 0.4537
708.60 0.4535
708.70 0.4534
708.80 0.4532
708.90 0.453
709.00 0.4529
709.10 0.4527
709.20 0.4525
709.30 0.4524
709.40 0.4522
709.50 0.4521
709.60 0.4519
709.70 0.4517
709.80 0.4516
709.90 0.4514
710.00 0.4512
710.10 0.4511
710.20 0.4509
710.30 0.4508
710.40 0.4506
710.50 0.4504
710.60 0.4503
710.70 0.4501
710.80 0.4499
710.90 0.4498
711.00 0.4496
711.10 0.4495
711.20 0.4493
711.30 0.4491
711.40 0.449
711.50 0.4488
711.60 0.4486
711.70 0.4485
711.80 0.4483
711.90 0.4482
712.00 0.448
712.10 0.4478
712.20 0.4477
712.30 0.4475
712.40 0.4474
712.50 0.4472
712.60 0.447
712.70 0.4469
712.80 0.4467
712.90 0.4466
713.00 0.4464
713.10 0.4462
713.20 0.4461
713.30 0.4459
713.40 0.4457
713.50 0.4456
713.60 0.4454
713.70 0.4453
713.80 0.4451
713.90 0.4449
714.00 0.4448
714.10 0.4446
714.20 0.4445
714.30 0.4443
714.40 0.4441
714.50 0.444
714.60 0.4438
714.70 0.4437
714.80 0.4435
714.90 0.4434
715.00 0.4432
715.10 0.443
715.20 0.4429
715.30 0.4427
715.40 0.4426
715.50 0.4424
715.60 0.4422
715.70 0.4421
715.80 0.4419
715.90 0.4418
716.00 0.4416
716.10 0.4415
716.20 0.4413
716.30 0.4411
716.40 0.441
716.50 0.4408
716.60 0.4407
716.70 0.4405
716.80 0.4404
716.90 0.4402
717.00 0.44
717.10 0.4399
717.20 0.4397
717.30 0.4396
717.40 0.4394
717.50 0.4393
717.60 0.4391
717.70 0.439
717.80 0.4388
717.90 0.4386
718.00 0.4385
718.10 0.4383
718.20 0.4382
718.30 0.438
718.40 0.4379
718.50 0.4377
718.60 0.4375
718.70 0.4374
718.80 0.4372
718.90 0.4371
719.00 0.4369
719.10 0.4368
719.20 0.4366
719.30 0.4365
719.40 0.4363
719.50 0.4362
719.60 0.436
719.70 0.4358
719.80 0.4357
719.90 0.4355
720.00 0.4354
720.10 0.4352
720.20 0.4351
720.30 0.4349
720.40 0.4348
720.50 0.4346
720.60 0.4344
720.70 0.4343
720.80 0.4341
720.90 0.434
721.00 0.4338
721.10 0.4337
721.20 0.4335
721.30 0.4333
721.40 0.4332
721.50 0.433
721.60 0.4329
721.70 0.4327
721.80 0.4326
721.90 0.4324
722.00 0.4323
722.10 0.4321
722.20 0.432
722.30 0.4318
722.40 0.4316
722.50 0.4315
722.60 0.4313
722.70 0.4312
722.80 0.431
722.90 0.4309
723.00 0.4307
723.10 0.4306
723.20 0.4304
723.30 0.4302
723.40 0.4301
723.50 0.4299
723.60 0.4298
723.70 0.4296
723.80 0.4295
723.90 0.4293
724.00 0.4292
724.10 0.429
724.20 0.4289
724.30 0.4287
724.40 0.4286
724.50 0.4284
724.60 0.4282
724.70 0.4281
724.80 0.4279
724.90 0.4278
725.00 0.4276
725.10 0.4275
725.20 0.4273
725.30 0.4272
725.40 0.427
725.50 0.4269
725.60 0.4267
725.70 0.4266
725.80 0.4264
725.90 0.4263
726.00 0.4261
726.10 0.426
726.20 0.4258
726.30 0.4257
726.40 0.4255
726.50 0.4253
726.60 0.4252
726.70 0.425
726.80 0.4249
726.90 0.4247
727.00 0.4246
727.10 0.4244
727.20 0.4243
727.30 0.4241
727.40 0.424
727.50 0.4238
727.60 0.4237
727.70 0.4235
727.80 0.4234
727.90 0.4232
728.00 0.4231
728.10 0.4229
728.20 0.4228
728.30 0.4226
728.40 0.4225
728.50 0.4223
728.60 0.4222
728.70 0.422
728.80 0.4219
728.90 0.4217
729.00 0.4216
729.10 0.4214
729.20 0.4213
729.30 0.4211
729.40 0.421
729.50 0.4208
729.60 0.4207
729.70 0.4205
729.80 0.4204
729.90 0.4202
730.00 0.4201
730.10 0.4199
730.20 0.4198
730.30 0.4196
730.40 0.4195
730.50 0.4193
730.60 0.4192
730.70 0.419
730.80 0.4189
730.90 0.4187
731.00 0.4186
731.10 0.4184
731.20 0.4183
731.30 0.4181
731.40 0.418
731.50 0.4178
731.60 0.4177
731.70 0.4175
731.80 0.4174
731.90 0.4172
732.00 0.4171
732.10 0.4169
732.20 0.4168
732.30 0.4166
732.40 0.4165
732.50 0.4163
732.60 0.4162
732.70 0.416
732.80 0.4159
732.90 0.4157
733.00 0.4156
733.10 0.4154
733.20 0.4153
733.30 0.4152
733.40 0.415
733.50 0.4149
733.60 0.4147
733.70 0.4146
733.80 0.4144
733.90 0.4143
734.00 0.4141
734.10 0.414
734.20 0.4138
734.30 0.4137
734.40 0.4135
734.50 0.4134
734.60 0.4132
734.70 0.4131
734.80 0.4129
734.90 0.4128
735.00 0.4126
735.10 0.4125
735.20 0.4124
735.30 0.4122
735.40 0.4121
735.50 0.4119
735.60 0.4118
735.70 0.4116
735.80 0.4115
735.90 0.4113
736.00 0.4112
736.10 0.411
736.20 0.4109
736.30 0.4107
736.40 0.4106
736.50 0.4105
736.60 0.4103
736.70 0.4102
736.80 0.41
736.90 0.4099
737.00 0.4097
737.10 0.4096
737.20 0.4094
737.30 0.4093
737.40 0.4091
737.50 0.409
737.60 0.4089
737.70 0.4087
737.80 0.4086
737.90 0.4084
738.00 0.4083
738.10 0.4081
738.20 0.408
738.30 0.4078
738.40 0.4077
738.50 0.4076
738.60 0.4074
738.70 0.4073
738.80 0.4071
738.90 0.407
739.00 0.4068
739.10 0.4067
739.20 0.4065
739.30 0.4064
739.40 0.4063
739.50 0.4061
739.60 0.406
739.70 0.4058
739.80 0.4057
739.90 0.4055
740.00 0.4054
740.10 0.4053
740.20 0.4051
740.30 0.405
740.40 0.4048
740.50 0.4047
740.60 0.4045
740.70 0.4044
740.80 0.4042
740.90 0.4041
741.00 0.404
741.10 0.4038
741.20 0.4037
741.30 0.4035
741.40 0.4034
741.50 0.4032
741.60 0.4031
741.70 0.403
741.80 0.4028
741.90 0.4027
742.00 0.4025
742.10 0.4024
742.20 0.4022
742.30 0.4021
742.40 0.402
742.50 0.4018
742.60 0.4017
742.70 0.4015
742.80 0.4014
742.90 0.4013
743.00 0.4011
743.10 0.401
743.20 0.4008
743.30 0.4007
743.40 0.4005
743.50 0.4004
743.60 0.4003
743.70 0.4001
743.80 0.4
743.90 0.3998
744.00 0.3997
744.10 0.3996
744.20 0.3994
744.30 0.3993
744.40 0.3991
744.50 0.399
744.60 0.3988
744.70 0.3987
744.80 0.3986
744.90 0.3984
745.00 0.3983
745.10 0.3981
745.20 0.398
745.30 0.3979
745.40 0.3977
745.50 0.3976
745.60 0.3974
745.70 0.3973
745.80 0.3972
745.90 0.397
746.00 0.3969
746.10 0.3967
746.20 0.3966
746.30 0.3965
746.40 0.3963
746.50 0.3962
746.60 0.396
746.70 0.3959
746.80 0.3958
746.90 0.3956
747.00 0.3955
747.10 0.3953
747.20 0.3952
747.30 0.3951
747.40 0.3949
747.50 0.3948
747.60 0.3946
747.70 0.3945
747.80 0.3944
747.90 0.3942
748.00 0.3941
748.10 0.394
748.20 0.3938
748.30 0.3937
748.40 0.3935
748.50 0.3934
748.60 0.3933
748.70 0.3931
748.80 0.393
748.90 0.3928
749.00 0.3927
749.10 0.3926
749.20 0.3924
749.30 0.3923
749.40 0.3922
749.50 0.392
749.60 0.3919
749.70 0.3917
749.80 0.3916
749.90 0.3915
750.00 0.3913
750.10 0.3912
750.20 0.3911
750.30 0.3909
750.40 0.3908
750.50 0.3906
750.60 0.3905
750.70 0.3904
750.80 0.3902
750.90 0.3901
751.00 0.39
751.10 0.3898
751.20 0.3897
751.30 0.3895
751.40 0.3894
751.50 0.3893
751.60 0.3891
751.70 0.389
751.80 0.3889
751.90 0.3887
752.00 0.3886
752.10 0.3884
752.20 0.3883
752.30 0.3882
752.40 0.388
752.50 0.3879
752.60 0.3878
752.70 0.3876
752.80 0.3875
752.90 0.3874
753.00 0.3872
753.10 0.3871
753.20 0.3869
753.30 0.3868
753.40 0.3867
753.50 0.3865
753.60 0.3864
753.70 0.3863
753.80 0.3861
753.90 0.386
754.00 0.3859
754.10 0.3857
754.20 0.3856
754.30 0.3855
754.40 0.3853
754.50 0.3852
754.60 0.3851
754.70 0.3849
754.80 0.3848
754.90 0.3846
755.00 0.3845
755.10 0.3844
755.20 0.3842
755.30 0.3841
755.40 0.384
755.50 0.3838
755.60 0.3837
755.70 0.3836
755.80 0.3834
755.90 0.3833
756.00 0.3832
756.10 0.383
756.20 0.3829
756.30 0.3828
756.40 0.3826
756.50 0.3825
756.60 0.3824
756.70 0.3822
756.80 0.3821
756.90 0.382
757.00 0.3818
757.10 0.3817
757.20 0.3816
757.30 0.3814
757.40 0.3813
757.50 0.3812
757.60 0.381
757.70 0.3809
757.80 0.3808
757.90 0.3806
758.00 0.3805
758.10 0.3804
758.20 0.3802
758.30 0.3801
758.40 0.38
758.50 0.3798
758.60 0.3797
758.70 0.3796
758.80 0.3794
758.90 0.3793
759.00 0.3792
759.10 0.379
759.20 0.3789
759.30 0.3788
759.40 0.3786
759.50 0.3785
759.60 0.3784
759.70 0.3782
759.80 0.3781
759.90 0.378
760.00 0.3778
760.10 0.3777
760.20 0.3776
760.30 0.3774
760.40 0.3773
760.50 0.3772
760.60 0.3771
760.70 0.3769
760.80 0.3768
760.90 0.3767
761.00 0.3765
761.10 0.3764
761.20 0.3763
761.30 0.3761
761.40 0.376
761.50 0.3759
761.60 0.3757
761.70 0.3756
761.80 0.3755
761.90 0.3753
762.00 0.3752
762.10 0.3751
762.20 0.3749
762.30 0.3748
762.40 0.3747
762.50 0.3746
762.60 0.3744
762.70 0.3743
762.80 0.3742
762.90 0.374
763.00 0.3739
763.10 0.3738
763.20 0.3736
763.30 0.3735
763.40 0.3734
763.50 0.3733
763.60 0.3731
763.70 0.373
763.80 0.3729
763.90 0.3727
764.00 0.3726
764.10 0.3725
764.20 0.3723
764.30 0.3722
764.40 0.3721
764.50 0.372
764.60 0.3718
764.70 0.3717
764.80 0.3716
764.90 0.3714
765.00 0.3713
765.10 0.3712
765.20 0.371
765.30 0.3709
765.40 0.3708
765.50 0.3707
765.60 0.3705
765.70 0.3704
765.80 0.3703
765.90 0.3701
766.00 0.37
766.10 0.3699
766.20 0.3698
766.30 0.3696
766.40 0.3695
766.50 0.3694
766.60 0.3692
766.70 0.3691
766.80 0.369
766.90 0.3689
767.00 0.3687
767.10 0.3686
767.20 0.3685
767.30 0.3683
767.40 0.3682
767.50 0.3681
767.60 0.368
767.70 0.3678
767.80 0.3677
767.90 0.3676
768.00 0.3675
768.10 0.3673
768.20 0.3672
768.30 0.3671
768.40 0.3669
768.50 0.3668
768.60 0.3667
768.70 0.3666
768.80 0.3664
768.90 0.3663
769.00 0.3662
769.10 0.366
769.20 0.3659
769.30 0.3658
769.40 0.3657
769.50 0.3655
769.60 0.3654
769.70 0.3653
769.80 0.3652
769.90 0.365
770.00 0.3649
770.10 0.3648
770.20 0.3647
770.30 0.3645
770.40 0.3644
770.50 0.3643
770.60 0.3641
770.70 0.364
770.80 0.3639
770.90 0.3638
771.00 0.3636
771.10 0.3635
771.20 0.3634
771.30 0.3633
771.40 0.3631
771.50 0.363
771.60 0.3629
771.70 0.3628
771.80 0.3626
771.90 0.3625
772.00 0.3624
772.10 0.3623
772.20 0.3621
772.30 0.362
772.40 0.3619
772.50 0.3618
772.60 0.3616
772.70 0.3615
772.80 0.3614
772.90 0.3613
773.00 0.3611
773.10 0.361
773.20 0.3609
773.30 0.3608
773.40 0.3606
773.50 0.3605
773.60 0.3604
773.70 0.3603
773.80 0.3601
773.90 0.36
774.00 0.3599
774.10 0.3598
774.20 0.3596
774.30 0.3595
774.40 0.3594
774.50 0.3593
774.60 0.3591
774.70 0.359
774.80 0.3589
774.90 0.3588
775.00 0.3586
775.10 0.3585
775.20 0.3584
775.30 0.3583
775.40 0.3581
775.50 0.358
775.60 0.3579
775.70 0.3578
775.80 0.3576
775.90 0.3575
776.00 0.3574
776.10 0.3573
776.20 0.3572
776.30 0.357
776.40 0.3569
776.50 0.3568
776.60 0.3567
776.70 0.3565
776.80 0.3564
776.90 0.3563
777.00 0.3562
777.10 0.356
777.20 0.3559
777.30 0.3558
777.40 0.3557
777.50 0.3556
777.60 0.3554
777.70 0.3553
777.80 0.3552
777.90 0.3551
778.00 0.3549
778.10 0.3548
778.20 0.3547
778.30 0.3546
778.40 0.3544
778.50 0.3543
778.60 0.3542
778.70 0.3541
778.80 0.354
778.90 0.3538
779.00 0.3537
779.10 0.3536
779.20 0.3535
779.30 0.3533
779.40 0.3532
779.50 0.3531
779.60 0.353
779.70 0.3529
779.80 0.3527
779.90 0.3526
780.00 0.3525
780.10 0.3524
780.20 0.3523
780.30 0.3521
780.40 0.352
780.50 0.3519
780.60 0.3518
780.70 0.3516
780.80 0.3515
780.90 0.3514
781.00 0.3513
781.10 0.3512
781.20 0.351
781.30 0.3509
781.40 0.3508
781.50 0.3507
781.60 0.3506
781.70 0.3504
781.80 0.3503
781.90 0.3502
782.00 0.3501
782.10 0.35
782.20 0.3498
782.30 0.3497
782.40 0.3496
782.50 0.3495
782.60 0.3494
782.70 0.3492
782.80 0.3491
782.90 0.349
783.00 0.3489
783.10 0.3488
783.20 0.3486
783.30 0.3485
783.40 0.3484
783.50 0.3483
783.60 0.3482
783.70 0.348
783.80 0.3479
783.90 0.3478
784.00 0.3477
784.10 0.3476
784.20 0.3474
784.30 0.3473
784.40 0.3472
784.50 0.3471
784.60 0.347
784.70 0.3468
784.80 0.3467
784.90 0.3466
785.00 0.3465
785.10 0.3464
785.20 0.3462
785.30 0.3461
785.40 0.346
785.50 0.3459
785.60 0.3458
785.70 0.3457
785.80 0.3455
785.90 0.3454
786.00 0.3453
786.10 0.3452
786.20 0.3451
786.30 0.3449
786.40 0.3448
786.50 0.3447
786.60 0.3446
786.70 0.3445
786.80 0.3444
786.90 0.3442
787.00 0.3441
787.10 0.344
787.20 0.3439
787.30 0.3438
787.40 0.3436
787.50 0.3435
787.60 0.3434
787.70 0.3433
787.80 0.3432
787.90 0.3431
788.00 0.3429
788.10 0.3428
788.20 0.3427
788.30 0.3426
788.40 0.3425
788.50 0.3424
788.60 0.3422
788.70 0.3421
788.80 0.342
788.90 0.3419
789.00 0.3418
789.10 0.3417
789.20 0.3415
789.30 0.3414
789.40 0.3413
789.50 0.3412
789.60 0.3411
789.70 0.341
789.80 0.3408
789.90 0.3407
790.00 0.3406
790.10 0.3405
790.20 0.3404
790.30 0.3403
790.40 0.3401
790.50 0.34
790.60 0.3399
790.70 0.3398
790.80 0.3397
790.90 0.3396
791.00 0.3394
791.10 0.3393
791.20 0.3392
791.30 0.3391
791.40 0.339
791.50 0.3389
791.60 0.3387
791.70 0.3386
791.80 0.3385
791.90 0.3384
792.00 0.3383
792.10 0.3382
792.20 0.338
792.30 0.3379
792.40 0.3378
792.50 0.3377
792.60 0.3376
792.70 0.3375
792.80 0.3374
792.90 0.3372
793.00 0.3371
793.10 0.337
793.20 0.3369
793.30 0.3368
793.40 0.3367
793.50 0.3366
793.60 0.3364
793.70 0.3363
793.80 0.3362
793.90 0.3361
794.00 0.336
794.10 0.3359
794.20 0.3357
794.30 0.3356
794.40 0.3355
794.50 0.3354
794.60 0.3353
794.70 0.3352
794.80 0.3351
794.90 0.3349
795.00 0.3348
795.10 0.3347
795.20 0.3346
795.30 0.3345
795.40 0.3344
795.50 0.3343
795.60 0.3341
795.70 0.334
795.80 0.3339
795.90 0.3338
796.00 0.3337
796.10 0.3336
796.20 0.3335
796.30 0.3334
796.40 0.3332
796.50 0.3331
796.60 0.333
796.70 0.3329
796.80 0.3328
796.90 0.3327
797.00 0.3326
797.10 0.3324
797.20 0.3323
797.30 0.3322
797.40 0.3321
797.50 0.332
797.60 0.3319
797.70 0.3318
797.80 0.3317
797.90 0.3315
798.00 0.3314
798.10 0.3313
798.20 0.3312
798.30 0.3311
798.40 0.331
798.50 0.3309
798.60 0.3308
798.70 0.3306
798.80 0.3305
798.90 0.3304
799.00 0.3303
799.10 0.3302
799.20 0.3301
799.30 0.33
799.40 0.3299
799.50 0.3297
799.60 0.3296
799.70 0.3295
799.80 0.3294
799.90 0.3293
800.00 0.3292
800.10 0.3291
800.20 0.329
800.30 0.3288
800.40 0.3287
800.50 0.3286
800.60 0.3285
800.70 0.3284
800.80 0.3283
800.90 0.3282
801.00 0.3281
801.10 0.328
801.20 0.3278
801.30 0.3277
801.40 0.3276
801.50 0.3275
801.60 0.3274
801.70 0.3273
801.80 0.3272
801.90 0.3271
802.00 0.327
802.10 0.3268
802.20 0.3267
802.30 0.3266
802.40 0.3265
802.50 0.3264
802.60 0.3263
802.70 0.3262
802.80 0.3261
802.90 0.326
803.00 0.3258
803.10 0.3257
803.20 0.3256
803.30 0.3255
803.40 0.3254
803.50 0.3253
803.60 0.3252
803.70 0.3251
803.80 0.325
803.90 0.3249
804.00 0.3247
804.10 0.3246
804.20 0.3245
804.30 0.3244
804.40 0.3243
804.50 0.3242
804.60 0.3241
804.70 0.324
804.80 0.3239
804.90 0.3238
805.00 0.3236
805.10 0.3235
805.20 0.3234
805.30 0.3233
805.40 0.3232
805.50 0.3231
805.60 0.323
805.70 0.3229
805.80 0.3228
805.90 0.3227
806.00 0.3226
806.10 0.3224
806.20 0.3223
806.30 0.3222
806.40 0.3221
806.50 0.322
806.60 0.3219
806.70 0.3218
806.80 0.3217
806.90 0.3216
807.00 0.3215
807.10 0.3214
807.20 0.3212
807.30 0.3211
807.40 0.321
807.50 0.3209
807.60 0.3208
807.70 0.3207
807.80 0.3206
807.90 0.3205
808.00 0.3204
808.10 0.3203
808.20 0.3202
808.30 0.3201
808.40 0.3199
808.50 0.3198
808.60 0.3197
808.70 0.3196
808.80 0.3195
808.90 0.3194
809.00 0.3193
809.10 0.3192
809.20 0.3191
809.30 0.319
809.40 0.3189
809.50 0.3188
809.60 0.3187
809.70 0.3185
809.80 0.3184
809.90 0.3183
810.00 0.3182
810.10 0.3181
810.20 0.318
810.30 0.3179
810.40 0.3178
810.50 0.3177
810.60 0.3176
810.70 0.3175
810.80 0.3174
810.90 0.3173
811.00 0.3172
811.10 0.317
811.20 0.3169
811.30 0.3168
811.40 0.3167
811.50 0.3166
811.60 0.3165
811.70 0.3164
811.80 0.3163
811.90 0.3162
812.00 0.3161
812.10 0.316
812.20 0.3159
812.30 0.3158
812.40 0.3157
812.50 0.3156
812.60 0.3154
812.70 0.3153
812.80 0.3152
812.90 0.3151
813.00 0.315
813.10 0.3149
813.20 0.3148
813.30 0.3147
813.40 0.3146
813.50 0.3145
813.60 0.3144
813.70 0.3143
813.80 0.3142
813.90 0.3141
814.00 0.314
814.10 0.3139
814.20 0.3138
814.30 0.3136
814.40 0.3135
814.50 0.3134
814.60 0.3133
814.70 0.3132
814.80 0.3131
814.90 0.313
815.00 0.3129
815.10 0.3128
815.20 0.3127
815.30 0.3126
815.40 0.3125
815.50 0.3124
815.60 0.3123
815.70 0.3122
815.80 0.3121
815.90 0.312
816.00 0.3119
816.10 0.3118
816.20 0.3117
816.30 0.3115
816.40 0.3114
816.50 0.3113
816.60 0.3112
816.70 0.3111
816.80 0.311
816.90 0.3109
817.00 0.3108
817.10 0.3107
817.20 0.3106
817.30 0.3105
817.40 0.3104
817.50 0.3103
817.60 0.3102
817.70 0.3101
817.80 0.31
817.90 0.3099
818.00 0.3098
818.10 0.3097
818.20 0.3096
818.30 0.3095
818.40 0.3094
818.50 0.3093
818.60 0.3092
818.70 0.309
818.80 0.3089
818.90 0.3088
819.00 0.3087
819.10 0.3086
819.20 0.3085
819.30 0.3084
819.40 0.3083
819.50 0.3082
819.60 0.3081
819.70 0.308
819.80 0.3079
819.90 0.3078
820.00 0.3077
820.10 0.3076
820.20 0.3075
820.30 0.3074
820.40 0.3073
820.50 0.3072
820.60 0.3071
820.70 0.307
820.80 0.3069
820.90 0.3068
821.00 0.3067
821.10 0.3066
821.20 0.3065
821.30 0.3064
821.40 0.3063
821.50 0.3062
821.60 0.3061
821.70 0.306
821.80 0.3059
821.90 0.3058
822.00 0.3057
822.10 0.3056
822.20 0.3055
822.30 0.3054
822.40 0.3053
822.50 0.3052
822.60 0.3051
822.70 0.305
822.80 0.3048
822.90 0.3047
823.00 0.3046
823.10 0.3045
823.20 0.3044
823.30 0.3043
823.40 0.3042
823.50 0.3041
823.60 0.304
823.70 0.3039
823.80 0.3038
823.90 0.3037
824.00 0.3036
824.10 0.3035
824.20 0.3034
824.30 0.3033
824.40 0.3032
824.50 0.3031
824.60 0.303
824.70 0.3029
824.80 0.3028
824.90 0.3027
825.00 0.3026
825.10 0.3025
825.20 0.3024
825.30 0.3023
825.40 0.3022
825.50 0.3021
825.60 0.302
825.70 0.3019
825.80 0.3018
825.90 0.3017
826.00 0.3016
826.10 0.3015
826.20 0.3014
826.30 0.3013
826.40 0.3012
826.50 0.3011
826.60 0.301
826.70 0.3009
826.80 0.3008
826.90 0.3007
827.00 0.3006
827.10 0.3005
827.20 0.3004
827.30 0.3003
827.40 0.3002
827.50 0.3001
827.60 0.3
827.70 0.2999
827.80 0.2998
827.90 0.2997
828.00 0.2996
828.10 0.2995
828.20 0.2994
828.30 0.2993
828.40 0.2992
828.50 0.2991
828.60 0.299
828.70 0.2989
828.80 0.2988
828.90 0.2987
829.00 0.2986
829.10 0.2985
829.20 0.2984
829.30 0.2983
829.40 0.2982
829.50 0.2981
829.60 0.298
829.70 0.2979
829.80 0.2978
829.90 0.2977
830.00 0.2976
830.10 0.2975
830.20 0.2974
830.30 0.2973
830.40 0.2972
830.50 0.2971
830.60 0.297
830.70 0.2969
830.80 0.2968
830.90 0.2967
831.00 0.2966
831.10 0.2965
831.20 0.2964
831.30 0.2963
831.40 0.2962
831.50 0.2961
831.60 0.296
831.70 0.2959
831.80 0.2958
831.90 0.2957
832.00 0.2956
832.10 0.2955
832.20 0.2954
832.30 0.2954
832.40 0.2953
832.50 0.2952
832.60 0.2951
832.70 0.295
832.80 0.2949
832.90 0.2948
833.00 0.2947
833.10 0.2946
833.20 0.2945
833.30 0.2944
833.40 0.2943
833.50 0.2942
833.60 0.2941
833.70 0.294
833.80 0.2939
833.90 0.2938
834.00 0.2937
834.10 0.2936
834.20 0.2935
834.30 0.2934
834.40 0.2933
834.50 0.2932
834.60 0.2931
834.70 0.293
834.80 0.2929
834.90 0.2928
835.00 0.2927
835.10 0.2926
835.20 0.2925
835.30 0.2924
835.40 0.2923
835.50 0.2922
835.60 0.2921
835.70 0.292
835.80 0.2919
835.90 0.2918
836.00 0.2917
836.10 0.2917
836.20 0.2916
836.30 0.2915
836.40 0.2914
836.50 0.2913
836.60 0.2912
836.70 0.2911
836.80 0.291
836.90 0.2909
837.00 0.2908
837.10 0.2907
837.20 0.2906
837.30 0.2905
837.40 0.2904
837.50 0.2903
837.60 0.2902
837.70 0.2901
837.80 0.29
837.90 0.2899
838.00 0.2898
838.10 0.2897
838.20 0.2896
838.30 0.2895
838.40 0.2894
838.50 0.2893
838.60 0.2892
838.70 0.2892
838.80 0.2891
838.90 0.289
839.00 0.2889
839.10 0.2888
839.20 0.2887
839.30 0.2886
839.40 0.2885
839.50 0.2884
839.60 0.2883
839.70 0.2882
839.80 0.2881
839.90 0.288
840.00 0.2879
840.10 0.2878
840.20 0.2877
840.30 0.2876
840.40 0.2875
840.50 0.2874
840.60 0.2873
840.70 0.2872
840.80 0.2871
840.90 0.2871
841.00 0.287
841.10 0.2869
841.20 0.2868
841.30 0.2867
841.40 0.2866
841.50 0.2865
841.60 0.2864
841.70 0.2863
841.80 0.2862
841.90 0.2861
842.00 0.286
842.10 0.2859
842.20 0.2858
842.30 0.2857
842.40 0.2856
842.50 0.2855
842.60 0.2854
842.70 0.2854
842.80 0.2853
842.90 0.2852
843.00 0.2851
843.10 0.285
843.20 0.2849
843.30 0.2848
843.40 0.2847
843.50 0.2846
843.60 0.2845
843.70 0.2844
843.80 0.2843
843.90 0.2842
844.00 0.2841
844.10 0.284
844.20 0.2839
844.30 0.2839
844.40 0.2838
844.50 0.2837
844.60 0.2836
844.70 0.2835
844.80 0.2834
844.90 0.2833
845.00 0.2832
845.10 0.2831
845.20 0.283
845.30 0.2829
845.40 0.2828
845.50 0.2827
845.60 0.2826
845.70 0.2826
845.80 0.2825
845.90 0.2824
846.00 0.2823
846.10 0.2822
846.20 0.2821
846.30 0.282
846.40 0.2819
846.50 0.2818
846.60 0.2817
846.70 0.2816
846.80 0.2815
846.90 0.2814
847.00 0.2813
847.10 0.2813
847.20 0.2812
847.30 0.2811
847.40 0.281
847.50 0.2809
847.60 0.2808
847.70 0.2807
847.80 0.2806
847.90 0.2805
848.00 0.2804
848.10 0.2803
848.20 0.2803
848.30 0.2802
848.40 0.2801
848.50 0.28
848.60 0.2799
848.70 0.2798
848.80 0.2797
848.90 0.2796
849.00 0.2795
849.10 0.2794
849.20 0.2793
849.30 0.2793
849.40 0.2792
849.50 0.2791
849.60 0.279
849.70 0.2789
849.80 0.2788
849.90 0.2787
850.00 0.2786
850.10 0.2785
850.20 0.2784
850.30 0.2784
850.40 0.2783
850.50 0.2782
850.60 0.2781
850.70 0.278
850.80 0.2779
850.90 0.2778
851.00 0.2777
851.10 0.2776
851.20 0.2775
851.30 0.2775
851.40 0.2774
851.50 0.2773
851.60 0.2772
851.70 0.2771
851.80 0.277
851.90 0.2769
852.00 0.2768
852.10 0.2767
852.20 0.2766
852.30 0.2766
852.40 0.2765
852.50 0.2764
852.60 0.2763
852.70 0.2762
852.80 0.2761
852.90 0.276
853.00 0.2759
853.10 0.2758
853.20 0.2758
853.30 0.2757
853.40 0.2756
853.50 0.2755
853.60 0.2754
853.70 0.2753
853.80 0.2752
853.90 0.2751
854.00 0.275
854.10 0.2749
854.20 0.2749
854.30 0.2748
854.40 0.2747
854.50 0.2746
854.60 0.2745
854.70 0.2744
854.80 0.2743
854.90 0.2742
855.00 0.2742
855.10 0.2741
855.20 0.274
855.30 0.2739
855.40 0.2738
855.50 0.2737
855.60 0.2736
855.70 0.2735
855.80 0.2734
855.90 0.2734
856.00 0.2733
856.10 0.2732
856.20 0.2731
856.30 0.273
856.40 0.2729
856.50 0.2728
856.60 0.2727
856.70 0.2727
856.80 0.2726
856.90 0.2725
857.00 0.2724
857.10 0.2723
857.20 0.2722
857.30 0.2721
857.40 0.272
857.50 0.2719
857.60 0.2719
857.70 0.2718
857.80 0.2717
857.90 0.2716
858.00 0.2715
858.10 0.2714
858.20 0.2713
858.30 0.2713
858.40 0.2712
858.50 0.2711
858.60 0.271
858.70 0.2709
858.80 0.2708
858.90 0.2707
859.00 0.2706
859.10 0.2706
859.20 0.2705
859.30 0.2704
859.40 0.2703
859.50 0.2702
859.60 0.2701
859.70 0.27
859.80 0.27
859.90 0.2699
860.00 0.2698
860.10 0.2697
860.20 0.2696
860.30 0.2695
860.40 0.2694
860.50 0.2693
860.60 0.2693
860.70 0.2692
860.80 0.2691
860.90 0.269
861.00 0.2689
861.10 0.2688
861.20 0.2687
861.30 0.2687
861.40 0.2686
861.50 0.2685
861.60 0.2684
861.70 0.2683
861.80 0.2682
861.90 0.2681
862.00 0.2681
862.10 0.268
862.20 0.2679
862.30 0.2678
862.40 0.2677
862.50 0.2676
862.60 0.2675
862.70 0.2674
862.80 0.2673
862.90 0.2672
863.00 0.2672
863.10 0.2671
863.20 0.267
863.30 0.2669
863.40 0.2668
863.50 0.2667
863.60 0.2666
863.70 0.2665
863.80 0.2664
863.90 0.2664
864.00 0.2663
864.10 0.2662
864.20 0.2661
864.30 0.266
864.40 0.2659
864.50 0.2658
864.60 0.2657
864.70 0.2656
864.80 0.2655
864.90 0.2655
865.00 0.2654
865.10 0.2653
865.20 0.2652
865.30 0.2651
865.40 0.265
865.50 0.2649
865.60 0.2648
865.70 0.2647
865.80 0.2647
865.90 0.2646
866.00 0.2645
866.10 0.2644
866.20 0.2643
866.30 0.2642
866.40 0.2641
866.50 0.264
866.60 0.2639
866.70 0.2639
866.80 0.2638
866.90 0.2637
867.00 0.2636
867.10 0.2635
867.20 0.2634
867.30 0.2634
867.40 0.2633
867.50 0.2632
867.60 0.2631
867.70 0.263
867.80 0.263
867.90 0.2629
868.00 0.2628
868.10 0.2627
868.20 0.2627
868.30 0.2626
868.40 0.2625
868.50 0.2624
868.60 0.2623
868.70 0.2623
868.80 0.2622
868.90 0.2621
869.00 0.262
869.10 0.2619
869.20 0.2619
869.30 0.2618
869.40 0.2617
869.50 0.2616
869.60 0.2616
869.70 0.2615
869.80 0.2614
869.90 0.2613
870.00 0.2612
870.10 0.2612
870.20 0.2611
870.30 0.261
870.40 0.2609
870.50 0.2609
870.60 0.2608
870.70 0.2607
870.80 0.2606
870.90 0.2605
871.00 0.2605
871.10 0.2604
871.20 0.2603
871.30 0.2602
871.40 0.2602
871.50 0.2601
871.60 0.26
871.70 0.2599
871.80 0.2598
871.90 0.2598
872.00 0.2597
872.10 0.2596
872.20 0.2595
872.30 0.2594
872.40 0.2594
872.50 0.2593
872.60 0.2592
872.70 0.2591
872.80 0.259
872.90 0.2589
873.00 0.2588
873.10 0.2588
873.20 0.2587
873.30 0.2586
873.40 0.2585
873.50 0.2584
873.60 0.2583
873.70 0.2583
873.80 0.2582
873.90 0.2581
874.00 0.258
874.10 0.2579
874.20 0.2578
874.30 0.2577
874.40 0.2577
874.50 0.2576
874.60 0.2575
874.70 0.2574
874.80 0.2573
874.90 0.2572
875.00 0.2572
875.10 0.2571
875.20 0.257
875.30 0.2569
875.40 0.2568
875.50 0.2567
875.60 0.2567
875.70 0.2566
875.80 0.2565
875.90 0.2564
876.00 0.2563
876.10 0.2562
876.20 0.2561
876.30 0.2561
876.40 0.256
876.50 0.2559
876.60 0.2558
876.70 0.2557
876.80 0.2556
876.90 0.2556
877.00 0.2555
877.10 0.2554
877.20 0.2553
877.30 0.2553
877.40 0.2552
877.50 0.2551
877.60 0.255
877.70 0.255
877.80 0.2549
877.90 0.2548
878.00 0.2547
878.10 0.2547
878.20 0.2546
878.30 0.2545
878.40 0.2544
878.50 0.2544
878.60 0.2543
878.70 0.2542
878.80 0.2541
878.90 0.2541
879.00 0.254
879.10 0.2539
879.20 0.2538
879.30 0.2538
879.40 0.2537
879.50 0.2536
879.60 0.2535
879.70 0.2535
879.80 0.2534
879.90 0.2533
880.00 0.2532
880.10 0.2532
880.20 0.2531
880.30 0.253
880.40 0.2529
880.50 0.2529
880.60 0.2528
880.70 0.2527
880.80 0.2526
880.90 0.2526
881.00 0.2525
881.10 0.2524
881.20 0.2523
881.30 0.2523
881.40 0.2522
881.50 0.2521
881.60 0.252
881.70 0.252
881.80 0.2519
881.90 0.2518
882.00 0.2518
882.10 0.2516
882.20 0.2515
882.30 0.2514
882.40 0.2513
882.50 0.2512
882.60 0.2511
882.70 0.251
882.80 0.2509
882.90 0.2508
883.00 0.2507
883.10 0.2506
883.20 0.2505
883.30 0.2504
883.40 0.2503
883.50 0.2502
883.60 0.2501
883.70 0.25
883.80 0.2499
883.90 0.2497
884.00 0.2496
884.10 0.2495
884.20 0.2494
884.30 0.2493
884.40 0.2492
884.50 0.2491
884.60 0.249
884.70 0.2489
884.80 0.2488
884.90 0.2487
885.00 0.2486
885.10 0.2485
885.20 0.2484
885.30 0.2483
885.40 0.2482
885.50 0.2481
885.60 0.248
885.70 0.2479
885.80 0.2478
885.90 0.2477
886.00 0.2476
886.10 0.2474
886.20 0.2473
886.30 0.2472
886.40 0.2471
886.50 0.247
886.60 0.2469
886.70 0.2468
886.80 0.2467
886.90 0.2466
887.00 0.2465
887.10 0.2465
887.20 0.2464
887.30 0.2464
887.40 0.2463
887.50 0.2463
887.60 0.2462
887.70 0.2462
887.80 0.2461
887.90 0.2461
888.00 0.246
888.10 0.246
888.20 0.2459
888.30 0.2459
888.40 0.2458
888.50 0.2458
888.60 0.2458
888.70 0.2457
888.80 0.2457
888.90 0.2456
889.00 0.2456
889.10 0.2455
889.20 0.2455
889.30 0.2454
889.40 0.2454
889.50 0.2453
889.60 0.2453
889.70 0.2452
889.80 0.2452
889.90 0.2451
890.00 0.2451
890.10 0.245
890.20 0.245
890.30 0.245
890.40 0.2449
890.50 0.2449
890.60 0.2448
890.70 0.2448
890.80 0.2447
890.90 0.2447
891.00 0.2446
891.10 0.2446
891.20 0.2445
891.30 0.2445
891.40 0.2444
891.50 0.2444
891.60 0.2443
891.70 0.2443
891.80 0.2442
891.90 0.2442
892.00 0.2442
892.10 0.2441
892.20 0.244
892.30 0.2439
892.40 0.2438
892.50 0.2438
892.60 0.2437
892.70 0.2436
892.80 0.2435
892.90 0.2434
893.00 0.2434
893.10 0.2433
893.20 0.2432
893.30 0.2431
893.40 0.243
893.50 0.243
893.60 0.2429
893.70 0.2428
893.80 0.2427
893.90 0.2426
894.00 0.2426
894.10 0.2425
894.20 0.2424
894.30 0.2423
894.40 0.2423
894.50 0.2422
894.60 0.2421
894.70 0.242
894.80 0.2419
894.90 0.2419
895.00 0.2418
895.10 0.2417
895.20 0.2416
895.30 0.2415
895.40 0.2415
895.50 0.2414
895.60 0.2413
895.70 0.2412
895.80 0.2411
895.90 0.2411
896.00 0.241
896.10 0.2409
896.20 0.2408
896.30 0.2408
896.40 0.2407
896.50 0.2406
896.60 0.2405
896.70 0.2404
896.80 0.2404
896.90 0.2403
897.00 0.2402
897.10 0.2401
897.20 0.2399
897.30 0.2398
897.40 0.2397
897.50 0.2395
897.60 0.2394
897.70 0.2393
897.80 0.2391
897.90 0.239
898.00 0.2389
898.10 0.2388
898.20 0.2386
898.30 0.2385
898.40 0.2384
898.50 0.2382
898.60 0.2381
898.70 0.238
898.80 0.2378
898.90 0.2377
899.00 0.2376
899.10 0.2374
899.20 0.2373
899.30 0.2372
899.40 0.237
899.50 0.2369
899.60 0.2368
899.70 0.2366
899.80 0.2365
899.90 0.2364
900.00 0.2363
900.10 0.2361
900.20 0.236
900.30 0.2359
900.40 0.2357
900.50 0.2356
900.60 0.2355
900.70 0.2353
900.80 0.2352
900.90 0.2351
901.00 0.2349
901.10 0.2348
901.20 0.2347
901.30 0.2346
901.40 0.2344
901.50 0.2343
901.60 0.2342
901.70 0.234
901.80 0.2339
901.90 0.2338
902.00 0.2336
902.10 0.2336
902.20 0.2336
902.30 0.2336
902.40 0.2336
902.50 0.2336
902.60 0.2335
902.70 0.2335
902.80 0.2335
902.90 0.2335
903.00 0.2335
903.10 0.2335
903.20 0.2335
903.30 0.2334
903.40 0.2334
903.50 0.2334
903.60 0.2334
903.70 0.2334
903.80 0.2334
903.90 0.2333
904.00 0.2333
904.10 0.2333
904.20 0.2333
904.30 0.2333
904.40 0.2333
904.50 0.2333
904.60 0.2332
904.70 0.2332
904.80 0.2332
904.90 0.2332
905.00 0.2332
905.10 0.2332
905.20 0.2331
905.30 0.2331
905.40 0.2331
905.50 0.2331
905.60 0.2331
905.70 0.2331
905.80 0.233
905.90 0.233
906.00 0.233
906.10 0.233
906.20 0.233
906.30 0.233
906.40 0.233
906.50 0.2329
906.60 0.2329
906.70 0.2329
906.80 0.2329
906.90 0.2329
907.00 0.2329
907.10 0.2328
907.20 0.2327
907.30 0.2327
907.40 0.2326
907.50 0.2325
907.60 0.2325
907.70 0.2324
907.80 0.2324
907.90 0.2323
908.00 0.2322
908.10 0.2322
908.20 0.2321
908.30 0.2321
908.40 0.232
908.50 0.2319
908.60 0.2319
908.70 0.2318
908.80 0.2317
908.90 0.2317
909.00 0.2316
909.10 0.2316
909.20 0.2315
909.30 0.2314
909.40 0.2314
909.50 0.2313
909.60 0.2313
909.70 0.2312
909.80 0.2311
909.90 0.2311
910.00 0.231
910.10 0.2309
910.20 0.2309
910.30 0.2308
910.40 0.2308
910.50 0.2307
910.60 0.2306
910.70 0.2306
910.80 0.2305
910.90 0.2305
911.00 0.2304
911.10 0.2303
911.20 0.2303
911.30 0.2302
911.40 0.2301
911.50 0.2301
911.60 0.23
911.70 0.23
911.80 0.2299
911.90 0.2298
912.00 0.2298
912.10 0.2297
912.20 0.2296
912.30 0.2295
912.40 0.2294
912.50 0.2294
912.60 0.2293
912.70 0.2292
912.80 0.2291
912.90 0.229
913.00 0.2289
913.10 0.2288
913.20 0.2288
913.30 0.2287
913.40 0.2286
913.50 0.2285
913.60 0.2284
913.70 0.2283
913.80 0.2282
913.90 0.2282
914.00 0.2281
914.10 0.228
914.20 0.2279
914.30 0.2278
914.40 0.2277
914.50 0.2277
914.60 0.2276
914.70 0.2275
914.80 0.2274
914.90 0.2273
915.00 0.2272
915.10 0.2271
915.20 0.2271
915.30 0.227
915.40 0.2269
915.50 0.2268
915.60 0.2267
915.70 0.2266
915.80 0.2266
915.90 0.2265
916.00 0.2264
916.10 0.2263
916.20 0.2262
916.30 0.2261
916.40 0.226
916.50 0.226
916.60 0.2259
916.70 0.2258
916.80 0.2257
916.90 0.2256
917.00 0.2255
917.10 0.2254
917.20 0.2252
917.30 0.225
917.40 0.2248
917.50 0.2247
917.60 0.2245
917.70 0.2243
917.80 0.2241
917.90 0.224
918.00 0.2238
918.10 0.2236
918.20 0.2234
918.30 0.2233
918.40 0.2231
918.50 0.2229
918.60 0.2227
918.70 0.2226
918.80 0.2224
918.90 0.2222
919.00 0.222
919.10 0.2219
919.20 0.2217
919.30 0.2215
919.40 0.2213
919.50 0.2212
919.60 0.221
919.70 0.2208
919.80 0.2206
919.90 0.2205
920.00 0.2203
920.10 0.2201
920.20 0.2199
920.30 0.2198
920.40 0.2196
920.50 0.2194
920.60 0.2193
920.70 0.2191
920.80 0.2189
920.90 0.2187
921.00 0.2186
921.10 0.2184
921.20 0.2182
921.30 0.218
921.40 0.2179
921.50 0.2177
921.60 0.2175
921.70 0.2173
921.80 0.2172
921.90 0.217
922.00 0.2168
922.10 0.2168
922.20 0.2168
922.30 0.2169
922.40 0.2169
922.50 0.2169
922.60 0.2169
922.70 0.2169
922.80 0.2169
922.90 0.2169
923.00 0.2169
923.10 0.2169
923.20 0.2169
923.30 0.217
923.40 0.217
923.50 0.217
923.60 0.217
923.70 0.217
923.80 0.217
923.90 0.217
924.00 0.217
924.10 0.217
924.20 0.217
924.30 0.217
924.40 0.2171
924.50 0.2171
924.60 0.2171
924.70 0.2171
924.80 0.2171
924.90 0.2171
925.00 0.2171
925.10 0.2171
925.20 0.2171
925.30 0.2171
925.40 0.2172
925.50 0.2172
925.60 0.2172
925.70 0.2172
925.80 0.2172
925.90 0.2172
926.00 0.2172
926.10 0.2172
926.20 0.2172
926.30 0.2172
926.40 0.2172
926.50 0.2173
926.60 0.2173
926.70 0.2173
926.80 0.2173
926.90 0.2173
927.00 0.2173
927.10 0.2173
927.20 0.2173
927.30 0.2172
927.40 0.2172
927.50 0.2172
927.60 0.2171
927.70 0.2171
927.80 0.2171
927.90 0.2171
928.00 0.217
928.10 0.217
928.20 0.217
928.30 0.217
928.40 0.2169
928.50 0.2169
928.60 0.2169
928.70 0.2168
928.80 0.2168
928.90 0.2168
929.00 0.2168
929.10 0.2167
929.20 0.2167
929.30 0.2167
929.40 0.2167
929.50 0.2166
929.60 0.2166
929.70 0.2166
929.80 0.2166
929.90 0.2165
930.00 0.2165
930.10 0.2165
930.20 0.2164
930.30 0.2164
930.40 0.2164
930.50 0.2164
930.60 0.2163
930.70 0.2163
930.80 0.2163
930.90 0.2163
931.00 0.2162
931.10 0.2162
931.20 0.2162
931.30 0.2162
931.40 0.2161
931.50 0.2161
931.60 0.2161
931.70 0.216
931.80 0.216
931.90 0.216
932.00 0.216
932.10 0.2159
932.20 0.2159
932.30 0.2158
932.40 0.2158
932.50 0.2157
932.60 0.2157
932.70 0.2156
932.80 0.2156
932.90 0.2155
933.00 0.2155
933.10 0.2154
933.20 0.2153
933.30 0.2153
933.40 0.2152
933.50 0.2152
933.60 0.2151
933.70 0.2151
933.80 0.215
933.90 0.215
934.00 0.2149
934.10 0.2149
934.20 0.2148
934.30 0.2148
934.40 0.2147
934.50 0.2147
934.60 0.2146
934.70 0.2146
934.80 0.2145
934.90 0.2144
935.00 0.2144
935.10 0.2143
935.20 0.2143
935.30 0.2142
935.40 0.2141
935.50 0.2141
935.60 0.214
935.70 0.214
935.80 0.2139
935.90 0.2138
936.00 0.2138
936.10 0.2137
936.20 0.2137
936.30 0.2136
936.40 0.2136
936.50 0.2135
936.60 0.2134
936.70 0.2134
936.80 0.2133
936.90 0.2133
937.00 0.2132
937.10 0.2131
937.20 0.2131
937.30 0.213
937.40 0.213
937.50 0.2129
937.60 0.2128
937.70 0.2128
937.80 0.2127
937.90 0.2126
938.00 0.2126
938.10 0.2125
938.20 0.2125
938.30 0.2124
938.40 0.2123
938.50 0.2123
938.60 0.2122
938.70 0.2121
938.80 0.2121
938.90 0.212
939.00 0.2119
939.10 0.2119
939.20 0.2118
939.30 0.2117
939.40 0.2117
939.50 0.2116
939.60 0.2115
939.70 0.2115
939.80 0.2114
939.90 0.2113
940.00 0.2113
940.10 0.2112
940.20 0.2111
940.30 0.2111
940.40 0.211
940.50 0.2109
940.60 0.2109
940.70 0.2108
940.80 0.2107
940.90 0.2107
941.00 0.2106
941.10 0.2105
941.20 0.2104
941.30 0.2104
941.40 0.2103
941.50 0.2102
941.60 0.2102
941.70 0.2101
941.80 0.21
941.90 0.21
942.00 0.2099
942.10 0.2098
942.20 0.2097
942.30 0.2097
942.40 0.2096
942.50 0.2095
942.60 0.2094
942.70 0.2093
942.80 0.2093
942.90 0.2092
943.00 0.2091
943.10 0.209
943.20 0.2089
943.30 0.2089
943.40 0.2088
943.50 0.2087
943.60 0.2086
943.70 0.2086
943.80 0.2085
943.90 0.2084
944.00 0.2083
944.10 0.2082
944.20 0.2082
944.30 0.2081
944.40 0.208
944.50 0.2079
944.60 0.2078
944.70 0.2077
944.80 0.2076
944.90 0.2076
945.00 0.2075
945.10 0.2074
945.20 0.2073
945.30 0.2072
945.40 0.2071
945.50 0.207
945.60 0.2069
945.70 0.2068
945.80 0.2067
945.90 0.2066
946.00 0.2065
946.10 0.2064
946.20 0.2063
946.30 0.2062
946.40 0.2061
946.50 0.206
946.60 0.2059
946.70 0.2058
946.80 0.2057
946.90 0.2056
947.00 0.2055
947.10 0.2054
947.20 0.2053
947.30 0.2051
947.40 0.205
947.50 0.2049
947.60 0.2047
947.70 0.2046
947.80 0.2045
947.90 0.2043
948.00 0.2042
948.10 0.2041
948.20 0.2039
948.30 0.2038
948.40 0.2037
948.50 0.2035
948.60 0.2034
948.70 0.2032
948.80 0.2031
948.90 0.203
949.00 0.2028
949.10 0.2027
949.20 0.2026
949.30 0.2024
949.40 0.2022
949.50 0.202
949.60 0.2018
949.70 0.2016
949.80 0.2014
949.90 0.2012
950.00 0.201
950.10 0.2009
950.20 0.2007
950.30 0.2005
950.40 0.2003
950.50 0.2001
950.60 0.1999
950.70 0.1997
950.80 0.1995
950.90 0.1993
951.00 0.1991
951.10 0.1989
951.20 0.1987
951.30 0.1985
951.40 0.1982
951.50 0.198
951.60 0.1977
951.70 0.1974
951.80 0.1972
951.90 0.1969
952.00 0.1966
952.10 0.1963
952.20 0.196
952.30 0.1956
952.40 0.1953
952.50 0.195
952.60 0.1947
952.70 0.1944
952.80 0.194
952.90 0.1937
953.00 0.1934
953.10 0.1931
953.20 0.1928
953.30 0.1925
953.40 0.1921
953.50 0.1918
953.60 0.1919
953.70 0.1919
953.80 0.1919
953.90 0.192
954.00 0.1923
954.10 0.1926
954.20 0.1933
954.30 0.1937
954.40 0.1921
954.50 0.1913
954.60 0.1909
954.70 0.1904
954.80 0.1903
954.90 0.1902
955.00 0.19
955.10 0.1899
955.20 0.1901
955.30 0.1902
955.40 0.1904
955.50 0.1905
955.60 0.1907
955.70 0.1908
955.80 0.191
955.90 0.1912
956.00 0.1913
956.10 0.1915
956.20 0.1917
956.30 0.1918
956.40 0.192
956.50 0.1922
956.60 0.1923
956.70 0.1925
956.80 0.1926
956.90 0.1928
957.00 0.193
957.10 0.1931
957.20 0.1932
957.30 0.1933
957.40 0.1934
957.50 0.1935
957.60 0.1936
957.70 0.1936
957.80 0.1937
957.90 0.1938
958.00 0.1938
958.10 0.1939
958.20 0.194
958.30 0.1941
958.40 0.1941
958.50 0.1942
958.60 0.1943
958.70 0.1943
958.80 0.1944
958.90 0.1945
959.00 0.1946
959.10 0.1946
959.20 0.1947
959.30 0.1948
959.40 0.1948
959.50 0.1948
959.60 0.1948
959.70 0.1948
959.80 0.1949
959.90 0.1949
960.00 0.1949
960.10 0.1949
960.20 0.1949
960.30 0.195
960.40 0.195
960.50 0.195
960.60 0.195
960.70 0.195
960.80 0.195
960.90 0.1951
961.00 0.1951
961.10 0.1951
961.20 0.1951
961.30 0.1951
961.40 0.1951
961.50 0.1951
961.60 0.1951
961.70 0.1951
961.80 0.1951
961.90 0.1951
962.00 0.1951
962.10 0.1951
962.20 0.1951
962.30 0.1951
962.40 0.1951
962.50 0.1951
962.60 0.1951
962.70 0.1951
962.80 0.195
962.90 0.195
963.00 0.195
963.10 0.195
963.20 0.195
963.30 0.195
963.40 0.195
963.50 0.195
963.60 0.1949
963.70 0.1949
963.80 0.1949
963.90 0.1949
964.00 0.1948
964.10 0.1948
964.20 0.1948
964.30 0.1948
964.40 0.1948
964.50 0.1947
964.60 0.1947
964.70 0.1947
964.80 0.1946
964.90 0.1946
965.00 0.1946
965.10 0.1946
965.20 0.1945
965.30 0.1945
965.40 0.1945
965.50 0.1944
965.60 0.1944
965.70 0.1944
965.80 0.1944
965.90 0.1943
966.00 0.1943
966.10 0.1943
966.20 0.1942
966.30 0.1942
966.40 0.1942
966.50 0.1941
966.60 0.1941
966.70 0.1941
966.80 0.194
966.90 0.194
967.00 0.194
967.10 0.1939
967.20 0.1939
967.30 0.1938
967.40 0.1938
967.50 0.1938
967.60 0.1937
967.70 0.1937
967.80 0.1936
967.90 0.1936
968.00 0.1936
968.10 0.1935
968.20 0.1935
968.30 0.1935
968.40 0.1934
968.50 0.1934
968.60 0.1933
968.70 0.1933
968.80 0.1932
968.90 0.1932
969.00 0.1931
969.10 0.1931
969.20 0.1931
969.30 0.193
969.40 0.193
969.50 0.1929
969.60 0.1929
969.70 0.1928
969.80 0.1928
969.90 0.1928
970.00 0.1927
970.10 0.1927
970.20 0.1926
970.30 0.1926
970.40 0.1925
970.50 0.1925
970.60 0.1924
970.70 0.1924
970.80 0.1923
970.90 0.1923
971.00 0.1923
971.10 0.1922
971.20 0.1922
971.30 0.1921
971.40 0.1921
971.50 0.192
971.60 0.192
971.70 0.1919
971.80 0.1919
971.90 0.1918
972.00 0.1918
972.10 0.1917
972.20 0.1917
972.30 0.1916
972.40 0.1916
972.50 0.1915
972.60 0.1915
972.70 0.1914
972.80 0.1914
972.90 0.1913
973.00 0.1913
973.10 0.1912
973.20 0.1912
973.30 0.1911
973.40 0.1911
973.50 0.191
973.60 0.191
973.70 0.1909
973.80 0.1909
973.90 0.1908
974.00 0.1908
974.10 0.1907
974.20 0.1907
974.30 0.1906
974.40 0.1906
974.50 0.1905
974.60 0.1905
974.70 0.1904
974.80 0.1904
974.90 0.1903
975.00 0.1903
975.10 0.1902
975.20 0.1901
975.30 0.1901
975.40 0.19
975.50 0.19
975.60 0.1899
975.70 0.1899
975.80 0.1898
975.90 0.1898
976.00 0.1897
976.10 0.1897
976.20 0.1896
976.30 0.1896
976.40 0.1895
976.50 0.1895
976.60 0.1894
976.70 0.1894
976.80 0.1893
976.90 0.1892
977.00 0.1892
977.10 0.1891
977.20 0.1891
977.30 0.189
977.40 0.189
977.50 0.1889
977.60 0.1889
977.70 0.1888
977.80 0.1887
977.90 0.1887
978.00 0.1886
978.10 0.1886
978.20 0.1885
978.30 0.1885
978.40 0.1884
978.50 0.1883
978.60 0.1883
978.70 0.1882
978.80 0.1882
978.90 0.1881
979.00 0.1881
979.10 0.188
979.20 0.1879
979.30 0.1879
979.40 0.1878
979.50 0.1878
979.60 0.1877
979.70 0.1877
979.80 0.1876
979.90 0.1875
980.00 0.1875
980.10 0.1874
980.20 0.1874
980.30 0.1873
980.40 0.1873
980.50 0.1872
980.60 0.1872
980.70 0.1871
980.80 0.187
980.90 0.187
981.00 0.1869
981.10 0.1869
981.20 0.1868
981.30 0.1868
981.40 0.1867
981.50 0.1866
981.60 0.1866
981.70 0.1865
981.80 0.1865
981.90 0.1864
982.00 0.1864
982.10 0.1863
982.20 0.1862
982.30 0.1862
982.40 0.1861
982.50 0.1861
982.60 0.186
982.70 0.1859
982.80 0.1859
982.90 0.1858
983.00 0.1858
983.10 0.1857
983.20 0.1856
983.30 0.1856
983.40 0.1855
983.50 0.1854
983.60 0.1854
983.70 0.1853
983.80 0.1853
983.90 0.1852
984.00 0.1851
984.10 0.1851
984.20 0.185
984.30 0.185
984.40 0.1849
984.50 0.1848
984.60 0.1848
984.70 0.1847
984.80 0.1846
984.90 0.1846
985.00 0.1845
985.10 0.1845
985.20 0.1844
985.30 0.1843
985.40 0.1843
985.50 0.1842
985.60 0.1841
985.70 0.1841
985.80 0.184
985.90 0.1839
986.00 0.1839
986.10 0.1838
986.20 0.1837
986.30 0.1837
986.40 0.1836
986.50 0.1835
986.60 0.1835
986.70 0.1834
986.80 0.1833
986.90 0.1833
987.00 0.1832
987.10 0.1831
987.20 0.1831
987.30 0.183
987.40 0.1829
987.50 0.1829
987.60 0.1828
987.70 0.1827
987.80 0.1827
987.90 0.1826
988.00 0.1825
988.10 0.1824
988.20 0.1824
988.30 0.1823
988.40 0.1822
988.50 0.1822
988.60 0.1821
988.70 0.182
988.80 0.182
988.90 0.1819
989.00 0.1818
989.10 0.1817
989.20 0.1816
989.30 0.1816
989.40 0.1815
989.50 0.1814
989.60 0.1813
989.70 0.1813
989.80 0.1812
989.90 0.1811
990.00 0.181
990.10 0.181
990.20 0.1809
990.30 0.1808
990.40 0.1807
990.50 0.1807
990.60 0.1806
990.70 0.1805
990.80 0.1804
990.90 0.1803
991.00 0.1803
991.10 0.1802
991.20 0.1801
991.30 0.18
991.40 0.1799
991.50 0.1798
991.60 0.1798
991.70 0.1797
991.80 0.1796
991.90 0.1795
992.00 0.1794
992.10 0.1793
992.20 0.1792
992.30 0.1791
992.40 0.1791
992.50 0.179
992.60 0.1789
992.70 0.1788
992.80 0.1787
992.90 0.1786
993.00 0.1785
993.10 0.1784
993.20 0.1783
993.30 0.1782
993.40 0.1781
993.50 0.178
993.60 0.1779
993.70 0.1778
993.80 0.1777
993.90 0.1776
994.00 0.1775
994.10 0.1774
994.20 0.1773
994.30 0.1772
994.40 0.1771
994.50 0.177
994.60 0.1769
994.70 0.1768
994.80 0.1766
994.90 0.1765
995.00 0.1764
995.10 0.1763
995.20 0.1762
995.30 0.1761
995.40 0.176
995.50 0.1758
995.60 0.1757
995.70 0.1756
995.80 0.1755
995.90 0.1753
996.00 0.1752
996.10 0.1751
996.20 0.1749
996.30 0.1748
996.40 0.1747
996.50 0.1746
996.60 0.1744
996.70 0.1743
996.80 0.1742
996.90 0.174
997.00 0.1739
997.10 0.1737
997.20 0.1736
997.30 0.1735
997.40 0.1733
997.50 0.1732
997.60 0.173
997.70 0.1728
997.80 0.1727
997.90 0.1725
998.00 0.1723
998.10 0.1721
998.20 0.1719
998.30 0.1718
998.40 0.1716
998.50 0.1714
998.60 0.1712
998.70 0.171
998.80 0.1709
998.90 0.1707
999.00 0.1705
999.10 0.1703
999.20 0.1702
999.30 0.17
999.40 0.1698
999.50 0.1696
999.60 0.1694
999.70 0.1692
999.80 0.1689
999.90 0.1687
1000.00 0.1684
1000.10 0.1681
1000.20 0.1679
1000.30 0.1676
1000.40 0.1674
1000.50 0.1671
1000.60 0.1668
1000.70 0.1666
1000.80 0.1663
1000.90 0.166
1001.00 0.1658
1001.10 0.1655
1001.20 0.1653
1001.30 0.165
1001.40 0.1647
1001.50 0.1645
1001.60 0.1642
1001.70 0.1639
1001.80 0.1635
1001.90 0.1632
1002.00 0.1628
1002.10 0.1624
1002.20 0.1619
1002.30 0.1615
1002.40 0.1611
1002.50 0.1606
1002.60 0.1602
1002.70 0.1597
1002.80 0.1593
1002.90 0.1589
1003.00 0.1584
1003.10 0.158
1003.20 0.1575
1003.30 0.157
1003.40 0.1565
1003.50 0.156
1003.60 0.1555
1003.70 0.155
1003.80 0.1545
1003.90 0.1541
1004.00 0.1538
1004.10 0.1536
1004.20 0.1533
1004.30 0.1535
1004.40 0.1539
1004.50 0.1547
1004.60 0.1564
1004.70 0.1552
1004.80 0.1538
1004.90 0.1533
1005.00 0.1529
1005.10 0.1529
1005.20 0.1531
1005.30 0.1533
1005.40 0.1535
1005.50 0.1538
1005.60 0.1542
1005.70 0.1547
1005.80 0.1551
1005.90 0.1555
1006.00 0.1559
1006.10 0.1563
1006.20 0.1567
1006.30 0.157
1006.40 0.1574
1006.50 0.1577
1006.60 0.1581
1006.70 0.1584
1006.80 0.1588
1006.90 0.1591
1007.00 0.1595
1007.10 0.1598
1007.20 0.16
1007.30 0.1603
1007.40 0.1606
1007.50 0.1609
1007.60 0.1611
1007.70 0.1613
1007.80 0.1615
1007.90 0.1616
1008.00 0.1618
1008.10 0.1619
1008.20 0.1621
1008.30 0.1623
1008.40 0.1624
1008.50 0.1626
1008.60 0.1627
1008.70 0.1629
1008.80 0.1631
1008.90 0.1632
1009.00 0.1634
1009.10 0.1635
1009.20 0.1637
1009.30 0.1639
1009.40 0.164
1009.50 0.1642
1009.60 0.1643
1009.70 0.1644
1009.80 0.1645
1009.90 0.1646
1010.00 0.1647
1010.10 0.1647
1010.20 0.1648
1010.30 0.1649
1010.40 0.165
1010.50 0.165
1010.60 0.1651
1010.70 0.1652
1010.80 0.1653
1010.90 0.1653
1011.00 0.1654
1011.10 0.1655
1011.20 0.1656
1011.30 0.1656
1011.40 0.1657
1011.50 0.1658
1011.60 0.1659
1011.70 0.1659
1011.80 0.166
1011.90 0.166
1012.00 0.1661
1012.10 0.1661
1012.20 0.1661
1012.30 0.1661
1012.40 0.1662
1012.50 0.1662
1012.60 0.1662
1012.70 0.1663
1012.80 0.1663
1012.90 0.1663
1013.00 0.1663
1013.10 0.1664
1013.20 0.1664
1013.30 0.1664
1013.40 0.1665
1013.50 0.1665
1013.60 0.1665
1013.70 0.1665
1013.80 0.1665
1013.90 0.1666
1014.00 0.1666
1014.10 0.1666
1014.20 0.1666
1014.30 0.1666
1014.40 0.1666
1014.50 0.1666
1014.60 0.1666
1014.70 0.1666
1014.80 0.1666
1014.90 0.1666
1015.00 0.1666
1015.10 0.1666
1015.20 0.1666
1015.30 0.1666
1015.40 0.1666
1015.50 0.1666
1015.60 0.1666
1015.70 0.1666
1015.80 0.1666
1015.90 0.1666
1016.00 0.1666
1016.10 0.1666
1016.20 0.1666
1016.30 0.1666
1016.40 0.1666
1016.50 0.1666
1016.60 0.1666
1016.70 0.1666
1016.80 0.1666
1016.90 0.1666
1017.00 0.1666
1017.10 0.1665
1017.20 0.1665
1017.30 0.1665
1017.40 0.1665
1017.50 0.1665
1017.60 0.1664
1017.70 0.1664
1017.80 0.1664
1017.90 0.1664
1018.00 0.1664
1018.10 0.1664
1018.20 0.1663
1018.30 0.1663
1018.40 0.1663
1018.50 0.1663
1018.60 0.1663
1018.70 0.1663
1018.80 0.1662
1018.90 0.1662
1019.00 0.1662
1019.10 0.1662
1019.20 0.1661
1019.30 0.1661
1019.40 0.1661
1019.50 0.1661
1019.60 0.166
1019.70 0.166
1019.80 0.166
1019.90 0.166
1020.00 0.1659
1020.10 0.1659
1020.20 0.1659
1020.30 0.1659
1020.40 0.1658
1020.50 0.1658
1020.60 0.1658
1020.70 0.1658
1020.80 0.1657
1020.90 0.1657
1021.00 0.1657
1021.10 0.1656
1021.20 0.1656
1021.30 0.1656
1021.40 0.1655
1021.50 0.1655
1021.60 0.1655
1021.70 0.1655
1021.80 0.1654
1021.90 0.1654
1022.00 0.1654
1022.10 0.1653
1022.20 0.1653
1022.30 0.1653
1022.40 0.1652
1022.50 0.1652
1022.60 0.1652
1022.70 0.1651
1022.80 0.1651
1022.90 0.1651
1023.00 0.165
1023.10 0.165
1023.20 0.165
1023.30 0.1649
1023.40 0.1649
1023.50 0.1649
1023.60 0.1648
1023.70 0.1648
1023.80 0.1647
1023.90 0.1647
1024.00 0.1647
1024.10 0.1646
1024.20 0.1646
1024.30 0.1646
1024.40 0.1645
1024.50 0.1645
1024.60 0.1645
1024.70 0.1644
1024.80 0.1644
1024.90 0.1644
1025.00 0.1643
1025.10 0.1643
1025.20 0.1642
1025.30 0.1642
1025.40 0.1642
1025.50 0.1641
1025.60 0.1641
1025.70 0.1641
1025.80 0.164
1025.90 0.164
1026.00 0.1639
1026.10 0.1639
1026.20 0.1639
1026.30 0.1638
1026.40 0.1638
1026.50 0.1638
1026.60 0.1637
1026.70 0.1637
1026.80 0.1636
1026.90 0.1636
1027.00 0.1636
1027.10 0.1635
1027.20 0.1635
1027.30 0.1634
1027.40 0.1634
1027.50 0.1634
1027.60 0.1633
1027.70 0.1633
1027.80 0.1632
1027.90 0.1632
1028.00 0.1631
1028.10 0.1631
1028.20 0.1631
1028.30 0.163
1028.40 0.163
1028.50 0.1629
1028.60 0.1629
1028.70 0.1629
1028.80 0.1628
1028.90 0.1628
1029.00 0.1627
1029.10 0.1627
1029.20 0.1627
1029.30 0.1626
1029.40 0.1626
1029.50 0.1625
1029.60 0.1625
1029.70 0.1625
1029.80 0.1624
1029.90 0.1624
1030.00 0.1623
1030.10 0.1623
1030.20 0.1623
1030.30 0.1622
1030.40 0.1622
1030.50 0.1621
1030.60 0.1621
1030.70 0.162
1030.80 0.162
1030.90 0.162
1031.00 0.1619
1031.10 0.1619
1031.20 0.1618
1031.30 0.1618
1031.40 0.1618
1031.50 0.1617
1031.60 0.1617
1031.70 0.1616
1031.80 0.1616
1031.90 0.1616
1032.00 0.1615
1032.10 0.1615
1032.20 0.1614
1032.30 0.1614
1032.40 0.1613
1032.50 0.1613
1032.60 0.1613
1032.70 0.1612
1032.80 0.1612
1032.90 0.1611
1033.00 0.1611
1033.10 0.161
1033.20 0.161
1033.30 0.161
1033.40 0.1609
1033.50 0.1609
1033.60 0.1608
1033.70 0.1608
1033.80 0.1607
1033.90 0.1607
1034.00 0.1607
1034.10 0.1606
1034.20 0.1606
1034.30 0.1605
1034.40 0.1605
1034.50 0.1604
1034.60 0.1604
1034.70 0.1604
1034.80 0.1603
1034.90 0.1603
1035.00 0.1602
1035.10 0.1602
1035.20 0.1601
1035.30 0.1601
1035.40 0.1601
1035.50 0.16
1035.60 0.16
1035.70 0.1599
1035.80 0.1599
1035.90 0.1598
1036.00 0.1598
1036.10 0.1598
1036.20 0.1597
1036.30 0.1597
1036.40 0.1596
1036.50 0.1596
1036.60 0.1596
1036.70 0.1595
1036.80 0.1595
1036.90 0.1594
1037.00 0.1594
1037.10 0.1593
1037.20 0.1593
1037.30 0.1592
1037.40 0.1592
1037.50 0.1592
1037.60 0.1591
1037.70 0.1591
1037.80 0.159
1037.90 0.159
1038.00 0.1589
1038.10 0.1589
1038.20 0.1589
1038.30 0.1588
1038.40 0.1588
1038.50 0.1587
1038.60 0.1587
1038.70 0.1586
1038.80 0.1586
1038.90 0.1586
1039.00 0.1585
1039.10 0.1585
1039.20 0.1584
1039.30 0.1584
1039.40 0.1583
1039.50 0.1583
1039.60 0.1582
1039.70 0.1582
1039.80 0.1582
1039.90 0.1581
1040.00 0.1581
1040.10 0.158
1040.20 0.158
1040.30 0.1579
1040.40 0.1579
1040.50 0.1579
1040.60 0.1578
1040.70 0.1578
1040.80 0.1577
1040.90 0.1577
1041.00 0.1576
1041.10 0.1576
1041.20 0.1576
1041.30 0.1575
1041.40 0.1575
1041.50 0.1574
1041.60 0.1574
1041.70 0.1573
1041.80 0.1573
1041.90 0.1573
1042.00 0.1572
1042.10 0.1572
1042.20 0.1571
1042.30 0.1571
1042.40 0.157
1042.50 0.157
1042.60 0.1569
1042.70 0.1569
1042.80 0.1569
1042.90 0.1568
1043.00 0.1568
1043.10 0.1567
1043.20 0.1567
1043.30 0.1566
1043.40 0.1566
1043.50 0.1566
1043.60 0.1565
1043.70 0.1565
1043.80 0.1564
1043.90 0.1564
1044.00 0.1563
1044.10 0.1563
1044.20 0.1562
1044.30 0.1562
1044.40 0.1562
1044.50 0.1561
1044.60 0.1561
1044.70 0.156
1044.80 0.156
1044.90 0.1559
1045.00 0.1559
1045.10 0.1559
1045.20 0.1558
1045.30 0.1558
1045.40 0.1557
1045.50 0.1557
1045.60 0.1556
1045.70 0.1556
1045.80 0.1556
1045.90 0.1555
1046.00 0.1555
1046.10 0.1554
1046.20 0.1554
1046.30 0.1553
1046.40 0.1553
1046.50 0.1552
1046.60 0.1552
1046.70 0.1552
1046.80 0.1551
1046.90 0.1551
1047.00 0.155
1047.10 0.155
1047.20 0.1549
1047.30 0.1549
1047.40 0.1549
1047.50 0.1548
1047.60 0.1548
1047.70 0.1547
1047.80 0.1547
1047.90 0.1546
1048.00 0.1546
1048.10 0.1545
1048.20 0.1545
1048.30 0.1545
1048.40 0.1544
1048.50 0.1544
1048.60 0.1543
1048.70 0.1543
1048.80 0.1542
1048.90 0.1542
1049.00 0.1542
1049.10 0.1541
1049.20 0.1541
1049.30 0.154
1049.40 0.154
1049.50 0.1539
1049.60 0.1539
1049.70 0.1539
1049.80 0.1538
1049.90 0.1538
1050.00 0.1537
1050.10 0.1537
1050.20 0.1536
1050.30 0.1536
1050.40 0.1535
1050.50 0.1535
1050.60 0.1535
1050.70 0.1534
1050.80 0.1534
1050.90 0.1533
1051.00 0.1533
1051.10 0.1532
1051.20 0.1532
1051.30 0.1532
1051.40 0.1531
1051.50 0.1531
1051.60 0.153
1051.70 0.153
1051.80 0.1529
1051.90 0.1529
1052.00 0.1529
1052.10 0.1528
1052.20 0.1528
1052.30 0.1527
1052.40 0.1527
1052.50 0.1526
1052.60 0.1526
1052.70 0.1525
1052.80 0.1525
1052.90 0.1525
1053.00 0.1524
1053.10 0.1524
1053.20 0.1523
1053.30 0.1523
1053.40 0.1522
1053.50 0.1522
1053.60 0.1522
1053.70 0.1521
1053.80 0.1521
1053.90 0.152
1054.00 0.152
1054.10 0.1519
1054.20 0.1519
1054.30 0.1518
1054.40 0.1518
1054.50 0.1518
1054.60 0.1517
1054.70 0.1517
1054.80 0.1516
1054.90 0.1516
1055.00 0.1515
1055.10 0.1515
1055.20 0.1515
1055.30 0.1514
1055.40 0.1514
1055.50 0.1513
1055.60 0.1513
1055.70 0.1512
1055.80 0.1512
1055.90 0.1512
1056.00 0.1511
1056.10 0.1511
1056.20 0.151
1056.30 0.151
1056.40 0.1509
1056.50 0.1509
1056.60 0.1509
1056.70 0.1508
1056.80 0.1508
1056.90 0.1507
1057.00 0.1507
1057.10 0.1506
1057.20 0.1506
1057.30 0.1505
1057.40 0.1505
1057.50 0.1505
1057.60 0.1504
1057.70 0.1504
1057.80 0.1503
1057.90 0.1503
1058.00 0.1502
1058.10 0.1502
1058.20 0.1502
1058.30 0.1501
1058.40 0.1501
1058.50 0.15
1058.60 0.15
1058.70 0.1499
1058.80 0.1499
1058.90 0.1498
1059.00 0.1498
1059.10 0.1498
1059.20 0.1497
1059.30 0.1497
1059.40 0.1496
1059.50 0.1496
1059.60 0.1495
1059.70 0.1495
1059.80 0.1495
1059.90 0.1494
1060.00 0.1494
1060.10 0.1493
1060.20 0.1493
1060.30 0.1492
1060.40 0.1492
1060.50 0.1491
1060.60 0.1491
1060.70 0.1491
1060.80 0.149
1060.90 0.149
1061.00 0.1489
1061.10 0.1489
1061.20 0.1488
1061.30 0.1488
1061.40 0.1488
1061.50 0.1487
1061.60 0.1487
1061.70 0.1486
1061.80 0.1486
1061.90 0.1485
1062.00 0.1485
1062.10 0.1484
1062.20 0.1484
1062.30 0.1484
1062.40 0.1483
1062.50 0.1483
1062.60 0.1482
1062.70 0.1482
1062.80 0.1481
1062.90 0.1481
1063.00 0.148
1063.10 0.148
1063.20 0.148
1063.30 0.1479
1063.40 0.1479
1063.50 0.1478
1063.60 0.1478
1063.70 0.1477
1063.80 0.1477
1063.90 0.1476
1064.00 0.1476
1064.10 0.1475
1064.20 0.1475
1064.30 0.1475
1064.40 0.1474
1064.50 0.1474
1064.60 0.1473
1064.70 0.1473
1064.80 0.1472
1064.90 0.1472
1065.00 0.1471
1065.10 0.1471
1065.20 0.147
1065.30 0.147
1065.40 0.147
1065.50 0.1469
1065.60 0.1469
1065.70 0.1468
1065.80 0.1468
1065.90 0.1467
1066.00 0.1467
1066.10 0.1466
1066.20 0.1466
1066.30 0.1466
1066.40 0.1465
1066.50 0.1465
1066.60 0.1464
1066.70 0.1464
1066.80 0.1463
1066.90 0.1463
1067.00 0.1462
1067.10 0.1462
1067.20 0.1461
1067.30 0.1461
1067.40 0.1461
1067.50 0.146
1067.60 0.146
1067.70 0.1459
1067.80 0.1459
1067.90 0.1458
1068.00 0.1458
1068.10 0.1457
1068.20 0.1457
1068.30 0.1456
1068.40 0.1456
1068.50 0.1455
1068.60 0.1455
1068.70 0.1454
1068.80 0.1454
1068.90 0.1453
1069.00 0.1453
1069.10 0.1452
1069.20 0.1452
1069.30 0.1452
1069.40 0.1451
1069.50 0.1451
1069.60 0.145
1069.70 0.145
1069.80 0.1449
1069.90 0.1449
1070.00 0.1448
1070.10 0.1448
1070.20 0.1447
1070.30 0.1447
1070.40 0.1446
1070.50 0.1446
1070.60 0.1445
1070.70 0.1445
1070.80 0.1444
1070.90 0.1444
1071.00 0.1444
1071.10 0.1443
1071.20 0.1443
1071.30 0.1442
1071.40 0.1442
1071.50 0.1441
1071.60 0.1441
1071.70 0.144
1071.80 0.144
1071.90 0.1439
1072.00 0.1439
1072.10 0.1438
1072.20 0.1438
1072.30 0.1437
1072.40 0.1437
1072.50 0.1436
1072.60 0.1436
1072.70 0.1435
1072.80 0.1435
1072.90 0.1434
1073.00 0.1434
1073.10 0.1433
1073.20 0.1433
1073.30 0.1432
1073.40 0.1432
1073.50 0.1431
1073.60 0.1431
1073.70 0.143
1073.80 0.1429
1073.90 0.1429
1074.00 0.1428
1074.10 0.1428
1074.20 0.1427
1074.30 0.1427
1074.40 0.1426
1074.50 0.1426
1074.60 0.1425
1074.70 0.1424
1074.80 0.1424
1074.90 0.1423
1075.00 0.1423
1075.10 0.1422
1075.20 0.1422
1075.30 0.1421
1075.40 0.1421
1075.50 0.142
1075.60 0.142
1075.70 0.1419
1075.80 0.1418
1075.90 0.1418
1076.00 0.1417
1076.10 0.1417
1076.20 0.1416
1076.30 0.1416
1076.40 0.1415
1076.50 0.1415
1076.60 0.1414
1076.70 0.1414
1076.80 0.1413
1076.90 0.1412
1077.00 0.1412
1077.10 0.1411
1077.20 0.1411
1077.30 0.141
1077.40 0.1409
1077.50 0.1409
1077.60 0.1408
1077.70 0.1408
1077.80 0.1407
1077.90 0.1406
1078.00 0.1406
1078.10 0.1405
1078.20 0.1404
1078.30 0.1404
1078.40 0.1403
1078.50 0.1402
1078.60 0.1402
1078.70 0.1401
1078.80 0.14
1078.90 0.14
1079.00 0.1399
1079.10 0.1399
1079.20 0.1398
1079.30 0.1397
1079.40 0.1397
1079.50 0.1396
1079.60 0.1395
1079.70 0.1394
1079.80 0.1394
1079.90 0.1393
1080.00 0.1392
1080.10 0.1392
1080.20 0.1391
1080.30 0.139
1080.40 0.1389
1080.50 0.1389
1080.60 0.1388
1080.70 0.1387
1080.80 0.1386
1080.90 0.1386
1081.00 0.1385
1081.10 0.1384
1081.20 0.1383
1081.30 0.1383
1081.40 0.1382
1081.50 0.1381
1081.60 0.138
1081.70 0.138
1081.80 0.1379
1081.90 0.1378
1082.00 0.1377
1082.10 0.1376
1082.20 0.1375
1082.30 0.1374
1082.40 0.1374
1082.50 0.1373
1082.60 0.1372
1082.70 0.1371
1082.80 0.137
1082.90 0.1369
1083.00 0.1368
1083.10 0.1367
1083.20 0.1366
1083.30 0.1365
1083.40 0.1365
1083.50 0.1364
1083.60 0.1363
1083.70 0.1361
1083.80 0.136
1083.90 0.1359
1084.00 0.1358
1084.10 0.1357
1084.20 0.1356
1084.30 0.1355
1084.40 0.1354
1084.50 0.1353
1084.60 0.1352
1084.70 0.1351
1084.80 0.1349
1084.90 0.1348
1085.00 0.1347
1085.10 0.1345
1085.20 0.1344
1085.30 0.1343
1085.40 0.1342
1085.50 0.134
1085.60 0.1339
1085.70 0.1338
1085.80 0.1336
1085.90 0.1335
1086.00 0.1334
1086.10 0.1333
1086.20 0.1331
1086.30 0.133
1086.40 0.1329
1086.50 0.1327
1086.60 0.1326
1086.70 0.1324
1086.80 0.1323
1086.90 0.1321
1087.00 0.132
1087.10 0.1318
1087.20 0.1316
1087.30 0.1314
1087.40 0.1312
1087.50 0.131
1087.60 0.1308
1087.70 0.1307
1087.80 0.1305
1087.90 0.1303
1088.00 0.1301
1088.10 0.1299
1088.20 0.1297
1088.30 0.1295
1088.40 0.1293
1088.50 0.1291
1088.60 0.1288
1088.70 0.1286
1088.80 0.1283
1088.90 0.128
1089.00 0.1277
1089.10 0.1274
1089.20 0.1271
1089.30 0.1268
1089.40 0.1266
1089.50 0.1263
1089.60 0.126
1089.70 0.1257
1089.80 0.1254
1089.90 0.1251
1090.00 0.1249
1090.10 0.1246
1090.20 0.1243
1090.30 0.124
1090.40 0.1237
1090.50 0.1234
1090.60 0.1229
1090.70 0.1224
1090.80 0.1218
1090.90 0.1213
1091.00 0.1208
1091.10 0.1203
1091.20 0.1198
1091.30 0.1193
1091.40 0.1188
1091.50 0.1183
1091.60 0.1178
1091.70 0.1173
1091.80 0.1168
1091.90 0.1163
1092.00 0.1157
1092.10 0.115
1092.20 0.1143
1092.30 0.1136
1092.40 0.1128
1092.50 0.1121
1092.60 0.1114
1092.70 0.1107
1092.80 0.1101
1092.90 0.1095
1093.00 0.1088
1093.10 0.1084
1093.20 0.1083
1093.30 0.1082
1093.40 0.1092
1093.50 0.1098
1093.60 0.1083
1093.70 0.1082
1093.80 0.1082
1093.90 0.1084
1094.00 0.1089
1094.10 0.1095
1094.20 0.1101
1094.30 0.1107
1094.40 0.1113
1094.50 0.112
1094.60 0.1126
1094.70 0.1132
1094.80 0.1139
1094.90 0.1145
1095.00 0.1151
1095.10 0.1155
1095.20 0.116
1095.30 0.1164
1095.40 0.1169
1095.50 0.1173
1095.60 0.1177
1095.70 0.1182
1095.80 0.1186
1095.90 0.119
1096.00 0.1195
1096.10 0.1199
1096.20 0.1203
1096.30 0.1208
1096.40 0.1212
1096.50 0.1216
1096.60 0.1219
1096.70 0.1221
1096.80 0.1224
1096.90 0.1227
1097.00 0.123
1097.10 0.1232
1097.20 0.1233
1097.30 0.1235
1097.40 0.1237
1097.50 0.1239
1097.60 0.1241
1097.70 0.1243
1097.80 0.1245
1097.90 0.1247
1098.00 0.1248
1098.10 0.125
1098.20 0.1252
1098.30 0.1254
1098.40 0.1256
1098.50 0.1257
1098.60 0.1258
1098.70 0.126
1098.80 0.1261
1098.90 0.1262
1099.00 0.1263
1099.10 0.1264
1099.20 0.1265
1099.30 0.1266
1099.40 0.1267
1099.50 0.1268
1099.60 0.1269
1099.70 0.127
1099.80 0.1271
1099.90 0.1272
1100.00 0.1273
1100.10 0.1274
1100.20 0.1275
1100.30 0.1276
1100.40 0.1277
1100.50 0.1278
1100.60 0.1279
1100.70 0.1279
1100.80 0.128
1100.90 0.128
1101.00 0.1281
1101.10 0.1281
1101.20 0.1282
1101.30 0.1282
1101.40 0.1283
1101.50 0.1284
1101.60 0.1284
1101.70 0.1285
1101.80 0.1285
1101.90 0.1286
1102.00 0.1286
1102.10 0.1287
1102.20 0.1287
1102.30 0.1287
1102.40 0.1288
1102.50 0.1288
1102.60 0.1288
1102.70 0.1289
1102.80 0.1289
1102.90 0.1289
1103.00 0.129
1103.10 0.129
1103.20 0.129
1103.30 0.129
1103.40 0.1291
1103.50 0.1291
1103.60 0.1291
1103.70 0.1291
1103.80 0.1291
1103.90 0.1291
1104.00 0.1292
1104.10 0.1292
1104.20 0.1292
1104.30 0.1292
1104.40 0.1292
1104.50 0.1292
1104.60 0.1292
1104.70 0.1292
1104.80 0.1293
1104.90 0.1293
1105.00 0.1293
1105.10 0.1293
1105.20 0.1293
1105.30 0.1293
1105.40 0.1293
1105.50 0.1293
1105.60 0.1293
1105.70 0.1293
1105.80 0.1293
1105.90 0.1293
1106.00 0.1293
1106.10 0.1293
1106.20 0.1293
1106.30 0.1293
1106.40 0.1293
1106.50 0.1293
1106.60 0.1293
1106.70 0.1293
1106.80 0.1293
1106.90 0.1293
1107.00 0.1293
1107.10 0.1293
1107.20 0.1293
1107.30 0.1293
1107.40 0.1293
1107.50 0.1293
1107.60 0.1293
1107.70 0.1293
1107.80 0.1293
1107.90 0.1292
1108.00 0.1292
1108.10 0.1292
1108.20 0.1292
1108.30 0.1292
1108.40 0.1292
1108.50 0.1292
1108.60 0.1292
1108.70 0.1292
1108.80 0.1291
1108.90 0.1291
1109.00 0.1291
1109.10 0.1291
1109.20 0.1291
1109.30 0.1291
1109.40 0.1291
1109.50 0.1291
1109.60 0.129
1109.70 0.129
1109.80 0.129
1109.90 0.129
1110.00 0.129
1110.10 0.129
1110.20 0.1289
1110.30 0.1289
1110.40 0.1289
1110.50 0.1289
1110.60 0.1289
1110.70 0.1288
1110.80 0.1288
1110.90 0.1288
1111.00 0.1288
1111.10 0.1288
1111.20 0.1288
1111.30 0.1287
1111.40 0.1287
1111.50 0.1287
1111.60 0.1287
1111.70 0.1287
1111.80 0.1286
1111.90 0.1286
1112.00 0.1286
1112.10 0.1286
1112.20 0.1286
1112.30 0.1285
1112.40 0.1285
1112.50 0.1285
1112.60 0.1285
1112.70 0.1285
1112.80 0.1284
1112.90 0.1284
1113.00 0.1284
1113.10 0.1284
1113.20 0.1283
1113.30 0.1283
1113.40 0.1283
1113.50 0.1283
1113.60 0.1282
1113.70 0.1282
1113.80 0.1282
1113.90 0.1282
1114.00 0.1281
1114.10 0.1281
1114.20 0.1281
1114.30 0.1281
1114.40 0.128
1114.50 0.128
1114.60 0.128
1114.70 0.128
1114.80 0.1279
1114.90 0.1279
1115.00 0.1279
1115.10 0.1279
1115.20 0.1278
1115.30 0.1278
1115.40 0.1278
1115.50 0.1278
1115.60 0.1277
1115.70 0.1277
1115.80 0.1277
1115.90 0.1277
1116.00 0.1276
1116.10 0.1276
1116.20 0.1276
1116.30 0.1276
1116.40 0.1275
1116.50 0.1275
1116.60 0.1275
1116.70 0.1275
1116.80 0.1274
1116.90 0.1274
1117.00 0.1274
1117.10 0.1273
1117.20 0.1273
1117.30 0.1273
1117.40 0.1273
1117.50 0.1272
1117.60 0.1272
1117.70 0.1272
1117.80 0.1271
1117.90 0.1271
1118.00 0.1271
1118.10 0.1271
1118.20 0.127
1118.30 0.127
1118.40 0.127
1118.50 0.1269
1118.60 0.1269
1118.70 0.1269
1118.80 0.1268
1118.90 0.1268
1119.00 0.1268
1119.10 0.1268
1119.20 0.1267
1119.30 0.1267
1119.40 0.1267
1119.50 0.1266
1119.60 0.1266
1119.70 0.1266
1119.80 0.1266
1119.90 0.1265
1120.00 0.1265
1120.10 0.1265
1120.20 0.1264
1120.30 0.1264
1120.40 0.1264
1120.50 0.1264
1120.60 0.1263
1120.70 0.1263
1120.80 0.1263
1120.90 0.1262
1121.00 0.1262
1121.10 0.1262
1121.20 0.1262
1121.30 0.1261
1121.40 0.1261
1121.50 0.1261
1121.60 0.126
1121.70 0.126
1121.80 0.126
1121.90 0.1259
1122.00 0.1259
1122.10 0.1259
1122.20 0.1259
1122.30 0.1258
1122.40 0.1258
1122.50 0.1258
1122.60 0.1257
1122.70 0.1257
1122.80 0.1257
1122.90 0.1256
1123.00 0.1256
1123.10 0.1256
1123.20 0.1256
1123.30 0.1255
1123.40 0.1255
1123.50 0.1255
1123.60 0.1254
1123.70 0.1254
1123.80 0.1254
1123.90 0.1253
1124.00 0.1253
1124.10 0.1253
1124.20 0.1252
1124.30 0.1252
1124.40 0.1252
1124.50 0.1252
1124.60 0.1251
1124.70 0.1251
1124.80 0.1251
1124.90 0.125
1125.00 0.125
1125.10 0.125
1125.20 0.1249
1125.30 0.1249
1125.40 0.1249
1125.50 0.1248
1125.60 0.1248
1125.70 0.1248
1125.80 0.1248
1125.90 0.1247
1126.00 0.1247
1126.10 0.1247
1126.20 0.1246
1126.30 0.1246
1126.40 0.1246
1126.50 0.1245
1126.60 0.1245
1126.70 0.1245
1126.80 0.1245
1126.90 0.1244
1127.00 0.1244
1127.10 0.1244
1127.20 0.1243
1127.30 0.1243
1127.40 0.1243
1127.50 0.1242
1127.60 0.1242
1127.70 0.1242
1127.80 0.1241
1127.90 0.1241
1128.00 0.1241
1128.10 0.124
1128.20 0.124
1128.30 0.124
1128.40 0.1239
1128.50 0.1239
1128.60 0.1239
1128.70 0.1239
1128.80 0.1238
1128.90 0.1238
1129.00 0.1238
1129.10 0.1237
1129.20 0.1237
1129.30 0.1237
1129.40 0.1236
1129.50 0.1236
1129.60 0.1236
1129.70 0.1235
1129.80 0.1235
1129.90 0.1235
1130.00 0.1234
1130.10 0.1234
1130.20 0.1234
1130.30 0.1234
1130.40 0.1233
1130.50 0.1233
1130.60 0.1233
1130.70 0.1232
1130.80 0.1232
1130.90 0.1232
1131.00 0.1231
1131.10 0.1231
1131.20 0.1231
1131.30 0.123
1131.40 0.123
1131.50 0.123
1131.60 0.1229
1131.70 0.1229
1131.80 0.1229
1131.90 0.1229
1132.00 0.1228
1132.10 0.1228
1132.20 0.1228
1132.30 0.1227
1132.40 0.1227
1132.50 0.1227
1132.60 0.1226
1132.70 0.1226
1132.80 0.1226
1132.90 0.1225
1133.00 0.1225
1133.10 0.1225
1133.20 0.1224
1133.30 0.1224
1133.40 0.1224
1133.50 0.1223
1133.60 0.1223
1133.70 0.1223
1133.80 0.1222
1133.90 0.1222
1134.00 0.1222
1134.10 0.1222
1134.20 0.1221
1134.30 0.1221
1134.40 0.1221
1134.50 0.122
1134.60 0.122
1134.70 0.122
1134.80 0.1219
1134.90 0.1219
1135.00 0.1219
1135.10 0.1218
1135.20 0.1218
1135.30 0.1218
1135.40 0.1217
1135.50 0.1217
1135.60 0.1217
1135.70 0.1217
1135.80 0.1216
1135.90 0.1216
1136.00 0.1216
1136.10 0.1215
1136.20 0.1215
1136.30 0.1215
1136.40 0.1214
1136.50 0.1214
1136.60 0.1214
1136.70 0.1213
1136.80 0.1213
1136.90 0.1213
1137.00 0.1212
1137.10 0.1212
1137.20 0.1212
1137.30 0.1211
1137.40 0.1211
1137.50 0.1211
1137.60 0.1211
1137.70 0.121
1137.80 0.121
1137.90 0.121
1138.00 0.1209
1138.10 0.1209
1138.20 0.1209
1138.30 0.1208
1138.40 0.1208
1138.50 0.1208
1138.60 0.1207
1138.70 0.1207
1138.80 0.1207
1138.90 0.1206
1139.00 0.1206
1139.10 0.1206
1139.20 0.1206
1139.30 0.1205
1139.40 0.1205
1139.50 0.1205
1139.60 0.1204
1139.70 0.1204
1139.80 0.1204
1139.90 0.1203
1140.00 0.1203
1140.10 0.1203
1140.20 0.1202
1140.30 0.1202
1140.40 0.1202
1140.50 0.1201
1140.60 0.1201
1140.70 0.1201
1140.80 0.1201
1140.90 0.12
1141.00 0.12
1141.10 0.12
1141.20 0.1199
1141.30 0.1199
1141.40 0.1199
1141.50 0.1198
1141.60 0.1198
1141.70 0.1198
1141.80 0.1197
1141.90 0.1197
1142.00 0.1197
1142.10 0.1196
1142.20 0.1196
1142.30 0.1196
1142.40 0.1196
1142.50 0.1195
1142.60 0.1195
1142.70 0.1195
1142.80 0.1194
1142.90 0.1194
1143.00 0.1194
1143.10 0.1193
1143.20 0.1193
1143.30 0.1193
1143.40 0.1192
1143.50 0.1192
1143.60 0.1192
1143.70 0.1191
1143.80 0.1191
1143.90 0.1191
1144.00 0.1191
1144.10 0.119
1144.20 0.119
1144.30 0.119
1144.40 0.1189
1144.50 0.1189
1144.60 0.1189
1144.70 0.1188
1144.80 0.1188
1144.90 0.1188
1145.00 0.1187
1145.10 0.1187
1145.20 0.1187
1145.30 0.1187
1145.40 0.1186
1145.50 0.1186
1145.60 0.1186
1145.70 0.1185
1145.80 0.1185
1145.90 0.1185
1146.00 0.1184
1146.10 0.1184
1146.20 0.1184
1146.30 0.1183
1146.40 0.1183
1146.50 0.1183
1146.60 0.1183
1146.70 0.1182
1146.80 0.1182
1146.90 0.1182
1147.00 0.1181
1147.10 0.1181
1147.20 0.1181
1147.30 0.118
1147.40 0.118
1147.50 0.118
1147.60 0.1179
1147.70 0.1179
1147.80 0.1179
1147.90 0.1179
1148.00 0.1178
1148.10 0.1178
1148.20 0.1178
1148.30 0.1177
1148.40 0.1177
1148.50 0.1177
1148.60 0.1176
1148.70 0.1176
1148.80 0.1176
1148.90 0.1175
1149.00 0.1175
1149.10 0.1175
1149.20 0.1175
1149.30 0.1174
1149.40 0.1174
1149.50 0.1174
1149.60 0.1173
1149.70 0.1173
1149.80 0.1173
1149.90 0.1172
1150.00 0.1172
1150.10 0.1172
1150.20 0.1171
1150.30 0.1171
1150.40 0.1171
1150.50 0.1171
1150.60 0.117
1150.70 0.117
1150.80 0.117
1150.90 0.1169
1151.00 0.1169
1151.10 0.1169
1151.20 0.1168
1151.30 0.1168
1151.40 0.1168
1151.50 0.1167
1151.60 0.1167
1151.70 0.1167
1151.80 0.1167
1151.90 0.1166
1152.00 0.1166
1152.10 0.1166
1152.20 0.1165
1152.30 0.1165
1152.40 0.1165
1152.50 0.1164
1152.60 0.1164
1152.70 0.1164
1152.80 0.1164
1152.90 0.1163
1153.00 0.1163
1153.10 0.1163
1153.20 0.1162
1153.30 0.1162
1153.40 0.1162
1153.50 0.1161
1153.60 0.1161
1153.70 0.1161
1153.80 0.116
1153.90 0.116
1154.00 0.116
1154.10 0.116
1154.20 0.1159
1154.30 0.1159
1154.40 0.1159
1154.50 0.1158
1154.60 0.1158
1154.70 0.1158
1154.80 0.1157
1154.90 0.1157
1155.00 0.1157
1155.10 0.1157
1155.20 0.1156
1155.30 0.1156
1155.40 0.1156
1155.50 0.1155
1155.60 0.1155
1155.70 0.1155
1155.80 0.1154
1155.90 0.1154
1156.00 0.1154
1156.10 0.1154
1156.20 0.1153
1156.30 0.1153
1156.40 0.1153
1156.50 0.1152
1156.60 0.1152
1156.70 0.1152
1156.80 0.1151
1156.90 0.1151
1157.00 0.1151
1157.10 0.1151
1157.20 0.115
1157.30 0.115
1157.40 0.115
1157.50 0.1149
1157.60 0.1149
1157.70 0.1149
1157.80 0.1148
1157.90 0.1148
1158.00 0.1148
1158.10 0.1148
1158.20 0.1147
1158.30 0.1147
1158.40 0.1147
1158.50 0.1146
1158.60 0.1146
1158.70 0.1146
1158.80 0.1145
1158.90 0.1145
1159.00 0.1145
1159.10 0.1145
1159.20 0.1144
1159.30 0.1144
1159.40 0.1144
1159.50 0.1143
1159.60 0.1143
1159.70 0.1143
1159.80 0.1142
1159.90 0.1142
1160.00 0.1142
1160.10 0.1142
1160.20 0.1141
1160.30 0.1141
1160.40 0.1141
1160.50 0.114
1160.60 0.114
1160.70 0.114
1160.80 0.1139
1160.90 0.1139
1161.00 0.1139
1161.10 0.1139
1161.20 0.1138
1161.30 0.1138
1161.40 0.1138
1161.50 0.1137
1161.60 0.1137
1161.70 0.1137
1161.80 0.1137
1161.90 0.1136
1162.00 0.1136
1162.10 0.1136
1162.20 0.1135
1162.30 0.1135
1162.40 0.1135
1162.50 0.1134
1162.60 0.1134
1162.70 0.1134
1162.80 0.1134
1162.90 0.1133
1163.00 0.1133
1163.10 0.1133
1163.20 0.1132
1163.30 0.1132
1163.40 0.1132
1163.50 0.1131
1163.60 0.1131
1163.70 0.1131
1163.80 0.1131
1163.90 0.113
1164.00 0.113
1164.10 0.113
1164.20 0.1129
1164.30 0.1129
1164.40 0.1129
1164.50 0.1129
1164.60 0.1128
1164.70 0.1128
1164.80 0.1128
1164.90 0.1127
1165.00 0.1127
1165.10 0.1127
1165.20 0.1126
1165.30 0.1126
1165.40 0.1126
1165.50 0.1126
1165.60 0.1125
1165.70 0.1125
1165.80 0.1125
1165.90 0.1124
1166.00 0.1124
1166.10 0.1124
1166.20 0.1124
1166.30 0.1123
1166.40 0.1123
1166.50 0.1123
1166.60 0.1122
1166.70 0.1122
1166.80 0.1122
1166.90 0.1122
1167.00 0.1121
1167.10 0.1121
1167.20 0.1121
1167.30 0.112
1167.40 0.112
1167.50 0.112
1167.60 0.1119
1167.70 0.1119
1167.80 0.1119
1167.90 0.1119
1168.00 0.1118
1168.10 0.1118
1168.20 0.1118
1168.30 0.1117
1168.40 0.1117
1168.50 0.1117
1168.60 0.1117
1168.70 0.1116
1168.80 0.1116
1168.90 0.1116
1169.00 0.1115
1169.10 0.1115
1169.20 0.1115
1169.30 0.1115
1169.40 0.1114
1169.50 0.1114
1169.60 0.1114
1169.70 0.1113
1169.80 0.1113
1169.90 0.1113
1170.00 0.1113
1170.10 0.1112
1170.20 0.1112
1170.30 0.1112
1170.40 0.1111
1170.50 0.1111
1170.60 0.1111
1170.70 0.1111
1170.80 0.111
1170.90 0.111
1171.00 0.111
1171.10 0.1109
1171.20 0.1109
1171.30 0.1109
1171.40 0.1108
1171.50 0.1108
1171.60 0.1108
1171.70 0.1108
1171.80 0.1107
1171.90 0.1107
1172.00 0.1107
1172.10 0.1106
1172.20 0.1106
1172.30 0.1106
1172.40 0.1106
1172.50 0.1105
1172.60 0.1105
1172.70 0.1105
1172.80 0.1104
1172.90 0.1104
1173.00 0.1104
1173.10 0.1104
1173.20 0.1103
1173.30 0.1103
1173.40 0.1103
1173.50 0.1102
1173.60 0.1102
1173.70 0.1102
1173.80 0.1102
1173.90 0.1101
1174.00 0.1101
1174.10 0.1101
1174.20 0.11
1174.30 0.11
1174.40 0.11
1174.50 0.11
1174.60 0.1099
1174.70 0.1099
1174.80 0.1099
1174.90 0.1098
1175.00 0.1098
1175.10 0.1098
1175.20 0.1098
1175.30 0.1097
1175.40 0.1097
1175.50 0.1097
1175.60 0.1096
1175.70 0.1096
1175.80 0.1096
1175.90 0.1096
1176.00 0.1095
1176.10 0.1095
1176.20 0.1095
1176.30 0.1094
1176.40 0.1094
1176.50 0.1094
1176.60 0.1094
1176.70 0.1093
1176.80 0.1093
1176.90 0.1093
1177.00 0.1093
1177.10 0.1092
1177.20 0.1092
1177.30 0.1092
1177.40 0.1091
1177.50 0.1091
1177.60 0.1091
1177.70 0.1091
1177.80 0.109
1177.90 0.109
1178.00 0.109
1178.10 0.1089
1178.20 0.1089
1178.30 0.1089
1178.40 0.1089
1178.50 0.1088
1178.60 0.1088
1178.70 0.1088
1178.80 0.1087
1178.90 0.1087
1179.00 0.1087
1179.10 0.1087
1179.20 0.1086
1179.30 0.1086
1179.40 0.1086
1179.50 0.1085
1179.60 0.1085
1179.70 0.1085
1179.80 0.1085
1179.90 0.1084
1180.00 0.1084
1180.10 0.1084
1180.20 0.1083
1180.30 0.1083
1180.40 0.1083
1180.50 0.1083
1180.60 0.1082
1180.70 0.1082
1180.80 0.1082
1180.90 0.1082
1181.00 0.1081
1181.10 0.1081
1181.20 0.1081
1181.30 0.108
1181.40 0.108
1181.50 0.108
1181.60 0.108
1181.70 0.1079
1181.80 0.1079
1181.90 0.1079
1182.00 0.1078
1182.10 0.1078
1182.20 0.1078
1182.30 0.1078
1182.40 0.1077
1182.50 0.1077
1182.60 0.1077
1182.70 0.1076
1182.80 0.1076
1182.90 0.1076
1183.00 0.1076
1183.10 0.1075
1183.20 0.1075
1183.30 0.1075
1183.40 0.1075
1183.50 0.1074
1183.60 0.1074
1183.70 0.1074
1183.80 0.1073
1183.90 0.1073
1184.00 0.1073
1184.10 0.1073
1184.20 0.1072
1184.30 0.1072
1184.40 0.1072
1184.50 0.1072
1184.60 0.1071
1184.70 0.1071
1184.80 0.1071
1184.90 0.107
1185.00 0.107
1185.10 0.107
1185.20 0.107
1185.30 0.1069
1185.40 0.1069
1185.50 0.1069
1185.60 0.1068
1185.70 0.1068
1185.80 0.1068
1185.90 0.1068
1186.00 0.1067
1186.10 0.1067
1186.20 0.1067
1186.30 0.1067
1186.40 0.1066
1186.50 0.1066
1186.60 0.1066
1186.70 0.1065
1186.80 0.1065
1186.90 0.1065
1187.00 0.1065
1187.10 0.1064
1187.20 0.1064
1187.30 0.1064
1187.40 0.1064
1187.50 0.1063
1187.60 0.1063
1187.70 0.1063
1187.80 0.1062
1187.90 0.1062
1188.00 0.1062
1188.10 0.1062
1188.20 0.1061
1188.30 0.1061
1188.40 0.1061
1188.50 0.1061
1188.60 0.106
1188.70 0.106
1188.80 0.106
1188.90 0.1059
1189.00 0.1059
1189.10 0.1059
1189.20 0.1059
1189.30 0.1058
1189.40 0.1058
1189.50 0.1058
1189.60 0.1058
1189.70 0.1057
1189.80 0.1057
1189.90 0.1057
1190.00 0.1056
1190.10 0.1056
1190.20 0.1056
1190.30 0.1056
1190.40 0.1055
1190.50 0.1055
1190.60 0.1055
1190.70 0.1055
1190.80 0.1054
1190.90 0.1054
1191.00 0.1054
1191.10 0.1053
1191.20 0.1053
1191.30 0.1053
1191.40 0.1053
1191.50 0.1052
1191.60 0.1052
1191.70 0.1052
1191.80 0.1052
1191.90 0.1051
1192.00 0.1051
1192.10 0.1051
1192.20 0.105
1192.30 0.105
1192.40 0.105
1192.50 0.105
1192.60 0.1049
1192.70 0.1049
1192.80 0.1049
1192.90 0.1049
1193.00 0.1048
1193.10 0.1048
1193.20 0.1048
1193.30 0.1048
1193.40 0.1047
1193.50 0.1047
1193.60 0.1047
1193.70 0.1046
1193.80 0.1046
1193.90 0.1046
1194.00 0.1046
1194.10 0.1045
1194.20 0.1045
1194.30 0.1045
1194.40 0.1045
1194.50 0.1044
1194.60 0.1044
1194.70 0.1044
1194.80 0.1043
1194.90 0.1043
1195.00 0.1043
1195.10 0.1043
1195.20 0.1042
1195.30 0.1042
1195.40 0.1042
1195.50 0.1042
1195.60 0.1041
1195.70 0.1041
1195.80 0.1041
1195.90 0.1041
1196.00 0.104
1196.10 0.104
1196.20 0.104
1196.30 0.1039
1196.40 0.1039
1196.50 0.1039
1196.60 0.1039
1196.70 0.1038
1196.80 0.1038
1196.90 0.1038
1197.00 0.1038
1197.10 0.1037
1197.20 0.1037
1197.30 0.1037
1197.40 0.1037
1197.50 0.1036
1197.60 0.1036
1197.70 0.1036
1197.80 0.1035
1197.90 0.1035
1198.00 0.1035
1198.10 0.1035
1198.20 0.1034
1198.30 0.1034
1198.40 0.1034
1198.50 0.1034
1198.60 0.1033
1198.70 0.1033
1198.80 0.1033
1198.90 0.1033
1199.00 0.1032
1199.10 0.1032
1199.20 0.1032
1199.30 0.1031
1199.40 0.1031
1199.50 0.1031
1199.60 0.1031
1199.70 0.103
1199.80 0.103
1199.90 0.103
1200.00 0
