# Version 2.1 - nm, norm@500 to 1, cut digits, bergeron_5500_70.dat_5500
# Wavelength(nm)  Flambda(ergs/cm^s/s/nm)
300.00 0.5122
300.10 0.5127
300.20 0.5132
300.30 0.5137
300.40 0.5141
300.50 0.5146
300.60 0.5151
300.70 0.5156
300.80 0.5161
300.90 0.5166
301.00 0.5171
301.10 0.5176
301.20 0.5181
301.30 0.5186
301.40 0.5191
301.50 0.5195
301.60 0.52
301.70 0.5205
301.80 0.521
301.90 0.5215
302.00 0.522
302.10 0.5225
302.20 0.523
302.30 0.5235
302.40 0.5239
302.50 0.5244
302.60 0.5249
302.70 0.5254
302.80 0.5259
302.90 0.5264
303.00 0.5269
303.10 0.5274
303.20 0.5279
303.30 0.5283
303.40 0.5288
303.50 0.5293
303.60 0.5298
303.70 0.5303
303.80 0.5308
303.90 0.5312
304.00 0.5317
304.10 0.5322
304.20 0.5327
304.30 0.5332
304.40 0.5337
304.50 0.5342
304.60 0.5347
304.70 0.5352
304.80 0.5356
304.90 0.5361
305.00 0.5366
305.10 0.5371
305.20 0.5376
305.30 0.5381
305.40 0.5386
305.50 0.539
305.60 0.5395
305.70 0.54
305.80 0.5405
305.90 0.541
306.00 0.5414
306.10 0.5419
306.20 0.5424
306.30 0.5429
306.40 0.5434
306.50 0.5439
306.60 0.5444
306.70 0.5448
306.80 0.5453
306.90 0.5458
307.00 0.5463
307.10 0.5468
307.20 0.5473
307.30 0.5477
307.40 0.5482
307.50 0.5487
307.60 0.5492
307.70 0.5497
307.80 0.5501
307.90 0.5506
308.00 0.5511
308.10 0.5516
308.20 0.5521
308.30 0.5525
308.40 0.553
308.50 0.5535
308.60 0.554
308.70 0.5545
308.80 0.555
308.90 0.5554
309.00 0.5559
309.10 0.5564
309.20 0.5569
309.30 0.5573
309.40 0.5578
309.50 0.5583
309.60 0.5588
309.70 0.5593
309.80 0.5597
309.90 0.5602
310.00 0.5607
310.10 0.5612
310.20 0.5616
310.30 0.5621
310.40 0.5626
310.50 0.5631
310.60 0.5636
310.70 0.564
310.80 0.5645
310.90 0.565
311.00 0.5655
311.10 0.566
311.20 0.5664
311.30 0.5669
311.40 0.5674
311.50 0.5678
311.60 0.5683
311.70 0.5688
311.80 0.5693
311.90 0.5697
312.00 0.5702
312.10 0.5707
312.20 0.5711
312.30 0.5716
312.40 0.5721
312.50 0.5726
312.60 0.5731
312.70 0.5735
312.80 0.574
312.90 0.5745
313.00 0.575
313.10 0.5754
313.20 0.5759
313.30 0.5764
313.40 0.5768
313.50 0.5773
313.60 0.5778
313.70 0.5782
313.80 0.5787
313.90 0.5792
314.00 0.5797
314.10 0.5801
314.20 0.5806
314.30 0.5811
314.40 0.5816
314.50 0.582
314.60 0.5825
314.70 0.583
314.80 0.5834
314.90 0.5839
315.00 0.5844
315.10 0.5848
315.20 0.5853
315.30 0.5858
315.40 0.5862
315.50 0.5867
315.60 0.5872
315.70 0.5876
315.80 0.5881
315.90 0.5886
316.00 0.589
316.10 0.5895
316.20 0.59
316.30 0.5904
316.40 0.5909
316.50 0.5914
316.60 0.5919
316.70 0.5923
316.80 0.5928
316.90 0.5932
317.00 0.5937
317.10 0.5942
317.20 0.5946
317.30 0.5951
317.40 0.5956
317.50 0.596
317.60 0.5965
317.70 0.597
317.80 0.5974
317.90 0.5979
318.00 0.5983
318.10 0.5988
318.20 0.5993
318.30 0.5997
318.40 0.6002
318.50 0.6007
318.60 0.6011
318.70 0.6016
318.80 0.6021
318.90 0.6025
319.00 0.603
319.10 0.6034
319.20 0.6039
319.30 0.6044
319.40 0.6048
319.50 0.6053
319.60 0.6057
319.70 0.6062
319.80 0.6066
319.90 0.6071
320.00 0.6076
320.10 0.608
320.20 0.6085
320.30 0.6089
320.40 0.6094
320.50 0.6099
320.60 0.6103
320.70 0.6108
320.80 0.6113
320.90 0.6117
321.00 0.6122
321.10 0.6126
321.20 0.6131
321.30 0.6135
321.40 0.614
321.50 0.6145
321.60 0.6149
321.70 0.6154
321.80 0.6158
321.90 0.6163
322.00 0.6167
322.10 0.6172
322.20 0.6176
322.30 0.6181
322.40 0.6186
322.50 0.619
322.60 0.6195
322.70 0.6199
322.80 0.6204
322.90 0.6208
323.00 0.6213
323.10 0.6217
323.20 0.6222
323.30 0.6227
323.40 0.6231
323.50 0.6236
323.60 0.624
323.70 0.6245
323.80 0.6249
323.90 0.6254
324.00 0.6258
324.10 0.6263
324.20 0.6267
324.30 0.6272
324.40 0.6276
324.50 0.6281
324.60 0.6285
324.70 0.629
324.80 0.6294
324.90 0.6299
325.00 0.6303
325.10 0.6308
325.20 0.6312
325.30 0.6317
325.40 0.6321
325.50 0.6326
325.60 0.633
325.70 0.6334
325.80 0.6339
325.90 0.6343
326.00 0.6348
326.10 0.6352
326.20 0.6357
326.30 0.6361
326.40 0.6366
326.50 0.637
326.60 0.6375
326.70 0.6379
326.80 0.6384
326.90 0.6388
327.00 0.6392
327.10 0.6397
327.20 0.6401
327.30 0.6406
327.40 0.641
327.50 0.6415
327.60 0.6419
327.70 0.6423
327.80 0.6428
327.90 0.6432
328.00 0.6437
328.10 0.6441
328.20 0.6445
328.30 0.645
328.40 0.6454
328.50 0.6459
328.60 0.6463
328.70 0.6468
328.80 0.6472
328.90 0.6477
329.00 0.6481
329.10 0.6485
329.20 0.649
329.30 0.6494
329.40 0.6499
329.50 0.6503
329.60 0.6507
329.70 0.6512
329.80 0.6516
329.90 0.652
330.00 0.6525
330.10 0.6529
330.20 0.6534
330.30 0.6538
330.40 0.6542
330.50 0.6547
330.60 0.6551
330.70 0.6555
330.80 0.656
330.90 0.6564
331.00 0.6568
331.10 0.6573
331.20 0.6577
331.30 0.6581
331.40 0.6586
331.50 0.659
331.60 0.6594
331.70 0.6599
331.80 0.6603
331.90 0.6607
332.00 0.6612
332.10 0.6616
332.20 0.662
332.30 0.6625
332.40 0.6629
332.50 0.6633
332.60 0.6638
332.70 0.6642
332.80 0.6646
332.90 0.6651
333.00 0.6655
333.10 0.6659
333.20 0.6663
333.30 0.6668
333.40 0.6672
333.50 0.6676
333.60 0.668
333.70 0.6685
333.80 0.6689
333.90 0.6693
334.00 0.6697
334.10 0.6702
334.20 0.6706
334.30 0.671
334.40 0.6715
334.50 0.6719
334.60 0.6723
334.70 0.6727
334.80 0.6732
334.90 0.6736
335.00 0.674
335.10 0.6744
335.20 0.6749
335.30 0.6753
335.40 0.6757
335.50 0.6761
335.60 0.6766
335.70 0.677
335.80 0.6774
335.90 0.6778
336.00 0.6782
336.10 0.6787
336.20 0.6791
336.30 0.6795
336.40 0.6799
336.50 0.6804
336.60 0.6808
336.70 0.6812
336.80 0.6816
336.90 0.6821
337.00 0.6825
337.10 0.6829
337.20 0.6833
337.30 0.6838
337.40 0.6842
337.50 0.6846
337.60 0.685
337.70 0.6854
337.80 0.6859
337.90 0.6863
338.00 0.6867
338.10 0.6871
338.20 0.6875
338.30 0.6879
338.40 0.6884
338.50 0.6888
338.60 0.6892
338.70 0.6896
338.80 0.69
338.90 0.6904
339.00 0.6909
339.10 0.6913
339.20 0.6917
339.30 0.6921
339.40 0.6925
339.50 0.6929
339.60 0.6933
339.70 0.6937
339.80 0.6941
339.90 0.6945
340.00 0.695
340.10 0.6954
340.20 0.6958
340.30 0.6962
340.40 0.6966
340.50 0.697
340.60 0.6974
340.70 0.6979
340.80 0.6983
340.90 0.6987
341.00 0.6991
341.10 0.6995
341.20 0.6999
341.30 0.7003
341.40 0.7007
341.50 0.7011
341.60 0.7016
341.70 0.702
341.80 0.7024
341.90 0.7028
342.00 0.7032
342.10 0.7036
342.20 0.704
342.30 0.7044
342.40 0.7048
342.50 0.7052
342.60 0.7056
342.70 0.706
342.80 0.7064
342.90 0.7068
343.00 0.7073
343.10 0.7077
343.20 0.7081
343.30 0.7085
343.40 0.7089
343.50 0.7093
343.60 0.7097
343.70 0.7101
343.80 0.7105
343.90 0.7109
344.00 0.7113
344.10 0.7117
344.20 0.7121
344.30 0.7125
344.40 0.7129
344.50 0.7133
344.60 0.7137
344.70 0.7141
344.80 0.7145
344.90 0.7149
345.00 0.7153
345.10 0.7157
345.20 0.7161
345.30 0.7165
345.40 0.7169
345.50 0.7173
345.60 0.7176
345.70 0.718
345.80 0.7184
345.90 0.7188
346.00 0.7192
346.10 0.7196
346.20 0.72
346.30 0.7204
346.40 0.7208
346.50 0.7212
346.60 0.7216
346.70 0.722
346.80 0.7224
346.90 0.7228
347.00 0.7232
347.10 0.7236
347.20 0.724
347.30 0.7244
347.40 0.7248
347.50 0.7251
347.60 0.7255
347.70 0.7259
347.80 0.7263
347.90 0.7267
348.00 0.7271
348.10 0.7275
348.20 0.7279
348.30 0.7283
348.40 0.7287
348.50 0.7291
348.60 0.7295
348.70 0.7298
348.80 0.7302
348.90 0.7306
349.00 0.731
349.10 0.7314
349.20 0.7318
349.30 0.7322
349.40 0.7326
349.50 0.733
349.60 0.7333
349.70 0.7337
349.80 0.7341
349.90 0.7345
350.00 0.7349
350.10 0.7353
350.20 0.7357
350.30 0.736
350.40 0.7364
350.50 0.7368
350.60 0.7372
350.70 0.7376
350.80 0.738
350.90 0.7383
351.00 0.7387
351.10 0.7391
351.20 0.7395
351.30 0.7399
351.40 0.7402
351.50 0.7406
351.60 0.741
351.70 0.7414
351.80 0.7417
351.90 0.7421
352.00 0.7425
352.10 0.7429
352.20 0.7433
352.30 0.7436
352.40 0.744
352.50 0.7444
352.60 0.7448
352.70 0.7452
352.80 0.7455
352.90 0.7459
353.00 0.7463
353.10 0.7467
353.20 0.747
353.30 0.7474
353.40 0.7478
353.50 0.7482
353.60 0.7485
353.70 0.7489
353.80 0.7493
353.90 0.7497
354.00 0.75
354.10 0.7504
354.20 0.7508
354.30 0.7512
354.40 0.7515
354.50 0.7519
354.60 0.7523
354.70 0.7527
354.80 0.753
354.90 0.7534
355.00 0.7538
355.10 0.7541
355.20 0.7545
355.30 0.7549
355.40 0.7553
355.50 0.7556
355.60 0.756
355.70 0.7564
355.80 0.7567
355.90 0.7571
356.00 0.7575
356.10 0.7578
356.20 0.7582
356.30 0.7586
356.40 0.7589
356.50 0.7593
356.60 0.7597
356.70 0.76
356.80 0.7604
356.90 0.7608
357.00 0.7611
357.10 0.7615
357.20 0.7619
357.30 0.7622
357.40 0.7626
357.50 0.7629
357.60 0.7633
357.70 0.7637
357.80 0.764
357.90 0.7644
358.00 0.7648
358.10 0.7651
358.20 0.7655
358.30 0.7658
358.40 0.7662
358.50 0.7666
358.60 0.7669
358.70 0.7673
358.80 0.7677
358.90 0.768
359.00 0.7684
359.10 0.7687
359.20 0.7691
359.30 0.7694
359.40 0.7698
359.50 0.7702
359.60 0.7705
359.70 0.7709
359.80 0.7712
359.90 0.7716
360.00 0.7719
360.10 0.7723
360.20 0.7727
360.30 0.773
360.40 0.7734
360.50 0.7737
360.60 0.7741
360.70 0.7744
360.80 0.7748
360.90 0.7751
361.00 0.7755
361.10 0.7758
361.20 0.7762
361.30 0.7766
361.40 0.7769
361.50 0.7773
361.60 0.7776
361.70 0.778
361.80 0.7783
361.90 0.7787
362.00 0.779
362.10 0.7794
362.20 0.7797
362.30 0.7801
362.40 0.7804
362.50 0.7808
362.60 0.7811
362.70 0.7815
362.80 0.7818
362.90 0.7822
363.00 0.7825
363.10 0.7829
363.20 0.7832
363.30 0.7836
363.40 0.7839
363.50 0.7843
363.60 0.7846
363.70 0.7849
363.80 0.7853
363.90 0.7856
364.00 0.786
364.10 0.7863
364.20 0.7867
364.30 0.787
364.40 0.7873
364.50 0.7877
364.60 0.7881
364.70 0.7884
364.80 0.7887
364.90 0.7891
365.00 0.7894
365.10 0.7898
365.20 0.7901
365.30 0.7904
365.40 0.7908
365.50 0.7911
365.60 0.7915
365.70 0.7918
365.80 0.7921
365.90 0.7925
366.00 0.7928
366.10 0.7931
366.20 0.7935
366.30 0.7938
366.40 0.7942
366.50 0.7945
366.60 0.7948
366.70 0.7952
366.80 0.7955
366.90 0.7958
367.00 0.7962
367.10 0.7965
367.20 0.7968
367.30 0.7972
367.40 0.7975
367.50 0.7978
367.60 0.7982
367.70 0.7985
367.80 0.7988
367.90 0.7992
368.00 0.7995
368.10 0.7998
368.20 0.8002
368.30 0.8005
368.40 0.8008
368.50 0.8012
368.60 0.8015
368.70 0.8018
368.80 0.8022
368.90 0.8025
369.00 0.8028
369.10 0.8032
369.20 0.8035
369.30 0.8038
369.40 0.8041
369.50 0.8045
369.60 0.8048
369.70 0.8051
369.80 0.8054
369.90 0.8058
370.00 0.8061
370.10 0.8064
370.20 0.8068
370.30 0.8071
370.40 0.8074
370.50 0.8077
370.60 0.8081
370.70 0.8084
370.80 0.8087
370.90 0.809
371.00 0.8094
371.10 0.8097
371.20 0.81
371.30 0.8103
371.40 0.8107
371.50 0.811
371.60 0.8113
371.70 0.8116
371.80 0.8119
371.90 0.8123
372.00 0.8126
372.10 0.8129
372.20 0.8132
372.30 0.8136
372.40 0.8139
372.50 0.8142
372.60 0.8145
372.70 0.8149
372.80 0.8152
372.90 0.8155
373.00 0.8158
373.10 0.8161
373.20 0.8165
373.30 0.8168
373.40 0.8171
373.50 0.8174
373.60 0.8177
373.70 0.8181
373.80 0.8184
373.90 0.8187
374.00 0.819
374.10 0.8193
374.20 0.8197
374.30 0.82
374.40 0.8203
374.50 0.8206
374.60 0.821
374.70 0.8213
374.80 0.8216
374.90 0.8219
375.00 0.8223
375.10 0.8226
375.20 0.8229
375.30 0.8232
375.40 0.8235
375.50 0.8238
375.60 0.8242
375.70 0.8245
375.80 0.8248
375.90 0.8251
376.00 0.8254
376.10 0.8258
376.20 0.8261
376.30 0.8264
376.40 0.8267
376.50 0.8271
376.60 0.8274
376.70 0.8277
376.80 0.828
376.90 0.8284
377.00 0.8287
377.10 0.829
377.20 0.8293
377.30 0.8297
377.40 0.83
377.50 0.8303
377.60 0.8306
377.70 0.831
377.80 0.8313
377.90 0.8316
378.00 0.8319
378.10 0.8322
378.20 0.8325
378.30 0.8328
378.40 0.8331
378.50 0.8334
378.60 0.8337
378.70 0.834
378.80 0.8343
378.90 0.8346
379.00 0.8349
379.10 0.835
379.20 0.8351
379.30 0.8352
379.40 0.8353
379.50 0.8354
379.60 0.8355
379.70 0.8356
379.80 0.8357
379.90 0.8358
380.00 0.8359
380.10 0.8364
380.20 0.837
380.30 0.8376
380.40 0.8381
380.50 0.8387
380.60 0.8392
380.70 0.8398
380.80 0.8403
380.90 0.8409
381.00 0.8415
381.10 0.8418
381.20 0.8421
381.30 0.8424
381.40 0.8427
381.50 0.8431
381.60 0.8434
381.70 0.8437
381.80 0.844
381.90 0.8443
382.00 0.8446
382.10 0.8449
382.20 0.8451
382.30 0.8452
382.40 0.8452
382.50 0.8452
382.60 0.8452
382.70 0.8452
382.80 0.8452
382.90 0.8452
383.00 0.8452
383.10 0.8452
383.20 0.8452
383.30 0.8435
383.40 0.8399
383.50 0.8331
383.60 0.8353
383.70 0.8419
383.80 0.8455
383.90 0.8476
384.00 0.8489
384.10 0.8498
384.20 0.8505
384.30 0.851
384.40 0.8515
384.50 0.8519
384.60 0.8523
384.70 0.8527
384.80 0.8531
384.90 0.8534
385.00 0.8537
385.10 0.854
385.20 0.8543
385.30 0.8546
385.40 0.8549
385.50 0.8553
385.60 0.8556
385.70 0.8559
385.80 0.8562
385.90 0.8565
386.00 0.8567
386.10 0.857
386.20 0.8573
386.30 0.8576
386.40 0.8579
386.50 0.8582
386.60 0.8585
386.70 0.8587
386.80 0.859
386.90 0.8593
387.00 0.8596
387.10 0.8598
387.20 0.8601
387.30 0.8603
387.40 0.8606
387.50 0.8608
387.60 0.8611
387.70 0.8613
387.80 0.8614
387.90 0.8616
388.00 0.8617
388.10 0.8617
388.20 0.8616
388.30 0.8613
388.40 0.8606
388.50 0.8592
388.60 0.8571
388.70 0.8509
388.80 0.8391
388.90 0.8216
389.00 0.8389
389.10 0.8512
389.20 0.8584
389.30 0.8612
389.40 0.8633
389.50 0.8647
389.60 0.8655
389.70 0.8662
389.80 0.8667
389.90 0.8672
390.00 0.8676
390.10 0.868
390.20 0.8684
390.30 0.8687
390.40 0.869
390.50 0.8693
390.60 0.8696
390.70 0.8699
390.80 0.8702
390.90 0.8705
391.00 0.8708
391.10 0.8711
391.20 0.8714
391.30 0.8717
391.40 0.8719
391.50 0.8722
391.60 0.8725
391.70 0.8728
391.80 0.873
391.90 0.8733
392.00 0.8736
392.10 0.8739
392.20 0.8741
392.30 0.8744
392.40 0.8747
392.50 0.8749
392.60 0.8752
392.70 0.8755
392.80 0.8757
392.90 0.876
393.00 0.8763
393.10 0.8765
393.20 0.8768
393.30 0.877
393.40 0.8773
393.50 0.8776
393.60 0.8778
393.70 0.8781
393.80 0.8783
393.90 0.8786
394.00 0.8788
394.10 0.8791
394.20 0.8794
394.30 0.8796
394.40 0.8798
394.50 0.8801
394.60 0.8803
394.70 0.8806
394.80 0.8808
394.90 0.8811
395.00 0.8813
395.10 0.8815
395.20 0.8817
395.30 0.8819
395.40 0.8821
395.50 0.8823
395.60 0.8825
395.70 0.8826
395.80 0.8827
395.90 0.8828
396.00 0.8829
396.10 0.8829
396.20 0.8826
396.30 0.8823
396.40 0.8817
396.50 0.8803
396.60 0.8777
396.70 0.8739
396.80 0.8624
396.90 0.838
397.00 0.8008
397.10 0.8365
397.20 0.8611
397.30 0.8746
397.40 0.8792
397.50 0.8825
397.60 0.8846
397.70 0.8857
397.80 0.8866
397.90 0.8873
398.00 0.8879
398.10 0.8883
398.20 0.8888
398.30 0.8891
398.40 0.8895
398.50 0.8898
398.60 0.8901
398.70 0.8904
398.80 0.8907
398.90 0.891
399.00 0.8913
399.10 0.8916
399.20 0.8918
399.30 0.8921
399.40 0.8923
399.50 0.8926
399.60 0.8929
399.70 0.8931
399.80 0.8934
399.90 0.8936
400.00 0.8939
400.10 0.8941
400.20 0.8944
400.30 0.8946
400.40 0.8949
400.50 0.8951
400.60 0.8953
400.70 0.8956
400.80 0.8958
400.90 0.896
401.00 0.8963
401.10 0.8965
401.20 0.8968
401.30 0.897
401.40 0.8973
401.50 0.8975
401.60 0.8977
401.70 0.898
401.80 0.8982
401.90 0.8984
402.00 0.8987
402.10 0.8989
402.20 0.8992
402.30 0.8994
402.40 0.8996
402.50 0.8998
402.60 0.9001
402.70 0.9003
402.80 0.9005
402.90 0.9008
403.00 0.901
403.10 0.9012
403.20 0.9015
403.30 0.9017
403.40 0.9019
403.50 0.9022
403.60 0.9024
403.70 0.9026
403.80 0.9028
403.90 0.9031
404.00 0.9033
404.10 0.9035
404.20 0.9037
404.30 0.904
404.40 0.9042
404.50 0.9044
404.60 0.9046
404.70 0.9048
404.80 0.9051
404.90 0.9053
405.00 0.9055
405.10 0.9057
405.20 0.906
405.30 0.9062
405.40 0.9064
405.50 0.9066
405.60 0.9068
405.70 0.9071
405.80 0.9073
405.90 0.9075
406.00 0.9077
406.10 0.9079
406.20 0.9082
406.30 0.9084
406.40 0.9086
406.50 0.9088
406.60 0.909
406.70 0.9092
406.80 0.9094
406.90 0.9096
407.00 0.9098
407.10 0.91
407.20 0.9102
407.30 0.9105
407.40 0.9107
407.50 0.9109
407.60 0.911
407.70 0.9112
407.80 0.9114
407.90 0.9116
408.00 0.9118
408.10 0.912
408.20 0.9121
408.30 0.9123
408.40 0.9125
408.50 0.9126
408.60 0.9127
408.70 0.9128
408.80 0.9129
408.90 0.9129
409.00 0.9129
409.10 0.9129
409.20 0.9127
409.30 0.9124
409.40 0.9118
409.50 0.9109
409.60 0.9097
409.70 0.9069
409.80 0.9016
409.90 0.894
410.00 0.8671
410.10 0.8275
410.20 0.7751
410.30 0.8422
410.40 0.8841
410.50 0.901
410.60 0.9066
410.70 0.9107
410.80 0.9132
410.90 0.9145
411.00 0.9156
411.10 0.9165
411.20 0.9171
411.30 0.9176
411.40 0.9181
411.50 0.9184
411.60 0.9188
411.70 0.9191
411.80 0.9194
411.90 0.9197
412.00 0.92
412.10 0.9202
412.20 0.9205
412.30 0.9208
412.40 0.921
412.50 0.9212
412.60 0.9214
412.70 0.9217
412.80 0.9219
412.90 0.9221
413.00 0.9223
413.10 0.9225
413.20 0.9227
413.30 0.923
413.40 0.9232
413.50 0.9234
413.60 0.9236
413.70 0.9238
413.80 0.924
413.90 0.9242
414.00 0.9244
414.10 0.9246
414.20 0.9248
414.30 0.925
414.40 0.9252
414.50 0.9254
414.60 0.9256
414.70 0.9258
414.80 0.926
414.90 0.9262
415.00 0.9264
415.10 0.9266
415.20 0.9268
415.30 0.927
415.40 0.9272
415.50 0.9274
415.60 0.9276
415.70 0.9278
415.80 0.928
415.90 0.9282
416.00 0.9284
416.10 0.9286
416.20 0.9288
416.30 0.929
416.40 0.9291
416.50 0.9293
416.60 0.9295
416.70 0.9297
416.80 0.9299
416.90 0.9301
417.00 0.9303
417.10 0.9305
417.20 0.9307
417.30 0.9308
417.40 0.931
417.50 0.9312
417.60 0.9314
417.70 0.9316
417.80 0.9318
417.90 0.932
418.00 0.9321
418.10 0.9323
418.20 0.9325
418.30 0.9327
418.40 0.9329
418.50 0.9331
418.60 0.9332
418.70 0.9334
418.80 0.9336
418.90 0.9338
419.00 0.934
419.10 0.9342
419.20 0.9343
419.30 0.9345
419.40 0.9347
419.50 0.9349
419.60 0.9351
419.70 0.9353
419.80 0.9354
419.90 0.9356
420.00 0.9358
420.10 0.936
420.20 0.9362
420.30 0.9363
420.40 0.9365
420.50 0.9367
420.60 0.9369
420.70 0.937
420.80 0.9372
420.90 0.9374
421.00 0.9376
421.10 0.9378
421.20 0.9379
421.30 0.9381
421.40 0.9383
421.50 0.9384
421.60 0.9386
421.70 0.9388
421.80 0.939
421.90 0.9392
422.00 0.9393
422.10 0.9395
422.20 0.9397
422.30 0.9398
422.40 0.94
422.50 0.9402
422.60 0.9404
422.70 0.9405
422.80 0.9407
422.90 0.9409
423.00 0.941
423.10 0.9412
423.20 0.9414
423.30 0.9416
423.40 0.9417
423.50 0.9419
423.60 0.9421
423.70 0.9422
423.80 0.9424
423.90 0.9426
424.00 0.9427
424.10 0.9429
424.20 0.9431
424.30 0.9432
424.40 0.9434
424.50 0.9436
424.60 0.9437
424.70 0.9439
424.80 0.9441
424.90 0.9442
425.00 0.9444
425.10 0.9445
425.20 0.9447
425.30 0.9449
425.40 0.9451
425.50 0.9452
425.60 0.9454
425.70 0.9455
425.80 0.9457
425.90 0.9459
426.00 0.946
426.10 0.9462
426.20 0.9463
426.30 0.9465
426.40 0.9467
426.50 0.9468
426.60 0.947
426.70 0.9471
426.80 0.9473
426.90 0.9475
427.00 0.9476
427.10 0.9478
427.20 0.9479
427.30 0.9481
427.40 0.9482
427.50 0.9484
427.60 0.9486
427.70 0.9487
427.80 0.9489
427.90 0.949
428.00 0.9492
428.10 0.9493
428.20 0.9495
428.30 0.9496
428.40 0.9498
428.50 0.95
428.60 0.9501
428.70 0.9502
428.80 0.9504
428.90 0.9505
429.00 0.9507
429.10 0.9509
429.20 0.951
429.30 0.9511
429.40 0.9513
429.50 0.9514
429.60 0.9516
429.70 0.9517
429.80 0.9519
429.90 0.952
430.00 0.9522
430.10 0.9523
430.20 0.9524
430.30 0.9526
430.40 0.9527
430.50 0.9528
430.60 0.953
430.70 0.9531
430.80 0.9532
430.90 0.9534
431.00 0.9535
431.10 0.9536
431.20 0.9537
431.30 0.9539
431.40 0.954
431.50 0.9541
431.60 0.9542
431.70 0.9543
431.80 0.9544
431.90 0.9545
432.00 0.9546
432.10 0.9546
432.20 0.9546
432.30 0.9547
432.40 0.9547
432.50 0.9547
432.60 0.9546
432.70 0.9545
432.80 0.9544
432.90 0.9541
433.00 0.9538
433.10 0.9532
433.20 0.9524
433.30 0.9513
433.40 0.9493
433.50 0.9462
433.60 0.9421
433.70 0.9316
433.80 0.9091
433.90 0.8745
434.00 0.7408
434.10 0.7427
434.20 0.88
434.30 0.9124
434.40 0.9337
434.50 0.9439
434.60 0.9482
434.70 0.9514
434.80 0.9536
434.90 0.9549
435.00 0.9559
435.10 0.9568
435.20 0.9574
435.30 0.9579
435.40 0.9584
435.50 0.9587
435.60 0.9591
435.70 0.9594
435.80 0.9596
435.90 0.9599
436.00 0.9601
436.10 0.9603
436.20 0.9605
436.30 0.9607
436.40 0.9609
436.50 0.9611
436.60 0.9613
436.70 0.9615
436.80 0.9616
436.90 0.9618
437.00 0.9619
437.10 0.9621
437.20 0.9622
437.30 0.9624
437.40 0.9625
437.50 0.9627
437.60 0.9629
437.70 0.963
437.80 0.9631
437.90 0.9633
438.00 0.9634
438.10 0.9636
438.20 0.9637
438.30 0.9638
438.40 0.964
438.50 0.9641
438.60 0.9642
438.70 0.9644
438.80 0.9645
438.90 0.9647
439.00 0.9648
439.10 0.9649
439.20 0.965
439.30 0.9652
439.40 0.9653
439.50 0.9654
439.60 0.9656
439.70 0.9657
439.80 0.9658
439.90 0.966
440.00 0.9661
440.10 0.9662
440.20 0.9663
440.30 0.9665
440.40 0.9666
440.50 0.9667
440.60 0.9668
440.70 0.967
440.80 0.9671
440.90 0.9672
441.00 0.9674
441.10 0.9675
441.20 0.9676
441.30 0.9677
441.40 0.9678
441.50 0.968
441.60 0.9681
441.70 0.9682
441.80 0.9683
441.90 0.9685
442.00 0.9686
442.10 0.9687
442.20 0.9688
442.30 0.9689
442.40 0.9691
442.50 0.9692
442.60 0.9693
442.70 0.9694
442.80 0.9695
442.90 0.9697
443.00 0.9698
443.10 0.9699
443.20 0.97
443.30 0.9701
443.40 0.9702
443.50 0.9704
443.60 0.9705
443.70 0.9706
443.80 0.9707
443.90 0.9708
444.00 0.9709
444.10 0.9711
444.20 0.9712
444.30 0.9713
444.40 0.9714
444.50 0.9715
444.60 0.9716
444.70 0.9718
444.80 0.9719
444.90 0.972
445.00 0.9721
445.10 0.9722
445.20 0.9723
445.30 0.9724
445.40 0.9725
445.50 0.9726
445.60 0.9727
445.70 0.9729
445.80 0.973
445.90 0.9731
446.00 0.9732
446.10 0.9733
446.20 0.9734
446.30 0.9735
446.40 0.9737
446.50 0.9738
446.60 0.9739
446.70 0.974
446.80 0.9741
446.90 0.9742
447.00 0.9743
447.10 0.9744
447.20 0.9745
447.30 0.9746
447.40 0.9747
447.50 0.9748
447.60 0.9749
447.70 0.975
447.80 0.9751
447.90 0.9752
448.00 0.9754
448.10 0.9755
448.20 0.9756
448.30 0.9757
448.40 0.9758
448.50 0.9759
448.60 0.976
448.70 0.9761
448.80 0.9762
448.90 0.9763
449.00 0.9764
449.10 0.9765
449.20 0.9766
449.30 0.9767
449.40 0.9768
449.50 0.9769
449.60 0.977
449.70 0.9771
449.80 0.9772
449.90 0.9773
450.00 0.9774
450.10 0.9775
450.20 0.9776
450.30 0.9777
450.40 0.9778
450.50 0.9779
450.60 0.978
450.70 0.9781
450.80 0.9782
450.90 0.9783
451.00 0.9784
451.10 0.9785
451.20 0.9786
451.30 0.9787
451.40 0.9788
451.50 0.9789
451.60 0.979
451.70 0.9791
451.80 0.9792
451.90 0.9793
452.00 0.9794
452.10 0.9795
452.20 0.9796
452.30 0.9797
452.40 0.9797
452.50 0.9798
452.60 0.9799
452.70 0.98
452.80 0.9801
452.90 0.9802
453.00 0.9803
453.10 0.9804
453.20 0.9805
453.30 0.9806
453.40 0.9807
453.50 0.9808
453.60 0.9808
453.70 0.9809
453.80 0.981
453.90 0.9811
454.00 0.9812
454.10 0.9813
454.20 0.9814
454.30 0.9815
454.40 0.9816
454.50 0.9817
454.60 0.9817
454.70 0.9818
454.80 0.9819
454.90 0.982
455.00 0.9821
455.10 0.9822
455.20 0.9823
455.30 0.9824
455.40 0.9825
455.50 0.9825
455.60 0.9826
455.70 0.9827
455.80 0.9828
455.90 0.9829
456.00 0.983
456.10 0.9831
456.20 0.9832
456.30 0.9832
456.40 0.9833
456.50 0.9834
456.60 0.9835
456.70 0.9836
456.80 0.9837
456.90 0.9837
457.00 0.9838
457.10 0.9839
457.20 0.984
457.30 0.9841
457.40 0.9842
457.50 0.9842
457.60 0.9843
457.70 0.9844
457.80 0.9845
457.90 0.9846
458.00 0.9846
458.10 0.9847
458.20 0.9848
458.30 0.9849
458.40 0.985
458.50 0.985
458.60 0.9851
458.70 0.9852
458.80 0.9853
458.90 0.9854
459.00 0.9854
459.10 0.9855
459.20 0.9856
459.30 0.9857
459.40 0.9858
459.50 0.9858
459.60 0.9859
459.70 0.986
459.80 0.9861
459.90 0.9861
460.00 0.9862
460.10 0.9863
460.20 0.9864
460.30 0.9864
460.40 0.9865
460.50 0.9866
460.60 0.9867
460.70 0.9867
460.80 0.9868
460.90 0.9869
461.00 0.987
461.10 0.987
461.20 0.9871
461.30 0.9872
461.40 0.9873
461.50 0.9873
461.60 0.9874
461.70 0.9875
461.80 0.9876
461.90 0.9876
462.00 0.9877
462.10 0.9878
462.20 0.9879
462.30 0.9879
462.40 0.988
462.50 0.9881
462.60 0.9881
462.70 0.9882
462.80 0.9883
462.90 0.9884
463.00 0.9884
463.10 0.9885
463.20 0.9886
463.30 0.9886
463.40 0.9887
463.50 0.9888
463.60 0.9888
463.70 0.9889
463.80 0.989
463.90 0.989
464.00 0.9891
464.10 0.9892
464.20 0.9892
464.30 0.9893
464.40 0.9894
464.50 0.9894
464.60 0.9895
464.70 0.9896
464.80 0.9896
464.90 0.9897
465.00 0.9898
465.10 0.9898
465.20 0.9899
465.30 0.99
465.40 0.99
465.50 0.9901
465.60 0.9901
465.70 0.9902
465.80 0.9903
465.90 0.9903
466.00 0.9904
466.10 0.9905
466.20 0.9905
466.30 0.9906
466.40 0.9906
466.50 0.9907
466.60 0.9908
466.70 0.9908
466.80 0.9909
466.90 0.991
467.00 0.991
467.10 0.9911
467.20 0.9911
467.30 0.9912
467.40 0.9913
467.50 0.9913
467.60 0.9914
467.70 0.9914
467.80 0.9915
467.90 0.9915
468.00 0.9916
468.10 0.9917
468.20 0.9917
468.30 0.9918
468.40 0.9918
468.50 0.9919
468.60 0.992
468.70 0.992
468.80 0.9921
468.90 0.9921
469.00 0.9922
469.10 0.9922
469.20 0.9923
469.30 0.9924
469.40 0.9924
469.50 0.9925
469.60 0.9925
469.70 0.9926
469.80 0.9926
469.90 0.9927
470.00 0.9927
470.10 0.9928
470.20 0.9928
470.30 0.9929
470.40 0.9929
470.50 0.993
470.60 0.993
470.70 0.9931
470.80 0.9931
470.90 0.9932
471.00 0.9933
471.10 0.9933
471.20 0.9934
471.30 0.9934
471.40 0.9935
471.50 0.9935
471.60 0.9936
471.70 0.9936
471.80 0.9937
471.90 0.9937
472.00 0.9937
472.10 0.9938
472.20 0.9938
472.30 0.9939
472.40 0.9939
472.50 0.994
472.60 0.994
472.70 0.9941
472.80 0.9941
472.90 0.9942
473.00 0.9942
473.10 0.9943
473.20 0.9943
473.30 0.9944
473.40 0.9944
473.50 0.9945
473.60 0.9945
473.70 0.9946
473.80 0.9946
473.90 0.9947
474.00 0.9947
474.10 0.9947
474.20 0.9948
474.30 0.9948
474.40 0.9949
474.50 0.9949
474.60 0.995
474.70 0.995
474.80 0.9951
474.90 0.9951
475.00 0.9951
475.10 0.9952
475.20 0.9952
475.30 0.9953
475.40 0.9953
475.50 0.9953
475.60 0.9954
475.70 0.9954
475.80 0.9955
475.90 0.9955
476.00 0.9955
476.10 0.9956
476.20 0.9956
476.30 0.9957
476.40 0.9957
476.50 0.9957
476.60 0.9958
476.70 0.9958
476.80 0.9959
476.90 0.9959
477.00 0.9959
477.10 0.996
477.20 0.996
477.30 0.996
477.40 0.9961
477.50 0.9961
477.60 0.9961
477.70 0.9962
477.80 0.9962
477.90 0.9963
478.00 0.9963
478.10 0.9963
478.20 0.9964
478.30 0.9964
478.40 0.9964
478.50 0.9965
478.60 0.9965
478.70 0.9965
478.80 0.9966
478.90 0.9966
479.00 0.9966
479.10 0.9966
479.20 0.9967
479.30 0.9967
479.40 0.9967
479.50 0.9968
479.60 0.9968
479.70 0.9968
479.80 0.9968
479.90 0.9969
480.00 0.9969
480.10 0.9969
480.20 0.9969
480.30 0.997
480.40 0.997
480.50 0.997
480.60 0.997
480.70 0.9971
480.80 0.9971
480.90 0.9971
481.00 0.9971
481.10 0.9971
481.20 0.9972
481.30 0.9972
481.40 0.9972
481.50 0.9972
481.60 0.9972
481.70 0.9972
481.80 0.9973
481.90 0.9973
482.00 0.9973
482.10 0.9973
482.20 0.9973
482.30 0.9973
482.40 0.9973
482.50 0.9973
482.60 0.9972
482.70 0.9972
482.80 0.9972
482.90 0.9972
483.00 0.9972
483.10 0.9972
483.20 0.9971
483.30 0.997
483.40 0.997
483.50 0.9969
483.60 0.9968
483.70 0.9967
483.80 0.9966
483.90 0.9965
484.00 0.9965
484.10 0.9964
484.20 0.9962
484.30 0.9959
484.40 0.9956
484.50 0.9954
484.60 0.9951
484.70 0.9945
484.80 0.9937
484.90 0.9929
485.00 0.9921
485.10 0.9913
485.20 0.9897
485.30 0.9877
485.40 0.9844
485.50 0.9805
485.60 0.9728
485.70 0.9634
485.80 0.9398
485.90 0.9095
486.00 0.8455
486.10 0.6535
486.20 0.7459
486.30 0.8765
486.40 0.9191
486.50 0.9504
486.60 0.9669
486.70 0.9765
486.80 0.9822
486.90 0.9862
487.00 0.9889
487.10 0.9909
487.20 0.9921
487.30 0.9929
487.40 0.9938
487.50 0.9946
487.60 0.9954
487.70 0.9959
487.80 0.9962
487.90 0.9965
488.00 0.9969
488.10 0.9972
488.20 0.9974
488.30 0.9975
488.40 0.9976
488.50 0.9977
488.60 0.9979
488.70 0.998
488.80 0.9981
488.90 0.9982
489.00 0.9983
489.10 0.9985
489.20 0.9985
489.30 0.9986
489.40 0.9986
489.50 0.9987
489.60 0.9988
489.70 0.9988
489.80 0.9989
489.90 0.9989
490.00 0.999
490.10 0.999
490.20 0.9991
490.30 0.9991
490.40 0.9991
490.50 0.9992
490.60 0.9992
490.70 0.9992
490.80 0.9992
490.90 0.9993
491.00 0.9993
491.10 0.9993
491.20 0.9994
491.30 0.9994
491.40 0.9994
491.50 0.9994
491.60 0.9994
491.70 0.9995
491.80 0.9995
491.90 0.9995
492.00 0.9995
492.10 0.9995
492.20 0.9996
492.30 0.9996
492.40 0.9996
492.50 0.9996
492.60 0.9996
492.70 0.9996
492.80 0.9996
492.90 0.9997
493.00 0.9997
493.10 0.9997
493.20 0.9997
493.30 0.9997
493.40 0.9997
493.50 0.9997
493.60 0.9998
493.70 0.9998
493.80 0.9998
493.90 0.9998
494.00 0.9998
494.10 0.9998
494.20 0.9998
494.30 0.9998
494.40 0.9998
494.50 0.9999
494.60 0.9999
494.70 0.9999
494.80 0.9999
494.90 0.9999
495.00 0.9999
495.10 0.9999
495.20 0.9999
495.30 0.9999
495.40 0.9999
495.50 0.9999
495.60 0.9999
495.70 0.9999
495.80 0.9999
495.90 1
496.00 1
496.10 1
496.20 1
496.30 1
496.40 1
496.50 1
496.60 1
496.70 1
496.80 1
496.90 1
497.00 1
497.10 1
497.20 1
497.30 1
497.40 1
497.50 1
497.60 1
497.70 1
497.80 1
497.90 1
498.00 1
498.10 1
498.20 1
498.30 1
498.40 1
498.50 1
498.60 1
498.70 1
498.80 1
498.90 1
499.00 1
499.10 1
499.20 1
499.30 1
499.40 1
499.50 1
499.60 1
499.70 1
499.80 1
499.90 1
500.00 1
500.10 1
500.20 1
500.30 1
500.40 1
500.50 1
500.60 1
500.70 1
500.80 1
500.90 1
501.00 1
501.10 1
501.20 1
501.30 1
501.40 0.9999
501.50 0.9999
501.60 0.9999
501.70 0.9999
501.80 0.9999
501.90 0.9999
502.00 0.9999
502.10 0.9999
502.20 0.9999
502.30 0.9999
502.40 0.9999
502.50 0.9999
502.60 0.9999
502.70 0.9998
502.80 0.9998
502.90 0.9998
503.00 0.9998
503.10 0.9998
503.20 0.9998
503.30 0.9998
503.40 0.9998
503.50 0.9998
503.60 0.9998
503.70 0.9998
503.80 0.9998
503.90 0.9998
504.00 0.9997
504.10 0.9997
504.20 0.9997
504.30 0.9997
504.40 0.9997
504.50 0.9997
504.60 0.9997
504.70 0.9997
504.80 0.9997
504.90 0.9997
505.00 0.9996
505.10 0.9996
505.20 0.9996
505.30 0.9996
505.40 0.9996
505.50 0.9996
505.60 0.9996
505.70 0.9996
505.80 0.9995
505.90 0.9995
506.00 0.9995
506.10 0.9995
506.20 0.9995
506.30 0.9995
506.40 0.9995
506.50 0.9994
506.60 0.9994
506.70 0.9994
506.80 0.9994
506.90 0.9994
507.00 0.9994
507.10 0.9994
507.20 0.9993
507.30 0.9993
507.40 0.9993
507.50 0.9993
507.60 0.9993
507.70 0.9993
507.80 0.9992
507.90 0.9992
508.00 0.9992
508.10 0.9992
508.20 0.9992
508.30 0.9991
508.40 0.9991
508.50 0.9991
508.60 0.9991
508.70 0.9991
508.80 0.9991
508.90 0.9991
509.00 0.999
509.10 0.999
509.20 0.999
509.30 0.999
509.40 0.999
509.50 0.9989
509.60 0.9989
509.70 0.9989
509.80 0.9989
509.90 0.9989
510.00 0.9988
510.10 0.9988
510.20 0.9988
510.30 0.9988
510.40 0.9988
510.50 0.9987
510.60 0.9987
510.70 0.9987
510.80 0.9987
510.90 0.9987
511.00 0.9986
511.10 0.9986
511.20 0.9986
511.30 0.9986
511.40 0.9986
511.50 0.9985
511.60 0.9985
511.70 0.9985
511.80 0.9985
511.90 0.9984
512.00 0.9984
512.10 0.9984
512.20 0.9984
512.30 0.9983
512.40 0.9983
512.50 0.9983
512.60 0.9983
512.70 0.9982
512.80 0.9982
512.90 0.9982
513.00 0.9982
513.10 0.9982
513.20 0.9981
513.30 0.9981
513.40 0.9981
513.50 0.9981
513.60 0.998
513.70 0.998
513.80 0.998
513.90 0.998
514.00 0.9979
514.10 0.9979
514.20 0.9979
514.30 0.9978
514.40 0.9978
514.50 0.9978
514.60 0.9978
514.70 0.9977
514.80 0.9977
514.90 0.9977
515.00 0.9976
515.10 0.9976
515.20 0.9976
515.30 0.9976
515.40 0.9975
515.50 0.9975
515.60 0.9975
515.70 0.9975
515.80 0.9974
515.90 0.9974
516.00 0.9974
516.10 0.9974
516.20 0.9973
516.30 0.9973
516.40 0.9973
516.50 0.9972
516.60 0.9972
516.70 0.9972
516.80 0.9971
516.90 0.9971
517.00 0.9971
517.10 0.997
517.20 0.997
517.30 0.997
517.40 0.9969
517.50 0.9969
517.60 0.9969
517.70 0.9969
517.80 0.9968
517.90 0.9968
518.00 0.9968
518.10 0.9967
518.20 0.9967
518.30 0.9967
518.40 0.9966
518.50 0.9966
518.60 0.9966
518.70 0.9965
518.80 0.9965
518.90 0.9965
519.00 0.9964
519.10 0.9964
519.20 0.9964
519.30 0.9963
519.40 0.9963
519.50 0.9963
519.60 0.9962
519.70 0.9962
519.80 0.9962
519.90 0.9961
520.00 0.9961
520.10 0.9961
520.20 0.996
520.30 0.996
520.40 0.996
520.50 0.9959
520.60 0.9959
520.70 0.9958
520.80 0.9958
520.90 0.9958
521.00 0.9957
521.10 0.9957
521.20 0.9957
521.30 0.9956
521.40 0.9956
521.50 0.9956
521.60 0.9955
521.70 0.9955
521.80 0.9954
521.90 0.9954
522.00 0.9954
522.10 0.9953
522.20 0.9953
522.30 0.9953
522.40 0.9952
522.50 0.9952
522.60 0.9951
522.70 0.9951
522.80 0.9951
522.90 0.995
523.00 0.995
523.10 0.995
523.20 0.9949
523.30 0.9949
523.40 0.9948
523.50 0.9948
523.60 0.9947
523.70 0.9947
523.80 0.9947
523.90 0.9946
524.00 0.9946
524.10 0.9945
524.20 0.9945
524.30 0.9945
524.40 0.9944
524.50 0.9944
524.60 0.9943
524.70 0.9943
524.80 0.9942
524.90 0.9942
525.00 0.9942
525.10 0.9941
525.20 0.9941
525.30 0.994
525.40 0.994
525.50 0.994
525.60 0.9939
525.70 0.9939
525.80 0.9938
525.90 0.9938
526.00 0.9937
526.10 0.9937
526.20 0.9937
526.30 0.9936
526.40 0.9936
526.50 0.9935
526.60 0.9935
526.70 0.9934
526.80 0.9934
526.90 0.9933
527.00 0.9933
527.10 0.9933
527.20 0.9932
527.30 0.9932
527.40 0.9931
527.50 0.9931
527.60 0.993
527.70 0.993
527.80 0.9929
527.90 0.9929
528.00 0.9928
528.10 0.9928
528.20 0.9928
528.30 0.9927
528.40 0.9927
528.50 0.9926
528.60 0.9926
528.70 0.9925
528.80 0.9925
528.90 0.9924
529.00 0.9924
529.10 0.9923
529.20 0.9923
529.30 0.9923
529.40 0.9922
529.50 0.9922
529.60 0.9921
529.70 0.9921
529.80 0.992
529.90 0.992
530.00 0.9919
530.10 0.9919
530.20 0.9918
530.30 0.9918
530.40 0.9917
530.50 0.9917
530.60 0.9916
530.70 0.9916
530.80 0.9915
530.90 0.9915
531.00 0.9914
531.10 0.9914
531.20 0.9913
531.30 0.9913
531.40 0.9912
531.50 0.9912
531.60 0.9911
531.70 0.9911
531.80 0.991
531.90 0.991
532.00 0.9909
532.10 0.9909
532.20 0.9908
532.30 0.9908
532.40 0.9907
532.50 0.9907
532.60 0.9906
532.70 0.9906
532.80 0.9905
532.90 0.9905
533.00 0.9904
533.10 0.9903
533.20 0.9903
533.30 0.9902
533.40 0.9902
533.50 0.9901
533.60 0.9901
533.70 0.99
533.80 0.99
533.90 0.9899
534.00 0.9899
534.10 0.9898
534.20 0.9898
534.30 0.9897
534.40 0.9897
534.50 0.9896
534.60 0.9895
534.70 0.9895
534.80 0.9894
534.90 0.9894
535.00 0.9893
535.10 0.9893
535.20 0.9892
535.30 0.9892
535.40 0.9891
535.50 0.9891
535.60 0.989
535.70 0.9889
535.80 0.9889
535.90 0.9888
536.00 0.9888
536.10 0.9887
536.20 0.9887
536.30 0.9886
536.40 0.9885
536.50 0.9885
536.60 0.9884
536.70 0.9884
536.80 0.9883
536.90 0.9883
537.00 0.9882
537.10 0.9882
537.20 0.9881
537.30 0.988
537.40 0.988
537.50 0.9879
537.60 0.9879
537.70 0.9878
537.80 0.9877
537.90 0.9877
538.00 0.9876
538.10 0.9876
538.20 0.9875
538.30 0.9874
538.40 0.9874
538.50 0.9873
538.60 0.9873
538.70 0.9872
538.80 0.9872
538.90 0.9871
539.00 0.987
539.10 0.987
539.20 0.9869
539.30 0.9869
539.40 0.9868
539.50 0.9867
539.60 0.9867
539.70 0.9866
539.80 0.9865
539.90 0.9865
540.00 0.9864
540.10 0.9864
540.20 0.9863
540.30 0.9862
540.40 0.9862
540.50 0.9861
540.60 0.9861
540.70 0.986
540.80 0.9859
540.90 0.9859
541.00 0.9858
541.10 0.9858
541.20 0.9857
541.30 0.9856
541.40 0.9856
541.50 0.9855
541.60 0.9854
541.70 0.9854
541.80 0.9853
541.90 0.9852
542.00 0.9852
542.10 0.9851
542.20 0.9851
542.30 0.985
542.40 0.9849
542.50 0.9849
542.60 0.9848
542.70 0.9847
542.80 0.9847
542.90 0.9846
543.00 0.9845
543.10 0.9845
543.20 0.9844
543.30 0.9843
543.40 0.9843
543.50 0.9842
543.60 0.9841
543.70 0.9841
543.80 0.984
543.90 0.9839
544.00 0.9839
544.10 0.9838
544.20 0.9837
544.30 0.9837
544.40 0.9836
544.50 0.9835
544.60 0.9835
544.70 0.9834
544.80 0.9834
544.90 0.9833
545.00 0.9832
545.10 0.9832
545.20 0.9831
545.30 0.983
545.40 0.983
545.50 0.9829
545.60 0.9828
545.70 0.9828
545.80 0.9827
545.90 0.9826
546.00 0.9826
546.10 0.9825
546.20 0.9824
546.30 0.9824
546.40 0.9823
546.50 0.9822
546.60 0.9821
546.70 0.9821
546.80 0.982
546.90 0.9819
547.00 0.9819
547.10 0.9818
547.20 0.9817
547.30 0.9817
547.40 0.9816
547.50 0.9815
547.60 0.9814
547.70 0.9814
547.80 0.9813
547.90 0.9812
548.00 0.9812
548.10 0.9811
548.20 0.981
548.30 0.981
548.40 0.9809
548.50 0.9808
548.60 0.9807
548.70 0.9807
548.80 0.9806
548.90 0.9805
549.00 0.9805
549.10 0.9804
549.20 0.9803
549.30 0.9802
549.40 0.9802
549.50 0.9801
549.60 0.98
549.70 0.98
549.80 0.9799
549.90 0.9798
550.00 0.9797
550.10 0.9797
550.20 0.9796
550.30 0.9795
550.40 0.9795
550.50 0.9794
550.60 0.9793
550.70 0.9792
550.80 0.9792
550.90 0.9791
551.00 0.979
551.10 0.9789
551.20 0.9789
551.30 0.9788
551.40 0.9787
551.50 0.9786
551.60 0.9786
551.70 0.9785
551.80 0.9784
551.90 0.9783
552.00 0.9783
552.10 0.9782
552.20 0.9781
552.30 0.9781
552.40 0.978
552.50 0.9779
552.60 0.9778
552.70 0.9778
552.80 0.9777
552.90 0.9776
553.00 0.9775
553.10 0.9775
553.20 0.9774
553.30 0.9773
553.40 0.9772
553.50 0.9772
553.60 0.9771
553.70 0.977
553.80 0.9769
553.90 0.9769
554.00 0.9768
554.10 0.9767
554.20 0.9766
554.30 0.9766
554.40 0.9765
554.50 0.9764
554.60 0.9763
554.70 0.9762
554.80 0.9762
554.90 0.9761
555.00 0.976
555.10 0.9759
555.20 0.9759
555.30 0.9758
555.40 0.9757
555.50 0.9756
555.60 0.9755
555.70 0.9755
555.80 0.9754
555.90 0.9753
556.00 0.9752
556.10 0.9751
556.20 0.9751
556.30 0.975
556.40 0.9749
556.50 0.9748
556.60 0.9748
556.70 0.9747
556.80 0.9746
556.90 0.9745
557.00 0.9744
557.10 0.9744
557.20 0.9743
557.30 0.9742
557.40 0.9741
557.50 0.974
557.60 0.974
557.70 0.9739
557.80 0.9738
557.90 0.9737
558.00 0.9736
558.10 0.9736
558.20 0.9735
558.30 0.9734
558.40 0.9733
558.50 0.9732
558.60 0.9731
558.70 0.9731
558.80 0.973
558.90 0.9729
559.00 0.9728
559.10 0.9727
559.20 0.9727
559.30 0.9726
559.40 0.9725
559.50 0.9724
559.60 0.9723
559.70 0.9722
559.80 0.9722
559.90 0.9721
560.00 0.972
560.10 0.9719
560.20 0.9718
560.30 0.9718
560.40 0.9717
560.50 0.9716
560.60 0.9715
560.70 0.9714
560.80 0.9713
560.90 0.9713
561.00 0.9712
561.10 0.9711
561.20 0.971
561.30 0.9709
561.40 0.9708
561.50 0.9708
561.60 0.9707
561.70 0.9706
561.80 0.9705
561.90 0.9704
562.00 0.9703
562.10 0.9703
562.20 0.9702
562.30 0.9701
562.40 0.97
562.50 0.9699
562.60 0.9698
562.70 0.9697
562.80 0.9697
562.90 0.9696
563.00 0.9695
563.10 0.9694
563.20 0.9693
563.30 0.9692
563.40 0.9691
563.50 0.9691
563.60 0.969
563.70 0.9689
563.80 0.9688
563.90 0.9687
564.00 0.9686
564.10 0.9685
564.20 0.9685
564.30 0.9684
564.40 0.9683
564.50 0.9682
564.60 0.9681
564.70 0.968
564.80 0.9679
564.90 0.9679
565.00 0.9678
565.10 0.9677
565.20 0.9676
565.30 0.9675
565.40 0.9674
565.50 0.9673
565.60 0.9672
565.70 0.9672
565.80 0.9671
565.90 0.967
566.00 0.9669
566.10 0.9668
566.20 0.9667
566.30 0.9666
566.40 0.9665
566.50 0.9665
566.60 0.9664
566.70 0.9663
566.80 0.9662
566.90 0.9661
567.00 0.966
567.10 0.9659
567.20 0.9658
567.30 0.9658
567.40 0.9657
567.50 0.9656
567.60 0.9655
567.70 0.9654
567.80 0.9653
567.90 0.9652
568.00 0.9651
568.10 0.965
568.20 0.9649
568.30 0.9648
568.40 0.9648
568.50 0.9647
568.60 0.9646
568.70 0.9645
568.80 0.9644
568.90 0.9643
569.00 0.9642
569.10 0.9641
569.20 0.964
569.30 0.9639
569.40 0.9639
569.50 0.9638
569.60 0.9637
569.70 0.9636
569.80 0.9635
569.90 0.9634
570.00 0.9633
570.10 0.9632
570.20 0.9631
570.30 0.963
570.40 0.9629
570.50 0.9628
570.60 0.9628
570.70 0.9627
570.80 0.9626
570.90 0.9625
571.00 0.9624
571.10 0.9623
571.20 0.9622
571.30 0.9621
571.40 0.962
571.50 0.9619
571.60 0.9618
571.70 0.9617
571.80 0.9616
571.90 0.9616
572.00 0.9615
572.10 0.9614
572.20 0.9613
572.30 0.9612
572.40 0.9611
572.50 0.961
572.60 0.9609
572.70 0.9608
572.80 0.9607
572.90 0.9606
573.00 0.9605
573.10 0.9604
573.20 0.9603
573.30 0.9602
573.40 0.9602
573.50 0.9601
573.60 0.96
573.70 0.9599
573.80 0.9598
573.90 0.9597
574.00 0.9596
574.10 0.9595
574.20 0.9594
574.30 0.9593
574.40 0.9592
574.50 0.9591
574.60 0.959
574.70 0.9589
574.80 0.9588
574.90 0.9587
575.00 0.9586
575.10 0.9585
575.20 0.9584
575.30 0.9583
575.40 0.9582
575.50 0.9582
575.60 0.9581
575.70 0.958
575.80 0.9579
575.90 0.9578
576.00 0.9577
576.10 0.9576
576.20 0.9575
576.30 0.9574
576.40 0.9573
576.50 0.9572
576.60 0.9571
576.70 0.957
576.80 0.9569
576.90 0.9568
577.00 0.9567
577.10 0.9566
577.20 0.9565
577.30 0.9564
577.40 0.9563
577.50 0.9562
577.60 0.9561
577.70 0.956
577.80 0.9559
577.90 0.9558
578.00 0.9557
578.10 0.9556
578.20 0.9555
578.30 0.9554
578.40 0.9553
578.50 0.9552
578.60 0.9551
578.70 0.955
578.80 0.9549
578.90 0.9548
579.00 0.9547
579.10 0.9546
579.20 0.9545
579.30 0.9544
579.40 0.9543
579.50 0.9542
579.60 0.9541
579.70 0.954
579.80 0.9539
579.90 0.9538
580.00 0.9537
580.10 0.9536
580.20 0.9535
580.30 0.9534
580.40 0.9533
580.50 0.9533
580.60 0.9532
580.70 0.9531
580.80 0.953
580.90 0.9529
581.00 0.9528
581.10 0.9527
581.20 0.9526
581.30 0.9525
581.40 0.9524
581.50 0.9523
581.60 0.9521
581.70 0.952
581.80 0.9519
581.90 0.9518
582.00 0.9517
582.10 0.9516
582.20 0.9515
582.30 0.9514
582.40 0.9513
582.50 0.9512
582.60 0.9511
582.70 0.951
582.80 0.9509
582.90 0.9508
583.00 0.9507
583.10 0.9506
583.20 0.9505
583.30 0.9504
583.40 0.9503
583.50 0.9502
583.60 0.9501
583.70 0.95
583.80 0.9499
583.90 0.9498
584.00 0.9497
584.10 0.9496
584.20 0.9495
584.30 0.9494
584.40 0.9493
584.50 0.9492
584.60 0.9491
584.70 0.949
584.80 0.9489
584.90 0.9488
585.00 0.9487
585.10 0.9486
585.20 0.9485
585.30 0.9484
585.40 0.9483
585.50 0.9482
585.60 0.9481
585.70 0.948
585.80 0.9479
585.90 0.9477
586.00 0.9476
586.10 0.9475
586.20 0.9474
586.30 0.9473
586.40 0.9472
586.50 0.9471
586.60 0.947
586.70 0.9469
586.80 0.9468
586.90 0.9467
587.00 0.9466
587.10 0.9465
587.20 0.9464
587.30 0.9463
587.40 0.9462
587.50 0.9461
587.60 0.946
587.70 0.9459
587.80 0.9458
587.90 0.9457
588.00 0.9455
588.10 0.9454
588.20 0.9453
588.30 0.9452
588.40 0.9451
588.50 0.945
588.60 0.9449
588.70 0.9448
588.80 0.9447
588.90 0.9446
589.00 0.9445
589.10 0.9444
589.20 0.9443
589.30 0.9442
589.40 0.9441
589.50 0.944
589.60 0.9439
589.70 0.9438
589.80 0.9437
589.90 0.9435
590.00 0.9434
590.10 0.9433
590.20 0.9432
590.30 0.9431
590.40 0.943
590.50 0.9429
590.60 0.9428
590.70 0.9427
590.80 0.9426
590.90 0.9425
591.00 0.9424
591.10 0.9423
591.20 0.9422
591.30 0.942
591.40 0.9419
591.50 0.9418
591.60 0.9417
591.70 0.9416
591.80 0.9415
591.90 0.9414
592.00 0.9413
592.10 0.9412
592.20 0.9411
592.30 0.941
592.40 0.9409
592.50 0.9407
592.60 0.9406
592.70 0.9405
592.80 0.9404
592.90 0.9403
593.00 0.9402
593.10 0.9401
593.20 0.94
593.30 0.9399
593.40 0.9398
593.50 0.9397
593.60 0.9395
593.70 0.9394
593.80 0.9393
593.90 0.9392
594.00 0.9391
594.10 0.939
594.20 0.9389
594.30 0.9388
594.40 0.9387
594.50 0.9386
594.60 0.9385
594.70 0.9384
594.80 0.9382
594.90 0.9381
595.00 0.938
595.10 0.9379
595.20 0.9378
595.30 0.9377
595.40 0.9376
595.50 0.9375
595.60 0.9374
595.70 0.9372
595.80 0.9371
595.90 0.937
596.00 0.9369
596.10 0.9368
596.20 0.9367
596.30 0.9366
596.40 0.9365
596.50 0.9364
596.60 0.9363
596.70 0.9361
596.80 0.936
596.90 0.9359
597.00 0.9358
597.10 0.9357
597.20 0.9356
597.30 0.9355
597.40 0.9354
597.50 0.9353
597.60 0.9351
597.70 0.935
597.80 0.9349
597.90 0.9348
598.00 0.9347
598.10 0.9346
598.20 0.9345
598.30 0.9344
598.40 0.9342
598.50 0.9341
598.60 0.934
598.70 0.9339
598.80 0.9338
598.90 0.9337
599.00 0.9336
599.10 0.9335
599.20 0.9333
599.30 0.9332
599.40 0.9331
599.50 0.933
599.60 0.9329
599.70 0.9328
599.80 0.9327
599.90 0.9326
600.00 0.9324
600.10 0.9323
600.20 0.9322
600.30 0.9321
600.40 0.932
600.50 0.9319
600.60 0.9318
600.70 0.9317
600.80 0.9315
600.90 0.9314
601.00 0.9313
601.10 0.9312
601.20 0.9311
601.30 0.931
601.40 0.9309
601.50 0.9308
601.60 0.9306
601.70 0.9305
601.80 0.9304
601.90 0.9303
602.00 0.9302
602.10 0.9301
602.20 0.9299
602.30 0.9298
602.40 0.9297
602.50 0.9296
602.60 0.9295
602.70 0.9294
602.80 0.9293
602.90 0.9292
603.00 0.929
603.10 0.9289
603.20 0.9288
603.30 0.9287
603.40 0.9286
603.50 0.9285
603.60 0.9283
603.70 0.9282
603.80 0.9281
603.90 0.928
604.00 0.9279
604.10 0.9278
604.20 0.9277
604.30 0.9275
604.40 0.9274
604.50 0.9273
604.60 0.9272
604.70 0.9271
604.80 0.927
604.90 0.9268
605.00 0.9267
605.10 0.9266
605.20 0.9265
605.30 0.9264
605.40 0.9263
605.50 0.9261
605.60 0.926
605.70 0.9259
605.80 0.9258
605.90 0.9257
606.00 0.9256
606.10 0.9255
606.20 0.9253
606.30 0.9252
606.40 0.9251
606.50 0.925
606.60 0.9249
606.70 0.9248
606.80 0.9246
606.90 0.9245
607.00 0.9244
607.10 0.9243
607.20 0.9242
607.30 0.9241
607.40 0.9239
607.50 0.9238
607.60 0.9237
607.70 0.9236
607.80 0.9235
607.90 0.9234
608.00 0.9232
608.10 0.9231
608.20 0.923
608.30 0.9229
608.40 0.9228
608.50 0.9227
608.60 0.9225
608.70 0.9224
608.80 0.9223
608.90 0.9222
609.00 0.9221
609.10 0.9219
609.20 0.9218
609.30 0.9217
609.40 0.9216
609.50 0.9215
609.60 0.9213
609.70 0.9212
609.80 0.9211
609.90 0.921
610.00 0.9209
610.10 0.9208
610.20 0.9206
610.30 0.9205
610.40 0.9204
610.50 0.9203
610.60 0.9202
610.70 0.9201
610.80 0.9199
610.90 0.9198
611.00 0.9197
611.10 0.9196
611.20 0.9195
611.30 0.9193
611.40 0.9192
611.50 0.9191
611.60 0.919
611.70 0.9189
611.80 0.9187
611.90 0.9186
612.00 0.9185
612.10 0.9184
612.20 0.9183
612.30 0.9181
612.40 0.918
612.50 0.9179
612.60 0.9178
612.70 0.9177
612.80 0.9175
612.90 0.9174
613.00 0.9173
613.10 0.9172
613.20 0.9171
613.30 0.9169
613.40 0.9168
613.50 0.9167
613.60 0.9166
613.70 0.9165
613.80 0.9163
613.90 0.9162
614.00 0.9161
614.10 0.916
614.20 0.9159
614.30 0.9157
614.40 0.9156
614.50 0.9155
614.60 0.9154
614.70 0.9153
614.80 0.9151
614.90 0.915
615.00 0.9149
615.10 0.9148
615.20 0.9147
615.30 0.9145
615.40 0.9144
615.50 0.9143
615.60 0.9142
615.70 0.9141
615.80 0.9139
615.90 0.9138
616.00 0.9137
616.10 0.9136
616.20 0.9135
616.30 0.9133
616.40 0.9132
616.50 0.9131
616.60 0.913
616.70 0.9128
616.80 0.9127
616.90 0.9126
617.00 0.9125
617.10 0.9123
617.20 0.9122
617.30 0.9121
617.40 0.912
617.50 0.9119
617.60 0.9117
617.70 0.9116
617.80 0.9115
617.90 0.9114
618.00 0.9112
618.10 0.9111
618.20 0.911
618.30 0.9109
618.40 0.9108
618.50 0.9106
618.60 0.9105
618.70 0.9104
618.80 0.9103
618.90 0.9102
619.00 0.91
619.10 0.9099
619.20 0.9098
619.30 0.9097
619.40 0.9095
619.50 0.9094
619.60 0.9093
619.70 0.9092
619.80 0.909
619.90 0.9089
620.00 0.9088
620.10 0.9087
620.20 0.9086
620.30 0.9084
620.40 0.9083
620.50 0.9082
620.60 0.9081
620.70 0.9079
620.80 0.9078
620.90 0.9077
621.00 0.9076
621.10 0.9074
621.20 0.9073
621.30 0.9072
621.40 0.9071
621.50 0.9069
621.60 0.9068
621.70 0.9067
621.80 0.9066
621.90 0.9064
622.00 0.9063
622.10 0.9062
622.20 0.9061
622.30 0.906
622.40 0.9058
622.50 0.9057
622.60 0.9056
622.70 0.9055
622.80 0.9053
622.90 0.9052
623.00 0.9051
623.10 0.905
623.20 0.9048
623.30 0.9047
623.40 0.9046
623.50 0.9045
623.60 0.9043
623.70 0.9042
623.80 0.9041
623.90 0.904
624.00 0.9038
624.10 0.9037
624.20 0.9036
624.30 0.9035
624.40 0.9033
624.50 0.9032
624.60 0.9031
624.70 0.903
624.80 0.9028
624.90 0.9027
625.00 0.9026
625.10 0.9025
625.20 0.9023
625.30 0.9022
625.40 0.9021
625.50 0.902
625.60 0.9018
625.70 0.9017
625.80 0.9016
625.90 0.9015
626.00 0.9013
626.10 0.9012
626.20 0.9011
626.30 0.901
626.40 0.9008
626.50 0.9007
626.60 0.9006
626.70 0.9005
626.80 0.9003
626.90 0.9002
627.00 0.9001
627.10 0.8999
627.20 0.8998
627.30 0.8997
627.40 0.8996
627.50 0.8994
627.60 0.8993
627.70 0.8992
627.80 0.8991
627.90 0.8989
628.00 0.8988
628.10 0.8987
628.20 0.8986
628.30 0.8984
628.40 0.8983
628.50 0.8982
628.60 0.8981
628.70 0.8979
628.80 0.8978
628.90 0.8977
629.00 0.8975
629.10 0.8974
629.20 0.8973
629.30 0.8972
629.40 0.897
629.50 0.8969
629.60 0.8968
629.70 0.8967
629.80 0.8965
629.90 0.8964
630.00 0.8963
630.10 0.8961
630.20 0.896
630.30 0.8959
630.40 0.8958
630.50 0.8956
630.60 0.8955
630.70 0.8954
630.80 0.8953
630.90 0.8951
631.00 0.895
631.10 0.8949
631.20 0.8948
631.30 0.8946
631.40 0.8945
631.50 0.8944
631.60 0.8942
631.70 0.8941
631.80 0.894
631.90 0.8939
632.00 0.8937
632.10 0.8936
632.20 0.8935
632.30 0.8933
632.40 0.8932
632.50 0.8931
632.60 0.893
632.70 0.8928
632.80 0.8927
632.90 0.8926
633.00 0.8924
633.10 0.8923
633.20 0.8922
633.30 0.8921
633.40 0.8919
633.50 0.8918
633.60 0.8917
633.70 0.8915
633.80 0.8914
633.90 0.8913
634.00 0.8912
634.10 0.891
634.20 0.8909
634.30 0.8908
634.40 0.8906
634.50 0.8905
634.60 0.8904
634.70 0.8902
634.80 0.8901
634.90 0.89
635.00 0.8898
635.10 0.8897
635.20 0.8896
635.30 0.8894
635.40 0.8893
635.50 0.8892
635.60 0.8891
635.70 0.8889
635.80 0.8888
635.90 0.8887
636.00 0.8885
636.10 0.8884
636.20 0.8883
636.30 0.8881
636.40 0.888
636.50 0.8879
636.60 0.8877
636.70 0.8876
636.80 0.8875
636.90 0.8873
637.00 0.8872
637.10 0.8871
637.20 0.8869
637.30 0.8868
637.40 0.8867
637.50 0.8866
637.60 0.8864
637.70 0.8863
637.80 0.8862
637.90 0.886
638.00 0.8859
638.10 0.8858
638.20 0.8856
638.30 0.8855
638.40 0.8854
638.50 0.8853
638.60 0.8851
638.70 0.885
638.80 0.8849
638.90 0.8847
639.00 0.8846
639.10 0.8845
639.20 0.8843
639.30 0.8842
639.40 0.8841
639.50 0.8839
639.60 0.8838
639.70 0.8837
639.80 0.8835
639.90 0.8834
640.00 0.8833
640.10 0.8831
640.20 0.883
640.30 0.8829
640.40 0.8827
640.50 0.8826
640.60 0.8825
640.70 0.8823
640.80 0.8822
640.90 0.882
641.00 0.8819
641.10 0.8818
641.20 0.8816
641.30 0.8815
641.40 0.8814
641.50 0.8812
641.60 0.8811
641.70 0.881
641.80 0.8808
641.90 0.8807
642.00 0.8806
642.10 0.8804
642.20 0.8803
642.30 0.8802
642.40 0.88
642.50 0.8799
642.60 0.8798
642.70 0.8796
642.80 0.8795
642.90 0.8794
643.00 0.8792
643.10 0.8791
643.20 0.8789
643.30 0.8788
643.40 0.8787
643.50 0.8785
643.60 0.8784
643.70 0.8783
643.80 0.8781
643.90 0.878
644.00 0.8778
644.10 0.8777
644.20 0.8776
644.30 0.8774
644.40 0.8773
644.50 0.8772
644.60 0.877
644.70 0.8769
644.80 0.8768
644.90 0.8766
645.00 0.8765
645.10 0.8763
645.20 0.8762
645.30 0.8761
645.40 0.8759
645.50 0.8758
645.60 0.8756
645.70 0.8755
645.80 0.8754
645.90 0.8752
646.00 0.8751
646.10 0.8749
646.20 0.8748
646.30 0.8746
646.40 0.8745
646.50 0.8743
646.60 0.8742
646.70 0.8741
646.80 0.8739
646.90 0.8738
647.00 0.8736
647.10 0.8735
647.20 0.8733
647.30 0.8732
647.40 0.8731
647.50 0.8729
647.60 0.8728
647.70 0.8726
647.80 0.8725
647.90 0.8723
648.00 0.8722
648.10 0.872
648.20 0.8719
648.30 0.8717
648.40 0.8716
648.50 0.8714
648.60 0.8713
648.70 0.8711
648.80 0.8709
648.90 0.8708
649.00 0.8706
649.10 0.8705
649.20 0.8703
649.30 0.8702
649.40 0.87
649.50 0.8698
649.60 0.8697
649.70 0.8695
649.80 0.8693
649.90 0.8691
650.00 0.869
650.10 0.8688
650.20 0.8686
650.30 0.8685
650.40 0.8683
650.50 0.8681
650.60 0.8679
650.70 0.8677
650.80 0.8675
650.90 0.8673
651.00 0.8671
651.10 0.867
651.20 0.8668
651.30 0.8666
651.40 0.8663
651.50 0.8661
651.60 0.8659
651.70 0.8656
651.80 0.8654
651.90 0.8652
652.00 0.8649
652.10 0.8647
652.20 0.8645
652.30 0.8642
652.40 0.8639
652.50 0.8635
652.60 0.8632
652.70 0.8628
652.80 0.8625
652.90 0.8621
653.00 0.8618
653.10 0.8614
653.20 0.8611
653.30 0.8607
653.40 0.86
653.50 0.8593
653.60 0.8586
653.70 0.8579
653.80 0.8572
653.90 0.8565
654.00 0.8558
654.10 0.8551
654.20 0.8545
654.30 0.8536
654.40 0.8521
654.50 0.8506
654.60 0.8491
654.70 0.8475
654.80 0.8457
654.90 0.8423
655.00 0.839
655.10 0.8357
655.20 0.8323
655.30 0.8284
655.40 0.8219
655.50 0.8146
655.60 0.8041
655.70 0.7919
655.80 0.7731
655.90 0.7501
656.00 0.7103
656.10 0.6655
656.20 0.5642
656.30 0.4319
656.40 0.6125
656.50 0.685
656.60 0.7249
656.70 0.7605
656.80 0.7792
656.90 0.7962
657.00 0.8065
657.10 0.816
657.20 0.8222
657.30 0.8278
657.40 0.8308
657.50 0.8339
657.60 0.837
657.70 0.84
657.80 0.8427
657.90 0.844
658.00 0.8452
658.10 0.8465
658.20 0.8477
658.30 0.8488
658.40 0.8492
658.50 0.8496
658.60 0.85
658.70 0.8505
658.80 0.8509
658.90 0.8513
659.00 0.8517
659.10 0.8521
659.20 0.8525
659.30 0.8529
659.40 0.853
659.50 0.853
659.60 0.8531
659.70 0.8532
659.80 0.8532
659.90 0.8533
660.00 0.8534
660.10 0.8535
660.20 0.8535
660.30 0.8536
660.40 0.8536
660.50 0.8535
660.60 0.8535
660.70 0.8534
660.80 0.8534
660.90 0.8534
661.00 0.8533
661.10 0.8533
661.20 0.8533
661.30 0.8532
661.40 0.8531
661.50 0.8531
661.60 0.853
661.70 0.8529
661.80 0.8528
661.90 0.8527
662.00 0.8526
662.10 0.8526
662.20 0.8525
662.30 0.8524
662.40 0.8523
662.50 0.8522
662.60 0.8521
662.70 0.852
662.80 0.8519
662.90 0.8518
663.00 0.8517
663.10 0.8516
663.20 0.8515
663.30 0.8514
663.40 0.8513
663.50 0.8511
663.60 0.851
663.70 0.8509
663.80 0.8508
663.90 0.8507
664.00 0.8506
664.10 0.8505
664.20 0.8504
664.30 0.8502
664.40 0.8501
664.50 0.85
664.60 0.8499
664.70 0.8497
664.80 0.8496
664.90 0.8495
665.00 0.8494
665.10 0.8493
665.20 0.8491
665.30 0.849
665.40 0.8489
665.50 0.8488
665.60 0.8486
665.70 0.8485
665.80 0.8484
665.90 0.8483
666.00 0.8481
666.10 0.848
666.20 0.8479
666.30 0.8478
666.40 0.8476
666.50 0.8475
666.60 0.8474
666.70 0.8473
666.80 0.8471
666.90 0.847
667.00 0.8469
667.10 0.8467
667.20 0.8466
667.30 0.8465
667.40 0.8464
667.50 0.8462
667.60 0.8461
667.70 0.846
667.80 0.8458
667.90 0.8457
668.00 0.8456
668.10 0.8454
668.20 0.8453
668.30 0.8452
668.40 0.845
668.50 0.8449
668.60 0.8448
668.70 0.8446
668.80 0.8445
668.90 0.8444
669.00 0.8442
669.10 0.8441
669.20 0.844
669.30 0.8438
669.40 0.8437
669.50 0.8436
669.60 0.8435
669.70 0.8433
669.80 0.8432
669.90 0.8431
670.00 0.8429
670.10 0.8428
670.20 0.8427
670.30 0.8425
670.40 0.8424
670.50 0.8423
670.60 0.8421
670.70 0.842
670.80 0.8419
670.90 0.8417
671.00 0.8416
671.10 0.8414
671.20 0.8413
671.30 0.8412
671.40 0.841
671.50 0.8409
671.60 0.8408
671.70 0.8406
671.80 0.8405
671.90 0.8404
672.00 0.8402
672.10 0.8401
672.20 0.84
672.30 0.8398
672.40 0.8397
672.50 0.8396
672.60 0.8394
672.70 0.8393
672.80 0.8392
672.90 0.839
673.00 0.8389
673.10 0.8388
673.20 0.8386
673.30 0.8385
673.40 0.8384
673.50 0.8382
673.60 0.8381
673.70 0.8379
673.80 0.8378
673.90 0.8377
674.00 0.8375
674.10 0.8374
674.20 0.8373
674.30 0.8371
674.40 0.837
674.50 0.8369
674.60 0.8367
674.70 0.8366
674.80 0.8364
674.90 0.8363
675.00 0.8362
675.10 0.836
675.20 0.8359
675.30 0.8358
675.40 0.8356
675.50 0.8355
675.60 0.8353
675.70 0.8352
675.80 0.8351
675.90 0.8349
676.00 0.8348
676.10 0.8347
676.20 0.8345
676.30 0.8344
676.40 0.8343
676.50 0.8341
676.60 0.834
676.70 0.8338
676.80 0.8337
676.90 0.8336
677.00 0.8334
677.10 0.8333
677.20 0.8332
677.30 0.833
677.40 0.8329
677.50 0.8328
677.60 0.8326
677.70 0.8325
677.80 0.8323
677.90 0.8322
678.00 0.8321
678.10 0.8319
678.20 0.8318
678.30 0.8317
678.40 0.8315
678.50 0.8314
678.60 0.8313
678.70 0.8311
678.80 0.831
678.90 0.8308
679.00 0.8307
679.10 0.8306
679.20 0.8304
679.30 0.8303
679.40 0.8302
679.50 0.83
679.60 0.8299
679.70 0.8297
679.80 0.8296
679.90 0.8295
680.00 0.8293
680.10 0.8292
680.20 0.8291
680.30 0.8289
680.40 0.8288
680.50 0.8286
680.60 0.8285
680.70 0.8284
680.80 0.8282
680.90 0.8281
681.00 0.8279
681.10 0.8278
681.20 0.8277
681.30 0.8275
681.40 0.8274
681.50 0.8273
681.60 0.8271
681.70 0.827
681.80 0.8268
681.90 0.8267
682.00 0.8266
682.10 0.8264
682.20 0.8263
682.30 0.8261
682.40 0.826
682.50 0.8259
682.60 0.8257
682.70 0.8256
682.80 0.8255
682.90 0.8253
683.00 0.8252
683.10 0.825
683.20 0.8249
683.30 0.8248
683.40 0.8246
683.50 0.8245
683.60 0.8243
683.70 0.8242
683.80 0.8241
683.90 0.8239
684.00 0.8238
684.10 0.8236
684.20 0.8235
684.30 0.8234
684.40 0.8232
684.50 0.8231
684.60 0.823
684.70 0.8228
684.80 0.8227
684.90 0.8225
685.00 0.8224
685.10 0.8223
685.20 0.8221
685.30 0.822
685.40 0.8218
685.50 0.8217
685.60 0.8216
685.70 0.8214
685.80 0.8213
685.90 0.8211
686.00 0.821
686.10 0.8209
686.20 0.8207
686.30 0.8206
686.40 0.8204
686.50 0.8203
686.60 0.8202
686.70 0.82
686.80 0.8199
686.90 0.8198
687.00 0.8196
687.10 0.8195
687.20 0.8193
687.30 0.8192
687.40 0.8191
687.50 0.8189
687.60 0.8188
687.70 0.8186
687.80 0.8185
687.90 0.8184
688.00 0.8182
688.10 0.8181
688.20 0.8179
688.30 0.8178
688.40 0.8177
688.50 0.8175
688.60 0.8174
688.70 0.8172
688.80 0.8171
688.90 0.817
689.00 0.8168
689.10 0.8167
689.20 0.8166
689.30 0.8164
689.40 0.8163
689.50 0.8161
689.60 0.816
689.70 0.8158
689.80 0.8157
689.90 0.8156
690.00 0.8154
690.10 0.8153
690.20 0.8151
690.30 0.815
690.40 0.8149
690.50 0.8147
690.60 0.8146
690.70 0.8144
690.80 0.8143
690.90 0.8142
691.00 0.814
691.10 0.8139
691.20 0.8137
691.30 0.8136
691.40 0.8135
691.50 0.8133
691.60 0.8132
691.70 0.813
691.80 0.8129
691.90 0.8128
692.00 0.8126
692.10 0.8125
692.20 0.8123
692.30 0.8122
692.40 0.8121
692.50 0.8119
692.60 0.8118
692.70 0.8116
692.80 0.8115
692.90 0.8114
693.00 0.8112
693.10 0.8111
693.20 0.811
693.30 0.8108
693.40 0.8107
693.50 0.8105
693.60 0.8104
693.70 0.8103
693.80 0.8101
693.90 0.81
694.00 0.8098
694.10 0.8097
694.20 0.8096
694.30 0.8094
694.40 0.8093
694.50 0.8091
694.60 0.809
694.70 0.8089
694.80 0.8087
694.90 0.8086
695.00 0.8085
695.10 0.8083
695.20 0.8082
695.30 0.808
695.40 0.8079
695.50 0.8077
695.60 0.8076
695.70 0.8075
695.80 0.8073
695.90 0.8072
696.00 0.807
696.10 0.8069
696.20 0.8068
696.30 0.8066
696.40 0.8065
696.50 0.8063
696.60 0.8062
696.70 0.8061
696.80 0.8059
696.90 0.8058
697.00 0.8056
697.10 0.8055
697.20 0.8054
697.30 0.8052
697.40 0.8051
697.50 0.8049
697.60 0.8048
697.70 0.8047
697.80 0.8045
697.90 0.8044
698.00 0.8042
698.10 0.8041
698.20 0.804
698.30 0.8038
698.40 0.8037
698.50 0.8035
698.60 0.8034
698.70 0.8033
698.80 0.8031
698.90 0.803
699.00 0.8029
699.10 0.8027
699.20 0.8026
699.30 0.8024
699.40 0.8023
699.50 0.8022
699.60 0.802
699.70 0.8019
699.80 0.8017
699.90 0.8016
700.00 0.8015
700.10 0.8013
700.20 0.8012
700.30 0.801
700.40 0.8009
700.50 0.8008
700.60 0.8006
700.70 0.8005
700.80 0.8003
700.90 0.8002
701.00 0.8001
701.10 0.7999
701.20 0.7998
701.30 0.7996
701.40 0.7995
701.50 0.7993
701.60 0.7992
701.70 0.7991
701.80 0.7989
701.90 0.7988
702.00 0.7986
702.10 0.7985
702.20 0.7984
702.30 0.7982
702.40 0.7981
702.50 0.7979
702.60 0.7978
702.70 0.7977
702.80 0.7975
702.90 0.7974
703.00 0.7972
703.10 0.7971
703.20 0.797
703.30 0.7968
703.40 0.7967
703.50 0.7965
703.60 0.7964
703.70 0.7963
703.80 0.7961
703.90 0.796
704.00 0.7958
704.10 0.7957
704.20 0.7956
704.30 0.7954
704.40 0.7953
704.50 0.7952
704.60 0.795
704.70 0.7949
704.80 0.7947
704.90 0.7946
705.00 0.7945
705.10 0.7943
705.20 0.7942
705.30 0.794
705.40 0.7939
705.50 0.7937
705.60 0.7936
705.70 0.7935
705.80 0.7933
705.90 0.7932
706.00 0.793
706.10 0.7929
706.20 0.7928
706.30 0.7926
706.40 0.7925
706.50 0.7923
706.60 0.7922
706.70 0.7921
706.80 0.7919
706.90 0.7918
707.00 0.7916
707.10 0.7915
707.20 0.7914
707.30 0.7912
707.40 0.7911
707.50 0.7909
707.60 0.7908
707.70 0.7907
707.80 0.7905
707.90 0.7904
708.00 0.7902
708.10 0.7901
708.20 0.79
708.30 0.7898
708.40 0.7897
708.50 0.7895
708.60 0.7894
708.70 0.7893
708.80 0.7891
708.90 0.789
709.00 0.7888
709.10 0.7887
709.20 0.7886
709.30 0.7884
709.40 0.7883
709.50 0.7881
709.60 0.788
709.70 0.7879
709.80 0.7877
709.90 0.7876
710.00 0.7874
710.10 0.7873
710.20 0.7872
710.30 0.787
710.40 0.7869
710.50 0.7867
710.60 0.7866
710.70 0.7865
710.80 0.7863
710.90 0.7862
711.00 0.786
711.10 0.7859
711.20 0.7858
711.30 0.7856
711.40 0.7855
711.50 0.7853
711.60 0.7852
711.70 0.7851
711.80 0.7849
711.90 0.7848
712.00 0.7846
712.10 0.7845
712.20 0.7844
712.30 0.7842
712.40 0.7841
712.50 0.7839
712.60 0.7838
712.70 0.7837
712.80 0.7835
712.90 0.7834
713.00 0.7832
713.10 0.7831
713.20 0.783
713.30 0.7828
713.40 0.7827
713.50 0.7825
713.60 0.7824
713.70 0.7823
713.80 0.7821
713.90 0.782
714.00 0.7818
714.10 0.7817
714.20 0.7816
714.30 0.7814
714.40 0.7813
714.50 0.7811
714.60 0.781
714.70 0.7809
714.80 0.7807
714.90 0.7806
715.00 0.7804
715.10 0.7803
715.20 0.7802
715.30 0.78
715.40 0.7799
715.50 0.7797
715.60 0.7796
715.70 0.7795
715.80 0.7793
715.90 0.7792
716.00 0.779
716.10 0.7789
716.20 0.7788
716.30 0.7786
716.40 0.7785
716.50 0.7783
716.60 0.7782
716.70 0.778
716.80 0.7779
716.90 0.7778
717.00 0.7776
717.10 0.7775
717.20 0.7773
717.30 0.7772
717.40 0.7771
717.50 0.7769
717.60 0.7768
717.70 0.7766
717.80 0.7765
717.90 0.7764
718.00 0.7762
718.10 0.7761
718.20 0.7759
718.30 0.7758
718.40 0.7757
718.50 0.7755
718.60 0.7754
718.70 0.7752
718.80 0.7751
718.90 0.775
719.00 0.7748
719.10 0.7747
719.20 0.7746
719.30 0.7744
719.40 0.7743
719.50 0.7741
719.60 0.774
719.70 0.7739
719.80 0.7737
719.90 0.7736
720.00 0.7734
720.10 0.7733
720.20 0.7732
720.30 0.773
720.40 0.7729
720.50 0.7727
720.60 0.7726
720.70 0.7725
720.80 0.7723
720.90 0.7722
721.00 0.772
721.10 0.7719
721.20 0.7717
721.30 0.7716
721.40 0.7715
721.50 0.7713
721.60 0.7712
721.70 0.771
721.80 0.7709
721.90 0.7708
722.00 0.7706
722.10 0.7705
722.20 0.7703
722.30 0.7702
722.40 0.7701
722.50 0.7699
722.60 0.7698
722.70 0.7696
722.80 0.7695
722.90 0.7694
723.00 0.7692
723.10 0.7691
723.20 0.7689
723.30 0.7688
723.40 0.7687
723.50 0.7685
723.60 0.7684
723.70 0.7682
723.80 0.7681
723.90 0.768
724.00 0.7678
724.10 0.7677
724.20 0.7675
724.30 0.7674
724.40 0.7673
724.50 0.7671
724.60 0.767
724.70 0.7668
724.80 0.7667
724.90 0.7666
725.00 0.7664
725.10 0.7663
725.20 0.7661
725.30 0.766
725.40 0.7659
725.50 0.7657
725.60 0.7656
725.70 0.7654
725.80 0.7653
725.90 0.7652
726.00 0.765
726.10 0.7649
726.20 0.7647
726.30 0.7646
726.40 0.7645
726.50 0.7643
726.60 0.7642
726.70 0.764
726.80 0.7639
726.90 0.7638
727.00 0.7636
727.10 0.7635
727.20 0.7633
727.30 0.7632
727.40 0.7631
727.50 0.7629
727.60 0.7628
727.70 0.7626
727.80 0.7625
727.90 0.7624
728.00 0.7622
728.10 0.7621
728.20 0.7619
728.30 0.7618
728.40 0.7617
728.50 0.7615
728.60 0.7614
728.70 0.7613
728.80 0.7611
728.90 0.761
729.00 0.7608
729.10 0.7607
729.20 0.7606
729.30 0.7604
729.40 0.7603
729.50 0.7601
729.60 0.76
729.70 0.7599
729.80 0.7597
729.90 0.7596
730.00 0.7594
730.10 0.7593
730.20 0.7592
730.30 0.759
730.40 0.7589
730.50 0.7587
730.60 0.7586
730.70 0.7585
730.80 0.7583
730.90 0.7582
731.00 0.758
731.10 0.7579
731.20 0.7578
731.30 0.7576
731.40 0.7575
731.50 0.7573
731.60 0.7572
731.70 0.757
731.80 0.7569
731.90 0.7568
732.00 0.7566
732.10 0.7565
732.20 0.7563
732.30 0.7562
732.40 0.7561
732.50 0.7559
732.60 0.7558
732.70 0.7556
732.80 0.7555
732.90 0.7554
733.00 0.7552
733.10 0.7551
733.20 0.7549
733.30 0.7548
733.40 0.7547
733.50 0.7545
733.60 0.7544
733.70 0.7542
733.80 0.7541
733.90 0.754
734.00 0.7538
734.10 0.7537
734.20 0.7535
734.30 0.7534
734.40 0.7533
734.50 0.7531
734.60 0.753
734.70 0.7528
734.80 0.7527
734.90 0.7526
735.00 0.7524
735.10 0.7523
735.20 0.7521
735.30 0.752
735.40 0.7519
735.50 0.7517
735.60 0.7516
735.70 0.7514
735.80 0.7513
735.90 0.7512
736.00 0.751
736.10 0.7509
736.20 0.7507
736.30 0.7506
736.40 0.7505
736.50 0.7503
736.60 0.7502
736.70 0.7501
736.80 0.7499
736.90 0.7498
737.00 0.7496
737.10 0.7495
737.20 0.7494
737.30 0.7492
737.40 0.7491
737.50 0.7489
737.60 0.7488
737.70 0.7487
737.80 0.7485
737.90 0.7484
738.00 0.7483
738.10 0.7481
738.20 0.748
738.30 0.7478
738.40 0.7477
738.50 0.7476
738.60 0.7474
738.70 0.7473
738.80 0.7472
738.90 0.747
739.00 0.7469
739.10 0.7467
739.20 0.7466
739.30 0.7465
739.40 0.7463
739.50 0.7462
739.60 0.7461
739.70 0.7459
739.80 0.7458
739.90 0.7456
740.00 0.7455
740.10 0.7454
740.20 0.7452
740.30 0.7451
740.40 0.7449
740.50 0.7448
740.60 0.7447
740.70 0.7445
740.80 0.7444
740.90 0.7442
741.00 0.7441
741.10 0.744
741.20 0.7438
741.30 0.7437
741.40 0.7435
741.50 0.7434
741.60 0.7433
741.70 0.7431
741.80 0.743
741.90 0.7428
742.00 0.7427
742.10 0.7426
742.20 0.7424
742.30 0.7423
742.40 0.7421
742.50 0.742
742.60 0.7419
742.70 0.7417
742.80 0.7416
742.90 0.7414
743.00 0.7413
743.10 0.7412
743.20 0.741
743.30 0.7409
743.40 0.7407
743.50 0.7406
743.60 0.7405
743.70 0.7403
743.80 0.7402
743.90 0.74
744.00 0.7399
744.10 0.7398
744.20 0.7396
744.30 0.7395
744.40 0.7394
744.50 0.7392
744.60 0.7391
744.70 0.7389
744.80 0.7388
744.90 0.7387
745.00 0.7385
745.10 0.7384
745.20 0.7382
745.30 0.7381
745.40 0.738
745.50 0.7378
745.60 0.7377
745.70 0.7376
745.80 0.7374
745.90 0.7373
746.00 0.7371
746.10 0.737
746.20 0.7369
746.30 0.7367
746.40 0.7366
746.50 0.7364
746.60 0.7363
746.70 0.7362
746.80 0.736
746.90 0.7359
747.00 0.7358
747.10 0.7356
747.20 0.7355
747.30 0.7353
747.40 0.7352
747.50 0.7351
747.60 0.7349
747.70 0.7348
747.80 0.7347
747.90 0.7345
748.00 0.7344
748.10 0.7342
748.20 0.7341
748.30 0.734
748.40 0.7338
748.50 0.7337
748.60 0.7336
748.70 0.7334
748.80 0.7333
748.90 0.7332
749.00 0.733
749.10 0.7329
749.20 0.7327
749.30 0.7326
749.40 0.7325
749.50 0.7323
749.60 0.7322
749.70 0.7321
749.80 0.7319
749.90 0.7318
750.00 0.7317
750.10 0.7315
750.20 0.7314
750.30 0.7312
750.40 0.7311
750.50 0.731
750.60 0.7308
750.70 0.7307
750.80 0.7305
750.90 0.7304
751.00 0.7303
751.10 0.7301
751.20 0.73
751.30 0.7298
751.40 0.7297
751.50 0.7296
751.60 0.7294
751.70 0.7293
751.80 0.7291
751.90 0.729
752.00 0.7289
752.10 0.7287
752.20 0.7286
752.30 0.7284
752.40 0.7283
752.50 0.7282
752.60 0.728
752.70 0.7279
752.80 0.7277
752.90 0.7276
753.00 0.7275
753.10 0.7273
753.20 0.7272
753.30 0.7271
753.40 0.7269
753.50 0.7268
753.60 0.7266
753.70 0.7265
753.80 0.7264
753.90 0.7262
754.00 0.7261
754.10 0.7259
754.20 0.7258
754.30 0.7257
754.40 0.7255
754.50 0.7254
754.60 0.7253
754.70 0.7251
754.80 0.725
754.90 0.7248
755.00 0.7247
755.10 0.7246
755.20 0.7244
755.30 0.7243
755.40 0.7242
755.50 0.724
755.60 0.7239
755.70 0.7237
755.80 0.7236
755.90 0.7235
756.00 0.7233
756.10 0.7232
756.20 0.7231
756.30 0.7229
756.40 0.7228
756.50 0.7226
756.60 0.7225
756.70 0.7224
756.80 0.7222
756.90 0.7221
757.00 0.722
757.10 0.7218
757.20 0.7217
757.30 0.7216
757.40 0.7214
757.50 0.7213
757.60 0.7211
757.70 0.721
757.80 0.7209
757.90 0.7207
758.00 0.7206
758.10 0.7205
758.20 0.7203
758.30 0.7202
758.40 0.7201
758.50 0.7199
758.60 0.7198
758.70 0.7196
758.80 0.7195
758.90 0.7194
759.00 0.7192
759.10 0.7191
759.20 0.719
759.30 0.7188
759.40 0.7187
759.50 0.7186
759.60 0.7184
759.70 0.7183
759.80 0.7182
759.90 0.718
760.00 0.7179
760.10 0.7177
760.20 0.7176
760.30 0.7175
760.40 0.7173
760.50 0.7172
760.60 0.717
760.70 0.7169
760.80 0.7168
760.90 0.7166
761.00 0.7165
761.10 0.7164
761.20 0.7162
761.30 0.7161
761.40 0.7159
761.50 0.7158
761.60 0.7157
761.70 0.7155
761.80 0.7154
761.90 0.7153
762.00 0.7151
762.10 0.715
762.20 0.7148
762.30 0.7147
762.40 0.7146
762.50 0.7144
762.60 0.7143
762.70 0.7141
762.80 0.714
762.90 0.7139
763.00 0.7137
763.10 0.7136
763.20 0.7135
763.30 0.7133
763.40 0.7132
763.50 0.7131
763.60 0.7129
763.70 0.7128
763.80 0.7126
763.90 0.7125
764.00 0.7124
764.10 0.7122
764.20 0.7121
764.30 0.712
764.40 0.7118
764.50 0.7117
764.60 0.7115
764.70 0.7114
764.80 0.7113
764.90 0.7111
765.00 0.711
765.10 0.7109
765.20 0.7107
765.30 0.7106
765.40 0.7105
765.50 0.7103
765.60 0.7102
765.70 0.71
765.80 0.7099
765.90 0.7098
766.00 0.7096
766.10 0.7095
766.20 0.7094
766.30 0.7092
766.40 0.7091
766.50 0.709
766.60 0.7088
766.70 0.7087
766.80 0.7085
766.90 0.7084
767.00 0.7083
767.10 0.7081
767.20 0.708
767.30 0.7079
767.40 0.7077
767.50 0.7076
767.60 0.7075
767.70 0.7073
767.80 0.7072
767.90 0.7071
768.00 0.7069
768.10 0.7068
768.20 0.7067
768.30 0.7065
768.40 0.7064
768.50 0.7063
768.60 0.7061
768.70 0.706
768.80 0.7058
768.90 0.7057
769.00 0.7056
769.10 0.7054
769.20 0.7053
769.30 0.7052
769.40 0.705
769.50 0.7049
769.60 0.7048
769.70 0.7046
769.80 0.7045
769.90 0.7044
770.00 0.7042
770.10 0.7041
770.20 0.704
770.30 0.7038
770.40 0.7037
770.50 0.7035
770.60 0.7034
770.70 0.7033
770.80 0.7031
770.90 0.703
771.00 0.7029
771.10 0.7027
771.20 0.7026
771.30 0.7024
771.40 0.7023
771.50 0.7022
771.60 0.702
771.70 0.7019
771.80 0.7018
771.90 0.7016
772.00 0.7015
772.10 0.7014
772.20 0.7012
772.30 0.7011
772.40 0.7009
772.50 0.7008
772.60 0.7007
772.70 0.7005
772.80 0.7004
772.90 0.7003
773.00 0.7001
773.10 0.7
773.20 0.6999
773.30 0.6997
773.40 0.6996
773.50 0.6994
773.60 0.6993
773.70 0.6992
773.80 0.699
773.90 0.6989
774.00 0.6988
774.10 0.6986
774.20 0.6985
774.30 0.6984
774.40 0.6982
774.50 0.6981
774.60 0.698
774.70 0.6978
774.80 0.6977
774.90 0.6975
775.00 0.6974
775.10 0.6973
775.20 0.6971
775.30 0.697
775.40 0.6969
775.50 0.6967
775.60 0.6966
775.70 0.6965
775.80 0.6963
775.90 0.6962
776.00 0.6961
776.10 0.6959
776.20 0.6958
776.30 0.6957
776.40 0.6955
776.50 0.6954
776.60 0.6953
776.70 0.6951
776.80 0.695
776.90 0.6949
777.00 0.6947
777.10 0.6946
777.20 0.6945
777.30 0.6943
777.40 0.6942
777.50 0.694
777.60 0.6939
777.70 0.6938
777.80 0.6936
777.90 0.6935
778.00 0.6934
778.10 0.6932
778.20 0.6931
778.30 0.693
778.40 0.6928
778.50 0.6927
778.60 0.6926
778.70 0.6924
778.80 0.6923
778.90 0.6922
779.00 0.692
779.10 0.6919
779.20 0.6918
779.30 0.6916
779.40 0.6915
779.50 0.6914
779.60 0.6912
779.70 0.6911
779.80 0.691
779.90 0.6908
780.00 0.6907
780.10 0.6906
780.20 0.6904
780.30 0.6903
780.40 0.6902
780.50 0.69
780.60 0.6899
780.70 0.6898
780.80 0.6896
780.90 0.6895
781.00 0.6894
781.10 0.6892
781.20 0.6891
781.30 0.6889
781.40 0.6888
781.50 0.6887
781.60 0.6885
781.70 0.6884
781.80 0.6883
781.90 0.6881
782.00 0.688
782.10 0.6879
782.20 0.6877
782.30 0.6876
782.40 0.6875
782.50 0.6873
782.60 0.6872
782.70 0.6871
782.80 0.6869
782.90 0.6868
783.00 0.6867
783.10 0.6865
783.20 0.6864
783.30 0.6862
783.40 0.6861
783.50 0.686
783.60 0.6858
783.70 0.6857
783.80 0.6856
783.90 0.6854
784.00 0.6853
784.10 0.6852
784.20 0.685
784.30 0.6849
784.40 0.6848
784.50 0.6846
784.60 0.6845
784.70 0.6844
784.80 0.6842
784.90 0.6841
785.00 0.684
785.10 0.6838
785.20 0.6837
785.30 0.6836
785.40 0.6834
785.50 0.6833
785.60 0.6832
785.70 0.683
785.80 0.6829
785.90 0.6828
786.00 0.6826
786.10 0.6825
786.20 0.6824
786.30 0.6822
786.40 0.6821
786.50 0.682
786.60 0.6818
786.70 0.6817
786.80 0.6816
786.90 0.6814
787.00 0.6813
787.10 0.6812
787.20 0.681
787.30 0.6809
787.40 0.6808
787.50 0.6806
787.60 0.6805
787.70 0.6804
787.80 0.6802
787.90 0.6801
788.00 0.68
788.10 0.6798
788.20 0.6797
788.30 0.6796
788.40 0.6794
788.50 0.6793
788.60 0.6792
788.70 0.6791
788.80 0.6789
788.90 0.6788
789.00 0.6787
789.10 0.6785
789.20 0.6784
789.30 0.6783
789.40 0.6781
789.50 0.678
789.60 0.6779
789.70 0.6777
789.80 0.6776
789.90 0.6775
790.00 0.6773
790.10 0.6772
790.20 0.6771
790.30 0.6769
790.40 0.6768
790.50 0.6767
790.60 0.6765
790.70 0.6764
790.80 0.6763
790.90 0.6761
791.00 0.676
791.10 0.6759
791.20 0.6757
791.30 0.6756
791.40 0.6755
791.50 0.6753
791.60 0.6752
791.70 0.6751
791.80 0.6749
791.90 0.6748
792.00 0.6747
792.10 0.6745
792.20 0.6744
792.30 0.6743
792.40 0.6741
792.50 0.674
792.60 0.6739
792.70 0.6737
792.80 0.6736
792.90 0.6735
793.00 0.6733
793.10 0.6732
793.20 0.6731
793.30 0.6729
793.40 0.6728
793.50 0.6727
793.60 0.6725
793.70 0.6724
793.80 0.6723
793.90 0.6721
794.00 0.672
794.10 0.6719
794.20 0.6717
794.30 0.6716
794.40 0.6715
794.50 0.6713
794.60 0.6712
794.70 0.6711
794.80 0.6709
794.90 0.6708
795.00 0.6707
795.10 0.6705
795.20 0.6704
795.30 0.6703
795.40 0.6701
795.50 0.67
795.60 0.6699
795.70 0.6697
795.80 0.6696
795.90 0.6695
796.00 0.6694
796.10 0.6692
796.20 0.6691
796.30 0.669
796.40 0.6688
796.50 0.6687
796.60 0.6686
796.70 0.6684
796.80 0.6683
796.90 0.6682
797.00 0.668
797.10 0.6679
797.20 0.6678
797.30 0.6676
797.40 0.6675
797.50 0.6674
797.60 0.6673
797.70 0.6671
797.80 0.667
797.90 0.6669
798.00 0.6667
798.10 0.6666
798.20 0.6665
798.30 0.6663
798.40 0.6662
798.50 0.6661
798.60 0.6659
798.70 0.6658
798.80 0.6657
798.90 0.6656
799.00 0.6654
799.10 0.6653
799.20 0.6652
799.30 0.665
799.40 0.6649
799.50 0.6648
799.60 0.6646
799.70 0.6645
799.80 0.6644
799.90 0.6642
800.00 0.6641
800.10 0.664
800.20 0.6639
800.30 0.6637
800.40 0.6636
800.50 0.6635
800.60 0.6633
800.70 0.6632
800.80 0.6631
800.90 0.6629
801.00 0.6628
801.10 0.6627
801.20 0.6625
801.30 0.6624
801.40 0.6623
801.50 0.6621
801.60 0.662
801.70 0.6619
801.80 0.6617
801.90 0.6616
802.00 0.6615
802.10 0.6613
802.20 0.6612
802.30 0.6611
802.40 0.6609
802.50 0.6608
802.60 0.6607
802.70 0.6606
802.80 0.6604
802.90 0.6603
803.00 0.6602
803.10 0.66
803.20 0.6599
803.30 0.6598
803.40 0.6596
803.50 0.6595
803.60 0.6594
803.70 0.6592
803.80 0.6591
803.90 0.659
804.00 0.6588
804.10 0.6587
804.20 0.6586
804.30 0.6585
804.40 0.6583
804.50 0.6582
804.60 0.6581
804.70 0.6579
804.80 0.6578
804.90 0.6577
805.00 0.6575
805.10 0.6574
805.20 0.6573
805.30 0.6571
805.40 0.657
805.50 0.6569
805.60 0.6568
805.70 0.6566
805.80 0.6565
805.90 0.6564
806.00 0.6562
806.10 0.6561
806.20 0.656
806.30 0.6558
806.40 0.6557
806.50 0.6556
806.60 0.6555
806.70 0.6553
806.80 0.6552
806.90 0.6551
807.00 0.6549
807.10 0.6548
807.20 0.6547
807.30 0.6545
807.40 0.6544
807.50 0.6543
807.60 0.6542
807.70 0.654
807.80 0.6539
807.90 0.6538
808.00 0.6536
808.10 0.6535
808.20 0.6534
808.30 0.6533
808.40 0.6531
808.50 0.653
808.60 0.6529
808.70 0.6527
808.80 0.6526
808.90 0.6525
809.00 0.6524
809.10 0.6522
809.20 0.6521
809.30 0.652
809.40 0.6518
809.50 0.6517
809.60 0.6516
809.70 0.6515
809.80 0.6513
809.90 0.6512
810.00 0.6511
810.10 0.6509
810.20 0.6508
810.30 0.6507
810.40 0.6505
810.50 0.6504
810.60 0.6503
810.70 0.6502
810.80 0.65
810.90 0.6499
811.00 0.6498
811.10 0.6496
811.20 0.6495
811.30 0.6494
811.40 0.6492
811.50 0.6491
811.60 0.649
811.70 0.6488
811.80 0.6487
811.90 0.6486
812.00 0.6485
812.10 0.6483
812.20 0.6482
812.30 0.6481
812.40 0.6479
812.50 0.6478
812.60 0.6477
812.70 0.6475
812.80 0.6474
812.90 0.6473
813.00 0.6472
813.10 0.647
813.20 0.6469
813.30 0.6468
813.40 0.6466
813.50 0.6465
813.60 0.6464
813.70 0.6463
813.80 0.6461
813.90 0.646
814.00 0.6459
814.10 0.6457
814.20 0.6456
814.30 0.6455
814.40 0.6453
814.50 0.6452
814.60 0.6451
814.70 0.645
814.80 0.6448
814.90 0.6447
815.00 0.6446
815.10 0.6444
815.20 0.6443
815.30 0.6442
815.40 0.6441
815.50 0.6439
815.60 0.6438
815.70 0.6437
815.80 0.6435
815.90 0.6434
816.00 0.6433
816.10 0.6432
816.20 0.643
816.30 0.6429
816.40 0.6428
816.50 0.6426
816.60 0.6425
816.70 0.6424
816.80 0.6423
816.90 0.6421
817.00 0.642
817.10 0.6419
817.20 0.6418
817.30 0.6416
817.40 0.6415
817.50 0.6414
817.60 0.6412
817.70 0.6411
817.80 0.641
817.90 0.6409
818.00 0.6407
818.10 0.6406
818.20 0.6405
818.30 0.6403
818.40 0.6402
818.50 0.6401
818.60 0.64
818.70 0.6398
818.80 0.6397
818.90 0.6396
819.00 0.6395
819.10 0.6393
819.20 0.6392
819.30 0.6391
819.40 0.6389
819.50 0.6388
819.60 0.6387
819.70 0.6386
819.80 0.6384
819.90 0.6383
820.00 0.6382
820.10 0.6381
820.20 0.6379
820.30 0.6378
820.40 0.6377
820.50 0.6376
820.60 0.6374
820.70 0.6373
820.80 0.6372
820.90 0.637
821.00 0.6369
821.10 0.6368
821.20 0.6367
821.30 0.6365
821.40 0.6364
821.50 0.6363
821.60 0.6362
821.70 0.636
821.80 0.6359
821.90 0.6358
822.00 0.6356
822.10 0.6355
822.20 0.6354
822.30 0.6353
822.40 0.6351
822.50 0.635
822.60 0.6349
822.70 0.6347
822.80 0.6346
822.90 0.6345
823.00 0.6344
823.10 0.6342
823.20 0.6341
823.30 0.634
823.40 0.6339
823.50 0.6337
823.60 0.6336
823.70 0.6335
823.80 0.6333
823.90 0.6332
824.00 0.6331
824.10 0.633
824.20 0.6328
824.30 0.6327
824.40 0.6326
824.50 0.6325
824.60 0.6323
824.70 0.6322
824.80 0.6321
824.90 0.6319
825.00 0.6318
825.10 0.6317
825.20 0.6316
825.30 0.6314
825.40 0.6313
825.50 0.6312
825.60 0.6311
825.70 0.6309
825.80 0.6308
825.90 0.6307
826.00 0.6306
826.10 0.6304
826.20 0.6303
826.30 0.6302
826.40 0.63
826.50 0.6299
826.60 0.6298
826.70 0.6297
826.80 0.6295
826.90 0.6294
827.00 0.6293
827.10 0.6292
827.20 0.629
827.30 0.6289
827.40 0.6288
827.50 0.6287
827.60 0.6285
827.70 0.6284
827.80 0.6283
827.90 0.6282
828.00 0.628
828.10 0.6279
828.20 0.6278
828.30 0.6276
828.40 0.6275
828.50 0.6274
828.60 0.6273
828.70 0.6271
828.80 0.627
828.90 0.6269
829.00 0.6268
829.10 0.6266
829.20 0.6265
829.30 0.6264
829.40 0.6263
829.50 0.6261
829.60 0.626
829.70 0.6259
829.80 0.6258
829.90 0.6256
830.00 0.6255
830.10 0.6254
830.20 0.6252
830.30 0.6251
830.40 0.625
830.50 0.6249
830.60 0.6247
830.70 0.6246
830.80 0.6245
830.90 0.6244
831.00 0.6242
831.10 0.6241
831.20 0.624
831.30 0.6239
831.40 0.6237
831.50 0.6236
831.60 0.6235
831.70 0.6234
831.80 0.6232
831.90 0.6231
832.00 0.623
832.10 0.6229
832.20 0.6227
832.30 0.6226
832.40 0.6225
832.50 0.6224
832.60 0.6222
832.70 0.6221
832.80 0.622
832.90 0.6219
833.00 0.6217
833.10 0.6216
833.20 0.6215
833.30 0.6214
833.40 0.6212
833.50 0.6211
833.60 0.621
833.70 0.6209
833.80 0.6207
833.90 0.6206
834.00 0.6205
834.10 0.6204
834.20 0.6202
834.30 0.6201
834.40 0.62
834.50 0.6199
834.60 0.6197
834.70 0.6196
834.80 0.6195
834.90 0.6194
835.00 0.6192
835.10 0.6191
835.20 0.619
835.30 0.6189
835.40 0.6187
835.50 0.6186
835.60 0.6185
835.70 0.6184
835.80 0.6182
835.90 0.6181
836.00 0.618
836.10 0.6179
836.20 0.6177
836.30 0.6176
836.40 0.6175
836.50 0.6174
836.60 0.6172
836.70 0.6171
836.80 0.617
836.90 0.6169
837.00 0.6167
837.10 0.6166
837.20 0.6165
837.30 0.6164
837.40 0.6162
837.50 0.6161
837.60 0.616
837.70 0.6159
837.80 0.6157
837.90 0.6156
838.00 0.6155
838.10 0.6154
838.20 0.6152
838.30 0.6151
838.40 0.615
838.50 0.6149
838.60 0.6147
838.70 0.6146
838.80 0.6145
838.90 0.6144
839.00 0.6142
839.10 0.6141
839.20 0.614
839.30 0.6139
839.40 0.6138
839.50 0.6136
839.60 0.6135
839.70 0.6134
839.80 0.6133
839.90 0.6131
840.00 0.613
840.10 0.6129
840.20 0.6128
840.30 0.6126
840.40 0.6125
840.50 0.6124
840.60 0.6123
840.70 0.6121
840.80 0.612
840.90 0.6119
841.00 0.6118
841.10 0.6116
841.20 0.6115
841.30 0.6114
841.40 0.6113
841.50 0.6112
841.60 0.611
841.70 0.6109
841.80 0.6108
841.90 0.6107
842.00 0.6105
842.10 0.6104
842.20 0.6103
842.30 0.6102
842.40 0.61
842.50 0.6099
842.60 0.6098
842.70 0.6097
842.80 0.6095
842.90 0.6094
843.00 0.6093
843.10 0.6092
843.20 0.609
843.30 0.6089
843.40 0.6088
843.50 0.6087
843.60 0.6085
843.70 0.6084
843.80 0.6083
843.90 0.6082
844.00 0.6081
844.10 0.6079
844.20 0.6078
844.30 0.6077
844.40 0.6076
844.50 0.6074
844.60 0.6073
844.70 0.6072
844.80 0.6071
844.90 0.6069
845.00 0.6068
845.10 0.6067
845.20 0.6066
845.30 0.6064
845.40 0.6063
845.50 0.6062
845.60 0.6061
845.70 0.606
845.80 0.6058
845.90 0.6057
846.00 0.6056
846.10 0.6055
846.20 0.6053
846.30 0.6052
846.40 0.6051
846.50 0.605
846.60 0.6048
846.70 0.6047
846.80 0.6046
846.90 0.6045
847.00 0.6044
847.10 0.6042
847.20 0.6041
847.30 0.604
847.40 0.6039
847.50 0.6037
847.60 0.6036
847.70 0.6035
847.80 0.6034
847.90 0.6033
848.00 0.6031
848.10 0.603
848.20 0.6029
848.30 0.6028
848.40 0.6026
848.50 0.6025
848.60 0.6024
848.70 0.6023
848.80 0.6022
848.90 0.602
849.00 0.6019
849.10 0.6018
849.20 0.6017
849.30 0.6016
849.40 0.6014
849.50 0.6013
849.60 0.6012
849.70 0.6011
849.80 0.6009
849.90 0.6008
850.00 0.6007
850.10 0.6006
850.20 0.6005
850.30 0.6003
850.40 0.6002
850.50 0.6001
850.60 0.6
850.70 0.5999
850.80 0.5997
850.90 0.5996
851.00 0.5995
851.10 0.5994
851.20 0.5993
851.30 0.5991
851.40 0.599
851.50 0.5989
851.60 0.5988
851.70 0.5987
851.80 0.5985
851.90 0.5984
852.00 0.5983
852.10 0.5982
852.20 0.598
852.30 0.5979
852.40 0.5978
852.50 0.5977
852.60 0.5976
852.70 0.5974
852.80 0.5973
852.90 0.5972
853.00 0.5971
853.10 0.5969
853.20 0.5968
853.30 0.5967
853.40 0.5966
853.50 0.5965
853.60 0.5963
853.70 0.5962
853.80 0.5961
853.90 0.596
854.00 0.5959
854.10 0.5957
854.20 0.5956
854.30 0.5955
854.40 0.5954
854.50 0.5953
854.60 0.5951
854.70 0.595
854.80 0.5949
854.90 0.5948
855.00 0.5946
855.10 0.5945
855.20 0.5944
855.30 0.5943
855.40 0.5942
855.50 0.594
855.60 0.5939
855.70 0.5938
855.80 0.5937
855.90 0.5936
856.00 0.5934
856.10 0.5933
856.20 0.5932
856.30 0.5931
856.40 0.593
856.50 0.5928
856.60 0.5927
856.70 0.5926
856.80 0.5925
856.90 0.5924
857.00 0.5922
857.10 0.5921
857.20 0.592
857.30 0.5919
857.40 0.5918
857.50 0.5916
857.60 0.5915
857.70 0.5914
857.80 0.5913
857.90 0.5911
858.00 0.591
858.10 0.5909
858.20 0.5908
858.30 0.5907
858.40 0.5905
858.50 0.5904
858.60 0.5903
858.70 0.5902
858.80 0.5901
858.90 0.5899
859.00 0.5898
859.10 0.5897
859.20 0.5896
859.30 0.5895
859.40 0.5893
859.50 0.5892
859.60 0.5891
859.70 0.589
859.80 0.5889
859.90 0.5887
860.00 0.5886
860.10 0.5885
860.20 0.5884
860.30 0.5883
860.40 0.5881
860.50 0.588
860.60 0.5879
860.70 0.5878
860.80 0.5877
860.90 0.5875
861.00 0.5874
861.10 0.5873
861.20 0.5872
861.30 0.5871
861.40 0.5869
861.50 0.5868
861.60 0.5867
861.70 0.5866
861.80 0.5865
861.90 0.5864
862.00 0.5862
862.10 0.5861
862.20 0.586
862.30 0.5859
862.40 0.5858
862.50 0.5856
862.60 0.5855
862.70 0.5854
862.80 0.5853
862.90 0.5852
863.00 0.585
863.10 0.5849
863.20 0.5848
863.30 0.5847
863.40 0.5846
863.50 0.5844
863.60 0.5843
863.70 0.5842
863.80 0.5841
863.90 0.584
864.00 0.5838
864.10 0.5837
864.20 0.5836
864.30 0.5835
864.40 0.5834
864.50 0.5833
864.60 0.5831
864.70 0.583
864.80 0.5829
864.90 0.5828
865.00 0.5827
865.10 0.5825
865.20 0.5824
865.30 0.5823
865.40 0.5822
865.50 0.5821
865.60 0.5819
865.70 0.5818
865.80 0.5817
865.90 0.5816
866.00 0.5815
866.10 0.5814
866.20 0.5812
866.30 0.5811
866.40 0.581
866.50 0.5809
866.60 0.5808
866.70 0.5806
866.80 0.5805
866.90 0.5804
867.00 0.5803
867.10 0.5802
867.20 0.5801
867.30 0.5799
867.40 0.5798
867.50 0.5797
867.60 0.5796
867.70 0.5795
867.80 0.5793
867.90 0.5792
868.00 0.5791
868.10 0.579
868.20 0.5789
868.30 0.5788
868.40 0.5786
868.50 0.5785
868.60 0.5784
868.70 0.5783
868.80 0.5782
868.90 0.578
869.00 0.5779
869.10 0.5778
869.20 0.5777
869.30 0.5776
869.40 0.5775
869.50 0.5773
869.60 0.5772
869.70 0.5771
869.80 0.577
869.90 0.5769
870.00 0.5767
870.10 0.5766
870.20 0.5765
870.30 0.5764
870.40 0.5763
870.50 0.5762
870.60 0.576
870.70 0.5759
870.80 0.5758
870.90 0.5757
871.00 0.5756
871.10 0.5755
871.20 0.5753
871.30 0.5752
871.40 0.5751
871.50 0.575
871.60 0.5749
871.70 0.5748
871.80 0.5746
871.90 0.5745
872.00 0.5744
872.10 0.5743
872.20 0.5742
872.30 0.574
872.40 0.5739
872.50 0.5738
872.60 0.5737
872.70 0.5736
872.80 0.5735
872.90 0.5733
873.00 0.5732
873.10 0.5731
873.20 0.573
873.30 0.5729
873.40 0.5728
873.50 0.5726
873.60 0.5725
873.70 0.5724
873.80 0.5723
873.90 0.5722
874.00 0.5721
874.10 0.5719
874.20 0.5718
874.30 0.5717
874.40 0.5716
874.50 0.5715
874.60 0.5713
874.70 0.5712
874.80 0.5711
874.90 0.571
875.00 0.5709
875.10 0.5708
875.20 0.5706
875.30 0.5705
875.40 0.5704
875.50 0.5703
875.60 0.5702
875.70 0.5701
875.80 0.57
875.90 0.5698
876.00 0.5697
876.10 0.5696
876.20 0.5695
876.30 0.5694
876.40 0.5693
876.50 0.5691
876.60 0.569
876.70 0.5689
876.80 0.5688
876.90 0.5687
877.00 0.5686
877.10 0.5684
877.20 0.5683
877.30 0.5682
877.40 0.5681
877.50 0.568
877.60 0.5679
877.70 0.5677
877.80 0.5676
877.90 0.5675
878.00 0.5674
878.10 0.5673
878.20 0.5672
878.30 0.567
878.40 0.5669
878.50 0.5668
878.60 0.5667
878.70 0.5666
878.80 0.5665
878.90 0.5663
879.00 0.5662
879.10 0.5661
879.20 0.566
879.30 0.5659
879.40 0.5658
879.50 0.5656
879.60 0.5655
879.70 0.5654
879.80 0.5653
879.90 0.5652
880.00 0.5651
880.10 0.565
880.20 0.5648
880.30 0.5647
880.40 0.5646
880.50 0.5645
880.60 0.5644
880.70 0.5643
880.80 0.5641
880.90 0.564
881.00 0.5639
881.10 0.5638
881.20 0.5637
881.30 0.5636
881.40 0.5635
881.50 0.5633
881.60 0.5632
881.70 0.5631
881.80 0.563
881.90 0.5629
882.00 0.5628
882.10 0.5626
882.20 0.5625
882.30 0.5624
882.40 0.5623
882.50 0.5622
882.60 0.5621
882.70 0.562
882.80 0.5618
882.90 0.5617
883.00 0.5616
883.10 0.5615
883.20 0.5614
883.30 0.5613
883.40 0.5611
883.50 0.561
883.60 0.5609
883.70 0.5608
883.80 0.5607
883.90 0.5606
884.00 0.5605
884.10 0.5603
884.20 0.5602
884.30 0.5601
884.40 0.56
884.50 0.5599
884.60 0.5598
884.70 0.5597
884.80 0.5595
884.90 0.5594
885.00 0.5593
885.10 0.5592
885.20 0.5591
885.30 0.559
885.40 0.5589
885.50 0.5587
885.60 0.5586
885.70 0.5585
885.80 0.5584
885.90 0.5583
886.00 0.5582
886.10 0.5581
886.20 0.5579
886.30 0.5578
886.40 0.5577
886.50 0.5576
886.60 0.5575
886.70 0.5574
886.80 0.5573
886.90 0.5571
887.00 0.557
887.10 0.5569
887.20 0.5568
887.30 0.5567
887.40 0.5566
887.50 0.5565
887.60 0.5563
887.70 0.5562
887.80 0.5561
887.90 0.556
888.00 0.5559
888.10 0.5558
888.20 0.5557
888.30 0.5555
888.40 0.5554
888.50 0.5553
888.60 0.5552
888.70 0.5551
888.80 0.555
888.90 0.5549
889.00 0.5547
889.10 0.5546
889.20 0.5545
889.30 0.5544
889.40 0.5543
889.50 0.5542
889.60 0.5541
889.70 0.554
889.80 0.5538
889.90 0.5537
890.00 0.5536
890.10 0.5535
890.20 0.5534
890.30 0.5533
890.40 0.5532
890.50 0.553
890.60 0.5529
890.70 0.5528
890.80 0.5527
890.90 0.5526
891.00 0.5525
891.10 0.5524
891.20 0.5523
891.30 0.5521
891.40 0.552
891.50 0.5519
891.60 0.5518
891.70 0.5517
891.80 0.5516
891.90 0.5515
892.00 0.5514
892.10 0.5512
892.20 0.5511
892.30 0.551
892.40 0.5509
892.50 0.5508
892.60 0.5507
892.70 0.5506
892.80 0.5504
892.90 0.5503
893.00 0.5502
893.10 0.5501
893.20 0.55
893.30 0.5499
893.40 0.5498
893.50 0.5497
893.60 0.5495
893.70 0.5494
893.80 0.5493
893.90 0.5492
894.00 0.5491
894.10 0.549
894.20 0.5489
894.30 0.5488
894.40 0.5486
894.50 0.5485
894.60 0.5484
894.70 0.5483
894.80 0.5482
894.90 0.5481
895.00 0.548
895.10 0.5479
895.20 0.5477
895.30 0.5476
895.40 0.5475
895.50 0.5474
895.60 0.5473
895.70 0.5472
895.80 0.5471
895.90 0.547
896.00 0.5468
896.10 0.5467
896.20 0.5466
896.30 0.5465
896.40 0.5464
896.50 0.5463
896.60 0.5462
896.70 0.5461
896.80 0.5459
896.90 0.5458
897.00 0.5457
897.10 0.5456
897.20 0.5455
897.30 0.5454
897.40 0.5453
897.50 0.5452
897.60 0.545
897.70 0.5449
897.80 0.5448
897.90 0.5447
898.00 0.5446
898.10 0.5445
898.20 0.5444
898.30 0.5443
898.40 0.5441
898.50 0.544
898.60 0.5439
898.70 0.5438
898.80 0.5437
898.90 0.5436
899.00 0.5435
899.10 0.5434
899.20 0.5432
899.30 0.5431
899.40 0.543
899.50 0.5429
899.60 0.5428
899.70 0.5427
899.80 0.5426
899.90 0.5425
900.00 0.5423
900.10 0.5422
900.20 0.5421
900.30 0.542
900.40 0.5419
900.50 0.5418
900.60 0.5417
900.70 0.5416
900.80 0.5414
900.90 0.5413
901.00 0.5412
901.10 0.5411
901.20 0.541
901.30 0.5409
901.40 0.5408
901.50 0.5407
901.60 0.5406
901.70 0.5404
901.80 0.5403
901.90 0.5402
902.00 0.5401
902.10 0.54
902.20 0.5399
902.30 0.5398
902.40 0.5397
902.50 0.5396
902.60 0.5394
902.70 0.5393
902.80 0.5392
902.90 0.5391
903.00 0.539
903.10 0.5389
903.20 0.5388
903.30 0.5387
903.40 0.5386
903.50 0.5385
903.60 0.5383
903.70 0.5382
903.80 0.5381
903.90 0.538
904.00 0.5379
904.10 0.5378
904.20 0.5377
904.30 0.5376
904.40 0.5375
904.50 0.5374
904.60 0.5373
904.70 0.5371
904.80 0.537
904.90 0.5369
905.00 0.5368
905.10 0.5367
905.20 0.5366
905.30 0.5365
905.40 0.5364
905.50 0.5363
905.60 0.5362
905.70 0.536
905.80 0.5359
905.90 0.5358
906.00 0.5357
906.10 0.5356
906.20 0.5355
906.30 0.5354
906.40 0.5353
906.50 0.5352
906.60 0.5351
906.70 0.535
906.80 0.5349
906.90 0.5347
907.00 0.5346
907.10 0.5345
907.20 0.5344
907.30 0.5343
907.40 0.5342
907.50 0.5341
907.60 0.534
907.70 0.5339
907.80 0.5338
907.90 0.5336
908.00 0.5335
908.10 0.5334
908.20 0.5333
908.30 0.5332
908.40 0.5331
908.50 0.533
908.60 0.5329
908.70 0.5328
908.80 0.5327
908.90 0.5325
909.00 0.5324
909.10 0.5323
909.20 0.5322
909.30 0.5321
909.40 0.532
909.50 0.5319
909.60 0.5318
909.70 0.5317
909.80 0.5316
909.90 0.5315
910.00 0.5313
910.10 0.5312
910.20 0.5311
910.30 0.531
910.40 0.5309
910.50 0.5308
910.60 0.5307
910.70 0.5306
910.80 0.5305
910.90 0.5304
911.00 0.5303
911.10 0.5301
911.20 0.53
911.30 0.5299
911.40 0.5298
911.50 0.5297
911.60 0.5296
911.70 0.5295
911.80 0.5294
911.90 0.5293
912.00 0.5292
912.10 0.5291
912.20 0.5289
912.30 0.5288
912.40 0.5287
912.50 0.5286
912.60 0.5285
912.70 0.5284
912.80 0.5283
912.90 0.5282
913.00 0.5281
913.10 0.528
913.20 0.5279
913.30 0.5278
913.40 0.5276
913.50 0.5275
913.60 0.5274
913.70 0.5273
913.80 0.5272
913.90 0.5271
914.00 0.527
914.10 0.5269
914.20 0.5268
914.30 0.5267
914.40 0.5266
914.50 0.5264
914.60 0.5263
914.70 0.5262
914.80 0.5261
914.90 0.526
915.00 0.5259
915.10 0.5258
915.20 0.5257
915.30 0.5256
915.40 0.5255
915.50 0.5254
915.60 0.5253
915.70 0.5252
915.80 0.525
915.90 0.5249
916.00 0.5248
916.10 0.5247
916.20 0.5246
916.30 0.5245
916.40 0.5244
916.50 0.5243
916.60 0.5242
916.70 0.5241
916.80 0.524
916.90 0.5239
917.00 0.5238
917.10 0.5236
917.20 0.5235
917.30 0.5234
917.40 0.5233
917.50 0.5232
917.60 0.5231
917.70 0.523
917.80 0.5229
917.90 0.5228
918.00 0.5226
918.10 0.5225
918.20 0.5224
918.30 0.5223
918.40 0.5222
918.50 0.5221
918.60 0.522
918.70 0.5219
918.80 0.5218
918.90 0.5217
919.00 0.5215
919.10 0.5214
919.20 0.5213
919.30 0.5212
919.40 0.5211
919.50 0.521
919.60 0.5209
919.70 0.5208
919.80 0.5207
919.90 0.5206
920.00 0.5204
920.10 0.5203
920.20 0.5202
920.30 0.5201
920.40 0.52
920.50 0.5199
920.60 0.5198
920.70 0.5197
920.80 0.5196
920.90 0.5195
921.00 0.5193
921.10 0.5192
921.20 0.5191
921.30 0.519
921.40 0.5189
921.50 0.5188
921.60 0.5187
921.70 0.5186
921.80 0.5185
921.90 0.5184
922.00 0.5183
922.10 0.5182
922.20 0.518
922.30 0.5179
922.40 0.5178
922.50 0.5177
922.60 0.5176
922.70 0.5175
922.80 0.5174
922.90 0.5173
923.00 0.5172
923.10 0.5171
923.20 0.517
923.30 0.5169
923.40 0.5168
923.50 0.5167
923.60 0.5166
923.70 0.5165
923.80 0.5164
923.90 0.5163
924.00 0.5162
924.10 0.5161
924.20 0.516
924.30 0.5159
924.40 0.5158
924.50 0.5157
924.60 0.5156
924.70 0.5155
924.80 0.5154
924.90 0.5152
925.00 0.5151
925.10 0.515
925.20 0.5149
925.30 0.5148
925.40 0.5147
925.50 0.5146
925.60 0.5145
925.70 0.5144
925.80 0.5143
925.90 0.5142
926.00 0.5141
926.10 0.514
926.20 0.5139
926.30 0.5138
926.40 0.5137
926.50 0.5136
926.60 0.5135
926.70 0.5134
926.80 0.5133
926.90 0.5132
927.00 0.5131
927.10 0.513
927.20 0.5129
927.30 0.5128
927.40 0.5127
927.50 0.5126
927.60 0.5125
927.70 0.5123
927.80 0.5122
927.90 0.5121
928.00 0.512
928.10 0.5119
928.20 0.5118
928.30 0.5117
928.40 0.5116
928.50 0.5115
928.60 0.5114
928.70 0.5113
928.80 0.5112
928.90 0.5111
929.00 0.511
929.10 0.5109
929.20 0.5108
929.30 0.5107
929.40 0.5106
929.50 0.5105
929.60 0.5103
929.70 0.5102
929.80 0.5101
929.90 0.51
930.00 0.5099
930.10 0.5098
930.20 0.5097
930.30 0.5096
930.40 0.5095
930.50 0.5094
930.60 0.5093
930.70 0.5092
930.80 0.5091
930.90 0.509
931.00 0.5089
931.10 0.5088
931.20 0.5087
931.30 0.5086
931.40 0.5085
931.50 0.5084
931.60 0.5083
931.70 0.5081
931.80 0.508
931.90 0.5079
932.00 0.5078
932.10 0.5077
932.20 0.5076
932.30 0.5075
932.40 0.5074
932.50 0.5073
932.60 0.5072
932.70 0.5071
932.80 0.507
932.90 0.5069
933.00 0.5068
933.10 0.5067
933.20 0.5066
933.30 0.5065
933.40 0.5064
933.50 0.5063
933.60 0.5062
933.70 0.5061
933.80 0.506
933.90 0.5059
934.00 0.5057
934.10 0.5056
934.20 0.5055
934.30 0.5054
934.40 0.5053
934.50 0.5052
934.60 0.5051
934.70 0.505
934.80 0.5049
934.90 0.5048
935.00 0.5047
935.10 0.5046
935.20 0.5045
935.30 0.5044
935.40 0.5043
935.50 0.5042
935.60 0.5041
935.70 0.504
935.80 0.5039
935.90 0.5038
936.00 0.5037
936.10 0.5036
936.20 0.5035
936.30 0.5034
936.40 0.5033
936.50 0.5032
936.60 0.503
936.70 0.5029
936.80 0.5028
936.90 0.5027
937.00 0.5026
937.10 0.5025
937.20 0.5024
937.30 0.5023
937.40 0.5022
937.50 0.5021
937.60 0.502
937.70 0.5019
937.80 0.5018
937.90 0.5017
938.00 0.5016
938.10 0.5015
938.20 0.5014
938.30 0.5013
938.40 0.5012
938.50 0.5011
938.60 0.501
938.70 0.5009
938.80 0.5008
938.90 0.5007
939.00 0.5006
939.10 0.5005
939.20 0.5004
939.30 0.5003
939.40 0.5002
939.50 0.5001
939.60 0.5
939.70 0.4999
939.80 0.4997
939.90 0.4996
940.00 0.4995
940.10 0.4994
940.20 0.4993
940.30 0.4992
940.40 0.4991
940.50 0.499
940.60 0.4989
940.70 0.4988
940.80 0.4987
940.90 0.4986
941.00 0.4985
941.10 0.4984
941.20 0.4983
941.30 0.4982
941.40 0.4981
941.50 0.498
941.60 0.4979
941.70 0.4978
941.80 0.4977
941.90 0.4976
942.00 0.4975
942.10 0.4974
942.20 0.4973
942.30 0.4972
942.40 0.4971
942.50 0.497
942.60 0.4969
942.70 0.4968
942.80 0.4967
942.90 0.4966
943.00 0.4965
943.10 0.4964
943.20 0.4963
943.30 0.4962
943.40 0.4961
943.50 0.496
943.60 0.4959
943.70 0.4958
943.80 0.4957
943.90 0.4955
944.00 0.4954
944.10 0.4953
944.20 0.4952
944.30 0.4951
944.40 0.495
944.50 0.4949
944.60 0.4948
944.70 0.4947
944.80 0.4946
944.90 0.4945
945.00 0.4944
945.10 0.4943
945.20 0.4942
945.30 0.4941
945.40 0.494
945.50 0.4939
945.60 0.4938
945.70 0.4937
945.80 0.4936
945.90 0.4935
946.00 0.4934
946.10 0.4933
946.20 0.4932
946.30 0.4931
946.40 0.493
946.50 0.4929
946.60 0.4928
946.70 0.4927
946.80 0.4926
946.90 0.4925
947.00 0.4924
947.10 0.4923
947.20 0.4922
947.30 0.4921
947.40 0.492
947.50 0.4919
947.60 0.4918
947.70 0.4917
947.80 0.4916
947.90 0.4915
948.00 0.4914
948.10 0.4913
948.20 0.4912
948.30 0.4911
948.40 0.491
948.50 0.4909
948.60 0.4908
948.70 0.4907
948.80 0.4906
948.90 0.4905
949.00 0.4904
949.10 0.4903
949.20 0.4902
949.30 0.4901
949.40 0.49
949.50 0.4899
949.60 0.4898
949.70 0.4897
949.80 0.4896
949.90 0.4895
950.00 0.4894
950.10 0.4893
950.20 0.4892
950.30 0.4891
950.40 0.489
950.50 0.4889
950.60 0.4888
950.70 0.4887
950.80 0.4886
950.90 0.4885
951.00 0.4884
951.10 0.4883
951.20 0.4882
951.30 0.4881
951.40 0.488
951.50 0.4879
951.60 0.4878
951.70 0.4877
951.80 0.4876
951.90 0.4875
952.00 0.4874
952.10 0.4873
952.20 0.4871
952.30 0.487
952.40 0.4869
952.50 0.4868
952.60 0.4867
952.70 0.4866
952.80 0.4865
952.90 0.4864
953.00 0.4863
953.10 0.4862
953.20 0.4861
953.30 0.486
953.40 0.4859
953.50 0.4857
953.60 0.4855
953.70 0.4854
953.80 0.4852
953.90 0.485
954.00 0.4845
954.10 0.4841
954.20 0.4835
954.30 0.4828
954.40 0.4833
954.50 0.4837
954.60 0.484
954.70 0.4842
954.80 0.4842
954.90 0.4842
955.00 0.4842
955.10 0.4841
955.20 0.4841
955.30 0.484
955.40 0.4839
955.50 0.4838
955.60 0.4837
955.70 0.4836
955.80 0.4835
955.90 0.4834
956.00 0.4833
956.10 0.4833
956.20 0.4832
956.30 0.4831
956.40 0.483
956.50 0.4829
956.60 0.4828
956.70 0.4827
956.80 0.4826
956.90 0.4825
957.00 0.4824
957.10 0.4823
957.20 0.4822
957.30 0.4821
957.40 0.482
957.50 0.4819
957.60 0.4818
957.70 0.4817
957.80 0.4816
957.90 0.4815
958.00 0.4814
958.10 0.4813
958.20 0.4812
958.30 0.4811
958.40 0.481
958.50 0.4809
958.60 0.4808
958.70 0.4807
958.80 0.4806
958.90 0.4805
959.00 0.4804
959.10 0.4803
959.20 0.4802
959.30 0.4801
959.40 0.48
959.50 0.4799
959.60 0.4798
959.70 0.4797
959.80 0.4796
959.90 0.4795
960.00 0.4794
960.10 0.4793
960.20 0.4792
960.30 0.4791
960.40 0.479
960.50 0.4789
960.60 0.4788
960.70 0.4787
960.80 0.4786
960.90 0.4785
961.00 0.4784
961.10 0.4783
961.20 0.4782
961.30 0.4781
961.40 0.478
961.50 0.4779
961.60 0.4778
961.70 0.4777
961.80 0.4776
961.90 0.4775
962.00 0.4774
962.10 0.4773
962.20 0.4772
962.30 0.4771
962.40 0.477
962.50 0.477
962.60 0.4769
962.70 0.4768
962.80 0.4767
962.90 0.4766
963.00 0.4765
963.10 0.4764
963.20 0.4763
963.30 0.4762
963.40 0.4761
963.50 0.476
963.60 0.4759
963.70 0.4758
963.80 0.4757
963.90 0.4756
964.00 0.4755
964.10 0.4754
964.20 0.4753
964.30 0.4752
964.40 0.4751
964.50 0.475
964.60 0.4749
964.70 0.4748
964.80 0.4747
964.90 0.4746
965.00 0.4745
965.10 0.4744
965.20 0.4743
965.30 0.4742
965.40 0.4741
965.50 0.474
965.60 0.4739
965.70 0.4738
965.80 0.4737
965.90 0.4736
966.00 0.4735
966.10 0.4734
966.20 0.4733
966.30 0.4732
966.40 0.4731
966.50 0.473
966.60 0.4729
966.70 0.4729
966.80 0.4728
966.90 0.4727
967.00 0.4726
967.10 0.4725
967.20 0.4724
967.30 0.4723
967.40 0.4722
967.50 0.4721
967.60 0.472
967.70 0.4719
967.80 0.4718
967.90 0.4717
968.00 0.4716
968.10 0.4715
968.20 0.4714
968.30 0.4713
968.40 0.4712
968.50 0.4711
968.60 0.471
968.70 0.4709
968.80 0.4708
968.90 0.4707
969.00 0.4706
969.10 0.4705
969.20 0.4704
969.30 0.4703
969.40 0.4702
969.50 0.4701
969.60 0.47
969.70 0.4699
969.80 0.4698
969.90 0.4698
970.00 0.4697
970.10 0.4696
970.20 0.4695
970.30 0.4694
970.40 0.4693
970.50 0.4692
970.60 0.4691
970.70 0.469
970.80 0.4689
970.90 0.4688
971.00 0.4687
971.10 0.4686
971.20 0.4685
971.30 0.4684
971.40 0.4683
971.50 0.4682
971.60 0.4681
971.70 0.468
971.80 0.4679
971.90 0.4678
972.00 0.4677
972.10 0.4676
972.20 0.4675
972.30 0.4674
972.40 0.4673
972.50 0.4673
972.60 0.4672
972.70 0.4671
972.80 0.467
972.90 0.4669
973.00 0.4668
973.10 0.4667
973.20 0.4666
973.30 0.4665
973.40 0.4664
973.50 0.4663
973.60 0.4662
973.70 0.4661
973.80 0.466
973.90 0.4659
974.00 0.4658
974.10 0.4657
974.20 0.4656
974.30 0.4655
974.40 0.4654
974.50 0.4653
974.60 0.4652
974.70 0.4651
974.80 0.465
974.90 0.465
975.00 0.4649
975.10 0.4648
975.20 0.4647
975.30 0.4646
975.40 0.4645
975.50 0.4644
975.60 0.4643
975.70 0.4642
975.80 0.4641
975.90 0.464
976.00 0.4639
976.10 0.4638
976.20 0.4637
976.30 0.4636
976.40 0.4635
976.50 0.4634
976.60 0.4633
976.70 0.4632
976.80 0.4631
976.90 0.463
977.00 0.4629
977.10 0.4629
977.20 0.4628
977.30 0.4627
977.40 0.4626
977.50 0.4625
977.60 0.4624
977.70 0.4623
977.80 0.4622
977.90 0.4621
978.00 0.462
978.10 0.4619
978.20 0.4618
978.30 0.4617
978.40 0.4616
978.50 0.4615
978.60 0.4614
978.70 0.4613
978.80 0.4612
978.90 0.4611
979.00 0.4611
979.10 0.461
979.20 0.4609
979.30 0.4608
979.40 0.4607
979.50 0.4606
979.60 0.4605
979.70 0.4604
979.80 0.4603
979.90 0.4602
980.00 0.4601
980.10 0.46
980.20 0.4599
980.30 0.4598
980.40 0.4597
980.50 0.4596
980.60 0.4595
980.70 0.4594
980.80 0.4594
980.90 0.4593
981.00 0.4592
981.10 0.4591
981.20 0.459
981.30 0.4589
981.40 0.4588
981.50 0.4587
981.60 0.4586
981.70 0.4585
981.80 0.4584
981.90 0.4583
982.00 0.4582
982.10 0.4581
982.20 0.458
982.30 0.4579
982.40 0.4579
982.50 0.4578
982.60 0.4577
982.70 0.4576
982.80 0.4575
982.90 0.4574
983.00 0.4573
983.10 0.4572
983.20 0.4571
983.30 0.457
983.40 0.4569
983.50 0.4568
983.60 0.4567
983.70 0.4566
983.80 0.4565
983.90 0.4564
984.00 0.4563
984.10 0.4563
984.20 0.4562
984.30 0.4561
984.40 0.456
984.50 0.4559
984.60 0.4558
984.70 0.4557
984.80 0.4556
984.90 0.4555
985.00 0.4554
985.10 0.4553
985.20 0.4552
985.30 0.4551
985.40 0.455
985.50 0.4549
985.60 0.4549
985.70 0.4548
985.80 0.4547
985.90 0.4546
986.00 0.4545
986.10 0.4544
986.20 0.4543
986.30 0.4542
986.40 0.4541
986.50 0.454
986.60 0.4539
986.70 0.4538
986.80 0.4537
986.90 0.4536
987.00 0.4536
987.10 0.4535
987.20 0.4534
987.30 0.4533
987.40 0.4532
987.50 0.4531
987.60 0.453
987.70 0.4529
987.80 0.4528
987.90 0.4527
988.00 0.4526
988.10 0.4525
988.20 0.4524
988.30 0.4523
988.40 0.4523
988.50 0.4522
988.60 0.4521
988.70 0.452
988.80 0.4519
988.90 0.4518
989.00 0.4517
989.10 0.4516
989.20 0.4515
989.30 0.4514
989.40 0.4513
989.50 0.4512
989.60 0.4511
989.70 0.451
989.80 0.451
989.90 0.4509
990.00 0.4508
990.10 0.4507
990.20 0.4506
990.30 0.4505
990.40 0.4504
990.50 0.4503
990.60 0.4502
990.70 0.4501
990.80 0.45
990.90 0.4499
991.00 0.4498
991.10 0.4498
991.20 0.4497
991.30 0.4496
991.40 0.4495
991.50 0.4494
991.60 0.4493
991.70 0.4492
991.80 0.4491
991.90 0.449
992.00 0.4489
992.10 0.4488
992.20 0.4487
992.30 0.4487
992.40 0.4486
992.50 0.4485
992.60 0.4484
992.70 0.4483
992.80 0.4482
992.90 0.4481
993.00 0.448
993.10 0.4479
993.20 0.4478
993.30 0.4477
993.40 0.4476
993.50 0.4476
993.60 0.4475
993.70 0.4474
993.80 0.4473
993.90 0.4472
994.00 0.4471
994.10 0.447
994.20 0.4469
994.30 0.4468
994.40 0.4467
994.50 0.4466
994.60 0.4465
994.70 0.4465
994.80 0.4464
994.90 0.4463
995.00 0.4462
995.10 0.4461
995.20 0.446
995.30 0.4459
995.40 0.4458
995.50 0.4457
995.60 0.4456
995.70 0.4455
995.80 0.4455
995.90 0.4454
996.00 0.4453
996.10 0.4452
996.20 0.4451
996.30 0.445
996.40 0.4449
996.50 0.4448
996.60 0.4447
996.70 0.4446
996.80 0.4445
996.90 0.4444
997.00 0.4444
997.10 0.4443
997.20 0.4442
997.30 0.4441
997.40 0.444
997.50 0.4439
997.60 0.4438
997.70 0.4437
997.80 0.4436
997.90 0.4435
998.00 0.4434
998.10 0.4434
998.20 0.4433
998.30 0.4432
998.40 0.4431
998.50 0.443
998.60 0.4429
998.70 0.4428
998.80 0.4427
998.90 0.4426
999.00 0.4425
999.10 0.4425
999.20 0.4424
999.30 0.4423
999.40 0.4422
999.50 0.4421
999.60 0.442
999.70 0.4419
999.80 0.4418
999.90 0.4417
1000.00 0.4416
1000.10 0.4415
1000.20 0.4415
1000.30 0.4414
1000.40 0.4413
1000.50 0.4412
1000.60 0.4411
1000.70 0.441
1000.80 0.4409
1000.90 0.4408
1001.00 0.4407
1001.10 0.4406
1001.20 0.4405
1001.30 0.4405
1001.40 0.4404
1001.50 0.4403
1001.60 0.4402
1001.70 0.4401
1001.80 0.44
1001.90 0.4399
1002.00 0.4398
1002.10 0.4397
1002.20 0.4396
1002.30 0.4396
1002.40 0.4395
1002.50 0.4394
1002.60 0.4393
1002.70 0.4392
1002.80 0.4391
1002.90 0.439
1003.00 0.4389
1003.10 0.4388
1003.20 0.4387
1003.30 0.4386
1003.40 0.4385
1003.50 0.4384
1003.60 0.4383
1003.70 0.4381
1003.80 0.438
1003.90 0.4378
1004.00 0.4376
1004.10 0.4373
1004.20 0.4371
1004.30 0.4364
1004.40 0.4356
1004.50 0.4344
1004.60 0.4324
1004.70 0.4333
1004.80 0.4349
1004.90 0.4355
1005.00 0.4362
1005.10 0.4364
1005.20 0.4364
1005.30 0.4365
1005.40 0.4366
1005.50 0.4365
1005.60 0.4365
1005.70 0.4364
1005.80 0.4363
1005.90 0.4363
1006.00 0.4362
1006.10 0.4361
1006.20 0.436
1006.30 0.436
1006.40 0.4359
1006.50 0.4358
1006.60 0.4357
1006.70 0.4356
1006.80 0.4355
1006.90 0.4354
1007.00 0.4354
1007.10 0.4353
1007.20 0.4352
1007.30 0.4351
1007.40 0.435
1007.50 0.4349
1007.60 0.4348
1007.70 0.4347
1007.80 0.4346
1007.90 0.4346
1008.00 0.4345
1008.10 0.4344
1008.20 0.4343
1008.30 0.4342
1008.40 0.4341
1008.50 0.434
1008.60 0.4339
1008.70 0.4339
1008.80 0.4338
1008.90 0.4337
1009.00 0.4336
1009.10 0.4335
1009.20 0.4334
1009.30 0.4333
1009.40 0.4332
1009.50 0.4331
1009.60 0.4331
1009.70 0.433
1009.80 0.4329
1009.90 0.4328
1010.00 0.4327
1010.10 0.4326
1010.20 0.4325
1010.30 0.4324
1010.40 0.4323
1010.50 0.4323
1010.60 0.4322
1010.70 0.4321
1010.80 0.432
1010.90 0.4319
1011.00 0.4318
1011.10 0.4317
1011.20 0.4316
1011.30 0.4316
1011.40 0.4315
1011.50 0.4314
1011.60 0.4313
1011.70 0.4312
1011.80 0.4311
1011.90 0.431
1012.00 0.4309
1012.10 0.4309
1012.20 0.4308
1012.30 0.4307
1012.40 0.4306
1012.50 0.4305
1012.60 0.4304
1012.70 0.4303
1012.80 0.4302
1012.90 0.4301
1013.00 0.4301
1013.10 0.43
1013.20 0.4299
1013.30 0.4298
1013.40 0.4297
1013.50 0.4296
1013.60 0.4295
1013.70 0.4294
1013.80 0.4294
1013.90 0.4293
1014.00 0.4292
1014.10 0.4291
1014.20 0.429
1014.30 0.4289
1014.40 0.4288
1014.50 0.4287
1014.60 0.4287
1014.70 0.4286
1014.80 0.4285
1014.90 0.4284
1015.00 0.4283
1015.10 0.4282
1015.20 0.4281
1015.30 0.428
1015.40 0.428
1015.50 0.4279
1015.60 0.4278
1015.70 0.4277
1015.80 0.4276
1015.90 0.4275
1016.00 0.4274
1016.10 0.4273
1016.20 0.4273
1016.30 0.4272
1016.40 0.4271
1016.50 0.427
1016.60 0.4269
1016.70 0.4268
1016.80 0.4267
1016.90 0.4267
1017.00 0.4266
1017.10 0.4265
1017.20 0.4264
1017.30 0.4263
1017.40 0.4262
1017.50 0.4261
1017.60 0.426
1017.70 0.426
1017.80 0.4259
1017.90 0.4258
1018.00 0.4257
1018.10 0.4256
1018.20 0.4255
1018.30 0.4254
1018.40 0.4253
1018.50 0.4253
1018.60 0.4252
1018.70 0.4251
1018.80 0.425
1018.90 0.4249
1019.00 0.4248
1019.10 0.4247
1019.20 0.4247
1019.30 0.4246
1019.40 0.4245
1019.50 0.4244
1019.60 0.4243
1019.70 0.4242
1019.80 0.4241
1019.90 0.4241
1020.00 0.424
1020.10 0.4239
1020.20 0.4238
1020.30 0.4237
1020.40 0.4236
1020.50 0.4235
1020.60 0.4234
1020.70 0.4234
1020.80 0.4233
1020.90 0.4232
1021.00 0.4231
1021.10 0.423
1021.20 0.4229
1021.30 0.4228
1021.40 0.4228
1021.50 0.4227
1021.60 0.4226
1021.70 0.4225
1021.80 0.4224
1021.90 0.4223
1022.00 0.4222
1022.10 0.4222
1022.20 0.4221
1022.30 0.422
1022.40 0.4219
1022.50 0.4218
1022.60 0.4217
1022.70 0.4216
1022.80 0.4216
1022.90 0.4215
1023.00 0.4214
1023.10 0.4213
1023.20 0.4212
1023.30 0.4211
1023.40 0.421
1023.50 0.421
1023.60 0.4209
1023.70 0.4208
1023.80 0.4207
1023.90 0.4206
1024.00 0.4205
1024.10 0.4204
1024.20 0.4204
1024.30 0.4203
1024.40 0.4202
1024.50 0.4201
1024.60 0.42
1024.70 0.4199
1024.80 0.4198
1024.90 0.4198
1025.00 0.4197
1025.10 0.4196
1025.20 0.4195
1025.30 0.4194
1025.40 0.4193
1025.50 0.4192
1025.60 0.4192
1025.70 0.4191
1025.80 0.419
1025.90 0.4189
1026.00 0.4188
1026.10 0.4187
1026.20 0.4186
1026.30 0.4186
1026.40 0.4185
1026.50 0.4184
1026.60 0.4183
1026.70 0.4182
1026.80 0.4181
1026.90 0.4181
1027.00 0.418
1027.10 0.4179
1027.20 0.4178
1027.30 0.4177
1027.40 0.4176
1027.50 0.4175
1027.60 0.4175
1027.70 0.4174
1027.80 0.4173
1027.90 0.4172
1028.00 0.4171
1028.10 0.417
1028.20 0.4169
1028.30 0.4169
1028.40 0.4168
1028.50 0.4167
1028.60 0.4166
1028.70 0.4165
1028.80 0.4164
1028.90 0.4164
1029.00 0.4163
1029.10 0.4162
1029.20 0.4161
1029.30 0.416
1029.40 0.4159
1029.50 0.4158
1029.60 0.4158
1029.70 0.4157
1029.80 0.4156
1029.90 0.4155
1030.00 0.4154
1030.10 0.4153
1030.20 0.4153
1030.30 0.4152
1030.40 0.4151
1030.50 0.415
1030.60 0.4149
1030.70 0.4148
1030.80 0.4147
1030.90 0.4147
1031.00 0.4146
1031.10 0.4145
1031.20 0.4144
1031.30 0.4143
1031.40 0.4142
1031.50 0.4142
1031.60 0.4141
1031.70 0.414
1031.80 0.4139
1031.90 0.4138
1032.00 0.4137
1032.10 0.4137
1032.20 0.4136
1032.30 0.4135
1032.40 0.4134
1032.50 0.4133
1032.60 0.4132
1032.70 0.4132
1032.80 0.4131
1032.90 0.413
1033.00 0.4129
1033.10 0.4128
1033.20 0.4127
1033.30 0.4126
1033.40 0.4126
1033.50 0.4125
1033.60 0.4124
1033.70 0.4123
1033.80 0.4122
1033.90 0.4121
1034.00 0.4121
1034.10 0.412
1034.20 0.4119
1034.30 0.4118
1034.40 0.4117
1034.50 0.4116
1034.60 0.4116
1034.70 0.4115
1034.80 0.4114
1034.90 0.4113
1035.00 0.4112
1035.10 0.4111
1035.20 0.4111
1035.30 0.411
1035.40 0.4109
1035.50 0.4108
1035.60 0.4107
1035.70 0.4106
1035.80 0.4106
1035.90 0.4105
1036.00 0.4104
1036.10 0.4103
1036.20 0.4102
1036.30 0.4101
1036.40 0.4101
1036.50 0.41
1036.60 0.4099
1036.70 0.4098
1036.80 0.4097
1036.90 0.4096
1037.00 0.4096
1037.10 0.4095
1037.20 0.4094
1037.30 0.4093
1037.40 0.4092
1037.50 0.4091
1037.60 0.4091
1037.70 0.409
1037.80 0.4089
1037.90 0.4088
1038.00 0.4087
1038.10 0.4086
1038.20 0.4086
1038.30 0.4085
1038.40 0.4084
1038.50 0.4083
1038.60 0.4082
1038.70 0.4081
1038.80 0.4081
1038.90 0.408
1039.00 0.4079
1039.10 0.4078
1039.20 0.4077
1039.30 0.4077
1039.40 0.4076
1039.50 0.4075
1039.60 0.4074
1039.70 0.4073
1039.80 0.4072
1039.90 0.4072
1040.00 0.4071
1040.10 0.407
1040.20 0.4069
1040.30 0.4068
1040.40 0.4067
1040.50 0.4067
1040.60 0.4066
1040.70 0.4065
1040.80 0.4064
1040.90 0.4063
1041.00 0.4062
1041.10 0.4062
1041.20 0.4061
1041.30 0.406
1041.40 0.4059
1041.50 0.4058
1041.60 0.4058
1041.70 0.4057
1041.80 0.4056
1041.90 0.4055
1042.00 0.4054
1042.10 0.4053
1042.20 0.4053
1042.30 0.4052
1042.40 0.4051
1042.50 0.405
1042.60 0.4049
1042.70 0.4049
1042.80 0.4048
1042.90 0.4047
1043.00 0.4046
1043.10 0.4045
1043.20 0.4044
1043.30 0.4044
1043.40 0.4043
1043.50 0.4042
1043.60 0.4041
1043.70 0.404
1043.80 0.4039
1043.90 0.4039
1044.00 0.4038
1044.10 0.4037
1044.20 0.4036
1044.30 0.4035
1044.40 0.4035
1044.50 0.4034
1044.60 0.4033
1044.70 0.4032
1044.80 0.4031
1044.90 0.403
1045.00 0.403
1045.10 0.4029
1045.20 0.4028
1045.30 0.4027
1045.40 0.4026
1045.50 0.4026
1045.60 0.4025
1045.70 0.4024
1045.80 0.4023
1045.90 0.4022
1046.00 0.4022
1046.10 0.4021
1046.20 0.402
1046.30 0.4019
1046.40 0.4018
1046.50 0.4017
1046.60 0.4017
1046.70 0.4016
1046.80 0.4015
1046.90 0.4014
1047.00 0.4013
1047.10 0.4013
1047.20 0.4012
1047.30 0.4011
1047.40 0.401
1047.50 0.4009
1047.60 0.4009
1047.70 0.4008
1047.80 0.4007
1047.90 0.4006
1048.00 0.4005
1048.10 0.4004
1048.20 0.4004
1048.30 0.4003
1048.40 0.4002
1048.50 0.4001
1048.60 0.4
1048.70 0.4
1048.80 0.3999
1048.90 0.3998
1049.00 0.3997
1049.10 0.3996
1049.20 0.3996
1049.30 0.3995
1049.40 0.3994
1049.50 0.3993
1049.60 0.3992
1049.70 0.3992
1049.80 0.3991
1049.90 0.399
1050.00 0.3989
1050.10 0.3988
1050.20 0.3988
1050.30 0.3987
1050.40 0.3986
1050.50 0.3985
1050.60 0.3984
1050.70 0.3983
1050.80 0.3983
1050.90 0.3982
1051.00 0.3981
1051.10 0.398
1051.20 0.3979
1051.30 0.3979
1051.40 0.3978
1051.50 0.3977
1051.60 0.3976
1051.70 0.3975
1051.80 0.3975
1051.90 0.3974
1052.00 0.3973
1052.10 0.3972
1052.20 0.3971
1052.30 0.3971
1052.40 0.397
1052.50 0.3969
1052.60 0.3968
1052.70 0.3967
1052.80 0.3967
1052.90 0.3966
1053.00 0.3965
1053.10 0.3964
1053.20 0.3963
1053.30 0.3963
1053.40 0.3962
1053.50 0.3961
1053.60 0.396
1053.70 0.3959
1053.80 0.3959
1053.90 0.3958
1054.00 0.3957
1054.10 0.3956
1054.20 0.3955
1054.30 0.3955
1054.40 0.3954
1054.50 0.3953
1054.60 0.3952
1054.70 0.3951
1054.80 0.3951
1054.90 0.395
1055.00 0.3949
1055.10 0.3948
1055.20 0.3947
1055.30 0.3947
1055.40 0.3946
1055.50 0.3945
1055.60 0.3944
1055.70 0.3943
1055.80 0.3943
1055.90 0.3942
1056.00 0.3941
1056.10 0.394
1056.20 0.3939
1056.30 0.3939
1056.40 0.3938
1056.50 0.3937
1056.60 0.3936
1056.70 0.3935
1056.80 0.3935
1056.90 0.3934
1057.00 0.3933
1057.10 0.3932
1057.20 0.3931
1057.30 0.3931
1057.40 0.393
1057.50 0.3929
1057.60 0.3928
1057.70 0.3928
1057.80 0.3927
1057.90 0.3926
1058.00 0.3925
1058.10 0.3924
1058.20 0.3924
1058.30 0.3923
1058.40 0.3922
1058.50 0.3921
1058.60 0.392
1058.70 0.392
1058.80 0.3919
1058.90 0.3918
1059.00 0.3917
1059.10 0.3916
1059.20 0.3916
1059.30 0.3915
1059.40 0.3914
1059.50 0.3913
1059.60 0.3913
1059.70 0.3912
1059.80 0.3911
1059.90 0.391
1060.00 0.3909
1060.10 0.3909
1060.20 0.3908
1060.30 0.3907
1060.40 0.3906
1060.50 0.3905
1060.60 0.3905
1060.70 0.3904
1060.80 0.3903
1060.90 0.3902
1061.00 0.3902
1061.10 0.3901
1061.20 0.39
1061.30 0.3899
1061.40 0.3898
1061.50 0.3898
1061.60 0.3897
1061.70 0.3896
1061.80 0.3895
1061.90 0.3894
1062.00 0.3894
1062.10 0.3893
1062.20 0.3892
1062.30 0.3891
1062.40 0.3891
1062.50 0.389
1062.60 0.3889
1062.70 0.3888
1062.80 0.3887
1062.90 0.3887
1063.00 0.3886
1063.10 0.3885
1063.20 0.3884
1063.30 0.3883
1063.40 0.3883
1063.50 0.3882
1063.60 0.3881
1063.70 0.388
1063.80 0.388
1063.90 0.3879
1064.00 0.3878
1064.10 0.3877
1064.20 0.3876
1064.30 0.3876
1064.40 0.3875
1064.50 0.3874
1064.60 0.3873
1064.70 0.3873
1064.80 0.3872
1064.90 0.3871
1065.00 0.387
1065.10 0.3869
1065.20 0.3869
1065.30 0.3868
1065.40 0.3867
1065.50 0.3866
1065.60 0.3866
1065.70 0.3865
1065.80 0.3864
1065.90 0.3863
1066.00 0.3862
1066.10 0.3862
1066.20 0.3861
1066.30 0.386
1066.40 0.3859
1066.50 0.3859
1066.60 0.3858
1066.70 0.3857
1066.80 0.3856
1066.90 0.3855
1067.00 0.3855
1067.10 0.3854
1067.20 0.3853
1067.30 0.3852
1067.40 0.3852
1067.50 0.3851
1067.60 0.385
1067.70 0.3849
1067.80 0.3848
1067.90 0.3848
1068.00 0.3847
1068.10 0.3846
1068.20 0.3845
1068.30 0.3845
1068.40 0.3844
1068.50 0.3843
1068.60 0.3842
1068.70 0.3841
1068.80 0.3841
1068.90 0.384
1069.00 0.3839
1069.10 0.3838
1069.20 0.3838
1069.30 0.3837
1069.40 0.3836
1069.50 0.3835
1069.60 0.3835
1069.70 0.3834
1069.80 0.3833
1069.90 0.3832
1070.00 0.3831
1070.10 0.3831
1070.20 0.383
1070.30 0.3829
1070.40 0.3828
1070.50 0.3828
1070.60 0.3827
1070.70 0.3826
1070.80 0.3825
1070.90 0.3825
1071.00 0.3824
1071.10 0.3823
1071.20 0.3822
1071.30 0.3821
1071.40 0.3821
1071.50 0.382
1071.60 0.3819
1071.70 0.3818
1071.80 0.3818
1071.90 0.3817
1072.00 0.3816
1072.10 0.3815
1072.20 0.3815
1072.30 0.3814
1072.40 0.3813
1072.50 0.3812
1072.60 0.3811
1072.70 0.3811
1072.80 0.381
1072.90 0.3809
1073.00 0.3808
1073.10 0.3808
1073.20 0.3807
1073.30 0.3806
1073.40 0.3805
1073.50 0.3805
1073.60 0.3804
1073.70 0.3803
1073.80 0.3802
1073.90 0.3802
1074.00 0.3801
1074.10 0.38
1074.20 0.3799
1074.30 0.3799
1074.40 0.3798
1074.50 0.3797
1074.60 0.3796
1074.70 0.3795
1074.80 0.3795
1074.90 0.3794
1075.00 0.3793
1075.10 0.3792
1075.20 0.3792
1075.30 0.3791
1075.40 0.379
1075.50 0.3789
1075.60 0.3789
1075.70 0.3788
1075.80 0.3787
1075.90 0.3786
1076.00 0.3786
1076.10 0.3785
1076.20 0.3784
1076.30 0.3783
1076.40 0.3783
1076.50 0.3782
1076.60 0.3781
1076.70 0.378
1076.80 0.3779
1076.90 0.3779
1077.00 0.3778
1077.10 0.3777
1077.20 0.3776
1077.30 0.3776
1077.40 0.3775
1077.50 0.3774
1077.60 0.3773
1077.70 0.3773
1077.80 0.3772
1077.90 0.3771
1078.00 0.377
1078.10 0.377
1078.20 0.3769
1078.30 0.3768
1078.40 0.3767
1078.50 0.3767
1078.60 0.3766
1078.70 0.3765
1078.80 0.3764
1078.90 0.3764
1079.00 0.3763
1079.10 0.3762
1079.20 0.3761
1079.30 0.3761
1079.40 0.376
1079.50 0.3759
1079.60 0.3758
1079.70 0.3758
1079.80 0.3757
1079.90 0.3756
1080.00 0.3755
1080.10 0.3755
1080.20 0.3754
1080.30 0.3753
1080.40 0.3752
1080.50 0.3752
1080.60 0.3751
1080.70 0.375
1080.80 0.3749
1080.90 0.3749
1081.00 0.3748
1081.10 0.3747
1081.20 0.3746
1081.30 0.3746
1081.40 0.3745
1081.50 0.3744
1081.60 0.3743
1081.70 0.3743
1081.80 0.3742
1081.90 0.3741
1082.00 0.374
1082.10 0.374
1082.20 0.3739
1082.30 0.3738
1082.40 0.3737
1082.50 0.3737
1082.60 0.3736
1082.70 0.3735
1082.80 0.3734
1082.90 0.3734
1083.00 0.3733
1083.10 0.3732
1083.20 0.3731
1083.30 0.3731
1083.40 0.373
1083.50 0.3729
1083.60 0.3728
1083.70 0.3728
1083.80 0.3727
1083.90 0.3726
1084.00 0.3725
1084.10 0.3725
1084.20 0.3724
1084.30 0.3723
1084.40 0.3722
1084.50 0.3722
1084.60 0.3721
1084.70 0.372
1084.80 0.3719
1084.90 0.3719
1085.00 0.3718
1085.10 0.3717
1085.20 0.3716
1085.30 0.3716
1085.40 0.3715
1085.50 0.3714
1085.60 0.3713
1085.70 0.3713
1085.80 0.3712
1085.90 0.3711
1086.00 0.371
1086.10 0.371
1086.20 0.3709
1086.30 0.3708
1086.40 0.3708
1086.50 0.3707
1086.60 0.3706
1086.70 0.3705
1086.80 0.3705
1086.90 0.3704
1087.00 0.3703
1087.10 0.3702
1087.20 0.3702
1087.30 0.3701
1087.40 0.37
1087.50 0.3699
1087.60 0.3699
1087.70 0.3698
1087.80 0.3697
1087.90 0.3696
1088.00 0.3696
1088.10 0.3695
1088.20 0.3694
1088.30 0.3693
1088.40 0.3693
1088.50 0.3692
1088.60 0.3691
1088.70 0.369
1088.80 0.369
1088.90 0.3689
1089.00 0.3688
1089.10 0.3688
1089.20 0.3687
1089.30 0.3686
1089.40 0.3685
1089.50 0.3685
1089.60 0.3684
1089.70 0.3683
1089.80 0.3682
1089.90 0.3682
1090.00 0.3681
1090.10 0.368
1090.20 0.3679
1090.30 0.3679
1090.40 0.3678
1090.50 0.3677
1090.60 0.3676
1090.70 0.3676
1090.80 0.3675
1090.90 0.3674
1091.00 0.3673
1091.10 0.3673
1091.20 0.3672
1091.30 0.3671
1091.40 0.367
1091.50 0.367
1091.60 0.3669
1091.70 0.3668
1091.80 0.3667
1091.90 0.3667
1092.00 0.3666
1092.10 0.3665
1092.20 0.3664
1092.30 0.3663
1092.40 0.3662
1092.50 0.3661
1092.60 0.366
1092.70 0.3658
1092.80 0.3655
1092.90 0.3652
1093.00 0.3649
1093.10 0.3643
1093.20 0.363
1093.30 0.3615
1093.40 0.3578
1093.50 0.3559
1093.60 0.3602
1093.70 0.3622
1093.80 0.3633
1093.90 0.3641
1094.00 0.3643
1094.10 0.3645
1094.20 0.3646
1094.30 0.3647
1094.40 0.3647
1094.50 0.3646
1094.60 0.3646
1094.70 0.3645
1094.80 0.3645
1094.90 0.3644
1095.00 0.3644
1095.10 0.3643
1095.20 0.3643
1095.30 0.3642
1095.40 0.3641
1095.50 0.364
1095.60 0.364
1095.70 0.3639
1095.80 0.3638
1095.90 0.3638
1096.00 0.3637
1096.10 0.3636
1096.20 0.3636
1096.30 0.3635
1096.40 0.3634
1096.50 0.3633
1096.60 0.3633
1096.70 0.3632
1096.80 0.3631
1096.90 0.3631
1097.00 0.363
1097.10 0.3629
1097.20 0.3628
1097.30 0.3628
1097.40 0.3627
1097.50 0.3626
1097.60 0.3626
1097.70 0.3625
1097.80 0.3624
1097.90 0.3623
1098.00 0.3623
1098.10 0.3622
1098.20 0.3621
1098.30 0.3621
1098.40 0.362
1098.50 0.3619
1098.60 0.3618
1098.70 0.3618
1098.80 0.3617
1098.90 0.3616
1099.00 0.3615
1099.10 0.3615
1099.20 0.3614
1099.30 0.3613
1099.40 0.3613
1099.50 0.3612
1099.60 0.3611
1099.70 0.361
1099.80 0.361
1099.90 0.3609
1100.00 0.3608
1100.10 0.3608
1100.20 0.3607
1100.30 0.3606
1100.40 0.3605
1100.50 0.3605
1100.60 0.3604
1100.70 0.3603
1100.80 0.3603
1100.90 0.3602
1101.00 0.3601
1101.10 0.36
1101.20 0.36
1101.30 0.3599
1101.40 0.3598
1101.50 0.3598
1101.60 0.3597
1101.70 0.3596
1101.80 0.3595
1101.90 0.3595
1102.00 0.3594
1102.10 0.3593
1102.20 0.3593
1102.30 0.3592
1102.40 0.3591
1102.50 0.359
1102.60 0.359
1102.70 0.3589
1102.80 0.3588
1102.90 0.3588
1103.00 0.3587
1103.10 0.3586
1103.20 0.3585
1103.30 0.3585
1103.40 0.3584
1103.50 0.3583
1103.60 0.3583
1103.70 0.3582
1103.80 0.3581
1103.90 0.358
1104.00 0.358
1104.10 0.3579
1104.20 0.3578
1104.30 0.3578
1104.40 0.3577
1104.50 0.3576
1104.60 0.3575
1104.70 0.3575
1104.80 0.3574
1104.90 0.3573
1105.00 0.3573
1105.10 0.3572
1105.20 0.3571
1105.30 0.357
1105.40 0.357
1105.50 0.3569
1105.60 0.3568
1105.70 0.3568
1105.80 0.3567
1105.90 0.3566
1106.00 0.3566
1106.10 0.3565
1106.20 0.3564
1106.30 0.3563
1106.40 0.3563
1106.50 0.3562
1106.60 0.3561
1106.70 0.3561
1106.80 0.356
1106.90 0.3559
1107.00 0.3558
1107.10 0.3558
1107.20 0.3557
1107.30 0.3556
1107.40 0.3556
1107.50 0.3555
1107.60 0.3554
1107.70 0.3554
1107.80 0.3553
1107.90 0.3552
1108.00 0.3551
1108.10 0.3551
1108.20 0.355
1108.30 0.3549
1108.40 0.3549
1108.50 0.3548
1108.60 0.3547
1108.70 0.3546
1108.80 0.3546
1108.90 0.3545
1109.00 0.3544
1109.10 0.3544
1109.20 0.3543
1109.30 0.3542
1109.40 0.3542
1109.50 0.3541
1109.60 0.354
1109.70 0.3539
1109.80 0.3539
1109.90 0.3538
1110.00 0.3537
1110.10 0.3537
1110.20 0.3536
1110.30 0.3535
1110.40 0.3535
1110.50 0.3534
1110.60 0.3533
1110.70 0.3532
1110.80 0.3532
1110.90 0.3531
1111.00 0.353
1111.10 0.353
1111.20 0.3529
1111.30 0.3528
1111.40 0.3528
1111.50 0.3527
1111.60 0.3526
1111.70 0.3525
1111.80 0.3525
1111.90 0.3524
1112.00 0.3523
1112.10 0.3523
1112.20 0.3522
1112.30 0.3521
1112.40 0.3521
1112.50 0.352
1112.60 0.3519
1112.70 0.3518
1112.80 0.3518
1112.90 0.3517
1113.00 0.3516
1113.10 0.3516
1113.20 0.3515
1113.30 0.3514
1113.40 0.3514
1113.50 0.3513
1113.60 0.3512
1113.70 0.3511
1113.80 0.3511
1113.90 0.351
1114.00 0.3509
1114.10 0.3509
1114.20 0.3508
1114.30 0.3507
1114.40 0.3507
1114.50 0.3506
1114.60 0.3505
1114.70 0.3505
1114.80 0.3504
1114.90 0.3503
1115.00 0.3502
1115.10 0.3502
1115.20 0.3501
1115.30 0.35
1115.40 0.35
1115.50 0.3499
1115.60 0.3498
1115.70 0.3498
1115.80 0.3497
1115.90 0.3496
1116.00 0.3496
1116.10 0.3495
1116.20 0.3494
1116.30 0.3493
1116.40 0.3493
1116.50 0.3492
1116.60 0.3491
1116.70 0.3491
1116.80 0.349
1116.90 0.3489
1117.00 0.3489
1117.10 0.3488
1117.20 0.3487
1117.30 0.3487
1117.40 0.3486
1117.50 0.3485
1117.60 0.3484
1117.70 0.3484
1117.80 0.3483
1117.90 0.3482
1118.00 0.3482
1118.10 0.3481
1118.20 0.348
1118.30 0.348
1118.40 0.3479
1118.50 0.3478
1118.60 0.3478
1118.70 0.3477
1118.80 0.3476
1118.90 0.3476
1119.00 0.3475
1119.10 0.3474
1119.20 0.3473
1119.30 0.3473
1119.40 0.3472
1119.50 0.3471
1119.60 0.3471
1119.70 0.347
1119.80 0.3469
1119.90 0.3469
1120.00 0.3468
1120.10 0.3467
1120.20 0.3467
1120.30 0.3466
1120.40 0.3465
1120.50 0.3465
1120.60 0.3464
1120.70 0.3463
1120.80 0.3463
1120.90 0.3462
1121.00 0.3461
1121.10 0.346
1121.20 0.346
1121.30 0.3459
1121.40 0.3458
1121.50 0.3458
1121.60 0.3457
1121.70 0.3456
1121.80 0.3456
1121.90 0.3455
1122.00 0.3454
1122.10 0.3454
1122.20 0.3453
1122.30 0.3452
1122.40 0.3452
1122.50 0.3451
1122.60 0.345
1122.70 0.345
1122.80 0.3449
1122.90 0.3448
1123.00 0.3448
1123.10 0.3447
1123.20 0.3446
1123.30 0.3445
1123.40 0.3445
1123.50 0.3444
1123.60 0.3443
1123.70 0.3443
1123.80 0.3442
1123.90 0.3441
1124.00 0.3441
1124.10 0.344
1124.20 0.3439
1124.30 0.3439
1124.40 0.3438
1124.50 0.3437
1124.60 0.3437
1124.70 0.3436
1124.80 0.3435
1124.90 0.3435
1125.00 0.3434
1125.10 0.3433
1125.20 0.3433
1125.30 0.3432
1125.40 0.3431
1125.50 0.3431
1125.60 0.343
1125.70 0.3429
1125.80 0.3429
1125.90 0.3428
1126.00 0.3427
1126.10 0.3427
1126.20 0.3426
1126.30 0.3425
1126.40 0.3425
1126.50 0.3424
1126.60 0.3423
1126.70 0.3422
1126.80 0.3422
1126.90 0.3421
1127.00 0.342
1127.10 0.342
1127.20 0.3419
1127.30 0.3418
1127.40 0.3418
1127.50 0.3417
1127.60 0.3416
1127.70 0.3416
1127.80 0.3415
1127.90 0.3414
1128.00 0.3414
1128.10 0.3413
1128.20 0.3412
1128.30 0.3412
1128.40 0.3411
1128.50 0.341
1128.60 0.341
1128.70 0.3409
1128.80 0.3408
1128.90 0.3408
1129.00 0.3407
1129.10 0.3406
1129.20 0.3406
1129.30 0.3405
1129.40 0.3404
1129.50 0.3404
1129.60 0.3403
1129.70 0.3402
1129.80 0.3402
1129.90 0.3401
1130.00 0.34
1130.10 0.34
1130.20 0.3399
1130.30 0.3398
1130.40 0.3398
1130.50 0.3397
1130.60 0.3396
1130.70 0.3396
1130.80 0.3395
1130.90 0.3394
1131.00 0.3394
1131.10 0.3393
1131.20 0.3392
1131.30 0.3392
1131.40 0.3391
1131.50 0.339
1131.60 0.339
1131.70 0.3389
1131.80 0.3388
1131.90 0.3388
1132.00 0.3387
1132.10 0.3386
1132.20 0.3386
1132.30 0.3385
1132.40 0.3384
1132.50 0.3384
1132.60 0.3383
1132.70 0.3382
1132.80 0.3382
1132.90 0.3381
1133.00 0.338
1133.10 0.338
1133.20 0.3379
1133.30 0.3378
1133.40 0.3378
1133.50 0.3377
1133.60 0.3376
1133.70 0.3376
1133.80 0.3375
1133.90 0.3374
1134.00 0.3374
1134.10 0.3373
1134.20 0.3372
1134.30 0.3372
1134.40 0.3371
1134.50 0.337
1134.60 0.337
1134.70 0.3369
1134.80 0.3368
1134.90 0.3368
1135.00 0.3367
1135.10 0.3366
1135.20 0.3366
1135.30 0.3365
1135.40 0.3364
1135.50 0.3364
1135.60 0.3363
1135.70 0.3362
1135.80 0.3362
1135.90 0.3361
1136.00 0.336
1136.10 0.336
1136.20 0.3359
1136.30 0.3358
1136.40 0.3358
1136.50 0.3357
1136.60 0.3357
1136.70 0.3356
1136.80 0.3355
1136.90 0.3355
1137.00 0.3354
1137.10 0.3353
1137.20 0.3353
1137.30 0.3352
1137.40 0.3351
1137.50 0.3351
1137.60 0.335
1137.70 0.3349
1137.80 0.3349
1137.90 0.3348
1138.00 0.3347
1138.10 0.3347
1138.20 0.3346
1138.30 0.3345
1138.40 0.3345
1138.50 0.3344
1138.60 0.3343
1138.70 0.3343
1138.80 0.3342
1138.90 0.3341
1139.00 0.3341
1139.10 0.334
1139.20 0.3339
1139.30 0.3339
1139.40 0.3338
1139.50 0.3337
1139.60 0.3337
1139.70 0.3336
1139.80 0.3336
1139.90 0.3335
1140.00 0.3334
1140.10 0.3334
1140.20 0.3333
1140.30 0.3332
1140.40 0.3332
1140.50 0.3331
1140.60 0.333
1140.70 0.333
1140.80 0.3329
1140.90 0.3328
1141.00 0.3328
1141.10 0.3327
1141.20 0.3326
1141.30 0.3326
1141.40 0.3325
1141.50 0.3324
1141.60 0.3324
1141.70 0.3323
1141.80 0.3323
1141.90 0.3322
1142.00 0.3321
1142.10 0.3321
1142.20 0.332
1142.30 0.3319
1142.40 0.3319
1142.50 0.3318
1142.60 0.3317
1142.70 0.3317
1142.80 0.3316
1142.90 0.3315
1143.00 0.3315
1143.10 0.3314
1143.20 0.3313
1143.30 0.3313
1143.40 0.3312
1143.50 0.3311
1143.60 0.3311
1143.70 0.331
1143.80 0.331
1143.90 0.3309
1144.00 0.3308
1144.10 0.3308
1144.20 0.3307
1144.30 0.3306
1144.40 0.3306
1144.50 0.3305
1144.60 0.3304
1144.70 0.3304
1144.80 0.3303
1144.90 0.3302
1145.00 0.3302
1145.10 0.3301
1145.20 0.33
1145.30 0.33
1145.40 0.3299
1145.50 0.3299
1145.60 0.3298
1145.70 0.3297
1145.80 0.3297
1145.90 0.3296
1146.00 0.3295
1146.10 0.3295
1146.20 0.3294
1146.30 0.3293
1146.40 0.3293
1146.50 0.3292
1146.60 0.3291
1146.70 0.3291
1146.80 0.329
1146.90 0.329
1147.00 0.3289
1147.10 0.3288
1147.20 0.3288
1147.30 0.3287
1147.40 0.3286
1147.50 0.3286
1147.60 0.3285
1147.70 0.3284
1147.80 0.3284
1147.90 0.3283
1148.00 0.3282
1148.10 0.3282
1148.20 0.3281
1148.30 0.3281
1148.40 0.328
1148.50 0.3279
1148.60 0.3279
1148.70 0.3278
1148.80 0.3277
1148.90 0.3277
1149.00 0.3276
1149.10 0.3275
1149.20 0.3275
1149.30 0.3274
1149.40 0.3274
1149.50 0.3273
1149.60 0.3272
1149.70 0.3272
1149.80 0.3271
1149.90 0.327
1150.00 0.327
1150.10 0.3269
1150.20 0.3268
1150.30 0.3268
1150.40 0.3267
1150.50 0.3267
1150.60 0.3266
1150.70 0.3265
1150.80 0.3265
1150.90 0.3264
1151.00 0.3263
1151.10 0.3263
1151.20 0.3262
1151.30 0.3261
1151.40 0.3261
1151.50 0.326
1151.60 0.326
1151.70 0.3259
1151.80 0.3258
1151.90 0.3258
1152.00 0.3257
1152.10 0.3256
1152.20 0.3256
1152.30 0.3255
1152.40 0.3254
1152.50 0.3254
1152.60 0.3253
1152.70 0.3253
1152.80 0.3252
1152.90 0.3251
1153.00 0.3251
1153.10 0.325
1153.20 0.3249
1153.30 0.3249
1153.40 0.3248
1153.50 0.3247
1153.60 0.3247
1153.70 0.3246
1153.80 0.3246
1153.90 0.3245
1154.00 0.3244
1154.10 0.3244
1154.20 0.3243
1154.30 0.3242
1154.40 0.3242
1154.50 0.3241
1154.60 0.3241
1154.70 0.324
1154.80 0.3239
1154.90 0.3239
1155.00 0.3238
1155.10 0.3237
1155.20 0.3237
1155.30 0.3236
1155.40 0.3235
1155.50 0.3235
1155.60 0.3234
1155.70 0.3234
1155.80 0.3233
1155.90 0.3232
1156.00 0.3232
1156.10 0.3231
1156.20 0.323
1156.30 0.323
1156.40 0.3229
1156.50 0.3229
1156.60 0.3228
1156.70 0.3227
1156.80 0.3227
1156.90 0.3226
1157.00 0.3225
1157.10 0.3225
1157.20 0.3224
1157.30 0.3224
1157.40 0.3223
1157.50 0.3222
1157.60 0.3222
1157.70 0.3221
1157.80 0.322
1157.90 0.322
1158.00 0.3219
1158.10 0.3219
1158.20 0.3218
1158.30 0.3217
1158.40 0.3217
1158.50 0.3216
1158.60 0.3215
1158.70 0.3215
1158.80 0.3214
1158.90 0.3214
1159.00 0.3213
1159.10 0.3212
1159.20 0.3212
1159.30 0.3211
1159.40 0.321
1159.50 0.321
1159.60 0.3209
1159.70 0.3209
1159.80 0.3208
1159.90 0.3207
1160.00 0.3207
1160.10 0.3206
1160.20 0.3205
1160.30 0.3205
1160.40 0.3204
1160.50 0.3204
1160.60 0.3203
1160.70 0.3202
1160.80 0.3202
1160.90 0.3201
1161.00 0.32
1161.10 0.32
1161.20 0.3199
1161.30 0.3199
1161.40 0.3198
1161.50 0.3197
1161.60 0.3197
1161.70 0.3196
1161.80 0.3195
1161.90 0.3195
1162.00 0.3194
1162.10 0.3194
1162.20 0.3193
1162.30 0.3192
1162.40 0.3192
1162.50 0.3191
1162.60 0.3191
1162.70 0.319
1162.80 0.3189
1162.90 0.3189
1163.00 0.3188
1163.10 0.3187
1163.20 0.3187
1163.30 0.3186
1163.40 0.3186
1163.50 0.3185
1163.60 0.3184
1163.70 0.3184
1163.80 0.3183
1163.90 0.3182
1164.00 0.3182
1164.10 0.3181
1164.20 0.3181
1164.30 0.318
1164.40 0.3179
1164.50 0.3179
1164.60 0.3178
1164.70 0.3178
1164.80 0.3177
1164.90 0.3176
1165.00 0.3176
1165.10 0.3175
1165.20 0.3174
1165.30 0.3174
1165.40 0.3173
1165.50 0.3173
1165.60 0.3172
1165.70 0.3171
1165.80 0.3171
1165.90 0.317
1166.00 0.317
1166.10 0.3169
1166.20 0.3168
1166.30 0.3168
1166.40 0.3167
1166.50 0.3167
1166.60 0.3166
1166.70 0.3165
1166.80 0.3165
1166.90 0.3164
1167.00 0.3163
1167.10 0.3163
1167.20 0.3162
1167.30 0.3162
1167.40 0.3161
1167.50 0.316
1167.60 0.316
1167.70 0.3159
1167.80 0.3159
1167.90 0.3158
1168.00 0.3157
1168.10 0.3157
1168.20 0.3156
1168.30 0.3155
1168.40 0.3155
1168.50 0.3154
1168.60 0.3154
1168.70 0.3153
1168.80 0.3152
1168.90 0.3152
1169.00 0.3151
1169.10 0.3151
1169.20 0.315
1169.30 0.3149
1169.40 0.3149
1169.50 0.3148
1169.60 0.3148
1169.70 0.3147
1169.80 0.3146
1169.90 0.3146
1170.00 0.3145
1170.10 0.3145
1170.20 0.3144
1170.30 0.3143
1170.40 0.3143
1170.50 0.3142
1170.60 0.3141
1170.70 0.3141
1170.80 0.314
1170.90 0.314
1171.00 0.3139
1171.10 0.3138
1171.20 0.3138
1171.30 0.3137
1171.40 0.3137
1171.50 0.3136
1171.60 0.3135
1171.70 0.3135
1171.80 0.3134
1171.90 0.3134
1172.00 0.3133
1172.10 0.3132
1172.20 0.3132
1172.30 0.3131
1172.40 0.3131
1172.50 0.313
1172.60 0.3129
1172.70 0.3129
1172.80 0.3128
1172.90 0.3128
1173.00 0.3127
1173.10 0.3126
1173.20 0.3126
1173.30 0.3125
1173.40 0.3125
1173.50 0.3124
1173.60 0.3123
1173.70 0.3123
1173.80 0.3122
1173.90 0.3122
1174.00 0.3121
1174.10 0.312
1174.20 0.312
1174.30 0.3119
1174.40 0.3119
1174.50 0.3118
1174.60 0.3117
1174.70 0.3117
1174.80 0.3116
1174.90 0.3116
1175.00 0.3115
1175.10 0.3114
1175.20 0.3114
1175.30 0.3113
1175.40 0.3113
1175.50 0.3112
1175.60 0.3111
1175.70 0.3111
1175.80 0.311
1175.90 0.311
1176.00 0.3109
1176.10 0.3108
1176.20 0.3108
1176.30 0.3107
1176.40 0.3107
1176.50 0.3106
1176.60 0.3105
1176.70 0.3105
1176.80 0.3104
1176.90 0.3104
1177.00 0.3103
1177.10 0.3102
1177.20 0.3102
1177.30 0.3101
1177.40 0.3101
1177.50 0.31
1177.60 0.3099
1177.70 0.3099
1177.80 0.3098
1177.90 0.3098
1178.00 0.3097
1178.10 0.3096
1178.20 0.3096
1178.30 0.3095
1178.40 0.3095
1178.50 0.3094
1178.60 0.3093
1178.70 0.3093
1178.80 0.3092
1178.90 0.3092
1179.00 0.3091
1179.10 0.309
1179.20 0.309
1179.30 0.3089
1179.40 0.3089
1179.50 0.3088
1179.60 0.3087
1179.70 0.3087
1179.80 0.3086
1179.90 0.3086
1180.00 0.3085
1180.10 0.3084
1180.20 0.3084
1180.30 0.3083
1180.40 0.3083
1180.50 0.3082
1180.60 0.3082
1180.70 0.3081
1180.80 0.308
1180.90 0.308
1181.00 0.3079
1181.10 0.3079
1181.20 0.3078
1181.30 0.3077
1181.40 0.3077
1181.50 0.3076
1181.60 0.3076
1181.70 0.3075
1181.80 0.3074
1181.90 0.3074
1182.00 0.3073
1182.10 0.3073
1182.20 0.3072
1182.30 0.3071
1182.40 0.3071
1182.50 0.307
1182.60 0.307
1182.70 0.3069
1182.80 0.3069
1182.90 0.3068
1183.00 0.3067
1183.10 0.3067
1183.20 0.3066
1183.30 0.3066
1183.40 0.3065
1183.50 0.3064
1183.60 0.3064
1183.70 0.3063
1183.80 0.3063
1183.90 0.3062
1184.00 0.3061
1184.10 0.3061
1184.20 0.306
1184.30 0.306
1184.40 0.3059
1184.50 0.3058
1184.60 0.3058
1184.70 0.3057
1184.80 0.3057
1184.90 0.3056
1185.00 0.3056
1185.10 0.3055
1185.20 0.3054
1185.30 0.3054
1185.40 0.3053
1185.50 0.3053
1185.60 0.3052
1185.70 0.3051
1185.80 0.3051
1185.90 0.305
1186.00 0.305
1186.10 0.3049
1186.20 0.3049
1186.30 0.3048
1186.40 0.3047
1186.50 0.3047
1186.60 0.3046
1186.70 0.3046
1186.80 0.3045
1186.90 0.3044
1187.00 0.3044
1187.10 0.3043
1187.20 0.3043
1187.30 0.3042
1187.40 0.3042
1187.50 0.3041
1187.60 0.304
1187.70 0.304
1187.80 0.3039
1187.90 0.3039
1188.00 0.3038
1188.10 0.3037
1188.20 0.3037
1188.30 0.3036
1188.40 0.3036
1188.50 0.3035
1188.60 0.3035
1188.70 0.3034
1188.80 0.3033
1188.90 0.3033
1189.00 0.3032
1189.10 0.3032
1189.20 0.3031
1189.30 0.303
1189.40 0.303
1189.50 0.3029
1189.60 0.3029
1189.70 0.3028
1189.80 0.3028
1189.90 0.3027
1190.00 0.3026
1190.10 0.3026
1190.20 0.3025
1190.30 0.3025
1190.40 0.3024
1190.50 0.3024
1190.60 0.3023
1190.70 0.3022
1190.80 0.3022
1190.90 0.3021
1191.00 0.3021
1191.10 0.302
1191.20 0.3019
1191.30 0.3019
1191.40 0.3018
1191.50 0.3018
1191.60 0.3017
1191.70 0.3017
1191.80 0.3016
1191.90 0.3015
1192.00 0.3015
1192.10 0.3014
1192.20 0.3014
1192.30 0.3013
1192.40 0.3013
1192.50 0.3012
1192.60 0.3011
1192.70 0.3011
1192.80 0.301
1192.90 0.301
1193.00 0.3009
1193.10 0.3009
1193.20 0.3008
1193.30 0.3007
1193.40 0.3007
1193.50 0.3006
1193.60 0.3006
1193.70 0.3005
1193.80 0.3004
1193.90 0.3004
1194.00 0.3003
1194.10 0.3003
1194.20 0.3002
1194.30 0.3002
1194.40 0.3001
1194.50 0.3
1194.60 0.3
1194.70 0.2999
1194.80 0.2999
1194.90 0.2998
1195.00 0.2998
1195.10 0.2997
1195.20 0.2996
1195.30 0.2996
1195.40 0.2995
1195.50 0.2995
1195.60 0.2994
1195.70 0.2994
1195.80 0.2993
1195.90 0.2992
1196.00 0.2992
1196.10 0.2991
1196.20 0.2991
1196.30 0.299
1196.40 0.299
1196.50 0.2989
1196.60 0.2988
1196.70 0.2988
1196.80 0.2987
1196.90 0.2987
1197.00 0.2986
1197.10 0.2986
1197.20 0.2985
1197.30 0.2984
1197.40 0.2984
1197.50 0.2983
1197.60 0.2983
1197.70 0.2982
1197.80 0.2982
1197.90 0.2981
1198.00 0.298
1198.10 0.298
1198.20 0.2979
1198.30 0.2979
1198.40 0.2978
1198.50 0.2978
1198.60 0.2977
1198.70 0.2977
1198.80 0.2976
1198.90 0.2975
1199.00 0.2975
1199.10 0.2974
1199.20 0.2974
1199.30 0.2973
1199.40 0.2973
1199.50 0.2972
1199.60 0.2971
1199.70 0.2971
1199.80 0.297
1199.90 0.297
1200.00 0
