# Version 2.1 - nm, norm@500 to 1, cut digits, bergeron_9000_95.dat_9000
# Wavelength(nm)  Flambda(ergs/cm^s/s/nm)
300.00 1.76
300.10 1.76
300.20 1.76
300.30 1.759
300.40 1.759
300.50 1.759
300.60 1.758
300.70 1.758
300.80 1.758
300.90 1.757
301.00 1.757
301.10 1.757
301.20 1.756
301.30 1.756
301.40 1.756
301.50 1.756
301.60 1.755
301.70 1.755
301.80 1.755
301.90 1.754
302.00 1.754
302.10 1.754
302.20 1.753
302.30 1.753
302.40 1.753
302.50 1.752
302.60 1.752
302.70 1.752
302.80 1.751
302.90 1.751
303.00 1.751
303.10 1.75
303.20 1.75
303.30 1.75
303.40 1.749
303.50 1.749
303.60 1.748
303.70 1.748
303.80 1.748
303.90 1.747
304.00 1.747
304.10 1.747
304.20 1.746
304.30 1.746
304.40 1.746
304.50 1.745
304.60 1.745
304.70 1.745
304.80 1.744
304.90 1.744
305.00 1.744
305.10 1.743
305.20 1.743
305.30 1.743
305.40 1.742
305.50 1.742
305.60 1.742
305.70 1.741
305.80 1.741
305.90 1.741
306.00 1.74
306.10 1.74
306.20 1.74
306.30 1.739
306.40 1.739
306.50 1.739
306.60 1.738
306.70 1.738
306.80 1.738
306.90 1.737
307.00 1.737
307.10 1.736
307.20 1.736
307.30 1.736
307.40 1.735
307.50 1.735
307.60 1.735
307.70 1.734
307.80 1.734
307.90 1.734
308.00 1.733
308.10 1.733
308.20 1.733
308.30 1.732
308.40 1.732
308.50 1.731
308.60 1.731
308.70 1.731
308.80 1.73
308.90 1.73
309.00 1.73
309.10 1.729
309.20 1.729
309.30 1.729
309.40 1.728
309.50 1.728
309.60 1.727
309.70 1.727
309.80 1.727
309.90 1.726
310.00 1.726
310.10 1.726
310.20 1.725
310.30 1.725
310.40 1.725
310.50 1.724
310.60 1.724
310.70 1.723
310.80 1.723
310.90 1.723
311.00 1.722
311.10 1.722
311.20 1.722
311.30 1.721
311.40 1.721
311.50 1.72
311.60 1.72
311.70 1.72
311.80 1.719
311.90 1.719
312.00 1.719
312.10 1.718
312.20 1.718
312.30 1.717
312.40 1.717
312.50 1.717
312.60 1.716
312.70 1.716
312.80 1.716
312.90 1.715
313.00 1.715
313.10 1.714
313.20 1.714
313.30 1.714
313.40 1.713
313.50 1.713
313.60 1.713
313.70 1.712
313.80 1.712
313.90 1.711
314.00 1.711
314.10 1.711
314.20 1.71
314.30 1.71
314.40 1.71
314.50 1.709
314.60 1.709
314.70 1.708
314.80 1.708
314.90 1.708
315.00 1.707
315.10 1.707
315.20 1.706
315.30 1.706
315.40 1.706
315.50 1.705
315.60 1.705
315.70 1.705
315.80 1.704
315.90 1.704
316.00 1.703
316.10 1.703
316.20 1.703
316.30 1.702
316.40 1.702
316.50 1.701
316.60 1.701
316.70 1.701
316.80 1.7
316.90 1.7
317.00 1.699
317.10 1.699
317.20 1.699
317.30 1.698
317.40 1.698
317.50 1.697
317.60 1.697
317.70 1.697
317.80 1.696
317.90 1.696
318.00 1.695
318.10 1.695
318.20 1.695
318.30 1.694
318.40 1.694
318.50 1.693
318.60 1.693
318.70 1.693
318.80 1.692
318.90 1.692
319.00 1.691
319.10 1.691
319.20 1.691
319.30 1.69
319.40 1.69
319.50 1.689
319.60 1.689
319.70 1.689
319.80 1.688
319.90 1.688
320.00 1.687
320.10 1.687
320.20 1.687
320.30 1.686
320.40 1.686
320.50 1.685
320.60 1.685
320.70 1.685
320.80 1.684
320.90 1.684
321.00 1.683
321.10 1.683
321.20 1.683
321.30 1.682
321.40 1.682
321.50 1.681
321.60 1.681
321.70 1.681
321.80 1.68
321.90 1.68
322.00 1.679
322.10 1.679
322.20 1.679
322.30 1.678
322.40 1.678
322.50 1.677
322.60 1.677
322.70 1.676
322.80 1.676
322.90 1.676
323.00 1.675
323.10 1.675
323.20 1.674
323.30 1.674
323.40 1.674
323.50 1.673
323.60 1.673
323.70 1.672
323.80 1.672
323.90 1.672
324.00 1.671
324.10 1.671
324.20 1.67
324.30 1.67
324.40 1.669
324.50 1.669
324.60 1.669
324.70 1.668
324.80 1.668
324.90 1.667
325.00 1.667
325.10 1.667
325.20 1.666
325.30 1.666
325.40 1.665
325.50 1.665
325.60 1.664
325.70 1.664
325.80 1.664
325.90 1.663
326.00 1.663
326.10 1.662
326.20 1.662
326.30 1.661
326.40 1.661
326.50 1.661
326.60 1.66
326.70 1.66
326.80 1.659
326.90 1.659
327.00 1.659
327.10 1.658
327.20 1.658
327.30 1.657
327.40 1.657
327.50 1.656
327.60 1.656
327.70 1.656
327.80 1.655
327.90 1.655
328.00 1.654
328.10 1.654
328.20 1.653
328.30 1.653
328.40 1.653
328.50 1.652
328.60 1.652
328.70 1.651
328.80 1.651
328.90 1.65
329.00 1.65
329.10 1.65
329.20 1.649
329.30 1.649
329.40 1.648
329.50 1.648
329.60 1.647
329.70 1.647
329.80 1.647
329.90 1.646
330.00 1.646
330.10 1.645
330.20 1.645
330.30 1.644
330.40 1.644
330.50 1.644
330.60 1.643
330.70 1.643
330.80 1.642
330.90 1.642
331.00 1.641
331.10 1.641
331.20 1.641
331.30 1.64
331.40 1.64
331.50 1.639
331.60 1.639
331.70 1.638
331.80 1.638
331.90 1.637
332.00 1.637
332.10 1.637
332.20 1.636
332.30 1.636
332.40 1.635
332.50 1.635
332.60 1.634
332.70 1.634
332.80 1.634
332.90 1.633
333.00 1.633
333.10 1.632
333.20 1.632
333.30 1.631
333.40 1.631
333.50 1.63
333.60 1.63
333.70 1.63
333.80 1.629
333.90 1.629
334.00 1.628
334.10 1.628
334.20 1.627
334.30 1.627
334.40 1.626
334.50 1.626
334.60 1.626
334.70 1.625
334.80 1.625
334.90 1.624
335.00 1.624
335.10 1.623
335.20 1.623
335.30 1.623
335.40 1.622
335.50 1.622
335.60 1.621
335.70 1.621
335.80 1.62
335.90 1.62
336.00 1.619
336.10 1.619
336.20 1.619
336.30 1.618
336.40 1.618
336.50 1.617
336.60 1.617
336.70 1.616
336.80 1.616
336.90 1.615
337.00 1.615
337.10 1.615
337.20 1.614
337.30 1.614
337.40 1.613
337.50 1.613
337.60 1.612
337.70 1.612
337.80 1.611
337.90 1.611
338.00 1.61
338.10 1.61
338.20 1.61
338.30 1.609
338.40 1.609
338.50 1.608
338.60 1.608
338.70 1.607
338.80 1.607
338.90 1.606
339.00 1.606
339.10 1.606
339.20 1.605
339.30 1.605
339.40 1.604
339.50 1.604
339.60 1.603
339.70 1.603
339.80 1.602
339.90 1.602
340.00 1.601
340.10 1.601
340.20 1.601
340.30 1.6
340.40 1.6
340.50 1.599
340.60 1.599
340.70 1.598
340.80 1.598
340.90 1.597
341.00 1.597
341.10 1.596
341.20 1.596
341.30 1.596
341.40 1.595
341.50 1.595
341.60 1.594
341.70 1.594
341.80 1.593
341.90 1.593
342.00 1.592
342.10 1.592
342.20 1.591
342.30 1.591
342.40 1.591
342.50 1.59
342.60 1.59
342.70 1.589
342.80 1.589
342.90 1.588
343.00 1.588
343.10 1.587
343.20 1.587
343.30 1.586
343.40 1.586
343.50 1.586
343.60 1.585
343.70 1.585
343.80 1.584
343.90 1.584
344.00 1.583
344.10 1.583
344.20 1.582
344.30 1.582
344.40 1.581
344.50 1.581
344.60 1.581
344.70 1.58
344.80 1.58
344.90 1.579
345.00 1.579
345.10 1.578
345.20 1.578
345.30 1.577
345.40 1.577
345.50 1.576
345.60 1.576
345.70 1.576
345.80 1.575
345.90 1.575
346.00 1.574
346.10 1.574
346.20 1.573
346.30 1.573
346.40 1.572
346.50 1.572
346.60 1.571
346.70 1.571
346.80 1.57
346.90 1.57
347.00 1.569
347.10 1.569
347.20 1.569
347.30 1.568
347.40 1.568
347.50 1.567
347.60 1.567
347.70 1.566
347.80 1.566
347.90 1.565
348.00 1.565
348.10 1.564
348.20 1.564
348.30 1.563
348.40 1.563
348.50 1.563
348.60 1.562
348.70 1.562
348.80 1.561
348.90 1.561
349.00 1.56
349.10 1.56
349.20 1.559
349.30 1.559
349.40 1.558
349.50 1.558
349.60 1.557
349.70 1.557
349.80 1.556
349.90 1.556
350.00 1.556
350.10 1.555
350.20 1.555
350.30 1.554
350.40 1.554
350.50 1.553
350.60 1.553
350.70 1.552
350.80 1.552
350.90 1.551
351.00 1.551
351.10 1.55
351.20 1.55
351.30 1.549
351.40 1.549
351.50 1.549
351.60 1.548
351.70 1.548
351.80 1.547
351.90 1.547
352.00 1.546
352.10 1.546
352.20 1.545
352.30 1.545
352.40 1.544
352.50 1.544
352.60 1.543
352.70 1.543
352.80 1.542
352.90 1.542
353.00 1.542
353.10 1.541
353.20 1.541
353.30 1.54
353.40 1.54
353.50 1.539
353.60 1.539
353.70 1.538
353.80 1.538
353.90 1.537
354.00 1.537
354.10 1.536
354.20 1.536
354.30 1.535
354.40 1.535
354.50 1.534
354.60 1.534
354.70 1.534
354.80 1.533
354.90 1.533
355.00 1.532
355.10 1.532
355.20 1.531
355.30 1.531
355.40 1.53
355.50 1.53
355.60 1.529
355.70 1.529
355.80 1.528
355.90 1.528
356.00 1.527
356.10 1.527
356.20 1.527
356.30 1.526
356.40 1.526
356.50 1.525
356.60 1.525
356.70 1.524
356.80 1.524
356.90 1.523
357.00 1.523
357.10 1.522
357.20 1.522
357.30 1.521
357.40 1.521
357.50 1.52
357.60 1.52
357.70 1.519
357.80 1.519
357.90 1.518
358.00 1.518
358.10 1.518
358.20 1.517
358.30 1.517
358.40 1.516
358.50 1.516
358.60 1.515
358.70 1.515
358.80 1.514
358.90 1.514
359.00 1.513
359.10 1.513
359.20 1.512
359.30 1.512
359.40 1.511
359.50 1.511
359.60 1.51
359.70 1.51
359.80 1.509
359.90 1.509
360.00 1.509
360.10 1.508
360.20 1.508
360.30 1.507
360.40 1.507
360.50 1.506
360.60 1.506
360.70 1.505
360.80 1.505
360.90 1.504
361.00 1.504
361.10 1.503
361.20 1.503
361.30 1.502
361.40 1.502
361.50 1.501
361.60 1.501
361.70 1.5
361.80 1.5
361.90 1.5
362.00 1.499
362.10 1.499
362.20 1.498
362.30 1.498
362.40 1.497
362.50 1.497
362.60 1.496
362.70 1.496
362.80 1.495
362.90 1.495
363.00 1.494
363.10 1.494
363.20 1.493
363.30 1.493
363.40 1.492
363.50 1.492
363.60 1.491
363.70 1.491
363.80 1.49
363.90 1.49
364.00 1.489
364.10 1.489
364.20 1.488
364.30 1.488
364.40 1.487
364.50 1.486
364.60 1.486
364.70 1.485
364.80 1.485
364.90 1.484
365.00 1.484
365.10 1.483
365.20 1.483
365.30 1.482
365.40 1.482
365.50 1.481
365.60 1.481
365.70 1.48
365.80 1.48
365.90 1.479
366.00 1.479
366.10 1.478
366.20 1.478
366.30 1.477
366.40 1.477
366.50 1.476
366.60 1.476
366.70 1.475
366.80 1.475
366.90 1.474
367.00 1.474
367.10 1.473
367.20 1.473
367.30 1.472
367.40 1.472
367.50 1.471
367.60 1.471
367.70 1.47
367.80 1.47
367.90 1.469
368.00 1.469
368.10 1.468
368.20 1.468
368.30 1.467
368.40 1.467
368.50 1.466
368.60 1.466
368.70 1.465
368.80 1.465
368.90 1.464
369.00 1.464
369.10 1.463
369.20 1.463
369.30 1.462
369.40 1.462
369.50 1.461
369.60 1.461
369.70 1.46
369.80 1.46
369.90 1.459
370.00 1.459
370.10 1.459
370.20 1.458
370.30 1.458
370.40 1.457
370.50 1.457
370.60 1.456
370.70 1.456
370.80 1.455
370.90 1.455
371.00 1.454
371.10 1.454
371.20 1.453
371.30 1.453
371.40 1.452
371.50 1.452
371.60 1.451
371.70 1.451
371.80 1.45
371.90 1.45
372.00 1.449
372.10 1.449
372.20 1.449
372.30 1.448
372.40 1.448
372.50 1.447
372.60 1.447
372.70 1.446
372.80 1.446
372.90 1.445
373.00 1.445
373.10 1.444
373.20 1.444
373.30 1.443
373.40 1.443
373.50 1.442
373.60 1.442
373.70 1.442
373.80 1.441
373.90 1.441
374.00 1.44
374.10 1.44
374.20 1.439
374.30 1.439
374.40 1.438
374.50 1.438
374.60 1.438
374.70 1.437
374.80 1.437
374.90 1.436
375.00 1.436
375.10 1.435
375.20 1.435
375.30 1.434
375.40 1.434
375.50 1.434
375.60 1.433
375.70 1.433
375.80 1.432
375.90 1.432
376.00 1.431
376.10 1.431
376.20 1.43
376.30 1.43
376.40 1.43
376.50 1.429
376.60 1.429
376.70 1.428
376.80 1.428
376.90 1.427
377.00 1.427
377.10 1.427
377.20 1.426
377.30 1.426
377.40 1.425
377.50 1.425
377.60 1.424
377.70 1.424
377.80 1.423
377.90 1.423
378.00 1.422
378.10 1.421
378.20 1.42
378.30 1.42
378.40 1.419
378.50 1.418
378.60 1.417
378.70 1.416
378.80 1.415
378.90 1.415
379.00 1.414
379.10 1.413
379.20 1.412
379.30 1.411
379.40 1.41
379.50 1.409
379.60 1.408
379.70 1.407
379.80 1.406
379.90 1.405
380.00 1.404
380.10 1.405
380.20 1.405
380.30 1.406
380.40 1.406
380.50 1.407
380.60 1.408
380.70 1.408
380.80 1.409
380.90 1.409
381.00 1.41
381.10 1.41
381.20 1.41
381.30 1.409
381.40 1.409
381.50 1.409
381.60 1.409
381.70 1.408
381.80 1.408
381.90 1.407
382.00 1.406
382.10 1.406
382.20 1.405
382.30 1.402
382.40 1.4
382.50 1.398
382.60 1.396
382.70 1.394
382.80 1.392
382.90 1.39
383.00 1.387
383.10 1.385
383.20 1.383
383.30 1.38
383.40 1.376
383.50 1.373
383.60 1.373
383.70 1.377
383.80 1.38
383.90 1.383
384.00 1.385
384.10 1.388
384.20 1.39
384.30 1.393
384.40 1.394
384.50 1.396
384.60 1.397
384.70 1.398
384.80 1.399
384.90 1.4
385.00 1.401
385.10 1.401
385.20 1.401
385.30 1.402
385.40 1.402
385.50 1.402
385.60 1.401
385.70 1.401
385.80 1.401
385.90 1.401
386.00 1.4
386.10 1.4
386.20 1.4
386.30 1.399
386.40 1.398
386.50 1.398
386.60 1.397
386.70 1.396
386.80 1.395
386.90 1.394
387.00 1.393
387.10 1.391
387.20 1.39
387.30 1.388
387.40 1.387
387.50 1.385
387.60 1.382
387.70 1.38
387.80 1.377
387.90 1.374
388.00 1.37
388.10 1.365
388.20 1.36
388.30 1.354
388.40 1.347
388.50 1.34
388.60 1.332
388.70 1.324
388.80 1.316
388.90 1.31
389.00 1.316
389.10 1.323
389.20 1.331
389.30 1.338
389.40 1.346
389.50 1.352
389.60 1.358
389.70 1.363
389.80 1.368
389.90 1.371
390.00 1.374
390.10 1.377
390.20 1.379
390.30 1.381
390.40 1.383
390.50 1.385
390.60 1.386
390.70 1.387
390.80 1.388
390.90 1.389
391.00 1.39
391.10 1.39
391.20 1.391
391.30 1.392
391.40 1.392
391.50 1.392
391.60 1.393
391.70 1.393
391.80 1.393
391.90 1.393
392.00 1.393
392.10 1.393
392.20 1.392
392.30 1.392
392.40 1.392
392.50 1.392
392.60 1.391
392.70 1.391
392.80 1.39
392.90 1.389
393.00 1.389
393.10 1.388
393.20 1.387
393.30 1.386
393.40 1.385
393.50 1.384
393.60 1.382
393.70 1.381
393.80 1.38
393.90 1.378
394.00 1.377
394.10 1.375
394.20 1.373
394.30 1.371
394.40 1.369
394.50 1.367
394.60 1.365
394.70 1.362
394.80 1.36
394.90 1.357
395.00 1.354
395.10 1.351
395.20 1.348
395.30 1.344
395.40 1.34
395.50 1.336
395.60 1.331
395.70 1.326
395.80 1.321
395.90 1.315
396.00 1.308
396.10 1.301
396.20 1.292
396.30 1.281
396.40 1.269
396.50 1.254
396.60 1.237
396.70 1.218
396.80 1.197
396.90 1.177
397.00 1.156
397.10 1.174
397.20 1.194
397.30 1.214
397.40 1.233
397.50 1.25
397.60 1.265
397.70 1.277
397.80 1.288
397.90 1.297
398.00 1.304
398.10 1.31
398.20 1.316
398.30 1.321
398.40 1.326
398.50 1.33
398.60 1.334
398.70 1.338
398.80 1.341
398.90 1.344
399.00 1.347
399.10 1.35
399.20 1.352
399.30 1.354
399.40 1.357
399.50 1.358
399.60 1.36
399.70 1.362
399.80 1.364
399.90 1.365
400.00 1.367
400.10 1.368
400.20 1.369
400.30 1.37
400.40 1.372
400.50 1.373
400.60 1.373
400.70 1.374
400.80 1.375
400.90 1.376
401.00 1.376
401.10 1.377
401.20 1.377
401.30 1.378
401.40 1.378
401.50 1.379
401.60 1.379
401.70 1.379
401.80 1.379
401.90 1.379
402.00 1.38
402.10 1.38
402.20 1.38
402.30 1.379
402.40 1.379
402.50 1.379
402.60 1.379
402.70 1.379
402.80 1.379
402.90 1.378
403.00 1.378
403.10 1.377
403.20 1.377
403.30 1.376
403.40 1.376
403.50 1.375
403.60 1.375
403.70 1.374
403.80 1.373
403.90 1.373
404.00 1.372
404.10 1.371
404.20 1.37
404.30 1.369
404.40 1.368
404.50 1.367
404.60 1.366
404.70 1.364
404.80 1.363
404.90 1.362
405.00 1.36
405.10 1.359
405.20 1.358
405.30 1.356
405.40 1.354
405.50 1.353
405.60 1.351
405.70 1.349
405.80 1.347
405.90 1.345
406.00 1.343
406.10 1.34
406.20 1.338
406.30 1.336
406.40 1.333
406.50 1.33
406.60 1.327
406.70 1.324
406.80 1.321
406.90 1.318
407.00 1.315
407.10 1.311
407.20 1.307
407.30 1.303
407.40 1.299
407.50 1.295
407.60 1.29
407.70 1.285
407.80 1.28
407.90 1.275
408.00 1.269
408.10 1.263
408.20 1.257
408.30 1.25
408.40 1.243
408.50 1.235
408.60 1.227
408.70 1.218
408.80 1.209
408.90 1.199
409.00 1.189
409.10 1.177
409.20 1.164
409.30 1.15
409.40 1.134
409.50 1.115
409.60 1.094
409.70 1.066
409.80 1.034
409.90 0.9981
410.00 0.9559
410.10 0.922
410.20 0.8966
410.30 0.9374
410.40 0.9778
410.50 1.018
410.60 1.05
410.70 1.079
410.80 1.103
410.90 1.122
411.00 1.139
411.10 1.153
411.20 1.166
411.30 1.177
411.40 1.188
411.50 1.197
411.60 1.206
411.70 1.214
411.80 1.222
411.90 1.229
412.00 1.236
412.10 1.242
412.20 1.248
412.30 1.254
412.40 1.259
412.50 1.263
412.60 1.268
412.70 1.272
412.80 1.276
412.90 1.28
413.00 1.284
413.10 1.287
413.20 1.29
413.30 1.293
413.40 1.296
413.50 1.299
413.60 1.301
413.70 1.304
413.80 1.306
413.90 1.308
414.00 1.31
414.10 1.312
414.20 1.314
414.30 1.316
414.40 1.317
414.50 1.319
414.60 1.32
414.70 1.322
414.80 1.323
414.90 1.324
415.00 1.325
415.10 1.326
415.20 1.327
415.30 1.328
415.40 1.329
415.50 1.33
415.60 1.331
415.70 1.331
415.80 1.332
415.90 1.333
416.00 1.333
416.10 1.334
416.20 1.334
416.30 1.335
416.40 1.335
416.50 1.336
416.60 1.336
416.70 1.336
416.80 1.337
416.90 1.337
417.00 1.337
417.10 1.338
417.20 1.338
417.30 1.338
417.40 1.338
417.50 1.338
417.60 1.338
417.70 1.338
417.80 1.338
417.90 1.338
418.00 1.338
418.10 1.338
418.20 1.338
418.30 1.338
418.40 1.338
418.50 1.338
418.60 1.338
418.70 1.338
418.80 1.338
418.90 1.338
419.00 1.338
419.10 1.337
419.20 1.337
419.30 1.337
419.40 1.337
419.50 1.337
419.60 1.336
419.70 1.336
419.80 1.336
419.90 1.336
420.00 1.335
420.10 1.335
420.20 1.335
420.30 1.334
420.40 1.334
420.50 1.334
420.60 1.333
420.70 1.333
420.80 1.333
420.90 1.332
421.00 1.332
421.10 1.332
421.20 1.331
421.30 1.331
421.40 1.33
421.50 1.33
421.60 1.329
421.70 1.329
421.80 1.329
421.90 1.328
422.00 1.328
422.10 1.327
422.20 1.327
422.30 1.326
422.40 1.326
422.50 1.325
422.60 1.324
422.70 1.324
422.80 1.323
422.90 1.323
423.00 1.322
423.10 1.322
423.20 1.321
423.30 1.32
423.40 1.32
423.50 1.319
423.60 1.319
423.70 1.318
423.80 1.317
423.90 1.317
424.00 1.316
424.10 1.315
424.20 1.314
424.30 1.314
424.40 1.313
424.50 1.312
424.60 1.312
424.70 1.311
424.80 1.31
424.90 1.309
425.00 1.308
425.10 1.307
425.20 1.307
425.30 1.306
425.40 1.305
425.50 1.304
425.60 1.303
425.70 1.302
425.80 1.301
425.90 1.3
426.00 1.299
426.10 1.298
426.20 1.297
426.30 1.296
426.40 1.295
426.50 1.293
426.60 1.292
426.70 1.291
426.80 1.29
426.90 1.289
427.00 1.287
427.10 1.286
427.20 1.285
427.30 1.283
427.40 1.282
427.50 1.28
427.60 1.279
427.70 1.277
427.80 1.276
427.90 1.274
428.00 1.273
428.10 1.271
428.20 1.269
428.30 1.267
428.40 1.265
428.50 1.263
428.60 1.261
428.70 1.259
428.80 1.257
428.90 1.255
429.00 1.253
429.10 1.25
429.20 1.248
429.30 1.245
429.40 1.243
429.50 1.24
429.60 1.237
429.70 1.234
429.80 1.231
429.90 1.228
430.00 1.225
430.10 1.221
430.20 1.217
430.30 1.214
430.40 1.21
430.50 1.206
430.60 1.201
430.70 1.197
430.80 1.192
430.90 1.187
431.00 1.182
431.10 1.177
431.20 1.171
431.30 1.165
431.40 1.159
431.50 1.153
431.60 1.146
431.70 1.138
431.80 1.131
431.90 1.123
432.00 1.114
432.10 1.105
432.20 1.095
432.30 1.084
432.40 1.073
432.50 1.061
432.60 1.048
432.70 1.034
432.80 1.018
432.90 1.002
433.00 0.9843
433.10 0.9647
433.20 0.9436
433.30 0.9211
433.40 0.8939
433.50 0.8626
433.60 0.8273
433.70 0.7772
433.80 0.7198
433.90 0.6552
434.00 0.5925
434.10 0.5942
434.20 0.6603
434.30 0.724
434.40 0.7803
434.50 0.8291
434.60 0.8633
434.70 0.8935
434.80 0.9198
434.90 0.9415
435.00 0.9617
435.10 0.9806
435.20 0.9973
435.30 1.013
435.40 1.028
435.50 1.041
435.60 1.053
435.70 1.064
435.80 1.075
435.90 1.084
436.00 1.093
436.10 1.102
436.20 1.109
436.30 1.117
436.40 1.123
436.50 1.13
436.60 1.136
436.70 1.141
436.80 1.147
436.90 1.152
437.00 1.156
437.10 1.161
437.20 1.165
437.30 1.169
437.40 1.173
437.50 1.176
437.60 1.179
437.70 1.183
437.80 1.186
437.90 1.188
438.00 1.191
438.10 1.194
438.20 1.196
438.30 1.198
438.40 1.2
438.50 1.202
438.60 1.204
438.70 1.206
438.80 1.208
438.90 1.209
439.00 1.211
439.10 1.212
439.20 1.214
439.30 1.215
439.40 1.216
439.50 1.218
439.60 1.219
439.70 1.22
439.80 1.221
439.90 1.221
440.00 1.222
440.10 1.223
440.20 1.224
440.30 1.225
440.40 1.225
440.50 1.226
440.60 1.226
440.70 1.227
440.80 1.228
440.90 1.228
441.00 1.228
441.10 1.229
441.20 1.229
441.30 1.23
441.40 1.23
441.50 1.23
441.60 1.23
441.70 1.231
441.80 1.231
441.90 1.231
442.00 1.231
442.10 1.231
442.20 1.232
442.30 1.232
442.40 1.232
442.50 1.232
442.60 1.232
442.70 1.232
442.80 1.232
442.90 1.232
443.00 1.232
443.10 1.232
443.20 1.232
443.30 1.232
443.40 1.232
443.50 1.232
443.60 1.232
443.70 1.232
443.80 1.232
443.90 1.231
444.00 1.231
444.10 1.231
444.20 1.231
444.30 1.231
444.40 1.231
444.50 1.23
444.60 1.23
444.70 1.23
444.80 1.23
444.90 1.23
445.00 1.23
445.10 1.229
445.20 1.229
445.30 1.229
445.40 1.229
445.50 1.228
445.60 1.228
445.70 1.228
445.80 1.228
445.90 1.227
446.00 1.227
446.10 1.227
446.20 1.227
446.30 1.226
446.40 1.226
446.50 1.226
446.60 1.225
446.70 1.225
446.80 1.225
446.90 1.225
447.00 1.224
447.10 1.224
447.20 1.224
447.30 1.223
447.40 1.223
447.50 1.223
447.60 1.222
447.70 1.222
447.80 1.222
447.90 1.221
448.00 1.221
448.10 1.221
448.20 1.22
448.30 1.22
448.40 1.22
448.50 1.219
448.60 1.219
448.70 1.219
448.80 1.218
448.90 1.218
449.00 1.217
449.10 1.217
449.20 1.217
449.30 1.216
449.40 1.216
449.50 1.216
449.60 1.215
449.70 1.215
449.80 1.214
449.90 1.214
450.00 1.214
450.10 1.213
450.20 1.213
450.30 1.213
450.40 1.212
450.50 1.212
450.60 1.211
450.70 1.211
450.80 1.211
450.90 1.21
451.00 1.21
451.10 1.209
451.20 1.209
451.30 1.209
451.40 1.208
451.50 1.208
451.60 1.207
451.70 1.207
451.80 1.207
451.90 1.206
452.00 1.206
452.10 1.205
452.20 1.205
452.30 1.205
452.40 1.204
452.50 1.204
452.60 1.203
452.70 1.203
452.80 1.202
452.90 1.202
453.00 1.202
453.10 1.201
453.20 1.201
453.30 1.2
453.40 1.2
453.50 1.199
453.60 1.199
453.70 1.199
453.80 1.198
453.90 1.198
454.00 1.197
454.10 1.197
454.20 1.197
454.30 1.196
454.40 1.196
454.50 1.195
454.60 1.195
454.70 1.194
454.80 1.194
454.90 1.193
455.00 1.193
455.10 1.193
455.20 1.192
455.30 1.192
455.40 1.191
455.50 1.191
455.60 1.19
455.70 1.19
455.80 1.19
455.90 1.189
456.00 1.189
456.10 1.188
456.20 1.188
456.30 1.187
456.40 1.187
456.50 1.187
456.60 1.186
456.70 1.186
456.80 1.185
456.90 1.185
457.00 1.184
457.10 1.184
457.20 1.183
457.30 1.183
457.40 1.183
457.50 1.182
457.60 1.182
457.70 1.181
457.80 1.181
457.90 1.18
458.00 1.18
458.10 1.179
458.20 1.179
458.30 1.179
458.40 1.178
458.50 1.178
458.60 1.177
458.70 1.177
458.80 1.176
458.90 1.176
459.00 1.175
459.10 1.175
459.20 1.175
459.30 1.174
459.40 1.174
459.50 1.173
459.60 1.173
459.70 1.172
459.80 1.172
459.90 1.171
460.00 1.171
460.10 1.171
460.20 1.17
460.30 1.17
460.40 1.169
460.50 1.169
460.60 1.168
460.70 1.168
460.80 1.167
460.90 1.167
461.00 1.166
461.10 1.166
461.20 1.166
461.30 1.165
461.40 1.165
461.50 1.164
461.60 1.164
461.70 1.163
461.80 1.163
461.90 1.162
462.00 1.162
462.10 1.161
462.20 1.161
462.30 1.16
462.40 1.16
462.50 1.16
462.60 1.159
462.70 1.159
462.80 1.158
462.90 1.158
463.00 1.157
463.10 1.157
463.20 1.156
463.30 1.156
463.40 1.155
463.50 1.155
463.60 1.154
463.70 1.154
463.80 1.153
463.90 1.153
464.00 1.153
464.10 1.152
464.20 1.152
464.30 1.151
464.40 1.151
464.50 1.15
464.60 1.15
464.70 1.149
464.80 1.149
464.90 1.148
465.00 1.148
465.10 1.147
465.20 1.147
465.30 1.146
465.40 1.146
465.50 1.145
465.60 1.145
465.70 1.144
465.80 1.144
465.90 1.144
466.00 1.143
466.10 1.143
466.20 1.142
466.30 1.142
466.40 1.141
466.50 1.141
466.60 1.14
466.70 1.14
466.80 1.139
466.90 1.139
467.00 1.138
467.10 1.138
467.20 1.137
467.30 1.137
467.40 1.136
467.50 1.136
467.60 1.135
467.70 1.135
467.80 1.134
467.90 1.134
468.00 1.133
468.10 1.133
468.20 1.132
468.30 1.132
468.40 1.131
468.50 1.131
468.60 1.13
468.70 1.13
468.80 1.129
468.90 1.129
469.00 1.128
469.10 1.128
469.20 1.127
469.30 1.127
469.40 1.126
469.50 1.126
469.60 1.125
469.70 1.124
469.80 1.124
469.90 1.123
470.00 1.123
470.10 1.122
470.20 1.122
470.30 1.121
470.40 1.121
470.50 1.12
470.60 1.12
470.70 1.119
470.80 1.119
470.90 1.118
471.00 1.118
471.10 1.117
471.20 1.116
471.30 1.116
471.40 1.115
471.50 1.115
471.60 1.114
471.70 1.114
471.80 1.113
471.90 1.112
472.00 1.112
472.10 1.111
472.20 1.111
472.30 1.11
472.40 1.109
472.50 1.109
472.60 1.108
472.70 1.108
472.80 1.107
472.90 1.107
473.00 1.106
473.10 1.105
473.20 1.105
473.30 1.104
473.40 1.103
473.50 1.103
473.60 1.102
473.70 1.101
473.80 1.101
473.90 1.1
474.00 1.1
474.10 1.099
474.20 1.098
474.30 1.097
474.40 1.097
474.50 1.096
474.60 1.095
474.70 1.095
474.80 1.094
474.90 1.093
475.00 1.093
475.10 1.092
475.20 1.091
475.30 1.09
475.40 1.09
475.50 1.089
475.60 1.088
475.70 1.087
475.80 1.086
475.90 1.086
476.00 1.085
476.10 1.084
476.20 1.083
476.30 1.082
476.40 1.082
476.50 1.081
476.60 1.08
476.70 1.079
476.80 1.078
476.90 1.077
477.00 1.076
477.10 1.075
477.20 1.074
477.30 1.073
477.40 1.072
477.50 1.071
477.60 1.07
477.70 1.069
477.80 1.068
477.90 1.067
478.00 1.066
478.10 1.065
478.20 1.064
478.30 1.063
478.40 1.061
478.50 1.06
478.60 1.059
478.70 1.058
478.80 1.056
478.90 1.055
479.00 1.054
479.10 1.053
479.20 1.051
479.30 1.05
479.40 1.048
479.50 1.047
479.60 1.045
479.70 1.044
479.80 1.042
479.90 1.04
480.00 1.039
480.10 1.037
480.20 1.035
480.30 1.033
480.40 1.031
480.50 1.029
480.60 1.027
480.70 1.025
480.80 1.023
480.90 1.021
481.00 1.019
481.10 1.017
481.20 1.015
481.30 1.012
481.40 1.009
481.50 1.006
481.60 1.003
481.70 1.001
481.80 0.9978
481.90 0.995
482.00 0.9922
482.10 0.9894
482.20 0.9857
482.30 0.9815
482.40 0.9774
482.50 0.9733
482.60 0.9691
482.70 0.965
482.80 0.9609
482.90 0.9567
483.00 0.9526
483.10 0.9485
483.20 0.9425
483.30 0.9357
483.40 0.9288
483.50 0.9219
483.60 0.9151
483.70 0.9083
483.80 0.9014
483.90 0.8946
484.00 0.8878
484.10 0.8809
484.20 0.8712
484.30 0.8601
484.40 0.8489
484.50 0.8378
484.60 0.8268
484.70 0.8118
484.80 0.7949
484.90 0.7781
485.00 0.7613
485.10 0.7445
485.20 0.7236
485.30 0.7007
485.40 0.6749
485.50 0.6478
485.60 0.6175
485.70 0.5859
485.80 0.5505
485.90 0.5134
486.00 0.4721
486.10 0.4263
486.20 0.4408
486.30 0.4868
486.40 0.5254
486.50 0.5623
486.60 0.5954
486.70 0.6267
486.80 0.6549
486.90 0.6817
487.00 0.7054
487.10 0.7278
487.20 0.7459
487.30 0.7621
487.40 0.7783
487.50 0.7945
487.60 0.8107
487.70 0.8229
487.80 0.8333
487.90 0.8437
488.00 0.8541
488.10 0.8645
488.20 0.872
488.30 0.8781
488.40 0.8842
488.50 0.8903
488.60 0.8963
488.70 0.9024
488.80 0.9085
488.90 0.9145
489.00 0.9206
489.10 0.9266
489.20 0.9308
489.30 0.9342
489.40 0.9375
489.50 0.9408
489.60 0.9441
489.70 0.9474
489.80 0.9507
489.90 0.954
490.00 0.9573
490.10 0.9606
490.20 0.963
490.30 0.965
490.40 0.9669
490.50 0.9689
490.60 0.9708
490.70 0.9728
490.80 0.9748
490.90 0.9767
491.00 0.9787
491.10 0.9806
491.20 0.982
491.30 0.9832
491.40 0.9844
491.50 0.9856
491.60 0.9868
491.70 0.9879
491.80 0.9891
491.90 0.9903
492.00 0.9915
492.10 0.9926
492.20 0.9935
492.30 0.9942
492.40 0.9949
492.50 0.9956
492.60 0.9963
492.70 0.997
492.80 0.9977
492.90 0.9984
493.00 0.9991
493.10 0.9998
493.20 1
493.30 1.001
493.40 1.001
493.50 1.001
493.60 1.002
493.70 1.002
493.80 1.003
493.90 1.003
494.00 1.003
494.10 1.004
494.20 1.004
494.30 1.004
494.40 1.004
494.50 1.005
494.60 1.005
494.70 1.005
494.80 1.005
494.90 1.005
495.00 1.005
495.10 1.006
495.20 1.006
495.30 1.006
495.40 1.006
495.50 1.006
495.60 1.006
495.70 1.006
495.80 1.006
495.90 1.006
496.00 1.006
496.10 1.006
496.20 1.006
496.30 1.006
496.40 1.006
496.50 1.006
496.60 1.006
496.70 1.006
496.80 1.006
496.90 1.006
497.00 1.005
497.10 1.005
497.20 1.005
497.30 1.005
497.40 1.005
497.50 1.005
497.60 1.005
497.70 1.005
497.80 1.004
497.90 1.004
498.00 1.004
498.10 1.004
498.20 1.004
498.30 1.004
498.40 1.003
498.50 1.003
498.60 1.003
498.70 1.003
498.80 1.003
498.90 1.002
499.00 1.002
499.10 1.002
499.20 1.002
499.30 1.002
499.40 1.001
499.50 1.001
499.60 1.001
499.70 1.001
499.80 1
499.90 1
500.00 1
500.10 0.9998
500.20 0.9995
500.30 0.9992
500.40 0.999
500.50 0.9987
500.60 0.9985
500.70 0.9982
500.80 0.9979
500.90 0.9977
501.00 0.9974
501.10 0.9972
501.20 0.9969
501.30 0.9966
501.40 0.9963
501.50 0.996
501.60 0.9957
501.70 0.9955
501.80 0.9952
501.90 0.9949
502.00 0.9946
502.10 0.9943
502.20 0.994
502.30 0.9937
502.40 0.9934
502.50 0.9931
502.60 0.9928
502.70 0.9925
502.80 0.9922
502.90 0.9919
503.00 0.9916
503.10 0.9913
503.20 0.991
503.30 0.9907
503.40 0.9904
503.50 0.9901
503.60 0.9898
503.70 0.9894
503.80 0.9891
503.90 0.9888
504.00 0.9885
504.10 0.9882
504.20 0.9879
504.30 0.9875
504.40 0.9872
504.50 0.9869
504.60 0.9866
504.70 0.9862
504.80 0.9859
504.90 0.9856
505.00 0.9853
505.10 0.985
505.20 0.9846
505.30 0.9843
505.40 0.984
505.50 0.9836
505.60 0.9833
505.70 0.983
505.80 0.9826
505.90 0.9823
506.00 0.982
506.10 0.9816
506.20 0.9813
506.30 0.981
506.40 0.9806
506.50 0.9803
506.60 0.9799
506.70 0.9796
506.80 0.9793
506.90 0.9789
507.00 0.9786
507.10 0.9783
507.20 0.9779
507.30 0.9776
507.40 0.9772
507.50 0.9769
507.60 0.9766
507.70 0.9762
507.80 0.9759
507.90 0.9755
508.00 0.9752
508.10 0.9749
508.20 0.9745
508.30 0.9742
508.40 0.9738
508.50 0.9735
508.60 0.9731
508.70 0.9728
508.80 0.9724
508.90 0.9721
509.00 0.9717
509.10 0.9714
509.20 0.9711
509.30 0.9707
509.40 0.9704
509.50 0.97
509.60 0.9697
509.70 0.9693
509.80 0.969
509.90 0.9686
510.00 0.9683
510.10 0.9679
510.20 0.9676
510.30 0.9672
510.40 0.9669
510.50 0.9665
510.60 0.9662
510.70 0.9658
510.80 0.9655
510.90 0.9651
511.00 0.9648
511.10 0.9644
511.20 0.9641
511.30 0.9637
511.40 0.9633
511.50 0.963
511.60 0.9626
511.70 0.9623
511.80 0.9619
511.90 0.9616
512.00 0.9612
512.10 0.9609
512.20 0.9605
512.30 0.9602
512.40 0.9598
512.50 0.9595
512.60 0.9591
512.70 0.9588
512.80 0.9584
512.90 0.958
513.00 0.9577
513.10 0.9573
513.20 0.957
513.30 0.9566
513.40 0.9563
513.50 0.9559
513.60 0.9556
513.70 0.9552
513.80 0.9549
513.90 0.9545
514.00 0.9541
514.10 0.9538
514.20 0.9534
514.30 0.9531
514.40 0.9527
514.50 0.9524
514.60 0.952
514.70 0.9517
514.80 0.9513
514.90 0.951
515.00 0.9506
515.10 0.9503
515.20 0.9499
515.30 0.9496
515.40 0.9492
515.50 0.9489
515.60 0.9485
515.70 0.9481
515.80 0.9478
515.90 0.9474
516.00 0.9471
516.10 0.9467
516.20 0.9464
516.30 0.946
516.40 0.9457
516.50 0.9453
516.60 0.9449
516.70 0.9446
516.80 0.9442
516.90 0.9439
517.00 0.9435
517.10 0.9432
517.20 0.9428
517.30 0.9425
517.40 0.9421
517.50 0.9418
517.60 0.9414
517.70 0.9411
517.80 0.9407
517.90 0.9404
518.00 0.94
518.10 0.9397
518.20 0.9393
518.30 0.939
518.40 0.9386
518.50 0.9383
518.60 0.9379
518.70 0.9375
518.80 0.9372
518.90 0.9368
519.00 0.9365
519.10 0.9361
519.20 0.9358
519.30 0.9354
519.40 0.9351
519.50 0.9347
519.60 0.9344
519.70 0.934
519.80 0.9337
519.90 0.9333
520.00 0.933
520.10 0.9326
520.20 0.9322
520.30 0.9319
520.40 0.9315
520.50 0.9312
520.60 0.9308
520.70 0.9305
520.80 0.9301
520.90 0.9298
521.00 0.9294
521.10 0.9291
521.20 0.9287
521.30 0.9284
521.40 0.928
521.50 0.9277
521.60 0.9273
521.70 0.927
521.80 0.9266
521.90 0.9263
522.00 0.9259
522.10 0.9256
522.20 0.9252
522.30 0.9249
522.40 0.9245
522.50 0.9241
522.60 0.9238
522.70 0.9234
522.80 0.9231
522.90 0.9227
523.00 0.9224
523.10 0.922
523.20 0.9217
523.30 0.9213
523.40 0.921
523.50 0.9206
523.60 0.9203
523.70 0.9199
523.80 0.9196
523.90 0.9192
524.00 0.9189
524.10 0.9185
524.20 0.9182
524.30 0.9178
524.40 0.9175
524.50 0.9171
524.60 0.9168
524.70 0.9164
524.80 0.9161
524.90 0.9157
525.00 0.9154
525.10 0.915
525.20 0.9147
525.30 0.9143
525.40 0.914
525.50 0.9136
525.60 0.9133
525.70 0.9129
525.80 0.9126
525.90 0.9122
526.00 0.9119
526.10 0.9115
526.20 0.9112
526.30 0.9108
526.40 0.9105
526.50 0.9101
526.60 0.9098
526.70 0.9094
526.80 0.9091
526.90 0.9088
527.00 0.9084
527.10 0.9081
527.20 0.9077
527.30 0.9074
527.40 0.907
527.50 0.9067
527.60 0.9063
527.70 0.906
527.80 0.9056
527.90 0.9053
528.00 0.9049
528.10 0.9046
528.20 0.9042
528.30 0.9039
528.40 0.9035
528.50 0.9032
528.60 0.9028
528.70 0.9025
528.80 0.9021
528.90 0.9018
529.00 0.9015
529.10 0.9011
529.20 0.9008
529.30 0.9004
529.40 0.9001
529.50 0.8997
529.60 0.8994
529.70 0.899
529.80 0.8987
529.90 0.8984
530.00 0.898
530.10 0.8977
530.20 0.8973
530.30 0.897
530.40 0.8966
530.50 0.8963
530.60 0.8959
530.70 0.8956
530.80 0.8952
530.90 0.8949
531.00 0.8945
531.10 0.8942
531.20 0.8939
531.30 0.8935
531.40 0.8932
531.50 0.8928
531.60 0.8925
531.70 0.8922
531.80 0.8918
531.90 0.8915
532.00 0.8911
532.10 0.8908
532.20 0.8904
532.30 0.8901
532.40 0.8898
532.50 0.8894
532.60 0.8891
532.70 0.8887
532.80 0.8884
532.90 0.888
533.00 0.8877
533.10 0.8874
533.20 0.887
533.30 0.8867
533.40 0.8863
533.50 0.886
533.60 0.8856
533.70 0.8853
533.80 0.885
533.90 0.8846
534.00 0.8843
534.10 0.8839
534.20 0.8836
534.30 0.8833
534.40 0.8829
534.50 0.8826
534.60 0.8822
534.70 0.8819
534.80 0.8816
534.90 0.8812
535.00 0.8809
535.10 0.8805
535.20 0.8802
535.30 0.8799
535.40 0.8795
535.50 0.8792
535.60 0.8788
535.70 0.8785
535.80 0.8782
535.90 0.8778
536.00 0.8775
536.10 0.8772
536.20 0.8768
536.30 0.8765
536.40 0.8761
536.50 0.8758
536.60 0.8755
536.70 0.8751
536.80 0.8748
536.90 0.8745
537.00 0.8741
537.10 0.8738
537.20 0.8734
537.30 0.8731
537.40 0.8728
537.50 0.8724
537.60 0.8721
537.70 0.8718
537.80 0.8714
537.90 0.8711
538.00 0.8708
538.10 0.8704
538.20 0.8701
538.30 0.8698
538.40 0.8694
538.50 0.8691
538.60 0.8688
538.70 0.8684
538.80 0.8681
538.90 0.8678
539.00 0.8674
539.10 0.8671
539.20 0.8668
539.30 0.8664
539.40 0.8661
539.50 0.8657
539.60 0.8654
539.70 0.8651
539.80 0.8647
539.90 0.8644
540.00 0.8641
540.10 0.8637
540.20 0.8634
540.30 0.8631
540.40 0.8627
540.50 0.8624
540.60 0.8621
540.70 0.8617
540.80 0.8614
540.90 0.8611
541.00 0.8607
541.10 0.8604
541.20 0.8601
541.30 0.8598
541.40 0.8594
541.50 0.8591
541.60 0.8588
541.70 0.8584
541.80 0.8581
541.90 0.8578
542.00 0.8574
542.10 0.8571
542.20 0.8568
542.30 0.8564
542.40 0.8561
542.50 0.8558
542.60 0.8555
542.70 0.8551
542.80 0.8548
542.90 0.8545
543.00 0.8541
543.10 0.8538
543.20 0.8535
543.30 0.8532
543.40 0.8528
543.50 0.8525
543.60 0.8522
543.70 0.8518
543.80 0.8515
543.90 0.8512
544.00 0.8508
544.10 0.8505
544.20 0.8502
544.30 0.8499
544.40 0.8495
544.50 0.8492
544.60 0.8489
544.70 0.8485
544.80 0.8482
544.90 0.8479
545.00 0.8476
545.10 0.8472
545.20 0.8469
545.30 0.8466
545.40 0.8463
545.50 0.8459
545.60 0.8456
545.70 0.8453
545.80 0.845
545.90 0.8446
546.00 0.8443
546.10 0.844
546.20 0.8437
546.30 0.8433
546.40 0.843
546.50 0.8427
546.60 0.8424
546.70 0.8421
546.80 0.8418
546.90 0.8415
547.00 0.8412
547.10 0.8408
547.20 0.8405
547.30 0.8402
547.40 0.8399
547.50 0.8395
547.60 0.8392
547.70 0.8389
547.80 0.8386
547.90 0.8382
548.00 0.8379
548.10 0.8376
548.20 0.8373
548.30 0.8369
548.40 0.8366
548.50 0.8363
548.60 0.836
548.70 0.8356
548.80 0.8353
548.90 0.835
549.00 0.8347
549.10 0.8344
549.20 0.834
549.30 0.8337
549.40 0.8334
549.50 0.8331
549.60 0.8328
549.70 0.8324
549.80 0.8321
549.90 0.8318
550.00 0.8315
550.10 0.8312
550.20 0.8308
550.30 0.8305
550.40 0.8302
550.50 0.8299
550.60 0.8296
550.70 0.8292
550.80 0.8289
550.90 0.8286
551.00 0.8283
551.10 0.8279
551.20 0.8276
551.30 0.8273
551.40 0.827
551.50 0.8267
551.60 0.8263
551.70 0.826
551.80 0.8257
551.90 0.8254
552.00 0.8251
552.10 0.8248
552.20 0.8244
552.30 0.8241
552.40 0.8238
552.50 0.8235
552.60 0.8232
552.70 0.8229
552.80 0.8225
552.90 0.8222
553.00 0.8219
553.10 0.8216
553.20 0.8213
553.30 0.821
553.40 0.8206
553.50 0.8203
553.60 0.82
553.70 0.8197
553.80 0.8194
553.90 0.8191
554.00 0.8187
554.10 0.8184
554.20 0.8181
554.30 0.8178
554.40 0.8175
554.50 0.8172
554.60 0.8168
554.70 0.8165
554.80 0.8162
554.90 0.8159
555.00 0.8156
555.10 0.8153
555.20 0.815
555.30 0.8146
555.40 0.8143
555.50 0.814
555.60 0.8137
555.70 0.8134
555.80 0.8131
555.90 0.8128
556.00 0.8124
556.10 0.8121
556.20 0.8118
556.30 0.8115
556.40 0.8112
556.50 0.8109
556.60 0.8106
556.70 0.8103
556.80 0.8099
556.90 0.8096
557.00 0.8093
557.10 0.809
557.20 0.8087
557.30 0.8084
557.40 0.8081
557.50 0.8078
557.60 0.8075
557.70 0.8071
557.80 0.8068
557.90 0.8065
558.00 0.8062
558.10 0.8059
558.20 0.8056
558.30 0.8053
558.40 0.805
558.50 0.8047
558.60 0.8044
558.70 0.8041
558.80 0.8037
558.90 0.8034
559.00 0.8031
559.10 0.8028
559.20 0.8025
559.30 0.8022
559.40 0.8019
559.50 0.8016
559.60 0.8013
559.70 0.801
559.80 0.8007
559.90 0.8003
560.00 0.8
560.10 0.7997
560.20 0.7994
560.30 0.7991
560.40 0.7988
560.50 0.7985
560.60 0.7982
560.70 0.7979
560.80 0.7976
560.90 0.7973
561.00 0.797
561.10 0.7967
561.20 0.7963
561.30 0.796
561.40 0.7957
561.50 0.7954
561.60 0.7951
561.70 0.7948
561.80 0.7945
561.90 0.7942
562.00 0.7939
562.10 0.7936
562.20 0.7933
562.30 0.793
562.40 0.7927
562.50 0.7924
562.60 0.7921
562.70 0.7918
562.80 0.7915
562.90 0.7912
563.00 0.7908
563.10 0.7905
563.20 0.7902
563.30 0.7899
563.40 0.7896
563.50 0.7893
563.60 0.789
563.70 0.7887
563.80 0.7884
563.90 0.7881
564.00 0.7878
564.10 0.7875
564.20 0.7872
564.30 0.7869
564.40 0.7866
564.50 0.7863
564.60 0.786
564.70 0.7857
564.80 0.7854
564.90 0.7851
565.00 0.7848
565.10 0.7845
565.20 0.7842
565.30 0.7839
565.40 0.7836
565.50 0.7833
565.60 0.783
565.70 0.7827
565.80 0.7824
565.90 0.7821
566.00 0.7818
566.10 0.7815
566.20 0.7812
566.30 0.7809
566.40 0.7806
566.50 0.7803
566.60 0.78
566.70 0.7797
566.80 0.7794
566.90 0.7791
567.00 0.7788
567.10 0.7785
567.20 0.7782
567.30 0.7779
567.40 0.7776
567.50 0.7773
567.60 0.777
567.70 0.7767
567.80 0.7764
567.90 0.7761
568.00 0.7758
568.10 0.7755
568.20 0.7752
568.30 0.7749
568.40 0.7746
568.50 0.7743
568.60 0.774
568.70 0.7737
568.80 0.7734
568.90 0.7731
569.00 0.7728
569.10 0.7725
569.20 0.7722
569.30 0.7719
569.40 0.7716
569.50 0.7713
569.60 0.771
569.70 0.7707
569.80 0.7705
569.90 0.7702
570.00 0.7699
570.10 0.7696
570.20 0.7693
570.30 0.769
570.40 0.7687
570.50 0.7684
570.60 0.7681
570.70 0.7678
570.80 0.7675
570.90 0.7672
571.00 0.7669
571.10 0.7666
571.20 0.7663
571.30 0.766
571.40 0.7657
571.50 0.7654
571.60 0.7651
571.70 0.7648
571.80 0.7646
571.90 0.7643
572.00 0.764
572.10 0.7637
572.20 0.7634
572.30 0.7631
572.40 0.7628
572.50 0.7625
572.60 0.7622
572.70 0.7619
572.80 0.7616
572.90 0.7613
573.00 0.761
573.10 0.7608
573.20 0.7605
573.30 0.7602
573.40 0.7599
573.50 0.7596
573.60 0.7593
573.70 0.759
573.80 0.7587
573.90 0.7584
574.00 0.7581
574.10 0.7578
574.20 0.7575
574.30 0.7573
574.40 0.757
574.50 0.7567
574.60 0.7564
574.70 0.7561
574.80 0.7558
574.90 0.7555
575.00 0.7552
575.10 0.7549
575.20 0.7546
575.30 0.7544
575.40 0.7541
575.50 0.7538
575.60 0.7535
575.70 0.7532
575.80 0.7529
575.90 0.7526
576.00 0.7523
576.10 0.752
576.20 0.7518
576.30 0.7515
576.40 0.7512
576.50 0.7509
576.60 0.7506
576.70 0.7503
576.80 0.75
576.90 0.7498
577.00 0.7495
577.10 0.7492
577.20 0.7489
577.30 0.7486
577.40 0.7483
577.50 0.748
577.60 0.7478
577.70 0.7475
577.80 0.7472
577.90 0.7469
578.00 0.7466
578.10 0.7463
578.20 0.746
578.30 0.7458
578.40 0.7455
578.50 0.7452
578.60 0.7449
578.70 0.7446
578.80 0.7443
578.90 0.744
579.00 0.7437
579.10 0.7435
579.20 0.7432
579.30 0.7429
579.40 0.7426
579.50 0.7423
579.60 0.742
579.70 0.7418
579.80 0.7415
579.90 0.7412
580.00 0.7409
580.10 0.7406
580.20 0.7404
580.30 0.7401
580.40 0.7398
580.50 0.7395
580.60 0.7392
580.70 0.7389
580.80 0.7387
580.90 0.7384
581.00 0.7381
581.10 0.7378
581.20 0.7375
581.30 0.7372
581.40 0.737
581.50 0.7367
581.60 0.7364
581.70 0.7361
581.80 0.7358
581.90 0.7356
582.00 0.7353
582.10 0.735
582.20 0.7347
582.30 0.7344
582.40 0.7341
582.50 0.7339
582.60 0.7336
582.70 0.7333
582.80 0.733
582.90 0.7327
583.00 0.7325
583.10 0.7322
583.20 0.7319
583.30 0.7316
583.40 0.7313
583.50 0.7311
583.60 0.7308
583.70 0.7305
583.80 0.7302
583.90 0.73
584.00 0.7297
584.10 0.7294
584.20 0.7291
584.30 0.7288
584.40 0.7286
584.50 0.7283
584.60 0.728
584.70 0.7277
584.80 0.7274
584.90 0.7272
585.00 0.7269
585.10 0.7266
585.20 0.7263
585.30 0.7261
585.40 0.7258
585.50 0.7255
585.60 0.7252
585.70 0.7249
585.80 0.7247
585.90 0.7244
586.00 0.7241
586.10 0.7238
586.20 0.7236
586.30 0.7233
586.40 0.723
586.50 0.7227
586.60 0.7225
586.70 0.7222
586.80 0.7219
586.90 0.7216
587.00 0.7214
587.10 0.7211
587.20 0.7208
587.30 0.7205
587.40 0.7203
587.50 0.72
587.60 0.7197
587.70 0.7194
587.80 0.7192
587.90 0.7189
588.00 0.7186
588.10 0.7183
588.20 0.7181
588.30 0.7178
588.40 0.7175
588.50 0.7173
588.60 0.717
588.70 0.7167
588.80 0.7164
588.90 0.7162
589.00 0.7159
589.10 0.7156
589.20 0.7153
589.30 0.7151
589.40 0.7148
589.50 0.7145
589.60 0.7142
589.70 0.714
589.80 0.7137
589.90 0.7134
590.00 0.7132
590.10 0.7129
590.20 0.7126
590.30 0.7123
590.40 0.7121
590.50 0.7118
590.60 0.7115
590.70 0.7113
590.80 0.711
590.90 0.7107
591.00 0.7105
591.10 0.7102
591.20 0.7099
591.30 0.7096
591.40 0.7094
591.50 0.7091
591.60 0.7088
591.70 0.7085
591.80 0.7083
591.90 0.708
592.00 0.7077
592.10 0.7075
592.20 0.7072
592.30 0.7069
592.40 0.7067
592.50 0.7064
592.60 0.7061
592.70 0.7059
592.80 0.7056
592.90 0.7053
593.00 0.705
593.10 0.7048
593.20 0.7045
593.30 0.7042
593.40 0.704
593.50 0.7037
593.60 0.7034
593.70 0.7032
593.80 0.7029
593.90 0.7026
594.00 0.7024
594.10 0.7021
594.20 0.7018
594.30 0.7016
594.40 0.7013
594.50 0.701
594.60 0.7008
594.70 0.7005
594.80 0.7002
594.90 0.7
595.00 0.6997
595.10 0.6994
595.20 0.6992
595.30 0.6989
595.40 0.6986
595.50 0.6984
595.60 0.6981
595.70 0.6978
595.80 0.6976
595.90 0.6973
596.00 0.697
596.10 0.6968
596.20 0.6965
596.30 0.6961
596.40 0.6958
596.50 0.6955
596.60 0.6951
596.70 0.6948
596.80 0.6945
596.90 0.6941
597.00 0.6938
597.10 0.6935
597.20 0.6932
597.30 0.6929
597.40 0.6927
597.50 0.6924
597.60 0.6921
597.70 0.6918
597.80 0.6916
597.90 0.6913
598.00 0.691
598.10 0.6908
598.20 0.6905
598.30 0.6902
598.40 0.69
598.50 0.6897
598.60 0.6895
598.70 0.6892
598.80 0.6889
598.90 0.6887
599.00 0.6884
599.10 0.6881
599.20 0.6879
599.30 0.6876
599.40 0.6873
599.50 0.6871
599.60 0.6868
599.70 0.6865
599.80 0.6863
599.90 0.686
600.00 0.6858
600.10 0.6855
600.20 0.6852
600.30 0.685
600.40 0.6847
600.50 0.6844
600.60 0.6842
600.70 0.6839
600.80 0.6836
600.90 0.6834
601.00 0.6831
601.10 0.6829
601.20 0.6826
601.30 0.6823
601.40 0.6821
601.50 0.6818
601.60 0.6815
601.70 0.6813
601.80 0.681
601.90 0.6807
602.00 0.6805
602.10 0.6802
602.20 0.68
602.30 0.6797
602.40 0.6794
602.50 0.6792
602.60 0.6789
602.70 0.6786
602.80 0.6784
602.90 0.6781
603.00 0.6779
603.10 0.6776
603.20 0.6773
603.30 0.6771
603.40 0.6768
603.50 0.6766
603.60 0.6763
603.70 0.676
603.80 0.6758
603.90 0.6755
604.00 0.6753
604.10 0.675
604.20 0.6747
604.30 0.6745
604.40 0.6742
604.50 0.6739
604.60 0.6737
604.70 0.6734
604.80 0.6732
604.90 0.6729
605.00 0.6726
605.10 0.6724
605.20 0.6721
605.30 0.6719
605.40 0.6716
605.50 0.6714
605.60 0.6711
605.70 0.6708
605.80 0.6706
605.90 0.6703
606.00 0.6701
606.10 0.6698
606.20 0.6695
606.30 0.6693
606.40 0.669
606.50 0.6688
606.60 0.6685
606.70 0.6683
606.80 0.668
606.90 0.6677
607.00 0.6675
607.10 0.6672
607.20 0.667
607.30 0.6667
607.40 0.6664
607.50 0.6662
607.60 0.6659
607.70 0.6657
607.80 0.6654
607.90 0.6652
608.00 0.6649
608.10 0.6646
608.20 0.6644
608.30 0.6641
608.40 0.6639
608.50 0.6636
608.60 0.6633
608.70 0.6631
608.80 0.6628
608.90 0.6626
609.00 0.6623
609.10 0.662
609.20 0.6618
609.30 0.6615
609.40 0.6613
609.50 0.661
609.60 0.6608
609.70 0.6605
609.80 0.6602
609.90 0.66
610.00 0.6597
610.10 0.6595
610.20 0.6592
610.30 0.659
610.40 0.6587
610.50 0.6584
610.60 0.6582
610.70 0.6579
610.80 0.6577
610.90 0.6574
611.00 0.6571
611.10 0.6569
611.20 0.6566
611.30 0.6564
611.40 0.6561
611.50 0.6558
611.60 0.6556
611.70 0.6553
611.80 0.6551
611.90 0.6548
612.00 0.6545
612.10 0.6543
612.20 0.654
612.30 0.6538
612.40 0.6535
612.50 0.6532
612.60 0.653
612.70 0.6527
612.80 0.6525
612.90 0.6522
613.00 0.6519
613.10 0.6517
613.20 0.6514
613.30 0.6512
613.40 0.6509
613.50 0.6506
613.60 0.6504
613.70 0.6501
613.80 0.6499
613.90 0.6496
614.00 0.6493
614.10 0.6491
614.20 0.6488
614.30 0.6486
614.40 0.6483
614.50 0.648
614.60 0.6478
614.70 0.6475
614.80 0.6473
614.90 0.647
615.00 0.6467
615.10 0.6465
615.20 0.6462
615.30 0.646
615.40 0.6457
615.50 0.6454
615.60 0.6452
615.70 0.6449
615.80 0.6447
615.90 0.6444
616.00 0.6441
616.10 0.6439
616.20 0.6436
616.30 0.6434
616.40 0.6431
616.50 0.6428
616.60 0.6426
616.70 0.6423
616.80 0.6421
616.90 0.6418
617.00 0.6415
617.10 0.6413
617.20 0.641
617.30 0.6408
617.40 0.6405
617.50 0.6402
617.60 0.64
617.70 0.6397
617.80 0.6395
617.90 0.6392
618.00 0.6389
618.10 0.6387
618.20 0.6384
618.30 0.6382
618.40 0.6379
618.50 0.6377
618.60 0.6374
618.70 0.6372
618.80 0.6369
618.90 0.6366
619.00 0.6364
619.10 0.6361
619.20 0.6359
619.30 0.6356
619.40 0.6354
619.50 0.6351
619.60 0.6349
619.70 0.6346
619.80 0.6344
619.90 0.6341
620.00 0.6338
620.10 0.6336
620.20 0.6333
620.30 0.6331
620.40 0.6328
620.50 0.6326
620.60 0.6323
620.70 0.6321
620.80 0.6318
620.90 0.6316
621.00 0.6313
621.10 0.631
621.20 0.6308
621.30 0.6305
621.40 0.6303
621.50 0.63
621.60 0.6298
621.70 0.6295
621.80 0.6293
621.90 0.629
622.00 0.6288
622.10 0.6285
622.20 0.6283
622.30 0.628
622.40 0.6278
622.50 0.6275
622.60 0.6272
622.70 0.627
622.80 0.6267
622.90 0.6265
623.00 0.6262
623.10 0.626
623.20 0.6257
623.30 0.6255
623.40 0.6252
623.50 0.625
623.60 0.6247
623.70 0.6244
623.80 0.6242
623.90 0.6239
624.00 0.6237
624.10 0.6234
624.20 0.6232
624.30 0.6229
624.40 0.6227
624.50 0.6224
624.60 0.6221
624.70 0.6219
624.80 0.6216
624.90 0.6214
625.00 0.6211
625.10 0.6209
625.20 0.6206
625.30 0.6203
625.40 0.6201
625.50 0.6198
625.60 0.6196
625.70 0.6193
625.80 0.6191
625.90 0.6188
626.00 0.6185
626.10 0.6183
626.20 0.618
626.30 0.6178
626.40 0.6175
626.50 0.6172
626.60 0.617
626.70 0.6167
626.80 0.6165
626.90 0.6162
627.00 0.6159
627.10 0.6157
627.20 0.6154
627.30 0.6152
627.40 0.6149
627.50 0.6146
627.60 0.6144
627.70 0.6141
627.80 0.6139
627.90 0.6136
628.00 0.6133
628.10 0.6131
628.20 0.6128
628.30 0.6125
628.40 0.6123
628.50 0.612
628.60 0.6118
628.70 0.6115
628.80 0.6112
628.90 0.611
629.00 0.6107
629.10 0.6105
629.20 0.6102
629.30 0.6099
629.40 0.6097
629.50 0.6094
629.60 0.6091
629.70 0.6089
629.80 0.6086
629.90 0.6084
630.00 0.6081
630.10 0.6078
630.20 0.6076
630.30 0.6073
630.40 0.607
630.50 0.6068
630.60 0.6065
630.70 0.6062
630.80 0.606
630.90 0.6057
631.00 0.6054
631.10 0.6052
631.20 0.6049
631.30 0.6046
631.40 0.6044
631.50 0.6041
631.60 0.6038
631.70 0.6036
631.80 0.6033
631.90 0.603
632.00 0.6027
632.10 0.6025
632.20 0.6022
632.30 0.6019
632.40 0.6016
632.50 0.6014
632.60 0.6011
632.70 0.6008
632.80 0.6006
632.90 0.6003
633.00 0.6
633.10 0.5997
633.20 0.5995
633.30 0.5992
633.40 0.5989
633.50 0.5986
633.60 0.5983
633.70 0.5981
633.80 0.5978
633.90 0.5975
634.00 0.5972
634.10 0.5969
634.20 0.5967
634.30 0.5964
634.40 0.5961
634.50 0.5958
634.60 0.5955
634.70 0.5952
634.80 0.595
634.90 0.5947
635.00 0.5944
635.10 0.5941
635.20 0.5938
635.30 0.5935
635.40 0.5932
635.50 0.5929
635.60 0.5926
635.70 0.5923
635.80 0.592
635.90 0.5918
636.00 0.5915
636.10 0.5912
636.20 0.5909
636.30 0.5906
636.40 0.5903
636.50 0.59
636.60 0.5897
636.70 0.5894
636.80 0.5891
636.90 0.5888
637.00 0.5885
637.10 0.5882
637.20 0.5879
637.30 0.5876
637.40 0.5872
637.50 0.5869
637.60 0.5866
637.70 0.5863
637.80 0.586
637.90 0.5857
638.00 0.5854
638.10 0.5851
638.20 0.5848
638.30 0.5845
638.40 0.5841
638.50 0.5838
638.60 0.5835
638.70 0.5832
638.80 0.5828
638.90 0.5825
639.00 0.5822
639.10 0.5819
639.20 0.5816
639.30 0.5812
639.40 0.5809
639.50 0.5805
639.60 0.5802
639.70 0.5799
639.80 0.5795
639.90 0.5792
640.00 0.5788
640.10 0.5785
640.20 0.5782
640.30 0.5778
640.40 0.5775
640.50 0.5771
640.60 0.5767
640.70 0.5764
640.80 0.576
640.90 0.5757
641.00 0.5753
641.10 0.575
641.20 0.5746
641.30 0.5742
641.40 0.5738
641.50 0.5735
641.60 0.5731
641.70 0.5727
641.80 0.5723
641.90 0.5719
642.00 0.5715
642.10 0.5712
642.20 0.5708
642.30 0.5704
642.40 0.57
642.50 0.5696
642.60 0.5691
642.70 0.5687
642.80 0.5683
642.90 0.5679
643.00 0.5675
643.10 0.5671
643.20 0.5667
643.30 0.5663
643.40 0.5658
643.50 0.5654
643.60 0.5649
643.70 0.5644
643.80 0.564
643.90 0.5635
644.00 0.5631
644.10 0.5626
644.20 0.5622
644.30 0.5617
644.40 0.5612
644.50 0.5607
644.60 0.5602
644.70 0.5597
644.80 0.5592
644.90 0.5587
645.00 0.5582
645.10 0.5577
645.20 0.5572
645.30 0.5567
645.40 0.5562
645.50 0.5556
645.60 0.555
645.70 0.5545
645.80 0.5539
645.90 0.5533
646.00 0.5528
646.10 0.5522
646.20 0.5516
646.30 0.5511
646.40 0.5504
646.50 0.5498
646.60 0.5491
646.70 0.5485
646.80 0.5478
646.90 0.5472
647.00 0.5466
647.10 0.5459
647.20 0.5453
647.30 0.5446
647.40 0.5438
647.50 0.5431
647.60 0.5423
647.70 0.5416
647.80 0.5408
647.90 0.54
648.00 0.5393
648.10 0.5385
648.20 0.5378
648.30 0.537
648.40 0.5361
648.50 0.5352
648.60 0.5343
648.70 0.5334
648.80 0.5325
648.90 0.5316
649.00 0.5307
649.10 0.5298
649.20 0.5289
649.30 0.5279
649.40 0.5268
649.50 0.5257
649.60 0.5246
649.70 0.5235
649.80 0.5223
649.90 0.5212
650.00 0.5201
650.10 0.519
650.20 0.5179
650.30 0.5167
650.40 0.5153
650.50 0.5139
650.60 0.5125
650.70 0.5111
650.80 0.5096
650.90 0.5082
651.00 0.5068
651.10 0.5054
651.20 0.504
651.30 0.5025
651.40 0.5006
651.50 0.4987
651.60 0.4968
651.70 0.495
651.80 0.4931
651.90 0.4912
652.00 0.4893
652.10 0.4874
652.20 0.4856
652.30 0.4835
652.40 0.4809
652.50 0.4783
652.60 0.4757
652.70 0.4731
652.80 0.4704
652.90 0.4678
653.00 0.4652
653.10 0.4626
653.20 0.46
653.30 0.4571
653.40 0.4532
653.50 0.4493
653.60 0.4455
653.70 0.4416
653.80 0.4377
653.90 0.4338
654.00 0.43
654.10 0.4261
654.20 0.4222
654.30 0.4181
654.40 0.4128
654.50 0.4075
654.60 0.4023
654.70 0.397
654.80 0.3916
654.90 0.3853
655.00 0.3791
655.10 0.3729
655.20 0.3667
655.30 0.3604
655.40 0.3538
655.50 0.3471
655.60 0.3403
655.70 0.3334
655.80 0.3261
655.90 0.3185
656.00 0.3098
656.10 0.3007
656.20 0.2878
656.30 0.2814
656.40 0.2931
656.50 0.304
656.60 0.3126
656.70 0.3209
656.80 0.3279
656.90 0.3349
657.00 0.3415
657.10 0.348
657.20 0.3544
657.30 0.3607
657.40 0.3666
657.50 0.3726
657.60 0.3785
657.70 0.3844
657.80 0.3902
657.90 0.3951
658.00 0.4001
658.10 0.405
658.20 0.41
658.30 0.4146
658.40 0.4182
658.50 0.4217
658.60 0.4252
658.70 0.4287
658.80 0.4322
658.90 0.4358
659.00 0.4393
659.10 0.4428
659.20 0.4463
659.30 0.4495
659.40 0.4518
659.50 0.454
659.60 0.4562
659.70 0.4585
659.80 0.4607
659.90 0.4629
660.00 0.4651
660.10 0.4674
660.20 0.4696
660.30 0.4717
660.40 0.4731
660.50 0.4746
660.60 0.4761
660.70 0.4776
660.80 0.479
660.90 0.4805
661.00 0.482
661.10 0.4834
661.20 0.4849
661.30 0.4863
661.40 0.4873
661.50 0.4883
661.60 0.4893
661.70 0.4903
661.80 0.4913
661.90 0.4923
662.00 0.4933
662.10 0.4943
662.20 0.4953
662.30 0.4963
662.40 0.4969
662.50 0.4976
662.60 0.4983
662.70 0.499
662.80 0.4997
662.90 0.5004
663.00 0.5011
663.10 0.5018
663.20 0.5025
663.30 0.5032
663.40 0.5036
663.50 0.5041
663.60 0.5046
663.70 0.5051
663.80 0.5056
663.90 0.506
664.00 0.5065
664.10 0.507
664.20 0.5075
664.30 0.5079
664.40 0.5083
664.50 0.5086
664.60 0.5089
664.70 0.5093
664.80 0.5096
664.90 0.5099
665.00 0.5103
665.10 0.5106
665.20 0.5109
665.30 0.5112
665.40 0.5115
665.50 0.5117
665.60 0.5119
665.70 0.5121
665.80 0.5123
665.90 0.5126
666.00 0.5128
666.10 0.513
666.20 0.5132
666.30 0.5134
666.40 0.5136
666.50 0.5137
666.60 0.5138
666.70 0.514
666.80 0.5141
666.90 0.5143
667.00 0.5144
667.10 0.5145
667.20 0.5147
667.30 0.5148
667.40 0.5149
667.50 0.515
667.60 0.515
667.70 0.5151
667.80 0.5152
667.90 0.5152
668.00 0.5153
668.10 0.5154
668.20 0.5155
668.30 0.5155
668.40 0.5156
668.50 0.5156
668.60 0.5156
668.70 0.5156
668.80 0.5157
668.90 0.5157
669.00 0.5157
669.10 0.5158
669.20 0.5158
669.30 0.5158
669.40 0.5158
669.50 0.5158
669.60 0.5158
669.70 0.5158
669.80 0.5157
669.90 0.5157
670.00 0.5157
670.10 0.5157
670.20 0.5157
670.30 0.5157
670.40 0.5156
670.50 0.5156
670.60 0.5156
670.70 0.5155
670.80 0.5155
670.90 0.5154
671.00 0.5154
671.10 0.5154
671.20 0.5153
671.30 0.5153
671.40 0.5152
671.50 0.5152
671.60 0.5151
671.70 0.515
671.80 0.515
671.90 0.5149
672.00 0.5148
672.10 0.5148
672.20 0.5147
672.30 0.5146
672.40 0.5146
672.50 0.5145
672.60 0.5144
672.70 0.5143
672.80 0.5142
672.90 0.5141
673.00 0.5141
673.10 0.514
673.20 0.5139
673.30 0.5138
673.40 0.5137
673.50 0.5136
673.60 0.5135
673.70 0.5134
673.80 0.5133
673.90 0.5132
674.00 0.5131
674.10 0.513
674.20 0.5129
674.30 0.5128
674.40 0.5127
674.50 0.5126
674.60 0.5125
674.70 0.5124
674.80 0.5123
674.90 0.5122
675.00 0.5121
675.10 0.5119
675.20 0.5118
675.30 0.5117
675.40 0.5116
675.50 0.5115
675.60 0.5114
675.70 0.5112
675.80 0.5111
675.90 0.511
676.00 0.5109
676.10 0.5108
676.20 0.5106
676.30 0.5105
676.40 0.5104
676.50 0.5103
676.60 0.5101
676.70 0.51
676.80 0.5099
676.90 0.5098
677.00 0.5096
677.10 0.5095
677.20 0.5094
677.30 0.5093
677.40 0.5091
677.50 0.509
677.60 0.5089
677.70 0.5087
677.80 0.5086
677.90 0.5085
678.00 0.5083
678.10 0.5082
678.20 0.5081
678.30 0.5079
678.40 0.5078
678.50 0.5076
678.60 0.5075
678.70 0.5074
678.80 0.5072
678.90 0.5071
679.00 0.5069
679.10 0.5068
679.20 0.5067
679.30 0.5065
679.40 0.5064
679.50 0.5062
679.60 0.5061
679.70 0.5059
679.80 0.5058
679.90 0.5057
680.00 0.5055
680.10 0.5054
680.20 0.5052
680.30 0.5051
680.40 0.5049
680.50 0.5048
680.60 0.5046
680.70 0.5045
680.80 0.5043
680.90 0.5042
681.00 0.504
681.10 0.5039
681.20 0.5037
681.30 0.5036
681.40 0.5034
681.50 0.5033
681.60 0.5031
681.70 0.503
681.80 0.5028
681.90 0.5027
682.00 0.5025
682.10 0.5024
682.20 0.5022
682.30 0.5021
682.40 0.5019
682.50 0.5018
682.60 0.5016
682.70 0.5014
682.80 0.5013
682.90 0.5011
683.00 0.501
683.10 0.5008
683.20 0.5007
683.30 0.5005
683.40 0.5004
683.50 0.5002
683.60 0.5001
683.70 0.4999
683.80 0.4997
683.90 0.4996
684.00 0.4994
684.10 0.4993
684.20 0.4991
684.30 0.499
684.40 0.4988
684.50 0.4986
684.60 0.4985
684.70 0.4983
684.80 0.4982
684.90 0.498
685.00 0.4979
685.10 0.4977
685.20 0.4975
685.30 0.4974
685.40 0.4972
685.50 0.4971
685.60 0.4969
685.70 0.4967
685.80 0.4966
685.90 0.4964
686.00 0.4963
686.10 0.4961
686.20 0.4959
686.30 0.4958
686.40 0.4956
686.50 0.4955
686.60 0.4953
686.70 0.4951
686.80 0.495
686.90 0.4948
687.00 0.4947
687.10 0.4945
687.20 0.4943
687.30 0.4942
687.40 0.494
687.50 0.4939
687.60 0.4937
687.70 0.4935
687.80 0.4934
687.90 0.4932
688.00 0.4931
688.10 0.4929
688.20 0.4927
688.30 0.4926
688.40 0.4924
688.50 0.4922
688.60 0.4921
688.70 0.4919
688.80 0.4917
688.90 0.4916
689.00 0.4914
689.10 0.4913
689.20 0.4911
689.30 0.4909
689.40 0.4908
689.50 0.4906
689.60 0.4904
689.70 0.4903
689.80 0.4901
689.90 0.4899
690.00 0.4898
690.10 0.4896
690.20 0.4894
690.30 0.4893
690.40 0.4891
690.50 0.4889
690.60 0.4888
690.70 0.4886
690.80 0.4884
690.90 0.4883
691.00 0.4881
691.10 0.4879
691.20 0.4878
691.30 0.4876
691.40 0.4874
691.50 0.4873
691.60 0.4871
691.70 0.487
691.80 0.4868
691.90 0.4866
692.00 0.4865
692.10 0.4863
692.20 0.4861
692.30 0.486
692.40 0.4858
692.50 0.4856
692.60 0.4855
692.70 0.4853
692.80 0.4851
692.90 0.485
693.00 0.4848
693.10 0.4846
693.20 0.4845
693.30 0.4843
693.40 0.4842
693.50 0.484
693.60 0.4838
693.70 0.4837
693.80 0.4835
693.90 0.4833
694.00 0.4832
694.10 0.483
694.20 0.4828
694.30 0.4827
694.40 0.4825
694.50 0.4824
694.60 0.4822
694.70 0.482
694.80 0.4819
694.90 0.4817
695.00 0.4815
695.10 0.4814
695.20 0.4812
695.30 0.4811
695.40 0.4809
695.50 0.4807
695.60 0.4806
695.70 0.4804
695.80 0.4802
695.90 0.4801
696.00 0.4799
696.10 0.4798
696.20 0.4796
696.30 0.4794
696.40 0.4793
696.50 0.4791
696.60 0.479
696.70 0.4788
696.80 0.4786
696.90 0.4785
697.00 0.4783
697.10 0.4781
697.20 0.478
697.30 0.4778
697.40 0.4777
697.50 0.4775
697.60 0.4773
697.70 0.4772
697.80 0.477
697.90 0.4769
698.00 0.4767
698.10 0.4765
698.20 0.4764
698.30 0.4762
698.40 0.4761
698.50 0.4759
698.60 0.4757
698.70 0.4756
698.80 0.4754
698.90 0.4753
699.00 0.4751
699.10 0.4749
699.20 0.4748
699.30 0.4746
699.40 0.4745
699.50 0.4743
699.60 0.4741
699.70 0.474
699.80 0.4738
699.90 0.4737
700.00 0.4735
700.10 0.4734
700.20 0.4732
700.30 0.4731
700.40 0.4729
700.50 0.4728
700.60 0.4726
700.70 0.4725
700.80 0.4723
700.90 0.4722
701.00 0.472
701.10 0.4719
701.20 0.4717
701.30 0.4716
701.40 0.4714
701.50 0.4713
701.60 0.4711
701.70 0.471
701.80 0.4708
701.90 0.4707
702.00 0.4705
702.10 0.4704
702.20 0.4702
702.30 0.4701
702.40 0.47
702.50 0.4698
702.60 0.4697
702.70 0.4695
702.80 0.4694
702.90 0.4692
703.00 0.4691
703.10 0.4689
703.20 0.4688
703.30 0.4686
703.40 0.4685
703.50 0.4683
703.60 0.4682
703.70 0.468
703.80 0.4679
703.90 0.4678
704.00 0.4676
704.10 0.4675
704.20 0.4673
704.30 0.4672
704.40 0.467
704.50 0.4669
704.60 0.4667
704.70 0.4666
704.80 0.4664
704.90 0.4663
705.00 0.4661
705.10 0.466
705.20 0.4658
705.30 0.4656
705.40 0.4655
705.50 0.4653
705.60 0.4652
705.70 0.465
705.80 0.4648
705.90 0.4647
706.00 0.4645
706.10 0.4643
706.20 0.4642
706.30 0.464
706.40 0.4638
706.50 0.4637
706.60 0.4635
706.70 0.4633
706.80 0.4632
706.90 0.463
707.00 0.4628
707.10 0.4627
707.20 0.4625
707.30 0.4623
707.40 0.4622
707.50 0.462
707.60 0.4619
707.70 0.4617
707.80 0.4615
707.90 0.4614
708.00 0.4612
708.10 0.461
708.20 0.4609
708.30 0.4607
708.40 0.4605
708.50 0.4604
708.60 0.4602
708.70 0.46
708.80 0.4599
708.90 0.4597
709.00 0.4596
709.10 0.4594
709.20 0.4592
709.30 0.4591
709.40 0.4589
709.50 0.4587
709.60 0.4586
709.70 0.4584
709.80 0.4583
709.90 0.4581
710.00 0.4579
710.10 0.4578
710.20 0.4576
710.30 0.4574
710.40 0.4573
710.50 0.4571
710.60 0.457
710.70 0.4568
710.80 0.4566
710.90 0.4565
711.00 0.4563
711.10 0.4561
711.20 0.456
711.30 0.4558
711.40 0.4557
711.50 0.4555
711.60 0.4553
711.70 0.4552
711.80 0.455
711.90 0.4548
712.00 0.4547
712.10 0.4545
712.20 0.4544
712.30 0.4542
712.40 0.454
712.50 0.4539
712.60 0.4537
712.70 0.4536
712.80 0.4534
712.90 0.4532
713.00 0.4531
713.10 0.4529
713.20 0.4527
713.30 0.4526
713.40 0.4524
713.50 0.4523
713.60 0.4521
713.70 0.4519
713.80 0.4518
713.90 0.4516
714.00 0.4515
714.10 0.4513
714.20 0.4511
714.30 0.451
714.40 0.4508
714.50 0.4507
714.60 0.4505
714.70 0.4503
714.80 0.4502
714.90 0.45
715.00 0.4499
715.10 0.4497
715.20 0.4496
715.30 0.4494
715.40 0.4492
715.50 0.4491
715.60 0.4489
715.70 0.4488
715.80 0.4486
715.90 0.4484
716.00 0.4483
716.10 0.4481
716.20 0.448
716.30 0.4478
716.40 0.4477
716.50 0.4475
716.60 0.4473
716.70 0.4472
716.80 0.447
716.90 0.4469
717.00 0.4467
717.10 0.4466
717.20 0.4464
717.30 0.4463
717.40 0.4461
717.50 0.4459
717.60 0.4458
717.70 0.4456
717.80 0.4455
717.90 0.4453
718.00 0.4452
718.10 0.445
718.20 0.4448
718.30 0.4447
718.40 0.4445
718.50 0.4444
718.60 0.4442
718.70 0.4441
718.80 0.4439
718.90 0.4438
719.00 0.4436
719.10 0.4435
719.20 0.4433
719.30 0.4431
719.40 0.443
719.50 0.4428
719.60 0.4427
719.70 0.4425
719.80 0.4424
719.90 0.4422
720.00 0.4421
720.10 0.4419
720.20 0.4417
720.30 0.4416
720.40 0.4414
720.50 0.4413
720.60 0.4411
720.70 0.441
720.80 0.4408
720.90 0.4406
721.00 0.4405
721.10 0.4403
721.20 0.4402
721.30 0.44
721.40 0.4399
721.50 0.4397
721.60 0.4396
721.70 0.4394
721.80 0.4392
721.90 0.4391
722.00 0.4389
722.10 0.4388
722.20 0.4386
722.30 0.4385
722.40 0.4383
722.50 0.4382
722.60 0.438
722.70 0.4378
722.80 0.4377
722.90 0.4375
723.00 0.4374
723.10 0.4372
723.20 0.4371
723.30 0.4369
723.40 0.4368
723.50 0.4366
723.60 0.4365
723.70 0.4363
723.80 0.4361
723.90 0.436
724.00 0.4358
724.10 0.4357
724.20 0.4355
724.30 0.4354
724.40 0.4352
724.50 0.4351
724.60 0.4349
724.70 0.4348
724.80 0.4346
724.90 0.4345
725.00 0.4343
725.10 0.4341
725.20 0.434
725.30 0.4338
725.40 0.4337
725.50 0.4335
725.60 0.4334
725.70 0.4332
725.80 0.4331
725.90 0.4329
726.00 0.4328
726.10 0.4326
726.20 0.4325
726.30 0.4323
726.40 0.4322
726.50 0.432
726.60 0.4319
726.70 0.4317
726.80 0.4315
726.90 0.4314
727.00 0.4312
727.10 0.4311
727.20 0.4309
727.30 0.4308
727.40 0.4306
727.50 0.4305
727.60 0.4303
727.70 0.4302
727.80 0.43
727.90 0.4299
728.00 0.4297
728.10 0.4296
728.20 0.4294
728.30 0.4293
728.40 0.4291
728.50 0.429
728.60 0.4288
728.70 0.4287
728.80 0.4285
728.90 0.4284
729.00 0.4282
729.10 0.4281
729.20 0.4279
729.30 0.4278
729.40 0.4276
729.50 0.4275
729.60 0.4273
729.70 0.4272
729.80 0.427
729.90 0.4269
730.00 0.4267
730.10 0.4266
730.20 0.4264
730.30 0.4263
730.40 0.4261
730.50 0.426
730.60 0.4258
730.70 0.4257
730.80 0.4255
730.90 0.4254
731.00 0.4252
731.10 0.4251
731.20 0.4249
731.30 0.4248
731.40 0.4246
731.50 0.4245
731.60 0.4243
731.70 0.4242
731.80 0.424
731.90 0.4239
732.00 0.4237
732.10 0.4236
732.20 0.4234
732.30 0.4233
732.40 0.4231
732.50 0.423
732.60 0.4228
732.70 0.4227
732.80 0.4225
732.90 0.4224
733.00 0.4222
733.10 0.4221
733.20 0.4219
733.30 0.4218
733.40 0.4216
733.50 0.4215
733.60 0.4213
733.70 0.4212
733.80 0.421
733.90 0.4209
734.00 0.4207
734.10 0.4206
734.20 0.4204
734.30 0.4203
734.40 0.4202
734.50 0.42
734.60 0.4199
734.70 0.4197
734.80 0.4196
734.90 0.4194
735.00 0.4193
735.10 0.4191
735.20 0.419
735.30 0.4188
735.40 0.4187
735.50 0.4185
735.60 0.4184
735.70 0.4182
735.80 0.4181
735.90 0.4179
736.00 0.4178
736.10 0.4177
736.20 0.4175
736.30 0.4174
736.40 0.4172
736.50 0.4171
736.60 0.4169
736.70 0.4168
736.80 0.4166
736.90 0.4165
737.00 0.4163
737.10 0.4162
737.20 0.416
737.30 0.4159
737.40 0.4158
737.50 0.4156
737.60 0.4155
737.70 0.4153
737.80 0.4152
737.90 0.415
738.00 0.4149
738.10 0.4147
738.20 0.4146
738.30 0.4144
738.40 0.4143
738.50 0.4142
738.60 0.414
738.70 0.4139
738.80 0.4137
738.90 0.4136
739.00 0.4134
739.10 0.4133
739.20 0.4131
739.30 0.413
739.40 0.4128
739.50 0.4127
739.60 0.4126
739.70 0.4124
739.80 0.4123
739.90 0.4121
740.00 0.412
740.10 0.4118
740.20 0.4117
740.30 0.4116
740.40 0.4114
740.50 0.4113
740.60 0.4111
740.70 0.411
740.80 0.4108
740.90 0.4107
741.00 0.4105
741.10 0.4104
741.20 0.4103
741.30 0.4101
741.40 0.41
741.50 0.4098
741.60 0.4097
741.70 0.4095
741.80 0.4094
741.90 0.4093
742.00 0.4091
742.10 0.409
742.20 0.4088
742.30 0.4087
742.40 0.4085
742.50 0.4084
742.60 0.4083
742.70 0.4081
742.80 0.408
742.90 0.4078
743.00 0.4077
743.10 0.4075
743.20 0.4074
743.30 0.4073
743.40 0.4071
743.50 0.407
743.60 0.4068
743.70 0.4067
743.80 0.4065
743.90 0.4064
744.00 0.4063
744.10 0.4061
744.20 0.406
744.30 0.4058
744.40 0.4057
744.50 0.4056
744.60 0.4054
744.70 0.4053
744.80 0.4051
744.90 0.405
745.00 0.4048
745.10 0.4047
745.20 0.4046
745.30 0.4044
745.40 0.4043
745.50 0.4041
745.60 0.404
745.70 0.4039
745.80 0.4037
745.90 0.4036
746.00 0.4034
746.10 0.4033
746.20 0.4032
746.30 0.403
746.40 0.4029
746.50 0.4027
746.60 0.4026
746.70 0.4025
746.80 0.4023
746.90 0.4022
747.00 0.402
747.10 0.4019
747.20 0.4018
747.30 0.4016
747.40 0.4015
747.50 0.4013
747.60 0.4012
747.70 0.4011
747.80 0.4009
747.90 0.4008
748.00 0.4006
748.10 0.4005
748.20 0.4004
748.30 0.4002
748.40 0.4001
748.50 0.3999
748.60 0.3998
748.70 0.3997
748.80 0.3995
748.90 0.3994
749.00 0.3993
749.10 0.3991
749.20 0.399
749.30 0.3988
749.40 0.3987
749.50 0.3986
749.60 0.3984
749.70 0.3983
749.80 0.3981
749.90 0.398
750.00 0.3979
750.10 0.3977
750.20 0.3976
750.30 0.3975
750.40 0.3973
750.50 0.3972
750.60 0.397
750.70 0.3969
750.80 0.3968
750.90 0.3966
751.00 0.3965
751.10 0.3964
751.20 0.3962
751.30 0.3961
751.40 0.3959
751.50 0.3958
751.60 0.3957
751.70 0.3955
751.80 0.3954
751.90 0.3952
752.00 0.3951
752.10 0.395
752.20 0.3948
752.30 0.3947
752.40 0.3946
752.50 0.3944
752.60 0.3943
752.70 0.3942
752.80 0.394
752.90 0.3939
753.00 0.3937
753.10 0.3936
753.20 0.3935
753.30 0.3933
753.40 0.3932
753.50 0.3931
753.60 0.3929
753.70 0.3928
753.80 0.3927
753.90 0.3925
754.00 0.3924
754.10 0.3922
754.20 0.3921
754.30 0.392
754.40 0.3918
754.50 0.3917
754.60 0.3916
754.70 0.3914
754.80 0.3913
754.90 0.3912
755.00 0.391
755.10 0.3909
755.20 0.3908
755.30 0.3906
755.40 0.3905
755.50 0.3903
755.60 0.3902
755.70 0.3901
755.80 0.3899
755.90 0.3898
756.00 0.3897
756.10 0.3895
756.20 0.3894
756.30 0.3893
756.40 0.3891
756.50 0.389
756.60 0.3889
756.70 0.3887
756.80 0.3886
756.90 0.3885
757.00 0.3883
757.10 0.3882
757.20 0.3881
757.30 0.3879
757.40 0.3878
757.50 0.3877
757.60 0.3875
757.70 0.3874
757.80 0.3873
757.90 0.3871
758.00 0.387
758.10 0.3869
758.20 0.3867
758.30 0.3866
758.40 0.3865
758.50 0.3863
758.60 0.3862
758.70 0.3861
758.80 0.3859
758.90 0.3858
759.00 0.3857
759.10 0.3855
759.20 0.3854
759.30 0.3853
759.40 0.3851
759.50 0.385
759.60 0.3849
759.70 0.3847
759.80 0.3846
759.90 0.3845
760.00 0.3843
760.10 0.3842
760.20 0.3841
760.30 0.3839
760.40 0.3838
760.50 0.3837
760.60 0.3835
760.70 0.3834
760.80 0.3833
760.90 0.3831
761.00 0.383
761.10 0.3829
761.20 0.3827
761.30 0.3826
761.40 0.3825
761.50 0.3823
761.60 0.3822
761.70 0.3821
761.80 0.3819
761.90 0.3818
762.00 0.3817
762.10 0.3816
762.20 0.3814
762.30 0.3813
762.40 0.3812
762.50 0.381
762.60 0.3809
762.70 0.3808
762.80 0.3806
762.90 0.3805
763.00 0.3804
763.10 0.3802
763.20 0.3801
763.30 0.38
763.40 0.3798
763.50 0.3797
763.60 0.3796
763.70 0.3795
763.80 0.3793
763.90 0.3792
764.00 0.3791
764.10 0.3789
764.20 0.3788
764.30 0.3787
764.40 0.3785
764.50 0.3784
764.60 0.3783
764.70 0.3782
764.80 0.378
764.90 0.3779
765.00 0.3778
765.10 0.3776
765.20 0.3775
765.30 0.3774
765.40 0.3772
765.50 0.3771
765.60 0.377
765.70 0.3769
765.80 0.3767
765.90 0.3766
766.00 0.3765
766.10 0.3763
766.20 0.3762
766.30 0.3761
766.40 0.376
766.50 0.3758
766.60 0.3757
766.70 0.3756
766.80 0.3754
766.90 0.3753
767.00 0.3752
767.10 0.375
767.20 0.3749
767.30 0.3748
767.40 0.3747
767.50 0.3745
767.60 0.3744
767.70 0.3743
767.80 0.3741
767.90 0.374
768.00 0.3739
768.10 0.3738
768.20 0.3736
768.30 0.3735
768.40 0.3734
768.50 0.3733
768.60 0.3731
768.70 0.373
768.80 0.3729
768.90 0.3727
769.00 0.3726
769.10 0.3725
769.20 0.3724
769.30 0.3722
769.40 0.3721
769.50 0.372
769.60 0.3718
769.70 0.3717
769.80 0.3716
769.90 0.3715
770.00 0.3713
770.10 0.3712
770.20 0.3711
770.30 0.371
770.40 0.3708
770.50 0.3707
770.60 0.3706
770.70 0.3705
770.80 0.3703
770.90 0.3702
771.00 0.3701
771.10 0.3699
771.20 0.3698
771.30 0.3697
771.40 0.3696
771.50 0.3694
771.60 0.3693
771.70 0.3692
771.80 0.3691
771.90 0.3689
772.00 0.3688
772.10 0.3687
772.20 0.3686
772.30 0.3684
772.40 0.3683
772.50 0.3682
772.60 0.368
772.70 0.3679
772.80 0.3678
772.90 0.3677
773.00 0.3675
773.10 0.3674
773.20 0.3673
773.30 0.3672
773.40 0.367
773.50 0.3669
773.60 0.3668
773.70 0.3667
773.80 0.3665
773.90 0.3664
774.00 0.3663
774.10 0.3662
774.20 0.366
774.30 0.3659
774.40 0.3658
774.50 0.3657
774.60 0.3655
774.70 0.3654
774.80 0.3653
774.90 0.3652
775.00 0.365
775.10 0.3649
775.20 0.3648
775.30 0.3647
775.40 0.3645
775.50 0.3644
775.60 0.3643
775.70 0.3642
775.80 0.364
775.90 0.3639
776.00 0.3638
776.10 0.3637
776.20 0.3635
776.30 0.3634
776.40 0.3633
776.50 0.3632
776.60 0.3631
776.70 0.3629
776.80 0.3628
776.90 0.3627
777.00 0.3626
777.10 0.3624
777.20 0.3623
777.30 0.3622
777.40 0.3621
777.50 0.3619
777.60 0.3618
777.70 0.3617
777.80 0.3616
777.90 0.3614
778.00 0.3613
778.10 0.3612
778.20 0.3611
778.30 0.361
778.40 0.3608
778.50 0.3607
778.60 0.3606
778.70 0.3605
778.80 0.3603
778.90 0.3602
779.00 0.3601
779.10 0.36
779.20 0.3598
779.30 0.3597
779.40 0.3596
779.50 0.3595
779.60 0.3594
779.70 0.3592
779.80 0.3591
779.90 0.359
780.00 0.3589
780.10 0.3587
780.20 0.3586
780.30 0.3585
780.40 0.3584
780.50 0.3583
780.60 0.3581
780.70 0.358
780.80 0.3579
780.90 0.3578
781.00 0.3576
781.10 0.3575
781.20 0.3574
781.30 0.3573
781.40 0.3572
781.50 0.357
781.60 0.3569
781.70 0.3568
781.80 0.3567
781.90 0.3566
782.00 0.3564
782.10 0.3563
782.20 0.3562
782.30 0.3561
782.40 0.3559
782.50 0.3558
782.60 0.3557
782.70 0.3556
782.80 0.3555
782.90 0.3553
783.00 0.3552
783.10 0.3551
783.20 0.355
783.30 0.3549
783.40 0.3547
783.50 0.3546
783.60 0.3545
783.70 0.3544
783.80 0.3543
783.90 0.3541
784.00 0.354
784.10 0.3539
784.20 0.3538
784.30 0.3537
784.40 0.3535
784.50 0.3534
784.60 0.3533
784.70 0.3532
784.80 0.3531
784.90 0.3529
785.00 0.3528
785.10 0.3527
785.20 0.3526
785.30 0.3525
785.40 0.3523
785.50 0.3522
785.60 0.3521
785.70 0.352
785.80 0.3519
785.90 0.3517
786.00 0.3516
786.10 0.3515
786.20 0.3514
786.30 0.3513
786.40 0.3511
786.50 0.351
786.60 0.3509
786.70 0.3508
786.80 0.3507
786.90 0.3506
787.00 0.3504
787.10 0.3503
787.20 0.3502
787.30 0.3501
787.40 0.35
787.50 0.3498
787.60 0.3497
787.70 0.3496
787.80 0.3495
787.90 0.3494
788.00 0.3492
788.10 0.3491
788.20 0.349
788.30 0.3489
788.40 0.3488
788.50 0.3487
788.60 0.3485
788.70 0.3484
788.80 0.3483
788.90 0.3482
789.00 0.3481
789.10 0.3479
789.20 0.3478
789.30 0.3477
789.40 0.3476
789.50 0.3475
789.60 0.3474
789.70 0.3472
789.80 0.3471
789.90 0.347
790.00 0.3469
790.10 0.3468
790.20 0.3467
790.30 0.3465
790.40 0.3464
790.50 0.3463
790.60 0.3462
790.70 0.3461
790.80 0.346
790.90 0.3458
791.00 0.3457
791.10 0.3456
791.20 0.3455
791.30 0.3454
791.40 0.3453
791.50 0.3451
791.60 0.345
791.70 0.3449
791.80 0.3448
791.90 0.3447
792.00 0.3446
792.10 0.3444
792.20 0.3443
792.30 0.3442
792.40 0.3441
792.50 0.344
792.60 0.3439
792.70 0.3437
792.80 0.3436
792.90 0.3435
793.00 0.3434
793.10 0.3433
793.20 0.3432
793.30 0.343
793.40 0.3429
793.50 0.3428
793.60 0.3427
793.70 0.3426
793.80 0.3425
793.90 0.3424
794.00 0.3422
794.10 0.3421
794.20 0.342
794.30 0.3419
794.40 0.3418
794.50 0.3417
794.60 0.3416
794.70 0.3414
794.80 0.3413
794.90 0.3412
795.00 0.3411
795.10 0.341
795.20 0.3409
795.30 0.3407
795.40 0.3406
795.50 0.3405
795.60 0.3404
795.70 0.3403
795.80 0.3402
795.90 0.3401
796.00 0.3399
796.10 0.3398
796.20 0.3397
796.30 0.3396
796.40 0.3395
796.50 0.3394
796.60 0.3393
796.70 0.3391
796.80 0.339
796.90 0.3389
797.00 0.3388
797.10 0.3387
797.20 0.3386
797.30 0.3385
797.40 0.3383
797.50 0.3382
797.60 0.3381
797.70 0.338
797.80 0.3379
797.90 0.3378
798.00 0.3377
798.10 0.3376
798.20 0.3374
798.30 0.3373
798.40 0.3372
798.50 0.3371
798.60 0.337
798.70 0.3369
798.80 0.3368
798.90 0.3366
799.00 0.3365
799.10 0.3364
799.20 0.3363
799.30 0.3362
799.40 0.3361
799.50 0.336
799.60 0.3359
799.70 0.3357
799.80 0.3356
799.90 0.3355
800.00 0.3354
800.10 0.3353
800.20 0.3352
800.30 0.3351
800.40 0.335
800.50 0.3348
800.60 0.3347
800.70 0.3346
800.80 0.3345
800.90 0.3344
801.00 0.3343
801.10 0.3342
801.20 0.3341
801.30 0.3339
801.40 0.3338
801.50 0.3337
801.60 0.3336
801.70 0.3335
801.80 0.3334
801.90 0.3333
802.00 0.3332
802.10 0.3331
802.20 0.3329
802.30 0.3328
802.40 0.3327
802.50 0.3326
802.60 0.3325
802.70 0.3324
802.80 0.3323
802.90 0.3322
803.00 0.3321
803.10 0.3319
803.20 0.3318
803.30 0.3317
803.40 0.3316
803.50 0.3315
803.60 0.3314
803.70 0.3313
803.80 0.3312
803.90 0.3311
804.00 0.3309
804.10 0.3308
804.20 0.3307
804.30 0.3306
804.40 0.3305
804.50 0.3304
804.60 0.3303
804.70 0.3302
804.80 0.3301
804.90 0.3299
805.00 0.3298
805.10 0.3297
805.20 0.3296
805.30 0.3295
805.40 0.3294
805.50 0.3293
805.60 0.3292
805.70 0.3291
805.80 0.329
805.90 0.3288
806.00 0.3287
806.10 0.3286
806.20 0.3285
806.30 0.3284
806.40 0.3283
806.50 0.3282
806.60 0.3281
806.70 0.328
806.80 0.3279
806.90 0.3277
807.00 0.3276
807.10 0.3275
807.20 0.3274
807.30 0.3273
807.40 0.3272
807.50 0.3271
807.60 0.327
807.70 0.3269
807.80 0.3268
807.90 0.3267
808.00 0.3265
808.10 0.3264
808.20 0.3263
808.30 0.3262
808.40 0.3261
808.50 0.326
808.60 0.3259
808.70 0.3258
808.80 0.3257
808.90 0.3256
809.00 0.3255
809.10 0.3253
809.20 0.3252
809.30 0.3251
809.40 0.325
809.50 0.3249
809.60 0.3248
809.70 0.3247
809.80 0.3246
809.90 0.3245
810.00 0.3244
810.10 0.3243
810.20 0.3242
810.30 0.324
810.40 0.3239
810.50 0.3238
810.60 0.3237
810.70 0.3236
810.80 0.3235
810.90 0.3234
811.00 0.3233
811.10 0.3232
811.20 0.3231
811.30 0.323
811.40 0.3229
811.50 0.3228
811.60 0.3226
811.70 0.3225
811.80 0.3224
811.90 0.3223
812.00 0.3222
812.10 0.3221
812.20 0.322
812.30 0.3219
812.40 0.3218
812.50 0.3217
812.60 0.3216
812.70 0.3215
812.80 0.3214
812.90 0.3213
813.00 0.3211
813.10 0.321
813.20 0.3209
813.30 0.3208
813.40 0.3207
813.50 0.3206
813.60 0.3205
813.70 0.3204
813.80 0.3203
813.90 0.3202
814.00 0.3201
814.10 0.32
814.20 0.3199
814.30 0.3198
814.40 0.3197
814.50 0.3196
814.60 0.3194
814.70 0.3193
814.80 0.3192
814.90 0.3191
815.00 0.319
815.10 0.3189
815.20 0.3188
815.30 0.3187
815.40 0.3186
815.50 0.3185
815.60 0.3184
815.70 0.3183
815.80 0.3182
815.90 0.3181
816.00 0.318
816.10 0.3179
816.20 0.3178
816.30 0.3176
816.40 0.3175
816.50 0.3174
816.60 0.3173
816.70 0.3172
816.80 0.3171
816.90 0.317
817.00 0.3169
817.10 0.3168
817.20 0.3167
817.30 0.3166
817.40 0.3165
817.50 0.3164
817.60 0.3163
817.70 0.3162
817.80 0.3161
817.90 0.316
818.00 0.3159
818.10 0.3158
818.20 0.3156
818.30 0.3155
818.40 0.3154
818.50 0.3153
818.60 0.3152
818.70 0.3151
818.80 0.315
818.90 0.3149
819.00 0.3148
819.10 0.3147
819.20 0.3146
819.30 0.3145
819.40 0.3144
819.50 0.3143
819.60 0.3142
819.70 0.3141
819.80 0.314
819.90 0.3139
820.00 0.3138
820.10 0.3137
820.20 0.3136
820.30 0.3135
820.40 0.3134
820.50 0.3133
820.60 0.3132
820.70 0.3131
820.80 0.313
820.90 0.3129
821.00 0.3128
821.10 0.3127
821.20 0.3126
821.30 0.3125
821.40 0.3124
821.50 0.3123
821.60 0.3121
821.70 0.312
821.80 0.3119
821.90 0.3118
822.00 0.3117
822.10 0.3116
822.20 0.3115
822.30 0.3114
822.40 0.3113
822.50 0.3112
822.60 0.3111
822.70 0.311
822.80 0.3109
822.90 0.3108
823.00 0.3107
823.10 0.3106
823.20 0.3105
823.30 0.3104
823.40 0.3103
823.50 0.3102
823.60 0.3101
823.70 0.31
823.80 0.3099
823.90 0.3098
824.00 0.3097
824.10 0.3096
824.20 0.3095
824.30 0.3094
824.40 0.3093
824.50 0.3092
824.60 0.3091
824.70 0.309
824.80 0.3089
824.90 0.3088
825.00 0.3087
825.10 0.3086
825.20 0.3085
825.30 0.3084
825.40 0.3083
825.50 0.3082
825.60 0.3081
825.70 0.308
825.80 0.3079
825.90 0.3078
826.00 0.3076
826.10 0.3075
826.20 0.3074
826.30 0.3073
826.40 0.3072
826.50 0.3071
826.60 0.307
826.70 0.3069
826.80 0.3068
826.90 0.3067
827.00 0.3066
827.10 0.3065
827.20 0.3064
827.30 0.3063
827.40 0.3062
827.50 0.3061
827.60 0.306
827.70 0.3059
827.80 0.3058
827.90 0.3057
828.00 0.3056
828.10 0.3055
828.20 0.3054
828.30 0.3053
828.40 0.3052
828.50 0.3051
828.60 0.305
828.70 0.3049
828.80 0.3048
828.90 0.3047
829.00 0.3046
829.10 0.3045
829.20 0.3044
829.30 0.3043
829.40 0.3042
829.50 0.3041
829.60 0.304
829.70 0.3039
829.80 0.3038
829.90 0.3037
830.00 0.3036
830.10 0.3035
830.20 0.3034
830.30 0.3033
830.40 0.3032
830.50 0.3031
830.60 0.303
830.70 0.3029
830.80 0.3028
830.90 0.3027
831.00 0.3026
831.10 0.3025
831.20 0.3024
831.30 0.3023
831.40 0.3022
831.50 0.3021
831.60 0.302
831.70 0.3019
831.80 0.3018
831.90 0.3017
832.00 0.3016
832.10 0.3015
832.20 0.3014
832.30 0.3013
832.40 0.3012
832.50 0.3011
832.60 0.301
832.70 0.3009
832.80 0.3008
832.90 0.3007
833.00 0.3007
833.10 0.3006
833.20 0.3005
833.30 0.3004
833.40 0.3003
833.50 0.3002
833.60 0.3001
833.70 0.3
833.80 0.2999
833.90 0.2998
834.00 0.2997
834.10 0.2996
834.20 0.2995
834.30 0.2994
834.40 0.2993
834.50 0.2992
834.60 0.2991
834.70 0.299
834.80 0.2989
834.90 0.2988
835.00 0.2987
835.10 0.2986
835.20 0.2985
835.30 0.2984
835.40 0.2983
835.50 0.2982
835.60 0.2981
835.70 0.298
835.80 0.2979
835.90 0.2978
836.00 0.2977
836.10 0.2976
836.20 0.2975
836.30 0.2974
836.40 0.2973
836.50 0.2972
836.60 0.2971
836.70 0.297
836.80 0.2969
836.90 0.2968
837.00 0.2967
837.10 0.2966
837.20 0.2965
837.30 0.2964
837.40 0.2963
837.50 0.2963
837.60 0.2962
837.70 0.2961
837.80 0.296
837.90 0.2959
838.00 0.2958
838.10 0.2957
838.20 0.2956
838.30 0.2955
838.40 0.2954
838.50 0.2953
838.60 0.2952
838.70 0.2951
838.80 0.295
838.90 0.2949
839.00 0.2948
839.10 0.2947
839.20 0.2946
839.30 0.2945
839.40 0.2944
839.50 0.2943
839.60 0.2942
839.70 0.2941
839.80 0.294
839.90 0.2939
840.00 0.2938
840.10 0.2937
840.20 0.2937
840.30 0.2936
840.40 0.2935
840.50 0.2934
840.60 0.2933
840.70 0.2932
840.80 0.2931
840.90 0.293
841.00 0.2929
841.10 0.2928
841.20 0.2927
841.30 0.2926
841.40 0.2925
841.50 0.2924
841.60 0.2923
841.70 0.2922
841.80 0.2921
841.90 0.292
842.00 0.2919
842.10 0.2918
842.20 0.2917
842.30 0.2916
842.40 0.2916
842.50 0.2915
842.60 0.2914
842.70 0.2913
842.80 0.2912
842.90 0.2911
843.00 0.291
843.10 0.2909
843.20 0.2908
843.30 0.2907
843.40 0.2906
843.50 0.2905
843.60 0.2904
843.70 0.2903
843.80 0.2902
843.90 0.2901
844.00 0.29
844.10 0.2899
844.20 0.2899
844.30 0.2898
844.40 0.2897
844.50 0.2896
844.60 0.2895
844.70 0.2894
844.80 0.2893
844.90 0.2892
845.00 0.2891
845.10 0.289
845.20 0.2889
845.30 0.2888
845.40 0.2887
845.50 0.2886
845.60 0.2885
845.70 0.2884
845.80 0.2883
845.90 0.2883
846.00 0.2882
846.10 0.2881
846.20 0.288
846.30 0.2879
846.40 0.2878
846.50 0.2877
846.60 0.2876
846.70 0.2875
846.80 0.2874
846.90 0.2873
847.00 0.2872
847.10 0.2871
847.20 0.287
847.30 0.2869
847.40 0.2869
847.50 0.2868
847.60 0.2867
847.70 0.2866
847.80 0.2865
847.90 0.2864
848.00 0.2863
848.10 0.2862
848.20 0.2861
848.30 0.286
848.40 0.2859
848.50 0.2858
848.60 0.2857
848.70 0.2857
848.80 0.2856
848.90 0.2855
849.00 0.2854
849.10 0.2853
849.20 0.2852
849.30 0.2851
849.40 0.285
849.50 0.2849
849.60 0.2848
849.70 0.2847
849.80 0.2846
849.90 0.2845
850.00 0.2845
850.10 0.2844
850.20 0.2843
850.30 0.2842
850.40 0.2841
850.50 0.284
850.60 0.2839
850.70 0.2838
850.80 0.2837
850.90 0.2836
851.00 0.2835
851.10 0.2834
851.20 0.2833
851.30 0.2833
851.40 0.2832
851.50 0.2831
851.60 0.283
851.70 0.2829
851.80 0.2828
851.90 0.2827
852.00 0.2826
852.10 0.2825
852.20 0.2824
852.30 0.2823
852.40 0.2823
852.50 0.2822
852.60 0.2821
852.70 0.282
852.80 0.2819
852.90 0.2818
853.00 0.2817
853.10 0.2816
853.20 0.2815
853.30 0.2814
853.40 0.2813
853.50 0.2812
853.60 0.2812
853.70 0.2811
853.80 0.281
853.90 0.2809
854.00 0.2808
854.10 0.2807
854.20 0.2806
854.30 0.2805
854.40 0.2804
854.50 0.2803
854.60 0.2803
854.70 0.2802
854.80 0.2801
854.90 0.28
855.00 0.2799
855.10 0.2798
855.20 0.2797
855.30 0.2796
855.40 0.2795
855.50 0.2794
855.60 0.2793
855.70 0.2793
855.80 0.2792
855.90 0.2791
856.00 0.279
856.10 0.2789
856.20 0.2788
856.30 0.2787
856.40 0.2786
856.50 0.2785
856.60 0.2785
856.70 0.2784
856.80 0.2783
856.90 0.2782
857.00 0.2781
857.10 0.278
857.20 0.2779
857.30 0.2778
857.40 0.2777
857.50 0.2776
857.60 0.2776
857.70 0.2775
857.80 0.2774
857.90 0.2773
858.00 0.2772
858.10 0.2771
858.20 0.277
858.30 0.2769
858.40 0.2768
858.50 0.2768
858.60 0.2767
858.70 0.2766
858.80 0.2765
858.90 0.2764
859.00 0.2763
859.10 0.2762
859.20 0.2761
859.30 0.276
859.40 0.276
859.50 0.2759
859.60 0.2758
859.70 0.2757
859.80 0.2756
859.90 0.2755
860.00 0.2754
860.10 0.2753
860.20 0.2752
860.30 0.2752
860.40 0.2751
860.50 0.275
860.60 0.2749
860.70 0.2748
860.80 0.2747
860.90 0.2746
861.00 0.2745
861.10 0.2744
861.20 0.2744
861.30 0.2743
861.40 0.2742
861.50 0.2741
861.60 0.274
861.70 0.2739
861.80 0.2738
861.90 0.2737
862.00 0.2737
862.10 0.2736
862.20 0.2735
862.30 0.2734
862.40 0.2733
862.50 0.2732
862.60 0.2731
862.70 0.273
862.80 0.2729
862.90 0.2729
863.00 0.2728
863.10 0.2727
863.20 0.2726
863.30 0.2725
863.40 0.2724
863.50 0.2723
863.60 0.2722
863.70 0.2722
863.80 0.2721
863.90 0.272
864.00 0.2719
864.10 0.2718
864.20 0.2717
864.30 0.2716
864.40 0.2715
864.50 0.2715
864.60 0.2714
864.70 0.2713
864.80 0.2712
864.90 0.2711
865.00 0.271
865.10 0.2709
865.20 0.2708
865.30 0.2708
865.40 0.2707
865.50 0.2706
865.60 0.2705
865.70 0.2704
865.80 0.2703
865.90 0.2702
866.00 0.2702
866.10 0.2701
866.20 0.27
866.30 0.2699
866.40 0.2698
866.50 0.2697
866.60 0.2696
866.70 0.2695
866.80 0.2695
866.90 0.2694
867.00 0.2693
867.10 0.2692
867.20 0.2691
867.30 0.269
867.40 0.2689
867.50 0.2689
867.60 0.2688
867.70 0.2687
867.80 0.2686
867.90 0.2685
868.00 0.2684
868.10 0.2683
868.20 0.2683
868.30 0.2682
868.40 0.2681
868.50 0.268
868.60 0.2679
868.70 0.2678
868.80 0.2677
868.90 0.2677
869.00 0.2676
869.10 0.2675
869.20 0.2674
869.30 0.2673
869.40 0.2672
869.50 0.2672
869.60 0.2671
869.70 0.267
869.80 0.2669
869.90 0.2668
870.00 0.2667
870.10 0.2666
870.20 0.2666
870.30 0.2665
870.40 0.2664
870.50 0.2663
870.60 0.2662
870.70 0.2661
870.80 0.2661
870.90 0.266
871.00 0.2659
871.10 0.2658
871.20 0.2657
871.30 0.2656
871.40 0.2655
871.50 0.2655
871.60 0.2654
871.70 0.2653
871.80 0.2652
871.90 0.2651
872.00 0.265
872.10 0.265
872.20 0.2649
872.30 0.2648
872.40 0.2647
872.50 0.2646
872.60 0.2645
872.70 0.2645
872.80 0.2644
872.90 0.2643
873.00 0.2642
873.10 0.2641
873.20 0.264
873.30 0.2639
873.40 0.2639
873.50 0.2638
873.60 0.2637
873.70 0.2636
873.80 0.2635
873.90 0.2634
874.00 0.2634
874.10 0.2633
874.20 0.2632
874.30 0.2631
874.40 0.263
874.50 0.2629
874.60 0.2629
874.70 0.2628
874.80 0.2627
874.90 0.2626
875.00 0.2625
875.10 0.2624
875.20 0.2624
875.30 0.2623
875.40 0.2622
875.50 0.2621
875.60 0.262
875.70 0.2619
875.80 0.2618
875.90 0.2618
876.00 0.2617
876.10 0.2616
876.20 0.2615
876.30 0.2614
876.40 0.2613
876.50 0.2613
876.60 0.2612
876.70 0.2611
876.80 0.261
876.90 0.2609
877.00 0.2608
877.10 0.2608
877.20 0.2607
877.30 0.2606
877.40 0.2605
877.50 0.2604
877.60 0.2604
877.70 0.2603
877.80 0.2602
877.90 0.2601
878.00 0.26
878.10 0.2599
878.20 0.2599
878.30 0.2598
878.40 0.2597
878.50 0.2596
878.60 0.2595
878.70 0.2595
878.80 0.2594
878.90 0.2593
879.00 0.2592
879.10 0.2591
879.20 0.2591
879.30 0.259
879.40 0.2589
879.50 0.2588
879.60 0.2587
879.70 0.2586
879.80 0.2586
879.90 0.2585
880.00 0.2584
880.10 0.2583
880.20 0.2582
880.30 0.2582
880.40 0.2581
880.50 0.258
880.60 0.2579
880.70 0.2578
880.80 0.2578
880.90 0.2577
881.00 0.2576
881.10 0.2575
881.20 0.2574
881.30 0.2573
881.40 0.2573
881.50 0.2572
881.60 0.2571
881.70 0.257
881.80 0.2569
881.90 0.2569
882.00 0.2568
882.10 0.2567
882.20 0.2566
882.30 0.2565
882.40 0.2564
882.50 0.2564
882.60 0.2563
882.70 0.2562
882.80 0.2561
882.90 0.256
883.00 0.2559
883.10 0.2559
883.20 0.2558
883.30 0.2557
883.40 0.2556
883.50 0.2555
883.60 0.2554
883.70 0.2553
883.80 0.2553
883.90 0.2552
884.00 0.2551
884.10 0.255
884.20 0.2549
884.30 0.2548
884.40 0.2548
884.50 0.2547
884.60 0.2546
884.70 0.2545
884.80 0.2544
884.90 0.2543
885.00 0.2543
885.10 0.2542
885.20 0.2541
885.30 0.254
885.40 0.2539
885.50 0.2538
885.60 0.2538
885.70 0.2537
885.80 0.2536
885.90 0.2535
886.00 0.2534
886.10 0.2533
886.20 0.2533
886.30 0.2532
886.40 0.2531
886.50 0.253
886.60 0.2529
886.70 0.2528
886.80 0.2528
886.90 0.2527
887.00 0.2526
887.10 0.2525
887.20 0.2524
887.30 0.2524
887.40 0.2523
887.50 0.2522
887.60 0.2521
887.70 0.2521
887.80 0.252
887.90 0.2519
888.00 0.2518
888.10 0.2518
888.20 0.2517
888.30 0.2516
888.40 0.2515
888.50 0.2515
888.60 0.2514
888.70 0.2513
888.80 0.2512
888.90 0.2512
889.00 0.2511
889.10 0.251
889.20 0.2509
889.30 0.2509
889.40 0.2508
889.50 0.2507
889.60 0.2506
889.70 0.2506
889.80 0.2505
889.90 0.2504
890.00 0.2503
890.10 0.2503
890.20 0.2502
890.30 0.2501
890.40 0.25
890.50 0.25
890.60 0.2499
890.70 0.2498
890.80 0.2497
890.90 0.2497
891.00 0.2496
891.10 0.2495
891.20 0.2494
891.30 0.2494
891.40 0.2493
891.50 0.2492
891.60 0.2492
891.70 0.2491
891.80 0.249
891.90 0.2489
892.00 0.2489
892.10 0.2488
892.20 0.2487
892.30 0.2486
892.40 0.2485
892.50 0.2485
892.60 0.2484
892.70 0.2483
892.80 0.2482
892.90 0.2482
893.00 0.2481
893.10 0.248
893.20 0.2479
893.30 0.2478
893.40 0.2478
893.50 0.2477
893.60 0.2476
893.70 0.2475
893.80 0.2474
893.90 0.2474
894.00 0.2473
894.10 0.2472
894.20 0.2471
894.30 0.2471
894.40 0.247
894.50 0.2469
894.60 0.2468
894.70 0.2467
894.80 0.2467
894.90 0.2466
895.00 0.2465
895.10 0.2464
895.20 0.2464
895.30 0.2463
895.40 0.2462
895.50 0.2461
895.60 0.2461
895.70 0.246
895.80 0.2459
895.90 0.2458
896.00 0.2457
896.10 0.2457
896.20 0.2456
896.30 0.2455
896.40 0.2454
896.50 0.2454
896.60 0.2453
896.70 0.2452
896.80 0.2451
896.90 0.245
897.00 0.245
897.10 0.2449
897.20 0.2448
897.30 0.2447
897.40 0.2446
897.50 0.2445
897.60 0.2445
897.70 0.2444
897.80 0.2443
897.90 0.2442
898.00 0.2441
898.10 0.244
898.20 0.244
898.30 0.2439
898.40 0.2438
898.50 0.2437
898.60 0.2436
898.70 0.2435
898.80 0.2435
898.90 0.2434
899.00 0.2433
899.10 0.2432
899.20 0.2431
899.30 0.243
899.40 0.243
899.50 0.2429
899.60 0.2428
899.70 0.2427
899.80 0.2426
899.90 0.2425
900.00 0.2424
900.10 0.2424
900.20 0.2423
900.30 0.2422
900.40 0.2421
900.50 0.242
900.60 0.2419
900.70 0.2419
900.80 0.2418
900.90 0.2417
901.00 0.2416
901.10 0.2415
901.20 0.2414
901.30 0.2414
901.40 0.2413
901.50 0.2412
901.60 0.2411
901.70 0.241
901.80 0.2409
901.90 0.2409
902.00 0.2408
902.10 0.2407
902.20 0.2406
902.30 0.2406
902.40 0.2405
902.50 0.2405
902.60 0.2404
902.70 0.2403
902.80 0.2403
902.90 0.2402
903.00 0.2401
903.10 0.2401
903.20 0.24
903.30 0.2399
903.40 0.2399
903.50 0.2398
903.60 0.2397
903.70 0.2397
903.80 0.2396
903.90 0.2395
904.00 0.2395
904.10 0.2394
904.20 0.2393
904.30 0.2393
904.40 0.2392
904.50 0.2391
904.60 0.2391
904.70 0.239
904.80 0.2389
904.90 0.2389
905.00 0.2388
905.10 0.2388
905.20 0.2387
905.30 0.2386
905.40 0.2386
905.50 0.2385
905.60 0.2384
905.70 0.2384
905.80 0.2383
905.90 0.2382
906.00 0.2382
906.10 0.2381
906.20 0.238
906.30 0.238
906.40 0.2379
906.50 0.2378
906.60 0.2378
906.70 0.2377
906.80 0.2376
906.90 0.2376
907.00 0.2375
907.10 0.2374
907.20 0.2374
907.30 0.2373
907.40 0.2372
907.50 0.2372
907.60 0.2371
907.70 0.237
907.80 0.2369
907.90 0.2369
908.00 0.2368
908.10 0.2367
908.20 0.2367
908.30 0.2366
908.40 0.2365
908.50 0.2364
908.60 0.2364
908.70 0.2363
908.80 0.2362
908.90 0.2362
909.00 0.2361
909.10 0.236
909.20 0.236
909.30 0.2359
909.40 0.2358
909.50 0.2357
909.60 0.2357
909.70 0.2356
909.80 0.2355
909.90 0.2355
910.00 0.2354
910.10 0.2353
910.20 0.2352
910.30 0.2352
910.40 0.2351
910.50 0.235
910.60 0.235
910.70 0.2349
910.80 0.2348
910.90 0.2347
911.00 0.2347
911.10 0.2346
911.20 0.2345
911.30 0.2345
911.40 0.2344
911.50 0.2343
911.60 0.2343
911.70 0.2342
911.80 0.2341
911.90 0.234
912.00 0.234
912.10 0.2339
912.20 0.2338
912.30 0.2338
912.40 0.2337
912.50 0.2336
912.60 0.2335
912.70 0.2335
912.80 0.2334
912.90 0.2333
913.00 0.2332
913.10 0.2332
913.20 0.2331
913.30 0.233
913.40 0.2329
913.50 0.2329
913.60 0.2328
913.70 0.2327
913.80 0.2326
913.90 0.2326
914.00 0.2325
914.10 0.2324
914.20 0.2323
914.30 0.2323
914.40 0.2322
914.50 0.2321
914.60 0.2321
914.70 0.232
914.80 0.2319
914.90 0.2318
915.00 0.2318
915.10 0.2317
915.20 0.2316
915.30 0.2315
915.40 0.2315
915.50 0.2314
915.60 0.2313
915.70 0.2312
915.80 0.2312
915.90 0.2311
916.00 0.231
916.10 0.2309
916.20 0.2309
916.30 0.2308
916.40 0.2307
916.50 0.2307
916.60 0.2306
916.70 0.2305
916.80 0.2304
916.90 0.2304
917.00 0.2303
917.10 0.2302
917.20 0.2301
917.30 0.23
917.40 0.2299
917.50 0.2298
917.60 0.2298
917.70 0.2297
917.80 0.2296
917.90 0.2295
918.00 0.2294
918.10 0.2293
918.20 0.2292
918.30 0.2291
918.40 0.229
918.50 0.229
918.60 0.2289
918.70 0.2288
918.80 0.2287
918.90 0.2286
919.00 0.2285
919.10 0.2284
919.20 0.2283
919.30 0.2283
919.40 0.2282
919.50 0.2281
919.60 0.228
919.70 0.2279
919.80 0.2278
919.90 0.2277
920.00 0.2276
920.10 0.2275
920.20 0.2275
920.30 0.2274
920.40 0.2273
920.50 0.2272
920.60 0.2271
920.70 0.227
920.80 0.2269
920.90 0.2268
921.00 0.2268
921.10 0.2267
921.20 0.2266
921.30 0.2265
921.40 0.2264
921.50 0.2263
921.60 0.2262
921.70 0.2261
921.80 0.2261
921.90 0.226
922.00 0.2259
922.10 0.2258
922.20 0.2258
922.30 0.2257
922.40 0.2257
922.50 0.2256
922.60 0.2255
922.70 0.2255
922.80 0.2254
922.90 0.2254
923.00 0.2253
923.10 0.2253
923.20 0.2252
923.30 0.2251
923.40 0.2251
923.50 0.225
923.60 0.225
923.70 0.2249
923.80 0.2249
923.90 0.2248
924.00 0.2247
924.10 0.2247
924.20 0.2246
924.30 0.2246
924.40 0.2245
924.50 0.2245
924.60 0.2244
924.70 0.2244
924.80 0.2243
924.90 0.2242
925.00 0.2242
925.10 0.2241
925.20 0.2241
925.30 0.224
925.40 0.224
925.50 0.2239
925.60 0.2238
925.70 0.2238
925.80 0.2237
925.90 0.2237
926.00 0.2236
926.10 0.2236
926.20 0.2235
926.30 0.2235
926.40 0.2234
926.50 0.2233
926.60 0.2233
926.70 0.2232
926.80 0.2232
926.90 0.2231
927.00 0.2231
927.10 0.223
927.20 0.2229
927.30 0.2229
927.40 0.2228
927.50 0.2228
927.60 0.2227
927.70 0.2226
927.80 0.2226
927.90 0.2225
928.00 0.2225
928.10 0.2224
928.20 0.2224
928.30 0.2223
928.40 0.2222
928.50 0.2222
928.60 0.2221
928.70 0.2221
928.80 0.222
928.90 0.2219
929.00 0.2219
929.10 0.2218
929.20 0.2218
929.30 0.2217
929.40 0.2216
929.50 0.2216
929.60 0.2215
929.70 0.2215
929.80 0.2214
929.90 0.2214
930.00 0.2213
930.10 0.2212
930.20 0.2212
930.30 0.2211
930.40 0.2211
930.50 0.221
930.60 0.2209
930.70 0.2209
930.80 0.2208
930.90 0.2208
931.00 0.2207
931.10 0.2207
931.20 0.2206
931.30 0.2205
931.40 0.2205
931.50 0.2204
931.60 0.2204
931.70 0.2203
931.80 0.2203
931.90 0.2202
932.00 0.2201
932.10 0.2201
932.20 0.22
932.30 0.2199
932.40 0.2199
932.50 0.2198
932.60 0.2198
932.70 0.2197
932.80 0.2196
932.90 0.2196
933.00 0.2195
933.10 0.2194
933.20 0.2194
933.30 0.2193
933.40 0.2192
933.50 0.2192
933.60 0.2191
933.70 0.2191
933.80 0.219
933.90 0.2189
934.00 0.2189
934.10 0.2188
934.20 0.2187
934.30 0.2187
934.40 0.2186
934.50 0.2186
934.60 0.2185
934.70 0.2184
934.80 0.2184
934.90 0.2183
935.00 0.2182
935.10 0.2182
935.20 0.2181
935.30 0.218
935.40 0.218
935.50 0.2179
935.60 0.2178
935.70 0.2178
935.80 0.2177
935.90 0.2177
936.00 0.2176
936.10 0.2175
936.20 0.2175
936.30 0.2174
936.40 0.2173
936.50 0.2173
936.60 0.2172
936.70 0.2171
936.80 0.2171
936.90 0.217
937.00 0.2169
937.10 0.2169
937.20 0.2168
937.30 0.2168
937.40 0.2167
937.50 0.2166
937.60 0.2166
937.70 0.2165
937.80 0.2164
937.90 0.2164
938.00 0.2163
938.10 0.2162
938.20 0.2162
938.30 0.2161
938.40 0.216
938.50 0.216
938.60 0.2159
938.70 0.2158
938.80 0.2158
938.90 0.2157
939.00 0.2157
939.10 0.2156
939.20 0.2155
939.30 0.2155
939.40 0.2154
939.50 0.2153
939.60 0.2153
939.70 0.2152
939.80 0.2151
939.90 0.2151
940.00 0.215
940.10 0.2149
940.20 0.2149
940.30 0.2148
940.40 0.2147
940.50 0.2147
940.60 0.2146
940.70 0.2145
940.80 0.2145
940.90 0.2144
941.00 0.2143
941.10 0.2143
941.20 0.2142
941.30 0.2142
941.40 0.2141
941.50 0.214
941.60 0.214
941.70 0.2139
941.80 0.2138
941.90 0.2138
942.00 0.2137
942.10 0.2136
942.20 0.2136
942.30 0.2135
942.40 0.2134
942.50 0.2134
942.60 0.2133
942.70 0.2132
942.80 0.2132
942.90 0.2131
943.00 0.213
943.10 0.2129
943.20 0.2129
943.30 0.2128
943.40 0.2127
943.50 0.2127
943.60 0.2126
943.70 0.2125
943.80 0.2125
943.90 0.2124
944.00 0.2123
944.10 0.2123
944.20 0.2122
944.30 0.2121
944.40 0.2121
944.50 0.212
944.60 0.2119
944.70 0.2119
944.80 0.2118
944.90 0.2117
945.00 0.2116
945.10 0.2116
945.20 0.2115
945.30 0.2114
945.40 0.2114
945.50 0.2113
945.60 0.2112
945.70 0.2111
945.80 0.2111
945.90 0.211
946.00 0.2109
946.10 0.2109
946.20 0.2108
946.30 0.2107
946.40 0.2106
946.50 0.2106
946.60 0.2105
946.70 0.2104
946.80 0.2103
946.90 0.2103
947.00 0.2102
947.10 0.2101
947.20 0.21
947.30 0.21
947.40 0.2099
947.50 0.2098
947.60 0.2097
947.70 0.2096
947.80 0.2096
947.90 0.2095
948.00 0.2094
948.10 0.2093
948.20 0.2092
948.30 0.2091
948.40 0.2091
948.50 0.209
948.60 0.2089
948.70 0.2088
948.80 0.2087
948.90 0.2087
949.00 0.2086
949.10 0.2085
949.20 0.2084
949.30 0.2083
949.40 0.2082
949.50 0.2081
949.60 0.208
949.70 0.2079
949.80 0.2078
949.90 0.2077
950.00 0.2076
950.10 0.2075
950.20 0.2074
950.30 0.2073
950.40 0.2072
950.50 0.2071
950.60 0.207
950.70 0.207
950.80 0.2069
950.90 0.2068
951.00 0.2067
951.10 0.2066
951.20 0.2065
951.30 0.2064
951.40 0.2063
951.50 0.2061
951.60 0.206
951.70 0.2059
951.80 0.2058
951.90 0.2057
952.00 0.2056
952.10 0.2055
952.20 0.2053
952.30 0.2052
952.40 0.2051
952.50 0.205
952.60 0.2049
952.70 0.2048
952.80 0.2047
952.90 0.2046
953.00 0.2045
953.10 0.2044
953.20 0.2043
953.30 0.2042
953.40 0.2041
953.50 0.2041
953.60 0.204
953.70 0.204
953.80 0.204
953.90 0.2039
954.00 0.204
954.10 0.2041
954.20 0.2042
954.30 0.2041
954.40 0.2037
954.50 0.2035
954.60 0.2033
954.70 0.2031
954.80 0.203
954.90 0.2029
955.00 0.2028
955.10 0.2027
955.20 0.2027
955.30 0.2026
955.40 0.2026
955.50 0.2026
955.60 0.2025
955.70 0.2025
955.80 0.2025
955.90 0.2024
956.00 0.2024
956.10 0.2024
956.20 0.2024
956.30 0.2024
956.40 0.2023
956.50 0.2023
956.60 0.2023
956.70 0.2023
956.80 0.2022
956.90 0.2022
957.00 0.2022
957.10 0.2022
957.20 0.2022
957.30 0.2021
957.40 0.2021
957.50 0.2021
957.60 0.2021
957.70 0.202
957.80 0.202
957.90 0.202
958.00 0.202
958.10 0.2019
958.20 0.2019
958.30 0.2019
958.40 0.2019
958.50 0.2018
958.60 0.2018
958.70 0.2018
958.80 0.2018
958.90 0.2017
959.00 0.2017
959.10 0.2017
959.20 0.2017
959.30 0.2016
959.40 0.2016
959.50 0.2016
959.60 0.2015
959.70 0.2015
959.80 0.2015
959.90 0.2014
960.00 0.2014
960.10 0.2013
960.20 0.2013
960.30 0.2013
960.40 0.2012
960.50 0.2012
960.60 0.2011
960.70 0.2011
960.80 0.2011
960.90 0.201
961.00 0.201
961.10 0.201
961.20 0.2009
961.30 0.2009
961.40 0.2008
961.50 0.2008
961.60 0.2007
961.70 0.2007
961.80 0.2007
961.90 0.2006
962.00 0.2006
962.10 0.2005
962.20 0.2005
962.30 0.2004
962.40 0.2004
962.50 0.2003
962.60 0.2003
962.70 0.2002
962.80 0.2002
962.90 0.2001
963.00 0.2001
963.10 0.2001
963.20 0.2
963.30 0.2
963.40 0.1999
963.50 0.1999
963.60 0.1998
963.70 0.1998
963.80 0.1997
963.90 0.1997
964.00 0.1996
964.10 0.1996
964.20 0.1995
964.30 0.1995
964.40 0.1994
964.50 0.1994
964.60 0.1993
964.70 0.1993
964.80 0.1992
964.90 0.1992
965.00 0.1991
965.10 0.1991
965.20 0.199
965.30 0.199
965.40 0.1989
965.50 0.1989
965.60 0.1988
965.70 0.1988
965.80 0.1987
965.90 0.1987
966.00 0.1986
966.10 0.1986
966.20 0.1985
966.30 0.1985
966.40 0.1984
966.50 0.1984
966.60 0.1983
966.70 0.1983
966.80 0.1982
966.90 0.1982
967.00 0.1981
967.10 0.198
967.20 0.198
967.30 0.1979
967.40 0.1979
967.50 0.1978
967.60 0.1978
967.70 0.1977
967.80 0.1977
967.90 0.1976
968.00 0.1976
968.10 0.1975
968.20 0.1975
968.30 0.1974
968.40 0.1974
968.50 0.1973
968.60 0.1973
968.70 0.1972
968.80 0.1971
968.90 0.1971
969.00 0.197
969.10 0.197
969.20 0.1969
969.30 0.1969
969.40 0.1968
969.50 0.1968
969.60 0.1967
969.70 0.1967
969.80 0.1966
969.90 0.1966
970.00 0.1965
970.10 0.1964
970.20 0.1964
970.30 0.1963
970.40 0.1963
970.50 0.1962
970.60 0.1962
970.70 0.1961
970.80 0.1961
970.90 0.196
971.00 0.196
971.10 0.1959
971.20 0.1958
971.30 0.1958
971.40 0.1957
971.50 0.1957
971.60 0.1956
971.70 0.1956
971.80 0.1955
971.90 0.1955
972.00 0.1954
972.10 0.1953
972.20 0.1953
972.30 0.1952
972.40 0.1952
972.50 0.1951
972.60 0.1951
972.70 0.195
972.80 0.195
972.90 0.1949
973.00 0.1949
973.10 0.1948
973.20 0.1947
973.30 0.1947
973.40 0.1946
973.50 0.1946
973.60 0.1945
973.70 0.1945
973.80 0.1944
973.90 0.1944
974.00 0.1943
974.10 0.1942
974.20 0.1942
974.30 0.1941
974.40 0.1941
974.50 0.194
974.60 0.194
974.70 0.1939
974.80 0.1939
974.90 0.1938
975.00 0.1937
975.10 0.1937
975.20 0.1936
975.30 0.1936
975.40 0.1935
975.50 0.1935
975.60 0.1934
975.70 0.1934
975.80 0.1933
975.90 0.1932
976.00 0.1932
976.10 0.1931
976.20 0.1931
976.30 0.193
976.40 0.193
976.50 0.1929
976.60 0.1928
976.70 0.1928
976.80 0.1927
976.90 0.1927
977.00 0.1926
977.10 0.1926
977.20 0.1925
977.30 0.1925
977.40 0.1924
977.50 0.1923
977.60 0.1923
977.70 0.1922
977.80 0.1922
977.90 0.1921
978.00 0.1921
978.10 0.192
978.20 0.1919
978.30 0.1919
978.40 0.1918
978.50 0.1918
978.60 0.1917
978.70 0.1917
978.80 0.1916
978.90 0.1915
979.00 0.1915
979.10 0.1914
979.20 0.1914
979.30 0.1913
979.40 0.1913
979.50 0.1912
979.60 0.1911
979.70 0.1911
979.80 0.191
979.90 0.191
980.00 0.1909
980.10 0.1909
980.20 0.1908
980.30 0.1907
980.40 0.1907
980.50 0.1906
980.60 0.1906
980.70 0.1905
980.80 0.1905
980.90 0.1904
981.00 0.1904
981.10 0.1903
981.20 0.1902
981.30 0.1902
981.40 0.1901
981.50 0.1901
981.60 0.19
981.70 0.19
981.80 0.1899
981.90 0.1898
982.00 0.1898
982.10 0.1897
982.20 0.1897
982.30 0.1896
982.40 0.1896
982.50 0.1895
982.60 0.1894
982.70 0.1894
982.80 0.1893
982.90 0.1893
983.00 0.1892
983.10 0.1891
983.20 0.1891
983.30 0.189
983.40 0.189
983.50 0.1889
983.60 0.1888
983.70 0.1888
983.80 0.1887
983.90 0.1887
984.00 0.1886
984.10 0.1886
984.20 0.1885
984.30 0.1884
984.40 0.1884
984.50 0.1883
984.60 0.1883
984.70 0.1882
984.80 0.1881
984.90 0.1881
985.00 0.188
985.10 0.188
985.20 0.1879
985.30 0.1878
985.40 0.1878
985.50 0.1877
985.60 0.1877
985.70 0.1876
985.80 0.1876
985.90 0.1875
986.00 0.1874
986.10 0.1874
986.20 0.1873
986.30 0.1873
986.40 0.1872
986.50 0.1871
986.60 0.1871
986.70 0.187
986.80 0.187
986.90 0.1869
987.00 0.1868
987.10 0.1868
987.20 0.1867
987.30 0.1867
987.40 0.1866
987.50 0.1865
987.60 0.1865
987.70 0.1864
987.80 0.1863
987.90 0.1863
988.00 0.1862
988.10 0.1862
988.20 0.1861
988.30 0.186
988.40 0.186
988.50 0.1859
988.60 0.1859
988.70 0.1858
988.80 0.1857
988.90 0.1857
989.00 0.1856
989.10 0.1855
989.20 0.1855
989.30 0.1854
989.40 0.1853
989.50 0.1853
989.60 0.1852
989.70 0.1851
989.80 0.1851
989.90 0.185
990.00 0.185
990.10 0.1849
990.20 0.1848
990.30 0.1848
990.40 0.1847
990.50 0.1846
990.60 0.1846
990.70 0.1845
990.80 0.1844
990.90 0.1844
991.00 0.1843
991.10 0.1842
991.20 0.1842
991.30 0.1841
991.40 0.184
991.50 0.184
991.60 0.1839
991.70 0.1838
991.80 0.1838
991.90 0.1837
992.00 0.1836
992.10 0.1836
992.20 0.1835
992.30 0.1834
992.40 0.1834
992.50 0.1833
992.60 0.1832
992.70 0.1831
992.80 0.1831
992.90 0.183
993.00 0.1829
993.10 0.1829
993.20 0.1828
993.30 0.1827
993.40 0.1826
993.50 0.1826
993.60 0.1825
993.70 0.1824
993.80 0.1823
993.90 0.1823
994.00 0.1822
994.10 0.1821
994.20 0.1821
994.30 0.182
994.40 0.1819
994.50 0.1818
994.60 0.1818
994.70 0.1817
994.80 0.1816
994.90 0.1815
995.00 0.1815
995.10 0.1814
995.20 0.1813
995.30 0.1812
995.40 0.1811
995.50 0.1811
995.60 0.181
995.70 0.1809
995.80 0.1808
995.90 0.1807
996.00 0.1807
996.10 0.1806
996.20 0.1805
996.30 0.1804
996.40 0.1803
996.50 0.1802
996.60 0.1802
996.70 0.1801
996.80 0.18
996.90 0.1799
997.00 0.1798
997.10 0.1797
997.20 0.1796
997.30 0.1796
997.40 0.1795
997.50 0.1794
997.60 0.1793
997.70 0.1792
997.80 0.1791
997.90 0.179
998.00 0.1789
998.10 0.1788
998.20 0.1787
998.30 0.1786
998.40 0.1785
998.50 0.1784
998.60 0.1783
998.70 0.1782
998.80 0.1781
998.90 0.178
999.00 0.1779
999.10 0.1778
999.20 0.1777
999.30 0.1776
999.40 0.1775
999.50 0.1774
999.60 0.1773
999.70 0.1772
999.80 0.1771
999.90 0.1769
1000.00 0.1768
1000.10 0.1767
1000.20 0.1766
1000.30 0.1764
1000.40 0.1763
1000.50 0.1762
1000.60 0.176
1000.70 0.1759
1000.80 0.1758
1000.90 0.1757
1001.00 0.1755
1001.10 0.1754
1001.20 0.1753
1001.30 0.1752
1001.40 0.175
1001.50 0.1749
1001.60 0.1748
1001.70 0.1746
1001.80 0.1745
1001.90 0.1743
1002.00 0.1742
1002.10 0.174
1002.20 0.1739
1002.30 0.1737
1002.40 0.1736
1002.50 0.1734
1002.60 0.1733
1002.70 0.1732
1002.80 0.173
1002.90 0.1729
1003.00 0.1727
1003.10 0.1726
1003.20 0.1724
1003.30 0.1723
1003.40 0.1722
1003.50 0.1721
1003.60 0.172
1003.70 0.1719
1003.80 0.1717
1003.90 0.1717
1004.00 0.1717
1004.10 0.1718
1004.20 0.1718
1004.30 0.1719
1004.40 0.1721
1004.50 0.1724
1004.60 0.1728
1004.70 0.1723
1004.80 0.1718
1004.90 0.1715
1005.00 0.1712
1005.10 0.171
1005.20 0.1709
1005.30 0.1708
1005.40 0.1707
1005.50 0.1707
1005.60 0.1707
1005.70 0.1707
1005.80 0.1707
1005.90 0.1707
1006.00 0.1708
1006.10 0.1708
1006.20 0.1708
1006.30 0.1709
1006.40 0.1709
1006.50 0.171
1006.60 0.171
1006.70 0.171
1006.80 0.1711
1006.90 0.1711
1007.00 0.1712
1007.10 0.1712
1007.20 0.1713
1007.30 0.1713
1007.40 0.1714
1007.50 0.1714
1007.60 0.1715
1007.70 0.1715
1007.80 0.1715
1007.90 0.1716
1008.00 0.1716
1008.10 0.1716
1008.20 0.1716
1008.30 0.1716
1008.40 0.1717
1008.50 0.1717
1008.60 0.1717
1008.70 0.1717
1008.80 0.1717
1008.90 0.1717
1009.00 0.1718
1009.10 0.1718
1009.20 0.1718
1009.30 0.1718
1009.40 0.1718
1009.50 0.1718
1009.60 0.1719
1009.70 0.1719
1009.80 0.1719
1009.90 0.1718
1010.00 0.1718
1010.10 0.1718
1010.20 0.1718
1010.30 0.1718
1010.40 0.1718
1010.50 0.1718
1010.60 0.1718
1010.70 0.1718
1010.80 0.1718
1010.90 0.1718
1011.00 0.1718
1011.10 0.1718
1011.20 0.1718
1011.30 0.1718
1011.40 0.1718
1011.50 0.1718
1011.60 0.1718
1011.70 0.1718
1011.80 0.1717
1011.90 0.1717
1012.00 0.1717
1012.10 0.1717
1012.20 0.1717
1012.30 0.1717
1012.40 0.1716
1012.50 0.1716
1012.60 0.1716
1012.70 0.1716
1012.80 0.1716
1012.90 0.1715
1013.00 0.1715
1013.10 0.1715
1013.20 0.1715
1013.30 0.1715
1013.40 0.1715
1013.50 0.1714
1013.60 0.1714
1013.70 0.1714
1013.80 0.1714
1013.90 0.1713
1014.00 0.1713
1014.10 0.1713
1014.20 0.1713
1014.30 0.1712
1014.40 0.1712
1014.50 0.1712
1014.60 0.1712
1014.70 0.1711
1014.80 0.1711
1014.90 0.1711
1015.00 0.1711
1015.10 0.171
1015.20 0.171
1015.30 0.171
1015.40 0.1709
1015.50 0.1709
1015.60 0.1709
1015.70 0.1709
1015.80 0.1708
1015.90 0.1708
1016.00 0.1708
1016.10 0.1707
1016.20 0.1707
1016.30 0.1707
1016.40 0.1706
1016.50 0.1706
1016.60 0.1706
1016.70 0.1706
1016.80 0.1705
1016.90 0.1705
1017.00 0.1705
1017.10 0.1704
1017.20 0.1704
1017.30 0.1704
1017.40 0.1703
1017.50 0.1703
1017.60 0.1703
1017.70 0.1702
1017.80 0.1702
1017.90 0.1702
1018.00 0.1701
1018.10 0.1701
1018.20 0.1701
1018.30 0.17
1018.40 0.17
1018.50 0.1699
1018.60 0.1699
1018.70 0.1699
1018.80 0.1698
1018.90 0.1698
1019.00 0.1698
1019.10 0.1697
1019.20 0.1697
1019.30 0.1697
1019.40 0.1696
1019.50 0.1696
1019.60 0.1695
1019.70 0.1695
1019.80 0.1695
1019.90 0.1694
1020.00 0.1694
1020.10 0.1694
1020.20 0.1693
1020.30 0.1693
1020.40 0.1693
1020.50 0.1692
1020.60 0.1692
1020.70 0.1691
1020.80 0.1691
1020.90 0.1691
1021.00 0.169
1021.10 0.169
1021.20 0.1689
1021.30 0.1689
1021.40 0.1689
1021.50 0.1688
1021.60 0.1688
1021.70 0.1688
1021.80 0.1687
1021.90 0.1687
1022.00 0.1686
1022.10 0.1686
1022.20 0.1686
1022.30 0.1685
1022.40 0.1685
1022.50 0.1684
1022.60 0.1684
1022.70 0.1684
1022.80 0.1683
1022.90 0.1683
1023.00 0.1682
1023.10 0.1682
1023.20 0.1682
1023.30 0.1681
1023.40 0.1681
1023.50 0.168
1023.60 0.168
1023.70 0.168
1023.80 0.1679
1023.90 0.1679
1024.00 0.1678
1024.10 0.1678
1024.20 0.1677
1024.30 0.1677
1024.40 0.1677
1024.50 0.1676
1024.60 0.1676
1024.70 0.1675
1024.80 0.1675
1024.90 0.1675
1025.00 0.1674
1025.10 0.1674
1025.20 0.1673
1025.30 0.1673
1025.40 0.1673
1025.50 0.1672
1025.60 0.1672
1025.70 0.1671
1025.80 0.1671
1025.90 0.167
1026.00 0.167
1026.10 0.167
1026.20 0.1669
1026.30 0.1669
1026.40 0.1668
1026.50 0.1668
1026.60 0.1667
1026.70 0.1667
1026.80 0.1667
1026.90 0.1666
1027.00 0.1666
1027.10 0.1665
1027.20 0.1665
1027.30 0.1664
1027.40 0.1664
1027.50 0.1664
1027.60 0.1663
1027.70 0.1663
1027.80 0.1662
1027.90 0.1662
1028.00 0.1661
1028.10 0.1661
1028.20 0.1661
1028.30 0.166
1028.40 0.166
1028.50 0.1659
1028.60 0.1659
1028.70 0.1658
1028.80 0.1658
1028.90 0.1658
1029.00 0.1657
1029.10 0.1657
1029.20 0.1656
1029.30 0.1656
1029.40 0.1655
1029.50 0.1655
1029.60 0.1654
1029.70 0.1654
1029.80 0.1654
1029.90 0.1653
1030.00 0.1653
1030.10 0.1652
1030.20 0.1652
1030.30 0.1651
1030.40 0.1651
1030.50 0.1651
1030.60 0.165
1030.70 0.165
1030.80 0.1649
1030.90 0.1649
1031.00 0.1648
1031.10 0.1648
1031.20 0.1648
1031.30 0.1647
1031.40 0.1647
1031.50 0.1646
1031.60 0.1646
1031.70 0.1645
1031.80 0.1645
1031.90 0.1645
1032.00 0.1644
1032.10 0.1644
1032.20 0.1643
1032.30 0.1643
1032.40 0.1642
1032.50 0.1642
1032.60 0.1641
1032.70 0.1641
1032.80 0.1641
1032.90 0.164
1033.00 0.164
1033.10 0.1639
1033.20 0.1639
1033.30 0.1638
1033.40 0.1638
1033.50 0.1637
1033.60 0.1637
1033.70 0.1637
1033.80 0.1636
1033.90 0.1636
1034.00 0.1635
1034.10 0.1635
1034.20 0.1634
1034.30 0.1634
1034.40 0.1633
1034.50 0.1633
1034.60 0.1633
1034.70 0.1632
1034.80 0.1632
1034.90 0.1631
1035.00 0.1631
1035.10 0.163
1035.20 0.163
1035.30 0.163
1035.40 0.1629
1035.50 0.1629
1035.60 0.1628
1035.70 0.1628
1035.80 0.1627
1035.90 0.1627
1036.00 0.1626
1036.10 0.1626
1036.20 0.1626
1036.30 0.1625
1036.40 0.1625
1036.50 0.1624
1036.60 0.1624
1036.70 0.1623
1036.80 0.1623
1036.90 0.1622
1037.00 0.1622
1037.10 0.1622
1037.20 0.1621
1037.30 0.1621
1037.40 0.162
1037.50 0.162
1037.60 0.1619
1037.70 0.1619
1037.80 0.1618
1037.90 0.1618
1038.00 0.1618
1038.10 0.1617
1038.20 0.1617
1038.30 0.1616
1038.40 0.1616
1038.50 0.1615
1038.60 0.1615
1038.70 0.1614
1038.80 0.1614
1038.90 0.1614
1039.00 0.1613
1039.10 0.1613
1039.20 0.1612
1039.30 0.1612
1039.40 0.1611
1039.50 0.1611
1039.60 0.1611
1039.70 0.161
1039.80 0.161
1039.90 0.1609
1040.00 0.1609
1040.10 0.1608
1040.20 0.1608
1040.30 0.1607
1040.40 0.1607
1040.50 0.1607
1040.60 0.1606
1040.70 0.1606
1040.80 0.1605
1040.90 0.1605
1041.00 0.1604
1041.10 0.1604
1041.20 0.1603
1041.30 0.1603
1041.40 0.1603
1041.50 0.1602
1041.60 0.1602
1041.70 0.1601
1041.80 0.1601
1041.90 0.16
1042.00 0.16
1042.10 0.1599
1042.20 0.1599
1042.30 0.1599
1042.40 0.1598
1042.50 0.1598
1042.60 0.1597
1042.70 0.1597
1042.80 0.1596
1042.90 0.1596
1043.00 0.1595
1043.10 0.1595
1043.20 0.1595
1043.30 0.1594
1043.40 0.1594
1043.50 0.1593
1043.60 0.1593
1043.70 0.1592
1043.80 0.1592
1043.90 0.1591
1044.00 0.1591
1044.10 0.1591
1044.20 0.159
1044.30 0.159
1044.40 0.1589
1044.50 0.1589
1044.60 0.1588
1044.70 0.1588
1044.80 0.1587
1044.90 0.1587
1045.00 0.1587
1045.10 0.1586
1045.20 0.1586
1045.30 0.1585
1045.40 0.1585
1045.50 0.1584
1045.60 0.1584
1045.70 0.1584
1045.80 0.1583
1045.90 0.1583
1046.00 0.1582
1046.10 0.1582
1046.20 0.1581
1046.30 0.1581
1046.40 0.158
1046.50 0.158
1046.60 0.158
1046.70 0.1579
1046.80 0.1579
1046.90 0.1578
1047.00 0.1578
1047.10 0.1577
1047.20 0.1577
1047.30 0.1576
1047.40 0.1576
1047.50 0.1576
1047.60 0.1575
1047.70 0.1575
1047.80 0.1574
1047.90 0.1574
1048.00 0.1573
1048.10 0.1573
1048.20 0.1572
1048.30 0.1572
1048.40 0.1572
1048.50 0.1571
1048.60 0.1571
1048.70 0.157
1048.80 0.157
1048.90 0.1569
1049.00 0.1569
1049.10 0.1569
1049.20 0.1568
1049.30 0.1568
1049.40 0.1567
1049.50 0.1567
1049.60 0.1566
1049.70 0.1566
1049.80 0.1565
1049.90 0.1565
1050.00 0.1565
1050.10 0.1564
1050.20 0.1564
1050.30 0.1563
1050.40 0.1563
1050.50 0.1562
1050.60 0.1562
1050.70 0.1561
1050.80 0.1561
1050.90 0.1561
1051.00 0.156
1051.10 0.156
1051.20 0.1559
1051.30 0.1559
1051.40 0.1558
1051.50 0.1558
1051.60 0.1558
1051.70 0.1557
1051.80 0.1557
1051.90 0.1556
1052.00 0.1556
1052.10 0.1555
1052.20 0.1555
1052.30 0.1554
1052.40 0.1554
1052.50 0.1554
1052.60 0.1553
1052.70 0.1553
1052.80 0.1552
1052.90 0.1552
1053.00 0.1551
1053.10 0.1551
1053.20 0.155
1053.30 0.155
1053.40 0.155
1053.50 0.1549
1053.60 0.1549
1053.70 0.1548
1053.80 0.1548
1053.90 0.1547
1054.00 0.1547
1054.10 0.1547
1054.20 0.1546
1054.30 0.1546
1054.40 0.1545
1054.50 0.1545
1054.60 0.1544
1054.70 0.1544
1054.80 0.1543
1054.90 0.1543
1055.00 0.1543
1055.10 0.1542
1055.20 0.1542
1055.30 0.1541
1055.40 0.1541
1055.50 0.154
1055.60 0.154
1055.70 0.154
1055.80 0.1539
1055.90 0.1539
1056.00 0.1538
1056.10 0.1538
1056.20 0.1537
1056.30 0.1537
1056.40 0.1536
1056.50 0.1536
1056.60 0.1536
1056.70 0.1535
1056.80 0.1535
1056.90 0.1534
1057.00 0.1534
1057.10 0.1533
1057.20 0.1533
1057.30 0.1532
1057.40 0.1532
1057.50 0.1532
1057.60 0.1531
1057.70 0.1531
1057.80 0.153
1057.90 0.153
1058.00 0.1529
1058.10 0.1529
1058.20 0.1528
1058.30 0.1528
1058.40 0.1528
1058.50 0.1527
1058.60 0.1527
1058.70 0.1526
1058.80 0.1526
1058.90 0.1525
1059.00 0.1525
1059.10 0.1524
1059.20 0.1524
1059.30 0.1524
1059.40 0.1523
1059.50 0.1523
1059.60 0.1522
1059.70 0.1522
1059.80 0.1521
1059.90 0.1521
1060.00 0.152
1060.10 0.152
1060.20 0.152
1060.30 0.1519
1060.40 0.1519
1060.50 0.1518
1060.60 0.1518
1060.70 0.1517
1060.80 0.1517
1060.90 0.1517
1061.00 0.1516
1061.10 0.1516
1061.20 0.1515
1061.30 0.1515
1061.40 0.1514
1061.50 0.1514
1061.60 0.1513
1061.70 0.1513
1061.80 0.1513
1061.90 0.1512
1062.00 0.1512
1062.10 0.1511
1062.20 0.1511
1062.30 0.151
1062.40 0.151
1062.50 0.1509
1062.60 0.1509
1062.70 0.1508
1062.80 0.1508
1062.90 0.1508
1063.00 0.1507
1063.10 0.1507
1063.20 0.1506
1063.30 0.1506
1063.40 0.1505
1063.50 0.1505
1063.60 0.1504
1063.70 0.1504
1063.80 0.1504
1063.90 0.1503
1064.00 0.1503
1064.10 0.1502
1064.20 0.1502
1064.30 0.1501
1064.40 0.1501
1064.50 0.15
1064.60 0.15
1064.70 0.1499
1064.80 0.1499
1064.90 0.1499
1065.00 0.1498
1065.10 0.1498
1065.20 0.1497
1065.30 0.1497
1065.40 0.1496
1065.50 0.1496
1065.60 0.1495
1065.70 0.1495
1065.80 0.1495
1065.90 0.1494
1066.00 0.1494
1066.10 0.1493
1066.20 0.1493
1066.30 0.1492
1066.40 0.1492
1066.50 0.1491
1066.60 0.1491
1066.70 0.1491
1066.80 0.149
1066.90 0.149
1067.00 0.1489
1067.10 0.1489
1067.20 0.1488
1067.30 0.1488
1067.40 0.1487
1067.50 0.1487
1067.60 0.1486
1067.70 0.1486
1067.80 0.1485
1067.90 0.1485
1068.00 0.1484
1068.10 0.1484
1068.20 0.1484
1068.30 0.1483
1068.40 0.1483
1068.50 0.1482
1068.60 0.1482
1068.70 0.1481
1068.80 0.1481
1068.90 0.148
1069.00 0.148
1069.10 0.1479
1069.20 0.1479
1069.30 0.1478
1069.40 0.1478
1069.50 0.1477
1069.60 0.1477
1069.70 0.1476
1069.80 0.1476
1069.90 0.1476
1070.00 0.1475
1070.10 0.1475
1070.20 0.1474
1070.30 0.1474
1070.40 0.1473
1070.50 0.1473
1070.60 0.1472
1070.70 0.1472
1070.80 0.1471
1070.90 0.1471
1071.00 0.147
1071.10 0.147
1071.20 0.1469
1071.30 0.1469
1071.40 0.1468
1071.50 0.1468
1071.60 0.1468
1071.70 0.1467
1071.80 0.1467
1071.90 0.1466
1072.00 0.1466
1072.10 0.1465
1072.20 0.1465
1072.30 0.1464
1072.40 0.1464
1072.50 0.1463
1072.60 0.1463
1072.70 0.1462
1072.80 0.1462
1072.90 0.1461
1073.00 0.1461
1073.10 0.146
1073.20 0.146
1073.30 0.1459
1073.40 0.1459
1073.50 0.1458
1073.60 0.1458
1073.70 0.1457
1073.80 0.1457
1073.90 0.1456
1074.00 0.1456
1074.10 0.1455
1074.20 0.1455
1074.30 0.1454
1074.40 0.1453
1074.50 0.1453
1074.60 0.1452
1074.70 0.1452
1074.80 0.1451
1074.90 0.1451
1075.00 0.145
1075.10 0.145
1075.20 0.1449
1075.30 0.1449
1075.40 0.1448
1075.50 0.1448
1075.60 0.1447
1075.70 0.1447
1075.80 0.1446
1075.90 0.1446
1076.00 0.1445
1076.10 0.1445
1076.20 0.1444
1076.30 0.1444
1076.40 0.1443
1076.50 0.1443
1076.60 0.1442
1076.70 0.1441
1076.80 0.1441
1076.90 0.144
1077.00 0.144
1077.10 0.1439
1077.20 0.1439
1077.30 0.1438
1077.40 0.1438
1077.50 0.1437
1077.60 0.1436
1077.70 0.1436
1077.80 0.1435
1077.90 0.1435
1078.00 0.1434
1078.10 0.1434
1078.20 0.1433
1078.30 0.1432
1078.40 0.1432
1078.50 0.1431
1078.60 0.1431
1078.70 0.143
1078.80 0.1429
1078.90 0.1429
1079.00 0.1428
1079.10 0.1428
1079.20 0.1427
1079.30 0.1427
1079.40 0.1426
1079.50 0.1425
1079.60 0.1425
1079.70 0.1424
1079.80 0.1423
1079.90 0.1423
1080.00 0.1422
1080.10 0.1422
1080.20 0.1421
1080.30 0.142
1080.40 0.142
1080.50 0.1419
1080.60 0.1418
1080.70 0.1418
1080.80 0.1417
1080.90 0.1416
1081.00 0.1416
1081.10 0.1415
1081.20 0.1415
1081.30 0.1414
1081.40 0.1413
1081.50 0.1413
1081.60 0.1412
1081.70 0.1411
1081.80 0.1411
1081.90 0.141
1082.00 0.1409
1082.10 0.1408
1082.20 0.1408
1082.30 0.1407
1082.40 0.1406
1082.50 0.1406
1082.60 0.1405
1082.70 0.1404
1082.80 0.1403
1082.90 0.1403
1083.00 0.1402
1083.10 0.1401
1083.20 0.14
1083.30 0.14
1083.40 0.1399
1083.50 0.1398
1083.60 0.1397
1083.70 0.1397
1083.80 0.1396
1083.90 0.1395
1084.00 0.1394
1084.10 0.1393
1084.20 0.1393
1084.30 0.1392
1084.40 0.1391
1084.50 0.139
1084.60 0.1389
1084.70 0.1388
1084.80 0.1387
1084.90 0.1387
1085.00 0.1386
1085.10 0.1385
1085.20 0.1384
1085.30 0.1383
1085.40 0.1382
1085.50 0.1381
1085.60 0.138
1085.70 0.1379
1085.80 0.1378
1085.90 0.1378
1086.00 0.1377
1086.10 0.1376
1086.20 0.1375
1086.30 0.1374
1086.40 0.1373
1086.50 0.1372
1086.60 0.1371
1086.70 0.137
1086.80 0.1369
1086.90 0.1368
1087.00 0.1367
1087.10 0.1366
1087.20 0.1365
1087.30 0.1364
1087.40 0.1362
1087.50 0.1361
1087.60 0.136
1087.70 0.1359
1087.80 0.1358
1087.90 0.1357
1088.00 0.1355
1088.10 0.1354
1088.20 0.1353
1088.30 0.1352
1088.40 0.1351
1088.50 0.135
1088.60 0.1348
1088.70 0.1346
1088.80 0.1345
1088.90 0.1343
1089.00 0.1342
1089.10 0.134
1089.20 0.1339
1089.30 0.1337
1089.40 0.1336
1089.50 0.1334
1089.60 0.1332
1089.70 0.1331
1089.80 0.1329
1089.90 0.1328
1090.00 0.1326
1090.10 0.1325
1090.20 0.1323
1090.30 0.1322
1090.40 0.132
1090.50 0.1318
1090.60 0.1316
1090.70 0.1314
1090.80 0.1312
1090.90 0.131
1091.00 0.1308
1091.10 0.1306
1091.20 0.1304
1091.30 0.1302
1091.40 0.13
1091.50 0.1298
1091.60 0.1296
1091.70 0.1293
1091.80 0.1291
1091.90 0.1289
1092.00 0.1287
1092.10 0.1285
1092.20 0.1283
1092.30 0.1281
1092.40 0.1279
1092.50 0.1277
1092.60 0.1275
1092.70 0.1273
1092.80 0.1272
1092.90 0.1271
1093.00 0.1271
1093.10 0.1271
1093.20 0.1273
1093.30 0.1277
1093.40 0.1282
1093.50 0.1284
1093.60 0.1278
1093.70 0.1273
1093.80 0.127
1093.90 0.1267
1094.00 0.1268
1094.10 0.1268
1094.20 0.1268
1094.30 0.1269
1094.40 0.127
1094.50 0.1271
1094.60 0.1273
1094.70 0.1274
1094.80 0.1275
1094.90 0.1277
1095.00 0.1278
1095.10 0.1279
1095.20 0.1281
1095.30 0.1282
1095.40 0.1283
1095.50 0.1285
1095.60 0.1286
1095.70 0.1288
1095.80 0.1289
1095.90 0.129
1096.00 0.1292
1096.10 0.1293
1096.20 0.1294
1096.30 0.1296
1096.40 0.1297
1096.50 0.1298
1096.60 0.1299
1096.70 0.13
1096.80 0.1301
1096.90 0.1303
1097.00 0.1304
1097.10 0.1304
1097.20 0.1305
1097.30 0.1306
1097.40 0.1306
1097.50 0.1307
1097.60 0.1308
1097.70 0.1309
1097.80 0.1309
1097.90 0.131
1098.00 0.1311
1098.10 0.1311
1098.20 0.1312
1098.30 0.1313
1098.40 0.1313
1098.50 0.1314
1098.60 0.1314
1098.70 0.1315
1098.80 0.1315
1098.90 0.1315
1099.00 0.1316
1099.10 0.1316
1099.20 0.1317
1099.30 0.1317
1099.40 0.1317
1099.50 0.1318
1099.60 0.1318
1099.70 0.1318
1099.80 0.1319
1099.90 0.1319
1100.00 0.1319
1100.10 0.132
1100.20 0.132
1100.30 0.1321
1100.40 0.1321
1100.50 0.1321
1100.60 0.1321
1100.70 0.1322
1100.80 0.1322
1100.90 0.1322
1101.00 0.1322
1101.10 0.1322
1101.20 0.1322
1101.30 0.1323
1101.40 0.1323
1101.50 0.1323
1101.60 0.1323
1101.70 0.1323
1101.80 0.1323
1101.90 0.1324
1102.00 0.1324
1102.10 0.1324
1102.20 0.1324
1102.30 0.1324
1102.40 0.1324
1102.50 0.1324
1102.60 0.1324
1102.70 0.1324
1102.80 0.1324
1102.90 0.1324
1103.00 0.1324
1103.10 0.1324
1103.20 0.1324
1103.30 0.1324
1103.40 0.1324
1103.50 0.1324
1103.60 0.1324
1103.70 0.1324
1103.80 0.1324
1103.90 0.1324
1104.00 0.1324
1104.10 0.1324
1104.20 0.1324
1104.30 0.1324
1104.40 0.1324
1104.50 0.1324
1104.60 0.1324
1104.70 0.1324
1104.80 0.1324
1104.90 0.1324
1105.00 0.1324
1105.10 0.1324
1105.20 0.1324
1105.30 0.1324
1105.40 0.1324
1105.50 0.1324
1105.60 0.1323
1105.70 0.1323
1105.80 0.1323
1105.90 0.1323
1106.00 0.1323
1106.10 0.1323
1106.20 0.1323
1106.30 0.1323
1106.40 0.1323
1106.50 0.1322
1106.60 0.1322
1106.70 0.1322
1106.80 0.1322
1106.90 0.1322
1107.00 0.1322
1107.10 0.1322
1107.20 0.1322
1107.30 0.1321
1107.40 0.1321
1107.50 0.1321
1107.60 0.1321
1107.70 0.1321
1107.80 0.1321
1107.90 0.132
1108.00 0.132
1108.10 0.132
1108.20 0.132
1108.30 0.132
1108.40 0.132
1108.50 0.1319
1108.60 0.1319
1108.70 0.1319
1108.80 0.1319
1108.90 0.1319
1109.00 0.1319
1109.10 0.1318
1109.20 0.1318
1109.30 0.1318
1109.40 0.1318
1109.50 0.1318
1109.60 0.1317
1109.70 0.1317
1109.80 0.1317
1109.90 0.1317
1110.00 0.1317
1110.10 0.1316
1110.20 0.1316
1110.30 0.1316
1110.40 0.1316
1110.50 0.1315
1110.60 0.1315
1110.70 0.1315
1110.80 0.1315
1110.90 0.1315
1111.00 0.1314
1111.10 0.1314
1111.20 0.1314
1111.30 0.1314
1111.40 0.1313
1111.50 0.1313
1111.60 0.1313
1111.70 0.1313
1111.80 0.1313
1111.90 0.1312
1112.00 0.1312
1112.10 0.1312
1112.20 0.1312
1112.30 0.1311
1112.40 0.1311
1112.50 0.1311
1112.60 0.1311
1112.70 0.131
1112.80 0.131
1112.90 0.131
1113.00 0.131
1113.10 0.1309
1113.20 0.1309
1113.30 0.1309
1113.40 0.1309
1113.50 0.1308
1113.60 0.1308
1113.70 0.1308
1113.80 0.1308
1113.90 0.1307
1114.00 0.1307
1114.10 0.1307
1114.20 0.1306
1114.30 0.1306
1114.40 0.1306
1114.50 0.1306
1114.60 0.1305
1114.70 0.1305
1114.80 0.1305
1114.90 0.1305
1115.00 0.1304
1115.10 0.1304
1115.20 0.1304
1115.30 0.1303
1115.40 0.1303
1115.50 0.1303
1115.60 0.1303
1115.70 0.1302
1115.80 0.1302
1115.90 0.1302
1116.00 0.1302
1116.10 0.1301
1116.20 0.1301
1116.30 0.1301
1116.40 0.13
1116.50 0.13
1116.60 0.13
1116.70 0.13
1116.80 0.1299
1116.90 0.1299
1117.00 0.1299
1117.10 0.1299
1117.20 0.1298
1117.30 0.1298
1117.40 0.1298
1117.50 0.1297
1117.60 0.1297
1117.70 0.1297
1117.80 0.1296
1117.90 0.1296
1118.00 0.1296
1118.10 0.1296
1118.20 0.1295
1118.30 0.1295
1118.40 0.1295
1118.50 0.1294
1118.60 0.1294
1118.70 0.1294
1118.80 0.1293
1118.90 0.1293
1119.00 0.1293
1119.10 0.1293
1119.20 0.1292
1119.30 0.1292
1119.40 0.1292
1119.50 0.1291
1119.60 0.1291
1119.70 0.1291
1119.80 0.129
1119.90 0.129
1120.00 0.129
1120.10 0.129
1120.20 0.1289
1120.30 0.1289
1120.40 0.1289
1120.50 0.1288
1120.60 0.1288
1120.70 0.1288
1120.80 0.1287
1120.90 0.1287
1121.00 0.1287
1121.10 0.1287
1121.20 0.1286
1121.30 0.1286
1121.40 0.1286
1121.50 0.1285
1121.60 0.1285
1121.70 0.1285
1121.80 0.1285
1121.90 0.1284
1122.00 0.1284
1122.10 0.1284
1122.20 0.1283
1122.30 0.1283
1122.40 0.1283
1122.50 0.1282
1122.60 0.1282
1122.70 0.1282
1122.80 0.1281
1122.90 0.1281
1123.00 0.1281
1123.10 0.128
1123.20 0.128
1123.30 0.128
1123.40 0.128
1123.50 0.1279
1123.60 0.1279
1123.70 0.1279
1123.80 0.1278
1123.90 0.1278
1124.00 0.1278
1124.10 0.1277
1124.20 0.1277
1124.30 0.1277
1124.40 0.1276
1124.50 0.1276
1124.60 0.1276
1124.70 0.1275
1124.80 0.1275
1124.90 0.1275
1125.00 0.1275
1125.10 0.1274
1125.20 0.1274
1125.30 0.1274
1125.40 0.1273
1125.50 0.1273
1125.60 0.1273
1125.70 0.1272
1125.80 0.1272
1125.90 0.1272
1126.00 0.1271
1126.10 0.1271
1126.20 0.1271
1126.30 0.1271
1126.40 0.127
1126.50 0.127
1126.60 0.127
1126.70 0.1269
1126.80 0.1269
1126.90 0.1269
1127.00 0.1268
1127.10 0.1268
1127.20 0.1268
1127.30 0.1267
1127.40 0.1267
1127.50 0.1267
1127.60 0.1266
1127.70 0.1266
1127.80 0.1266
1127.90 0.1265
1128.00 0.1265
1128.10 0.1265
1128.20 0.1265
1128.30 0.1264
1128.40 0.1264
1128.50 0.1264
1128.60 0.1263
1128.70 0.1263
1128.80 0.1263
1128.90 0.1262
1129.00 0.1262
1129.10 0.1262
1129.20 0.1261
1129.30 0.1261
1129.40 0.1261
1129.50 0.126
1129.60 0.126
1129.70 0.126
1129.80 0.1259
1129.90 0.1259
1130.00 0.1259
1130.10 0.1259
1130.20 0.1258
1130.30 0.1258
1130.40 0.1258
1130.50 0.1257
1130.60 0.1257
1130.70 0.1257
1130.80 0.1256
1130.90 0.1256
1131.00 0.1256
1131.10 0.1255
1131.20 0.1255
1131.30 0.1255
1131.40 0.1254
1131.50 0.1254
1131.60 0.1254
1131.70 0.1254
1131.80 0.1253
1131.90 0.1253
1132.00 0.1253
1132.10 0.1252
1132.20 0.1252
1132.30 0.1252
1132.40 0.1251
1132.50 0.1251
1132.60 0.1251
1132.70 0.125
1132.80 0.125
1132.90 0.125
1133.00 0.1249
1133.10 0.1249
1133.20 0.1249
1133.30 0.1248
1133.40 0.1248
1133.50 0.1248
1133.60 0.1247
1133.70 0.1247
1133.80 0.1247
1133.90 0.1247
1134.00 0.1246
1134.10 0.1246
1134.20 0.1246
1134.30 0.1245
1134.40 0.1245
1134.50 0.1245
1134.60 0.1244
1134.70 0.1244
1134.80 0.1244
1134.90 0.1243
1135.00 0.1243
1135.10 0.1243
1135.20 0.1242
1135.30 0.1242
1135.40 0.1242
1135.50 0.1241
1135.60 0.1241
1135.70 0.1241
1135.80 0.124
1135.90 0.124
1136.00 0.124
1136.10 0.124
1136.20 0.1239
1136.30 0.1239
1136.40 0.1239
1136.50 0.1238
1136.60 0.1238
1136.70 0.1238
1136.80 0.1237
1136.90 0.1237
1137.00 0.1237
1137.10 0.1236
1137.20 0.1236
1137.30 0.1236
1137.40 0.1235
1137.50 0.1235
1137.60 0.1235
1137.70 0.1234
1137.80 0.1234
1137.90 0.1234
1138.00 0.1233
1138.10 0.1233
1138.20 0.1233
1138.30 0.1233
1138.40 0.1232
1138.50 0.1232
1138.60 0.1232
1138.70 0.1231
1138.80 0.1231
1138.90 0.1231
1139.00 0.123
1139.10 0.123
1139.20 0.123
1139.30 0.1229
1139.40 0.1229
1139.50 0.1229
1139.60 0.1228
1139.70 0.1228
1139.80 0.1228
1139.90 0.1227
1140.00 0.1227
1140.10 0.1227
1140.20 0.1227
1140.30 0.1226
1140.40 0.1226
1140.50 0.1226
1140.60 0.1225
1140.70 0.1225
1140.80 0.1225
1140.90 0.1224
1141.00 0.1224
1141.10 0.1224
1141.20 0.1223
1141.30 0.1223
1141.40 0.1223
1141.50 0.1222
1141.60 0.1222
1141.70 0.1222
1141.80 0.1222
1141.90 0.1221
1142.00 0.1221
1142.10 0.1221
1142.20 0.122
1142.30 0.122
1142.40 0.122
1142.50 0.1219
1142.60 0.1219
1142.70 0.1219
1142.80 0.1218
1142.90 0.1218
1143.00 0.1218
1143.10 0.1217
1143.20 0.1217
1143.30 0.1217
1143.40 0.1216
1143.50 0.1216
1143.60 0.1216
1143.70 0.1216
1143.80 0.1215
1143.90 0.1215
1144.00 0.1215
1144.10 0.1214
1144.20 0.1214
1144.30 0.1214
1144.40 0.1213
1144.50 0.1213
1144.60 0.1213
1144.70 0.1212
1144.80 0.1212
1144.90 0.1212
1145.00 0.1211
1145.10 0.1211
1145.20 0.1211
1145.30 0.1211
1145.40 0.121
1145.50 0.121
1145.60 0.121
1145.70 0.1209
1145.80 0.1209
1145.90 0.1209
1146.00 0.1208
1146.10 0.1208
1146.20 0.1208
1146.30 0.1207
1146.40 0.1207
1146.50 0.1207
1146.60 0.1206
1146.70 0.1206
1146.80 0.1206
1146.90 0.1206
1147.00 0.1205
1147.10 0.1205
1147.20 0.1205
1147.30 0.1204
1147.40 0.1204
1147.50 0.1204
1147.60 0.1203
1147.70 0.1203
1147.80 0.1203
1147.90 0.1202
1148.00 0.1202
1148.10 0.1202
1148.20 0.1202
1148.30 0.1201
1148.40 0.1201
1148.50 0.1201
1148.60 0.12
1148.70 0.12
1148.80 0.12
1148.90 0.1199
1149.00 0.1199
1149.10 0.1199
1149.20 0.1198
1149.30 0.1198
1149.40 0.1198
1149.50 0.1197
1149.60 0.1197
1149.70 0.1197
1149.80 0.1197
1149.90 0.1196
1150.00 0.1196
1150.10 0.1196
1150.20 0.1195
1150.30 0.1195
1150.40 0.1195
1150.50 0.1194
1150.60 0.1194
1150.70 0.1194
1150.80 0.1193
1150.90 0.1193
1151.00 0.1193
1151.10 0.1193
1151.20 0.1192
1151.30 0.1192
1151.40 0.1192
1151.50 0.1191
1151.60 0.1191
1151.70 0.1191
1151.80 0.119
1151.90 0.119
1152.00 0.119
1152.10 0.1189
1152.20 0.1189
1152.30 0.1189
1152.40 0.1189
1152.50 0.1188
1152.60 0.1188
1152.70 0.1188
1152.80 0.1187
1152.90 0.1187
1153.00 0.1187
1153.10 0.1186
1153.20 0.1186
1153.30 0.1186
1153.40 0.1185
1153.50 0.1185
1153.60 0.1185
1153.70 0.1185
1153.80 0.1184
1153.90 0.1184
1154.00 0.1184
1154.10 0.1183
1154.20 0.1183
1154.30 0.1183
1154.40 0.1182
1154.50 0.1182
1154.60 0.1182
1154.70 0.1182
1154.80 0.1181
1154.90 0.1181
1155.00 0.1181
1155.10 0.118
1155.20 0.118
1155.30 0.118
1155.40 0.1179
1155.50 0.1179
1155.60 0.1179
1155.70 0.1178
1155.80 0.1178
1155.90 0.1178
1156.00 0.1178
1156.10 0.1177
1156.20 0.1177
1156.30 0.1177
1156.40 0.1176
1156.50 0.1176
1156.60 0.1176
1156.70 0.1175
1156.80 0.1175
1156.90 0.1175
1157.00 0.1175
1157.10 0.1174
1157.20 0.1174
1157.30 0.1174
1157.40 0.1173
1157.50 0.1173
1157.60 0.1173
1157.70 0.1172
1157.80 0.1172
1157.90 0.1172
1158.00 0.1172
1158.10 0.1171
1158.20 0.1171
1158.30 0.1171
1158.40 0.117
1158.50 0.117
1158.60 0.117
1158.70 0.1169
1158.80 0.1169
1158.90 0.1169
1159.00 0.1168
1159.10 0.1168
1159.20 0.1168
1159.30 0.1168
1159.40 0.1167
1159.50 0.1167
1159.60 0.1167
1159.70 0.1166
1159.80 0.1166
1159.90 0.1166
1160.00 0.1165
1160.10 0.1165
1160.20 0.1165
1160.30 0.1165
1160.40 0.1164
1160.50 0.1164
1160.60 0.1164
1160.70 0.1163
1160.80 0.1163
1160.90 0.1163
1161.00 0.1162
1161.10 0.1162
1161.20 0.1162
1161.30 0.1162
1161.40 0.1161
1161.50 0.1161
1161.60 0.1161
1161.70 0.116
1161.80 0.116
1161.90 0.116
1162.00 0.116
1162.10 0.1159
1162.20 0.1159
1162.30 0.1159
1162.40 0.1158
1162.50 0.1158
1162.60 0.1158
1162.70 0.1157
1162.80 0.1157
1162.90 0.1157
1163.00 0.1157
1163.10 0.1156
1163.20 0.1156
1163.30 0.1156
1163.40 0.1155
1163.50 0.1155
1163.60 0.1155
1163.70 0.1154
1163.80 0.1154
1163.90 0.1154
1164.00 0.1154
1164.10 0.1153
1164.20 0.1153
1164.30 0.1153
1164.40 0.1152
1164.50 0.1152
1164.60 0.1152
1164.70 0.1151
1164.80 0.1151
1164.90 0.1151
1165.00 0.1151
1165.10 0.115
1165.20 0.115
1165.30 0.115
1165.40 0.1149
1165.50 0.1149
1165.60 0.1149
1165.70 0.1148
1165.80 0.1148
1165.90 0.1148
1166.00 0.1148
1166.10 0.1147
1166.20 0.1147
1166.30 0.1147
1166.40 0.1146
1166.50 0.1146
1166.60 0.1146
1166.70 0.1146
1166.80 0.1145
1166.90 0.1145
1167.00 0.1145
1167.10 0.1144
1167.20 0.1144
1167.30 0.1144
1167.40 0.1143
1167.50 0.1143
1167.60 0.1143
1167.70 0.1143
1167.80 0.1142
1167.90 0.1142
1168.00 0.1142
1168.10 0.1141
1168.20 0.1141
1168.30 0.1141
1168.40 0.1141
1168.50 0.114
1168.60 0.114
1168.70 0.114
1168.80 0.1139
1168.90 0.1139
1169.00 0.1139
1169.10 0.1138
1169.20 0.1138
1169.30 0.1138
1169.40 0.1138
1169.50 0.1137
1169.60 0.1137
1169.70 0.1137
1169.80 0.1136
1169.90 0.1136
1170.00 0.1136
1170.10 0.1136
1170.20 0.1135
1170.30 0.1135
1170.40 0.1135
1170.50 0.1134
1170.60 0.1134
1170.70 0.1134
1170.80 0.1134
1170.90 0.1133
1171.00 0.1133
1171.10 0.1133
1171.20 0.1132
1171.30 0.1132
1171.40 0.1132
1171.50 0.1131
1171.60 0.1131
1171.70 0.1131
1171.80 0.1131
1171.90 0.113
1172.00 0.113
1172.10 0.113
1172.20 0.1129
1172.30 0.1129
1172.40 0.1129
1172.50 0.1129
1172.60 0.1128
1172.70 0.1128
1172.80 0.1128
1172.90 0.1127
1173.00 0.1127
1173.10 0.1127
1173.20 0.1127
1173.30 0.1126
1173.40 0.1126
1173.50 0.1126
1173.60 0.1125
1173.70 0.1125
1173.80 0.1125
1173.90 0.1125
1174.00 0.1124
1174.10 0.1124
1174.20 0.1124
1174.30 0.1123
1174.40 0.1123
1174.50 0.1123
1174.60 0.1123
1174.70 0.1122
1174.80 0.1122
1174.90 0.1122
1175.00 0.1121
1175.10 0.1121
1175.20 0.1121
1175.30 0.1121
1175.40 0.112
1175.50 0.112
1175.60 0.112
1175.70 0.1119
1175.80 0.1119
1175.90 0.1119
1176.00 0.1118
1176.10 0.1118
1176.20 0.1118
1176.30 0.1118
1176.40 0.1117
1176.50 0.1117
1176.60 0.1117
1176.70 0.1116
1176.80 0.1116
1176.90 0.1116
1177.00 0.1116
1177.10 0.1115
1177.20 0.1115
1177.30 0.1115
1177.40 0.1114
1177.50 0.1114
1177.60 0.1114
1177.70 0.1114
1177.80 0.1113
1177.90 0.1113
1178.00 0.1113
1178.10 0.1112
1178.20 0.1112
1178.30 0.1112
1178.40 0.1112
1178.50 0.1111
1178.60 0.1111
1178.70 0.1111
1178.80 0.111
1178.90 0.111
1179.00 0.111
1179.10 0.111
1179.20 0.1109
1179.30 0.1109
1179.40 0.1109
1179.50 0.1109
1179.60 0.1108
1179.70 0.1108
1179.80 0.1108
1179.90 0.1107
1180.00 0.1107
1180.10 0.1107
1180.20 0.1107
1180.30 0.1106
1180.40 0.1106
1180.50 0.1106
1180.60 0.1105
1180.70 0.1105
1180.80 0.1105
1180.90 0.1105
1181.00 0.1104
1181.10 0.1104
1181.20 0.1104
1181.30 0.1103
1181.40 0.1103
1181.50 0.1103
1181.60 0.1103
1181.70 0.1102
1181.80 0.1102
1181.90 0.1102
1182.00 0.1101
1182.10 0.1101
1182.20 0.1101
1182.30 0.1101
1182.40 0.11
1182.50 0.11
1182.60 0.11
1182.70 0.1099
1182.80 0.1099
1182.90 0.1099
1183.00 0.1099
1183.10 0.1098
1183.20 0.1098
1183.30 0.1098
1183.40 0.1097
1183.50 0.1097
1183.60 0.1097
1183.70 0.1097
1183.80 0.1096
1183.90 0.1096
1184.00 0.1096
1184.10 0.1096
1184.20 0.1095
1184.30 0.1095
1184.40 0.1095
1184.50 0.1094
1184.60 0.1094
1184.70 0.1094
1184.80 0.1094
1184.90 0.1093
1185.00 0.1093
1185.10 0.1093
1185.20 0.1092
1185.30 0.1092
1185.40 0.1092
1185.50 0.1092
1185.60 0.1091
1185.70 0.1091
1185.80 0.1091
1185.90 0.1091
1186.00 0.109
1186.10 0.109
1186.20 0.109
1186.30 0.1089
1186.40 0.1089
1186.50 0.1089
1186.60 0.1089
1186.70 0.1088
1186.80 0.1088
1186.90 0.1088
1187.00 0.1087
1187.10 0.1087
1187.20 0.1087
1187.30 0.1087
1187.40 0.1086
1187.50 0.1086
1187.60 0.1086
1187.70 0.1085
1187.80 0.1085
1187.90 0.1085
1188.00 0.1085
1188.10 0.1084
1188.20 0.1084
1188.30 0.1084
1188.40 0.1084
1188.50 0.1083
1188.60 0.1083
1188.70 0.1083
1188.80 0.1082
1188.90 0.1082
1189.00 0.1082
1189.10 0.1082
1189.20 0.1081
1189.30 0.1081
1189.40 0.1081
1189.50 0.1081
1189.60 0.108
1189.70 0.108
1189.80 0.108
1189.90 0.1079
1190.00 0.1079
1190.10 0.1079
1190.20 0.1079
1190.30 0.1078
1190.40 0.1078
1190.50 0.1078
1190.60 0.1077
1190.70 0.1077
1190.80 0.1077
1190.90 0.1077
1191.00 0.1076
1191.10 0.1076
1191.20 0.1076
1191.30 0.1076
1191.40 0.1075
1191.50 0.1075
1191.60 0.1075
1191.70 0.1074
1191.80 0.1074
1191.90 0.1074
1192.00 0.1074
1192.10 0.1073
1192.20 0.1073
1192.30 0.1073
1192.40 0.1073
1192.50 0.1072
1192.60 0.1072
1192.70 0.1072
1192.80 0.1071
1192.90 0.1071
1193.00 0.1071
1193.10 0.1071
1193.20 0.107
1193.30 0.107
1193.40 0.107
1193.50 0.107
1193.60 0.1069
1193.70 0.1069
1193.80 0.1069
1193.90 0.1068
1194.00 0.1068
1194.10 0.1068
1194.20 0.1068
1194.30 0.1067
1194.40 0.1067
1194.50 0.1067
1194.60 0.1067
1194.70 0.1066
1194.80 0.1066
1194.90 0.1066
1195.00 0.1065
1195.10 0.1065
1195.20 0.1065
1195.30 0.1065
1195.40 0.1064
1195.50 0.1064
1195.60 0.1064
1195.70 0.1064
1195.80 0.1063
1195.90 0.1063
1196.00 0.1063
1196.10 0.1063
1196.20 0.1062
1196.30 0.1062
1196.40 0.1062
1196.50 0.1061
1196.60 0.1061
1196.70 0.1061
1196.80 0.1061
1196.90 0.106
1197.00 0.106
1197.10 0.106
1197.20 0.106
1197.30 0.1059
1197.40 0.1059
1197.50 0.1059
1197.60 0.1058
1197.70 0.1058
1197.80 0.1058
1197.90 0.1058
1198.00 0.1057
1198.10 0.1057
1198.20 0.1057
1198.30 0.1057
1198.40 0.1056
1198.50 0.1056
1198.60 0.1056
1198.70 0.1056
1198.80 0.1055
1198.90 0.1055
1199.00 0.1055
1199.10 0.1054
1199.20 0.1054
1199.30 0.1054
1199.40 0.1054
1199.50 0.1053
1199.60 0.1053
1199.70 0.1053
1199.80 0.1053
1199.90 0.1052
1200.00 0
