# Version 2.1 - nm, norm@500 to 1, cut digits, bergeron_2250_65.dat_2250
# Wavelength(nm)  Flambda(ergs/cm^s/s/nm)
300.00 0.02201
300.10 0.02209
300.20 0.02218
300.30 0.02227
300.40 0.02236
300.50 0.02245
300.60 0.02254
300.70 0.02263
300.80 0.02272
300.90 0.02281
301.00 0.0229
301.10 0.02299
301.20 0.02308
301.30 0.02317
301.40 0.02326
301.50 0.02335
301.60 0.02344
301.70 0.02353
301.80 0.02361
301.90 0.0237
302.00 0.02379
302.10 0.02389
302.20 0.02398
302.30 0.02408
302.40 0.02417
302.50 0.02427
302.60 0.02437
302.70 0.02446
302.80 0.02456
302.90 0.02465
303.00 0.02475
303.10 0.02484
303.20 0.02494
303.30 0.02503
303.40 0.02513
303.50 0.02522
303.60 0.02531
303.70 0.02541
303.80 0.0255
303.90 0.0256
304.00 0.02569
304.10 0.02579
304.20 0.02589
304.30 0.02599
304.40 0.0261
304.50 0.0262
304.60 0.0263
304.70 0.0264
304.80 0.0265
304.90 0.0266
305.00 0.0267
305.10 0.0268
305.20 0.0269
305.30 0.027
305.40 0.0271
305.50 0.0272
305.60 0.0273
305.70 0.0274
305.80 0.0275
305.90 0.0276
306.00 0.02771
306.10 0.02781
306.20 0.02792
306.30 0.02803
306.40 0.02813
306.50 0.02824
306.60 0.02835
306.70 0.02845
306.80 0.02856
306.90 0.02867
307.00 0.02877
307.10 0.02888
307.20 0.02899
307.30 0.02909
307.40 0.0292
307.50 0.02931
307.60 0.02941
307.70 0.02952
307.80 0.02962
307.90 0.02973
308.00 0.02984
308.10 0.02995
308.20 0.03006
308.30 0.03017
308.40 0.03029
308.50 0.0304
308.60 0.03051
308.70 0.03063
308.80 0.03074
308.90 0.03085
309.00 0.03097
309.10 0.03108
309.20 0.03119
309.30 0.0313
309.40 0.03142
309.50 0.03153
309.60 0.03164
309.70 0.03175
309.80 0.03186
309.90 0.03197
310.00 0.03209
310.10 0.03221
310.20 0.03233
310.30 0.03245
310.40 0.03257
310.50 0.03269
310.60 0.03281
310.70 0.03293
310.80 0.03305
310.90 0.03317
311.00 0.03329
311.10 0.0334
311.20 0.03352
311.30 0.03364
311.40 0.03376
311.50 0.03388
311.60 0.034
311.70 0.03412
311.80 0.03423
311.90 0.03435
312.00 0.03447
312.10 0.03459
312.20 0.03471
312.30 0.03483
312.40 0.03496
312.50 0.03509
312.60 0.03521
312.70 0.03534
312.80 0.03546
312.90 0.03559
313.00 0.03572
313.10 0.03584
313.20 0.03597
313.30 0.03609
313.40 0.03622
313.50 0.03634
313.60 0.03647
313.70 0.03659
313.80 0.03672
313.90 0.03684
314.00 0.03697
314.10 0.0371
314.20 0.03723
314.30 0.03737
314.40 0.0375
314.50 0.03763
314.60 0.03776
314.70 0.0379
314.80 0.03803
314.90 0.03816
315.00 0.03829
315.10 0.03843
315.20 0.03856
315.30 0.03869
315.40 0.03882
315.50 0.03895
315.60 0.03908
315.70 0.03921
315.80 0.03934
315.90 0.03948
316.00 0.03961
316.10 0.03975
316.20 0.03989
316.30 0.04003
316.40 0.04017
316.50 0.04031
316.60 0.04045
316.70 0.04059
316.80 0.04072
316.90 0.04086
317.00 0.041
317.10 0.04114
317.20 0.04128
317.30 0.04142
317.40 0.04156
317.50 0.04169
317.60 0.04183
317.70 0.04197
317.80 0.04211
317.90 0.04225
318.00 0.04239
318.10 0.04253
318.20 0.04268
318.30 0.04282
318.40 0.04297
318.50 0.04312
318.60 0.04326
318.70 0.04341
318.80 0.04356
318.90 0.0437
319.00 0.04385
319.10 0.04399
319.20 0.04414
319.30 0.04429
319.40 0.04443
319.50 0.04458
319.60 0.04472
319.70 0.04486
319.80 0.04501
319.90 0.04515
320.00 0.0453
320.10 0.04546
320.20 0.04561
320.30 0.04576
320.40 0.04592
320.50 0.04607
320.60 0.04622
320.70 0.04638
320.80 0.04653
320.90 0.04668
321.00 0.04684
321.10 0.04699
321.20 0.04714
321.30 0.0473
321.40 0.04745
321.50 0.0476
321.60 0.04775
321.70 0.0479
321.80 0.04806
321.90 0.04821
322.00 0.04836
322.10 0.04852
322.20 0.04868
322.30 0.04885
322.40 0.04901
322.50 0.04917
322.60 0.04933
322.70 0.04949
322.80 0.04965
322.90 0.04981
323.00 0.04997
323.10 0.05013
323.20 0.05029
323.30 0.05045
323.40 0.05061
323.50 0.05077
323.60 0.05093
323.70 0.05109
323.80 0.05125
323.90 0.05141
324.00 0.05157
324.10 0.05174
324.20 0.05191
324.30 0.05208
324.40 0.05225
324.50 0.05241
324.60 0.05258
324.70 0.05275
324.80 0.05292
324.90 0.05309
325.00 0.05326
325.10 0.05343
325.20 0.05359
325.30 0.05376
325.40 0.05393
325.50 0.05409
325.60 0.05426
325.70 0.05443
325.80 0.05459
325.90 0.05476
326.00 0.05493
326.10 0.0551
326.20 0.05528
326.30 0.05546
326.40 0.05564
326.50 0.05581
326.60 0.05599
326.70 0.05617
326.80 0.05634
326.90 0.05652
327.00 0.0567
327.10 0.05687
327.20 0.05705
327.30 0.05722
327.40 0.0574
327.50 0.05757
327.60 0.05775
327.70 0.05792
327.80 0.05809
327.90 0.05827
328.00 0.05845
328.10 0.05863
328.20 0.05881
328.30 0.059
328.40 0.05918
328.50 0.05937
328.60 0.05955
328.70 0.05974
328.80 0.05992
328.90 0.06011
329.00 0.06029
329.10 0.06047
329.20 0.06066
329.30 0.06084
329.40 0.06102
329.50 0.0612
329.60 0.06139
329.70 0.06157
329.80 0.06175
329.90 0.06193
330.00 0.06211
330.10 0.06231
330.20 0.0625
330.30 0.0627
330.40 0.06289
330.50 0.06308
330.60 0.06327
330.70 0.06347
330.80 0.06366
330.90 0.06385
331.00 0.06404
331.10 0.06424
331.20 0.06443
331.30 0.06462
331.40 0.06481
331.50 0.065
331.60 0.06519
331.70 0.06538
331.80 0.06557
331.90 0.06576
332.00 0.06595
332.10 0.06615
332.20 0.06635
332.30 0.06656
332.40 0.06676
332.50 0.06696
332.60 0.06716
332.70 0.06736
332.80 0.06756
332.90 0.06776
333.00 0.06796
333.10 0.06816
333.20 0.06836
333.30 0.06856
333.40 0.06876
333.50 0.06896
333.60 0.06916
333.70 0.06935
333.80 0.06955
333.90 0.06975
334.00 0.06995
334.10 0.07016
334.20 0.07037
334.30 0.07058
334.40 0.07079
334.50 0.071
334.60 0.07121
334.70 0.07142
334.80 0.07163
334.90 0.07184
335.00 0.07204
335.10 0.07225
335.20 0.07246
335.30 0.07267
335.40 0.07288
335.50 0.07308
335.60 0.07329
335.70 0.0735
335.80 0.0737
335.90 0.07391
336.00 0.07411
336.10 0.07433
336.20 0.07455
336.30 0.07477
336.40 0.07499
336.50 0.07521
336.60 0.07543
336.70 0.07565
336.80 0.07586
336.90 0.07608
337.00 0.0763
337.10 0.07651
337.20 0.07673
337.30 0.07695
337.40 0.07716
337.50 0.07738
337.60 0.07759
337.70 0.07781
337.80 0.07802
337.90 0.07824
338.00 0.07845
338.10 0.07868
338.20 0.07891
338.30 0.07914
338.40 0.07936
338.50 0.07959
338.60 0.07982
338.70 0.08004
338.80 0.08027
338.90 0.0805
339.00 0.08072
339.10 0.08095
339.20 0.08117
339.30 0.0814
339.40 0.08162
339.50 0.08185
339.60 0.08207
339.70 0.08229
339.80 0.08252
339.90 0.08274
340.00 0.08296
340.10 0.0832
340.20 0.08344
340.30 0.08367
340.40 0.08391
340.50 0.08414
340.60 0.08438
340.70 0.08462
340.80 0.08485
340.90 0.08509
341.00 0.08532
341.10 0.08555
341.20 0.08579
341.30 0.08602
341.40 0.08625
341.50 0.08649
341.60 0.08672
341.70 0.08695
341.80 0.08719
341.90 0.08742
342.00 0.08765
342.10 0.08789
342.20 0.08814
342.30 0.08839
342.40 0.08863
342.50 0.08888
342.60 0.08912
342.70 0.08936
342.80 0.08961
342.90 0.08985
343.00 0.0901
343.10 0.09034
343.20 0.09058
343.30 0.09082
343.40 0.09107
343.50 0.09131
343.60 0.09155
343.70 0.09179
343.80 0.09203
343.90 0.09227
344.00 0.09251
344.10 0.09277
344.20 0.09302
344.30 0.09328
344.40 0.09353
344.50 0.09379
344.60 0.09404
344.70 0.09429
344.80 0.09455
344.90 0.0948
345.00 0.09505
345.10 0.0953
345.20 0.09556
345.30 0.09581
345.40 0.09606
345.50 0.09631
345.60 0.09656
345.70 0.09681
345.80 0.09706
345.90 0.09731
346.00 0.09756
346.10 0.09783
346.20 0.09809
346.30 0.09835
346.40 0.09862
346.50 0.09888
346.60 0.09914
346.70 0.09941
346.80 0.09967
346.90 0.09993
347.00 0.1002
347.10 0.1005
347.20 0.1007
347.30 0.101
347.40 0.1012
347.50 0.1015
347.60 0.1018
347.70 0.102
347.80 0.1023
347.90 0.1025
348.00 0.1028
348.10 0.1031
348.20 0.1033
348.30 0.1036
348.40 0.1039
348.50 0.1042
348.60 0.1044
348.70 0.1047
348.80 0.105
348.90 0.1052
349.00 0.1055
349.10 0.1058
349.20 0.1061
349.30 0.1063
349.40 0.1066
349.50 0.1069
349.60 0.1071
349.70 0.1074
349.80 0.1077
349.90 0.1079
350.00 0.1082
350.10 0.1085
350.20 0.1088
350.30 0.1091
350.40 0.1093
350.50 0.1096
350.60 0.1099
350.70 0.1102
350.80 0.1105
350.90 0.1107
351.00 0.111
351.10 0.1113
351.20 0.1116
351.30 0.1119
351.40 0.1121
351.50 0.1124
351.60 0.1127
351.70 0.113
351.80 0.1133
351.90 0.1135
352.00 0.1138
352.10 0.1141
352.20 0.1144
352.30 0.1147
352.40 0.115
352.50 0.1153
352.60 0.1156
352.70 0.1158
352.80 0.1161
352.90 0.1164
353.00 0.1167
353.10 0.117
353.20 0.1173
353.30 0.1176
353.40 0.1179
353.50 0.1182
353.60 0.1184
353.70 0.1187
353.80 0.119
353.90 0.1193
354.00 0.1196
354.10 0.1199
354.20 0.1202
354.30 0.1205
354.40 0.1208
354.50 0.1211
354.60 0.1214
354.70 0.1217
354.80 0.122
354.90 0.1223
355.00 0.1226
355.10 0.1229
355.20 0.1232
355.30 0.1235
355.40 0.1238
355.50 0.1241
355.60 0.1244
355.70 0.1247
355.80 0.125
355.90 0.1253
356.00 0.1256
356.10 0.1259
356.20 0.1262
356.30 0.1265
356.40 0.1268
356.50 0.1271
356.60 0.1274
356.70 0.1278
356.80 0.1281
356.90 0.1284
357.00 0.1287
357.10 0.129
357.20 0.1293
357.30 0.1296
357.40 0.1299
357.50 0.1302
357.60 0.1305
357.70 0.1308
357.80 0.1311
357.90 0.1314
358.00 0.1318
358.10 0.1321
358.20 0.1324
358.30 0.1327
358.40 0.133
358.50 0.1334
358.60 0.1337
358.70 0.134
358.80 0.1343
358.90 0.1346
359.00 0.135
359.10 0.1353
359.20 0.1356
359.30 0.1359
359.40 0.1362
359.50 0.1365
359.60 0.1369
359.70 0.1372
359.80 0.1375
359.90 0.1378
360.00 0.1381
360.10 0.1385
360.20 0.1388
360.30 0.1391
360.40 0.1394
360.50 0.1398
360.60 0.1401
360.70 0.1404
360.80 0.1408
360.90 0.1411
361.00 0.1414
361.10 0.1417
361.20 0.1421
361.30 0.1424
361.40 0.1427
361.50 0.1431
361.60 0.1434
361.70 0.1437
361.80 0.144
361.90 0.1444
362.00 0.1447
362.10 0.145
362.20 0.1454
362.30 0.1457
362.40 0.146
362.50 0.1464
362.60 0.1467
362.70 0.147
362.80 0.1474
362.90 0.1477
363.00 0.148
363.10 0.1484
363.20 0.1487
363.30 0.1491
363.40 0.1494
363.50 0.1498
363.60 0.1501
363.70 0.1504
363.80 0.1508
363.90 0.1511
364.00 0.1515
364.10 0.1518
364.20 0.1521
364.30 0.1525
364.40 0.1528
364.50 0.1532
364.60 0.1535
364.70 0.1539
364.80 0.1542
364.90 0.1546
365.00 0.1549
365.10 0.1553
365.20 0.1556
365.30 0.156
365.40 0.1563
365.50 0.1567
365.60 0.157
365.70 0.1574
365.80 0.1577
365.90 0.1581
366.00 0.1584
366.10 0.1588
366.20 0.1591
366.30 0.1595
366.40 0.1598
366.50 0.1602
366.60 0.1606
366.70 0.1609
366.80 0.1613
366.90 0.1616
367.00 0.162
367.10 0.1624
367.20 0.1627
367.30 0.1631
367.40 0.1634
367.50 0.1638
367.60 0.1641
367.70 0.1645
367.80 0.1648
367.90 0.1652
368.00 0.1656
368.10 0.1659
368.20 0.1663
368.30 0.1667
368.40 0.167
368.50 0.1674
368.60 0.1678
368.70 0.1681
368.80 0.1685
368.90 0.1689
369.00 0.1692
369.10 0.1696
369.20 0.17
369.30 0.1703
369.40 0.1707
369.50 0.1711
369.60 0.1714
369.70 0.1718
369.80 0.1722
369.90 0.1725
370.00 0.1729
370.10 0.1733
370.20 0.1737
370.30 0.174
370.40 0.1744
370.50 0.1748
370.60 0.1752
370.70 0.1756
370.80 0.1759
370.90 0.1763
371.00 0.1767
371.10 0.1771
371.20 0.1775
371.30 0.1778
371.40 0.1782
371.50 0.1786
371.60 0.179
371.70 0.1793
371.80 0.1797
371.90 0.1801
372.00 0.1804
372.10 0.1808
372.20 0.1812
372.30 0.1816
372.40 0.182
372.50 0.1824
372.60 0.1828
372.70 0.1832
372.80 0.1836
372.90 0.184
373.00 0.1843
373.10 0.1847
373.20 0.1851
373.30 0.1855
373.40 0.1859
373.50 0.1863
373.60 0.1867
373.70 0.1871
373.80 0.1874
373.90 0.1878
374.00 0.1882
374.10 0.1886
374.20 0.189
374.30 0.1894
374.40 0.1898
374.50 0.1902
374.60 0.1906
374.70 0.191
374.80 0.1914
374.90 0.1918
375.00 0.1922
375.10 0.1926
375.20 0.193
375.30 0.1934
375.40 0.1938
375.50 0.1942
375.60 0.1946
375.70 0.195
375.80 0.1954
375.90 0.1958
376.00 0.1961
376.10 0.1966
376.20 0.197
376.30 0.1974
376.40 0.1978
376.50 0.1982
376.60 0.1986
376.70 0.199
376.80 0.1994
376.90 0.1998
377.00 0.2002
377.10 0.2006
377.20 0.201
377.30 0.2014
377.40 0.2018
377.50 0.2022
377.60 0.2027
377.70 0.2031
377.80 0.2035
377.90 0.2039
378.00 0.2043
378.10 0.2047
378.20 0.2051
378.30 0.2055
378.40 0.206
378.50 0.2064
378.60 0.2068
378.70 0.2072
378.80 0.2076
378.90 0.208
379.00 0.2084
379.10 0.2089
379.20 0.2093
379.30 0.2097
379.40 0.2101
379.50 0.2105
379.60 0.211
379.70 0.2114
379.80 0.2118
379.90 0.2122
380.00 0.2126
380.10 0.2131
380.20 0.2135
380.30 0.2139
380.40 0.2143
380.50 0.2148
380.60 0.2152
380.70 0.2156
380.80 0.216
380.90 0.2165
381.00 0.2169
381.10 0.2173
381.20 0.2177
381.30 0.2182
381.40 0.2186
381.50 0.219
381.60 0.2195
381.70 0.2199
381.80 0.2203
381.90 0.2207
382.00 0.2212
382.10 0.2216
382.20 0.222
382.30 0.2225
382.40 0.2229
382.50 0.2234
382.60 0.2238
382.70 0.2242
382.80 0.2247
382.90 0.2251
383.00 0.2255
383.10 0.226
383.20 0.2264
383.30 0.2268
383.40 0.2273
383.50 0.2277
383.60 0.2282
383.70 0.2286
383.80 0.229
383.90 0.2295
384.00 0.2299
384.10 0.2304
384.20 0.2308
384.30 0.2312
384.40 0.2317
384.50 0.2321
384.60 0.2326
384.70 0.233
384.80 0.2335
384.90 0.2339
385.00 0.2344
385.10 0.2348
385.20 0.2353
385.30 0.2357
385.40 0.2362
385.50 0.2366
385.60 0.2371
385.70 0.2375
385.80 0.238
385.90 0.2384
386.00 0.2389
386.10 0.2393
386.20 0.2398
386.30 0.2402
386.40 0.2407
386.50 0.2411
386.60 0.2416
386.70 0.242
386.80 0.2425
386.90 0.2429
387.00 0.2434
387.10 0.2439
387.20 0.2443
387.30 0.2448
387.40 0.2452
387.50 0.2457
387.60 0.2461
387.70 0.2466
387.80 0.2471
387.90 0.2475
388.00 0.248
388.10 0.2484
388.20 0.2489
388.30 0.2494
388.40 0.2498
388.50 0.2503
388.60 0.2508
388.70 0.2512
388.80 0.2517
388.90 0.2522
389.00 0.2526
389.10 0.2531
389.20 0.2536
389.30 0.254
389.40 0.2545
389.50 0.255
389.60 0.2554
389.70 0.2559
389.80 0.2564
389.90 0.2568
390.00 0.2573
390.10 0.2578
390.20 0.2583
390.30 0.2587
390.40 0.2592
390.50 0.2597
390.60 0.2602
390.70 0.2606
390.80 0.2611
390.90 0.2616
391.00 0.2621
391.10 0.2625
391.20 0.263
391.30 0.2635
391.40 0.264
391.50 0.2644
391.60 0.2649
391.70 0.2654
391.80 0.2659
391.90 0.2664
392.00 0.2668
392.10 0.2673
392.20 0.2678
392.30 0.2683
392.40 0.2688
392.50 0.2693
392.60 0.2697
392.70 0.2702
392.80 0.2707
392.90 0.2712
393.00 0.2717
393.10 0.2722
393.20 0.2727
393.30 0.2731
393.40 0.2736
393.50 0.2741
393.60 0.2746
393.70 0.2751
393.80 0.2756
393.90 0.2761
394.00 0.2766
394.10 0.2771
394.20 0.2775
394.30 0.278
394.40 0.2785
394.50 0.279
394.60 0.2795
394.70 0.28
394.80 0.2805
394.90 0.281
395.00 0.2815
395.10 0.282
395.20 0.2825
395.30 0.283
395.40 0.2835
395.50 0.284
395.60 0.2845
395.70 0.285
395.80 0.2855
395.90 0.286
396.00 0.2865
396.10 0.287
396.20 0.2875
396.30 0.288
396.40 0.2885
396.50 0.289
396.60 0.2895
396.70 0.29
396.80 0.2905
396.90 0.291
397.00 0.2915
397.10 0.292
397.20 0.2925
397.30 0.293
397.40 0.2935
397.50 0.294
397.60 0.2945
397.70 0.295
397.80 0.2955
397.90 0.2961
398.00 0.2966
398.10 0.2971
398.20 0.2976
398.30 0.2981
398.40 0.2986
398.50 0.2991
398.60 0.2996
398.70 0.3001
398.80 0.3007
398.90 0.3012
399.00 0.3017
399.10 0.3022
399.20 0.3027
399.30 0.3032
399.40 0.3037
399.50 0.3043
399.60 0.3048
399.70 0.3053
399.80 0.3058
399.90 0.3063
400.00 0.3068
400.10 0.3074
400.20 0.3079
400.30 0.3084
400.40 0.3089
400.50 0.3095
400.60 0.31
400.70 0.3105
400.80 0.311
400.90 0.3115
401.00 0.3121
401.10 0.3126
401.20 0.3131
401.30 0.3136
401.40 0.3142
401.50 0.3147
401.60 0.3152
401.70 0.3157
401.80 0.3163
401.90 0.3168
402.00 0.3173
402.10 0.3179
402.20 0.3184
402.30 0.3189
402.40 0.3194
402.50 0.32
402.60 0.3205
402.70 0.321
402.80 0.3216
402.90 0.3221
403.00 0.3226
403.10 0.3232
403.20 0.3237
403.30 0.3242
403.40 0.3248
403.50 0.3253
403.60 0.3258
403.70 0.3264
403.80 0.3269
403.90 0.3274
404.00 0.328
404.10 0.3285
404.20 0.3291
404.30 0.3296
404.40 0.3301
404.50 0.3307
404.60 0.3312
404.70 0.3318
404.80 0.3323
404.90 0.3328
405.00 0.3334
405.10 0.3339
405.20 0.3345
405.30 0.335
405.40 0.3356
405.50 0.3361
405.60 0.3366
405.70 0.3372
405.80 0.3377
405.90 0.3383
406.00 0.3388
406.10 0.3394
406.20 0.3399
406.30 0.3405
406.40 0.341
406.50 0.3416
406.60 0.3421
406.70 0.3427
406.80 0.3432
406.90 0.3438
407.00 0.3443
407.10 0.3449
407.20 0.3454
407.30 0.346
407.40 0.3465
407.50 0.3471
407.60 0.3476
407.70 0.3482
407.80 0.3487
407.90 0.3493
408.00 0.3498
408.10 0.3504
408.20 0.351
408.30 0.3515
408.40 0.3521
408.50 0.3526
408.60 0.3532
408.70 0.3538
408.80 0.3543
408.90 0.3549
409.00 0.3554
409.10 0.356
409.20 0.3565
409.30 0.3571
409.40 0.3577
409.50 0.3582
409.60 0.3588
409.70 0.3593
409.80 0.3599
409.90 0.3605
410.00 0.361
410.10 0.3616
410.20 0.3622
410.30 0.3627
410.40 0.3633
410.50 0.3639
410.60 0.3644
410.70 0.365
410.80 0.3656
410.90 0.3661
411.00 0.3667
411.10 0.3673
411.20 0.3679
411.30 0.3684
411.40 0.369
411.50 0.3696
411.60 0.3701
411.70 0.3707
411.80 0.3713
411.90 0.3719
412.00 0.3724
412.10 0.373
412.20 0.3736
412.30 0.3741
412.40 0.3747
412.50 0.3753
412.60 0.3759
412.70 0.3764
412.80 0.377
412.90 0.3776
413.00 0.3782
413.10 0.3788
413.20 0.3793
413.30 0.3799
413.40 0.3805
413.50 0.3811
413.60 0.3816
413.70 0.3822
413.80 0.3828
413.90 0.3834
414.00 0.384
414.10 0.3846
414.20 0.3851
414.30 0.3857
414.40 0.3863
414.50 0.3869
414.60 0.3875
414.70 0.3881
414.80 0.3886
414.90 0.3892
415.00 0.3898
415.10 0.3904
415.20 0.391
415.30 0.3916
415.40 0.3922
415.50 0.3927
415.60 0.3933
415.70 0.3939
415.80 0.3945
415.90 0.3951
416.00 0.3957
416.10 0.3963
416.20 0.3969
416.30 0.3975
416.40 0.3981
416.50 0.3987
416.60 0.3992
416.70 0.3998
416.80 0.4004
416.90 0.401
417.00 0.4016
417.10 0.4022
417.20 0.4028
417.30 0.4034
417.40 0.404
417.50 0.4046
417.60 0.4052
417.70 0.4058
417.80 0.4064
417.90 0.407
418.00 0.4076
418.10 0.4082
418.20 0.4088
418.30 0.4094
418.40 0.41
418.50 0.4106
418.60 0.4112
418.70 0.4118
418.80 0.4124
418.90 0.413
419.00 0.4136
419.10 0.4142
419.20 0.4148
419.30 0.4154
419.40 0.416
419.50 0.4166
419.60 0.4172
419.70 0.4178
419.80 0.4184
419.90 0.419
420.00 0.4196
420.10 0.4203
420.20 0.4209
420.30 0.4215
420.40 0.4221
420.50 0.4227
420.60 0.4233
420.70 0.4239
420.80 0.4245
420.90 0.4251
421.00 0.4257
421.10 0.4263
421.20 0.427
421.30 0.4276
421.40 0.4282
421.50 0.4288
421.60 0.4294
421.70 0.43
421.80 0.4306
421.90 0.4312
422.00 0.4319
422.10 0.4325
422.20 0.4331
422.30 0.4337
422.40 0.4343
422.50 0.4349
422.60 0.4356
422.70 0.4362
422.80 0.4368
422.90 0.4374
423.00 0.438
423.10 0.4387
423.20 0.4393
423.30 0.4399
423.40 0.4405
423.50 0.4411
423.60 0.4418
423.70 0.4424
423.80 0.443
423.90 0.4436
424.00 0.4442
424.10 0.4449
424.20 0.4455
424.30 0.4461
424.40 0.4467
424.50 0.4474
424.60 0.448
424.70 0.4486
424.80 0.4492
424.90 0.4499
425.00 0.4505
425.10 0.4511
425.20 0.4517
425.30 0.4524
425.40 0.453
425.50 0.4536
425.60 0.4543
425.70 0.4549
425.80 0.4555
425.90 0.4561
426.00 0.4568
426.10 0.4574
426.20 0.458
426.30 0.4587
426.40 0.4593
426.50 0.4599
426.60 0.4606
426.70 0.4612
426.80 0.4618
426.90 0.4625
427.00 0.4631
427.10 0.4637
427.20 0.4644
427.30 0.465
427.40 0.4657
427.50 0.4663
427.60 0.4669
427.70 0.4676
427.80 0.4682
427.90 0.4688
428.00 0.4695
428.10 0.4701
428.20 0.4708
428.30 0.4714
428.40 0.472
428.50 0.4727
428.60 0.4733
428.70 0.474
428.80 0.4746
428.90 0.4752
429.00 0.4759
429.10 0.4765
429.20 0.4772
429.30 0.4778
429.40 0.4785
429.50 0.4791
429.60 0.4797
429.70 0.4804
429.80 0.481
429.90 0.4817
430.00 0.4823
430.10 0.483
430.20 0.4836
430.30 0.4843
430.40 0.4849
430.50 0.4856
430.60 0.4862
430.70 0.4869
430.80 0.4875
430.90 0.4882
431.00 0.4888
431.10 0.4894
431.20 0.4901
431.30 0.4908
431.40 0.4914
431.50 0.4921
431.60 0.4927
431.70 0.4934
431.80 0.494
431.90 0.4947
432.00 0.4953
432.10 0.496
432.20 0.4966
432.30 0.4973
432.40 0.4979
432.50 0.4986
432.60 0.4992
432.70 0.4999
432.80 0.5006
432.90 0.5012
433.00 0.5019
433.10 0.5025
433.20 0.5032
433.30 0.5038
433.40 0.5045
433.50 0.5052
433.60 0.5058
433.70 0.5065
433.80 0.5071
433.90 0.5078
434.00 0.5085
434.10 0.5091
434.20 0.5098
434.30 0.5104
434.40 0.5111
434.50 0.5118
434.60 0.5124
434.70 0.5131
434.80 0.5137
434.90 0.5144
435.00 0.5151
435.10 0.5157
435.20 0.5164
435.30 0.5171
435.40 0.5177
435.50 0.5184
435.60 0.5191
435.70 0.5197
435.80 0.5204
435.90 0.5211
436.00 0.5217
436.10 0.5224
436.20 0.5231
436.30 0.5237
436.40 0.5244
436.50 0.5251
436.60 0.5257
436.70 0.5264
436.80 0.5271
436.90 0.5277
437.00 0.5284
437.10 0.5291
437.20 0.5298
437.30 0.5304
437.40 0.5311
437.50 0.5318
437.60 0.5324
437.70 0.5331
437.80 0.5338
437.90 0.5345
438.00 0.5351
438.10 0.5358
438.20 0.5365
438.30 0.5372
438.40 0.5378
438.50 0.5385
438.60 0.5392
438.70 0.5399
438.80 0.5405
438.90 0.5412
439.00 0.5419
439.10 0.5426
439.20 0.5433
439.30 0.5439
439.40 0.5446
439.50 0.5453
439.60 0.546
439.70 0.5467
439.80 0.5473
439.90 0.548
440.00 0.5487
440.10 0.5494
440.20 0.5501
440.30 0.5507
440.40 0.5514
440.50 0.5521
440.60 0.5528
440.70 0.5535
440.80 0.5542
440.90 0.5548
441.00 0.5555
441.10 0.5562
441.20 0.5569
441.30 0.5576
441.40 0.5583
441.50 0.5589
441.60 0.5596
441.70 0.5603
441.80 0.561
441.90 0.5617
442.00 0.5624
442.10 0.5631
442.20 0.5638
442.30 0.5644
442.40 0.5651
442.50 0.5658
442.60 0.5665
442.70 0.5672
442.80 0.5679
442.90 0.5686
443.00 0.5693
443.10 0.57
443.20 0.5707
443.30 0.5713
443.40 0.572
443.50 0.5727
443.60 0.5734
443.70 0.5741
443.80 0.5748
443.90 0.5755
444.00 0.5762
444.10 0.5769
444.20 0.5776
444.30 0.5783
444.40 0.579
444.50 0.5797
444.60 0.5804
444.70 0.5811
444.80 0.5818
444.90 0.5824
445.00 0.5831
445.10 0.5838
445.20 0.5845
445.30 0.5852
445.40 0.5859
445.50 0.5866
445.60 0.5873
445.70 0.588
445.80 0.5887
445.90 0.5894
446.00 0.5901
446.10 0.5908
446.20 0.5915
446.30 0.5922
446.40 0.5929
446.50 0.5936
446.60 0.5943
446.70 0.595
446.80 0.5957
446.90 0.5964
447.00 0.5971
447.10 0.5978
447.20 0.5985
447.30 0.5993
447.40 0.6
447.50 0.6007
447.60 0.6014
447.70 0.6021
447.80 0.6028
447.90 0.6035
448.00 0.6042
448.10 0.6049
448.20 0.6056
448.30 0.6063
448.40 0.607
448.50 0.6077
448.60 0.6084
448.70 0.6091
448.80 0.6098
448.90 0.6106
449.00 0.6113
449.10 0.612
449.20 0.6127
449.30 0.6134
449.40 0.6141
449.50 0.6148
449.60 0.6155
449.70 0.6162
449.80 0.6169
449.90 0.6177
450.00 0.6184
450.10 0.6191
450.20 0.6198
450.30 0.6205
450.40 0.6212
450.50 0.6219
450.60 0.6226
450.70 0.6234
450.80 0.6241
450.90 0.6248
451.00 0.6255
451.10 0.6262
451.20 0.6269
451.30 0.6276
451.40 0.6284
451.50 0.6291
451.60 0.6298
451.70 0.6305
451.80 0.6312
451.90 0.6319
452.00 0.6327
452.10 0.6334
452.20 0.6341
452.30 0.6348
452.40 0.6355
452.50 0.6362
452.60 0.637
452.70 0.6377
452.80 0.6384
452.90 0.6391
453.00 0.6398
453.10 0.6406
453.20 0.6413
453.30 0.642
453.40 0.6427
453.50 0.6434
453.60 0.6442
453.70 0.6449
453.80 0.6456
453.90 0.6463
454.00 0.6471
454.10 0.6478
454.20 0.6485
454.30 0.6492
454.40 0.6499
454.50 0.6507
454.60 0.6514
454.70 0.6521
454.80 0.6529
454.90 0.6536
455.00 0.6543
455.10 0.655
455.20 0.6557
455.30 0.6565
455.40 0.6572
455.50 0.6579
455.60 0.6587
455.70 0.6594
455.80 0.6601
455.90 0.6608
456.00 0.6616
456.10 0.6623
456.20 0.663
456.30 0.6637
456.40 0.6645
456.50 0.6652
456.60 0.6659
456.70 0.6667
456.80 0.6674
456.90 0.6681
457.00 0.6689
457.10 0.6696
457.20 0.6703
457.30 0.671
457.40 0.6718
457.50 0.6725
457.60 0.6732
457.70 0.674
457.80 0.6747
457.90 0.6754
458.00 0.6762
458.10 0.6769
458.20 0.6776
458.30 0.6784
458.40 0.6791
458.50 0.6798
458.60 0.6806
458.70 0.6813
458.80 0.682
458.90 0.6828
459.00 0.6835
459.10 0.6843
459.20 0.685
459.30 0.6857
459.40 0.6865
459.50 0.6872
459.60 0.6879
459.70 0.6887
459.80 0.6894
459.90 0.6901
460.00 0.6909
460.10 0.6916
460.20 0.6923
460.30 0.6931
460.40 0.6938
460.50 0.6946
460.60 0.6953
460.70 0.696
460.80 0.6968
460.90 0.6975
461.00 0.6983
461.10 0.699
461.20 0.6997
461.30 0.7005
461.40 0.7012
461.50 0.702
461.60 0.7027
461.70 0.7035
461.80 0.7042
461.90 0.7049
462.00 0.7057
462.10 0.7064
462.20 0.7072
462.30 0.7079
462.40 0.7086
462.50 0.7094
462.60 0.7101
462.70 0.7109
462.80 0.7116
462.90 0.7124
463.00 0.7131
463.10 0.7139
463.20 0.7146
463.30 0.7153
463.40 0.7161
463.50 0.7168
463.60 0.7176
463.70 0.7183
463.80 0.7191
463.90 0.7198
464.00 0.7206
464.10 0.7213
464.20 0.7221
464.30 0.7228
464.40 0.7236
464.50 0.7243
464.60 0.7251
464.70 0.7258
464.80 0.7266
464.90 0.7273
465.00 0.728
465.10 0.7288
465.20 0.7295
465.30 0.7303
465.40 0.731
465.50 0.7318
465.60 0.7326
465.70 0.7333
465.80 0.7341
465.90 0.7348
466.00 0.7355
466.10 0.7363
466.20 0.737
466.30 0.7378
466.40 0.7386
466.50 0.7393
466.60 0.7401
466.70 0.7408
466.80 0.7416
466.90 0.7423
467.00 0.7431
467.10 0.7438
467.20 0.7446
467.30 0.7453
467.40 0.7461
467.50 0.7468
467.60 0.7476
467.70 0.7484
467.80 0.7491
467.90 0.7499
468.00 0.7506
468.10 0.7514
468.20 0.7521
468.30 0.7529
468.40 0.7536
468.50 0.7544
468.60 0.7552
468.70 0.7559
468.80 0.7567
468.90 0.7574
469.00 0.7582
469.10 0.7589
469.20 0.7597
469.30 0.7605
469.40 0.7612
469.50 0.762
469.60 0.7627
469.70 0.7635
469.80 0.7642
469.90 0.765
470.00 0.7658
470.10 0.7665
470.20 0.7673
470.30 0.768
470.40 0.7688
470.50 0.7696
470.60 0.7703
470.70 0.7711
470.80 0.7718
470.90 0.7726
471.00 0.7734
471.10 0.7741
471.20 0.7749
471.30 0.7756
471.40 0.7764
471.50 0.7772
471.60 0.7779
471.70 0.7787
471.80 0.7795
471.90 0.7802
472.00 0.781
472.10 0.7817
472.20 0.7825
472.30 0.7833
472.40 0.784
472.50 0.7848
472.60 0.7856
472.70 0.7863
472.80 0.7871
472.90 0.7879
473.00 0.7886
473.10 0.7894
473.20 0.7901
473.30 0.7909
473.40 0.7917
473.50 0.7924
473.60 0.7932
473.70 0.794
473.80 0.7947
473.90 0.7955
474.00 0.7963
474.10 0.797
474.20 0.7978
474.30 0.7986
474.40 0.7993
474.50 0.8001
474.60 0.8009
474.70 0.8017
474.80 0.8024
474.90 0.8032
475.00 0.8039
475.10 0.8047
475.20 0.8055
475.30 0.8063
475.40 0.807
475.50 0.8078
475.60 0.8086
475.70 0.8093
475.80 0.8101
475.90 0.8109
476.00 0.8116
476.10 0.8124
476.20 0.8132
476.30 0.814
476.40 0.8147
476.50 0.8155
476.60 0.8163
476.70 0.817
476.80 0.8178
476.90 0.8186
477.00 0.8193
477.10 0.8201
477.20 0.8209
477.30 0.8217
477.40 0.8224
477.50 0.8232
477.60 0.824
477.70 0.8248
477.80 0.8255
477.90 0.8263
478.00 0.8271
478.10 0.8278
478.20 0.8286
478.30 0.8294
478.40 0.8302
478.50 0.8309
478.60 0.8317
478.70 0.8325
478.80 0.8333
478.90 0.834
479.00 0.8348
479.10 0.8356
479.20 0.8364
479.30 0.8371
479.40 0.8379
479.50 0.8387
479.60 0.8395
479.70 0.8402
479.80 0.841
479.90 0.8418
480.00 0.8426
480.10 0.8433
480.20 0.8441
480.30 0.8449
480.40 0.8457
480.50 0.8464
480.60 0.8472
480.70 0.848
480.80 0.8488
480.90 0.8496
481.00 0.8503
481.10 0.8511
481.20 0.8519
481.30 0.8527
481.40 0.8534
481.50 0.8542
481.60 0.855
481.70 0.8558
481.80 0.8565
481.90 0.8573
482.00 0.8581
482.10 0.8589
482.20 0.8596
482.30 0.8604
482.40 0.8612
482.50 0.862
482.60 0.8628
482.70 0.8636
482.80 0.8644
482.90 0.8651
483.00 0.8659
483.10 0.8667
483.20 0.8675
483.30 0.8683
483.40 0.869
483.50 0.8698
483.60 0.8706
483.70 0.8714
483.80 0.8722
483.90 0.8729
484.00 0.8737
484.10 0.8745
484.20 0.8753
484.30 0.8761
484.40 0.8768
484.50 0.8776
484.60 0.8784
484.70 0.8792
484.80 0.88
484.90 0.8807
485.00 0.8815
485.10 0.8823
485.20 0.8831
485.30 0.8839
485.40 0.8847
485.50 0.8855
485.60 0.8862
485.70 0.887
485.80 0.8878
485.90 0.8886
486.00 0.8893
486.10 0.8901
486.20 0.8909
486.30 0.8917
486.40 0.8924
486.50 0.8932
486.60 0.894
486.70 0.8948
486.80 0.8956
486.90 0.8964
487.00 0.8972
487.10 0.898
487.20 0.8987
487.30 0.8995
487.40 0.9003
487.50 0.9011
487.60 0.9019
487.70 0.9027
487.80 0.9035
487.90 0.9043
488.00 0.9051
488.10 0.9059
488.20 0.9066
488.30 0.9074
488.40 0.9082
488.50 0.909
488.60 0.9098
488.70 0.9106
488.80 0.9113
488.90 0.9121
489.00 0.9129
489.10 0.9137
489.20 0.9145
489.30 0.9153
489.40 0.9161
489.50 0.9169
489.60 0.9177
489.70 0.9184
489.80 0.9192
489.90 0.92
490.00 0.9208
490.10 0.9216
490.20 0.9224
490.30 0.9232
490.40 0.924
490.50 0.9248
490.60 0.9255
490.70 0.9263
490.80 0.9271
490.90 0.9279
491.00 0.9287
491.10 0.9295
491.20 0.9302
491.30 0.931
491.40 0.9318
491.50 0.9326
491.60 0.9334
491.70 0.9342
491.80 0.935
491.90 0.9358
492.00 0.9365
492.10 0.9373
492.20 0.9381
492.30 0.9389
492.40 0.9397
492.50 0.9405
492.60 0.9413
492.70 0.9421
492.80 0.9429
492.90 0.9437
493.00 0.9445
493.10 0.9453
493.20 0.946
493.30 0.9468
493.40 0.9476
493.50 0.9484
493.60 0.9492
493.70 0.95
493.80 0.9508
493.90 0.9516
494.00 0.9524
494.10 0.9531
494.20 0.9539
494.30 0.9547
494.40 0.9555
494.50 0.9563
494.60 0.9571
494.70 0.9579
494.80 0.9587
494.90 0.9595
495.00 0.9603
495.10 0.9611
495.20 0.9619
495.30 0.9627
495.40 0.9635
495.50 0.9643
495.60 0.9651
495.70 0.9658
495.80 0.9666
495.90 0.9674
496.00 0.9682
496.10 0.969
496.20 0.9698
496.30 0.9706
496.40 0.9714
496.50 0.9722
496.60 0.973
496.70 0.9738
496.80 0.9746
496.90 0.9754
497.00 0.9762
497.10 0.977
497.20 0.9778
497.30 0.9786
497.40 0.9793
497.50 0.9801
497.60 0.9809
497.70 0.9817
497.80 0.9825
497.90 0.9833
498.00 0.9841
498.10 0.9849
498.20 0.9857
498.30 0.9865
498.40 0.9873
498.50 0.9881
498.60 0.9888
498.70 0.9896
498.80 0.9904
498.90 0.9912
499.00 0.992
499.10 0.9928
499.20 0.9936
499.30 0.9944
499.40 0.9952
499.50 0.996
499.60 0.9968
499.70 0.9976
499.80 0.9984
499.90 0.9992
500.00 1
500.10 1.001
500.20 1.002
500.30 1.002
500.40 1.003
500.50 1.004
500.60 1.005
500.70 1.006
500.80 1.006
500.90 1.007
501.00 1.008
501.10 1.009
501.20 1.01
501.30 1.01
501.40 1.011
501.50 1.012
501.60 1.013
501.70 1.014
501.80 1.014
501.90 1.015
502.00 1.016
502.10 1.017
502.20 1.017
502.30 1.018
502.40 1.019
502.50 1.02
502.60 1.021
502.70 1.021
502.80 1.022
502.90 1.023
503.00 1.024
503.10 1.025
503.20 1.025
503.30 1.026
503.40 1.027
503.50 1.028
503.60 1.029
503.70 1.029
503.80 1.03
503.90 1.031
504.00 1.032
504.10 1.033
504.20 1.033
504.30 1.034
504.40 1.035
504.50 1.036
504.60 1.037
504.70 1.037
504.80 1.038
504.90 1.039
505.00 1.04
505.10 1.041
505.20 1.041
505.30 1.042
505.40 1.043
505.50 1.044
505.60 1.045
505.70 1.045
505.80 1.046
505.90 1.047
506.00 1.048
506.10 1.049
506.20 1.049
506.30 1.05
506.40 1.051
506.50 1.052
506.60 1.053
506.70 1.053
506.80 1.054
506.90 1.055
507.00 1.056
507.10 1.057
507.20 1.057
507.30 1.058
507.40 1.059
507.50 1.06
507.60 1.061
507.70 1.061
507.80 1.062
507.90 1.063
508.00 1.064
508.10 1.065
508.20 1.065
508.30 1.066
508.40 1.067
508.50 1.068
508.60 1.069
508.70 1.069
508.80 1.07
508.90 1.071
509.00 1.072
509.10 1.073
509.20 1.073
509.30 1.074
509.40 1.075
509.50 1.076
509.60 1.077
509.70 1.077
509.80 1.078
509.90 1.079
510.00 1.08
510.10 1.08
510.20 1.081
510.30 1.082
510.40 1.083
510.50 1.084
510.60 1.084
510.70 1.085
510.80 1.086
510.90 1.087
511.00 1.088
511.10 1.088
511.20 1.089
511.30 1.09
511.40 1.091
511.50 1.092
511.60 1.092
511.70 1.093
511.80 1.094
511.90 1.095
512.00 1.096
512.10 1.096
512.20 1.097
512.30 1.098
512.40 1.099
512.50 1.1
512.60 1.1
512.70 1.101
512.80 1.102
512.90 1.103
513.00 1.104
513.10 1.104
513.20 1.105
513.30 1.106
513.40 1.107
513.50 1.108
513.60 1.108
513.70 1.109
513.80 1.11
513.90 1.111
514.00 1.112
514.10 1.112
514.20 1.113
514.30 1.114
514.40 1.115
514.50 1.116
514.60 1.116
514.70 1.117
514.80 1.118
514.90 1.119
515.00 1.12
515.10 1.12
515.20 1.121
515.30 1.122
515.40 1.123
515.50 1.124
515.60 1.124
515.70 1.125
515.80 1.126
515.90 1.127
516.00 1.128
516.10 1.128
516.20 1.129
516.30 1.13
516.40 1.131
516.50 1.132
516.60 1.132
516.70 1.133
516.80 1.134
516.90 1.135
517.00 1.136
517.10 1.136
517.20 1.137
517.30 1.138
517.40 1.139
517.50 1.14
517.60 1.14
517.70 1.141
517.80 1.142
517.90 1.143
518.00 1.144
518.10 1.144
518.20 1.145
518.30 1.146
518.40 1.147
518.50 1.148
518.60 1.148
518.70 1.149
518.80 1.15
518.90 1.151
519.00 1.152
519.10 1.152
519.20 1.153
519.30 1.154
519.40 1.155
519.50 1.156
519.60 1.156
519.70 1.157
519.80 1.158
519.90 1.159
520.00 1.159
520.10 1.16
520.20 1.161
520.30 1.162
520.40 1.163
520.50 1.163
520.60 1.164
520.70 1.165
520.80 1.166
520.90 1.167
521.00 1.167
521.10 1.168
521.20 1.169
521.30 1.17
521.40 1.171
521.50 1.171
521.60 1.172
521.70 1.173
521.80 1.174
521.90 1.175
522.00 1.175
522.10 1.176
522.20 1.177
522.30 1.178
522.40 1.179
522.50 1.179
522.60 1.18
522.70 1.181
522.80 1.182
522.90 1.183
523.00 1.183
523.10 1.184
523.20 1.185
523.30 1.186
523.40 1.186
523.50 1.187
523.60 1.188
523.70 1.189
523.80 1.19
523.90 1.19
524.00 1.191
524.10 1.192
524.20 1.193
524.30 1.194
524.40 1.194
524.50 1.195
524.60 1.196
524.70 1.197
524.80 1.198
524.90 1.198
525.00 1.199
525.10 1.2
525.20 1.201
525.30 1.202
525.40 1.202
525.50 1.203
525.60 1.204
525.70 1.205
525.80 1.206
525.90 1.206
526.00 1.207
526.10 1.208
526.20 1.209
526.30 1.21
526.40 1.21
526.50 1.211
526.60 1.212
526.70 1.213
526.80 1.214
526.90 1.214
527.00 1.215
527.10 1.216
527.20 1.217
527.30 1.217
527.40 1.218
527.50 1.219
527.60 1.22
527.70 1.221
527.80 1.221
527.90 1.222
528.00 1.223
528.10 1.224
528.20 1.225
528.30 1.225
528.40 1.226
528.50 1.227
528.60 1.228
528.70 1.229
528.80 1.229
528.90 1.23
529.00 1.231
529.10 1.232
529.20 1.233
529.30 1.233
529.40 1.234
529.50 1.235
529.60 1.236
529.70 1.236
529.80 1.237
529.90 1.238
530.00 1.239
530.10 1.24
530.20 1.24
530.30 1.241
530.40 1.242
530.50 1.243
530.60 1.244
530.70 1.244
530.80 1.245
530.90 1.246
531.00 1.247
531.10 1.248
531.20 1.248
531.30 1.249
531.40 1.25
531.50 1.251
531.60 1.251
531.70 1.252
531.80 1.253
531.90 1.254
532.00 1.255
532.10 1.255
532.20 1.256
532.30 1.257
532.40 1.258
532.50 1.259
532.60 1.259
532.70 1.26
532.80 1.261
532.90 1.262
533.00 1.263
533.10 1.263
533.20 1.264
533.30 1.265
533.40 1.266
533.50 1.266
533.60 1.267
533.70 1.268
533.80 1.269
533.90 1.27
534.00 1.27
534.10 1.271
534.20 1.272
534.30 1.273
534.40 1.273
534.50 1.274
534.60 1.275
534.70 1.276
534.80 1.277
534.90 1.277
535.00 1.278
535.10 1.279
535.20 1.28
535.30 1.281
535.40 1.281
535.50 1.282
535.60 1.283
535.70 1.284
535.80 1.284
535.90 1.285
536.00 1.286
536.10 1.287
536.20 1.288
536.30 1.288
536.40 1.289
536.50 1.29
536.60 1.291
536.70 1.292
536.80 1.292
536.90 1.293
537.00 1.294
537.10 1.295
537.20 1.296
537.30 1.296
537.40 1.297
537.50 1.298
537.60 1.299
537.70 1.299
537.80 1.3
537.90 1.301
538.00 1.302
538.10 1.302
538.20 1.303
538.30 1.304
538.40 1.305
538.50 1.306
538.60 1.306
538.70 1.307
538.80 1.308
538.90 1.309
539.00 1.31
539.10 1.31
539.20 1.311
539.30 1.312
539.40 1.313
539.50 1.313
539.60 1.314
539.70 1.315
539.80 1.316
539.90 1.317
540.00 1.317
540.10 1.318
540.20 1.319
540.30 1.32
540.40 1.32
540.50 1.321
540.60 1.322
540.70 1.323
540.80 1.324
540.90 1.324
541.00 1.325
541.10 1.326
541.20 1.327
541.30 1.327
541.40 1.328
541.50 1.329
541.60 1.33
541.70 1.331
541.80 1.331
541.90 1.332
542.00 1.333
542.10 1.334
542.20 1.334
542.30 1.335
542.40 1.336
542.50 1.337
542.60 1.338
542.70 1.338
542.80 1.339
542.90 1.34
543.00 1.341
543.10 1.341
543.20 1.342
543.30 1.343
543.40 1.344
543.50 1.345
543.60 1.345
543.70 1.346
543.80 1.347
543.90 1.348
544.00 1.348
544.10 1.349
544.20 1.35
544.30 1.351
544.40 1.352
544.50 1.352
544.60 1.353
544.70 1.354
544.80 1.355
544.90 1.355
545.00 1.356
545.10 1.357
545.20 1.358
545.30 1.358
545.40 1.359
545.50 1.36
545.60 1.361
545.70 1.362
545.80 1.362
545.90 1.363
546.00 1.364
546.10 1.365
546.20 1.365
546.30 1.366
546.40 1.367
546.50 1.368
546.60 1.368
546.70 1.369
546.80 1.37
546.90 1.371
547.00 1.372
547.10 1.372
547.20 1.373
547.30 1.374
547.40 1.375
547.50 1.375
547.60 1.376
547.70 1.377
547.80 1.378
547.90 1.378
548.00 1.379
548.10 1.38
548.20 1.381
548.30 1.382
548.40 1.382
548.50 1.383
548.60 1.384
548.70 1.385
548.80 1.385
548.90 1.386
549.00 1.387
549.10 1.388
549.20 1.388
549.30 1.389
549.40 1.39
549.50 1.391
549.60 1.392
549.70 1.392
549.80 1.393
549.90 1.394
550.00 1.395
550.10 1.395
550.20 1.396
550.30 1.397
550.40 1.398
550.50 1.398
550.60 1.399
550.70 1.4
550.80 1.401
550.90 1.401
551.00 1.402
551.10 1.403
551.20 1.404
551.30 1.405
551.40 1.405
551.50 1.406
551.60 1.407
551.70 1.408
551.80 1.408
551.90 1.409
552.00 1.41
552.10 1.411
552.20 1.411
552.30 1.412
552.40 1.413
552.50 1.414
552.60 1.414
552.70 1.415
552.80 1.416
552.90 1.417
553.00 1.417
553.10 1.418
553.20 1.419
553.30 1.42
553.40 1.42
553.50 1.421
553.60 1.422
553.70 1.423
553.80 1.423
553.90 1.424
554.00 1.425
554.10 1.426
554.20 1.426
554.30 1.427
554.40 1.428
554.50 1.429
554.60 1.43
554.70 1.43
554.80 1.431
554.90 1.432
555.00 1.432
555.10 1.433
555.20 1.434
555.30 1.435
555.40 1.436
555.50 1.436
555.60 1.437
555.70 1.438
555.80 1.439
555.90 1.439
556.00 1.44
556.10 1.441
556.20 1.442
556.30 1.442
556.40 1.443
556.50 1.444
556.60 1.445
556.70 1.445
556.80 1.446
556.90 1.447
557.00 1.448
557.10 1.448
557.20 1.449
557.30 1.45
557.40 1.451
557.50 1.451
557.60 1.452
557.70 1.453
557.80 1.454
557.90 1.454
558.00 1.455
558.10 1.456
558.20 1.457
558.30 1.457
558.40 1.458
558.50 1.459
558.60 1.46
558.70 1.46
558.80 1.461
558.90 1.462
559.00 1.463
559.10 1.463
559.20 1.464
559.30 1.465
559.40 1.465
559.50 1.466
559.60 1.467
559.70 1.468
559.80 1.468
559.90 1.469
560.00 1.47
560.10 1.471
560.20 1.471
560.30 1.472
560.40 1.473
560.50 1.474
560.60 1.474
560.70 1.475
560.80 1.476
560.90 1.477
561.00 1.477
561.10 1.478
561.20 1.479
561.30 1.48
561.40 1.48
561.50 1.481
561.60 1.482
561.70 1.483
561.80 1.483
561.90 1.484
562.00 1.485
562.10 1.485
562.20 1.486
562.30 1.487
562.40 1.488
562.50 1.488
562.60 1.489
562.70 1.49
562.80 1.491
562.90 1.491
563.00 1.492
563.10 1.493
563.20 1.494
563.30 1.494
563.40 1.495
563.50 1.496
563.60 1.497
563.70 1.497
563.80 1.498
563.90 1.499
564.00 1.499
564.10 1.5
564.20 1.501
564.30 1.502
564.40 1.502
564.50 1.503
564.60 1.504
564.70 1.505
564.80 1.505
564.90 1.506
565.00 1.507
565.10 1.508
565.20 1.508
565.30 1.509
565.40 1.51
565.50 1.51
565.60 1.511
565.70 1.512
565.80 1.513
565.90 1.513
566.00 1.514
566.10 1.515
566.20 1.516
566.30 1.516
566.40 1.517
566.50 1.518
566.60 1.518
566.70 1.519
566.80 1.52
566.90 1.521
567.00 1.521
567.10 1.522
567.20 1.523
567.30 1.524
567.40 1.524
567.50 1.525
567.60 1.526
567.70 1.526
567.80 1.527
567.90 1.528
568.00 1.529
568.10 1.529
568.20 1.53
568.30 1.531
568.40 1.531
568.50 1.532
568.60 1.533
568.70 1.534
568.80 1.534
568.90 1.535
569.00 1.536
569.10 1.537
569.20 1.537
569.30 1.538
569.40 1.539
569.50 1.539
569.60 1.54
569.70 1.541
569.80 1.542
569.90 1.542
570.00 1.543
570.10 1.544
570.20 1.544
570.30 1.545
570.40 1.546
570.50 1.547
570.60 1.547
570.70 1.548
570.80 1.549
570.90 1.549
571.00 1.55
571.10 1.551
571.20 1.552
571.30 1.552
571.40 1.553
571.50 1.554
571.60 1.554
571.70 1.555
571.80 1.556
571.90 1.556
572.00 1.557
572.10 1.558
572.20 1.559
572.30 1.559
572.40 1.56
572.50 1.561
572.60 1.561
572.70 1.562
572.80 1.563
572.90 1.564
573.00 1.564
573.10 1.565
573.20 1.566
573.30 1.566
573.40 1.567
573.50 1.568
573.60 1.569
573.70 1.569
573.80 1.57
573.90 1.571
574.00 1.571
574.10 1.572
574.20 1.573
574.30 1.573
574.40 1.574
574.50 1.575
574.60 1.576
574.70 1.576
574.80 1.577
574.90 1.578
575.00 1.578
575.10 1.579
575.20 1.58
575.30 1.58
575.40 1.581
575.50 1.582
575.60 1.583
575.70 1.583
575.80 1.584
575.90 1.585
576.00 1.585
576.10 1.586
576.20 1.587
576.30 1.587
576.40 1.588
576.50 1.589
576.60 1.59
576.70 1.59
576.80 1.591
576.90 1.592
577.00 1.592
577.10 1.593
577.20 1.594
577.30 1.594
577.40 1.595
577.50 1.596
577.60 1.596
577.70 1.597
577.80 1.598
577.90 1.599
578.00 1.599
578.10 1.6
578.20 1.601
578.30 1.601
578.40 1.602
578.50 1.603
578.60 1.603
578.70 1.604
578.80 1.605
578.90 1.605
579.00 1.606
579.10 1.607
579.20 1.607
579.30 1.608
579.40 1.609
579.50 1.61
579.60 1.61
579.70 1.611
579.80 1.612
579.90 1.612
580.00 1.613
580.10 1.614
580.20 1.614
580.30 1.615
580.40 1.616
580.50 1.616
580.60 1.617
580.70 1.618
580.80 1.618
580.90 1.619
581.00 1.62
581.10 1.62
581.20 1.621
581.30 1.622
581.40 1.623
581.50 1.623
581.60 1.624
581.70 1.625
581.80 1.625
581.90 1.626
582.00 1.627
582.10 1.627
582.20 1.628
582.30 1.629
582.40 1.629
582.50 1.63
582.60 1.631
582.70 1.631
582.80 1.632
582.90 1.633
583.00 1.633
583.10 1.634
583.20 1.635
583.30 1.635
583.40 1.636
583.50 1.637
583.60 1.637
583.70 1.638
583.80 1.639
583.90 1.639
584.00 1.64
584.10 1.641
584.20 1.641
584.30 1.642
584.40 1.643
584.50 1.643
584.60 1.644
584.70 1.645
584.80 1.645
584.90 1.646
585.00 1.647
585.10 1.647
585.20 1.648
585.30 1.649
585.40 1.649
585.50 1.65
585.60 1.651
585.70 1.651
585.80 1.652
585.90 1.653
586.00 1.653
586.10 1.654
586.20 1.655
586.30 1.655
586.40 1.656
586.50 1.657
586.60 1.657
586.70 1.658
586.80 1.659
586.90 1.659
587.00 1.66
587.10 1.66
587.20 1.661
587.30 1.662
587.40 1.662
587.50 1.663
587.60 1.664
587.70 1.664
587.80 1.665
587.90 1.666
588.00 1.666
588.10 1.667
588.20 1.668
588.30 1.668
588.40 1.669
588.50 1.67
588.60 1.67
588.70 1.671
588.80 1.672
588.90 1.672
589.00 1.673
589.10 1.673
589.20 1.674
589.30 1.675
589.40 1.675
589.50 1.676
589.60 1.677
589.70 1.677
589.80 1.678
589.90 1.679
590.00 1.679
590.10 1.68
590.20 1.681
590.30 1.681
590.40 1.682
590.50 1.682
590.60 1.683
590.70 1.684
590.80 1.684
590.90 1.685
591.00 1.686
591.10 1.686
591.20 1.687
591.30 1.688
591.40 1.688
591.50 1.689
591.60 1.689
591.70 1.69
591.80 1.691
591.90 1.691
592.00 1.692
592.10 1.693
592.20 1.693
592.30 1.694
592.40 1.694
592.50 1.695
592.60 1.696
592.70 1.696
592.80 1.697
592.90 1.698
593.00 1.698
593.10 1.699
593.20 1.7
593.30 1.7
593.40 1.701
593.50 1.701
593.60 1.702
593.70 1.703
593.80 1.703
593.90 1.704
594.00 1.704
594.10 1.705
594.20 1.706
594.30 1.706
594.40 1.707
594.50 1.708
594.60 1.708
594.70 1.709
594.80 1.709
594.90 1.71
595.00 1.711
595.10 1.711
595.20 1.712
595.30 1.713
595.40 1.713
595.50 1.714
595.60 1.714
595.70 1.715
595.80 1.716
595.90 1.716
596.00 1.717
596.10 1.717
596.20 1.718
596.30 1.719
596.40 1.719
596.50 1.72
596.60 1.721
596.70 1.721
596.80 1.722
596.90 1.722
597.00 1.723
597.10 1.724
597.20 1.724
597.30 1.725
597.40 1.725
597.50 1.726
597.60 1.727
597.70 1.727
597.80 1.728
597.90 1.728
598.00 1.729
598.10 1.73
598.20 1.73
598.30 1.731
598.40 1.731
598.50 1.732
598.60 1.733
598.70 1.733
598.80 1.734
598.90 1.734
599.00 1.735
599.10 1.736
599.20 1.736
599.30 1.737
599.40 1.737
599.50 1.738
599.60 1.739
599.70 1.739
599.80 1.74
599.90 1.74
600.00 1.741
600.10 1.742
600.20 1.742
600.30 1.743
600.40 1.743
600.50 1.744
600.60 1.744
600.70 1.745
600.80 1.746
600.90 1.746
601.00 1.747
601.10 1.747
601.20 1.748
601.30 1.749
601.40 1.749
601.50 1.75
601.60 1.75
601.70 1.751
601.80 1.751
601.90 1.752
602.00 1.753
602.10 1.753
602.20 1.754
602.30 1.754
602.40 1.755
602.50 1.756
602.60 1.756
602.70 1.757
602.80 1.757
602.90 1.758
603.00 1.758
603.10 1.759
603.20 1.76
603.30 1.76
603.40 1.761
603.50 1.761
603.60 1.762
603.70 1.762
603.80 1.763
603.90 1.764
604.00 1.764
604.10 1.765
604.20 1.765
604.30 1.766
604.40 1.766
604.50 1.767
604.60 1.767
604.70 1.768
604.80 1.769
604.90 1.769
605.00 1.77
605.10 1.77
605.20 1.771
605.30 1.771
605.40 1.772
605.50 1.773
605.60 1.773
605.70 1.774
605.80 1.774
605.90 1.775
606.00 1.775
606.10 1.776
606.20 1.776
606.30 1.777
606.40 1.778
606.50 1.778
606.60 1.779
606.70 1.779
606.80 1.78
606.90 1.78
607.00 1.781
607.10 1.781
607.20 1.782
607.30 1.782
607.40 1.783
607.50 1.784
607.60 1.784
607.70 1.785
607.80 1.785
607.90 1.786
608.00 1.786
608.10 1.787
608.20 1.787
608.30 1.788
608.40 1.788
608.50 1.789
608.60 1.789
608.70 1.79
608.80 1.791
608.90 1.791
609.00 1.792
609.10 1.792
609.20 1.793
609.30 1.793
609.40 1.794
609.50 1.794
609.60 1.795
609.70 1.795
609.80 1.796
609.90 1.796
610.00 1.797
610.10 1.797
610.20 1.798
610.30 1.798
610.40 1.799
610.50 1.8
610.60 1.8
610.70 1.801
610.80 1.801
610.90 1.802
611.00 1.802
611.10 1.803
611.20 1.803
611.30 1.804
611.40 1.804
611.50 1.805
611.60 1.805
611.70 1.806
611.80 1.806
611.90 1.807
612.00 1.807
612.10 1.808
612.20 1.808
612.30 1.809
612.40 1.809
612.50 1.81
612.60 1.81
612.70 1.811
612.80 1.811
612.90 1.812
613.00 1.812
613.10 1.813
613.20 1.813
613.30 1.814
613.40 1.814
613.50 1.815
613.60 1.815
613.70 1.816
613.80 1.816
613.90 1.817
614.00 1.817
614.10 1.818
614.20 1.818
614.30 1.819
614.40 1.819
614.50 1.82
614.60 1.82
614.70 1.821
614.80 1.821
614.90 1.822
615.00 1.822
615.10 1.823
615.20 1.823
615.30 1.824
615.40 1.824
615.50 1.825
615.60 1.825
615.70 1.826
615.80 1.826
615.90 1.827
616.00 1.827
616.10 1.828
616.20 1.828
616.30 1.829
616.40 1.829
616.50 1.83
616.60 1.83
616.70 1.831
616.80 1.831
616.90 1.831
617.00 1.832
617.10 1.832
617.20 1.833
617.30 1.833
617.40 1.834
617.50 1.834
617.60 1.835
617.70 1.835
617.80 1.836
617.90 1.836
618.00 1.837
618.10 1.837
618.20 1.838
618.30 1.838
618.40 1.838
618.50 1.839
618.60 1.839
618.70 1.84
618.80 1.84
618.90 1.841
619.00 1.841
619.10 1.842
619.20 1.842
619.30 1.843
619.40 1.843
619.50 1.843
619.60 1.844
619.70 1.844
619.80 1.845
619.90 1.845
620.00 1.846
620.10 1.846
620.20 1.847
620.30 1.847
620.40 1.847
620.50 1.848
620.60 1.848
620.70 1.849
620.80 1.849
620.90 1.85
621.00 1.85
621.10 1.851
621.20 1.851
621.30 1.851
621.40 1.852
621.50 1.852
621.60 1.853
621.70 1.853
621.80 1.854
621.90 1.854
622.00 1.854
622.10 1.855
622.20 1.855
622.30 1.856
622.40 1.856
622.50 1.857
622.60 1.857
622.70 1.857
622.80 1.858
622.90 1.858
623.00 1.859
623.10 1.859
623.20 1.86
623.30 1.86
623.40 1.86
623.50 1.861
623.60 1.861
623.70 1.862
623.80 1.862
623.90 1.862
624.00 1.863
624.10 1.863
624.20 1.864
624.30 1.864
624.40 1.865
624.50 1.865
624.60 1.865
624.70 1.866
624.80 1.866
624.90 1.867
625.00 1.867
625.10 1.867
625.20 1.868
625.30 1.868
625.40 1.868
625.50 1.869
625.60 1.869
625.70 1.87
625.80 1.87
625.90 1.87
626.00 1.871
626.10 1.871
626.20 1.872
626.30 1.872
626.40 1.872
626.50 1.873
626.60 1.873
626.70 1.874
626.80 1.874
626.90 1.874
627.00 1.875
627.10 1.875
627.20 1.875
627.30 1.876
627.40 1.876
627.50 1.877
627.60 1.877
627.70 1.877
627.80 1.878
627.90 1.878
628.00 1.878
628.10 1.879
628.20 1.879
628.30 1.88
628.40 1.88
628.50 1.88
628.60 1.881
628.70 1.881
628.80 1.881
628.90 1.882
629.00 1.882
629.10 1.882
629.20 1.883
629.30 1.883
629.40 1.884
629.50 1.884
629.60 1.884
629.70 1.885
629.80 1.885
629.90 1.885
630.00 1.886
630.10 1.886
630.20 1.886
630.30 1.887
630.40 1.887
630.50 1.887
630.60 1.888
630.70 1.888
630.80 1.888
630.90 1.889
631.00 1.889
631.10 1.889
631.20 1.89
631.30 1.89
631.40 1.89
631.50 1.891
631.60 1.891
631.70 1.891
631.80 1.892
631.90 1.892
632.00 1.892
632.10 1.893
632.20 1.893
632.30 1.893
632.40 1.894
632.50 1.894
632.60 1.894
632.70 1.895
632.80 1.895
632.90 1.895
633.00 1.895
633.10 1.896
633.20 1.896
633.30 1.896
633.40 1.897
633.50 1.897
633.60 1.897
633.70 1.898
633.80 1.898
633.90 1.898
634.00 1.899
634.10 1.899
634.20 1.899
634.30 1.899
634.40 1.9
634.50 1.9
634.60 1.9
634.70 1.901
634.80 1.901
634.90 1.901
635.00 1.901
635.10 1.902
635.20 1.902
635.30 1.902
635.40 1.903
635.50 1.903
635.60 1.903
635.70 1.903
635.80 1.904
635.90 1.904
636.00 1.904
636.10 1.905
636.20 1.905
636.30 1.905
636.40 1.905
636.50 1.906
636.60 1.906
636.70 1.906
636.80 1.906
636.90 1.907
637.00 1.907
637.10 1.907
637.20 1.907
637.30 1.908
637.40 1.908
637.50 1.908
637.60 1.908
637.70 1.909
637.80 1.909
637.90 1.909
638.00 1.909
638.10 1.91
638.20 1.91
638.30 1.91
638.40 1.91
638.50 1.911
638.60 1.911
638.70 1.911
638.80 1.911
638.90 1.912
639.00 1.912
639.10 1.912
639.20 1.912
639.30 1.913
639.40 1.913
639.50 1.913
639.60 1.913
639.70 1.914
639.80 1.914
639.90 1.914
640.00 1.914
640.10 1.914
640.20 1.915
640.30 1.915
640.40 1.915
640.50 1.915
640.60 1.915
640.70 1.916
640.80 1.916
640.90 1.916
641.00 1.916
641.10 1.916
641.20 1.917
641.30 1.917
641.40 1.917
641.50 1.917
641.60 1.917
641.70 1.918
641.80 1.918
641.90 1.918
642.00 1.918
642.10 1.918
642.20 1.919
642.30 1.919
642.40 1.919
642.50 1.919
642.60 1.919
642.70 1.919
642.80 1.92
642.90 1.92
643.00 1.92
643.10 1.92
643.20 1.92
643.30 1.92
643.40 1.921
643.50 1.921
643.60 1.921
643.70 1.921
643.80 1.921
643.90 1.921
644.00 1.922
644.10 1.922
644.20 1.922
644.30 1.922
644.40 1.922
644.50 1.922
644.60 1.922
644.70 1.923
644.80 1.923
644.90 1.923
645.00 1.923
645.10 1.923
645.20 1.923
645.30 1.923
645.40 1.924
645.50 1.924
645.60 1.924
645.70 1.924
645.80 1.924
645.90 1.924
646.00 1.924
646.10 1.924
646.20 1.925
646.30 1.925
646.40 1.925
646.50 1.925
646.60 1.925
646.70 1.925
646.80 1.925
646.90 1.925
647.00 1.925
647.10 1.926
647.20 1.926
647.30 1.926
647.40 1.926
647.50 1.926
647.60 1.926
647.70 1.926
647.80 1.926
647.90 1.926
648.00 1.926
648.10 1.927
648.20 1.927
648.30 1.927
648.40 1.927
648.50 1.927
648.60 1.927
648.70 1.927
648.80 1.927
648.90 1.927
649.00 1.927
649.10 1.927
649.20 1.927
649.30 1.927
649.40 1.927
649.50 1.928
649.60 1.928
649.70 1.928
649.80 1.928
649.90 1.928
650.00 1.928
650.10 1.928
650.20 1.928
650.30 1.928
650.40 1.928
650.50 1.928
650.60 1.928
650.70 1.928
650.80 1.928
650.90 1.928
651.00 1.928
651.10 1.928
651.20 1.928
651.30 1.928
651.40 1.928
651.50 1.928
651.60 1.928
651.70 1.928
651.80 1.928
651.90 1.928
652.00 1.928
652.10 1.928
652.20 1.928
652.30 1.928
652.40 1.928
652.50 1.928
652.60 1.928
652.70 1.928
652.80 1.928
652.90 1.928
653.00 1.928
653.10 1.928
653.20 1.928
653.30 1.928
653.40 1.928
653.50 1.928
653.60 1.928
653.70 1.928
653.80 1.928
653.90 1.928
654.00 1.928
654.10 1.928
654.20 1.928
654.30 1.928
654.40 1.928
654.50 1.928
654.60 1.928
654.70 1.928
654.80 1.928
654.90 1.928
655.00 1.928
655.10 1.928
655.20 1.928
655.30 1.928
655.40 1.928
655.50 1.928
655.60 1.928
655.70 1.928
655.80 1.927
655.90 1.927
656.00 1.927
656.10 1.927
656.20 1.927
656.30 1.927
656.40 1.927
656.50 1.927
656.60 1.927
656.70 1.927
656.80 1.927
656.90 1.927
657.00 1.927
657.10 1.926
657.20 1.926
657.30 1.926
657.40 1.926
657.50 1.926
657.60 1.926
657.70 1.926
657.80 1.926
657.90 1.926
658.00 1.925
658.10 1.925
658.20 1.925
658.30 1.925
658.40 1.925
658.50 1.925
658.60 1.925
658.70 1.925
658.80 1.924
658.90 1.924
659.00 1.924
659.10 1.924
659.20 1.924
659.30 1.924
659.40 1.924
659.50 1.923
659.60 1.923
659.70 1.923
659.80 1.923
659.90 1.923
660.00 1.923
660.10 1.923
660.20 1.922
660.30 1.922
660.40 1.922
660.50 1.922
660.60 1.922
660.70 1.922
660.80 1.921
660.90 1.921
661.00 1.921
661.10 1.921
661.20 1.921
661.30 1.92
661.40 1.92
661.50 1.92
661.60 1.92
661.70 1.92
661.80 1.919
661.90 1.919
662.00 1.919
662.10 1.919
662.20 1.919
662.30 1.918
662.40 1.918
662.50 1.918
662.60 1.918
662.70 1.917
662.80 1.917
662.90 1.917
663.00 1.917
663.10 1.917
663.20 1.916
663.30 1.916
663.40 1.916
663.50 1.916
663.60 1.915
663.70 1.915
663.80 1.915
663.90 1.915
664.00 1.914
664.10 1.914
664.20 1.914
664.30 1.914
664.40 1.913
664.50 1.913
664.60 1.913
664.70 1.912
664.80 1.912
664.90 1.912
665.00 1.912
665.10 1.911
665.20 1.911
665.30 1.911
665.40 1.91
665.50 1.91
665.60 1.91
665.70 1.909
665.80 1.909
665.90 1.909
666.00 1.908
666.10 1.908
666.20 1.908
666.30 1.908
666.40 1.907
666.50 1.907
666.60 1.907
666.70 1.906
666.80 1.906
666.90 1.906
667.00 1.905
667.10 1.905
667.20 1.905
667.30 1.904
667.40 1.904
667.50 1.903
667.60 1.903
667.70 1.903
667.80 1.902
667.90 1.902
668.00 1.902
668.10 1.901
668.20 1.901
668.30 1.9
668.40 1.9
668.50 1.9
668.60 1.899
668.70 1.899
668.80 1.898
668.90 1.898
669.00 1.898
669.10 1.897
669.20 1.897
669.30 1.896
669.40 1.896
669.50 1.896
669.60 1.895
669.70 1.895
669.80 1.894
669.90 1.894
670.00 1.894
670.10 1.893
670.20 1.893
670.30 1.892
670.40 1.892
670.50 1.891
670.60 1.891
670.70 1.89
670.80 1.89
670.90 1.889
671.00 1.889
671.10 1.889
671.20 1.888
671.30 1.888
671.40 1.887
671.50 1.887
671.60 1.886
671.70 1.886
671.80 1.885
671.90 1.885
672.00 1.884
672.10 1.884
672.20 1.883
672.30 1.883
672.40 1.882
672.50 1.882
672.60 1.881
672.70 1.881
672.80 1.88
672.90 1.88
673.00 1.879
673.10 1.879
673.20 1.878
673.30 1.878
673.40 1.877
673.50 1.876
673.60 1.876
673.70 1.875
673.80 1.875
673.90 1.874
674.00 1.874
674.10 1.873
674.20 1.872
674.30 1.872
674.40 1.871
674.50 1.871
674.60 1.87
674.70 1.87
674.80 1.869
674.90 1.868
675.00 1.868
675.10 1.867
675.20 1.867
675.30 1.866
675.40 1.865
675.50 1.865
675.60 1.864
675.70 1.864
675.80 1.863
675.90 1.862
676.00 1.862
676.10 1.861
676.20 1.86
676.30 1.86
676.40 1.859
676.50 1.859
676.60 1.858
676.70 1.857
676.80 1.857
676.90 1.856
677.00 1.855
677.10 1.855
677.20 1.854
677.30 1.853
677.40 1.853
677.50 1.852
677.60 1.851
677.70 1.851
677.80 1.85
677.90 1.849
678.00 1.848
678.10 1.848
678.20 1.847
678.30 1.846
678.40 1.846
678.50 1.845
678.60 1.844
678.70 1.843
678.80 1.843
678.90 1.842
679.00 1.841
679.10 1.841
679.20 1.84
679.30 1.839
679.40 1.838
679.50 1.838
679.60 1.837
679.70 1.836
679.80 1.835
679.90 1.835
680.00 1.834
680.10 1.833
680.20 1.832
680.30 1.831
680.40 1.831
680.50 1.83
680.60 1.829
680.70 1.828
680.80 1.827
680.90 1.827
681.00 1.826
681.10 1.825
681.20 1.824
681.30 1.823
681.40 1.823
681.50 1.822
681.60 1.821
681.70 1.82
681.80 1.819
681.90 1.818
682.00 1.817
682.10 1.817
682.20 1.816
682.30 1.815
682.40 1.814
682.50 1.813
682.60 1.812
682.70 1.811
682.80 1.811
682.90 1.81
683.00 1.809
683.10 1.808
683.20 1.807
683.30 1.806
683.40 1.805
683.50 1.804
683.60 1.803
683.70 1.802
683.80 1.802
683.90 1.801
684.00 1.8
684.10 1.799
684.20 1.798
684.30 1.797
684.40 1.796
684.50 1.795
684.60 1.794
684.70 1.793
684.80 1.792
684.90 1.791
685.00 1.79
685.10 1.789
685.20 1.788
685.30 1.787
685.40 1.786
685.50 1.785
685.60 1.784
685.70 1.783
685.80 1.782
685.90 1.781
686.00 1.78
686.10 1.779
686.20 1.778
686.30 1.777
686.40 1.776
686.50 1.775
686.60 1.774
686.70 1.773
686.80 1.772
686.90 1.771
687.00 1.77
687.10 1.769
687.20 1.768
687.30 1.767
687.40 1.766
687.50 1.765
687.60 1.764
687.70 1.763
687.80 1.762
687.90 1.76
688.00 1.759
688.10 1.758
688.20 1.757
688.30 1.756
688.40 1.755
688.50 1.754
688.60 1.753
688.70 1.752
688.80 1.751
688.90 1.749
689.00 1.748
689.10 1.747
689.20 1.746
689.30 1.745
689.40 1.744
689.50 1.742
689.60 1.741
689.70 1.74
689.80 1.739
689.90 1.737
690.00 1.736
690.10 1.735
690.20 1.733
690.30 1.732
690.40 1.731
690.50 1.73
690.60 1.728
690.70 1.727
690.80 1.726
690.90 1.725
691.00 1.723
691.10 1.722
691.20 1.721
691.30 1.72
691.40 1.718
691.50 1.717
691.60 1.716
691.70 1.715
691.80 1.713
691.90 1.712
692.00 1.711
692.10 1.71
692.20 1.708
692.30 1.707
692.40 1.706
692.50 1.705
692.60 1.703
692.70 1.702
692.80 1.701
692.90 1.7
693.00 1.698
693.10 1.697
693.20 1.696
693.30 1.695
693.40 1.693
693.50 1.692
693.60 1.691
693.70 1.69
693.80 1.688
693.90 1.687
694.00 1.686
694.10 1.685
694.20 1.683
694.30 1.682
694.40 1.681
694.50 1.68
694.60 1.678
694.70 1.677
694.80 1.676
694.90 1.675
695.00 1.673
695.10 1.672
695.20 1.67
695.30 1.669
695.40 1.668
695.50 1.666
695.60 1.665
695.70 1.663
695.80 1.662
695.90 1.66
696.00 1.659
696.10 1.657
696.20 1.656
696.30 1.654
696.40 1.653
696.50 1.652
696.60 1.65
696.70 1.649
696.80 1.647
696.90 1.646
697.00 1.644
697.10 1.643
697.20 1.641
697.30 1.64
697.40 1.639
697.50 1.637
697.60 1.636
697.70 1.634
697.80 1.633
697.90 1.631
698.00 1.63
698.10 1.628
698.20 1.627
698.30 1.626
698.40 1.624
698.50 1.623
698.60 1.621
698.70 1.62
698.80 1.618
698.90 1.617
699.00 1.616
699.10 1.614
699.20 1.613
699.30 1.611
699.40 1.61
699.50 1.608
699.60 1.607
699.70 1.606
699.80 1.604
699.90 1.603
700.00 1.601
700.10 1.6
700.20 1.598
700.30 1.596
700.40 1.595
700.50 1.593
700.60 1.592
700.70 1.59
700.80 1.588
700.90 1.587
701.00 1.585
701.10 1.583
701.20 1.582
701.30 1.58
701.40 1.579
701.50 1.577
701.60 1.575
701.70 1.574
701.80 1.572
701.90 1.571
702.00 1.569
702.10 1.567
702.20 1.566
702.30 1.564
702.40 1.563
702.50 1.561
702.60 1.559
702.70 1.558
702.80 1.556
702.90 1.555
703.00 1.553
703.10 1.551
703.20 1.55
703.30 1.548
703.40 1.547
703.50 1.545
703.60 1.544
703.70 1.542
703.80 1.54
703.90 1.539
704.00 1.537
704.10 1.536
704.20 1.534
704.30 1.532
704.40 1.531
704.50 1.529
704.60 1.528
704.70 1.526
704.80 1.525
704.90 1.523
705.00 1.521
705.10 1.52
705.20 1.518
705.30 1.516
705.40 1.515
705.50 1.513
705.60 1.511
705.70 1.509
705.80 1.508
705.90 1.506
706.00 1.504
706.10 1.503
706.20 1.501
706.30 1.499
706.40 1.497
706.50 1.496
706.60 1.494
706.70 1.492
706.80 1.491
706.90 1.489
707.00 1.487
707.10 1.486
707.20 1.484
707.30 1.482
707.40 1.481
707.50 1.479
707.60 1.477
707.70 1.475
707.80 1.474
707.90 1.472
708.00 1.47
708.10 1.469
708.20 1.467
708.30 1.465
708.40 1.464
708.50 1.462
708.60 1.46
708.70 1.459
708.80 1.457
708.90 1.455
709.00 1.454
709.10 1.452
709.20 1.45
709.30 1.449
709.40 1.447
709.50 1.445
709.60 1.444
709.70 1.442
709.80 1.44
709.90 1.439
710.00 1.437
710.10 1.435
710.20 1.433
710.30 1.432
710.40 1.43
710.50 1.428
710.60 1.426
710.70 1.425
710.80 1.423
710.90 1.421
711.00 1.419
711.10 1.418
711.20 1.416
711.30 1.414
711.40 1.412
711.50 1.411
711.60 1.409
711.70 1.407
711.80 1.405
711.90 1.404
712.00 1.402
712.10 1.4
712.20 1.398
712.30 1.397
712.40 1.395
712.50 1.393
712.60 1.392
712.70 1.39
712.80 1.388
712.90 1.386
713.00 1.385
713.10 1.383
713.20 1.381
713.30 1.379
713.40 1.378
713.50 1.376
713.60 1.374
713.70 1.373
713.80 1.371
713.90 1.369
714.00 1.367
714.10 1.366
714.20 1.364
714.30 1.362
714.40 1.36
714.50 1.359
714.60 1.357
714.70 1.355
714.80 1.354
714.90 1.352
715.00 1.35
715.10 1.348
715.20 1.347
715.30 1.345
715.40 1.343
715.50 1.342
715.60 1.34
715.70 1.338
715.80 1.336
715.90 1.335
716.00 1.333
716.10 1.331
716.20 1.329
716.30 1.328
716.40 1.326
716.50 1.324
716.60 1.322
716.70 1.321
716.80 1.319
716.90 1.317
717.00 1.316
717.10 1.314
717.20 1.312
717.30 1.31
717.40 1.309
717.50 1.307
717.60 1.305
717.70 1.304
717.80 1.302
717.90 1.3
718.00 1.298
718.10 1.297
718.20 1.295
718.30 1.293
718.40 1.292
718.50 1.29
718.60 1.288
718.70 1.286
718.80 1.285
718.90 1.283
719.00 1.281
719.10 1.28
719.20 1.278
719.30 1.276
719.40 1.275
719.50 1.273
719.60 1.271
719.70 1.269
719.80 1.268
719.90 1.266
720.00 1.264
720.10 1.263
720.20 1.261
720.30 1.259
720.40 1.258
720.50 1.256
720.60 1.255
720.70 1.253
720.80 1.251
720.90 1.25
721.00 1.248
721.10 1.246
721.20 1.245
721.30 1.243
721.40 1.241
721.50 1.24
721.60 1.238
721.70 1.237
721.80 1.235
721.90 1.233
722.00 1.232
722.10 1.23
722.20 1.228
722.30 1.227
722.40 1.225
722.50 1.224
722.60 1.222
722.70 1.22
722.80 1.219
722.90 1.217
723.00 1.215
723.10 1.214
723.20 1.212
723.30 1.211
723.40 1.209
723.50 1.207
723.60 1.206
723.70 1.204
723.80 1.203
723.90 1.201
724.00 1.199
724.10 1.198
724.20 1.196
724.30 1.194
724.40 1.193
724.50 1.191
724.60 1.19
724.70 1.188
724.80 1.186
724.90 1.185
725.00 1.183
725.10 1.182
725.20 1.18
725.30 1.179
725.40 1.177
725.50 1.176
725.60 1.174
725.70 1.173
725.80 1.171
725.90 1.17
726.00 1.168
726.10 1.167
726.20 1.165
726.30 1.164
726.40 1.162
726.50 1.161
726.60 1.159
726.70 1.158
726.80 1.156
726.90 1.155
727.00 1.153
727.10 1.152
727.20 1.15
727.30 1.149
727.40 1.147
727.50 1.146
727.60 1.145
727.70 1.143
727.80 1.142
727.90 1.14
728.00 1.139
728.10 1.137
728.20 1.136
728.30 1.134
728.40 1.133
728.50 1.131
728.60 1.13
728.70 1.128
728.80 1.127
728.90 1.125
729.00 1.124
729.10 1.122
729.20 1.121
729.30 1.119
729.40 1.118
729.50 1.117
729.60 1.115
729.70 1.114
729.80 1.112
729.90 1.111
730.00 1.109
730.10 1.108
730.20 1.107
730.30 1.106
730.40 1.104
730.50 1.103
730.60 1.102
730.70 1.101
730.80 1.1
730.90 1.098
731.00 1.097
731.10 1.096
731.20 1.095
731.30 1.094
731.40 1.093
731.50 1.091
731.60 1.09
731.70 1.089
731.80 1.088
731.90 1.087
732.00 1.085
732.10 1.084
732.20 1.083
732.30 1.082
732.40 1.081
732.50 1.08
732.60 1.078
732.70 1.077
732.80 1.076
732.90 1.075
733.00 1.074
733.10 1.072
733.20 1.071
733.30 1.07
733.40 1.069
733.50 1.068
733.60 1.067
733.70 1.065
733.80 1.064
733.90 1.063
734.00 1.062
734.10 1.061
734.20 1.06
734.30 1.058
734.40 1.057
734.50 1.056
734.60 1.055
734.70 1.054
734.80 1.053
734.90 1.051
735.00 1.05
735.10 1.049
735.20 1.048
735.30 1.047
735.40 1.046
735.50 1.044
735.60 1.043
735.70 1.042
735.80 1.041
735.90 1.04
736.00 1.039
736.10 1.037
736.20 1.036
736.30 1.035
736.40 1.034
736.50 1.033
736.60 1.032
736.70 1.03
736.80 1.029
736.90 1.028
737.00 1.027
737.10 1.026
737.20 1.025
737.30 1.024
737.40 1.022
737.50 1.021
737.60 1.02
737.70 1.019
737.80 1.018
737.90 1.017
738.00 1.016
738.10 1.014
738.20 1.013
738.30 1.012
738.40 1.011
738.50 1.01
738.60 1.009
738.70 1.007
738.80 1.006
738.90 1.005
739.00 1.004
739.10 1.003
739.20 1.002
739.30 1.001
739.40 0.9995
739.50 0.9984
739.60 0.9972
739.70 0.9961
739.80 0.9949
739.90 0.9938
740.00 0.9927
740.10 0.9919
740.20 0.9911
740.30 0.9903
740.40 0.9895
740.50 0.9888
740.60 0.988
740.70 0.9872
740.80 0.9864
740.90 0.9856
741.00 0.9849
741.10 0.9841
741.20 0.9833
741.30 0.9825
741.40 0.9818
741.50 0.981
741.60 0.9802
741.70 0.9794
741.80 0.9787
741.90 0.9779
742.00 0.9771
742.10 0.9763
742.20 0.9756
742.30 0.9748
742.40 0.974
742.50 0.9732
742.60 0.9725
742.70 0.9717
742.80 0.9709
742.90 0.9701
743.00 0.9694
743.10 0.9686
743.20 0.9678
743.30 0.9671
743.40 0.9663
743.50 0.9655
743.60 0.9648
743.70 0.964
743.80 0.9632
743.90 0.9625
744.00 0.9617
744.10 0.9609
744.20 0.9602
744.30 0.9594
744.40 0.9586
744.50 0.9579
744.60 0.9571
744.70 0.9563
744.80 0.9556
744.90 0.9548
745.00 0.954
745.10 0.9533
745.20 0.9525
745.30 0.9518
745.40 0.951
745.50 0.9502
745.60 0.9495
745.70 0.9487
745.80 0.948
745.90 0.9472
746.00 0.9464
746.10 0.9457
746.20 0.9449
746.30 0.9442
746.40 0.9434
746.50 0.9426
746.60 0.9419
746.70 0.9411
746.80 0.9404
746.90 0.9396
747.00 0.9389
747.10 0.9381
747.20 0.9373
747.30 0.9366
747.40 0.9358
747.50 0.9351
747.60 0.9343
747.70 0.9336
747.80 0.9328
747.90 0.9321
748.00 0.9313
748.10 0.9306
748.20 0.9298
748.30 0.9291
748.40 0.9283
748.50 0.9276
748.60 0.9268
748.70 0.9261
748.80 0.9253
748.90 0.9246
749.00 0.9238
749.10 0.9231
749.20 0.9223
749.30 0.9216
749.40 0.9208
749.50 0.9201
749.60 0.9193
749.70 0.9186
749.80 0.9178
749.90 0.9171
750.00 0.9164
750.10 0.9158
750.20 0.9153
750.30 0.9148
750.40 0.9143
750.50 0.9137
750.60 0.9132
750.70 0.9127
750.80 0.9122
750.90 0.9116
751.00 0.9111
751.10 0.9106
751.20 0.9101
751.30 0.9095
751.40 0.909
751.50 0.9085
751.60 0.908
751.70 0.9075
751.80 0.9069
751.90 0.9064
752.00 0.9059
752.10 0.9054
752.20 0.9049
752.30 0.9043
752.40 0.9038
752.50 0.9033
752.60 0.9028
752.70 0.9023
752.80 0.9017
752.90 0.9012
753.00 0.9007
753.10 0.9002
753.20 0.8997
753.30 0.8992
753.40 0.8986
753.50 0.8981
753.60 0.8976
753.70 0.8971
753.80 0.8966
753.90 0.8961
754.00 0.8955
754.10 0.895
754.20 0.8945
754.30 0.894
754.40 0.8935
754.50 0.893
754.60 0.8924
754.70 0.8919
754.80 0.8914
754.90 0.8909
755.00 0.8904
755.10 0.8899
755.20 0.8894
755.30 0.8889
755.40 0.8883
755.50 0.8878
755.60 0.8873
755.70 0.8868
755.80 0.8863
755.90 0.8858
756.00 0.8853
756.10 0.8848
756.20 0.8843
756.30 0.8837
756.40 0.8832
756.50 0.8827
756.60 0.8822
756.70 0.8817
756.80 0.8812
756.90 0.8807
757.00 0.8802
757.10 0.8797
757.20 0.8792
757.30 0.8787
757.40 0.8781
757.50 0.8776
757.60 0.8771
757.70 0.8766
757.80 0.8761
757.90 0.8756
758.00 0.8751
758.10 0.8746
758.20 0.8741
758.30 0.8736
758.40 0.8731
758.50 0.8726
758.60 0.8721
758.70 0.8716
758.80 0.8711
758.90 0.8706
759.00 0.8701
759.10 0.8696
759.20 0.869
759.30 0.8685
759.40 0.868
759.50 0.8675
759.60 0.867
759.70 0.8665
759.80 0.866
759.90 0.8655
760.00 0.865
760.10 0.8647
760.20 0.8643
760.30 0.8639
760.40 0.8635
760.50 0.8632
760.60 0.8628
760.70 0.8624
760.80 0.862
760.90 0.8617
761.00 0.8613
761.10 0.8609
761.20 0.8605
761.30 0.8602
761.40 0.8598
761.50 0.8594
761.60 0.859
761.70 0.8587
761.80 0.8583
761.90 0.8579
762.00 0.8575
762.10 0.8572
762.20 0.8568
762.30 0.8564
762.40 0.8561
762.50 0.8557
762.60 0.8553
762.70 0.8549
762.80 0.8546
762.90 0.8542
763.00 0.8538
763.10 0.8535
763.20 0.8531
763.30 0.8527
763.40 0.8523
763.50 0.852
763.60 0.8516
763.70 0.8512
763.80 0.8509
763.90 0.8505
764.00 0.8501
764.10 0.8498
764.20 0.8494
764.30 0.849
764.40 0.8486
764.50 0.8483
764.60 0.8479
764.70 0.8475
764.80 0.8472
764.90 0.8468
765.00 0.8464
765.10 0.8461
765.20 0.8457
765.30 0.8453
765.40 0.845
765.50 0.8446
765.60 0.8442
765.70 0.8439
765.80 0.8435
765.90 0.8431
766.00 0.8428
766.10 0.8424
766.20 0.842
766.30 0.8417
766.40 0.8413
766.50 0.8409
766.60 0.8406
766.70 0.8402
766.80 0.8398
766.90 0.8395
767.00 0.8391
767.10 0.8388
767.20 0.8384
767.30 0.838
767.40 0.8377
767.50 0.8373
767.60 0.8369
767.70 0.8366
767.80 0.8362
767.90 0.8358
768.00 0.8355
768.10 0.8351
768.20 0.8348
768.30 0.8344
768.40 0.834
768.50 0.8337
768.60 0.8333
768.70 0.8329
768.80 0.8326
768.90 0.8322
769.00 0.8319
769.10 0.8315
769.20 0.8311
769.30 0.8308
769.40 0.8304
769.50 0.8301
769.60 0.8297
769.70 0.8293
769.80 0.829
769.90 0.8286
770.00 0.8283
770.10 0.8281
770.20 0.8279
770.30 0.8277
770.40 0.8275
770.50 0.8273
770.60 0.8271
770.70 0.8269
770.80 0.8267
770.90 0.8265
771.00 0.8263
771.10 0.8261
771.20 0.8259
771.30 0.8257
771.40 0.8255
771.50 0.8253
771.60 0.8251
771.70 0.8249
771.80 0.8247
771.90 0.8245
772.00 0.8243
772.10 0.8241
772.20 0.8239
772.30 0.8237
772.40 0.8235
772.50 0.8233
772.60 0.8231
772.70 0.8229
772.80 0.8227
772.90 0.8225
773.00 0.8223
773.10 0.8221
773.20 0.8219
773.30 0.8218
773.40 0.8216
773.50 0.8214
773.60 0.8212
773.70 0.821
773.80 0.8208
773.90 0.8206
774.00 0.8204
774.10 0.8202
774.20 0.82
774.30 0.8198
774.40 0.8196
774.50 0.8194
774.60 0.8192
774.70 0.819
774.80 0.8188
774.90 0.8186
775.00 0.8184
775.10 0.8182
775.20 0.818
775.30 0.8178
775.40 0.8177
775.50 0.8175
775.60 0.8173
775.70 0.8171
775.80 0.8169
775.90 0.8167
776.00 0.8165
776.10 0.8163
776.20 0.8161
776.30 0.8159
776.40 0.8157
776.50 0.8155
776.60 0.8153
776.70 0.8151
776.80 0.8149
776.90 0.8147
777.00 0.8146
777.10 0.8144
777.20 0.8142
777.30 0.814
777.40 0.8138
777.50 0.8136
777.60 0.8134
777.70 0.8132
777.80 0.813
777.90 0.8128
778.00 0.8126
778.10 0.8124
778.20 0.8122
778.30 0.8121
778.40 0.8119
778.50 0.8117
778.60 0.8115
778.70 0.8113
778.80 0.8111
778.90 0.8109
779.00 0.8107
779.10 0.8105
779.20 0.8103
779.30 0.8101
779.40 0.8099
779.50 0.8097
779.60 0.8096
779.70 0.8094
779.80 0.8092
779.90 0.809
780.00 0.8088
780.10 0.8088
780.20 0.8088
780.30 0.8088
780.40 0.8088
780.50 0.8089
780.60 0.8089
780.70 0.8089
780.80 0.8089
780.90 0.8089
781.00 0.8089
781.10 0.8089
781.20 0.809
781.30 0.809
781.40 0.809
781.50 0.809
781.60 0.809
781.70 0.809
781.80 0.809
781.90 0.809
782.00 0.8091
782.10 0.8091
782.20 0.8091
782.30 0.8091
782.40 0.8091
782.50 0.8091
782.60 0.8091
782.70 0.8091
782.80 0.8092
782.90 0.8092
783.00 0.8092
783.10 0.8092
783.20 0.8092
783.30 0.8092
783.40 0.8092
783.50 0.8092
783.60 0.8093
783.70 0.8093
783.80 0.8093
783.90 0.8093
784.00 0.8093
784.10 0.8093
784.20 0.8093
784.30 0.8093
784.40 0.8094
784.50 0.8094
784.60 0.8094
784.70 0.8094
784.80 0.8094
784.90 0.8094
785.00 0.8094
785.10 0.8094
785.20 0.8095
785.30 0.8095
785.40 0.8095
785.50 0.8095
785.60 0.8095
785.70 0.8095
785.80 0.8095
785.90 0.8095
786.00 0.8095
786.10 0.8096
786.20 0.8096
786.30 0.8096
786.40 0.8096
786.50 0.8096
786.60 0.8096
786.70 0.8096
786.80 0.8096
786.90 0.8096
787.00 0.8097
787.10 0.8097
787.20 0.8097
787.30 0.8097
787.40 0.8097
787.50 0.8097
787.60 0.8097
787.70 0.8097
787.80 0.8098
787.90 0.8098
788.00 0.8098
788.10 0.8098
788.20 0.8098
788.30 0.8098
788.40 0.8098
788.50 0.8098
788.60 0.8098
788.70 0.8098
788.80 0.8099
788.90 0.8099
789.00 0.8099
789.10 0.8099
789.20 0.8099
789.30 0.8099
789.40 0.8099
789.50 0.8099
789.60 0.8099
789.70 0.81
789.80 0.81
789.90 0.81
790.00 0.81
790.10 0.8101
790.20 0.8102
790.30 0.8103
790.40 0.8104
790.50 0.8105
790.60 0.8106
790.70 0.8107
790.80 0.8108
790.90 0.8109
791.00 0.811
791.10 0.8111
791.20 0.8112
791.30 0.8113
791.40 0.8114
791.50 0.8115
791.60 0.8116
791.70 0.8117
791.80 0.8118
791.90 0.8119
792.00 0.812
792.10 0.8121
792.20 0.8122
792.30 0.8123
792.40 0.8124
792.50 0.8125
792.60 0.8126
792.70 0.8127
792.80 0.8128
792.90 0.8129
793.00 0.813
793.10 0.8131
793.20 0.8132
793.30 0.8133
793.40 0.8133
793.50 0.8134
793.60 0.8135
793.70 0.8136
793.80 0.8137
793.90 0.8138
794.00 0.8139
794.10 0.814
794.20 0.8141
794.30 0.8142
794.40 0.8143
794.50 0.8144
794.60 0.8145
794.70 0.8146
794.80 0.8147
794.90 0.8148
795.00 0.8149
795.10 0.815
795.20 0.8151
795.30 0.8152
795.40 0.8153
795.50 0.8154
795.60 0.8155
795.70 0.8156
795.80 0.8157
795.90 0.8158
796.00 0.8159
796.10 0.816
796.20 0.8161
796.30 0.8162
796.40 0.8162
796.50 0.8163
796.60 0.8164
796.70 0.8165
796.80 0.8166
796.90 0.8167
797.00 0.8168
797.10 0.8169
797.20 0.817
797.30 0.8171
797.40 0.8172
797.50 0.8173
797.60 0.8174
797.70 0.8175
797.80 0.8176
797.90 0.8177
798.00 0.8178
798.10 0.8179
798.20 0.818
798.30 0.818
798.40 0.8181
798.50 0.8182
798.60 0.8183
798.70 0.8184
798.80 0.8185
798.90 0.8186
799.00 0.8187
799.10 0.8188
799.20 0.8189
799.30 0.819
799.40 0.8191
799.50 0.8192
799.60 0.8193
799.70 0.8194
799.80 0.8195
799.90 0.8195
800.00 0.8196
800.10 0.8196
800.20 0.8197
800.30 0.8197
800.40 0.8197
800.50 0.8197
800.60 0.8197
800.70 0.8197
800.80 0.8197
800.90 0.8197
801.00 0.8197
801.10 0.8197
801.20 0.8197
801.30 0.8197
801.40 0.8197
801.50 0.8198
801.60 0.8198
801.70 0.8198
801.80 0.8198
801.90 0.8198
802.00 0.8198
802.10 0.8198
802.20 0.8198
802.30 0.8198
802.40 0.8198
802.50 0.8198
802.60 0.8198
802.70 0.8198
802.80 0.8199
802.90 0.8199
803.00 0.8199
803.10 0.8199
803.20 0.8199
803.30 0.8199
803.40 0.8199
803.50 0.8199
803.60 0.8199
803.70 0.8199
803.80 0.8199
803.90 0.8199
804.00 0.8199
804.10 0.8199
804.20 0.82
804.30 0.82
804.40 0.82
804.50 0.82
804.60 0.82
804.70 0.82
804.80 0.82
804.90 0.82
805.00 0.82
805.10 0.82
805.20 0.82
805.30 0.82
805.40 0.82
805.50 0.82
805.60 0.82
805.70 0.8201
805.80 0.8201
805.90 0.8201
806.00 0.8201
806.10 0.8201
806.20 0.8201
806.30 0.8201
806.40 0.8201
806.50 0.8201
806.60 0.8201
806.70 0.8201
806.80 0.8201
806.90 0.8201
807.00 0.8201
807.10 0.8201
807.20 0.8201
807.30 0.8202
807.40 0.8202
807.50 0.8202
807.60 0.8202
807.70 0.8202
807.80 0.8202
807.90 0.8202
808.00 0.8202
808.10 0.8202
808.20 0.8202
808.30 0.8202
808.40 0.8202
808.50 0.8202
808.60 0.8202
808.70 0.8202
808.80 0.8202
808.90 0.8202
809.00 0.8203
809.10 0.8203
809.20 0.8203
809.30 0.8203
809.40 0.8203
809.50 0.8203
809.60 0.8203
809.70 0.8203
809.80 0.8203
809.90 0.8203
810.00 0.8203
810.10 0.8202
810.20 0.8201
810.30 0.82
810.40 0.8199
810.50 0.8197
810.60 0.8196
810.70 0.8195
810.80 0.8194
810.90 0.8193
811.00 0.8192
811.10 0.8191
811.20 0.819
811.30 0.8189
811.40 0.8187
811.50 0.8186
811.60 0.8185
811.70 0.8184
811.80 0.8183
811.90 0.8182
812.00 0.8181
812.10 0.818
812.20 0.8179
812.30 0.8177
812.40 0.8176
812.50 0.8175
812.60 0.8174
812.70 0.8173
812.80 0.8172
812.90 0.8171
813.00 0.817
813.10 0.8169
813.20 0.8167
813.30 0.8166
813.40 0.8165
813.50 0.8164
813.60 0.8163
813.70 0.8162
813.80 0.8161
813.90 0.816
814.00 0.8159
814.10 0.8157
814.20 0.8156
814.30 0.8155
814.40 0.8154
814.50 0.8153
814.60 0.8152
814.70 0.8151
814.80 0.815
814.90 0.8149
815.00 0.8148
815.10 0.8146
815.20 0.8145
815.30 0.8144
815.40 0.8143
815.50 0.8142
815.60 0.8141
815.70 0.814
815.80 0.8139
815.90 0.8138
816.00 0.8137
816.10 0.8135
816.20 0.8134
816.30 0.8133
816.40 0.8132
816.50 0.8131
816.60 0.813
816.70 0.8129
816.80 0.8128
816.90 0.8127
817.00 0.8126
817.10 0.8124
817.20 0.8123
817.30 0.8122
817.40 0.8121
817.50 0.812
817.60 0.8119
817.70 0.8118
817.80 0.8117
817.90 0.8116
818.00 0.8115
818.10 0.8113
818.20 0.8112
818.30 0.8111
818.40 0.811
818.50 0.8109
818.60 0.8108
818.70 0.8107
818.80 0.8106
818.90 0.8105
819.00 0.8104
819.10 0.8103
819.20 0.8101
819.30 0.81
819.40 0.8099
819.50 0.8098
819.60 0.8097
819.70 0.8096
819.80 0.8095
819.90 0.8094
820.00 0.8093
820.10 0.8092
820.20 0.809
820.30 0.8089
820.40 0.8088
820.50 0.8086
820.60 0.8085
820.70 0.8083
820.80 0.8082
820.90 0.8081
821.00 0.8079
821.10 0.8078
821.20 0.8076
821.30 0.8075
821.40 0.8074
821.50 0.8072
821.60 0.8071
821.70 0.8069
821.80 0.8068
821.90 0.8067
822.00 0.8065
822.10 0.8064
822.20 0.8062
822.30 0.8061
822.40 0.8059
822.50 0.8058
822.60 0.8056
822.70 0.8055
822.80 0.8053
822.90 0.8052
823.00 0.805
823.10 0.8049
823.20 0.8047
823.30 0.8046
823.40 0.8044
823.50 0.8043
823.60 0.8041
823.70 0.804
823.80 0.8038
823.90 0.8037
824.00 0.8035
824.10 0.8034
824.20 0.8032
824.30 0.8031
824.40 0.803
824.50 0.8028
824.60 0.8027
824.70 0.8025
824.80 0.8024
824.90 0.8022
825.00 0.8021
825.10 0.8019
825.20 0.8018
825.30 0.8016
825.40 0.8015
825.50 0.8013
825.60 0.8012
825.70 0.801
825.80 0.8009
825.90 0.8007
826.00 0.8006
826.10 0.8004
826.20 0.8003
826.30 0.8001
826.40 0.8
826.50 0.7999
826.60 0.7997
826.70 0.7996
826.80 0.7994
826.90 0.7993
827.00 0.7991
827.10 0.799
827.20 0.7988
827.30 0.7987
827.40 0.7985
827.50 0.7984
827.60 0.7982
827.70 0.798
827.80 0.7979
827.90 0.7977
828.00 0.7976
828.10 0.7974
828.20 0.7973
828.30 0.7971
828.40 0.797
828.50 0.7968
828.60 0.7967
828.70 0.7965
828.80 0.7964
828.90 0.7962
829.00 0.7961
829.10 0.7959
829.20 0.7958
829.30 0.7956
829.40 0.7955
829.50 0.7953
829.60 0.7951
829.70 0.795
829.80 0.7948
829.90 0.7947
830.00 0.7945
830.10 0.7944
830.20 0.7942
830.30 0.7941
830.40 0.7939
830.50 0.7938
830.60 0.7936
830.70 0.7935
830.80 0.7933
830.90 0.7932
831.00 0.793
831.10 0.7929
831.20 0.7927
831.30 0.7926
831.40 0.7924
831.50 0.7923
831.60 0.7921
831.70 0.792
831.80 0.7918
831.90 0.7917
832.00 0.7915
832.10 0.7914
832.20 0.7912
832.30 0.7911
832.40 0.7909
832.50 0.7908
832.60 0.7906
832.70 0.7905
832.80 0.7903
832.90 0.7902
833.00 0.79
833.10 0.7899
833.20 0.7897
833.30 0.7896
833.40 0.7894
833.50 0.7893
833.60 0.7891
833.70 0.789
833.80 0.7888
833.90 0.7887
834.00 0.7885
834.10 0.7884
834.20 0.7882
834.30 0.7881
834.40 0.7879
834.50 0.7878
834.60 0.7876
834.70 0.7875
834.80 0.7873
834.90 0.7872
835.00 0.787
835.10 0.7869
835.20 0.7867
835.30 0.7866
835.40 0.7864
835.50 0.7863
835.60 0.7861
835.70 0.786
835.80 0.7858
835.90 0.7857
836.00 0.7855
836.10 0.7854
836.20 0.7852
836.30 0.7851
836.40 0.7849
836.50 0.7848
836.60 0.7846
836.70 0.7845
836.80 0.7843
836.90 0.7842
837.00 0.784
837.10 0.7839
837.20 0.7837
837.30 0.7836
837.40 0.7834
837.50 0.7833
837.60 0.7831
837.70 0.7829
837.80 0.7828
837.90 0.7826
838.00 0.7825
838.10 0.7823
838.20 0.7822
838.30 0.782
838.40 0.7819
838.50 0.7817
838.60 0.7816
838.70 0.7814
838.80 0.7813
838.90 0.7811
839.00 0.781
839.10 0.7808
839.20 0.7807
839.30 0.7805
839.40 0.7804
839.50 0.7802
839.60 0.78
839.70 0.7799
839.80 0.7797
839.90 0.7796
840.00 0.7794
840.10 0.7793
840.20 0.7791
840.30 0.779
840.40 0.7788
840.50 0.7787
840.60 0.7785
840.70 0.7784
840.80 0.7782
840.90 0.7781
841.00 0.7779
841.10 0.7778
841.20 0.7776
841.30 0.7775
841.40 0.7773
841.50 0.7772
841.60 0.777
841.70 0.7769
841.80 0.7767
841.90 0.7766
842.00 0.7764
842.10 0.7763
842.20 0.7761
842.30 0.776
842.40 0.7758
842.50 0.7756
842.60 0.7755
842.70 0.7753
842.80 0.7752
842.90 0.775
843.00 0.7749
843.10 0.7747
843.20 0.7746
843.30 0.7744
843.40 0.7743
843.50 0.7741
843.60 0.7739
843.70 0.7738
843.80 0.7736
843.90 0.7735
844.00 0.7733
844.10 0.7732
844.20 0.773
844.30 0.7729
844.40 0.7727
844.50 0.7726
844.60 0.7724
844.70 0.7723
844.80 0.7721
844.90 0.772
845.00 0.7718
845.10 0.7716
845.20 0.7715
845.30 0.7713
845.40 0.7712
845.50 0.771
845.60 0.7709
845.70 0.7707
845.80 0.7706
845.90 0.7704
846.00 0.7703
846.10 0.7701
846.20 0.77
846.30 0.7698
846.40 0.7697
846.50 0.7695
846.60 0.7694
846.70 0.7692
846.80 0.7691
846.90 0.7689
847.00 0.7688
847.10 0.7686
847.20 0.7684
847.30 0.7683
847.40 0.7681
847.50 0.7679
847.60 0.7678
847.70 0.7676
847.80 0.7674
847.90 0.7673
848.00 0.7671
848.10 0.767
848.20 0.7668
848.30 0.7666
848.40 0.7665
848.50 0.7663
848.60 0.7661
848.70 0.766
848.80 0.7658
848.90 0.7657
849.00 0.7655
849.10 0.7653
849.20 0.7652
849.30 0.765
849.40 0.7648
849.50 0.7647
849.60 0.7645
849.70 0.7644
849.80 0.7642
849.90 0.764
850.00 0.7639
850.10 0.7637
850.20 0.7635
850.30 0.7634
850.40 0.7632
850.50 0.7631
850.60 0.7629
850.70 0.7627
850.80 0.7626
850.90 0.7624
851.00 0.7623
851.10 0.7621
851.20 0.7619
851.30 0.7618
851.40 0.7616
851.50 0.7614
851.60 0.7613
851.70 0.7611
851.80 0.761
851.90 0.7608
852.00 0.7606
852.10 0.7605
852.20 0.7603
852.30 0.7601
852.40 0.7599
852.50 0.7598
852.60 0.7596
852.70 0.7594
852.80 0.7593
852.90 0.7591
853.00 0.7589
853.10 0.7587
853.20 0.7586
853.30 0.7584
853.40 0.7582
853.50 0.758
853.60 0.7579
853.70 0.7577
853.80 0.7575
853.90 0.7573
854.00 0.7572
854.10 0.757
854.20 0.7568
854.30 0.7567
854.40 0.7565
854.50 0.7563
854.60 0.7561
854.70 0.756
854.80 0.7558
854.90 0.7556
855.00 0.7554
855.10 0.7553
855.20 0.7551
855.30 0.7549
855.40 0.7548
855.50 0.7546
855.60 0.7544
855.70 0.7542
855.80 0.7541
855.90 0.7539
856.00 0.7537
856.10 0.7536
856.20 0.7534
856.30 0.7532
856.40 0.753
856.50 0.7529
856.60 0.7527
856.70 0.7525
856.80 0.7523
856.90 0.7522
857.00 0.752
857.10 0.7518
857.20 0.7516
857.30 0.7515
857.40 0.7513
857.50 0.7511
857.60 0.7509
857.70 0.7507
857.80 0.7505
857.90 0.7503
858.00 0.7502
858.10 0.75
858.20 0.7498
858.30 0.7496
858.40 0.7494
858.50 0.7492
858.60 0.7491
858.70 0.7489
858.80 0.7487
858.90 0.7485
859.00 0.7483
859.10 0.7481
859.20 0.748
859.30 0.7478
859.40 0.7476
859.50 0.7474
859.60 0.7472
859.70 0.747
859.80 0.7468
859.90 0.7467
860.00 0.7465
860.10 0.7463
860.20 0.7461
860.30 0.7459
860.40 0.7458
860.50 0.7456
860.60 0.7454
860.70 0.7452
860.80 0.745
860.90 0.7448
861.00 0.7447
861.10 0.7445
861.20 0.7443
861.30 0.7441
861.40 0.7439
861.50 0.7437
861.60 0.7436
861.70 0.7434
861.80 0.7432
861.90 0.743
862.00 0.7428
862.10 0.7426
862.20 0.7424
862.30 0.7422
862.40 0.7421
862.50 0.7419
862.60 0.7417
862.70 0.7415
862.80 0.7413
862.90 0.7411
863.00 0.7409
863.10 0.7407
863.20 0.7405
863.30 0.7403
863.40 0.7401
863.50 0.7399
863.60 0.7397
863.70 0.7395
863.80 0.7393
863.90 0.7391
864.00 0.7389
864.10 0.7387
864.20 0.7385
864.30 0.7383
864.40 0.7381
864.50 0.738
864.60 0.7378
864.70 0.7376
864.80 0.7374
864.90 0.7372
865.00 0.737
865.10 0.7368
865.20 0.7366
865.30 0.7364
865.40 0.7362
865.50 0.736
865.60 0.7358
865.70 0.7356
865.80 0.7354
865.90 0.7352
866.00 0.735
866.10 0.7349
866.20 0.7347
866.30 0.7345
866.40 0.7343
866.50 0.7341
866.60 0.7339
866.70 0.7337
866.80 0.7335
866.90 0.7333
867.00 0.7331
867.10 0.7329
867.20 0.7327
867.30 0.7324
867.40 0.7322
867.50 0.732
867.60 0.7318
867.70 0.7315
867.80 0.7313
867.90 0.7311
868.00 0.7309
868.10 0.7306
868.20 0.7304
868.30 0.7302
868.40 0.73
868.50 0.7297
868.60 0.7295
868.70 0.7293
868.80 0.7291
868.90 0.7289
869.00 0.7286
869.10 0.7284
869.20 0.7282
869.30 0.728
869.40 0.7277
869.50 0.7275
869.60 0.7273
869.70 0.7271
869.80 0.7268
869.90 0.7266
870.00 0.7264
870.10 0.7262
870.20 0.726
870.30 0.7257
870.40 0.7255
870.50 0.7253
870.60 0.7251
870.70 0.7248
870.80 0.7246
870.90 0.7244
871.00 0.7242
871.10 0.724
871.20 0.7237
871.30 0.7235
871.40 0.7233
871.50 0.7231
871.60 0.7228
871.70 0.7226
871.80 0.7224
871.90 0.7222
872.00 0.722
872.10 0.7217
872.20 0.7215
872.30 0.7212
872.40 0.721
872.50 0.7207
872.60 0.7205
872.70 0.7202
872.80 0.72
872.90 0.7197
873.00 0.7195
873.10 0.7192
873.20 0.719
873.30 0.7187
873.40 0.7185
873.50 0.7182
873.60 0.718
873.70 0.7177
873.80 0.7175
873.90 0.7172
874.00 0.717
874.10 0.7167
874.20 0.7165
874.30 0.7162
874.40 0.716
874.50 0.7157
874.60 0.7155
874.70 0.7152
874.80 0.715
874.90 0.7147
875.00 0.7145
875.10 0.7142
875.20 0.714
875.30 0.7137
875.40 0.7135
875.50 0.7132
875.60 0.713
875.70 0.7127
875.80 0.7125
875.90 0.7122
876.00 0.712
876.10 0.7117
876.20 0.7115
876.30 0.7113
876.40 0.711
876.50 0.7108
876.60 0.7105
876.70 0.7103
876.80 0.71
876.90 0.7098
877.00 0.7095
877.10 0.7092
877.20 0.709
877.30 0.7087
877.40 0.7084
877.50 0.7081
877.60 0.7078
877.70 0.7075
877.80 0.7072
877.90 0.707
878.00 0.7067
878.10 0.7064
878.20 0.7061
878.30 0.7058
878.40 0.7055
878.50 0.7052
878.60 0.705
878.70 0.7047
878.80 0.7044
878.90 0.7041
879.00 0.7038
879.10 0.7035
879.20 0.7033
879.30 0.703
879.40 0.7027
879.50 0.7024
879.60 0.7021
879.70 0.7018
879.80 0.7015
879.90 0.7013
880.00 0.701
880.10 0.7007
880.20 0.7004
880.30 0.7001
880.40 0.6999
880.50 0.6996
880.60 0.6993
880.70 0.699
880.80 0.6987
880.90 0.6984
881.00 0.6982
881.10 0.6979
881.20 0.6976
881.30 0.6973
881.40 0.697
881.50 0.6967
881.60 0.6965
881.70 0.6962
881.80 0.6959
881.90 0.6956
882.00 0.6953
882.10 0.695
882.20 0.6947
882.30 0.6944
882.40 0.6941
882.50 0.6937
882.60 0.6934
882.70 0.6931
882.80 0.6928
882.90 0.6924
883.00 0.6921
883.10 0.6918
883.20 0.6915
883.30 0.6912
883.40 0.6908
883.50 0.6905
883.60 0.6902
883.70 0.6899
883.80 0.6896
883.90 0.6892
884.00 0.6889
884.10 0.6886
884.20 0.6883
884.30 0.688
884.40 0.6876
884.50 0.6873
884.60 0.687
884.70 0.6867
884.80 0.6864
884.90 0.6861
885.00 0.6857
885.10 0.6854
885.20 0.6851
885.30 0.6848
885.40 0.6845
885.50 0.6841
885.60 0.6838
885.70 0.6835
885.80 0.6832
885.90 0.6829
886.00 0.6826
886.10 0.6822
886.20 0.6819
886.30 0.6816
886.40 0.6813
886.50 0.681
886.60 0.6807
886.70 0.6803
886.80 0.68
886.90 0.6797
887.00 0.6794
887.10 0.679
887.20 0.6787
887.30 0.6783
887.40 0.678
887.50 0.6776
887.60 0.6773
887.70 0.6769
887.80 0.6766
887.90 0.6762
888.00 0.6759
888.10 0.6755
888.20 0.6752
888.30 0.6748
888.40 0.6745
888.50 0.6741
888.60 0.6738
888.70 0.6734
888.80 0.6731
888.90 0.6727
889.00 0.6724
889.10 0.672
889.20 0.6717
889.30 0.6713
889.40 0.671
889.50 0.6706
889.60 0.6703
889.70 0.6699
889.80 0.6696
889.90 0.6692
890.00 0.6689
890.10 0.6685
890.20 0.6682
890.30 0.6679
890.40 0.6675
890.50 0.6672
890.60 0.6668
890.70 0.6665
890.80 0.6661
890.90 0.6658
891.00 0.6654
891.10 0.6651
891.20 0.6647
891.30 0.6644
891.40 0.664
891.50 0.6637
891.60 0.6633
891.70 0.663
891.80 0.6627
891.90 0.6623
892.00 0.662
892.10 0.6616
892.20 0.6612
892.30 0.6608
892.40 0.6604
892.50 0.66
892.60 0.6596
892.70 0.6592
892.80 0.6588
892.90 0.6584
893.00 0.658
893.10 0.6576
893.20 0.6572
893.30 0.6568
893.40 0.6565
893.50 0.6561
893.60 0.6557
893.70 0.6553
893.80 0.6549
893.90 0.6545
894.00 0.6541
894.10 0.6537
894.20 0.6533
894.30 0.6529
894.40 0.6525
894.50 0.6521
894.60 0.6518
894.70 0.6514
894.80 0.651
894.90 0.6506
895.00 0.6502
895.10 0.6498
895.20 0.6494
895.30 0.649
895.40 0.6486
895.50 0.6482
895.60 0.6479
895.70 0.6475
895.80 0.6471
895.90 0.6467
896.00 0.6463
896.10 0.6459
896.20 0.6455
896.30 0.6451
896.40 0.6447
896.50 0.6444
896.60 0.644
896.70 0.6436
896.80 0.6432
896.90 0.6428
897.00 0.6424
897.10 0.642
897.20 0.6416
897.30 0.6412
897.40 0.6408
897.50 0.6404
897.60 0.64
897.70 0.6396
897.80 0.6392
897.90 0.6388
898.00 0.6384
898.10 0.6379
898.20 0.6375
898.30 0.6371
898.40 0.6367
898.50 0.6363
898.60 0.6359
898.70 0.6355
898.80 0.6351
898.90 0.6347
899.00 0.6343
899.10 0.6339
899.20 0.6335
899.30 0.6331
899.40 0.6327
899.50 0.6323
899.60 0.6319
899.70 0.6315
899.80 0.6311
899.90 0.6307
900.00 0.6303
900.10 0.6299
900.20 0.6295
900.30 0.6291
900.40 0.6287
900.50 0.6282
900.60 0.6278
900.70 0.6274
900.80 0.627
900.90 0.6266
901.00 0.6262
901.10 0.6258
901.20 0.6254
901.30 0.625
901.40 0.6246
901.50 0.6242
901.60 0.6238
901.70 0.6234
901.80 0.623
901.90 0.6226
902.00 0.6222
902.10 0.6218
902.20 0.6214
902.30 0.621
902.40 0.6206
902.50 0.6202
902.60 0.6198
902.70 0.6194
902.80 0.619
902.90 0.6186
903.00 0.6182
903.10 0.6178
903.20 0.6174
903.30 0.617
903.40 0.6166
903.50 0.6161
903.60 0.6157
903.70 0.6153
903.80 0.6149
903.90 0.6145
904.00 0.6141
904.10 0.6137
904.20 0.6133
904.30 0.6129
904.40 0.6125
904.50 0.6121
904.60 0.6117
904.70 0.6113
904.80 0.6109
904.90 0.6105
905.00 0.6101
905.10 0.6097
905.20 0.6093
905.30 0.6089
905.40 0.6085
905.50 0.6081
905.60 0.6077
905.70 0.6073
905.80 0.6069
905.90 0.6065
906.00 0.6061
906.10 0.6057
906.20 0.6053
906.30 0.6049
906.40 0.6045
906.50 0.6041
906.60 0.6037
906.70 0.6033
906.80 0.6029
906.90 0.6025
907.00 0.6021
907.10 0.6016
907.20 0.6012
907.30 0.6007
907.40 0.6003
907.50 0.5998
907.60 0.5994
907.70 0.5989
907.80 0.5985
907.90 0.598
908.00 0.5976
908.10 0.5971
908.20 0.5967
908.30 0.5962
908.40 0.5958
908.50 0.5954
908.60 0.5949
908.70 0.5945
908.80 0.594
908.90 0.5936
909.00 0.5931
909.10 0.5927
909.20 0.5922
909.30 0.5918
909.40 0.5913
909.50 0.5909
909.60 0.5905
909.70 0.59
909.80 0.5896
909.90 0.5891
910.00 0.5887
910.10 0.5882
910.20 0.5878
910.30 0.5873
910.40 0.5869
910.50 0.5865
910.60 0.586
910.70 0.5856
910.80 0.5851
910.90 0.5847
911.00 0.5842
911.10 0.5838
911.20 0.5834
911.30 0.5829
911.40 0.5825
911.50 0.582
911.60 0.5816
911.70 0.5812
911.80 0.5807
911.90 0.5803
912.00 0.5798
912.10 0.5793
912.20 0.5789
912.30 0.5784
912.40 0.5779
912.50 0.5774
912.60 0.5769
912.70 0.5765
912.80 0.576
912.90 0.5755
913.00 0.575
913.10 0.5745
913.20 0.5741
913.30 0.5736
913.40 0.5731
913.50 0.5726
913.60 0.5722
913.70 0.5717
913.80 0.5712
913.90 0.5707
914.00 0.5702
914.10 0.5698
914.20 0.5693
914.30 0.5688
914.40 0.5683
914.50 0.5679
914.60 0.5674
914.70 0.5669
914.80 0.5664
914.90 0.566
915.00 0.5655
915.10 0.565
915.20 0.5645
915.30 0.5641
915.40 0.5636
915.50 0.5631
915.60 0.5626
915.70 0.5622
915.80 0.5617
915.90 0.5612
916.00 0.5607
916.10 0.5603
916.20 0.5598
916.30 0.5593
916.40 0.5588
916.50 0.5584
916.60 0.5579
916.70 0.5574
916.80 0.5569
916.90 0.5565
917.00 0.556
917.10 0.5555
917.20 0.555
917.30 0.5545
917.40 0.5541
917.50 0.5536
917.60 0.5531
917.70 0.5526
917.80 0.5521
917.90 0.5516
918.00 0.5511
918.10 0.5507
918.20 0.5502
918.30 0.5497
918.40 0.5492
918.50 0.5487
918.60 0.5482
918.70 0.5478
918.80 0.5473
918.90 0.5468
919.00 0.5463
919.10 0.5458
919.20 0.5453
919.30 0.5449
919.40 0.5444
919.50 0.5439
919.60 0.5434
919.70 0.5429
919.80 0.5424
919.90 0.542
920.00 0.5415
920.10 0.541
920.20 0.5405
920.30 0.54
920.40 0.5396
920.50 0.5391
920.60 0.5386
920.70 0.5381
920.80 0.5376
920.90 0.5372
921.00 0.5367
921.10 0.5362
921.20 0.5357
921.30 0.5352
921.40 0.5348
921.50 0.5343
921.60 0.5338
921.70 0.5333
921.80 0.5329
921.90 0.5324
922.00 0.5319
922.10 0.5314
922.20 0.5309
922.30 0.5304
922.40 0.5299
922.50 0.5294
922.60 0.5289
922.70 0.5284
922.80 0.528
922.90 0.5275
923.00 0.527
923.10 0.5265
923.20 0.526
923.30 0.5255
923.40 0.525
923.50 0.5245
923.60 0.524
923.70 0.5235
923.80 0.523
923.90 0.5226
924.00 0.5221
924.10 0.5216
924.20 0.5211
924.30 0.5206
924.40 0.5201
924.50 0.5196
924.60 0.5191
924.70 0.5186
924.80 0.5182
924.90 0.5177
925.00 0.5172
925.10 0.5167
925.20 0.5162
925.30 0.5157
925.40 0.5152
925.50 0.5147
925.60 0.5143
925.70 0.5138
925.80 0.5133
925.90 0.5128
926.00 0.5123
926.10 0.5118
926.20 0.5113
926.30 0.5109
926.40 0.5104
926.50 0.5099
926.60 0.5094
926.70 0.5089
926.80 0.5084
926.90 0.5079
927.00 0.5075
927.10 0.507
927.20 0.5065
927.30 0.506
927.40 0.5055
927.50 0.505
927.60 0.5045
927.70 0.504
927.80 0.5035
927.90 0.503
928.00 0.5025
928.10 0.502
928.20 0.5015
928.30 0.501
928.40 0.5005
928.50 0.5
928.60 0.4995
928.70 0.499
928.80 0.4985
928.90 0.498
929.00 0.4975
929.10 0.497
929.20 0.4965
929.30 0.496
929.40 0.4955
929.50 0.495
929.60 0.4945
929.70 0.494
929.80 0.4935
929.90 0.493
930.00 0.4925
930.10 0.4921
930.20 0.4916
930.30 0.4911
930.40 0.4906
930.50 0.4901
930.60 0.4896
930.70 0.4891
930.80 0.4886
930.90 0.4881
931.00 0.4876
931.10 0.4871
931.20 0.4866
931.30 0.4861
931.40 0.4857
931.50 0.4852
931.60 0.4847
931.70 0.4842
931.80 0.4837
931.90 0.4832
932.00 0.4827
932.10 0.4822
932.20 0.4817
932.30 0.4812
932.40 0.4807
932.50 0.4802
932.60 0.4797
932.70 0.4793
932.80 0.4788
932.90 0.4783
933.00 0.4778
933.10 0.4773
933.20 0.4768
933.30 0.4763
933.40 0.4758
933.50 0.4753
933.60 0.4748
933.70 0.4743
933.80 0.4738
933.90 0.4733
934.00 0.4729
934.10 0.4724
934.20 0.4719
934.30 0.4714
934.40 0.4709
934.50 0.4704
934.60 0.4699
934.70 0.4694
934.80 0.4689
934.90 0.4684
935.00 0.4679
935.10 0.4674
935.20 0.4669
935.30 0.4665
935.40 0.466
935.50 0.4655
935.60 0.465
935.70 0.4645
935.80 0.464
935.90 0.4635
936.00 0.463
936.10 0.4625
936.20 0.462
936.30 0.4615
936.40 0.4611
936.50 0.4606
936.60 0.4601
936.70 0.4596
936.80 0.4591
936.90 0.4586
937.00 0.4581
937.10 0.4576
937.20 0.4571
937.30 0.4566
937.40 0.4562
937.50 0.4557
937.60 0.4552
937.70 0.4547
937.80 0.4542
937.90 0.4537
938.00 0.4532
938.10 0.4527
938.20 0.4522
938.30 0.4518
938.40 0.4513
938.50 0.4508
938.60 0.4503
938.70 0.4498
938.80 0.4493
938.90 0.4488
939.00 0.4483
939.10 0.4478
939.20 0.4473
939.30 0.4468
939.40 0.4463
939.50 0.4458
939.60 0.4453
939.70 0.4448
939.80 0.4443
939.90 0.4439
940.00 0.4434
940.10 0.4429
940.20 0.4424
940.30 0.4419
940.40 0.4414
940.50 0.4409
940.60 0.4404
940.70 0.4399
940.80 0.4395
940.90 0.439
941.00 0.4385
941.10 0.438
941.20 0.4375
941.30 0.437
941.40 0.4366
941.50 0.4361
941.60 0.4356
941.70 0.4351
941.80 0.4346
941.90 0.4341
942.00 0.4337
942.10 0.4332
942.20 0.4327
942.30 0.4322
942.40 0.4317
942.50 0.4313
942.60 0.4308
942.70 0.4303
942.80 0.4298
942.90 0.4293
943.00 0.4288
943.10 0.4284
943.20 0.4279
943.30 0.4274
943.40 0.4269
943.50 0.4264
943.60 0.426
943.70 0.4255
943.80 0.425
943.90 0.4245
944.00 0.4241
944.10 0.4236
944.20 0.4231
944.30 0.4226
944.40 0.4221
944.50 0.4217
944.60 0.4212
944.70 0.4207
944.80 0.4202
944.90 0.4198
945.00 0.4193
945.10 0.4188
945.20 0.4183
945.30 0.4179
945.40 0.4174
945.50 0.4169
945.60 0.4164
945.70 0.4159
945.80 0.4155
945.90 0.415
946.00 0.4145
946.10 0.4141
946.20 0.4136
946.30 0.4131
946.40 0.4126
946.50 0.4122
946.60 0.4117
946.70 0.4112
946.80 0.4107
946.90 0.4103
947.00 0.4098
947.10 0.4093
947.20 0.4088
947.30 0.4084
947.40 0.4079
947.50 0.4074
947.60 0.4069
947.70 0.4065
947.80 0.406
947.90 0.4055
948.00 0.4051
948.10 0.4046
948.20 0.4041
948.30 0.4036
948.40 0.4032
948.50 0.4027
948.60 0.4022
948.70 0.4017
948.80 0.4013
948.90 0.4008
949.00 0.4003
949.10 0.3999
949.20 0.3994
949.30 0.3989
949.40 0.3985
949.50 0.398
949.60 0.3975
949.70 0.3971
949.80 0.3966
949.90 0.3961
950.00 0.3957
950.10 0.3952
950.20 0.3947
950.30 0.3943
950.40 0.3938
950.50 0.3934
950.60 0.3929
950.70 0.3924
950.80 0.392
950.90 0.3915
951.00 0.391
951.10 0.3906
951.20 0.3901
951.30 0.3897
951.40 0.3892
951.50 0.3887
951.60 0.3883
951.70 0.3878
951.80 0.3874
951.90 0.3869
952.00 0.3864
952.10 0.386
952.20 0.3855
952.30 0.3851
952.40 0.3846
952.50 0.3842
952.60 0.3837
952.70 0.3832
952.80 0.3828
952.90 0.3823
953.00 0.3819
953.10 0.3814
953.20 0.381
953.30 0.3805
953.40 0.3801
953.50 0.3796
953.60 0.3791
953.70 0.3787
953.80 0.3782
953.90 0.3778
954.00 0.3773
954.10 0.3769
954.20 0.3764
954.30 0.376
954.40 0.3755
954.50 0.3751
954.60 0.3746
954.70 0.3742
954.80 0.3737
954.90 0.3733
955.00 0.3728
955.10 0.3724
955.20 0.3719
955.30 0.3715
955.40 0.371
955.50 0.3706
955.60 0.3701
955.70 0.3697
955.80 0.3692
955.90 0.3688
956.00 0.3683
956.10 0.3679
956.20 0.3674
956.30 0.3669
956.40 0.3665
956.50 0.366
956.60 0.3656
956.70 0.3651
956.80 0.3646
956.90 0.3642
957.00 0.3637
957.10 0.3633
957.20 0.3629
957.30 0.3624
957.40 0.362
957.50 0.3615
957.60 0.3611
957.70 0.3607
957.80 0.3602
957.90 0.3598
958.00 0.3593
958.10 0.3589
958.20 0.3585
958.30 0.358
958.40 0.3576
958.50 0.3572
958.60 0.3567
958.70 0.3563
958.80 0.3558
958.90 0.3554
959.00 0.355
959.10 0.3545
959.20 0.3541
959.30 0.3537
959.40 0.3532
959.50 0.3528
959.60 0.3524
959.70 0.3519
959.80 0.3515
959.90 0.3511
960.00 0.3506
960.10 0.3502
960.20 0.3498
960.30 0.3493
960.40 0.3489
960.50 0.3485
960.60 0.3481
960.70 0.3476
960.80 0.3472
960.90 0.3468
961.00 0.3463
961.10 0.3459
961.20 0.3455
961.30 0.3451
961.40 0.3446
961.50 0.3442
961.60 0.3438
961.70 0.3434
961.80 0.3429
961.90 0.3425
962.00 0.3421
962.10 0.3417
962.20 0.3412
962.30 0.3408
962.40 0.3404
962.50 0.34
962.60 0.3396
962.70 0.3391
962.80 0.3387
962.90 0.3383
963.00 0.3379
963.10 0.3375
963.20 0.337
963.30 0.3366
963.40 0.3362
963.50 0.3358
963.60 0.3354
963.70 0.335
963.80 0.3345
963.90 0.3341
964.00 0.3337
964.10 0.3333
964.20 0.3329
964.30 0.3325
964.40 0.332
964.50 0.3316
964.60 0.3312
964.70 0.3308
964.80 0.3303
964.90 0.3299
965.00 0.3295
965.10 0.3291
965.20 0.3287
965.30 0.3282
965.40 0.3278
965.50 0.3274
965.60 0.327
965.70 0.3266
965.80 0.3261
965.90 0.3257
966.00 0.3253
966.10 0.3249
966.20 0.3245
966.30 0.3241
966.40 0.3237
966.50 0.3232
966.60 0.3228
966.70 0.3224
966.80 0.322
966.90 0.3216
967.00 0.3212
967.10 0.3208
967.20 0.3204
967.30 0.32
967.40 0.3196
967.50 0.3192
967.60 0.3188
967.70 0.3184
967.80 0.318
967.90 0.3176
968.00 0.3172
968.10 0.3168
968.20 0.3164
968.30 0.316
968.40 0.3156
968.50 0.3152
968.60 0.3148
968.70 0.3145
968.80 0.3141
968.90 0.3137
969.00 0.3133
969.10 0.3129
969.20 0.3125
969.30 0.3121
969.40 0.3117
969.50 0.3113
969.60 0.3109
969.70 0.3105
969.80 0.3101
969.90 0.3098
970.00 0.3094
970.10 0.309
970.20 0.3086
970.30 0.3082
970.40 0.3078
970.50 0.3074
970.60 0.307
970.70 0.3067
970.80 0.3063
970.90 0.3059
971.00 0.3055
971.10 0.3051
971.20 0.3047
971.30 0.3044
971.40 0.304
971.50 0.3036
971.60 0.3032
971.70 0.3028
971.80 0.3025
971.90 0.3021
972.00 0.3017
972.10 0.3013
972.20 0.3009
972.30 0.3006
972.40 0.3002
972.50 0.2998
972.60 0.2994
972.70 0.2991
972.80 0.2987
972.90 0.2983
973.00 0.298
973.10 0.2976
973.20 0.2972
973.30 0.2968
973.40 0.2965
973.50 0.2961
973.60 0.2957
973.70 0.2953
973.80 0.295
973.90 0.2946
974.00 0.2942
974.10 0.2939
974.20 0.2935
974.30 0.2931
974.40 0.2927
974.50 0.2924
974.60 0.292
974.70 0.2916
974.80 0.2913
974.90 0.2909
975.00 0.2905
975.10 0.2902
975.20 0.2898
975.30 0.2894
975.40 0.2891
975.50 0.2887
975.60 0.2883
975.70 0.288
975.80 0.2876
975.90 0.2873
976.00 0.2869
976.10 0.2865
976.20 0.2862
976.30 0.2858
976.40 0.2854
976.50 0.2851
976.60 0.2847
976.70 0.2843
976.80 0.284
976.90 0.2836
977.00 0.2832
977.10 0.2829
977.20 0.2826
977.30 0.2822
977.40 0.2819
977.50 0.2815
977.60 0.2812
977.70 0.2808
977.80 0.2805
977.90 0.2801
978.00 0.2798
978.10 0.2795
978.20 0.2791
978.30 0.2788
978.40 0.2784
978.50 0.2781
978.60 0.2777
978.70 0.2774
978.80 0.277
978.90 0.2767
979.00 0.2764
979.10 0.276
979.20 0.2757
979.30 0.2753
979.40 0.275
979.50 0.2747
979.60 0.2743
979.70 0.274
979.80 0.2736
979.90 0.2733
980.00 0.2729
980.10 0.2726
980.20 0.2723
980.30 0.2719
980.40 0.2716
980.50 0.2712
980.60 0.2709
980.70 0.2706
980.80 0.2702
980.90 0.2699
981.00 0.2695
981.10 0.2692
981.20 0.2689
981.30 0.2685
981.40 0.2682
981.50 0.2678
981.60 0.2675
981.70 0.2672
981.80 0.2668
981.90 0.2665
982.00 0.2661
982.10 0.2658
982.20 0.2655
982.30 0.2652
982.40 0.2648
982.50 0.2645
982.60 0.2642
982.70 0.2639
982.80 0.2635
982.90 0.2632
983.00 0.2629
983.10 0.2626
983.20 0.2622
983.30 0.2619
983.40 0.2616
983.50 0.2613
983.60 0.2609
983.70 0.2606
983.80 0.2603
983.90 0.26
984.00 0.2596
984.10 0.2593
984.20 0.259
984.30 0.2587
984.40 0.2583
984.50 0.258
984.60 0.2577
984.70 0.2574
984.80 0.2571
984.90 0.2568
985.00 0.2565
985.10 0.2562
985.20 0.2559
985.30 0.2556
985.40 0.2553
985.50 0.255
985.60 0.2547
985.70 0.2544
985.80 0.2541
985.90 0.2538
986.00 0.2535
986.10 0.2532
986.20 0.2529
986.30 0.2526
986.40 0.2523
986.50 0.252
986.60 0.2517
986.70 0.2514
986.80 0.2511
986.90 0.2508
987.00 0.2505
987.10 0.2501
987.20 0.2498
987.30 0.2495
987.40 0.2492
987.50 0.2489
987.60 0.2486
987.70 0.2483
987.80 0.248
987.90 0.2476
988.00 0.2473
988.10 0.247
988.20 0.2467
988.30 0.2464
988.40 0.2461
988.50 0.2458
988.60 0.2455
988.70 0.2451
988.80 0.2448
988.90 0.2445
989.00 0.2442
989.10 0.2439
989.20 0.2436
989.30 0.2433
989.40 0.243
989.50 0.2427
989.60 0.2423
989.70 0.242
989.80 0.2417
989.90 0.2414
990.00 0.2411
990.10 0.2408
990.20 0.2405
990.30 0.2402
990.40 0.2399
990.50 0.2396
990.60 0.2393
990.70 0.2389
990.80 0.2386
990.90 0.2383
991.00 0.238
991.10 0.2377
991.20 0.2374
991.30 0.2371
991.40 0.2368
991.50 0.2365
991.60 0.2362
991.70 0.2359
991.80 0.2356
991.90 0.2353
992.00 0.235
992.10 0.2347
992.20 0.2343
992.30 0.234
992.40 0.2337
992.50 0.2334
992.60 0.2331
992.70 0.2328
992.80 0.2325
992.90 0.2322
993.00 0.2319
993.10 0.2316
993.20 0.2313
993.30 0.231
993.40 0.2307
993.50 0.2304
993.60 0.2301
993.70 0.2298
993.80 0.2295
993.90 0.2292
994.00 0.2289
994.10 0.2286
994.20 0.2283
994.30 0.228
994.40 0.2277
994.50 0.2274
994.60 0.2271
994.70 0.2267
994.80 0.2263
994.90 0.226
995.00 0.2256
995.10 0.2252
995.20 0.2248
995.30 0.2245
995.40 0.2241
995.50 0.2237
995.60 0.2234
995.70 0.223
995.80 0.2228
995.90 0.2225
996.00 0.2222
996.10 0.2219
996.20 0.2216
996.30 0.2213
996.40 0.221
996.50 0.2207
996.60 0.2204
996.70 0.2201
996.80 0.2198
996.90 0.2195
997.00 0.2192
997.10 0.219
997.20 0.2187
997.30 0.2184
997.40 0.2181
997.50 0.2178
997.60 0.2175
997.70 0.2173
997.80 0.217
997.90 0.2167
998.00 0.2164
998.10 0.2162
998.20 0.2159
998.30 0.2156
998.40 0.2153
998.50 0.215
998.60 0.2148
998.70 0.2145
998.80 0.2142
998.90 0.2139
999.00 0.2137
999.10 0.2134
999.20 0.2131
999.30 0.2128
999.40 0.2125
999.50 0.2123
999.60 0.212
999.70 0.2117
999.80 0.2115
999.90 0.2112
1000.00 0.2109
1000.10 0.2107
1000.20 0.2104
1000.30 0.2101
1000.40 0.2099
1000.50 0.2096
1000.60 0.2093
1000.70 0.2091
1000.80 0.2088
1000.90 0.2086
1001.00 0.2083
1001.10 0.208
1001.20 0.2078
1001.30 0.2075
1001.40 0.2072
1001.50 0.207
1001.60 0.2067
1001.70 0.2065
1001.80 0.2062
1001.90 0.206
1002.00 0.2057
1002.10 0.2054
1002.20 0.2052
1002.30 0.2049
1002.40 0.2047
1002.50 0.2044
1002.60 0.2042
1002.70 0.2039
1002.80 0.2037
1002.90 0.2034
1003.00 0.2032
1003.10 0.2029
1003.20 0.2027
1003.30 0.2024
1003.40 0.2022
1003.50 0.2019
1003.60 0.2017
1003.70 0.2015
1003.80 0.2012
1003.90 0.201
1004.00 0.2007
1004.10 0.2005
1004.20 0.2002
1004.30 0.2
1004.40 0.1997
1004.50 0.1995
1004.60 0.1993
1004.70 0.199
1004.80 0.1988
1004.90 0.1985
1005.00 0.1982
1005.10 0.1979
1005.20 0.1977
1005.30 0.1974
1005.40 0.1972
1005.50 0.1969
1005.60 0.1967
1005.70 0.1965
1005.80 0.1962
1005.90 0.196
1006.00 0.1958
1006.10 0.1956
1006.20 0.1953
1006.30 0.1951
1006.40 0.1949
1006.50 0.1946
1006.60 0.1944
1006.70 0.1942
1006.80 0.194
1006.90 0.1937
1007.00 0.1935
1007.10 0.1933
1007.20 0.1931
1007.30 0.1928
1007.40 0.1926
1007.50 0.1924
1007.60 0.1922
1007.70 0.192
1007.80 0.1918
1007.90 0.1915
1008.00 0.1913
1008.10 0.1911
1008.20 0.1909
1008.30 0.1907
1008.40 0.1905
1008.50 0.1903
1008.60 0.19
1008.70 0.1898
1008.80 0.1896
1008.90 0.1894
1009.00 0.1892
1009.10 0.189
1009.20 0.1888
1009.30 0.1886
1009.40 0.1883
1009.50 0.1881
1009.60 0.1879
1009.70 0.1877
1009.80 0.1875
1009.90 0.1873
1010.00 0.1871
1010.10 0.1869
1010.20 0.1867
1010.30 0.1865
1010.40 0.1863
1010.50 0.1861
1010.60 0.1859
1010.70 0.1857
1010.80 0.1855
1010.90 0.1853
1011.00 0.1851
1011.10 0.1849
1011.20 0.1847
1011.30 0.1845
1011.40 0.1843
1011.50 0.1841
1011.60 0.1839
1011.70 0.1837
1011.80 0.1835
1011.90 0.1833
1012.00 0.1831
1012.10 0.183
1012.20 0.1828
1012.30 0.1826
1012.40 0.1824
1012.50 0.1822
1012.60 0.182
1012.70 0.1818
1012.80 0.1816
1012.90 0.1815
1013.00 0.1813
1013.10 0.1811
1013.20 0.1809
1013.30 0.1807
1013.40 0.1805
1013.50 0.1803
1013.60 0.1802
1013.70 0.18
1013.80 0.1798
1013.90 0.1796
1014.00 0.1794
1014.10 0.1793
1014.20 0.1791
1014.30 0.1789
1014.40 0.1787
1014.50 0.1785
1014.60 0.1784
1014.70 0.1782
1014.80 0.178
1014.90 0.1779
1015.00 0.1777
1015.10 0.1776
1015.20 0.1774
1015.30 0.1773
1015.40 0.1771
1015.50 0.177
1015.60 0.1768
1015.70 0.1767
1015.80 0.1765
1015.90 0.1764
1016.00 0.1762
1016.10 0.176
1016.20 0.1759
1016.30 0.1757
1016.40 0.1756
1016.50 0.1754
1016.60 0.1753
1016.70 0.1751
1016.80 0.1749
1016.90 0.1748
1017.00 0.1746
1017.10 0.1744
1017.20 0.1743
1017.30 0.1741
1017.40 0.1739
1017.50 0.1738
1017.60 0.1736
1017.70 0.1735
1017.80 0.1733
1017.90 0.1731
1018.00 0.173
1018.10 0.1728
1018.20 0.1726
1018.30 0.1725
1018.40 0.1723
1018.50 0.1721
1018.60 0.172
1018.70 0.1718
1018.80 0.1716
1018.90 0.1715
1019.00 0.1713
1019.10 0.1712
1019.20 0.171
1019.30 0.1708
1019.40 0.1707
1019.50 0.1705
1019.60 0.1704
1019.70 0.1702
1019.80 0.17
1019.90 0.1699
1020.00 0.1697
1020.10 0.1696
1020.20 0.1694
1020.30 0.1692
1020.40 0.1691
1020.50 0.1689
1020.60 0.1688
1020.70 0.1686
1020.80 0.1684
1020.90 0.1683
1021.00 0.1681
1021.10 0.168
1021.20 0.1678
1021.30 0.1677
1021.40 0.1675
1021.50 0.1673
1021.60 0.1672
1021.70 0.167
1021.80 0.1669
1021.90 0.1667
1022.00 0.1666
1022.10 0.1664
1022.20 0.1663
1022.30 0.1661
1022.40 0.166
1022.50 0.1658
1022.60 0.1657
1022.70 0.1655
1022.80 0.1654
1022.90 0.1652
1023.00 0.1651
1023.10 0.1649
1023.20 0.1648
1023.30 0.1646
1023.40 0.1645
1023.50 0.1643
1023.60 0.1642
1023.70 0.164
1023.80 0.1639
1023.90 0.1637
1024.00 0.1636
1024.10 0.1634
1024.20 0.1633
1024.30 0.1631
1024.40 0.163
1024.50 0.1628
1024.60 0.1627
1024.70 0.1625
1024.80 0.1624
1024.90 0.1622
1025.00 0.1621
1025.10 0.1619
1025.20 0.1618
1025.30 0.1616
1025.40 0.1615
1025.50 0.1613
1025.60 0.1612
1025.70 0.161
1025.80 0.1609
1025.90 0.1607
1026.00 0.1606
1026.10 0.1604
1026.20 0.1603
1026.30 0.1602
1026.40 0.16
1026.50 0.1599
1026.60 0.1597
1026.70 0.1596
1026.80 0.1594
1026.90 0.1593
1027.00 0.1591
1027.10 0.159
1027.20 0.1589
1027.30 0.1587
1027.40 0.1586
1027.50 0.1585
1027.60 0.1583
1027.70 0.1582
1027.80 0.158
1027.90 0.1579
1028.00 0.1578
1028.10 0.1576
1028.20 0.1575
1028.30 0.1574
1028.40 0.1572
1028.50 0.1571
1028.60 0.157
1028.70 0.1568
1028.80 0.1567
1028.90 0.1566
1029.00 0.1564
1029.10 0.1563
1029.20 0.1562
1029.30 0.156
1029.40 0.1559
1029.50 0.1558
1029.60 0.1556
1029.70 0.1555
1029.80 0.1554
1029.90 0.1552
1030.00 0.1551
1030.10 0.155
1030.20 0.1548
1030.30 0.1547
1030.40 0.1546
1030.50 0.1544
1030.60 0.1543
1030.70 0.1542
1030.80 0.154
1030.90 0.1539
1031.00 0.1538
1031.10 0.1536
1031.20 0.1535
1031.30 0.1534
1031.40 0.1532
1031.50 0.1531
1031.60 0.153
1031.70 0.1528
1031.80 0.1527
1031.90 0.1526
1032.00 0.1524
1032.10 0.1523
1032.20 0.1522
1032.30 0.152
1032.40 0.1519
1032.50 0.1518
1032.60 0.1517
1032.70 0.1516
1032.80 0.1514
1032.90 0.1513
1033.00 0.1512
1033.10 0.1511
1033.20 0.1509
1033.30 0.1508
1033.40 0.1507
1033.50 0.1506
1033.60 0.1504
1033.70 0.1503
1033.80 0.1502
1033.90 0.1501
1034.00 0.15
1034.10 0.1498
1034.20 0.1497
1034.30 0.1496
1034.40 0.1495
1034.50 0.1493
1034.60 0.1492
1034.70 0.1491
1034.80 0.149
1034.90 0.1489
1035.00 0.1487
1035.10 0.1486
1035.20 0.1485
1035.30 0.1484
1035.40 0.1482
1035.50 0.1481
1035.60 0.148
1035.70 0.1479
1035.80 0.1478
1035.90 0.1476
1036.00 0.1475
1036.10 0.1474
1036.20 0.1473
1036.30 0.1471
1036.40 0.147
1036.50 0.1469
1036.60 0.1468
1036.70 0.1467
1036.80 0.1465
1036.90 0.1464
1037.00 0.1463
1037.10 0.1462
1037.20 0.1461
1037.30 0.146
1037.40 0.1459
1037.50 0.1458
1037.60 0.1456
1037.70 0.1455
1037.80 0.1454
1037.90 0.1453
1038.00 0.1452
1038.10 0.1451
1038.20 0.145
1038.30 0.1449
1038.40 0.1448
1038.50 0.1447
1038.60 0.1446
1038.70 0.1444
1038.80 0.1443
1038.90 0.1442
1039.00 0.1441
1039.10 0.144
1039.20 0.1439
1039.30 0.1438
1039.40 0.1437
1039.50 0.1436
1039.60 0.1435
1039.70 0.1434
1039.80 0.1433
1039.90 0.1432
1040.00 0.143
1040.10 0.1429
1040.20 0.1428
1040.30 0.1427
1040.40 0.1426
1040.50 0.1425
1040.60 0.1424
1040.70 0.1423
1040.80 0.1422
1040.90 0.1421
1041.00 0.142
1041.10 0.1419
1041.20 0.1418
1041.30 0.1416
1041.40 0.1415
1041.50 0.1414
1041.60 0.1413
1041.70 0.1412
1041.80 0.1411
1041.90 0.141
1042.00 0.1409
1042.10 0.1408
1042.20 0.1407
1042.30 0.1406
1042.40 0.1405
1042.50 0.1404
1042.60 0.1403
1042.70 0.1402
1042.80 0.1401
1042.90 0.14
1043.00 0.1399
1043.10 0.1398
1043.20 0.1398
1043.30 0.1397
1043.40 0.1396
1043.50 0.1395
1043.60 0.1394
1043.70 0.1393
1043.80 0.1392
1043.90 0.1391
1044.00 0.139
1044.10 0.1389
1044.20 0.1388
1044.30 0.1387
1044.40 0.1386
1044.50 0.1385
1044.60 0.1384
1044.70 0.1383
1044.80 0.1382
1044.90 0.1381
1045.00 0.138
1045.10 0.1379
1045.20 0.1379
1045.30 0.1378
1045.40 0.1377
1045.50 0.1376
1045.60 0.1375
1045.70 0.1374
1045.80 0.1373
1045.90 0.1372
1046.00 0.1371
1046.10 0.137
1046.20 0.1369
1046.30 0.1368
1046.40 0.1367
1046.50 0.1366
1046.60 0.1365
1046.70 0.1364
1046.80 0.1363
1046.90 0.1362
1047.00 0.1362
1047.10 0.1361
1047.20 0.136
1047.30 0.1359
1047.40 0.1358
1047.50 0.1357
1047.60 0.1357
1047.70 0.1356
1047.80 0.1355
1047.90 0.1354
1048.00 0.1353
1048.10 0.1352
1048.20 0.1352
1048.30 0.1351
1048.40 0.135
1048.50 0.1349
1048.60 0.1348
1048.70 0.1347
1048.80 0.1347
1048.90 0.1346
1049.00 0.1345
1049.10 0.1344
1049.20 0.1343
1049.30 0.1342
1049.40 0.1342
1049.50 0.1341
1049.60 0.134
1049.70 0.1339
1049.80 0.1338
1049.90 0.1337
1050.00 0.1337
1050.10 0.1336
1050.20 0.1335
1050.30 0.1334
1050.40 0.1333
1050.50 0.1333
1050.60 0.1332
1050.70 0.1331
1050.80 0.133
1050.90 0.1329
1051.00 0.1328
1051.10 0.1328
1051.20 0.1327
1051.30 0.1326
1051.40 0.1325
1051.50 0.1324
1051.60 0.1323
1051.70 0.1323
1051.80 0.1322
1051.90 0.1321
1052.00 0.132
1052.10 0.1319
1052.20 0.1319
1052.30 0.1318
1052.40 0.1317
1052.50 0.1317
1052.60 0.1316
1052.70 0.1315
1052.80 0.1314
1052.90 0.1314
1053.00 0.1313
1053.10 0.1312
1053.20 0.1311
1053.30 0.1311
1053.40 0.131
1053.50 0.1309
1053.60 0.1309
1053.70 0.1308
1053.80 0.1307
1053.90 0.1306
1054.00 0.1306
1054.10 0.1305
1054.20 0.1304
1054.30 0.1304
1054.40 0.1303
1054.50 0.1302
1054.60 0.1301
1054.70 0.1301
1054.80 0.13
1054.90 0.1299
1055.00 0.1298
1055.10 0.1298
1055.20 0.1297
1055.30 0.1296
1055.40 0.1296
1055.50 0.1295
1055.60 0.1294
1055.70 0.1293
1055.80 0.1293
1055.90 0.1292
1056.00 0.1291
1056.10 0.1291
1056.20 0.129
1056.30 0.1289
1056.40 0.1288
1056.50 0.1288
1056.60 0.1287
1056.70 0.1286
1056.80 0.1286
1056.90 0.1285
1057.00 0.1284
1057.10 0.1283
1057.20 0.1283
1057.30 0.1282
1057.40 0.1282
1057.50 0.1281
1057.60 0.128
1057.70 0.128
1057.80 0.1279
1057.90 0.1278
1058.00 0.1278
1058.10 0.1277
1058.20 0.1277
1058.30 0.1276
1058.40 0.1275
1058.50 0.1275
1058.60 0.1274
1058.70 0.1273
1058.80 0.1273
1058.90 0.1272
1059.00 0.1272
1059.10 0.1271
1059.20 0.127
1059.30 0.127
1059.40 0.1269
1059.50 0.1268
1059.60 0.1268
1059.70 0.1267
1059.80 0.1267
1059.90 0.1266
1060.00 0.1265
1060.10 0.1265
1060.20 0.1264
1060.30 0.1263
1060.40 0.1263
1060.50 0.1262
1060.60 0.1262
1060.70 0.1261
1060.80 0.126
1060.90 0.126
1061.00 0.1259
1061.10 0.1258
1061.20 0.1258
1061.30 0.1257
1061.40 0.1257
1061.50 0.1256
1061.60 0.1255
1061.70 0.1255
1061.80 0.1254
1061.90 0.1254
1062.00 0.1253
1062.10 0.1252
1062.20 0.1252
1062.30 0.1251
1062.40 0.1251
1062.50 0.125
1062.60 0.125
1062.70 0.1249
1062.80 0.1249
1062.90 0.1248
1063.00 0.1248
1063.10 0.1247
1063.20 0.1247
1063.30 0.1246
1063.40 0.1245
1063.50 0.1245
1063.60 0.1244
1063.70 0.1244
1063.80 0.1243
1063.90 0.1243
1064.00 0.1242
1064.10 0.1242
1064.20 0.1241
1064.30 0.1241
1064.40 0.124
1064.50 0.124
1064.60 0.1239
1064.70 0.1239
1064.80 0.1238
1064.90 0.1237
1065.00 0.1237
1065.10 0.1236
1065.20 0.1236
1065.30 0.1235
1065.40 0.1235
1065.50 0.1234
1065.60 0.1234
1065.70 0.1233
1065.80 0.1233
1065.90 0.1232
1066.00 0.1232
1066.10 0.1231
1066.20 0.1231
1066.30 0.123
1066.40 0.123
1066.50 0.1229
1066.60 0.1229
1066.70 0.1228
1066.80 0.1227
1066.90 0.1227
1067.00 0.1226
1067.10 0.1226
1067.20 0.1226
1067.30 0.1225
1067.40 0.1225
1067.50 0.1224
1067.60 0.1224
1067.70 0.1223
1067.80 0.1223
1067.90 0.1222
1068.00 0.1222
1068.10 0.1221
1068.20 0.1221
1068.30 0.1221
1068.40 0.122
1068.50 0.122
1068.60 0.1219
1068.70 0.1219
1068.80 0.1218
1068.90 0.1218
1069.00 0.1217
1069.10 0.1217
1069.20 0.1216
1069.30 0.1216
1069.40 0.1216
1069.50 0.1215
1069.60 0.1215
1069.70 0.1214
1069.80 0.1214
1069.90 0.1213
1070.00 0.1213
1070.10 0.1212
1070.20 0.1212
1070.30 0.1211
1070.40 0.1211
1070.50 0.1211
1070.60 0.121
1070.70 0.121
1070.80 0.1209
1070.90 0.1209
1071.00 0.1208
1071.10 0.1208
1071.20 0.1207
1071.30 0.1207
1071.40 0.1207
1071.50 0.1206
1071.60 0.1206
1071.70 0.1205
1071.80 0.1205
1071.90 0.1204
1072.00 0.1204
1072.10 0.1203
1072.20 0.1203
1072.30 0.1203
1072.40 0.1202
1072.50 0.1202
1072.60 0.1202
1072.70 0.1201
1072.80 0.1201
1072.90 0.12
1073.00 0.12
1073.10 0.12
1073.20 0.1199
1073.30 0.1199
1073.40 0.1199
1073.50 0.1198
1073.60 0.1198
1073.70 0.1198
1073.80 0.1197
1073.90 0.1197
1074.00 0.1197
1074.10 0.1196
1074.20 0.1196
1074.30 0.1196
1074.40 0.1195
1074.50 0.1195
1074.60 0.1195
1074.70 0.1194
1074.80 0.1194
1074.90 0.1194
1075.00 0.1193
1075.10 0.1193
1075.20 0.1193
1075.30 0.1192
1075.40 0.1192
1075.50 0.1192
1075.60 0.1191
1075.70 0.1191
1075.80 0.1191
1075.90 0.1191
1076.00 0.119
1076.10 0.119
1076.20 0.119
1076.30 0.1189
1076.40 0.1189
1076.50 0.1189
1076.60 0.1188
1076.70 0.1188
1076.80 0.1188
1076.90 0.1187
1077.00 0.1187
1077.10 0.1187
1077.20 0.1186
1077.30 0.1186
1077.40 0.1186
1077.50 0.1186
1077.60 0.1185
1077.70 0.1185
1077.80 0.1185
1077.90 0.1185
1078.00 0.1184
1078.10 0.1184
1078.20 0.1184
1078.30 0.1184
1078.40 0.1183
1078.50 0.1183
1078.60 0.1183
1078.70 0.1183
1078.80 0.1182
1078.90 0.1182
1079.00 0.1182
1079.10 0.1182
1079.20 0.1181
1079.30 0.1181
1079.40 0.1181
1079.50 0.1181
1079.60 0.118
1079.70 0.118
1079.80 0.118
1079.90 0.118
1080.00 0.118
1080.10 0.1179
1080.20 0.1179
1080.30 0.1179
1080.40 0.1179
1080.50 0.1179
1080.60 0.1179
1080.70 0.1178
1080.80 0.1178
1080.90 0.1178
1081.00 0.1178
1081.10 0.1178
1081.20 0.1177
1081.30 0.1177
1081.40 0.1177
1081.50 0.1177
1081.60 0.1177
1081.70 0.1176
1081.80 0.1176
1081.90 0.1176
1082.00 0.1176
1082.10 0.1176
1082.20 0.1176
1082.30 0.1175
1082.40 0.1175
1082.50 0.1175
1082.60 0.1175
1082.70 0.1175
1082.80 0.1175
1082.90 0.1174
1083.00 0.1174
1083.10 0.1174
1083.20 0.1174
1083.30 0.1174
1083.40 0.1173
1083.50 0.1173
1083.60 0.1173
1083.70 0.1173
1083.80 0.1173
1083.90 0.1173
1084.00 0.1173
1084.10 0.1172
1084.20 0.1172
1084.30 0.1172
1084.40 0.1172
1084.50 0.1172
1084.60 0.1172
1084.70 0.1172
1084.80 0.1171
1084.90 0.1171
1085.00 0.1171
1085.10 0.1171
1085.20 0.1171
1085.30 0.1171
1085.40 0.1171
1085.50 0.1171
1085.60 0.117
1085.70 0.117
1085.80 0.117
1085.90 0.117
1086.00 0.117
1086.10 0.117
1086.20 0.117
1086.30 0.117
1086.40 0.1169
1086.50 0.1169
1086.60 0.1169
1086.70 0.1169
1086.80 0.1169
1086.90 0.1169
1087.00 0.1169
1087.10 0.1169
1087.20 0.1169
1087.30 0.1168
1087.40 0.1168
1087.50 0.1168
1087.60 0.1168
1087.70 0.1168
1087.80 0.1168
1087.90 0.1168
1088.00 0.1168
1088.10 0.1168
1088.20 0.1168
1088.30 0.1168
1088.40 0.1168
1088.50 0.1167
1088.60 0.1167
1088.70 0.1167
1088.80 0.1167
1088.90 0.1167
1089.00 0.1167
1089.10 0.1167
1089.20 0.1167
1089.30 0.1167
1089.40 0.1167
1089.50 0.1167
1089.60 0.1167
1089.70 0.1167
1089.80 0.1167
1089.90 0.1167
1090.00 0.1167
1090.10 0.1167
1090.20 0.1166
1090.30 0.1166
1090.40 0.1166
1090.50 0.1166
1090.60 0.1166
1090.70 0.1166
1090.80 0.1166
1090.90 0.1166
1091.00 0.1166
1091.10 0.1166
1091.20 0.1166
1091.30 0.1166
1091.40 0.1166
1091.50 0.1166
1091.60 0.1166
1091.70 0.1166
1091.80 0.1166
1091.90 0.1166
1092.00 0.1166
1092.10 0.1166
1092.20 0.1166
1092.30 0.1166
1092.40 0.1166
1092.50 0.1166
1092.60 0.1166
1092.70 0.1166
1092.80 0.1166
1092.90 0.1166
1093.00 0.1167
1093.10 0.1167
1093.20 0.1167
1093.30 0.1167
1093.40 0.1167
1093.50 0.1167
1093.60 0.1167
1093.70 0.1167
1093.80 0.1167
1093.90 0.1167
1094.00 0.1167
1094.10 0.1167
1094.20 0.1167
1094.30 0.1167
1094.40 0.1167
1094.50 0.1167
1094.60 0.1167
1094.70 0.1167
1094.80 0.1167
1094.90 0.1167
1095.00 0.1167
1095.10 0.1167
1095.20 0.1167
1095.30 0.1167
1095.40 0.1167
1095.50 0.1167
1095.60 0.1167
1095.70 0.1167
1095.80 0.1167
1095.90 0.1167
1096.00 0.1167
1096.10 0.1167
1096.20 0.1167
1096.30 0.1167
1096.40 0.1167
1096.50 0.1167
1096.60 0.1167
1096.70 0.1168
1096.80 0.1168
1096.90 0.1168
1097.00 0.1168
1097.10 0.1168
1097.20 0.1168
1097.30 0.1168
1097.40 0.1168
1097.50 0.1168
1097.60 0.1168
1097.70 0.1168
1097.80 0.1168
1097.90 0.1168
1098.00 0.1168
1098.10 0.1168
1098.20 0.1168
1098.30 0.1168
1098.40 0.1168
1098.50 0.1168
1098.60 0.1168
1098.70 0.1168
1098.80 0.1168
1098.90 0.1169
1099.00 0.1169
1099.10 0.1169
1099.20 0.1169
1099.30 0.1169
1099.40 0.1169
1099.50 0.1169
1099.60 0.1169
1099.70 0.1169
1099.80 0.1169
1099.90 0.1169
1100.00 0.1169
1100.10 0.1169
1100.20 0.1169
1100.30 0.1169
1100.40 0.1169
1100.50 0.1169
1100.60 0.117
1100.70 0.117
1100.80 0.117
1100.90 0.117
1101.00 0.117
1101.10 0.117
1101.20 0.117
1101.30 0.117
1101.40 0.117
1101.50 0.117
1101.60 0.117
1101.70 0.117
1101.80 0.117
1101.90 0.1171
1102.00 0.1171
1102.10 0.1171
1102.20 0.1171
1102.30 0.1171
1102.40 0.1171
1102.50 0.1171
1102.60 0.1171
1102.70 0.1171
1102.80 0.1171
1102.90 0.1171
1103.00 0.1171
1103.10 0.1172
1103.20 0.1172
1103.30 0.1172
1103.40 0.1172
1103.50 0.1172
1103.60 0.1172
1103.70 0.1172
1103.80 0.1172
1103.90 0.1172
1104.00 0.1172
1104.10 0.1173
1104.20 0.1173
1104.30 0.1173
1104.40 0.1173
1104.50 0.1173
1104.60 0.1173
1104.70 0.1173
1104.80 0.1173
1104.90 0.1174
1105.00 0.1174
1105.10 0.1174
1105.20 0.1174
1105.30 0.1174
1105.40 0.1174
1105.50 0.1174
1105.60 0.1174
1105.70 0.1174
1105.80 0.1175
1105.90 0.1175
1106.00 0.1175
1106.10 0.1175
1106.20 0.1175
1106.30 0.1175
1106.40 0.1175
1106.50 0.1175
1106.60 0.1176
1106.70 0.1176
1106.80 0.1176
1106.90 0.1176
1107.00 0.1176
1107.10 0.1176
1107.20 0.1176
1107.30 0.1176
1107.40 0.1176
1107.50 0.1177
1107.60 0.1177
1107.70 0.1177
1107.80 0.1177
1107.90 0.1177
1108.00 0.1177
1108.10 0.1177
1108.20 0.1178
1108.30 0.1178
1108.40 0.1178
1108.50 0.1178
1108.60 0.1178
1108.70 0.1178
1108.80 0.1178
1108.90 0.1179
1109.00 0.1179
1109.10 0.1179
1109.20 0.1179
1109.30 0.1179
1109.40 0.1179
1109.50 0.1179
1109.60 0.118
1109.70 0.118
1109.80 0.118
1109.90 0.118
1110.00 0.118
1110.10 0.118
1110.20 0.118
1110.30 0.1181
1110.40 0.1181
1110.50 0.1181
1110.60 0.1181
1110.70 0.1181
1110.80 0.1181
1110.90 0.1182
1111.00 0.1182
1111.10 0.1182
1111.20 0.1182
1111.30 0.1182
1111.40 0.1182
1111.50 0.1182
1111.60 0.1183
1111.70 0.1183
1111.80 0.1183
1111.90 0.1183
1112.00 0.1183
1112.10 0.1183
1112.20 0.1184
1112.30 0.1184
1112.40 0.1184
1112.50 0.1184
1112.60 0.1184
1112.70 0.1184
1112.80 0.1185
1112.90 0.1185
1113.00 0.1185
1113.10 0.1185
1113.20 0.1185
1113.30 0.1185
1113.40 0.1186
1113.50 0.1186
1113.60 0.1186
1113.70 0.1186
1113.80 0.1186
1113.90 0.1187
1114.00 0.1187
1114.10 0.1187
1114.20 0.1187
1114.30 0.1187
1114.40 0.1188
1114.50 0.1188
1114.60 0.1188
1114.70 0.1188
1114.80 0.1188
1114.90 0.1189
1115.00 0.1189
1115.10 0.1189
1115.20 0.1189
1115.30 0.1189
1115.40 0.1189
1115.50 0.119
1115.60 0.119
1115.70 0.119
1115.80 0.119
1115.90 0.119
1116.00 0.1191
1116.10 0.1191
1116.20 0.1191
1116.30 0.1191
1116.40 0.1191
1116.50 0.1192
1116.60 0.1192
1116.70 0.1192
1116.80 0.1192
1116.90 0.1192
1117.00 0.1193
1117.10 0.1193
1117.20 0.1193
1117.30 0.1193
1117.40 0.1193
1117.50 0.1194
1117.60 0.1194
1117.70 0.1194
1117.80 0.1194
1117.90 0.1195
1118.00 0.1195
1118.10 0.1195
1118.20 0.1195
1118.30 0.1195
1118.40 0.1196
1118.50 0.1196
1118.60 0.1196
1118.70 0.1196
1118.80 0.1197
1118.90 0.1197
1119.00 0.1197
1119.10 0.1197
1119.20 0.1197
1119.30 0.1198
1119.40 0.1198
1119.50 0.1198
1119.60 0.1198
1119.70 0.1199
1119.80 0.1199
1119.90 0.1199
1120.00 0.1199
1120.10 0.1199
1120.20 0.12
1120.30 0.12
1120.40 0.12
1120.50 0.12
1120.60 0.1201
1120.70 0.1201
1120.80 0.1201
1120.90 0.1201
1121.00 0.1201
1121.10 0.1202
1121.20 0.1202
1121.30 0.1202
1121.40 0.1202
1121.50 0.1203
1121.60 0.1203
1121.70 0.1203
1121.80 0.1203
1121.90 0.1203
1122.00 0.1204
1122.10 0.1204
1122.20 0.1204
1122.30 0.1204
1122.40 0.1205
1122.50 0.1205
1122.60 0.1205
1122.70 0.1206
1122.80 0.1206
1122.90 0.1206
1123.00 0.1206
1123.10 0.1207
1123.20 0.1207
1123.30 0.1207
1123.40 0.1207
1123.50 0.1208
1123.60 0.1208
1123.70 0.1208
1123.80 0.1209
1123.90 0.1209
1124.00 0.1209
1124.10 0.1209
1124.20 0.121
1124.30 0.121
1124.40 0.121
1124.50 0.121
1124.60 0.1211
1124.70 0.1211
1124.80 0.1211
1124.90 0.1211
1125.00 0.1212
1125.10 0.1212
1125.20 0.1212
1125.30 0.1213
1125.40 0.1213
1125.50 0.1213
1125.60 0.1213
1125.70 0.1214
1125.80 0.1214
1125.90 0.1214
1126.00 0.1214
1126.10 0.1215
1126.20 0.1215
1126.30 0.1215
1126.40 0.1216
1126.50 0.1216
1126.60 0.1216
1126.70 0.1216
1126.80 0.1217
1126.90 0.1217
1127.00 0.1217
1127.10 0.1217
1127.20 0.1218
1127.30 0.1218
1127.40 0.1218
1127.50 0.1219
1127.60 0.1219
1127.70 0.1219
1127.80 0.122
1127.90 0.122
1128.00 0.122
1128.10 0.1221
1128.20 0.1221
1128.30 0.1222
1128.40 0.1222
1128.50 0.1222
1128.60 0.1223
1128.70 0.1223
1128.80 0.1223
1128.90 0.1224
1129.00 0.1224
1129.10 0.1224
1129.20 0.1225
1129.30 0.1225
1129.40 0.1225
1129.50 0.1226
1129.60 0.1226
1129.70 0.1226
1129.80 0.1227
1129.90 0.1227
1130.00 0.1227
1130.10 0.1228
1130.20 0.1228
1130.30 0.1228
1130.40 0.1229
1130.50 0.1229
1130.60 0.1229
1130.70 0.123
1130.80 0.123
1130.90 0.123
1131.00 0.1231
1131.10 0.1231
1131.20 0.1231
1131.30 0.1232
1131.40 0.1232
1131.50 0.1232
1131.60 0.1233
1131.70 0.1233
1131.80 0.1233
1131.90 0.1234
1132.00 0.1234
1132.10 0.1234
1132.20 0.1235
1132.30 0.1235
1132.40 0.1235
1132.50 0.1236
1132.60 0.1236
1132.70 0.1236
1132.80 0.1237
1132.90 0.1237
1133.00 0.1237
1133.10 0.1237
1133.20 0.1238
1133.30 0.1238
1133.40 0.1238
1133.50 0.1239
1133.60 0.1239
1133.70 0.1239
1133.80 0.124
1133.90 0.124
1134.00 0.124
1134.10 0.1241
1134.20 0.1241
1134.30 0.1241
1134.40 0.1242
1134.50 0.1242
1134.60 0.1242
1134.70 0.1243
1134.80 0.1243
1134.90 0.1243
1135.00 0.1244
1135.10 0.1244
1135.20 0.1244
1135.30 0.1245
1135.40 0.1245
1135.50 0.1245
1135.60 0.1246
1135.70 0.1246
1135.80 0.1246
1135.90 0.1247
1136.00 0.1247
1136.10 0.1247
1136.20 0.1247
1136.30 0.1248
1136.40 0.1248
1136.50 0.1248
1136.60 0.1249
1136.70 0.1249
1136.80 0.1249
1136.90 0.125
1137.00 0.125
1137.10 0.125
1137.20 0.1251
1137.30 0.1251
1137.40 0.1251
1137.50 0.1252
1137.60 0.1252
1137.70 0.1252
1137.80 0.1253
1137.90 0.1253
1138.00 0.1253
1138.10 0.1254
1138.20 0.1254
1138.30 0.1254
1138.40 0.1255
1138.50 0.1255
1138.60 0.1255
1138.70 0.1256
1138.80 0.1256
1138.90 0.1256
1139.00 0.1257
1139.10 0.1257
1139.20 0.1257
1139.30 0.1258
1139.40 0.1258
1139.50 0.1258
1139.60 0.1259
1139.70 0.1259
1139.80 0.1259
1139.90 0.126
1140.00 0.126
1140.10 0.126
1140.20 0.1261
1140.30 0.1261
1140.40 0.1261
1140.50 0.1262
1140.60 0.1262
1140.70 0.1262
1140.80 0.1263
1140.90 0.1263
1141.00 0.1263
1141.10 0.1264
1141.20 0.1264
1141.30 0.1264
1141.40 0.1265
1141.50 0.1265
1141.60 0.1265
1141.70 0.1266
1141.80 0.1266
1141.90 0.1266
1142.00 0.1266
1142.10 0.1267
1142.20 0.1267
1142.30 0.1268
1142.40 0.1268
1142.50 0.1268
1142.60 0.1269
1142.70 0.1269
1142.80 0.1269
1142.90 0.127
1143.00 0.127
1143.10 0.127
1143.20 0.1271
1143.30 0.1271
1143.40 0.1272
1143.50 0.1272
1143.60 0.1272
1143.70 0.1273
1143.80 0.1273
1143.90 0.1273
1144.00 0.1274
1144.10 0.1274
1144.20 0.1274
1144.30 0.1275
1144.40 0.1275
1144.50 0.1275
1144.60 0.1276
1144.70 0.1276
1144.80 0.1277
1144.90 0.1277
1145.00 0.1277
1145.10 0.1278
1145.20 0.1278
1145.30 0.1278
1145.40 0.1279
1145.50 0.1279
1145.60 0.1279
1145.70 0.128
1145.80 0.128
1145.90 0.128
1146.00 0.1281
1146.10 0.1281
1146.20 0.1282
1146.30 0.1282
1146.40 0.1282
1146.50 0.1283
1146.60 0.1283
1146.70 0.1283
1146.80 0.1284
1146.90 0.1284
1147.00 0.1284
1147.10 0.1285
1147.20 0.1285
1147.30 0.1285
1147.40 0.1286
1147.50 0.1286
1147.60 0.1286
1147.70 0.1286
1147.80 0.1287
1147.90 0.1287
1148.00 0.1287
1148.10 0.1288
1148.20 0.1288
1148.30 0.1288
1148.40 0.1288
1148.50 0.1289
1148.60 0.1289
1148.70 0.1289
1148.80 0.129
1148.90 0.129
1149.00 0.129
1149.10 0.129
1149.20 0.1291
1149.30 0.1291
1149.40 0.1291
1149.50 0.1292
1149.60 0.1292
1149.70 0.1292
1149.80 0.1293
1149.90 0.1293
1150.00 0.1293
1150.10 0.1293
1150.20 0.1294
1150.30 0.1294
1150.40 0.1294
1150.50 0.1295
1150.60 0.1295
1150.70 0.1295
1150.80 0.1295
1150.90 0.1296
1151.00 0.1296
1151.10 0.1296
1151.20 0.1297
1151.30 0.1297
1151.40 0.1297
1151.50 0.1297
1151.60 0.1298
1151.70 0.1298
1151.80 0.1298
1151.90 0.1299
1152.00 0.1299
1152.10 0.1299
1152.20 0.1299
1152.30 0.13
1152.40 0.13
1152.50 0.13
1152.60 0.1301
1152.70 0.1301
1152.80 0.1301
1152.90 0.1301
1153.00 0.1302
1153.10 0.1302
1153.20 0.1302
1153.30 0.1302
1153.40 0.1303
1153.50 0.1303
1153.60 0.1303
1153.70 0.1304
1153.80 0.1304
1153.90 0.1304
1154.00 0.1304
1154.10 0.1305
1154.20 0.1305
1154.30 0.1305
1154.40 0.1306
1154.50 0.1306
1154.60 0.1306
1154.70 0.1306
1154.80 0.1307
1154.90 0.1307
1155.00 0.1307
1155.10 0.1308
1155.20 0.1308
1155.30 0.1308
1155.40 0.1308
1155.50 0.1309
1155.60 0.1309
1155.70 0.1309
1155.80 0.131
1155.90 0.131
1156.00 0.131
1156.10 0.131
1156.20 0.1311
1156.30 0.1311
1156.40 0.1311
1156.50 0.1311
1156.60 0.1312
1156.70 0.1312
1156.80 0.1312
1156.90 0.1313
1157.00 0.1313
1157.10 0.1313
1157.20 0.1313
1157.30 0.1313
1157.40 0.1314
1157.50 0.1314
1157.60 0.1314
1157.70 0.1314
1157.80 0.1314
1157.90 0.1315
1158.00 0.1315
1158.10 0.1315
1158.20 0.1315
1158.30 0.1315
1158.40 0.1316
1158.50 0.1316
1158.60 0.1316
1158.70 0.1316
1158.80 0.1317
1158.90 0.1317
1159.00 0.1317
1159.10 0.1317
1159.20 0.1317
1159.30 0.1318
1159.40 0.1318
1159.50 0.1318
1159.60 0.1318
1159.70 0.1318
1159.80 0.1319
1159.90 0.1319
1160.00 0.1319
1160.10 0.1319
1160.20 0.1319
1160.30 0.132
1160.40 0.132
1160.50 0.132
1160.60 0.132
1160.70 0.132
1160.80 0.1321
1160.90 0.1321
1161.00 0.1321
1161.10 0.1321
1161.20 0.1321
1161.30 0.1322
1161.40 0.1322
1161.50 0.1322
1161.60 0.1322
1161.70 0.1322
1161.80 0.1323
1161.90 0.1323
1162.00 0.1323
1162.10 0.1323
1162.20 0.1323
1162.30 0.1323
1162.40 0.1323
1162.50 0.1324
1162.60 0.1324
1162.70 0.1324
1162.80 0.1324
1162.90 0.1324
1163.00 0.1324
1163.10 0.1324
1163.20 0.1325
1163.30 0.1325
1163.40 0.1325
1163.50 0.1325
1163.60 0.1325
1163.70 0.1325
1163.80 0.1325
1163.90 0.1326
1164.00 0.1326
1164.10 0.1326
1164.20 0.1326
1164.30 0.1326
1164.40 0.1326
1164.50 0.1326
1164.60 0.1327
1164.70 0.1327
1164.80 0.1327
1164.90 0.1327
1165.00 0.1327
1165.10 0.1327
1165.20 0.1327
1165.30 0.1328
1165.40 0.1328
1165.50 0.1328
1165.60 0.1328
1165.70 0.1328
1165.80 0.1328
1165.90 0.1328
1166.00 0.1328
1166.10 0.1329
1166.20 0.1329
1166.30 0.1329
1166.40 0.1329
1166.50 0.1329
1166.60 0.1329
1166.70 0.1329
1166.80 0.133
1166.90 0.133
1167.00 0.133
1167.10 0.133
1167.20 0.133
1167.30 0.133
1167.40 0.133
1167.50 0.133
1167.60 0.133
1167.70 0.1331
1167.80 0.1331
1167.90 0.1331
1168.00 0.1331
1168.10 0.1331
1168.20 0.1331
1168.30 0.1331
1168.40 0.1331
1168.50 0.1331
1168.60 0.1332
1168.70 0.1332
1168.80 0.1332
1168.90 0.1332
1169.00 0.1332
1169.10 0.1332
1169.20 0.1332
1169.30 0.1332
1169.40 0.1332
1169.50 0.1332
1169.60 0.1333
1169.70 0.1333
1169.80 0.1333
1169.90 0.1333
1170.00 0.1333
1170.10 0.1333
1170.20 0.1333
1170.30 0.1333
1170.40 0.1333
1170.50 0.1333
1170.60 0.1334
1170.70 0.1334
1170.80 0.1334
1170.90 0.1334
1171.00 0.1334
1171.10 0.1334
1171.20 0.1334
1171.30 0.1334
1171.40 0.1334
1171.50 0.1334
1171.60 0.1335
1171.70 0.1335
1171.80 0.1335
1171.90 0.1335
1172.00 0.1335
1172.10 0.1335
1172.20 0.1335
1172.30 0.1335
1172.40 0.1335
1172.50 0.1335
1172.60 0.1335
1172.70 0.1335
1172.80 0.1335
1172.90 0.1335
1173.00 0.1335
1173.10 0.1335
1173.20 0.1335
1173.30 0.1335
1173.40 0.1335
1173.50 0.1335
1173.60 0.1335
1173.70 0.1335
1173.80 0.1335
1173.90 0.1335
1174.00 0.1335
1174.10 0.1335
1174.20 0.1335
1174.30 0.1335
1174.40 0.1335
1174.50 0.1335
1174.60 0.1335
1174.70 0.1335
1174.80 0.1335
1174.90 0.1335
1175.00 0.1335
1175.10 0.1335
1175.20 0.1335
1175.30 0.1335
1175.40 0.1335
1175.50 0.1335
1175.60 0.1335
1175.70 0.1335
1175.80 0.1335
1175.90 0.1335
1176.00 0.1335
1176.10 0.1335
1176.20 0.1335
1176.30 0.1335
1176.40 0.1335
1176.50 0.1335
1176.60 0.1335
1176.70 0.1335
1176.80 0.1335
1176.90 0.1335
1177.00 0.1335
1177.10 0.1335
1177.20 0.1334
1177.30 0.1334
1177.40 0.1334
1177.50 0.1334
1177.60 0.1334
1177.70 0.1334
1177.80 0.1334
1177.90 0.1334
1178.00 0.1334
1178.10 0.1334
1178.20 0.1334
1178.30 0.1333
1178.40 0.1333
1178.50 0.1333
1178.60 0.1333
1178.70 0.1333
1178.80 0.1333
1178.90 0.1333
1179.00 0.1333
1179.10 0.1333
1179.20 0.1333
1179.30 0.1333
1179.40 0.1332
1179.50 0.1332
1179.60 0.1332
1179.70 0.1332
1179.80 0.1332
1179.90 0.1332
1180.00 0.1332
1180.10 0.1332
1180.20 0.1332
1180.30 0.1332
1180.40 0.1332
1180.50 0.1332
1180.60 0.1331
1180.70 0.1331
1180.80 0.1331
1180.90 0.1331
1181.00 0.1331
1181.10 0.1331
1181.20 0.1331
1181.30 0.1331
1181.40 0.1331
1181.50 0.1331
1181.60 0.1331
1181.70 0.133
1181.80 0.133
1181.90 0.133
1182.00 0.133
1182.10 0.133
1182.20 0.133
1182.30 0.133
1182.40 0.1329
1182.50 0.1329
1182.60 0.1329
1182.70 0.1329
1182.80 0.1328
1182.90 0.1328
1183.00 0.1328
1183.10 0.1328
1183.20 0.1328
1183.30 0.1327
1183.40 0.1327
1183.50 0.1327
1183.60 0.1327
1183.70 0.1327
1183.80 0.1326
1183.90 0.1326
1184.00 0.1326
1184.10 0.1326
1184.20 0.1326
1184.30 0.1325
1184.40 0.1325
1184.50 0.1325
1184.60 0.1325
1184.70 0.1325
1184.80 0.1324
1184.90 0.1324
1185.00 0.1324
1185.10 0.1324
1185.20 0.1324
1185.30 0.1323
1185.40 0.1323
1185.50 0.1323
1185.60 0.1323
1185.70 0.1322
1185.80 0.1322
1185.90 0.1322
1186.00 0.1322
1186.10 0.1322
1186.20 0.1321
1186.30 0.1321
1186.40 0.1321
1186.50 0.1321
1186.60 0.1321
1186.70 0.132
1186.80 0.132
1186.90 0.132
1187.00 0.132
1187.10 0.132
1187.20 0.1319
1187.30 0.1319
1187.40 0.1319
1187.50 0.1319
1187.60 0.1319
1187.70 0.1318
1187.80 0.1318
1187.90 0.1318
1188.00 0.1318
1188.10 0.1318
1188.20 0.1318
1188.30 0.1317
1188.40 0.1317
1188.50 0.1317
1188.60 0.1317
1188.70 0.1317
1188.80 0.1316
1188.90 0.1316
1189.00 0.1316
1189.10 0.1316
1189.20 0.1316
1189.30 0.1315
1189.40 0.1315
1189.50 0.1315
1189.60 0.1315
1189.70 0.1315
1189.80 0.1315
1189.90 0.1314
1190.00 0.1314
1190.10 0.1314
1190.20 0.1314
1190.30 0.1314
1190.40 0.1313
1190.50 0.1313
1190.60 0.1313
1190.70 0.1313
1190.80 0.1313
1190.90 0.1312
1191.00 0.1312
1191.10 0.1312
1191.20 0.1312
1191.30 0.1312
1191.40 0.1312
1191.50 0.1311
1191.60 0.1311
1191.70 0.1311
1191.80 0.1311
1191.90 0.1311
1192.00 0.131
1192.10 0.131
1192.20 0.131
1192.30 0.131
1192.40 0.131
1192.50 0.1309
1192.60 0.1309
1192.70 0.1309
1192.80 0.1309
1192.90 0.1309
1193.00 0.1308
1193.10 0.1308
1193.20 0.1308
1193.30 0.1308
1193.40 0.1307
1193.50 0.1307
1193.60 0.1307
1193.70 0.1307
1193.80 0.1307
1193.90 0.1306
1194.00 0.1306
1194.10 0.1306
1194.20 0.1306
1194.30 0.1306
1194.40 0.1305
1194.50 0.1305
1194.60 0.1305
1194.70 0.1305
1194.80 0.1304
1194.90 0.1304
1195.00 0.1304
1195.10 0.1304
1195.20 0.1304
1195.30 0.1303
1195.40 0.1303
1195.50 0.1303
1195.60 0.1303
1195.70 0.1303
1195.80 0.1302
1195.90 0.1302
1196.00 0.1302
1196.10 0.1302
1196.20 0.1302
1196.30 0.1301
1196.40 0.1301
1196.50 0.1301
1196.60 0.1301
1196.70 0.13
1196.80 0.13
1196.90 0.13
1197.00 0.13
1197.10 0.13
1197.20 0.1299
1197.30 0.1299
1197.40 0.1299
1197.50 0.1298
1197.60 0.1298
1197.70 0.1298
1197.80 0.1297
1197.90 0.1297
1198.00 0.1297
1198.10 0.1297
1198.20 0.1296
1198.30 0.1296
1198.40 0.1296
1198.50 0.1295
1198.60 0.1295
1198.70 0.1295
1198.80 0.1295
1198.90 0.1294
1199.00 0.1294
1199.10 0.1294
1199.20 0.1293
1199.30 0.1293
1199.40 0.1293
1199.50 0.1293
1199.60 0.1292
1199.70 0.1292
1199.80 0.1292
1199.90 0.1291
1200.00 0
