# Version 2.1 - nm, norm@500 to 1, cut digits, bergeron_7500_85.dat_7500
# Wavelength(nm)  Flambda(ergs/cm^s/s/nm)
300.00 1.263
300.10 1.263
300.20 1.263
300.30 1.263
300.40 1.264
300.50 1.264
300.60 1.264
300.70 1.264
300.80 1.264
300.90 1.264
301.00 1.265
301.10 1.265
301.20 1.265
301.30 1.265
301.40 1.265
301.50 1.265
301.60 1.266
301.70 1.266
301.80 1.266
301.90 1.266
302.00 1.266
302.10 1.266
302.20 1.267
302.30 1.267
302.40 1.267
302.50 1.267
302.60 1.267
302.70 1.267
302.80 1.268
302.90 1.268
303.00 1.268
303.10 1.268
303.20 1.268
303.30 1.268
303.40 1.268
303.50 1.269
303.60 1.269
303.70 1.269
303.80 1.269
303.90 1.269
304.00 1.269
304.10 1.269
304.20 1.27
304.30 1.27
304.40 1.27
304.50 1.27
304.60 1.27
304.70 1.27
304.80 1.27
304.90 1.271
305.00 1.271
305.10 1.271
305.20 1.271
305.30 1.271
305.40 1.271
305.50 1.271
305.60 1.272
305.70 1.272
305.80 1.272
305.90 1.272
306.00 1.272
306.10 1.272
306.20 1.272
306.30 1.273
306.40 1.273
306.50 1.273
306.60 1.273
306.70 1.273
306.80 1.273
306.90 1.273
307.00 1.273
307.10 1.274
307.20 1.274
307.30 1.274
307.40 1.274
307.50 1.274
307.60 1.274
307.70 1.274
307.80 1.274
307.90 1.275
308.00 1.275
308.10 1.275
308.20 1.275
308.30 1.275
308.40 1.275
308.50 1.275
308.60 1.275
308.70 1.276
308.80 1.276
308.90 1.276
309.00 1.276
309.10 1.276
309.20 1.276
309.30 1.276
309.40 1.276
309.50 1.277
309.60 1.277
309.70 1.277
309.80 1.277
309.90 1.277
310.00 1.277
310.10 1.277
310.20 1.277
310.30 1.277
310.40 1.277
310.50 1.278
310.60 1.278
310.70 1.278
310.80 1.278
310.90 1.278
311.00 1.278
311.10 1.278
311.20 1.278
311.30 1.278
311.40 1.279
311.50 1.279
311.60 1.279
311.70 1.279
311.80 1.279
311.90 1.279
312.00 1.279
312.10 1.279
312.20 1.279
312.30 1.279
312.40 1.28
312.50 1.28
312.60 1.28
312.70 1.28
312.80 1.28
312.90 1.28
313.00 1.28
313.10 1.28
313.20 1.28
313.30 1.28
313.40 1.28
313.50 1.281
313.60 1.281
313.70 1.281
313.80 1.281
313.90 1.281
314.00 1.281
314.10 1.281
314.20 1.281
314.30 1.281
314.40 1.281
314.50 1.281
314.60 1.282
314.70 1.282
314.80 1.282
314.90 1.282
315.00 1.282
315.10 1.282
315.20 1.282
315.30 1.282
315.40 1.282
315.50 1.282
315.60 1.282
315.70 1.282
315.80 1.282
315.90 1.283
316.00 1.283
316.10 1.283
316.20 1.283
316.30 1.283
316.40 1.283
316.50 1.283
316.60 1.283
316.70 1.283
316.80 1.283
316.90 1.283
317.00 1.283
317.10 1.283
317.20 1.283
317.30 1.284
317.40 1.284
317.50 1.284
317.60 1.284
317.70 1.284
317.80 1.284
317.90 1.284
318.00 1.284
318.10 1.284
318.20 1.284
318.30 1.284
318.40 1.284
318.50 1.284
318.60 1.284
318.70 1.284
318.80 1.284
318.90 1.285
319.00 1.285
319.10 1.285
319.20 1.285
319.30 1.285
319.40 1.285
319.50 1.285
319.60 1.285
319.70 1.285
319.80 1.285
319.90 1.285
320.00 1.285
320.10 1.285
320.20 1.285
320.30 1.285
320.40 1.285
320.50 1.285
320.60 1.285
320.70 1.286
320.80 1.286
320.90 1.286
321.00 1.286
321.10 1.286
321.20 1.286
321.30 1.286
321.40 1.286
321.50 1.286
321.60 1.286
321.70 1.286
321.80 1.286
321.90 1.286
322.00 1.286
322.10 1.286
322.20 1.286
322.30 1.286
322.40 1.286
322.50 1.286
322.60 1.286
322.70 1.286
322.80 1.286
322.90 1.286
323.00 1.287
323.10 1.287
323.20 1.287
323.30 1.287
323.40 1.287
323.50 1.287
323.60 1.287
323.70 1.287
323.80 1.287
323.90 1.287
324.00 1.287
324.10 1.287
324.20 1.287
324.30 1.287
324.40 1.287
324.50 1.287
324.60 1.287
324.70 1.287
324.80 1.287
324.90 1.287
325.00 1.287
325.10 1.287
325.20 1.287
325.30 1.287
325.40 1.287
325.50 1.287
325.60 1.287
325.70 1.287
325.80 1.287
325.90 1.287
326.00 1.287
326.10 1.287
326.20 1.287
326.30 1.287
326.40 1.287
326.50 1.287
326.60 1.288
326.70 1.288
326.80 1.288
326.90 1.288
327.00 1.288
327.10 1.288
327.20 1.288
327.30 1.288
327.40 1.288
327.50 1.288
327.60 1.288
327.70 1.288
327.80 1.288
327.90 1.288
328.00 1.288
328.10 1.288
328.20 1.288
328.30 1.288
328.40 1.288
328.50 1.288
328.60 1.288
328.70 1.288
328.80 1.288
328.90 1.288
329.00 1.288
329.10 1.288
329.20 1.288
329.30 1.288
329.40 1.288
329.50 1.288
329.60 1.288
329.70 1.288
329.80 1.288
329.90 1.288
330.00 1.288
330.10 1.288
330.20 1.288
330.30 1.288
330.40 1.288
330.50 1.288
330.60 1.288
330.70 1.288
330.80 1.288
330.90 1.288
331.00 1.288
331.10 1.288
331.20 1.288
331.30 1.288
331.40 1.288
331.50 1.288
331.60 1.288
331.70 1.288
331.80 1.288
331.90 1.288
332.00 1.288
332.10 1.288
332.20 1.288
332.30 1.288
332.40 1.288
332.50 1.288
332.60 1.288
332.70 1.288
332.80 1.288
332.90 1.288
333.00 1.288
333.10 1.288
333.20 1.288
333.30 1.288
333.40 1.288
333.50 1.288
333.60 1.288
333.70 1.288
333.80 1.288
333.90 1.288
334.00 1.288
334.10 1.287
334.20 1.287
334.30 1.287
334.40 1.287
334.50 1.287
334.60 1.287
334.70 1.287
334.80 1.287
334.90 1.287
335.00 1.287
335.10 1.287
335.20 1.287
335.30 1.287
335.40 1.287
335.50 1.287
335.60 1.287
335.70 1.287
335.80 1.287
335.90 1.287
336.00 1.287
336.10 1.287
336.20 1.287
336.30 1.287
336.40 1.287
336.50 1.287
336.60 1.287
336.70 1.287
336.80 1.287
336.90 1.287
337.00 1.287
337.10 1.287
337.20 1.287
337.30 1.287
337.40 1.287
337.50 1.287
337.60 1.287
337.70 1.287
337.80 1.287
337.90 1.286
338.00 1.286
338.10 1.286
338.20 1.286
338.30 1.286
338.40 1.286
338.50 1.286
338.60 1.286
338.70 1.286
338.80 1.286
338.90 1.286
339.00 1.286
339.10 1.286
339.20 1.286
339.30 1.286
339.40 1.286
339.50 1.286
339.60 1.286
339.70 1.286
339.80 1.286
339.90 1.286
340.00 1.286
340.10 1.286
340.20 1.286
340.30 1.286
340.40 1.285
340.50 1.285
340.60 1.285
340.70 1.285
340.80 1.285
340.90 1.285
341.00 1.285
341.10 1.285
341.20 1.285
341.30 1.285
341.40 1.285
341.50 1.285
341.60 1.285
341.70 1.285
341.80 1.285
341.90 1.285
342.00 1.285
342.10 1.285
342.20 1.285
342.30 1.285
342.40 1.284
342.50 1.284
342.60 1.284
342.70 1.284
342.80 1.284
342.90 1.284
343.00 1.284
343.10 1.284
343.20 1.284
343.30 1.284
343.40 1.284
343.50 1.284
343.60 1.284
343.70 1.284
343.80 1.284
343.90 1.284
344.00 1.284
344.10 1.283
344.20 1.283
344.30 1.283
344.40 1.283
344.50 1.283
344.60 1.283
344.70 1.283
344.80 1.283
344.90 1.283
345.00 1.283
345.10 1.283
345.20 1.283
345.30 1.283
345.40 1.283
345.50 1.283
345.60 1.282
345.70 1.282
345.80 1.282
345.90 1.282
346.00 1.282
346.10 1.282
346.20 1.282
346.30 1.282
346.40 1.282
346.50 1.282
346.60 1.282
346.70 1.282
346.80 1.282
346.90 1.282
347.00 1.282
347.10 1.281
347.20 1.281
347.30 1.281
347.40 1.281
347.50 1.281
347.60 1.281
347.70 1.281
347.80 1.281
347.90 1.281
348.00 1.281
348.10 1.281
348.20 1.281
348.30 1.281
348.40 1.281
348.50 1.28
348.60 1.28
348.70 1.28
348.80 1.28
348.90 1.28
349.00 1.28
349.10 1.28
349.20 1.28
349.30 1.28
349.40 1.28
349.50 1.28
349.60 1.28
349.70 1.279
349.80 1.279
349.90 1.279
350.00 1.279
350.10 1.279
350.20 1.279
350.30 1.279
350.40 1.279
350.50 1.279
350.60 1.279
350.70 1.279
350.80 1.279
350.90 1.278
351.00 1.278
351.10 1.278
351.20 1.278
351.30 1.278
351.40 1.278
351.50 1.278
351.60 1.278
351.70 1.278
351.80 1.278
351.90 1.278
352.00 1.277
352.10 1.277
352.20 1.277
352.30 1.277
352.40 1.277
352.50 1.277
352.60 1.277
352.70 1.277
352.80 1.277
352.90 1.277
353.00 1.277
353.10 1.276
353.20 1.276
353.30 1.276
353.40 1.276
353.50 1.276
353.60 1.276
353.70 1.276
353.80 1.276
353.90 1.276
354.00 1.276
354.10 1.275
354.20 1.275
354.30 1.275
354.40 1.275
354.50 1.275
354.60 1.275
354.70 1.275
354.80 1.275
354.90 1.275
355.00 1.275
355.10 1.274
355.20 1.274
355.30 1.274
355.40 1.274
355.50 1.274
355.60 1.274
355.70 1.274
355.80 1.274
355.90 1.274
356.00 1.273
356.10 1.273
356.20 1.273
356.30 1.273
356.40 1.273
356.50 1.273
356.60 1.273
356.70 1.273
356.80 1.273
356.90 1.272
357.00 1.272
357.10 1.272
357.20 1.272
357.30 1.272
357.40 1.272
357.50 1.272
357.60 1.272
357.70 1.272
357.80 1.271
357.90 1.271
358.00 1.271
358.10 1.271
358.20 1.271
358.30 1.271
358.40 1.271
358.50 1.271
358.60 1.271
358.70 1.27
358.80 1.27
358.90 1.27
359.00 1.27
359.10 1.27
359.20 1.27
359.30 1.27
359.40 1.27
359.50 1.27
359.60 1.269
359.70 1.269
359.80 1.269
359.90 1.269
360.00 1.269
360.10 1.269
360.20 1.269
360.30 1.269
360.40 1.269
360.50 1.268
360.60 1.268
360.70 1.268
360.80 1.268
360.90 1.268
361.00 1.268
361.10 1.268
361.20 1.268
361.30 1.267
361.40 1.267
361.50 1.267
361.60 1.267
361.70 1.267
361.80 1.267
361.90 1.267
362.00 1.266
362.10 1.266
362.20 1.266
362.30 1.266
362.40 1.266
362.50 1.266
362.60 1.266
362.70 1.266
362.80 1.265
362.90 1.265
363.00 1.265
363.10 1.265
363.20 1.265
363.30 1.265
363.40 1.265
363.50 1.265
363.60 1.264
363.70 1.264
363.80 1.264
363.90 1.264
364.00 1.264
364.10 1.264
364.20 1.264
364.30 1.264
364.40 1.264
364.50 1.263
364.60 1.263
364.70 1.263
364.80 1.263
364.90 1.263
365.00 1.262
365.10 1.262
365.20 1.262
365.30 1.262
365.40 1.262
365.50 1.262
365.60 1.262
365.70 1.261
365.80 1.261
365.90 1.261
366.00 1.261
366.10 1.261
366.20 1.261
366.30 1.261
366.40 1.26
366.50 1.26
366.60 1.26
366.70 1.26
366.80 1.26
366.90 1.26
367.00 1.26
367.10 1.259
367.20 1.259
367.30 1.259
367.40 1.259
367.50 1.259
367.60 1.259
367.70 1.259
367.80 1.258
367.90 1.258
368.00 1.258
368.10 1.258
368.20 1.258
368.30 1.258
368.40 1.258
368.50 1.257
368.60 1.257
368.70 1.257
368.80 1.257
368.90 1.257
369.00 1.257
369.10 1.256
369.20 1.256
369.30 1.256
369.40 1.256
369.50 1.256
369.60 1.256
369.70 1.256
369.80 1.255
369.90 1.255
370.00 1.255
370.10 1.255
370.20 1.255
370.30 1.255
370.40 1.255
370.50 1.254
370.60 1.254
370.70 1.254
370.80 1.254
370.90 1.254
371.00 1.254
371.10 1.254
371.20 1.253
371.30 1.253
371.40 1.253
371.50 1.253
371.60 1.253
371.70 1.253
371.80 1.253
371.90 1.253
372.00 1.252
372.10 1.252
372.20 1.252
372.30 1.252
372.40 1.252
372.50 1.252
372.60 1.252
372.70 1.251
372.80 1.251
372.90 1.251
373.00 1.251
373.10 1.251
373.20 1.251
373.30 1.251
373.40 1.25
373.50 1.25
373.60 1.25
373.70 1.25
373.80 1.25
373.90 1.25
374.00 1.25
374.10 1.25
374.20 1.25
374.30 1.249
374.40 1.249
374.50 1.249
374.60 1.249
374.70 1.249
374.80 1.249
374.90 1.249
375.00 1.249
375.10 1.249
375.20 1.249
375.30 1.249
375.40 1.249
375.50 1.249
375.60 1.248
375.70 1.248
375.80 1.248
375.90 1.248
376.00 1.248
376.10 1.248
376.20 1.248
376.30 1.248
376.40 1.248
376.50 1.248
376.60 1.248
376.70 1.248
376.80 1.248
376.90 1.248
377.00 1.248
377.10 1.248
377.20 1.248
377.30 1.248
377.40 1.247
377.50 1.247
377.60 1.247
377.70 1.247
377.80 1.247
377.90 1.247
378.00 1.247
378.10 1.247
378.20 1.246
378.30 1.246
378.40 1.245
378.50 1.245
378.60 1.245
378.70 1.244
378.80 1.244
378.90 1.243
379.00 1.243
379.10 1.242
379.20 1.241
379.30 1.24
379.40 1.239
379.50 1.238
379.60 1.237
379.70 1.236
379.80 1.235
379.90 1.234
380.00 1.233
380.10 1.235
380.20 1.236
380.30 1.237
380.40 1.239
380.50 1.24
380.60 1.241
380.70 1.242
380.80 1.244
380.90 1.245
381.00 1.246
381.10 1.246
381.20 1.246
381.30 1.247
381.40 1.247
381.50 1.247
381.60 1.247
381.70 1.247
381.80 1.246
381.90 1.246
382.00 1.245
382.10 1.245
382.20 1.244
382.30 1.242
382.40 1.239
382.50 1.237
382.60 1.234
382.70 1.232
382.80 1.23
382.90 1.227
383.00 1.225
383.10 1.223
383.20 1.22
383.30 1.214
383.40 1.204
383.50 1.187
383.60 1.192
383.70 1.207
383.80 1.216
383.90 1.222
384.00 1.227
384.10 1.23
384.20 1.234
384.30 1.236
384.40 1.239
384.50 1.241
384.60 1.243
384.70 1.244
384.80 1.245
384.90 1.247
385.00 1.248
385.10 1.248
385.20 1.249
385.30 1.249
385.40 1.25
385.50 1.25
385.60 1.25
385.70 1.251
385.80 1.251
385.90 1.251
386.00 1.251
386.10 1.251
386.20 1.25
386.30 1.25
386.40 1.25
386.50 1.249
386.60 1.249
386.70 1.248
386.80 1.247
386.90 1.246
387.00 1.245
387.10 1.244
387.20 1.243
387.30 1.241
387.40 1.239
387.50 1.237
387.60 1.235
387.70 1.232
387.80 1.229
387.90 1.225
388.00 1.221
388.10 1.216
388.20 1.21
388.30 1.203
388.40 1.194
388.50 1.183
388.60 1.172
388.70 1.154
388.80 1.129
388.90 1.095
389.00 1.127
389.10 1.152
389.20 1.171
389.30 1.183
389.40 1.193
389.50 1.202
389.60 1.209
389.70 1.215
389.80 1.221
389.90 1.225
390.00 1.229
390.10 1.233
390.20 1.235
390.30 1.238
390.40 1.24
390.50 1.242
390.60 1.243
390.70 1.245
390.80 1.246
390.90 1.247
391.00 1.248
391.10 1.249
391.20 1.25
391.30 1.251
391.40 1.251
391.50 1.252
391.60 1.252
391.70 1.253
391.80 1.253
391.90 1.253
392.00 1.254
392.10 1.254
392.20 1.254
392.30 1.254
392.40 1.254
392.50 1.254
392.60 1.254
392.70 1.254
392.80 1.254
392.90 1.254
393.00 1.253
393.10 1.253
393.20 1.253
393.30 1.253
393.40 1.252
393.50 1.252
393.60 1.251
393.70 1.25
393.80 1.25
393.90 1.249
394.00 1.248
394.10 1.247
394.20 1.246
394.30 1.245
394.40 1.244
394.50 1.243
394.60 1.242
394.70 1.24
394.80 1.238
394.90 1.236
395.00 1.234
395.10 1.232
395.20 1.23
395.30 1.227
395.40 1.224
395.50 1.22
395.60 1.216
395.70 1.212
395.80 1.207
395.90 1.201
396.00 1.194
396.10 1.186
396.20 1.176
396.30 1.165
396.40 1.152
396.50 1.134
396.60 1.113
396.70 1.089
396.80 1.054
396.90 1.001
397.00 0.9301
397.10 0.9961
397.20 1.048
397.30 1.084
397.40 1.109
397.50 1.13
397.60 1.149
397.70 1.162
397.80 1.174
397.90 1.184
398.00 1.191
398.10 1.198
398.20 1.204
398.30 1.209
398.40 1.213
398.50 1.217
398.60 1.22
398.70 1.223
398.80 1.226
398.90 1.228
399.00 1.23
399.10 1.232
399.20 1.234
399.30 1.235
399.40 1.237
399.50 1.238
399.60 1.239
399.70 1.24
399.80 1.241
399.90 1.242
400.00 1.243
400.10 1.243
400.20 1.244
400.30 1.244
400.40 1.245
400.50 1.245
400.60 1.246
400.70 1.246
400.80 1.246
400.90 1.247
401.00 1.247
401.10 1.247
401.20 1.247
401.30 1.247
401.40 1.247
401.50 1.247
401.60 1.248
401.70 1.248
401.80 1.248
401.90 1.248
402.00 1.248
402.10 1.248
402.20 1.248
402.30 1.248
402.40 1.247
402.50 1.247
402.60 1.247
402.70 1.247
402.80 1.247
402.90 1.247
403.00 1.247
403.10 1.247
403.20 1.247
403.30 1.246
403.40 1.246
403.50 1.246
403.60 1.246
403.70 1.245
403.80 1.245
403.90 1.245
404.00 1.245
404.10 1.245
404.20 1.244
404.30 1.244
404.40 1.244
404.50 1.243
404.60 1.243
404.70 1.243
404.80 1.242
404.90 1.242
405.00 1.242
405.10 1.241
405.20 1.241
405.30 1.24
405.40 1.24
405.50 1.239
405.60 1.239
405.70 1.238
405.80 1.238
405.90 1.237
406.00 1.236
406.10 1.236
406.20 1.235
406.30 1.234
406.40 1.233
406.50 1.232
406.60 1.232
406.70 1.231
406.80 1.229
406.90 1.228
407.00 1.227
407.10 1.226
407.20 1.224
407.30 1.223
407.40 1.221
407.50 1.219
407.60 1.217
407.70 1.215
407.80 1.213
407.90 1.21
408.00 1.208
408.10 1.205
408.20 1.201
408.30 1.197
408.40 1.194
408.50 1.189
408.60 1.184
408.70 1.178
408.80 1.172
408.90 1.165
409.00 1.157
409.10 1.147
409.20 1.137
409.30 1.124
409.40 1.109
409.50 1.09
409.60 1.068
409.70 1.038
409.80 1
409.90 0.956
410.00 0.8865
410.10 0.8092
410.20 0.7243
410.30 0.8392
410.40 0.9252
410.50 0.9823
410.60 1.021
410.70 1.053
410.80 1.08
410.90 1.099
411.00 1.115
411.10 1.129
411.20 1.14
411.30 1.149
411.40 1.158
411.50 1.164
411.60 1.171
411.70 1.176
411.80 1.181
411.90 1.185
412.00 1.189
412.10 1.193
412.20 1.196
412.30 1.199
412.40 1.201
412.50 1.203
412.60 1.205
412.70 1.207
412.80 1.209
412.90 1.21
413.00 1.211
413.10 1.213
413.20 1.214
413.30 1.215
413.40 1.215
413.50 1.216
413.60 1.217
413.70 1.217
413.80 1.218
413.90 1.218
414.00 1.219
414.10 1.219
414.20 1.22
414.30 1.22
414.40 1.22
414.50 1.22
414.60 1.221
414.70 1.221
414.80 1.221
414.90 1.221
415.00 1.221
415.10 1.221
415.20 1.221
415.30 1.221
415.40 1.221
415.50 1.221
415.60 1.221
415.70 1.221
415.80 1.221
415.90 1.221
416.00 1.221
416.10 1.221
416.20 1.221
416.30 1.221
416.40 1.221
416.50 1.221
416.60 1.221
416.70 1.221
416.80 1.22
416.90 1.22
417.00 1.22
417.10 1.22
417.20 1.22
417.30 1.22
417.40 1.22
417.50 1.219
417.60 1.219
417.70 1.219
417.80 1.219
417.90 1.219
418.00 1.219
418.10 1.218
418.20 1.218
418.30 1.218
418.40 1.218
418.50 1.218
418.60 1.218
418.70 1.217
418.80 1.217
418.90 1.217
419.00 1.217
419.10 1.216
419.20 1.216
419.30 1.216
419.40 1.216
419.50 1.216
419.60 1.215
419.70 1.215
419.80 1.215
419.90 1.215
420.00 1.215
420.10 1.214
420.20 1.214
420.30 1.214
420.40 1.214
420.50 1.213
420.60 1.213
420.70 1.213
420.80 1.213
420.90 1.212
421.00 1.212
421.10 1.212
421.20 1.212
421.30 1.212
421.40 1.211
421.50 1.211
421.60 1.211
421.70 1.211
421.80 1.21
421.90 1.21
422.00 1.21
422.10 1.21
422.20 1.209
422.30 1.209
422.40 1.209
422.50 1.209
422.60 1.208
422.70 1.208
422.80 1.208
422.90 1.208
423.00 1.207
423.10 1.207
423.20 1.207
423.30 1.206
423.40 1.206
423.50 1.206
423.60 1.206
423.70 1.205
423.80 1.205
423.90 1.205
424.00 1.205
424.10 1.204
424.20 1.204
424.30 1.204
424.40 1.203
424.50 1.203
424.60 1.203
424.70 1.203
424.80 1.202
424.90 1.202
425.00 1.202
425.10 1.202
425.20 1.201
425.30 1.201
425.40 1.201
425.50 1.2
425.60 1.2
425.70 1.2
425.80 1.199
425.90 1.199
426.00 1.199
426.10 1.198
426.20 1.198
426.30 1.198
426.40 1.197
426.50 1.197
426.60 1.197
426.70 1.196
426.80 1.196
426.90 1.196
427.00 1.195
427.10 1.195
427.20 1.195
427.30 1.194
427.40 1.194
427.50 1.194
427.60 1.193
427.70 1.193
427.80 1.192
427.90 1.192
428.00 1.191
428.10 1.191
428.20 1.191
428.30 1.19
428.40 1.19
428.50 1.189
428.60 1.189
428.70 1.188
428.80 1.188
428.90 1.187
429.00 1.186
429.10 1.186
429.20 1.185
429.30 1.185
429.40 1.184
429.50 1.183
429.60 1.183
429.70 1.182
429.80 1.181
429.90 1.18
430.00 1.179
430.10 1.178
430.20 1.177
430.30 1.176
430.40 1.175
430.50 1.174
430.60 1.173
430.70 1.172
430.80 1.17
430.90 1.169
431.00 1.167
431.10 1.165
431.20 1.164
431.30 1.162
431.40 1.16
431.50 1.157
431.60 1.155
431.70 1.152
431.80 1.149
431.90 1.146
432.00 1.142
432.10 1.138
432.20 1.133
432.30 1.128
432.40 1.122
432.50 1.115
432.60 1.108
432.70 1.1
432.80 1.089
432.90 1.078
433.00 1.066
433.10 1.052
433.20 1.035
433.30 1.017
433.40 0.9922
433.50 0.962
433.60 0.9262
433.70 0.87
433.80 0.7967
433.90 0.7062
434.00 0.5485
434.10 0.5517
434.20 0.7155
434.30 0.8032
434.40 0.8743
434.50 0.9288
434.60 0.9634
434.70 0.9925
434.80 1.016
434.90 1.034
435.00 1.05
435.10 1.064
435.20 1.075
435.30 1.086
435.40 1.095
435.50 1.103
435.60 1.11
435.70 1.116
435.80 1.121
435.90 1.126
436.00 1.13
436.10 1.133
436.20 1.136
436.30 1.139
436.40 1.141
436.50 1.144
436.60 1.146
436.70 1.147
436.80 1.149
436.90 1.15
437.00 1.152
437.10 1.153
437.20 1.154
437.30 1.155
437.40 1.155
437.50 1.156
437.60 1.157
437.70 1.157
437.80 1.158
437.90 1.159
438.00 1.159
438.10 1.159
438.20 1.16
438.30 1.16
438.40 1.16
438.50 1.16
438.60 1.161
438.70 1.161
438.80 1.161
438.90 1.161
439.00 1.161
439.10 1.161
439.20 1.161
439.30 1.161
439.40 1.161
439.50 1.161
439.60 1.161
439.70 1.161
439.80 1.161
439.90 1.161
440.00 1.161
440.10 1.161
440.20 1.161
440.30 1.161
440.40 1.161
440.50 1.16
440.60 1.16
440.70 1.16
440.80 1.16
440.90 1.16
441.00 1.16
441.10 1.16
441.20 1.159
441.30 1.159
441.40 1.159
441.50 1.159
441.60 1.159
441.70 1.159
441.80 1.158
441.90 1.158
442.00 1.158
442.10 1.158
442.20 1.158
442.30 1.157
442.40 1.157
442.50 1.157
442.60 1.157
442.70 1.157
442.80 1.156
442.90 1.156
443.00 1.156
443.10 1.156
443.20 1.156
443.30 1.155
443.40 1.155
443.50 1.155
443.60 1.155
443.70 1.154
443.80 1.154
443.90 1.154
444.00 1.154
444.10 1.153
444.20 1.153
444.30 1.153
444.40 1.153
444.50 1.153
444.60 1.152
444.70 1.152
444.80 1.152
444.90 1.152
445.00 1.151
445.10 1.151
445.20 1.151
445.30 1.151
445.40 1.15
445.50 1.15
445.60 1.15
445.70 1.15
445.80 1.149
445.90 1.149
446.00 1.149
446.10 1.149
446.20 1.148
446.30 1.148
446.40 1.148
446.50 1.148
446.60 1.147
446.70 1.147
446.80 1.147
446.90 1.147
447.00 1.146
447.10 1.146
447.20 1.146
447.30 1.146
447.40 1.145
447.50 1.145
447.60 1.145
447.70 1.145
447.80 1.144
447.90 1.144
448.00 1.144
448.10 1.144
448.20 1.143
448.30 1.143
448.40 1.143
448.50 1.143
448.60 1.142
448.70 1.142
448.80 1.142
448.90 1.141
449.00 1.141
449.10 1.141
449.20 1.141
449.30 1.14
449.40 1.14
449.50 1.14
449.60 1.14
449.70 1.139
449.80 1.139
449.90 1.139
450.00 1.139
450.10 1.138
450.20 1.138
450.30 1.138
450.40 1.138
450.50 1.137
450.60 1.137
450.70 1.137
450.80 1.137
450.90 1.136
451.00 1.136
451.10 1.136
451.20 1.136
451.30 1.135
451.40 1.135
451.50 1.135
451.60 1.134
451.70 1.134
451.80 1.134
451.90 1.134
452.00 1.133
452.10 1.133
452.20 1.133
452.30 1.133
452.40 1.132
452.50 1.132
452.60 1.132
452.70 1.131
452.80 1.131
452.90 1.131
453.00 1.131
453.10 1.13
453.20 1.13
453.30 1.13
453.40 1.13
453.50 1.129
453.60 1.129
453.70 1.129
453.80 1.129
453.90 1.128
454.00 1.128
454.10 1.128
454.20 1.127
454.30 1.127
454.40 1.127
454.50 1.127
454.60 1.126
454.70 1.126
454.80 1.126
454.90 1.126
455.00 1.125
455.10 1.125
455.20 1.125
455.30 1.124
455.40 1.124
455.50 1.124
455.60 1.124
455.70 1.123
455.80 1.123
455.90 1.123
456.00 1.123
456.10 1.122
456.20 1.122
456.30 1.122
456.40 1.122
456.50 1.121
456.60 1.121
456.70 1.121
456.80 1.12
456.90 1.12
457.00 1.12
457.10 1.12
457.20 1.119
457.30 1.119
457.40 1.119
457.50 1.118
457.60 1.118
457.70 1.118
457.80 1.118
457.90 1.117
458.00 1.117
458.10 1.117
458.20 1.117
458.30 1.116
458.40 1.116
458.50 1.116
458.60 1.115
458.70 1.115
458.80 1.115
458.90 1.115
459.00 1.114
459.10 1.114
459.20 1.114
459.30 1.114
459.40 1.113
459.50 1.113
459.60 1.113
459.70 1.112
459.80 1.112
459.90 1.112
460.00 1.112
460.10 1.111
460.20 1.111
460.30 1.111
460.40 1.11
460.50 1.11
460.60 1.11
460.70 1.11
460.80 1.109
460.90 1.109
461.00 1.109
461.10 1.109
461.20 1.108
461.30 1.108
461.40 1.108
461.50 1.107
461.60 1.107
461.70 1.107
461.80 1.107
461.90 1.106
462.00 1.106
462.10 1.106
462.20 1.106
462.30 1.105
462.40 1.105
462.50 1.105
462.60 1.104
462.70 1.104
462.80 1.104
462.90 1.104
463.00 1.103
463.10 1.103
463.20 1.103
463.30 1.102
463.40 1.102
463.50 1.102
463.60 1.102
463.70 1.101
463.80 1.101
463.90 1.101
464.00 1.1
464.10 1.1
464.20 1.1
464.30 1.1
464.40 1.099
464.50 1.099
464.60 1.099
464.70 1.099
464.80 1.098
464.90 1.098
465.00 1.098
465.10 1.097
465.20 1.097
465.30 1.097
465.40 1.097
465.50 1.096
465.60 1.096
465.70 1.096
465.80 1.095
465.90 1.095
466.00 1.095
466.10 1.095
466.20 1.094
466.30 1.094
466.40 1.094
466.50 1.093
466.60 1.093
466.70 1.093
466.80 1.093
466.90 1.092
467.00 1.092
467.10 1.092
467.20 1.092
467.30 1.091
467.40 1.091
467.50 1.091
467.60 1.09
467.70 1.09
467.80 1.09
467.90 1.089
468.00 1.089
468.10 1.089
468.20 1.089
468.30 1.088
468.40 1.088
468.50 1.088
468.60 1.087
468.70 1.087
468.80 1.087
468.90 1.087
469.00 1.086
469.10 1.086
469.20 1.086
469.30 1.085
469.40 1.085
469.50 1.085
469.60 1.085
469.70 1.084
469.80 1.084
469.90 1.084
470.00 1.083
470.10 1.083
470.20 1.083
470.30 1.083
470.40 1.082
470.50 1.082
470.60 1.082
470.70 1.081
470.80 1.081
470.90 1.081
471.00 1.08
471.10 1.08
471.20 1.08
471.30 1.08
471.40 1.079
471.50 1.079
471.60 1.079
471.70 1.078
471.80 1.078
471.90 1.078
472.00 1.077
472.10 1.077
472.20 1.077
472.30 1.077
472.40 1.076
472.50 1.076
472.60 1.076
472.70 1.075
472.80 1.075
472.90 1.075
473.00 1.074
473.10 1.074
473.20 1.074
473.30 1.074
473.40 1.073
473.50 1.073
473.60 1.073
473.70 1.072
473.80 1.072
473.90 1.072
474.00 1.071
474.10 1.071
474.20 1.071
474.30 1.07
474.40 1.07
474.50 1.07
474.60 1.069
474.70 1.069
474.80 1.069
474.90 1.068
475.00 1.068
475.10 1.068
475.20 1.068
475.30 1.067
475.40 1.067
475.50 1.067
475.60 1.066
475.70 1.066
475.80 1.066
475.90 1.065
476.00 1.065
476.10 1.065
476.20 1.064
476.30 1.064
476.40 1.064
476.50 1.063
476.60 1.063
476.70 1.063
476.80 1.062
476.90 1.062
477.00 1.062
477.10 1.061
477.20 1.061
477.30 1.06
477.40 1.06
477.50 1.06
477.60 1.059
477.70 1.059
477.80 1.059
477.90 1.058
478.00 1.058
478.10 1.058
478.20 1.057
478.30 1.057
478.40 1.056
478.50 1.056
478.60 1.055
478.70 1.055
478.80 1.055
478.90 1.054
479.00 1.054
479.10 1.053
479.20 1.053
479.30 1.052
479.40 1.052
479.50 1.051
479.60 1.051
479.70 1.051
479.80 1.05
479.90 1.05
480.00 1.049
480.10 1.049
480.20 1.048
480.30 1.047
480.40 1.047
480.50 1.046
480.60 1.046
480.70 1.045
480.80 1.044
480.90 1.044
481.00 1.043
481.10 1.042
481.20 1.042
481.30 1.041
481.40 1.04
481.50 1.039
481.60 1.038
481.70 1.037
481.80 1.036
481.90 1.035
482.00 1.035
482.10 1.034
482.20 1.032
482.30 1.031
482.40 1.029
482.50 1.028
482.60 1.026
482.70 1.025
482.80 1.024
482.90 1.022
483.00 1.021
483.10 1.019
483.20 1.017
483.30 1.013
483.40 1.01
483.50 1.007
483.60 1.004
483.70 1.001
483.80 0.9982
483.90 0.9951
484.00 0.9921
484.10 0.989
484.20 0.9839
484.30 0.9778
484.40 0.9717
484.50 0.9657
484.60 0.9596
484.70 0.9501
484.80 0.9391
484.90 0.9281
485.00 0.9171
485.10 0.9061
485.20 0.8906
485.30 0.873
485.40 0.8506
485.50 0.826
485.60 0.7924
485.70 0.7546
485.80 0.6969
485.90 0.6299
486.00 0.5368
486.10 0.409
486.20 0.4543
486.30 0.5741
486.40 0.6514
486.50 0.7191
486.60 0.7663
486.70 0.8038
486.80 0.8323
486.90 0.8566
487.00 0.876
487.10 0.8932
487.20 0.9058
487.30 0.9163
487.40 0.9268
487.50 0.9372
487.60 0.9477
487.70 0.9548
487.80 0.9603
487.90 0.9658
488.00 0.9714
488.10 0.9769
488.20 0.9803
488.30 0.9828
488.40 0.9853
488.50 0.9878
488.60 0.9902
488.70 0.9927
488.80 0.9952
488.90 0.9976
489.00 1
489.10 1.003
489.20 1.004
489.30 1.005
489.40 1.006
489.50 1.007
489.60 1.008
489.70 1.008
489.80 1.009
489.90 1.01
490.00 1.011
490.10 1.012
490.20 1.012
490.30 1.013
490.40 1.013
490.50 1.013
490.60 1.014
490.70 1.014
490.80 1.014
490.90 1.015
491.00 1.015
491.10 1.015
491.20 1.015
491.30 1.015
491.40 1.016
491.50 1.016
491.60 1.016
491.70 1.016
491.80 1.016
491.90 1.016
492.00 1.016
492.10 1.016
492.20 1.016
492.30 1.016
492.40 1.016
492.50 1.016
492.60 1.015
492.70 1.015
492.80 1.015
492.90 1.015
493.00 1.015
493.10 1.015
493.20 1.015
493.30 1.015
493.40 1.015
493.50 1.014
493.60 1.014
493.70 1.014
493.80 1.014
493.90 1.014
494.00 1.014
494.10 1.014
494.20 1.013
494.30 1.013
494.40 1.013
494.50 1.013
494.60 1.013
494.70 1.012
494.80 1.012
494.90 1.012
495.00 1.012
495.10 1.012
495.20 1.011
495.30 1.011
495.40 1.011
495.50 1.011
495.60 1.011
495.70 1.01
495.80 1.01
495.90 1.01
496.00 1.01
496.10 1.01
496.20 1.009
496.30 1.009
496.40 1.009
496.50 1.009
496.60 1.008
496.70 1.008
496.80 1.008
496.90 1.008
497.00 1.007
497.10 1.007
497.20 1.007
497.30 1.007
497.40 1.006
497.50 1.006
497.60 1.006
497.70 1.006
497.80 1.006
497.90 1.005
498.00 1.005
498.10 1.005
498.20 1.005
498.30 1.004
498.40 1.004
498.50 1.004
498.60 1.004
498.70 1.003
498.80 1.003
498.90 1.003
499.00 1.003
499.10 1.002
499.20 1.002
499.30 1.002
499.40 1.002
499.50 1.001
499.60 1.001
499.70 1.001
499.80 1.001
499.90 1
500.00 1
500.10 0.9997
500.20 0.9995
500.30 0.9992
500.40 0.999
500.50 0.9987
500.60 0.9985
500.70 0.9982
500.80 0.998
500.90 0.9977
501.00 0.9975
501.10 0.9972
501.20 0.997
501.30 0.9967
501.40 0.9964
501.50 0.9962
501.60 0.9959
501.70 0.9956
501.80 0.9954
501.90 0.9951
502.00 0.9949
502.10 0.9946
502.20 0.9943
502.30 0.9941
502.40 0.9938
502.50 0.9935
502.60 0.9933
502.70 0.993
502.80 0.9928
502.90 0.9925
503.00 0.9922
503.10 0.992
503.20 0.9917
503.30 0.9915
503.40 0.9912
503.50 0.9909
503.60 0.9907
503.70 0.9904
503.80 0.9902
503.90 0.9899
504.00 0.9896
504.10 0.9894
504.20 0.9891
504.30 0.9888
504.40 0.9886
504.50 0.9883
504.60 0.988
504.70 0.9877
504.80 0.9875
504.90 0.9872
505.00 0.9869
505.10 0.9867
505.20 0.9864
505.30 0.9861
505.40 0.9859
505.50 0.9856
505.60 0.9853
505.70 0.9851
505.80 0.9848
505.90 0.9845
506.00 0.9843
506.10 0.984
506.20 0.9838
506.30 0.9835
506.40 0.9832
506.50 0.9829
506.60 0.9827
506.70 0.9824
506.80 0.9821
506.90 0.9818
507.00 0.9816
507.10 0.9813
507.20 0.981
507.30 0.9807
507.40 0.9805
507.50 0.9802
507.60 0.9799
507.70 0.9797
507.80 0.9794
507.90 0.9791
508.00 0.9789
508.10 0.9786
508.20 0.9783
508.30 0.9781
508.40 0.9778
508.50 0.9775
508.60 0.9773
508.70 0.977
508.80 0.9767
508.90 0.9764
509.00 0.9762
509.10 0.9759
509.20 0.9756
509.30 0.9753
509.40 0.9751
509.50 0.9748
509.60 0.9745
509.70 0.9742
509.80 0.974
509.90 0.9737
510.00 0.9734
510.10 0.9731
510.20 0.9729
510.30 0.9726
510.40 0.9723
510.50 0.9721
510.60 0.9718
510.70 0.9715
510.80 0.9712
510.90 0.971
511.00 0.9707
511.10 0.9704
511.20 0.9702
511.30 0.9699
511.40 0.9696
511.50 0.9694
511.60 0.9691
511.70 0.9688
511.80 0.9685
511.90 0.9683
512.00 0.968
512.10 0.9677
512.20 0.9674
512.30 0.9672
512.40 0.9669
512.50 0.9666
512.60 0.9664
512.70 0.9661
512.80 0.9658
512.90 0.9656
513.00 0.9653
513.10 0.965
513.20 0.9648
513.30 0.9645
513.40 0.9642
513.50 0.964
513.60 0.9637
513.70 0.9634
513.80 0.9632
513.90 0.9629
514.00 0.9626
514.10 0.9623
514.20 0.9621
514.30 0.9618
514.40 0.9615
514.50 0.9612
514.60 0.961
514.70 0.9607
514.80 0.9604
514.90 0.9601
515.00 0.9599
515.10 0.9596
515.20 0.9593
515.30 0.9591
515.40 0.9588
515.50 0.9585
515.60 0.9583
515.70 0.958
515.80 0.9577
515.90 0.9574
516.00 0.9572
516.10 0.9569
516.20 0.9566
516.30 0.9564
516.40 0.9561
516.50 0.9558
516.60 0.9556
516.70 0.9553
516.80 0.955
516.90 0.9548
517.00 0.9545
517.10 0.9542
517.20 0.954
517.30 0.9537
517.40 0.9534
517.50 0.9532
517.60 0.9529
517.70 0.9526
517.80 0.9524
517.90 0.9521
518.00 0.9518
518.10 0.9515
518.20 0.9513
518.30 0.951
518.40 0.9507
518.50 0.9505
518.60 0.9502
518.70 0.9499
518.80 0.9497
518.90 0.9494
519.00 0.9491
519.10 0.9488
519.20 0.9486
519.30 0.9483
519.40 0.948
519.50 0.9478
519.60 0.9475
519.70 0.9472
519.80 0.947
519.90 0.9467
520.00 0.9464
520.10 0.9462
520.20 0.9459
520.30 0.9456
520.40 0.9453
520.50 0.9451
520.60 0.9448
520.70 0.9445
520.80 0.9443
520.90 0.944
521.00 0.9437
521.10 0.9434
521.20 0.9432
521.30 0.9429
521.40 0.9426
521.50 0.9424
521.60 0.9421
521.70 0.9418
521.80 0.9416
521.90 0.9413
522.00 0.9411
522.10 0.9408
522.20 0.9405
522.30 0.9402
522.40 0.94
522.50 0.9397
522.60 0.9394
522.70 0.9392
522.80 0.9389
522.90 0.9386
523.00 0.9384
523.10 0.9381
523.20 0.9378
523.30 0.9376
523.40 0.9373
523.50 0.937
523.60 0.9368
523.70 0.9365
523.80 0.9362
523.90 0.936
524.00 0.9357
524.10 0.9355
524.20 0.9352
524.30 0.9349
524.40 0.9347
524.50 0.9344
524.60 0.9341
524.70 0.9339
524.80 0.9336
524.90 0.9333
525.00 0.9331
525.10 0.9328
525.20 0.9325
525.30 0.9322
525.40 0.932
525.50 0.9317
525.60 0.9314
525.70 0.9312
525.80 0.9309
525.90 0.9306
526.00 0.9304
526.10 0.9301
526.20 0.9298
526.30 0.9296
526.40 0.9293
526.50 0.929
526.60 0.9288
526.70 0.9285
526.80 0.9282
526.90 0.928
527.00 0.9277
527.10 0.9274
527.20 0.9272
527.30 0.9269
527.40 0.9266
527.50 0.9264
527.60 0.9261
527.70 0.9259
527.80 0.9256
527.90 0.9253
528.00 0.9251
528.10 0.9248
528.20 0.9245
528.30 0.9243
528.40 0.924
528.50 0.9237
528.60 0.9235
528.70 0.9232
528.80 0.9229
528.90 0.9227
529.00 0.9224
529.10 0.9221
529.20 0.9219
529.30 0.9216
529.40 0.9213
529.50 0.9211
529.60 0.9208
529.70 0.9205
529.80 0.9203
529.90 0.92
530.00 0.9197
530.10 0.9195
530.20 0.9192
530.30 0.919
530.40 0.9187
530.50 0.9184
530.60 0.9182
530.70 0.9179
530.80 0.9176
530.90 0.9174
531.00 0.9171
531.10 0.9168
531.20 0.9166
531.30 0.9163
531.40 0.916
531.50 0.9158
531.60 0.9155
531.70 0.9153
531.80 0.915
531.90 0.9147
532.00 0.9145
532.10 0.9142
532.20 0.9139
532.30 0.9137
532.40 0.9134
532.50 0.9132
532.60 0.9129
532.70 0.9126
532.80 0.9124
532.90 0.9121
533.00 0.9119
533.10 0.9116
533.20 0.9113
533.30 0.9111
533.40 0.9108
533.50 0.9105
533.60 0.9103
533.70 0.91
533.80 0.9097
533.90 0.9095
534.00 0.9092
534.10 0.9089
534.20 0.9087
534.30 0.9084
534.40 0.9082
534.50 0.9079
534.60 0.9076
534.70 0.9074
534.80 0.9071
534.90 0.9069
535.00 0.9066
535.10 0.9063
535.20 0.9061
535.30 0.9058
535.40 0.9056
535.50 0.9053
535.60 0.905
535.70 0.9048
535.80 0.9045
535.90 0.9042
536.00 0.904
536.10 0.9037
536.20 0.9034
536.30 0.9032
536.40 0.9029
536.50 0.9027
536.60 0.9024
536.70 0.9021
536.80 0.9019
536.90 0.9016
537.00 0.9014
537.10 0.9011
537.20 0.9008
537.30 0.9006
537.40 0.9003
537.50 0.9
537.60 0.8998
537.70 0.8995
537.80 0.8993
537.90 0.899
538.00 0.8987
538.10 0.8985
538.20 0.8982
538.30 0.898
538.40 0.8977
538.50 0.8974
538.60 0.8972
538.70 0.8969
538.80 0.8966
538.90 0.8964
539.00 0.8961
539.10 0.8958
539.20 0.8956
539.30 0.8953
539.40 0.8951
539.50 0.8948
539.60 0.8946
539.70 0.8943
539.80 0.894
539.90 0.8938
540.00 0.8935
540.10 0.8933
540.20 0.893
540.30 0.8927
540.40 0.8925
540.50 0.8922
540.60 0.892
540.70 0.8917
540.80 0.8914
540.90 0.8912
541.00 0.8909
541.10 0.8906
541.20 0.8904
541.30 0.8901
541.40 0.8899
541.50 0.8896
541.60 0.8893
541.70 0.8891
541.80 0.8888
541.90 0.8886
542.00 0.8883
542.10 0.888
542.20 0.8878
542.30 0.8875
542.40 0.8873
542.50 0.887
542.60 0.8868
542.70 0.8865
542.80 0.8863
542.90 0.886
543.00 0.8858
543.10 0.8855
543.20 0.8852
543.30 0.885
543.40 0.8847
543.50 0.8845
543.60 0.8842
543.70 0.884
543.80 0.8837
543.90 0.8834
544.00 0.8832
544.10 0.8829
544.20 0.8827
544.30 0.8824
544.40 0.8821
544.50 0.8819
544.60 0.8816
544.70 0.8814
544.80 0.8811
544.90 0.8808
545.00 0.8806
545.10 0.8803
545.20 0.8801
545.30 0.8798
545.40 0.8795
545.50 0.8793
545.60 0.879
545.70 0.8788
545.80 0.8785
545.90 0.8783
546.00 0.878
546.10 0.8778
546.20 0.8775
546.30 0.8772
546.40 0.877
546.50 0.8767
546.60 0.8765
546.70 0.8762
546.80 0.876
546.90 0.8757
547.00 0.8755
547.10 0.8752
547.20 0.875
547.30 0.8747
547.40 0.8744
547.50 0.8742
547.60 0.8739
547.70 0.8737
547.80 0.8734
547.90 0.8732
548.00 0.8729
548.10 0.8726
548.20 0.8724
548.30 0.8721
548.40 0.8719
548.50 0.8716
548.60 0.8714
548.70 0.8711
548.80 0.8708
548.90 0.8706
549.00 0.8703
549.10 0.8701
549.20 0.8698
549.30 0.8696
549.40 0.8693
549.50 0.8691
549.60 0.8688
549.70 0.8685
549.80 0.8683
549.90 0.868
550.00 0.8678
550.10 0.8675
550.20 0.8673
550.30 0.867
550.40 0.8668
550.50 0.8665
550.60 0.8663
550.70 0.866
550.80 0.8657
550.90 0.8655
551.00 0.8652
551.10 0.865
551.20 0.8647
551.30 0.8645
551.40 0.8642
551.50 0.864
551.60 0.8637
551.70 0.8635
551.80 0.8632
551.90 0.863
552.00 0.8627
552.10 0.8625
552.20 0.8622
552.30 0.8619
552.40 0.8617
552.50 0.8614
552.60 0.8612
552.70 0.8609
552.80 0.8607
552.90 0.8604
553.00 0.8601
553.10 0.8599
553.20 0.8596
553.30 0.8594
553.40 0.8591
553.50 0.8589
553.60 0.8586
553.70 0.8584
553.80 0.8581
553.90 0.8579
554.00 0.8576
554.10 0.8574
554.20 0.8571
554.30 0.8569
554.40 0.8566
554.50 0.8564
554.60 0.8561
554.70 0.8559
554.80 0.8556
554.90 0.8554
555.00 0.8551
555.10 0.8549
555.20 0.8546
555.30 0.8543
555.40 0.8541
555.50 0.8538
555.60 0.8536
555.70 0.8533
555.80 0.8531
555.90 0.8528
556.00 0.8526
556.10 0.8523
556.20 0.8521
556.30 0.8518
556.40 0.8516
556.50 0.8513
556.60 0.8511
556.70 0.8508
556.80 0.8506
556.90 0.8503
557.00 0.8501
557.10 0.8498
557.20 0.8496
557.30 0.8493
557.40 0.8491
557.50 0.8488
557.60 0.8486
557.70 0.8483
557.80 0.8481
557.90 0.8478
558.00 0.8476
558.10 0.8473
558.20 0.8471
558.30 0.8468
558.40 0.8466
558.50 0.8463
558.60 0.8461
558.70 0.8458
558.80 0.8456
558.90 0.8453
559.00 0.8451
559.10 0.8448
559.20 0.8446
559.30 0.8443
559.40 0.8441
559.50 0.8438
559.60 0.8436
559.70 0.8433
559.80 0.8431
559.90 0.8428
560.00 0.8425
560.10 0.8423
560.20 0.842
560.30 0.8418
560.40 0.8416
560.50 0.8413
560.60 0.8411
560.70 0.8408
560.80 0.8406
560.90 0.8403
561.00 0.8401
561.10 0.8398
561.20 0.8396
561.30 0.8393
561.40 0.8391
561.50 0.8388
561.60 0.8386
561.70 0.8383
561.80 0.8381
561.90 0.8378
562.00 0.8376
562.10 0.8373
562.20 0.8371
562.30 0.8368
562.40 0.8366
562.50 0.8363
562.60 0.8361
562.70 0.8358
562.80 0.8356
562.90 0.8353
563.00 0.8351
563.10 0.8348
563.20 0.8346
563.30 0.8343
563.40 0.8341
563.50 0.8339
563.60 0.8336
563.70 0.8334
563.80 0.8331
563.90 0.8329
564.00 0.8326
564.10 0.8324
564.20 0.8321
564.30 0.8319
564.40 0.8316
564.50 0.8314
564.60 0.8311
564.70 0.8309
564.80 0.8306
564.90 0.8304
565.00 0.8302
565.10 0.8299
565.20 0.8297
565.30 0.8294
565.40 0.8292
565.50 0.8289
565.60 0.8287
565.70 0.8284
565.80 0.8282
565.90 0.8279
566.00 0.8277
566.10 0.8275
566.20 0.8272
566.30 0.827
566.40 0.8267
566.50 0.8265
566.60 0.8262
566.70 0.826
566.80 0.8257
566.90 0.8255
567.00 0.8252
567.10 0.825
567.20 0.8247
567.30 0.8245
567.40 0.8242
567.50 0.824
567.60 0.8238
567.70 0.8235
567.80 0.8233
567.90 0.823
568.00 0.8228
568.10 0.8225
568.20 0.8223
568.30 0.8221
568.40 0.8218
568.50 0.8216
568.60 0.8213
568.70 0.8211
568.80 0.8208
568.90 0.8206
569.00 0.8203
569.10 0.8201
569.20 0.8198
569.30 0.8196
569.40 0.8193
569.50 0.8191
569.60 0.8189
569.70 0.8186
569.80 0.8184
569.90 0.8181
570.00 0.8179
570.10 0.8176
570.20 0.8174
570.30 0.8171
570.40 0.8169
570.50 0.8167
570.60 0.8164
570.70 0.8162
570.80 0.8159
570.90 0.8157
571.00 0.8154
571.10 0.8152
571.20 0.815
571.30 0.8147
571.40 0.8145
571.50 0.8142
571.60 0.814
571.70 0.8137
571.80 0.8135
571.90 0.8133
572.00 0.813
572.10 0.8128
572.20 0.8125
572.30 0.8123
572.40 0.812
572.50 0.8118
572.60 0.8116
572.70 0.8113
572.80 0.8111
572.90 0.8108
573.00 0.8106
573.10 0.8104
573.20 0.8101
573.30 0.8099
573.40 0.8096
573.50 0.8094
573.60 0.8092
573.70 0.8089
573.80 0.8087
573.90 0.8084
574.00 0.8082
574.10 0.808
574.20 0.8077
574.30 0.8075
574.40 0.8072
574.50 0.807
574.60 0.8067
574.70 0.8065
574.80 0.8062
574.90 0.806
575.00 0.8058
575.10 0.8055
575.20 0.8053
575.30 0.805
575.40 0.8048
575.50 0.8046
575.60 0.8043
575.70 0.8041
575.80 0.8039
575.90 0.8036
576.00 0.8034
576.10 0.8031
576.20 0.8029
576.30 0.8027
576.40 0.8024
576.50 0.8022
576.60 0.8019
576.70 0.8017
576.80 0.8014
576.90 0.8012
577.00 0.801
577.10 0.8007
577.20 0.8005
577.30 0.8002
577.40 0.8
577.50 0.7998
577.60 0.7995
577.70 0.7993
577.80 0.799
577.90 0.7988
578.00 0.7986
578.10 0.7983
578.20 0.7981
578.30 0.7978
578.40 0.7976
578.50 0.7974
578.60 0.7971
578.70 0.7969
578.80 0.7967
578.90 0.7964
579.00 0.7962
579.10 0.7959
579.20 0.7957
579.30 0.7955
579.40 0.7952
579.50 0.795
579.60 0.7947
579.70 0.7945
579.80 0.7943
579.90 0.794
580.00 0.7938
580.10 0.7936
580.20 0.7933
580.30 0.7931
580.40 0.7928
580.50 0.7926
580.60 0.7924
580.70 0.7921
580.80 0.7919
580.90 0.7917
581.00 0.7914
581.10 0.7912
581.20 0.791
581.30 0.7907
581.40 0.7905
581.50 0.7903
581.60 0.79
581.70 0.7898
581.80 0.7895
581.90 0.7893
582.00 0.7891
582.10 0.7888
582.20 0.7886
582.30 0.7884
582.40 0.7881
582.50 0.7879
582.60 0.7876
582.70 0.7874
582.80 0.7872
582.90 0.7869
583.00 0.7867
583.10 0.7865
583.20 0.7862
583.30 0.786
583.40 0.7858
583.50 0.7855
583.60 0.7853
583.70 0.7851
583.80 0.7848
583.90 0.7846
584.00 0.7844
584.10 0.7841
584.20 0.7839
584.30 0.7836
584.40 0.7834
584.50 0.7832
584.60 0.7829
584.70 0.7827
584.80 0.7825
584.90 0.7822
585.00 0.782
585.10 0.7818
585.20 0.7815
585.30 0.7813
585.40 0.7811
585.50 0.7808
585.60 0.7806
585.70 0.7803
585.80 0.7801
585.90 0.7799
586.00 0.7796
586.10 0.7794
586.20 0.7792
586.30 0.7789
586.40 0.7787
586.50 0.7785
586.60 0.7782
586.70 0.778
586.80 0.7778
586.90 0.7775
587.00 0.7773
587.10 0.7771
587.20 0.7768
587.30 0.7766
587.40 0.7764
587.50 0.7761
587.60 0.7759
587.70 0.7757
587.80 0.7754
587.90 0.7752
588.00 0.775
588.10 0.7747
588.20 0.7745
588.30 0.7743
588.40 0.774
588.50 0.7738
588.60 0.7736
588.70 0.7733
588.80 0.7731
588.90 0.7729
589.00 0.7726
589.10 0.7724
589.20 0.7722
589.30 0.7719
589.40 0.7717
589.50 0.7715
589.60 0.7712
589.70 0.771
589.80 0.7708
589.90 0.7705
590.00 0.7703
590.10 0.7701
590.20 0.7698
590.30 0.7696
590.40 0.7694
590.50 0.7691
590.60 0.7689
590.70 0.7687
590.80 0.7685
590.90 0.7682
591.00 0.768
591.10 0.7678
591.20 0.7675
591.30 0.7673
591.40 0.7671
591.50 0.7668
591.60 0.7666
591.70 0.7664
591.80 0.7661
591.90 0.7659
592.00 0.7657
592.10 0.7654
592.20 0.7652
592.30 0.765
592.40 0.7648
592.50 0.7645
592.60 0.7643
592.70 0.7641
592.80 0.7638
592.90 0.7636
593.00 0.7634
593.10 0.7632
593.20 0.7629
593.30 0.7627
593.40 0.7625
593.50 0.7622
593.60 0.762
593.70 0.7618
593.80 0.7616
593.90 0.7613
594.00 0.7611
594.10 0.7609
594.20 0.7606
594.30 0.7604
594.40 0.7602
594.50 0.7599
594.60 0.7597
594.70 0.7595
594.80 0.7593
594.90 0.759
595.00 0.7588
595.10 0.7586
595.20 0.7583
595.30 0.7581
595.40 0.7579
595.50 0.7576
595.60 0.7574
595.70 0.7572
595.80 0.757
595.90 0.7567
596.00 0.7565
596.10 0.7563
596.20 0.756
596.30 0.7558
596.40 0.7556
596.50 0.7554
596.60 0.7551
596.70 0.7549
596.80 0.7547
596.90 0.7544
597.00 0.7542
597.10 0.754
597.20 0.7537
597.30 0.7535
597.40 0.7533
597.50 0.7531
597.60 0.7528
597.70 0.7526
597.80 0.7524
597.90 0.7522
598.00 0.7519
598.10 0.7517
598.20 0.7515
598.30 0.7513
598.40 0.751
598.50 0.7508
598.60 0.7506
598.70 0.7504
598.80 0.7501
598.90 0.7499
599.00 0.7497
599.10 0.7495
599.20 0.7492
599.30 0.749
599.40 0.7488
599.50 0.7485
599.60 0.7483
599.70 0.7481
599.80 0.7479
599.90 0.7476
600.00 0.7474
600.10 0.7472
600.20 0.7469
600.30 0.7467
600.40 0.7465
600.50 0.7463
600.60 0.7461
600.70 0.7458
600.80 0.7456
600.90 0.7454
601.00 0.7452
601.10 0.7449
601.20 0.7447
601.30 0.7445
601.40 0.7443
601.50 0.744
601.60 0.7438
601.70 0.7436
601.80 0.7434
601.90 0.7431
602.00 0.7429
602.10 0.7427
602.20 0.7425
602.30 0.7422
602.40 0.742
602.50 0.7418
602.60 0.7416
602.70 0.7413
602.80 0.7411
602.90 0.7409
603.00 0.7407
603.10 0.7404
603.20 0.7402
603.30 0.74
603.40 0.7398
603.50 0.7395
603.60 0.7393
603.70 0.7391
603.80 0.7389
603.90 0.7386
604.00 0.7384
604.10 0.7382
604.20 0.738
604.30 0.7377
604.40 0.7375
604.50 0.7373
604.60 0.7371
604.70 0.7369
604.80 0.7366
604.90 0.7364
605.00 0.7362
605.10 0.736
605.20 0.7357
605.30 0.7355
605.40 0.7353
605.50 0.7351
605.60 0.7349
605.70 0.7346
605.80 0.7344
605.90 0.7342
606.00 0.734
606.10 0.7337
606.20 0.7335
606.30 0.7333
606.40 0.7331
606.50 0.7329
606.60 0.7326
606.70 0.7324
606.80 0.7322
606.90 0.732
607.00 0.7318
607.10 0.7315
607.20 0.7313
607.30 0.7311
607.40 0.7309
607.50 0.7306
607.60 0.7304
607.70 0.7302
607.80 0.73
607.90 0.7297
608.00 0.7295
608.10 0.7293
608.20 0.7291
608.30 0.7289
608.40 0.7286
608.50 0.7284
608.60 0.7282
608.70 0.728
608.80 0.7278
608.90 0.7275
609.00 0.7273
609.10 0.7271
609.20 0.7269
609.30 0.7267
609.40 0.7264
609.50 0.7262
609.60 0.726
609.70 0.7258
609.80 0.7256
609.90 0.7253
610.00 0.7251
610.10 0.7249
610.20 0.7247
610.30 0.7245
610.40 0.7242
610.50 0.724
610.60 0.7238
610.70 0.7236
610.80 0.7234
610.90 0.7231
611.00 0.7229
611.10 0.7227
611.20 0.7225
611.30 0.7223
611.40 0.722
611.50 0.7218
611.60 0.7216
611.70 0.7214
611.80 0.7212
611.90 0.721
612.00 0.7207
612.10 0.7205
612.20 0.7203
612.30 0.7201
612.40 0.7199
612.50 0.7197
612.60 0.7194
612.70 0.7192
612.80 0.719
612.90 0.7188
613.00 0.7186
613.10 0.7184
613.20 0.7181
613.30 0.7179
613.40 0.7177
613.50 0.7175
613.60 0.7173
613.70 0.717
613.80 0.7168
613.90 0.7166
614.00 0.7164
614.10 0.7162
614.20 0.716
614.30 0.7157
614.40 0.7155
614.50 0.7153
614.60 0.7151
614.70 0.7149
614.80 0.7146
614.90 0.7144
615.00 0.7142
615.10 0.714
615.20 0.7138
615.30 0.7135
615.40 0.7133
615.50 0.7131
615.60 0.7129
615.70 0.7127
615.80 0.7125
615.90 0.7122
616.00 0.712
616.10 0.7118
616.20 0.7116
616.30 0.7114
616.40 0.7112
616.50 0.711
616.60 0.7107
616.70 0.7105
616.80 0.7103
616.90 0.7101
617.00 0.7099
617.10 0.7097
617.20 0.7095
617.30 0.7092
617.40 0.709
617.50 0.7088
617.60 0.7086
617.70 0.7084
617.80 0.7082
617.90 0.7079
618.00 0.7077
618.10 0.7075
618.20 0.7073
618.30 0.7071
618.40 0.7069
618.50 0.7066
618.60 0.7064
618.70 0.7062
618.80 0.706
618.90 0.7058
619.00 0.7056
619.10 0.7054
619.20 0.7052
619.30 0.7049
619.40 0.7047
619.50 0.7045
619.60 0.7043
619.70 0.7041
619.80 0.7039
619.90 0.7037
620.00 0.7034
620.10 0.7032
620.20 0.703
620.30 0.7028
620.40 0.7026
620.50 0.7024
620.60 0.7021
620.70 0.7019
620.80 0.7017
620.90 0.7015
621.00 0.7013
621.10 0.7011
621.20 0.7009
621.30 0.7007
621.40 0.7004
621.50 0.7002
621.60 0.7
621.70 0.6998
621.80 0.6996
621.90 0.6994
622.00 0.6992
622.10 0.6989
622.20 0.6987
622.30 0.6985
622.40 0.6983
622.50 0.6981
622.60 0.6979
622.70 0.6977
622.80 0.6975
622.90 0.6972
623.00 0.697
623.10 0.6968
623.20 0.6966
623.30 0.6964
623.40 0.6962
623.50 0.696
623.60 0.6958
623.70 0.6956
623.80 0.6953
623.90 0.6951
624.00 0.6949
624.10 0.6947
624.20 0.6945
624.30 0.6943
624.40 0.6941
624.50 0.6939
624.60 0.6937
624.70 0.6934
624.80 0.6932
624.90 0.693
625.00 0.6928
625.10 0.6926
625.20 0.6924
625.30 0.6922
625.40 0.692
625.50 0.6918
625.60 0.6915
625.70 0.6913
625.80 0.6911
625.90 0.6909
626.00 0.6907
626.10 0.6905
626.20 0.6903
626.30 0.6901
626.40 0.6898
626.50 0.6896
626.60 0.6894
626.70 0.6892
626.80 0.689
626.90 0.6888
627.00 0.6886
627.10 0.6884
627.20 0.6882
627.30 0.688
627.40 0.6877
627.50 0.6875
627.60 0.6873
627.70 0.6871
627.80 0.6869
627.90 0.6867
628.00 0.6865
628.10 0.6862
628.20 0.686
628.30 0.6858
628.40 0.6856
628.50 0.6854
628.60 0.6852
628.70 0.685
628.80 0.6848
628.90 0.6846
629.00 0.6843
629.10 0.6841
629.20 0.6839
629.30 0.6837
629.40 0.6835
629.50 0.6833
629.60 0.6831
629.70 0.6829
629.80 0.6826
629.90 0.6824
630.00 0.6822
630.10 0.682
630.20 0.6818
630.30 0.6816
630.40 0.6814
630.50 0.6811
630.60 0.6809
630.70 0.6807
630.80 0.6805
630.90 0.6803
631.00 0.6801
631.10 0.6798
631.20 0.6796
631.30 0.6794
631.40 0.6792
631.50 0.679
631.60 0.6788
631.70 0.6785
631.80 0.6783
631.90 0.6781
632.00 0.6779
632.10 0.6777
632.20 0.6774
632.30 0.6772
632.40 0.677
632.50 0.6768
632.60 0.6766
632.70 0.6763
632.80 0.6761
632.90 0.6759
633.00 0.6757
633.10 0.6754
633.20 0.6752
633.30 0.675
633.40 0.6748
633.50 0.6745
633.60 0.6743
633.70 0.6741
633.80 0.6739
633.90 0.6736
634.00 0.6734
634.10 0.6732
634.20 0.673
634.30 0.6727
634.40 0.6725
634.50 0.6723
634.60 0.672
634.70 0.6718
634.80 0.6716
634.90 0.6714
635.00 0.6711
635.10 0.6709
635.20 0.6707
635.30 0.6704
635.40 0.6702
635.50 0.67
635.60 0.6697
635.70 0.6695
635.80 0.6693
635.90 0.6691
636.00 0.6688
636.10 0.6686
636.20 0.6684
636.30 0.6681
636.40 0.6679
636.50 0.6677
636.60 0.6675
636.70 0.6672
636.80 0.667
636.90 0.6668
637.00 0.6666
637.10 0.6663
637.20 0.6661
637.30 0.6659
637.40 0.6657
637.50 0.6654
637.60 0.6652
637.70 0.665
637.80 0.6648
637.90 0.6645
638.00 0.6643
638.10 0.6641
638.20 0.6639
638.30 0.6637
638.40 0.6634
638.50 0.6632
638.60 0.663
638.70 0.6627
638.80 0.6625
638.90 0.6623
639.00 0.6621
639.10 0.6618
639.20 0.6616
639.30 0.6614
639.40 0.6612
639.50 0.6609
639.60 0.6607
639.70 0.6604
639.80 0.6602
639.90 0.66
640.00 0.6597
640.10 0.6595
640.20 0.6593
640.30 0.659
640.40 0.6588
640.50 0.6585
640.60 0.6583
640.70 0.6581
640.80 0.6578
640.90 0.6576
641.00 0.6574
641.10 0.6571
641.20 0.6569
641.30 0.6566
641.40 0.6564
641.50 0.6561
641.60 0.6559
641.70 0.6556
641.80 0.6554
641.90 0.6551
642.00 0.6549
642.10 0.6546
642.20 0.6544
642.30 0.6541
642.40 0.6539
642.50 0.6536
642.60 0.6534
642.70 0.6532
642.80 0.6529
642.90 0.6527
643.00 0.6524
643.10 0.6522
643.20 0.6519
643.30 0.6517
643.40 0.6514
643.50 0.6511
643.60 0.6509
643.70 0.6506
643.80 0.6503
643.90 0.6501
644.00 0.6498
644.10 0.6495
644.20 0.6493
644.30 0.649
644.40 0.6487
644.50 0.6485
644.60 0.6482
644.70 0.6479
644.80 0.6476
644.90 0.6474
645.00 0.6471
645.10 0.6468
645.20 0.6465
645.30 0.6463
645.40 0.646
645.50 0.6457
645.60 0.6454
645.70 0.645
645.80 0.6447
645.90 0.6444
646.00 0.6441
646.10 0.6438
646.20 0.6435
646.30 0.6432
646.40 0.6429
646.50 0.6426
646.60 0.6422
646.70 0.6419
646.80 0.6416
646.90 0.6413
647.00 0.6409
647.10 0.6406
647.20 0.6403
647.30 0.64
647.40 0.6396
647.50 0.6392
647.60 0.6388
647.70 0.6384
647.80 0.6381
647.90 0.6377
648.00 0.6373
648.10 0.6369
648.20 0.6365
648.30 0.6361
648.40 0.6357
648.50 0.6352
648.60 0.6348
648.70 0.6344
648.80 0.6339
648.90 0.6335
649.00 0.633
649.10 0.6326
649.20 0.6321
649.30 0.6317
649.40 0.6311
649.50 0.6305
649.60 0.63
649.70 0.6294
649.80 0.6289
649.90 0.6283
650.00 0.6278
650.10 0.6272
650.20 0.6267
650.30 0.6261
650.40 0.6253
650.50 0.6246
650.60 0.6239
650.70 0.6231
650.80 0.6224
650.90 0.6217
651.00 0.6209
651.10 0.6202
651.20 0.6194
651.30 0.6186
651.40 0.6176
651.50 0.6165
651.60 0.6155
651.70 0.6144
651.80 0.6133
651.90 0.6123
652.00 0.6112
652.10 0.6102
652.20 0.6091
652.30 0.6079
652.40 0.6063
652.50 0.6046
652.60 0.6029
652.70 0.6012
652.80 0.5996
652.90 0.5979
653.00 0.5962
653.10 0.5945
653.20 0.5929
653.30 0.5909
653.40 0.5879
653.50 0.5849
653.60 0.5819
653.70 0.5789
653.80 0.5759
653.90 0.5729
654.00 0.5698
654.10 0.5668
654.20 0.5638
654.30 0.5604
654.40 0.5552
654.50 0.5501
654.60 0.5449
654.70 0.5398
654.80 0.534
654.90 0.5258
655.00 0.5176
655.10 0.5093
655.20 0.5011
655.30 0.4922
655.40 0.4802
655.50 0.4675
655.60 0.452
655.70 0.4356
655.80 0.4157
655.90 0.3953
656.00 0.3727
656.10 0.3503
656.20 0.3273
656.30 0.315
656.40 0.3364
656.50 0.3584
656.60 0.3808
656.70 0.4026
656.80 0.4223
656.90 0.4411
657.00 0.4563
657.10 0.4708
657.20 0.4825
657.30 0.4935
657.40 0.5014
657.50 0.5093
657.60 0.5171
657.70 0.525
657.80 0.5323
657.90 0.5371
658.00 0.5419
658.10 0.5467
658.20 0.5514
658.30 0.5558
658.40 0.5584
658.50 0.5611
658.60 0.5637
658.70 0.5663
658.80 0.5689
658.90 0.5715
659.00 0.5742
659.10 0.5768
659.20 0.5794
659.30 0.5817
659.40 0.583
659.50 0.5843
659.60 0.5856
659.70 0.5869
659.80 0.5882
659.90 0.5894
660.00 0.5907
660.10 0.592
660.20 0.5933
660.30 0.5944
660.40 0.5951
660.50 0.5957
660.60 0.5964
660.70 0.5971
660.80 0.5977
660.90 0.5984
661.00 0.5991
661.10 0.5997
661.20 0.6004
661.30 0.601
661.40 0.6013
661.50 0.6017
661.60 0.602
661.70 0.6024
661.80 0.6027
661.90 0.603
662.00 0.6034
662.10 0.6037
662.20 0.6041
662.30 0.6044
662.40 0.6045
662.50 0.6047
662.60 0.6048
662.70 0.605
662.80 0.6052
662.90 0.6053
663.00 0.6055
663.10 0.6056
663.20 0.6058
663.30 0.6059
663.40 0.606
663.50 0.6061
663.60 0.6061
663.70 0.6062
663.80 0.6062
663.90 0.6063
664.00 0.6063
664.10 0.6064
664.20 0.6064
664.30 0.6065
664.40 0.6065
664.50 0.6064
664.60 0.6064
664.70 0.6064
664.80 0.6064
664.90 0.6064
665.00 0.6064
665.10 0.6064
665.20 0.6064
665.30 0.6063
665.40 0.6063
665.50 0.6062
665.60 0.6061
665.70 0.6061
665.80 0.606
665.90 0.6059
666.00 0.6059
666.10 0.6058
666.20 0.6058
666.30 0.6057
666.40 0.6056
666.50 0.6055
666.60 0.6054
666.70 0.6053
666.80 0.6052
666.90 0.6052
667.00 0.6051
667.10 0.605
667.20 0.6049
667.30 0.6048
667.40 0.6047
667.50 0.6046
667.60 0.6045
667.70 0.6043
667.80 0.6042
667.90 0.6041
668.00 0.604
668.10 0.6039
668.20 0.6038
668.30 0.6037
668.40 0.6036
668.50 0.6034
668.60 0.6033
668.70 0.6032
668.80 0.6031
668.90 0.6029
669.00 0.6028
669.10 0.6027
669.20 0.6026
669.30 0.6024
669.40 0.6023
669.50 0.6022
669.60 0.602
669.70 0.6019
669.80 0.6017
669.90 0.6016
670.00 0.6015
670.10 0.6013
670.20 0.6012
670.30 0.601
670.40 0.6009
670.50 0.6008
670.60 0.6006
670.70 0.6005
670.80 0.6003
670.90 0.6002
671.00 0.6001
671.10 0.5999
671.20 0.5998
671.30 0.5996
671.40 0.5995
671.50 0.5993
671.60 0.5992
671.70 0.5991
671.80 0.5989
671.90 0.5988
672.00 0.5986
672.10 0.5985
672.20 0.5983
672.30 0.5982
672.40 0.598
672.50 0.5979
672.60 0.5977
672.70 0.5976
672.80 0.5974
672.90 0.5973
673.00 0.5971
673.10 0.597
673.20 0.5968
673.30 0.5967
673.40 0.5965
673.50 0.5963
673.60 0.5962
673.70 0.596
673.80 0.5959
673.90 0.5957
674.00 0.5955
674.10 0.5954
674.20 0.5952
674.30 0.5951
674.40 0.5949
674.50 0.5947
674.60 0.5946
674.70 0.5944
674.80 0.5942
674.90 0.5941
675.00 0.5939
675.10 0.5938
675.20 0.5936
675.30 0.5934
675.40 0.5933
675.50 0.5931
675.60 0.5929
675.70 0.5928
675.80 0.5926
675.90 0.5925
676.00 0.5923
676.10 0.5921
676.20 0.592
676.30 0.5918
676.40 0.5917
676.50 0.5915
676.60 0.5913
676.70 0.5912
676.80 0.591
676.90 0.5909
677.00 0.5907
677.10 0.5905
677.20 0.5904
677.30 0.5902
677.40 0.5901
677.50 0.5899
677.60 0.5898
677.70 0.5896
677.80 0.5894
677.90 0.5893
678.00 0.5891
678.10 0.5889
678.20 0.5888
678.30 0.5886
678.40 0.5885
678.50 0.5883
678.60 0.5881
678.70 0.588
678.80 0.5878
678.90 0.5876
679.00 0.5875
679.10 0.5873
679.20 0.5872
679.30 0.587
679.40 0.5868
679.50 0.5867
679.60 0.5865
679.70 0.5863
679.80 0.5862
679.90 0.586
680.00 0.5858
680.10 0.5857
680.20 0.5855
680.30 0.5853
680.40 0.5852
680.50 0.585
680.60 0.5848
680.70 0.5847
680.80 0.5845
680.90 0.5843
681.00 0.5842
681.10 0.584
681.20 0.5839
681.30 0.5837
681.40 0.5835
681.50 0.5833
681.60 0.5832
681.70 0.583
681.80 0.5828
681.90 0.5827
682.00 0.5825
682.10 0.5823
682.20 0.5821
682.30 0.582
682.40 0.5818
682.50 0.5816
682.60 0.5815
682.70 0.5813
682.80 0.5811
682.90 0.5809
683.00 0.5808
683.10 0.5806
683.20 0.5804
683.30 0.5802
683.40 0.5801
683.50 0.5799
683.60 0.5797
683.70 0.5795
683.80 0.5794
683.90 0.5792
684.00 0.579
684.10 0.5789
684.20 0.5787
684.30 0.5785
684.40 0.5783
684.50 0.5782
684.60 0.578
684.70 0.5778
684.80 0.5777
684.90 0.5775
685.00 0.5773
685.10 0.5771
685.20 0.577
685.30 0.5768
685.40 0.5766
685.50 0.5764
685.60 0.5763
685.70 0.5761
685.80 0.5759
685.90 0.5758
686.00 0.5756
686.10 0.5754
686.20 0.5753
686.30 0.5751
686.40 0.5749
686.50 0.5747
686.60 0.5746
686.70 0.5744
686.80 0.5742
686.90 0.574
687.00 0.5739
687.10 0.5737
687.20 0.5735
687.30 0.5733
687.40 0.5732
687.50 0.573
687.60 0.5728
687.70 0.5726
687.80 0.5725
687.90 0.5723
688.00 0.5721
688.10 0.572
688.20 0.5718
688.30 0.5716
688.40 0.5714
688.50 0.5713
688.60 0.5711
688.70 0.5709
688.80 0.5708
688.90 0.5706
689.00 0.5704
689.10 0.5702
689.20 0.5701
689.30 0.5699
689.40 0.5697
689.50 0.5695
689.60 0.5694
689.70 0.5692
689.80 0.569
689.90 0.5689
690.00 0.5687
690.10 0.5685
690.20 0.5683
690.30 0.5682
690.40 0.568
690.50 0.5678
690.60 0.5676
690.70 0.5675
690.80 0.5673
690.90 0.5671
691.00 0.567
691.10 0.5668
691.20 0.5666
691.30 0.5664
691.40 0.5663
691.50 0.5661
691.60 0.5659
691.70 0.5658
691.80 0.5656
691.90 0.5654
692.00 0.5652
692.10 0.5651
692.20 0.5649
692.30 0.5647
692.40 0.5646
692.50 0.5644
692.60 0.5642
692.70 0.564
692.80 0.5639
692.90 0.5637
693.00 0.5635
693.10 0.5634
693.20 0.5632
693.30 0.563
693.40 0.5629
693.50 0.5627
693.60 0.5625
693.70 0.5623
693.80 0.5622
693.90 0.562
694.00 0.5618
694.10 0.5617
694.20 0.5615
694.30 0.5613
694.40 0.5612
694.50 0.561
694.60 0.5608
694.70 0.5606
694.80 0.5605
694.90 0.5603
695.00 0.5601
695.10 0.56
695.20 0.5598
695.30 0.5596
695.40 0.5595
695.50 0.5593
695.60 0.5591
695.70 0.559
695.80 0.5588
695.90 0.5586
696.00 0.5584
696.10 0.5583
696.20 0.5581
696.30 0.5579
696.40 0.5578
696.50 0.5576
696.60 0.5574
696.70 0.5573
696.80 0.5571
696.90 0.5569
697.00 0.5568
697.10 0.5566
697.20 0.5564
697.30 0.5563
697.40 0.5561
697.50 0.5559
697.60 0.5558
697.70 0.5556
697.80 0.5554
697.90 0.5553
698.00 0.5551
698.10 0.5549
698.20 0.5548
698.30 0.5546
698.40 0.5544
698.50 0.5543
698.60 0.5541
698.70 0.5539
698.80 0.5538
698.90 0.5536
699.00 0.5534
699.10 0.5533
699.20 0.5531
699.30 0.5529
699.40 0.5528
699.50 0.5526
699.60 0.5524
699.70 0.5523
699.80 0.5521
699.90 0.5519
700.00 0.5518
700.10 0.5516
700.20 0.5514
700.30 0.5513
700.40 0.5511
700.50 0.5509
700.60 0.5508
700.70 0.5506
700.80 0.5504
700.90 0.5503
701.00 0.5501
701.10 0.5499
701.20 0.5498
701.30 0.5496
701.40 0.5494
701.50 0.5493
701.60 0.5491
701.70 0.5489
701.80 0.5488
701.90 0.5486
702.00 0.5484
702.10 0.5483
702.20 0.5481
702.30 0.5479
702.40 0.5478
702.50 0.5476
702.60 0.5474
702.70 0.5473
702.80 0.5471
702.90 0.5469
703.00 0.5468
703.10 0.5466
703.20 0.5464
703.30 0.5463
703.40 0.5461
703.50 0.5459
703.60 0.5458
703.70 0.5456
703.80 0.5454
703.90 0.5453
704.00 0.5451
704.10 0.5449
704.20 0.5448
704.30 0.5446
704.40 0.5445
704.50 0.5443
704.60 0.5441
704.70 0.544
704.80 0.5438
704.90 0.5436
705.00 0.5435
705.10 0.5433
705.20 0.5431
705.30 0.543
705.40 0.5428
705.50 0.5426
705.60 0.5425
705.70 0.5423
705.80 0.5422
705.90 0.542
706.00 0.5418
706.10 0.5417
706.20 0.5415
706.30 0.5413
706.40 0.5412
706.50 0.541
706.60 0.5408
706.70 0.5407
706.80 0.5405
706.90 0.5404
707.00 0.5402
707.10 0.54
707.20 0.5399
707.30 0.5397
707.40 0.5395
707.50 0.5394
707.60 0.5392
707.70 0.5391
707.80 0.5389
707.90 0.5387
708.00 0.5386
708.10 0.5384
708.20 0.5383
708.30 0.5381
708.40 0.5379
708.50 0.5378
708.60 0.5376
708.70 0.5374
708.80 0.5373
708.90 0.5371
709.00 0.537
709.10 0.5368
709.20 0.5366
709.30 0.5365
709.40 0.5363
709.50 0.5362
709.60 0.536
709.70 0.5358
709.80 0.5357
709.90 0.5355
710.00 0.5354
710.10 0.5352
710.20 0.535
710.30 0.5349
710.40 0.5347
710.50 0.5345
710.60 0.5344
710.70 0.5342
710.80 0.5341
710.90 0.5339
711.00 0.5337
711.10 0.5336
711.20 0.5334
711.30 0.5333
711.40 0.5331
711.50 0.5329
711.60 0.5328
711.70 0.5326
711.80 0.5325
711.90 0.5323
712.00 0.5321
712.10 0.532
712.20 0.5318
712.30 0.5316
712.40 0.5315
712.50 0.5313
712.60 0.5312
712.70 0.531
712.80 0.5308
712.90 0.5307
713.00 0.5305
713.10 0.5304
713.20 0.5302
713.30 0.5301
713.40 0.5299
713.50 0.5297
713.60 0.5296
713.70 0.5294
713.80 0.5293
713.90 0.5291
714.00 0.5289
714.10 0.5288
714.20 0.5286
714.30 0.5285
714.40 0.5283
714.50 0.5281
714.60 0.528
714.70 0.5278
714.80 0.5277
714.90 0.5275
715.00 0.5274
715.10 0.5272
715.20 0.527
715.30 0.5269
715.40 0.5267
715.50 0.5266
715.60 0.5264
715.70 0.5262
715.80 0.5261
715.90 0.5259
716.00 0.5258
716.10 0.5256
716.20 0.5254
716.30 0.5253
716.40 0.5251
716.50 0.525
716.60 0.5248
716.70 0.5247
716.80 0.5245
716.90 0.5243
717.00 0.5242
717.10 0.524
717.20 0.5239
717.30 0.5237
717.40 0.5236
717.50 0.5234
717.60 0.5232
717.70 0.5231
717.80 0.5229
717.90 0.5228
718.00 0.5226
718.10 0.5225
718.20 0.5223
718.30 0.5221
718.40 0.522
718.50 0.5218
718.60 0.5217
718.70 0.5215
718.80 0.5214
718.90 0.5212
719.00 0.521
719.10 0.5209
719.20 0.5207
719.30 0.5206
719.40 0.5204
719.50 0.5203
719.60 0.5201
719.70 0.52
719.80 0.5198
719.90 0.5196
720.00 0.5195
720.10 0.5193
720.20 0.5192
720.30 0.519
720.40 0.5189
720.50 0.5187
720.60 0.5186
720.70 0.5184
720.80 0.5182
720.90 0.5181
721.00 0.5179
721.10 0.5178
721.20 0.5176
721.30 0.5175
721.40 0.5173
721.50 0.5171
721.60 0.517
721.70 0.5168
721.80 0.5167
721.90 0.5165
722.00 0.5164
722.10 0.5162
722.20 0.5161
722.30 0.5159
722.40 0.5157
722.50 0.5156
722.60 0.5154
722.70 0.5153
722.80 0.5151
722.90 0.515
723.00 0.5148
723.10 0.5147
723.20 0.5145
723.30 0.5144
723.40 0.5142
723.50 0.514
723.60 0.5139
723.70 0.5137
723.80 0.5136
723.90 0.5134
724.00 0.5133
724.10 0.5131
724.20 0.513
724.30 0.5128
724.40 0.5127
724.50 0.5125
724.60 0.5124
724.70 0.5122
724.80 0.512
724.90 0.5119
725.00 0.5117
725.10 0.5116
725.20 0.5114
725.30 0.5113
725.40 0.5111
725.50 0.511
725.60 0.5108
725.70 0.5107
725.80 0.5105
725.90 0.5104
726.00 0.5102
726.10 0.51
726.20 0.5099
726.30 0.5097
726.40 0.5096
726.50 0.5094
726.60 0.5093
726.70 0.5091
726.80 0.509
726.90 0.5088
727.00 0.5087
727.10 0.5085
727.20 0.5084
727.30 0.5082
727.40 0.5081
727.50 0.5079
727.60 0.5078
727.70 0.5076
727.80 0.5074
727.90 0.5073
728.00 0.5071
728.10 0.507
728.20 0.5068
728.30 0.5067
728.40 0.5065
728.50 0.5064
728.60 0.5062
728.70 0.5061
728.80 0.5059
728.90 0.5058
729.00 0.5056
729.10 0.5055
729.20 0.5053
729.30 0.5052
729.40 0.505
729.50 0.5049
729.60 0.5047
729.70 0.5046
729.80 0.5044
729.90 0.5043
730.00 0.5041
730.10 0.504
730.20 0.5038
730.30 0.5037
730.40 0.5035
730.50 0.5034
730.60 0.5032
730.70 0.5031
730.80 0.5029
730.90 0.5028
731.00 0.5026
731.10 0.5025
731.20 0.5023
731.30 0.5021
731.40 0.502
731.50 0.5018
731.60 0.5017
731.70 0.5015
731.80 0.5014
731.90 0.5012
732.00 0.5011
732.10 0.5009
732.20 0.5008
732.30 0.5006
732.40 0.5005
732.50 0.5003
732.60 0.5002
732.70 0.5
732.80 0.4999
732.90 0.4997
733.00 0.4996
733.10 0.4994
733.20 0.4993
733.30 0.4991
733.40 0.499
733.50 0.4988
733.60 0.4987
733.70 0.4985
733.80 0.4984
733.90 0.4982
734.00 0.4981
734.10 0.4979
734.20 0.4978
734.30 0.4976
734.40 0.4975
734.50 0.4973
734.60 0.4972
734.70 0.497
734.80 0.4969
734.90 0.4967
735.00 0.4966
735.10 0.4965
735.20 0.4963
735.30 0.4962
735.40 0.496
735.50 0.4959
735.60 0.4957
735.70 0.4956
735.80 0.4954
735.90 0.4953
736.00 0.4951
736.10 0.495
736.20 0.4948
736.30 0.4947
736.40 0.4945
736.50 0.4944
736.60 0.4942
736.70 0.4941
736.80 0.4939
736.90 0.4938
737.00 0.4936
737.10 0.4935
737.20 0.4933
737.30 0.4932
737.40 0.493
737.50 0.4929
737.60 0.4928
737.70 0.4926
737.80 0.4925
737.90 0.4923
738.00 0.4922
738.10 0.492
738.20 0.4919
738.30 0.4917
738.40 0.4916
738.50 0.4914
738.60 0.4913
738.70 0.4911
738.80 0.491
738.90 0.4908
739.00 0.4907
739.10 0.4906
739.20 0.4904
739.30 0.4903
739.40 0.4901
739.50 0.49
739.60 0.4898
739.70 0.4897
739.80 0.4895
739.90 0.4894
740.00 0.4892
740.10 0.4891
740.20 0.4889
740.30 0.4888
740.40 0.4887
740.50 0.4885
740.60 0.4884
740.70 0.4882
740.80 0.4881
740.90 0.4879
741.00 0.4878
741.10 0.4876
741.20 0.4875
741.30 0.4873
741.40 0.4872
741.50 0.487
741.60 0.4869
741.70 0.4868
741.80 0.4866
741.90 0.4865
742.00 0.4863
742.10 0.4862
742.20 0.486
742.30 0.4859
742.40 0.4857
742.50 0.4856
742.60 0.4854
742.70 0.4853
742.80 0.4852
742.90 0.485
743.00 0.4849
743.10 0.4847
743.20 0.4846
743.30 0.4844
743.40 0.4843
743.50 0.4841
743.60 0.484
743.70 0.4839
743.80 0.4837
743.90 0.4836
744.00 0.4834
744.10 0.4833
744.20 0.4831
744.30 0.483
744.40 0.4828
744.50 0.4827
744.60 0.4826
744.70 0.4824
744.80 0.4823
744.90 0.4821
745.00 0.482
745.10 0.4818
745.20 0.4817
745.30 0.4815
745.40 0.4814
745.50 0.4813
745.60 0.4811
745.70 0.481
745.80 0.4808
745.90 0.4807
746.00 0.4805
746.10 0.4804
746.20 0.4803
746.30 0.4801
746.40 0.48
746.50 0.4798
746.60 0.4797
746.70 0.4795
746.80 0.4794
746.90 0.4793
747.00 0.4791
747.10 0.479
747.20 0.4788
747.30 0.4787
747.40 0.4785
747.50 0.4784
747.60 0.4783
747.70 0.4781
747.80 0.478
747.90 0.4778
748.00 0.4777
748.10 0.4775
748.20 0.4774
748.30 0.4773
748.40 0.4771
748.50 0.477
748.60 0.4768
748.70 0.4767
748.80 0.4766
748.90 0.4764
749.00 0.4763
749.10 0.4761
749.20 0.476
749.30 0.4759
749.40 0.4757
749.50 0.4756
749.60 0.4754
749.70 0.4753
749.80 0.4751
749.90 0.475
750.00 0.4749
750.10 0.4747
750.20 0.4746
750.30 0.4744
750.40 0.4743
750.50 0.4742
750.60 0.474
750.70 0.4739
750.80 0.4737
750.90 0.4736
751.00 0.4734
751.10 0.4733
751.20 0.4732
751.30 0.473
751.40 0.4729
751.50 0.4727
751.60 0.4726
751.70 0.4725
751.80 0.4723
751.90 0.4722
752.00 0.472
752.10 0.4719
752.20 0.4718
752.30 0.4716
752.40 0.4715
752.50 0.4713
752.60 0.4712
752.70 0.4711
752.80 0.4709
752.90 0.4708
753.00 0.4706
753.10 0.4705
753.20 0.4704
753.30 0.4702
753.40 0.4701
753.50 0.4699
753.60 0.4698
753.70 0.4697
753.80 0.4695
753.90 0.4694
754.00 0.4692
754.10 0.4691
754.20 0.469
754.30 0.4688
754.40 0.4687
754.50 0.4685
754.60 0.4684
754.70 0.4683
754.80 0.4681
754.90 0.468
755.00 0.4678
755.10 0.4677
755.20 0.4676
755.30 0.4674
755.40 0.4673
755.50 0.4671
755.60 0.467
755.70 0.4669
755.80 0.4667
755.90 0.4666
756.00 0.4665
756.10 0.4663
756.20 0.4662
756.30 0.466
756.40 0.4659
756.50 0.4658
756.60 0.4656
756.70 0.4655
756.80 0.4653
756.90 0.4652
757.00 0.4651
757.10 0.4649
757.20 0.4648
757.30 0.4647
757.40 0.4645
757.50 0.4644
757.60 0.4642
757.70 0.4641
757.80 0.464
757.90 0.4638
758.00 0.4637
758.10 0.4636
758.20 0.4634
758.30 0.4633
758.40 0.4631
758.50 0.463
758.60 0.4629
758.70 0.4627
758.80 0.4626
758.90 0.4625
759.00 0.4623
759.10 0.4622
759.20 0.4621
759.30 0.4619
759.40 0.4618
759.50 0.4616
759.60 0.4615
759.70 0.4614
759.80 0.4612
759.90 0.4611
760.00 0.461
760.10 0.4608
760.20 0.4607
760.30 0.4606
760.40 0.4604
760.50 0.4603
760.60 0.4601
760.70 0.46
760.80 0.4599
760.90 0.4597
761.00 0.4596
761.10 0.4595
761.20 0.4593
761.30 0.4592
761.40 0.459
761.50 0.4589
761.60 0.4588
761.70 0.4586
761.80 0.4585
761.90 0.4584
762.00 0.4582
762.10 0.4581
762.20 0.458
762.30 0.4578
762.40 0.4577
762.50 0.4575
762.60 0.4574
762.70 0.4573
762.80 0.4571
762.90 0.457
763.00 0.4569
763.10 0.4567
763.20 0.4566
763.30 0.4565
763.40 0.4563
763.50 0.4562
763.60 0.4561
763.70 0.4559
763.80 0.4558
763.90 0.4557
764.00 0.4555
764.10 0.4554
764.20 0.4552
764.30 0.4551
764.40 0.455
764.50 0.4548
764.60 0.4547
764.70 0.4546
764.80 0.4544
764.90 0.4543
765.00 0.4542
765.10 0.454
765.20 0.4539
765.30 0.4538
765.40 0.4536
765.50 0.4535
765.60 0.4534
765.70 0.4532
765.80 0.4531
765.90 0.453
766.00 0.4528
766.10 0.4527
766.20 0.4526
766.30 0.4524
766.40 0.4523
766.50 0.4522
766.60 0.452
766.70 0.4519
766.80 0.4518
766.90 0.4516
767.00 0.4515
767.10 0.4514
767.20 0.4512
767.30 0.4511
767.40 0.451
767.50 0.4508
767.60 0.4507
767.70 0.4506
767.80 0.4504
767.90 0.4503
768.00 0.4502
768.10 0.45
768.20 0.4499
768.30 0.4498
768.40 0.4496
768.50 0.4495
768.60 0.4494
768.70 0.4492
768.80 0.4491
768.90 0.449
769.00 0.4488
769.10 0.4487
769.20 0.4486
769.30 0.4484
769.40 0.4483
769.50 0.4482
769.60 0.448
769.70 0.4479
769.80 0.4478
769.90 0.4476
770.00 0.4475
770.10 0.4474
770.20 0.4473
770.30 0.4471
770.40 0.447
770.50 0.4469
770.60 0.4467
770.70 0.4466
770.80 0.4465
770.90 0.4463
771.00 0.4462
771.10 0.4461
771.20 0.4459
771.30 0.4458
771.40 0.4457
771.50 0.4455
771.60 0.4454
771.70 0.4453
771.80 0.4451
771.90 0.445
772.00 0.4449
772.10 0.4447
772.20 0.4446
772.30 0.4445
772.40 0.4444
772.50 0.4442
772.60 0.4441
772.70 0.444
772.80 0.4438
772.90 0.4437
773.00 0.4436
773.10 0.4434
773.20 0.4433
773.30 0.4432
773.40 0.443
773.50 0.4429
773.60 0.4428
773.70 0.4426
773.80 0.4425
773.90 0.4424
774.00 0.4423
774.10 0.4421
774.20 0.442
774.30 0.4419
774.40 0.4417
774.50 0.4416
774.60 0.4415
774.70 0.4413
774.80 0.4412
774.90 0.4411
775.00 0.441
775.10 0.4408
775.20 0.4407
775.30 0.4406
775.40 0.4404
775.50 0.4403
775.60 0.4402
775.70 0.44
775.80 0.4399
775.90 0.4398
776.00 0.4397
776.10 0.4395
776.20 0.4394
776.30 0.4393
776.40 0.4391
776.50 0.439
776.60 0.4389
776.70 0.4388
776.80 0.4386
776.90 0.4385
777.00 0.4384
777.10 0.4382
777.20 0.4381
777.30 0.438
777.40 0.4379
777.50 0.4377
777.60 0.4376
777.70 0.4375
777.80 0.4373
777.90 0.4372
778.00 0.4371
778.10 0.437
778.20 0.4368
778.30 0.4367
778.40 0.4366
778.50 0.4364
778.60 0.4363
778.70 0.4362
778.80 0.4361
778.90 0.4359
779.00 0.4358
779.10 0.4357
779.20 0.4355
779.30 0.4354
779.40 0.4353
779.50 0.4352
779.60 0.435
779.70 0.4349
779.80 0.4348
779.90 0.4347
780.00 0.4345
780.10 0.4344
780.20 0.4343
780.30 0.4341
780.40 0.434
780.50 0.4339
780.60 0.4338
780.70 0.4336
780.80 0.4335
780.90 0.4334
781.00 0.4332
781.10 0.4331
781.20 0.433
781.30 0.4329
781.40 0.4327
781.50 0.4326
781.60 0.4325
781.70 0.4324
781.80 0.4322
781.90 0.4321
782.00 0.432
782.10 0.4318
782.20 0.4317
782.30 0.4316
782.40 0.4315
782.50 0.4313
782.60 0.4312
782.70 0.4311
782.80 0.431
782.90 0.4308
783.00 0.4307
783.10 0.4306
783.20 0.4304
783.30 0.4303
783.40 0.4302
783.50 0.4301
783.60 0.4299
783.70 0.4298
783.80 0.4297
783.90 0.4296
784.00 0.4294
784.10 0.4293
784.20 0.4292
784.30 0.4291
784.40 0.4289
784.50 0.4288
784.60 0.4287
784.70 0.4286
784.80 0.4284
784.90 0.4283
785.00 0.4282
785.10 0.4281
785.20 0.4279
785.30 0.4278
785.40 0.4277
785.50 0.4275
785.60 0.4274
785.70 0.4273
785.80 0.4272
785.90 0.427
786.00 0.4269
786.10 0.4268
786.20 0.4267
786.30 0.4265
786.40 0.4264
786.50 0.4263
786.60 0.4262
786.70 0.426
786.80 0.4259
786.90 0.4258
787.00 0.4257
787.10 0.4255
787.20 0.4254
787.30 0.4253
787.40 0.4252
787.50 0.425
787.60 0.4249
787.70 0.4248
787.80 0.4247
787.90 0.4246
788.00 0.4244
788.10 0.4243
788.20 0.4242
788.30 0.4241
788.40 0.4239
788.50 0.4238
788.60 0.4237
788.70 0.4236
788.80 0.4234
788.90 0.4233
789.00 0.4232
789.10 0.4231
789.20 0.4229
789.30 0.4228
789.40 0.4227
789.50 0.4226
789.60 0.4224
789.70 0.4223
789.80 0.4222
789.90 0.4221
790.00 0.422
790.10 0.4218
790.20 0.4217
790.30 0.4216
790.40 0.4215
790.50 0.4213
790.60 0.4212
790.70 0.4211
790.80 0.421
790.90 0.4208
791.00 0.4207
791.10 0.4206
791.20 0.4205
791.30 0.4203
791.40 0.4202
791.50 0.4201
791.60 0.42
791.70 0.4198
791.80 0.4197
791.90 0.4196
792.00 0.4195
792.10 0.4194
792.20 0.4192
792.30 0.4191
792.40 0.419
792.50 0.4189
792.60 0.4187
792.70 0.4186
792.80 0.4185
792.90 0.4184
793.00 0.4183
793.10 0.4181
793.20 0.418
793.30 0.4179
793.40 0.4178
793.50 0.4176
793.60 0.4175
793.70 0.4174
793.80 0.4173
793.90 0.4172
794.00 0.417
794.10 0.4169
794.20 0.4168
794.30 0.4167
794.40 0.4165
794.50 0.4164
794.60 0.4163
794.70 0.4162
794.80 0.4161
794.90 0.4159
795.00 0.4158
795.10 0.4157
795.20 0.4156
795.30 0.4154
795.40 0.4153
795.50 0.4152
795.60 0.4151
795.70 0.415
795.80 0.4148
795.90 0.4147
796.00 0.4146
796.10 0.4145
796.20 0.4144
796.30 0.4142
796.40 0.4141
796.50 0.414
796.60 0.4139
796.70 0.4138
796.80 0.4136
796.90 0.4135
797.00 0.4134
797.10 0.4133
797.20 0.4131
797.30 0.413
797.40 0.4129
797.50 0.4128
797.60 0.4127
797.70 0.4125
797.80 0.4124
797.90 0.4123
798.00 0.4122
798.10 0.4121
798.20 0.4119
798.30 0.4118
798.40 0.4117
798.50 0.4116
798.60 0.4115
798.70 0.4113
798.80 0.4112
798.90 0.4111
799.00 0.411
799.10 0.4109
799.20 0.4107
799.30 0.4106
799.40 0.4105
799.50 0.4104
799.60 0.4103
799.70 0.4101
799.80 0.41
799.90 0.4099
800.00 0.4098
800.10 0.4097
800.20 0.4096
800.30 0.4094
800.40 0.4093
800.50 0.4092
800.60 0.4091
800.70 0.409
800.80 0.4088
800.90 0.4087
801.00 0.4086
801.10 0.4085
801.20 0.4084
801.30 0.4082
801.40 0.4081
801.50 0.408
801.60 0.4079
801.70 0.4078
801.80 0.4076
801.90 0.4075
802.00 0.4074
802.10 0.4073
802.20 0.4072
802.30 0.407
802.40 0.4069
802.50 0.4068
802.60 0.4067
802.70 0.4066
802.80 0.4065
802.90 0.4063
803.00 0.4062
803.10 0.4061
803.20 0.406
803.30 0.4059
803.40 0.4057
803.50 0.4056
803.60 0.4055
803.70 0.4054
803.80 0.4053
803.90 0.4051
804.00 0.405
804.10 0.4049
804.20 0.4048
804.30 0.4047
804.40 0.4046
804.50 0.4044
804.60 0.4043
804.70 0.4042
804.80 0.4041
804.90 0.404
805.00 0.4039
805.10 0.4037
805.20 0.4036
805.30 0.4035
805.40 0.4034
805.50 0.4033
805.60 0.4031
805.70 0.403
805.80 0.4029
805.90 0.4028
806.00 0.4027
806.10 0.4026
806.20 0.4024
806.30 0.4023
806.40 0.4022
806.50 0.4021
806.60 0.402
806.70 0.4019
806.80 0.4017
806.90 0.4016
807.00 0.4015
807.10 0.4014
807.20 0.4013
807.30 0.4012
807.40 0.401
807.50 0.4009
807.60 0.4008
807.70 0.4007
807.80 0.4006
807.90 0.4005
808.00 0.4003
808.10 0.4002
808.20 0.4001
808.30 0.4
808.40 0.3999
808.50 0.3998
808.60 0.3996
808.70 0.3995
808.80 0.3994
808.90 0.3993
809.00 0.3992
809.10 0.3991
809.20 0.399
809.30 0.3988
809.40 0.3987
809.50 0.3986
809.60 0.3985
809.70 0.3984
809.80 0.3983
809.90 0.3981
810.00 0.398
810.10 0.3979
810.20 0.3978
810.30 0.3977
810.40 0.3976
810.50 0.3975
810.60 0.3973
810.70 0.3972
810.80 0.3971
810.90 0.397
811.00 0.3969
811.10 0.3968
811.20 0.3966
811.30 0.3965
811.40 0.3964
811.50 0.3963
811.60 0.3962
811.70 0.3961
811.80 0.396
811.90 0.3958
812.00 0.3957
812.10 0.3956
812.20 0.3955
812.30 0.3954
812.40 0.3953
812.50 0.3951
812.60 0.395
812.70 0.3949
812.80 0.3948
812.90 0.3947
813.00 0.3946
813.10 0.3945
813.20 0.3943
813.30 0.3942
813.40 0.3941
813.50 0.394
813.60 0.3939
813.70 0.3938
813.80 0.3937
813.90 0.3935
814.00 0.3934
814.10 0.3933
814.20 0.3932
814.30 0.3931
814.40 0.393
814.50 0.3929
814.60 0.3927
814.70 0.3926
814.80 0.3925
814.90 0.3924
815.00 0.3923
815.10 0.3922
815.20 0.3921
815.30 0.392
815.40 0.3918
815.50 0.3917
815.60 0.3916
815.70 0.3915
815.80 0.3914
815.90 0.3913
816.00 0.3912
816.10 0.391
816.20 0.3909
816.30 0.3908
816.40 0.3907
816.50 0.3906
816.60 0.3905
816.70 0.3904
816.80 0.3903
816.90 0.3901
817.00 0.39
817.10 0.3899
817.20 0.3898
817.30 0.3897
817.40 0.3896
817.50 0.3895
817.60 0.3894
817.70 0.3892
817.80 0.3891
817.90 0.389
818.00 0.3889
818.10 0.3888
818.20 0.3887
818.30 0.3886
818.40 0.3885
818.50 0.3883
818.60 0.3882
818.70 0.3881
818.80 0.388
818.90 0.3879
819.00 0.3878
819.10 0.3877
819.20 0.3876
819.30 0.3874
819.40 0.3873
819.50 0.3872
819.60 0.3871
819.70 0.387
819.80 0.3869
819.90 0.3868
820.00 0.3867
820.10 0.3866
820.20 0.3865
820.30 0.3864
820.40 0.3862
820.50 0.3861
820.60 0.386
820.70 0.3859
820.80 0.3858
820.90 0.3857
821.00 0.3856
821.10 0.3855
821.20 0.3853
821.30 0.3852
821.40 0.3851
821.50 0.385
821.60 0.3849
821.70 0.3848
821.80 0.3847
821.90 0.3846
822.00 0.3845
822.10 0.3843
822.20 0.3842
822.30 0.3841
822.40 0.384
822.50 0.3839
822.60 0.3838
822.70 0.3837
822.80 0.3836
822.90 0.3835
823.00 0.3833
823.10 0.3832
823.20 0.3831
823.30 0.383
823.40 0.3829
823.50 0.3828
823.60 0.3827
823.70 0.3826
823.80 0.3825
823.90 0.3824
824.00 0.3822
824.10 0.3821
824.20 0.382
824.30 0.3819
824.40 0.3818
824.50 0.3817
824.60 0.3816
824.70 0.3815
824.80 0.3814
824.90 0.3813
825.00 0.3811
825.10 0.381
825.20 0.3809
825.30 0.3808
825.40 0.3807
825.50 0.3806
825.60 0.3805
825.70 0.3804
825.80 0.3803
825.90 0.3802
826.00 0.3801
826.10 0.3799
826.20 0.3798
826.30 0.3797
826.40 0.3796
826.50 0.3795
826.60 0.3794
826.70 0.3793
826.80 0.3792
826.90 0.3791
827.00 0.379
827.10 0.3789
827.20 0.3787
827.30 0.3786
827.40 0.3785
827.50 0.3784
827.60 0.3783
827.70 0.3782
827.80 0.3781
827.90 0.378
828.00 0.3779
828.10 0.3778
828.20 0.3777
828.30 0.3775
828.40 0.3774
828.50 0.3773
828.60 0.3772
828.70 0.3771
828.80 0.377
828.90 0.3769
829.00 0.3768
829.10 0.3767
829.20 0.3766
829.30 0.3765
829.40 0.3763
829.50 0.3762
829.60 0.3761
829.70 0.376
829.80 0.3759
829.90 0.3758
830.00 0.3757
830.10 0.3756
830.20 0.3755
830.30 0.3754
830.40 0.3753
830.50 0.3752
830.60 0.375
830.70 0.3749
830.80 0.3748
830.90 0.3747
831.00 0.3746
831.10 0.3745
831.20 0.3744
831.30 0.3743
831.40 0.3742
831.50 0.3741
831.60 0.374
831.70 0.3739
831.80 0.3738
831.90 0.3736
832.00 0.3735
832.10 0.3734
832.20 0.3733
832.30 0.3732
832.40 0.3731
832.50 0.373
832.60 0.3729
832.70 0.3728
832.80 0.3727
832.90 0.3726
833.00 0.3725
833.10 0.3724
833.20 0.3723
833.30 0.3721
833.40 0.372
833.50 0.3719
833.60 0.3718
833.70 0.3717
833.80 0.3716
833.90 0.3715
834.00 0.3714
834.10 0.3713
834.20 0.3712
834.30 0.3711
834.40 0.371
834.50 0.3709
834.60 0.3708
834.70 0.3707
834.80 0.3706
834.90 0.3704
835.00 0.3703
835.10 0.3702
835.20 0.3701
835.30 0.37
835.40 0.3699
835.50 0.3698
835.60 0.3697
835.70 0.3696
835.80 0.3695
835.90 0.3694
836.00 0.3693
836.10 0.3692
836.20 0.3691
836.30 0.369
836.40 0.3689
836.50 0.3688
836.60 0.3687
836.70 0.3685
836.80 0.3684
836.90 0.3683
837.00 0.3682
837.10 0.3681
837.20 0.368
837.30 0.3679
837.40 0.3678
837.50 0.3677
837.60 0.3676
837.70 0.3675
837.80 0.3674
837.90 0.3673
838.00 0.3672
838.10 0.3671
838.20 0.367
838.30 0.3669
838.40 0.3668
838.50 0.3666
838.60 0.3665
838.70 0.3664
838.80 0.3663
838.90 0.3662
839.00 0.3661
839.10 0.366
839.20 0.3659
839.30 0.3658
839.40 0.3657
839.50 0.3656
839.60 0.3655
839.70 0.3654
839.80 0.3653
839.90 0.3652
840.00 0.3651
840.10 0.365
840.20 0.3649
840.30 0.3648
840.40 0.3647
840.50 0.3646
840.60 0.3644
840.70 0.3643
840.80 0.3642
840.90 0.3641
841.00 0.364
841.10 0.3639
841.20 0.3638
841.30 0.3637
841.40 0.3636
841.50 0.3635
841.60 0.3634
841.70 0.3633
841.80 0.3632
841.90 0.3631
842.00 0.363
842.10 0.3629
842.20 0.3628
842.30 0.3627
842.40 0.3626
842.50 0.3625
842.60 0.3624
842.70 0.3623
842.80 0.3622
842.90 0.3621
843.00 0.3619
843.10 0.3618
843.20 0.3617
843.30 0.3616
843.40 0.3615
843.50 0.3614
843.60 0.3613
843.70 0.3612
843.80 0.3611
843.90 0.361
844.00 0.3609
844.10 0.3608
844.20 0.3607
844.30 0.3606
844.40 0.3605
844.50 0.3604
844.60 0.3603
844.70 0.3602
844.80 0.3601
844.90 0.36
845.00 0.3599
845.10 0.3598
845.20 0.3597
845.30 0.3596
845.40 0.3595
845.50 0.3594
845.60 0.3593
845.70 0.3592
845.80 0.3591
845.90 0.359
846.00 0.3589
846.10 0.3588
846.20 0.3587
846.30 0.3586
846.40 0.3585
846.50 0.3583
846.60 0.3582
846.70 0.3581
846.80 0.358
846.90 0.3579
847.00 0.3578
847.10 0.3577
847.20 0.3576
847.30 0.3575
847.40 0.3574
847.50 0.3573
847.60 0.3572
847.70 0.3571
847.80 0.357
847.90 0.3569
848.00 0.3568
848.10 0.3567
848.20 0.3566
848.30 0.3565
848.40 0.3564
848.50 0.3563
848.60 0.3562
848.70 0.3561
848.80 0.356
848.90 0.3559
849.00 0.3558
849.10 0.3557
849.20 0.3556
849.30 0.3555
849.40 0.3554
849.50 0.3553
849.60 0.3552
849.70 0.3551
849.80 0.355
849.90 0.3549
850.00 0.3548
850.10 0.3547
850.20 0.3546
850.30 0.3545
850.40 0.3544
850.50 0.3543
850.60 0.3542
850.70 0.3541
850.80 0.354
850.90 0.3539
851.00 0.3538
851.10 0.3537
851.20 0.3536
851.30 0.3535
851.40 0.3534
851.50 0.3533
851.60 0.3532
851.70 0.3531
851.80 0.353
851.90 0.3529
852.00 0.3528
852.10 0.3527
852.20 0.3526
852.30 0.3525
852.40 0.3524
852.50 0.3523
852.60 0.3522
852.70 0.3521
852.80 0.352
852.90 0.3519
853.00 0.3518
853.10 0.3517
853.20 0.3516
853.30 0.3515
853.40 0.3514
853.50 0.3513
853.60 0.3512
853.70 0.3511
853.80 0.351
853.90 0.3509
854.00 0.3508
854.10 0.3507
854.20 0.3506
854.30 0.3505
854.40 0.3504
854.50 0.3503
854.60 0.3502
854.70 0.3501
854.80 0.35
854.90 0.3499
855.00 0.3498
855.10 0.3497
855.20 0.3496
855.30 0.3495
855.40 0.3494
855.50 0.3493
855.60 0.3492
855.70 0.3491
855.80 0.349
855.90 0.3489
856.00 0.3488
856.10 0.3487
856.20 0.3486
856.30 0.3485
856.40 0.3484
856.50 0.3483
856.60 0.3482
856.70 0.3481
856.80 0.348
856.90 0.3479
857.00 0.3478
857.10 0.3477
857.20 0.3476
857.30 0.3475
857.40 0.3474
857.50 0.3473
857.60 0.3472
857.70 0.3471
857.80 0.347
857.90 0.3469
858.00 0.3468
858.10 0.3467
858.20 0.3466
858.30 0.3465
858.40 0.3464
858.50 0.3463
858.60 0.3462
858.70 0.3462
858.80 0.3461
858.90 0.346
859.00 0.3459
859.10 0.3458
859.20 0.3457
859.30 0.3456
859.40 0.3455
859.50 0.3454
859.60 0.3453
859.70 0.3452
859.80 0.3451
859.90 0.345
860.00 0.3449
860.10 0.3448
860.20 0.3447
860.30 0.3446
860.40 0.3445
860.50 0.3444
860.60 0.3443
860.70 0.3442
860.80 0.3441
860.90 0.344
861.00 0.3439
861.10 0.3438
861.20 0.3437
861.30 0.3436
861.40 0.3435
861.50 0.3434
861.60 0.3433
861.70 0.3432
861.80 0.3431
861.90 0.343
862.00 0.3429
862.10 0.3428
862.20 0.3427
862.30 0.3426
862.40 0.3425
862.50 0.3424
862.60 0.3423
862.70 0.3423
862.80 0.3422
862.90 0.3421
863.00 0.342
863.10 0.3419
863.20 0.3418
863.30 0.3417
863.40 0.3416
863.50 0.3415
863.60 0.3414
863.70 0.3413
863.80 0.3412
863.90 0.3411
864.00 0.341
864.10 0.3409
864.20 0.3408
864.30 0.3407
864.40 0.3406
864.50 0.3405
864.60 0.3404
864.70 0.3403
864.80 0.3402
864.90 0.3401
865.00 0.34
865.10 0.3399
865.20 0.3398
865.30 0.3397
865.40 0.3396
865.50 0.3395
865.60 0.3394
865.70 0.3393
865.80 0.3392
865.90 0.3391
866.00 0.3391
866.10 0.339
866.20 0.3389
866.30 0.3388
866.40 0.3387
866.50 0.3386
866.60 0.3385
866.70 0.3384
866.80 0.3383
866.90 0.3382
867.00 0.3381
867.10 0.338
867.20 0.3379
867.30 0.3378
867.40 0.3377
867.50 0.3376
867.60 0.3375
867.70 0.3374
867.80 0.3373
867.90 0.3372
868.00 0.3371
868.10 0.3371
868.20 0.337
868.30 0.3369
868.40 0.3368
868.50 0.3367
868.60 0.3366
868.70 0.3365
868.80 0.3364
868.90 0.3363
869.00 0.3362
869.10 0.3361
869.20 0.336
869.30 0.3359
869.40 0.3358
869.50 0.3357
869.60 0.3356
869.70 0.3355
869.80 0.3355
869.90 0.3354
870.00 0.3353
870.10 0.3352
870.20 0.3351
870.30 0.335
870.40 0.3349
870.50 0.3348
870.60 0.3347
870.70 0.3346
870.80 0.3345
870.90 0.3344
871.00 0.3343
871.10 0.3342
871.20 0.3341
871.30 0.3341
871.40 0.334
871.50 0.3339
871.60 0.3338
871.70 0.3337
871.80 0.3336
871.90 0.3335
872.00 0.3334
872.10 0.3333
872.20 0.3332
872.30 0.3331
872.40 0.333
872.50 0.3329
872.60 0.3328
872.70 0.3327
872.80 0.3326
872.90 0.3326
873.00 0.3325
873.10 0.3324
873.20 0.3323
873.30 0.3322
873.40 0.3321
873.50 0.332
873.60 0.3319
873.70 0.3318
873.80 0.3317
873.90 0.3316
874.00 0.3315
874.10 0.3314
874.20 0.3313
874.30 0.3313
874.40 0.3312
874.50 0.3311
874.60 0.331
874.70 0.3309
874.80 0.3308
874.90 0.3307
875.00 0.3306
875.10 0.3305
875.20 0.3304
875.30 0.3303
875.40 0.3302
875.50 0.3301
875.60 0.33
875.70 0.33
875.80 0.3299
875.90 0.3298
876.00 0.3297
876.10 0.3296
876.20 0.3295
876.30 0.3294
876.40 0.3293
876.50 0.3292
876.60 0.3291
876.70 0.329
876.80 0.3289
876.90 0.3288
877.00 0.3288
877.10 0.3287
877.20 0.3286
877.30 0.3285
877.40 0.3284
877.50 0.3283
877.60 0.3282
877.70 0.3281
877.80 0.328
877.90 0.3279
878.00 0.3278
878.10 0.3277
878.20 0.3277
878.30 0.3276
878.40 0.3275
878.50 0.3274
878.60 0.3273
878.70 0.3272
878.80 0.3271
878.90 0.327
879.00 0.3269
879.10 0.3268
879.20 0.3267
879.30 0.3267
879.40 0.3266
879.50 0.3265
879.60 0.3264
879.70 0.3263
879.80 0.3262
879.90 0.3261
880.00 0.326
880.10 0.3259
880.20 0.3258
880.30 0.3257
880.40 0.3257
880.50 0.3256
880.60 0.3255
880.70 0.3254
880.80 0.3253
880.90 0.3252
881.00 0.3251
881.10 0.325
881.20 0.3249
881.30 0.3248
881.40 0.3247
881.50 0.3247
881.60 0.3246
881.70 0.3245
881.80 0.3244
881.90 0.3243
882.00 0.3242
882.10 0.3241
882.20 0.324
882.30 0.3239
882.40 0.3238
882.50 0.3237
882.60 0.3236
882.70 0.3235
882.80 0.3235
882.90 0.3234
883.00 0.3233
883.10 0.3232
883.20 0.3231
883.30 0.323
883.40 0.3229
883.50 0.3228
883.60 0.3227
883.70 0.3226
883.80 0.3225
883.90 0.3224
884.00 0.3223
884.10 0.3222
884.20 0.3221
884.30 0.3221
884.40 0.322
884.50 0.3219
884.60 0.3218
884.70 0.3217
884.80 0.3216
884.90 0.3215
885.00 0.3214
885.10 0.3213
885.20 0.3212
885.30 0.3211
885.40 0.321
885.50 0.3209
885.60 0.3208
885.70 0.3208
885.80 0.3207
885.90 0.3206
886.00 0.3205
886.10 0.3204
886.20 0.3203
886.30 0.3202
886.40 0.3201
886.50 0.32
886.60 0.3199
886.70 0.3198
886.80 0.3197
886.90 0.3196
887.00 0.3195
887.10 0.3195
887.20 0.3194
887.30 0.3193
887.40 0.3192
887.50 0.3191
887.60 0.319
887.70 0.319
887.80 0.3189
887.90 0.3188
888.00 0.3187
888.10 0.3186
888.20 0.3185
888.30 0.3184
888.40 0.3184
888.50 0.3183
888.60 0.3182
888.70 0.3181
888.80 0.318
888.90 0.3179
889.00 0.3179
889.10 0.3178
889.20 0.3177
889.30 0.3176
889.40 0.3175
889.50 0.3174
889.60 0.3174
889.70 0.3173
889.80 0.3172
889.90 0.3171
890.00 0.317
890.10 0.3169
890.20 0.3168
890.30 0.3168
890.40 0.3167
890.50 0.3166
890.60 0.3165
890.70 0.3164
890.80 0.3163
890.90 0.3163
891.00 0.3162
891.10 0.3161
891.20 0.316
891.30 0.3159
891.40 0.3158
891.50 0.3158
891.60 0.3157
891.70 0.3156
891.80 0.3155
891.90 0.3154
892.00 0.3153
892.10 0.3153
892.20 0.3152
892.30 0.3151
892.40 0.315
892.50 0.3149
892.60 0.3148
892.70 0.3147
892.80 0.3146
892.90 0.3145
893.00 0.3145
893.10 0.3144
893.20 0.3143
893.30 0.3142
893.40 0.3141
893.50 0.314
893.60 0.3139
893.70 0.3138
893.80 0.3138
893.90 0.3137
894.00 0.3136
894.10 0.3135
894.20 0.3134
894.30 0.3133
894.40 0.3132
894.50 0.3131
894.60 0.3131
894.70 0.313
894.80 0.3129
894.90 0.3128
895.00 0.3127
895.10 0.3126
895.20 0.3125
895.30 0.3125
895.40 0.3124
895.50 0.3123
895.60 0.3122
895.70 0.3121
895.80 0.312
895.90 0.3119
896.00 0.3118
896.10 0.3118
896.20 0.3117
896.30 0.3116
896.40 0.3115
896.50 0.3114
896.60 0.3113
896.70 0.3112
896.80 0.3112
896.90 0.3111
897.00 0.311
897.10 0.3109
897.20 0.3108
897.30 0.3107
897.40 0.3106
897.50 0.3105
897.60 0.3104
897.70 0.3103
897.80 0.3102
897.90 0.3101
898.00 0.31
898.10 0.3099
898.20 0.3098
898.30 0.3097
898.40 0.3096
898.50 0.3095
898.60 0.3094
898.70 0.3093
898.80 0.3092
898.90 0.3091
899.00 0.309
899.10 0.3089
899.20 0.3088
899.30 0.3088
899.40 0.3087
899.50 0.3086
899.60 0.3085
899.70 0.3084
899.80 0.3083
899.90 0.3082
900.00 0.3081
900.10 0.308
900.20 0.3079
900.30 0.3078
900.40 0.3077
900.50 0.3076
900.60 0.3075
900.70 0.3074
900.80 0.3073
900.90 0.3072
901.00 0.3071
901.10 0.307
901.20 0.3069
901.30 0.3068
901.40 0.3067
901.50 0.3066
901.60 0.3065
901.70 0.3065
901.80 0.3064
901.90 0.3063
902.00 0.3062
902.10 0.3061
902.20 0.306
902.30 0.3059
902.40 0.3059
902.50 0.3058
902.60 0.3057
902.70 0.3057
902.80 0.3056
902.90 0.3055
903.00 0.3054
903.10 0.3054
903.20 0.3053
903.30 0.3052
903.40 0.3051
903.50 0.3051
903.60 0.305
903.70 0.3049
903.80 0.3049
903.90 0.3048
904.00 0.3047
904.10 0.3046
904.20 0.3046
904.30 0.3045
904.40 0.3044
904.50 0.3044
904.60 0.3043
904.70 0.3042
904.80 0.3041
904.90 0.3041
905.00 0.304
905.10 0.3039
905.20 0.3038
905.30 0.3038
905.40 0.3037
905.50 0.3036
905.60 0.3036
905.70 0.3035
905.80 0.3034
905.90 0.3033
906.00 0.3033
906.10 0.3032
906.20 0.3031
906.30 0.3031
906.40 0.303
906.50 0.3029
906.60 0.3028
906.70 0.3028
906.80 0.3027
906.90 0.3026
907.00 0.3026
907.10 0.3025
907.20 0.3024
907.30 0.3023
907.40 0.3022
907.50 0.3021
907.60 0.3021
907.70 0.302
907.80 0.3019
907.90 0.3018
908.00 0.3017
908.10 0.3017
908.20 0.3016
908.30 0.3015
908.40 0.3014
908.50 0.3013
908.60 0.3012
908.70 0.3012
908.80 0.3011
908.90 0.301
909.00 0.3009
909.10 0.3008
909.20 0.3008
909.30 0.3007
909.40 0.3006
909.50 0.3005
909.60 0.3004
909.70 0.3004
909.80 0.3003
909.90 0.3002
910.00 0.3001
910.10 0.3
910.20 0.2999
910.30 0.2999
910.40 0.2998
910.50 0.2997
910.60 0.2996
910.70 0.2995
910.80 0.2995
910.90 0.2994
911.00 0.2993
911.10 0.2992
911.20 0.2991
911.30 0.2991
911.40 0.299
911.50 0.2989
911.60 0.2988
911.70 0.2987
911.80 0.2987
911.90 0.2986
912.00 0.2985
912.10 0.2984
912.20 0.2983
912.30 0.2982
912.40 0.2982
912.50 0.2981
912.60 0.298
912.70 0.2979
912.80 0.2978
912.90 0.2977
913.00 0.2977
913.10 0.2976
913.20 0.2975
913.30 0.2974
913.40 0.2973
913.50 0.2972
913.60 0.2972
913.70 0.2971
913.80 0.297
913.90 0.2969
914.00 0.2968
914.10 0.2967
914.20 0.2967
914.30 0.2966
914.40 0.2965
914.50 0.2964
914.60 0.2963
914.70 0.2962
914.80 0.2962
914.90 0.2961
915.00 0.296
915.10 0.2959
915.20 0.2958
915.30 0.2957
915.40 0.2957
915.50 0.2956
915.60 0.2955
915.70 0.2954
915.80 0.2953
915.90 0.2952
916.00 0.2952
916.10 0.2951
916.20 0.295
916.30 0.2949
916.40 0.2948
916.50 0.2947
916.60 0.2947
916.70 0.2946
916.80 0.2945
916.90 0.2944
917.00 0.2943
917.10 0.2942
917.20 0.2941
917.30 0.294
917.40 0.2939
917.50 0.2938
917.60 0.2937
917.70 0.2936
917.80 0.2935
917.90 0.2933
918.00 0.2932
918.10 0.2931
918.20 0.293
918.30 0.2929
918.40 0.2928
918.50 0.2927
918.60 0.2926
918.70 0.2925
918.80 0.2924
918.90 0.2922
919.00 0.2921
919.10 0.292
919.20 0.2919
919.30 0.2918
919.40 0.2917
919.50 0.2916
919.60 0.2915
919.70 0.2914
919.80 0.2913
919.90 0.2911
920.00 0.291
920.10 0.2909
920.20 0.2908
920.30 0.2907
920.40 0.2906
920.50 0.2905
920.60 0.2904
920.70 0.2903
920.80 0.2902
920.90 0.2901
921.00 0.2899
921.10 0.2898
921.20 0.2897
921.30 0.2896
921.40 0.2895
921.50 0.2894
921.60 0.2893
921.70 0.2892
921.80 0.2891
921.90 0.289
922.00 0.2889
922.10 0.2888
922.20 0.2887
922.30 0.2887
922.40 0.2886
922.50 0.2886
922.60 0.2885
922.70 0.2885
922.80 0.2884
922.90 0.2884
923.00 0.2883
923.10 0.2883
923.20 0.2882
923.30 0.2881
923.40 0.2881
923.50 0.288
923.60 0.288
923.70 0.2879
923.80 0.2879
923.90 0.2878
924.00 0.2878
924.10 0.2877
924.20 0.2877
924.30 0.2876
924.40 0.2875
924.50 0.2875
924.60 0.2874
924.70 0.2874
924.80 0.2873
924.90 0.2873
925.00 0.2872
925.10 0.2872
925.20 0.2871
925.30 0.2871
925.40 0.287
925.50 0.2869
925.60 0.2869
925.70 0.2868
925.80 0.2868
925.90 0.2867
926.00 0.2867
926.10 0.2866
926.20 0.2866
926.30 0.2865
926.40 0.2865
926.50 0.2864
926.60 0.2863
926.70 0.2863
926.80 0.2862
926.90 0.2862
927.00 0.2861
927.10 0.2861
927.20 0.286
927.30 0.2859
927.40 0.2858
927.50 0.2858
927.60 0.2857
927.70 0.2856
927.80 0.2856
927.90 0.2855
928.00 0.2854
928.10 0.2853
928.20 0.2853
928.30 0.2852
928.40 0.2851
928.50 0.2851
928.60 0.285
928.70 0.2849
928.80 0.2849
928.90 0.2848
929.00 0.2847
929.10 0.2846
929.20 0.2846
929.30 0.2845
929.40 0.2844
929.50 0.2844
929.60 0.2843
929.70 0.2842
929.80 0.2841
929.90 0.2841
930.00 0.284
930.10 0.2839
930.20 0.2839
930.30 0.2838
930.40 0.2837
930.50 0.2837
930.60 0.2836
930.70 0.2835
930.80 0.2834
930.90 0.2834
931.00 0.2833
931.10 0.2832
931.20 0.2832
931.30 0.2831
931.40 0.283
931.50 0.283
931.60 0.2829
931.70 0.2828
931.80 0.2827
931.90 0.2827
932.00 0.2826
932.10 0.2825
932.20 0.2825
932.30 0.2824
932.40 0.2823
932.50 0.2822
932.60 0.2822
932.70 0.2821
932.80 0.282
932.90 0.2819
933.00 0.2819
933.10 0.2818
933.20 0.2817
933.30 0.2816
933.40 0.2816
933.50 0.2815
933.60 0.2814
933.70 0.2813
933.80 0.2813
933.90 0.2812
934.00 0.2811
934.10 0.281
934.20 0.281
934.30 0.2809
934.40 0.2808
934.50 0.2807
934.60 0.2807
934.70 0.2806
934.80 0.2805
934.90 0.2804
935.00 0.2804
935.10 0.2803
935.20 0.2802
935.30 0.2801
935.40 0.2801
935.50 0.28
935.60 0.2799
935.70 0.2799
935.80 0.2798
935.90 0.2797
936.00 0.2796
936.10 0.2796
936.20 0.2795
936.30 0.2794
936.40 0.2793
936.50 0.2793
936.60 0.2792
936.70 0.2791
936.80 0.279
936.90 0.279
937.00 0.2789
937.10 0.2788
937.20 0.2787
937.30 0.2787
937.40 0.2786
937.50 0.2785
937.60 0.2784
937.70 0.2784
937.80 0.2783
937.90 0.2782
938.00 0.2781
938.10 0.2781
938.20 0.278
938.30 0.2779
938.40 0.2778
938.50 0.2778
938.60 0.2777
938.70 0.2776
938.80 0.2775
938.90 0.2775
939.00 0.2774
939.10 0.2773
939.20 0.2772
939.30 0.2772
939.40 0.2771
939.50 0.277
939.60 0.2769
939.70 0.2769
939.80 0.2768
939.90 0.2767
940.00 0.2766
940.10 0.2766
940.20 0.2765
940.30 0.2764
940.40 0.2763
940.50 0.2763
940.60 0.2762
940.70 0.2761
940.80 0.276
940.90 0.276
941.00 0.2759
941.10 0.2758
941.20 0.2757
941.30 0.2756
941.40 0.2756
941.50 0.2755
941.60 0.2754
941.70 0.2753
941.80 0.2753
941.90 0.2752
942.00 0.2751
942.10 0.275
942.20 0.275
942.30 0.2749
942.40 0.2748
942.50 0.2747
942.60 0.2747
942.70 0.2746
942.80 0.2745
942.90 0.2744
943.00 0.2744
943.10 0.2743
943.20 0.2742
943.30 0.2741
943.40 0.274
943.50 0.274
943.60 0.2739
943.70 0.2738
943.80 0.2737
943.90 0.2737
944.00 0.2736
944.10 0.2735
944.20 0.2734
944.30 0.2734
944.40 0.2733
944.50 0.2732
944.60 0.2731
944.70 0.2731
944.80 0.273
944.90 0.2729
945.00 0.2728
945.10 0.2727
945.20 0.2727
945.30 0.2726
945.40 0.2725
945.50 0.2724
945.60 0.2723
945.70 0.2723
945.80 0.2722
945.90 0.2721
946.00 0.272
946.10 0.2719
946.20 0.2719
946.30 0.2718
946.40 0.2717
946.50 0.2716
946.60 0.2715
946.70 0.2715
946.80 0.2714
946.90 0.2713
947.00 0.2712
947.10 0.2711
947.20 0.2711
947.30 0.271
947.40 0.2709
947.50 0.2708
947.60 0.2707
947.70 0.2706
947.80 0.2705
947.90 0.2704
948.00 0.2703
948.10 0.2703
948.20 0.2702
948.30 0.2701
948.40 0.27
948.50 0.2699
948.60 0.2698
948.70 0.2697
948.80 0.2696
948.90 0.2695
949.00 0.2695
949.10 0.2694
949.20 0.2693
949.30 0.2692
949.40 0.2691
949.50 0.269
949.60 0.2689
949.70 0.2688
949.80 0.2686
949.90 0.2685
950.00 0.2684
950.10 0.2683
950.20 0.2682
950.30 0.2681
950.40 0.268
950.50 0.2679
950.60 0.2678
950.70 0.2677
950.80 0.2676
950.90 0.2675
951.00 0.2674
951.10 0.2673
951.20 0.2672
951.30 0.2671
951.40 0.2669
951.50 0.2668
951.60 0.2667
951.70 0.2665
951.80 0.2664
951.90 0.2663
952.00 0.2662
952.10 0.266
952.20 0.2659
952.30 0.2657
952.40 0.2656
952.50 0.2654
952.60 0.2653
952.70 0.2651
952.80 0.265
952.90 0.2648
953.00 0.2646
953.10 0.2644
953.20 0.2642
953.30 0.264
953.40 0.2639
953.50 0.2637
953.60 0.2634
953.70 0.2632
953.80 0.263
953.90 0.2627
954.00 0.2625
954.10 0.2623
954.20 0.2624
954.30 0.2628
954.40 0.2622
954.50 0.262
954.60 0.2621
954.70 0.2621
954.80 0.2622
954.90 0.2623
955.00 0.2624
955.10 0.2625
955.20 0.2625
955.30 0.2626
955.40 0.2626
955.50 0.2627
955.60 0.2627
955.70 0.2628
955.80 0.2628
955.90 0.2628
956.00 0.2628
956.10 0.2628
956.20 0.2628
956.30 0.2628
956.40 0.2628
956.50 0.2628
956.60 0.2628
956.70 0.2628
956.80 0.2628
956.90 0.2628
957.00 0.2628
957.10 0.2628
957.20 0.2627
957.30 0.2627
957.40 0.2627
957.50 0.2626
957.60 0.2626
957.70 0.2626
957.80 0.2625
957.90 0.2625
958.00 0.2625
958.10 0.2624
958.20 0.2624
958.30 0.2623
958.40 0.2623
958.50 0.2623
958.60 0.2622
958.70 0.2622
958.80 0.2622
958.90 0.2621
959.00 0.2621
959.10 0.2621
959.20 0.262
959.30 0.262
959.40 0.2619
959.50 0.2619
959.60 0.2618
959.70 0.2618
959.80 0.2617
959.90 0.2617
960.00 0.2616
960.10 0.2616
960.20 0.2615
960.30 0.2615
960.40 0.2614
960.50 0.2614
960.60 0.2613
960.70 0.2612
960.80 0.2612
960.90 0.2611
961.00 0.2611
961.10 0.261
961.20 0.261
961.30 0.2609
961.40 0.2609
961.50 0.2608
961.60 0.2608
961.70 0.2607
961.80 0.2606
961.90 0.2606
962.00 0.2605
962.10 0.2605
962.20 0.2604
962.30 0.2603
962.40 0.2603
962.50 0.2602
962.60 0.2602
962.70 0.2601
962.80 0.26
962.90 0.26
963.00 0.2599
963.10 0.2599
963.20 0.2598
963.30 0.2597
963.40 0.2597
963.50 0.2596
963.60 0.2595
963.70 0.2595
963.80 0.2594
963.90 0.2593
964.00 0.2593
964.10 0.2592
964.20 0.2592
964.30 0.2591
964.40 0.259
964.50 0.259
964.60 0.2589
964.70 0.2588
964.80 0.2588
964.90 0.2587
965.00 0.2586
965.10 0.2586
965.20 0.2585
965.30 0.2584
965.40 0.2584
965.50 0.2583
965.60 0.2582
965.70 0.2582
965.80 0.2581
965.90 0.2581
966.00 0.258
966.10 0.2579
966.20 0.2579
966.30 0.2578
966.40 0.2577
966.50 0.2577
966.60 0.2576
966.70 0.2575
966.80 0.2575
966.90 0.2574
967.00 0.2573
967.10 0.2573
967.20 0.2572
967.30 0.2571
967.40 0.2571
967.50 0.257
967.60 0.2569
967.70 0.2569
967.80 0.2568
967.90 0.2567
968.00 0.2567
968.10 0.2566
968.20 0.2565
968.30 0.2565
968.40 0.2564
968.50 0.2563
968.60 0.2563
968.70 0.2562
968.80 0.2561
968.90 0.2561
969.00 0.256
969.10 0.2559
969.20 0.2559
969.30 0.2558
969.40 0.2557
969.50 0.2557
969.60 0.2556
969.70 0.2555
969.80 0.2555
969.90 0.2554
970.00 0.2553
970.10 0.2553
970.20 0.2552
970.30 0.2551
970.40 0.2551
970.50 0.255
970.60 0.2549
970.70 0.2549
970.80 0.2548
970.90 0.2547
971.00 0.2547
971.10 0.2546
971.20 0.2545
971.30 0.2545
971.40 0.2544
971.50 0.2543
971.60 0.2543
971.70 0.2542
971.80 0.2541
971.90 0.2541
972.00 0.254
972.10 0.2539
972.20 0.2539
972.30 0.2538
972.40 0.2537
972.50 0.2537
972.60 0.2536
972.70 0.2536
972.80 0.2535
972.90 0.2534
973.00 0.2534
973.10 0.2533
973.20 0.2532
973.30 0.2532
973.40 0.2531
973.50 0.253
973.60 0.253
973.70 0.2529
973.80 0.2528
973.90 0.2528
974.00 0.2527
974.10 0.2526
974.20 0.2526
974.30 0.2525
974.40 0.2524
974.50 0.2524
974.60 0.2523
974.70 0.2522
974.80 0.2522
974.90 0.2521
975.00 0.252
975.10 0.252
975.20 0.2519
975.30 0.2518
975.40 0.2518
975.50 0.2517
975.60 0.2516
975.70 0.2516
975.80 0.2515
975.90 0.2514
976.00 0.2514
976.10 0.2513
976.20 0.2512
976.30 0.2512
976.40 0.2511
976.50 0.251
976.60 0.251
976.70 0.2509
976.80 0.2508
976.90 0.2508
977.00 0.2507
977.10 0.2506
977.20 0.2506
977.30 0.2505
977.40 0.2504
977.50 0.2504
977.60 0.2503
977.70 0.2502
977.80 0.2502
977.90 0.2501
978.00 0.25
978.10 0.25
978.20 0.2499
978.30 0.2498
978.40 0.2498
978.50 0.2497
978.60 0.2496
978.70 0.2496
978.80 0.2495
978.90 0.2494
979.00 0.2494
979.10 0.2493
979.20 0.2492
979.30 0.2492
979.40 0.2491
979.50 0.2491
979.60 0.249
979.70 0.2489
979.80 0.2489
979.90 0.2488
980.00 0.2487
980.10 0.2487
980.20 0.2486
980.30 0.2485
980.40 0.2485
980.50 0.2484
980.60 0.2483
980.70 0.2483
980.80 0.2482
980.90 0.2481
981.00 0.2481
981.10 0.248
981.20 0.2479
981.30 0.2479
981.40 0.2478
981.50 0.2477
981.60 0.2477
981.70 0.2476
981.80 0.2476
981.90 0.2475
982.00 0.2474
982.10 0.2474
982.20 0.2473
982.30 0.2472
982.40 0.2472
982.50 0.2471
982.60 0.247
982.70 0.247
982.80 0.2469
982.90 0.2468
983.00 0.2468
983.10 0.2467
983.20 0.2466
983.30 0.2466
983.40 0.2465
983.50 0.2464
983.60 0.2464
983.70 0.2463
983.80 0.2462
983.90 0.2462
984.00 0.2461
984.10 0.246
984.20 0.246
984.30 0.2459
984.40 0.2459
984.50 0.2458
984.60 0.2457
984.70 0.2457
984.80 0.2456
984.90 0.2455
985.00 0.2455
985.10 0.2454
985.20 0.2453
985.30 0.2453
985.40 0.2452
985.50 0.2451
985.60 0.2451
985.70 0.245
985.80 0.2449
985.90 0.2449
986.00 0.2448
986.10 0.2447
986.20 0.2447
986.30 0.2446
986.40 0.2445
986.50 0.2445
986.60 0.2444
986.70 0.2443
986.80 0.2443
986.90 0.2442
987.00 0.2441
987.10 0.2441
987.20 0.244
987.30 0.244
987.40 0.2439
987.50 0.2438
987.60 0.2438
987.70 0.2437
987.80 0.2436
987.90 0.2436
988.00 0.2435
988.10 0.2434
988.20 0.2434
988.30 0.2433
988.40 0.2432
988.50 0.2432
988.60 0.2431
988.70 0.243
988.80 0.243
988.90 0.2429
989.00 0.2428
989.10 0.2428
989.20 0.2427
989.30 0.2426
989.40 0.2426
989.50 0.2425
989.60 0.2424
989.70 0.2424
989.80 0.2423
989.90 0.2423
990.00 0.2422
990.10 0.2421
990.20 0.2421
990.30 0.242
990.40 0.2419
990.50 0.2419
990.60 0.2418
990.70 0.2417
990.80 0.2417
990.90 0.2416
991.00 0.2415
991.10 0.2415
991.20 0.2414
991.30 0.2413
991.40 0.2413
991.50 0.2412
991.60 0.2411
991.70 0.2411
991.80 0.241
991.90 0.2409
992.00 0.2409
992.10 0.2408
992.20 0.2407
992.30 0.2407
992.40 0.2406
992.50 0.2405
992.60 0.2405
992.70 0.2404
992.80 0.2403
992.90 0.2402
993.00 0.2402
993.10 0.2401
993.20 0.24
993.30 0.24
993.40 0.2399
993.50 0.2398
993.60 0.2398
993.70 0.2397
993.80 0.2396
993.90 0.2396
994.00 0.2395
994.10 0.2394
994.20 0.2393
994.30 0.2393
994.40 0.2392
994.50 0.2391
994.60 0.2391
994.70 0.239
994.80 0.2389
994.90 0.2389
995.00 0.2388
995.10 0.2387
995.20 0.2386
995.30 0.2386
995.40 0.2385
995.50 0.2384
995.60 0.2384
995.70 0.2383
995.80 0.2382
995.90 0.2381
996.00 0.2381
996.10 0.238
996.20 0.2379
996.30 0.2378
996.40 0.2377
996.50 0.2377
996.60 0.2376
996.70 0.2375
996.80 0.2374
996.90 0.2374
997.00 0.2373
997.10 0.2372
997.20 0.2371
997.30 0.237
997.40 0.237
997.50 0.2369
997.60 0.2368
997.70 0.2367
997.80 0.2366
997.90 0.2365
998.00 0.2364
998.10 0.2363
998.20 0.2362
998.30 0.2361
998.40 0.236
998.50 0.2359
998.60 0.2359
998.70 0.2358
998.80 0.2357
998.90 0.2356
999.00 0.2355
999.10 0.2354
999.20 0.2353
999.30 0.2352
999.40 0.2351
999.50 0.235
999.60 0.2349
999.70 0.2348
999.80 0.2347
999.90 0.2345
1000.00 0.2344
1000.10 0.2343
1000.20 0.2341
1000.30 0.234
1000.40 0.2339
1000.50 0.2337
1000.60 0.2336
1000.70 0.2335
1000.80 0.2333
1000.90 0.2332
1001.00 0.2331
1001.10 0.233
1001.20 0.2328
1001.30 0.2327
1001.40 0.2326
1001.50 0.2324
1001.60 0.2323
1001.70 0.2321
1001.80 0.232
1001.90 0.2318
1002.00 0.2316
1002.10 0.2314
1002.20 0.2312
1002.30 0.231
1002.40 0.2308
1002.50 0.2306
1002.60 0.2304
1002.70 0.2301
1002.80 0.2299
1002.90 0.2297
1003.00 0.2295
1003.10 0.2293
1003.20 0.229
1003.30 0.2287
1003.40 0.2284
1003.50 0.2281
1003.60 0.2278
1003.70 0.2275
1003.80 0.2272
1003.90 0.2268
1004.00 0.2263
1004.10 0.2259
1004.20 0.2255
1004.30 0.225
1004.40 0.2246
1004.50 0.2243
1004.60 0.2251
1004.70 0.2244
1004.80 0.2242
1004.90 0.2245
1005.00 0.2248
1005.10 0.2252
1005.20 0.2255
1005.30 0.2258
1005.40 0.2261
1005.50 0.2263
1005.60 0.2265
1005.70 0.2267
1005.80 0.2269
1005.90 0.2271
1006.00 0.2272
1006.10 0.2274
1006.20 0.2275
1006.30 0.2276
1006.40 0.2277
1006.50 0.2278
1006.60 0.2279
1006.70 0.228
1006.80 0.2281
1006.90 0.2282
1007.00 0.2283
1007.10 0.2284
1007.20 0.2284
1007.30 0.2285
1007.40 0.2285
1007.50 0.2286
1007.60 0.2287
1007.70 0.2287
1007.80 0.2287
1007.90 0.2287
1008.00 0.2287
1008.10 0.2287
1008.20 0.2287
1008.30 0.2287
1008.40 0.2287
1008.50 0.2288
1008.60 0.2288
1008.70 0.2288
1008.80 0.2288
1008.90 0.2288
1009.00 0.2288
1009.10 0.2288
1009.20 0.2288
1009.30 0.2288
1009.40 0.2288
1009.50 0.2289
1009.60 0.2289
1009.70 0.2288
1009.80 0.2288
1009.90 0.2288
1010.00 0.2288
1010.10 0.2287
1010.20 0.2287
1010.30 0.2287
1010.40 0.2287
1010.50 0.2286
1010.60 0.2286
1010.70 0.2286
1010.80 0.2285
1010.90 0.2285
1011.00 0.2285
1011.10 0.2285
1011.20 0.2284
1011.30 0.2284
1011.40 0.2284
1011.50 0.2284
1011.60 0.2283
1011.70 0.2283
1011.80 0.2282
1011.90 0.2282
1012.00 0.2282
1012.10 0.2281
1012.20 0.2281
1012.30 0.228
1012.40 0.228
1012.50 0.2279
1012.60 0.2279
1012.70 0.2279
1012.80 0.2278
1012.90 0.2278
1013.00 0.2277
1013.10 0.2277
1013.20 0.2276
1013.30 0.2276
1013.40 0.2275
1013.50 0.2275
1013.60 0.2275
1013.70 0.2274
1013.80 0.2274
1013.90 0.2273
1014.00 0.2273
1014.10 0.2272
1014.20 0.2272
1014.30 0.2271
1014.40 0.2271
1014.50 0.227
1014.60 0.227
1014.70 0.2269
1014.80 0.2269
1014.90 0.2268
1015.00 0.2268
1015.10 0.2267
1015.20 0.2267
1015.30 0.2266
1015.40 0.2266
1015.50 0.2265
1015.60 0.2265
1015.70 0.2264
1015.80 0.2264
1015.90 0.2263
1016.00 0.2263
1016.10 0.2262
1016.20 0.2261
1016.30 0.2261
1016.40 0.226
1016.50 0.226
1016.60 0.2259
1016.70 0.2259
1016.80 0.2258
1016.90 0.2258
1017.00 0.2257
1017.10 0.2257
1017.20 0.2256
1017.30 0.2256
1017.40 0.2255
1017.50 0.2254
1017.60 0.2254
1017.70 0.2253
1017.80 0.2253
1017.90 0.2252
1018.00 0.2252
1018.10 0.2251
1018.20 0.2251
1018.30 0.225
1018.40 0.225
1018.50 0.2249
1018.60 0.2248
1018.70 0.2248
1018.80 0.2247
1018.90 0.2247
1019.00 0.2246
1019.10 0.2246
1019.20 0.2245
1019.30 0.2245
1019.40 0.2244
1019.50 0.2244
1019.60 0.2243
1019.70 0.2242
1019.80 0.2242
1019.90 0.2241
1020.00 0.2241
1020.10 0.224
1020.20 0.224
1020.30 0.2239
1020.40 0.2239
1020.50 0.2238
1020.60 0.2237
1020.70 0.2237
1020.80 0.2236
1020.90 0.2236
1021.00 0.2235
1021.10 0.2235
1021.20 0.2234
1021.30 0.2234
1021.40 0.2233
1021.50 0.2232
1021.60 0.2232
1021.70 0.2231
1021.80 0.2231
1021.90 0.223
1022.00 0.223
1022.10 0.2229
1022.20 0.2228
1022.30 0.2228
1022.40 0.2227
1022.50 0.2227
1022.60 0.2226
1022.70 0.2226
1022.80 0.2225
1022.90 0.2225
1023.00 0.2224
1023.10 0.2223
1023.20 0.2223
1023.30 0.2222
1023.40 0.2222
1023.50 0.2221
1023.60 0.2221
1023.70 0.222
1023.80 0.222
1023.90 0.2219
1024.00 0.2218
1024.10 0.2218
1024.20 0.2217
1024.30 0.2217
1024.40 0.2216
1024.50 0.2216
1024.60 0.2215
1024.70 0.2215
1024.80 0.2214
1024.90 0.2213
1025.00 0.2213
1025.10 0.2212
1025.20 0.2212
1025.30 0.2211
1025.40 0.2211
1025.50 0.221
1025.60 0.2209
1025.70 0.2209
1025.80 0.2208
1025.90 0.2208
1026.00 0.2207
1026.10 0.2207
1026.20 0.2206
1026.30 0.2206
1026.40 0.2205
1026.50 0.2204
1026.60 0.2204
1026.70 0.2203
1026.80 0.2203
1026.90 0.2202
1027.00 0.2202
1027.10 0.2201
1027.20 0.2201
1027.30 0.22
1027.40 0.2199
1027.50 0.2199
1027.60 0.2198
1027.70 0.2198
1027.80 0.2197
1027.90 0.2197
1028.00 0.2196
1028.10 0.2196
1028.20 0.2195
1028.30 0.2194
1028.40 0.2194
1028.50 0.2193
1028.60 0.2193
1028.70 0.2192
1028.80 0.2192
1028.90 0.2191
1029.00 0.2191
1029.10 0.219
1029.20 0.2189
1029.30 0.2189
1029.40 0.2188
1029.50 0.2188
1029.60 0.2187
1029.70 0.2187
1029.80 0.2186
1029.90 0.2186
1030.00 0.2185
1030.10 0.2184
1030.20 0.2184
1030.30 0.2183
1030.40 0.2183
1030.50 0.2182
1030.60 0.2182
1030.70 0.2181
1030.80 0.2181
1030.90 0.218
1031.00 0.2179
1031.10 0.2179
1031.20 0.2178
1031.30 0.2178
1031.40 0.2177
1031.50 0.2177
1031.60 0.2176
1031.70 0.2176
1031.80 0.2175
1031.90 0.2174
1032.00 0.2174
1032.10 0.2173
1032.20 0.2173
1032.30 0.2172
1032.40 0.2172
1032.50 0.2171
1032.60 0.2171
1032.70 0.217
1032.80 0.2169
1032.90 0.2169
1033.00 0.2168
1033.10 0.2168
1033.20 0.2167
1033.30 0.2167
1033.40 0.2166
1033.50 0.2166
1033.60 0.2165
1033.70 0.2165
1033.80 0.2164
1033.90 0.2163
1034.00 0.2163
1034.10 0.2162
1034.20 0.2162
1034.30 0.2161
1034.40 0.2161
1034.50 0.216
1034.60 0.216
1034.70 0.2159
1034.80 0.2158
1034.90 0.2158
1035.00 0.2157
1035.10 0.2157
1035.20 0.2156
1035.30 0.2156
1035.40 0.2155
1035.50 0.2155
1035.60 0.2154
1035.70 0.2154
1035.80 0.2153
1035.90 0.2152
1036.00 0.2152
1036.10 0.2151
1036.20 0.2151
1036.30 0.215
1036.40 0.215
1036.50 0.2149
1036.60 0.2149
1036.70 0.2148
1036.80 0.2148
1036.90 0.2147
1037.00 0.2146
1037.10 0.2146
1037.20 0.2145
1037.30 0.2145
1037.40 0.2144
1037.50 0.2144
1037.60 0.2143
1037.70 0.2143
1037.80 0.2142
1037.90 0.2142
1038.00 0.2141
1038.10 0.214
1038.20 0.214
1038.30 0.2139
1038.40 0.2139
1038.50 0.2138
1038.60 0.2138
1038.70 0.2137
1038.80 0.2137
1038.90 0.2136
1039.00 0.2136
1039.10 0.2135
1039.20 0.2134
1039.30 0.2134
1039.40 0.2133
1039.50 0.2133
1039.60 0.2132
1039.70 0.2132
1039.80 0.2131
1039.90 0.2131
1040.00 0.213
1040.10 0.213
1040.20 0.2129
1040.30 0.2129
1040.40 0.2128
1040.50 0.2127
1040.60 0.2127
1040.70 0.2126
1040.80 0.2126
1040.90 0.2125
1041.00 0.2125
1041.10 0.2124
1041.20 0.2124
1041.30 0.2123
1041.40 0.2123
1041.50 0.2122
1041.60 0.2122
1041.70 0.2121
1041.80 0.212
1041.90 0.212
1042.00 0.2119
1042.10 0.2119
1042.20 0.2118
1042.30 0.2118
1042.40 0.2117
1042.50 0.2117
1042.60 0.2116
1042.70 0.2116
1042.80 0.2115
1042.90 0.2115
1043.00 0.2114
1043.10 0.2113
1043.20 0.2113
1043.30 0.2112
1043.40 0.2112
1043.50 0.2111
1043.60 0.2111
1043.70 0.211
1043.80 0.211
1043.90 0.2109
1044.00 0.2109
1044.10 0.2108
1044.20 0.2108
1044.30 0.2107
1044.40 0.2107
1044.50 0.2106
1044.60 0.2105
1044.70 0.2105
1044.80 0.2104
1044.90 0.2104
1045.00 0.2103
1045.10 0.2103
1045.20 0.2102
1045.30 0.2102
1045.40 0.2101
1045.50 0.2101
1045.60 0.21
1045.70 0.21
1045.80 0.2099
1045.90 0.2099
1046.00 0.2098
1046.10 0.2098
1046.20 0.2097
1046.30 0.2096
1046.40 0.2096
1046.50 0.2095
1046.60 0.2095
1046.70 0.2094
1046.80 0.2094
1046.90 0.2093
1047.00 0.2093
1047.10 0.2092
1047.20 0.2092
1047.30 0.2091
1047.40 0.2091
1047.50 0.209
1047.60 0.209
1047.70 0.2089
1047.80 0.2089
1047.90 0.2088
1048.00 0.2087
1048.10 0.2087
1048.20 0.2086
1048.30 0.2086
1048.40 0.2085
1048.50 0.2085
1048.60 0.2084
1048.70 0.2084
1048.80 0.2083
1048.90 0.2083
1049.00 0.2082
1049.10 0.2082
1049.20 0.2081
1049.30 0.2081
1049.40 0.208
1049.50 0.208
1049.60 0.2079
1049.70 0.2079
1049.80 0.2078
1049.90 0.2078
1050.00 0.2077
1050.10 0.2076
1050.20 0.2076
1050.30 0.2075
1050.40 0.2075
1050.50 0.2074
1050.60 0.2074
1050.70 0.2073
1050.80 0.2073
1050.90 0.2072
1051.00 0.2072
1051.10 0.2071
1051.20 0.2071
1051.30 0.207
1051.40 0.207
1051.50 0.2069
1051.60 0.2069
1051.70 0.2068
1051.80 0.2068
1051.90 0.2067
1052.00 0.2067
1052.10 0.2066
1052.20 0.2065
1052.30 0.2065
1052.40 0.2064
1052.50 0.2064
1052.60 0.2063
1052.70 0.2063
1052.80 0.2062
1052.90 0.2062
1053.00 0.2061
1053.10 0.2061
1053.20 0.206
1053.30 0.206
1053.40 0.2059
1053.50 0.2059
1053.60 0.2058
1053.70 0.2058
1053.80 0.2057
1053.90 0.2057
1054.00 0.2056
1054.10 0.2056
1054.20 0.2055
1054.30 0.2055
1054.40 0.2054
1054.50 0.2054
1054.60 0.2053
1054.70 0.2053
1054.80 0.2052
1054.90 0.2052
1055.00 0.2051
1055.10 0.205
1055.20 0.205
1055.30 0.2049
1055.40 0.2049
1055.50 0.2048
1055.60 0.2048
1055.70 0.2047
1055.80 0.2047
1055.90 0.2046
1056.00 0.2046
1056.10 0.2045
1056.20 0.2045
1056.30 0.2044
1056.40 0.2044
1056.50 0.2043
1056.60 0.2043
1056.70 0.2042
1056.80 0.2042
1056.90 0.2041
1057.00 0.2041
1057.10 0.204
1057.20 0.204
1057.30 0.2039
1057.40 0.2039
1057.50 0.2038
1057.60 0.2038
1057.70 0.2037
1057.80 0.2037
1057.90 0.2036
1058.00 0.2036
1058.10 0.2035
1058.20 0.2035
1058.30 0.2034
1058.40 0.2034
1058.50 0.2033
1058.60 0.2032
1058.70 0.2032
1058.80 0.2031
1058.90 0.2031
1059.00 0.203
1059.10 0.203
1059.20 0.2029
1059.30 0.2029
1059.40 0.2028
1059.50 0.2028
1059.60 0.2027
1059.70 0.2027
1059.80 0.2026
1059.90 0.2026
1060.00 0.2025
1060.10 0.2025
1060.20 0.2024
1060.30 0.2024
1060.40 0.2023
1060.50 0.2023
1060.60 0.2022
1060.70 0.2022
1060.80 0.2021
1060.90 0.2021
1061.00 0.202
1061.10 0.202
1061.20 0.2019
1061.30 0.2019
1061.40 0.2018
1061.50 0.2018
1061.60 0.2017
1061.70 0.2017
1061.80 0.2016
1061.90 0.2016
1062.00 0.2015
1062.10 0.2015
1062.20 0.2014
1062.30 0.2014
1062.40 0.2013
1062.50 0.2013
1062.60 0.2012
1062.70 0.2012
1062.80 0.2011
1062.90 0.2011
1063.00 0.201
1063.10 0.201
1063.20 0.2009
1063.30 0.2009
1063.40 0.2008
1063.50 0.2008
1063.60 0.2007
1063.70 0.2007
1063.80 0.2006
1063.90 0.2006
1064.00 0.2005
1064.10 0.2005
1064.20 0.2004
1064.30 0.2004
1064.40 0.2003
1064.50 0.2003
1064.60 0.2002
1064.70 0.2002
1064.80 0.2001
1064.90 0.2001
1065.00 0.2
1065.10 0.2
1065.20 0.1999
1065.30 0.1999
1065.40 0.1998
1065.50 0.1998
1065.60 0.1997
1065.70 0.1997
1065.80 0.1996
1065.90 0.1996
1066.00 0.1995
1066.10 0.1995
1066.20 0.1994
1066.30 0.1994
1066.40 0.1993
1066.50 0.1993
1066.60 0.1992
1066.70 0.1992
1066.80 0.1991
1066.90 0.1991
1067.00 0.199
1067.10 0.199
1067.20 0.1989
1067.30 0.1989
1067.40 0.1988
1067.50 0.1988
1067.60 0.1987
1067.70 0.1987
1067.80 0.1986
1067.90 0.1986
1068.00 0.1985
1068.10 0.1985
1068.20 0.1984
1068.30 0.1984
1068.40 0.1983
1068.50 0.1983
1068.60 0.1982
1068.70 0.1982
1068.80 0.1981
1068.90 0.1981
1069.00 0.198
1069.10 0.198
1069.20 0.1979
1069.30 0.1979
1069.40 0.1978
1069.50 0.1978
1069.60 0.1977
1069.70 0.1977
1069.80 0.1976
1069.90 0.1976
1070.00 0.1975
1070.10 0.1975
1070.20 0.1974
1070.30 0.1974
1070.40 0.1973
1070.50 0.1973
1070.60 0.1972
1070.70 0.1972
1070.80 0.1971
1070.90 0.1971
1071.00 0.197
1071.10 0.197
1071.20 0.1969
1071.30 0.1969
1071.40 0.1968
1071.50 0.1968
1071.60 0.1967
1071.70 0.1967
1071.80 0.1966
1071.90 0.1966
1072.00 0.1965
1072.10 0.1965
1072.20 0.1964
1072.30 0.1964
1072.40 0.1963
1072.50 0.1963
1072.60 0.1962
1072.70 0.1962
1072.80 0.1961
1072.90 0.1961
1073.00 0.196
1073.10 0.196
1073.20 0.1959
1073.30 0.1959
1073.40 0.1958
1073.50 0.1958
1073.60 0.1957
1073.70 0.1957
1073.80 0.1956
1073.90 0.1956
1074.00 0.1955
1074.10 0.1955
1074.20 0.1954
1074.30 0.1954
1074.40 0.1953
1074.50 0.1953
1074.60 0.1952
1074.70 0.1952
1074.80 0.1951
1074.90 0.1951
1075.00 0.195
1075.10 0.195
1075.20 0.1949
1075.30 0.1949
1075.40 0.1948
1075.50 0.1948
1075.60 0.1947
1075.70 0.1947
1075.80 0.1946
1075.90 0.1946
1076.00 0.1945
1076.10 0.1945
1076.20 0.1944
1076.30 0.1944
1076.40 0.1943
1076.50 0.1943
1076.60 0.1942
1076.70 0.1942
1076.80 0.1941
1076.90 0.1941
1077.00 0.194
1077.10 0.194
1077.20 0.1939
1077.30 0.1939
1077.40 0.1938
1077.50 0.1938
1077.60 0.1937
1077.70 0.1937
1077.80 0.1936
1077.90 0.1936
1078.00 0.1935
1078.10 0.1935
1078.20 0.1934
1078.30 0.1934
1078.40 0.1933
1078.50 0.1933
1078.60 0.1932
1078.70 0.1932
1078.80 0.1931
1078.90 0.1931
1079.00 0.193
1079.10 0.193
1079.20 0.1929
1079.30 0.1929
1079.40 0.1928
1079.50 0.1928
1079.60 0.1927
1079.70 0.1926
1079.80 0.1926
1079.90 0.1925
1080.00 0.1925
1080.10 0.1924
1080.20 0.1924
1080.30 0.1923
1080.40 0.1923
1080.50 0.1922
1080.60 0.1922
1080.70 0.1921
1080.80 0.1921
1080.90 0.192
1081.00 0.192
1081.10 0.1919
1081.20 0.1919
1081.30 0.1918
1081.40 0.1918
1081.50 0.1917
1081.60 0.1917
1081.70 0.1916
1081.80 0.1915
1081.90 0.1915
1082.00 0.1914
1082.10 0.1914
1082.20 0.1913
1082.30 0.1913
1082.40 0.1912
1082.50 0.1912
1082.60 0.1911
1082.70 0.191
1082.80 0.191
1082.90 0.1909
1083.00 0.1909
1083.10 0.1908
1083.20 0.1908
1083.30 0.1907
1083.40 0.1907
1083.50 0.1906
1083.60 0.1905
1083.70 0.1905
1083.80 0.1904
1083.90 0.1904
1084.00 0.1903
1084.10 0.1902
1084.20 0.1902
1084.30 0.1901
1084.40 0.1901
1084.50 0.19
1084.60 0.1899
1084.70 0.1899
1084.80 0.1898
1084.90 0.1897
1085.00 0.1897
1085.10 0.1896
1085.20 0.1895
1085.30 0.1895
1085.40 0.1894
1085.50 0.1893
1085.60 0.1893
1085.70 0.1892
1085.80 0.1891
1085.90 0.1891
1086.00 0.189
1086.10 0.1889
1086.20 0.1889
1086.30 0.1888
1086.40 0.1887
1086.50 0.1886
1086.60 0.1886
1086.70 0.1885
1086.80 0.1884
1086.90 0.1883
1087.00 0.1882
1087.10 0.1881
1087.20 0.1881
1087.30 0.188
1087.40 0.1879
1087.50 0.1878
1087.60 0.1877
1087.70 0.1876
1087.80 0.1875
1087.90 0.1874
1088.00 0.1873
1088.10 0.1872
1088.20 0.1871
1088.30 0.187
1088.40 0.1869
1088.50 0.1868
1088.60 0.1867
1088.70 0.1865
1088.80 0.1864
1088.90 0.1862
1089.00 0.1861
1089.10 0.1859
1089.20 0.1858
1089.30 0.1856
1089.40 0.1855
1089.50 0.1853
1089.60 0.1852
1089.70 0.1851
1089.80 0.1849
1089.90 0.1848
1090.00 0.1846
1090.10 0.1845
1090.20 0.1843
1090.30 0.1842
1090.40 0.184
1090.50 0.1838
1090.60 0.1836
1090.70 0.1833
1090.80 0.183
1090.90 0.1827
1091.00 0.1825
1091.10 0.1822
1091.20 0.1819
1091.30 0.1816
1091.40 0.1814
1091.50 0.1811
1091.60 0.1808
1091.70 0.1806
1091.80 0.1803
1091.90 0.18
1092.00 0.1797
1092.10 0.1792
1092.20 0.1787
1092.30 0.1782
1092.40 0.1778
1092.50 0.1773
1092.60 0.1768
1092.70 0.1762
1092.80 0.1754
1092.90 0.1746
1093.00 0.1737
1093.10 0.1729
1093.20 0.1719
1093.30 0.1709
1093.40 0.1707
1093.50 0.171
1093.60 0.1705
1093.70 0.1714
1093.80 0.1722
1093.90 0.1731
1094.00 0.1738
1094.10 0.1745
1094.20 0.1753
1094.30 0.1759
1094.40 0.1763
1094.50 0.1767
1094.60 0.1771
1094.70 0.1775
1094.80 0.1778
1094.90 0.1782
1095.00 0.1785
1095.10 0.1787
1095.20 0.1789
1095.30 0.1791
1095.40 0.1793
1095.50 0.1795
1095.60 0.1796
1095.70 0.1798
1095.80 0.18
1095.90 0.1802
1096.00 0.1804
1096.10 0.1805
1096.20 0.1807
1096.30 0.1809
1096.40 0.1811
1096.50 0.1812
1096.60 0.1813
1096.70 0.1814
1096.80 0.1815
1096.90 0.1816
1097.00 0.1817
1097.10 0.1817
1097.20 0.1818
1097.30 0.1818
1097.40 0.1819
1097.50 0.1819
1097.60 0.1819
1097.70 0.182
1097.80 0.182
1097.90 0.1821
1098.00 0.1821
1098.10 0.1822
1098.20 0.1822
1098.30 0.1822
1098.40 0.1823
1098.50 0.1823
1098.60 0.1823
1098.70 0.1823
1098.80 0.1823
1098.90 0.1823
1099.00 0.1823
1099.10 0.1823
1099.20 0.1823
1099.30 0.1823
1099.40 0.1823
1099.50 0.1823
1099.60 0.1823
1099.70 0.1823
1099.80 0.1823
1099.90 0.1823
1100.00 0.1823
1100.10 0.1823
1100.20 0.1823
1100.30 0.1823
1100.40 0.1823
1100.50 0.1823
1100.60 0.1822
1100.70 0.1822
1100.80 0.1822
1100.90 0.1822
1101.00 0.1821
1101.10 0.1821
1101.20 0.1821
1101.30 0.1821
1101.40 0.1821
1101.50 0.182
1101.60 0.182
1101.70 0.182
1101.80 0.182
1101.90 0.1819
1102.00 0.1819
1102.10 0.1819
1102.20 0.1819
1102.30 0.1818
1102.40 0.1818
1102.50 0.1818
1102.60 0.1817
1102.70 0.1817
1102.80 0.1817
1102.90 0.1816
1103.00 0.1816
1103.10 0.1816
1103.20 0.1816
1103.30 0.1815
1103.40 0.1815
1103.50 0.1815
1103.60 0.1814
1103.70 0.1814
1103.80 0.1813
1103.90 0.1813
1104.00 0.1813
1104.10 0.1812
1104.20 0.1812
1104.30 0.1812
1104.40 0.1811
1104.50 0.1811
1104.60 0.1811
1104.70 0.181
1104.80 0.181
1104.90 0.181
1105.00 0.1809
1105.10 0.1809
1105.20 0.1808
1105.30 0.1808
1105.40 0.1808
1105.50 0.1807
1105.60 0.1807
1105.70 0.1807
1105.80 0.1806
1105.90 0.1806
1106.00 0.1805
1106.10 0.1805
1106.20 0.1805
1106.30 0.1804
1106.40 0.1804
1106.50 0.1803
1106.60 0.1803
1106.70 0.1803
1106.80 0.1802
1106.90 0.1802
1107.00 0.1801
1107.10 0.1801
1107.20 0.1801
1107.30 0.18
1107.40 0.18
1107.50 0.1799
1107.60 0.1799
1107.70 0.1799
1107.80 0.1798
1107.90 0.1798
1108.00 0.1797
1108.10 0.1797
1108.20 0.1797
1108.30 0.1796
1108.40 0.1796
1108.50 0.1795
1108.60 0.1795
1108.70 0.1795
1108.80 0.1794
1108.90 0.1794
1109.00 0.1793
1109.10 0.1793
1109.20 0.1793
1109.30 0.1792
1109.40 0.1792
1109.50 0.1791
1109.60 0.1791
1109.70 0.1791
1109.80 0.179
1109.90 0.179
1110.00 0.1789
1110.10 0.1789
1110.20 0.1788
1110.30 0.1788
1110.40 0.1788
1110.50 0.1787
1110.60 0.1787
1110.70 0.1786
1110.80 0.1786
1110.90 0.1786
1111.00 0.1785
1111.10 0.1785
1111.20 0.1784
1111.30 0.1784
1111.40 0.1783
1111.50 0.1783
1111.60 0.1783
1111.70 0.1782
1111.80 0.1782
1111.90 0.1781
1112.00 0.1781
1112.10 0.1781
1112.20 0.178
1112.30 0.178
1112.40 0.1779
1112.50 0.1779
1112.60 0.1778
1112.70 0.1778
1112.80 0.1778
1112.90 0.1777
1113.00 0.1777
1113.10 0.1776
1113.20 0.1776
1113.30 0.1776
1113.40 0.1775
1113.50 0.1775
1113.60 0.1774
1113.70 0.1774
1113.80 0.1773
1113.90 0.1773
1114.00 0.1773
1114.10 0.1772
1114.20 0.1772
1114.30 0.1771
1114.40 0.1771
1114.50 0.177
1114.60 0.177
1114.70 0.177
1114.80 0.1769
1114.90 0.1769
1115.00 0.1768
1115.10 0.1768
1115.20 0.1767
1115.30 0.1767
1115.40 0.1767
1115.50 0.1766
1115.60 0.1766
1115.70 0.1765
1115.80 0.1765
1115.90 0.1765
1116.00 0.1764
1116.10 0.1764
1116.20 0.1763
1116.30 0.1763
1116.40 0.1762
1116.50 0.1762
1116.60 0.1762
1116.70 0.1761
1116.80 0.1761
1116.90 0.176
1117.00 0.176
1117.10 0.1759
1117.20 0.1759
1117.30 0.1759
1117.40 0.1758
1117.50 0.1758
1117.60 0.1757
1117.70 0.1757
1117.80 0.1757
1117.90 0.1756
1118.00 0.1756
1118.10 0.1755
1118.20 0.1755
1118.30 0.1754
1118.40 0.1754
1118.50 0.1754
1118.60 0.1753
1118.70 0.1753
1118.80 0.1752
1118.90 0.1752
1119.00 0.1752
1119.10 0.1751
1119.20 0.1751
1119.30 0.175
1119.40 0.175
1119.50 0.1749
1119.60 0.1749
1119.70 0.1749
1119.80 0.1748
1119.90 0.1748
1120.00 0.1747
1120.10 0.1747
1120.20 0.1747
1120.30 0.1746
1120.40 0.1746
1120.50 0.1745
1120.60 0.1745
1120.70 0.1744
1120.80 0.1744
1120.90 0.1744
1121.00 0.1743
1121.10 0.1743
1121.20 0.1742
1121.30 0.1742
1121.40 0.1742
1121.50 0.1741
1121.60 0.1741
1121.70 0.174
1121.80 0.174
1121.90 0.1739
1122.00 0.1739
1122.10 0.1739
1122.20 0.1738
1122.30 0.1738
1122.40 0.1737
1122.50 0.1737
1122.60 0.1737
1122.70 0.1736
1122.80 0.1736
1122.90 0.1735
1123.00 0.1735
1123.10 0.1734
1123.20 0.1734
1123.30 0.1734
1123.40 0.1733
1123.50 0.1733
1123.60 0.1732
1123.70 0.1732
1123.80 0.1732
1123.90 0.1731
1124.00 0.1731
1124.10 0.173
1124.20 0.173
1124.30 0.1729
1124.40 0.1729
1124.50 0.1729
1124.60 0.1728
1124.70 0.1728
1124.80 0.1727
1124.90 0.1727
1125.00 0.1727
1125.10 0.1726
1125.20 0.1726
1125.30 0.1725
1125.40 0.1725
1125.50 0.1724
1125.60 0.1724
1125.70 0.1724
1125.80 0.1723
1125.90 0.1723
1126.00 0.1722
1126.10 0.1722
1126.20 0.1722
1126.30 0.1721
1126.40 0.1721
1126.50 0.172
1126.60 0.172
1126.70 0.172
1126.80 0.1719
1126.90 0.1719
1127.00 0.1718
1127.10 0.1718
1127.20 0.1717
1127.30 0.1717
1127.40 0.1717
1127.50 0.1716
1127.60 0.1716
1127.70 0.1715
1127.80 0.1715
1127.90 0.1715
1128.00 0.1714
1128.10 0.1714
1128.20 0.1713
1128.30 0.1713
1128.40 0.1713
1128.50 0.1712
1128.60 0.1712
1128.70 0.1711
1128.80 0.1711
1128.90 0.1711
1129.00 0.171
1129.10 0.171
1129.20 0.1709
1129.30 0.1709
1129.40 0.1708
1129.50 0.1708
1129.60 0.1708
1129.70 0.1707
1129.80 0.1707
1129.90 0.1706
1130.00 0.1706
1130.10 0.1706
1130.20 0.1705
1130.30 0.1705
1130.40 0.1704
1130.50 0.1704
1130.60 0.1704
1130.70 0.1703
1130.80 0.1703
1130.90 0.1702
1131.00 0.1702
1131.10 0.1702
1131.20 0.1701
1131.30 0.1701
1131.40 0.17
1131.50 0.17
1131.60 0.17
1131.70 0.1699
1131.80 0.1699
1131.90 0.1698
1132.00 0.1698
1132.10 0.1698
1132.20 0.1697
1132.30 0.1697
1132.40 0.1696
1132.50 0.1696
1132.60 0.1695
1132.70 0.1695
1132.80 0.1695
1132.90 0.1694
1133.00 0.1694
1133.10 0.1693
1133.20 0.1693
1133.30 0.1693
1133.40 0.1692
1133.50 0.1692
1133.60 0.1691
1133.70 0.1691
1133.80 0.1691
1133.90 0.169
1134.00 0.169
1134.10 0.1689
1134.20 0.1689
1134.30 0.1689
1134.40 0.1688
1134.50 0.1688
1134.60 0.1687
1134.70 0.1687
1134.80 0.1687
1134.90 0.1686
1135.00 0.1686
1135.10 0.1685
1135.20 0.1685
1135.30 0.1685
1135.40 0.1684
1135.50 0.1684
1135.60 0.1683
1135.70 0.1683
1135.80 0.1683
1135.90 0.1682
1136.00 0.1682
1136.10 0.1681
1136.20 0.1681
1136.30 0.1681
1136.40 0.168
1136.50 0.168
1136.60 0.1679
1136.70 0.1679
1136.80 0.1679
1136.90 0.1678
1137.00 0.1678
1137.10 0.1677
1137.20 0.1677
1137.30 0.1677
1137.40 0.1676
1137.50 0.1676
1137.60 0.1675
1137.70 0.1675
1137.80 0.1675
1137.90 0.1674
1138.00 0.1674
1138.10 0.1673
1138.20 0.1673
1138.30 0.1673
1138.40 0.1672
1138.50 0.1672
1138.60 0.1671
1138.70 0.1671
1138.80 0.1671
1138.90 0.167
1139.00 0.167
1139.10 0.1669
1139.20 0.1669
1139.30 0.1669
1139.40 0.1668
1139.50 0.1668
1139.60 0.1667
1139.70 0.1667
1139.80 0.1667
1139.90 0.1666
1140.00 0.1666
1140.10 0.1665
1140.20 0.1665
1140.30 0.1665
1140.40 0.1664
1140.50 0.1664
1140.60 0.1663
1140.70 0.1663
1140.80 0.1663
1140.90 0.1662
1141.00 0.1662
1141.10 0.1662
1141.20 0.1661
1141.30 0.1661
1141.40 0.166
1141.50 0.166
1141.60 0.166
1141.70 0.1659
1141.80 0.1659
1141.90 0.1658
1142.00 0.1658
1142.10 0.1658
1142.20 0.1657
1142.30 0.1657
1142.40 0.1656
1142.50 0.1656
1142.60 0.1656
1142.70 0.1655
1142.80 0.1655
1142.90 0.1654
1143.00 0.1654
1143.10 0.1654
1143.20 0.1653
1143.30 0.1653
1143.40 0.1652
1143.50 0.1652
1143.60 0.1652
1143.70 0.1651
1143.80 0.1651
1143.90 0.165
1144.00 0.165
1144.10 0.165
1144.20 0.1649
1144.30 0.1649
1144.40 0.1649
1144.50 0.1648
1144.60 0.1648
1144.70 0.1647
1144.80 0.1647
1144.90 0.1647
1145.00 0.1646
1145.10 0.1646
1145.20 0.1645
1145.30 0.1645
1145.40 0.1645
1145.50 0.1644
1145.60 0.1644
1145.70 0.1643
1145.80 0.1643
1145.90 0.1643
1146.00 0.1642
1146.10 0.1642
1146.20 0.1642
1146.30 0.1641
1146.40 0.1641
1146.50 0.164
1146.60 0.164
1146.70 0.164
1146.80 0.1639
1146.90 0.1639
1147.00 0.1638
1147.10 0.1638
1147.20 0.1638
1147.30 0.1637
1147.40 0.1637
1147.50 0.1636
1147.60 0.1636
1147.70 0.1636
1147.80 0.1635
1147.90 0.1635
1148.00 0.1635
1148.10 0.1634
1148.20 0.1634
1148.30 0.1633
1148.40 0.1633
1148.50 0.1633
1148.60 0.1632
1148.70 0.1632
1148.80 0.1631
1148.90 0.1631
1149.00 0.1631
1149.10 0.163
1149.20 0.163
1149.30 0.163
1149.40 0.1629
1149.50 0.1629
1149.60 0.1628
1149.70 0.1628
1149.80 0.1628
1149.90 0.1627
1150.00 0.1627
1150.10 0.1626
1150.20 0.1626
1150.30 0.1626
1150.40 0.1625
1150.50 0.1625
1150.60 0.1624
1150.70 0.1624
1150.80 0.1624
1150.90 0.1623
1151.00 0.1623
1151.10 0.1623
1151.20 0.1622
1151.30 0.1622
1151.40 0.1621
1151.50 0.1621
1151.60 0.1621
1151.70 0.162
1151.80 0.162
1151.90 0.162
1152.00 0.1619
1152.10 0.1619
1152.20 0.1618
1152.30 0.1618
1152.40 0.1618
1152.50 0.1617
1152.60 0.1617
1152.70 0.1616
1152.80 0.1616
1152.90 0.1616
1153.00 0.1615
1153.10 0.1615
1153.20 0.1615
1153.30 0.1614
1153.40 0.1614
1153.50 0.1613
1153.60 0.1613
1153.70 0.1613
1153.80 0.1612
1153.90 0.1612
1154.00 0.1611
1154.10 0.1611
1154.20 0.1611
1154.30 0.161
1154.40 0.161
1154.50 0.161
1154.60 0.1609
1154.70 0.1609
1154.80 0.1608
1154.90 0.1608
1155.00 0.1608
1155.10 0.1607
1155.20 0.1607
1155.30 0.1607
1155.40 0.1606
1155.50 0.1606
1155.60 0.1605
1155.70 0.1605
1155.80 0.1605
1155.90 0.1604
1156.00 0.1604
1156.10 0.1604
1156.20 0.1603
1156.30 0.1603
1156.40 0.1602
1156.50 0.1602
1156.60 0.1602
1156.70 0.1601
1156.80 0.1601
1156.90 0.1601
1157.00 0.16
1157.10 0.16
1157.20 0.1599
1157.30 0.1599
1157.40 0.1599
1157.50 0.1598
1157.60 0.1598
1157.70 0.1597
1157.80 0.1597
1157.90 0.1597
1158.00 0.1596
1158.10 0.1596
1158.20 0.1596
1158.30 0.1595
1158.40 0.1595
1158.50 0.1594
1158.60 0.1594
1158.70 0.1594
1158.80 0.1593
1158.90 0.1593
1159.00 0.1593
1159.10 0.1592
1159.20 0.1592
1159.30 0.1591
1159.40 0.1591
1159.50 0.1591
1159.60 0.159
1159.70 0.159
1159.80 0.159
1159.90 0.1589
1160.00 0.1589
1160.10 0.1588
1160.20 0.1588
1160.30 0.1588
1160.40 0.1587
1160.50 0.1587
1160.60 0.1587
1160.70 0.1586
1160.80 0.1586
1160.90 0.1585
1161.00 0.1585
1161.10 0.1585
1161.20 0.1584
1161.30 0.1584
1161.40 0.1584
1161.50 0.1583
1161.60 0.1583
1161.70 0.1583
1161.80 0.1582
1161.90 0.1582
1162.00 0.1581
1162.10 0.1581
1162.20 0.1581
1162.30 0.158
1162.40 0.158
1162.50 0.158
1162.60 0.1579
1162.70 0.1579
1162.80 0.1578
1162.90 0.1578
1163.00 0.1578
1163.10 0.1577
1163.20 0.1577
1163.30 0.1577
1163.40 0.1576
1163.50 0.1576
1163.60 0.1575
1163.70 0.1575
1163.80 0.1575
1163.90 0.1574
1164.00 0.1574
1164.10 0.1574
1164.20 0.1573
1164.30 0.1573
1164.40 0.1573
1164.50 0.1572
1164.60 0.1572
1164.70 0.1571
1164.80 0.1571
1164.90 0.1571
1165.00 0.157
1165.10 0.157
1165.20 0.157
1165.30 0.1569
1165.40 0.1569
1165.50 0.1569
1165.60 0.1568
1165.70 0.1568
1165.80 0.1567
1165.90 0.1567
1166.00 0.1567
1166.10 0.1566
1166.20 0.1566
1166.30 0.1566
1166.40 0.1565
1166.50 0.1565
1166.60 0.1564
1166.70 0.1564
1166.80 0.1564
1166.90 0.1563
1167.00 0.1563
1167.10 0.1563
1167.20 0.1562
1167.30 0.1562
1167.40 0.1562
1167.50 0.1561
1167.60 0.1561
1167.70 0.156
1167.80 0.156
1167.90 0.156
1168.00 0.1559
1168.10 0.1559
1168.20 0.1559
1168.30 0.1558
1168.40 0.1558
1168.50 0.1558
1168.60 0.1557
1168.70 0.1557
1168.80 0.1556
1168.90 0.1556
1169.00 0.1556
1169.10 0.1555
1169.20 0.1555
1169.30 0.1555
1169.40 0.1554
1169.50 0.1554
1169.60 0.1554
1169.70 0.1553
1169.80 0.1553
1169.90 0.1552
1170.00 0.1552
1170.10 0.1552
1170.20 0.1551
1170.30 0.1551
1170.40 0.1551
1170.50 0.155
1170.60 0.155
1170.70 0.155
1170.80 0.1549
1170.90 0.1549
1171.00 0.1548
1171.10 0.1548
1171.20 0.1548
1171.30 0.1547
1171.40 0.1547
1171.50 0.1547
1171.60 0.1546
1171.70 0.1546
1171.80 0.1546
1171.90 0.1545
1172.00 0.1545
1172.10 0.1544
1172.20 0.1544
1172.30 0.1544
1172.40 0.1543
1172.50 0.1543
1172.60 0.1543
1172.70 0.1542
1172.80 0.1542
1172.90 0.1542
1173.00 0.1541
1173.10 0.1541
1173.20 0.154
1173.30 0.154
1173.40 0.154
1173.50 0.1539
1173.60 0.1539
1173.70 0.1539
1173.80 0.1538
1173.90 0.1538
1174.00 0.1538
1174.10 0.1537
1174.20 0.1537
1174.30 0.1537
1174.40 0.1536
1174.50 0.1536
1174.60 0.1535
1174.70 0.1535
1174.80 0.1535
1174.90 0.1534
1175.00 0.1534
1175.10 0.1534
1175.20 0.1533
1175.30 0.1533
1175.40 0.1533
1175.50 0.1532
1175.60 0.1532
1175.70 0.1532
1175.80 0.1531
1175.90 0.1531
1176.00 0.1531
1176.10 0.153
1176.20 0.153
1176.30 0.1529
1176.40 0.1529
1176.50 0.1529
1176.60 0.1528
1176.70 0.1528
1176.80 0.1528
1176.90 0.1527
1177.00 0.1527
1177.10 0.1527
1177.20 0.1526
1177.30 0.1526
1177.40 0.1526
1177.50 0.1525
1177.60 0.1525
1177.70 0.1524
1177.80 0.1524
1177.90 0.1524
1178.00 0.1523
1178.10 0.1523
1178.20 0.1523
1178.30 0.1522
1178.40 0.1522
1178.50 0.1522
1178.60 0.1521
1178.70 0.1521
1178.80 0.1521
1178.90 0.152
1179.00 0.152
1179.10 0.152
1179.20 0.1519
1179.30 0.1519
1179.40 0.1518
1179.50 0.1518
1179.60 0.1518
1179.70 0.1517
1179.80 0.1517
1179.90 0.1517
1180.00 0.1516
1180.10 0.1516
1180.20 0.1516
1180.30 0.1515
1180.40 0.1515
1180.50 0.1515
1180.60 0.1514
1180.70 0.1514
1180.80 0.1514
1180.90 0.1513
1181.00 0.1513
1181.10 0.1512
1181.20 0.1512
1181.30 0.1512
1181.40 0.1511
1181.50 0.1511
1181.60 0.1511
1181.70 0.151
1181.80 0.151
1181.90 0.151
1182.00 0.1509
1182.10 0.1509
1182.20 0.1509
1182.30 0.1508
1182.40 0.1508
1182.50 0.1508
1182.60 0.1507
1182.70 0.1507
1182.80 0.1507
1182.90 0.1506
1183.00 0.1506
1183.10 0.1506
1183.20 0.1505
1183.30 0.1505
1183.40 0.1504
1183.50 0.1504
1183.60 0.1504
1183.70 0.1503
1183.80 0.1503
1183.90 0.1503
1184.00 0.1502
1184.10 0.1502
1184.20 0.1502
1184.30 0.1501
1184.40 0.1501
1184.50 0.1501
1184.60 0.15
1184.70 0.15
1184.80 0.15
1184.90 0.1499
1185.00 0.1499
1185.10 0.1499
1185.20 0.1498
1185.30 0.1498
1185.40 0.1498
1185.50 0.1497
1185.60 0.1497
1185.70 0.1496
1185.80 0.1496
1185.90 0.1496
1186.00 0.1495
1186.10 0.1495
1186.20 0.1495
1186.30 0.1494
1186.40 0.1494
1186.50 0.1494
1186.60 0.1493
1186.70 0.1493
1186.80 0.1493
1186.90 0.1492
1187.00 0.1492
1187.10 0.1492
1187.20 0.1491
1187.30 0.1491
1187.40 0.1491
1187.50 0.149
1187.60 0.149
1187.70 0.149
1187.80 0.1489
1187.90 0.1489
1188.00 0.1489
1188.10 0.1488
1188.20 0.1488
1188.30 0.1487
1188.40 0.1487
1188.50 0.1487
1188.60 0.1486
1188.70 0.1486
1188.80 0.1486
1188.90 0.1485
1189.00 0.1485
1189.10 0.1485
1189.20 0.1484
1189.30 0.1484
1189.40 0.1484
1189.50 0.1483
1189.60 0.1483
1189.70 0.1483
1189.80 0.1482
1189.90 0.1482
1190.00 0.1482
1190.10 0.1481
1190.20 0.1481
1190.30 0.1481
1190.40 0.148
1190.50 0.148
1190.60 0.148
1190.70 0.1479
1190.80 0.1479
1190.90 0.1479
1191.00 0.1478
1191.10 0.1478
1191.20 0.1478
1191.30 0.1477
1191.40 0.1477
1191.50 0.1477
1191.60 0.1476
1191.70 0.1476
1191.80 0.1476
1191.90 0.1475
1192.00 0.1475
1192.10 0.1475
1192.20 0.1474
1192.30 0.1474
1192.40 0.1473
1192.50 0.1473
1192.60 0.1473
1192.70 0.1472
1192.80 0.1472
1192.90 0.1472
1193.00 0.1471
1193.10 0.1471
1193.20 0.1471
1193.30 0.147
1193.40 0.147
1193.50 0.147
1193.60 0.1469
1193.70 0.1469
1193.80 0.1469
1193.90 0.1468
1194.00 0.1468
1194.10 0.1468
1194.20 0.1467
1194.30 0.1467
1194.40 0.1467
1194.50 0.1466
1194.60 0.1466
1194.70 0.1466
1194.80 0.1465
1194.90 0.1465
1195.00 0.1465
1195.10 0.1464
1195.20 0.1464
1195.30 0.1464
1195.40 0.1463
1195.50 0.1463
1195.60 0.1463
1195.70 0.1462
1195.80 0.1462
1195.90 0.1462
1196.00 0.1461
1196.10 0.1461
1196.20 0.1461
1196.30 0.146
1196.40 0.146
1196.50 0.146
1196.60 0.1459
1196.70 0.1459
1196.80 0.1459
1196.90 0.1458
1197.00 0.1458
1197.10 0.1458
1197.20 0.1457
1197.30 0.1457
1197.40 0.1457
1197.50 0.1456
1197.60 0.1456
1197.70 0.1456
1197.80 0.1455
1197.90 0.1455
1198.00 0.1455
1198.10 0.1454
1198.20 0.1454
1198.30 0.1454
1198.40 0.1453
1198.50 0.1453
1198.60 0.1453
1198.70 0.1452
1198.80 0.1452
1198.90 0.1452
1199.00 0.1451
1199.10 0.1451
1199.20 0.1451
1199.30 0.145
1199.40 0.145
1199.50 0.145
1199.60 0.1449
1199.70 0.1449
1199.80 0.1449
1199.90 0.1448
1200.00 0
