# Version 2.1 - nm, norm@500 to 1, cut digits, bergeron_17000_90.dat_17000
# Wavelength(nm)  Flambda(ergs/cm^s/s/nm)
300.00 2.93
300.10 2.927
300.20 2.925
300.30 2.922
300.40 2.919
300.50 2.917
300.60 2.914
300.70 2.912
300.80 2.909
300.90 2.907
301.00 2.904
301.10 2.901
301.20 2.899
301.30 2.896
301.40 2.894
301.50 2.891
301.60 2.889
301.70 2.886
301.80 2.884
301.90 2.881
302.00 2.879
302.10 2.876
302.20 2.873
302.30 2.871
302.40 2.868
302.50 2.866
302.60 2.863
302.70 2.861
302.80 2.858
302.90 2.856
303.00 2.853
303.10 2.851
303.20 2.848
303.30 2.846
303.40 2.843
303.50 2.841
303.60 2.839
303.70 2.836
303.80 2.834
303.90 2.831
304.00 2.829
304.10 2.826
304.20 2.824
304.30 2.821
304.40 2.819
304.50 2.816
304.60 2.814
304.70 2.811
304.80 2.809
304.90 2.807
305.00 2.804
305.10 2.802
305.20 2.799
305.30 2.797
305.40 2.794
305.50 2.792
305.60 2.789
305.70 2.787
305.80 2.785
305.90 2.782
306.00 2.78
306.10 2.777
306.20 2.775
306.30 2.773
306.40 2.77
306.50 2.768
306.60 2.765
306.70 2.763
306.80 2.761
306.90 2.758
307.00 2.756
307.10 2.753
307.20 2.751
307.30 2.749
307.40 2.746
307.50 2.744
307.60 2.742
307.70 2.739
307.80 2.737
307.90 2.734
308.00 2.732
308.10 2.73
308.20 2.727
308.30 2.725
308.40 2.723
308.50 2.72
308.60 2.718
308.70 2.716
308.80 2.713
308.90 2.711
309.00 2.709
309.10 2.706
309.20 2.704
309.30 2.702
309.40 2.699
309.50 2.697
309.60 2.695
309.70 2.692
309.80 2.69
309.90 2.688
310.00 2.685
310.10 2.683
310.20 2.681
310.30 2.679
310.40 2.676
310.50 2.674
310.60 2.672
310.70 2.669
310.80 2.667
310.90 2.665
311.00 2.663
311.10 2.66
311.20 2.658
311.30 2.656
311.40 2.653
311.50 2.651
311.60 2.649
311.70 2.647
311.80 2.644
311.90 2.642
312.00 2.64
312.10 2.638
312.20 2.635
312.30 2.633
312.40 2.631
312.50 2.629
312.60 2.626
312.70 2.624
312.80 2.622
312.90 2.62
313.00 2.617
313.10 2.615
313.20 2.613
313.30 2.611
313.40 2.609
313.50 2.606
313.60 2.604
313.70 2.602
313.80 2.6
313.90 2.597
314.00 2.595
314.10 2.593
314.20 2.591
314.30 2.589
314.40 2.586
314.50 2.584
314.60 2.582
314.70 2.58
314.80 2.578
314.90 2.576
315.00 2.573
315.10 2.571
315.20 2.569
315.30 2.567
315.40 2.565
315.50 2.563
315.60 2.56
315.70 2.558
315.80 2.556
315.90 2.554
316.00 2.552
316.10 2.55
316.20 2.547
316.30 2.545
316.40 2.543
316.50 2.541
316.60 2.539
316.70 2.537
316.80 2.535
316.90 2.532
317.00 2.53
317.10 2.528
317.20 2.526
317.30 2.524
317.40 2.522
317.50 2.52
317.60 2.518
317.70 2.515
317.80 2.513
317.90 2.511
318.00 2.509
318.10 2.507
318.20 2.505
318.30 2.503
318.40 2.501
318.50 2.499
318.60 2.496
318.70 2.494
318.80 2.492
318.90 2.49
319.00 2.488
319.10 2.486
319.20 2.484
319.30 2.482
319.40 2.48
319.50 2.478
319.60 2.476
319.70 2.474
319.80 2.471
319.90 2.469
320.00 2.467
320.10 2.465
320.20 2.463
320.30 2.461
320.40 2.459
320.50 2.457
320.60 2.455
320.70 2.453
320.80 2.451
320.90 2.449
321.00 2.447
321.10 2.445
321.20 2.443
321.30 2.441
321.40 2.439
321.50 2.437
321.60 2.435
321.70 2.433
321.80 2.431
321.90 2.429
322.00 2.427
322.10 2.425
322.20 2.423
322.30 2.421
322.40 2.419
322.50 2.417
322.60 2.415
322.70 2.413
322.80 2.411
322.90 2.409
323.00 2.407
323.10 2.405
323.20 2.403
323.30 2.401
323.40 2.399
323.50 2.397
323.60 2.395
323.70 2.393
323.80 2.391
323.90 2.389
324.00 2.387
324.10 2.385
324.20 2.383
324.30 2.381
324.40 2.379
324.50 2.377
324.60 2.375
324.70 2.373
324.80 2.371
324.90 2.369
325.00 2.367
325.10 2.365
325.20 2.363
325.30 2.361
325.40 2.359
325.50 2.357
325.60 2.355
325.70 2.353
325.80 2.351
325.90 2.35
326.00 2.348
326.10 2.346
326.20 2.344
326.30 2.342
326.40 2.34
326.50 2.338
326.60 2.336
326.70 2.334
326.80 2.332
326.90 2.33
327.00 2.328
327.10 2.327
327.20 2.325
327.30 2.323
327.40 2.321
327.50 2.319
327.60 2.317
327.70 2.315
327.80 2.313
327.90 2.311
328.00 2.309
328.10 2.308
328.20 2.306
328.30 2.304
328.40 2.302
328.50 2.3
328.60 2.298
328.70 2.296
328.80 2.294
328.90 2.293
329.00 2.291
329.10 2.289
329.20 2.287
329.30 2.285
329.40 2.283
329.50 2.281
329.60 2.279
329.70 2.278
329.80 2.276
329.90 2.274
330.00 2.272
330.10 2.27
330.20 2.268
330.30 2.266
330.40 2.265
330.50 2.263
330.60 2.261
330.70 2.259
330.80 2.257
330.90 2.255
331.00 2.254
331.10 2.252
331.20 2.25
331.30 2.248
331.40 2.246
331.50 2.245
331.60 2.243
331.70 2.241
331.80 2.239
331.90 2.237
332.00 2.235
332.10 2.234
332.20 2.232
332.30 2.23
332.40 2.228
332.50 2.226
332.60 2.225
332.70 2.223
332.80 2.221
332.90 2.219
333.00 2.217
333.10 2.216
333.20 2.214
333.30 2.212
333.40 2.21
333.50 2.209
333.60 2.207
333.70 2.205
333.80 2.203
333.90 2.201
334.00 2.2
334.10 2.198
334.20 2.196
334.30 2.194
334.40 2.193
334.50 2.191
334.60 2.189
334.70 2.187
334.80 2.186
334.90 2.184
335.00 2.182
335.10 2.18
335.20 2.179
335.30 2.177
335.40 2.175
335.50 2.173
335.60 2.172
335.70 2.17
335.80 2.168
335.90 2.166
336.00 2.165
336.10 2.163
336.20 2.161
336.30 2.159
336.40 2.158
336.50 2.156
336.60 2.154
336.70 2.152
336.80 2.151
336.90 2.149
337.00 2.147
337.10 2.146
337.20 2.144
337.30 2.142
337.40 2.14
337.50 2.139
337.60 2.137
337.70 2.135
337.80 2.134
337.90 2.132
338.00 2.13
338.10 2.129
338.20 2.127
338.30 2.125
338.40 2.123
338.50 2.122
338.60 2.12
338.70 2.118
338.80 2.117
338.90 2.115
339.00 2.113
339.10 2.112
339.20 2.11
339.30 2.108
339.40 2.107
339.50 2.105
339.60 2.103
339.70 2.102
339.80 2.1
339.90 2.098
340.00 2.097
340.10 2.095
340.20 2.093
340.30 2.092
340.40 2.09
340.50 2.088
340.60 2.087
340.70 2.085
340.80 2.083
340.90 2.082
341.00 2.08
341.10 2.078
341.20 2.077
341.30 2.075
341.40 2.073
341.50 2.072
341.60 2.07
341.70 2.069
341.80 2.067
341.90 2.065
342.00 2.064
342.10 2.062
342.20 2.06
342.30 2.059
342.40 2.057
342.50 2.055
342.60 2.054
342.70 2.052
342.80 2.051
342.90 2.049
343.00 2.047
343.10 2.046
343.20 2.044
343.30 2.043
343.40 2.041
343.50 2.039
343.60 2.038
343.70 2.036
343.80 2.035
343.90 2.033
344.00 2.031
344.10 2.03
344.20 2.028
344.30 2.027
344.40 2.025
344.50 2.023
344.60 2.022
344.70 2.02
344.80 2.019
344.90 2.017
345.00 2.015
345.10 2.014
345.20 2.012
345.30 2.011
345.40 2.009
345.50 2.008
345.60 2.006
345.70 2.004
345.80 2.003
345.90 2.001
346.00 2
346.10 1.998
346.20 1.997
346.30 1.995
346.40 1.993
346.50 1.992
346.60 1.99
346.70 1.989
346.80 1.987
346.90 1.986
347.00 1.984
347.10 1.983
347.20 1.981
347.30 1.98
347.40 1.978
347.50 1.976
347.60 1.975
347.70 1.973
347.80 1.972
347.90 1.97
348.00 1.969
348.10 1.967
348.20 1.966
348.30 1.964
348.40 1.963
348.50 1.961
348.60 1.96
348.70 1.958
348.80 1.957
348.90 1.955
349.00 1.953
349.10 1.952
349.20 1.95
349.30 1.949
349.40 1.947
349.50 1.946
349.60 1.944
349.70 1.943
349.80 1.941
349.90 1.94
350.00 1.938
350.10 1.937
350.20 1.935
350.30 1.934
350.40 1.932
350.50 1.931
350.60 1.929
350.70 1.928
350.80 1.926
350.90 1.925
351.00 1.923
351.10 1.922
351.20 1.92
351.30 1.919
351.40 1.918
351.50 1.916
351.60 1.915
351.70 1.913
351.80 1.912
351.90 1.91
352.00 1.909
352.10 1.907
352.20 1.906
352.30 1.904
352.40 1.903
352.50 1.901
352.60 1.9
352.70 1.898
352.80 1.897
352.90 1.895
353.00 1.894
353.10 1.893
353.20 1.891
353.30 1.89
353.40 1.888
353.50 1.887
353.60 1.885
353.70 1.884
353.80 1.882
353.90 1.881
354.00 1.879
354.10 1.878
354.20 1.877
354.30 1.875
354.40 1.874
354.50 1.872
354.60 1.871
354.70 1.869
354.80 1.868
354.90 1.866
355.00 1.865
355.10 1.864
355.20 1.862
355.30 1.861
355.40 1.859
355.50 1.858
355.60 1.856
355.70 1.855
355.80 1.854
355.90 1.852
356.00 1.851
356.10 1.849
356.20 1.848
356.30 1.847
356.40 1.845
356.50 1.844
356.60 1.842
356.70 1.841
356.80 1.839
356.90 1.838
357.00 1.837
357.10 1.835
357.20 1.834
357.30 1.832
357.40 1.831
357.50 1.83
357.60 1.828
357.70 1.827
357.80 1.826
357.90 1.824
358.00 1.823
358.10 1.821
358.20 1.82
358.30 1.819
358.40 1.817
358.50 1.816
358.60 1.814
358.70 1.813
358.80 1.812
358.90 1.81
359.00 1.809
359.10 1.808
359.20 1.806
359.30 1.805
359.40 1.804
359.50 1.802
359.60 1.801
359.70 1.799
359.80 1.798
359.90 1.797
360.00 1.795
360.10 1.794
360.20 1.793
360.30 1.791
360.40 1.79
360.50 1.789
360.60 1.787
360.70 1.786
360.80 1.785
360.90 1.783
361.00 1.782
361.10 1.78
361.20 1.779
361.30 1.778
361.40 1.776
361.50 1.775
361.60 1.774
361.70 1.772
361.80 1.771
361.90 1.77
362.00 1.768
362.10 1.767
362.20 1.766
362.30 1.764
362.40 1.763
362.50 1.762
362.60 1.76
362.70 1.759
362.80 1.758
362.90 1.756
363.00 1.755
363.10 1.754
363.20 1.752
363.30 1.75
363.40 1.749
363.50 1.747
363.60 1.746
363.70 1.744
363.80 1.743
363.90 1.741
364.00 1.74
364.10 1.738
364.20 1.737
364.30 1.735
364.40 1.734
364.50 1.732
364.60 1.731
364.70 1.729
364.80 1.728
364.90 1.726
365.00 1.725
365.10 1.723
365.20 1.722
365.30 1.72
365.40 1.718
365.50 1.717
365.60 1.715
365.70 1.714
365.80 1.712
365.90 1.711
366.00 1.709
366.10 1.708
366.20 1.707
366.30 1.705
366.40 1.704
366.50 1.702
366.60 1.701
366.70 1.7
366.80 1.698
366.90 1.697
367.00 1.696
367.10 1.694
367.20 1.693
367.30 1.692
367.40 1.69
367.50 1.689
367.60 1.688
367.70 1.686
367.80 1.685
367.90 1.684
368.00 1.682
368.10 1.681
368.20 1.68
368.30 1.678
368.40 1.677
368.50 1.676
368.60 1.674
368.70 1.673
368.80 1.672
368.90 1.67
369.00 1.669
369.10 1.668
369.20 1.666
369.30 1.665
369.40 1.664
369.50 1.662
369.60 1.661
369.70 1.66
369.80 1.658
369.90 1.657
370.00 1.656
370.10 1.655
370.20 1.653
370.30 1.652
370.40 1.651
370.50 1.649
370.60 1.648
370.70 1.647
370.80 1.646
370.90 1.644
371.00 1.643
371.10 1.642
371.20 1.641
371.30 1.639
371.40 1.638
371.50 1.637
371.60 1.636
371.70 1.634
371.80 1.633
371.90 1.632
372.00 1.631
372.10 1.63
372.20 1.628
372.30 1.627
372.40 1.626
372.50 1.625
372.60 1.624
372.70 1.623
372.80 1.622
372.90 1.621
373.00 1.62
373.10 1.619
373.20 1.618
373.30 1.616
373.40 1.615
373.50 1.614
373.60 1.613
373.70 1.612
373.80 1.611
373.90 1.61
374.00 1.609
374.10 1.608
374.20 1.607
374.30 1.606
374.40 1.605
374.50 1.604
374.60 1.603
374.70 1.602
374.80 1.601
374.90 1.601
375.00 1.6
375.10 1.599
375.20 1.598
375.30 1.597
375.40 1.596
375.50 1.595
375.60 1.594
375.70 1.593
375.80 1.592
375.90 1.591
376.00 1.59
376.10 1.59
376.20 1.589
376.30 1.588
376.40 1.587
376.50 1.586
376.60 1.585
376.70 1.584
376.80 1.584
376.90 1.583
377.00 1.582
377.10 1.581
377.20 1.58
377.30 1.579
377.40 1.578
377.50 1.577
377.60 1.576
377.70 1.575
377.80 1.574
377.90 1.573
378.00 1.572
378.10 1.57
378.20 1.569
378.30 1.567
378.40 1.565
378.50 1.564
378.60 1.562
378.70 1.561
378.80 1.559
378.90 1.557
379.00 1.556
379.10 1.555
379.20 1.553
379.30 1.552
379.40 1.551
379.50 1.55
379.60 1.549
379.70 1.548
379.80 1.546
379.90 1.545
380.00 1.544
380.10 1.544
380.20 1.544
380.30 1.544
380.40 1.545
380.50 1.545
380.60 1.545
380.70 1.545
380.80 1.545
380.90 1.545
381.00 1.545
381.10 1.545
381.20 1.545
381.30 1.544
381.40 1.544
381.50 1.543
381.60 1.543
381.70 1.542
381.80 1.54
381.90 1.539
382.00 1.538
382.10 1.536
382.20 1.534
382.30 1.531
382.40 1.528
382.50 1.525
382.60 1.522
382.70 1.52
382.80 1.517
382.90 1.514
383.00 1.511
383.10 1.508
383.20 1.505
383.30 1.503
383.40 1.501
383.50 1.499
383.60 1.499
383.70 1.501
383.80 1.502
383.90 1.503
384.00 1.505
384.10 1.508
384.20 1.511
384.30 1.514
384.40 1.516
384.50 1.519
384.60 1.521
384.70 1.522
384.80 1.524
384.90 1.525
385.00 1.526
385.10 1.527
385.20 1.527
385.30 1.527
385.40 1.527
385.50 1.527
385.60 1.526
385.70 1.526
385.80 1.525
385.90 1.524
386.00 1.522
386.10 1.521
386.20 1.519
386.30 1.517
386.40 1.515
386.50 1.513
386.60 1.511
386.70 1.508
386.80 1.505
386.90 1.502
387.00 1.499
387.10 1.496
387.20 1.493
387.30 1.489
387.40 1.485
387.50 1.48
387.60 1.476
387.70 1.471
387.80 1.466
387.90 1.46
388.00 1.455
388.10 1.448
388.20 1.441
388.30 1.434
388.40 1.426
388.50 1.419
388.60 1.412
388.70 1.409
388.80 1.405
388.90 1.403
389.00 1.405
389.10 1.408
389.20 1.411
389.30 1.417
389.40 1.424
389.50 1.432
389.60 1.439
389.70 1.446
389.80 1.452
389.90 1.458
390.00 1.464
390.10 1.469
390.20 1.473
390.30 1.478
390.40 1.482
390.50 1.486
390.60 1.49
390.70 1.493
390.80 1.496
390.90 1.499
391.00 1.502
391.10 1.505
391.20 1.507
391.30 1.509
391.40 1.511
391.50 1.513
391.60 1.514
391.70 1.515
391.80 1.516
391.90 1.517
392.00 1.517
392.10 1.517
392.20 1.517
392.30 1.517
392.40 1.516
392.50 1.515
392.60 1.514
392.70 1.512
392.80 1.51
392.90 1.508
393.00 1.506
393.10 1.503
393.20 1.5
393.30 1.497
393.40 1.493
393.50 1.489
393.60 1.485
393.70 1.48
393.80 1.475
393.90 1.47
394.00 1.464
394.10 1.458
394.20 1.452
394.30 1.446
394.40 1.439
394.50 1.432
394.60 1.424
394.70 1.417
394.80 1.409
394.90 1.401
395.00 1.392
395.10 1.384
395.20 1.375
395.30 1.365
395.40 1.356
395.50 1.346
395.60 1.336
395.70 1.326
395.80 1.315
395.90 1.304
396.00 1.293
396.10 1.282
396.20 1.27
396.30 1.257
396.40 1.243
396.50 1.227
396.60 1.21
396.70 1.192
396.80 1.179
396.90 1.168
397.00 1.156
397.10 1.166
397.20 1.177
397.30 1.188
397.40 1.205
397.50 1.221
397.60 1.238
397.70 1.251
397.80 1.264
397.90 1.275
398.00 1.286
398.10 1.297
398.20 1.307
398.30 1.318
398.40 1.328
398.50 1.338
398.60 1.347
398.70 1.357
398.80 1.366
398.90 1.375
399.00 1.384
399.10 1.392
399.20 1.401
399.30 1.409
399.40 1.417
399.50 1.425
399.60 1.432
399.70 1.44
399.80 1.447
399.90 1.454
400.00 1.461
400.10 1.467
400.20 1.474
400.30 1.48
400.40 1.485
400.50 1.491
400.60 1.496
400.70 1.501
400.80 1.506
400.90 1.511
401.00 1.515
401.10 1.519
401.20 1.523
401.30 1.526
401.40 1.53
401.50 1.533
401.60 1.536
401.70 1.538
401.80 1.541
401.90 1.543
402.00 1.545
402.10 1.546
402.20 1.548
402.30 1.549
402.40 1.55
402.50 1.551
402.60 1.551
402.70 1.552
402.80 1.552
402.90 1.552
403.00 1.551
403.10 1.55
403.20 1.55
403.30 1.548
403.40 1.547
403.50 1.545
403.60 1.543
403.70 1.541
403.80 1.539
403.90 1.536
404.00 1.533
404.10 1.53
404.20 1.527
404.30 1.523
404.40 1.52
404.50 1.515
404.60 1.511
404.70 1.507
404.80 1.502
404.90 1.497
405.00 1.491
405.10 1.486
405.20 1.48
405.30 1.474
405.40 1.468
405.50 1.461
405.60 1.454
405.70 1.447
405.80 1.44
405.90 1.432
406.00 1.425
406.10 1.417
406.20 1.408
406.30 1.4
406.40 1.391
406.50 1.382
406.60 1.373
406.70 1.363
406.80 1.353
406.90 1.343
407.00 1.333
407.10 1.323
407.20 1.312
407.30 1.301
407.40 1.289
407.50 1.278
407.60 1.266
407.70 1.254
407.80 1.242
407.90 1.23
408.00 1.217
408.10 1.204
408.20 1.191
408.30 1.178
408.40 1.165
408.50 1.151
408.60 1.137
408.70 1.123
408.80 1.109
408.90 1.094
409.00 1.08
409.10 1.065
409.20 1.05
409.30 1.036
409.40 1.021
409.50 1.005
409.60 0.9883
409.70 0.9694
409.80 0.9494
409.90 0.9284
410.00 0.911
410.10 0.8994
410.20 0.8935
410.30 0.9037
410.40 0.9182
410.50 0.9369
410.60 0.9564
410.70 0.9747
410.80 0.9917
410.90 1.007
411.00 1.021
411.10 1.035
411.20 1.048
411.30 1.061
411.40 1.075
411.50 1.088
411.60 1.101
411.70 1.114
411.80 1.127
411.90 1.14
412.00 1.152
412.10 1.164
412.20 1.176
412.30 1.187
412.40 1.199
412.50 1.21
412.60 1.221
412.70 1.232
412.80 1.243
412.90 1.254
413.00 1.264
413.10 1.274
413.20 1.284
413.30 1.294
413.40 1.303
413.50 1.312
413.60 1.322
413.70 1.33
413.80 1.339
413.90 1.348
414.00 1.356
414.10 1.364
414.20 1.372
414.30 1.38
414.40 1.388
414.50 1.395
414.60 1.402
414.70 1.409
414.80 1.416
414.90 1.423
415.00 1.43
415.10 1.436
415.20 1.442
415.30 1.449
415.40 1.455
415.50 1.461
415.60 1.466
415.70 1.472
415.80 1.477
415.90 1.483
416.00 1.488
416.10 1.493
416.20 1.498
416.30 1.502
416.40 1.507
416.50 1.511
416.60 1.516
416.70 1.52
416.80 1.524
416.90 1.528
417.00 1.532
417.10 1.535
417.20 1.539
417.30 1.542
417.40 1.546
417.50 1.549
417.60 1.552
417.70 1.555
417.80 1.558
417.90 1.56
418.00 1.563
418.10 1.566
418.20 1.568
418.30 1.57
418.40 1.572
418.50 1.574
418.60 1.576
418.70 1.578
418.80 1.58
418.90 1.582
419.00 1.583
419.10 1.585
419.20 1.586
419.30 1.587
419.40 1.589
419.50 1.59
419.60 1.591
419.70 1.592
419.80 1.592
419.90 1.593
420.00 1.594
420.10 1.594
420.20 1.595
420.30 1.595
420.40 1.595
420.50 1.595
420.60 1.596
420.70 1.596
420.80 1.595
420.90 1.595
421.00 1.595
421.10 1.595
421.20 1.594
421.30 1.594
421.40 1.593
421.50 1.592
421.60 1.592
421.70 1.591
421.80 1.59
421.90 1.589
422.00 1.588
422.10 1.586
422.20 1.585
422.30 1.584
422.40 1.582
422.50 1.581
422.60 1.579
422.70 1.577
422.80 1.576
422.90 1.574
423.00 1.572
423.10 1.57
423.20 1.568
423.30 1.565
423.40 1.563
423.50 1.561
423.60 1.558
423.70 1.556
423.80 1.553
423.90 1.55
424.00 1.548
424.10 1.545
424.20 1.542
424.30 1.538
424.40 1.535
424.50 1.532
424.60 1.529
424.70 1.525
424.80 1.522
424.90 1.518
425.00 1.514
425.10 1.511
425.20 1.507
425.30 1.503
425.40 1.499
425.50 1.495
425.60 1.49
425.70 1.486
425.80 1.482
425.90 1.477
426.00 1.472
426.10 1.467
426.20 1.462
426.30 1.456
426.40 1.451
426.50 1.446
426.60 1.441
426.70 1.435
426.80 1.43
426.90 1.424
427.00 1.419
427.10 1.413
427.20 1.407
427.30 1.401
427.40 1.395
427.50 1.389
427.60 1.382
427.70 1.376
427.80 1.369
427.90 1.363
428.00 1.356
428.10 1.349
428.20 1.342
428.30 1.335
428.40 1.328
428.50 1.321
428.60 1.313
428.70 1.306
428.80 1.298
428.90 1.291
429.00 1.283
429.10 1.275
429.20 1.267
429.30 1.258
429.40 1.25
429.50 1.242
429.60 1.233
429.70 1.225
429.80 1.216
429.90 1.207
430.00 1.198
430.10 1.189
430.20 1.179
430.30 1.17
430.40 1.16
430.50 1.151
430.60 1.141
430.70 1.131
430.80 1.121
430.90 1.111
431.00 1.1
431.10 1.09
431.20 1.079
431.30 1.069
431.40 1.058
431.50 1.047
431.60 1.035
431.70 1.024
431.80 1.012
431.90 1.001
432.00 0.9889
432.10 0.977
432.20 0.9648
432.30 0.9524
432.40 0.9398
432.50 0.9268
432.60 0.9135
432.70 0.9001
432.80 0.8864
432.90 0.8727
433.00 0.859
433.10 0.8456
433.20 0.8322
433.30 0.8188
433.40 0.8048
433.50 0.7901
433.60 0.7745
433.70 0.7536
433.80 0.7275
433.90 0.6961
434.00 0.6604
434.10 0.661
434.20 0.6978
434.30 0.728
434.40 0.7529
434.50 0.7725
434.60 0.7871
434.70 0.8009
434.80 0.8139
434.90 0.8264
435.00 0.8388
435.10 0.8512
435.20 0.8639
435.30 0.8765
435.40 0.889
435.50 0.9013
435.60 0.9134
435.70 0.9251
435.80 0.9365
435.90 0.9476
436.00 0.9585
436.10 0.9691
436.20 0.9796
436.30 0.9899
436.40 1
436.50 1.01
436.60 1.02
436.70 1.029
436.80 1.039
436.90 1.048
437.00 1.057
437.10 1.066
437.20 1.075
437.30 1.084
437.40 1.092
437.50 1.1
437.60 1.108
437.70 1.116
437.80 1.124
437.90 1.132
438.00 1.139
438.10 1.147
438.20 1.154
438.30 1.161
438.40 1.168
438.50 1.175
438.60 1.182
438.70 1.189
438.80 1.195
438.90 1.202
439.00 1.208
439.10 1.214
439.20 1.22
439.30 1.226
439.40 1.232
439.50 1.238
439.60 1.244
439.70 1.249
439.80 1.254
439.90 1.26
440.00 1.265
440.10 1.27
440.20 1.275
440.30 1.28
440.40 1.285
440.50 1.289
440.60 1.294
440.70 1.298
440.80 1.303
440.90 1.307
441.00 1.311
441.10 1.315
441.20 1.319
441.30 1.323
441.40 1.327
441.50 1.331
441.60 1.334
441.70 1.338
441.80 1.341
441.90 1.345
442.00 1.348
442.10 1.351
442.20 1.354
442.30 1.357
442.40 1.36
442.50 1.363
442.60 1.366
442.70 1.369
442.80 1.371
442.90 1.374
443.00 1.376
443.10 1.379
443.20 1.381
443.30 1.383
443.40 1.386
443.50 1.388
443.60 1.39
443.70 1.392
443.80 1.394
443.90 1.396
444.00 1.398
444.10 1.4
444.20 1.402
444.30 1.403
444.40 1.405
444.50 1.407
444.60 1.408
444.70 1.41
444.80 1.411
444.90 1.413
445.00 1.414
445.10 1.415
445.20 1.416
445.30 1.418
445.40 1.419
445.50 1.42
445.60 1.421
445.70 1.422
445.80 1.423
445.90 1.424
446.00 1.425
446.10 1.426
446.20 1.427
446.30 1.428
446.40 1.428
446.50 1.429
446.60 1.43
446.70 1.43
446.80 1.431
446.90 1.432
447.00 1.432
447.10 1.433
447.20 1.433
447.30 1.434
447.40 1.434
447.50 1.434
447.60 1.435
447.70 1.435
447.80 1.435
447.90 1.436
448.00 1.436
448.10 1.436
448.20 1.437
448.30 1.437
448.40 1.437
448.50 1.437
448.60 1.437
448.70 1.437
448.80 1.437
448.90 1.437
449.00 1.438
449.10 1.438
449.20 1.438
449.30 1.438
449.40 1.438
449.50 1.438
449.60 1.437
449.70 1.437
449.80 1.437
449.90 1.437
450.00 1.437
450.10 1.437
450.20 1.437
450.30 1.436
450.40 1.436
450.50 1.436
450.60 1.436
450.70 1.435
450.80 1.435
450.90 1.435
451.00 1.434
451.10 1.434
451.20 1.434
451.30 1.433
451.40 1.433
451.50 1.433
451.60 1.432
451.70 1.432
451.80 1.431
451.90 1.431
452.00 1.43
452.10 1.43
452.20 1.43
452.30 1.429
452.40 1.429
452.50 1.428
452.60 1.427
452.70 1.427
452.80 1.426
452.90 1.426
453.00 1.425
453.10 1.425
453.20 1.424
453.30 1.423
453.40 1.423
453.50 1.422
453.60 1.421
453.70 1.421
453.80 1.42
453.90 1.42
454.00 1.419
454.10 1.418
454.20 1.418
454.30 1.417
454.40 1.416
454.50 1.415
454.60 1.415
454.70 1.414
454.80 1.413
454.90 1.412
455.00 1.412
455.10 1.411
455.20 1.41
455.30 1.409
455.40 1.409
455.50 1.408
455.60 1.407
455.70 1.406
455.80 1.405
455.90 1.405
456.00 1.404
456.10 1.403
456.20 1.402
456.30 1.401
456.40 1.401
456.50 1.4
456.60 1.399
456.70 1.398
456.80 1.397
456.90 1.397
457.00 1.396
457.10 1.395
457.20 1.394
457.30 1.393
457.40 1.393
457.50 1.392
457.60 1.391
457.70 1.39
457.80 1.389
457.90 1.388
458.00 1.387
458.10 1.386
458.20 1.385
458.30 1.384
458.40 1.383
458.50 1.382
458.60 1.381
458.70 1.38
458.80 1.379
458.90 1.378
459.00 1.377
459.10 1.376
459.20 1.375
459.30 1.374
459.40 1.373
459.50 1.372
459.60 1.371
459.70 1.37
459.80 1.369
459.90 1.368
460.00 1.367
460.10 1.366
460.20 1.365
460.30 1.364
460.40 1.363
460.50 1.362
460.60 1.361
460.70 1.36
460.80 1.359
460.90 1.357
461.00 1.356
461.10 1.355
461.20 1.354
461.30 1.353
461.40 1.352
461.50 1.351
461.60 1.35
461.70 1.349
461.80 1.347
461.90 1.346
462.00 1.345
462.10 1.344
462.20 1.343
462.30 1.342
462.40 1.341
462.50 1.339
462.60 1.338
462.70 1.337
462.80 1.336
462.90 1.335
463.00 1.333
463.10 1.332
463.20 1.331
463.30 1.33
463.40 1.329
463.50 1.327
463.60 1.326
463.70 1.325
463.80 1.324
463.90 1.322
464.00 1.321
464.10 1.32
464.20 1.319
464.30 1.317
464.40 1.316
464.50 1.315
464.60 1.313
464.70 1.312
464.80 1.311
464.90 1.31
465.00 1.308
465.10 1.307
465.20 1.306
465.30 1.304
465.40 1.303
465.50 1.301
465.60 1.3
465.70 1.299
465.80 1.297
465.90 1.296
466.00 1.295
466.10 1.293
466.20 1.292
466.30 1.29
466.40 1.289
466.50 1.288
466.60 1.286
466.70 1.285
466.80 1.283
466.90 1.282
467.00 1.28
467.10 1.279
467.20 1.277
467.30 1.276
467.40 1.274
467.50 1.273
467.60 1.271
467.70 1.27
467.80 1.268
467.90 1.267
468.00 1.265
468.10 1.264
468.20 1.262
468.30 1.26
468.40 1.259
468.50 1.257
468.60 1.255
468.70 1.254
468.80 1.252
468.90 1.251
469.00 1.249
469.10 1.247
469.20 1.246
469.30 1.244
469.40 1.242
469.50 1.24
469.60 1.239
469.70 1.237
469.80 1.235
469.90 1.233
470.00 1.232
470.10 1.23
470.20 1.228
470.30 1.226
470.40 1.225
470.50 1.223
470.60 1.221
470.70 1.219
470.80 1.217
470.90 1.216
471.00 1.214
471.10 1.212
471.20 1.21
471.30 1.208
471.40 1.206
471.50 1.204
471.60 1.202
471.70 1.2
471.80 1.198
471.90 1.196
472.00 1.194
472.10 1.192
472.20 1.19
472.30 1.188
472.40 1.185
472.50 1.183
472.60 1.181
472.70 1.179
472.80 1.177
472.90 1.175
473.00 1.172
473.10 1.17
473.20 1.168
473.30 1.165
473.40 1.163
473.50 1.161
473.60 1.158
473.70 1.156
473.80 1.154
473.90 1.151
474.00 1.149
474.10 1.146
474.20 1.144
474.30 1.141
474.40 1.139
474.50 1.136
474.60 1.133
474.70 1.131
474.80 1.128
474.90 1.125
475.00 1.123
475.10 1.12
475.20 1.117
475.30 1.114
475.40 1.112
475.50 1.109
475.60 1.106
475.70 1.103
475.80 1.1
475.90 1.097
476.00 1.094
476.10 1.091
476.20 1.088
476.30 1.085
476.40 1.082
476.50 1.079
476.60 1.075
476.70 1.072
476.80 1.069
476.90 1.066
477.00 1.063
477.10 1.059
477.20 1.056
477.30 1.052
477.40 1.049
477.50 1.045
477.60 1.042
477.70 1.038
477.80 1.035
477.90 1.031
478.00 1.028
478.10 1.024
478.20 1.02
478.30 1.016
478.40 1.012
478.50 1.008
478.60 1.005
478.70 1.001
478.80 0.9967
478.90 0.9928
479.00 0.9889
479.10 0.985
479.20 0.9808
479.30 0.9765
479.40 0.9721
479.50 0.9678
479.60 0.9635
479.70 0.9592
479.80 0.9549
479.90 0.9506
480.00 0.9463
480.10 0.942
480.20 0.9373
480.30 0.9326
480.40 0.9278
480.50 0.9231
480.60 0.9183
480.70 0.9136
480.80 0.9088
480.90 0.9041
481.00 0.8993
481.10 0.8946
481.20 0.8895
481.30 0.8842
481.40 0.8789
481.50 0.8736
481.60 0.8683
481.70 0.8631
481.80 0.8578
481.90 0.8525
482.00 0.8473
482.10 0.842
482.20 0.8363
482.30 0.8303
482.40 0.8243
482.50 0.8184
482.60 0.8124
482.70 0.8065
482.80 0.8005
482.90 0.7946
483.00 0.7887
483.10 0.7827
483.20 0.776
483.30 0.769
483.40 0.762
483.50 0.755
483.60 0.748
483.70 0.741
483.80 0.734
483.90 0.727
484.00 0.72
484.10 0.713
484.20 0.7052
484.30 0.697
484.40 0.6888
484.50 0.6806
484.60 0.6724
484.70 0.6635
484.80 0.6542
484.90 0.645
485.00 0.6357
485.10 0.6265
485.20 0.6168
485.30 0.607
485.40 0.5967
485.50 0.5862
485.60 0.5746
485.70 0.5625
485.80 0.5461
485.90 0.5276
486.00 0.4989
486.10 0.4517
486.20 0.4664
486.30 0.5106
486.40 0.5323
486.50 0.5505
486.60 0.5641
486.70 0.5756
486.80 0.586
486.90 0.596
487.00 0.6054
487.10 0.6145
487.20 0.6232
487.30 0.6317
487.40 0.6402
487.50 0.6487
487.60 0.6572
487.70 0.6649
487.80 0.6722
487.90 0.6796
488.00 0.6869
488.10 0.6942
488.20 0.7007
488.30 0.7068
488.40 0.7128
488.50 0.7189
488.60 0.7249
488.70 0.7309
488.80 0.737
488.90 0.743
489.00 0.749
489.10 0.755
489.20 0.7603
489.30 0.7651
489.40 0.77
489.50 0.7748
489.60 0.7797
489.70 0.7845
489.80 0.7893
489.90 0.7942
490.00 0.799
490.10 0.8038
490.20 0.8081
490.30 0.8122
490.40 0.8162
490.50 0.8203
490.60 0.8243
490.70 0.8284
490.80 0.8324
490.90 0.8365
491.00 0.8405
491.10 0.8445
491.20 0.8481
491.30 0.8516
491.40 0.855
491.50 0.8584
491.60 0.8618
491.70 0.8652
491.80 0.8686
491.90 0.872
492.00 0.8754
492.10 0.8788
492.20 0.8819
492.30 0.8848
492.40 0.8876
492.50 0.8905
492.60 0.8934
492.70 0.8962
492.80 0.8991
492.90 0.902
493.00 0.9048
493.10 0.9077
493.20 0.9103
493.30 0.9127
493.40 0.9151
493.50 0.9176
493.60 0.92
493.70 0.9224
493.80 0.9248
493.90 0.9272
494.00 0.9296
494.10 0.9321
494.20 0.9342
494.30 0.9361
494.40 0.9381
494.50 0.94
494.60 0.942
494.70 0.9439
494.80 0.9459
494.90 0.9478
495.00 0.9498
495.10 0.9517
495.20 0.9534
495.30 0.955
495.40 0.9565
495.50 0.9581
495.60 0.9596
495.70 0.9612
495.80 0.9627
495.90 0.9643
496.00 0.9658
496.10 0.9674
496.20 0.9687
496.30 0.9699
496.40 0.9712
496.50 0.9724
496.60 0.9736
496.70 0.9748
496.80 0.976
496.90 0.9772
497.00 0.9785
497.10 0.9797
497.20 0.9807
497.30 0.9816
497.40 0.9825
497.50 0.9835
497.60 0.9844
497.70 0.9853
497.80 0.9863
497.90 0.9872
498.00 0.9881
498.10 0.989
498.20 0.9898
498.30 0.9905
498.40 0.9911
498.50 0.9918
498.60 0.9925
498.70 0.9931
498.80 0.9938
498.90 0.9945
499.00 0.9951
499.10 0.9958
499.20 0.9963
499.30 0.9968
499.40 0.9973
499.50 0.9977
499.60 0.9982
499.70 0.9986
499.80 0.9991
499.90 0.9995
500.00 1
500.10 1
500.20 1.001
500.30 1.001
500.40 1.001
500.50 1.002
500.60 1.002
500.70 1.002
500.80 1.002
500.90 1.003
501.00 1.003
501.10 1.003
501.20 1.003
501.30 1.004
501.40 1.004
501.50 1.004
501.60 1.004
501.70 1.004
501.80 1.004
501.90 1.005
502.00 1.005
502.10 1.005
502.20 1.005
502.30 1.005
502.40 1.005
502.50 1.005
502.60 1.005
502.70 1.005
502.80 1.005
502.90 1.005
503.00 1.005
503.10 1.005
503.20 1.005
503.30 1.005
503.40 1.005
503.50 1.005
503.60 1.005
503.70 1.005
503.80 1.005
503.90 1.004
504.00 1.004
504.10 1.004
504.20 1.004
504.30 1.004
504.40 1.004
504.50 1.004
504.60 1.003
504.70 1.003
504.80 1.003
504.90 1.003
505.00 1.003
505.10 1.003
505.20 1.002
505.30 1.002
505.40 1.002
505.50 1.002
505.60 1.002
505.70 1.001
505.80 1.001
505.90 1.001
506.00 1.001
506.10 1
506.20 1
506.30 0.9998
506.40 0.9995
506.50 0.9992
506.60 0.9989
506.70 0.9986
506.80 0.9983
506.90 0.998
507.00 0.9977
507.10 0.9974
507.20 0.9971
507.30 0.9967
507.40 0.9964
507.50 0.9961
507.60 0.9957
507.70 0.9954
507.80 0.995
507.90 0.9947
508.00 0.9943
508.10 0.994
508.20 0.9936
508.30 0.9932
508.40 0.9928
508.50 0.9924
508.60 0.9921
508.70 0.9917
508.80 0.9913
508.90 0.9909
509.00 0.9905
509.10 0.9901
509.20 0.9897
509.30 0.9893
509.40 0.9889
509.50 0.9885
509.60 0.988
509.70 0.9876
509.80 0.9872
509.90 0.9868
510.00 0.9864
510.10 0.986
510.20 0.9855
510.30 0.9851
510.40 0.9846
510.50 0.9842
510.60 0.9837
510.70 0.9833
510.80 0.9829
510.90 0.9824
511.00 0.982
511.10 0.9815
511.20 0.9811
511.30 0.9806
511.40 0.9801
511.50 0.9796
511.60 0.9792
511.70 0.9787
511.80 0.9782
511.90 0.9778
512.00 0.9773
512.10 0.9768
512.20 0.9763
512.30 0.9758
512.40 0.9753
512.50 0.9749
512.60 0.9744
512.70 0.9739
512.80 0.9734
512.90 0.9729
513.00 0.9724
513.10 0.9719
513.20 0.9714
513.30 0.9709
513.40 0.9704
513.50 0.9699
513.60 0.9694
513.70 0.9689
513.80 0.9684
513.90 0.9679
514.00 0.9674
514.10 0.9669
514.20 0.9664
514.30 0.9658
514.40 0.9653
514.50 0.9648
514.60 0.9643
514.70 0.9638
514.80 0.9633
514.90 0.9628
515.00 0.9622
515.10 0.9617
515.20 0.9612
515.30 0.9607
515.40 0.9602
515.50 0.9596
515.60 0.9591
515.70 0.9586
515.80 0.9581
515.90 0.9575
516.00 0.957
516.10 0.9565
516.20 0.956
516.30 0.9554
516.40 0.9549
516.50 0.9544
516.60 0.9538
516.70 0.9533
516.80 0.9528
516.90 0.9522
517.00 0.9517
517.10 0.9512
517.20 0.9506
517.30 0.9501
517.40 0.9495
517.50 0.949
517.60 0.9485
517.70 0.9479
517.80 0.9474
517.90 0.9469
518.00 0.9463
518.10 0.9458
518.20 0.9453
518.30 0.9447
518.40 0.9442
518.50 0.9436
518.60 0.9431
518.70 0.9426
518.80 0.942
518.90 0.9415
519.00 0.9409
519.10 0.9404
519.20 0.9399
519.30 0.9393
519.40 0.9388
519.50 0.9382
519.60 0.9377
519.70 0.9371
519.80 0.9366
519.90 0.936
520.00 0.9355
520.10 0.9349
520.20 0.9344
520.30 0.9338
520.40 0.9333
520.50 0.9327
520.60 0.9322
520.70 0.9316
520.80 0.9311
520.90 0.9305
521.00 0.93
521.10 0.9294
521.20 0.9289
521.30 0.9283
521.40 0.9278
521.50 0.9272
521.60 0.9267
521.70 0.9262
521.80 0.9256
521.90 0.9251
522.00 0.9245
522.10 0.924
522.20 0.9234
522.30 0.9228
522.40 0.9223
522.50 0.9217
522.60 0.9212
522.70 0.9206
522.80 0.9201
522.90 0.9195
523.00 0.9189
523.10 0.9184
523.20 0.9178
523.30 0.9173
523.40 0.9167
523.50 0.9162
523.60 0.9156
523.70 0.9151
523.80 0.9145
523.90 0.914
524.00 0.9134
524.10 0.9129
524.20 0.9123
524.30 0.9118
524.40 0.9112
524.50 0.9107
524.60 0.9101
524.70 0.9096
524.80 0.909
524.90 0.9084
525.00 0.9079
525.10 0.9073
525.20 0.9068
525.30 0.9062
525.40 0.9057
525.50 0.9051
525.60 0.9046
525.70 0.904
525.80 0.9035
525.90 0.9029
526.00 0.9024
526.10 0.9019
526.20 0.9013
526.30 0.9007
526.40 0.9002
526.50 0.8996
526.60 0.8991
526.70 0.8985
526.80 0.898
526.90 0.8974
527.00 0.8968
527.10 0.8963
527.20 0.8957
527.30 0.8952
527.40 0.8946
527.50 0.8941
527.60 0.8936
527.70 0.893
527.80 0.8925
527.90 0.8919
528.00 0.8914
528.10 0.8908
528.20 0.8903
528.30 0.8897
528.40 0.8892
528.50 0.8886
528.60 0.8881
528.70 0.8875
528.80 0.887
528.90 0.8864
529.00 0.8859
529.10 0.8853
529.20 0.8848
529.30 0.8842
529.40 0.8837
529.50 0.8831
529.60 0.8826
529.70 0.882
529.80 0.8815
529.90 0.881
530.00 0.8804
530.10 0.8799
530.20 0.8793
530.30 0.8788
530.40 0.8782
530.50 0.8777
530.60 0.8772
530.70 0.8766
530.80 0.8761
530.90 0.8755
531.00 0.875
531.10 0.8744
531.20 0.8739
531.30 0.8733
531.40 0.8728
531.50 0.8723
531.60 0.8717
531.70 0.8712
531.80 0.8706
531.90 0.8701
532.00 0.8695
532.10 0.869
532.20 0.8684
532.30 0.8679
532.40 0.8674
532.50 0.8668
532.60 0.8663
532.70 0.8657
532.80 0.8652
532.90 0.8647
533.00 0.8641
533.10 0.8636
533.20 0.863
533.30 0.8625
533.40 0.862
533.50 0.8614
533.60 0.8609
533.70 0.8604
533.80 0.8598
533.90 0.8593
534.00 0.8588
534.10 0.8582
534.20 0.8577
534.30 0.8572
534.40 0.8566
534.50 0.8561
534.60 0.8556
534.70 0.855
534.80 0.8545
534.90 0.854
535.00 0.8534
535.10 0.8529
535.20 0.8524
535.30 0.8518
535.40 0.8513
535.50 0.8508
535.60 0.8502
535.70 0.8497
535.80 0.8492
535.90 0.8486
536.00 0.8481
536.10 0.8476
536.20 0.8471
536.30 0.8465
536.40 0.846
536.50 0.8455
536.60 0.8449
536.70 0.8444
536.80 0.8439
536.90 0.8434
537.00 0.8428
537.10 0.8423
537.20 0.8418
537.30 0.8412
537.40 0.8407
537.50 0.8402
537.60 0.8397
537.70 0.8391
537.80 0.8386
537.90 0.8381
538.00 0.8376
538.10 0.8371
538.20 0.8365
538.30 0.836
538.40 0.8355
538.50 0.835
538.60 0.8344
538.70 0.8339
538.80 0.8334
538.90 0.8329
539.00 0.8324
539.10 0.8318
539.20 0.8313
539.30 0.8308
539.40 0.8303
539.50 0.8298
539.60 0.8292
539.70 0.8287
539.80 0.8282
539.90 0.8277
540.00 0.8272
540.10 0.8267
540.20 0.8261
540.30 0.8256
540.40 0.8251
540.50 0.8246
540.60 0.8241
540.70 0.8236
540.80 0.823
540.90 0.8225
541.00 0.822
541.10 0.8215
541.20 0.821
541.30 0.8205
541.40 0.82
541.50 0.8195
541.60 0.819
541.70 0.8185
541.80 0.818
541.90 0.8174
542.00 0.8169
542.10 0.8164
542.20 0.8159
542.30 0.8154
542.40 0.8149
542.50 0.8144
542.60 0.8139
542.70 0.8134
542.80 0.8129
542.90 0.8124
543.00 0.8119
543.10 0.8114
543.20 0.8109
543.30 0.8103
543.40 0.8098
543.50 0.8093
543.60 0.8088
543.70 0.8083
543.80 0.8078
543.90 0.8073
544.00 0.8068
544.10 0.8063
544.20 0.8058
544.30 0.8053
544.40 0.8048
544.50 0.8043
544.60 0.8038
544.70 0.8033
544.80 0.8028
544.90 0.8023
545.00 0.8018
545.10 0.8013
545.20 0.8008
545.30 0.8003
545.40 0.7998
545.50 0.7993
545.60 0.7988
545.70 0.7983
545.80 0.7978
545.90 0.7973
546.00 0.7968
546.10 0.7963
546.20 0.7959
546.30 0.7955
546.40 0.7952
546.50 0.7948
546.60 0.7944
546.70 0.7941
546.80 0.7937
546.90 0.7934
547.00 0.793
547.10 0.7926
547.20 0.7922
547.30 0.7917
547.40 0.7912
547.50 0.7907
547.60 0.7902
547.70 0.7897
547.80 0.7892
547.90 0.7887
548.00 0.7882
548.10 0.7877
548.20 0.7872
548.30 0.7867
548.40 0.7862
548.50 0.7857
548.60 0.7852
548.70 0.7847
548.80 0.7842
548.90 0.7837
549.00 0.7832
549.10 0.7827
549.20 0.7822
549.30 0.7817
549.40 0.7813
549.50 0.7808
549.60 0.7803
549.70 0.7798
549.80 0.7793
549.90 0.7788
550.00 0.7783
550.10 0.7778
550.20 0.7774
550.30 0.7769
550.40 0.7764
550.50 0.7759
550.60 0.7754
550.70 0.7749
550.80 0.7745
550.90 0.774
551.00 0.7735
551.10 0.773
551.20 0.7725
551.30 0.772
551.40 0.7716
551.50 0.7711
551.60 0.7706
551.70 0.7701
551.80 0.7696
551.90 0.7691
552.00 0.7687
552.10 0.7682
552.20 0.7677
552.30 0.7672
552.40 0.7668
552.50 0.7663
552.60 0.7658
552.70 0.7653
552.80 0.7648
552.90 0.7644
553.00 0.7639
553.10 0.7634
553.20 0.7629
553.30 0.7625
553.40 0.762
553.50 0.7615
553.60 0.761
553.70 0.7606
553.80 0.7601
553.90 0.7596
554.00 0.7591
554.10 0.7587
554.20 0.7582
554.30 0.7577
554.40 0.7572
554.50 0.7568
554.60 0.7563
554.70 0.7558
554.80 0.7553
554.90 0.7549
555.00 0.7544
555.10 0.7539
555.20 0.7535
555.30 0.753
555.40 0.7525
555.50 0.752
555.60 0.7516
555.70 0.7511
555.80 0.7506
555.90 0.7502
556.00 0.7497
556.10 0.7492
556.20 0.7488
556.30 0.7483
556.40 0.7478
556.50 0.7474
556.60 0.7469
556.70 0.7465
556.80 0.746
556.90 0.7455
557.00 0.7451
557.10 0.7446
557.20 0.7442
557.30 0.7437
557.40 0.7432
557.50 0.7428
557.60 0.7423
557.70 0.7418
557.80 0.7414
557.90 0.7409
558.00 0.7405
558.10 0.74
558.20 0.7395
558.30 0.7391
558.40 0.7386
558.50 0.7382
558.60 0.7377
558.70 0.7373
558.80 0.7368
558.90 0.7363
559.00 0.7359
559.10 0.7354
559.20 0.735
559.30 0.7345
559.40 0.7341
559.50 0.7336
559.60 0.7332
559.70 0.7327
559.80 0.7323
559.90 0.7318
560.00 0.7314
560.10 0.7309
560.20 0.7305
560.30 0.73
560.40 0.7296
560.50 0.7291
560.60 0.7287
560.70 0.7282
560.80 0.7278
560.90 0.7273
561.00 0.7269
561.10 0.7264
561.20 0.726
561.30 0.7255
561.40 0.7251
561.50 0.7246
561.60 0.7242
561.70 0.7237
561.80 0.7233
561.90 0.7228
562.00 0.7224
562.10 0.7219
562.20 0.7215
562.30 0.7211
562.40 0.7206
562.50 0.7202
562.60 0.7197
562.70 0.7193
562.80 0.7189
562.90 0.7184
563.00 0.718
563.10 0.7175
563.20 0.7171
563.30 0.7167
563.40 0.7162
563.50 0.7158
563.60 0.7153
563.70 0.7149
563.80 0.7145
563.90 0.714
564.00 0.7136
564.10 0.7131
564.20 0.7127
564.30 0.7123
564.40 0.7118
564.50 0.7114
564.60 0.7109
564.70 0.7105
564.80 0.7101
564.90 0.7096
565.00 0.7092
565.10 0.7087
565.20 0.7083
565.30 0.7079
565.40 0.7074
565.50 0.707
565.60 0.7066
565.70 0.7062
565.80 0.7057
565.90 0.7053
566.00 0.7049
566.10 0.7044
566.20 0.704
566.30 0.7036
566.40 0.7031
566.50 0.7027
566.60 0.7023
566.70 0.7019
566.80 0.7014
566.90 0.701
567.00 0.7006
567.10 0.7001
567.20 0.6997
567.30 0.6993
567.40 0.6989
567.50 0.6984
567.60 0.698
567.70 0.6976
567.80 0.6972
567.90 0.6967
568.00 0.6963
568.10 0.6959
568.20 0.6955
568.30 0.695
568.40 0.6946
568.50 0.6942
568.60 0.6938
568.70 0.6933
568.80 0.6929
568.90 0.6925
569.00 0.6921
569.10 0.6917
569.20 0.6912
569.30 0.6908
569.40 0.6904
569.50 0.69
569.60 0.6896
569.70 0.6891
569.80 0.6887
569.90 0.6883
570.00 0.6879
570.10 0.6875
570.20 0.687
570.30 0.6866
570.40 0.6862
570.50 0.6858
570.60 0.6854
570.70 0.6849
570.80 0.6845
570.90 0.6841
571.00 0.6837
571.10 0.6833
571.20 0.6829
571.30 0.6824
571.40 0.682
571.50 0.6816
571.60 0.6812
571.70 0.6808
571.80 0.6804
571.90 0.68
572.00 0.6796
572.10 0.6792
572.20 0.6788
572.30 0.6783
572.40 0.6779
572.50 0.6775
572.60 0.6771
572.70 0.6767
572.80 0.6763
572.90 0.6759
573.00 0.6754
573.10 0.675
573.20 0.6746
573.30 0.6742
573.40 0.6738
573.50 0.6734
573.60 0.673
573.70 0.6726
573.80 0.6722
573.90 0.6718
574.00 0.6714
574.10 0.671
574.20 0.6706
574.30 0.6702
574.40 0.6698
574.50 0.6694
574.60 0.669
574.70 0.6686
574.80 0.6682
574.90 0.6678
575.00 0.6674
575.10 0.667
575.20 0.6666
575.30 0.6662
575.40 0.6657
575.50 0.6653
575.60 0.6649
575.70 0.6645
575.80 0.6641
575.90 0.6637
576.00 0.6633
576.10 0.6629
576.20 0.6625
576.30 0.6621
576.40 0.6618
576.50 0.6614
576.60 0.661
576.70 0.6606
576.80 0.6602
576.90 0.6598
577.00 0.6594
577.10 0.659
577.20 0.6586
577.30 0.6582
577.40 0.6578
577.50 0.6574
577.60 0.657
577.70 0.6566
577.80 0.6562
577.90 0.6558
578.00 0.6554
578.10 0.655
578.20 0.6546
578.30 0.6542
578.40 0.6538
578.50 0.6534
578.60 0.653
578.70 0.6526
578.80 0.6523
578.90 0.6519
579.00 0.6515
579.10 0.6511
579.20 0.6507
579.30 0.6503
579.40 0.6499
579.50 0.6495
579.60 0.6491
579.70 0.6488
579.80 0.6484
579.90 0.648
580.00 0.6476
580.10 0.6472
580.20 0.6468
580.30 0.6464
580.40 0.646
580.50 0.6457
580.60 0.6453
580.70 0.6449
580.80 0.6445
580.90 0.6441
581.00 0.6437
581.10 0.6433
581.20 0.6429
581.30 0.6426
581.40 0.6422
581.50 0.6418
581.60 0.6414
581.70 0.641
581.80 0.6406
581.90 0.6403
582.00 0.6399
582.10 0.6395
582.20 0.6391
582.30 0.6387
582.40 0.6384
582.50 0.638
582.60 0.6376
582.70 0.6372
582.80 0.6369
582.90 0.6365
583.00 0.6361
583.10 0.6357
583.20 0.6353
583.30 0.635
583.40 0.6346
583.50 0.6342
583.60 0.6338
583.70 0.6334
583.80 0.633
583.90 0.6327
584.00 0.6323
584.10 0.6319
584.20 0.6315
584.30 0.6311
584.40 0.6308
584.50 0.6304
584.60 0.63
584.70 0.6296
584.80 0.6293
584.90 0.6289
585.00 0.6285
585.10 0.6281
585.20 0.6278
585.30 0.6274
585.40 0.627
585.50 0.6267
585.60 0.6263
585.70 0.6259
585.80 0.6256
585.90 0.6252
586.00 0.6248
586.10 0.6245
586.20 0.6241
586.30 0.6237
586.40 0.6234
586.50 0.623
586.60 0.6226
586.70 0.6222
586.80 0.6219
586.90 0.6215
587.00 0.6211
587.10 0.6208
587.20 0.6204
587.30 0.62
587.40 0.6197
587.50 0.6193
587.60 0.6189
587.70 0.6186
587.80 0.6182
587.90 0.6178
588.00 0.6175
588.10 0.6171
588.20 0.6167
588.30 0.6164
588.40 0.616
588.50 0.6156
588.60 0.6153
588.70 0.6149
588.80 0.6146
588.90 0.6142
589.00 0.6138
589.10 0.6135
589.20 0.6131
589.30 0.6127
589.40 0.6124
589.50 0.612
589.60 0.6117
589.70 0.6113
589.80 0.6109
589.90 0.6106
590.00 0.6102
590.10 0.6098
590.20 0.6095
590.30 0.6091
590.40 0.6088
590.50 0.6084
590.60 0.608
590.70 0.6077
590.80 0.6073
590.90 0.607
591.00 0.6066
591.10 0.6063
591.20 0.6059
591.30 0.6056
591.40 0.6052
591.50 0.6048
591.60 0.6045
591.70 0.6041
591.80 0.6038
591.90 0.6034
592.00 0.6031
592.10 0.6027
592.20 0.6024
592.30 0.602
592.40 0.6017
592.50 0.6013
592.60 0.601
592.70 0.6006
592.80 0.6002
592.90 0.5999
593.00 0.5995
593.10 0.5992
593.20 0.5988
593.30 0.5985
593.40 0.5981
593.50 0.5978
593.60 0.5974
593.70 0.5971
593.80 0.5967
593.90 0.5964
594.00 0.596
594.10 0.5957
594.20 0.5953
594.30 0.595
594.40 0.5946
594.50 0.5943
594.60 0.5939
594.70 0.5936
594.80 0.5932
594.90 0.5929
595.00 0.5925
595.10 0.5922
595.20 0.5919
595.30 0.5915
595.40 0.5912
595.50 0.5908
595.60 0.5905
595.70 0.5901
595.80 0.5898
595.90 0.5894
596.00 0.5891
596.10 0.5887
596.20 0.5882
596.30 0.5876
596.40 0.587
596.50 0.5865
596.60 0.5859
596.70 0.5853
596.80 0.5847
596.90 0.5841
597.00 0.5835
597.10 0.5829
597.20 0.5825
597.30 0.5822
597.40 0.5818
597.50 0.5815
597.60 0.5811
597.70 0.5808
597.80 0.5804
597.90 0.5801
598.00 0.5798
598.10 0.5794
598.20 0.5791
598.30 0.5787
598.40 0.5784
598.50 0.578
598.60 0.5777
598.70 0.5773
598.80 0.577
598.90 0.5766
599.00 0.5763
599.10 0.576
599.20 0.5756
599.30 0.5753
599.40 0.5749
599.50 0.5746
599.60 0.5742
599.70 0.5739
599.80 0.5736
599.90 0.5732
600.00 0.5729
600.10 0.5725
600.20 0.5722
600.30 0.5718
600.40 0.5715
600.50 0.5712
600.60 0.5708
600.70 0.5705
600.80 0.5701
600.90 0.5698
601.00 0.5695
601.10 0.5691
601.20 0.5688
601.30 0.5684
601.40 0.5681
601.50 0.5678
601.60 0.5674
601.70 0.5671
601.80 0.5667
601.90 0.5664
602.00 0.5661
602.10 0.5657
602.20 0.5654
602.30 0.5651
602.40 0.5647
602.50 0.5644
602.60 0.564
602.70 0.5637
602.80 0.5634
602.90 0.563
603.00 0.5627
603.10 0.5624
603.20 0.562
603.30 0.5617
603.40 0.5614
603.50 0.561
603.60 0.5607
603.70 0.5603
603.80 0.56
603.90 0.5597
604.00 0.5593
604.10 0.559
604.20 0.5587
604.30 0.5583
604.40 0.558
604.50 0.5577
604.60 0.5573
604.70 0.557
604.80 0.5567
604.90 0.5563
605.00 0.556
605.10 0.5557
605.20 0.5553
605.30 0.555
605.40 0.5547
605.50 0.5543
605.60 0.554
605.70 0.5537
605.80 0.5534
605.90 0.553
606.00 0.5527
606.10 0.5524
606.20 0.552
606.30 0.5517
606.40 0.5514
606.50 0.551
606.60 0.5507
606.70 0.5504
606.80 0.5501
606.90 0.5497
607.00 0.5494
607.10 0.5491
607.20 0.5487
607.30 0.5484
607.40 0.5481
607.50 0.5478
607.60 0.5474
607.70 0.5471
607.80 0.5468
607.90 0.5464
608.00 0.5461
608.10 0.5458
608.20 0.5455
608.30 0.5451
608.40 0.5448
608.50 0.5445
608.60 0.5442
608.70 0.5438
608.80 0.5435
608.90 0.5432
609.00 0.5429
609.10 0.5425
609.20 0.5422
609.30 0.5419
609.40 0.5416
609.50 0.5412
609.60 0.5409
609.70 0.5406
609.80 0.5402
609.90 0.5399
610.00 0.5396
610.10 0.5393
610.20 0.5389
610.30 0.5386
610.40 0.5383
610.50 0.538
610.60 0.5376
610.70 0.5373
610.80 0.537
610.90 0.5367
611.00 0.5364
611.10 0.536
611.20 0.5357
611.30 0.5354
611.40 0.5351
611.50 0.5347
611.60 0.5344
611.70 0.5341
611.80 0.5338
611.90 0.5334
612.00 0.5331
612.10 0.5328
612.20 0.5325
612.30 0.5321
612.40 0.5318
612.50 0.5315
612.60 0.5312
612.70 0.5308
612.80 0.5305
612.90 0.5302
613.00 0.5299
613.10 0.5296
613.20 0.5292
613.30 0.5289
613.40 0.5286
613.50 0.5283
613.60 0.5279
613.70 0.5276
613.80 0.5273
613.90 0.527
614.00 0.5267
614.10 0.5263
614.20 0.526
614.30 0.5257
614.40 0.5254
614.50 0.5251
614.60 0.5247
614.70 0.5244
614.80 0.5241
614.90 0.5238
615.00 0.5235
615.10 0.5231
615.20 0.5228
615.30 0.5225
615.40 0.5222
615.50 0.5219
615.60 0.5216
615.70 0.5212
615.80 0.5209
615.90 0.5206
616.00 0.5203
616.10 0.52
616.20 0.5196
616.30 0.5193
616.40 0.519
616.50 0.5187
616.60 0.5184
616.70 0.518
616.80 0.5177
616.90 0.5174
617.00 0.5171
617.10 0.5168
617.20 0.5164
617.30 0.5161
617.40 0.5158
617.50 0.5155
617.60 0.5152
617.70 0.5149
617.80 0.5145
617.90 0.5142
618.00 0.5139
618.10 0.5136
618.20 0.5133
618.30 0.5129
618.40 0.5126
618.50 0.5123
618.60 0.512
618.70 0.5116
618.80 0.5113
618.90 0.511
619.00 0.5107
619.10 0.5104
619.20 0.51
619.30 0.5097
619.40 0.5094
619.50 0.5091
619.60 0.5088
619.70 0.5084
619.80 0.5081
619.90 0.5078
620.00 0.5075
620.10 0.5072
620.20 0.5068
620.30 0.5065
620.40 0.5062
620.50 0.5059
620.60 0.5056
620.70 0.5052
620.80 0.5049
620.90 0.5046
621.00 0.5043
621.10 0.5039
621.20 0.5036
621.30 0.5033
621.40 0.503
621.50 0.5027
621.60 0.5023
621.70 0.502
621.80 0.5017
621.90 0.5014
622.00 0.5011
622.10 0.5007
622.20 0.5004
622.30 0.5001
622.40 0.4998
622.50 0.4995
622.60 0.4991
622.70 0.4988
622.80 0.4985
622.90 0.4982
623.00 0.4979
623.10 0.4976
623.20 0.4972
623.30 0.4969
623.40 0.4966
623.50 0.4962
623.60 0.4959
623.70 0.4956
623.80 0.4953
623.90 0.4949
624.00 0.4946
624.10 0.4943
624.20 0.494
624.30 0.4936
624.40 0.4933
624.50 0.493
624.60 0.4927
624.70 0.4923
624.80 0.492
624.90 0.4917
625.00 0.4914
625.10 0.4911
625.20 0.4907
625.30 0.4904
625.40 0.4901
625.50 0.4897
625.60 0.4894
625.70 0.4891
625.80 0.4888
625.90 0.4884
626.00 0.4881
626.10 0.4878
626.20 0.4875
626.30 0.4871
626.40 0.4868
626.50 0.4865
626.60 0.4861
626.70 0.4858
626.80 0.4855
626.90 0.4851
627.00 0.4848
627.10 0.4845
627.20 0.4842
627.30 0.4838
627.40 0.4835
627.50 0.4832
627.60 0.4828
627.70 0.4825
627.80 0.4822
627.90 0.4818
628.00 0.4815
628.10 0.4812
628.20 0.4808
628.30 0.4805
628.40 0.4802
628.50 0.4798
628.60 0.4795
628.70 0.4792
628.80 0.4788
628.90 0.4785
629.00 0.4782
629.10 0.4778
629.20 0.4775
629.30 0.4771
629.40 0.4768
629.50 0.4765
629.60 0.4761
629.70 0.4758
629.80 0.4754
629.90 0.4751
630.00 0.4748
630.10 0.4744
630.20 0.4741
630.30 0.4737
630.40 0.4734
630.50 0.473
630.60 0.4727
630.70 0.4723
630.80 0.472
630.90 0.4717
631.00 0.4713
631.10 0.471
631.20 0.4706
631.30 0.4703
631.40 0.4699
631.50 0.4696
631.60 0.4692
631.70 0.4688
631.80 0.4685
631.90 0.4681
632.00 0.4678
632.10 0.4674
632.20 0.4671
632.30 0.4667
632.40 0.4664
632.50 0.466
632.60 0.4656
632.70 0.4653
632.80 0.4649
632.90 0.4645
633.00 0.4642
633.10 0.4638
633.20 0.4635
633.30 0.4631
633.40 0.4627
633.50 0.4623
633.60 0.462
633.70 0.4616
633.80 0.4612
633.90 0.4609
634.00 0.4605
634.10 0.4601
634.20 0.4597
634.30 0.4594
634.40 0.459
634.50 0.4586
634.60 0.4582
634.70 0.4578
634.80 0.4574
634.90 0.4571
635.00 0.4567
635.10 0.4563
635.20 0.4559
635.30 0.4555
635.40 0.4551
635.50 0.4547
635.60 0.4543
635.70 0.4539
635.80 0.4535
635.90 0.4531
636.00 0.4527
636.10 0.4523
636.20 0.4519
636.30 0.4515
636.40 0.4511
636.50 0.4507
636.60 0.4502
636.70 0.4498
636.80 0.4494
636.90 0.449
637.00 0.4486
637.10 0.4482
637.20 0.4478
637.30 0.4473
637.40 0.4469
637.50 0.4465
637.60 0.446
637.70 0.4456
637.80 0.4452
637.90 0.4447
638.00 0.4443
638.10 0.4438
638.20 0.4434
638.30 0.443
638.40 0.4425
638.50 0.4421
638.60 0.4416
638.70 0.4411
638.80 0.4407
638.90 0.4402
639.00 0.4398
639.10 0.4393
639.20 0.4389
639.30 0.4384
639.40 0.4379
639.50 0.4374
639.60 0.4369
639.70 0.4365
639.80 0.436
639.90 0.4355
640.00 0.435
640.10 0.4345
640.20 0.434
640.30 0.4336
640.40 0.433
640.50 0.4325
640.60 0.432
640.70 0.4315
640.80 0.431
640.90 0.4305
641.00 0.43
641.10 0.4294
641.20 0.4289
641.30 0.4284
641.40 0.4279
641.50 0.4273
641.60 0.4268
641.70 0.4262
641.80 0.4257
641.90 0.4251
642.00 0.4246
642.10 0.424
642.20 0.4235
642.30 0.423
642.40 0.4224
642.50 0.4218
642.60 0.4212
642.70 0.4206
642.80 0.42
642.90 0.4195
643.00 0.4189
643.10 0.4183
643.20 0.4177
643.30 0.4171
643.40 0.4165
643.50 0.4159
643.60 0.4152
643.70 0.4146
643.80 0.414
643.90 0.4133
644.00 0.4127
644.10 0.4121
644.20 0.4115
644.30 0.4108
644.40 0.4101
644.50 0.4095
644.60 0.4088
644.70 0.4081
644.80 0.4074
644.90 0.4068
645.00 0.4061
645.10 0.4054
645.20 0.4047
645.30 0.404
645.40 0.4033
645.50 0.4026
645.60 0.4018
645.70 0.4011
645.80 0.4004
645.90 0.3996
646.00 0.3989
646.10 0.3982
646.20 0.3974
646.30 0.3967
646.40 0.3959
646.50 0.3951
646.60 0.3943
646.70 0.3935
646.80 0.3927
646.90 0.3919
647.00 0.3911
647.10 0.3903
647.20 0.3895
647.30 0.3887
647.40 0.3879
647.50 0.387
647.60 0.3861
647.70 0.3852
647.80 0.3843
647.90 0.3834
648.00 0.3826
648.10 0.3817
648.20 0.3808
648.30 0.3799
648.40 0.3789
648.50 0.3779
648.60 0.3769
648.70 0.3759
648.80 0.3749
648.90 0.3739
649.00 0.3729
649.10 0.3719
649.20 0.3709
649.30 0.3699
649.40 0.3688
649.50 0.3676
649.60 0.3665
649.70 0.3654
649.80 0.3643
649.90 0.3631
650.00 0.362
650.10 0.3609
650.20 0.3598
650.30 0.3586
650.40 0.3574
650.50 0.3561
650.60 0.3548
650.70 0.3535
650.80 0.3522
650.90 0.351
651.00 0.3497
651.10 0.3484
651.20 0.3471
651.30 0.3458
651.40 0.3444
651.50 0.3429
651.60 0.3415
651.70 0.3401
651.80 0.3386
651.90 0.3372
652.00 0.3358
652.10 0.3343
652.20 0.3329
652.30 0.3314
652.40 0.3298
652.50 0.3282
652.60 0.3265
652.70 0.3249
652.80 0.3233
652.90 0.3217
653.00 0.32
653.10 0.3184
653.20 0.3168
653.30 0.3151
653.40 0.3132
653.50 0.3112
653.60 0.3093
653.70 0.3074
653.80 0.3055
653.90 0.3036
654.00 0.3017
654.10 0.2997
654.20 0.2978
654.30 0.2959
654.40 0.2937
654.50 0.2915
654.60 0.2893
654.70 0.2871
654.80 0.2849
654.90 0.2823
655.00 0.2798
655.10 0.2772
655.20 0.2747
655.30 0.2721
655.40 0.2691
655.50 0.2661
655.60 0.2626
655.70 0.259
655.80 0.2546
655.90 0.2495
656.00 0.2416
656.10 0.2325
656.20 0.2106
656.30 0.1913
656.40 0.2213
656.50 0.2361
656.60 0.2439
656.70 0.251
656.80 0.2552
656.90 0.2591
657.00 0.2623
657.10 0.2655
657.20 0.2681
657.30 0.2707
657.40 0.273
657.50 0.2753
657.60 0.2776
657.70 0.2798
657.80 0.282
657.90 0.2839
658.00 0.2858
658.10 0.2877
658.20 0.2896
658.30 0.2915
658.40 0.2931
658.50 0.2947
658.60 0.2963
658.70 0.2979
658.80 0.2995
658.90 0.3011
659.00 0.3027
659.10 0.3043
659.20 0.3059
659.30 0.3074
659.40 0.3087
659.50 0.31
659.60 0.3113
659.70 0.3126
659.80 0.3139
659.90 0.3152
660.00 0.3165
660.10 0.3177
660.20 0.319
660.30 0.3203
660.40 0.3213
660.50 0.3224
660.60 0.3235
660.70 0.3245
660.80 0.3256
660.90 0.3267
661.00 0.3277
661.10 0.3288
661.20 0.3298
661.30 0.3309
661.40 0.3318
661.50 0.3326
661.60 0.3335
661.70 0.3344
661.80 0.3353
661.90 0.3362
662.00 0.3371
662.10 0.338
662.20 0.3388
662.30 0.3397
662.40 0.3404
662.50 0.3411
662.60 0.3418
662.70 0.3425
662.80 0.3432
662.90 0.344
663.00 0.3447
663.10 0.3454
663.20 0.3461
663.30 0.3468
663.40 0.3473
663.50 0.3479
663.60 0.3485
663.70 0.3491
663.80 0.3496
663.90 0.3502
664.00 0.3508
664.10 0.3513
664.20 0.3519
664.30 0.3525
664.40 0.3529
664.50 0.3534
664.60 0.3538
664.70 0.3542
664.80 0.3547
664.90 0.3551
665.00 0.3556
665.10 0.356
665.20 0.3565
665.30 0.3569
665.40 0.3573
665.50 0.3576
665.60 0.3579
665.70 0.3583
665.80 0.3586
665.90 0.359
666.00 0.3593
666.10 0.3597
666.20 0.36
666.30 0.3604
666.40 0.3606
666.50 0.3609
666.60 0.3612
666.70 0.3615
666.80 0.3617
666.90 0.362
667.00 0.3623
667.10 0.3626
667.20 0.3628
667.30 0.3631
667.40 0.3633
667.50 0.3635
667.60 0.3637
667.70 0.364
667.80 0.3642
667.90 0.3644
668.00 0.3646
668.10 0.3648
668.20 0.365
668.30 0.3652
668.40 0.3654
668.50 0.3655
668.60 0.3657
668.70 0.3659
668.80 0.366
668.90 0.3662
669.00 0.3663
669.10 0.3665
669.20 0.3666
669.30 0.3668
669.40 0.3669
669.50 0.367
669.60 0.3671
669.70 0.3672
669.80 0.3673
669.90 0.3674
670.00 0.3675
670.10 0.3677
670.20 0.3678
670.30 0.3679
670.40 0.3679
670.50 0.368
670.60 0.3681
670.70 0.3681
670.80 0.3682
670.90 0.3683
671.00 0.3683
671.10 0.3684
671.20 0.3685
671.30 0.3685
671.40 0.3686
671.50 0.3686
671.60 0.3686
671.70 0.3687
671.80 0.3687
671.90 0.3687
672.00 0.3687
672.10 0.3688
672.20 0.3688
672.30 0.3688
672.40 0.3688
672.50 0.3688
672.60 0.3688
672.70 0.3688
672.80 0.3688
672.90 0.3688
673.00 0.3688
673.10 0.3688
673.20 0.3688
673.30 0.3688
673.40 0.3688
673.50 0.3688
673.60 0.3688
673.70 0.3687
673.80 0.3687
673.90 0.3687
674.00 0.3687
674.10 0.3686
674.20 0.3686
674.30 0.3686
674.40 0.3685
674.50 0.3685
674.60 0.3685
674.70 0.3684
674.80 0.3684
674.90 0.3683
675.00 0.3683
675.10 0.3682
675.20 0.3682
675.30 0.3681
675.40 0.368
675.50 0.368
675.60 0.3679
675.70 0.3678
675.80 0.3678
675.90 0.3677
676.00 0.3677
676.10 0.3676
676.20 0.3675
676.30 0.3674
676.40 0.3674
676.50 0.3673
676.60 0.3672
676.70 0.3671
676.80 0.367
676.90 0.367
677.00 0.3669
677.10 0.3668
677.20 0.3667
677.30 0.3666
677.40 0.3665
677.50 0.3664
677.60 0.3663
677.70 0.3662
677.80 0.3661
677.90 0.366
678.00 0.3659
678.10 0.3659
678.20 0.3658
678.30 0.3657
678.40 0.3655
678.50 0.3654
678.60 0.3653
678.70 0.3652
678.80 0.3651
678.90 0.365
679.00 0.3649
679.10 0.3648
679.20 0.3647
679.30 0.3646
679.40 0.3645
679.50 0.3643
679.60 0.3642
679.70 0.3641
679.80 0.364
679.90 0.3639
680.00 0.3638
680.10 0.3636
680.20 0.3635
680.30 0.3634
680.40 0.3633
680.50 0.3632
680.60 0.363
680.70 0.3629
680.80 0.3628
680.90 0.3627
681.00 0.3625
681.10 0.3624
681.20 0.3623
681.30 0.3622
681.40 0.362
681.50 0.3619
681.60 0.3618
681.70 0.3616
681.80 0.3615
681.90 0.3614
682.00 0.3612
682.10 0.3611
682.20 0.361
682.30 0.3608
682.40 0.3607
682.50 0.3606
682.60 0.3604
682.70 0.3603
682.80 0.3601
682.90 0.36
683.00 0.3599
683.10 0.3597
683.20 0.3596
683.30 0.3595
683.40 0.3593
683.50 0.3592
683.60 0.359
683.70 0.3589
683.80 0.3587
683.90 0.3586
684.00 0.3585
684.10 0.3583
684.20 0.3582
684.30 0.358
684.40 0.3579
684.50 0.3577
684.60 0.3576
684.70 0.3575
684.80 0.3573
684.90 0.3572
685.00 0.357
685.10 0.3569
685.20 0.3567
685.30 0.3566
685.40 0.3564
685.50 0.3563
685.60 0.3561
685.70 0.356
685.80 0.3558
685.90 0.3557
686.00 0.3555
686.10 0.3554
686.20 0.3552
686.30 0.3551
686.40 0.3549
686.50 0.3548
686.60 0.3546
686.70 0.3545
686.80 0.3543
686.90 0.3542
687.00 0.354
687.10 0.3539
687.20 0.3537
687.30 0.3536
687.40 0.3534
687.50 0.3533
687.60 0.3531
687.70 0.353
687.80 0.3528
687.90 0.3527
688.00 0.3525
688.10 0.3524
688.20 0.3522
688.30 0.3521
688.40 0.3519
688.50 0.3517
688.60 0.3516
688.70 0.3514
688.80 0.3513
688.90 0.3511
689.00 0.351
689.10 0.3508
689.20 0.3507
689.30 0.3505
689.40 0.3503
689.50 0.3502
689.60 0.35
689.70 0.3498
689.80 0.3497
689.90 0.3495
690.00 0.3494
690.10 0.3492
690.20 0.349
690.30 0.3489
690.40 0.3487
690.50 0.3485
690.60 0.3484
690.70 0.3482
690.80 0.3481
690.90 0.3479
691.00 0.3477
691.10 0.3476
691.20 0.3474
691.30 0.3472
691.40 0.3471
691.50 0.3469
691.60 0.3468
691.70 0.3466
691.80 0.3464
691.90 0.3463
692.00 0.3461
692.10 0.346
692.20 0.3458
692.30 0.3456
692.40 0.3455
692.50 0.3453
692.60 0.3451
692.70 0.345
692.80 0.3448
692.90 0.3447
693.00 0.3445
693.10 0.3443
693.20 0.3442
693.30 0.344
693.40 0.3439
693.50 0.3437
693.60 0.3435
693.70 0.3434
693.80 0.3432
693.90 0.3431
694.00 0.3429
694.10 0.3427
694.20 0.3426
694.30 0.3424
694.40 0.3423
694.50 0.3421
694.60 0.3419
694.70 0.3418
694.80 0.3416
694.90 0.3415
695.00 0.3413
695.10 0.3411
695.20 0.341
695.30 0.3408
695.40 0.3407
695.50 0.3405
695.60 0.3404
695.70 0.3402
695.80 0.34
695.90 0.3399
696.00 0.3397
696.10 0.3396
696.20 0.3394
696.30 0.3392
696.40 0.3391
696.50 0.3389
696.60 0.3388
696.70 0.3386
696.80 0.3385
696.90 0.3383
697.00 0.3381
697.10 0.338
697.20 0.3378
697.30 0.3377
697.40 0.3375
697.50 0.3374
697.60 0.3372
697.70 0.337
697.80 0.3369
697.90 0.3367
698.00 0.3366
698.10 0.3364
698.20 0.3363
698.30 0.3361
698.40 0.3359
698.50 0.3358
698.60 0.3356
698.70 0.3355
698.80 0.3353
698.90 0.3352
699.00 0.335
699.10 0.3348
699.20 0.3347
699.30 0.3345
699.40 0.3344
699.50 0.3342
699.60 0.3341
699.70 0.3339
699.80 0.3338
699.90 0.3336
700.00 0.3334
700.10 0.3333
700.20 0.3331
700.30 0.333
700.40 0.3328
700.50 0.3327
700.60 0.3325
700.70 0.3324
700.80 0.3322
700.90 0.332
701.00 0.3319
701.10 0.3317
701.20 0.3316
701.30 0.3314
701.40 0.3313
701.50 0.3311
701.60 0.331
701.70 0.3308
701.80 0.3306
701.90 0.3305
702.00 0.3303
702.10 0.3302
702.20 0.33
702.30 0.3299
702.40 0.3297
702.50 0.3296
702.60 0.3294
702.70 0.3293
702.80 0.3291
702.90 0.3289
703.00 0.3288
703.10 0.3286
703.20 0.3285
703.30 0.3283
703.40 0.3282
703.50 0.328
703.60 0.3279
703.70 0.3277
703.80 0.3276
703.90 0.3274
704.00 0.3273
704.10 0.3271
704.20 0.327
704.30 0.3268
704.40 0.3266
704.50 0.3265
704.60 0.3263
704.70 0.3262
704.80 0.326
704.90 0.3259
705.00 0.3257
705.10 0.3256
705.20 0.3254
705.30 0.3253
705.40 0.3251
705.50 0.3249
705.60 0.3248
705.70 0.3246
705.80 0.3245
705.90 0.3243
706.00 0.3241
706.10 0.324
706.20 0.3238
706.30 0.3237
706.40 0.3235
706.50 0.3234
706.60 0.3232
706.70 0.323
706.80 0.3229
706.90 0.3227
707.00 0.3226
707.10 0.3224
707.20 0.3223
707.30 0.3221
707.40 0.3219
707.50 0.3218
707.60 0.3216
707.70 0.3215
707.80 0.3213
707.90 0.3212
708.00 0.321
708.10 0.3209
708.20 0.3207
708.30 0.3205
708.40 0.3204
708.50 0.3202
708.60 0.3201
708.70 0.3199
708.80 0.3198
708.90 0.3196
709.00 0.3194
709.10 0.3193
709.20 0.3191
709.30 0.319
709.40 0.3188
709.50 0.3187
709.60 0.3185
709.70 0.3184
709.80 0.3182
709.90 0.3181
710.00 0.3179
710.10 0.3177
710.20 0.3176
710.30 0.3174
710.40 0.3173
710.50 0.3171
710.60 0.317
710.70 0.3168
710.80 0.3167
710.90 0.3165
711.00 0.3164
711.10 0.3162
711.20 0.316
711.30 0.3159
711.40 0.3157
711.50 0.3156
711.60 0.3154
711.70 0.3153
711.80 0.3151
711.90 0.315
712.00 0.3148
712.10 0.3147
712.20 0.3145
712.30 0.3144
712.40 0.3142
712.50 0.314
712.60 0.3139
712.70 0.3137
712.80 0.3136
712.90 0.3134
713.00 0.3133
713.10 0.3131
713.20 0.313
713.30 0.3128
713.40 0.3127
713.50 0.3125
713.60 0.3124
713.70 0.3122
713.80 0.3121
713.90 0.3119
714.00 0.3118
714.10 0.3116
714.20 0.3115
714.30 0.3113
714.40 0.3112
714.50 0.311
714.60 0.3108
714.70 0.3107
714.80 0.3105
714.90 0.3104
715.00 0.3102
715.10 0.3101
715.20 0.31
715.30 0.3098
715.40 0.3097
715.50 0.3095
715.60 0.3094
715.70 0.3092
715.80 0.3091
715.90 0.309
716.00 0.3088
716.10 0.3087
716.20 0.3085
716.30 0.3084
716.40 0.3083
716.50 0.3081
716.60 0.308
716.70 0.3078
716.80 0.3077
716.90 0.3076
717.00 0.3074
717.10 0.3073
717.20 0.3071
717.30 0.307
717.40 0.3068
717.50 0.3067
717.60 0.3066
717.70 0.3064
717.80 0.3063
717.90 0.3061
718.00 0.306
718.10 0.3059
718.20 0.3057
718.30 0.3056
718.40 0.3054
718.50 0.3053
718.60 0.3052
718.70 0.305
718.80 0.3049
718.90 0.3047
719.00 0.3046
719.10 0.3045
719.20 0.3043
719.30 0.3042
719.40 0.304
719.50 0.3039
719.60 0.3038
719.70 0.3036
719.80 0.3035
719.90 0.3033
720.00 0.3032
720.10 0.3031
720.20 0.3029
720.30 0.3028
720.40 0.3026
720.50 0.3025
720.60 0.3023
720.70 0.3022
720.80 0.302
720.90 0.3019
721.00 0.3017
721.10 0.3016
721.20 0.3014
721.30 0.3013
721.40 0.3011
721.50 0.301
721.60 0.3008
721.70 0.3007
721.80 0.3005
721.90 0.3004
722.00 0.3002
722.10 0.3001
722.20 0.3
722.30 0.2998
722.40 0.2997
722.50 0.2995
722.60 0.2994
722.70 0.2992
722.80 0.2991
722.90 0.2989
723.00 0.2988
723.10 0.2986
723.20 0.2985
723.30 0.2983
723.40 0.2982
723.50 0.298
723.60 0.2979
723.70 0.2977
723.80 0.2976
723.90 0.2975
724.00 0.2973
724.10 0.2972
724.20 0.297
724.30 0.2969
724.40 0.2967
724.50 0.2966
724.60 0.2964
724.70 0.2963
724.80 0.2961
724.90 0.296
725.00 0.2959
725.10 0.2957
725.20 0.2956
725.30 0.2954
725.40 0.2953
725.50 0.2951
725.60 0.295
725.70 0.2948
725.80 0.2947
725.90 0.2946
726.00 0.2944
726.10 0.2943
726.20 0.2941
726.30 0.294
726.40 0.2938
726.50 0.2937
726.60 0.2935
726.70 0.2934
726.80 0.2933
726.90 0.2931
727.00 0.293
727.10 0.2928
727.20 0.2927
727.30 0.2925
727.40 0.2924
727.50 0.2923
727.60 0.2921
727.70 0.292
727.80 0.2918
727.90 0.2917
728.00 0.2915
728.10 0.2914
728.20 0.2913
728.30 0.2911
728.40 0.291
728.50 0.2908
728.60 0.2907
728.70 0.2906
728.80 0.2904
728.90 0.2903
729.00 0.2901
729.10 0.29
729.20 0.2898
729.30 0.2897
729.40 0.2896
729.50 0.2894
729.60 0.2893
729.70 0.2891
729.80 0.289
729.90 0.2889
730.00 0.2887
730.10 0.2886
730.20 0.2884
730.30 0.2883
730.40 0.2882
730.50 0.288
730.60 0.2879
730.70 0.2877
730.80 0.2876
730.90 0.2875
731.00 0.2873
731.10 0.2872
731.20 0.287
731.30 0.2869
731.40 0.2868
731.50 0.2866
731.60 0.2865
731.70 0.2863
731.80 0.2862
731.90 0.2861
732.00 0.2859
732.10 0.2858
732.20 0.2857
732.30 0.2855
732.40 0.2854
732.50 0.2852
732.60 0.2851
732.70 0.285
732.80 0.2848
732.90 0.2847
733.00 0.2846
733.10 0.2844
733.20 0.2843
733.30 0.2841
733.40 0.284
733.50 0.2839
733.60 0.2837
733.70 0.2836
733.80 0.2835
733.90 0.2833
734.00 0.2832
734.10 0.283
734.20 0.2829
734.30 0.2828
734.40 0.2826
734.50 0.2825
734.60 0.2824
734.70 0.2822
734.80 0.2821
734.90 0.2819
735.00 0.2818
735.10 0.2817
735.20 0.2815
735.30 0.2814
735.40 0.2813
735.50 0.2811
735.60 0.281
735.70 0.2809
735.80 0.2807
735.90 0.2806
736.00 0.2805
736.10 0.2803
736.20 0.2802
736.30 0.28
736.40 0.2799
736.50 0.2798
736.60 0.2796
736.70 0.2795
736.80 0.2794
736.90 0.2792
737.00 0.2791
737.10 0.279
737.20 0.2788
737.30 0.2787
737.40 0.2786
737.50 0.2784
737.60 0.2783
737.70 0.2782
737.80 0.278
737.90 0.2779
738.00 0.2778
738.10 0.2776
738.20 0.2775
738.30 0.2773
738.40 0.2772
738.50 0.2771
738.60 0.2769
738.70 0.2768
738.80 0.2767
738.90 0.2765
739.00 0.2764
739.10 0.2763
739.20 0.2761
739.30 0.276
739.40 0.2759
739.50 0.2757
739.60 0.2756
739.70 0.2755
739.80 0.2753
739.90 0.2752
740.00 0.2751
740.10 0.2749
740.20 0.2748
740.30 0.2747
740.40 0.2746
740.50 0.2744
740.60 0.2743
740.70 0.2742
740.80 0.274
740.90 0.2739
741.00 0.2738
741.10 0.2736
741.20 0.2735
741.30 0.2734
741.40 0.2732
741.50 0.2731
741.60 0.273
741.70 0.2729
741.80 0.2727
741.90 0.2726
742.00 0.2725
742.10 0.2723
742.20 0.2722
742.30 0.2721
742.40 0.2719
742.50 0.2718
742.60 0.2717
742.70 0.2715
742.80 0.2714
742.90 0.2713
743.00 0.2712
743.10 0.271
743.20 0.2709
743.30 0.2708
743.40 0.2706
743.50 0.2705
743.60 0.2704
743.70 0.2703
743.80 0.2701
743.90 0.27
744.00 0.2699
744.10 0.2697
744.20 0.2696
744.30 0.2695
744.40 0.2694
744.50 0.2692
744.60 0.2691
744.70 0.269
744.80 0.2688
744.90 0.2687
745.00 0.2686
745.10 0.2685
745.20 0.2683
745.30 0.2682
745.40 0.2681
745.50 0.2679
745.60 0.2678
745.70 0.2677
745.80 0.2676
745.90 0.2674
746.00 0.2673
746.10 0.2672
746.20 0.267
746.30 0.2669
746.40 0.2668
746.50 0.2667
746.60 0.2665
746.70 0.2664
746.80 0.2663
746.90 0.2662
747.00 0.266
747.10 0.2659
747.20 0.2658
747.30 0.2656
747.40 0.2655
747.50 0.2654
747.60 0.2653
747.70 0.2651
747.80 0.265
747.90 0.2649
748.00 0.2648
748.10 0.2646
748.20 0.2645
748.30 0.2644
748.40 0.2642
748.50 0.2641
748.60 0.264
748.70 0.2639
748.80 0.2637
748.90 0.2636
749.00 0.2635
749.10 0.2634
749.20 0.2632
749.30 0.2631
749.40 0.263
749.50 0.2629
749.60 0.2627
749.70 0.2626
749.80 0.2625
749.90 0.2624
750.00 0.2622
750.10 0.2621
750.20 0.262
750.30 0.2619
750.40 0.2617
750.50 0.2616
750.60 0.2615
750.70 0.2614
750.80 0.2612
750.90 0.2611
751.00 0.261
751.10 0.2609
751.20 0.2608
751.30 0.2606
751.40 0.2605
751.50 0.2604
751.60 0.2603
751.70 0.2601
751.80 0.26
751.90 0.2599
752.00 0.2598
752.10 0.2596
752.20 0.2595
752.30 0.2594
752.40 0.2593
752.50 0.2592
752.60 0.259
752.70 0.2589
752.80 0.2588
752.90 0.2587
753.00 0.2585
753.10 0.2584
753.20 0.2583
753.30 0.2582
753.40 0.2581
753.50 0.2579
753.60 0.2578
753.70 0.2577
753.80 0.2576
753.90 0.2575
754.00 0.2573
754.10 0.2572
754.20 0.2571
754.30 0.257
754.40 0.2568
754.50 0.2567
754.60 0.2566
754.70 0.2565
754.80 0.2564
754.90 0.2562
755.00 0.2561
755.10 0.256
755.20 0.2559
755.30 0.2558
755.40 0.2556
755.50 0.2555
755.60 0.2554
755.70 0.2553
755.80 0.2552
755.90 0.255
756.00 0.2549
756.10 0.2548
756.20 0.2547
756.30 0.2546
756.40 0.2544
756.50 0.2543
756.60 0.2542
756.70 0.2541
756.80 0.254
756.90 0.2538
757.00 0.2537
757.10 0.2536
757.20 0.2535
757.30 0.2534
757.40 0.2532
757.50 0.2531
757.60 0.253
757.70 0.2529
757.80 0.2528
757.90 0.2526
758.00 0.2525
758.10 0.2524
758.20 0.2523
758.30 0.2522
758.40 0.252
758.50 0.2519
758.60 0.2518
758.70 0.2517
758.80 0.2516
758.90 0.2514
759.00 0.2513
759.10 0.2512
759.20 0.2511
759.30 0.251
759.40 0.2509
759.50 0.2507
759.60 0.2506
759.70 0.2505
759.80 0.2504
759.90 0.2503
760.00 0.2501
760.10 0.25
760.20 0.2499
760.30 0.2498
760.40 0.2497
760.50 0.2496
760.60 0.2494
760.70 0.2493
760.80 0.2492
760.90 0.2491
761.00 0.249
761.10 0.2489
761.20 0.2487
761.30 0.2486
761.40 0.2485
761.50 0.2484
761.60 0.2483
761.70 0.2482
761.80 0.2481
761.90 0.2479
762.00 0.2478
762.10 0.2477
762.20 0.2476
762.30 0.2475
762.40 0.2474
762.50 0.2472
762.60 0.2471
762.70 0.247
762.80 0.2469
762.90 0.2468
763.00 0.2467
763.10 0.2466
763.20 0.2464
763.30 0.2463
763.40 0.2462
763.50 0.2461
763.60 0.246
763.70 0.2459
763.80 0.2457
763.90 0.2456
764.00 0.2455
764.10 0.2454
764.20 0.2453
764.30 0.2452
764.40 0.2451
764.50 0.2449
764.60 0.2448
764.70 0.2447
764.80 0.2446
764.90 0.2445
765.00 0.2444
765.10 0.2443
765.20 0.2441
765.30 0.244
765.40 0.2439
765.50 0.2438
765.60 0.2437
765.70 0.2436
765.80 0.2435
765.90 0.2434
766.00 0.2432
766.10 0.2431
766.20 0.243
766.30 0.2429
766.40 0.2428
766.50 0.2427
766.60 0.2426
766.70 0.2424
766.80 0.2423
766.90 0.2422
767.00 0.2421
767.10 0.242
767.20 0.2419
767.30 0.2418
767.40 0.2417
767.50 0.2415
767.60 0.2414
767.70 0.2413
767.80 0.2412
767.90 0.2411
768.00 0.241
768.10 0.2409
768.20 0.2408
768.30 0.2406
768.40 0.2405
768.50 0.2404
768.60 0.2403
768.70 0.2402
768.80 0.2401
768.90 0.24
769.00 0.2399
769.10 0.2397
769.20 0.2396
769.30 0.2395
769.40 0.2394
769.50 0.2393
769.60 0.2392
769.70 0.2391
769.80 0.239
769.90 0.2389
770.00 0.2387
770.10 0.2386
770.20 0.2385
770.30 0.2384
770.40 0.2383
770.50 0.2382
770.60 0.2381
770.70 0.238
770.80 0.2379
770.90 0.2378
771.00 0.2376
771.10 0.2375
771.20 0.2374
771.30 0.2373
771.40 0.2372
771.50 0.2371
771.60 0.237
771.70 0.2369
771.80 0.2368
771.90 0.2367
772.00 0.2366
772.10 0.2364
772.20 0.2363
772.30 0.2362
772.40 0.2361
772.50 0.236
772.60 0.2359
772.70 0.2358
772.80 0.2357
772.90 0.2356
773.00 0.2355
773.10 0.2354
773.20 0.2352
773.30 0.2351
773.40 0.235
773.50 0.2349
773.60 0.2348
773.70 0.2347
773.80 0.2346
773.90 0.2345
774.00 0.2344
774.10 0.2343
774.20 0.2342
774.30 0.2341
774.40 0.2339
774.50 0.2338
774.60 0.2337
774.70 0.2336
774.80 0.2335
774.90 0.2334
775.00 0.2333
775.10 0.2332
775.20 0.2331
775.30 0.233
775.40 0.2329
775.50 0.2328
775.60 0.2327
775.70 0.2326
775.80 0.2324
775.90 0.2323
776.00 0.2322
776.10 0.2321
776.20 0.232
776.30 0.2319
776.40 0.2318
776.50 0.2317
776.60 0.2316
776.70 0.2315
776.80 0.2314
776.90 0.2313
777.00 0.2312
777.10 0.2311
777.20 0.2309
777.30 0.2308
777.40 0.2307
777.50 0.2306
777.60 0.2305
777.70 0.2304
777.80 0.2303
777.90 0.2302
778.00 0.2301
778.10 0.23
778.20 0.2299
778.30 0.2298
778.40 0.2297
778.50 0.2296
778.60 0.2295
778.70 0.2294
778.80 0.2293
778.90 0.2291
779.00 0.229
779.10 0.2289
779.20 0.2288
779.30 0.2287
779.40 0.2286
779.50 0.2285
779.60 0.2284
779.70 0.2283
779.80 0.2282
779.90 0.2281
780.00 0.228
780.10 0.2279
780.20 0.2278
780.30 0.2277
780.40 0.2276
780.50 0.2275
780.60 0.2274
780.70 0.2273
780.80 0.2272
780.90 0.2271
781.00 0.2269
781.10 0.2268
781.20 0.2267
781.30 0.2266
781.40 0.2265
781.50 0.2264
781.60 0.2263
781.70 0.2262
781.80 0.2261
781.90 0.226
782.00 0.2259
782.10 0.2258
782.20 0.2257
782.30 0.2256
782.40 0.2255
782.50 0.2254
782.60 0.2253
782.70 0.2252
782.80 0.2251
782.90 0.225
783.00 0.2249
783.10 0.2248
783.20 0.2247
783.30 0.2246
783.40 0.2245
783.50 0.2244
783.60 0.2243
783.70 0.2242
783.80 0.2241
783.90 0.224
784.00 0.2239
784.10 0.2238
784.20 0.2237
784.30 0.2236
784.40 0.2235
784.50 0.2234
784.60 0.2233
784.70 0.2232
784.80 0.2231
784.90 0.223
785.00 0.2229
785.10 0.2228
785.20 0.2226
785.30 0.2225
785.40 0.2224
785.50 0.2223
785.60 0.2222
785.70 0.2221
785.80 0.222
785.90 0.2219
786.00 0.2218
786.10 0.2217
786.20 0.2216
786.30 0.2215
786.40 0.2214
786.50 0.2213
786.60 0.2212
786.70 0.2211
786.80 0.221
786.90 0.2209
787.00 0.2208
787.10 0.2207
787.20 0.2206
787.30 0.2205
787.40 0.2204
787.50 0.2203
787.60 0.2202
787.70 0.2201
787.80 0.22
787.90 0.2199
788.00 0.2198
788.10 0.2197
788.20 0.2196
788.30 0.2195
788.40 0.2194
788.50 0.2193
788.60 0.2192
788.70 0.2191
788.80 0.219
788.90 0.2189
789.00 0.2188
789.10 0.2187
789.20 0.2186
789.30 0.2185
789.40 0.2184
789.50 0.2183
789.60 0.2182
789.70 0.2181
789.80 0.218
789.90 0.2179
790.00 0.2178
790.10 0.2177
790.20 0.2176
790.30 0.2175
790.40 0.2174
790.50 0.2173
790.60 0.2172
790.70 0.2171
790.80 0.217
790.90 0.217
791.00 0.2169
791.10 0.2168
791.20 0.2167
791.30 0.2166
791.40 0.2165
791.50 0.2164
791.60 0.2163
791.70 0.2162
791.80 0.2161
791.90 0.216
792.00 0.2159
792.10 0.2158
792.20 0.2157
792.30 0.2156
792.40 0.2155
792.50 0.2154
792.60 0.2153
792.70 0.2152
792.80 0.2151
792.90 0.215
793.00 0.2149
793.10 0.2148
793.20 0.2147
793.30 0.2146
793.40 0.2145
793.50 0.2144
793.60 0.2143
793.70 0.2142
793.80 0.2141
793.90 0.214
794.00 0.2139
794.10 0.2138
794.20 0.2138
794.30 0.2137
794.40 0.2136
794.50 0.2135
794.60 0.2134
794.70 0.2133
794.80 0.2132
794.90 0.2131
795.00 0.213
795.10 0.2129
795.20 0.2128
795.30 0.2127
795.40 0.2126
795.50 0.2125
795.60 0.2124
795.70 0.2123
795.80 0.2122
795.90 0.2121
796.00 0.212
796.10 0.2119
796.20 0.2118
796.30 0.2117
796.40 0.2116
796.50 0.2115
796.60 0.2115
796.70 0.2114
796.80 0.2113
796.90 0.2112
797.00 0.2111
797.10 0.211
797.20 0.2109
797.30 0.2108
797.40 0.2107
797.50 0.2106
797.60 0.2105
797.70 0.2104
797.80 0.2103
797.90 0.2102
798.00 0.2101
798.10 0.21
798.20 0.2099
798.30 0.2098
798.40 0.2097
798.50 0.2097
798.60 0.2096
798.70 0.2095
798.80 0.2094
798.90 0.2093
799.00 0.2092
799.10 0.2091
799.20 0.209
799.30 0.2089
799.40 0.2088
799.50 0.2087
799.60 0.2086
799.70 0.2085
799.80 0.2084
799.90 0.2083
800.00 0.2082
800.10 0.2081
800.20 0.2081
800.30 0.208
800.40 0.2079
800.50 0.2078
800.60 0.2077
800.70 0.2076
800.80 0.2075
800.90 0.2074
801.00 0.2073
801.10 0.2072
801.20 0.2071
801.30 0.207
801.40 0.2069
801.50 0.2069
801.60 0.2068
801.70 0.2067
801.80 0.2066
801.90 0.2065
802.00 0.2064
802.10 0.2063
802.20 0.2062
802.30 0.2061
802.40 0.206
802.50 0.2059
802.60 0.2058
802.70 0.2058
802.80 0.2057
802.90 0.2056
803.00 0.2055
803.10 0.2054
803.20 0.2053
803.30 0.2052
803.40 0.2051
803.50 0.205
803.60 0.2049
803.70 0.2048
803.80 0.2047
803.90 0.2047
804.00 0.2046
804.10 0.2045
804.20 0.2044
804.30 0.2043
804.40 0.2042
804.50 0.2041
804.60 0.204
804.70 0.2039
804.80 0.2038
804.90 0.2037
805.00 0.2037
805.10 0.2036
805.20 0.2035
805.30 0.2034
805.40 0.2033
805.50 0.2032
805.60 0.2031
805.70 0.203
805.80 0.2029
805.90 0.2028
806.00 0.2028
806.10 0.2027
806.20 0.2026
806.30 0.2025
806.40 0.2024
806.50 0.2023
806.60 0.2022
806.70 0.2021
806.80 0.202
806.90 0.2019
807.00 0.2018
807.10 0.2018
807.20 0.2017
807.30 0.2016
807.40 0.2015
807.50 0.2014
807.60 0.2013
807.70 0.2012
807.80 0.2011
807.90 0.201
808.00 0.201
808.10 0.2009
808.20 0.2008
808.30 0.2007
808.40 0.2006
808.50 0.2005
808.60 0.2004
808.70 0.2003
808.80 0.2002
808.90 0.2001
809.00 0.2001
809.10 0.2
809.20 0.1999
809.30 0.1998
809.40 0.1997
809.50 0.1996
809.60 0.1995
809.70 0.1994
809.80 0.1993
809.90 0.1993
810.00 0.1992
810.10 0.1991
810.20 0.199
810.30 0.1989
810.40 0.1988
810.50 0.1987
810.60 0.1986
810.70 0.1986
810.80 0.1985
810.90 0.1984
811.00 0.1983
811.10 0.1982
811.20 0.1981
811.30 0.198
811.40 0.1979
811.50 0.1979
811.60 0.1978
811.70 0.1977
811.80 0.1976
811.90 0.1975
812.00 0.1974
812.10 0.1973
812.20 0.1973
812.30 0.1972
812.40 0.1971
812.50 0.197
812.60 0.1969
812.70 0.1968
812.80 0.1967
812.90 0.1966
813.00 0.1966
813.10 0.1965
813.20 0.1964
813.30 0.1963
813.40 0.1962
813.50 0.1961
813.60 0.196
813.70 0.196
813.80 0.1959
813.90 0.1958
814.00 0.1957
814.10 0.1956
814.20 0.1955
814.30 0.1954
814.40 0.1954
814.50 0.1953
814.60 0.1952
814.70 0.1951
814.80 0.195
814.90 0.1949
815.00 0.1948
815.10 0.1948
815.20 0.1947
815.30 0.1946
815.40 0.1945
815.50 0.1944
815.60 0.1943
815.70 0.1942
815.80 0.1942
815.90 0.1941
816.00 0.194
816.10 0.1939
816.20 0.1938
816.30 0.1937
816.40 0.1936
816.50 0.1936
816.60 0.1935
816.70 0.1934
816.80 0.1933
816.90 0.1932
817.00 0.1931
817.10 0.193
817.20 0.193
817.30 0.1929
817.40 0.1928
817.50 0.1927
817.60 0.1926
817.70 0.1925
817.80 0.1924
817.90 0.1924
818.00 0.1923
818.10 0.1922
818.20 0.1921
818.30 0.192
818.40 0.1919
818.50 0.1919
818.60 0.1918
818.70 0.1917
818.80 0.1916
818.90 0.1915
819.00 0.1914
819.10 0.1914
819.20 0.1913
819.30 0.1912
819.40 0.1911
819.50 0.191
819.60 0.1909
819.70 0.1908
819.80 0.1908
819.90 0.1907
820.00 0.1906
820.10 0.1905
820.20 0.1904
820.30 0.1904
820.40 0.1903
820.50 0.1902
820.60 0.1901
820.70 0.19
820.80 0.1899
820.90 0.1899
821.00 0.1898
821.10 0.1897
821.20 0.1896
821.30 0.1895
821.40 0.1894
821.50 0.1894
821.60 0.1893
821.70 0.1892
821.80 0.1891
821.90 0.189
822.00 0.1889
822.10 0.1889
822.20 0.1888
822.30 0.1887
822.40 0.1886
822.50 0.1885
822.60 0.1885
822.70 0.1884
822.80 0.1883
822.90 0.1882
823.00 0.1881
823.10 0.188
823.20 0.188
823.30 0.1879
823.40 0.1878
823.50 0.1877
823.60 0.1876
823.70 0.1876
823.80 0.1875
823.90 0.1874
824.00 0.1873
824.10 0.1872
824.20 0.1871
824.30 0.1871
824.40 0.187
824.50 0.1869
824.60 0.1868
824.70 0.1867
824.80 0.1867
824.90 0.1866
825.00 0.1865
825.10 0.1864
825.20 0.1863
825.30 0.1863
825.40 0.1862
825.50 0.1861
825.60 0.186
825.70 0.1859
825.80 0.1858
825.90 0.1858
826.00 0.1857
826.10 0.1856
826.20 0.1855
826.30 0.1854
826.40 0.1854
826.50 0.1853
826.60 0.1852
826.70 0.1851
826.80 0.185
826.90 0.185
827.00 0.1849
827.10 0.1848
827.20 0.1847
827.30 0.1846
827.40 0.1846
827.50 0.1845
827.60 0.1844
827.70 0.1843
827.80 0.1842
827.90 0.1842
828.00 0.1841
828.10 0.184
828.20 0.1839
828.30 0.1838
828.40 0.1838
828.50 0.1837
828.60 0.1836
828.70 0.1835
828.80 0.1834
828.90 0.1834
829.00 0.1833
829.10 0.1832
829.20 0.1831
829.30 0.183
829.40 0.183
829.50 0.1829
829.60 0.1828
829.70 0.1827
829.80 0.1826
829.90 0.1826
830.00 0.1825
830.10 0.1824
830.20 0.1823
830.30 0.1823
830.40 0.1822
830.50 0.1821
830.60 0.182
830.70 0.1819
830.80 0.1819
830.90 0.1818
831.00 0.1817
831.10 0.1816
831.20 0.1815
831.30 0.1815
831.40 0.1814
831.50 0.1813
831.60 0.1812
831.70 0.1812
831.80 0.1811
831.90 0.181
832.00 0.1809
832.10 0.1808
832.20 0.1808
832.30 0.1807
832.40 0.1806
832.50 0.1805
832.60 0.1804
832.70 0.1804
832.80 0.1803
832.90 0.1802
833.00 0.1801
833.10 0.1801
833.20 0.18
833.30 0.1799
833.40 0.1798
833.50 0.1798
833.60 0.1797
833.70 0.1796
833.80 0.1795
833.90 0.1794
834.00 0.1794
834.10 0.1793
834.20 0.1792
834.30 0.1791
834.40 0.1791
834.50 0.179
834.60 0.1789
834.70 0.1788
834.80 0.1787
834.90 0.1787
835.00 0.1786
835.10 0.1785
835.20 0.1784
835.30 0.1784
835.40 0.1783
835.50 0.1782
835.60 0.1781
835.70 0.1781
835.80 0.178
835.90 0.1779
836.00 0.1778
836.10 0.1777
836.20 0.1777
836.30 0.1776
836.40 0.1775
836.50 0.1774
836.60 0.1774
836.70 0.1773
836.80 0.1772
836.90 0.1771
837.00 0.1771
837.10 0.177
837.20 0.1769
837.30 0.1768
837.40 0.1768
837.50 0.1767
837.60 0.1766
837.70 0.1765
837.80 0.1765
837.90 0.1764
838.00 0.1763
838.10 0.1762
838.20 0.1762
838.30 0.1761
838.40 0.176
838.50 0.1759
838.60 0.1759
838.70 0.1758
838.80 0.1757
838.90 0.1756
839.00 0.1755
839.10 0.1755
839.20 0.1754
839.30 0.1753
839.40 0.1752
839.50 0.1752
839.60 0.1751
839.70 0.175
839.80 0.1749
839.90 0.1749
840.00 0.1748
840.10 0.1747
840.20 0.1746
840.30 0.1746
840.40 0.1745
840.50 0.1744
840.60 0.1744
840.70 0.1743
840.80 0.1742
840.90 0.1741
841.00 0.1741
841.10 0.174
841.20 0.1739
841.30 0.1738
841.40 0.1738
841.50 0.1737
841.60 0.1736
841.70 0.1735
841.80 0.1735
841.90 0.1734
842.00 0.1733
842.10 0.1732
842.20 0.1732
842.30 0.1731
842.40 0.173
842.50 0.1729
842.60 0.1729
842.70 0.1728
842.80 0.1727
842.90 0.1726
843.00 0.1726
843.10 0.1725
843.20 0.1724
843.30 0.1723
843.40 0.1723
843.50 0.1722
843.60 0.1721
843.70 0.1721
843.80 0.172
843.90 0.1719
844.00 0.1718
844.10 0.1718
844.20 0.1717
844.30 0.1716
844.40 0.1715
844.50 0.1715
844.60 0.1714
844.70 0.1713
844.80 0.1713
844.90 0.1712
845.00 0.1711
845.10 0.171
845.20 0.171
845.30 0.1709
845.40 0.1708
845.50 0.1707
845.60 0.1707
845.70 0.1706
845.80 0.1705
845.90 0.1705
846.00 0.1704
846.10 0.1703
846.20 0.1702
846.30 0.1702
846.40 0.1701
846.50 0.17
846.60 0.1699
846.70 0.1699
846.80 0.1698
846.90 0.1697
847.00 0.1697
847.10 0.1696
847.20 0.1695
847.30 0.1694
847.40 0.1694
847.50 0.1693
847.60 0.1692
847.70 0.1692
847.80 0.1691
847.90 0.169
848.00 0.1689
848.10 0.1689
848.20 0.1688
848.30 0.1687
848.40 0.1687
848.50 0.1686
848.60 0.1685
848.70 0.1684
848.80 0.1684
848.90 0.1683
849.00 0.1682
849.10 0.1682
849.20 0.1681
849.30 0.168
849.40 0.168
849.50 0.1679
849.60 0.1678
849.70 0.1677
849.80 0.1677
849.90 0.1676
850.00 0.1675
850.10 0.1675
850.20 0.1674
850.30 0.1673
850.40 0.1672
850.50 0.1672
850.60 0.1671
850.70 0.167
850.80 0.167
850.90 0.1669
851.00 0.1668
851.10 0.1668
851.20 0.1667
851.30 0.1666
851.40 0.1665
851.50 0.1665
851.60 0.1664
851.70 0.1663
851.80 0.1663
851.90 0.1662
852.00 0.1661
852.10 0.1661
852.20 0.166
852.30 0.1659
852.40 0.1659
852.50 0.1658
852.60 0.1657
852.70 0.1656
852.80 0.1656
852.90 0.1655
853.00 0.1654
853.10 0.1654
853.20 0.1653
853.30 0.1652
853.40 0.1652
853.50 0.1651
853.60 0.165
853.70 0.165
853.80 0.1649
853.90 0.1648
854.00 0.1648
854.10 0.1647
854.20 0.1646
854.30 0.1645
854.40 0.1645
854.50 0.1644
854.60 0.1643
854.70 0.1643
854.80 0.1642
854.90 0.1641
855.00 0.1641
855.10 0.164
855.20 0.1639
855.30 0.1639
855.40 0.1638
855.50 0.1637
855.60 0.1637
855.70 0.1636
855.80 0.1635
855.90 0.1635
856.00 0.1634
856.10 0.1633
856.20 0.1633
856.30 0.1632
856.40 0.1631
856.50 0.163
856.60 0.163
856.70 0.1629
856.80 0.1628
856.90 0.1628
857.00 0.1627
857.10 0.1626
857.20 0.1626
857.30 0.1625
857.40 0.1624
857.50 0.1624
857.60 0.1623
857.70 0.1622
857.80 0.1622
857.90 0.1621
858.00 0.162
858.10 0.162
858.20 0.1619
858.30 0.1618
858.40 0.1618
858.50 0.1617
858.60 0.1616
858.70 0.1616
858.80 0.1615
858.90 0.1614
859.00 0.1614
859.10 0.1613
859.20 0.1612
859.30 0.1612
859.40 0.1611
859.50 0.161
859.60 0.161
859.70 0.1609
859.80 0.1609
859.90 0.1608
860.00 0.1607
860.10 0.1607
860.20 0.1606
860.30 0.1605
860.40 0.1605
860.50 0.1604
860.60 0.1603
860.70 0.1603
860.80 0.1602
860.90 0.1601
861.00 0.1601
861.10 0.16
861.20 0.1599
861.30 0.1599
861.40 0.1598
861.50 0.1597
861.60 0.1597
861.70 0.1596
861.80 0.1595
861.90 0.1595
862.00 0.1594
862.10 0.1593
862.20 0.1593
862.30 0.1592
862.40 0.1591
862.50 0.1591
862.60 0.159
862.70 0.159
862.80 0.1589
862.90 0.1588
863.00 0.1588
863.10 0.1587
863.20 0.1586
863.30 0.1586
863.40 0.1585
863.50 0.1584
863.60 0.1584
863.70 0.1583
863.80 0.1583
863.90 0.1582
864.00 0.1581
864.10 0.1581
864.20 0.158
864.30 0.1579
864.40 0.1579
864.50 0.1578
864.60 0.1577
864.70 0.1577
864.80 0.1576
864.90 0.1575
865.00 0.1575
865.10 0.1574
865.20 0.1574
865.30 0.1573
865.40 0.1572
865.50 0.1572
865.60 0.1571
865.70 0.157
865.80 0.157
865.90 0.1569
866.00 0.1568
866.10 0.1568
866.20 0.1567
866.30 0.1567
866.40 0.1566
866.50 0.1565
866.60 0.1565
866.70 0.1564
866.80 0.1563
866.90 0.1563
867.00 0.1562
867.10 0.1562
867.20 0.1561
867.30 0.156
867.40 0.156
867.50 0.1559
867.60 0.1558
867.70 0.1558
867.80 0.1557
867.90 0.1557
868.00 0.1556
868.10 0.1555
868.20 0.1555
868.30 0.1554
868.40 0.1554
868.50 0.1553
868.60 0.1552
868.70 0.1552
868.80 0.1551
868.90 0.1551
869.00 0.155
869.10 0.1549
869.20 0.1549
869.30 0.1548
869.40 0.1548
869.50 0.1547
869.60 0.1546
869.70 0.1546
869.80 0.1545
869.90 0.1544
870.00 0.1544
870.10 0.1543
870.20 0.1543
870.30 0.1542
870.40 0.1541
870.50 0.1541
870.60 0.154
870.70 0.154
870.80 0.1539
870.90 0.1538
871.00 0.1538
871.10 0.1537
871.20 0.1537
871.30 0.1536
871.40 0.1535
871.50 0.1535
871.60 0.1534
871.70 0.1534
871.80 0.1533
871.90 0.1532
872.00 0.1532
872.10 0.1531
872.20 0.1531
872.30 0.153
872.40 0.1529
872.50 0.1529
872.60 0.1528
872.70 0.1528
872.80 0.1527
872.90 0.1526
873.00 0.1526
873.10 0.1525
873.20 0.1525
873.30 0.1524
873.40 0.1524
873.50 0.1523
873.60 0.1522
873.70 0.1522
873.80 0.1521
873.90 0.1521
874.00 0.152
874.10 0.1519
874.20 0.1519
874.30 0.1518
874.40 0.1518
874.50 0.1517
874.60 0.1516
874.70 0.1516
874.80 0.1515
874.90 0.1515
875.00 0.1514
875.10 0.1514
875.20 0.1513
875.30 0.1512
875.40 0.1512
875.50 0.1511
875.60 0.1511
875.70 0.151
875.80 0.1509
875.90 0.1509
876.00 0.1508
876.10 0.1508
876.20 0.1507
876.30 0.1507
876.40 0.1506
876.50 0.1505
876.60 0.1505
876.70 0.1504
876.80 0.1504
876.90 0.1503
877.00 0.1502
877.10 0.1502
877.20 0.1501
877.30 0.1501
877.40 0.15
877.50 0.15
877.60 0.1499
877.70 0.1499
877.80 0.1498
877.90 0.1497
878.00 0.1497
878.10 0.1496
878.20 0.1496
878.30 0.1495
878.40 0.1495
878.50 0.1494
878.60 0.1494
878.70 0.1493
878.80 0.1492
878.90 0.1492
879.00 0.1491
879.10 0.1491
879.20 0.149
879.30 0.149
879.40 0.1489
879.50 0.1489
879.60 0.1488
879.70 0.1487
879.80 0.1487
879.90 0.1486
880.00 0.1486
880.10 0.1485
880.20 0.1485
880.30 0.1484
880.40 0.1484
880.50 0.1483
880.60 0.1483
880.70 0.1482
880.80 0.1481
880.90 0.1481
881.00 0.148
881.10 0.148
881.20 0.1479
881.30 0.1479
881.40 0.1478
881.50 0.1478
881.60 0.1477
881.70 0.1476
881.80 0.1476
881.90 0.1475
882.00 0.1475
882.10 0.1474
882.20 0.1474
882.30 0.1473
882.40 0.1472
882.50 0.1472
882.60 0.1471
882.70 0.1471
882.80 0.147
882.90 0.147
883.00 0.1469
883.10 0.1468
883.20 0.1468
883.30 0.1467
883.40 0.1467
883.50 0.1466
883.60 0.1466
883.70 0.1465
883.80 0.1464
883.90 0.1464
884.00 0.1463
884.10 0.1463
884.20 0.1462
884.30 0.1461
884.40 0.1461
884.50 0.146
884.60 0.146
884.70 0.1459
884.80 0.1459
884.90 0.1458
885.00 0.1457
885.10 0.1457
885.20 0.1456
885.30 0.1456
885.40 0.1455
885.50 0.1455
885.60 0.1454
885.70 0.1453
885.80 0.1453
885.90 0.1452
886.00 0.1452
886.10 0.1451
886.20 0.1451
886.30 0.145
886.40 0.1449
886.50 0.1449
886.60 0.1448
886.70 0.1448
886.80 0.1447
886.90 0.1447
887.00 0.1446
887.10 0.1445
887.20 0.1445
887.30 0.1445
887.40 0.1444
887.50 0.1444
887.60 0.1443
887.70 0.1443
887.80 0.1442
887.90 0.1442
888.00 0.1441
888.10 0.1441
888.20 0.144
888.30 0.144
888.40 0.1439
888.50 0.1439
888.60 0.1438
888.70 0.1438
888.80 0.1437
888.90 0.1437
889.00 0.1437
889.10 0.1436
889.20 0.1436
889.30 0.1435
889.40 0.1435
889.50 0.1434
889.60 0.1434
889.70 0.1433
889.80 0.1433
889.90 0.1432
890.00 0.1432
890.10 0.1431
890.20 0.1431
890.30 0.143
890.40 0.143
890.50 0.143
890.60 0.1429
890.70 0.1429
890.80 0.1428
890.90 0.1428
891.00 0.1427
891.10 0.1427
891.20 0.1426
891.30 0.1426
891.40 0.1425
891.50 0.1425
891.60 0.1424
891.70 0.1424
891.80 0.1423
891.90 0.1423
892.00 0.1423
892.10 0.1422
892.20 0.1422
892.30 0.1421
892.40 0.1421
892.50 0.142
892.60 0.142
892.70 0.1419
892.80 0.1419
892.90 0.1418
893.00 0.1418
893.10 0.1417
893.20 0.1417
893.30 0.1416
893.40 0.1416
893.50 0.1415
893.60 0.1415
893.70 0.1414
893.80 0.1414
893.90 0.1413
894.00 0.1413
894.10 0.1412
894.20 0.1412
894.30 0.1411
894.40 0.1411
894.50 0.141
894.60 0.141
894.70 0.1409
894.80 0.1409
894.90 0.1408
895.00 0.1408
895.10 0.1407
895.20 0.1407
895.30 0.1406
895.40 0.1406
895.50 0.1405
895.60 0.1405
895.70 0.1404
895.80 0.1404
895.90 0.1403
896.00 0.1403
896.10 0.1402
896.20 0.1402
896.30 0.1401
896.40 0.1401
896.50 0.14
896.60 0.14
896.70 0.1399
896.80 0.1399
896.90 0.1398
897.00 0.1398
897.10 0.1397
897.20 0.1396
897.30 0.1396
897.40 0.1395
897.50 0.1395
897.60 0.1394
897.70 0.1393
897.80 0.1393
897.90 0.1392
898.00 0.1392
898.10 0.1391
898.20 0.139
898.30 0.139
898.40 0.1389
898.50 0.1388
898.60 0.1388
898.70 0.1387
898.80 0.1387
898.90 0.1386
899.00 0.1385
899.10 0.1385
899.20 0.1384
899.30 0.1384
899.40 0.1383
899.50 0.1382
899.60 0.1382
899.70 0.1381
899.80 0.1381
899.90 0.138
900.00 0.1379
900.10 0.1379
900.20 0.1378
900.30 0.1377
900.40 0.1377
900.50 0.1376
900.60 0.1376
900.70 0.1375
900.80 0.1374
900.90 0.1374
901.00 0.1373
901.10 0.1373
901.20 0.1372
901.30 0.1371
901.40 0.1371
901.50 0.137
901.60 0.137
901.70 0.1369
901.80 0.1368
901.90 0.1368
902.00 0.1367
902.10 0.1367
902.20 0.1366
902.30 0.1366
902.40 0.1366
902.50 0.1365
902.60 0.1365
902.70 0.1365
902.80 0.1364
902.90 0.1364
903.00 0.1364
903.10 0.1363
903.20 0.1363
903.30 0.1363
903.40 0.1362
903.50 0.1362
903.60 0.1362
903.70 0.1361
903.80 0.1361
903.90 0.1361
904.00 0.136
904.10 0.136
904.20 0.136
904.30 0.1359
904.40 0.1359
904.50 0.1358
904.60 0.1358
904.70 0.1358
904.80 0.1357
904.90 0.1357
905.00 0.1357
905.10 0.1356
905.20 0.1356
905.30 0.1356
905.40 0.1355
905.50 0.1355
905.60 0.1355
905.70 0.1354
905.80 0.1354
905.90 0.1354
906.00 0.1353
906.10 0.1353
906.20 0.1353
906.30 0.1352
906.40 0.1352
906.50 0.1352
906.60 0.1351
906.70 0.1351
906.80 0.1351
906.90 0.135
907.00 0.135
907.10 0.135
907.20 0.1349
907.30 0.1349
907.40 0.1348
907.50 0.1348
907.60 0.1347
907.70 0.1347
907.80 0.1347
907.90 0.1346
908.00 0.1346
908.10 0.1345
908.20 0.1345
908.30 0.1345
908.40 0.1344
908.50 0.1344
908.60 0.1343
908.70 0.1343
908.80 0.1343
908.90 0.1342
909.00 0.1342
909.10 0.1341
909.20 0.1341
909.30 0.1341
909.40 0.134
909.50 0.134
909.60 0.1339
909.70 0.1339
909.80 0.1339
909.90 0.1338
910.00 0.1338
910.10 0.1337
910.20 0.1337
910.30 0.1337
910.40 0.1336
910.50 0.1336
910.60 0.1335
910.70 0.1335
910.80 0.1335
910.90 0.1334
911.00 0.1334
911.10 0.1333
911.20 0.1333
911.30 0.1333
911.40 0.1332
911.50 0.1332
911.60 0.1331
911.70 0.1331
911.80 0.1331
911.90 0.133
912.00 0.133
912.10 0.1329
912.20 0.1329
912.30 0.1328
912.40 0.1328
912.50 0.1327
912.60 0.1327
912.70 0.1326
912.80 0.1326
912.90 0.1325
913.00 0.1325
913.10 0.1324
913.20 0.1324
913.30 0.1323
913.40 0.1323
913.50 0.1322
913.60 0.1322
913.70 0.1321
913.80 0.1321
913.90 0.132
914.00 0.132
914.10 0.1319
914.20 0.1319
914.30 0.1319
914.40 0.1318
914.50 0.1318
914.60 0.1317
914.70 0.1317
914.80 0.1316
914.90 0.1316
915.00 0.1315
915.10 0.1315
915.20 0.1314
915.30 0.1314
915.40 0.1313
915.50 0.1313
915.60 0.1312
915.70 0.1312
915.80 0.1311
915.90 0.1311
916.00 0.131
916.10 0.131
916.20 0.1309
916.30 0.1309
916.40 0.1308
916.50 0.1308
916.60 0.1307
916.70 0.1307
916.80 0.1306
916.90 0.1306
917.00 0.1305
917.10 0.1305
917.20 0.1304
917.30 0.1304
917.40 0.1303
917.50 0.1302
917.60 0.1302
917.70 0.1301
917.80 0.13
917.90 0.13
918.00 0.1299
918.10 0.1299
918.20 0.1298
918.30 0.1297
918.40 0.1297
918.50 0.1296
918.60 0.1295
918.70 0.1295
918.80 0.1294
918.90 0.1294
919.00 0.1293
919.10 0.1292
919.20 0.1292
919.30 0.1291
919.40 0.129
919.50 0.129
919.60 0.1289
919.70 0.1289
919.80 0.1288
919.90 0.1287
920.00 0.1287
920.10 0.1286
920.20 0.1286
920.30 0.1285
920.40 0.1284
920.50 0.1284
920.60 0.1283
920.70 0.1282
920.80 0.1282
920.90 0.1281
921.00 0.1281
921.10 0.128
921.20 0.1279
921.30 0.1279
921.40 0.1278
921.50 0.1277
921.60 0.1277
921.70 0.1276
921.80 0.1276
921.90 0.1275
922.00 0.1274
922.10 0.1274
922.20 0.1273
922.30 0.1272
922.40 0.1272
922.50 0.1271
922.60 0.127
922.70 0.127
922.80 0.1269
922.90 0.1269
923.00 0.1268
923.10 0.1267
923.20 0.1267
923.30 0.1266
923.40 0.1265
923.50 0.1265
923.60 0.1264
923.70 0.1263
923.80 0.1263
923.90 0.1262
924.00 0.1261
924.10 0.1261
924.20 0.126
924.30 0.126
924.40 0.1259
924.50 0.1258
924.60 0.1258
924.70 0.1257
924.80 0.1256
924.90 0.1256
925.00 0.1255
925.10 0.1254
925.20 0.1254
925.30 0.1253
925.40 0.1252
925.50 0.1252
925.60 0.1251
925.70 0.1251
925.80 0.125
925.90 0.1249
926.00 0.1249
926.10 0.1248
926.20 0.1247
926.30 0.1247
926.40 0.1246
926.50 0.1245
926.60 0.1245
926.70 0.1244
926.80 0.1244
926.90 0.1243
927.00 0.1242
927.10 0.1242
927.20 0.1242
927.30 0.1242
927.40 0.1242
927.50 0.1242
927.60 0.1242
927.70 0.1242
927.80 0.1241
927.90 0.1241
928.00 0.1241
928.10 0.1241
928.20 0.1241
928.30 0.1241
928.40 0.1241
928.50 0.1241
928.60 0.1241
928.70 0.1241
928.80 0.124
928.90 0.124
929.00 0.124
929.10 0.124
929.20 0.124
929.30 0.124
929.40 0.124
929.50 0.124
929.60 0.124
929.70 0.124
929.80 0.124
929.90 0.1239
930.00 0.1239
930.10 0.1239
930.20 0.1239
930.30 0.1239
930.40 0.1239
930.50 0.1239
930.60 0.1239
930.70 0.1239
930.80 0.1239
930.90 0.1238
931.00 0.1238
931.10 0.1238
931.20 0.1238
931.30 0.1238
931.40 0.1238
931.50 0.1238
931.60 0.1238
931.70 0.1238
931.80 0.1238
931.90 0.1237
932.00 0.1237
932.10 0.1237
932.20 0.1237
932.30 0.1237
932.40 0.1236
932.50 0.1236
932.60 0.1236
932.70 0.1236
932.80 0.1235
932.90 0.1235
933.00 0.1235
933.10 0.1235
933.20 0.1234
933.30 0.1234
933.40 0.1234
933.50 0.1233
933.60 0.1233
933.70 0.1233
933.80 0.1233
933.90 0.1232
934.00 0.1232
934.10 0.1232
934.20 0.1232
934.30 0.1231
934.40 0.1231
934.50 0.1231
934.60 0.123
934.70 0.123
934.80 0.123
934.90 0.1229
935.00 0.1229
935.10 0.1229
935.20 0.1228
935.30 0.1228
935.40 0.1228
935.50 0.1227
935.60 0.1227
935.70 0.1227
935.80 0.1226
935.90 0.1226
936.00 0.1226
936.10 0.1225
936.20 0.1225
936.30 0.1225
936.40 0.1224
936.50 0.1224
936.60 0.1224
936.70 0.1223
936.80 0.1223
936.90 0.1223
937.00 0.1222
937.10 0.1222
937.20 0.1222
937.30 0.1221
937.40 0.1221
937.50 0.1221
937.60 0.122
937.70 0.122
937.80 0.1219
937.90 0.1219
938.00 0.1219
938.10 0.1218
938.20 0.1218
938.30 0.1217
938.40 0.1217
938.50 0.1217
938.60 0.1216
938.70 0.1216
938.80 0.1215
938.90 0.1215
939.00 0.1215
939.10 0.1214
939.20 0.1214
939.30 0.1213
939.40 0.1213
939.50 0.1212
939.60 0.1212
939.70 0.1212
939.80 0.1211
939.90 0.1211
940.00 0.121
940.10 0.121
940.20 0.121
940.30 0.1209
940.40 0.1209
940.50 0.1208
940.60 0.1208
940.70 0.1207
940.80 0.1207
940.90 0.1206
941.00 0.1206
941.10 0.1205
941.20 0.1205
941.30 0.1204
941.40 0.1204
941.50 0.1203
941.60 0.1203
941.70 0.1202
941.80 0.1202
941.90 0.1201
942.00 0.1201
942.10 0.1201
942.20 0.12
942.30 0.1199
942.40 0.1199
942.50 0.1198
942.60 0.1198
942.70 0.1197
942.80 0.1197
942.90 0.1196
943.00 0.1196
943.10 0.1195
943.20 0.1194
943.30 0.1194
943.40 0.1193
943.50 0.1193
943.60 0.1192
943.70 0.1192
943.80 0.1191
943.90 0.119
944.00 0.119
944.10 0.1189
944.20 0.1189
944.30 0.1188
944.40 0.1187
944.50 0.1187
944.60 0.1186
944.70 0.1185
944.80 0.1185
944.90 0.1184
945.00 0.1183
945.10 0.1183
945.20 0.1182
945.30 0.1181
945.40 0.1181
945.50 0.118
945.60 0.1179
945.70 0.1178
945.80 0.1178
945.90 0.1177
946.00 0.1176
946.10 0.1175
946.20 0.1174
946.30 0.1174
946.40 0.1173
946.50 0.1172
946.60 0.1171
946.70 0.117
946.80 0.117
946.90 0.1169
947.00 0.1168
947.10 0.1167
947.20 0.1166
947.30 0.1165
947.40 0.1164
947.50 0.1163
947.60 0.1162
947.70 0.1161
947.80 0.116
947.90 0.1159
948.00 0.1158
948.10 0.1157
948.20 0.1156
948.30 0.1155
948.40 0.1154
948.50 0.1153
948.60 0.1152
948.70 0.1151
948.80 0.115
948.90 0.1149
949.00 0.1148
949.10 0.1147
949.20 0.1146
949.30 0.1145
949.40 0.1144
949.50 0.1143
949.60 0.1142
949.70 0.1141
949.80 0.114
949.90 0.1139
950.00 0.1137
950.10 0.1136
950.20 0.1135
950.30 0.1134
950.40 0.1133
950.50 0.1132
950.60 0.1131
950.70 0.113
950.80 0.1129
950.90 0.1127
951.00 0.1126
951.10 0.1125
951.20 0.1124
951.30 0.1123
951.40 0.1122
951.50 0.1121
951.60 0.112
951.70 0.1119
951.80 0.1118
951.90 0.1117
952.00 0.1116
952.10 0.1116
952.20 0.1115
952.30 0.1114
952.40 0.1113
952.50 0.1113
952.60 0.1112
952.70 0.1111
952.80 0.1111
952.90 0.111
953.00 0.111
953.10 0.111
953.20 0.111
953.30 0.111
953.40 0.111
953.50 0.1109
953.60 0.1111
953.70 0.1113
953.80 0.1114
953.90 0.1116
954.00 0.1119
954.10 0.1122
954.20 0.1124
954.30 0.1104
954.40 0.1085
954.50 0.1082
954.60 0.1079
954.70 0.1076
954.80 0.1074
954.90 0.1072
955.00 0.1069
955.10 0.1067
955.20 0.1065
955.30 0.1063
955.40 0.1061
955.50 0.1059
955.60 0.1057
955.70 0.1055
955.80 0.1053
955.90 0.1053
956.00 0.1052
956.10 0.1052
956.20 0.1051
956.30 0.1051
956.40 0.105
956.50 0.105
956.60 0.1049
956.70 0.1049
956.80 0.1049
956.90 0.1048
957.00 0.1048
957.10 0.1048
957.20 0.1048
957.30 0.1048
957.40 0.1048
957.50 0.1048
957.60 0.1048
957.70 0.1048
957.80 0.1049
957.90 0.1049
958.00 0.1049
958.10 0.1049
958.20 0.1049
958.30 0.105
958.40 0.105
958.50 0.105
958.60 0.105
958.70 0.105
958.80 0.1051
958.90 0.1051
959.00 0.1051
959.10 0.1051
959.20 0.1051
959.30 0.1052
959.40 0.1052
959.50 0.1052
959.60 0.1053
959.70 0.1053
959.80 0.1053
959.90 0.1054
960.00 0.1054
960.10 0.1054
960.20 0.1055
960.30 0.1055
960.40 0.1055
960.50 0.1055
960.60 0.1056
960.70 0.1056
960.80 0.1056
960.90 0.1057
961.00 0.1057
961.10 0.1057
961.20 0.1058
961.30 0.1058
961.40 0.1058
961.50 0.1059
961.60 0.1059
961.70 0.1059
961.80 0.1059
961.90 0.106
962.00 0.106
962.10 0.106
962.20 0.1061
962.30 0.1061
962.40 0.1061
962.50 0.1061
962.60 0.1062
962.70 0.1062
962.80 0.1062
962.90 0.1062
963.00 0.1063
963.10 0.1063
963.20 0.1063
963.30 0.1063
963.40 0.1064
963.50 0.1064
963.60 0.1064
963.70 0.1064
963.80 0.1065
963.90 0.1065
964.00 0.1065
964.10 0.1065
964.20 0.1065
964.30 0.1066
964.40 0.1066
964.50 0.1066
964.60 0.1066
964.70 0.1066
964.80 0.1066
964.90 0.1066
965.00 0.1067
965.10 0.1067
965.20 0.1067
965.30 0.1067
965.40 0.1067
965.50 0.1067
965.60 0.1067
965.70 0.1067
965.80 0.1068
965.90 0.1068
966.00 0.1068
966.10 0.1068
966.20 0.1068
966.30 0.1068
966.40 0.1068
966.50 0.1068
966.60 0.1069
966.70 0.1069
966.80 0.1069
966.90 0.1069
967.00 0.1069
967.10 0.1069
967.20 0.1069
967.30 0.1069
967.40 0.1069
967.50 0.1069
967.60 0.1069
967.70 0.1069
967.80 0.1069
967.90 0.1069
968.00 0.1069
968.10 0.1069
968.20 0.1069
968.30 0.1069
968.40 0.1069
968.50 0.1069
968.60 0.1069
968.70 0.1069
968.80 0.1069
968.90 0.1069
969.00 0.1069
969.10 0.1068
969.20 0.1068
969.30 0.1068
969.40 0.1068
969.50 0.1068
969.60 0.1068
969.70 0.1068
969.80 0.1068
969.90 0.1068
970.00 0.1068
970.10 0.1068
970.20 0.1068
970.30 0.1068
970.40 0.1068
970.50 0.1067
970.60 0.1067
970.70 0.1067
970.80 0.1067
970.90 0.1067
971.00 0.1067
971.10 0.1067
971.20 0.1067
971.30 0.1066
971.40 0.1066
971.50 0.1066
971.60 0.1066
971.70 0.1066
971.80 0.1066
971.90 0.1066
972.00 0.1065
972.10 0.1065
972.20 0.1065
972.30 0.1065
972.40 0.1065
972.50 0.1064
972.60 0.1064
972.70 0.1064
972.80 0.1064
972.90 0.1063
973.00 0.1063
973.10 0.1063
973.20 0.1063
973.30 0.1063
973.40 0.1062
973.50 0.1062
973.60 0.1062
973.70 0.1062
973.80 0.1062
973.90 0.1061
974.00 0.1061
974.10 0.1061
974.20 0.1061
974.30 0.1061
974.40 0.106
974.50 0.106
974.60 0.106
974.70 0.1059
974.80 0.1059
974.90 0.1059
975.00 0.1058
975.10 0.1058
975.20 0.1058
975.30 0.1058
975.40 0.1057
975.50 0.1057
975.60 0.1057
975.70 0.1056
975.80 0.1056
975.90 0.1056
976.00 0.1056
976.10 0.1055
976.20 0.1055
976.30 0.1055
976.40 0.1054
976.50 0.1054
976.60 0.1054
976.70 0.1053
976.80 0.1053
976.90 0.1053
977.00 0.1053
977.10 0.1052
977.20 0.1052
977.30 0.1051
977.40 0.1051
977.50 0.1051
977.60 0.105
977.70 0.105
977.80 0.1049
977.90 0.1049
978.00 0.1048
978.10 0.1048
978.20 0.1048
978.30 0.1047
978.40 0.1047
978.50 0.1046
978.60 0.1046
978.70 0.1046
978.80 0.1045
978.90 0.1045
979.00 0.1044
979.10 0.1044
979.20 0.1043
979.30 0.1043
979.40 0.1043
979.50 0.1042
979.60 0.1042
979.70 0.1041
979.80 0.1041
979.90 0.1041
980.00 0.104
980.10 0.104
980.20 0.1039
980.30 0.1039
980.40 0.1038
980.50 0.1038
980.60 0.1038
980.70 0.1037
980.80 0.1037
980.90 0.1036
981.00 0.1036
981.10 0.1036
981.20 0.1035
981.30 0.1035
981.40 0.1034
981.50 0.1034
981.60 0.1034
981.70 0.1033
981.80 0.1033
981.90 0.1032
982.00 0.1032
982.10 0.1031
982.20 0.1031
982.30 0.103
982.40 0.103
982.50 0.1029
982.60 0.1029
982.70 0.1028
982.80 0.1028
982.90 0.1027
983.00 0.1026
983.10 0.1026
983.20 0.1025
983.30 0.1025
983.40 0.1024
983.50 0.1024
983.60 0.1023
983.70 0.1023
983.80 0.1022
983.90 0.1021
984.00 0.1021
984.10 0.102
984.20 0.102
984.30 0.1019
984.40 0.1019
984.50 0.1018
984.60 0.1018
984.70 0.1017
984.80 0.1016
984.90 0.1016
985.00 0.1015
985.10 0.1014
985.20 0.1014
985.30 0.1013
985.40 0.1012
985.50 0.1012
985.60 0.1011
985.70 0.101
985.80 0.101
985.90 0.1009
986.00 0.1008
986.10 0.1008
986.20 0.1007
986.30 0.1006
986.40 0.1006
986.50 0.1005
986.60 0.1004
986.70 0.1004
986.80 0.1003
986.90 0.1002
987.00 0.1002
987.10 0.1001
987.20 0.1
987.30 0.09993
987.40 0.09986
987.50 0.09978
987.60 0.0997
987.70 0.09962
987.80 0.09954
987.90 0.09946
988.00 0.09939
988.10 0.09931
988.20 0.09923
988.30 0.09915
988.40 0.09907
988.50 0.099
988.60 0.09892
988.70 0.09883
988.80 0.09874
988.90 0.09865
989.00 0.09856
989.10 0.09847
989.20 0.09837
989.30 0.09828
989.40 0.09819
989.50 0.0981
989.60 0.09801
989.70 0.09792
989.80 0.09783
989.90 0.09774
990.00 0.09765
990.10 0.09756
990.20 0.09747
990.30 0.09738
990.40 0.09729
990.50 0.0972
990.60 0.09711
990.70 0.09701
990.80 0.0969
990.90 0.0968
991.00 0.0967
991.10 0.09659
991.20 0.09649
991.30 0.09638
991.40 0.09628
991.50 0.09618
991.60 0.09607
991.70 0.09597
991.80 0.09587
991.90 0.09576
992.00 0.09566
992.10 0.09555
992.20 0.09544
992.30 0.09533
992.40 0.09522
992.50 0.09511
992.60 0.09499
992.70 0.09488
992.80 0.09475
992.90 0.09463
993.00 0.09451
993.10 0.09439
993.20 0.09427
993.30 0.09415
993.40 0.09403
993.50 0.09391
993.60 0.09379
993.70 0.09367
993.80 0.09355
993.90 0.09343
994.00 0.09331
994.10 0.09319
994.20 0.09307
994.30 0.09294
994.40 0.09282
994.50 0.0927
994.60 0.09258
994.70 0.09246
994.80 0.09233
994.90 0.09219
995.00 0.09206
995.10 0.09193
995.20 0.0918
995.30 0.09167
995.40 0.09154
995.50 0.09141
995.60 0.09128
995.70 0.09115
995.80 0.09101
995.90 0.09087
996.00 0.09074
996.10 0.0906
996.20 0.09047
996.30 0.09033
996.40 0.09019
996.50 0.09006
996.60 0.08992
996.70 0.08979
996.80 0.08965
996.90 0.08951
997.00 0.08938
997.10 0.08924
997.20 0.0891
997.30 0.08896
997.40 0.08882
997.50 0.08868
997.60 0.08854
997.70 0.08841
997.80 0.08827
997.90 0.08813
998.00 0.08799
998.10 0.08785
998.20 0.08771
998.30 0.08757
998.40 0.08744
998.50 0.0873
998.60 0.08716
998.70 0.08702
998.80 0.08688
998.90 0.08674
999.00 0.08661
999.10 0.08647
999.20 0.08633
999.30 0.08619
999.40 0.08605
999.50 0.08592
999.60 0.08578
999.70 0.08565
999.80 0.08553
999.90 0.0854
1000.00 0.08528
1000.10 0.08516
1000.20 0.08503
1000.30 0.08491
1000.40 0.08479
1000.50 0.08466
1000.60 0.08454
1000.70 0.08442
1000.80 0.08429
1000.90 0.08417
1001.00 0.08405
1001.10 0.08393
1001.20 0.0838
1001.30 0.08368
1001.40 0.08356
1001.50 0.08343
1001.60 0.08331
1001.70 0.08321
1001.80 0.08311
1001.90 0.08301
1002.00 0.08291
1002.10 0.08284
1002.20 0.08277
1002.30 0.0827
1002.40 0.08264
1002.50 0.08257
1002.60 0.0825
1002.70 0.08243
1002.80 0.08236
1002.90 0.0823
1003.00 0.08223
1003.10 0.08216
1003.20 0.08224
1003.30 0.08237
1003.40 0.0825
1003.50 0.08263
1003.60 0.08275
1003.70 0.08288
1003.80 0.08301
1003.90 0.08322
1004.00 0.08345
1004.10 0.08368
1004.20 0.08392
1004.30 0.08423
1004.40 0.08456
1004.50 0.08487
1004.60 0.08508
1004.70 0.08337
1004.80 0.08306
1004.90 0.08271
1005.00 0.08235
1005.10 0.08207
1005.20 0.08182
1005.30 0.08157
1005.40 0.08132
1005.50 0.08115
1005.60 0.08101
1005.70 0.08087
1005.80 0.08073
1005.90 0.08059
1006.00 0.08045
1006.10 0.08031
1006.20 0.08027
1006.30 0.08025
1006.40 0.08024
1006.50 0.08022
1006.60 0.08021
1006.70 0.0802
1006.80 0.08018
1006.90 0.08017
1007.00 0.08015
1007.10 0.08018
1007.20 0.08021
1007.30 0.08024
1007.40 0.08026
1007.50 0.08029
1007.60 0.08032
1007.70 0.08036
1007.80 0.08041
1007.90 0.08047
1008.00 0.08052
1008.10 0.08057
1008.20 0.08062
1008.30 0.08067
1008.40 0.08072
1008.50 0.08078
1008.60 0.08083
1008.70 0.08088
1008.80 0.08093
1008.90 0.08098
1009.00 0.08103
1009.10 0.08108
1009.20 0.08114
1009.30 0.08119
1009.40 0.08124
1009.50 0.08129
1009.60 0.08134
1009.70 0.0814
1009.80 0.08146
1009.90 0.08152
1010.00 0.08158
1010.10 0.08164
1010.20 0.0817
1010.30 0.08176
1010.40 0.08182
1010.50 0.08188
1010.60 0.08194
1010.70 0.08199
1010.80 0.08205
1010.90 0.08211
1011.00 0.08217
1011.10 0.08223
1011.20 0.08229
1011.30 0.08235
1011.40 0.08241
1011.50 0.08247
1011.60 0.08253
1011.70 0.08259
1011.80 0.08264
1011.90 0.0827
1012.00 0.08276
1012.10 0.08281
1012.20 0.08286
1012.30 0.08292
1012.40 0.08297
1012.50 0.08302
1012.60 0.08308
1012.70 0.08313
1012.80 0.08318
1012.90 0.08324
1013.00 0.08329
1013.10 0.08334
1013.20 0.0834
1013.30 0.08345
1013.40 0.0835
1013.50 0.08356
1013.60 0.08361
1013.70 0.08366
1013.80 0.08371
1013.90 0.08375
1014.00 0.0838
1014.10 0.08385
1014.20 0.0839
1014.30 0.08394
1014.40 0.08399
1014.50 0.08404
1014.60 0.08409
1014.70 0.08413
1014.80 0.08417
1014.90 0.08421
1015.00 0.08425
1015.10 0.08429
1015.20 0.08433
1015.30 0.08437
1015.40 0.08441
1015.50 0.08445
1015.60 0.08449
1015.70 0.08453
1015.80 0.08457
1015.90 0.08461
1016.00 0.08465
1016.10 0.0847
1016.20 0.08474
1016.30 0.08478
1016.40 0.08482
1016.50 0.08486
1016.60 0.0849
1016.70 0.08493
1016.80 0.08497
1016.90 0.085
1017.00 0.08504
1017.10 0.08507
1017.20 0.0851
1017.30 0.08513
1017.40 0.08516
1017.50 0.08519
1017.60 0.08522
1017.70 0.08525
1017.80 0.08528
1017.90 0.08531
1018.00 0.08534
1018.10 0.08537
1018.20 0.0854
1018.30 0.08543
1018.40 0.08546
1018.50 0.08549
1018.60 0.08552
1018.70 0.08554
1018.80 0.08556
1018.90 0.08559
1019.00 0.08561
1019.10 0.08563
1019.20 0.08565
1019.30 0.08568
1019.40 0.0857
1019.50 0.08572
1019.60 0.08574
1019.70 0.08576
1019.80 0.08579
1019.90 0.08581
1020.00 0.08583
1020.10 0.08585
1020.20 0.08588
1020.30 0.0859
1020.40 0.08592
1020.50 0.08594
1020.60 0.08596
1020.70 0.08598
1020.80 0.086
1020.90 0.08601
1021.00 0.08603
1021.10 0.08604
1021.20 0.08606
1021.30 0.08607
1021.40 0.08609
1021.50 0.08611
1021.60 0.08612
1021.70 0.08614
1021.80 0.08615
1021.90 0.08617
1022.00 0.08618
1022.10 0.08619
1022.20 0.0862
1022.30 0.08621
1022.40 0.08622
1022.50 0.08623
1022.60 0.08623
1022.70 0.08624
1022.80 0.08625
1022.90 0.08626
1023.00 0.08627
1023.10 0.08628
1023.20 0.08629
1023.30 0.0863
1023.40 0.0863
1023.50 0.08631
1023.60 0.08632
1023.70 0.08633
1023.80 0.08634
1023.90 0.08635
1024.00 0.08636
1024.10 0.08636
1024.20 0.08637
1024.30 0.08638
1024.40 0.08639
1024.50 0.0864
1024.60 0.08641
1024.70 0.08641
1024.80 0.08641
1024.90 0.08641
1025.00 0.08641
1025.10 0.08641
1025.20 0.08642
1025.30 0.08642
1025.40 0.08642
1025.50 0.08642
1025.60 0.08642
1025.70 0.08642
1025.80 0.08642
1025.90 0.08642
1026.00 0.08642
1026.10 0.08643
1026.20 0.08643
1026.30 0.08643
1026.40 0.08643
1026.50 0.08643
1026.60 0.08643
1026.70 0.08643
1026.80 0.08643
1026.90 0.08643
1027.00 0.08644
1027.10 0.08643
1027.20 0.08642
1027.30 0.08641
1027.40 0.08641
1027.50 0.0864
1027.60 0.08639
1027.70 0.08638
1027.80 0.08638
1027.90 0.08637
1028.00 0.08636
1028.10 0.08635
1028.20 0.08634
1028.30 0.08634
1028.40 0.08633
1028.50 0.08632
1028.60 0.08631
1028.70 0.08631
1028.80 0.0863
1028.90 0.08629
1029.00 0.08628
1029.10 0.08628
1029.20 0.08627
1029.30 0.08626
1029.40 0.08625
1029.50 0.08625
1029.60 0.08624
1029.70 0.08623
1029.80 0.08622
1029.90 0.08622
1030.00 0.08621
1030.10 0.0862
1030.20 0.08619
1030.30 0.08619
1030.40 0.08618
1030.50 0.08617
1030.60 0.08616
1030.70 0.08616
1030.80 0.08615
1030.90 0.08614
1031.00 0.08613
1031.10 0.08613
1031.20 0.08612
1031.30 0.08611
1031.40 0.0861
1031.50 0.0861
1031.60 0.08609
1031.70 0.08608
1031.80 0.08607
1031.90 0.08607
1032.00 0.08606
1032.10 0.08604
1032.20 0.08603
1032.30 0.08601
1032.40 0.086
1032.50 0.08598
1032.60 0.08596
1032.70 0.08595
1032.80 0.08593
1032.90 0.08592
1033.00 0.0859
1033.10 0.08588
1033.20 0.08587
1033.30 0.08585
1033.40 0.08584
1033.50 0.08582
1033.60 0.0858
1033.70 0.08579
1033.80 0.08577
1033.90 0.08576
1034.00 0.08574
1034.10 0.08572
1034.20 0.08571
1034.30 0.08569
1034.40 0.08568
1034.50 0.08566
1034.60 0.08564
1034.70 0.08563
1034.80 0.08561
1034.90 0.0856
1035.00 0.08558
1035.10 0.08557
1035.20 0.08555
1035.30 0.08553
1035.40 0.08552
1035.50 0.0855
1035.60 0.08549
1035.70 0.08547
1035.80 0.08545
1035.90 0.08544
1036.00 0.08542
1036.10 0.08541
1036.20 0.08539
1036.30 0.08538
1036.40 0.08536
1036.50 0.08534
1036.60 0.08533
1036.70 0.08531
1036.80 0.0853
1036.90 0.08528
1037.00 0.08526
1037.10 0.08524
1037.20 0.08522
1037.30 0.0852
1037.40 0.08518
1037.50 0.08515
1037.60 0.08513
1037.70 0.08511
1037.80 0.08509
1037.90 0.08507
1038.00 0.08504
1038.10 0.08502
1038.20 0.085
1038.30 0.08498
1038.40 0.08496
1038.50 0.08493
1038.60 0.08491
1038.70 0.08489
1038.80 0.08487
1038.90 0.08485
1039.00 0.08482
1039.10 0.0848
1039.20 0.08478
1039.30 0.08476
1039.40 0.08474
1039.50 0.08472
1039.60 0.08469
1039.70 0.08467
1039.80 0.08465
1039.90 0.08463
1040.00 0.08461
1040.10 0.08458
1040.20 0.08456
1040.30 0.08454
1040.40 0.08452
1040.50 0.0845
1040.60 0.08447
1040.70 0.08445
1040.80 0.08443
1040.90 0.08441
1041.00 0.08439
1041.10 0.08437
1041.20 0.08434
1041.30 0.08432
1041.40 0.0843
1041.50 0.08428
1041.60 0.08426
1041.70 0.08424
1041.80 0.08421
1041.90 0.08419
1042.00 0.08417
1042.10 0.08414
1042.20 0.08412
1042.30 0.08409
1042.40 0.08406
1042.50 0.08404
1042.60 0.08401
1042.70 0.08399
1042.80 0.08396
1042.90 0.08393
1043.00 0.08391
1043.10 0.08388
1043.20 0.08385
1043.30 0.08383
1043.40 0.0838
1043.50 0.08377
1043.60 0.08375
1043.70 0.08372
1043.80 0.0837
1043.90 0.08367
1044.00 0.08364
1044.10 0.08362
1044.20 0.08359
1044.30 0.08356
1044.40 0.08354
1044.50 0.08351
1044.60 0.08349
1044.70 0.08346
1044.80 0.08343
1044.90 0.08341
1045.00 0.08338
1045.10 0.08335
1045.20 0.08333
1045.30 0.0833
1045.40 0.08328
1045.50 0.08325
1045.60 0.08322
1045.70 0.0832
1045.80 0.08317
1045.90 0.08315
1046.00 0.08312
1046.10 0.08309
1046.20 0.08307
1046.30 0.08304
1046.40 0.08302
1046.50 0.08299
1046.60 0.08296
1046.70 0.08294
1046.80 0.08291
1046.90 0.08289
1047.00 0.08286
1047.10 0.08283
1047.20 0.0828
1047.30 0.08277
1047.40 0.08274
1047.50 0.08271
1047.60 0.08268
1047.70 0.08265
1047.80 0.08262
1047.90 0.08259
1048.00 0.08256
1048.10 0.08253
1048.20 0.0825
1048.30 0.08247
1048.40 0.08244
1048.50 0.08241
1048.60 0.08238
1048.70 0.08235
1048.80 0.08232
1048.90 0.08229
1049.00 0.08226
1049.10 0.08223
1049.20 0.0822
1049.30 0.08217
1049.40 0.08214
1049.50 0.08211
1049.60 0.08208
1049.70 0.08205
1049.80 0.08202
1049.90 0.08199
1050.00 0.08196
1050.10 0.08193
1050.20 0.0819
1050.30 0.08187
1050.40 0.08184
1050.50 0.08181
1050.60 0.08178
1050.70 0.08175
1050.80 0.08172
1050.90 0.08169
1051.00 0.08166
1051.10 0.08163
1051.20 0.0816
1051.30 0.08157
1051.40 0.08154
1051.50 0.08151
1051.60 0.08148
1051.70 0.08145
1051.80 0.08143
1051.90 0.0814
1052.00 0.08137
1052.10 0.08133
1052.20 0.0813
1052.30 0.08126
1052.40 0.08123
1052.50 0.0812
1052.60 0.08116
1052.70 0.08113
1052.80 0.0811
1052.90 0.08106
1053.00 0.08103
1053.10 0.081
1053.20 0.08096
1053.30 0.08093
1053.40 0.08089
1053.50 0.08086
1053.60 0.08083
1053.70 0.08079
1053.80 0.08076
1053.90 0.08073
1054.00 0.08069
1054.10 0.08066
1054.20 0.08063
1054.30 0.08059
1054.40 0.08056
1054.50 0.08053
1054.60 0.08049
1054.70 0.08046
1054.80 0.08043
1054.90 0.08039
1055.00 0.08036
1055.10 0.08033
1055.20 0.08029
1055.30 0.08026
1055.40 0.08023
1055.50 0.08019
1055.60 0.08016
1055.70 0.08013
1055.80 0.08009
1055.90 0.08006
1056.00 0.08003
1056.10 0.07999
1056.20 0.07996
1056.30 0.07993
1056.40 0.07989
1056.50 0.07986
1056.60 0.07983
1056.70 0.07979
1056.80 0.07976
1056.90 0.07973
1057.00 0.07969
1057.10 0.07966
1057.20 0.07962
1057.30 0.07958
1057.40 0.07954
1057.50 0.0795
1057.60 0.07946
1057.70 0.07943
1057.80 0.07939
1057.90 0.07935
1058.00 0.07931
1058.10 0.07928
1058.20 0.07924
1058.30 0.0792
1058.40 0.07916
1058.50 0.07912
1058.60 0.07909
1058.70 0.07905
1058.80 0.07901
1058.90 0.07897
1059.00 0.07893
1059.10 0.0789
1059.20 0.07886
1059.30 0.07882
1059.40 0.07878
1059.50 0.07875
1059.60 0.07871
1059.70 0.07867
1059.80 0.07863
1059.90 0.07859
1060.00 0.07856
1060.10 0.07852
1060.20 0.07848
1060.30 0.07844
1060.40 0.07841
1060.50 0.07837
1060.60 0.07833
1060.70 0.07829
1060.80 0.07826
1060.90 0.07822
1061.00 0.07818
1061.10 0.07814
1061.20 0.07811
1061.30 0.07807
1061.40 0.07803
1061.50 0.07799
1061.60 0.07796
1061.70 0.07792
1061.80 0.07788
1061.90 0.07784
1062.00 0.07781
1062.10 0.07776
1062.20 0.07772
1062.30 0.07767
1062.40 0.07763
1062.50 0.07759
1062.60 0.07754
1062.70 0.0775
1062.80 0.07746
1062.90 0.07741
1063.00 0.07737
1063.10 0.07733
1063.20 0.07728
1063.30 0.07724
1063.40 0.0772
1063.50 0.07715
1063.60 0.07711
1063.70 0.07706
1063.80 0.07702
1063.90 0.07698
1064.00 0.07693
1064.10 0.07689
1064.20 0.07685
1064.30 0.0768
1064.40 0.07676
1064.50 0.07672
1064.60 0.07667
1064.70 0.07663
1064.80 0.07659
1064.90 0.07654
1065.00 0.0765
1065.10 0.07646
1065.20 0.07642
1065.30 0.07637
1065.40 0.07633
1065.50 0.07629
1065.60 0.07624
1065.70 0.0762
1065.80 0.07616
1065.90 0.07611
1066.00 0.07607
1066.10 0.07603
1066.20 0.07598
1066.30 0.07594
1066.40 0.0759
1066.50 0.07585
1066.60 0.07581
1066.70 0.07577
1066.80 0.07573
1066.90 0.07568
1067.00 0.07564
1067.10 0.07559
1067.20 0.07554
1067.30 0.07549
1067.40 0.07543
1067.50 0.07538
1067.60 0.07533
1067.70 0.07528
1067.80 0.07523
1067.90 0.07518
1068.00 0.07513
1068.10 0.07507
1068.20 0.07502
1068.30 0.07497
1068.40 0.07492
1068.50 0.07487
1068.60 0.07482
1068.70 0.07477
1068.80 0.07471
1068.90 0.07466
1069.00 0.07461
1069.10 0.07456
1069.20 0.07451
1069.30 0.07446
1069.40 0.07441
1069.50 0.07436
1069.60 0.07431
1069.70 0.07425
1069.80 0.0742
1069.90 0.07415
1070.00 0.0741
1070.10 0.07405
1070.20 0.074
1070.30 0.07395
1070.40 0.0739
1070.50 0.07385
1070.60 0.0738
1070.70 0.07374
1070.80 0.07369
1070.90 0.07364
1071.00 0.07359
1071.10 0.07354
1071.20 0.07349
1071.30 0.07344
1071.40 0.07339
1071.50 0.07334
1071.60 0.07329
1071.70 0.07324
1071.80 0.07319
1071.90 0.07314
1072.00 0.07308
1072.10 0.07303
1072.20 0.07297
1072.30 0.07291
1072.40 0.07285
1072.50 0.0728
1072.60 0.07274
1072.70 0.07268
1072.80 0.07263
1072.90 0.07257
1073.00 0.07251
1073.10 0.07245
1073.20 0.0724
1073.30 0.07234
1073.40 0.07228
1073.50 0.07222
1073.60 0.07216
1073.70 0.07209
1073.80 0.07203
1073.90 0.07197
1074.00 0.0719
1074.10 0.07184
1074.20 0.07178
1074.30 0.07171
1074.40 0.07165
1074.50 0.07158
1074.60 0.07152
1074.70 0.07146
1074.80 0.07139
1074.90 0.07133
1075.00 0.07127
1075.10 0.0712
1075.20 0.07114
1075.30 0.07108
1075.40 0.07101
1075.50 0.07095
1075.60 0.07089
1075.70 0.07082
1075.80 0.07076
1075.90 0.0707
1076.00 0.07063
1076.10 0.07057
1076.20 0.07051
1076.30 0.07044
1076.40 0.07038
1076.50 0.07032
1076.60 0.07025
1076.70 0.07019
1076.80 0.07013
1076.90 0.07007
1077.00 0.07
1077.10 0.06993
1077.20 0.06986
1077.30 0.0698
1077.40 0.06973
1077.50 0.06966
1077.60 0.06959
1077.70 0.06951
1077.80 0.06944
1077.90 0.06937
1078.00 0.06929
1078.10 0.06922
1078.20 0.06915
1078.30 0.06908
1078.40 0.069
1078.50 0.06893
1078.60 0.06886
1078.70 0.06878
1078.80 0.06871
1078.90 0.06864
1079.00 0.06857
1079.10 0.06849
1079.20 0.06842
1079.30 0.06835
1079.40 0.06828
1079.50 0.0682
1079.60 0.06812
1079.70 0.06804
1079.80 0.06796
1079.90 0.06788
1080.00 0.06781
1080.10 0.06773
1080.20 0.06765
1080.30 0.06757
1080.40 0.06749
1080.50 0.06741
1080.60 0.06733
1080.70 0.06725
1080.80 0.06717
1080.90 0.06709
1081.00 0.06701
1081.10 0.06693
1081.20 0.06686
1081.30 0.06678
1081.40 0.0667
1081.50 0.06662
1081.60 0.06653
1081.70 0.06645
1081.80 0.06637
1081.90 0.06628
1082.00 0.0662
1082.10 0.06611
1082.20 0.06602
1082.30 0.06594
1082.40 0.06585
1082.50 0.06576
1082.60 0.06567
1082.70 0.06559
1082.80 0.0655
1082.90 0.06541
1083.00 0.06532
1083.10 0.06524
1083.20 0.06515
1083.30 0.06506
1083.40 0.06497
1083.50 0.06489
1083.60 0.06479
1083.70 0.0647
1083.80 0.06461
1083.90 0.06452
1084.00 0.06442
1084.10 0.06433
1084.20 0.06424
1084.30 0.06415
1084.40 0.06405
1084.50 0.06396
1084.60 0.06386
1084.70 0.06376
1084.80 0.06367
1084.90 0.06357
1085.00 0.06347
1085.10 0.06337
1085.20 0.06327
1085.30 0.06317
1085.40 0.06308
1085.50 0.06298
1085.60 0.06288
1085.70 0.06278
1085.80 0.06268
1085.90 0.06259
1086.00 0.06249
1086.10 0.06239
1086.20 0.06229
1086.30 0.0622
1086.40 0.0621
1086.50 0.062
1086.60 0.0619
1086.70 0.06179
1086.80 0.06169
1086.90 0.06159
1087.00 0.06149
1087.10 0.06138
1087.20 0.06128
1087.30 0.06117
1087.40 0.06106
1087.50 0.06096
1087.60 0.06085
1087.70 0.06075
1087.80 0.06064
1087.90 0.06054
1088.00 0.06043
1088.10 0.06033
1088.20 0.06022
1088.30 0.06012
1088.40 0.06001
1088.50 0.05991
1088.60 0.0598
1088.70 0.05969
1088.80 0.05958
1088.90 0.05947
1089.00 0.05937
1089.10 0.05926
1089.20 0.05915
1089.30 0.05904
1089.40 0.05894
1089.50 0.05883
1089.60 0.05872
1089.70 0.05861
1089.80 0.05851
1089.90 0.0584
1090.00 0.05829
1090.10 0.05819
1090.20 0.05808
1090.30 0.05797
1090.40 0.05786
1090.50 0.05776
1090.60 0.05766
1090.70 0.05756
1090.80 0.05746
1090.90 0.05737
1091.00 0.05727
1091.10 0.05717
1091.20 0.05707
1091.30 0.05697
1091.40 0.05688
1091.50 0.05678
1091.60 0.05668
1091.70 0.05658
1091.80 0.05648
1091.90 0.05639
1092.00 0.05631
1092.10 0.05626
1092.20 0.05621
1092.30 0.05616
1092.40 0.05611
1092.50 0.05606
1092.60 0.05601
1092.70 0.05599
1092.80 0.05605
1092.90 0.05611
1093.00 0.05616
1093.10 0.05627
1093.20 0.05647
1093.30 0.05669
1093.40 0.05693
1093.50 0.05699
1093.60 0.05673
1093.70 0.05647
1093.80 0.05623
1093.90 0.05604
1094.00 0.05595
1094.10 0.05586
1094.20 0.05577
1094.30 0.05571
1094.40 0.05572
1094.50 0.05574
1094.60 0.05575
1094.70 0.05577
1094.80 0.05578
1094.90 0.0558
1095.00 0.05583
1095.10 0.05589
1095.20 0.05595
1095.30 0.05601
1095.40 0.05607
1095.50 0.05613
1095.60 0.0562
1095.70 0.05626
1095.80 0.05632
1095.90 0.05638
1096.00 0.05644
1096.10 0.0565
1096.20 0.05656
1096.30 0.05663
1096.40 0.05669
1096.50 0.05675
1096.60 0.05682
1096.70 0.05689
1096.80 0.05696
1096.90 0.05703
1097.00 0.05709
1097.10 0.05716
1097.20 0.05723
1097.30 0.0573
1097.40 0.05737
1097.50 0.05743
1097.60 0.0575
1097.70 0.05757
1097.80 0.05764
1097.90 0.0577
1098.00 0.05777
1098.10 0.05784
1098.20 0.05791
1098.30 0.05798
1098.40 0.05804
1098.50 0.05811
1098.60 0.05817
1098.70 0.05823
1098.80 0.0583
1098.90 0.05836
1099.00 0.05842
1099.10 0.05848
1099.20 0.05855
1099.30 0.05861
1099.40 0.05867
1099.50 0.05873
1099.60 0.0588
1099.70 0.05886
1099.80 0.05892
1099.90 0.05898
1100.00 0.05905
1100.10 0.05911
1100.20 0.05917
1100.30 0.05923
1100.40 0.0593
1100.50 0.05936
1100.60 0.05941
1100.70 0.05947
1100.80 0.05952
1100.90 0.05958
1101.00 0.05963
1101.10 0.05969
1101.20 0.05974
1101.30 0.0598
1101.40 0.05985
1101.50 0.0599
1101.60 0.05996
1101.70 0.06001
1101.80 0.06007
1101.90 0.06012
1102.00 0.06018
1102.10 0.06023
1102.20 0.06028
1102.30 0.06033
1102.40 0.06038
1102.50 0.06043
1102.60 0.06047
1102.70 0.06052
1102.80 0.06057
1102.90 0.06061
1103.00 0.06066
1103.10 0.06071
1103.20 0.06075
1103.30 0.0608
1103.40 0.06085
1103.50 0.06089
1103.60 0.06093
1103.70 0.06097
1103.80 0.06101
1103.90 0.06105
1104.00 0.06109
1104.10 0.06113
1104.20 0.06117
1104.30 0.06121
1104.40 0.06125
1104.50 0.06129
1104.60 0.06133
1104.70 0.06137
1104.80 0.06141
1104.90 0.06145
1105.00 0.06149
1105.10 0.06153
1105.20 0.06157
1105.30 0.06161
1105.40 0.06165
1105.50 0.06168
1105.60 0.06172
1105.70 0.06175
1105.80 0.06178
1105.90 0.06181
1106.00 0.06185
1106.10 0.06188
1106.20 0.06191
1106.30 0.06194
1106.40 0.06198
1106.50 0.06201
1106.60 0.06204
1106.70 0.06207
1106.80 0.0621
1106.90 0.06214
1107.00 0.06217
1107.10 0.0622
1107.20 0.06223
1107.30 0.06225
1107.40 0.06228
1107.50 0.06231
1107.60 0.06233
1107.70 0.06236
1107.80 0.06238
1107.90 0.0624
1108.00 0.06243
1108.10 0.06245
1108.20 0.06248
1108.30 0.0625
1108.40 0.06252
1108.50 0.06255
1108.60 0.06257
1108.70 0.0626
1108.80 0.06262
1108.90 0.06264
1109.00 0.06267
1109.10 0.06269
1109.20 0.06272
1109.30 0.06274
1109.40 0.06276
1109.50 0.06279
1109.60 0.0628
1109.70 0.06282
1109.80 0.06284
1109.90 0.06285
1110.00 0.06287
1110.10 0.06289
1110.20 0.0629
1110.30 0.06292
1110.40 0.06294
1110.50 0.06295
1110.60 0.06297
1110.70 0.06299
1110.80 0.063
1110.90 0.06302
1111.00 0.06304
1111.10 0.06305
1111.20 0.06307
1111.30 0.06309
1111.40 0.0631
1111.50 0.06312
1111.60 0.06314
1111.70 0.06315
1111.80 0.06317
1111.90 0.06319
1112.00 0.0632
1112.10 0.06321
1112.20 0.06323
1112.30 0.06324
1112.40 0.06325
1112.50 0.06326
1112.60 0.06327
1112.70 0.06328
1112.80 0.06329
1112.90 0.0633
1113.00 0.06332
1113.10 0.06333
1113.20 0.06334
1113.30 0.06335
1113.40 0.06336
1113.50 0.06337
1113.60 0.06337
1113.70 0.06338
1113.80 0.06339
1113.90 0.06339
1114.00 0.0634
1114.10 0.0634
1114.20 0.06341
1114.30 0.06341
1114.40 0.06342
1114.50 0.06342
1114.60 0.06343
1114.70 0.06344
1114.80 0.06344
1114.90 0.06345
1115.00 0.06345
1115.10 0.06346
1115.20 0.06346
1115.30 0.06347
1115.40 0.06347
1115.50 0.06348
1115.60 0.06349
1115.70 0.06349
1115.80 0.0635
1115.90 0.0635
1116.00 0.06351
1116.10 0.06351
1116.20 0.06352
1116.30 0.06352
1116.40 0.06353
1116.50 0.06353
1116.60 0.06354
1116.70 0.06355
1116.80 0.06355
1116.90 0.06356
1117.00 0.06356
1117.10 0.06356
1117.20 0.06356
1117.30 0.06356
1117.40 0.06355
1117.50 0.06355
1117.60 0.06355
1117.70 0.06355
1117.80 0.06355
1117.90 0.06354
1118.00 0.06354
1118.10 0.06354
1118.20 0.06354
1118.30 0.06354
1118.40 0.06353
1118.50 0.06353
1118.60 0.06353
1118.70 0.06353
1118.80 0.06353
1118.90 0.06352
1119.00 0.06352
1119.10 0.06352
1119.20 0.06352
1119.30 0.06352
1119.40 0.06351
1119.50 0.06351
1119.60 0.06351
1119.70 0.06351
1119.80 0.06351
1119.90 0.06351
1120.00 0.0635
1120.10 0.0635
1120.20 0.0635
1120.30 0.0635
1120.40 0.0635
1120.50 0.06349
1120.60 0.06349
1120.70 0.06349
1120.80 0.06349
1120.90 0.06349
1121.00 0.06348
1121.10 0.06348
1121.20 0.06348
1121.30 0.06348
1121.40 0.06348
1121.50 0.06347
1121.60 0.06347
1121.70 0.06347
1121.80 0.06347
1121.90 0.06347
1122.00 0.06346
1122.10 0.06346
1122.20 0.06345
1122.30 0.06344
1122.40 0.06343
1122.50 0.06342
1122.60 0.06342
1122.70 0.06341
1122.80 0.0634
1122.90 0.06339
1123.00 0.06338
1123.10 0.06337
1123.20 0.06337
1123.30 0.06336
1123.40 0.06335
1123.50 0.06334
1123.60 0.06333
1123.70 0.06333
1123.80 0.06332
1123.90 0.06331
1124.00 0.0633
1124.10 0.06329
1124.20 0.06329
1124.30 0.06328
1124.40 0.06327
1124.50 0.06326
1124.60 0.06325
1124.70 0.06325
1124.80 0.06324
1124.90 0.06323
1125.00 0.06322
1125.10 0.06321
1125.20 0.06321
1125.30 0.0632
1125.40 0.06319
1125.50 0.06318
1125.60 0.06317
1125.70 0.06317
1125.80 0.06316
1125.90 0.06315
1126.00 0.06314
1126.10 0.06313
1126.20 0.06312
1126.30 0.06312
1126.40 0.06311
1126.50 0.0631
1126.60 0.06309
1126.70 0.06308
1126.80 0.06308
1126.90 0.06307
1127.00 0.06306
1127.10 0.06305
1127.20 0.06304
1127.30 0.06302
1127.40 0.06301
1127.50 0.063
1127.60 0.06299
1127.70 0.06298
1127.80 0.06296
1127.90 0.06295
1128.00 0.06294
1128.10 0.06293
1128.20 0.06292
1128.30 0.0629
1128.40 0.06289
1128.50 0.06288
1128.60 0.06287
1128.70 0.06286
1128.80 0.06284
1128.90 0.06283
1129.00 0.06282
1129.10 0.06281
1129.20 0.0628
1129.30 0.06278
1129.40 0.06277
1129.50 0.06276
1129.60 0.06275
1129.70 0.06274
1129.80 0.06272
1129.90 0.06271
1130.00 0.0627
1130.10 0.06269
1130.20 0.06268
1130.30 0.06267
1130.40 0.06265
1130.50 0.06264
1130.60 0.06263
1130.70 0.06262
1130.80 0.06261
1130.90 0.06259
1131.00 0.06258
1131.10 0.06257
1131.20 0.06256
1131.30 0.06255
1131.40 0.06253
1131.50 0.06252
1131.60 0.06251
1131.70 0.0625
1131.80 0.06249
1131.90 0.06247
1132.00 0.06246
1132.10 0.06245
1132.20 0.06243
1132.30 0.06242
1132.40 0.0624
1132.50 0.06239
1132.60 0.06238
1132.70 0.06236
1132.80 0.06235
1132.90 0.06233
1133.00 0.06232
1133.10 0.0623
1133.20 0.06229
1133.30 0.06227
1133.40 0.06226
1133.50 0.06225
1133.60 0.06223
1133.70 0.06222
1133.80 0.0622
1133.90 0.06219
1134.00 0.06217
1134.10 0.06216
1134.20 0.06214
1134.30 0.06213
1134.40 0.06212
1134.50 0.0621
1134.60 0.06209
1134.70 0.06207
1134.80 0.06206
1134.90 0.06204
1135.00 0.06203
1135.10 0.06201
1135.20 0.062
1135.30 0.06199
1135.40 0.06197
1135.50 0.06196
1135.60 0.06194
1135.70 0.06193
1135.80 0.06191
1135.90 0.0619
1136.00 0.06189
1136.10 0.06187
1136.20 0.06186
1136.30 0.06184
1136.40 0.06183
1136.50 0.06181
1136.60 0.0618
1136.70 0.06178
1136.80 0.06177
1136.90 0.06176
1137.00 0.06174
1137.10 0.06173
1137.20 0.06171
1137.30 0.06169
1137.40 0.06168
1137.50 0.06166
1137.60 0.06165
1137.70 0.06163
1137.80 0.06161
1137.90 0.0616
1138.00 0.06158
1138.10 0.06157
1138.20 0.06155
1138.30 0.06153
1138.40 0.06152
1138.50 0.0615
1138.60 0.06149
1138.70 0.06147
1138.80 0.06145
1138.90 0.06144
1139.00 0.06142
1139.10 0.06141
1139.20 0.06139
1139.30 0.06137
1139.40 0.06136
1139.50 0.06134
1139.60 0.06133
1139.70 0.06131
1139.80 0.06129
1139.90 0.06128
1140.00 0.06126
1140.10 0.06125
1140.20 0.06123
1140.30 0.06121
1140.40 0.0612
1140.50 0.06118
1140.60 0.06117
1140.70 0.06115
1140.80 0.06114
1140.90 0.06112
1141.00 0.0611
1141.10 0.06109
1141.20 0.06107
1141.30 0.06106
1141.40 0.06104
1141.50 0.06102
1141.60 0.06101
1141.70 0.06099
1141.80 0.06098
1141.90 0.06096
1142.00 0.06095
1142.10 0.06093
1142.20 0.06091
1142.30 0.06089
1142.40 0.06088
1142.50 0.06086
1142.60 0.06084
1142.70 0.06083
1142.80 0.06081
1142.90 0.06079
1143.00 0.06078
1143.10 0.06076
1143.20 0.06074
1143.30 0.06072
1143.40 0.06071
1143.50 0.06069
1143.60 0.06067
1143.70 0.06066
1143.80 0.06064
1143.90 0.06062
1144.00 0.06061
1144.10 0.06059
1144.20 0.06057
1144.30 0.06055
1144.40 0.06054
1144.50 0.06052
1144.60 0.0605
1144.70 0.06049
1144.80 0.06047
1144.90 0.06045
1145.00 0.06044
1145.10 0.06042
1145.20 0.0604
1145.30 0.06039
1145.40 0.06037
1145.50 0.06035
1145.60 0.06033
1145.70 0.06032
1145.80 0.0603
1145.90 0.06028
1146.00 0.06027
1146.10 0.06025
1146.20 0.06023
1146.30 0.06022
1146.40 0.0602
1146.50 0.06018
1146.60 0.06017
1146.70 0.06015
1146.80 0.06013
1146.90 0.06012
1147.00 0.0601
1147.10 0.06008
1147.20 0.06006
1147.30 0.06005
1147.40 0.06003
1147.50 0.06001
1147.60 0.05999
1147.70 0.05998
1147.80 0.05996
1147.90 0.05994
1148.00 0.05992
1148.10 0.05991
1148.20 0.05989
1148.30 0.05987
1148.40 0.05986
1148.50 0.05984
1148.60 0.05982
1148.70 0.0598
1148.80 0.05979
1148.90 0.05977
1149.00 0.05975
1149.10 0.05973
1149.20 0.05972
1149.30 0.0597
1149.40 0.05968
1149.50 0.05966
1149.60 0.05965
1149.70 0.05963
1149.80 0.05961
1149.90 0.05959
1150.00 0.05958
1150.10 0.05956
1150.20 0.05954
1150.30 0.05953
1150.40 0.05951
1150.50 0.05949
1150.60 0.05947
1150.70 0.05946
1150.80 0.05944
1150.90 0.05942
1151.00 0.0594
1151.10 0.05939
1151.20 0.05937
1151.30 0.05935
1151.40 0.05934
1151.50 0.05932
1151.60 0.0593
1151.70 0.05928
1151.80 0.05927
1151.90 0.05925
1152.00 0.05923
1152.10 0.05921
1152.20 0.0592
1152.30 0.05918
1152.40 0.05916
1152.50 0.05914
1152.60 0.05913
1152.70 0.05911
1152.80 0.05909
1152.90 0.05907
1153.00 0.05906
1153.10 0.05904
1153.20 0.05902
1153.30 0.059
1153.40 0.05898
1153.50 0.05897
1153.60 0.05895
1153.70 0.05893
1153.80 0.05891
1153.90 0.0589
1154.00 0.05888
1154.10 0.05886
1154.20 0.05884
1154.30 0.05883
1154.40 0.05881
1154.50 0.05879
1154.60 0.05877
1154.70 0.05876
1154.80 0.05874
1154.90 0.05872
1155.00 0.0587
1155.10 0.05869
1155.20 0.05867
1155.30 0.05865
1155.40 0.05863
1155.50 0.05862
1155.60 0.0586
1155.70 0.05858
1155.80 0.05856
1155.90 0.05855
1156.00 0.05853
1156.10 0.05851
1156.20 0.05849
1156.30 0.05848
1156.40 0.05846
1156.50 0.05844
1156.60 0.05842
1156.70 0.05841
1156.80 0.05839
1156.90 0.05837
1157.00 0.05835
1157.10 0.05833
1157.20 0.05832
1157.30 0.0583
1157.40 0.05828
1157.50 0.05826
1157.60 0.05825
1157.70 0.05823
1157.80 0.05821
1157.90 0.05819
1158.00 0.05817
1158.10 0.05816
1158.20 0.05814
1158.30 0.05812
1158.40 0.0581
1158.50 0.05809
1158.60 0.05807
1158.70 0.05805
1158.80 0.05803
1158.90 0.05801
1159.00 0.058
1159.10 0.05798
1159.20 0.05796
1159.30 0.05794
1159.40 0.05793
1159.50 0.05791
1159.60 0.05789
1159.70 0.05787
1159.80 0.05786
1159.90 0.05784
1160.00 0.05782
1160.10 0.0578
1160.20 0.05778
1160.30 0.05777
1160.40 0.05775
1160.50 0.05773
1160.60 0.05771
1160.70 0.0577
1160.80 0.05768
1160.90 0.05766
1161.00 0.05764
1161.10 0.05763
1161.20 0.05761
1161.30 0.05759
1161.40 0.05757
1161.50 0.05755
1161.60 0.05754
1161.70 0.05752
1161.80 0.0575
1161.90 0.05748
1162.00 0.05747
1162.10 0.05745
1162.20 0.05743
1162.30 0.05741
1162.40 0.0574
1162.50 0.05738
1162.60 0.05736
1162.70 0.05734
1162.80 0.05733
1162.90 0.05731
1163.00 0.05729
1163.10 0.05727
1163.20 0.05725
1163.30 0.05724
1163.40 0.05722
1163.50 0.0572
1163.60 0.05718
1163.70 0.05717
1163.80 0.05715
1163.90 0.05713
1164.00 0.05711
1164.10 0.0571
1164.20 0.05708
1164.30 0.05706
1164.40 0.05704
1164.50 0.05702
1164.60 0.05701
1164.70 0.05699
1164.80 0.05697
1164.90 0.05695
1165.00 0.05694
1165.10 0.05692
1165.20 0.0569
1165.30 0.05688
1165.40 0.05687
1165.50 0.05685
1165.60 0.05683
1165.70 0.05681
1165.80 0.0568
1165.90 0.05678
1166.00 0.05676
1166.10 0.05674
1166.20 0.05673
1166.30 0.05671
1166.40 0.05669
1166.50 0.05667
1166.60 0.05666
1166.70 0.05664
1166.80 0.05662
1166.90 0.0566
1167.00 0.05659
1167.10 0.05657
1167.20 0.05655
1167.30 0.05653
1167.40 0.05651
1167.50 0.0565
1167.60 0.05648
1167.70 0.05646
1167.80 0.05644
1167.90 0.05643
1168.00 0.05641
1168.10 0.05639
1168.20 0.05637
1168.30 0.05636
1168.40 0.05634
1168.50 0.05632
1168.60 0.0563
1168.70 0.05629
1168.80 0.05627
1168.90 0.05625
1169.00 0.05623
1169.10 0.05621
1169.20 0.0562
1169.30 0.05618
1169.40 0.05616
1169.50 0.05614
1169.60 0.05613
1169.70 0.05611
1169.80 0.05609
1169.90 0.05607
1170.00 0.05606
1170.10 0.05604
1170.20 0.05602
1170.30 0.056
1170.40 0.05599
1170.50 0.05597
1170.60 0.05595
1170.70 0.05593
1170.80 0.05592
1170.90 0.0559
1171.00 0.05588
1171.10 0.05586
1171.20 0.05585
1171.30 0.05583
1171.40 0.05581
1171.50 0.05579
1171.60 0.05578
1171.70 0.05576
1171.80 0.05574
1171.90 0.05572
1172.00 0.05571
1172.10 0.05569
1172.20 0.05567
1172.30 0.05565
1172.40 0.05564
1172.50 0.05562
1172.60 0.0556
1172.70 0.05558
1172.80 0.05557
1172.90 0.05555
1173.00 0.05553
1173.10 0.05551
1173.20 0.0555
1173.30 0.05548
1173.40 0.05546
1173.50 0.05544
1173.60 0.05543
1173.70 0.05541
1173.80 0.05539
1173.90 0.05538
1174.00 0.05536
1174.10 0.05534
1174.20 0.05532
1174.30 0.05531
1174.40 0.05529
1174.50 0.05527
1174.60 0.05525
1174.70 0.05524
1174.80 0.05522
1174.90 0.0552
1175.00 0.05518
1175.10 0.05517
1175.20 0.05515
1175.30 0.05513
1175.40 0.05511
1175.50 0.0551
1175.60 0.05508
1175.70 0.05506
1175.80 0.05504
1175.90 0.05503
1176.00 0.05501
1176.10 0.05499
1176.20 0.05498
1176.30 0.05496
1176.40 0.05494
1176.50 0.05492
1176.60 0.05491
1176.70 0.05489
1176.80 0.05487
1176.90 0.05485
1177.00 0.05484
1177.10 0.05482
1177.20 0.0548
1177.30 0.05479
1177.40 0.05477
1177.50 0.05475
1177.60 0.05473
1177.70 0.05472
1177.80 0.0547
1177.90 0.05468
1178.00 0.05466
1178.10 0.05465
1178.20 0.05463
1178.30 0.05461
1178.40 0.0546
1178.50 0.05458
1178.60 0.05456
1178.70 0.05454
1178.80 0.05453
1178.90 0.05451
1179.00 0.05449
1179.10 0.05448
1179.20 0.05446
1179.30 0.05444
1179.40 0.05442
1179.50 0.05441
1179.60 0.05439
1179.70 0.05437
1179.80 0.05435
1179.90 0.05434
1180.00 0.05432
1180.10 0.0543
1180.20 0.05429
1180.30 0.05427
1180.40 0.05425
1180.50 0.05423
1180.60 0.05422
1180.70 0.0542
1180.80 0.05418
1180.90 0.05417
1181.00 0.05415
1181.10 0.05413
1181.20 0.05412
1181.30 0.0541
1181.40 0.05408
1181.50 0.05406
1181.60 0.05405
1181.70 0.05403
1181.80 0.05401
1181.90 0.054
1182.00 0.05398
1182.10 0.05396
1182.20 0.05394
1182.30 0.05393
1182.40 0.05391
1182.50 0.05389
1182.60 0.05388
1182.70 0.05386
1182.80 0.05384
1182.90 0.05382
1183.00 0.05381
1183.10 0.05379
1183.20 0.05377
1183.30 0.05376
1183.40 0.05374
1183.50 0.05372
1183.60 0.0537
1183.70 0.05369
1183.80 0.05367
1183.90 0.05365
1184.00 0.05364
1184.10 0.05362
1184.20 0.0536
1184.30 0.05359
1184.40 0.05357
1184.50 0.05355
1184.60 0.05353
1184.70 0.05352
1184.80 0.0535
1184.90 0.05348
1185.00 0.05347
1185.10 0.05345
1185.20 0.05343
1185.30 0.05342
1185.40 0.0534
1185.50 0.05338
1185.60 0.05336
1185.70 0.05335
1185.80 0.05333
1185.90 0.05331
1186.00 0.0533
1186.10 0.05328
1186.20 0.05326
1186.30 0.05325
1186.40 0.05323
1186.50 0.05321
1186.60 0.0532
1186.70 0.05318
1186.80 0.05316
1186.90 0.05314
1187.00 0.05313
1187.10 0.05311
1187.20 0.05309
1187.30 0.05308
1187.40 0.05306
1187.50 0.05304
1187.60 0.05303
1187.70 0.05301
1187.80 0.05299
1187.90 0.05298
1188.00 0.05296
1188.10 0.05294
1188.20 0.05292
1188.30 0.05291
1188.40 0.05289
1188.50 0.05287
1188.60 0.05286
1188.70 0.05284
1188.80 0.05282
1188.90 0.05281
1189.00 0.05279
1189.10 0.05277
1189.20 0.05276
1189.30 0.05274
1189.40 0.05272
1189.50 0.05271
1189.60 0.05269
1189.70 0.05267
1189.80 0.05265
1189.90 0.05264
1190.00 0.05262
1190.10 0.0526
1190.20 0.05259
1190.30 0.05257
1190.40 0.05255
1190.50 0.05254
1190.60 0.05252
1190.70 0.0525
1190.80 0.05249
1190.90 0.05247
1191.00 0.05245
1191.10 0.05244
1191.20 0.05242
1191.30 0.0524
1191.40 0.05239
1191.50 0.05237
1191.60 0.05235
1191.70 0.05234
1191.80 0.05232
1191.90 0.0523
1192.00 0.05229
1192.10 0.05227
1192.20 0.05225
1192.30 0.05224
1192.40 0.05222
1192.50 0.0522
1192.60 0.05219
1192.70 0.05217
1192.80 0.05215
1192.90 0.05214
1193.00 0.05212
1193.10 0.0521
1193.20 0.05209
1193.30 0.05207
1193.40 0.05205
1193.50 0.05204
1193.60 0.05202
1193.70 0.052
1193.80 0.05199
1193.90 0.05197
1194.00 0.05195
1194.10 0.05194
1194.20 0.05192
1194.30 0.0519
1194.40 0.05189
1194.50 0.05187
1194.60 0.05185
1194.70 0.05184
1194.80 0.05182
1194.90 0.0518
1195.00 0.05179
1195.10 0.05177
1195.20 0.05175
1195.30 0.05174
1195.40 0.05172
1195.50 0.0517
1195.60 0.05169
1195.70 0.05167
1195.80 0.05165
1195.90 0.05164
1196.00 0.05162
1196.10 0.0516
1196.20 0.05159
1196.30 0.05157
1196.40 0.05155
1196.50 0.05154
1196.60 0.05152
1196.70 0.05151
1196.80 0.05149
1196.90 0.05147
1197.00 0.05146
1197.10 0.05144
1197.20 0.05142
1197.30 0.05141
1197.40 0.05139
1197.50 0.05137
1197.60 0.05136
1197.70 0.05134
1197.80 0.05132
1197.90 0.05131
1198.00 0.05129
1198.10 0.05127
1198.20 0.05126
1198.30 0.05124
1198.40 0.05122
1198.50 0.05121
1198.60 0.05119
1198.70 0.05117
1198.80 0.05116
1198.90 0.05114
1199.00 0.05112
1199.10 0.05111
1199.20 0.05109
1199.30 0.05108
1199.40 0.05106
1199.50 0.05104
1199.60 0.05103
1199.70 0.05101
1199.80 0.05099
1199.90 0.05098
1200.00 0
