# Version 2.1 - nm, norm@500 to 1, cut digits, bergeron_8500_95.dat_8500
# Wavelength(nm)  Flambda(ergs/cm^s/s/nm)
300.00 1.621
300.10 1.621
300.20 1.621
300.30 1.621
300.40 1.621
300.50 1.62
300.60 1.62
300.70 1.62
300.80 1.62
300.90 1.62
301.00 1.62
301.10 1.62
301.20 1.619
301.30 1.619
301.40 1.619
301.50 1.619
301.60 1.619
301.70 1.619
301.80 1.619
301.90 1.618
302.00 1.618
302.10 1.618
302.20 1.618
302.30 1.618
302.40 1.618
302.50 1.618
302.60 1.617
302.70 1.617
302.80 1.617
302.90 1.617
303.00 1.617
303.10 1.617
303.20 1.616
303.30 1.616
303.40 1.616
303.50 1.616
303.60 1.616
303.70 1.616
303.80 1.615
303.90 1.615
304.00 1.615
304.10 1.615
304.20 1.615
304.30 1.615
304.40 1.614
304.50 1.614
304.60 1.614
304.70 1.614
304.80 1.614
304.90 1.614
305.00 1.613
305.10 1.613
305.20 1.613
305.30 1.613
305.40 1.613
305.50 1.613
305.60 1.612
305.70 1.612
305.80 1.612
305.90 1.612
306.00 1.612
306.10 1.612
306.20 1.611
306.30 1.611
306.40 1.611
306.50 1.611
306.60 1.611
306.70 1.61
306.80 1.61
306.90 1.61
307.00 1.61
307.10 1.61
307.20 1.61
307.30 1.609
307.40 1.609
307.50 1.609
307.60 1.609
307.70 1.609
307.80 1.609
307.90 1.608
308.00 1.608
308.10 1.608
308.20 1.608
308.30 1.608
308.40 1.607
308.50 1.607
308.60 1.607
308.70 1.607
308.80 1.607
308.90 1.606
309.00 1.606
309.10 1.606
309.20 1.606
309.30 1.606
309.40 1.605
309.50 1.605
309.60 1.605
309.70 1.605
309.80 1.605
309.90 1.605
310.00 1.604
310.10 1.604
310.20 1.604
310.30 1.604
310.40 1.604
310.50 1.603
310.60 1.603
310.70 1.603
310.80 1.603
310.90 1.603
311.00 1.602
311.10 1.602
311.20 1.602
311.30 1.602
311.40 1.602
311.50 1.601
311.60 1.601
311.70 1.601
311.80 1.601
311.90 1.601
312.00 1.6
312.10 1.6
312.20 1.6
312.30 1.6
312.40 1.599
312.50 1.599
312.60 1.599
312.70 1.599
312.80 1.599
312.90 1.598
313.00 1.598
313.10 1.598
313.20 1.598
313.30 1.598
313.40 1.597
313.50 1.597
313.60 1.597
313.70 1.597
313.80 1.597
313.90 1.596
314.00 1.596
314.10 1.596
314.20 1.596
314.30 1.595
314.40 1.595
314.50 1.595
314.60 1.595
314.70 1.595
314.80 1.594
314.90 1.594
315.00 1.594
315.10 1.594
315.20 1.593
315.30 1.593
315.40 1.593
315.50 1.593
315.60 1.593
315.70 1.592
315.80 1.592
315.90 1.592
316.00 1.592
316.10 1.592
316.20 1.591
316.30 1.591
316.40 1.591
316.50 1.591
316.60 1.59
316.70 1.59
316.80 1.59
316.90 1.59
317.00 1.589
317.10 1.589
317.20 1.589
317.30 1.589
317.40 1.588
317.50 1.588
317.60 1.588
317.70 1.588
317.80 1.588
317.90 1.587
318.00 1.587
318.10 1.587
318.20 1.587
318.30 1.586
318.40 1.586
318.50 1.586
318.60 1.586
318.70 1.585
318.80 1.585
318.90 1.585
319.00 1.585
319.10 1.584
319.20 1.584
319.30 1.584
319.40 1.584
319.50 1.584
319.60 1.583
319.70 1.583
319.80 1.583
319.90 1.583
320.00 1.582
320.10 1.582
320.20 1.582
320.30 1.582
320.40 1.581
320.50 1.581
320.60 1.581
320.70 1.581
320.80 1.58
320.90 1.58
321.00 1.58
321.10 1.58
321.20 1.579
321.30 1.579
321.40 1.579
321.50 1.579
321.60 1.578
321.70 1.578
321.80 1.578
321.90 1.578
322.00 1.577
322.10 1.577
322.20 1.577
322.30 1.577
322.40 1.576
322.50 1.576
322.60 1.576
322.70 1.575
322.80 1.575
322.90 1.575
323.00 1.575
323.10 1.574
323.20 1.574
323.30 1.574
323.40 1.574
323.50 1.573
323.60 1.573
323.70 1.573
323.80 1.573
323.90 1.572
324.00 1.572
324.10 1.572
324.20 1.572
324.30 1.571
324.40 1.571
324.50 1.571
324.60 1.571
324.70 1.57
324.80 1.57
324.90 1.57
325.00 1.569
325.10 1.569
325.20 1.569
325.30 1.569
325.40 1.568
325.50 1.568
325.60 1.568
325.70 1.568
325.80 1.567
325.90 1.567
326.00 1.567
326.10 1.567
326.20 1.566
326.30 1.566
326.40 1.566
326.50 1.565
326.60 1.565
326.70 1.565
326.80 1.565
326.90 1.564
327.00 1.564
327.10 1.564
327.20 1.564
327.30 1.563
327.40 1.563
327.50 1.563
327.60 1.562
327.70 1.562
327.80 1.562
327.90 1.562
328.00 1.561
328.10 1.561
328.20 1.561
328.30 1.561
328.40 1.56
328.50 1.56
328.60 1.56
328.70 1.559
328.80 1.559
328.90 1.559
329.00 1.559
329.10 1.558
329.20 1.558
329.30 1.558
329.40 1.557
329.50 1.557
329.60 1.557
329.70 1.557
329.80 1.556
329.90 1.556
330.00 1.556
330.10 1.555
330.20 1.555
330.30 1.555
330.40 1.555
330.50 1.554
330.60 1.554
330.70 1.554
330.80 1.553
330.90 1.553
331.00 1.553
331.10 1.553
331.20 1.552
331.30 1.552
331.40 1.552
331.50 1.551
331.60 1.551
331.70 1.551
331.80 1.551
331.90 1.55
332.00 1.55
332.10 1.55
332.20 1.549
332.30 1.549
332.40 1.549
332.50 1.549
332.60 1.548
332.70 1.548
332.80 1.548
332.90 1.547
333.00 1.547
333.10 1.547
333.20 1.547
333.30 1.546
333.40 1.546
333.50 1.546
333.60 1.545
333.70 1.545
333.80 1.545
333.90 1.544
334.00 1.544
334.10 1.544
334.20 1.544
334.30 1.543
334.40 1.543
334.50 1.543
334.60 1.542
334.70 1.542
334.80 1.542
334.90 1.541
335.00 1.541
335.10 1.541
335.20 1.541
335.30 1.54
335.40 1.54
335.50 1.54
335.60 1.539
335.70 1.539
335.80 1.539
335.90 1.538
336.00 1.538
336.10 1.538
336.20 1.537
336.30 1.537
336.40 1.537
336.50 1.537
336.60 1.536
336.70 1.536
336.80 1.536
336.90 1.535
337.00 1.535
337.10 1.535
337.20 1.534
337.30 1.534
337.40 1.534
337.50 1.533
337.60 1.533
337.70 1.533
337.80 1.533
337.90 1.532
338.00 1.532
338.10 1.532
338.20 1.531
338.30 1.531
338.40 1.531
338.50 1.53
338.60 1.53
338.70 1.53
338.80 1.529
338.90 1.529
339.00 1.529
339.10 1.529
339.20 1.528
339.30 1.528
339.40 1.528
339.50 1.527
339.60 1.527
339.70 1.527
339.80 1.526
339.90 1.526
340.00 1.526
340.10 1.525
340.20 1.525
340.30 1.525
340.40 1.524
340.50 1.524
340.60 1.524
340.70 1.523
340.80 1.523
340.90 1.523
341.00 1.523
341.10 1.522
341.20 1.522
341.30 1.522
341.40 1.521
341.50 1.521
341.60 1.521
341.70 1.52
341.80 1.52
341.90 1.52
342.00 1.519
342.10 1.519
342.20 1.519
342.30 1.518
342.40 1.518
342.50 1.518
342.60 1.517
342.70 1.517
342.80 1.517
342.90 1.516
343.00 1.516
343.10 1.516
343.20 1.515
343.30 1.515
343.40 1.515
343.50 1.514
343.60 1.514
343.70 1.514
343.80 1.513
343.90 1.513
344.00 1.513
344.10 1.512
344.20 1.512
344.30 1.512
344.40 1.511
344.50 1.511
344.60 1.511
344.70 1.511
344.80 1.51
344.90 1.51
345.00 1.51
345.10 1.509
345.20 1.509
345.30 1.509
345.40 1.508
345.50 1.508
345.60 1.508
345.70 1.507
345.80 1.507
345.90 1.507
346.00 1.506
346.10 1.506
346.20 1.506
346.30 1.505
346.40 1.505
346.50 1.505
346.60 1.504
346.70 1.504
346.80 1.504
346.90 1.503
347.00 1.503
347.10 1.503
347.20 1.502
347.30 1.502
347.40 1.502
347.50 1.501
347.60 1.501
347.70 1.501
347.80 1.5
347.90 1.5
348.00 1.5
348.10 1.499
348.20 1.499
348.30 1.499
348.40 1.498
348.50 1.498
348.60 1.498
348.70 1.497
348.80 1.497
348.90 1.497
349.00 1.496
349.10 1.496
349.20 1.496
349.30 1.495
349.40 1.495
349.50 1.494
349.60 1.494
349.70 1.494
349.80 1.493
349.90 1.493
350.00 1.493
350.10 1.492
350.20 1.492
350.30 1.492
350.40 1.491
350.50 1.491
350.60 1.491
350.70 1.49
350.80 1.49
350.90 1.49
351.00 1.489
351.10 1.489
351.20 1.489
351.30 1.488
351.40 1.488
351.50 1.488
351.60 1.487
351.70 1.487
351.80 1.487
351.90 1.486
352.00 1.486
352.10 1.486
352.20 1.485
352.30 1.485
352.40 1.485
352.50 1.484
352.60 1.484
352.70 1.483
352.80 1.483
352.90 1.483
353.00 1.482
353.10 1.482
353.20 1.482
353.30 1.481
353.40 1.481
353.50 1.481
353.60 1.48
353.70 1.48
353.80 1.48
353.90 1.479
354.00 1.479
354.10 1.479
354.20 1.478
354.30 1.478
354.40 1.478
354.50 1.477
354.60 1.477
354.70 1.476
354.80 1.476
354.90 1.476
355.00 1.475
355.10 1.475
355.20 1.475
355.30 1.474
355.40 1.474
355.50 1.474
355.60 1.473
355.70 1.473
355.80 1.473
355.90 1.472
356.00 1.472
356.10 1.472
356.20 1.471
356.30 1.471
356.40 1.47
356.50 1.47
356.60 1.47
356.70 1.469
356.80 1.469
356.90 1.469
357.00 1.468
357.10 1.468
357.20 1.468
357.30 1.467
357.40 1.467
357.50 1.467
357.60 1.466
357.70 1.466
357.80 1.466
357.90 1.465
358.00 1.465
358.10 1.464
358.20 1.464
358.30 1.464
358.40 1.463
358.50 1.463
358.60 1.463
358.70 1.462
358.80 1.462
358.90 1.462
359.00 1.461
359.10 1.461
359.20 1.46
359.30 1.46
359.40 1.46
359.50 1.459
359.60 1.459
359.70 1.459
359.80 1.458
359.90 1.458
360.00 1.458
360.10 1.457
360.20 1.457
360.30 1.456
360.40 1.456
360.50 1.456
360.60 1.455
360.70 1.455
360.80 1.455
360.90 1.454
361.00 1.454
361.10 1.454
361.20 1.453
361.30 1.453
361.40 1.452
361.50 1.452
361.60 1.452
361.70 1.451
361.80 1.451
361.90 1.451
362.00 1.45
362.10 1.45
362.20 1.45
362.30 1.449
362.40 1.449
362.50 1.449
362.60 1.448
362.70 1.448
362.80 1.447
362.90 1.447
363.00 1.447
363.10 1.446
363.20 1.446
363.30 1.446
363.40 1.445
363.50 1.445
363.60 1.444
363.70 1.444
363.80 1.444
363.90 1.443
364.00 1.443
364.10 1.442
364.20 1.442
364.30 1.442
364.40 1.441
364.50 1.441
364.60 1.44
364.70 1.44
364.80 1.44
364.90 1.439
365.00 1.439
365.10 1.438
365.20 1.438
365.30 1.438
365.40 1.437
365.50 1.437
365.60 1.436
365.70 1.436
365.80 1.436
365.90 1.435
366.00 1.435
366.10 1.434
366.20 1.434
366.30 1.434
366.40 1.433
366.50 1.433
366.60 1.432
366.70 1.432
366.80 1.432
366.90 1.431
367.00 1.431
367.10 1.431
367.20 1.43
367.30 1.43
367.40 1.429
367.50 1.429
367.60 1.429
367.70 1.428
367.80 1.428
367.90 1.428
368.00 1.427
368.10 1.427
368.20 1.426
368.30 1.426
368.40 1.426
368.50 1.425
368.60 1.425
368.70 1.425
368.80 1.424
368.90 1.424
369.00 1.423
369.10 1.423
369.20 1.423
369.30 1.422
369.40 1.422
369.50 1.422
369.60 1.421
369.70 1.421
369.80 1.42
369.90 1.42
370.00 1.42
370.10 1.419
370.20 1.419
370.30 1.419
370.40 1.418
370.50 1.418
370.60 1.417
370.70 1.417
370.80 1.417
370.90 1.416
371.00 1.416
371.10 1.416
371.20 1.415
371.30 1.415
371.40 1.414
371.50 1.414
371.60 1.414
371.70 1.413
371.80 1.413
371.90 1.412
372.00 1.412
372.10 1.412
372.20 1.411
372.30 1.411
372.40 1.411
372.50 1.41
372.60 1.41
372.70 1.409
372.80 1.409
372.90 1.409
373.00 1.408
373.10 1.408
373.20 1.408
373.30 1.407
373.40 1.407
373.50 1.406
373.60 1.406
373.70 1.406
373.80 1.405
373.90 1.405
374.00 1.405
374.10 1.404
374.20 1.404
374.30 1.403
374.40 1.403
374.50 1.403
374.60 1.402
374.70 1.402
374.80 1.402
374.90 1.401
375.00 1.401
375.10 1.4
375.20 1.4
375.30 1.4
375.40 1.399
375.50 1.399
375.60 1.398
375.70 1.398
375.80 1.398
375.90 1.397
376.00 1.397
376.10 1.397
376.20 1.396
376.30 1.396
376.40 1.396
376.50 1.395
376.60 1.395
376.70 1.394
376.80 1.394
376.90 1.394
377.00 1.393
377.10 1.393
377.20 1.393
377.30 1.392
377.40 1.392
377.50 1.391
377.60 1.391
377.70 1.391
377.80 1.39
377.90 1.39
378.00 1.389
378.10 1.389
378.20 1.388
378.30 1.388
378.40 1.387
378.50 1.387
378.60 1.386
378.70 1.386
378.80 1.385
378.90 1.384
379.00 1.384
379.10 1.383
379.20 1.382
379.30 1.382
379.40 1.381
379.50 1.38
379.60 1.379
379.70 1.379
379.80 1.378
379.90 1.377
380.00 1.376
380.10 1.377
380.20 1.377
380.30 1.377
380.40 1.377
380.50 1.378
380.60 1.378
380.70 1.378
380.80 1.378
380.90 1.379
381.00 1.379
381.10 1.379
381.20 1.379
381.30 1.378
381.40 1.378
381.50 1.378
381.60 1.378
381.70 1.377
381.80 1.377
381.90 1.376
382.00 1.376
382.10 1.375
382.20 1.375
382.30 1.373
382.40 1.372
382.50 1.37
382.60 1.369
382.70 1.368
382.80 1.366
382.90 1.365
383.00 1.364
383.10 1.362
383.20 1.361
383.30 1.358
383.40 1.355
383.50 1.351
383.60 1.352
383.70 1.355
383.80 1.358
383.90 1.36
384.00 1.362
384.10 1.364
384.20 1.365
384.30 1.366
384.40 1.367
384.50 1.368
384.60 1.368
384.70 1.369
384.80 1.369
384.90 1.37
385.00 1.37
385.10 1.37
385.20 1.37
385.30 1.37
385.40 1.37
385.50 1.37
385.60 1.37
385.70 1.369
385.80 1.369
385.90 1.369
386.00 1.369
386.10 1.368
386.20 1.368
386.30 1.367
386.40 1.367
386.50 1.366
386.60 1.366
386.70 1.365
386.80 1.364
386.90 1.364
387.00 1.363
387.10 1.362
387.20 1.361
387.30 1.36
387.40 1.359
387.50 1.357
387.60 1.356
387.70 1.354
387.80 1.353
387.90 1.35
388.00 1.348
388.10 1.345
388.20 1.342
388.30 1.338
388.40 1.334
388.50 1.329
388.60 1.323
388.70 1.316
388.80 1.309
388.90 1.301
389.00 1.308
389.10 1.315
389.20 1.322
389.30 1.327
389.40 1.332
389.50 1.336
389.60 1.34
389.70 1.343
389.80 1.346
389.90 1.348
390.00 1.35
390.10 1.351
390.20 1.353
390.30 1.354
390.40 1.355
390.50 1.356
390.60 1.356
390.70 1.357
390.80 1.358
390.90 1.358
391.00 1.359
391.10 1.359
391.20 1.359
391.30 1.36
391.40 1.36
391.50 1.36
391.60 1.36
391.70 1.36
391.80 1.36
391.90 1.36
392.00 1.36
392.10 1.36
392.20 1.36
392.30 1.36
392.40 1.359
392.50 1.359
392.60 1.359
392.70 1.358
392.80 1.358
392.90 1.357
393.00 1.357
393.10 1.356
393.20 1.355
393.30 1.355
393.40 1.354
393.50 1.353
393.60 1.352
393.70 1.351
393.80 1.35
393.90 1.349
394.00 1.348
394.10 1.347
394.20 1.346
394.30 1.344
394.40 1.343
394.50 1.341
394.60 1.34
394.70 1.338
394.80 1.336
394.90 1.334
395.00 1.332
395.10 1.33
395.20 1.327
395.30 1.325
395.40 1.322
395.50 1.319
395.60 1.316
395.70 1.312
395.80 1.308
395.90 1.304
396.00 1.299
396.10 1.294
396.20 1.288
396.30 1.28
396.40 1.272
396.50 1.262
396.60 1.25
396.70 1.236
396.80 1.219
396.90 1.201
397.00 1.181
397.10 1.198
397.20 1.216
397.30 1.233
397.40 1.247
397.50 1.259
397.60 1.269
397.70 1.277
397.80 1.284
397.90 1.29
398.00 1.295
398.10 1.3
398.20 1.304
398.30 1.307
398.40 1.31
398.50 1.313
398.60 1.316
398.70 1.318
398.80 1.321
398.90 1.323
399.00 1.325
399.10 1.327
399.20 1.328
399.30 1.33
399.40 1.331
399.50 1.332
399.60 1.334
399.70 1.335
399.80 1.336
399.90 1.337
400.00 1.338
400.10 1.339
400.20 1.339
400.30 1.34
400.40 1.341
400.50 1.341
400.60 1.342
400.70 1.342
400.80 1.343
400.90 1.343
401.00 1.344
401.10 1.344
401.20 1.344
401.30 1.344
401.40 1.345
401.50 1.345
401.60 1.345
401.70 1.345
401.80 1.345
401.90 1.345
402.00 1.345
402.10 1.345
402.20 1.345
402.30 1.345
402.40 1.345
402.50 1.345
402.60 1.344
402.70 1.344
402.80 1.344
402.90 1.344
403.00 1.343
403.10 1.343
403.20 1.343
403.30 1.342
403.40 1.342
403.50 1.341
403.60 1.341
403.70 1.34
403.80 1.34
403.90 1.339
404.00 1.339
404.10 1.338
404.20 1.337
404.30 1.337
404.40 1.336
404.50 1.335
404.60 1.334
404.70 1.333
404.80 1.333
404.90 1.332
405.00 1.331
405.10 1.33
405.20 1.329
405.30 1.328
405.40 1.326
405.50 1.325
405.60 1.324
405.70 1.323
405.80 1.321
405.90 1.32
406.00 1.318
406.10 1.317
406.20 1.315
406.30 1.313
406.40 1.311
406.50 1.31
406.60 1.308
406.70 1.305
406.80 1.303
406.90 1.301
407.00 1.298
407.10 1.296
407.20 1.293
407.30 1.29
407.40 1.287
407.50 1.284
407.60 1.281
407.70 1.277
407.80 1.273
407.90 1.269
408.00 1.265
408.10 1.261
408.20 1.256
408.30 1.251
408.40 1.245
408.50 1.239
408.60 1.233
408.70 1.227
408.80 1.219
408.90 1.212
409.00 1.204
409.10 1.195
409.20 1.185
409.30 1.174
409.40 1.161
409.50 1.147
409.60 1.131
409.70 1.11
409.80 1.085
409.90 1.057
410.00 1.019
410.10 0.9858
410.20 0.9565
410.30 1
410.40 1.039
410.50 1.072
410.60 1.097
410.70 1.119
410.80 1.137
410.90 1.152
411.00 1.164
411.10 1.176
411.20 1.185
411.30 1.194
411.40 1.202
411.50 1.209
411.60 1.216
411.70 1.222
411.80 1.228
411.90 1.233
412.00 1.238
412.10 1.243
412.20 1.247
412.30 1.251
412.40 1.255
412.50 1.259
412.60 1.262
412.70 1.265
412.80 1.268
412.90 1.27
413.00 1.273
413.10 1.275
413.20 1.277
413.30 1.279
413.40 1.281
413.50 1.283
413.60 1.285
413.70 1.286
413.80 1.288
413.90 1.289
414.00 1.29
414.10 1.292
414.20 1.293
414.30 1.294
414.40 1.295
414.50 1.296
414.60 1.296
414.70 1.297
414.80 1.298
414.90 1.299
415.00 1.299
415.10 1.3
415.20 1.3
415.30 1.301
415.40 1.301
415.50 1.302
415.60 1.302
415.70 1.302
415.80 1.303
415.90 1.303
416.00 1.303
416.10 1.304
416.20 1.304
416.30 1.304
416.40 1.304
416.50 1.304
416.60 1.304
416.70 1.304
416.80 1.304
416.90 1.305
417.00 1.305
417.10 1.305
417.20 1.305
417.30 1.305
417.40 1.304
417.50 1.304
417.60 1.304
417.70 1.304
417.80 1.304
417.90 1.304
418.00 1.304
418.10 1.304
418.20 1.304
418.30 1.304
418.40 1.303
418.50 1.303
418.60 1.303
418.70 1.303
418.80 1.303
418.90 1.302
419.00 1.302
419.10 1.302
419.20 1.302
419.30 1.302
419.40 1.301
419.50 1.301
419.60 1.301
419.70 1.3
419.80 1.3
419.90 1.3
420.00 1.3
420.10 1.299
420.20 1.299
420.30 1.299
420.40 1.298
420.50 1.298
420.60 1.298
420.70 1.297
420.80 1.297
420.90 1.297
421.00 1.296
421.10 1.296
421.20 1.296
421.30 1.295
421.40 1.295
421.50 1.295
421.60 1.294
421.70 1.294
421.80 1.293
421.90 1.293
422.00 1.293
422.10 1.292
422.20 1.292
422.30 1.291
422.40 1.291
422.50 1.291
422.60 1.29
422.70 1.29
422.80 1.289
422.90 1.289
423.00 1.288
423.10 1.288
423.20 1.287
423.30 1.287
423.40 1.286
423.50 1.286
423.60 1.285
423.70 1.285
423.80 1.284
423.90 1.284
424.00 1.283
424.10 1.283
424.20 1.282
424.30 1.282
424.40 1.281
424.50 1.281
424.60 1.28
424.70 1.279
424.80 1.279
424.90 1.278
425.00 1.278
425.10 1.277
425.20 1.276
425.30 1.276
425.40 1.275
425.50 1.274
425.60 1.274
425.70 1.273
425.80 1.272
425.90 1.272
426.00 1.271
426.10 1.27
426.20 1.269
426.30 1.269
426.40 1.268
426.50 1.267
426.60 1.266
426.70 1.265
426.80 1.265
426.90 1.264
427.00 1.263
427.10 1.262
427.20 1.261
427.30 1.26
427.40 1.259
427.50 1.258
427.60 1.257
427.70 1.256
427.80 1.255
427.90 1.254
428.00 1.253
428.10 1.251
428.20 1.25
428.30 1.249
428.40 1.248
428.50 1.246
428.60 1.245
428.70 1.243
428.80 1.242
428.90 1.24
429.00 1.239
429.10 1.237
429.20 1.235
429.30 1.234
429.40 1.232
429.50 1.23
429.60 1.228
429.70 1.226
429.80 1.224
429.90 1.221
430.00 1.219
430.10 1.216
430.20 1.214
430.30 1.211
430.40 1.208
430.50 1.205
430.60 1.202
430.70 1.199
430.80 1.195
430.90 1.192
431.00 1.188
431.10 1.184
431.20 1.179
431.30 1.175
431.40 1.17
431.50 1.165
431.60 1.16
431.70 1.154
431.80 1.148
431.90 1.141
432.00 1.134
432.10 1.127
432.20 1.119
432.30 1.11
432.40 1.101
432.50 1.091
432.60 1.08
432.70 1.069
432.80 1.056
432.90 1.042
433.00 1.027
433.10 1.01
433.20 0.9921
433.30 0.9725
433.40 0.9485
433.50 0.9206
433.60 0.8891
433.70 0.8442
433.80 0.7908
433.90 0.7289
434.00 0.655
434.10 0.6568
434.20 0.7343
434.30 0.7948
434.40 0.8469
434.50 0.8905
434.60 0.921
434.70 0.9479
434.80 0.9711
434.90 0.9899
435.00 1.007
435.10 1.023
435.20 1.037
435.30 1.051
435.40 1.063
435.50 1.073
435.60 1.084
435.70 1.093
435.80 1.101
435.90 1.109
436.00 1.116
436.10 1.123
436.20 1.129
436.30 1.135
436.40 1.14
436.50 1.145
436.60 1.149
436.70 1.154
436.80 1.158
436.90 1.161
437.00 1.165
437.10 1.168
437.20 1.171
437.30 1.174
437.40 1.177
437.50 1.179
437.60 1.181
437.70 1.184
437.80 1.186
437.90 1.187
438.00 1.189
438.10 1.191
438.20 1.192
438.30 1.194
438.40 1.195
438.50 1.197
438.60 1.198
438.70 1.199
438.80 1.2
438.90 1.201
439.00 1.202
439.10 1.203
439.20 1.203
439.30 1.204
439.40 1.205
439.50 1.205
439.60 1.206
439.70 1.207
439.80 1.207
439.90 1.208
440.00 1.208
440.10 1.208
440.20 1.209
440.30 1.209
440.40 1.209
440.50 1.21
440.60 1.21
440.70 1.21
440.80 1.21
440.90 1.21
441.00 1.211
441.10 1.211
441.20 1.211
441.30 1.211
441.40 1.211
441.50 1.211
441.60 1.211
441.70 1.211
441.80 1.211
441.90 1.211
442.00 1.211
442.10 1.211
442.20 1.211
442.30 1.211
442.40 1.211
442.50 1.211
442.60 1.21
442.70 1.21
442.80 1.21
442.90 1.21
443.00 1.21
443.10 1.21
443.20 1.21
443.30 1.209
443.40 1.209
443.50 1.209
443.60 1.209
443.70 1.209
443.80 1.209
443.90 1.208
444.00 1.208
444.10 1.208
444.20 1.208
444.30 1.207
444.40 1.207
444.50 1.207
444.60 1.207
444.70 1.207
444.80 1.206
444.90 1.206
445.00 1.206
445.10 1.206
445.20 1.205
445.30 1.205
445.40 1.205
445.50 1.204
445.60 1.204
445.70 1.204
445.80 1.204
445.90 1.203
446.00 1.203
446.10 1.203
446.20 1.202
446.30 1.202
446.40 1.202
446.50 1.201
446.60 1.201
446.70 1.201
446.80 1.201
446.90 1.2
447.00 1.2
447.10 1.2
447.20 1.199
447.30 1.199
447.40 1.199
447.50 1.198
447.60 1.198
447.70 1.198
447.80 1.197
447.90 1.197
448.00 1.197
448.10 1.196
448.20 1.196
448.30 1.196
448.40 1.195
448.50 1.195
448.60 1.195
448.70 1.194
448.80 1.194
448.90 1.194
449.00 1.193
449.10 1.193
449.20 1.193
449.30 1.192
449.40 1.192
449.50 1.192
449.60 1.191
449.70 1.191
449.80 1.19
449.90 1.19
450.00 1.19
450.10 1.189
450.20 1.189
450.30 1.189
450.40 1.188
450.50 1.188
450.60 1.188
450.70 1.187
450.80 1.187
450.90 1.186
451.00 1.186
451.10 1.186
451.20 1.185
451.30 1.185
451.40 1.185
451.50 1.184
451.60 1.184
451.70 1.184
451.80 1.183
451.90 1.183
452.00 1.182
452.10 1.182
452.20 1.182
452.30 1.181
452.40 1.181
452.50 1.181
452.60 1.18
452.70 1.18
452.80 1.179
452.90 1.179
453.00 1.179
453.10 1.178
453.20 1.178
453.30 1.178
453.40 1.177
453.50 1.177
453.60 1.176
453.70 1.176
453.80 1.176
453.90 1.175
454.00 1.175
454.10 1.175
454.20 1.174
454.30 1.174
454.40 1.173
454.50 1.173
454.60 1.173
454.70 1.172
454.80 1.172
454.90 1.171
455.00 1.171
455.10 1.171
455.20 1.17
455.30 1.17
455.40 1.17
455.50 1.169
455.60 1.169
455.70 1.168
455.80 1.168
455.90 1.168
456.00 1.167
456.10 1.167
456.20 1.166
456.30 1.166
456.40 1.166
456.50 1.165
456.60 1.165
456.70 1.165
456.80 1.164
456.90 1.164
457.00 1.163
457.10 1.163
457.20 1.163
457.30 1.162
457.40 1.162
457.50 1.161
457.60 1.161
457.70 1.161
457.80 1.16
457.90 1.16
458.00 1.159
458.10 1.159
458.20 1.159
458.30 1.158
458.40 1.158
458.50 1.158
458.60 1.157
458.70 1.157
458.80 1.156
458.90 1.156
459.00 1.156
459.10 1.155
459.20 1.155
459.30 1.154
459.40 1.154
459.50 1.154
459.60 1.153
459.70 1.153
459.80 1.152
459.90 1.152
460.00 1.152
460.10 1.151
460.20 1.151
460.30 1.15
460.40 1.15
460.50 1.15
460.60 1.149
460.70 1.149
460.80 1.148
460.90 1.148
461.00 1.148
461.10 1.147
461.20 1.147
461.30 1.146
461.40 1.146
461.50 1.146
461.60 1.145
461.70 1.145
461.80 1.144
461.90 1.144
462.00 1.144
462.10 1.143
462.20 1.143
462.30 1.142
462.40 1.142
462.50 1.142
462.60 1.141
462.70 1.141
462.80 1.14
462.90 1.14
463.00 1.14
463.10 1.139
463.20 1.139
463.30 1.138
463.40 1.138
463.50 1.138
463.60 1.137
463.70 1.137
463.80 1.136
463.90 1.136
464.00 1.136
464.10 1.135
464.20 1.135
464.30 1.134
464.40 1.134
464.50 1.134
464.60 1.133
464.70 1.133
464.80 1.132
464.90 1.132
465.00 1.132
465.10 1.131
465.20 1.131
465.30 1.13
465.40 1.13
465.50 1.13
465.60 1.129
465.70 1.129
465.80 1.128
465.90 1.128
466.00 1.127
466.10 1.127
466.20 1.127
466.30 1.126
466.40 1.126
466.50 1.125
466.60 1.125
466.70 1.125
466.80 1.124
466.90 1.124
467.00 1.123
467.10 1.123
467.20 1.122
467.30 1.122
467.40 1.122
467.50 1.121
467.60 1.121
467.70 1.12
467.80 1.12
467.90 1.119
468.00 1.119
468.10 1.119
468.20 1.118
468.30 1.118
468.40 1.117
468.50 1.117
468.60 1.117
468.70 1.116
468.80 1.116
468.90 1.115
469.00 1.115
469.10 1.114
469.20 1.114
469.30 1.114
469.40 1.113
469.50 1.113
469.60 1.112
469.70 1.112
469.80 1.111
469.90 1.111
470.00 1.11
470.10 1.11
470.20 1.11
470.30 1.109
470.40 1.109
470.50 1.108
470.60 1.108
470.70 1.107
470.80 1.107
470.90 1.106
471.00 1.106
471.10 1.106
471.20 1.105
471.30 1.105
471.40 1.104
471.50 1.104
471.60 1.103
471.70 1.103
471.80 1.102
471.90 1.102
472.00 1.101
472.10 1.101
472.20 1.1
472.30 1.1
472.40 1.099
472.50 1.099
472.60 1.098
472.70 1.098
472.80 1.097
472.90 1.097
473.00 1.097
473.10 1.096
473.20 1.096
473.30 1.095
473.40 1.095
473.50 1.094
473.60 1.093
473.70 1.093
473.80 1.092
473.90 1.092
474.00 1.091
474.10 1.091
474.20 1.09
474.30 1.09
474.40 1.089
474.50 1.089
474.60 1.088
474.70 1.088
474.80 1.087
474.90 1.087
475.00 1.086
475.10 1.085
475.20 1.085
475.30 1.084
475.40 1.084
475.50 1.083
475.60 1.082
475.70 1.082
475.80 1.081
475.90 1.081
476.00 1.08
476.10 1.079
476.20 1.079
476.30 1.078
476.40 1.078
476.50 1.077
476.60 1.076
476.70 1.075
476.80 1.075
476.90 1.074
477.00 1.073
477.10 1.073
477.20 1.072
477.30 1.071
477.40 1.071
477.50 1.07
477.60 1.069
477.70 1.068
477.80 1.067
477.90 1.067
478.00 1.066
478.10 1.065
478.20 1.064
478.30 1.063
478.40 1.062
478.50 1.061
478.60 1.061
478.70 1.06
478.80 1.059
478.90 1.058
479.00 1.057
479.10 1.056
479.20 1.055
479.30 1.054
479.40 1.052
479.50 1.051
479.60 1.05
479.70 1.049
479.80 1.048
479.90 1.047
480.00 1.046
480.10 1.044
480.20 1.043
480.30 1.041
480.40 1.04
480.50 1.038
480.60 1.037
480.70 1.035
480.80 1.034
480.90 1.032
481.00 1.031
481.10 1.029
481.20 1.027
481.30 1.025
481.40 1.023
481.50 1.02
481.60 1.018
481.70 1.016
481.80 1.014
481.90 1.012
482.00 1.009
482.10 1.007
482.20 1.004
482.30 1.001
482.40 0.9975
482.50 0.9941
482.60 0.9907
482.70 0.9874
482.80 0.984
482.90 0.9806
483.00 0.9773
483.10 0.9739
483.20 0.9688
483.30 0.9629
483.40 0.957
483.50 0.9511
483.60 0.9452
483.70 0.9393
483.80 0.9334
483.90 0.9275
484.00 0.9216
484.10 0.9157
484.20 0.9071
484.30 0.8972
484.40 0.8873
484.50 0.8774
484.60 0.8676
484.70 0.854
484.80 0.8387
484.90 0.8234
485.00 0.8081
485.10 0.7928
485.20 0.7733
485.30 0.7518
485.40 0.7267
485.50 0.6999
485.60 0.668
485.70 0.6336
485.80 0.5921
485.90 0.5472
486.00 0.4962
486.10 0.4361
486.20 0.4566
486.30 0.5146
486.40 0.5617
486.50 0.6066
486.60 0.6441
486.70 0.6781
486.80 0.7069
486.90 0.7333
487.00 0.756
487.10 0.777
487.20 0.7937
487.30 0.8084
487.40 0.8231
487.50 0.8378
487.60 0.8525
487.70 0.8635
487.80 0.8727
487.90 0.8819
488.00 0.8912
488.10 0.9004
488.20 0.9068
488.30 0.912
488.40 0.9172
488.50 0.9224
488.60 0.9276
488.70 0.9327
488.80 0.9379
488.90 0.943
489.00 0.9482
489.10 0.9533
489.20 0.9568
489.30 0.9594
489.40 0.962
489.50 0.9647
489.60 0.9673
489.70 0.9699
489.80 0.9725
489.90 0.9752
490.00 0.9778
490.10 0.9804
490.20 0.9822
490.30 0.9836
490.40 0.9851
490.50 0.9865
490.60 0.9879
490.70 0.9893
490.80 0.9908
490.90 0.9922
491.00 0.9936
491.10 0.995
491.20 0.996
491.30 0.9968
491.40 0.9976
491.50 0.9983
491.60 0.9991
491.70 0.9999
491.80 1.001
491.90 1.001
492.00 1.002
492.10 1.003
492.20 1.004
492.30 1.004
492.40 1.004
492.50 1.005
492.60 1.005
492.70 1.006
492.80 1.006
492.90 1.006
493.00 1.007
493.10 1.007
493.20 1.007
493.30 1.008
493.40 1.008
493.50 1.008
493.60 1.008
493.70 1.008
493.80 1.008
493.90 1.008
494.00 1.009
494.10 1.009
494.20 1.009
494.30 1.009
494.40 1.009
494.50 1.009
494.60 1.009
494.70 1.009
494.80 1.009
494.90 1.009
495.00 1.009
495.10 1.009
495.20 1.009
495.30 1.009
495.40 1.009
495.50 1.009
495.60 1.009
495.70 1.009
495.80 1.008
495.90 1.008
496.00 1.008
496.10 1.008
496.20 1.008
496.30 1.008
496.40 1.008
496.50 1.008
496.60 1.007
496.70 1.007
496.80 1.007
496.90 1.007
497.00 1.007
497.10 1.007
497.20 1.006
497.30 1.006
497.40 1.006
497.50 1.006
497.60 1.006
497.70 1.005
497.80 1.005
497.90 1.005
498.00 1.005
498.10 1.005
498.20 1.004
498.30 1.004
498.40 1.004
498.50 1.004
498.60 1.003
498.70 1.003
498.80 1.003
498.90 1.003
499.00 1.003
499.10 1.002
499.20 1.002
499.30 1.002
499.40 1.002
499.50 1.001
499.60 1.001
499.70 1.001
499.80 1.001
499.90 1
500.00 1
500.10 0.9997
500.20 0.9995
500.30 0.9992
500.40 0.9989
500.50 0.9986
500.60 0.9984
500.70 0.9981
500.80 0.9978
500.90 0.9975
501.00 0.9972
501.10 0.997
501.20 0.9967
501.30 0.9964
501.40 0.9961
501.50 0.9958
501.60 0.9955
501.70 0.9952
501.80 0.9949
501.90 0.9946
502.00 0.9943
502.10 0.9941
502.20 0.9938
502.30 0.9935
502.40 0.9932
502.50 0.9929
502.60 0.9925
502.70 0.9922
502.80 0.9919
502.90 0.9916
503.00 0.9913
503.10 0.991
503.20 0.9907
503.30 0.9904
503.40 0.9901
503.50 0.9898
503.60 0.9895
503.70 0.9892
503.80 0.9889
503.90 0.9886
504.00 0.9883
504.10 0.988
504.20 0.9877
504.30 0.9873
504.40 0.987
504.50 0.9867
504.60 0.9864
504.70 0.9861
504.80 0.9858
504.90 0.9855
505.00 0.9851
505.10 0.9848
505.20 0.9845
505.30 0.9842
505.40 0.9839
505.50 0.9835
505.60 0.9832
505.70 0.9829
505.80 0.9826
505.90 0.9823
506.00 0.9819
506.10 0.9816
506.20 0.9813
506.30 0.981
506.40 0.9807
506.50 0.9803
506.60 0.98
506.70 0.9797
506.80 0.9794
506.90 0.9791
507.00 0.9787
507.10 0.9784
507.20 0.9781
507.30 0.9778
507.40 0.9774
507.50 0.9771
507.60 0.9768
507.70 0.9765
507.80 0.9761
507.90 0.9758
508.00 0.9755
508.10 0.9752
508.20 0.9748
508.30 0.9745
508.40 0.9742
508.50 0.9739
508.60 0.9735
508.70 0.9732
508.80 0.9729
508.90 0.9726
509.00 0.9722
509.10 0.9719
509.20 0.9716
509.30 0.9713
509.40 0.9709
509.50 0.9706
509.60 0.9703
509.70 0.9699
509.80 0.9696
509.90 0.9693
510.00 0.969
510.10 0.9686
510.20 0.9683
510.30 0.968
510.40 0.9676
510.50 0.9673
510.60 0.967
510.70 0.9667
510.80 0.9663
510.90 0.966
511.00 0.9657
511.10 0.9653
511.20 0.965
511.30 0.9647
511.40 0.9643
511.50 0.964
511.60 0.9637
511.70 0.9634
511.80 0.963
511.90 0.9627
512.00 0.9624
512.10 0.9621
512.20 0.9617
512.30 0.9614
512.40 0.9611
512.50 0.9607
512.60 0.9604
512.70 0.9601
512.80 0.9597
512.90 0.9594
513.00 0.9591
513.10 0.9588
513.20 0.9584
513.30 0.9581
513.40 0.9578
513.50 0.9574
513.60 0.9571
513.70 0.9568
513.80 0.9564
513.90 0.9561
514.00 0.9558
514.10 0.9554
514.20 0.9551
514.30 0.9548
514.40 0.9544
514.50 0.9541
514.60 0.9538
514.70 0.9535
514.80 0.9531
514.90 0.9528
515.00 0.9525
515.10 0.9521
515.20 0.9518
515.30 0.9515
515.40 0.9511
515.50 0.9508
515.60 0.9505
515.70 0.9501
515.80 0.9498
515.90 0.9495
516.00 0.9491
516.10 0.9488
516.20 0.9485
516.30 0.9482
516.40 0.9478
516.50 0.9475
516.60 0.9472
516.70 0.9468
516.80 0.9465
516.90 0.9462
517.00 0.9458
517.10 0.9455
517.20 0.9452
517.30 0.9449
517.40 0.9445
517.50 0.9442
517.60 0.9439
517.70 0.9435
517.80 0.9432
517.90 0.9429
518.00 0.9426
518.10 0.9422
518.20 0.9419
518.30 0.9416
518.40 0.9412
518.50 0.9409
518.60 0.9406
518.70 0.9403
518.80 0.9399
518.90 0.9396
519.00 0.9393
519.10 0.9389
519.20 0.9386
519.30 0.9383
519.40 0.938
519.50 0.9376
519.60 0.9373
519.70 0.937
519.80 0.9366
519.90 0.9363
520.00 0.936
520.10 0.9357
520.20 0.9353
520.30 0.935
520.40 0.9347
520.50 0.9343
520.60 0.934
520.70 0.9337
520.80 0.9334
520.90 0.933
521.00 0.9327
521.10 0.9324
521.20 0.9321
521.30 0.9317
521.40 0.9314
521.50 0.9311
521.60 0.9308
521.70 0.9304
521.80 0.9301
521.90 0.9298
522.00 0.9294
522.10 0.9291
522.20 0.9288
522.30 0.9285
522.40 0.9281
522.50 0.9278
522.60 0.9275
522.70 0.9272
522.80 0.9268
522.90 0.9265
523.00 0.9262
523.10 0.9259
523.20 0.9255
523.30 0.9252
523.40 0.9249
523.50 0.9245
523.60 0.9242
523.70 0.9239
523.80 0.9236
523.90 0.9232
524.00 0.9229
524.10 0.9226
524.20 0.9222
524.30 0.9219
524.40 0.9216
524.50 0.9213
524.60 0.921
524.70 0.9206
524.80 0.9203
524.90 0.92
525.00 0.9197
525.10 0.9193
525.20 0.919
525.30 0.9187
525.40 0.9184
525.50 0.918
525.60 0.9177
525.70 0.9174
525.80 0.9171
525.90 0.9167
526.00 0.9164
526.10 0.9161
526.20 0.9158
526.30 0.9155
526.40 0.9151
526.50 0.9148
526.60 0.9145
526.70 0.9142
526.80 0.9138
526.90 0.9135
527.00 0.9132
527.10 0.9129
527.20 0.9126
527.30 0.9122
527.40 0.9119
527.50 0.9116
527.60 0.9113
527.70 0.9109
527.80 0.9106
527.90 0.9103
528.00 0.91
528.10 0.9097
528.20 0.9093
528.30 0.909
528.40 0.9087
528.50 0.9084
528.60 0.9081
528.70 0.9077
528.80 0.9074
528.90 0.9071
529.00 0.9068
529.10 0.9064
529.20 0.9061
529.30 0.9058
529.40 0.9055
529.50 0.9052
529.60 0.9048
529.70 0.9045
529.80 0.9042
529.90 0.9039
530.00 0.9036
530.10 0.9032
530.20 0.9029
530.30 0.9026
530.40 0.9023
530.50 0.902
530.60 0.9016
530.70 0.9013
530.80 0.901
530.90 0.9007
531.00 0.9004
531.10 0.9
531.20 0.8997
531.30 0.8994
531.40 0.8991
531.50 0.8988
531.60 0.8985
531.70 0.8981
531.80 0.8978
531.90 0.8975
532.00 0.8972
532.10 0.8969
532.20 0.8966
532.30 0.8962
532.40 0.8959
532.50 0.8956
532.60 0.8953
532.70 0.895
532.80 0.8946
532.90 0.8943
533.00 0.894
533.10 0.8937
533.20 0.8934
533.30 0.8931
533.40 0.8927
533.50 0.8924
533.60 0.8921
533.70 0.8918
533.80 0.8915
533.90 0.8911
534.00 0.8908
534.10 0.8905
534.20 0.8902
534.30 0.8899
534.40 0.8896
534.50 0.8893
534.60 0.8889
534.70 0.8886
534.80 0.8883
534.90 0.888
535.00 0.8877
535.10 0.8874
535.20 0.887
535.30 0.8867
535.40 0.8864
535.50 0.8861
535.60 0.8858
535.70 0.8855
535.80 0.8851
535.90 0.8848
536.00 0.8845
536.10 0.8842
536.20 0.8839
536.30 0.8836
536.40 0.8833
536.50 0.8829
536.60 0.8826
536.70 0.8823
536.80 0.882
536.90 0.8817
537.00 0.8814
537.10 0.8811
537.20 0.8808
537.30 0.8804
537.40 0.8801
537.50 0.8798
537.60 0.8795
537.70 0.8792
537.80 0.8789
537.90 0.8786
538.00 0.8782
538.10 0.8779
538.20 0.8776
538.30 0.8773
538.40 0.877
538.50 0.8767
538.60 0.8764
538.70 0.8761
538.80 0.8757
538.90 0.8754
539.00 0.8751
539.10 0.8748
539.20 0.8745
539.30 0.8742
539.40 0.8739
539.50 0.8736
539.60 0.8733
539.70 0.873
539.80 0.8726
539.90 0.8723
540.00 0.872
540.10 0.8717
540.20 0.8714
540.30 0.8711
540.40 0.8708
540.50 0.8705
540.60 0.8702
540.70 0.8698
540.80 0.8695
540.90 0.8692
541.00 0.8689
541.10 0.8686
541.20 0.8683
541.30 0.868
541.40 0.8677
541.50 0.8674
541.60 0.867
541.70 0.8667
541.80 0.8664
541.90 0.8661
542.00 0.8658
542.10 0.8655
542.20 0.8652
542.30 0.8649
542.40 0.8646
542.50 0.8643
542.60 0.864
542.70 0.8637
542.80 0.8634
542.90 0.863
543.00 0.8627
543.10 0.8624
543.20 0.8621
543.30 0.8618
543.40 0.8615
543.50 0.8612
543.60 0.8609
543.70 0.8606
543.80 0.8603
543.90 0.86
544.00 0.8597
544.10 0.8593
544.20 0.859
544.30 0.8587
544.40 0.8584
544.50 0.8581
544.60 0.8578
544.70 0.8575
544.80 0.8572
544.90 0.8569
545.00 0.8566
545.10 0.8563
545.20 0.856
545.30 0.8557
545.40 0.8554
545.50 0.8551
545.60 0.8548
545.70 0.8545
545.80 0.8542
545.90 0.8539
546.00 0.8536
546.10 0.8533
546.20 0.853
546.30 0.8527
546.40 0.8524
546.50 0.8521
546.60 0.8518
546.70 0.8515
546.80 0.8512
546.90 0.8509
547.00 0.8506
547.10 0.8503
547.20 0.85
547.30 0.8497
547.40 0.8494
547.50 0.8491
547.60 0.8488
547.70 0.8485
547.80 0.8482
547.90 0.8479
548.00 0.8476
548.10 0.8473
548.20 0.847
548.30 0.8467
548.40 0.8464
548.50 0.846
548.60 0.8457
548.70 0.8454
548.80 0.8451
548.90 0.8448
549.00 0.8445
549.10 0.8442
549.20 0.8439
549.30 0.8436
549.40 0.8433
549.50 0.843
549.60 0.8427
549.70 0.8424
549.80 0.8421
549.90 0.8418
550.00 0.8415
550.10 0.8412
550.20 0.8409
550.30 0.8406
550.40 0.8403
550.50 0.84
550.60 0.8397
550.70 0.8394
550.80 0.8391
550.90 0.8388
551.00 0.8385
551.10 0.8382
551.20 0.8379
551.30 0.8376
551.40 0.8373
551.50 0.837
551.60 0.8367
551.70 0.8364
551.80 0.8361
551.90 0.8358
552.00 0.8355
552.10 0.8352
552.20 0.8349
552.30 0.8346
552.40 0.8343
552.50 0.834
552.60 0.8337
552.70 0.8334
552.80 0.8331
552.90 0.8328
553.00 0.8325
553.10 0.8322
553.20 0.8319
553.30 0.8316
553.40 0.8314
553.50 0.8311
553.60 0.8308
553.70 0.8305
553.80 0.8302
553.90 0.8299
554.00 0.8296
554.10 0.8293
554.20 0.829
554.30 0.8287
554.40 0.8284
554.50 0.8281
554.60 0.8278
554.70 0.8275
554.80 0.8272
554.90 0.8269
555.00 0.8266
555.10 0.8263
555.20 0.826
555.30 0.8257
555.40 0.8254
555.50 0.8251
555.60 0.8248
555.70 0.8245
555.80 0.8242
555.90 0.8239
556.00 0.8236
556.10 0.8234
556.20 0.8231
556.30 0.8228
556.40 0.8225
556.50 0.8222
556.60 0.8219
556.70 0.8216
556.80 0.8213
556.90 0.821
557.00 0.8207
557.10 0.8204
557.20 0.8201
557.30 0.8198
557.40 0.8195
557.50 0.8193
557.60 0.819
557.70 0.8187
557.80 0.8184
557.90 0.8181
558.00 0.8178
558.10 0.8175
558.20 0.8172
558.30 0.8169
558.40 0.8166
558.50 0.8163
558.60 0.816
558.70 0.8157
558.80 0.8154
558.90 0.8152
559.00 0.8149
559.10 0.8146
559.20 0.8143
559.30 0.814
559.40 0.8137
559.50 0.8134
559.60 0.8131
559.70 0.8128
559.80 0.8125
559.90 0.8122
560.00 0.812
560.10 0.8117
560.20 0.8114
560.30 0.8111
560.40 0.8108
560.50 0.8105
560.60 0.8102
560.70 0.8099
560.80 0.8096
560.90 0.8094
561.00 0.8091
561.10 0.8088
561.20 0.8085
561.30 0.8082
561.40 0.8079
561.50 0.8076
561.60 0.8073
561.70 0.807
561.80 0.8067
561.90 0.8065
562.00 0.8062
562.10 0.8059
562.20 0.8056
562.30 0.8053
562.40 0.805
562.50 0.8047
562.60 0.8044
562.70 0.8042
562.80 0.8039
562.90 0.8036
563.00 0.8033
563.10 0.803
563.20 0.8027
563.30 0.8024
563.40 0.8021
563.50 0.8019
563.60 0.8016
563.70 0.8013
563.80 0.801
563.90 0.8007
564.00 0.8004
564.10 0.8001
564.20 0.7998
564.30 0.7996
564.40 0.7993
564.50 0.799
564.60 0.7987
564.70 0.7984
564.80 0.7981
564.90 0.7978
565.00 0.7976
565.10 0.7973
565.20 0.797
565.30 0.7967
565.40 0.7964
565.50 0.7961
565.60 0.7959
565.70 0.7956
565.80 0.7953
565.90 0.795
566.00 0.7947
566.10 0.7944
566.20 0.7941
566.30 0.7939
566.40 0.7936
566.50 0.7933
566.60 0.793
566.70 0.7927
566.80 0.7924
566.90 0.7922
567.00 0.7919
567.10 0.7916
567.20 0.7913
567.30 0.791
567.40 0.7907
567.50 0.7905
567.60 0.7902
567.70 0.7899
567.80 0.7896
567.90 0.7893
568.00 0.789
568.10 0.7888
568.20 0.7885
568.30 0.7882
568.40 0.7879
568.50 0.7876
568.60 0.7874
568.70 0.7871
568.80 0.7868
568.90 0.7865
569.00 0.7862
569.10 0.786
569.20 0.7857
569.30 0.7854
569.40 0.7851
569.50 0.7848
569.60 0.7845
569.70 0.7843
569.80 0.784
569.90 0.7837
570.00 0.7834
570.10 0.7831
570.20 0.7829
570.30 0.7826
570.40 0.7823
570.50 0.782
570.60 0.7817
570.70 0.7815
570.80 0.7812
570.90 0.7809
571.00 0.7806
571.10 0.7803
571.20 0.7801
571.30 0.7798
571.40 0.7795
571.50 0.7792
571.60 0.7789
571.70 0.7787
571.80 0.7784
571.90 0.7781
572.00 0.7778
572.10 0.7776
572.20 0.7773
572.30 0.777
572.40 0.7767
572.50 0.7764
572.60 0.7762
572.70 0.7759
572.80 0.7756
572.90 0.7753
573.00 0.7751
573.10 0.7748
573.20 0.7745
573.30 0.7742
573.40 0.774
573.50 0.7737
573.60 0.7734
573.70 0.7731
573.80 0.7729
573.90 0.7726
574.00 0.7723
574.10 0.772
574.20 0.7718
574.30 0.7715
574.40 0.7712
574.50 0.7709
574.60 0.7706
574.70 0.7704
574.80 0.7701
574.90 0.7698
575.00 0.7695
575.10 0.7693
575.20 0.769
575.30 0.7687
575.40 0.7684
575.50 0.7682
575.60 0.7679
575.70 0.7676
575.80 0.7673
575.90 0.7671
576.00 0.7668
576.10 0.7665
576.20 0.7663
576.30 0.766
576.40 0.7657
576.50 0.7654
576.60 0.7652
576.70 0.7649
576.80 0.7646
576.90 0.7643
577.00 0.7641
577.10 0.7638
577.20 0.7635
577.30 0.7632
577.40 0.763
577.50 0.7627
577.60 0.7624
577.70 0.7622
577.80 0.7619
577.90 0.7616
578.00 0.7613
578.10 0.7611
578.20 0.7608
578.30 0.7605
578.40 0.7602
578.50 0.76
578.60 0.7597
578.70 0.7594
578.80 0.7592
578.90 0.7589
579.00 0.7586
579.10 0.7583
579.20 0.7581
579.30 0.7578
579.40 0.7575
579.50 0.7573
579.60 0.757
579.70 0.7567
579.80 0.7565
579.90 0.7562
580.00 0.7559
580.10 0.7556
580.20 0.7554
580.30 0.7551
580.40 0.7548
580.50 0.7546
580.60 0.7543
580.70 0.754
580.80 0.7538
580.90 0.7535
581.00 0.7532
581.10 0.753
581.20 0.7527
581.30 0.7524
581.40 0.7522
581.50 0.7519
581.60 0.7516
581.70 0.7513
581.80 0.7511
581.90 0.7508
582.00 0.7505
582.10 0.7503
582.20 0.75
582.30 0.7497
582.40 0.7495
582.50 0.7492
582.60 0.7489
582.70 0.7487
582.80 0.7484
582.90 0.7481
583.00 0.7479
583.10 0.7476
583.20 0.7473
583.30 0.7471
583.40 0.7468
583.50 0.7465
583.60 0.7463
583.70 0.746
583.80 0.7457
583.90 0.7455
584.00 0.7452
584.10 0.7449
584.20 0.7447
584.30 0.7444
584.40 0.7441
584.50 0.7439
584.60 0.7436
584.70 0.7433
584.80 0.7431
584.90 0.7428
585.00 0.7425
585.10 0.7423
585.20 0.742
585.30 0.7417
585.40 0.7415
585.50 0.7412
585.60 0.741
585.70 0.7407
585.80 0.7404
585.90 0.7402
586.00 0.7399
586.10 0.7396
586.20 0.7394
586.30 0.7391
586.40 0.7388
586.50 0.7386
586.60 0.7383
586.70 0.738
586.80 0.7378
586.90 0.7375
587.00 0.7373
587.10 0.737
587.20 0.7367
587.30 0.7365
587.40 0.7362
587.50 0.736
587.60 0.7357
587.70 0.7354
587.80 0.7352
587.90 0.7349
588.00 0.7346
588.10 0.7344
588.20 0.7341
588.30 0.7339
588.40 0.7336
588.50 0.7333
588.60 0.7331
588.70 0.7328
588.80 0.7326
588.90 0.7323
589.00 0.732
589.10 0.7318
589.20 0.7315
589.30 0.7313
589.40 0.731
589.50 0.7307
589.60 0.7305
589.70 0.7302
589.80 0.7299
589.90 0.7297
590.00 0.7294
590.10 0.7292
590.20 0.7289
590.30 0.7286
590.40 0.7284
590.50 0.7281
590.60 0.7279
590.70 0.7276
590.80 0.7274
590.90 0.7271
591.00 0.7268
591.10 0.7266
591.20 0.7263
591.30 0.7261
591.40 0.7258
591.50 0.7255
591.60 0.7253
591.70 0.725
591.80 0.7248
591.90 0.7245
592.00 0.7242
592.10 0.724
592.20 0.7237
592.30 0.7235
592.40 0.7232
592.50 0.723
592.60 0.7227
592.70 0.7224
592.80 0.7222
592.90 0.7219
593.00 0.7217
593.10 0.7214
593.20 0.7212
593.30 0.7209
593.40 0.7206
593.50 0.7204
593.60 0.7201
593.70 0.7199
593.80 0.7196
593.90 0.7194
594.00 0.7191
594.10 0.7188
594.20 0.7186
594.30 0.7183
594.40 0.7181
594.50 0.7178
594.60 0.7176
594.70 0.7173
594.80 0.7171
594.90 0.7168
595.00 0.7165
595.10 0.7163
595.20 0.716
595.30 0.7158
595.40 0.7155
595.50 0.7153
595.60 0.715
595.70 0.7148
595.80 0.7145
595.90 0.7143
596.00 0.714
596.10 0.7138
596.20 0.7134
596.30 0.7131
596.40 0.7127
596.50 0.7124
596.60 0.7121
596.70 0.7117
596.80 0.7114
596.90 0.711
597.00 0.7107
597.10 0.7103
597.20 0.71
597.30 0.7098
597.40 0.7095
597.50 0.7093
597.60 0.709
597.70 0.7087
597.80 0.7085
597.90 0.7082
598.00 0.708
598.10 0.7077
598.20 0.7074
598.30 0.7072
598.40 0.7069
598.50 0.7067
598.60 0.7064
598.70 0.7062
598.80 0.7059
598.90 0.7057
599.00 0.7054
599.10 0.7052
599.20 0.7049
599.30 0.7046
599.40 0.7044
599.50 0.7041
599.60 0.7039
599.70 0.7036
599.80 0.7034
599.90 0.7031
600.00 0.7028
600.10 0.7026
600.20 0.7023
600.30 0.7021
600.40 0.7018
600.50 0.7016
600.60 0.7013
600.70 0.7011
600.80 0.7008
600.90 0.7005
601.00 0.7003
601.10 0.7
601.20 0.6998
601.30 0.6995
601.40 0.6993
601.50 0.699
601.60 0.6988
601.70 0.6985
601.80 0.6983
601.90 0.698
602.00 0.6977
602.10 0.6975
602.20 0.6972
602.30 0.697
602.40 0.6967
602.50 0.6965
602.60 0.6962
602.70 0.696
602.80 0.6957
602.90 0.6955
603.00 0.6952
603.10 0.6949
603.20 0.6947
603.30 0.6944
603.40 0.6942
603.50 0.6939
603.60 0.6937
603.70 0.6934
603.80 0.6932
603.90 0.6929
604.00 0.6927
604.10 0.6924
604.20 0.6922
604.30 0.6919
604.40 0.6917
604.50 0.6914
604.60 0.6912
604.70 0.6909
604.80 0.6907
604.90 0.6904
605.00 0.6902
605.10 0.6899
605.20 0.6897
605.30 0.6894
605.40 0.6892
605.50 0.6889
605.60 0.6887
605.70 0.6884
605.80 0.6882
605.90 0.6879
606.00 0.6877
606.10 0.6874
606.20 0.6872
606.30 0.6869
606.40 0.6867
606.50 0.6864
606.60 0.6862
606.70 0.6859
606.80 0.6857
606.90 0.6854
607.00 0.6852
607.10 0.6849
607.20 0.6847
607.30 0.6844
607.40 0.6842
607.50 0.6839
607.60 0.6837
607.70 0.6834
607.80 0.6832
607.90 0.6829
608.00 0.6827
608.10 0.6824
608.20 0.6822
608.30 0.6819
608.40 0.6817
608.50 0.6814
608.60 0.6812
608.70 0.6809
608.80 0.6807
608.90 0.6804
609.00 0.6802
609.10 0.6799
609.20 0.6797
609.30 0.6795
609.40 0.6792
609.50 0.679
609.60 0.6787
609.70 0.6785
609.80 0.6782
609.90 0.678
610.00 0.6777
610.10 0.6775
610.20 0.6772
610.30 0.677
610.40 0.6767
610.50 0.6765
610.60 0.6762
610.70 0.676
610.80 0.6757
610.90 0.6755
611.00 0.6753
611.10 0.675
611.20 0.6748
611.30 0.6745
611.40 0.6743
611.50 0.674
611.60 0.6738
611.70 0.6735
611.80 0.6733
611.90 0.6731
612.00 0.6728
612.10 0.6726
612.20 0.6723
612.30 0.6721
612.40 0.6718
612.50 0.6716
612.60 0.6713
612.70 0.6711
612.80 0.6708
612.90 0.6706
613.00 0.6704
613.10 0.6701
613.20 0.6699
613.30 0.6696
613.40 0.6694
613.50 0.6691
613.60 0.6689
613.70 0.6686
613.80 0.6684
613.90 0.6681
614.00 0.6679
614.10 0.6676
614.20 0.6674
614.30 0.6672
614.40 0.6669
614.50 0.6667
614.60 0.6664
614.70 0.6662
614.80 0.6659
614.90 0.6657
615.00 0.6655
615.10 0.6652
615.20 0.665
615.30 0.6647
615.40 0.6645
615.50 0.6642
615.60 0.664
615.70 0.6637
615.80 0.6635
615.90 0.6632
616.00 0.663
616.10 0.6628
616.20 0.6625
616.30 0.6623
616.40 0.662
616.50 0.6618
616.60 0.6615
616.70 0.6613
616.80 0.6611
616.90 0.6608
617.00 0.6606
617.10 0.6603
617.20 0.6601
617.30 0.6598
617.40 0.6596
617.50 0.6593
617.60 0.6591
617.70 0.6589
617.80 0.6586
617.90 0.6584
618.00 0.6581
618.10 0.6579
618.20 0.6576
618.30 0.6574
618.40 0.6572
618.50 0.6569
618.60 0.6567
618.70 0.6564
618.80 0.6562
618.90 0.6559
619.00 0.6557
619.10 0.6555
619.20 0.6552
619.30 0.655
619.40 0.6547
619.50 0.6545
619.60 0.6542
619.70 0.654
619.80 0.6537
619.90 0.6535
620.00 0.6533
620.10 0.653
620.20 0.6528
620.30 0.6525
620.40 0.6523
620.50 0.652
620.60 0.6518
620.70 0.6516
620.80 0.6513
620.90 0.6511
621.00 0.6508
621.10 0.6506
621.20 0.6503
621.30 0.6501
621.40 0.6498
621.50 0.6496
621.60 0.6494
621.70 0.6491
621.80 0.6489
621.90 0.6486
622.00 0.6484
622.10 0.6481
622.20 0.6479
622.30 0.6476
622.40 0.6474
622.50 0.6472
622.60 0.6469
622.70 0.6467
622.80 0.6464
622.90 0.6462
623.00 0.6459
623.10 0.6457
623.20 0.6455
623.30 0.6452
623.40 0.645
623.50 0.6447
623.60 0.6445
623.70 0.6442
623.80 0.644
623.90 0.6437
624.00 0.6435
624.10 0.6433
624.20 0.643
624.30 0.6428
624.40 0.6425
624.50 0.6423
624.60 0.642
624.70 0.6418
624.80 0.6415
624.90 0.6413
625.00 0.641
625.10 0.6408
625.20 0.6406
625.30 0.6403
625.40 0.6401
625.50 0.6398
625.60 0.6396
625.70 0.6393
625.80 0.6391
625.90 0.6388
626.00 0.6386
626.10 0.6383
626.20 0.6381
626.30 0.6378
626.40 0.6376
626.50 0.6373
626.60 0.6371
626.70 0.6368
626.80 0.6366
626.90 0.6363
627.00 0.6361
627.10 0.6359
627.20 0.6356
627.30 0.6354
627.40 0.6351
627.50 0.6349
627.60 0.6346
627.70 0.6344
627.80 0.6341
627.90 0.6339
628.00 0.6336
628.10 0.6334
628.20 0.6331
628.30 0.6329
628.40 0.6326
628.50 0.6324
628.60 0.6321
628.70 0.6319
628.80 0.6316
628.90 0.6314
629.00 0.6311
629.10 0.6309
629.20 0.6306
629.30 0.6304
629.40 0.6301
629.50 0.6299
629.60 0.6296
629.70 0.6294
629.80 0.6291
629.90 0.6289
630.00 0.6286
630.10 0.6284
630.20 0.6281
630.30 0.6279
630.40 0.6276
630.50 0.6273
630.60 0.6271
630.70 0.6268
630.80 0.6266
630.90 0.6263
631.00 0.6261
631.10 0.6258
631.20 0.6256
631.30 0.6253
631.40 0.6251
631.50 0.6248
631.60 0.6246
631.70 0.6243
631.80 0.624
631.90 0.6238
632.00 0.6235
632.10 0.6233
632.20 0.623
632.30 0.6228
632.40 0.6225
632.50 0.6223
632.60 0.622
632.70 0.6217
632.80 0.6215
632.90 0.6212
633.00 0.621
633.10 0.6207
633.20 0.6204
633.30 0.6202
633.40 0.6199
633.50 0.6197
633.60 0.6194
633.70 0.6191
633.80 0.6189
633.90 0.6186
634.00 0.6183
634.10 0.6181
634.20 0.6178
634.30 0.6176
634.40 0.6173
634.50 0.617
634.60 0.6168
634.70 0.6165
634.80 0.6162
634.90 0.6159
635.00 0.6157
635.10 0.6154
635.20 0.6151
635.30 0.6149
635.40 0.6146
635.50 0.6143
635.60 0.6141
635.70 0.6138
635.80 0.6135
635.90 0.6132
636.00 0.613
636.10 0.6127
636.20 0.6124
636.30 0.6121
636.40 0.6118
636.50 0.6116
636.60 0.6113
636.70 0.611
636.80 0.6107
636.90 0.6104
637.00 0.6102
637.10 0.6099
637.20 0.6096
637.30 0.6093
637.40 0.609
637.50 0.6087
637.60 0.6084
637.70 0.6081
637.80 0.6079
637.90 0.6076
638.00 0.6073
638.10 0.607
638.20 0.6067
638.30 0.6064
638.40 0.6061
638.50 0.6058
638.60 0.6055
638.70 0.6052
638.80 0.6049
638.90 0.6046
639.00 0.6043
639.10 0.604
639.20 0.6037
639.30 0.6034
639.40 0.6031
639.50 0.6028
639.60 0.6024
639.70 0.6021
639.80 0.6018
639.90 0.6015
640.00 0.6012
640.10 0.6009
640.20 0.6006
640.30 0.6002
640.40 0.5999
640.50 0.5996
640.60 0.5992
640.70 0.5989
640.80 0.5986
640.90 0.5982
641.00 0.5979
641.10 0.5976
641.20 0.5972
641.30 0.5969
641.40 0.5966
641.50 0.5962
641.60 0.5959
641.70 0.5955
641.80 0.5951
641.90 0.5948
642.00 0.5944
642.10 0.5941
642.20 0.5937
642.30 0.5934
642.40 0.593
642.50 0.5926
642.60 0.5922
642.70 0.5919
642.80 0.5915
642.90 0.5911
643.00 0.5907
643.10 0.5904
643.20 0.59
643.30 0.5896
643.40 0.5892
643.50 0.5888
643.60 0.5884
643.70 0.5879
643.80 0.5875
643.90 0.5871
644.00 0.5867
644.10 0.5863
644.20 0.5859
644.30 0.5854
644.40 0.585
644.50 0.5845
644.60 0.5841
644.70 0.5836
644.80 0.5832
644.90 0.5827
645.00 0.5822
645.10 0.5818
645.20 0.5813
645.30 0.5809
645.40 0.5804
645.50 0.5798
645.60 0.5793
645.70 0.5788
645.80 0.5783
645.90 0.5778
646.00 0.5773
646.10 0.5767
646.20 0.5762
646.30 0.5757
646.40 0.5751
646.50 0.5745
646.60 0.5739
646.70 0.5733
646.80 0.5727
646.90 0.5722
647.00 0.5716
647.10 0.571
647.20 0.5704
647.30 0.5698
647.40 0.5691
647.50 0.5684
647.60 0.5677
647.70 0.567
647.80 0.5663
647.90 0.5656
648.00 0.5649
648.10 0.5642
648.20 0.5635
648.30 0.5628
648.40 0.5619
648.50 0.5611
648.60 0.5603
648.70 0.5594
648.80 0.5586
648.90 0.5578
649.00 0.5569
649.10 0.5561
649.20 0.5552
649.30 0.5544
649.40 0.5533
649.50 0.5523
649.60 0.5512
649.70 0.5502
649.80 0.5491
649.90 0.5481
650.00 0.5471
650.10 0.546
650.20 0.545
650.30 0.5439
650.40 0.5425
650.50 0.5412
650.60 0.5398
650.70 0.5385
650.80 0.5372
650.90 0.5358
651.00 0.5345
651.10 0.5331
651.20 0.5318
651.30 0.5304
651.40 0.5285
651.50 0.5267
651.60 0.5249
651.70 0.5231
651.80 0.5213
651.90 0.5195
652.00 0.5177
652.10 0.5159
652.20 0.5141
652.30 0.5121
652.40 0.5095
652.50 0.5069
652.60 0.5044
652.70 0.5018
652.80 0.4992
652.90 0.4966
653.00 0.4941
653.10 0.4915
653.20 0.4889
653.30 0.4861
653.40 0.4821
653.50 0.4782
653.60 0.4743
653.70 0.4703
653.80 0.4664
653.90 0.4625
654.00 0.4585
654.10 0.4546
654.20 0.4507
654.30 0.4464
654.40 0.4408
654.50 0.4351
654.60 0.4295
654.70 0.4239
654.80 0.418
654.90 0.4108
655.00 0.4037
655.10 0.3966
655.20 0.3894
655.30 0.3821
655.40 0.3741
655.50 0.366
655.60 0.3578
655.70 0.3495
655.80 0.341
655.90 0.3323
656.00 0.3227
656.10 0.3129
656.20 0.2999
656.30 0.2955
656.40 0.3052
656.50 0.3164
656.60 0.3258
656.70 0.335
656.80 0.3433
656.90 0.3516
657.00 0.3596
657.10 0.3675
657.20 0.3753
657.30 0.3829
657.40 0.3897
657.50 0.3966
657.60 0.4034
657.70 0.4103
657.80 0.4168
657.90 0.4221
658.00 0.4274
658.10 0.4327
658.20 0.438
658.30 0.4429
658.40 0.4465
658.50 0.4501
658.60 0.4537
658.70 0.4573
658.80 0.4608
658.90 0.4644
659.00 0.468
659.10 0.4715
659.20 0.4751
659.30 0.4784
659.40 0.4806
659.50 0.4827
659.60 0.4849
659.70 0.4871
659.80 0.4893
659.90 0.4915
660.00 0.4937
660.10 0.4959
660.20 0.498
660.30 0.5001
660.40 0.5015
660.50 0.5029
660.60 0.5043
660.70 0.5057
660.80 0.5071
660.90 0.5085
661.00 0.5099
661.10 0.5113
661.20 0.5127
661.30 0.514
661.40 0.515
661.50 0.5159
661.60 0.5168
661.70 0.5178
661.80 0.5187
661.90 0.5196
662.00 0.5206
662.10 0.5215
662.20 0.5224
662.30 0.5233
662.40 0.5239
662.50 0.5246
662.60 0.5252
662.70 0.5258
662.80 0.5264
662.90 0.5271
663.00 0.5277
663.10 0.5283
663.20 0.529
663.30 0.5295
663.40 0.53
663.50 0.5304
663.60 0.5308
663.70 0.5312
663.80 0.5316
663.90 0.5321
664.00 0.5325
664.10 0.5329
664.20 0.5333
664.30 0.5337
664.40 0.534
664.50 0.5343
664.60 0.5346
664.70 0.5348
664.80 0.5351
664.90 0.5354
665.00 0.5357
665.10 0.536
665.20 0.5362
665.30 0.5365
665.40 0.5367
665.50 0.5368
665.60 0.537
665.70 0.5372
665.80 0.5374
665.90 0.5375
666.00 0.5377
666.10 0.5379
666.20 0.538
666.30 0.5382
666.40 0.5383
666.50 0.5384
666.60 0.5385
666.70 0.5386
666.80 0.5387
666.90 0.5388
667.00 0.5389
667.10 0.539
667.20 0.5391
667.30 0.5392
667.40 0.5392
667.50 0.5393
667.60 0.5393
667.70 0.5394
667.80 0.5394
667.90 0.5394
668.00 0.5395
668.10 0.5395
668.20 0.5396
668.30 0.5396
668.40 0.5396
668.50 0.5396
668.60 0.5396
668.70 0.5396
668.80 0.5396
668.90 0.5396
669.00 0.5396
669.10 0.5396
669.20 0.5396
669.30 0.5396
669.40 0.5395
669.50 0.5395
669.60 0.5395
669.70 0.5394
669.80 0.5394
669.90 0.5393
670.00 0.5393
670.10 0.5393
670.20 0.5392
670.30 0.5392
670.40 0.5391
670.50 0.5391
670.60 0.539
670.70 0.539
670.80 0.5389
670.90 0.5388
671.00 0.5388
671.10 0.5387
671.20 0.5386
671.30 0.5386
671.40 0.5385
671.50 0.5384
671.60 0.5383
671.70 0.5383
671.80 0.5382
671.90 0.5381
672.00 0.538
672.10 0.5379
672.20 0.5378
672.30 0.5378
672.40 0.5377
672.50 0.5376
672.60 0.5375
672.70 0.5374
672.80 0.5373
672.90 0.5372
673.00 0.5371
673.10 0.537
673.20 0.5369
673.30 0.5368
673.40 0.5367
673.50 0.5366
673.60 0.5365
673.70 0.5363
673.80 0.5362
673.90 0.5361
674.00 0.536
674.10 0.5359
674.20 0.5358
674.30 0.5357
674.40 0.5356
674.50 0.5354
674.60 0.5353
674.70 0.5352
674.80 0.5351
674.90 0.535
675.00 0.5348
675.10 0.5347
675.20 0.5346
675.30 0.5345
675.40 0.5343
675.50 0.5342
675.60 0.5341
675.70 0.534
675.80 0.5338
675.90 0.5337
676.00 0.5336
676.10 0.5334
676.20 0.5333
676.30 0.5332
676.40 0.533
676.50 0.5329
676.60 0.5328
676.70 0.5326
676.80 0.5325
676.90 0.5324
677.00 0.5322
677.10 0.5321
677.20 0.532
677.30 0.5318
677.40 0.5317
677.50 0.5315
677.60 0.5314
677.70 0.5313
677.80 0.5311
677.90 0.531
678.00 0.5308
678.10 0.5307
678.20 0.5305
678.30 0.5304
678.40 0.5303
678.50 0.5301
678.60 0.53
678.70 0.5298
678.80 0.5297
678.90 0.5295
679.00 0.5294
679.10 0.5292
679.20 0.5291
679.30 0.5289
679.40 0.5288
679.50 0.5286
679.60 0.5285
679.70 0.5283
679.80 0.5282
679.90 0.528
680.00 0.5279
680.10 0.5277
680.20 0.5276
680.30 0.5274
680.40 0.5273
680.50 0.5271
680.60 0.527
680.70 0.5268
680.80 0.5267
680.90 0.5265
681.00 0.5263
681.10 0.5262
681.20 0.526
681.30 0.5259
681.40 0.5257
681.50 0.5256
681.60 0.5254
681.70 0.5253
681.80 0.5251
681.90 0.525
682.00 0.5248
682.10 0.5246
682.20 0.5245
682.30 0.5243
682.40 0.5242
682.50 0.524
682.60 0.5239
682.70 0.5237
682.80 0.5235
682.90 0.5234
683.00 0.5232
683.10 0.5231
683.20 0.5229
683.30 0.5228
683.40 0.5226
683.50 0.5224
683.60 0.5223
683.70 0.5221
683.80 0.5219
683.90 0.5218
684.00 0.5216
684.10 0.5215
684.20 0.5213
684.30 0.5211
684.40 0.521
684.50 0.5208
684.60 0.5207
684.70 0.5205
684.80 0.5203
684.90 0.5202
685.00 0.52
685.10 0.5199
685.20 0.5197
685.30 0.5196
685.40 0.5194
685.50 0.5192
685.60 0.5191
685.70 0.5189
685.80 0.5187
685.90 0.5186
686.00 0.5184
686.10 0.5183
686.20 0.5181
686.30 0.5179
686.40 0.5178
686.50 0.5176
686.60 0.5175
686.70 0.5173
686.80 0.5171
686.90 0.517
687.00 0.5168
687.10 0.5166
687.20 0.5165
687.30 0.5163
687.40 0.5161
687.50 0.516
687.60 0.5158
687.70 0.5157
687.80 0.5155
687.90 0.5153
688.00 0.5152
688.10 0.515
688.20 0.5148
688.30 0.5147
688.40 0.5145
688.50 0.5144
688.60 0.5142
688.70 0.514
688.80 0.5139
688.90 0.5137
689.00 0.5135
689.10 0.5134
689.20 0.5132
689.30 0.513
689.40 0.5129
689.50 0.5127
689.60 0.5125
689.70 0.5124
689.80 0.5122
689.90 0.512
690.00 0.5119
690.10 0.5117
690.20 0.5115
690.30 0.5114
690.40 0.5112
690.50 0.511
690.60 0.5109
690.70 0.5107
690.80 0.5105
690.90 0.5104
691.00 0.5102
691.10 0.51
691.20 0.5098
691.30 0.5097
691.40 0.5095
691.50 0.5093
691.60 0.5092
691.70 0.509
691.80 0.5088
691.90 0.5087
692.00 0.5085
692.10 0.5083
692.20 0.5082
692.30 0.508
692.40 0.5078
692.50 0.5077
692.60 0.5075
692.70 0.5073
692.80 0.5072
692.90 0.507
693.00 0.5068
693.10 0.5067
693.20 0.5065
693.30 0.5063
693.40 0.5062
693.50 0.506
693.60 0.5058
693.70 0.5057
693.80 0.5055
693.90 0.5053
694.00 0.5052
694.10 0.505
694.20 0.5048
694.30 0.5047
694.40 0.5045
694.50 0.5044
694.60 0.5042
694.70 0.504
694.80 0.5039
694.90 0.5037
695.00 0.5035
695.10 0.5034
695.20 0.5032
695.30 0.503
695.40 0.5029
695.50 0.5027
695.60 0.5025
695.70 0.5024
695.80 0.5022
695.90 0.502
696.00 0.5019
696.10 0.5017
696.20 0.5016
696.30 0.5014
696.40 0.5012
696.50 0.5011
696.60 0.5009
696.70 0.5007
696.80 0.5006
696.90 0.5004
697.00 0.5002
697.10 0.5001
697.20 0.4999
697.30 0.4998
697.40 0.4996
697.50 0.4994
697.60 0.4993
697.70 0.4991
697.80 0.4989
697.90 0.4988
698.00 0.4986
698.10 0.4984
698.20 0.4983
698.30 0.4981
698.40 0.498
698.50 0.4978
698.60 0.4976
698.70 0.4975
698.80 0.4973
698.90 0.4971
699.00 0.497
699.10 0.4968
699.20 0.4967
699.30 0.4965
699.40 0.4963
699.50 0.4962
699.60 0.496
699.70 0.4959
699.80 0.4957
699.90 0.4955
700.00 0.4954
700.10 0.4952
700.20 0.4951
700.30 0.4949
700.40 0.4948
700.50 0.4946
700.60 0.4945
700.70 0.4943
700.80 0.4942
700.90 0.494
701.00 0.4939
701.10 0.4937
701.20 0.4936
701.30 0.4934
701.40 0.4933
701.50 0.4931
701.60 0.493
701.70 0.4928
701.80 0.4927
701.90 0.4925
702.00 0.4924
702.10 0.4922
702.20 0.4921
702.30 0.4919
702.40 0.4918
702.50 0.4916
702.60 0.4915
702.70 0.4913
702.80 0.4912
702.90 0.491
703.00 0.4909
703.10 0.4908
703.20 0.4906
703.30 0.4905
703.40 0.4903
703.50 0.4902
703.60 0.49
703.70 0.4899
703.80 0.4897
703.90 0.4896
704.00 0.4894
704.10 0.4893
704.20 0.4891
704.30 0.489
704.40 0.4888
704.50 0.4887
704.60 0.4885
704.70 0.4884
704.80 0.4882
704.90 0.4881
705.00 0.488
705.10 0.4878
705.20 0.4876
705.30 0.4875
705.40 0.4873
705.50 0.4871
705.60 0.487
705.70 0.4868
705.80 0.4866
705.90 0.4865
706.00 0.4863
706.10 0.4861
706.20 0.486
706.30 0.4858
706.40 0.4857
706.50 0.4855
706.60 0.4853
706.70 0.4852
706.80 0.485
706.90 0.4848
707.00 0.4847
707.10 0.4845
707.20 0.4843
707.30 0.4842
707.40 0.484
707.50 0.4839
707.60 0.4837
707.70 0.4835
707.80 0.4834
707.90 0.4832
708.00 0.483
708.10 0.4829
708.20 0.4827
708.30 0.4826
708.40 0.4824
708.50 0.4822
708.60 0.4821
708.70 0.4819
708.80 0.4817
708.90 0.4816
709.00 0.4814
709.10 0.4813
709.20 0.4811
709.30 0.4809
709.40 0.4808
709.50 0.4806
709.60 0.4805
709.70 0.4803
709.80 0.4801
709.90 0.48
710.00 0.4798
710.10 0.4796
710.20 0.4795
710.30 0.4793
710.40 0.4792
710.50 0.479
710.60 0.4788
710.70 0.4787
710.80 0.4785
710.90 0.4783
711.00 0.4782
711.10 0.478
711.20 0.4779
711.30 0.4777
711.40 0.4775
711.50 0.4774
711.60 0.4772
711.70 0.4771
711.80 0.4769
711.90 0.4767
712.00 0.4766
712.10 0.4764
712.20 0.4763
712.30 0.4761
712.40 0.4759
712.50 0.4758
712.60 0.4756
712.70 0.4754
712.80 0.4753
712.90 0.4751
713.00 0.475
713.10 0.4748
713.20 0.4746
713.30 0.4745
713.40 0.4743
713.50 0.4742
713.60 0.474
713.70 0.4738
713.80 0.4737
713.90 0.4735
714.00 0.4734
714.10 0.4732
714.20 0.473
714.30 0.4729
714.40 0.4727
714.50 0.4726
714.60 0.4724
714.70 0.4723
714.80 0.4721
714.90 0.4719
715.00 0.4718
715.10 0.4716
715.20 0.4715
715.30 0.4713
715.40 0.4711
715.50 0.471
715.60 0.4708
715.70 0.4707
715.80 0.4705
715.90 0.4704
716.00 0.4702
716.10 0.4701
716.20 0.4699
716.30 0.4697
716.40 0.4696
716.50 0.4694
716.60 0.4693
716.70 0.4691
716.80 0.469
716.90 0.4688
717.00 0.4686
717.10 0.4685
717.20 0.4683
717.30 0.4682
717.40 0.468
717.50 0.4679
717.60 0.4677
717.70 0.4676
717.80 0.4674
717.90 0.4672
718.00 0.4671
718.10 0.4669
718.20 0.4668
718.30 0.4666
718.40 0.4665
718.50 0.4663
718.60 0.4662
718.70 0.466
718.80 0.4659
718.90 0.4657
719.00 0.4655
719.10 0.4654
719.20 0.4652
719.30 0.4651
719.40 0.4649
719.50 0.4648
719.60 0.4646
719.70 0.4645
719.80 0.4643
719.90 0.4642
720.00 0.464
720.10 0.4638
720.20 0.4637
720.30 0.4635
720.40 0.4634
720.50 0.4632
720.60 0.4631
720.70 0.4629
720.80 0.4627
720.90 0.4626
721.00 0.4624
721.10 0.4623
721.20 0.4621
721.30 0.462
721.40 0.4618
721.50 0.4617
721.60 0.4615
721.70 0.4613
721.80 0.4612
721.90 0.461
722.00 0.4609
722.10 0.4607
722.20 0.4606
722.30 0.4604
722.40 0.4603
722.50 0.4601
722.60 0.4599
722.70 0.4598
722.80 0.4596
722.90 0.4595
723.00 0.4593
723.10 0.4592
723.20 0.459
723.30 0.4589
723.40 0.4587
723.50 0.4586
723.60 0.4584
723.70 0.4582
723.80 0.4581
723.90 0.4579
724.00 0.4578
724.10 0.4576
724.20 0.4575
724.30 0.4573
724.40 0.4572
724.50 0.457
724.60 0.4569
724.70 0.4567
724.80 0.4566
724.90 0.4564
725.00 0.4562
725.10 0.4561
725.20 0.4559
725.30 0.4558
725.40 0.4556
725.50 0.4555
725.60 0.4553
725.70 0.4552
725.80 0.455
725.90 0.4549
726.00 0.4547
726.10 0.4546
726.20 0.4544
726.30 0.4543
726.40 0.4541
726.50 0.4539
726.60 0.4538
726.70 0.4536
726.80 0.4535
726.90 0.4533
727.00 0.4532
727.10 0.453
727.20 0.4529
727.30 0.4527
727.40 0.4526
727.50 0.4524
727.60 0.4523
727.70 0.4521
727.80 0.452
727.90 0.4518
728.00 0.4517
728.10 0.4515
728.20 0.4514
728.30 0.4512
728.40 0.4511
728.50 0.4509
728.60 0.4508
728.70 0.4506
728.80 0.4504
728.90 0.4503
729.00 0.4501
729.10 0.45
729.20 0.4498
729.30 0.4497
729.40 0.4495
729.50 0.4494
729.60 0.4492
729.70 0.4491
729.80 0.4489
729.90 0.4488
730.00 0.4486
730.10 0.4485
730.20 0.4483
730.30 0.4482
730.40 0.448
730.50 0.4479
730.60 0.4477
730.70 0.4476
730.80 0.4474
730.90 0.4473
731.00 0.4471
731.10 0.447
731.20 0.4468
731.30 0.4467
731.40 0.4465
731.50 0.4464
731.60 0.4462
731.70 0.4461
731.80 0.4459
731.90 0.4458
732.00 0.4456
732.10 0.4455
732.20 0.4453
732.30 0.4452
732.40 0.445
732.50 0.4449
732.60 0.4447
732.70 0.4446
732.80 0.4444
732.90 0.4443
733.00 0.4441
733.10 0.444
733.20 0.4438
733.30 0.4437
733.40 0.4435
733.50 0.4434
733.60 0.4432
733.70 0.4431
733.80 0.4429
733.90 0.4428
734.00 0.4426
734.10 0.4425
734.20 0.4424
734.30 0.4422
734.40 0.4421
734.50 0.4419
734.60 0.4418
734.70 0.4416
734.80 0.4415
734.90 0.4413
735.00 0.4412
735.10 0.441
735.20 0.4409
735.30 0.4407
735.40 0.4406
735.50 0.4404
735.60 0.4403
735.70 0.4401
735.80 0.44
735.90 0.4398
736.00 0.4397
736.10 0.4395
736.20 0.4394
736.30 0.4393
736.40 0.4391
736.50 0.439
736.60 0.4388
736.70 0.4387
736.80 0.4385
736.90 0.4384
737.00 0.4382
737.10 0.4381
737.20 0.4379
737.30 0.4378
737.40 0.4376
737.50 0.4375
737.60 0.4373
737.70 0.4372
737.80 0.4371
737.90 0.4369
738.00 0.4368
738.10 0.4366
738.20 0.4365
738.30 0.4363
738.40 0.4362
738.50 0.436
738.60 0.4359
738.70 0.4357
738.80 0.4356
738.90 0.4355
739.00 0.4353
739.10 0.4352
739.20 0.435
739.30 0.4349
739.40 0.4347
739.50 0.4346
739.60 0.4344
739.70 0.4343
739.80 0.4341
739.90 0.434
740.00 0.4339
740.10 0.4337
740.20 0.4336
740.30 0.4334
740.40 0.4333
740.50 0.4331
740.60 0.433
740.70 0.4328
740.80 0.4327
740.90 0.4326
741.00 0.4324
741.10 0.4323
741.20 0.4321
741.30 0.432
741.40 0.4318
741.50 0.4317
741.60 0.4315
741.70 0.4314
741.80 0.4313
741.90 0.4311
742.00 0.431
742.10 0.4308
742.20 0.4307
742.30 0.4305
742.40 0.4304
742.50 0.4302
742.60 0.4301
742.70 0.43
742.80 0.4298
742.90 0.4297
743.00 0.4295
743.10 0.4294
743.20 0.4292
743.30 0.4291
743.40 0.429
743.50 0.4288
743.60 0.4287
743.70 0.4285
743.80 0.4284
743.90 0.4282
744.00 0.4281
744.10 0.428
744.20 0.4278
744.30 0.4277
744.40 0.4275
744.50 0.4274
744.60 0.4272
744.70 0.4271
744.80 0.427
744.90 0.4268
745.00 0.4267
745.10 0.4265
745.20 0.4264
745.30 0.4263
745.40 0.4261
745.50 0.426
745.60 0.4258
745.70 0.4257
745.80 0.4255
745.90 0.4254
746.00 0.4253
746.10 0.4251
746.20 0.425
746.30 0.4248
746.40 0.4247
746.50 0.4246
746.60 0.4244
746.70 0.4243
746.80 0.4241
746.90 0.424
747.00 0.4238
747.10 0.4237
747.20 0.4236
747.30 0.4234
747.40 0.4233
747.50 0.4231
747.60 0.423
747.70 0.4229
747.80 0.4227
747.90 0.4226
748.00 0.4224
748.10 0.4223
748.20 0.4222
748.30 0.422
748.40 0.4219
748.50 0.4217
748.60 0.4216
748.70 0.4215
748.80 0.4213
748.90 0.4212
749.00 0.421
749.10 0.4209
749.20 0.4208
749.30 0.4206
749.40 0.4205
749.50 0.4203
749.60 0.4202
749.70 0.4201
749.80 0.4199
749.90 0.4198
750.00 0.4196
750.10 0.4195
750.20 0.4194
750.30 0.4192
750.40 0.4191
750.50 0.419
750.60 0.4188
750.70 0.4187
750.80 0.4185
750.90 0.4184
751.00 0.4183
751.10 0.4181
751.20 0.418
751.30 0.4178
751.40 0.4177
751.50 0.4176
751.60 0.4174
751.70 0.4173
751.80 0.4171
751.90 0.417
752.00 0.4169
752.10 0.4167
752.20 0.4166
752.30 0.4165
752.40 0.4163
752.50 0.4162
752.60 0.416
752.70 0.4159
752.80 0.4158
752.90 0.4156
753.00 0.4155
753.10 0.4154
753.20 0.4152
753.30 0.4151
753.40 0.4149
753.50 0.4148
753.60 0.4147
753.70 0.4145
753.80 0.4144
753.90 0.4143
754.00 0.4141
754.10 0.414
754.20 0.4138
754.30 0.4137
754.40 0.4136
754.50 0.4134
754.60 0.4133
754.70 0.4132
754.80 0.413
754.90 0.4129
755.00 0.4127
755.10 0.4126
755.20 0.4125
755.30 0.4123
755.40 0.4122
755.50 0.4121
755.60 0.4119
755.70 0.4118
755.80 0.4117
755.90 0.4115
756.00 0.4114
756.10 0.4112
756.20 0.4111
756.30 0.411
756.40 0.4108
756.50 0.4107
756.60 0.4106
756.70 0.4104
756.80 0.4103
756.90 0.4102
757.00 0.41
757.10 0.4099
757.20 0.4098
757.30 0.4096
757.40 0.4095
757.50 0.4093
757.60 0.4092
757.70 0.4091
757.80 0.4089
757.90 0.4088
758.00 0.4087
758.10 0.4085
758.20 0.4084
758.30 0.4083
758.40 0.4081
758.50 0.408
758.60 0.4079
758.70 0.4077
758.80 0.4076
758.90 0.4075
759.00 0.4073
759.10 0.4072
759.20 0.4071
759.30 0.4069
759.40 0.4068
759.50 0.4067
759.60 0.4065
759.70 0.4064
759.80 0.4063
759.90 0.4061
760.00 0.406
760.10 0.4058
760.20 0.4057
760.30 0.4056
760.40 0.4054
760.50 0.4053
760.60 0.4052
760.70 0.405
760.80 0.4049
760.90 0.4048
761.00 0.4046
761.10 0.4045
761.20 0.4044
761.30 0.4042
761.40 0.4041
761.50 0.404
761.60 0.4038
761.70 0.4037
761.80 0.4036
761.90 0.4034
762.00 0.4033
762.10 0.4032
762.20 0.403
762.30 0.4029
762.40 0.4028
762.50 0.4026
762.60 0.4025
762.70 0.4024
762.80 0.4022
762.90 0.4021
763.00 0.402
763.10 0.4019
763.20 0.4017
763.30 0.4016
763.40 0.4015
763.50 0.4013
763.60 0.4012
763.70 0.4011
763.80 0.4009
763.90 0.4008
764.00 0.4007
764.10 0.4005
764.20 0.4004
764.30 0.4003
764.40 0.4001
764.50 0.4
764.60 0.3999
764.70 0.3997
764.80 0.3996
764.90 0.3995
765.00 0.3993
765.10 0.3992
765.20 0.3991
765.30 0.399
765.40 0.3988
765.50 0.3987
765.60 0.3986
765.70 0.3984
765.80 0.3983
765.90 0.3982
766.00 0.398
766.10 0.3979
766.20 0.3978
766.30 0.3976
766.40 0.3975
766.50 0.3974
766.60 0.3973
766.70 0.3971
766.80 0.397
766.90 0.3969
767.00 0.3967
767.10 0.3966
767.20 0.3965
767.30 0.3963
767.40 0.3962
767.50 0.3961
767.60 0.3959
767.70 0.3958
767.80 0.3957
767.90 0.3956
768.00 0.3954
768.10 0.3953
768.20 0.3952
768.30 0.395
768.40 0.3949
768.50 0.3948
768.60 0.3947
768.70 0.3945
768.80 0.3944
768.90 0.3943
769.00 0.3941
769.10 0.394
769.20 0.3939
769.30 0.3937
769.40 0.3936
769.50 0.3935
769.60 0.3934
769.70 0.3932
769.80 0.3931
769.90 0.393
770.00 0.3928
770.10 0.3927
770.20 0.3926
770.30 0.3925
770.40 0.3923
770.50 0.3922
770.60 0.3921
770.70 0.3919
770.80 0.3918
770.90 0.3917
771.00 0.3916
771.10 0.3914
771.20 0.3913
771.30 0.3912
771.40 0.391
771.50 0.3909
771.60 0.3908
771.70 0.3907
771.80 0.3905
771.90 0.3904
772.00 0.3903
772.10 0.3901
772.20 0.39
772.30 0.3899
772.40 0.3898
772.50 0.3896
772.60 0.3895
772.70 0.3894
772.80 0.3893
772.90 0.3891
773.00 0.389
773.10 0.3889
773.20 0.3887
773.30 0.3886
773.40 0.3885
773.50 0.3884
773.60 0.3882
773.70 0.3881
773.80 0.388
773.90 0.3879
774.00 0.3877
774.10 0.3876
774.20 0.3875
774.30 0.3873
774.40 0.3872
774.50 0.3871
774.60 0.387
774.70 0.3868
774.80 0.3867
774.90 0.3866
775.00 0.3865
775.10 0.3863
775.20 0.3862
775.30 0.3861
775.40 0.386
775.50 0.3858
775.60 0.3857
775.70 0.3856
775.80 0.3854
775.90 0.3853
776.00 0.3852
776.10 0.3851
776.20 0.3849
776.30 0.3848
776.40 0.3847
776.50 0.3846
776.60 0.3844
776.70 0.3843
776.80 0.3842
776.90 0.3841
777.00 0.3839
777.10 0.3838
777.20 0.3837
777.30 0.3836
777.40 0.3834
777.50 0.3833
777.60 0.3832
777.70 0.3831
777.80 0.3829
777.90 0.3828
778.00 0.3827
778.10 0.3826
778.20 0.3824
778.30 0.3823
778.40 0.3822
778.50 0.3821
778.60 0.3819
778.70 0.3818
778.80 0.3817
778.90 0.3816
779.00 0.3814
779.10 0.3813
779.20 0.3812
779.30 0.3811
779.40 0.3809
779.50 0.3808
779.60 0.3807
779.70 0.3806
779.80 0.3804
779.90 0.3803
780.00 0.3802
780.10 0.3801
780.20 0.38
780.30 0.3798
780.40 0.3797
780.50 0.3796
780.60 0.3795
780.70 0.3793
780.80 0.3792
780.90 0.3791
781.00 0.379
781.10 0.3788
781.20 0.3787
781.30 0.3786
781.40 0.3785
781.50 0.3783
781.60 0.3782
781.70 0.3781
781.80 0.378
781.90 0.3779
782.00 0.3777
782.10 0.3776
782.20 0.3775
782.30 0.3774
782.40 0.3772
782.50 0.3771
782.60 0.377
782.70 0.3769
782.80 0.3767
782.90 0.3766
783.00 0.3765
783.10 0.3764
783.20 0.3763
783.30 0.3761
783.40 0.376
783.50 0.3759
783.60 0.3758
783.70 0.3756
783.80 0.3755
783.90 0.3754
784.00 0.3753
784.10 0.3752
784.20 0.375
784.30 0.3749
784.40 0.3748
784.50 0.3747
784.60 0.3745
784.70 0.3744
784.80 0.3743
784.90 0.3742
785.00 0.3741
785.10 0.3739
785.20 0.3738
785.30 0.3737
785.40 0.3736
785.50 0.3735
785.60 0.3733
785.70 0.3732
785.80 0.3731
785.90 0.373
786.00 0.3728
786.10 0.3727
786.20 0.3726
786.30 0.3725
786.40 0.3724
786.50 0.3722
786.60 0.3721
786.70 0.372
786.80 0.3719
786.90 0.3718
787.00 0.3716
787.10 0.3715
787.20 0.3714
787.30 0.3713
787.40 0.3712
787.50 0.371
787.60 0.3709
787.70 0.3708
787.80 0.3707
787.90 0.3706
788.00 0.3704
788.10 0.3703
788.20 0.3702
788.30 0.3701
788.40 0.37
788.50 0.3698
788.60 0.3697
788.70 0.3696
788.80 0.3695
788.90 0.3694
789.00 0.3692
789.10 0.3691
789.20 0.369
789.30 0.3689
789.40 0.3688
789.50 0.3686
789.60 0.3685
789.70 0.3684
789.80 0.3683
789.90 0.3682
790.00 0.368
790.10 0.3679
790.20 0.3678
790.30 0.3677
790.40 0.3676
790.50 0.3674
790.60 0.3673
790.70 0.3672
790.80 0.3671
790.90 0.367
791.00 0.3669
791.10 0.3667
791.20 0.3666
791.30 0.3665
791.40 0.3664
791.50 0.3663
791.60 0.3661
791.70 0.366
791.80 0.3659
791.90 0.3658
792.00 0.3657
792.10 0.3655
792.20 0.3654
792.30 0.3653
792.40 0.3652
792.50 0.3651
792.60 0.365
792.70 0.3648
792.80 0.3647
792.90 0.3646
793.00 0.3645
793.10 0.3644
793.20 0.3643
793.30 0.3641
793.40 0.364
793.50 0.3639
793.60 0.3638
793.70 0.3637
793.80 0.3635
793.90 0.3634
794.00 0.3633
794.10 0.3632
794.20 0.3631
794.30 0.363
794.40 0.3628
794.50 0.3627
794.60 0.3626
794.70 0.3625
794.80 0.3624
794.90 0.3623
795.00 0.3621
795.10 0.362
795.20 0.3619
795.30 0.3618
795.40 0.3617
795.50 0.3616
795.60 0.3614
795.70 0.3613
795.80 0.3612
795.90 0.3611
796.00 0.361
796.10 0.3609
796.20 0.3607
796.30 0.3606
796.40 0.3605
796.50 0.3604
796.60 0.3603
796.70 0.3602
796.80 0.36
796.90 0.3599
797.00 0.3598
797.10 0.3597
797.20 0.3596
797.30 0.3595
797.40 0.3593
797.50 0.3592
797.60 0.3591
797.70 0.359
797.80 0.3589
797.90 0.3588
798.00 0.3586
798.10 0.3585
798.20 0.3584
798.30 0.3583
798.40 0.3582
798.50 0.3581
798.60 0.358
798.70 0.3578
798.80 0.3577
798.90 0.3576
799.00 0.3575
799.10 0.3574
799.20 0.3573
799.30 0.3572
799.40 0.357
799.50 0.3569
799.60 0.3568
799.70 0.3567
799.80 0.3566
799.90 0.3565
800.00 0.3563
800.10 0.3562
800.20 0.3561
800.30 0.356
800.40 0.3559
800.50 0.3558
800.60 0.3557
800.70 0.3555
800.80 0.3554
800.90 0.3553
801.00 0.3552
801.10 0.3551
801.20 0.355
801.30 0.3549
801.40 0.3547
801.50 0.3546
801.60 0.3545
801.70 0.3544
801.80 0.3543
801.90 0.3542
802.00 0.3541
802.10 0.3539
802.20 0.3538
802.30 0.3537
802.40 0.3536
802.50 0.3535
802.60 0.3534
802.70 0.3533
802.80 0.3532
802.90 0.353
803.00 0.3529
803.10 0.3528
803.20 0.3527
803.30 0.3526
803.40 0.3525
803.50 0.3524
803.60 0.3522
803.70 0.3521
803.80 0.352
803.90 0.3519
804.00 0.3518
804.10 0.3517
804.20 0.3516
804.30 0.3515
804.40 0.3513
804.50 0.3512
804.60 0.3511
804.70 0.351
804.80 0.3509
804.90 0.3508
805.00 0.3507
805.10 0.3506
805.20 0.3504
805.30 0.3503
805.40 0.3502
805.50 0.3501
805.60 0.35
805.70 0.3499
805.80 0.3498
805.90 0.3497
806.00 0.3495
806.10 0.3494
806.20 0.3493
806.30 0.3492
806.40 0.3491
806.50 0.349
806.60 0.3489
806.70 0.3488
806.80 0.3486
806.90 0.3485
807.00 0.3484
807.10 0.3483
807.20 0.3482
807.30 0.3481
807.40 0.348
807.50 0.3479
807.60 0.3478
807.70 0.3476
807.80 0.3475
807.90 0.3474
808.00 0.3473
808.10 0.3472
808.20 0.3471
808.30 0.347
808.40 0.3469
808.50 0.3468
808.60 0.3466
808.70 0.3465
808.80 0.3464
808.90 0.3463
809.00 0.3462
809.10 0.3461
809.20 0.346
809.30 0.3459
809.40 0.3458
809.50 0.3456
809.60 0.3455
809.70 0.3454
809.80 0.3453
809.90 0.3452
810.00 0.3451
810.10 0.345
810.20 0.3449
810.30 0.3448
810.40 0.3447
810.50 0.3445
810.60 0.3444
810.70 0.3443
810.80 0.3442
810.90 0.3441
811.00 0.344
811.10 0.3439
811.20 0.3438
811.30 0.3437
811.40 0.3436
811.50 0.3434
811.60 0.3433
811.70 0.3432
811.80 0.3431
811.90 0.343
812.00 0.3429
812.10 0.3428
812.20 0.3427
812.30 0.3426
812.40 0.3425
812.50 0.3423
812.60 0.3422
812.70 0.3421
812.80 0.342
812.90 0.3419
813.00 0.3418
813.10 0.3417
813.20 0.3416
813.30 0.3415
813.40 0.3414
813.50 0.3413
813.60 0.3412
813.70 0.341
813.80 0.3409
813.90 0.3408
814.00 0.3407
814.10 0.3406
814.20 0.3405
814.30 0.3404
814.40 0.3403
814.50 0.3402
814.60 0.3401
814.70 0.34
814.80 0.3398
814.90 0.3397
815.00 0.3396
815.10 0.3395
815.20 0.3394
815.30 0.3393
815.40 0.3392
815.50 0.3391
815.60 0.339
815.70 0.3389
815.80 0.3388
815.90 0.3387
816.00 0.3386
816.10 0.3384
816.20 0.3383
816.30 0.3382
816.40 0.3381
816.50 0.338
816.60 0.3379
816.70 0.3378
816.80 0.3377
816.90 0.3376
817.00 0.3375
817.10 0.3374
817.20 0.3373
817.30 0.3372
817.40 0.337
817.50 0.3369
817.60 0.3368
817.70 0.3367
817.80 0.3366
817.90 0.3365
818.00 0.3364
818.10 0.3363
818.20 0.3362
818.30 0.3361
818.40 0.336
818.50 0.3359
818.60 0.3358
818.70 0.3357
818.80 0.3356
818.90 0.3354
819.00 0.3353
819.10 0.3352
819.20 0.3351
819.30 0.335
819.40 0.3349
819.50 0.3348
819.60 0.3347
819.70 0.3346
819.80 0.3345
819.90 0.3344
820.00 0.3343
820.10 0.3342
820.20 0.3341
820.30 0.334
820.40 0.3339
820.50 0.3338
820.60 0.3337
820.70 0.3336
820.80 0.3334
820.90 0.3333
821.00 0.3332
821.10 0.3331
821.20 0.333
821.30 0.3329
821.40 0.3328
821.50 0.3327
821.60 0.3326
821.70 0.3325
821.80 0.3324
821.90 0.3323
822.00 0.3322
822.10 0.3321
822.20 0.332
822.30 0.3319
822.40 0.3318
822.50 0.3317
822.60 0.3315
822.70 0.3314
822.80 0.3313
822.90 0.3312
823.00 0.3311
823.10 0.331
823.20 0.3309
823.30 0.3308
823.40 0.3307
823.50 0.3306
823.60 0.3305
823.70 0.3304
823.80 0.3303
823.90 0.3302
824.00 0.3301
824.10 0.33
824.20 0.3299
824.30 0.3298
824.40 0.3297
824.50 0.3296
824.60 0.3295
824.70 0.3293
824.80 0.3292
824.90 0.3291
825.00 0.329
825.10 0.3289
825.20 0.3288
825.30 0.3287
825.40 0.3286
825.50 0.3285
825.60 0.3284
825.70 0.3283
825.80 0.3282
825.90 0.3281
826.00 0.328
826.10 0.3279
826.20 0.3278
826.30 0.3277
826.40 0.3276
826.50 0.3275
826.60 0.3274
826.70 0.3273
826.80 0.3272
826.90 0.3271
827.00 0.327
827.10 0.3269
827.20 0.3268
827.30 0.3266
827.40 0.3265
827.50 0.3264
827.60 0.3263
827.70 0.3262
827.80 0.3261
827.90 0.326
828.00 0.3259
828.10 0.3258
828.20 0.3257
828.30 0.3256
828.40 0.3255
828.50 0.3254
828.60 0.3253
828.70 0.3252
828.80 0.3251
828.90 0.325
829.00 0.3249
829.10 0.3248
829.20 0.3247
829.30 0.3246
829.40 0.3245
829.50 0.3244
829.60 0.3243
829.70 0.3242
829.80 0.3241
829.90 0.324
830.00 0.3239
830.10 0.3238
830.20 0.3237
830.30 0.3236
830.40 0.3235
830.50 0.3234
830.60 0.3233
830.70 0.3232
830.80 0.3231
830.90 0.323
831.00 0.3229
831.10 0.3228
831.20 0.3227
831.30 0.3225
831.40 0.3224
831.50 0.3223
831.60 0.3222
831.70 0.3221
831.80 0.322
831.90 0.3219
832.00 0.3218
832.10 0.3217
832.20 0.3216
832.30 0.3215
832.40 0.3214
832.50 0.3213
832.60 0.3212
832.70 0.3211
832.80 0.321
832.90 0.3209
833.00 0.3208
833.10 0.3207
833.20 0.3206
833.30 0.3205
833.40 0.3204
833.50 0.3203
833.60 0.3202
833.70 0.3201
833.80 0.32
833.90 0.3199
834.00 0.3198
834.10 0.3197
834.20 0.3196
834.30 0.3195
834.40 0.3194
834.50 0.3193
834.60 0.3192
834.70 0.3191
834.80 0.319
834.90 0.3189
835.00 0.3188
835.10 0.3187
835.20 0.3186
835.30 0.3185
835.40 0.3184
835.50 0.3183
835.60 0.3182
835.70 0.3181
835.80 0.318
835.90 0.3179
836.00 0.3178
836.10 0.3177
836.20 0.3176
836.30 0.3175
836.40 0.3174
836.50 0.3173
836.60 0.3172
836.70 0.3171
836.80 0.317
836.90 0.3169
837.00 0.3168
837.10 0.3167
837.20 0.3166
837.30 0.3165
837.40 0.3164
837.50 0.3163
837.60 0.3162
837.70 0.3161
837.80 0.316
837.90 0.3159
838.00 0.3158
838.10 0.3157
838.20 0.3156
838.30 0.3155
838.40 0.3154
838.50 0.3153
838.60 0.3152
838.70 0.3151
838.80 0.315
838.90 0.3149
839.00 0.3148
839.10 0.3147
839.20 0.3146
839.30 0.3145
839.40 0.3144
839.50 0.3143
839.60 0.3142
839.70 0.3141
839.80 0.314
839.90 0.3139
840.00 0.3138
840.10 0.3137
840.20 0.3136
840.30 0.3135
840.40 0.3134
840.50 0.3133
840.60 0.3132
840.70 0.3132
840.80 0.3131
840.90 0.313
841.00 0.3129
841.10 0.3128
841.20 0.3127
841.30 0.3126
841.40 0.3125
841.50 0.3124
841.60 0.3123
841.70 0.3122
841.80 0.3121
841.90 0.312
842.00 0.3119
842.10 0.3118
842.20 0.3117
842.30 0.3116
842.40 0.3115
842.50 0.3114
842.60 0.3113
842.70 0.3112
842.80 0.3111
842.90 0.311
843.00 0.3109
843.10 0.3108
843.20 0.3107
843.30 0.3106
843.40 0.3105
843.50 0.3104
843.60 0.3103
843.70 0.3102
843.80 0.3101
843.90 0.31
844.00 0.3099
844.10 0.3098
844.20 0.3097
844.30 0.3096
844.40 0.3095
844.50 0.3094
844.60 0.3094
844.70 0.3093
844.80 0.3092
844.90 0.3091
845.00 0.309
845.10 0.3089
845.20 0.3088
845.30 0.3087
845.40 0.3086
845.50 0.3085
845.60 0.3084
845.70 0.3083
845.80 0.3082
845.90 0.3081
846.00 0.308
846.10 0.3079
846.20 0.3078
846.30 0.3077
846.40 0.3076
846.50 0.3075
846.60 0.3074
846.70 0.3073
846.80 0.3072
846.90 0.3071
847.00 0.307
847.10 0.3069
847.20 0.3069
847.30 0.3068
847.40 0.3067
847.50 0.3066
847.60 0.3065
847.70 0.3064
847.80 0.3063
847.90 0.3062
848.00 0.3061
848.10 0.306
848.20 0.3059
848.30 0.3058
848.40 0.3057
848.50 0.3056
848.60 0.3055
848.70 0.3054
848.80 0.3053
848.90 0.3052
849.00 0.3051
849.10 0.305
849.20 0.3049
849.30 0.3048
849.40 0.3048
849.50 0.3047
849.60 0.3046
849.70 0.3045
849.80 0.3044
849.90 0.3043
850.00 0.3042
850.10 0.3041
850.20 0.304
850.30 0.3039
850.40 0.3038
850.50 0.3037
850.60 0.3036
850.70 0.3035
850.80 0.3034
850.90 0.3033
851.00 0.3032
851.10 0.3031
851.20 0.303
851.30 0.303
851.40 0.3029
851.50 0.3028
851.60 0.3027
851.70 0.3026
851.80 0.3025
851.90 0.3024
852.00 0.3023
852.10 0.3022
852.20 0.3021
852.30 0.302
852.40 0.3019
852.50 0.3018
852.60 0.3017
852.70 0.3016
852.80 0.3015
852.90 0.3014
853.00 0.3014
853.10 0.3013
853.20 0.3012
853.30 0.3011
853.40 0.301
853.50 0.3009
853.60 0.3008
853.70 0.3007
853.80 0.3006
853.90 0.3005
854.00 0.3004
854.10 0.3003
854.20 0.3002
854.30 0.3001
854.40 0.3
854.50 0.3
854.60 0.2999
854.70 0.2998
854.80 0.2997
854.90 0.2996
855.00 0.2995
855.10 0.2994
855.20 0.2993
855.30 0.2992
855.40 0.2991
855.50 0.299
855.60 0.2989
855.70 0.2988
855.80 0.2987
855.90 0.2987
856.00 0.2986
856.10 0.2985
856.20 0.2984
856.30 0.2983
856.40 0.2982
856.50 0.2981
856.60 0.298
856.70 0.2979
856.80 0.2978
856.90 0.2977
857.00 0.2976
857.10 0.2975
857.20 0.2975
857.30 0.2974
857.40 0.2973
857.50 0.2972
857.60 0.2971
857.70 0.297
857.80 0.2969
857.90 0.2968
858.00 0.2967
858.10 0.2966
858.20 0.2965
858.30 0.2964
858.40 0.2964
858.50 0.2963
858.60 0.2962
858.70 0.2961
858.80 0.296
858.90 0.2959
859.00 0.2958
859.10 0.2957
859.20 0.2956
859.30 0.2955
859.40 0.2954
859.50 0.2953
859.60 0.2953
859.70 0.2952
859.80 0.2951
859.90 0.295
860.00 0.2949
860.10 0.2948
860.20 0.2947
860.30 0.2946
860.40 0.2945
860.50 0.2944
860.60 0.2943
860.70 0.2942
860.80 0.2942
860.90 0.2941
861.00 0.294
861.10 0.2939
861.20 0.2938
861.30 0.2937
861.40 0.2936
861.50 0.2935
861.60 0.2934
861.70 0.2933
861.80 0.2932
861.90 0.2932
862.00 0.2931
862.10 0.293
862.20 0.2929
862.30 0.2928
862.40 0.2927
862.50 0.2926
862.60 0.2925
862.70 0.2924
862.80 0.2923
862.90 0.2922
863.00 0.2922
863.10 0.2921
863.20 0.292
863.30 0.2919
863.40 0.2918
863.50 0.2917
863.60 0.2916
863.70 0.2915
863.80 0.2914
863.90 0.2913
864.00 0.2913
864.10 0.2912
864.20 0.2911
864.30 0.291
864.40 0.2909
864.50 0.2908
864.60 0.2907
864.70 0.2906
864.80 0.2905
864.90 0.2904
865.00 0.2904
865.10 0.2903
865.20 0.2902
865.30 0.2901
865.40 0.29
865.50 0.2899
865.60 0.2898
865.70 0.2897
865.80 0.2896
865.90 0.2895
866.00 0.2895
866.10 0.2894
866.20 0.2893
866.30 0.2892
866.40 0.2891
866.50 0.289
866.60 0.2889
866.70 0.2888
866.80 0.2887
866.90 0.2887
867.00 0.2886
867.10 0.2885
867.20 0.2884
867.30 0.2883
867.40 0.2882
867.50 0.2881
867.60 0.288
867.70 0.2879
867.80 0.2879
867.90 0.2878
868.00 0.2877
868.10 0.2876
868.20 0.2875
868.30 0.2874
868.40 0.2873
868.50 0.2872
868.60 0.2871
868.70 0.2871
868.80 0.287
868.90 0.2869
869.00 0.2868
869.10 0.2867
869.20 0.2866
869.30 0.2865
869.40 0.2864
869.50 0.2864
869.60 0.2863
869.70 0.2862
869.80 0.2861
869.90 0.286
870.00 0.2859
870.10 0.2858
870.20 0.2857
870.30 0.2857
870.40 0.2856
870.50 0.2855
870.60 0.2854
870.70 0.2853
870.80 0.2852
870.90 0.2851
871.00 0.285
871.10 0.285
871.20 0.2849
871.30 0.2848
871.40 0.2847
871.50 0.2846
871.60 0.2845
871.70 0.2844
871.80 0.2844
871.90 0.2843
872.00 0.2842
872.10 0.2841
872.20 0.284
872.30 0.2839
872.40 0.2838
872.50 0.2837
872.60 0.2837
872.70 0.2836
872.80 0.2835
872.90 0.2834
873.00 0.2833
873.10 0.2832
873.20 0.2831
873.30 0.283
873.40 0.283
873.50 0.2829
873.60 0.2828
873.70 0.2827
873.80 0.2826
873.90 0.2825
874.00 0.2824
874.10 0.2823
874.20 0.2823
874.30 0.2822
874.40 0.2821
874.50 0.282
874.60 0.2819
874.70 0.2818
874.80 0.2817
874.90 0.2817
875.00 0.2816
875.10 0.2815
875.20 0.2814
875.30 0.2813
875.40 0.2812
875.50 0.2811
875.60 0.281
875.70 0.281
875.80 0.2809
875.90 0.2808
876.00 0.2807
876.10 0.2806
876.20 0.2805
876.30 0.2804
876.40 0.2804
876.50 0.2803
876.60 0.2802
876.70 0.2801
876.80 0.28
876.90 0.2799
877.00 0.2798
877.10 0.2798
877.20 0.2797
877.30 0.2796
877.40 0.2795
877.50 0.2794
877.60 0.2793
877.70 0.2792
877.80 0.2792
877.90 0.2791
878.00 0.279
878.10 0.2789
878.20 0.2788
878.30 0.2787
878.40 0.2787
878.50 0.2786
878.60 0.2785
878.70 0.2784
878.80 0.2783
878.90 0.2782
879.00 0.2781
879.10 0.2781
879.20 0.278
879.30 0.2779
879.40 0.2778
879.50 0.2777
879.60 0.2776
879.70 0.2776
879.80 0.2775
879.90 0.2774
880.00 0.2773
880.10 0.2772
880.20 0.2771
880.30 0.277
880.40 0.277
880.50 0.2769
880.60 0.2768
880.70 0.2767
880.80 0.2766
880.90 0.2765
881.00 0.2765
881.10 0.2764
881.20 0.2763
881.30 0.2762
881.40 0.2761
881.50 0.276
881.60 0.276
881.70 0.2759
881.80 0.2758
881.90 0.2757
882.00 0.2756
882.10 0.2755
882.20 0.2754
882.30 0.2754
882.40 0.2753
882.50 0.2752
882.60 0.2751
882.70 0.275
882.80 0.2749
882.90 0.2748
883.00 0.2748
883.10 0.2747
883.20 0.2746
883.30 0.2745
883.40 0.2744
883.50 0.2743
883.60 0.2742
883.70 0.2742
883.80 0.2741
883.90 0.274
884.00 0.2739
884.10 0.2738
884.20 0.2737
884.30 0.2736
884.40 0.2736
884.50 0.2735
884.60 0.2734
884.70 0.2733
884.80 0.2732
884.90 0.2731
885.00 0.273
885.10 0.273
885.20 0.2729
885.30 0.2728
885.40 0.2727
885.50 0.2726
885.60 0.2725
885.70 0.2725
885.80 0.2724
885.90 0.2723
886.00 0.2722
886.10 0.2721
886.20 0.272
886.30 0.2719
886.40 0.2719
886.50 0.2718
886.60 0.2717
886.70 0.2716
886.80 0.2715
886.90 0.2714
887.00 0.2714
887.10 0.2713
887.20 0.2712
887.30 0.2711
887.40 0.271
887.50 0.271
887.60 0.2709
887.70 0.2708
887.80 0.2707
887.90 0.2706
888.00 0.2706
888.10 0.2705
888.20 0.2704
888.30 0.2703
888.40 0.2702
888.50 0.2702
888.60 0.2701
888.70 0.27
888.80 0.2699
888.90 0.2698
889.00 0.2698
889.10 0.2697
889.20 0.2696
889.30 0.2695
889.40 0.2694
889.50 0.2694
889.60 0.2693
889.70 0.2692
889.80 0.2691
889.90 0.269
890.00 0.269
890.10 0.2689
890.20 0.2688
890.30 0.2687
890.40 0.2686
890.50 0.2686
890.60 0.2685
890.70 0.2684
890.80 0.2683
890.90 0.2682
891.00 0.2682
891.10 0.2681
891.20 0.268
891.30 0.2679
891.40 0.2679
891.50 0.2678
891.60 0.2677
891.70 0.2676
891.80 0.2675
891.90 0.2675
892.00 0.2674
892.10 0.2673
892.20 0.2672
892.30 0.2671
892.40 0.2671
892.50 0.267
892.60 0.2669
892.70 0.2668
892.80 0.2667
892.90 0.2667
893.00 0.2666
893.10 0.2665
893.20 0.2664
893.30 0.2663
893.40 0.2662
893.50 0.2662
893.60 0.2661
893.70 0.266
893.80 0.2659
893.90 0.2658
894.00 0.2658
894.10 0.2657
894.20 0.2656
894.30 0.2655
894.40 0.2654
894.50 0.2654
894.60 0.2653
894.70 0.2652
894.80 0.2651
894.90 0.265
895.00 0.265
895.10 0.2649
895.20 0.2648
895.30 0.2647
895.40 0.2646
895.50 0.2646
895.60 0.2645
895.70 0.2644
895.80 0.2643
895.90 0.2642
896.00 0.2642
896.10 0.2641
896.20 0.264
896.30 0.2639
896.40 0.2638
896.50 0.2638
896.60 0.2637
896.70 0.2636
896.80 0.2635
896.90 0.2634
897.00 0.2634
897.10 0.2633
897.20 0.2632
897.30 0.2631
897.40 0.263
897.50 0.2629
897.60 0.2629
897.70 0.2628
897.80 0.2627
897.90 0.2626
898.00 0.2625
898.10 0.2624
898.20 0.2624
898.30 0.2623
898.40 0.2622
898.50 0.2621
898.60 0.262
898.70 0.2619
898.80 0.2618
898.90 0.2618
899.00 0.2617
899.10 0.2616
899.20 0.2615
899.30 0.2614
899.40 0.2613
899.50 0.2613
899.60 0.2612
899.70 0.2611
899.80 0.261
899.90 0.2609
900.00 0.2608
900.10 0.2608
900.20 0.2607
900.30 0.2606
900.40 0.2605
900.50 0.2604
900.60 0.2603
900.70 0.2603
900.80 0.2602
900.90 0.2601
901.00 0.26
901.10 0.2599
901.20 0.2598
901.30 0.2598
901.40 0.2597
901.50 0.2596
901.60 0.2595
901.70 0.2594
901.80 0.2593
901.90 0.2593
902.00 0.2592
902.10 0.2591
902.20 0.259
902.30 0.259
902.40 0.2589
902.50 0.2588
902.60 0.2587
902.70 0.2587
902.80 0.2586
902.90 0.2585
903.00 0.2585
903.10 0.2584
903.20 0.2583
903.30 0.2582
903.40 0.2582
903.50 0.2581
903.60 0.258
903.70 0.258
903.80 0.2579
903.90 0.2578
904.00 0.2577
904.10 0.2577
904.20 0.2576
904.30 0.2575
904.40 0.2575
904.50 0.2574
904.60 0.2573
904.70 0.2572
904.80 0.2572
904.90 0.2571
905.00 0.257
905.10 0.257
905.20 0.2569
905.30 0.2568
905.40 0.2567
905.50 0.2567
905.60 0.2566
905.70 0.2565
905.80 0.2565
905.90 0.2564
906.00 0.2563
906.10 0.2562
906.20 0.2562
906.30 0.2561
906.40 0.256
906.50 0.256
906.60 0.2559
906.70 0.2558
906.80 0.2558
906.90 0.2557
907.00 0.2556
907.10 0.2555
907.20 0.2555
907.30 0.2554
907.40 0.2553
907.50 0.2552
907.60 0.2552
907.70 0.2551
907.80 0.255
907.90 0.2549
908.00 0.2549
908.10 0.2548
908.20 0.2547
908.30 0.2546
908.40 0.2546
908.50 0.2545
908.60 0.2544
908.70 0.2543
908.80 0.2543
908.90 0.2542
909.00 0.2541
909.10 0.254
909.20 0.254
909.30 0.2539
909.40 0.2538
909.50 0.2537
909.60 0.2537
909.70 0.2536
909.80 0.2535
909.90 0.2534
910.00 0.2534
910.10 0.2533
910.20 0.2532
910.30 0.2531
910.40 0.2531
910.50 0.253
910.60 0.2529
910.70 0.2528
910.80 0.2528
910.90 0.2527
911.00 0.2526
911.10 0.2525
911.20 0.2525
911.30 0.2524
911.40 0.2523
911.50 0.2522
911.60 0.2522
911.70 0.2521
911.80 0.252
911.90 0.2519
912.00 0.2519
912.10 0.2518
912.20 0.2517
912.30 0.2516
912.40 0.2516
912.50 0.2515
912.60 0.2514
912.70 0.2513
912.80 0.2513
912.90 0.2512
913.00 0.2511
913.10 0.251
913.20 0.251
913.30 0.2509
913.40 0.2508
913.50 0.2507
913.60 0.2506
913.70 0.2506
913.80 0.2505
913.90 0.2504
914.00 0.2503
914.10 0.2503
914.20 0.2502
914.30 0.2501
914.40 0.25
914.50 0.25
914.60 0.2499
914.70 0.2498
914.80 0.2497
914.90 0.2497
915.00 0.2496
915.10 0.2495
915.20 0.2494
915.30 0.2494
915.40 0.2493
915.50 0.2492
915.60 0.2491
915.70 0.2491
915.80 0.249
915.90 0.2489
916.00 0.2488
916.10 0.2488
916.20 0.2487
916.30 0.2486
916.40 0.2485
916.50 0.2485
916.60 0.2484
916.70 0.2483
916.80 0.2482
916.90 0.2482
917.00 0.2481
917.10 0.248
917.20 0.2479
917.30 0.2478
917.40 0.2477
917.50 0.2477
917.60 0.2476
917.70 0.2475
917.80 0.2474
917.90 0.2473
918.00 0.2472
918.10 0.2471
918.20 0.247
918.30 0.247
918.40 0.2469
918.50 0.2468
918.60 0.2467
918.70 0.2466
918.80 0.2465
918.90 0.2464
919.00 0.2463
919.10 0.2463
919.20 0.2462
919.30 0.2461
919.40 0.246
919.50 0.2459
919.60 0.2458
919.70 0.2457
919.80 0.2457
919.90 0.2456
920.00 0.2455
920.10 0.2454
920.20 0.2453
920.30 0.2452
920.40 0.2451
920.50 0.245
920.60 0.245
920.70 0.2449
920.80 0.2448
920.90 0.2447
921.00 0.2446
921.10 0.2445
921.20 0.2444
921.30 0.2444
921.40 0.2443
921.50 0.2442
921.60 0.2441
921.70 0.244
921.80 0.2439
921.90 0.2438
922.00 0.2438
922.10 0.2437
922.20 0.2436
922.30 0.2436
922.40 0.2435
922.50 0.2435
922.60 0.2434
922.70 0.2433
922.80 0.2433
922.90 0.2432
923.00 0.2432
923.10 0.2431
923.20 0.243
923.30 0.243
923.40 0.2429
923.50 0.2429
923.60 0.2428
923.70 0.2427
923.80 0.2427
923.90 0.2426
924.00 0.2426
924.10 0.2425
924.20 0.2424
924.30 0.2424
924.40 0.2423
924.50 0.2423
924.60 0.2422
924.70 0.2421
924.80 0.2421
924.90 0.242
925.00 0.242
925.10 0.2419
925.20 0.2418
925.30 0.2418
925.40 0.2417
925.50 0.2417
925.60 0.2416
925.70 0.2415
925.80 0.2415
925.90 0.2414
926.00 0.2414
926.10 0.2413
926.20 0.2412
926.30 0.2412
926.40 0.2411
926.50 0.2411
926.60 0.241
926.70 0.2409
926.80 0.2409
926.90 0.2408
927.00 0.2408
927.10 0.2407
927.20 0.2406
927.30 0.2406
927.40 0.2405
927.50 0.2404
927.60 0.2404
927.70 0.2403
927.80 0.2402
927.90 0.2402
928.00 0.2401
928.10 0.24
928.20 0.24
928.30 0.2399
928.40 0.2398
928.50 0.2398
928.60 0.2397
928.70 0.2396
928.80 0.2396
928.90 0.2395
929.00 0.2394
929.10 0.2394
929.20 0.2393
929.30 0.2392
929.40 0.2392
929.50 0.2391
929.60 0.239
929.70 0.239
929.80 0.2389
929.90 0.2388
930.00 0.2388
930.10 0.2387
930.20 0.2386
930.30 0.2386
930.40 0.2385
930.50 0.2384
930.60 0.2384
930.70 0.2383
930.80 0.2382
930.90 0.2382
931.00 0.2381
931.10 0.238
931.20 0.238
931.30 0.2379
931.40 0.2378
931.50 0.2378
931.60 0.2377
931.70 0.2376
931.80 0.2376
931.90 0.2375
932.00 0.2374
932.10 0.2374
932.20 0.2373
932.30 0.2372
932.40 0.2372
932.50 0.2371
932.60 0.237
932.70 0.237
932.80 0.2369
932.90 0.2368
933.00 0.2368
933.10 0.2367
933.20 0.2366
933.30 0.2366
933.40 0.2365
933.50 0.2364
933.60 0.2364
933.70 0.2363
933.80 0.2362
933.90 0.2362
934.00 0.2361
934.10 0.236
934.20 0.236
934.30 0.2359
934.40 0.2358
934.50 0.2358
934.60 0.2357
934.70 0.2356
934.80 0.2355
934.90 0.2355
935.00 0.2354
935.10 0.2353
935.20 0.2353
935.30 0.2352
935.40 0.2351
935.50 0.2351
935.60 0.235
935.70 0.2349
935.80 0.2349
935.90 0.2348
936.00 0.2347
936.10 0.2347
936.20 0.2346
936.30 0.2345
936.40 0.2345
936.50 0.2344
936.60 0.2343
936.70 0.2343
936.80 0.2342
936.90 0.2341
937.00 0.2341
937.10 0.234
937.20 0.2339
937.30 0.2338
937.40 0.2338
937.50 0.2337
937.60 0.2336
937.70 0.2336
937.80 0.2335
937.90 0.2334
938.00 0.2334
938.10 0.2333
938.20 0.2332
938.30 0.2332
938.40 0.2331
938.50 0.233
938.60 0.233
938.70 0.2329
938.80 0.2328
938.90 0.2328
939.00 0.2327
939.10 0.2326
939.20 0.2326
939.30 0.2325
939.40 0.2324
939.50 0.2324
939.60 0.2323
939.70 0.2322
939.80 0.2322
939.90 0.2321
940.00 0.232
940.10 0.2319
940.20 0.2319
940.30 0.2318
940.40 0.2317
940.50 0.2317
940.60 0.2316
940.70 0.2315
940.80 0.2315
940.90 0.2314
941.00 0.2313
941.10 0.2313
941.20 0.2312
941.30 0.2311
941.40 0.2311
941.50 0.231
941.60 0.2309
941.70 0.2309
941.80 0.2308
941.90 0.2307
942.00 0.2307
942.10 0.2306
942.20 0.2305
942.30 0.2305
942.40 0.2304
942.50 0.2303
942.60 0.2303
942.70 0.2302
942.80 0.2301
942.90 0.23
943.00 0.23
943.10 0.2299
943.20 0.2298
943.30 0.2298
943.40 0.2297
943.50 0.2296
943.60 0.2296
943.70 0.2295
943.80 0.2294
943.90 0.2294
944.00 0.2293
944.10 0.2292
944.20 0.2292
944.30 0.2291
944.40 0.229
944.50 0.229
944.60 0.2289
944.70 0.2288
944.80 0.2287
944.90 0.2287
945.00 0.2286
945.10 0.2285
945.20 0.2285
945.30 0.2284
945.40 0.2283
945.50 0.2283
945.60 0.2282
945.70 0.2281
945.80 0.2281
945.90 0.228
946.00 0.2279
946.10 0.2278
946.20 0.2278
946.30 0.2277
946.40 0.2276
946.50 0.2276
946.60 0.2275
946.70 0.2274
946.80 0.2274
946.90 0.2273
947.00 0.2272
947.10 0.2271
947.20 0.2271
947.30 0.227
947.40 0.2269
947.50 0.2269
947.60 0.2268
947.70 0.2267
947.80 0.2266
947.90 0.2265
948.00 0.2265
948.10 0.2264
948.20 0.2263
948.30 0.2262
948.40 0.2262
948.50 0.2261
948.60 0.226
948.70 0.2259
948.80 0.2259
948.90 0.2258
949.00 0.2257
949.10 0.2256
949.20 0.2256
949.30 0.2255
949.40 0.2254
949.50 0.2253
949.60 0.2252
949.70 0.2251
949.80 0.2251
949.90 0.225
950.00 0.2249
950.10 0.2248
950.20 0.2247
950.30 0.2246
950.40 0.2245
950.50 0.2245
950.60 0.2244
950.70 0.2243
950.80 0.2242
950.90 0.2241
951.00 0.224
951.10 0.2239
951.20 0.2239
951.30 0.2238
951.40 0.2237
951.50 0.2236
951.60 0.2235
951.70 0.2234
951.80 0.2233
951.90 0.2232
952.00 0.2231
952.10 0.223
952.20 0.2229
952.30 0.2227
952.40 0.2226
952.50 0.2225
952.60 0.2224
952.70 0.2223
952.80 0.2222
952.90 0.2221
953.00 0.222
953.10 0.2219
953.20 0.2218
953.30 0.2216
953.40 0.2215
953.50 0.2214
953.60 0.2214
953.70 0.2213
953.80 0.2212
953.90 0.2212
954.00 0.2212
954.10 0.2212
954.20 0.2213
954.30 0.2213
954.40 0.2209
954.50 0.2207
954.60 0.2206
954.70 0.2204
954.80 0.2203
954.90 0.2203
955.00 0.2202
955.10 0.2202
955.20 0.2201
955.30 0.2201
955.40 0.2201
955.50 0.2201
955.60 0.22
955.70 0.22
955.80 0.22
955.90 0.2199
956.00 0.2199
956.10 0.2199
956.20 0.2199
956.30 0.2198
956.40 0.2198
956.50 0.2198
956.60 0.2198
956.70 0.2197
956.80 0.2197
956.90 0.2197
957.00 0.2196
957.10 0.2196
957.20 0.2196
957.30 0.2195
957.40 0.2195
957.50 0.2195
957.60 0.2194
957.70 0.2194
957.80 0.2193
957.90 0.2193
958.00 0.2193
958.10 0.2192
958.20 0.2192
958.30 0.2191
958.40 0.2191
958.50 0.2191
958.60 0.219
958.70 0.219
958.80 0.2189
958.90 0.2189
959.00 0.2188
959.10 0.2188
959.20 0.2188
959.30 0.2187
959.40 0.2187
959.50 0.2186
959.60 0.2186
959.70 0.2185
959.80 0.2185
959.90 0.2184
960.00 0.2184
960.10 0.2183
960.20 0.2183
960.30 0.2182
960.40 0.2182
960.50 0.2181
960.60 0.2181
960.70 0.218
960.80 0.218
960.90 0.2179
961.00 0.2179
961.10 0.2178
961.20 0.2178
961.30 0.2177
961.40 0.2177
961.50 0.2176
961.60 0.2175
961.70 0.2175
961.80 0.2174
961.90 0.2174
962.00 0.2173
962.10 0.2173
962.20 0.2172
962.30 0.2172
962.40 0.2171
962.50 0.2171
962.60 0.217
962.70 0.2169
962.80 0.2169
962.90 0.2168
963.00 0.2168
963.10 0.2167
963.20 0.2167
963.30 0.2166
963.40 0.2166
963.50 0.2165
963.60 0.2164
963.70 0.2164
963.80 0.2163
963.90 0.2163
964.00 0.2162
964.10 0.2162
964.20 0.2161
964.30 0.216
964.40 0.216
964.50 0.2159
964.60 0.2159
964.70 0.2158
964.80 0.2158
964.90 0.2157
965.00 0.2156
965.10 0.2156
965.20 0.2155
965.30 0.2155
965.40 0.2154
965.50 0.2154
965.60 0.2153
965.70 0.2152
965.80 0.2152
965.90 0.2151
966.00 0.2151
966.10 0.215
966.20 0.215
966.30 0.2149
966.40 0.2148
966.50 0.2148
966.60 0.2147
966.70 0.2147
966.80 0.2146
966.90 0.2146
967.00 0.2145
967.10 0.2144
967.20 0.2144
967.30 0.2143
967.40 0.2143
967.50 0.2142
967.60 0.2141
967.70 0.2141
967.80 0.214
967.90 0.214
968.00 0.2139
968.10 0.2139
968.20 0.2138
968.30 0.2137
968.40 0.2137
968.50 0.2136
968.60 0.2136
968.70 0.2135
968.80 0.2134
968.90 0.2134
969.00 0.2133
969.10 0.2133
969.20 0.2132
969.30 0.2132
969.40 0.2131
969.50 0.213
969.60 0.213
969.70 0.2129
969.80 0.2129
969.90 0.2128
970.00 0.2127
970.10 0.2127
970.20 0.2126
970.30 0.2126
970.40 0.2125
970.50 0.2124
970.60 0.2124
970.70 0.2123
970.80 0.2123
970.90 0.2122
971.00 0.2121
971.10 0.2121
971.20 0.212
971.30 0.212
971.40 0.2119
971.50 0.2119
971.60 0.2118
971.70 0.2117
971.80 0.2117
971.90 0.2116
972.00 0.2116
972.10 0.2115
972.20 0.2114
972.30 0.2114
972.40 0.2113
972.50 0.2113
972.60 0.2112
972.70 0.2111
972.80 0.2111
972.90 0.211
973.00 0.211
973.10 0.2109
973.20 0.2108
973.30 0.2108
973.40 0.2107
973.50 0.2107
973.60 0.2106
973.70 0.2106
973.80 0.2105
973.90 0.2104
974.00 0.2104
974.10 0.2103
974.20 0.2103
974.30 0.2102
974.40 0.2101
974.50 0.2101
974.60 0.21
974.70 0.21
974.80 0.2099
974.90 0.2098
975.00 0.2098
975.10 0.2097
975.20 0.2097
975.30 0.2096
975.40 0.2096
975.50 0.2095
975.60 0.2094
975.70 0.2094
975.80 0.2093
975.90 0.2093
976.00 0.2092
976.10 0.2091
976.20 0.2091
976.30 0.209
976.40 0.209
976.50 0.2089
976.60 0.2088
976.70 0.2088
976.80 0.2087
976.90 0.2087
977.00 0.2086
977.10 0.2086
977.20 0.2085
977.30 0.2084
977.40 0.2084
977.50 0.2083
977.60 0.2083
977.70 0.2082
977.80 0.2081
977.90 0.2081
978.00 0.208
978.10 0.208
978.20 0.2079
978.30 0.2078
978.40 0.2078
978.50 0.2077
978.60 0.2077
978.70 0.2076
978.80 0.2075
978.90 0.2075
979.00 0.2074
979.10 0.2074
979.20 0.2073
979.30 0.2072
979.40 0.2072
979.50 0.2071
979.60 0.2071
979.70 0.207
979.80 0.207
979.90 0.2069
980.00 0.2068
980.10 0.2068
980.20 0.2067
980.30 0.2067
980.40 0.2066
980.50 0.2065
980.60 0.2065
980.70 0.2064
980.80 0.2064
980.90 0.2063
981.00 0.2062
981.10 0.2062
981.20 0.2061
981.30 0.2061
981.40 0.206
981.50 0.206
981.60 0.2059
981.70 0.2058
981.80 0.2058
981.90 0.2057
982.00 0.2057
982.10 0.2056
982.20 0.2055
982.30 0.2055
982.40 0.2054
982.50 0.2054
982.60 0.2053
982.70 0.2052
982.80 0.2052
982.90 0.2051
983.00 0.2051
983.10 0.205
983.20 0.2049
983.30 0.2049
983.40 0.2048
983.50 0.2048
983.60 0.2047
983.70 0.2046
983.80 0.2046
983.90 0.2045
984.00 0.2045
984.10 0.2044
984.20 0.2044
984.30 0.2043
984.40 0.2042
984.50 0.2042
984.60 0.2041
984.70 0.2041
984.80 0.204
984.90 0.2039
985.00 0.2039
985.10 0.2038
985.20 0.2038
985.30 0.2037
985.40 0.2036
985.50 0.2036
985.60 0.2035
985.70 0.2035
985.80 0.2034
985.90 0.2033
986.00 0.2033
986.10 0.2032
986.20 0.2032
986.30 0.2031
986.40 0.203
986.50 0.203
986.60 0.2029
986.70 0.2029
986.80 0.2028
986.90 0.2027
987.00 0.2027
987.10 0.2026
987.20 0.2026
987.30 0.2025
987.40 0.2024
987.50 0.2024
987.60 0.2023
987.70 0.2023
987.80 0.2022
987.90 0.2021
988.00 0.2021
988.10 0.202
988.20 0.202
988.30 0.2019
988.40 0.2018
988.50 0.2018
988.60 0.2017
988.70 0.2017
988.80 0.2016
988.90 0.2015
989.00 0.2015
989.10 0.2014
989.20 0.2013
989.30 0.2013
989.40 0.2012
989.50 0.2012
989.60 0.2011
989.70 0.201
989.80 0.201
989.90 0.2009
990.00 0.2009
990.10 0.2008
990.20 0.2007
990.30 0.2007
990.40 0.2006
990.50 0.2005
990.60 0.2005
990.70 0.2004
990.80 0.2004
990.90 0.2003
991.00 0.2002
991.10 0.2002
991.20 0.2001
991.30 0.2
991.40 0.2
991.50 0.1999
991.60 0.1999
991.70 0.1998
991.80 0.1997
991.90 0.1997
992.00 0.1996
992.10 0.1995
992.20 0.1995
992.30 0.1994
992.40 0.1993
992.50 0.1993
992.60 0.1992
992.70 0.1991
992.80 0.1991
992.90 0.199
993.00 0.1989
993.10 0.1989
993.20 0.1988
993.30 0.1987
993.40 0.1987
993.50 0.1986
993.60 0.1985
993.70 0.1985
993.80 0.1984
993.90 0.1983
994.00 0.1983
994.10 0.1982
994.20 0.1981
994.30 0.1981
994.40 0.198
994.50 0.1979
994.60 0.1979
994.70 0.1978
994.80 0.1977
994.90 0.1977
995.00 0.1976
995.10 0.1975
995.20 0.1974
995.30 0.1974
995.40 0.1973
995.50 0.1972
995.60 0.1972
995.70 0.1971
995.80 0.197
995.90 0.1969
996.00 0.1969
996.10 0.1968
996.20 0.1967
996.30 0.1966
996.40 0.1966
996.50 0.1965
996.60 0.1964
996.70 0.1963
996.80 0.1963
996.90 0.1962
997.00 0.1961
997.10 0.196
997.20 0.196
997.30 0.1959
997.40 0.1958
997.50 0.1957
997.60 0.1956
997.70 0.1956
997.80 0.1955
997.90 0.1954
998.00 0.1953
998.10 0.1952
998.20 0.1951
998.30 0.195
998.40 0.195
998.50 0.1949
998.60 0.1948
998.70 0.1947
998.80 0.1946
998.90 0.1945
999.00 0.1945
999.10 0.1944
999.20 0.1943
999.30 0.1942
999.40 0.1941
999.50 0.194
999.60 0.1939
999.70 0.1938
999.80 0.1937
999.90 0.1936
1000.00 0.1935
1000.10 0.1934
1000.20 0.1933
1000.30 0.1932
1000.40 0.1931
1000.50 0.193
1000.60 0.1929
1000.70 0.1928
1000.80 0.1927
1000.90 0.1926
1001.00 0.1925
1001.10 0.1924
1001.20 0.1923
1001.30 0.1922
1001.40 0.1921
1001.50 0.192
1001.60 0.1919
1001.70 0.1917
1001.80 0.1916
1001.90 0.1915
1002.00 0.1914
1002.10 0.1912
1002.20 0.1911
1002.30 0.191
1002.40 0.1908
1002.50 0.1907
1002.60 0.1906
1002.70 0.1904
1002.80 0.1903
1002.90 0.1902
1003.00 0.19
1003.10 0.1899
1003.20 0.1898
1003.30 0.1896
1003.40 0.1895
1003.50 0.1893
1003.60 0.1892
1003.70 0.1891
1003.80 0.1889
1003.90 0.1888
1004.00 0.1887
1004.10 0.1887
1004.20 0.1886
1004.30 0.1886
1004.40 0.1887
1004.50 0.1889
1004.60 0.1893
1004.70 0.1888
1004.80 0.1883
1004.90 0.1881
1005.00 0.188
1005.10 0.1879
1005.20 0.1879
1005.30 0.1878
1005.40 0.1878
1005.50 0.1878
1005.60 0.1879
1005.70 0.1879
1005.80 0.1879
1005.90 0.188
1006.00 0.188
1006.10 0.1881
1006.20 0.1881
1006.30 0.1881
1006.40 0.1881
1006.50 0.1882
1006.60 0.1882
1006.70 0.1882
1006.80 0.1882
1006.90 0.1883
1007.00 0.1883
1007.10 0.1883
1007.20 0.1883
1007.30 0.1883
1007.40 0.1883
1007.50 0.1883
1007.60 0.1884
1007.70 0.1884
1007.80 0.1883
1007.90 0.1883
1008.00 0.1883
1008.10 0.1883
1008.20 0.1883
1008.30 0.1883
1008.40 0.1883
1008.50 0.1883
1008.60 0.1883
1008.70 0.1883
1008.80 0.1883
1008.90 0.1883
1009.00 0.1883
1009.10 0.1883
1009.20 0.1883
1009.30 0.1882
1009.40 0.1882
1009.50 0.1882
1009.60 0.1882
1009.70 0.1882
1009.80 0.1882
1009.90 0.1882
1010.00 0.1881
1010.10 0.1881
1010.20 0.1881
1010.30 0.1881
1010.40 0.1881
1010.50 0.188
1010.60 0.188
1010.70 0.188
1010.80 0.188
1010.90 0.1879
1011.00 0.1879
1011.10 0.1879
1011.20 0.1879
1011.30 0.1878
1011.40 0.1878
1011.50 0.1878
1011.60 0.1878
1011.70 0.1877
1011.80 0.1877
1011.90 0.1877
1012.00 0.1877
1012.10 0.1876
1012.20 0.1876
1012.30 0.1876
1012.40 0.1875
1012.50 0.1875
1012.60 0.1875
1012.70 0.1874
1012.80 0.1874
1012.90 0.1874
1013.00 0.1873
1013.10 0.1873
1013.20 0.1873
1013.30 0.1872
1013.40 0.1872
1013.50 0.1872
1013.60 0.1871
1013.70 0.1871
1013.80 0.1871
1013.90 0.187
1014.00 0.187
1014.10 0.187
1014.20 0.1869
1014.30 0.1869
1014.40 0.1869
1014.50 0.1868
1014.60 0.1868
1014.70 0.1867
1014.80 0.1867
1014.90 0.1867
1015.00 0.1866
1015.10 0.1866
1015.20 0.1866
1015.30 0.1865
1015.40 0.1865
1015.50 0.1864
1015.60 0.1864
1015.70 0.1864
1015.80 0.1863
1015.90 0.1863
1016.00 0.1862
1016.10 0.1862
1016.20 0.1862
1016.30 0.1861
1016.40 0.1861
1016.50 0.186
1016.60 0.186
1016.70 0.186
1016.80 0.1859
1016.90 0.1859
1017.00 0.1858
1017.10 0.1858
1017.20 0.1858
1017.30 0.1857
1017.40 0.1857
1017.50 0.1856
1017.60 0.1856
1017.70 0.1855
1017.80 0.1855
1017.90 0.1855
1018.00 0.1854
1018.10 0.1854
1018.20 0.1853
1018.30 0.1853
1018.40 0.1852
1018.50 0.1852
1018.60 0.1852
1018.70 0.1851
1018.80 0.1851
1018.90 0.185
1019.00 0.185
1019.10 0.1849
1019.20 0.1849
1019.30 0.1848
1019.40 0.1848
1019.50 0.1848
1019.60 0.1847
1019.70 0.1847
1019.80 0.1846
1019.90 0.1846
1020.00 0.1845
1020.10 0.1845
1020.20 0.1844
1020.30 0.1844
1020.40 0.1844
1020.50 0.1843
1020.60 0.1843
1020.70 0.1842
1020.80 0.1842
1020.90 0.1841
1021.00 0.1841
1021.10 0.184
1021.20 0.184
1021.30 0.184
1021.40 0.1839
1021.50 0.1839
1021.60 0.1838
1021.70 0.1838
1021.80 0.1837
1021.90 0.1837
1022.00 0.1836
1022.10 0.1836
1022.20 0.1835
1022.30 0.1835
1022.40 0.1835
1022.50 0.1834
1022.60 0.1834
1022.70 0.1833
1022.80 0.1833
1022.90 0.1832
1023.00 0.1832
1023.10 0.1831
1023.20 0.1831
1023.30 0.183
1023.40 0.183
1023.50 0.1829
1023.60 0.1829
1023.70 0.1828
1023.80 0.1828
1023.90 0.1827
1024.00 0.1827
1024.10 0.1827
1024.20 0.1826
1024.30 0.1826
1024.40 0.1825
1024.50 0.1825
1024.60 0.1824
1024.70 0.1824
1024.80 0.1823
1024.90 0.1823
1025.00 0.1822
1025.10 0.1822
1025.20 0.1821
1025.30 0.1821
1025.40 0.182
1025.50 0.182
1025.60 0.182
1025.70 0.1819
1025.80 0.1819
1025.90 0.1818
1026.00 0.1818
1026.10 0.1817
1026.20 0.1817
1026.30 0.1816
1026.40 0.1816
1026.50 0.1815
1026.60 0.1815
1026.70 0.1814
1026.80 0.1814
1026.90 0.1813
1027.00 0.1813
1027.10 0.1812
1027.20 0.1812
1027.30 0.1811
1027.40 0.1811
1027.50 0.1811
1027.60 0.181
1027.70 0.181
1027.80 0.1809
1027.90 0.1809
1028.00 0.1808
1028.10 0.1808
1028.20 0.1807
1028.30 0.1807
1028.40 0.1806
1028.50 0.1806
1028.60 0.1805
1028.70 0.1805
1028.80 0.1804
1028.90 0.1804
1029.00 0.1803
1029.10 0.1803
1029.20 0.1802
1029.30 0.1802
1029.40 0.1801
1029.50 0.1801
1029.60 0.18
1029.70 0.18
1029.80 0.18
1029.90 0.1799
1030.00 0.1799
1030.10 0.1798
1030.20 0.1798
1030.30 0.1797
1030.40 0.1797
1030.50 0.1796
1030.60 0.1796
1030.70 0.1795
1030.80 0.1795
1030.90 0.1794
1031.00 0.1794
1031.10 0.1793
1031.20 0.1793
1031.30 0.1792
1031.40 0.1792
1031.50 0.1791
1031.60 0.1791
1031.70 0.1791
1031.80 0.179
1031.90 0.179
1032.00 0.1789
1032.10 0.1789
1032.20 0.1788
1032.30 0.1788
1032.40 0.1787
1032.50 0.1787
1032.60 0.1786
1032.70 0.1786
1032.80 0.1785
1032.90 0.1785
1033.00 0.1784
1033.10 0.1784
1033.20 0.1783
1033.30 0.1783
1033.40 0.1782
1033.50 0.1782
1033.60 0.1781
1033.70 0.1781
1033.80 0.178
1033.90 0.178
1034.00 0.178
1034.10 0.1779
1034.20 0.1779
1034.30 0.1778
1034.40 0.1778
1034.50 0.1777
1034.60 0.1777
1034.70 0.1776
1034.80 0.1776
1034.90 0.1775
1035.00 0.1775
1035.10 0.1774
1035.20 0.1774
1035.30 0.1773
1035.40 0.1773
1035.50 0.1772
1035.60 0.1772
1035.70 0.1771
1035.80 0.1771
1035.90 0.177
1036.00 0.177
1036.10 0.177
1036.20 0.1769
1036.30 0.1769
1036.40 0.1768
1036.50 0.1768
1036.60 0.1767
1036.70 0.1767
1036.80 0.1766
1036.90 0.1766
1037.00 0.1765
1037.10 0.1765
1037.20 0.1764
1037.30 0.1764
1037.40 0.1763
1037.50 0.1763
1037.60 0.1762
1037.70 0.1762
1037.80 0.1761
1037.90 0.1761
1038.00 0.1761
1038.10 0.176
1038.20 0.176
1038.30 0.1759
1038.40 0.1759
1038.50 0.1758
1038.60 0.1758
1038.70 0.1757
1038.80 0.1757
1038.90 0.1756
1039.00 0.1756
1039.10 0.1755
1039.20 0.1755
1039.30 0.1754
1039.40 0.1754
1039.50 0.1753
1039.60 0.1753
1039.70 0.1752
1039.80 0.1752
1039.90 0.1752
1040.00 0.1751
1040.10 0.1751
1040.20 0.175
1040.30 0.175
1040.40 0.1749
1040.50 0.1749
1040.60 0.1748
1040.70 0.1748
1040.80 0.1747
1040.90 0.1747
1041.00 0.1746
1041.10 0.1746
1041.20 0.1745
1041.30 0.1745
1041.40 0.1745
1041.50 0.1744
1041.60 0.1744
1041.70 0.1743
1041.80 0.1743
1041.90 0.1742
1042.00 0.1742
1042.10 0.1741
1042.20 0.1741
1042.30 0.174
1042.40 0.174
1042.50 0.1739
1042.60 0.1739
1042.70 0.1738
1042.80 0.1738
1042.90 0.1737
1043.00 0.1737
1043.10 0.1736
1043.20 0.1736
1043.30 0.1736
1043.40 0.1735
1043.50 0.1735
1043.60 0.1734
1043.70 0.1734
1043.80 0.1733
1043.90 0.1733
1044.00 0.1732
1044.10 0.1732
1044.20 0.1731
1044.30 0.1731
1044.40 0.173
1044.50 0.173
1044.60 0.1729
1044.70 0.1729
1044.80 0.1729
1044.90 0.1728
1045.00 0.1728
1045.10 0.1727
1045.20 0.1727
1045.30 0.1726
1045.40 0.1726
1045.50 0.1725
1045.60 0.1725
1045.70 0.1724
1045.80 0.1724
1045.90 0.1723
1046.00 0.1723
1046.10 0.1722
1046.20 0.1722
1046.30 0.1721
1046.40 0.1721
1046.50 0.1721
1046.60 0.172
1046.70 0.172
1046.80 0.1719
1046.90 0.1719
1047.00 0.1718
1047.10 0.1718
1047.20 0.1717
1047.30 0.1717
1047.40 0.1716
1047.50 0.1716
1047.60 0.1715
1047.70 0.1715
1047.80 0.1714
1047.90 0.1714
1048.00 0.1714
1048.10 0.1713
1048.20 0.1713
1048.30 0.1712
1048.40 0.1712
1048.50 0.1711
1048.60 0.1711
1048.70 0.171
1048.80 0.171
1048.90 0.1709
1049.00 0.1709
1049.10 0.1708
1049.20 0.1708
1049.30 0.1708
1049.40 0.1707
1049.50 0.1707
1049.60 0.1706
1049.70 0.1706
1049.80 0.1705
1049.90 0.1705
1050.00 0.1704
1050.10 0.1704
1050.20 0.1703
1050.30 0.1703
1050.40 0.1702
1050.50 0.1702
1050.60 0.1701
1050.70 0.1701
1050.80 0.1701
1050.90 0.17
1051.00 0.17
1051.10 0.1699
1051.20 0.1699
1051.30 0.1698
1051.40 0.1698
1051.50 0.1697
1051.60 0.1697
1051.70 0.1696
1051.80 0.1696
1051.90 0.1695
1052.00 0.1695
1052.10 0.1695
1052.20 0.1694
1052.30 0.1694
1052.40 0.1693
1052.50 0.1693
1052.60 0.1692
1052.70 0.1692
1052.80 0.1691
1052.90 0.1691
1053.00 0.169
1053.10 0.169
1053.20 0.1689
1053.30 0.1689
1053.40 0.1689
1053.50 0.1688
1053.60 0.1688
1053.70 0.1687
1053.80 0.1687
1053.90 0.1686
1054.00 0.1686
1054.10 0.1685
1054.20 0.1685
1054.30 0.1684
1054.40 0.1684
1054.50 0.1684
1054.60 0.1683
1054.70 0.1683
1054.80 0.1682
1054.90 0.1682
1055.00 0.1681
1055.10 0.1681
1055.20 0.168
1055.30 0.168
1055.40 0.1679
1055.50 0.1679
1055.60 0.1678
1055.70 0.1678
1055.80 0.1678
1055.90 0.1677
1056.00 0.1677
1056.10 0.1676
1056.20 0.1676
1056.30 0.1675
1056.40 0.1675
1056.50 0.1674
1056.60 0.1674
1056.70 0.1673
1056.80 0.1673
1056.90 0.1673
1057.00 0.1672
1057.10 0.1672
1057.20 0.1671
1057.30 0.1671
1057.40 0.167
1057.50 0.167
1057.60 0.1669
1057.70 0.1669
1057.80 0.1668
1057.90 0.1668
1058.00 0.1668
1058.10 0.1667
1058.20 0.1667
1058.30 0.1666
1058.40 0.1666
1058.50 0.1665
1058.60 0.1665
1058.70 0.1664
1058.80 0.1664
1058.90 0.1663
1059.00 0.1663
1059.10 0.1662
1059.20 0.1662
1059.30 0.1662
1059.40 0.1661
1059.50 0.1661
1059.60 0.166
1059.70 0.166
1059.80 0.1659
1059.90 0.1659
1060.00 0.1658
1060.10 0.1658
1060.20 0.1657
1060.30 0.1657
1060.40 0.1657
1060.50 0.1656
1060.60 0.1656
1060.70 0.1655
1060.80 0.1655
1060.90 0.1654
1061.00 0.1654
1061.10 0.1653
1061.20 0.1653
1061.30 0.1652
1061.40 0.1652
1061.50 0.1652
1061.60 0.1651
1061.70 0.1651
1061.80 0.165
1061.90 0.165
1062.00 0.1649
1062.10 0.1649
1062.20 0.1648
1062.30 0.1648
1062.40 0.1647
1062.50 0.1647
1062.60 0.1647
1062.70 0.1646
1062.80 0.1646
1062.90 0.1645
1063.00 0.1645
1063.10 0.1644
1063.20 0.1644
1063.30 0.1643
1063.40 0.1643
1063.50 0.1642
1063.60 0.1642
1063.70 0.1641
1063.80 0.1641
1063.90 0.1641
1064.00 0.164
1064.10 0.164
1064.20 0.1639
1064.30 0.1639
1064.40 0.1638
1064.50 0.1638
1064.60 0.1637
1064.70 0.1637
1064.80 0.1636
1064.90 0.1636
1065.00 0.1636
1065.10 0.1635
1065.20 0.1635
1065.30 0.1634
1065.40 0.1634
1065.50 0.1633
1065.60 0.1633
1065.70 0.1632
1065.80 0.1632
1065.90 0.1631
1066.00 0.1631
1066.10 0.1631
1066.20 0.163
1066.30 0.163
1066.40 0.1629
1066.50 0.1629
1066.60 0.1628
1066.70 0.1628
1066.80 0.1627
1066.90 0.1627
1067.00 0.1626
1067.10 0.1626
1067.20 0.1626
1067.30 0.1625
1067.40 0.1625
1067.50 0.1624
1067.60 0.1624
1067.70 0.1623
1067.80 0.1623
1067.90 0.1622
1068.00 0.1622
1068.10 0.1621
1068.20 0.1621
1068.30 0.162
1068.40 0.162
1068.50 0.1619
1068.60 0.1619
1068.70 0.1619
1068.80 0.1618
1068.90 0.1618
1069.00 0.1617
1069.10 0.1617
1069.20 0.1616
1069.30 0.1616
1069.40 0.1615
1069.50 0.1615
1069.60 0.1614
1069.70 0.1614
1069.80 0.1613
1069.90 0.1613
1070.00 0.1612
1070.10 0.1612
1070.20 0.1612
1070.30 0.1611
1070.40 0.1611
1070.50 0.161
1070.60 0.161
1070.70 0.1609
1070.80 0.1609
1070.90 0.1608
1071.00 0.1608
1071.10 0.1607
1071.20 0.1607
1071.30 0.1606
1071.40 0.1606
1071.50 0.1606
1071.60 0.1605
1071.70 0.1605
1071.80 0.1604
1071.90 0.1604
1072.00 0.1603
1072.10 0.1603
1072.20 0.1602
1072.30 0.1602
1072.40 0.1601
1072.50 0.1601
1072.60 0.16
1072.70 0.16
1072.80 0.1599
1072.90 0.1599
1073.00 0.1598
1073.10 0.1598
1073.20 0.1597
1073.30 0.1597
1073.40 0.1597
1073.50 0.1596
1073.60 0.1596
1073.70 0.1595
1073.80 0.1595
1073.90 0.1594
1074.00 0.1594
1074.10 0.1593
1074.20 0.1593
1074.30 0.1592
1074.40 0.1592
1074.50 0.1591
1074.60 0.1591
1074.70 0.159
1074.80 0.159
1074.90 0.1589
1075.00 0.1589
1075.10 0.1588
1075.20 0.1588
1075.30 0.1587
1075.40 0.1587
1075.50 0.1586
1075.60 0.1586
1075.70 0.1585
1075.80 0.1585
1075.90 0.1584
1076.00 0.1584
1076.10 0.1583
1076.20 0.1583
1076.30 0.1582
1076.40 0.1582
1076.50 0.1581
1076.60 0.1581
1076.70 0.158
1076.80 0.158
1076.90 0.1579
1077.00 0.1579
1077.10 0.1578
1077.20 0.1578
1077.30 0.1577
1077.40 0.1577
1077.50 0.1576
1077.60 0.1576
1077.70 0.1575
1077.80 0.1575
1077.90 0.1574
1078.00 0.1573
1078.10 0.1573
1078.20 0.1572
1078.30 0.1572
1078.40 0.1571
1078.50 0.1571
1078.60 0.157
1078.70 0.157
1078.80 0.1569
1078.90 0.1569
1079.00 0.1568
1079.10 0.1568
1079.20 0.1567
1079.30 0.1567
1079.40 0.1566
1079.50 0.1565
1079.60 0.1565
1079.70 0.1564
1079.80 0.1564
1079.90 0.1563
1080.00 0.1563
1080.10 0.1562
1080.20 0.1561
1080.30 0.1561
1080.40 0.156
1080.50 0.156
1080.60 0.1559
1080.70 0.1559
1080.80 0.1558
1080.90 0.1557
1081.00 0.1557
1081.10 0.1556
1081.20 0.1556
1081.30 0.1555
1081.40 0.1554
1081.50 0.1554
1081.60 0.1553
1081.70 0.1553
1081.80 0.1552
1081.90 0.1551
1082.00 0.1551
1082.10 0.155
1082.20 0.155
1082.30 0.1549
1082.40 0.1548
1082.50 0.1548
1082.60 0.1547
1082.70 0.1546
1082.80 0.1546
1082.90 0.1545
1083.00 0.1544
1083.10 0.1544
1083.20 0.1543
1083.30 0.1543
1083.40 0.1542
1083.50 0.1541
1083.60 0.1541
1083.70 0.154
1083.80 0.1539
1083.90 0.1538
1084.00 0.1538
1084.10 0.1537
1084.20 0.1536
1084.30 0.1536
1084.40 0.1535
1084.50 0.1534
1084.60 0.1533
1084.70 0.1533
1084.80 0.1532
1084.90 0.1531
1085.00 0.153
1085.10 0.153
1085.20 0.1529
1085.30 0.1528
1085.40 0.1527
1085.50 0.1526
1085.60 0.1526
1085.70 0.1525
1085.80 0.1524
1085.90 0.1523
1086.00 0.1522
1086.10 0.1522
1086.20 0.1521
1086.30 0.152
1086.40 0.1519
1086.50 0.1519
1086.60 0.1518
1086.70 0.1517
1086.80 0.1516
1086.90 0.1515
1087.00 0.1514
1087.10 0.1513
1087.20 0.1512
1087.30 0.1511
1087.40 0.151
1087.50 0.1509
1087.60 0.1508
1087.70 0.1507
1087.80 0.1506
1087.90 0.1505
1088.00 0.1504
1088.10 0.1503
1088.20 0.1502
1088.30 0.1501
1088.40 0.1501
1088.50 0.1499
1088.60 0.1498
1088.70 0.1497
1088.80 0.1496
1088.90 0.1495
1089.00 0.1493
1089.10 0.1492
1089.20 0.1491
1089.30 0.149
1089.40 0.1488
1089.50 0.1487
1089.60 0.1486
1089.70 0.1485
1089.80 0.1483
1089.90 0.1482
1090.00 0.1481
1090.10 0.148
1090.20 0.1479
1090.30 0.1477
1090.40 0.1476
1090.50 0.1475
1090.60 0.1473
1090.70 0.1471
1090.80 0.1469
1090.90 0.1467
1091.00 0.1465
1091.10 0.1463
1091.20 0.1461
1091.30 0.146
1091.40 0.1458
1091.50 0.1456
1091.60 0.1454
1091.70 0.1452
1091.80 0.145
1091.90 0.1448
1092.00 0.1446
1092.10 0.1444
1092.20 0.1442
1092.30 0.144
1092.40 0.1438
1092.50 0.1436
1092.60 0.1434
1092.70 0.1432
1092.80 0.1431
1092.90 0.1429
1093.00 0.1427
1093.10 0.1426
1093.20 0.1427
1093.30 0.1428
1093.40 0.1433
1093.50 0.1435
1093.60 0.1428
1093.70 0.1426
1093.80 0.1424
1093.90 0.1423
1094.00 0.1424
1094.10 0.1425
1094.20 0.1426
1094.30 0.1427
1094.40 0.1429
1094.50 0.143
1094.60 0.1431
1094.70 0.1432
1094.80 0.1434
1094.90 0.1435
1095.00 0.1436
1095.10 0.1437
1095.20 0.1438
1095.30 0.1439
1095.40 0.144
1095.50 0.1441
1095.60 0.1443
1095.70 0.1444
1095.80 0.1445
1095.90 0.1446
1096.00 0.1447
1096.10 0.1448
1096.20 0.1449
1096.30 0.145
1096.40 0.1451
1096.50 0.1452
1096.60 0.1453
1096.70 0.1453
1096.80 0.1454
1096.90 0.1455
1097.00 0.1455
1097.10 0.1456
1097.20 0.1456
1097.30 0.1456
1097.40 0.1457
1097.50 0.1457
1097.60 0.1457
1097.70 0.1458
1097.80 0.1458
1097.90 0.1459
1098.00 0.1459
1098.10 0.1459
1098.20 0.146
1098.30 0.146
1098.40 0.1461
1098.50 0.1461
1098.60 0.1461
1098.70 0.1461
1098.80 0.1461
1098.90 0.1461
1099.00 0.1462
1099.10 0.1462
1099.20 0.1462
1099.30 0.1462
1099.40 0.1462
1099.50 0.1462
1099.60 0.1462
1099.70 0.1463
1099.80 0.1463
1099.90 0.1463
1100.00 0.1463
1100.10 0.1463
1100.20 0.1463
1100.30 0.1463
1100.40 0.1464
1100.50 0.1464
1100.60 0.1464
1100.70 0.1464
1100.80 0.1464
1100.90 0.1464
1101.00 0.1464
1101.10 0.1464
1101.20 0.1464
1101.30 0.1464
1101.40 0.1464
1101.50 0.1464
1101.60 0.1464
1101.70 0.1464
1101.80 0.1464
1101.90 0.1464
1102.00 0.1464
1102.10 0.1464
1102.20 0.1464
1102.30 0.1463
1102.40 0.1463
1102.50 0.1463
1102.60 0.1463
1102.70 0.1463
1102.80 0.1463
1102.90 0.1463
1103.00 0.1463
1103.10 0.1463
1103.20 0.1462
1103.30 0.1462
1103.40 0.1462
1103.50 0.1462
1103.60 0.1462
1103.70 0.1462
1103.80 0.1462
1103.90 0.1461
1104.00 0.1461
1104.10 0.1461
1104.20 0.1461
1104.30 0.1461
1104.40 0.1461
1104.50 0.146
1104.60 0.146
1104.70 0.146
1104.80 0.146
1104.90 0.146
1105.00 0.146
1105.10 0.1459
1105.20 0.1459
1105.30 0.1459
1105.40 0.1459
1105.50 0.1459
1105.60 0.1459
1105.70 0.1458
1105.80 0.1458
1105.90 0.1458
1106.00 0.1458
1106.10 0.1457
1106.20 0.1457
1106.30 0.1457
1106.40 0.1457
1106.50 0.1457
1106.60 0.1456
1106.70 0.1456
1106.80 0.1456
1106.90 0.1456
1107.00 0.1455
1107.10 0.1455
1107.20 0.1455
1107.30 0.1455
1107.40 0.1454
1107.50 0.1454
1107.60 0.1454
1107.70 0.1454
1107.80 0.1453
1107.90 0.1453
1108.00 0.1453
1108.10 0.1453
1108.20 0.1452
1108.30 0.1452
1108.40 0.1452
1108.50 0.1451
1108.60 0.1451
1108.70 0.1451
1108.80 0.1451
1108.90 0.145
1109.00 0.145
1109.10 0.145
1109.20 0.145
1109.30 0.1449
1109.40 0.1449
1109.50 0.1449
1109.60 0.1448
1109.70 0.1448
1109.80 0.1448
1109.90 0.1448
1110.00 0.1447
1110.10 0.1447
1110.20 0.1447
1110.30 0.1446
1110.40 0.1446
1110.50 0.1446
1110.60 0.1445
1110.70 0.1445
1110.80 0.1445
1110.90 0.1445
1111.00 0.1444
1111.10 0.1444
1111.20 0.1444
1111.30 0.1443
1111.40 0.1443
1111.50 0.1443
1111.60 0.1443
1111.70 0.1442
1111.80 0.1442
1111.90 0.1442
1112.00 0.1441
1112.10 0.1441
1112.20 0.1441
1112.30 0.144
1112.40 0.144
1112.50 0.144
1112.60 0.1439
1112.70 0.1439
1112.80 0.1439
1112.90 0.1439
1113.00 0.1438
1113.10 0.1438
1113.20 0.1438
1113.30 0.1437
1113.40 0.1437
1113.50 0.1437
1113.60 0.1436
1113.70 0.1436
1113.80 0.1436
1113.90 0.1435
1114.00 0.1435
1114.10 0.1435
1114.20 0.1434
1114.30 0.1434
1114.40 0.1434
1114.50 0.1433
1114.60 0.1433
1114.70 0.1433
1114.80 0.1432
1114.90 0.1432
1115.00 0.1432
1115.10 0.1431
1115.20 0.1431
1115.30 0.1431
1115.40 0.143
1115.50 0.143
1115.60 0.143
1115.70 0.1429
1115.80 0.1429
1115.90 0.1429
1116.00 0.1428
1116.10 0.1428
1116.20 0.1428
1116.30 0.1427
1116.40 0.1427
1116.50 0.1427
1116.60 0.1426
1116.70 0.1426
1116.80 0.1426
1116.90 0.1425
1117.00 0.1425
1117.10 0.1425
1117.20 0.1424
1117.30 0.1424
1117.40 0.1424
1117.50 0.1423
1117.60 0.1423
1117.70 0.1423
1117.80 0.1422
1117.90 0.1422
1118.00 0.1422
1118.10 0.1421
1118.20 0.1421
1118.30 0.1421
1118.40 0.142
1118.50 0.142
1118.60 0.142
1118.70 0.1419
1118.80 0.1419
1118.90 0.1419
1119.00 0.1418
1119.10 0.1418
1119.20 0.1418
1119.30 0.1417
1119.40 0.1417
1119.50 0.1416
1119.60 0.1416
1119.70 0.1416
1119.80 0.1415
1119.90 0.1415
1120.00 0.1415
1120.10 0.1414
1120.20 0.1414
1120.30 0.1414
1120.40 0.1413
1120.50 0.1413
1120.60 0.1413
1120.70 0.1412
1120.80 0.1412
1120.90 0.1412
1121.00 0.1411
1121.10 0.1411
1121.20 0.1411
1121.30 0.141
1121.40 0.141
1121.50 0.141
1121.60 0.1409
1121.70 0.1409
1121.80 0.1409
1121.90 0.1408
1122.00 0.1408
1122.10 0.1408
1122.20 0.1407
1122.30 0.1407
1122.40 0.1407
1122.50 0.1406
1122.60 0.1406
1122.70 0.1406
1122.80 0.1405
1122.90 0.1405
1123.00 0.1404
1123.10 0.1404
1123.20 0.1404
1123.30 0.1403
1123.40 0.1403
1123.50 0.1403
1123.60 0.1402
1123.70 0.1402
1123.80 0.1402
1123.90 0.1401
1124.00 0.1401
1124.10 0.1401
1124.20 0.14
1124.30 0.14
1124.40 0.14
1124.50 0.1399
1124.60 0.1399
1124.70 0.1399
1124.80 0.1398
1124.90 0.1398
1125.00 0.1398
1125.10 0.1397
1125.20 0.1397
1125.30 0.1397
1125.40 0.1396
1125.50 0.1396
1125.60 0.1395
1125.70 0.1395
1125.80 0.1395
1125.90 0.1394
1126.00 0.1394
1126.10 0.1394
1126.20 0.1393
1126.30 0.1393
1126.40 0.1393
1126.50 0.1392
1126.60 0.1392
1126.70 0.1392
1126.80 0.1391
1126.90 0.1391
1127.00 0.1391
1127.10 0.139
1127.20 0.139
1127.30 0.139
1127.40 0.1389
1127.50 0.1389
1127.60 0.1389
1127.70 0.1388
1127.80 0.1388
1127.90 0.1388
1128.00 0.1387
1128.10 0.1387
1128.20 0.1386
1128.30 0.1386
1128.40 0.1386
1128.50 0.1385
1128.60 0.1385
1128.70 0.1385
1128.80 0.1384
1128.90 0.1384
1129.00 0.1384
1129.10 0.1383
1129.20 0.1383
1129.30 0.1383
1129.40 0.1382
1129.50 0.1382
1129.60 0.1382
1129.70 0.1381
1129.80 0.1381
1129.90 0.1381
1130.00 0.138
1130.10 0.138
1130.20 0.138
1130.30 0.1379
1130.40 0.1379
1130.50 0.1378
1130.60 0.1378
1130.70 0.1378
1130.80 0.1377
1130.90 0.1377
1131.00 0.1377
1131.10 0.1376
1131.20 0.1376
1131.30 0.1376
1131.40 0.1375
1131.50 0.1375
1131.60 0.1375
1131.70 0.1374
1131.80 0.1374
1131.90 0.1374
1132.00 0.1373
1132.10 0.1373
1132.20 0.1373
1132.30 0.1372
1132.40 0.1372
1132.50 0.1372
1132.60 0.1371
1132.70 0.1371
1132.80 0.1371
1132.90 0.137
1133.00 0.137
1133.10 0.1369
1133.20 0.1369
1133.30 0.1369
1133.40 0.1368
1133.50 0.1368
1133.60 0.1368
1133.70 0.1367
1133.80 0.1367
1133.90 0.1367
1134.00 0.1366
1134.10 0.1366
1134.20 0.1366
1134.30 0.1365
1134.40 0.1365
1134.50 0.1365
1134.60 0.1364
1134.70 0.1364
1134.80 0.1364
1134.90 0.1363
1135.00 0.1363
1135.10 0.1363
1135.20 0.1362
1135.30 0.1362
1135.40 0.1362
1135.50 0.1361
1135.60 0.1361
1135.70 0.1361
1135.80 0.136
1135.90 0.136
1136.00 0.1359
1136.10 0.1359
1136.20 0.1359
1136.30 0.1358
1136.40 0.1358
1136.50 0.1358
1136.60 0.1357
1136.70 0.1357
1136.80 0.1357
1136.90 0.1356
1137.00 0.1356
1137.10 0.1356
1137.20 0.1355
1137.30 0.1355
1137.40 0.1355
1137.50 0.1354
1137.60 0.1354
1137.70 0.1354
1137.80 0.1353
1137.90 0.1353
1138.00 0.1353
1138.10 0.1352
1138.20 0.1352
1138.30 0.1352
1138.40 0.1351
1138.50 0.1351
1138.60 0.1351
1138.70 0.135
1138.80 0.135
1138.90 0.135
1139.00 0.1349
1139.10 0.1349
1139.20 0.1349
1139.30 0.1348
1139.40 0.1348
1139.50 0.1348
1139.60 0.1347
1139.70 0.1347
1139.80 0.1347
1139.90 0.1346
1140.00 0.1346
1140.10 0.1345
1140.20 0.1345
1140.30 0.1345
1140.40 0.1344
1140.50 0.1344
1140.60 0.1344
1140.70 0.1343
1140.80 0.1343
1140.90 0.1343
1141.00 0.1342
1141.10 0.1342
1141.20 0.1342
1141.30 0.1341
1141.40 0.1341
1141.50 0.1341
1141.60 0.134
1141.70 0.134
1141.80 0.134
1141.90 0.1339
1142.00 0.1339
1142.10 0.1339
1142.20 0.1338
1142.30 0.1338
1142.40 0.1338
1142.50 0.1337
1142.60 0.1337
1142.70 0.1337
1142.80 0.1336
1142.90 0.1336
1143.00 0.1336
1143.10 0.1335
1143.20 0.1335
1143.30 0.1335
1143.40 0.1334
1143.50 0.1334
1143.60 0.1334
1143.70 0.1333
1143.80 0.1333
1143.90 0.1333
1144.00 0.1332
1144.10 0.1332
1144.20 0.1332
1144.30 0.1331
1144.40 0.1331
1144.50 0.1331
1144.60 0.133
1144.70 0.133
1144.80 0.133
1144.90 0.1329
1145.00 0.1329
1145.10 0.1329
1145.20 0.1328
1145.30 0.1328
1145.40 0.1328
1145.50 0.1327
1145.60 0.1327
1145.70 0.1327
1145.80 0.1326
1145.90 0.1326
1146.00 0.1326
1146.10 0.1325
1146.20 0.1325
1146.30 0.1325
1146.40 0.1324
1146.50 0.1324
1146.60 0.1324
1146.70 0.1323
1146.80 0.1323
1146.90 0.1323
1147.00 0.1322
1147.10 0.1322
1147.20 0.1322
1147.30 0.1321
1147.40 0.1321
1147.50 0.1321
1147.60 0.132
1147.70 0.132
1147.80 0.132
1147.90 0.1319
1148.00 0.1319
1148.10 0.1319
1148.20 0.1318
1148.30 0.1318
1148.40 0.1318
1148.50 0.1317
1148.60 0.1317
1148.70 0.1317
1148.80 0.1316
1148.90 0.1316
1149.00 0.1316
1149.10 0.1315
1149.20 0.1315
1149.30 0.1315
1149.40 0.1314
1149.50 0.1314
1149.60 0.1314
1149.70 0.1313
1149.80 0.1313
1149.90 0.1313
1150.00 0.1312
1150.10 0.1312
1150.20 0.1312
1150.30 0.1311
1150.40 0.1311
1150.50 0.1311
1150.60 0.131
1150.70 0.131
1150.80 0.131
1150.90 0.1309
1151.00 0.1309
1151.10 0.1309
1151.20 0.1308
1151.30 0.1308
1151.40 0.1308
1151.50 0.1307
1151.60 0.1307
1151.70 0.1307
1151.80 0.1306
1151.90 0.1306
1152.00 0.1306
1152.10 0.1305
1152.20 0.1305
1152.30 0.1305
1152.40 0.1304
1152.50 0.1304
1152.60 0.1304
1152.70 0.1303
1152.80 0.1303
1152.90 0.1303
1153.00 0.1302
1153.10 0.1302
1153.20 0.1302
1153.30 0.1301
1153.40 0.1301
1153.50 0.1301
1153.60 0.13
1153.70 0.13
1153.80 0.13
1153.90 0.1299
1154.00 0.1299
1154.10 0.1299
1154.20 0.1298
1154.30 0.1298
1154.40 0.1298
1154.50 0.1297
1154.60 0.1297
1154.70 0.1297
1154.80 0.1297
1154.90 0.1296
1155.00 0.1296
1155.10 0.1296
1155.20 0.1295
1155.30 0.1295
1155.40 0.1295
1155.50 0.1294
1155.60 0.1294
1155.70 0.1294
1155.80 0.1293
1155.90 0.1293
1156.00 0.1293
1156.10 0.1292
1156.20 0.1292
1156.30 0.1292
1156.40 0.1291
1156.50 0.1291
1156.60 0.1291
1156.70 0.129
1156.80 0.129
1156.90 0.129
1157.00 0.1289
1157.10 0.1289
1157.20 0.1289
1157.30 0.1288
1157.40 0.1288
1157.50 0.1288
1157.60 0.1287
1157.70 0.1287
1157.80 0.1287
1157.90 0.1286
1158.00 0.1286
1158.10 0.1286
1158.20 0.1285
1158.30 0.1285
1158.40 0.1285
1158.50 0.1284
1158.60 0.1284
1158.70 0.1284
1158.80 0.1284
1158.90 0.1283
1159.00 0.1283
1159.10 0.1283
1159.20 0.1282
1159.30 0.1282
1159.40 0.1282
1159.50 0.1281
1159.60 0.1281
1159.70 0.1281
1159.80 0.128
1159.90 0.128
1160.00 0.128
1160.10 0.1279
1160.20 0.1279
1160.30 0.1279
1160.40 0.1278
1160.50 0.1278
1160.60 0.1278
1160.70 0.1277
1160.80 0.1277
1160.90 0.1277
1161.00 0.1276
1161.10 0.1276
1161.20 0.1276
1161.30 0.1275
1161.40 0.1275
1161.50 0.1275
1161.60 0.1275
1161.70 0.1274
1161.80 0.1274
1161.90 0.1274
1162.00 0.1273
1162.10 0.1273
1162.20 0.1273
1162.30 0.1272
1162.40 0.1272
1162.50 0.1272
1162.60 0.1271
1162.70 0.1271
1162.80 0.1271
1162.90 0.127
1163.00 0.127
1163.10 0.127
1163.20 0.1269
1163.30 0.1269
1163.40 0.1269
1163.50 0.1268
1163.60 0.1268
1163.70 0.1268
1163.80 0.1268
1163.90 0.1267
1164.00 0.1267
1164.10 0.1267
1164.20 0.1266
1164.30 0.1266
1164.40 0.1266
1164.50 0.1265
1164.60 0.1265
1164.70 0.1265
1164.80 0.1264
1164.90 0.1264
1165.00 0.1264
1165.10 0.1263
1165.20 0.1263
1165.30 0.1263
1165.40 0.1262
1165.50 0.1262
1165.60 0.1262
1165.70 0.1262
1165.80 0.1261
1165.90 0.1261
1166.00 0.1261
1166.10 0.126
1166.20 0.126
1166.30 0.126
1166.40 0.1259
1166.50 0.1259
1166.60 0.1259
1166.70 0.1258
1166.80 0.1258
1166.90 0.1258
1167.00 0.1257
1167.10 0.1257
1167.20 0.1257
1167.30 0.1256
1167.40 0.1256
1167.50 0.1256
1167.60 0.1256
1167.70 0.1255
1167.80 0.1255
1167.90 0.1255
1168.00 0.1254
1168.10 0.1254
1168.20 0.1254
1168.30 0.1253
1168.40 0.1253
1168.50 0.1253
1168.60 0.1252
1168.70 0.1252
1168.80 0.1252
1168.90 0.1251
1169.00 0.1251
1169.10 0.1251
1169.20 0.1251
1169.30 0.125
1169.40 0.125
1169.50 0.125
1169.60 0.1249
1169.70 0.1249
1169.80 0.1249
1169.90 0.1248
1170.00 0.1248
1170.10 0.1248
1170.20 0.1247
1170.30 0.1247
1170.40 0.1247
1170.50 0.1246
1170.60 0.1246
1170.70 0.1246
1170.80 0.1246
1170.90 0.1245
1171.00 0.1245
1171.10 0.1245
1171.20 0.1244
1171.30 0.1244
1171.40 0.1244
1171.50 0.1243
1171.60 0.1243
1171.70 0.1243
1171.80 0.1242
1171.90 0.1242
1172.00 0.1242
1172.10 0.1241
1172.20 0.1241
1172.30 0.1241
1172.40 0.1241
1172.50 0.124
1172.60 0.124
1172.70 0.124
1172.80 0.1239
1172.90 0.1239
1173.00 0.1239
1173.10 0.1238
1173.20 0.1238
1173.30 0.1238
1173.40 0.1237
1173.50 0.1237
1173.60 0.1237
1173.70 0.1237
1173.80 0.1236
1173.90 0.1236
1174.00 0.1236
1174.10 0.1235
1174.20 0.1235
1174.30 0.1235
1174.40 0.1234
1174.50 0.1234
1174.60 0.1234
1174.70 0.1233
1174.80 0.1233
1174.90 0.1233
1175.00 0.1233
1175.10 0.1232
1175.20 0.1232
1175.30 0.1232
1175.40 0.1231
1175.50 0.1231
1175.60 0.1231
1175.70 0.123
1175.80 0.123
1175.90 0.123
1176.00 0.1229
1176.10 0.1229
1176.20 0.1229
1176.30 0.1229
1176.40 0.1228
1176.50 0.1228
1176.60 0.1228
1176.70 0.1227
1176.80 0.1227
1176.90 0.1227
1177.00 0.1226
1177.10 0.1226
1177.20 0.1226
1177.30 0.1226
1177.40 0.1225
1177.50 0.1225
1177.60 0.1225
1177.70 0.1224
1177.80 0.1224
1177.90 0.1224
1178.00 0.1223
1178.10 0.1223
1178.20 0.1223
1178.30 0.1222
1178.40 0.1222
1178.50 0.1222
1178.60 0.1222
1178.70 0.1221
1178.80 0.1221
1178.90 0.1221
1179.00 0.122
1179.10 0.122
1179.20 0.122
1179.30 0.1219
1179.40 0.1219
1179.50 0.1219
1179.60 0.1219
1179.70 0.1218
1179.80 0.1218
1179.90 0.1218
1180.00 0.1217
1180.10 0.1217
1180.20 0.1217
1180.30 0.1216
1180.40 0.1216
1180.50 0.1216
1180.60 0.1215
1180.70 0.1215
1180.80 0.1215
1180.90 0.1215
1181.00 0.1214
1181.10 0.1214
1181.20 0.1214
1181.30 0.1213
1181.40 0.1213
1181.50 0.1213
1181.60 0.1212
1181.70 0.1212
1181.80 0.1212
1181.90 0.1212
1182.00 0.1211
1182.10 0.1211
1182.20 0.1211
1182.30 0.121
1182.40 0.121
1182.50 0.121
1182.60 0.1209
1182.70 0.1209
1182.80 0.1209
1182.90 0.1209
1183.00 0.1208
1183.10 0.1208
1183.20 0.1208
1183.30 0.1207
1183.40 0.1207
1183.50 0.1207
1183.60 0.1206
1183.70 0.1206
1183.80 0.1206
1183.90 0.1206
1184.00 0.1205
1184.10 0.1205
1184.20 0.1205
1184.30 0.1204
1184.40 0.1204
1184.50 0.1204
1184.60 0.1203
1184.70 0.1203
1184.80 0.1203
1184.90 0.1203
1185.00 0.1202
1185.10 0.1202
1185.20 0.1202
1185.30 0.1201
1185.40 0.1201
1185.50 0.1201
1185.60 0.1201
1185.70 0.12
1185.80 0.12
1185.90 0.12
1186.00 0.1199
1186.10 0.1199
1186.20 0.1199
1186.30 0.1198
1186.40 0.1198
1186.50 0.1198
1186.60 0.1198
1186.70 0.1197
1186.80 0.1197
1186.90 0.1197
1187.00 0.1196
1187.10 0.1196
1187.20 0.1196
1187.30 0.1195
1187.40 0.1195
1187.50 0.1195
1187.60 0.1195
1187.70 0.1194
1187.80 0.1194
1187.90 0.1194
1188.00 0.1193
1188.10 0.1193
1188.20 0.1193
1188.30 0.1193
1188.40 0.1192
1188.50 0.1192
1188.60 0.1192
1188.70 0.1191
1188.80 0.1191
1188.90 0.1191
1189.00 0.119
1189.10 0.119
1189.20 0.119
1189.30 0.119
1189.40 0.1189
1189.50 0.1189
1189.60 0.1189
1189.70 0.1188
1189.80 0.1188
1189.90 0.1188
1190.00 0.1188
1190.10 0.1187
1190.20 0.1187
1190.30 0.1187
1190.40 0.1186
1190.50 0.1186
1190.60 0.1186
1190.70 0.1185
1190.80 0.1185
1190.90 0.1185
1191.00 0.1185
1191.10 0.1184
1191.20 0.1184
1191.30 0.1184
1191.40 0.1183
1191.50 0.1183
1191.60 0.1183
1191.70 0.1183
1191.80 0.1182
1191.90 0.1182
1192.00 0.1182
1192.10 0.1181
1192.20 0.1181
1192.30 0.1181
1192.40 0.118
1192.50 0.118
1192.60 0.118
1192.70 0.118
1192.80 0.1179
1192.90 0.1179
1193.00 0.1179
1193.10 0.1178
1193.20 0.1178
1193.30 0.1178
1193.40 0.1178
1193.50 0.1177
1193.60 0.1177
1193.70 0.1177
1193.80 0.1176
1193.90 0.1176
1194.00 0.1176
1194.10 0.1176
1194.20 0.1175
1194.30 0.1175
1194.40 0.1175
1194.50 0.1174
1194.60 0.1174
1194.70 0.1174
1194.80 0.1174
1194.90 0.1173
1195.00 0.1173
1195.10 0.1173
1195.20 0.1172
1195.30 0.1172
1195.40 0.1172
1195.50 0.1172
1195.60 0.1171
1195.70 0.1171
1195.80 0.1171
1195.90 0.117
1196.00 0.117
1196.10 0.117
1196.20 0.117
1196.30 0.1169
1196.40 0.1169
1196.50 0.1169
1196.60 0.1168
1196.70 0.1168
1196.80 0.1168
1196.90 0.1168
1197.00 0.1167
1197.10 0.1167
1197.20 0.1167
1197.30 0.1166
1197.40 0.1166
1197.50 0.1166
1197.60 0.1165
1197.70 0.1165
1197.80 0.1165
1197.90 0.1165
1198.00 0.1164
1198.10 0.1164
1198.20 0.1164
1198.30 0.1163
1198.40 0.1163
1198.50 0.1163
1198.60 0.1163
1198.70 0.1162
1198.80 0.1162
1198.90 0.1162
1199.00 0.1161
1199.10 0.1161
1199.20 0.1161
1199.30 0.1161
1199.40 0.116
1199.50 0.116
1199.60 0.116
1199.70 0.1159
1199.80 0.1159
1199.90 0.1159
1200.00 0
