# Version 2.1 - nm, norm@500 to 1, cut digits, bergeron_1500_85.dat_1500
# Wavelength(nm)  Flambda(ergs/cm^s/s/nm)
300.00 0.02379
300.10 0.02389
300.20 0.024
300.30 0.0241
300.40 0.02421
300.50 0.02431
300.60 0.02442
300.70 0.02452
300.80 0.02463
300.90 0.02473
301.00 0.02484
301.10 0.02494
301.20 0.02505
301.30 0.02515
301.40 0.02526
301.50 0.02536
301.60 0.02546
301.70 0.02557
301.80 0.02567
301.90 0.02578
302.00 0.02588
302.10 0.02599
302.20 0.0261
302.30 0.02621
302.40 0.02632
302.50 0.02643
302.60 0.02654
302.70 0.02665
302.80 0.02676
302.90 0.02687
303.00 0.02698
303.10 0.02709
303.20 0.02719
303.30 0.0273
303.40 0.02741
303.50 0.02752
303.60 0.02763
303.70 0.02774
303.80 0.02784
303.90 0.02795
304.00 0.02806
304.10 0.02818
304.20 0.02829
304.30 0.02841
304.40 0.02852
304.50 0.02864
304.60 0.02875
304.70 0.02886
304.80 0.02898
304.90 0.02909
305.00 0.02921
305.10 0.02932
305.20 0.02943
305.30 0.02955
305.40 0.02966
305.50 0.02978
305.60 0.02989
305.70 0.03
305.80 0.03011
305.90 0.03023
306.00 0.03034
306.10 0.03046
306.20 0.03058
306.30 0.0307
306.40 0.03082
306.50 0.03094
306.60 0.03106
306.70 0.03118
306.80 0.0313
306.90 0.03142
307.00 0.03154
307.10 0.03166
307.20 0.03178
307.30 0.03189
307.40 0.03201
307.50 0.03213
307.60 0.03225
307.70 0.03237
307.80 0.03249
307.90 0.0326
308.00 0.03273
308.10 0.03285
308.20 0.03297
308.30 0.0331
308.40 0.03322
308.50 0.03335
308.60 0.03347
308.70 0.0336
308.80 0.03372
308.90 0.03385
309.00 0.03397
309.10 0.0341
309.20 0.03422
309.30 0.03435
309.40 0.03447
309.50 0.03459
309.60 0.03472
309.70 0.03484
309.80 0.03496
309.90 0.03509
310.00 0.03522
310.10 0.03535
310.20 0.03548
310.30 0.03561
310.40 0.03574
310.50 0.03587
310.60 0.036
310.70 0.03613
310.80 0.03626
310.90 0.03639
311.00 0.03653
311.10 0.03666
311.20 0.03679
311.30 0.03692
311.40 0.03705
311.50 0.03718
311.60 0.03731
311.70 0.03744
311.80 0.03756
311.90 0.03769
312.00 0.03782
312.10 0.03795
312.20 0.03808
312.30 0.03822
312.40 0.03836
312.50 0.03849
312.60 0.03863
312.70 0.03877
312.80 0.03891
312.90 0.03904
313.00 0.03918
313.10 0.03932
313.20 0.03945
313.30 0.03959
313.40 0.03973
313.50 0.03986
313.60 0.04
313.70 0.04013
313.80 0.04027
313.90 0.0404
314.00 0.04054
314.10 0.04068
314.20 0.04083
314.30 0.04097
314.40 0.04111
314.50 0.04126
314.60 0.0414
314.70 0.04154
314.80 0.04169
314.90 0.04183
315.00 0.04197
315.10 0.04211
315.20 0.04225
315.30 0.0424
315.40 0.04254
315.50 0.04268
315.60 0.04282
315.70 0.04296
315.80 0.0431
315.90 0.04325
316.00 0.04339
316.10 0.04354
316.20 0.04369
316.30 0.04384
316.40 0.04399
316.50 0.04414
316.60 0.04429
316.70 0.04443
316.80 0.04458
316.90 0.04473
317.00 0.04488
317.10 0.04503
317.20 0.04518
317.30 0.04533
317.40 0.04548
317.50 0.04562
317.60 0.04577
317.70 0.04592
317.80 0.04607
317.90 0.04622
318.00 0.04637
318.10 0.04652
318.20 0.04667
318.30 0.04683
318.40 0.04699
318.50 0.04714
318.60 0.0473
318.70 0.04746
318.80 0.04761
318.90 0.04777
319.00 0.04792
319.10 0.04808
319.20 0.04823
319.30 0.04839
319.40 0.04854
319.50 0.0487
319.60 0.04885
319.70 0.049
319.80 0.04916
319.90 0.04931
320.00 0.04947
320.10 0.04963
320.20 0.04979
320.30 0.04996
320.40 0.05012
320.50 0.05028
320.60 0.05045
320.70 0.05061
320.80 0.05077
320.90 0.05094
321.00 0.0511
321.10 0.05126
321.20 0.05142
321.30 0.05159
321.40 0.05175
321.50 0.05191
321.60 0.05207
321.70 0.05223
321.80 0.05239
321.90 0.05255
322.00 0.05272
322.10 0.05289
322.20 0.05306
322.30 0.05323
322.40 0.0534
322.50 0.05357
322.60 0.05374
322.70 0.05391
322.80 0.05408
322.90 0.05425
323.00 0.05442
323.10 0.05458
323.20 0.05475
323.30 0.05492
323.40 0.05509
323.50 0.05526
323.60 0.05543
323.70 0.05559
323.80 0.05576
323.90 0.05593
324.00 0.0561
324.10 0.05627
324.20 0.05645
324.30 0.05663
324.40 0.05681
324.50 0.05699
324.60 0.05716
324.70 0.05734
324.80 0.05752
324.90 0.05769
325.00 0.05787
325.10 0.05805
325.20 0.05822
325.30 0.0584
325.40 0.05857
325.50 0.05875
325.60 0.05893
325.70 0.0591
325.80 0.05927
325.90 0.05945
326.00 0.05963
326.10 0.05981
326.20 0.06
326.30 0.06018
326.40 0.06037
326.50 0.06055
326.60 0.06074
326.70 0.06092
326.80 0.06111
326.90 0.06129
327.00 0.06147
327.10 0.06166
327.20 0.06184
327.30 0.06202
327.40 0.06221
327.50 0.06239
327.60 0.06257
327.70 0.06275
327.80 0.06294
327.90 0.06312
328.00 0.06331
328.10 0.0635
328.20 0.06369
328.30 0.06388
328.40 0.06407
328.50 0.06427
328.60 0.06446
328.70 0.06465
328.80 0.06484
328.90 0.06503
329.00 0.06522
329.10 0.06542
329.20 0.06561
329.30 0.0658
329.40 0.06599
329.50 0.06618
329.60 0.06637
329.70 0.06656
329.80 0.06675
329.90 0.06694
330.00 0.06713
330.10 0.06733
330.20 0.06753
330.30 0.06773
330.40 0.06793
330.50 0.06813
330.60 0.06833
330.70 0.06853
330.80 0.06873
330.90 0.06893
331.00 0.06913
331.10 0.06933
331.20 0.06953
331.30 0.06972
331.40 0.06992
331.50 0.07012
331.60 0.07032
331.70 0.07051
331.80 0.07071
331.90 0.07091
332.00 0.0711
332.10 0.07131
332.20 0.07152
332.30 0.07173
332.40 0.07194
332.50 0.07215
332.60 0.07236
332.70 0.07256
332.80 0.07277
332.90 0.07298
333.00 0.07318
333.10 0.07339
333.20 0.0736
333.30 0.0738
333.40 0.07401
333.50 0.07422
333.60 0.07442
333.70 0.07463
333.80 0.07483
333.90 0.07503
334.00 0.07524
334.10 0.07546
334.20 0.07567
334.30 0.07589
334.40 0.07611
334.50 0.07632
334.60 0.07654
334.70 0.07676
334.80 0.07697
334.90 0.07719
335.00 0.0774
335.10 0.07762
335.20 0.07783
335.30 0.07804
335.40 0.07826
335.50 0.07847
335.60 0.07869
335.70 0.0789
335.80 0.07911
335.90 0.07932
336.00 0.07954
336.10 0.07976
336.20 0.07999
336.30 0.08021
336.40 0.08044
336.50 0.08066
336.60 0.08088
336.70 0.08111
336.80 0.08133
336.90 0.08155
337.00 0.08178
337.10 0.082
337.20 0.08222
337.30 0.08244
337.40 0.08267
337.50 0.08289
337.60 0.08311
337.70 0.08333
337.80 0.08355
337.90 0.08377
338.00 0.08399
338.10 0.08422
338.20 0.08446
338.30 0.08469
338.40 0.08492
338.50 0.08516
338.60 0.08539
338.70 0.08562
338.80 0.08585
338.90 0.08608
339.00 0.08632
339.10 0.08655
339.20 0.08678
339.30 0.08701
339.40 0.08724
339.50 0.08747
339.60 0.0877
339.70 0.08793
339.80 0.08816
339.90 0.08838
340.00 0.08861
340.10 0.08885
340.20 0.0891
340.30 0.08934
340.40 0.08958
340.50 0.08982
340.60 0.09006
340.70 0.0903
340.80 0.09054
340.90 0.09078
341.00 0.09102
341.10 0.09126
341.20 0.0915
341.30 0.09174
341.40 0.09197
341.50 0.09221
341.60 0.09245
341.70 0.09269
341.80 0.09292
341.90 0.09316
342.00 0.0934
342.10 0.09365
342.20 0.0939
342.30 0.09415
342.40 0.0944
342.50 0.09465
342.60 0.0949
342.70 0.09515
342.80 0.09539
342.90 0.09564
343.00 0.09589
343.10 0.09614
343.20 0.09639
343.30 0.09663
343.40 0.09688
343.50 0.09713
343.60 0.09737
343.70 0.09762
343.80 0.09786
343.90 0.09811
344.00 0.09835
344.10 0.09861
344.20 0.09887
344.30 0.09913
344.40 0.09939
344.50 0.09965
344.60 0.0999
344.70 0.1002
344.80 0.1004
344.90 0.1007
345.00 0.1009
345.10 0.1012
345.20 0.1014
345.30 0.1017
345.40 0.102
345.50 0.1022
345.60 0.1025
345.70 0.1027
345.80 0.103
345.90 0.1032
346.00 0.1035
346.10 0.1037
346.20 0.104
346.30 0.1043
346.40 0.1045
346.50 0.1048
346.60 0.1051
346.70 0.1053
346.80 0.1056
346.90 0.1059
347.00 0.1061
347.10 0.1064
347.20 0.1067
347.30 0.1069
347.40 0.1072
347.50 0.1075
347.60 0.1077
347.70 0.108
347.80 0.1083
347.90 0.1085
348.00 0.1088
348.10 0.1091
348.20 0.1093
348.30 0.1096
348.40 0.1099
348.50 0.1102
348.60 0.1104
348.70 0.1107
348.80 0.111
348.90 0.1113
349.00 0.1115
349.10 0.1118
349.20 0.1121
349.30 0.1124
349.40 0.1126
349.50 0.1129
349.60 0.1132
349.70 0.1134
349.80 0.1137
349.90 0.114
350.00 0.1143
350.10 0.1145
350.20 0.1148
350.30 0.1151
350.40 0.1154
350.50 0.1157
350.60 0.116
350.70 0.1162
350.80 0.1165
350.90 0.1168
351.00 0.1171
351.10 0.1174
351.20 0.1177
351.30 0.1179
351.40 0.1182
351.50 0.1185
351.60 0.1188
351.70 0.1191
351.80 0.1193
351.90 0.1196
352.00 0.1199
352.10 0.1202
352.20 0.1205
352.30 0.1208
352.40 0.1211
352.50 0.1214
352.60 0.1217
352.70 0.122
352.80 0.1222
352.90 0.1225
353.00 0.1228
353.10 0.1231
353.20 0.1234
353.30 0.1237
353.40 0.124
353.50 0.1243
353.60 0.1246
353.70 0.1249
353.80 0.1252
353.90 0.1254
354.00 0.1257
354.10 0.126
354.20 0.1263
354.30 0.1266
354.40 0.1269
354.50 0.1272
354.60 0.1275
354.70 0.1278
354.80 0.1281
354.90 0.1284
355.00 0.1287
355.10 0.129
355.20 0.1293
355.30 0.1296
355.40 0.1299
355.50 0.1302
355.60 0.1305
355.70 0.1308
355.80 0.1311
355.90 0.1314
356.00 0.1317
356.10 0.132
356.20 0.1324
356.30 0.1327
356.40 0.133
356.50 0.1333
356.60 0.1336
356.70 0.1339
356.80 0.1342
356.90 0.1345
357.00 0.1348
357.10 0.1352
357.20 0.1355
357.30 0.1358
357.40 0.1361
357.50 0.1364
357.60 0.1367
357.70 0.137
357.80 0.1373
357.90 0.1376
358.00 0.1379
358.10 0.1382
358.20 0.1386
358.30 0.1389
358.40 0.1392
358.50 0.1395
358.60 0.1398
358.70 0.1402
358.80 0.1405
358.90 0.1408
359.00 0.1411
359.10 0.1414
359.20 0.1418
359.30 0.1421
359.40 0.1424
359.50 0.1427
359.60 0.143
359.70 0.1433
359.80 0.1437
359.90 0.144
360.00 0.1443
360.10 0.1446
360.20 0.145
360.30 0.1453
360.40 0.1456
360.50 0.1459
360.60 0.1463
360.70 0.1466
360.80 0.1469
360.90 0.1473
361.00 0.1476
361.10 0.1479
361.20 0.1482
361.30 0.1486
361.40 0.1489
361.50 0.1492
361.60 0.1495
361.70 0.1499
361.80 0.1502
361.90 0.1505
362.00 0.1508
362.10 0.1512
362.20 0.1515
362.30 0.1518
362.40 0.1522
362.50 0.1525
362.60 0.1529
362.70 0.1532
362.80 0.1535
362.90 0.1539
363.00 0.1542
363.10 0.1545
363.20 0.1549
363.30 0.1552
363.40 0.1556
363.50 0.1559
363.60 0.1562
363.70 0.1566
363.80 0.1569
363.90 0.1573
364.00 0.1576
364.10 0.1579
364.20 0.1583
364.30 0.1586
364.40 0.159
364.50 0.1593
364.60 0.1596
364.70 0.16
364.80 0.1603
364.90 0.1607
365.00 0.161
365.10 0.1614
365.20 0.1617
365.30 0.1621
365.40 0.1624
365.50 0.1628
365.60 0.1631
365.70 0.1635
365.80 0.1638
365.90 0.1642
366.00 0.1645
366.10 0.1649
366.20 0.1652
366.30 0.1656
366.40 0.1659
366.50 0.1663
366.60 0.1666
366.70 0.167
366.80 0.1674
366.90 0.1677
367.00 0.1681
367.10 0.1684
367.20 0.1688
367.30 0.1691
367.40 0.1695
367.50 0.1698
367.60 0.1702
367.70 0.1705
367.80 0.1709
367.90 0.1713
368.00 0.1716
368.10 0.172
368.20 0.1723
368.30 0.1727
368.40 0.1731
368.50 0.1734
368.60 0.1738
368.70 0.1742
368.80 0.1745
368.90 0.1749
369.00 0.1753
369.10 0.1756
369.20 0.176
369.30 0.1764
369.40 0.1767
369.50 0.1771
369.60 0.1774
369.70 0.1778
369.80 0.1782
369.90 0.1785
370.00 0.1789
370.10 0.1793
370.20 0.1796
370.30 0.18
370.40 0.1804
370.50 0.1808
370.60 0.1812
370.70 0.1815
370.80 0.1819
370.90 0.1823
371.00 0.1827
371.10 0.183
371.20 0.1834
371.30 0.1838
371.40 0.1841
371.50 0.1845
371.60 0.1849
371.70 0.1853
371.80 0.1856
371.90 0.186
372.00 0.1864
372.10 0.1868
372.20 0.1871
372.30 0.1875
372.40 0.1879
372.50 0.1883
372.60 0.1887
372.70 0.1891
372.80 0.1895
372.90 0.1898
373.00 0.1902
373.10 0.1906
373.20 0.191
373.30 0.1914
373.40 0.1918
373.50 0.1921
373.60 0.1925
373.70 0.1929
373.80 0.1933
373.90 0.1937
374.00 0.194
374.10 0.1944
374.20 0.1948
374.30 0.1952
374.40 0.1956
374.50 0.196
374.60 0.1964
374.70 0.1968
374.80 0.1972
374.90 0.1976
375.00 0.198
375.10 0.1984
375.20 0.1988
375.30 0.1992
375.40 0.1996
375.50 0.1999
375.60 0.2003
375.70 0.2007
375.80 0.2011
375.90 0.2015
376.00 0.2019
376.10 0.2023
376.20 0.2027
376.30 0.2031
376.40 0.2035
376.50 0.2039
376.60 0.2043
376.70 0.2047
376.80 0.2051
376.90 0.2055
377.00 0.2059
377.10 0.2063
377.20 0.2067
377.30 0.2071
377.40 0.2075
377.50 0.2079
377.60 0.2083
377.70 0.2087
377.80 0.2091
377.90 0.2095
378.00 0.2099
378.10 0.2103
378.20 0.2108
378.30 0.2112
378.40 0.2116
378.50 0.212
378.60 0.2124
378.70 0.2128
378.80 0.2132
378.90 0.2136
379.00 0.214
379.10 0.2144
379.20 0.2149
379.30 0.2153
379.40 0.2157
379.50 0.2161
379.60 0.2165
379.70 0.2169
379.80 0.2173
379.90 0.2178
380.00 0.2182
380.10 0.2186
380.20 0.219
380.30 0.2194
380.40 0.2198
380.50 0.2203
380.60 0.2207
380.70 0.2211
380.80 0.2215
380.90 0.2219
381.00 0.2224
381.10 0.2228
381.20 0.2232
381.30 0.2236
381.40 0.224
381.50 0.2245
381.60 0.2249
381.70 0.2253
381.80 0.2257
381.90 0.2262
382.00 0.2266
382.10 0.227
382.20 0.2274
382.30 0.2279
382.40 0.2283
382.50 0.2287
382.60 0.2292
382.70 0.2296
382.80 0.23
382.90 0.2304
383.00 0.2309
383.10 0.2313
383.20 0.2317
383.30 0.2322
383.40 0.2326
383.50 0.233
383.60 0.2335
383.70 0.2339
383.80 0.2343
383.90 0.2348
384.00 0.2352
384.10 0.2356
384.20 0.236
384.30 0.2365
384.40 0.2369
384.50 0.2374
384.60 0.2378
384.70 0.2383
384.80 0.2387
384.90 0.2391
385.00 0.2396
385.10 0.24
385.20 0.2405
385.30 0.2409
385.40 0.2413
385.50 0.2418
385.60 0.2422
385.70 0.2427
385.80 0.2431
385.90 0.2435
386.00 0.244
386.10 0.2444
386.20 0.2449
386.30 0.2453
386.40 0.2458
386.50 0.2462
386.60 0.2467
386.70 0.2471
386.80 0.2476
386.90 0.248
387.00 0.2484
387.10 0.2489
387.20 0.2494
387.30 0.2498
387.40 0.2502
387.50 0.2507
387.60 0.2512
387.70 0.2516
387.80 0.2521
387.90 0.2525
388.00 0.253
388.10 0.2534
388.20 0.2539
388.30 0.2543
388.40 0.2548
388.50 0.2552
388.60 0.2557
388.70 0.2562
388.80 0.2566
388.90 0.2571
389.00 0.2575
389.10 0.258
389.20 0.2585
389.30 0.2589
389.40 0.2594
389.50 0.2598
389.60 0.2603
389.70 0.2607
389.80 0.2612
389.90 0.2617
390.00 0.2621
390.10 0.2626
390.20 0.2631
390.30 0.2635
390.40 0.264
390.50 0.2645
390.60 0.2649
390.70 0.2654
390.80 0.2659
390.90 0.2663
391.00 0.2668
391.10 0.2673
391.20 0.2677
391.30 0.2682
391.40 0.2687
391.50 0.2691
391.60 0.2696
391.70 0.2701
391.80 0.2705
391.90 0.271
392.00 0.2715
392.10 0.272
392.20 0.2725
392.30 0.2729
392.40 0.2734
392.50 0.2739
392.60 0.2743
392.70 0.2748
392.80 0.2753
392.90 0.2758
393.00 0.2762
393.10 0.2767
393.20 0.2772
393.30 0.2777
393.40 0.2782
393.50 0.2786
393.60 0.2791
393.70 0.2796
393.80 0.2801
393.90 0.2806
394.00 0.281
394.10 0.2815
394.20 0.282
394.30 0.2825
394.40 0.283
394.50 0.2835
394.60 0.2839
394.70 0.2844
394.80 0.2849
394.90 0.2854
395.00 0.2859
395.10 0.2864
395.20 0.2869
395.30 0.2873
395.40 0.2878
395.50 0.2883
395.60 0.2888
395.70 0.2893
395.80 0.2898
395.90 0.2903
396.00 0.2908
396.10 0.2913
396.20 0.2918
396.30 0.2922
396.40 0.2928
396.50 0.2932
396.60 0.2937
396.70 0.2942
396.80 0.2947
396.90 0.2952
397.00 0.2957
397.10 0.2962
397.20 0.2967
397.30 0.2972
397.40 0.2977
397.50 0.2982
397.60 0.2987
397.70 0.2992
397.80 0.2997
397.90 0.3002
398.00 0.3007
398.10 0.3012
398.20 0.3017
398.30 0.3022
398.40 0.3027
398.50 0.3032
398.60 0.3037
398.70 0.3042
398.80 0.3047
398.90 0.3052
399.00 0.3057
399.10 0.3062
399.20 0.3067
399.30 0.3072
399.40 0.3077
399.50 0.3083
399.60 0.3088
399.70 0.3093
399.80 0.3098
399.90 0.3103
400.00 0.3108
400.10 0.3113
400.20 0.3118
400.30 0.3123
400.40 0.3128
400.50 0.3134
400.60 0.3139
400.70 0.3144
400.80 0.3149
400.90 0.3154
401.00 0.3159
401.10 0.3164
401.20 0.317
401.30 0.3175
401.40 0.318
401.50 0.3185
401.60 0.319
401.70 0.3195
401.80 0.32
401.90 0.3206
402.00 0.3211
402.10 0.3216
402.20 0.3221
402.30 0.3226
402.40 0.3232
402.50 0.3237
402.60 0.3242
402.70 0.3247
402.80 0.3252
402.90 0.3258
403.00 0.3263
403.10 0.3268
403.20 0.3273
403.30 0.3279
403.40 0.3284
403.50 0.3289
403.60 0.3295
403.70 0.33
403.80 0.3305
403.90 0.331
404.00 0.3315
404.10 0.3321
404.20 0.3326
404.30 0.3331
404.40 0.3337
404.50 0.3342
404.60 0.3347
404.70 0.3353
404.80 0.3358
404.90 0.3363
405.00 0.3369
405.10 0.3374
405.20 0.3379
405.30 0.3385
405.40 0.339
405.50 0.3395
405.60 0.3401
405.70 0.3406
405.80 0.3411
405.90 0.3417
406.00 0.3422
406.10 0.3427
406.20 0.3433
406.30 0.3438
406.40 0.3444
406.50 0.3449
406.60 0.3454
406.70 0.346
406.80 0.3465
406.90 0.3471
407.00 0.3476
407.10 0.3481
407.20 0.3487
407.30 0.3492
407.40 0.3498
407.50 0.3503
407.60 0.3509
407.70 0.3514
407.80 0.3519
407.90 0.3525
408.00 0.353
408.10 0.3536
408.20 0.3541
408.30 0.3547
408.40 0.3552
408.50 0.3558
408.60 0.3563
408.70 0.3569
408.80 0.3574
408.90 0.358
409.00 0.3585
409.10 0.3591
409.20 0.3596
409.30 0.3602
409.40 0.3607
409.50 0.3613
409.60 0.3618
409.70 0.3624
409.80 0.3629
409.90 0.3635
410.00 0.3641
410.10 0.3646
410.20 0.3652
410.30 0.3657
410.40 0.3663
410.50 0.3668
410.60 0.3674
410.70 0.3679
410.80 0.3685
410.90 0.3691
411.00 0.3696
411.10 0.3702
411.20 0.3707
411.30 0.3713
411.40 0.3719
411.50 0.3724
411.60 0.373
411.70 0.3736
411.80 0.3741
411.90 0.3747
412.00 0.3752
412.10 0.3758
412.20 0.3764
412.30 0.3769
412.40 0.3775
412.50 0.3781
412.60 0.3786
412.70 0.3792
412.80 0.3798
412.90 0.3803
413.00 0.3809
413.10 0.3815
413.20 0.382
413.30 0.3826
413.40 0.3832
413.50 0.3838
413.60 0.3843
413.70 0.3849
413.80 0.3855
413.90 0.386
414.00 0.3866
414.10 0.3872
414.20 0.3878
414.30 0.3883
414.40 0.3889
414.50 0.3895
414.60 0.3901
414.70 0.3906
414.80 0.3912
414.90 0.3918
415.00 0.3924
415.10 0.3929
415.20 0.3935
415.30 0.3941
415.40 0.3947
415.50 0.3952
415.60 0.3958
415.70 0.3964
415.80 0.397
415.90 0.3976
416.00 0.3982
416.10 0.3987
416.20 0.3993
416.30 0.3999
416.40 0.4005
416.50 0.4011
416.60 0.4017
416.70 0.4022
416.80 0.4028
416.90 0.4034
417.00 0.404
417.10 0.4046
417.20 0.4052
417.30 0.4057
417.40 0.4063
417.50 0.4069
417.60 0.4075
417.70 0.4081
417.80 0.4087
417.90 0.4093
418.00 0.4099
418.10 0.4105
418.20 0.411
418.30 0.4116
418.40 0.4122
418.50 0.4128
418.60 0.4134
418.70 0.414
418.80 0.4146
418.90 0.4152
419.00 0.4158
419.10 0.4164
419.20 0.417
419.30 0.4176
419.40 0.4182
419.50 0.4188
419.60 0.4194
419.70 0.42
419.80 0.4206
419.90 0.4212
420.00 0.4218
420.10 0.4224
420.20 0.423
420.30 0.4236
420.40 0.4242
420.50 0.4248
420.60 0.4254
420.70 0.426
420.80 0.4266
420.90 0.4272
421.00 0.4278
421.10 0.4284
421.20 0.429
421.30 0.4296
421.40 0.4302
421.50 0.4308
421.60 0.4314
421.70 0.432
421.80 0.4326
421.90 0.4332
422.00 0.4338
422.10 0.4344
422.20 0.435
422.30 0.4356
422.40 0.4363
422.50 0.4369
422.60 0.4375
422.70 0.4381
422.80 0.4387
422.90 0.4393
423.00 0.4399
423.10 0.4405
423.20 0.4411
423.30 0.4417
423.40 0.4424
423.50 0.443
423.60 0.4436
423.70 0.4442
423.80 0.4448
423.90 0.4454
424.00 0.4461
424.10 0.4467
424.20 0.4473
424.30 0.4479
424.40 0.4485
424.50 0.4491
424.60 0.4498
424.70 0.4504
424.80 0.451
424.90 0.4516
425.00 0.4522
425.10 0.4528
425.20 0.4535
425.30 0.4541
425.40 0.4547
425.50 0.4553
425.60 0.4559
425.70 0.4566
425.80 0.4572
425.90 0.4578
426.00 0.4584
426.10 0.4591
426.20 0.4597
426.30 0.4603
426.40 0.4609
426.50 0.4616
426.60 0.4622
426.70 0.4628
426.80 0.4634
426.90 0.4641
427.00 0.4647
427.10 0.4653
427.20 0.466
427.30 0.4666
427.40 0.4672
427.50 0.4679
427.60 0.4685
427.70 0.4691
427.80 0.4697
427.90 0.4704
428.00 0.471
428.10 0.4716
428.20 0.4723
428.30 0.4729
428.40 0.4735
428.50 0.4742
428.60 0.4748
428.70 0.4754
428.80 0.4761
428.90 0.4767
429.00 0.4773
429.10 0.478
429.20 0.4786
429.30 0.4793
429.40 0.4799
429.50 0.4805
429.60 0.4812
429.70 0.4818
429.80 0.4824
429.90 0.4831
430.00 0.4837
430.10 0.4844
430.20 0.485
430.30 0.4856
430.40 0.4863
430.50 0.4869
430.60 0.4876
430.70 0.4882
430.80 0.4889
430.90 0.4895
431.00 0.4901
431.10 0.4908
431.20 0.4914
431.30 0.4921
431.40 0.4927
431.50 0.4934
431.60 0.494
431.70 0.4947
431.80 0.4953
431.90 0.496
432.00 0.4966
432.10 0.4973
432.20 0.4979
432.30 0.4986
432.40 0.4992
432.50 0.4999
432.60 0.5005
432.70 0.5012
432.80 0.5018
432.90 0.5025
433.00 0.5031
433.10 0.5038
433.20 0.5044
433.30 0.5051
433.40 0.5057
433.50 0.5064
433.60 0.507
433.70 0.5077
433.80 0.5083
433.90 0.509
434.00 0.5096
434.10 0.5103
434.20 0.511
434.30 0.5116
434.40 0.5123
434.50 0.5129
434.60 0.5136
434.70 0.5142
434.80 0.5149
434.90 0.5156
435.00 0.5162
435.10 0.5169
435.20 0.5175
435.30 0.5182
435.40 0.5189
435.50 0.5195
435.60 0.5202
435.70 0.5209
435.80 0.5215
435.90 0.5222
436.00 0.5228
436.10 0.5235
436.20 0.5242
436.30 0.5248
436.40 0.5255
436.50 0.5262
436.60 0.5268
436.70 0.5275
436.80 0.5282
436.90 0.5288
437.00 0.5295
437.10 0.5302
437.20 0.5308
437.30 0.5315
437.40 0.5322
437.50 0.5328
437.60 0.5335
437.70 0.5342
437.80 0.5348
437.90 0.5355
438.00 0.5362
438.10 0.5369
438.20 0.5375
438.30 0.5382
438.40 0.5389
438.50 0.5395
438.60 0.5402
438.70 0.5409
438.80 0.5416
438.90 0.5422
439.00 0.5429
439.10 0.5436
439.20 0.5443
439.30 0.5449
439.40 0.5456
439.50 0.5463
439.60 0.547
439.70 0.5476
439.80 0.5483
439.90 0.549
440.00 0.5497
440.10 0.5503
440.20 0.551
440.30 0.5517
440.40 0.5524
440.50 0.5531
440.60 0.5538
440.70 0.5544
440.80 0.5551
440.90 0.5558
441.00 0.5565
441.10 0.5572
441.20 0.5578
441.30 0.5585
441.40 0.5592
441.50 0.5599
441.60 0.5606
441.70 0.5613
441.80 0.5619
441.90 0.5626
442.00 0.5633
442.10 0.564
442.20 0.5647
442.30 0.5654
442.40 0.5661
442.50 0.5668
442.60 0.5674
442.70 0.5681
442.80 0.5688
442.90 0.5695
443.00 0.5702
443.10 0.5709
443.20 0.5716
443.30 0.5723
443.40 0.573
443.50 0.5736
443.60 0.5743
443.70 0.575
443.80 0.5757
443.90 0.5764
444.00 0.5771
444.10 0.5778
444.20 0.5785
444.30 0.5792
444.40 0.5799
444.50 0.5806
444.60 0.5813
444.70 0.5819
444.80 0.5826
444.90 0.5833
445.00 0.584
445.10 0.5847
445.20 0.5854
445.30 0.5861
445.40 0.5868
445.50 0.5875
445.60 0.5882
445.70 0.5889
445.80 0.5896
445.90 0.5903
446.00 0.591
446.10 0.5917
446.20 0.5924
446.30 0.5931
446.40 0.5938
446.50 0.5945
446.60 0.5952
446.70 0.5959
446.80 0.5966
446.90 0.5973
447.00 0.598
447.10 0.5987
447.20 0.5994
447.30 0.6001
447.40 0.6008
447.50 0.6015
447.60 0.6023
447.70 0.603
447.80 0.6037
447.90 0.6044
448.00 0.6051
448.10 0.6058
448.20 0.6065
448.30 0.6072
448.40 0.6079
448.50 0.6086
448.60 0.6093
448.70 0.61
448.80 0.6107
448.90 0.6114
449.00 0.6122
449.10 0.6129
449.20 0.6136
449.30 0.6143
449.40 0.615
449.50 0.6157
449.60 0.6164
449.70 0.6171
449.80 0.6179
449.90 0.6186
450.00 0.6193
450.10 0.62
450.20 0.6207
450.30 0.6214
450.40 0.6221
450.50 0.6228
450.60 0.6236
450.70 0.6243
450.80 0.625
450.90 0.6257
451.00 0.6264
451.10 0.6271
451.20 0.6278
451.30 0.6286
451.40 0.6293
451.50 0.63
451.60 0.6307
451.70 0.6314
451.80 0.6322
451.90 0.6329
452.00 0.6336
452.10 0.6343
452.20 0.635
452.30 0.6357
452.40 0.6365
452.50 0.6372
452.60 0.6379
452.70 0.6386
452.80 0.6394
452.90 0.6401
453.00 0.6408
453.10 0.6415
453.20 0.6423
453.30 0.643
453.40 0.6437
453.50 0.6444
453.60 0.6451
453.70 0.6459
453.80 0.6466
453.90 0.6473
454.00 0.648
454.10 0.6488
454.20 0.6495
454.30 0.6502
454.40 0.6509
454.50 0.6517
454.60 0.6524
454.70 0.6531
454.80 0.6539
454.90 0.6546
455.00 0.6553
455.10 0.656
455.20 0.6568
455.30 0.6575
455.40 0.6582
455.50 0.6589
455.60 0.6597
455.70 0.6604
455.80 0.6611
455.90 0.6619
456.00 0.6626
456.10 0.6633
456.20 0.6641
456.30 0.6648
456.40 0.6655
456.50 0.6663
456.60 0.667
456.70 0.6677
456.80 0.6685
456.90 0.6692
457.00 0.6699
457.10 0.6707
457.20 0.6714
457.30 0.6721
457.40 0.6729
457.50 0.6736
457.60 0.6743
457.70 0.6751
457.80 0.6758
457.90 0.6765
458.00 0.6773
458.10 0.678
458.20 0.6788
458.30 0.6795
458.40 0.6802
458.50 0.681
458.60 0.6817
458.70 0.6824
458.80 0.6832
458.90 0.6839
459.00 0.6847
459.10 0.6854
459.20 0.6861
459.30 0.6869
459.40 0.6876
459.50 0.6884
459.60 0.6891
459.70 0.6898
459.80 0.6906
459.90 0.6913
460.00 0.6921
460.10 0.6928
460.20 0.6935
460.30 0.6943
460.40 0.695
460.50 0.6958
460.60 0.6965
460.70 0.6973
460.80 0.698
460.90 0.6987
461.00 0.6995
461.10 0.7002
461.20 0.701
461.30 0.7017
461.40 0.7025
461.50 0.7032
461.60 0.704
461.70 0.7047
461.80 0.7055
461.90 0.7062
462.00 0.707
462.10 0.7077
462.20 0.7084
462.30 0.7092
462.40 0.7099
462.50 0.7107
462.60 0.7114
462.70 0.7122
462.80 0.7129
462.90 0.7137
463.00 0.7144
463.10 0.7152
463.20 0.7159
463.30 0.7167
463.40 0.7174
463.50 0.7182
463.60 0.719
463.70 0.7197
463.80 0.7205
463.90 0.7212
464.00 0.722
464.10 0.7227
464.20 0.7235
464.30 0.7242
464.40 0.725
464.50 0.7257
464.60 0.7265
464.70 0.7272
464.80 0.728
464.90 0.7287
465.00 0.7295
465.10 0.7302
465.20 0.731
465.30 0.7318
465.40 0.7325
465.50 0.7333
465.60 0.734
465.70 0.7348
465.80 0.7355
465.90 0.7363
466.00 0.737
466.10 0.7378
466.20 0.7385
466.30 0.7393
466.40 0.7401
466.50 0.7408
466.60 0.7416
466.70 0.7423
466.80 0.7431
466.90 0.7439
467.00 0.7446
467.10 0.7454
467.20 0.7461
467.30 0.7469
467.40 0.7477
467.50 0.7484
467.60 0.7492
467.70 0.7499
467.80 0.7507
467.90 0.7515
468.00 0.7522
468.10 0.753
468.20 0.7537
468.30 0.7545
468.40 0.7553
468.50 0.756
468.60 0.7568
468.70 0.7576
468.80 0.7583
468.90 0.7591
469.00 0.7598
469.10 0.7606
469.20 0.7614
469.30 0.7621
469.40 0.7629
469.50 0.7637
469.60 0.7644
469.70 0.7652
469.80 0.7659
469.90 0.7667
470.00 0.7675
470.10 0.7682
470.20 0.769
470.30 0.7698
470.40 0.7705
470.50 0.7713
470.60 0.7721
470.70 0.7728
470.80 0.7736
470.90 0.7744
471.00 0.7751
471.10 0.7759
471.20 0.7767
471.30 0.7774
471.40 0.7782
471.50 0.779
471.60 0.7797
471.70 0.7805
471.80 0.7813
471.90 0.782
472.00 0.7828
472.10 0.7836
472.20 0.7843
472.30 0.7851
472.40 0.7859
472.50 0.7867
472.60 0.7874
472.70 0.7882
472.80 0.789
472.90 0.7897
473.00 0.7905
473.10 0.7913
473.20 0.792
473.30 0.7928
473.40 0.7936
473.50 0.7944
473.60 0.7951
473.70 0.7959
473.80 0.7967
473.90 0.7974
474.00 0.7982
474.10 0.799
474.20 0.7997
474.30 0.8005
474.40 0.8013
474.50 0.8021
474.60 0.8028
474.70 0.8036
474.80 0.8044
474.90 0.8051
475.00 0.8059
475.10 0.8067
475.20 0.8075
475.30 0.8082
475.40 0.809
475.50 0.8098
475.60 0.8106
475.70 0.8113
475.80 0.8121
475.90 0.8129
476.00 0.8137
476.10 0.8144
476.20 0.8152
476.30 0.816
476.40 0.8168
476.50 0.8175
476.60 0.8183
476.70 0.8191
476.80 0.8199
476.90 0.8206
477.00 0.8214
477.10 0.8222
477.20 0.823
477.30 0.8237
477.40 0.8245
477.50 0.8253
477.60 0.8261
477.70 0.8269
477.80 0.8276
477.90 0.8284
478.00 0.8292
478.10 0.8299
478.20 0.8307
478.30 0.8315
478.40 0.8323
478.50 0.8331
478.60 0.8338
478.70 0.8346
478.80 0.8354
478.90 0.8362
479.00 0.8369
479.10 0.8377
479.20 0.8385
479.30 0.8393
479.40 0.8401
479.50 0.8408
479.60 0.8416
479.70 0.8424
479.80 0.8432
479.90 0.8439
480.00 0.8447
480.10 0.8455
480.20 0.8463
480.30 0.8471
480.40 0.8478
480.50 0.8486
480.60 0.8494
480.70 0.8502
480.80 0.851
480.90 0.8517
481.00 0.8525
481.10 0.8533
481.20 0.8541
481.30 0.8548
481.40 0.8556
481.50 0.8564
481.60 0.8572
481.70 0.858
481.80 0.8587
481.90 0.8595
482.00 0.8603
482.10 0.8611
482.20 0.8619
482.30 0.8626
482.40 0.8634
482.50 0.8642
482.60 0.865
482.70 0.8658
482.80 0.8665
482.90 0.8673
483.00 0.8681
483.10 0.8689
483.20 0.8697
483.30 0.8704
483.40 0.8712
483.50 0.872
483.60 0.8728
483.70 0.8736
483.80 0.8743
483.90 0.8751
484.00 0.8759
484.10 0.8767
484.20 0.8775
484.30 0.8782
484.40 0.879
484.50 0.8798
484.60 0.8806
484.70 0.8814
484.80 0.8822
484.90 0.8829
485.00 0.8837
485.10 0.8845
485.20 0.8853
485.30 0.8861
485.40 0.8868
485.50 0.8876
485.60 0.8884
485.70 0.8892
485.80 0.89
485.90 0.8907
486.00 0.8915
486.10 0.8923
486.20 0.8931
486.30 0.8939
486.40 0.8946
486.50 0.8954
486.60 0.8962
486.70 0.897
486.80 0.8978
486.90 0.8986
487.00 0.8993
487.10 0.9001
487.20 0.9009
487.30 0.9017
487.40 0.9025
487.50 0.9032
487.60 0.904
487.70 0.9048
487.80 0.9056
487.90 0.9064
488.00 0.9071
488.10 0.9079
488.20 0.9087
488.30 0.9095
488.40 0.9103
488.50 0.911
488.60 0.9118
488.70 0.9126
488.80 0.9134
488.90 0.9142
489.00 0.9149
489.10 0.9157
489.20 0.9165
489.30 0.9173
489.40 0.9181
489.50 0.9188
489.60 0.9196
489.70 0.9204
489.80 0.9212
489.90 0.922
490.00 0.9227
490.10 0.9235
490.20 0.9243
490.30 0.9251
490.40 0.9259
490.50 0.9266
490.60 0.9274
490.70 0.9282
490.80 0.929
490.90 0.9298
491.00 0.9305
491.10 0.9313
491.20 0.9321
491.30 0.9329
491.40 0.9336
491.50 0.9344
491.60 0.9352
491.70 0.936
491.80 0.9368
491.90 0.9375
492.00 0.9383
492.10 0.9391
492.20 0.9399
492.30 0.9406
492.40 0.9414
492.50 0.9422
492.60 0.943
492.70 0.9438
492.80 0.9445
492.90 0.9453
493.00 0.9461
493.10 0.9469
493.20 0.9476
493.30 0.9484
493.40 0.9492
493.50 0.95
493.60 0.9507
493.70 0.9515
493.80 0.9523
493.90 0.9531
494.00 0.9538
494.10 0.9546
494.20 0.9554
494.30 0.9562
494.40 0.9569
494.50 0.9577
494.60 0.9585
494.70 0.9593
494.80 0.96
494.90 0.9608
495.00 0.9616
495.10 0.9624
495.20 0.9631
495.30 0.9639
495.40 0.9647
495.50 0.9655
495.60 0.9662
495.70 0.967
495.80 0.9678
495.90 0.9685
496.00 0.9693
496.10 0.9701
496.20 0.9709
496.30 0.9716
496.40 0.9724
496.50 0.9732
496.60 0.9739
496.70 0.9747
496.80 0.9755
496.90 0.9762
497.00 0.977
497.10 0.9778
497.20 0.9786
497.30 0.9793
497.40 0.9801
497.50 0.9809
497.60 0.9816
497.70 0.9824
497.80 0.9832
497.90 0.9839
498.00 0.9847
498.10 0.9855
498.20 0.9862
498.30 0.987
498.40 0.9878
498.50 0.9885
498.60 0.9893
498.70 0.9901
498.80 0.9908
498.90 0.9916
499.00 0.9924
499.10 0.9931
499.20 0.9939
499.30 0.9947
499.40 0.9954
499.50 0.9962
499.60 0.997
499.70 0.9977
499.80 0.9985
499.90 0.9992
500.00 1
500.10 1.001
500.20 1.002
500.30 1.002
500.40 1.003
500.50 1.004
500.60 1.005
500.70 1.005
500.80 1.006
500.90 1.007
501.00 1.008
501.10 1.008
501.20 1.009
501.30 1.01
501.40 1.011
501.50 1.011
501.60 1.012
501.70 1.013
501.80 1.014
501.90 1.014
502.00 1.015
502.10 1.016
502.20 1.017
502.30 1.017
502.40 1.018
502.50 1.019
502.60 1.02
502.70 1.02
502.80 1.021
502.90 1.022
503.00 1.023
503.10 1.023
503.20 1.024
503.30 1.025
503.40 1.026
503.50 1.026
503.60 1.027
503.70 1.028
503.80 1.029
503.90 1.029
504.00 1.03
504.10 1.031
504.20 1.032
504.30 1.032
504.40 1.033
504.50 1.034
504.60 1.035
504.70 1.035
504.80 1.036
504.90 1.037
505.00 1.038
505.10 1.038
505.20 1.039
505.30 1.04
505.40 1.041
505.50 1.041
505.60 1.042
505.70 1.043
505.80 1.044
505.90 1.044
506.00 1.045
506.10 1.046
506.20 1.046
506.30 1.047
506.40 1.048
506.50 1.049
506.60 1.049
506.70 1.05
506.80 1.051
506.90 1.052
507.00 1.052
507.10 1.053
507.20 1.054
507.30 1.055
507.40 1.055
507.50 1.056
507.60 1.057
507.70 1.057
507.80 1.058
507.90 1.059
508.00 1.06
508.10 1.06
508.20 1.061
508.30 1.062
508.40 1.063
508.50 1.063
508.60 1.064
508.70 1.065
508.80 1.066
508.90 1.066
509.00 1.067
509.10 1.068
509.20 1.068
509.30 1.069
509.40 1.07
509.50 1.071
509.60 1.071
509.70 1.072
509.80 1.073
509.90 1.074
510.00 1.074
510.10 1.075
510.20 1.076
510.30 1.076
510.40 1.077
510.50 1.078
510.60 1.079
510.70 1.079
510.80 1.08
510.90 1.081
511.00 1.081
511.10 1.082
511.20 1.083
511.30 1.084
511.40 1.084
511.50 1.085
511.60 1.086
511.70 1.087
511.80 1.087
511.90 1.088
512.00 1.089
512.10 1.089
512.20 1.09
512.30 1.091
512.40 1.092
512.50 1.092
512.60 1.093
512.70 1.094
512.80 1.094
512.90 1.095
513.00 1.096
513.10 1.097
513.20 1.097
513.30 1.098
513.40 1.099
513.50 1.099
513.60 1.1
513.70 1.101
513.80 1.101
513.90 1.102
514.00 1.103
514.10 1.104
514.20 1.104
514.30 1.105
514.40 1.106
514.50 1.106
514.60 1.107
514.70 1.108
514.80 1.108
514.90 1.109
515.00 1.11
515.10 1.111
515.20 1.111
515.30 1.112
515.40 1.113
515.50 1.113
515.60 1.114
515.70 1.115
515.80 1.115
515.90 1.116
516.00 1.117
516.10 1.117
516.20 1.118
516.30 1.119
516.40 1.12
516.50 1.12
516.60 1.121
516.70 1.122
516.80 1.122
516.90 1.123
517.00 1.124
517.10 1.124
517.20 1.125
517.30 1.126
517.40 1.126
517.50 1.127
517.60 1.128
517.70 1.128
517.80 1.129
517.90 1.13
518.00 1.13
518.10 1.131
518.20 1.132
518.30 1.132
518.40 1.133
518.50 1.134
518.60 1.134
518.70 1.135
518.80 1.136
518.90 1.136
519.00 1.137
519.10 1.138
519.20 1.138
519.30 1.139
519.40 1.14
519.50 1.14
519.60 1.141
519.70 1.142
519.80 1.142
519.90 1.143
520.00 1.144
520.10 1.144
520.20 1.145
520.30 1.146
520.40 1.146
520.50 1.147
520.60 1.148
520.70 1.148
520.80 1.149
520.90 1.15
521.00 1.15
521.10 1.151
521.20 1.151
521.30 1.152
521.40 1.153
521.50 1.153
521.60 1.154
521.70 1.155
521.80 1.155
521.90 1.156
522.00 1.157
522.10 1.157
522.20 1.158
522.30 1.159
522.40 1.159
522.50 1.16
522.60 1.16
522.70 1.161
522.80 1.162
522.90 1.162
523.00 1.163
523.10 1.164
523.20 1.164
523.30 1.165
523.40 1.165
523.50 1.166
523.60 1.167
523.70 1.167
523.80 1.168
523.90 1.169
524.00 1.169
524.10 1.17
524.20 1.17
524.30 1.171
524.40 1.172
524.50 1.172
524.60 1.173
524.70 1.173
524.80 1.174
524.90 1.175
525.00 1.175
525.10 1.176
525.20 1.177
525.30 1.177
525.40 1.178
525.50 1.178
525.60 1.179
525.70 1.18
525.80 1.18
525.90 1.181
526.00 1.181
526.10 1.182
526.20 1.182
526.30 1.183
526.40 1.184
526.50 1.184
526.60 1.185
526.70 1.185
526.80 1.186
526.90 1.187
527.00 1.187
527.10 1.188
527.20 1.188
527.30 1.189
527.40 1.19
527.50 1.19
527.60 1.191
527.70 1.191
527.80 1.192
527.90 1.192
528.00 1.193
528.10 1.194
528.20 1.194
528.30 1.195
528.40 1.195
528.50 1.196
528.60 1.196
528.70 1.197
528.80 1.197
528.90 1.198
529.00 1.199
529.10 1.199
529.20 1.2
529.30 1.2
529.40 1.201
529.50 1.201
529.60 1.202
529.70 1.202
529.80 1.203
529.90 1.204
530.00 1.204
530.10 1.205
530.20 1.205
530.30 1.206
530.40 1.206
530.50 1.207
530.60 1.207
530.70 1.208
530.80 1.208
530.90 1.209
531.00 1.209
531.10 1.21
531.20 1.211
531.30 1.211
531.40 1.212
531.50 1.212
531.60 1.213
531.70 1.213
531.80 1.214
531.90 1.214
532.00 1.215
532.10 1.215
532.20 1.216
532.30 1.216
532.40 1.217
532.50 1.217
532.60 1.218
532.70 1.218
532.80 1.219
532.90 1.219
533.00 1.22
533.10 1.22
533.20 1.221
533.30 1.221
533.40 1.222
533.50 1.222
533.60 1.223
533.70 1.223
533.80 1.224
533.90 1.224
534.00 1.225
534.10 1.225
534.20 1.226
534.30 1.226
534.40 1.227
534.50 1.227
534.60 1.228
534.70 1.228
534.80 1.228
534.90 1.229
535.00 1.229
535.10 1.23
535.20 1.23
535.30 1.231
535.40 1.231
535.50 1.232
535.60 1.232
535.70 1.233
535.80 1.233
535.90 1.233
536.00 1.234
536.10 1.234
536.20 1.235
536.30 1.235
536.40 1.236
536.50 1.236
536.60 1.237
536.70 1.237
536.80 1.237
536.90 1.238
537.00 1.238
537.10 1.239
537.20 1.239
537.30 1.24
537.40 1.24
537.50 1.24
537.60 1.241
537.70 1.241
537.80 1.242
537.90 1.242
538.00 1.242
538.10 1.243
538.20 1.243
538.30 1.244
538.40 1.244
538.50 1.244
538.60 1.245
538.70 1.245
538.80 1.246
538.90 1.246
539.00 1.246
539.10 1.247
539.20 1.247
539.30 1.248
539.40 1.248
539.50 1.248
539.60 1.249
539.70 1.249
539.80 1.249
539.90 1.25
540.00 1.25
540.10 1.251
540.20 1.251
540.30 1.251
540.40 1.252
540.50 1.252
540.60 1.252
540.70 1.253
540.80 1.253
540.90 1.253
541.00 1.254
541.10 1.254
541.20 1.254
541.30 1.255
541.40 1.255
541.50 1.255
541.60 1.256
541.70 1.256
541.80 1.256
541.90 1.257
542.00 1.257
542.10 1.257
542.20 1.258
542.30 1.258
542.40 1.258
542.50 1.259
542.60 1.259
542.70 1.259
542.80 1.26
542.90 1.26
543.00 1.26
543.10 1.26
543.20 1.261
543.30 1.261
543.40 1.261
543.50 1.262
543.60 1.262
543.70 1.262
543.80 1.262
543.90 1.263
544.00 1.263
544.10 1.263
544.20 1.263
544.30 1.264
544.40 1.264
544.50 1.264
544.60 1.264
544.70 1.265
544.80 1.265
544.90 1.265
545.00 1.265
545.10 1.266
545.20 1.266
545.30 1.266
545.40 1.266
545.50 1.267
545.60 1.267
545.70 1.267
545.80 1.267
545.90 1.268
546.00 1.268
546.10 1.268
546.20 1.268
546.30 1.269
546.40 1.269
546.50 1.269
546.60 1.269
546.70 1.269
546.80 1.27
546.90 1.27
547.00 1.27
547.10 1.27
547.20 1.27
547.30 1.271
547.40 1.271
547.50 1.271
547.60 1.271
547.70 1.271
547.80 1.272
547.90 1.272
548.00 1.272
548.10 1.272
548.20 1.272
548.30 1.272
548.40 1.273
548.50 1.273
548.60 1.273
548.70 1.273
548.80 1.273
548.90 1.273
549.00 1.274
549.10 1.274
549.20 1.274
549.30 1.274
549.40 1.274
549.50 1.274
549.60 1.274
549.70 1.274
549.80 1.275
549.90 1.275
550.00 1.275
550.10 1.275
550.20 1.275
550.30 1.275
550.40 1.275
550.50 1.275
550.60 1.275
550.70 1.276
550.80 1.276
550.90 1.276
551.00 1.276
551.10 1.276
551.20 1.276
551.30 1.276
551.40 1.276
551.50 1.276
551.60 1.276
551.70 1.276
551.80 1.276
551.90 1.276
552.00 1.277
552.10 1.277
552.20 1.277
552.30 1.277
552.40 1.277
552.50 1.277
552.60 1.277
552.70 1.277
552.80 1.277
552.90 1.277
553.00 1.277
553.10 1.277
553.20 1.277
553.30 1.277
553.40 1.277
553.50 1.277
553.60 1.277
553.70 1.277
553.80 1.277
553.90 1.277
554.00 1.277
554.10 1.277
554.20 1.277
554.30 1.276
554.40 1.276
554.50 1.276
554.60 1.276
554.70 1.276
554.80 1.276
554.90 1.276
555.00 1.276
555.10 1.276
555.20 1.276
555.30 1.276
555.40 1.276
555.50 1.276
555.60 1.276
555.70 1.276
555.80 1.276
555.90 1.275
556.00 1.275
556.10 1.275
556.20 1.275
556.30 1.275
556.40 1.275
556.50 1.275
556.60 1.275
556.70 1.275
556.80 1.274
556.90 1.274
557.00 1.274
557.10 1.274
557.20 1.274
557.30 1.274
557.40 1.274
557.50 1.273
557.60 1.273
557.70 1.273
557.80 1.273
557.90 1.273
558.00 1.273
558.10 1.272
558.20 1.272
558.30 1.272
558.40 1.272
558.50 1.272
558.60 1.272
558.70 1.271
558.80 1.271
558.90 1.271
559.00 1.271
559.10 1.271
559.20 1.27
559.30 1.27
559.40 1.27
559.50 1.27
559.60 1.27
559.70 1.269
559.80 1.269
559.90 1.269
560.00 1.269
560.10 1.269
560.20 1.268
560.30 1.268
560.40 1.268
560.50 1.268
560.60 1.268
560.70 1.267
560.80 1.267
560.90 1.267
561.00 1.267
561.10 1.266
561.20 1.266
561.30 1.266
561.40 1.266
561.50 1.265
561.60 1.265
561.70 1.265
561.80 1.265
561.90 1.264
562.00 1.264
562.10 1.264
562.20 1.264
562.30 1.263
562.40 1.263
562.50 1.263
562.60 1.262
562.70 1.262
562.80 1.262
562.90 1.261
563.00 1.261
563.10 1.261
563.20 1.26
563.30 1.26
563.40 1.26
563.50 1.259
563.60 1.259
563.70 1.259
563.80 1.258
563.90 1.258
564.00 1.258
564.10 1.258
564.20 1.257
564.30 1.257
564.40 1.256
564.50 1.256
564.60 1.256
564.70 1.255
564.80 1.255
564.90 1.254
565.00 1.254
565.10 1.254
565.20 1.253
565.30 1.253
565.40 1.252
565.50 1.252
565.60 1.252
565.70 1.251
565.80 1.251
565.90 1.25
566.00 1.25
566.10 1.249
566.20 1.249
566.30 1.248
566.40 1.248
566.50 1.248
566.60 1.247
566.70 1.247
566.80 1.246
566.90 1.246
567.00 1.245
567.10 1.245
567.20 1.244
567.30 1.244
567.40 1.243
567.50 1.243
567.60 1.242
567.70 1.241
567.80 1.241
567.90 1.24
568.00 1.24
568.10 1.239
568.20 1.239
568.30 1.238
568.40 1.238
568.50 1.237
568.60 1.237
568.70 1.236
568.80 1.235
568.90 1.235
569.00 1.234
569.10 1.234
569.20 1.233
569.30 1.232
569.40 1.232
569.50 1.231
569.60 1.23
569.70 1.23
569.80 1.229
569.90 1.229
570.00 1.228
570.10 1.227
570.20 1.227
570.30 1.226
570.40 1.225
570.50 1.225
570.60 1.224
570.70 1.223
570.80 1.223
570.90 1.222
571.00 1.221
571.10 1.221
571.20 1.22
571.30 1.219
571.40 1.218
571.50 1.218
571.60 1.217
571.70 1.216
571.80 1.216
571.90 1.215
572.00 1.214
572.10 1.214
572.20 1.213
572.30 1.212
572.40 1.211
572.50 1.211
572.60 1.21
572.70 1.209
572.80 1.208
572.90 1.208
573.00 1.207
573.10 1.206
573.20 1.205
573.30 1.205
573.40 1.204
573.50 1.203
573.60 1.202
573.70 1.201
573.80 1.201
573.90 1.2
574.00 1.199
574.10 1.198
574.20 1.198
574.30 1.197
574.40 1.196
574.50 1.195
574.60 1.194
574.70 1.194
574.80 1.193
574.90 1.192
575.00 1.191
575.10 1.19
575.20 1.19
575.30 1.189
575.40 1.188
575.50 1.187
575.60 1.186
575.70 1.186
575.80 1.185
575.90 1.184
576.00 1.183
576.10 1.182
576.20 1.181
576.30 1.181
576.40 1.18
576.50 1.179
576.60 1.178
576.70 1.177
576.80 1.176
576.90 1.175
577.00 1.175
577.10 1.174
577.20 1.173
577.30 1.172
577.40 1.171
577.50 1.17
577.60 1.17
577.70 1.169
577.80 1.168
577.90 1.167
578.00 1.166
578.10 1.165
578.20 1.164
578.30 1.164
578.40 1.163
578.50 1.162
578.60 1.161
578.70 1.16
578.80 1.159
578.90 1.159
579.00 1.158
579.10 1.157
579.20 1.156
579.30 1.155
579.40 1.155
579.50 1.154
579.60 1.153
579.70 1.152
579.80 1.151
579.90 1.15
580.00 1.15
580.10 1.149
580.20 1.148
580.30 1.147
580.40 1.146
580.50 1.145
580.60 1.145
580.70 1.144
580.80 1.143
580.90 1.142
581.00 1.141
581.10 1.14
581.20 1.139
581.30 1.138
581.40 1.138
581.50 1.137
581.60 1.136
581.70 1.135
581.80 1.134
581.90 1.133
582.00 1.132
582.10 1.131
582.20 1.131
582.30 1.13
582.40 1.129
582.50 1.128
582.60 1.127
582.70 1.126
582.80 1.125
582.90 1.124
583.00 1.124
583.10 1.123
583.20 1.122
583.30 1.121
583.40 1.12
583.50 1.119
583.60 1.118
583.70 1.117
583.80 1.116
583.90 1.115
584.00 1.114
584.10 1.114
584.20 1.113
584.30 1.112
584.40 1.111
584.50 1.11
584.60 1.109
584.70 1.108
584.80 1.107
584.90 1.106
585.00 1.105
585.10 1.104
585.20 1.103
585.30 1.102
585.40 1.101
585.50 1.1
585.60 1.099
585.70 1.098
585.80 1.097
585.90 1.095
586.00 1.094
586.10 1.093
586.20 1.092
586.30 1.091
586.40 1.09
586.50 1.089
586.60 1.088
586.70 1.087
586.80 1.086
586.90 1.085
587.00 1.084
587.10 1.083
587.20 1.082
587.30 1.08
587.40 1.079
587.50 1.078
587.60 1.077
587.70 1.076
587.80 1.075
587.90 1.074
588.00 1.073
588.10 1.072
588.20 1.071
588.30 1.069
588.40 1.068
588.50 1.067
588.60 1.066
588.70 1.065
588.80 1.064
588.90 1.063
589.00 1.061
589.10 1.06
589.20 1.059
589.30 1.058
589.40 1.057
589.50 1.056
589.60 1.054
589.70 1.053
589.80 1.052
589.90 1.051
590.00 1.05
590.10 1.048
590.20 1.047
590.30 1.046
590.40 1.045
590.50 1.044
590.60 1.043
590.70 1.041
590.80 1.04
590.90 1.039
591.00 1.038
591.10 1.037
591.20 1.036
591.30 1.034
591.40 1.033
591.50 1.032
591.60 1.031
591.70 1.03
591.80 1.029
591.90 1.027
592.00 1.026
592.10 1.025
592.20 1.024
592.30 1.023
592.40 1.022
592.50 1.02
592.60 1.019
592.70 1.018
592.80 1.017
592.90 1.016
593.00 1.014
593.10 1.013
593.20 1.012
593.30 1.011
593.40 1.01
593.50 1.009
593.60 1.008
593.70 1.006
593.80 1.005
593.90 1.004
594.00 1.003
594.10 1.002
594.20 1.001
594.30 0.9994
594.40 0.9982
594.50 0.997
594.60 0.9959
594.70 0.9947
594.80 0.9935
594.90 0.9923
595.00 0.9912
595.10 0.99
595.20 0.9888
595.30 0.9877
595.40 0.9865
595.50 0.9854
595.60 0.9842
595.70 0.983
595.80 0.9819
595.90 0.9807
596.00 0.9795
596.10 0.9784
596.20 0.9772
596.30 0.9761
596.40 0.9749
596.50 0.9738
596.60 0.9727
596.70 0.9715
596.80 0.9704
596.90 0.9692
597.00 0.9681
597.10 0.967
597.20 0.9658
597.30 0.9646
597.40 0.9635
597.50 0.9623
597.60 0.9611
597.70 0.96
597.80 0.9588
597.90 0.9577
598.00 0.9565
598.10 0.9553
598.20 0.9542
598.30 0.953
598.40 0.9518
598.50 0.9507
598.60 0.9495
598.70 0.9483
598.80 0.9472
598.90 0.946
599.00 0.9449
599.10 0.9437
599.20 0.9425
599.30 0.9414
599.40 0.9402
599.50 0.939
599.60 0.9378
599.70 0.9367
599.80 0.9355
599.90 0.9343
600.00 0.9332
600.10 0.932
600.20 0.9308
600.30 0.9297
600.40 0.9285
600.50 0.9273
600.60 0.9262
600.70 0.925
600.80 0.9238
600.90 0.9227
601.00 0.9215
601.10 0.9203
601.20 0.9192
601.30 0.918
601.40 0.9168
601.50 0.9157
601.60 0.9145
601.70 0.9133
601.80 0.9121
601.90 0.911
602.00 0.9098
602.10 0.9086
602.20 0.9075
602.30 0.9063
602.40 0.9051
602.50 0.904
602.60 0.9028
602.70 0.9016
602.80 0.9005
602.90 0.8993
603.00 0.8981
603.10 0.897
603.20 0.8958
603.30 0.8946
603.40 0.8935
603.50 0.8923
603.60 0.8911
603.70 0.89
603.80 0.8888
603.90 0.8876
604.00 0.8865
604.10 0.8853
604.20 0.8841
604.30 0.883
604.40 0.8818
604.50 0.8806
604.60 0.8795
604.70 0.8783
604.80 0.8771
604.90 0.876
605.00 0.8748
605.10 0.8736
605.20 0.8725
605.30 0.8713
605.40 0.8701
605.50 0.869
605.60 0.8678
605.70 0.8667
605.80 0.8655
605.90 0.8644
606.00 0.8632
606.10 0.8621
606.20 0.8609
606.30 0.8597
606.40 0.8586
606.50 0.8574
606.60 0.8563
606.70 0.8551
606.80 0.854
606.90 0.8528
607.00 0.8517
607.10 0.8505
607.20 0.8494
607.30 0.8482
607.40 0.8471
607.50 0.846
607.60 0.8448
607.70 0.8437
607.80 0.8425
607.90 0.8414
608.00 0.8403
608.10 0.8391
608.20 0.838
608.30 0.8368
608.40 0.8357
608.50 0.8346
608.60 0.8334
608.70 0.8323
608.80 0.8311
608.90 0.83
609.00 0.8289
609.10 0.8277
609.20 0.8266
609.30 0.8255
609.40 0.8243
609.50 0.8232
609.60 0.8221
609.70 0.8209
609.80 0.8198
609.90 0.8187
610.00 0.8175
610.10 0.8164
610.20 0.8153
610.30 0.8142
610.40 0.813
610.50 0.8119
610.60 0.8108
610.70 0.8097
610.80 0.8085
610.90 0.8074
611.00 0.8063
611.10 0.8052
611.20 0.804
611.30 0.8029
611.40 0.8018
611.50 0.8007
611.60 0.7996
611.70 0.7985
611.80 0.7974
611.90 0.7963
612.00 0.7951
612.10 0.794
612.20 0.7929
612.30 0.7918
612.40 0.7907
612.50 0.7896
612.60 0.7885
612.70 0.7873
612.80 0.7862
612.90 0.7851
613.00 0.784
613.10 0.7829
613.20 0.7818
613.30 0.7807
613.40 0.7796
613.50 0.7784
613.60 0.7773
613.70 0.7762
613.80 0.7751
613.90 0.774
614.00 0.7729
614.10 0.7718
614.20 0.7707
614.30 0.7696
614.40 0.7685
614.50 0.7674
614.60 0.7663
614.70 0.7651
614.80 0.764
614.90 0.7629
615.00 0.7618
615.10 0.7607
615.20 0.7596
615.30 0.7585
615.40 0.7574
615.50 0.7563
615.60 0.7552
615.70 0.7541
615.80 0.753
615.90 0.7519
616.00 0.7508
616.10 0.7497
616.20 0.7486
616.30 0.7475
616.40 0.7464
616.50 0.7453
616.60 0.7442
616.70 0.7431
616.80 0.742
616.90 0.7409
617.00 0.7398
617.10 0.7388
617.20 0.7377
617.30 0.7366
617.40 0.7355
617.50 0.7344
617.60 0.7333
617.70 0.7322
617.80 0.7312
617.90 0.7301
618.00 0.729
618.10 0.7279
618.20 0.7269
618.30 0.7258
618.40 0.7247
618.50 0.7236
618.60 0.7226
618.70 0.7215
618.80 0.7204
618.90 0.7193
619.00 0.7183
619.10 0.7172
619.20 0.7161
619.30 0.715
619.40 0.714
619.50 0.7129
619.60 0.7118
619.70 0.7108
619.80 0.7097
619.90 0.7086
620.00 0.7075
620.10 0.7065
620.20 0.7054
620.30 0.7044
620.40 0.7033
620.50 0.7023
620.60 0.7012
620.70 0.7002
620.80 0.6991
620.90 0.6981
621.00 0.697
621.10 0.696
621.20 0.6949
621.30 0.6939
621.40 0.6929
621.50 0.6918
621.60 0.6908
621.70 0.6898
621.80 0.6887
621.90 0.6877
622.00 0.6867
622.10 0.6856
622.20 0.6846
622.30 0.6836
622.40 0.6826
622.50 0.6816
622.60 0.6806
622.70 0.6796
622.80 0.6786
622.90 0.6776
623.00 0.6766
623.10 0.6756
623.20 0.6745
623.30 0.6735
623.40 0.6725
623.50 0.6715
623.60 0.6705
623.70 0.6695
623.80 0.6684
623.90 0.6674
624.00 0.6664
624.10 0.6654
624.20 0.6644
624.30 0.6634
624.40 0.6624
624.50 0.6614
624.60 0.6603
624.70 0.6593
624.80 0.6583
624.90 0.6573
625.00 0.6563
625.10 0.6553
625.20 0.6543
625.30 0.6533
625.40 0.6523
625.50 0.6513
625.60 0.6503
625.70 0.6493
625.80 0.6482
625.90 0.6472
626.00 0.6462
626.10 0.6452
626.20 0.6442
626.30 0.6432
626.40 0.6422
626.50 0.6412
626.60 0.6402
626.70 0.6392
626.80 0.6382
626.90 0.6371
627.00 0.6361
627.10 0.6351
627.20 0.6341
627.30 0.6331
627.40 0.6321
627.50 0.6311
627.60 0.6301
627.70 0.6291
627.80 0.6281
627.90 0.6271
628.00 0.6262
628.10 0.6252
628.20 0.6242
628.30 0.6232
628.40 0.6222
628.50 0.6212
628.60 0.6202
628.70 0.6192
628.80 0.6182
628.90 0.6173
629.00 0.6163
629.10 0.6153
629.20 0.6143
629.30 0.6133
629.40 0.6123
629.50 0.6114
629.60 0.6104
629.70 0.6094
629.80 0.6084
629.90 0.6074
630.00 0.6065
630.10 0.6055
630.20 0.6045
630.30 0.6035
630.40 0.6026
630.50 0.6016
630.60 0.6006
630.70 0.5997
630.80 0.5987
630.90 0.5978
631.00 0.5968
631.10 0.5958
631.20 0.5949
631.30 0.5939
631.40 0.5929
631.50 0.592
631.60 0.591
631.70 0.59
631.80 0.5891
631.90 0.5881
632.00 0.5871
632.10 0.5862
632.20 0.5852
632.30 0.5843
632.40 0.5833
632.50 0.5823
632.60 0.5814
632.70 0.5804
632.80 0.5795
632.90 0.5785
633.00 0.5776
633.10 0.5766
633.20 0.5756
633.30 0.5747
633.40 0.5737
633.50 0.5728
633.60 0.5718
633.70 0.5709
633.80 0.5699
633.90 0.569
634.00 0.568
634.10 0.5671
634.20 0.5661
634.30 0.5652
634.40 0.5642
634.50 0.5633
634.60 0.5623
634.70 0.5614
634.80 0.5604
634.90 0.5595
635.00 0.5586
635.10 0.5576
635.20 0.5567
635.30 0.5557
635.40 0.5548
635.50 0.5539
635.60 0.5529
635.70 0.552
635.80 0.551
635.90 0.5501
636.00 0.5492
636.10 0.5482
636.20 0.5473
636.30 0.5464
636.40 0.5454
636.50 0.5445
636.60 0.5436
636.70 0.5426
636.80 0.5417
636.90 0.5408
637.00 0.5399
637.10 0.5389
637.20 0.538
637.30 0.5371
637.40 0.5362
637.50 0.5352
637.60 0.5343
637.70 0.5334
637.80 0.5325
637.90 0.5316
638.00 0.5306
638.10 0.5297
638.20 0.5288
638.30 0.5279
638.40 0.527
638.50 0.5261
638.60 0.5252
638.70 0.5243
638.80 0.5234
638.90 0.5225
639.00 0.5216
639.10 0.5207
639.20 0.5198
639.30 0.5189
639.40 0.518
639.50 0.5171
639.60 0.5162
639.70 0.5153
639.80 0.5144
639.90 0.5134
640.00 0.5125
640.10 0.5116
640.20 0.5107
640.30 0.5098
640.40 0.5089
640.50 0.508
640.60 0.5071
640.70 0.5062
640.80 0.5053
640.90 0.5044
641.00 0.5035
641.10 0.5026
641.20 0.5017
641.30 0.5008
641.40 0.4999
641.50 0.4989
641.60 0.498
641.70 0.4971
641.80 0.4962
641.90 0.4953
642.00 0.4944
642.10 0.4935
642.20 0.4926
642.30 0.4917
642.40 0.4908
642.50 0.4899
642.60 0.489
642.70 0.4881
642.80 0.4871
642.90 0.4862
643.00 0.4853
643.10 0.4844
643.20 0.4835
643.30 0.4826
643.40 0.4817
643.50 0.4808
643.60 0.4799
643.70 0.479
643.80 0.4781
643.90 0.4772
644.00 0.4764
644.10 0.4755
644.20 0.4746
644.30 0.4737
644.40 0.4728
644.50 0.472
644.60 0.4711
644.70 0.4702
644.80 0.4693
644.90 0.4685
645.00 0.4676
645.10 0.4667
645.20 0.4658
645.30 0.465
645.40 0.4641
645.50 0.4632
645.60 0.4624
645.70 0.4615
645.80 0.4607
645.90 0.4598
646.00 0.4589
646.10 0.4581
646.20 0.4572
646.30 0.4564
646.40 0.4555
646.50 0.4547
646.60 0.4538
646.70 0.453
646.80 0.4522
646.90 0.4513
647.00 0.4505
647.10 0.4497
647.20 0.4488
647.30 0.448
647.40 0.4472
647.50 0.4463
647.60 0.4455
647.70 0.4446
647.80 0.4438
647.90 0.443
648.00 0.4421
648.10 0.4413
648.20 0.4405
648.30 0.4396
648.40 0.4388
648.50 0.438
648.60 0.4371
648.70 0.4363
648.80 0.4355
648.90 0.4347
649.00 0.4338
649.10 0.433
649.20 0.4322
649.30 0.4314
649.40 0.4305
649.50 0.4297
649.60 0.4289
649.70 0.4281
649.80 0.4273
649.90 0.4264
650.00 0.4256
650.10 0.4248
650.20 0.424
650.30 0.4232
650.40 0.4224
650.50 0.4216
650.60 0.4208
650.70 0.4199
650.80 0.4191
650.90 0.4183
651.00 0.4175
651.10 0.4167
651.20 0.4159
651.30 0.4151
651.40 0.4143
651.50 0.4135
651.60 0.4127
651.70 0.4119
651.80 0.4111
651.90 0.4103
652.00 0.4095
652.10 0.4087
652.20 0.4079
652.30 0.4071
652.40 0.4063
652.50 0.4055
652.60 0.4047
652.70 0.4039
652.80 0.4032
652.90 0.4024
653.00 0.4016
653.10 0.4008
653.20 0.4
653.30 0.3992
653.40 0.3985
653.50 0.3977
653.60 0.3969
653.70 0.3961
653.80 0.3954
653.90 0.3946
654.00 0.3938
654.10 0.393
654.20 0.3923
654.30 0.3915
654.40 0.3907
654.50 0.3899
654.60 0.3892
654.70 0.3884
654.80 0.3876
654.90 0.3869
655.00 0.3861
655.10 0.3854
655.20 0.3846
655.30 0.3838
655.40 0.3831
655.50 0.3823
655.60 0.3816
655.70 0.3808
655.80 0.3801
655.90 0.3793
656.00 0.3786
656.10 0.3778
656.20 0.3771
656.30 0.3763
656.40 0.3756
656.50 0.3748
656.60 0.3741
656.70 0.3733
656.80 0.3726
656.90 0.3719
657.00 0.3711
657.10 0.3704
657.20 0.3696
657.30 0.3689
657.40 0.3681
657.50 0.3674
657.60 0.3667
657.70 0.3659
657.80 0.3652
657.90 0.3645
658.00 0.3637
658.10 0.363
658.20 0.3623
658.30 0.3615
658.40 0.3608
658.50 0.3601
658.60 0.3593
658.70 0.3586
658.80 0.3579
658.90 0.3572
659.00 0.3564
659.10 0.3557
659.20 0.355
659.30 0.3543
659.40 0.3536
659.50 0.3528
659.60 0.3521
659.70 0.3514
659.80 0.3507
659.90 0.35
660.00 0.3492
660.10 0.3485
660.20 0.3478
660.30 0.3471
660.40 0.3464
660.50 0.3457
660.60 0.345
660.70 0.3443
660.80 0.3436
660.90 0.3428
661.00 0.3421
661.10 0.3414
661.20 0.3407
661.30 0.34
661.40 0.3393
661.50 0.3386
661.60 0.3379
661.70 0.3372
661.80 0.3365
661.90 0.3358
662.00 0.3351
662.10 0.3344
662.20 0.3337
662.30 0.333
662.40 0.3323
662.50 0.3316
662.60 0.3309
662.70 0.3302
662.80 0.3295
662.90 0.3289
663.00 0.3282
663.10 0.3275
663.20 0.3268
663.30 0.3261
663.40 0.3254
663.50 0.3247
663.60 0.324
663.70 0.3234
663.80 0.3227
663.90 0.322
664.00 0.3213
664.10 0.3206
664.20 0.3199
664.30 0.3193
664.40 0.3186
664.50 0.3179
664.60 0.3172
664.70 0.3166
664.80 0.3159
664.90 0.3152
665.00 0.3145
665.10 0.3139
665.20 0.3132
665.30 0.3125
665.40 0.3118
665.50 0.3112
665.60 0.3105
665.70 0.3098
665.80 0.3092
665.90 0.3085
666.00 0.3078
666.10 0.3072
666.20 0.3065
666.30 0.3058
666.40 0.3052
666.50 0.3045
666.60 0.3038
666.70 0.3032
666.80 0.3025
666.90 0.3019
667.00 0.3012
667.10 0.3005
667.20 0.2999
667.30 0.2992
667.40 0.2986
667.50 0.2979
667.60 0.2973
667.70 0.2966
667.80 0.2959
667.90 0.2953
668.00 0.2946
668.10 0.294
668.20 0.2933
668.30 0.2927
668.40 0.292
668.50 0.2914
668.60 0.2907
668.70 0.2901
668.80 0.2895
668.90 0.2888
669.00 0.2882
669.10 0.2875
669.20 0.2869
669.30 0.2862
669.40 0.2856
669.50 0.285
669.60 0.2843
669.70 0.2837
669.80 0.283
669.90 0.2824
670.00 0.2818
670.10 0.2811
670.20 0.2805
670.30 0.2799
670.40 0.2792
670.50 0.2786
670.60 0.2779
670.70 0.2773
670.80 0.2767
670.90 0.2761
671.00 0.2754
671.10 0.2748
671.20 0.2742
671.30 0.2735
671.40 0.2729
671.50 0.2723
671.60 0.2716
671.70 0.271
671.80 0.2704
671.90 0.2698
672.00 0.2691
672.10 0.2685
672.20 0.2679
672.30 0.2673
672.40 0.2667
672.50 0.266
672.60 0.2654
672.70 0.2648
672.80 0.2642
672.90 0.2636
673.00 0.2629
673.10 0.2623
673.20 0.2617
673.30 0.2611
673.40 0.2605
673.50 0.2599
673.60 0.2593
673.70 0.2586
673.80 0.258
673.90 0.2574
674.00 0.2568
674.10 0.2562
674.20 0.2556
674.30 0.255
674.40 0.2544
674.50 0.2538
674.60 0.2532
674.70 0.2526
674.80 0.252
674.90 0.2514
675.00 0.2508
675.10 0.2502
675.20 0.2495
675.30 0.2489
675.40 0.2484
675.50 0.2478
675.60 0.2472
675.70 0.2466
675.80 0.246
675.90 0.2454
676.00 0.2448
676.10 0.2442
676.20 0.2436
676.30 0.243
676.40 0.2424
676.50 0.2418
676.60 0.2412
676.70 0.2406
676.80 0.24
676.90 0.2395
677.00 0.2389
677.10 0.2383
677.20 0.2377
677.30 0.2371
677.40 0.2365
677.50 0.236
677.60 0.2354
677.70 0.2348
677.80 0.2342
677.90 0.2336
678.00 0.2331
678.10 0.2325
678.20 0.2319
678.30 0.2313
678.40 0.2308
678.50 0.2302
678.60 0.2296
678.70 0.229
678.80 0.2285
678.90 0.2279
679.00 0.2273
679.10 0.2267
679.20 0.2262
679.30 0.2256
679.40 0.225
679.50 0.2245
679.60 0.2239
679.70 0.2233
679.80 0.2228
679.90 0.2222
680.00 0.2216
680.10 0.2211
680.20 0.2205
680.30 0.2199
680.40 0.2194
680.50 0.2188
680.60 0.2183
680.70 0.2177
680.80 0.2171
680.90 0.2166
681.00 0.216
681.10 0.2155
681.20 0.2149
681.30 0.2144
681.40 0.2138
681.50 0.2132
681.60 0.2127
681.70 0.2121
681.80 0.2116
681.90 0.211
682.00 0.2105
682.10 0.2099
682.20 0.2094
682.30 0.2088
682.40 0.2083
682.50 0.2078
682.60 0.2072
682.70 0.2067
682.80 0.2061
682.90 0.2056
683.00 0.205
683.10 0.2045
683.20 0.2039
683.30 0.2034
683.40 0.2029
683.50 0.2023
683.60 0.2018
683.70 0.2013
683.80 0.2007
683.90 0.2002
684.00 0.1997
684.10 0.1991
684.20 0.1986
684.30 0.1981
684.40 0.1975
684.50 0.197
684.60 0.1965
684.70 0.1959
684.80 0.1954
684.90 0.1949
685.00 0.1944
685.10 0.1938
685.20 0.1933
685.30 0.1928
685.40 0.1923
685.50 0.1917
685.60 0.1912
685.70 0.1907
685.80 0.1902
685.90 0.1897
686.00 0.1892
686.10 0.1886
686.20 0.1881
686.30 0.1876
686.40 0.1871
686.50 0.1866
686.60 0.1861
686.70 0.1856
686.80 0.185
686.90 0.1845
687.00 0.184
687.10 0.1835
687.20 0.183
687.30 0.1825
687.40 0.182
687.50 0.1815
687.60 0.181
687.70 0.1805
687.80 0.18
687.90 0.1795
688.00 0.179
688.10 0.1785
688.20 0.178
688.30 0.1775
688.40 0.177
688.50 0.1765
688.60 0.176
688.70 0.1755
688.80 0.175
688.90 0.1745
689.00 0.174
689.10 0.1735
689.20 0.173
689.30 0.1726
689.40 0.1721
689.50 0.1716
689.60 0.1711
689.70 0.1707
689.80 0.1702
689.90 0.1697
690.00 0.1693
690.10 0.1688
690.20 0.1683
690.30 0.1679
690.40 0.1674
690.50 0.1669
690.60 0.1665
690.70 0.166
690.80 0.1655
690.90 0.1651
691.00 0.1646
691.10 0.1641
691.20 0.1637
691.30 0.1632
691.40 0.1627
691.50 0.1623
691.60 0.1618
691.70 0.1613
691.80 0.1609
691.90 0.1604
692.00 0.1599
692.10 0.1595
692.20 0.159
692.30 0.1585
692.40 0.1581
692.50 0.1576
692.60 0.1572
692.70 0.1567
692.80 0.1562
692.90 0.1558
693.00 0.1553
693.10 0.1549
693.20 0.1544
693.30 0.1539
693.40 0.1535
693.50 0.153
693.60 0.1525
693.70 0.1521
693.80 0.1516
693.90 0.1512
694.00 0.1507
694.10 0.1503
694.20 0.1498
694.30 0.1493
694.40 0.1489
694.50 0.1484
694.60 0.148
694.70 0.1475
694.80 0.1471
694.90 0.1466
695.00 0.1461
695.10 0.1457
695.20 0.1453
695.30 0.1449
695.40 0.1445
695.50 0.144
695.60 0.1436
695.70 0.1432
695.80 0.1428
695.90 0.1423
696.00 0.1419
696.10 0.1415
696.20 0.1411
696.30 0.1407
696.40 0.1402
696.50 0.1398
696.60 0.1394
696.70 0.139
696.80 0.1386
696.90 0.1381
697.00 0.1377
697.10 0.1373
697.20 0.1369
697.30 0.1365
697.40 0.1361
697.50 0.1356
697.60 0.1352
697.70 0.1348
697.80 0.1344
697.90 0.134
698.00 0.1336
698.10 0.1331
698.20 0.1327
698.30 0.1323
698.40 0.1319
698.50 0.1315
698.60 0.1311
698.70 0.1307
698.80 0.1302
698.90 0.1298
699.00 0.1294
699.10 0.129
699.20 0.1286
699.30 0.1282
699.40 0.1278
699.50 0.1274
699.60 0.1269
699.70 0.1265
699.80 0.1261
699.90 0.1257
700.00 0.1253
700.10 0.1249
700.20 0.1245
700.30 0.1242
700.40 0.1238
700.50 0.1234
700.60 0.123
700.70 0.1226
700.80 0.1223
700.90 0.1219
701.00 0.1215
701.10 0.1211
701.20 0.1208
701.30 0.1204
701.40 0.12
701.50 0.1196
701.60 0.1193
701.70 0.1189
701.80 0.1185
701.90 0.1181
702.00 0.1178
702.10 0.1174
702.20 0.117
702.30 0.1166
702.40 0.1163
702.50 0.1159
702.60 0.1155
702.70 0.1151
702.80 0.1148
702.90 0.1144
703.00 0.114
703.10 0.1136
703.20 0.1133
703.30 0.1129
703.40 0.1125
703.50 0.1122
703.60 0.1118
703.70 0.1114
703.80 0.111
703.90 0.1107
704.00 0.1103
704.10 0.1099
704.20 0.1096
704.30 0.1092
704.40 0.1088
704.50 0.1085
704.60 0.1081
704.70 0.1077
704.80 0.1073
704.90 0.107
705.00 0.1066
705.10 0.1063
705.20 0.1059
705.30 0.1056
705.40 0.1053
705.50 0.1049
705.60 0.1046
705.70 0.1043
705.80 0.1039
705.90 0.1036
706.00 0.1033
706.10 0.103
706.20 0.1026
706.30 0.1023
706.40 0.102
706.50 0.1016
706.60 0.1013
706.70 0.101
706.80 0.1006
706.90 0.1003
707.00 0.09998
707.10 0.09965
707.20 0.09932
707.30 0.09899
707.40 0.09866
707.50 0.09834
707.60 0.09801
707.70 0.09768
707.80 0.09735
707.90 0.09702
708.00 0.0967
708.10 0.09637
708.20 0.09604
708.30 0.09571
708.40 0.09539
708.50 0.09506
708.60 0.09473
708.70 0.09441
708.80 0.09408
708.90 0.09376
709.00 0.09343
709.10 0.0931
709.20 0.09278
709.30 0.09245
709.40 0.09213
709.50 0.0918
709.60 0.09148
709.70 0.09115
709.80 0.09083
709.90 0.0905
710.00 0.09018
710.10 0.08989
710.20 0.0896
710.30 0.08932
710.40 0.08903
710.50 0.08874
710.60 0.08845
710.70 0.08816
710.80 0.08788
710.90 0.08759
711.00 0.0873
711.10 0.08701
711.20 0.08673
711.30 0.08644
711.40 0.08615
711.50 0.08587
711.60 0.08558
711.70 0.08529
711.80 0.08501
711.90 0.08472
712.00 0.08444
712.10 0.08415
712.20 0.08387
712.30 0.08358
712.40 0.0833
712.50 0.08301
712.60 0.08273
712.70 0.08244
712.80 0.08216
712.90 0.08187
713.00 0.08159
713.10 0.08131
713.20 0.08102
713.30 0.08074
713.40 0.08045
713.50 0.08017
713.60 0.07989
713.70 0.0796
713.80 0.07932
713.90 0.07904
714.00 0.07876
714.10 0.07847
714.20 0.07819
714.30 0.07791
714.40 0.07763
714.50 0.07735
714.60 0.07706
714.70 0.07678
714.80 0.0765
714.90 0.07622
715.00 0.07594
715.10 0.07569
715.20 0.07545
715.30 0.07521
715.40 0.07496
715.50 0.07472
715.60 0.07447
715.70 0.07423
715.80 0.07398
715.90 0.07374
716.00 0.0735
716.10 0.07325
716.20 0.07301
716.30 0.07277
716.40 0.07252
716.50 0.07228
716.60 0.07204
716.70 0.0718
716.80 0.07155
716.90 0.07131
717.00 0.07107
717.10 0.07083
717.20 0.07058
717.30 0.07034
717.40 0.0701
717.50 0.06986
717.60 0.06962
717.70 0.06938
717.80 0.06913
717.90 0.06889
718.00 0.06865
718.10 0.06841
718.20 0.06817
718.30 0.06793
718.40 0.06769
718.50 0.06745
718.60 0.06721
718.70 0.06697
718.80 0.06673
718.90 0.06649
719.00 0.06625
719.10 0.06601
719.20 0.06577
719.30 0.06553
719.40 0.06529
719.50 0.06505
719.60 0.06481
719.70 0.06458
719.80 0.06434
719.90 0.0641
720.00 0.06386
720.10 0.06365
720.20 0.06345
720.30 0.06324
720.40 0.06304
720.50 0.06283
720.60 0.06263
720.70 0.06242
720.80 0.06222
720.90 0.06201
721.00 0.06181
721.10 0.0616
721.20 0.0614
721.30 0.0612
721.40 0.06099
721.50 0.06079
721.60 0.06058
721.70 0.06038
721.80 0.06018
721.90 0.05997
722.00 0.05977
722.10 0.05956
722.20 0.05936
722.30 0.05916
722.40 0.05896
722.50 0.05875
722.60 0.05855
722.70 0.05835
722.80 0.05814
722.90 0.05794
723.00 0.05774
723.10 0.05754
723.20 0.05733
723.30 0.05713
723.40 0.05693
723.50 0.05673
723.60 0.05653
723.70 0.05633
723.80 0.05612
723.90 0.05592
724.00 0.05572
724.10 0.05552
724.20 0.05532
724.30 0.05512
724.40 0.05492
724.50 0.05472
724.60 0.05452
724.70 0.05432
724.80 0.05411
724.90 0.05391
725.00 0.05371
725.10 0.05354
725.20 0.05337
725.30 0.05321
725.40 0.05304
725.50 0.05287
725.60 0.0527
725.70 0.05253
725.80 0.05236
725.90 0.05219
726.00 0.05202
726.10 0.05185
726.20 0.05168
726.30 0.05152
726.40 0.05135
726.50 0.05118
726.60 0.05101
726.70 0.05084
726.80 0.05067
726.90 0.05051
727.00 0.05034
727.10 0.05017
727.20 0.05
727.30 0.04984
727.40 0.04967
727.50 0.0495
727.60 0.04933
727.70 0.04917
727.80 0.049
727.90 0.04883
728.00 0.04866
728.10 0.0485
728.20 0.04833
728.30 0.04816
728.40 0.048
728.50 0.04783
728.60 0.04766
728.70 0.0475
728.80 0.04733
728.90 0.04717
729.00 0.047
729.10 0.04683
729.20 0.04667
729.30 0.0465
729.40 0.04634
729.50 0.04617
729.60 0.046
729.70 0.04584
729.80 0.04567
729.90 0.04551
730.00 0.04534
730.10 0.04522
730.20 0.04511
730.30 0.04499
730.40 0.04487
730.50 0.04475
730.60 0.04463
730.70 0.04452
730.80 0.0444
730.90 0.04428
731.00 0.04416
731.10 0.04404
731.20 0.04393
731.30 0.04381
731.40 0.04369
731.50 0.04357
731.60 0.04346
731.70 0.04334
731.80 0.04322
731.90 0.0431
732.00 0.04299
732.10 0.04287
732.20 0.04275
732.30 0.04264
732.40 0.04252
732.50 0.0424
732.60 0.04229
732.70 0.04217
732.80 0.04205
732.90 0.04194
733.00 0.04182
733.10 0.0417
733.20 0.04159
733.30 0.04147
733.40 0.04135
733.50 0.04124
733.60 0.04112
733.70 0.04101
733.80 0.04089
733.90 0.04077
734.00 0.04066
734.10 0.04054
734.20 0.04043
734.30 0.04031
734.40 0.04019
734.50 0.04008
734.60 0.03996
734.70 0.03985
734.80 0.03973
734.90 0.03962
735.00 0.0395
735.10 0.03939
735.20 0.03927
735.30 0.03916
735.40 0.03904
735.50 0.03893
735.60 0.03881
735.70 0.0387
735.80 0.03858
735.90 0.03847
736.00 0.03835
736.10 0.03824
736.20 0.03812
736.30 0.03801
736.40 0.03789
736.50 0.03778
736.60 0.03767
736.70 0.03755
736.80 0.03744
736.90 0.03732
737.00 0.03721
737.10 0.0371
737.20 0.03698
737.30 0.03687
737.40 0.03675
737.50 0.03664
737.60 0.03653
737.70 0.03641
737.80 0.0363
737.90 0.03619
738.00 0.03607
738.10 0.03596
738.20 0.03585
738.30 0.03573
738.40 0.03562
738.50 0.03551
738.60 0.03539
738.70 0.03528
738.80 0.03517
738.90 0.03505
739.00 0.03494
739.10 0.03483
739.20 0.03472
739.30 0.0346
739.40 0.03449
739.50 0.03438
739.60 0.03426
739.70 0.03415
739.80 0.03404
739.90 0.03393
740.00 0.03382
740.10 0.03375
740.20 0.03368
740.30 0.03361
740.40 0.03354
740.50 0.03347
740.60 0.0334
740.70 0.03333
740.80 0.03326
740.90 0.03319
741.00 0.03312
741.10 0.03305
741.20 0.03299
741.30 0.03292
741.40 0.03285
741.50 0.03278
741.60 0.03271
741.70 0.03264
741.80 0.03257
741.90 0.0325
742.00 0.03244
742.10 0.03237
742.20 0.0323
742.30 0.03223
742.40 0.03216
742.50 0.03209
742.60 0.03202
742.70 0.03196
742.80 0.03189
742.90 0.03182
743.00 0.03175
743.10 0.03168
743.20 0.03161
743.30 0.03155
743.40 0.03148
743.50 0.03141
743.60 0.03134
743.70 0.03127
743.80 0.0312
743.90 0.03114
744.00 0.03107
744.10 0.031
744.20 0.03093
744.30 0.03087
744.40 0.0308
744.50 0.03073
744.60 0.03066
744.70 0.03059
744.80 0.03053
744.90 0.03046
745.00 0.03039
745.10 0.03032
745.20 0.03026
745.30 0.03019
745.40 0.03012
745.50 0.03005
745.60 0.02999
745.70 0.02992
745.80 0.02985
745.90 0.02978
746.00 0.02972
746.10 0.02965
746.20 0.02958
746.30 0.02952
746.40 0.02945
746.50 0.02938
746.60 0.02931
746.70 0.02925
746.80 0.02918
746.90 0.02911
747.00 0.02905
747.10 0.02898
747.20 0.02891
747.30 0.02885
747.40 0.02878
747.50 0.02871
747.60 0.02865
747.70 0.02858
747.80 0.02851
747.90 0.02845
748.00 0.02838
748.10 0.02831
748.20 0.02825
748.30 0.02818
748.40 0.02811
748.50 0.02805
748.60 0.02798
748.70 0.02791
748.80 0.02785
748.90 0.02778
749.00 0.02772
749.10 0.02765
749.20 0.02758
749.30 0.02752
749.40 0.02745
749.50 0.02738
749.60 0.02732
749.70 0.02725
749.80 0.02719
749.90 0.02712
750.00 0.02706
750.10 0.02702
750.20 0.02698
750.30 0.02694
750.40 0.0269
750.50 0.02686
750.60 0.02683
750.70 0.02679
750.80 0.02675
750.90 0.02671
751.00 0.02667
751.10 0.02663
751.20 0.0266
751.30 0.02656
751.40 0.02652
751.50 0.02648
751.60 0.02644
751.70 0.02641
751.80 0.02637
751.90 0.02633
752.00 0.02629
752.10 0.02625
752.20 0.02622
752.30 0.02618
752.40 0.02614
752.50 0.0261
752.60 0.02606
752.70 0.02603
752.80 0.02599
752.90 0.02595
753.00 0.02591
753.10 0.02587
753.20 0.02584
753.30 0.0258
753.40 0.02576
753.50 0.02572
753.60 0.02569
753.70 0.02565
753.80 0.02561
753.90 0.02557
754.00 0.02554
754.10 0.0255
754.20 0.02546
754.30 0.02542
754.40 0.02539
754.50 0.02535
754.60 0.02531
754.70 0.02527
754.80 0.02524
754.90 0.0252
755.00 0.02516
755.10 0.02512
755.20 0.02509
755.30 0.02505
755.40 0.02501
755.50 0.02497
755.60 0.02494
755.70 0.0249
755.80 0.02486
755.90 0.02482
756.00 0.02479
756.10 0.02475
756.20 0.02471
756.30 0.02468
756.40 0.02464
756.50 0.0246
756.60 0.02456
756.70 0.02453
756.80 0.02449
756.90 0.02445
757.00 0.02442
757.10 0.02438
757.20 0.02434
757.30 0.0243
757.40 0.02427
757.50 0.02423
757.60 0.02419
757.70 0.02416
757.80 0.02412
757.90 0.02408
758.00 0.02405
758.10 0.02401
758.20 0.02397
758.30 0.02394
758.40 0.0239
758.50 0.02386
758.60 0.02383
758.70 0.02379
758.80 0.02375
758.90 0.02372
759.00 0.02368
759.10 0.02364
759.20 0.02361
759.30 0.02357
759.40 0.02353
759.50 0.0235
759.60 0.02346
759.70 0.02342
759.80 0.02339
759.90 0.02335
760.00 0.02331
760.10 0.02329
760.20 0.02327
760.30 0.02325
760.40 0.02323
760.50 0.02321
760.60 0.02319
760.70 0.02317
760.80 0.02315
760.90 0.02313
761.00 0.02311
761.10 0.02309
761.20 0.02307
761.30 0.02305
761.40 0.02303
761.50 0.02301
761.60 0.02299
761.70 0.02297
761.80 0.02295
761.90 0.02293
762.00 0.02291
762.10 0.02289
762.20 0.02287
762.30 0.02285
762.40 0.02283
762.50 0.02281
762.60 0.02279
762.70 0.02277
762.80 0.02275
762.90 0.02273
763.00 0.02271
763.10 0.02269
763.20 0.02267
763.30 0.02265
763.40 0.02263
763.50 0.02261
763.60 0.02259
763.70 0.02257
763.80 0.02255
763.90 0.02253
764.00 0.02251
764.10 0.02249
764.20 0.02247
764.30 0.02245
764.40 0.02243
764.50 0.02241
764.60 0.02239
764.70 0.02238
764.80 0.02236
764.90 0.02234
765.00 0.02232
765.10 0.0223
765.20 0.02228
765.30 0.02226
765.40 0.02224
765.50 0.02222
765.60 0.0222
765.70 0.02218
765.80 0.02216
765.90 0.02214
766.00 0.02212
766.10 0.0221
766.20 0.02208
766.30 0.02206
766.40 0.02204
766.50 0.02202
766.60 0.022
766.70 0.02198
766.80 0.02196
766.90 0.02194
767.00 0.02192
767.10 0.0219
767.20 0.02188
767.30 0.02187
767.40 0.02185
767.50 0.02183
767.60 0.02181
767.70 0.02179
767.80 0.02177
767.90 0.02175
768.00 0.02173
768.10 0.02171
768.20 0.02169
768.30 0.02167
768.40 0.02165
768.50 0.02163
768.60 0.02161
768.70 0.02159
768.80 0.02157
768.90 0.02155
769.00 0.02154
769.10 0.02152
769.20 0.0215
769.30 0.02148
769.40 0.02146
769.50 0.02144
769.60 0.02142
769.70 0.0214
769.80 0.02138
769.90 0.02136
770.00 0.02134
770.10 0.02133
770.20 0.02132
770.30 0.02131
770.40 0.0213
770.50 0.02129
770.60 0.02128
770.70 0.02127
770.80 0.02125
770.90 0.02124
771.00 0.02123
771.10 0.02122
771.20 0.02121
771.30 0.0212
771.40 0.02119
771.50 0.02118
771.60 0.02117
771.70 0.02116
771.80 0.02114
771.90 0.02113
772.00 0.02112
772.10 0.02111
772.20 0.0211
772.30 0.02109
772.40 0.02108
772.50 0.02107
772.60 0.02106
772.70 0.02105
772.80 0.02104
772.90 0.02102
773.00 0.02101
773.10 0.021
773.20 0.02099
773.30 0.02098
773.40 0.02097
773.50 0.02096
773.60 0.02095
773.70 0.02094
773.80 0.02093
773.90 0.02092
774.00 0.0209
774.10 0.02089
774.20 0.02088
774.30 0.02087
774.40 0.02086
774.50 0.02085
774.60 0.02084
774.70 0.02083
774.80 0.02082
774.90 0.02081
775.00 0.0208
775.10 0.02079
775.20 0.02077
775.30 0.02076
775.40 0.02075
775.50 0.02074
775.60 0.02073
775.70 0.02072
775.80 0.02071
775.90 0.0207
776.00 0.02069
776.10 0.02068
776.20 0.02067
776.30 0.02066
776.40 0.02065
776.50 0.02063
776.60 0.02062
776.70 0.02061
776.80 0.0206
776.90 0.02059
777.00 0.02058
777.10 0.02057
777.20 0.02056
777.30 0.02055
777.40 0.02054
777.50 0.02053
777.60 0.02052
777.70 0.02051
777.80 0.0205
777.90 0.02049
778.00 0.02047
778.10 0.02046
778.20 0.02045
778.30 0.02044
778.40 0.02043
778.50 0.02042
778.60 0.02041
778.70 0.0204
778.80 0.02039
778.90 0.02038
779.00 0.02037
779.10 0.02036
779.20 0.02035
779.30 0.02034
779.40 0.02033
779.50 0.02032
779.60 0.0203
779.70 0.02029
779.80 0.02028
779.90 0.02027
780.00 0.02026
780.10 0.02027
780.20 0.02028
780.30 0.02029
780.40 0.0203
780.50 0.0203
780.60 0.02031
780.70 0.02032
780.80 0.02033
780.90 0.02034
781.00 0.02035
781.10 0.02035
781.20 0.02036
781.30 0.02037
781.40 0.02038
781.50 0.02039
781.60 0.0204
781.70 0.0204
781.80 0.02041
781.90 0.02042
782.00 0.02043
782.10 0.02044
782.20 0.02044
782.30 0.02045
782.40 0.02046
782.50 0.02047
782.60 0.02048
782.70 0.02049
782.80 0.02049
782.90 0.0205
783.00 0.02051
783.10 0.02052
783.20 0.02053
783.30 0.02054
783.40 0.02054
783.50 0.02055
783.60 0.02056
783.70 0.02057
783.80 0.02058
783.90 0.02058
784.00 0.02059
784.10 0.0206
784.20 0.02061
784.30 0.02062
784.40 0.02062
784.50 0.02063
784.60 0.02064
784.70 0.02065
784.80 0.02066
784.90 0.02067
785.00 0.02067
785.10 0.02068
785.20 0.02069
785.30 0.0207
785.40 0.02071
785.50 0.02071
785.60 0.02072
785.70 0.02073
785.80 0.02074
785.90 0.02075
786.00 0.02075
786.10 0.02076
786.20 0.02077
786.30 0.02078
786.40 0.02079
786.50 0.02079
786.60 0.0208
786.70 0.02081
786.80 0.02082
786.90 0.02083
787.00 0.02083
787.10 0.02084
787.20 0.02085
787.30 0.02086
787.40 0.02087
787.50 0.02087
787.60 0.02088
787.70 0.02089
787.80 0.0209
787.90 0.02091
788.00 0.02091
788.10 0.02092
788.20 0.02093
788.30 0.02094
788.40 0.02095
788.50 0.02095
788.60 0.02096
788.70 0.02097
788.80 0.02098
788.90 0.02099
789.00 0.02099
789.10 0.021
789.20 0.02101
789.30 0.02102
789.40 0.02103
789.50 0.02103
789.60 0.02104
789.70 0.02105
789.80 0.02106
789.90 0.02107
790.00 0.02107
790.10 0.02109
790.20 0.02111
790.30 0.02113
790.40 0.02115
790.50 0.02117
790.60 0.02119
790.70 0.02121
790.80 0.02123
790.90 0.02125
791.00 0.02127
791.10 0.02129
791.20 0.02131
791.30 0.02132
791.40 0.02134
791.50 0.02136
791.60 0.02138
791.70 0.0214
791.80 0.02142
791.90 0.02144
792.00 0.02146
792.10 0.02148
792.20 0.0215
792.30 0.02152
792.40 0.02154
792.50 0.02156
792.60 0.02157
792.70 0.02159
792.80 0.02161
792.90 0.02163
793.00 0.02165
793.10 0.02167
793.20 0.02169
793.30 0.02171
793.40 0.02173
793.50 0.02175
793.60 0.02177
793.70 0.02178
793.80 0.0218
793.90 0.02182
794.00 0.02184
794.10 0.02186
794.20 0.02188
794.30 0.0219
794.40 0.02192
794.50 0.02194
794.60 0.02196
794.70 0.02197
794.80 0.02199
794.90 0.02201
795.00 0.02203
795.10 0.02205
795.20 0.02207
795.30 0.02209
795.40 0.02211
795.50 0.02213
795.60 0.02214
795.70 0.02216
795.80 0.02218
795.90 0.0222
796.00 0.02222
796.10 0.02224
796.20 0.02226
796.30 0.02228
796.40 0.02229
796.50 0.02231
796.60 0.02233
796.70 0.02235
796.80 0.02237
796.90 0.02239
797.00 0.02241
797.10 0.02243
797.20 0.02244
797.30 0.02246
797.40 0.02248
797.50 0.0225
797.60 0.02252
797.70 0.02254
797.80 0.02256
797.90 0.02257
798.00 0.02259
798.10 0.02261
798.20 0.02263
798.30 0.02265
798.40 0.02267
798.50 0.02269
798.60 0.02271
798.70 0.02272
798.80 0.02274
798.90 0.02276
799.00 0.02278
799.10 0.0228
799.20 0.02282
799.30 0.02283
799.40 0.02285
799.50 0.02287
799.60 0.02289
799.70 0.02291
799.80 0.02293
799.90 0.02295
800.00 0.02296
800.10 0.02297
800.20 0.02298
800.30 0.02299
800.40 0.023
800.50 0.02301
800.60 0.02302
800.70 0.02303
800.80 0.02304
800.90 0.02305
801.00 0.02306
801.10 0.02307
801.20 0.02308
801.30 0.02309
801.40 0.0231
801.50 0.02311
801.60 0.02312
801.70 0.02313
801.80 0.02314
801.90 0.02315
802.00 0.02316
802.10 0.02317
802.20 0.02318
802.30 0.02319
802.40 0.0232
802.50 0.02321
802.60 0.02322
802.70 0.02323
802.80 0.02324
802.90 0.02325
803.00 0.02326
803.10 0.02327
803.20 0.02328
803.30 0.02329
803.40 0.0233
803.50 0.02331
803.60 0.02332
803.70 0.02333
803.80 0.02334
803.90 0.02335
804.00 0.02336
804.10 0.02337
804.20 0.02338
804.30 0.02339
804.40 0.0234
804.50 0.02341
804.60 0.02341
804.70 0.02342
804.80 0.02343
804.90 0.02344
805.00 0.02345
805.10 0.02346
805.20 0.02347
805.30 0.02348
805.40 0.02349
805.50 0.0235
805.60 0.02351
805.70 0.02352
805.80 0.02353
805.90 0.02354
806.00 0.02355
806.10 0.02356
806.20 0.02357
806.30 0.02358
806.40 0.02359
806.50 0.0236
806.60 0.02361
806.70 0.02362
806.80 0.02363
806.90 0.02364
807.00 0.02365
807.10 0.02366
807.20 0.02366
807.30 0.02367
807.40 0.02368
807.50 0.02369
807.60 0.0237
807.70 0.02371
807.80 0.02372
807.90 0.02373
808.00 0.02374
808.10 0.02375
808.20 0.02376
808.30 0.02377
808.40 0.02378
808.50 0.02379
808.60 0.0238
808.70 0.02381
808.80 0.02382
808.90 0.02383
809.00 0.02384
809.10 0.02385
809.20 0.02385
809.30 0.02386
809.40 0.02387
809.50 0.02388
809.60 0.02389
809.70 0.0239
809.80 0.02391
809.90 0.02392
810.00 0.02393
810.10 0.02394
810.20 0.02395
810.30 0.02395
810.40 0.02396
810.50 0.02397
810.60 0.02398
810.70 0.02398
810.80 0.02399
810.90 0.024
811.00 0.02401
811.10 0.02402
811.20 0.02402
811.30 0.02403
811.40 0.02404
811.50 0.02405
811.60 0.02405
811.70 0.02406
811.80 0.02407
811.90 0.02408
812.00 0.02409
812.10 0.02409
812.20 0.0241
812.30 0.02411
812.40 0.02412
812.50 0.02412
812.60 0.02413
812.70 0.02414
812.80 0.02415
812.90 0.02416
813.00 0.02416
813.10 0.02417
813.20 0.02418
813.30 0.02419
813.40 0.02419
813.50 0.0242
813.60 0.02421
813.70 0.02422
813.80 0.02422
813.90 0.02423
814.00 0.02424
814.10 0.02425
814.20 0.02426
814.30 0.02426
814.40 0.02427
814.50 0.02428
814.60 0.02429
814.70 0.02429
814.80 0.0243
814.90 0.02431
815.00 0.02432
815.10 0.02432
815.20 0.02433
815.30 0.02434
815.40 0.02435
815.50 0.02435
815.60 0.02436
815.70 0.02437
815.80 0.02438
815.90 0.02438
816.00 0.02439
816.10 0.0244
816.20 0.02441
816.30 0.02441
816.40 0.02442
816.50 0.02443
816.60 0.02444
816.70 0.02444
816.80 0.02445
816.90 0.02446
817.00 0.02447
817.10 0.02447
817.20 0.02448
817.30 0.02449
817.40 0.0245
817.50 0.0245
817.60 0.02451
817.70 0.02452
817.80 0.02453
817.90 0.02453
818.00 0.02454
818.10 0.02455
818.20 0.02456
818.30 0.02456
818.40 0.02457
818.50 0.02458
818.60 0.02459
818.70 0.02459
818.80 0.0246
818.90 0.02461
819.00 0.02462
819.10 0.02462
819.20 0.02463
819.30 0.02464
819.40 0.02465
819.50 0.02465
819.60 0.02466
819.70 0.02467
819.80 0.02468
819.90 0.02468
820.00 0.02469
820.10 0.0247
820.20 0.02472
820.30 0.02474
820.40 0.02476
820.50 0.02478
820.60 0.0248
820.70 0.02482
820.80 0.02484
820.90 0.02486
821.00 0.02489
821.10 0.02491
821.20 0.02493
821.30 0.02495
821.40 0.02497
821.50 0.02499
821.60 0.02501
821.70 0.02503
821.80 0.02505
821.90 0.02507
822.00 0.02509
822.10 0.02512
822.20 0.02515
822.30 0.02518
822.40 0.02521
822.50 0.02524
822.60 0.02527
822.70 0.0253
822.80 0.02533
822.90 0.02536
823.00 0.02539
823.10 0.02542
823.20 0.02545
823.30 0.02548
823.40 0.0255
823.50 0.02553
823.60 0.02556
823.70 0.02559
823.80 0.02562
823.90 0.02565
824.00 0.02568
824.10 0.02571
824.20 0.02574
824.30 0.02577
824.40 0.0258
824.50 0.02583
824.60 0.02586
824.70 0.02589
824.80 0.02591
824.90 0.02594
825.00 0.02597
825.10 0.026
825.20 0.02603
825.30 0.02606
825.40 0.02609
825.50 0.02612
825.60 0.02615
825.70 0.02618
825.80 0.02621
825.90 0.02623
826.00 0.02626
826.10 0.02629
826.20 0.02632
826.30 0.02635
826.40 0.02638
826.50 0.02641
826.60 0.02644
826.70 0.02647
826.80 0.0265
826.90 0.02652
827.00 0.02655
827.10 0.02659
827.20 0.02662
827.30 0.02666
827.40 0.02669
827.50 0.02673
827.60 0.02676
827.70 0.0268
827.80 0.02683
827.90 0.02687
828.00 0.0269
828.10 0.02694
828.20 0.02697
828.30 0.027
828.40 0.02704
828.50 0.02707
828.60 0.02711
828.70 0.02714
828.80 0.02718
828.90 0.02721
829.00 0.02725
829.10 0.02728
829.20 0.02731
829.30 0.02735
829.40 0.02738
829.50 0.02742
829.60 0.02745
829.70 0.02749
829.80 0.02752
829.90 0.02756
830.00 0.02759
830.10 0.02762
830.20 0.02766
830.30 0.02769
830.40 0.02773
830.50 0.02776
830.60 0.0278
830.70 0.02783
830.80 0.02786
830.90 0.0279
831.00 0.02793
831.10 0.02797
831.20 0.028
831.30 0.02803
831.40 0.02807
831.50 0.0281
831.60 0.02814
831.70 0.02817
831.80 0.0282
831.90 0.02824
832.00 0.02827
832.10 0.0283
832.20 0.02832
832.30 0.02835
832.40 0.02838
832.50 0.0284
832.60 0.02843
832.70 0.02845
832.80 0.02848
832.90 0.0285
833.00 0.02853
833.10 0.02856
833.20 0.02858
833.30 0.02861
833.40 0.02863
833.50 0.02866
833.60 0.02868
833.70 0.02871
833.80 0.02874
833.90 0.02876
834.00 0.02879
834.10 0.02881
834.20 0.02884
834.30 0.02886
834.40 0.02889
834.50 0.02892
834.60 0.02894
834.70 0.02897
834.80 0.02899
834.90 0.02902
835.00 0.02904
835.10 0.02907
835.20 0.02909
835.30 0.02912
835.40 0.02915
835.50 0.02917
835.60 0.0292
835.70 0.02922
835.80 0.02925
835.90 0.02927
836.00 0.0293
836.10 0.02932
836.20 0.02935
836.30 0.02937
836.40 0.0294
836.50 0.02942
836.60 0.02945
836.70 0.02947
836.80 0.0295
836.90 0.02953
837.00 0.02955
837.10 0.02957
837.20 0.02959
837.30 0.02961
837.40 0.02963
837.50 0.02965
837.60 0.02967
837.70 0.02969
837.80 0.02971
837.90 0.02973
838.00 0.02975
838.10 0.02977
838.20 0.02979
838.30 0.02981
838.40 0.02983
838.50 0.02985
838.60 0.02987
838.70 0.02989
838.80 0.02991
838.90 0.02993
839.00 0.02995
839.10 0.02997
839.20 0.02999
839.30 0.03001
839.40 0.03002
839.50 0.03004
839.60 0.03006
839.70 0.03008
839.80 0.0301
839.90 0.03012
840.00 0.03014
840.10 0.03016
840.20 0.03018
840.30 0.0302
840.40 0.03022
840.50 0.03024
840.60 0.03026
840.70 0.03028
840.80 0.0303
840.90 0.03032
841.00 0.03034
841.10 0.03036
841.20 0.03038
841.30 0.0304
841.40 0.03042
841.50 0.03043
841.60 0.03045
841.70 0.03047
841.80 0.03049
841.90 0.03051
842.00 0.03053
842.10 0.03055
842.20 0.03056
842.30 0.03057
842.40 0.03059
842.50 0.0306
842.60 0.03061
842.70 0.03063
842.80 0.03064
842.90 0.03066
843.00 0.03067
843.10 0.03068
843.20 0.0307
843.30 0.03071
843.40 0.03072
843.50 0.03074
843.60 0.03075
843.70 0.03076
843.80 0.03078
843.90 0.03079
844.00 0.03081
844.10 0.03082
844.20 0.03083
844.30 0.03085
844.40 0.03086
844.50 0.03087
844.60 0.03089
844.70 0.0309
844.80 0.03091
844.90 0.03093
845.00 0.03094
845.10 0.03095
845.20 0.03097
845.30 0.03098
845.40 0.031
845.50 0.03101
845.60 0.03102
845.70 0.03104
845.80 0.03105
845.90 0.03106
846.00 0.03108
846.10 0.03109
846.20 0.0311
846.30 0.03112
846.40 0.03113
846.50 0.03114
846.60 0.03116
846.70 0.03117
846.80 0.03118
846.90 0.0312
847.00 0.03121
847.10 0.03123
847.20 0.03124
847.30 0.03126
847.40 0.03128
847.50 0.03129
847.60 0.03131
847.70 0.03133
847.80 0.03134
847.90 0.03136
848.00 0.03138
848.10 0.03139
848.20 0.03141
848.30 0.03142
848.40 0.03144
848.50 0.03146
848.60 0.03147
848.70 0.03149
848.80 0.03151
848.90 0.03152
849.00 0.03154
849.10 0.03156
849.20 0.03157
849.30 0.03159
849.40 0.0316
849.50 0.03162
849.60 0.03164
849.70 0.03165
849.80 0.03167
849.90 0.03169
850.00 0.0317
850.10 0.03172
850.20 0.03173
850.30 0.03175
850.40 0.03177
850.50 0.03178
850.60 0.0318
850.70 0.03182
850.80 0.03183
850.90 0.03185
851.00 0.03186
851.10 0.03188
851.20 0.0319
851.30 0.03191
851.40 0.03193
851.50 0.03194
851.60 0.03196
851.70 0.03198
851.80 0.03199
851.90 0.03201
852.00 0.03203
852.10 0.03205
852.20 0.03207
852.30 0.03209
852.40 0.03211
852.50 0.03213
852.60 0.03215
852.70 0.03217
852.80 0.03219
852.90 0.03221
853.00 0.03224
853.10 0.03226
853.20 0.03228
853.30 0.0323
853.40 0.03232
853.50 0.03234
853.60 0.03236
853.70 0.03238
853.80 0.0324
853.90 0.03242
854.00 0.03244
854.10 0.03246
854.20 0.03249
854.30 0.03251
854.40 0.03253
854.50 0.03255
854.60 0.03257
854.70 0.03259
854.80 0.03261
854.90 0.03263
855.00 0.03265
855.10 0.03267
855.20 0.03269
855.30 0.03271
855.40 0.03273
855.50 0.03276
855.60 0.03278
855.70 0.0328
855.80 0.03282
855.90 0.03284
856.00 0.03286
856.10 0.03288
856.20 0.0329
856.30 0.03292
856.40 0.03294
856.50 0.03296
856.60 0.03298
856.70 0.033
856.80 0.03302
856.90 0.03304
857.00 0.03306
857.10 0.03309
857.20 0.03312
857.30 0.03314
857.40 0.03317
857.50 0.03319
857.60 0.03322
857.70 0.03324
857.80 0.03327
857.90 0.0333
858.00 0.03332
858.10 0.03335
858.20 0.03337
858.30 0.0334
858.40 0.03342
858.50 0.03345
858.60 0.03347
858.70 0.0335
858.80 0.03353
858.90 0.03355
859.00 0.03358
859.10 0.0336
859.20 0.03363
859.30 0.03365
859.40 0.03368
859.50 0.0337
859.60 0.03373
859.70 0.03375
859.80 0.03378
859.90 0.03381
860.00 0.03383
860.10 0.03386
860.20 0.03388
860.30 0.03391
860.40 0.03393
860.50 0.03396
860.60 0.03398
860.70 0.03401
860.80 0.03403
860.90 0.03406
861.00 0.03408
861.10 0.03411
861.20 0.03413
861.30 0.03416
861.40 0.03418
861.50 0.03421
861.60 0.03424
861.70 0.03426
861.80 0.03429
861.90 0.03431
862.00 0.03434
862.10 0.03437
862.20 0.0344
862.30 0.03444
862.40 0.03447
862.50 0.0345
862.60 0.03454
862.70 0.03457
862.80 0.0346
862.90 0.03463
863.00 0.03467
863.10 0.0347
863.20 0.03473
863.30 0.03477
863.40 0.0348
863.50 0.03483
863.60 0.03487
863.70 0.0349
863.80 0.03493
863.90 0.03496
864.00 0.035
864.10 0.03503
864.20 0.03506
864.30 0.0351
864.40 0.03513
864.50 0.03516
864.60 0.0352
864.70 0.03523
864.80 0.03526
864.90 0.03529
865.00 0.03533
865.10 0.03536
865.20 0.03539
865.30 0.03542
865.40 0.03546
865.50 0.03549
865.60 0.03552
865.70 0.03556
865.80 0.03559
865.90 0.03562
866.00 0.03565
866.10 0.03569
866.20 0.03572
866.30 0.03575
866.40 0.03578
866.50 0.03582
866.60 0.03585
866.70 0.03588
866.80 0.03591
866.90 0.03595
867.00 0.03598
867.10 0.03601
867.20 0.03604
867.30 0.03607
867.40 0.0361
867.50 0.03613
867.60 0.03616
867.70 0.0362
867.80 0.03623
867.90 0.03626
868.00 0.03629
868.10 0.03632
868.20 0.03635
868.30 0.03638
868.40 0.03641
868.50 0.03644
868.60 0.03647
868.70 0.0365
868.80 0.03653
868.90 0.03656
869.00 0.0366
869.10 0.03663
869.20 0.03666
869.30 0.03669
869.40 0.03672
869.50 0.03675
869.60 0.03678
869.70 0.03681
869.80 0.03684
869.90 0.03687
870.00 0.0369
870.10 0.03693
870.20 0.03696
870.30 0.03699
870.40 0.03702
870.50 0.03705
870.60 0.03708
870.70 0.03712
870.80 0.03715
870.90 0.03718
871.00 0.03721
871.10 0.03724
871.20 0.03727
871.30 0.0373
871.40 0.03733
871.50 0.03736
871.60 0.03739
871.70 0.03742
871.80 0.03745
871.90 0.03748
872.00 0.03751
872.10 0.03754
872.20 0.03757
872.30 0.0376
872.40 0.03762
872.50 0.03765
872.60 0.03768
872.70 0.03771
872.80 0.03774
872.90 0.03777
873.00 0.0378
873.10 0.03783
873.20 0.03785
873.30 0.03788
873.40 0.03791
873.50 0.03794
873.60 0.03797
873.70 0.038
873.80 0.03803
873.90 0.03805
874.00 0.03808
874.10 0.03811
874.20 0.03814
874.30 0.03817
874.40 0.0382
874.50 0.03823
874.60 0.03825
874.70 0.03828
874.80 0.03831
874.90 0.03834
875.00 0.03837
875.10 0.0384
875.20 0.03842
875.30 0.03845
875.40 0.03848
875.50 0.03851
875.60 0.03854
875.70 0.03857
875.80 0.03859
875.90 0.03862
876.00 0.03865
876.10 0.03868
876.20 0.03871
876.30 0.03874
876.40 0.03876
876.50 0.03879
876.60 0.03882
876.70 0.03885
876.80 0.03888
876.90 0.03891
877.00 0.03893
877.10 0.03895
877.20 0.03896
877.30 0.03898
877.40 0.03899
877.50 0.039
877.60 0.03902
877.70 0.03903
877.80 0.03905
877.90 0.03906
878.00 0.03907
878.10 0.03909
878.20 0.0391
878.30 0.03912
878.40 0.03913
878.50 0.03914
878.60 0.03916
878.70 0.03917
878.80 0.03919
878.90 0.0392
879.00 0.03921
879.10 0.03923
879.20 0.03924
879.30 0.03926
879.40 0.03927
879.50 0.03928
879.60 0.0393
879.70 0.03931
879.80 0.03933
879.90 0.03934
880.00 0.03935
880.10 0.03937
880.20 0.03938
880.30 0.0394
880.40 0.03941
880.50 0.03942
880.60 0.03944
880.70 0.03945
880.80 0.03946
880.90 0.03948
881.00 0.03949
881.10 0.03951
881.20 0.03952
881.30 0.03953
881.40 0.03955
881.50 0.03956
881.60 0.03957
881.70 0.03959
881.80 0.0396
881.90 0.03962
882.00 0.03963
882.10 0.03964
882.20 0.03964
882.30 0.03965
882.40 0.03965
882.50 0.03966
882.60 0.03966
882.70 0.03967
882.80 0.03967
882.90 0.03968
883.00 0.03969
883.10 0.03969
883.20 0.0397
883.30 0.0397
883.40 0.03971
883.50 0.03971
883.60 0.03972
883.70 0.03973
883.80 0.03973
883.90 0.03974
884.00 0.03974
884.10 0.03975
884.20 0.03975
884.30 0.03976
884.40 0.03976
884.50 0.03977
884.60 0.03978
884.70 0.03978
884.80 0.03979
884.90 0.03979
885.00 0.0398
885.10 0.0398
885.20 0.03981
885.30 0.03981
885.40 0.03982
885.50 0.03982
885.60 0.03983
885.70 0.03984
885.80 0.03984
885.90 0.03985
886.00 0.03985
886.10 0.03986
886.20 0.03986
886.30 0.03987
886.40 0.03987
886.50 0.03988
886.60 0.03989
886.70 0.03989
886.80 0.0399
886.90 0.0399
887.00 0.03991
887.10 0.0399
887.20 0.0399
887.30 0.0399
887.40 0.0399
887.50 0.03989
887.60 0.03989
887.70 0.03989
887.80 0.03988
887.90 0.03988
888.00 0.03988
888.10 0.03987
888.20 0.03987
888.30 0.03987
888.40 0.03986
888.50 0.03986
888.60 0.03986
888.70 0.03986
888.80 0.03985
888.90 0.03985
889.00 0.03985
889.10 0.03984
889.20 0.03984
889.30 0.03984
889.40 0.03983
889.50 0.03983
889.60 0.03983
889.70 0.03983
889.80 0.03982
889.90 0.03982
890.00 0.03982
890.10 0.03981
890.20 0.03981
890.30 0.03981
890.40 0.0398
890.50 0.0398
890.60 0.0398
890.70 0.0398
890.80 0.03979
890.90 0.03979
891.00 0.03979
891.10 0.03978
891.20 0.03978
891.30 0.03978
891.40 0.03977
891.50 0.03977
891.60 0.03977
891.70 0.03976
891.80 0.03976
891.90 0.03976
892.00 0.03976
892.10 0.03975
892.20 0.03975
892.30 0.03975
892.40 0.03974
892.50 0.03974
892.60 0.03973
892.70 0.03973
892.80 0.03973
892.90 0.03972
893.00 0.03972
893.10 0.03972
893.20 0.03971
893.30 0.03971
893.40 0.03971
893.50 0.0397
893.60 0.0397
893.70 0.0397
893.80 0.03969
893.90 0.03969
894.00 0.03968
894.10 0.03968
894.20 0.03968
894.30 0.03967
894.40 0.03967
894.50 0.03967
894.60 0.03966
894.70 0.03966
894.80 0.03966
894.90 0.03965
895.00 0.03965
895.10 0.03965
895.20 0.03964
895.30 0.03964
895.40 0.03963
895.50 0.03963
895.60 0.03963
895.70 0.03962
895.80 0.03962
895.90 0.03962
896.00 0.03961
896.10 0.03961
896.20 0.03961
896.30 0.0396
896.40 0.0396
896.50 0.0396
896.60 0.03959
896.70 0.03959
896.80 0.03959
896.90 0.03958
897.00 0.03958
897.10 0.03957
897.20 0.03956
897.30 0.03955
897.40 0.03954
897.50 0.03954
897.60 0.03953
897.70 0.03952
897.80 0.03951
897.90 0.0395
898.00 0.03949
898.10 0.03949
898.20 0.03948
898.30 0.03947
898.40 0.03946
898.50 0.03945
898.60 0.03944
898.70 0.03944
898.80 0.03943
898.90 0.03942
899.00 0.03941
899.10 0.0394
899.20 0.03939
899.30 0.03939
899.40 0.03938
899.50 0.03937
899.60 0.03936
899.70 0.03935
899.80 0.03934
899.90 0.03934
900.00 0.03933
900.10 0.03932
900.20 0.03931
900.30 0.0393
900.40 0.03929
900.50 0.03929
900.60 0.03928
900.70 0.03927
900.80 0.03926
900.90 0.03925
901.00 0.03924
901.10 0.03924
901.20 0.03923
901.30 0.03922
901.40 0.03921
901.50 0.0392
901.60 0.03919
901.70 0.03919
901.80 0.03918
901.90 0.03917
902.00 0.03916
902.10 0.03915
902.20 0.03914
902.30 0.03912
902.40 0.03911
902.50 0.0391
902.60 0.03908
902.70 0.03907
902.80 0.03906
902.90 0.03905
903.00 0.03903
903.10 0.03902
903.20 0.03901
903.30 0.039
903.40 0.03898
903.50 0.03897
903.60 0.03896
903.70 0.03894
903.80 0.03893
903.90 0.03892
904.00 0.03891
904.10 0.03889
904.20 0.03888
904.30 0.03887
904.40 0.03886
904.50 0.03884
904.60 0.03883
904.70 0.03882
904.80 0.0388
904.90 0.03879
905.00 0.03878
905.10 0.03877
905.20 0.03875
905.30 0.03874
905.40 0.03873
905.50 0.03872
905.60 0.0387
905.70 0.03869
905.80 0.03868
905.90 0.03867
906.00 0.03865
906.10 0.03864
906.20 0.03863
906.30 0.03862
906.40 0.0386
906.50 0.03859
906.60 0.03858
906.70 0.03857
906.80 0.03855
906.90 0.03854
907.00 0.03853
907.10 0.03851
907.20 0.03849
907.30 0.03847
907.40 0.03845
907.50 0.03843
907.60 0.03841
907.70 0.03839
907.80 0.03838
907.90 0.03836
908.00 0.03834
908.10 0.03832
908.20 0.0383
908.30 0.03828
908.40 0.03826
908.50 0.03824
908.60 0.03822
908.70 0.03821
908.80 0.03819
908.90 0.03817
909.00 0.03815
909.10 0.03813
909.20 0.03811
909.30 0.03809
909.40 0.03807
909.50 0.03806
909.60 0.03804
909.70 0.03802
909.80 0.038
909.90 0.03798
910.00 0.03796
910.10 0.03794
910.20 0.03792
910.30 0.0379
910.40 0.03789
910.50 0.03787
910.60 0.03785
910.70 0.03783
910.80 0.03781
910.90 0.03779
911.00 0.03777
911.10 0.03776
911.20 0.03774
911.30 0.03772
911.40 0.0377
911.50 0.03768
911.60 0.03766
911.70 0.03764
911.80 0.03762
911.90 0.03761
912.00 0.03759
912.10 0.03756
912.20 0.03754
912.30 0.03751
912.40 0.03749
912.50 0.03747
912.60 0.03744
912.70 0.03742
912.80 0.03739
912.90 0.03737
913.00 0.03735
913.10 0.03732
913.20 0.0373
913.30 0.03727
913.40 0.03725
913.50 0.03722
913.60 0.0372
913.70 0.03718
913.80 0.03715
913.90 0.03713
914.00 0.0371
914.10 0.03708
914.20 0.03706
914.30 0.03703
914.40 0.03701
914.50 0.03698
914.60 0.03696
914.70 0.03694
914.80 0.03691
914.90 0.03689
915.00 0.03686
915.10 0.03684
915.20 0.03682
915.30 0.03679
915.40 0.03677
915.50 0.03674
915.60 0.03672
915.70 0.0367
915.80 0.03667
915.90 0.03665
916.00 0.03663
916.10 0.0366
916.20 0.03658
916.30 0.03655
916.40 0.03653
916.50 0.03651
916.60 0.03648
916.70 0.03646
916.80 0.03643
916.90 0.03641
917.00 0.03639
917.10 0.03636
917.20 0.03633
917.30 0.0363
917.40 0.03627
917.50 0.03624
917.60 0.03621
917.70 0.03617
917.80 0.03614
917.90 0.03611
918.00 0.03608
918.10 0.03605
918.20 0.03602
918.30 0.03599
918.40 0.03596
918.50 0.03593
918.60 0.0359
918.70 0.03587
918.80 0.03584
918.90 0.03581
919.00 0.03578
919.10 0.03575
919.20 0.03572
919.30 0.03569
919.40 0.03566
919.50 0.03563
919.60 0.0356
919.70 0.03557
919.80 0.03554
919.90 0.03551
920.00 0.03548
920.10 0.03545
920.20 0.03542
920.30 0.03539
920.40 0.03536
920.50 0.03533
920.60 0.0353
920.70 0.03527
920.80 0.03524
920.90 0.03521
921.00 0.03518
921.10 0.03515
921.20 0.03512
921.30 0.03509
921.40 0.03506
921.50 0.03503
921.60 0.035
921.70 0.03497
921.80 0.03494
921.90 0.03491
922.00 0.03488
922.10 0.03485
922.20 0.03482
922.30 0.03478
922.40 0.03475
922.50 0.03471
922.60 0.03468
922.70 0.03464
922.80 0.03461
922.90 0.03457
923.00 0.03454
923.10 0.03451
923.20 0.03447
923.30 0.03444
923.40 0.0344
923.50 0.03437
923.60 0.03433
923.70 0.0343
923.80 0.03426
923.90 0.03423
924.00 0.0342
924.10 0.03416
924.20 0.03413
924.30 0.03409
924.40 0.03406
924.50 0.03403
924.60 0.03399
924.70 0.03396
924.80 0.03392
924.90 0.03389
925.00 0.03385
925.10 0.03382
925.20 0.03379
925.30 0.03375
925.40 0.03372
925.50 0.03368
925.60 0.03365
925.70 0.03362
925.80 0.03358
925.90 0.03355
926.00 0.03351
926.10 0.03348
926.20 0.03345
926.30 0.03341
926.40 0.03338
926.50 0.03334
926.60 0.03331
926.70 0.03328
926.80 0.03324
926.90 0.03321
927.00 0.03317
927.10 0.03314
927.20 0.0331
927.30 0.03306
927.40 0.03302
927.50 0.03298
927.60 0.03294
927.70 0.03291
927.80 0.03287
927.90 0.03283
928.00 0.03279
928.10 0.03275
928.20 0.03272
928.30 0.03268
928.40 0.03264
928.50 0.0326
928.60 0.03256
928.70 0.03253
928.80 0.03249
928.90 0.03245
929.00 0.03241
929.10 0.03237
929.20 0.03233
929.30 0.0323
929.40 0.03226
929.50 0.03222
929.60 0.03218
929.70 0.03214
929.80 0.03211
929.90 0.03207
930.00 0.03203
930.10 0.03199
930.20 0.03196
930.30 0.03192
930.40 0.03188
930.50 0.03184
930.60 0.0318
930.70 0.03177
930.80 0.03173
930.90 0.03169
931.00 0.03165
931.10 0.03162
931.20 0.03158
931.30 0.03154
931.40 0.0315
931.50 0.03146
931.60 0.03143
931.70 0.03139
931.80 0.03135
931.90 0.03131
932.00 0.03128
932.10 0.03124
932.20 0.0312
932.30 0.03116
932.40 0.03112
932.50 0.03108
932.60 0.03104
932.70 0.031
932.80 0.03096
932.90 0.03093
933.00 0.03089
933.10 0.03085
933.20 0.03081
933.30 0.03077
933.40 0.03073
933.50 0.03069
933.60 0.03065
933.70 0.03062
933.80 0.03058
933.90 0.03054
934.00 0.0305
934.10 0.03046
934.20 0.03042
934.30 0.03038
934.40 0.03034
934.50 0.0303
934.60 0.03026
934.70 0.03022
934.80 0.03019
934.90 0.03015
935.00 0.03011
935.10 0.03007
935.20 0.03003
935.30 0.02999
935.40 0.02995
935.50 0.02991
935.60 0.02987
935.70 0.02983
935.80 0.02979
935.90 0.02975
936.00 0.02971
936.10 0.02967
936.20 0.02963
936.30 0.02959
936.40 0.02955
936.50 0.02952
936.60 0.02948
936.70 0.02944
936.80 0.0294
936.90 0.02936
937.00 0.02932
937.10 0.02928
937.20 0.02924
937.30 0.0292
937.40 0.02916
937.50 0.02912
937.60 0.02908
937.70 0.02904
937.80 0.029
937.90 0.02896
938.00 0.02892
938.10 0.02888
938.20 0.02884
938.30 0.0288
938.40 0.02876
938.50 0.02872
938.60 0.02868
938.70 0.02864
938.80 0.0286
938.90 0.02856
939.00 0.02851
939.10 0.02847
939.20 0.02843
939.30 0.02839
939.40 0.02835
939.50 0.02831
939.60 0.02827
939.70 0.02823
939.80 0.02819
939.90 0.02815
940.00 0.02811
940.10 0.02806
940.20 0.02802
940.30 0.02798
940.40 0.02794
940.50 0.0279
940.60 0.02786
940.70 0.02782
940.80 0.02778
940.90 0.02774
941.00 0.0277
941.10 0.02766
941.20 0.02762
941.30 0.02758
941.40 0.02755
941.50 0.02751
941.60 0.02747
941.70 0.02743
941.80 0.02739
941.90 0.02735
942.00 0.02731
942.10 0.02727
942.20 0.02723
942.30 0.02719
942.40 0.02715
942.50 0.02711
942.60 0.02707
942.70 0.02703
942.80 0.02699
942.90 0.02695
943.00 0.02691
943.10 0.02687
943.20 0.02683
943.30 0.02679
943.40 0.02675
943.50 0.02671
943.60 0.02667
943.70 0.02663
943.80 0.02659
943.90 0.02655
944.00 0.02652
944.10 0.02648
944.20 0.02644
944.30 0.0264
944.40 0.02636
944.50 0.02632
944.60 0.02628
944.70 0.02624
944.80 0.0262
944.90 0.02616
945.00 0.02612
945.10 0.02608
945.20 0.02604
945.30 0.026
945.40 0.02596
945.50 0.02593
945.60 0.02589
945.70 0.02585
945.80 0.02581
945.90 0.02577
946.00 0.02573
946.10 0.02569
946.20 0.02565
946.30 0.02561
946.40 0.02557
946.50 0.02553
946.60 0.02549
946.70 0.02546
946.80 0.02542
946.90 0.02538
947.00 0.02534
947.10 0.0253
947.20 0.02526
947.30 0.02522
947.40 0.02518
947.50 0.02514
947.60 0.02511
947.70 0.02507
947.80 0.02503
947.90 0.02499
948.00 0.02495
948.10 0.02491
948.20 0.02488
948.30 0.02484
948.40 0.0248
948.50 0.02476
948.60 0.02472
948.70 0.02468
948.80 0.02465
948.90 0.02461
949.00 0.02457
949.10 0.02453
949.20 0.02449
949.30 0.02445
949.40 0.02442
949.50 0.02438
949.60 0.02434
949.70 0.0243
949.80 0.02426
949.90 0.02422
950.00 0.02418
950.10 0.02414
950.20 0.02411
950.30 0.02407
950.40 0.02403
950.50 0.02399
950.60 0.02395
950.70 0.02391
950.80 0.02387
950.90 0.02384
951.00 0.0238
951.10 0.02376
951.20 0.02372
951.30 0.02368
951.40 0.02364
951.50 0.0236
951.60 0.02357
951.70 0.02353
951.80 0.02349
951.90 0.02345
952.00 0.02341
952.10 0.02337
952.20 0.02334
952.30 0.0233
952.40 0.02326
952.50 0.02322
952.60 0.02318
952.70 0.02314
952.80 0.02311
952.90 0.02307
953.00 0.02303
953.10 0.02299
953.20 0.02295
953.30 0.02291
953.40 0.02288
953.50 0.02284
953.60 0.0228
953.70 0.02276
953.80 0.02272
953.90 0.02268
954.00 0.02265
954.10 0.02261
954.20 0.02257
954.30 0.02253
954.40 0.02249
954.50 0.02246
954.60 0.02242
954.70 0.02238
954.80 0.02234
954.90 0.0223
955.00 0.02227
955.10 0.02223
955.20 0.02219
955.30 0.02215
955.40 0.02211
955.50 0.02208
955.60 0.02204
955.70 0.022
955.80 0.02196
955.90 0.02192
956.00 0.02189
956.10 0.02185
956.20 0.02181
956.30 0.02177
956.40 0.02173
956.50 0.0217
956.60 0.02166
956.70 0.02162
956.80 0.02158
956.90 0.02154
957.00 0.02151
957.10 0.02147
957.20 0.02143
957.30 0.02139
957.40 0.02136
957.50 0.02132
957.60 0.02128
957.70 0.02124
957.80 0.02121
957.90 0.02117
958.00 0.02113
958.10 0.02109
958.20 0.02106
958.30 0.02102
958.40 0.02098
958.50 0.02094
958.60 0.02091
958.70 0.02087
958.80 0.02083
958.90 0.02079
959.00 0.02076
959.10 0.02072
959.20 0.02068
959.30 0.02065
959.40 0.02061
959.50 0.02057
959.60 0.02053
959.70 0.0205
959.80 0.02046
959.90 0.02042
960.00 0.02039
960.10 0.02035
960.20 0.02031
960.30 0.02027
960.40 0.02024
960.50 0.0202
960.60 0.02016
960.70 0.02013
960.80 0.02009
960.90 0.02005
961.00 0.02002
961.10 0.01998
961.20 0.01994
961.30 0.01991
961.40 0.01987
961.50 0.01983
961.60 0.01979
961.70 0.01976
961.80 0.01972
961.90 0.01968
962.00 0.01965
962.10 0.01961
962.20 0.01957
962.30 0.01954
962.40 0.0195
962.50 0.01947
962.60 0.01943
962.70 0.01939
962.80 0.01936
962.90 0.01932
963.00 0.01928
963.10 0.01925
963.20 0.01921
963.30 0.01917
963.40 0.01914
963.50 0.0191
963.60 0.01906
963.70 0.01903
963.80 0.01899
963.90 0.01896
964.00 0.01892
964.10 0.01888
964.20 0.01885
964.30 0.01881
964.40 0.01877
964.50 0.01874
964.60 0.0187
964.70 0.01866
964.80 0.01863
964.90 0.01859
965.00 0.01855
965.10 0.01851
965.20 0.01848
965.30 0.01844
965.40 0.0184
965.50 0.01837
965.60 0.01833
965.70 0.01829
965.80 0.01826
965.90 0.01822
966.00 0.01818
966.10 0.01815
966.20 0.01811
966.30 0.01807
966.40 0.01804
966.50 0.018
966.60 0.01796
966.70 0.01793
966.80 0.01789
966.90 0.01786
967.00 0.01782
967.10 0.01779
967.20 0.01775
967.30 0.01772
967.40 0.01768
967.50 0.01765
967.60 0.01761
967.70 0.01758
967.80 0.01754
967.90 0.01751
968.00 0.01747
968.10 0.01744
968.20 0.0174
968.30 0.01737
968.40 0.01733
968.50 0.0173
968.60 0.01726
968.70 0.01723
968.80 0.01719
968.90 0.01716
969.00 0.01712
969.10 0.01709
969.20 0.01706
969.30 0.01702
969.40 0.01699
969.50 0.01695
969.60 0.01692
969.70 0.01688
969.80 0.01685
969.90 0.01681
970.00 0.01678
970.10 0.01675
970.20 0.01671
970.30 0.01668
970.40 0.01664
970.50 0.01661
970.60 0.01658
970.70 0.01654
970.80 0.01651
970.90 0.01647
971.00 0.01644
971.10 0.01641
971.20 0.01637
971.30 0.01634
971.40 0.01631
971.50 0.01627
971.60 0.01624
971.70 0.0162
971.80 0.01617
971.90 0.01614
972.00 0.0161
972.10 0.01607
972.20 0.01604
972.30 0.016
972.40 0.01597
972.50 0.01594
972.60 0.01591
972.70 0.01587
972.80 0.01584
972.90 0.01581
973.00 0.01577
973.10 0.01574
973.20 0.01571
973.30 0.01567
973.40 0.01564
973.50 0.01561
973.60 0.01558
973.70 0.01554
973.80 0.01551
973.90 0.01548
974.00 0.01544
974.10 0.01541
974.20 0.01538
974.30 0.01535
974.40 0.01531
974.50 0.01528
974.60 0.01525
974.70 0.01522
974.80 0.01518
974.90 0.01515
975.00 0.01512
975.10 0.01509
975.20 0.01505
975.30 0.01502
975.40 0.01499
975.50 0.01496
975.60 0.01492
975.70 0.01489
975.80 0.01486
975.90 0.01483
976.00 0.01479
976.10 0.01476
976.20 0.01473
976.30 0.0147
976.40 0.01466
976.50 0.01463
976.60 0.0146
976.70 0.01457
976.80 0.01453
976.90 0.0145
977.00 0.01447
977.10 0.01444
977.20 0.01441
977.30 0.01438
977.40 0.01435
977.50 0.01432
977.60 0.01429
977.70 0.01426
977.80 0.01423
977.90 0.0142
978.00 0.01417
978.10 0.01414
978.20 0.01411
978.30 0.01407
978.40 0.01404
978.50 0.01401
978.60 0.01398
978.70 0.01395
978.80 0.01392
978.90 0.01389
979.00 0.01386
979.10 0.01383
979.20 0.0138
979.30 0.01377
979.40 0.01374
979.50 0.01371
979.60 0.01368
979.70 0.01365
979.80 0.01362
979.90 0.01359
980.00 0.01356
980.10 0.01353
980.20 0.0135
980.30 0.01347
980.40 0.01344
980.50 0.01341
980.60 0.01338
980.70 0.01335
980.80 0.01332
980.90 0.01329
981.00 0.01326
981.10 0.01323
981.20 0.0132
981.30 0.01317
981.40 0.01314
981.50 0.01311
981.60 0.01308
981.70 0.01305
981.80 0.01302
981.90 0.01299
982.00 0.01296
982.10 0.01293
982.20 0.0129
982.30 0.01287
982.40 0.01285
982.50 0.01282
982.60 0.01279
982.70 0.01276
982.80 0.01273
982.90 0.0127
983.00 0.01267
983.10 0.01265
983.20 0.01262
983.30 0.01259
983.40 0.01256
983.50 0.01253
983.60 0.0125
983.70 0.01248
983.80 0.01245
983.90 0.01242
984.00 0.01239
984.10 0.01236
984.20 0.01233
984.30 0.01231
984.40 0.01228
984.50 0.01225
984.60 0.01222
984.70 0.01219
984.80 0.01217
984.90 0.01214
985.00 0.01211
985.10 0.01209
985.20 0.01206
985.30 0.01204
985.40 0.01201
985.50 0.01198
985.60 0.01196
985.70 0.01193
985.80 0.0119
985.90 0.01188
986.00 0.01185
986.10 0.01182
986.20 0.0118
986.30 0.01177
986.40 0.01175
986.50 0.01172
986.60 0.01169
986.70 0.01167
986.80 0.01164
986.90 0.01162
987.00 0.01159
987.10 0.01156
987.20 0.01153
987.30 0.01151
987.40 0.01148
987.50 0.01145
987.60 0.01142
987.70 0.0114
987.80 0.01137
987.90 0.01134
988.00 0.01132
988.10 0.01129
988.20 0.01126
988.30 0.01123
988.40 0.01121
988.50 0.01118
988.60 0.01115
988.70 0.01113
988.80 0.0111
988.90 0.01107
989.00 0.01104
989.10 0.01102
989.20 0.01099
989.30 0.01096
989.40 0.01094
989.50 0.01091
989.60 0.01088
989.70 0.01086
989.80 0.01083
989.90 0.0108
990.00 0.01077
990.10 0.01075
990.20 0.01072
990.30 0.01069
990.40 0.01067
990.50 0.01064
990.60 0.01061
990.70 0.01059
990.80 0.01056
990.90 0.01053
991.00 0.01051
991.10 0.01048
991.20 0.01045
991.30 0.01043
991.40 0.0104
991.50 0.01037
991.60 0.01035
991.70 0.01032
991.80 0.01029
991.90 0.01027
992.00 0.01024
992.10 0.01021
992.20 0.01019
992.30 0.01016
992.40 0.01014
992.50 0.01011
992.60 0.01008
992.70 0.01006
992.80 0.01003
992.90 0.01
993.00 0.009978
993.10 0.009952
993.20 0.009925
993.30 0.009899
993.40 0.009873
993.50 0.009847
993.60 0.009821
993.70 0.009795
993.80 0.009769
993.90 0.009743
994.00 0.009717
994.10 0.009691
994.20 0.009665
994.30 0.009639
994.40 0.009613
994.50 0.009586
994.60 0.00956
994.70 0.00953
994.80 0.009497
994.90 0.009465
995.00 0.009432
995.10 0.0094
995.20 0.009367
995.30 0.009335
995.40 0.009303
995.50 0.00927
995.60 0.009238
995.70 0.009211
995.80 0.009187
995.90 0.009162
996.00 0.009137
996.10 0.009113
996.20 0.009088
996.30 0.009063
996.40 0.009039
996.50 0.009014
996.60 0.00899
996.70 0.008965
996.80 0.00894
996.90 0.008916
997.00 0.008891
997.10 0.008868
997.20 0.008844
997.30 0.00882
997.40 0.008796
997.50 0.008772
997.60 0.008749
997.70 0.008725
997.80 0.008702
997.90 0.00868
998.00 0.008657
998.10 0.008634
998.20 0.008611
998.30 0.008588
998.40 0.008565
998.50 0.008542
998.60 0.008519
998.70 0.008496
998.80 0.008473
998.90 0.00845
999.00 0.008428
999.10 0.008405
999.20 0.008382
999.30 0.008359
999.40 0.008336
999.50 0.008314
999.60 0.008291
999.70 0.008269
999.80 0.008247
999.90 0.008226
1000.00 0.008204
1000.10 0.008183
1000.20 0.008161
1000.30 0.00814
1000.40 0.008118
1000.50 0.008097
1000.60 0.008075
1000.70 0.008054
1000.80 0.008032
1000.90 0.008011
1001.00 0.007989
1001.10 0.007968
1001.20 0.007946
1001.30 0.007925
1001.40 0.007903
1001.50 0.007882
1001.60 0.007861
1001.70 0.00784
1001.80 0.007819
1001.90 0.007799
1002.00 0.007778
1002.10 0.007758
1002.20 0.007737
1002.30 0.007717
1002.40 0.007697
1002.50 0.007677
1002.60 0.007656
1002.70 0.007636
1002.80 0.007616
1002.90 0.007596
1003.00 0.007576
1003.10 0.007555
1003.20 0.007536
1003.30 0.007516
1003.40 0.007496
1003.50 0.007476
1003.60 0.007457
1003.70 0.007437
1003.80 0.007417
1003.90 0.007398
1004.00 0.007379
1004.10 0.00736
1004.20 0.00734
1004.30 0.007321
1004.40 0.007302
1004.50 0.007283
1004.60 0.007264
1004.70 0.007245
1004.80 0.007226
1004.90 0.007199
1005.00 0.007173
1005.10 0.007152
1005.20 0.007134
1005.30 0.007115
1005.40 0.007097
1005.50 0.007078
1005.60 0.00706
1005.70 0.007042
1005.80 0.007024
1005.90 0.007006
1006.00 0.006988
1006.10 0.006969
1006.20 0.006952
1006.30 0.006934
1006.40 0.006916
1006.50 0.006899
1006.60 0.006881
1006.70 0.006863
1006.80 0.006846
1006.90 0.006828
1007.00 0.006811
1007.10 0.006793
1007.20 0.006776
1007.30 0.006759
1007.40 0.006742
1007.50 0.006725
1007.60 0.006708
1007.70 0.006691
1007.80 0.006675
1007.90 0.006659
1008.00 0.006642
1008.10 0.006626
1008.20 0.00661
1008.30 0.006593
1008.40 0.006577
1008.50 0.006561
1008.60 0.006544
1008.70 0.006528
1008.80 0.006512
1008.90 0.006495
1009.00 0.006479
1009.10 0.006463
1009.20 0.006446
1009.30 0.00643
1009.40 0.006414
1009.50 0.006398
1009.60 0.006381
1009.70 0.006366
1009.80 0.006351
1009.90 0.006336
1010.00 0.006321
1010.10 0.006306
1010.20 0.00629
1010.30 0.006275
1010.40 0.00626
1010.50 0.006245
1010.60 0.00623
1010.70 0.006215
1010.80 0.0062
1010.90 0.006185
1011.00 0.00617
1011.10 0.006155
1011.20 0.00614
1011.30 0.006125
1011.40 0.00611
1011.50 0.006095
1011.60 0.00608
1011.70 0.006065
1011.80 0.00605
1011.90 0.006036
1012.00 0.006022
1012.10 0.006008
1012.20 0.005994
1012.30 0.00598
1012.40 0.005966
1012.50 0.005952
1012.60 0.005938
1012.70 0.005924
1012.80 0.00591
1012.90 0.005897
1013.00 0.005883
1013.10 0.005869
1013.20 0.005855
1013.30 0.005841
1013.40 0.005827
1013.50 0.005814
1013.60 0.0058
1013.70 0.005786
1013.80 0.005773
1013.90 0.00576
1014.00 0.005747
1014.10 0.005733
1014.20 0.00572
1014.30 0.005707
1014.40 0.005694
1014.50 0.005681
1014.60 0.005667
1014.70 0.005656
1014.80 0.005644
1014.90 0.005633
1015.00 0.005622
1015.10 0.00561
1015.20 0.005599
1015.30 0.005588
1015.40 0.005577
1015.50 0.005565
1015.60 0.005554
1015.70 0.005543
1015.80 0.005531
1015.90 0.00552
1016.00 0.005509
1016.10 0.005498
1016.20 0.005486
1016.30 0.005475
1016.40 0.005464
1016.50 0.005453
1016.60 0.005441
1016.70 0.005429
1016.80 0.005417
1016.90 0.005405
1017.00 0.005393
1017.10 0.005381
1017.20 0.005369
1017.30 0.005357
1017.40 0.005345
1017.50 0.005333
1017.60 0.005321
1017.70 0.005309
1017.80 0.005297
1017.90 0.005285
1018.00 0.005273
1018.10 0.005261
1018.20 0.005249
1018.30 0.005237
1018.40 0.005225
1018.50 0.005213
1018.60 0.005201
1018.70 0.00519
1018.80 0.005178
1018.90 0.005167
1019.00 0.005155
1019.10 0.005144
1019.20 0.005132
1019.30 0.005121
1019.40 0.005109
1019.50 0.005098
1019.60 0.005086
1019.70 0.005075
1019.80 0.005063
1019.90 0.005052
1020.00 0.00504
1020.10 0.005029
1020.20 0.005017
1020.30 0.005006
1020.40 0.004995
1020.50 0.004983
1020.60 0.004972
1020.70 0.004961
1020.80 0.00495
1020.90 0.004939
1021.00 0.004927
1021.10 0.004916
1021.20 0.004905
1021.30 0.004894
1021.40 0.004883
1021.50 0.004872
1021.60 0.004861
1021.70 0.00485
1021.80 0.004839
1021.90 0.004828
1022.00 0.004817
1022.10 0.004807
1022.20 0.004796
1022.30 0.004786
1022.40 0.004775
1022.50 0.004764
1022.60 0.004754
1022.70 0.004743
1022.80 0.004733
1022.90 0.004722
1023.00 0.004712
1023.10 0.004701
1023.20 0.00469
1023.30 0.00468
1023.40 0.004669
1023.50 0.004659
1023.60 0.004648
1023.70 0.004638
1023.80 0.004627
1023.90 0.004617
1024.00 0.004606
1024.10 0.004596
1024.20 0.004585
1024.30 0.004575
1024.40 0.004564
1024.50 0.004554
1024.60 0.004543
1024.70 0.004533
1024.80 0.004522
1024.90 0.004512
1025.00 0.004502
1025.10 0.004491
1025.20 0.004481
1025.30 0.004471
1025.40 0.00446
1025.50 0.00445
1025.60 0.00444
1025.70 0.004429
1025.80 0.004419
1025.90 0.004409
1026.00 0.004398
1026.10 0.004388
1026.20 0.004378
1026.30 0.004368
1026.40 0.004357
1026.50 0.004347
1026.60 0.004337
1026.70 0.004326
1026.80 0.004316
1026.90 0.004306
1027.00 0.004296
1027.10 0.004287
1027.20 0.004278
1027.30 0.004269
1027.40 0.00426
1027.50 0.004251
1027.60 0.004242
1027.70 0.004233
1027.80 0.004224
1027.90 0.004215
1028.00 0.004206
1028.10 0.004197
1028.20 0.004188
1028.30 0.004179
1028.40 0.00417
1028.50 0.004161
1028.60 0.004152
1028.70 0.004143
1028.80 0.004134
1028.90 0.004125
1029.00 0.004116
1029.10 0.004107
1029.20 0.004098
1029.30 0.004089
1029.40 0.00408
1029.50 0.004071
1029.60 0.004063
1029.70 0.004054
1029.80 0.004045
1029.90 0.004036
1030.00 0.004027
1030.10 0.004018
1030.20 0.004009
1030.30 0.004
1030.40 0.003991
1030.50 0.003982
1030.60 0.003973
1030.70 0.003965
1030.80 0.003956
1030.90 0.003947
1031.00 0.003938
1031.10 0.003929
1031.20 0.00392
1031.30 0.003911
1031.40 0.003902
1031.50 0.003894
1031.60 0.003885
1031.70 0.003876
1031.80 0.003867
1031.90 0.003858
1032.00 0.003849
1032.10 0.003842
1032.20 0.003834
1032.30 0.003826
1032.40 0.003818
1032.50 0.00381
1032.60 0.003802
1032.70 0.003794
1032.80 0.003786
1032.90 0.003779
1033.00 0.003771
1033.10 0.003763
1033.20 0.003755
1033.30 0.003747
1033.40 0.003739
1033.50 0.003732
1033.60 0.003724
1033.70 0.003716
1033.80 0.003708
1033.90 0.0037
1034.00 0.003692
1034.10 0.003685
1034.20 0.003677
1034.30 0.003669
1034.40 0.003661
1034.50 0.003653
1034.60 0.003646
1034.70 0.003638
1034.80 0.00363
1034.90 0.003622
1035.00 0.003614
1035.10 0.003607
1035.20 0.003599
1035.30 0.003591
1035.40 0.003583
1035.50 0.003575
1035.60 0.003568
1035.70 0.00356
1035.80 0.003552
1035.90 0.003544
1036.00 0.003537
1036.10 0.003529
1036.20 0.003521
1036.30 0.003513
1036.40 0.003506
1036.50 0.003498
1036.60 0.00349
1036.70 0.003482
1036.80 0.003475
1036.90 0.003467
1037.00 0.003459
1037.10 0.003452
1037.20 0.003446
1037.30 0.003439
1037.40 0.003433
1037.50 0.003426
1037.60 0.003419
1037.70 0.003413
1037.80 0.003406
1037.90 0.0034
1038.00 0.003393
1038.10 0.003386
1038.20 0.00338
1038.30 0.003373
1038.40 0.003367
1038.50 0.00336
1038.60 0.003354
1038.70 0.003347
1038.80 0.00334
1038.90 0.003334
1039.00 0.003327
1039.10 0.003321
1039.20 0.003314
1039.30 0.003308
1039.40 0.003301
1039.50 0.003295
1039.60 0.003288
1039.70 0.003281
1039.80 0.003275
1039.90 0.003268
1040.00 0.003262
1040.10 0.003255
1040.20 0.003249
1040.30 0.003242
1040.40 0.003236
1040.50 0.003229
1040.60 0.003223
1040.70 0.003216
1040.80 0.00321
1040.90 0.003203
1041.00 0.003197
1041.10 0.00319
1041.20 0.003184
1041.30 0.003177
1041.40 0.003171
1041.50 0.003164
1041.60 0.003158
1041.70 0.003151
1041.80 0.003145
1041.90 0.003138
1042.00 0.003132
1042.10 0.003126
1042.20 0.00312
1042.30 0.003115
1042.40 0.003109
1042.50 0.003104
1042.60 0.003098
1042.70 0.003093
1042.80 0.003087
1042.90 0.003082
1043.00 0.003076
1043.10 0.003071
1043.20 0.003065
1043.30 0.003059
1043.40 0.003054
1043.50 0.003048
1043.60 0.003043
1043.70 0.003037
1043.80 0.003032
1043.90 0.003026
1044.00 0.003021
1044.10 0.003015
1044.20 0.00301
1044.30 0.003004
1044.40 0.002999
1044.50 0.002993
1044.60 0.002988
1044.70 0.002982
1044.80 0.002977
1044.90 0.002971
1045.00 0.002966
1045.10 0.00296
1045.20 0.002955
1045.30 0.002949
1045.40 0.002944
1045.50 0.002938
1045.60 0.002933
1045.70 0.002927
1045.80 0.002922
1045.90 0.002916
1046.00 0.002911
1046.10 0.002905
1046.20 0.0029
1046.30 0.002894
1046.40 0.002889
1046.50 0.002883
1046.60 0.002878
1046.70 0.002873
1046.80 0.002867
1046.90 0.002862
1047.00 0.002856
1047.10 0.002851
1047.20 0.002847
1047.30 0.002842
1047.40 0.002838
1047.50 0.002833
1047.60 0.002828
1047.70 0.002824
1047.80 0.002819
1047.90 0.002815
1048.00 0.00281
1048.10 0.002805
1048.20 0.002801
1048.30 0.002796
1048.40 0.002791
1048.50 0.002787
1048.60 0.002782
1048.70 0.002778
1048.80 0.002773
1048.90 0.002768
1049.00 0.002764
1049.10 0.002759
1049.20 0.002755
1049.30 0.00275
1049.40 0.002745
1049.50 0.002741
1049.60 0.002736
1049.70 0.002732
1049.80 0.002727
1049.90 0.002723
1050.00 0.002718
1050.10 0.002713
1050.20 0.002709
1050.30 0.002704
1050.40 0.0027
1050.50 0.002695
1050.60 0.002691
1050.70 0.002686
1050.80 0.002681
1050.90 0.002677
1051.00 0.002672
1051.10 0.002668
1051.20 0.002663
1051.30 0.002659
1051.40 0.002654
1051.50 0.002649
1051.60 0.002645
1051.70 0.00264
1051.80 0.002636
1051.90 0.002631
1052.00 0.002627
1052.10 0.002623
1052.20 0.002618
1052.30 0.002614
1052.40 0.00261
1052.50 0.002606
1052.60 0.002602
1052.70 0.002598
1052.80 0.002593
1052.90 0.002589
1053.00 0.002585
1053.10 0.002581
1053.20 0.002577
1053.30 0.002573
1053.40 0.002568
1053.50 0.002564
1053.60 0.00256
1053.70 0.002556
1053.80 0.002552
1053.90 0.002548
1054.00 0.002544
1054.10 0.002539
1054.20 0.002535
1054.30 0.002531
1054.40 0.002527
1054.50 0.002523
1054.60 0.002519
1054.70 0.002515
1054.80 0.002511
1054.90 0.002506
1055.00 0.002502
1055.10 0.002498
1055.20 0.002494
1055.30 0.00249
1055.40 0.002486
1055.50 0.002482
1055.60 0.002478
1055.70 0.002473
1055.80 0.002469
1055.90 0.002465
1056.00 0.002461
1056.10 0.002457
1056.20 0.002453
1056.30 0.002449
1056.40 0.002445
1056.50 0.002441
1056.60 0.002436
1056.70 0.002432
1056.80 0.002428
1056.90 0.002424
1057.00 0.00242
1057.10 0.002416
1057.20 0.002413
1057.30 0.002409
1057.40 0.002405
1057.50 0.002402
1057.60 0.002398
1057.70 0.002394
1057.80 0.002391
1057.90 0.002387
1058.00 0.002383
1058.10 0.00238
1058.20 0.002376
1058.30 0.002372
1058.40 0.002369
1058.50 0.002365
1058.60 0.002361
1058.70 0.002358
1058.80 0.002354
1058.90 0.002351
1059.00 0.002347
1059.10 0.002343
1059.20 0.00234
1059.30 0.002336
1059.40 0.002332
1059.50 0.002329
1059.60 0.002325
1059.70 0.002321
1059.80 0.002318
1059.90 0.002314
1060.00 0.00231
1060.10 0.002307
1060.20 0.002303
1060.30 0.0023
1060.40 0.002296
1060.50 0.002292
1060.60 0.002289
1060.70 0.002285
1060.80 0.002281
1060.90 0.002278
1061.00 0.002274
1061.10 0.002271
1061.20 0.002267
1061.30 0.002263
1061.40 0.00226
1061.50 0.002256
1061.60 0.002253
1061.70 0.002249
1061.80 0.002245
1061.90 0.002242
1062.00 0.002238
1062.10 0.002235
1062.20 0.002232
1062.30 0.002229
1062.40 0.002226
1062.50 0.002222
1062.60 0.002219
1062.70 0.002216
1062.80 0.002213
1062.90 0.00221
1063.00 0.002207
1063.10 0.002204
1063.20 0.0022
1063.30 0.002197
1063.40 0.002194
1063.50 0.002191
1063.60 0.002188
1063.70 0.002185
1063.80 0.002182
1063.90 0.002178
1064.00 0.002175
1064.10 0.002172
1064.20 0.002169
1064.30 0.002166
1064.40 0.002163
1064.50 0.00216
1064.60 0.002157
1064.70 0.002153
1064.80 0.00215
1064.90 0.002147
1065.00 0.002144
1065.10 0.002141
1065.20 0.002138
1065.30 0.002135
1065.40 0.002132
1065.50 0.002128
1065.60 0.002125
1065.70 0.002122
1065.80 0.002119
1065.90 0.002116
1066.00 0.002113
1066.10 0.00211
1066.20 0.002107
1066.30 0.002104
1066.40 0.002101
1066.50 0.002097
1066.60 0.002094
1066.70 0.002091
1066.80 0.002088
1066.90 0.002085
1067.00 0.002082
1067.10 0.002079
1067.20 0.002076
1067.30 0.002073
1067.40 0.00207
1067.50 0.002067
1067.60 0.002065
1067.70 0.002062
1067.80 0.002059
1067.90 0.002056
1068.00 0.002053
1068.10 0.00205
1068.20 0.002047
1068.30 0.002044
1068.40 0.002042
1068.50 0.002039
1068.60 0.002036
1068.70 0.002033
1068.80 0.00203
1068.90 0.002027
1069.00 0.002024
1069.10 0.002021
1069.20 0.002019
1069.30 0.002016
1069.40 0.002013
1069.50 0.00201
1069.60 0.002007
1069.70 0.002004
1069.80 0.002001
1069.90 0.001999
1070.00 0.001996
1070.10 0.001993
1070.20 0.00199
1070.30 0.001987
1070.40 0.001984
1070.50 0.001981
1070.60 0.001979
1070.70 0.001976
1070.80 0.001973
1070.90 0.00197
1071.00 0.001967
1071.10 0.001964
1071.20 0.001961
1071.30 0.001959
1071.40 0.001956
1071.50 0.001953
1071.60 0.00195
1071.70 0.001947
1071.80 0.001944
1071.90 0.001942
1072.00 0.001939
1072.10 0.001936
1072.20 0.001934
1072.30 0.001932
1072.40 0.00193
1072.50 0.001927
1072.60 0.001925
1072.70 0.001923
1072.80 0.001921
1072.90 0.001918
1073.00 0.001916
1073.10 0.001914
1073.20 0.001912
1073.30 0.001909
1073.40 0.001907
1073.50 0.001905
1073.60 0.001903
1073.70 0.001901
1073.80 0.001899
1073.90 0.001897
1074.00 0.001895
1074.10 0.001893
1074.20 0.001891
1074.30 0.00189
1074.40 0.001888
1074.50 0.001886
1074.60 0.001884
1074.70 0.001882
1074.80 0.00188
1074.90 0.001878
1075.00 0.001876
1075.10 0.001874
1075.20 0.001872
1075.30 0.00187
1075.40 0.001868
1075.50 0.001866
1075.60 0.001864
1075.70 0.001863
1075.80 0.001861
1075.90 0.001859
1076.00 0.001857
1076.10 0.001855
1076.20 0.001853
1076.30 0.001851
1076.40 0.001849
1076.50 0.001847
1076.60 0.001845
1076.70 0.001843
1076.80 0.001841
1076.90 0.001839
1077.00 0.001838
1077.10 0.001836
1077.20 0.001834
1077.30 0.001832
1077.40 0.001831
1077.50 0.001829
1077.60 0.001828
1077.70 0.001826
1077.80 0.001824
1077.90 0.001823
1078.00 0.001821
1078.10 0.00182
1078.20 0.001818
1078.30 0.001817
1078.40 0.001815
1078.50 0.001814
1078.60 0.001812
1078.70 0.001811
1078.80 0.001809
1078.90 0.001808
1079.00 0.001806
1079.10 0.001804
1079.20 0.001803
1079.30 0.001801
1079.40 0.0018
1079.50 0.001798
1079.60 0.001797
1079.70 0.001796
1079.80 0.001795
1079.90 0.001794
1080.00 0.001793
1080.10 0.001791
1080.20 0.00179
1080.30 0.001789
1080.40 0.001788
1080.50 0.001787
1080.60 0.001786
1080.70 0.001784
1080.80 0.001783
1080.90 0.001782
1081.00 0.001781
1081.10 0.00178
1081.20 0.001779
1081.30 0.001778
1081.40 0.001776
1081.50 0.001775
1081.60 0.001774
1081.70 0.001773
1081.80 0.001772
1081.90 0.00177
1082.00 0.001769
1082.10 0.001768
1082.20 0.001767
1082.30 0.001766
1082.40 0.001765
1082.50 0.001764
1082.60 0.001763
1082.70 0.001762
1082.80 0.00176
1082.90 0.001759
1083.00 0.001758
1083.10 0.001757
1083.20 0.001756
1083.30 0.001755
1083.40 0.001754
1083.50 0.001753
1083.60 0.001752
1083.70 0.001751
1083.80 0.00175
1083.90 0.001749
1084.00 0.001748
1084.10 0.001747
1084.20 0.001746
1084.30 0.001745
1084.40 0.001744
1084.50 0.001743
1084.60 0.001742
1084.70 0.001741
1084.80 0.00174
1084.90 0.001739
1085.00 0.001739
1085.10 0.001738
1085.20 0.001737
1085.30 0.001736
1085.40 0.001735
1085.50 0.001734
1085.60 0.001733
1085.70 0.001732
1085.80 0.001732
1085.90 0.001731
1086.00 0.00173
1086.10 0.001729
1086.20 0.001728
1086.30 0.001727
1086.40 0.001726
1086.50 0.001726
1086.60 0.001725
1086.70 0.001724
1086.80 0.001723
1086.90 0.001723
1087.00 0.001722
1087.10 0.001721
1087.20 0.00172
1087.30 0.00172
1087.40 0.001719
1087.50 0.001718
1087.60 0.001718
1087.70 0.001717
1087.80 0.001716
1087.90 0.001716
1088.00 0.001715
1088.10 0.001714
1088.20 0.001714
1088.30 0.001713
1088.40 0.001712
1088.50 0.001712
1088.60 0.001711
1088.70 0.001711
1088.80 0.00171
1088.90 0.00171
1089.00 0.001709
1089.10 0.001709
1089.20 0.001708
1089.30 0.001708
1089.40 0.001707
1089.50 0.001706
1089.60 0.001706
1089.70 0.001705
1089.80 0.001705
1089.90 0.001704
1090.00 0.001704
1090.10 0.001703
1090.20 0.001703
1090.30 0.001702
1090.40 0.001702
1090.50 0.001701
1090.60 0.001701
1090.70 0.0017
1090.80 0.0017
1090.90 0.0017
1091.00 0.001699
1091.10 0.001699
1091.20 0.001698
1091.30 0.001698
1091.40 0.001698
1091.50 0.001697
1091.60 0.001697
1091.70 0.001697
1091.80 0.001696
1091.90 0.001696
1092.00 0.001695
1092.10 0.001695
1092.20 0.001695
1092.30 0.001694
1092.40 0.001694
1092.50 0.001694
1092.60 0.001694
1092.70 0.001694
1092.80 0.001696
1092.90 0.001698
1093.00 0.0017
1093.10 0.001701
1093.20 0.001701
1093.30 0.001701
1093.40 0.0017
1093.50 0.0017
1093.60 0.0017
1093.70 0.0017
1093.80 0.001699
1093.90 0.001699
1094.00 0.001699
1094.10 0.001699
1094.20 0.001699
1094.30 0.001698
1094.40 0.001698
1094.50 0.001698
1094.60 0.001698
1094.70 0.001698
1094.80 0.001697
1094.90 0.001697
1095.00 0.001697
1095.10 0.001697
1095.20 0.001697
1095.30 0.001696
1095.40 0.001696
1095.50 0.001696
1095.60 0.001696
1095.70 0.001696
1095.80 0.001696
1095.90 0.001695
1096.00 0.001695
1096.10 0.001695
1096.20 0.001695
1096.30 0.001695
1096.40 0.001694
1096.50 0.001694
1096.60 0.001694
1096.70 0.001694
1096.80 0.001694
1096.90 0.001694
1097.00 0.001694
1097.10 0.001693
1097.20 0.001693
1097.30 0.001693
1097.40 0.001693
1097.50 0.001693
1097.60 0.001693
1097.70 0.001693
1097.80 0.001693
1097.90 0.001693
1098.00 0.001692
1098.10 0.001692
1098.20 0.001692
1098.30 0.001692
1098.40 0.001692
1098.50 0.001692
1098.60 0.001692
1098.70 0.001692
1098.80 0.001692
1098.90 0.001692
1099.00 0.001692
1099.10 0.001691
1099.20 0.001691
1099.30 0.001691
1099.40 0.001691
1099.50 0.001691
1099.60 0.001691
1099.70 0.001691
1099.80 0.001691
1099.90 0.001691
1100.00 0.001691
1100.10 0.001691
1100.20 0.001691
1100.30 0.001691
1100.40 0.001691
1100.50 0.001691
1100.60 0.001691
1100.70 0.001691
1100.80 0.00169
1100.90 0.00169
1101.00 0.00169
1101.10 0.00169
1101.20 0.00169
1101.30 0.00169
1101.40 0.00169
1101.50 0.00169
1101.60 0.00169
1101.70 0.00169
1101.80 0.00169
1101.90 0.00169
1102.00 0.00169
1102.10 0.00169
1102.20 0.00169
1102.30 0.00169
1102.40 0.00169
1102.50 0.00169
1102.60 0.00169
1102.70 0.00169
1102.80 0.00169
1102.90 0.00169
1103.00 0.001691
1103.10 0.001691
1103.20 0.001691
1103.30 0.001691
1103.40 0.001691
1103.50 0.001691
1103.60 0.001691
1103.70 0.001691
1103.80 0.001691
1103.90 0.001691
1104.00 0.00169
1104.10 0.00169
1104.20 0.00169
1104.30 0.00169
1104.40 0.00169
1104.50 0.00169
1104.60 0.00169
1104.70 0.00169
1104.80 0.00169
1104.90 0.00169
1105.00 0.00169
1105.10 0.00169
1105.20 0.00169
1105.30 0.00169
1105.40 0.00169
1105.50 0.00169
1105.60 0.00169
1105.70 0.00169
1105.80 0.001691
1105.90 0.001691
1106.00 0.001691
1106.10 0.001691
1106.20 0.001691
1106.30 0.001691
1106.40 0.001691
1106.50 0.001691
1106.60 0.001692
1106.70 0.001692
1106.80 0.001692
1106.90 0.001692
1107.00 0.001692
1107.10 0.001692
1107.20 0.001692
1107.30 0.001693
1107.40 0.001693
1107.50 0.001693
1107.60 0.001693
1107.70 0.001693
1107.80 0.001694
1107.90 0.001694
1108.00 0.001694
1108.10 0.001694
1108.20 0.001695
1108.30 0.001695
1108.40 0.001695
1108.50 0.001695
1108.60 0.001695
1108.70 0.001696
1108.80 0.001696
1108.90 0.001696
1109.00 0.001696
1109.10 0.001697
1109.20 0.001697
1109.30 0.001697
1109.40 0.001697
1109.50 0.001697
1109.60 0.001698
1109.70 0.001698
1109.80 0.001698
1109.90 0.001699
1110.00 0.001699
1110.10 0.001699
1110.20 0.0017
1110.30 0.0017
1110.40 0.0017
1110.50 0.001701
1110.60 0.001701
1110.70 0.001701
1110.80 0.001702
1110.90 0.001702
1111.00 0.001702
1111.10 0.001702
1111.20 0.001703
1111.30 0.001703
1111.40 0.001703
1111.50 0.001704
1111.60 0.001704
1111.70 0.001704
1111.80 0.001705
1111.90 0.001705
1112.00 0.001705
1112.10 0.001706
1112.20 0.001706
1112.30 0.001706
1112.40 0.001707
1112.50 0.001707
1112.60 0.001708
1112.70 0.001708
1112.80 0.001708
1112.90 0.001709
1113.00 0.001709
1113.10 0.00171
1113.20 0.00171
1113.30 0.00171
1113.40 0.001711
1113.50 0.001711
1113.60 0.001712
1113.70 0.001712
1113.80 0.001713
1113.90 0.001713
1114.00 0.001714
1114.10 0.001714
1114.20 0.001714
1114.30 0.001715
1114.40 0.001715
1114.50 0.001716
1114.60 0.001716
1114.70 0.001717
1114.80 0.001717
1114.90 0.001718
1115.00 0.001718
1115.10 0.001719
1115.20 0.001719
1115.30 0.00172
1115.40 0.00172
1115.50 0.001721
1115.60 0.001721
1115.70 0.001722
1115.80 0.001722
1115.90 0.001723
1116.00 0.001723
1116.10 0.001724
1116.20 0.001724
1116.30 0.001725
1116.40 0.001725
1116.50 0.001726
1116.60 0.001726
1116.70 0.001727
1116.80 0.001727
1116.90 0.001728
1117.00 0.001728
1117.10 0.001729
1117.20 0.001729
1117.30 0.00173
1117.40 0.00173
1117.50 0.001731
1117.60 0.001732
1117.70 0.001732
1117.80 0.001733
1117.90 0.001733
1118.00 0.001734
1118.10 0.001735
1118.20 0.001735
1118.30 0.001736
1118.40 0.001736
1118.50 0.001737
1118.60 0.001737
1118.70 0.001738
1118.80 0.001739
1118.90 0.001739
1119.00 0.00174
1119.10 0.00174
1119.20 0.001741
1119.30 0.001742
1119.40 0.001742
1119.50 0.001743
1119.60 0.001743
1119.70 0.001744
1119.80 0.001744
1119.90 0.001745
1120.00 0.001746
1120.10 0.001746
1120.20 0.001747
1120.30 0.001747
1120.40 0.001748
1120.50 0.001749
1120.60 0.001749
1120.70 0.00175
1120.80 0.00175
1120.90 0.001751
1121.00 0.001751
1121.10 0.001752
1121.20 0.001753
1121.30 0.001753
1121.40 0.001754
1121.50 0.001754
1121.60 0.001755
1121.70 0.001756
1121.80 0.001756
1121.90 0.001757
1122.00 0.001757
1122.10 0.001758
1122.20 0.00176
1122.30 0.001761
1122.40 0.001762
1122.50 0.001763
1122.60 0.001764
1122.70 0.001765
1122.80 0.001767
1122.90 0.001768
1123.00 0.001769
1123.10 0.00177
1123.20 0.001771
1123.30 0.001772
1123.40 0.001773
1123.50 0.001775
1123.60 0.001776
1123.70 0.001777
1123.80 0.001778
1123.90 0.001779
1124.00 0.00178
1124.10 0.001781
1124.20 0.001783
1124.30 0.001784
1124.40 0.001785
1124.50 0.001786
1124.60 0.001787
1124.70 0.001788
1124.80 0.00179
1124.90 0.001791
1125.00 0.001792
1125.10 0.001793
1125.20 0.001794
1125.30 0.001795
1125.40 0.001796
1125.50 0.001798
1125.60 0.001799
1125.70 0.0018
1125.80 0.001801
1125.90 0.001802
1126.00 0.001803
1126.10 0.001804
1126.20 0.001806
1126.30 0.001807
1126.40 0.001808
1126.50 0.001809
1126.60 0.00181
1126.70 0.001811
1126.80 0.001812
1126.90 0.001814
1127.00 0.001815
1127.10 0.001816
1127.20 0.001818
1127.30 0.00182
1127.40 0.001822
1127.50 0.001823
1127.60 0.001825
1127.70 0.001827
1127.80 0.001828
1127.90 0.00183
1128.00 0.001832
1128.10 0.001834
1128.20 0.001835
1128.30 0.001837
1128.40 0.001839
1128.50 0.001841
1128.60 0.001842
1128.70 0.001844
1128.80 0.001846
1128.90 0.001847
1129.00 0.001849
1129.10 0.001851
1129.20 0.001853
1129.30 0.001854
1129.40 0.001856
1129.50 0.001858
1129.60 0.001859
1129.70 0.001861
1129.80 0.001863
1129.90 0.001865
1130.00 0.001866
1130.10 0.001868
1130.20 0.00187
1130.30 0.001871
1130.40 0.001873
1130.50 0.001875
1130.60 0.001877
1130.70 0.001878
1130.80 0.00188
1130.90 0.001882
1131.00 0.001883
1131.10 0.001885
1131.20 0.001887
1131.30 0.001889
1131.40 0.00189
1131.50 0.001892
1131.60 0.001894
1131.70 0.001895
1131.80 0.001897
1131.90 0.001899
1132.00 0.0019
1132.10 0.001902
1132.20 0.001904
1132.30 0.001906
1132.40 0.001908
1132.50 0.00191
1132.60 0.001912
1132.70 0.001914
1132.80 0.001916
1132.90 0.001917
1133.00 0.001919
1133.10 0.001921
1133.20 0.001923
1133.30 0.001925
1133.40 0.001927
1133.50 0.001929
1133.60 0.001931
1133.70 0.001933
1133.80 0.001934
1133.90 0.001936
1134.00 0.001938
1134.10 0.00194
1134.20 0.001942
1134.30 0.001944
1134.40 0.001946
1134.50 0.001948
1134.60 0.001949
1134.70 0.001951
1134.80 0.001953
1134.90 0.001955
1135.00 0.001957
1135.10 0.001959
1135.20 0.001961
1135.30 0.001963
1135.40 0.001964
1135.50 0.001966
1135.60 0.001968
1135.70 0.00197
1135.80 0.001972
1135.90 0.001974
1136.00 0.001976
1136.10 0.001978
1136.20 0.001979
1136.30 0.001981
1136.40 0.001983
1136.50 0.001985
1136.60 0.001987
1136.70 0.001989
1136.80 0.001991
1136.90 0.001992
1137.00 0.001994
1137.10 0.001996
1137.20 0.001999
1137.30 0.002001
1137.40 0.002003
1137.50 0.002005
1137.60 0.002007
1137.70 0.00201
1137.80 0.002012
1137.90 0.002014
1138.00 0.002016
1138.10 0.002018
1138.20 0.002021
1138.30 0.002023
1138.40 0.002025
1138.50 0.002027
1138.60 0.002029
1138.70 0.002031
1138.80 0.002034
1138.90 0.002036
1139.00 0.002038
1139.10 0.00204
1139.20 0.002042
1139.30 0.002045
1139.40 0.002047
1139.50 0.002049
1139.60 0.002051
1139.70 0.002053
1139.80 0.002055
1139.90 0.002058
1140.00 0.00206
1140.10 0.002062
1140.20 0.002064
1140.30 0.002066
1140.40 0.002068
1140.50 0.002071
1140.60 0.002073
1140.70 0.002075
1140.80 0.002077
1140.90 0.002079
1141.00 0.002081
1141.10 0.002084
1141.20 0.002086
1141.30 0.002088
1141.40 0.00209
1141.50 0.002092
1141.60 0.002094
1141.70 0.002096
1141.80 0.002099
1141.90 0.002101
1142.00 0.002103
1142.10 0.002106
1142.20 0.002108
1142.30 0.002111
1142.40 0.002114
1142.50 0.002116
1142.60 0.002119
1142.70 0.002122
1142.80 0.002124
1142.90 0.002127
1143.00 0.00213
1143.10 0.002132
1143.20 0.002135
1143.30 0.002137
1143.40 0.00214
1143.50 0.002143
1143.60 0.002145
1143.70 0.002148
1143.80 0.002151
1143.90 0.002153
1144.00 0.002156
1144.10 0.002159
1144.20 0.002161
1144.30 0.002164
1144.40 0.002167
1144.50 0.002169
1144.60 0.002172
1144.70 0.002174
1144.80 0.002177
1144.90 0.00218
1145.00 0.002182
1145.10 0.002185
1145.20 0.002188
1145.30 0.00219
1145.40 0.002193
1145.50 0.002196
1145.60 0.002198
1145.70 0.002201
1145.80 0.002203
1145.90 0.002206
1146.00 0.002209
1146.10 0.002211
1146.20 0.002214
1146.30 0.002217
1146.40 0.002219
1146.50 0.002222
1146.60 0.002224
1146.70 0.002227
1146.80 0.00223
1146.90 0.002232
1147.00 0.002235
1147.10 0.002237
1147.20 0.00224
1147.30 0.002242
1147.40 0.002245
1147.50 0.002247
1147.60 0.00225
1147.70 0.002252
1147.80 0.002255
1147.90 0.002257
1148.00 0.00226
1148.10 0.002262
1148.20 0.002264
1148.30 0.002267
1148.40 0.002269
1148.50 0.002272
1148.60 0.002274
1148.70 0.002277
1148.80 0.002279
1148.90 0.002282
1149.00 0.002284
1149.10 0.002287
1149.20 0.002289
1149.30 0.002292
1149.40 0.002294
1149.50 0.002296
1149.60 0.002299
1149.70 0.002301
1149.80 0.002304
1149.90 0.002306
1150.00 0.002309
1150.10 0.002311
1150.20 0.002314
1150.30 0.002316
1150.40 0.002318
1150.50 0.002321
1150.60 0.002323
1150.70 0.002326
1150.80 0.002328
1150.90 0.002331
1151.00 0.002333
1151.10 0.002336
1151.20 0.002338
1151.30 0.00234
1151.40 0.002343
1151.50 0.002345
1151.60 0.002348
1151.70 0.00235
1151.80 0.002353
1151.90 0.002355
1152.00 0.002357
1152.10 0.00236
1152.20 0.002363
1152.30 0.002366
1152.40 0.002368
1152.50 0.002371
1152.60 0.002374
1152.70 0.002376
1152.80 0.002379
1152.90 0.002382
1153.00 0.002384
1153.10 0.002387
1153.20 0.00239
1153.30 0.002393
1153.40 0.002395
1153.50 0.002398
1153.60 0.002401
1153.70 0.002403
1153.80 0.002406
1153.90 0.002409
1154.00 0.002411
1154.10 0.002414
1154.20 0.002417
1154.30 0.00242
1154.40 0.002422
1154.50 0.002425
1154.60 0.002428
1154.70 0.00243
1154.80 0.002433
1154.90 0.002436
1155.00 0.002438
1155.10 0.002441
1155.20 0.002444
1155.30 0.002446
1155.40 0.002449
1155.50 0.002452
1155.60 0.002454
1155.70 0.002457
1155.80 0.00246
1155.90 0.002462
1156.00 0.002465
1156.10 0.002468
1156.20 0.00247
1156.30 0.002473
1156.40 0.002476
1156.50 0.002478
1156.60 0.002481
1156.70 0.002484
1156.80 0.002486
1156.90 0.002489
1157.00 0.002492
1157.10 0.002494
1157.20 0.002497
1157.30 0.002499
1157.40 0.002501
1157.50 0.002504
1157.60 0.002506
1157.70 0.002509
1157.80 0.002511
1157.90 0.002513
1158.00 0.002516
1158.10 0.002518
1158.20 0.00252
1158.30 0.002523
1158.40 0.002525
1158.50 0.002528
1158.60 0.00253
1158.70 0.002532
1158.80 0.002535
1158.90 0.002537
1159.00 0.002539
1159.10 0.002542
1159.20 0.002544
1159.30 0.002547
1159.40 0.002549
1159.50 0.002551
1159.60 0.002554
1159.70 0.002556
1159.80 0.002558
1159.90 0.002561
1160.00 0.002563
1160.10 0.002566
1160.20 0.002568
1160.30 0.00257
1160.40 0.002573
1160.50 0.002575
1160.60 0.002577
1160.70 0.00258
1160.80 0.002582
1160.90 0.002584
1161.00 0.002587
1161.10 0.002589
1161.20 0.002592
1161.30 0.002594
1161.40 0.002596
1161.50 0.002599
1161.60 0.002601
1161.70 0.002603
1161.80 0.002606
1161.90 0.002608
1162.00 0.00261
1162.10 0.002613
1162.20 0.002615
1162.30 0.002617
1162.40 0.002619
1162.50 0.002621
1162.60 0.002623
1162.70 0.002626
1162.80 0.002628
1162.90 0.00263
1163.00 0.002632
1163.10 0.002634
1163.20 0.002636
1163.30 0.002639
1163.40 0.002641
1163.50 0.002643
1163.60 0.002645
1163.70 0.002647
1163.80 0.002649
1163.90 0.002652
1164.00 0.002654
1164.10 0.002656
1164.20 0.002658
1164.30 0.00266
1164.40 0.002662
1164.50 0.002665
1164.60 0.002667
1164.70 0.002669
1164.80 0.002671
1164.90 0.002673
1165.00 0.002675
1165.10 0.002678
1165.20 0.00268
1165.30 0.002682
1165.40 0.002684
1165.50 0.002686
1165.60 0.002688
1165.70 0.00269
1165.80 0.002693
1165.90 0.002695
1166.00 0.002697
1166.10 0.002699
1166.20 0.002701
1166.30 0.002703
1166.40 0.002705
1166.50 0.002708
1166.60 0.00271
1166.70 0.002712
1166.80 0.002714
1166.90 0.002716
1167.00 0.002718
1167.10 0.002721
1167.20 0.002723
1167.30 0.002725
1167.40 0.002727
1167.50 0.00273
1167.60 0.002732
1167.70 0.002734
1167.80 0.002737
1167.90 0.002739
1168.00 0.002741
1168.10 0.002743
1168.20 0.002746
1168.30 0.002748
1168.40 0.00275
1168.50 0.002753
1168.60 0.002755
1168.70 0.002757
1168.80 0.002759
1168.90 0.002762
1169.00 0.002764
1169.10 0.002766
1169.20 0.002768
1169.30 0.002771
1169.40 0.002773
1169.50 0.002775
1169.60 0.002778
1169.70 0.00278
1169.80 0.002782
1169.90 0.002784
1170.00 0.002787
1170.10 0.002789
1170.20 0.002791
1170.30 0.002793
1170.40 0.002796
1170.50 0.002798
1170.60 0.0028
1170.70 0.002802
1170.80 0.002805
1170.90 0.002807
1171.00 0.002809
1171.10 0.002811
1171.20 0.002814
1171.30 0.002816
1171.40 0.002818
1171.50 0.00282
1171.60 0.002823
1171.70 0.002825
1171.80 0.002827
1171.90 0.002829
1172.00 0.002832
1172.10 0.002833
1172.20 0.002834
1172.30 0.002836
1172.40 0.002837
1172.50 0.002838
1172.60 0.002839
1172.70 0.002841
1172.80 0.002842
1172.90 0.002843
1173.00 0.002844
1173.10 0.002846
1173.20 0.002847
1173.30 0.002848
1173.40 0.00285
1173.50 0.002851
1173.60 0.002852
1173.70 0.002853
1173.80 0.002855
1173.90 0.002856
1174.00 0.002857
1174.10 0.002858
1174.20 0.00286
1174.30 0.002861
1174.40 0.002862
1174.50 0.002864
1174.60 0.002865
1174.70 0.002866
1174.80 0.002867
1174.90 0.002869
1175.00 0.00287
1175.10 0.002871
1175.20 0.002872
1175.30 0.002874
1175.40 0.002875
1175.50 0.002876
1175.60 0.002877
1175.70 0.002879
1175.80 0.00288
1175.90 0.002881
1176.00 0.002882
1176.10 0.002884
1176.20 0.002885
1176.30 0.002886
1176.40 0.002888
1176.50 0.002889
1176.60 0.00289
1176.70 0.002891
1176.80 0.002893
1176.90 0.002894
1177.00 0.002895
1177.10 0.002896
1177.20 0.002896
1177.30 0.002897
1177.40 0.002897
1177.50 0.002898
1177.60 0.002899
1177.70 0.002899
1177.80 0.0029
1177.90 0.0029
1178.00 0.002901
1178.10 0.002901
1178.20 0.002902
1178.30 0.002903
1178.40 0.002903
1178.50 0.002904
1178.60 0.002904
1178.70 0.002905
1178.80 0.002905
1178.90 0.002906
1179.00 0.002907
1179.10 0.002907
1179.20 0.002908
1179.30 0.002908
1179.40 0.002909
1179.50 0.002909
1179.60 0.00291
1179.70 0.002911
1179.80 0.002911
1179.90 0.002912
1180.00 0.002912
1180.10 0.002913
1180.20 0.002913
1180.30 0.002914
1180.40 0.002915
1180.50 0.002915
1180.60 0.002916
1180.70 0.002916
1180.80 0.002917
1180.90 0.002917
1181.00 0.002918
1181.10 0.002919
1181.20 0.002919
1181.30 0.00292
1181.40 0.00292
1181.50 0.002921
1181.60 0.002921
1181.70 0.002922
1181.80 0.002923
1181.90 0.002923
1182.00 0.002924
1182.10 0.002923
1182.20 0.002923
1182.30 0.002922
1182.40 0.002922
1182.50 0.002921
1182.60 0.002921
1182.70 0.00292
1182.80 0.00292
1182.90 0.002919
1183.00 0.002919
1183.10 0.002918
1183.20 0.002918
1183.30 0.002917
1183.40 0.002917
1183.50 0.002916
1183.60 0.002916
1183.70 0.002915
1183.80 0.002915
1183.90 0.002914
1184.00 0.002914
1184.10 0.002913
1184.20 0.002912
1184.30 0.002912
1184.40 0.002911
1184.50 0.002911
1184.60 0.00291
1184.70 0.00291
1184.80 0.002909
1184.90 0.002909
1185.00 0.002908
1185.10 0.002908
1185.20 0.002907
1185.30 0.002907
1185.40 0.002906
1185.50 0.002906
1185.60 0.002905
1185.70 0.002905
1185.80 0.002904
1185.90 0.002904
1186.00 0.002903
1186.10 0.002903
1186.20 0.002902
1186.30 0.002902
1186.40 0.002901
1186.50 0.002901
1186.60 0.0029
1186.70 0.0029
1186.80 0.002899
1186.90 0.002899
1187.00 0.002898
1187.10 0.002898
1187.20 0.002898
1187.30 0.002898
1187.40 0.002898
1187.50 0.002898
1187.60 0.002897
1187.70 0.002897
1187.80 0.002897
1187.90 0.002897
1188.00 0.002897
1188.10 0.002897
1188.20 0.002897
1188.30 0.002896
1188.40 0.002896
1188.50 0.002896
1188.60 0.002896
1188.70 0.002896
1188.80 0.002896
1188.90 0.002896
1189.00 0.002895
1189.10 0.002895
1189.20 0.002895
1189.30 0.002895
1189.40 0.002895
1189.50 0.002895
1189.60 0.002895
1189.70 0.002894
1189.80 0.002894
1189.90 0.002894
1190.00 0.002894
1190.10 0.002894
1190.20 0.002894
1190.30 0.002893
1190.40 0.002893
1190.50 0.002893
1190.60 0.002893
1190.70 0.002893
1190.80 0.002893
1190.90 0.002893
1191.00 0.002892
1191.10 0.002892
1191.20 0.002892
1191.30 0.002892
1191.40 0.002892
1191.50 0.002892
1191.60 0.002892
1191.70 0.002891
1191.80 0.002891
1191.90 0.002891
1192.00 0.002891
1192.10 0.002891
1192.20 0.00289
1192.30 0.00289
1192.40 0.00289
1192.50 0.00289
1192.60 0.002889
1192.70 0.002889
1192.80 0.002889
1192.90 0.002888
1193.00 0.002888
1193.10 0.002888
1193.20 0.002888
1193.30 0.002887
1193.40 0.002887
1193.50 0.002887
1193.60 0.002886
1193.70 0.002886
1193.80 0.002886
1193.90 0.002886
1194.00 0.002885
1194.10 0.002885
1194.20 0.002885
1194.30 0.002884
1194.40 0.002884
1194.50 0.002884
1194.60 0.002884
1194.70 0.002883
1194.80 0.002883
1194.90 0.002883
1195.00 0.002882
1195.10 0.002882
1195.20 0.002882
1195.30 0.002882
1195.40 0.002881
1195.50 0.002881
1195.60 0.002881
1195.70 0.00288
1195.80 0.00288
1195.90 0.00288
1196.00 0.00288
1196.10 0.002879
1196.20 0.002879
1196.30 0.002879
1196.40 0.002879
1196.50 0.002878
1196.60 0.002878
1196.70 0.002878
1196.80 0.002877
1196.90 0.002877
1197.00 0.002877
1197.10 0.002876
1197.20 0.002875
1197.30 0.002874
1197.40 0.002873
1197.50 0.002872
1197.60 0.002871
1197.70 0.00287
1197.80 0.002869
1197.90 0.002868
1198.00 0.002868
1198.10 0.002867
1198.20 0.002866
1198.30 0.002865
1198.40 0.002864
1198.50 0.002863
1198.60 0.002862
1198.70 0.002861
1198.80 0.00286
1198.90 0.002859
1199.00 0.002858
1199.10 0.002857
1199.20 0.002856
1199.30 0.002856
1199.40 0.002855
1199.50 0.002854
1199.60 0.002853
1199.70 0.002852
1199.80 0.002851
1199.90 0.00285
1200.00 0
