# Version 2.1 - nm, norm@500 to 1, cut digits, bergeron_11500_80.dat_11500
# Wavelength(nm)  Flambda(ergs/cm^s/s/nm)
300.00 1.807
300.10 1.806
300.20 1.805
300.30 1.804
300.40 1.803
300.50 1.802
300.60 1.801
300.70 1.8
300.80 1.799
300.90 1.798
301.00 1.797
301.10 1.796
301.20 1.795
301.30 1.794
301.40 1.793
301.50 1.792
301.60 1.791
301.70 1.79
301.80 1.789
301.90 1.788
302.00 1.787
302.10 1.786
302.20 1.785
302.30 1.784
302.40 1.783
302.50 1.782
302.60 1.781
302.70 1.78
302.80 1.779
302.90 1.777
303.00 1.776
303.10 1.775
303.20 1.774
303.30 1.773
303.40 1.772
303.50 1.771
303.60 1.77
303.70 1.769
303.80 1.768
303.90 1.767
304.00 1.766
304.10 1.765
304.20 1.764
304.30 1.763
304.40 1.762
304.50 1.761
304.60 1.76
304.70 1.759
304.80 1.758
304.90 1.757
305.00 1.756
305.10 1.755
305.20 1.754
305.30 1.753
305.40 1.752
305.50 1.751
305.60 1.75
305.70 1.749
305.80 1.748
305.90 1.747
306.00 1.746
306.10 1.745
306.20 1.744
306.30 1.743
306.40 1.742
306.50 1.741
306.60 1.74
306.70 1.739
306.80 1.738
306.90 1.737
307.00 1.736
307.10 1.735
307.20 1.734
307.30 1.733
307.40 1.732
307.50 1.731
307.60 1.73
307.70 1.729
307.80 1.728
307.90 1.727
308.00 1.726
308.10 1.725
308.20 1.724
308.30 1.723
308.40 1.722
308.50 1.721
308.60 1.72
308.70 1.719
308.80 1.718
308.90 1.717
309.00 1.716
309.10 1.715
309.20 1.714
309.30 1.713
309.40 1.712
309.50 1.711
309.60 1.71
309.70 1.709
309.80 1.708
309.90 1.707
310.00 1.706
310.10 1.705
310.20 1.704
310.30 1.703
310.40 1.702
310.50 1.701
310.60 1.7
310.70 1.699
310.80 1.698
310.90 1.697
311.00 1.696
311.10 1.695
311.20 1.695
311.30 1.694
311.40 1.693
311.50 1.692
311.60 1.691
311.70 1.69
311.80 1.689
311.90 1.688
312.00 1.687
312.10 1.686
312.20 1.685
312.30 1.684
312.40 1.683
312.50 1.682
312.60 1.681
312.70 1.68
312.80 1.679
312.90 1.678
313.00 1.677
313.10 1.676
313.20 1.675
313.30 1.674
313.40 1.673
313.50 1.672
313.60 1.671
313.70 1.67
313.80 1.669
313.90 1.668
314.00 1.667
314.10 1.666
314.20 1.666
314.30 1.665
314.40 1.664
314.50 1.663
314.60 1.662
314.70 1.661
314.80 1.66
314.90 1.659
315.00 1.658
315.10 1.657
315.20 1.656
315.30 1.655
315.40 1.654
315.50 1.653
315.60 1.652
315.70 1.651
315.80 1.65
315.90 1.649
316.00 1.648
316.10 1.647
316.20 1.646
316.30 1.645
316.40 1.645
316.50 1.644
316.60 1.643
316.70 1.642
316.80 1.641
316.90 1.64
317.00 1.639
317.10 1.638
317.20 1.637
317.30 1.636
317.40 1.635
317.50 1.634
317.60 1.633
317.70 1.632
317.80 1.631
317.90 1.63
318.00 1.629
318.10 1.629
318.20 1.628
318.30 1.627
318.40 1.626
318.50 1.625
318.60 1.624
318.70 1.623
318.80 1.622
318.90 1.621
319.00 1.62
319.10 1.619
319.20 1.618
319.30 1.617
319.40 1.616
319.50 1.615
319.60 1.615
319.70 1.614
319.80 1.613
319.90 1.612
320.00 1.611
320.10 1.61
320.20 1.609
320.30 1.608
320.40 1.607
320.50 1.606
320.60 1.605
320.70 1.604
320.80 1.603
320.90 1.602
321.00 1.602
321.10 1.601
321.20 1.6
321.30 1.599
321.40 1.598
321.50 1.597
321.60 1.596
321.70 1.595
321.80 1.594
321.90 1.593
322.00 1.592
322.10 1.591
322.20 1.591
322.30 1.59
322.40 1.589
322.50 1.588
322.60 1.587
322.70 1.586
322.80 1.585
322.90 1.584
323.00 1.583
323.10 1.582
323.20 1.581
323.30 1.581
323.40 1.58
323.50 1.579
323.60 1.578
323.70 1.577
323.80 1.576
323.90 1.575
324.00 1.574
324.10 1.573
324.20 1.572
324.30 1.571
324.40 1.571
324.50 1.57
324.60 1.569
324.70 1.568
324.80 1.567
324.90 1.566
325.00 1.565
325.10 1.564
325.20 1.563
325.30 1.562
325.40 1.562
325.50 1.561
325.60 1.56
325.70 1.559
325.80 1.558
325.90 1.557
326.00 1.556
326.10 1.555
326.20 1.554
326.30 1.554
326.40 1.553
326.50 1.552
326.60 1.551
326.70 1.55
326.80 1.549
326.90 1.548
327.00 1.547
327.10 1.546
327.20 1.546
327.30 1.545
327.40 1.544
327.50 1.543
327.60 1.542
327.70 1.541
327.80 1.54
327.90 1.539
328.00 1.538
328.10 1.538
328.20 1.537
328.30 1.536
328.40 1.535
328.50 1.534
328.60 1.533
328.70 1.532
328.80 1.531
328.90 1.531
329.00 1.53
329.10 1.529
329.20 1.528
329.30 1.527
329.40 1.526
329.50 1.525
329.60 1.524
329.70 1.524
329.80 1.523
329.90 1.522
330.00 1.521
330.10 1.52
330.20 1.519
330.30 1.518
330.40 1.517
330.50 1.517
330.60 1.516
330.70 1.515
330.80 1.514
330.90 1.513
331.00 1.512
331.10 1.511
331.20 1.51
331.30 1.51
331.40 1.509
331.50 1.508
331.60 1.507
331.70 1.506
331.80 1.505
331.90 1.504
332.00 1.504
332.10 1.503
332.20 1.502
332.30 1.501
332.40 1.5
332.50 1.499
332.60 1.498
332.70 1.498
332.80 1.497
332.90 1.496
333.00 1.495
333.10 1.494
333.20 1.493
333.30 1.492
333.40 1.492
333.50 1.491
333.60 1.49
333.70 1.489
333.80 1.488
333.90 1.487
334.00 1.486
334.10 1.486
334.20 1.485
334.30 1.484
334.40 1.483
334.50 1.482
334.60 1.481
334.70 1.48
334.80 1.48
334.90 1.479
335.00 1.478
335.10 1.477
335.20 1.476
335.30 1.475
335.40 1.475
335.50 1.474
335.60 1.473
335.70 1.472
335.80 1.471
335.90 1.47
336.00 1.47
336.10 1.469
336.20 1.468
336.30 1.467
336.40 1.466
336.50 1.465
336.60 1.464
336.70 1.464
336.80 1.463
336.90 1.462
337.00 1.461
337.10 1.46
337.20 1.459
337.30 1.459
337.40 1.458
337.50 1.457
337.60 1.456
337.70 1.455
337.80 1.454
337.90 1.454
338.00 1.453
338.10 1.452
338.20 1.451
338.30 1.45
338.40 1.449
338.50 1.449
338.60 1.448
338.70 1.447
338.80 1.446
338.90 1.445
339.00 1.445
339.10 1.444
339.20 1.443
339.30 1.442
339.40 1.441
339.50 1.44
339.60 1.44
339.70 1.439
339.80 1.438
339.90 1.437
340.00 1.436
340.10 1.436
340.20 1.435
340.30 1.434
340.40 1.433
340.50 1.432
340.60 1.431
340.70 1.431
340.80 1.43
340.90 1.429
341.00 1.428
341.10 1.427
341.20 1.427
341.30 1.426
341.40 1.425
341.50 1.424
341.60 1.423
341.70 1.422
341.80 1.422
341.90 1.421
342.00 1.42
342.10 1.419
342.20 1.418
342.30 1.418
342.40 1.417
342.50 1.416
342.60 1.415
342.70 1.414
342.80 1.414
342.90 1.413
343.00 1.412
343.10 1.411
343.20 1.41
343.30 1.41
343.40 1.409
343.50 1.408
343.60 1.407
343.70 1.406
343.80 1.406
343.90 1.405
344.00 1.404
344.10 1.403
344.20 1.402
344.30 1.402
344.40 1.401
344.50 1.4
344.60 1.399
344.70 1.398
344.80 1.398
344.90 1.397
345.00 1.396
345.10 1.395
345.20 1.394
345.30 1.394
345.40 1.393
345.50 1.392
345.60 1.391
345.70 1.39
345.80 1.39
345.90 1.389
346.00 1.388
346.10 1.387
346.20 1.386
346.30 1.386
346.40 1.385
346.50 1.384
346.60 1.383
346.70 1.383
346.80 1.382
346.90 1.381
347.00 1.38
347.10 1.379
347.20 1.379
347.30 1.378
347.40 1.377
347.50 1.376
347.60 1.376
347.70 1.375
347.80 1.374
347.90 1.373
348.00 1.372
348.10 1.372
348.20 1.371
348.30 1.37
348.40 1.369
348.50 1.369
348.60 1.368
348.70 1.367
348.80 1.366
348.90 1.365
349.00 1.365
349.10 1.364
349.20 1.363
349.30 1.362
349.40 1.362
349.50 1.361
349.60 1.36
349.70 1.359
349.80 1.358
349.90 1.358
350.00 1.357
350.10 1.356
350.20 1.355
350.30 1.355
350.40 1.354
350.50 1.353
350.60 1.352
350.70 1.352
350.80 1.351
350.90 1.35
351.00 1.349
351.10 1.348
351.20 1.348
351.30 1.347
351.40 1.346
351.50 1.345
351.60 1.345
351.70 1.344
351.80 1.343
351.90 1.342
352.00 1.342
352.10 1.341
352.20 1.34
352.30 1.339
352.40 1.339
352.50 1.338
352.60 1.337
352.70 1.336
352.80 1.336
352.90 1.335
353.00 1.334
353.10 1.333
353.20 1.333
353.30 1.332
353.40 1.331
353.50 1.33
353.60 1.33
353.70 1.329
353.80 1.328
353.90 1.327
354.00 1.327
354.10 1.326
354.20 1.325
354.30 1.324
354.40 1.324
354.50 1.323
354.60 1.322
354.70 1.321
354.80 1.321
354.90 1.32
355.00 1.319
355.10 1.318
355.20 1.318
355.30 1.317
355.40 1.316
355.50 1.315
355.60 1.315
355.70 1.314
355.80 1.313
355.90 1.312
356.00 1.312
356.10 1.311
356.20 1.31
356.30 1.309
356.40 1.309
356.50 1.308
356.60 1.307
356.70 1.306
356.80 1.306
356.90 1.305
357.00 1.304
357.10 1.304
357.20 1.303
357.30 1.302
357.40 1.301
357.50 1.301
357.60 1.3
357.70 1.299
357.80 1.298
357.90 1.298
358.00 1.297
358.10 1.296
358.20 1.295
358.30 1.295
358.40 1.294
358.50 1.293
358.60 1.293
358.70 1.292
358.80 1.291
358.90 1.29
359.00 1.29
359.10 1.289
359.20 1.288
359.30 1.287
359.40 1.287
359.50 1.286
359.60 1.285
359.70 1.285
359.80 1.284
359.90 1.283
360.00 1.282
360.10 1.282
360.20 1.281
360.30 1.28
360.40 1.28
360.50 1.279
360.60 1.278
360.70 1.277
360.80 1.277
360.90 1.276
361.00 1.275
361.10 1.275
361.20 1.274
361.30 1.273
361.40 1.272
361.50 1.272
361.60 1.271
361.70 1.27
361.80 1.27
361.90 1.269
362.00 1.268
362.10 1.267
362.20 1.267
362.30 1.266
362.40 1.265
362.50 1.265
362.60 1.264
362.70 1.263
362.80 1.262
362.90 1.262
363.00 1.261
363.10 1.26
363.20 1.259
363.30 1.259
363.40 1.258
363.50 1.257
363.60 1.256
363.70 1.255
363.80 1.255
363.90 1.254
364.00 1.253
364.10 1.252
364.20 1.252
364.30 1.251
364.40 1.25
364.50 1.249
364.60 1.248
364.70 1.248
364.80 1.247
364.90 1.246
365.00 1.245
365.10 1.244
365.20 1.243
365.30 1.243
365.40 1.242
365.50 1.241
365.60 1.24
365.70 1.239
365.80 1.239
365.90 1.238
366.00 1.237
366.10 1.236
366.20 1.236
366.30 1.235
366.40 1.234
366.50 1.233
366.60 1.233
366.70 1.232
366.80 1.231
366.90 1.231
367.00 1.23
367.10 1.229
367.20 1.228
367.30 1.228
367.40 1.227
367.50 1.226
367.60 1.226
367.70 1.225
367.80 1.224
367.90 1.224
368.00 1.223
368.10 1.222
368.20 1.222
368.30 1.221
368.40 1.221
368.50 1.22
368.60 1.22
368.70 1.219
368.80 1.219
368.90 1.218
369.00 1.218
369.10 1.217
369.20 1.217
369.30 1.216
369.40 1.216
369.50 1.215
369.60 1.215
369.70 1.214
369.80 1.214
369.90 1.213
370.00 1.213
370.10 1.213
370.20 1.213
370.30 1.213
370.40 1.214
370.50 1.214
370.60 1.214
370.70 1.214
370.80 1.214
370.90 1.214
371.00 1.215
371.10 1.215
371.20 1.215
371.30 1.215
371.40 1.215
371.50 1.216
371.60 1.216
371.70 1.216
371.80 1.216
371.90 1.216
372.00 1.216
372.10 1.217
372.20 1.219
372.30 1.22
372.40 1.221
372.50 1.222
372.60 1.223
372.70 1.224
372.80 1.225
372.90 1.226
373.00 1.227
373.10 1.228
373.20 1.229
373.30 1.23
373.40 1.231
373.50 1.232
373.60 1.233
373.70 1.234
373.80 1.236
373.90 1.237
374.00 1.238
374.10 1.239
374.20 1.24
374.30 1.242
374.40 1.243
374.50 1.245
374.60 1.246
374.70 1.248
374.80 1.249
374.90 1.25
375.00 1.252
375.10 1.253
375.20 1.255
375.30 1.256
375.40 1.257
375.50 1.259
375.60 1.26
375.70 1.262
375.80 1.263
375.90 1.264
376.00 1.266
376.10 1.266
376.20 1.267
376.30 1.268
376.40 1.269
376.50 1.269
376.60 1.27
376.70 1.271
376.80 1.272
376.90 1.272
377.00 1.273
377.10 1.272
377.20 1.271
377.30 1.27
377.40 1.268
377.50 1.267
377.60 1.266
377.70 1.265
377.80 1.264
377.90 1.263
378.00 1.262
378.10 1.255
378.20 1.247
378.30 1.24
378.40 1.233
378.50 1.226
378.60 1.219
378.70 1.212
378.80 1.205
378.90 1.198
379.00 1.191
379.10 1.185
379.20 1.18
379.30 1.174
379.40 1.169
379.50 1.164
379.60 1.158
379.70 1.153
379.80 1.147
379.90 1.142
380.00 1.137
380.10 1.145
380.20 1.154
380.30 1.163
380.40 1.172
380.50 1.18
380.60 1.189
380.70 1.198
380.80 1.206
380.90 1.215
381.00 1.224
381.10 1.227
381.20 1.23
381.30 1.233
381.40 1.236
381.50 1.239
381.60 1.238
381.70 1.236
381.80 1.234
381.90 1.23
382.00 1.224
382.10 1.217
382.20 1.209
382.30 1.192
382.40 1.175
382.50 1.158
382.60 1.141
382.70 1.125
382.80 1.108
382.90 1.091
383.00 1.074
383.10 1.057
383.20 1.04
383.30 1.026
383.40 1.01
383.50 0.9932
383.60 0.9966
383.70 1.014
383.80 1.031
383.90 1.046
384.00 1.063
384.10 1.085
384.20 1.107
384.30 1.129
384.40 1.151
384.50 1.171
384.60 1.188
384.70 1.203
384.80 1.217
384.90 1.228
385.00 1.238
385.10 1.246
385.20 1.253
385.30 1.259
385.40 1.264
385.50 1.268
385.60 1.272
385.70 1.273
385.80 1.275
385.90 1.276
386.00 1.275
386.10 1.274
386.20 1.272
386.30 1.27
386.40 1.266
386.50 1.262
386.60 1.257
386.70 1.251
386.80 1.244
386.90 1.236
387.00 1.228
387.10 1.218
387.20 1.207
387.30 1.196
387.40 1.183
387.50 1.168
387.60 1.153
387.70 1.135
387.80 1.115
387.90 1.092
388.00 1.067
388.10 1.038
388.20 1.007
388.30 0.9737
388.40 0.9386
388.50 0.9064
388.60 0.8769
388.70 0.8525
388.80 0.8303
388.90 0.8102
389.00 0.8286
389.10 0.85
389.20 0.8744
389.30 0.9035
389.40 0.9357
389.50 0.9711
389.60 1.005
389.70 1.037
389.80 1.068
389.90 1.094
390.00 1.119
390.10 1.141
390.20 1.16
390.30 1.177
390.40 1.194
390.50 1.209
390.60 1.223
390.70 1.236
390.80 1.248
390.90 1.26
391.00 1.27
391.10 1.28
391.20 1.289
391.30 1.298
391.40 1.306
391.50 1.313
391.60 1.32
391.70 1.325
391.80 1.331
391.90 1.336
392.00 1.34
392.10 1.343
392.20 1.347
392.30 1.349
392.40 1.351
392.50 1.352
392.60 1.353
392.70 1.353
392.80 1.352
392.90 1.351
393.00 1.349
393.10 1.347
393.20 1.344
393.30 1.341
393.40 1.337
393.50 1.332
393.60 1.326
393.70 1.32
393.80 1.313
393.90 1.306
394.00 1.298
394.10 1.289
394.20 1.28
394.30 1.27
394.40 1.259
394.50 1.248
394.60 1.236
394.70 1.223
394.80 1.209
394.90 1.194
395.00 1.179
395.10 1.163
395.20 1.146
395.30 1.128
395.40 1.109
395.50 1.09
395.60 1.07
395.70 1.049
395.80 1.027
395.90 1.002
396.00 0.9755
396.10 0.9475
396.20 0.9162
396.30 0.8829
396.40 0.8475
396.50 0.8077
396.60 0.7687
396.70 0.7305
396.80 0.6986
396.90 0.6641
397.00 0.6269
397.10 0.661
397.20 0.6936
397.30 0.7246
397.40 0.7619
397.50 0.8003
397.60 0.8397
397.70 0.8751
397.80 0.9084
397.90 0.9395
398.00 0.9674
398.10 0.9938
398.20 1.018
398.30 1.041
398.40 1.062
398.50 1.082
398.60 1.101
398.70 1.12
398.80 1.138
398.90 1.156
399.00 1.172
399.10 1.189
399.20 1.204
399.30 1.218
399.40 1.233
399.50 1.246
399.60 1.259
399.70 1.272
399.80 1.283
399.90 1.295
400.00 1.306
400.10 1.316
400.20 1.326
400.30 1.336
400.40 1.344
400.50 1.353
400.60 1.361
400.70 1.369
400.80 1.377
400.90 1.384
401.00 1.39
401.10 1.397
401.20 1.403
401.30 1.408
401.40 1.413
401.50 1.418
401.60 1.423
401.70 1.427
401.80 1.431
401.90 1.435
402.00 1.438
402.10 1.441
402.20 1.444
402.30 1.446
402.40 1.449
402.50 1.451
402.60 1.452
402.70 1.454
402.80 1.455
402.90 1.456
403.00 1.456
403.10 1.457
403.20 1.457
403.30 1.457
403.40 1.456
403.50 1.455
403.60 1.455
403.70 1.453
403.80 1.452
403.90 1.45
404.00 1.448
404.10 1.446
404.20 1.443
404.30 1.44
404.40 1.437
404.50 1.434
404.60 1.43
404.70 1.427
404.80 1.423
404.90 1.418
405.00 1.413
405.10 1.408
405.20 1.403
405.30 1.397
405.40 1.391
405.50 1.385
405.60 1.378
405.70 1.372
405.80 1.364
405.90 1.356
406.00 1.348
406.10 1.34
406.20 1.331
406.30 1.322
406.40 1.312
406.50 1.302
406.60 1.292
406.70 1.281
406.80 1.27
406.90 1.259
407.00 1.247
407.10 1.234
407.20 1.221
407.30 1.208
407.40 1.194
407.50 1.18
407.60 1.164
407.70 1.149
407.80 1.133
407.90 1.116
408.00 1.098
408.10 1.081
408.20 1.062
408.30 1.043
408.40 1.023
408.50 1.003
408.60 0.9822
408.70 0.9613
408.80 0.9397
408.90 0.9175
409.00 0.8949
409.10 0.871
409.20 0.8464
409.30 0.8212
409.40 0.7936
409.50 0.7646
409.60 0.7339
409.70 0.7005
409.80 0.6668
409.90 0.6329
410.00 0.5973
410.10 0.5634
410.20 0.531
410.30 0.5769
410.40 0.6165
410.50 0.6497
410.60 0.6835
410.70 0.7163
410.80 0.7483
410.90 0.7771
411.00 0.8044
411.10 0.8303
411.20 0.8542
411.30 0.8774
411.40 0.9
411.50 0.9214
411.60 0.9423
411.70 0.9627
411.80 0.9824
411.90 1.002
412.00 1.021
412.10 1.039
412.20 1.057
412.30 1.074
412.40 1.091
412.50 1.107
412.60 1.123
412.70 1.137
412.80 1.152
412.90 1.166
413.00 1.179
413.10 1.192
413.20 1.204
413.30 1.216
413.40 1.227
413.50 1.238
413.60 1.249
413.70 1.259
413.80 1.269
413.90 1.279
414.00 1.288
414.10 1.297
414.20 1.305
414.30 1.314
414.40 1.322
414.50 1.329
414.60 1.337
414.70 1.344
414.80 1.351
414.90 1.357
415.00 1.364
415.10 1.37
415.20 1.376
415.30 1.381
415.40 1.387
415.50 1.392
415.60 1.397
415.70 1.401
415.80 1.406
415.90 1.411
416.00 1.415
416.10 1.419
416.20 1.423
416.30 1.427
416.40 1.431
416.50 1.434
416.60 1.438
416.70 1.441
416.80 1.445
416.90 1.448
417.00 1.451
417.10 1.454
417.20 1.456
417.30 1.459
417.40 1.461
417.50 1.464
417.60 1.466
417.70 1.468
417.80 1.47
417.90 1.472
418.00 1.474
418.10 1.475
418.20 1.477
418.30 1.478
418.40 1.48
418.50 1.481
418.60 1.482
418.70 1.484
418.80 1.485
418.90 1.486
419.00 1.487
419.10 1.488
419.20 1.488
419.30 1.489
419.40 1.49
419.50 1.49
419.60 1.491
419.70 1.491
419.80 1.492
419.90 1.492
420.00 1.492
420.10 1.493
420.20 1.493
420.30 1.493
420.40 1.493
420.50 1.493
420.60 1.493
420.70 1.493
420.80 1.493
420.90 1.492
421.00 1.492
421.10 1.492
421.20 1.491
421.30 1.491
421.40 1.49
421.50 1.49
421.60 1.489
421.70 1.489
421.80 1.488
421.90 1.487
422.00 1.486
422.10 1.485
422.20 1.484
422.30 1.484
422.40 1.483
422.50 1.481
422.60 1.48
422.70 1.479
422.80 1.478
422.90 1.477
423.00 1.475
423.10 1.474
423.20 1.472
423.30 1.471
423.40 1.469
423.50 1.468
423.60 1.466
423.70 1.464
423.80 1.463
423.90 1.461
424.00 1.459
424.10 1.457
424.20 1.455
424.30 1.453
424.40 1.451
424.50 1.449
424.60 1.447
424.70 1.444
424.80 1.442
424.90 1.44
425.00 1.437
425.10 1.435
425.20 1.432
425.30 1.429
425.40 1.427
425.50 1.424
425.60 1.421
425.70 1.418
425.80 1.415
425.90 1.412
426.00 1.409
426.10 1.405
426.20 1.401
426.30 1.397
426.40 1.394
426.50 1.39
426.60 1.387
426.70 1.383
426.80 1.379
426.90 1.375
427.00 1.371
427.10 1.366
427.20 1.362
427.30 1.358
427.40 1.353
427.50 1.348
427.60 1.344
427.70 1.339
427.80 1.334
427.90 1.329
428.00 1.323
428.10 1.318
428.20 1.312
428.30 1.307
428.40 1.301
428.50 1.295
428.60 1.289
428.70 1.282
428.80 1.276
428.90 1.269
429.00 1.262
429.10 1.255
429.20 1.248
429.30 1.241
429.40 1.233
429.50 1.225
429.60 1.217
429.70 1.209
429.80 1.2
429.90 1.192
430.00 1.183
430.10 1.173
430.20 1.164
430.30 1.154
430.40 1.144
430.50 1.134
430.60 1.123
430.70 1.113
430.80 1.101
430.90 1.09
431.00 1.078
431.10 1.066
431.20 1.054
431.30 1.041
431.40 1.029
431.50 1.015
431.60 1.001
431.70 0.9873
431.80 0.9727
431.90 0.9575
432.00 0.9418
432.10 0.9258
432.20 0.9088
432.30 0.8912
432.40 0.8731
432.50 0.8535
432.60 0.8331
432.70 0.8119
432.80 0.79
432.90 0.7684
433.00 0.7471
433.10 0.7272
433.20 0.7073
433.30 0.6874
433.40 0.6659
433.50 0.643
433.60 0.6187
433.70 0.5905
433.80 0.5598
433.90 0.5263
434.00 0.4625
434.10 0.4634
434.20 0.5292
434.30 0.5616
434.40 0.5916
434.50 0.6191
434.60 0.6428
434.70 0.665
434.80 0.6858
434.90 0.705
435.00 0.7242
435.10 0.7435
435.20 0.7641
435.30 0.7849
435.40 0.8058
435.50 0.826
435.60 0.8454
435.70 0.8639
435.80 0.881
435.90 0.8974
436.00 0.9133
436.10 0.9282
436.20 0.9427
436.30 0.9567
436.40 0.97
436.50 0.983
436.60 0.9955
436.70 1.007
436.80 1.019
436.90 1.031
437.00 1.041
437.10 1.052
437.20 1.062
437.30 1.072
437.40 1.082
437.50 1.092
437.60 1.101
437.70 1.109
437.80 1.118
437.90 1.126
438.00 1.134
438.10 1.142
438.20 1.15
438.30 1.157
438.40 1.164
438.50 1.171
438.60 1.177
438.70 1.184
438.80 1.19
438.90 1.196
439.00 1.201
439.10 1.207
439.20 1.212
439.30 1.217
439.40 1.222
439.50 1.227
439.60 1.232
439.70 1.236
439.80 1.24
439.90 1.245
440.00 1.249
440.10 1.253
440.20 1.256
440.30 1.26
440.40 1.264
440.50 1.267
440.60 1.27
440.70 1.274
440.80 1.277
440.90 1.28
441.00 1.283
441.10 1.286
441.20 1.288
441.30 1.291
441.40 1.293
441.50 1.296
441.60 1.298
441.70 1.3
441.80 1.302
441.90 1.305
442.00 1.307
442.10 1.309
442.20 1.31
442.30 1.312
442.40 1.314
442.50 1.316
442.60 1.317
442.70 1.319
442.80 1.32
442.90 1.322
443.00 1.323
443.10 1.324
443.20 1.326
443.30 1.327
443.40 1.328
443.50 1.329
443.60 1.33
443.70 1.331
443.80 1.332
443.90 1.333
444.00 1.334
444.10 1.335
444.20 1.336
444.30 1.336
444.40 1.337
444.50 1.338
444.60 1.339
444.70 1.339
444.80 1.34
444.90 1.34
445.00 1.341
445.10 1.341
445.20 1.342
445.30 1.342
445.40 1.343
445.50 1.343
445.60 1.344
445.70 1.344
445.80 1.344
445.90 1.345
446.00 1.345
446.10 1.345
446.20 1.345
446.30 1.345
446.40 1.346
446.50 1.346
446.60 1.346
446.70 1.346
446.80 1.346
446.90 1.346
447.00 1.346
447.10 1.346
447.20 1.346
447.30 1.346
447.40 1.346
447.50 1.346
447.60 1.346
447.70 1.346
447.80 1.346
447.90 1.346
448.00 1.346
448.10 1.346
448.20 1.345
448.30 1.345
448.40 1.345
448.50 1.345
448.60 1.345
448.70 1.344
448.80 1.344
448.90 1.344
449.00 1.344
449.10 1.344
449.20 1.343
449.30 1.343
449.40 1.343
449.50 1.343
449.60 1.342
449.70 1.342
449.80 1.342
449.90 1.341
450.00 1.341
450.10 1.341
450.20 1.34
450.30 1.34
450.40 1.339
450.50 1.339
450.60 1.339
450.70 1.338
450.80 1.338
450.90 1.337
451.00 1.337
451.10 1.336
451.20 1.336
451.30 1.336
451.40 1.335
451.50 1.335
451.60 1.334
451.70 1.334
451.80 1.333
451.90 1.333
452.00 1.332
452.10 1.332
452.20 1.331
452.30 1.331
452.40 1.33
452.50 1.329
452.60 1.329
452.70 1.328
452.80 1.328
452.90 1.327
453.00 1.327
453.10 1.326
453.20 1.326
453.30 1.325
453.40 1.325
453.50 1.324
453.60 1.323
453.70 1.323
453.80 1.322
453.90 1.322
454.00 1.321
454.10 1.32
454.20 1.32
454.30 1.319
454.40 1.319
454.50 1.318
454.60 1.317
454.70 1.317
454.80 1.316
454.90 1.315
455.00 1.315
455.10 1.314
455.20 1.313
455.30 1.313
455.40 1.312
455.50 1.311
455.60 1.311
455.70 1.31
455.80 1.309
455.90 1.309
456.00 1.308
456.10 1.307
456.20 1.307
456.30 1.306
456.40 1.305
456.50 1.305
456.60 1.304
456.70 1.303
456.80 1.303
456.90 1.302
457.00 1.301
457.10 1.301
457.20 1.3
457.30 1.299
457.40 1.299
457.50 1.298
457.60 1.297
457.70 1.297
457.80 1.296
457.90 1.295
458.00 1.294
458.10 1.294
458.20 1.293
458.30 1.292
458.40 1.292
458.50 1.291
458.60 1.29
458.70 1.289
458.80 1.289
458.90 1.288
459.00 1.287
459.10 1.286
459.20 1.286
459.30 1.285
459.40 1.284
459.50 1.283
459.60 1.283
459.70 1.282
459.80 1.281
459.90 1.28
460.00 1.279
460.10 1.279
460.20 1.278
460.30 1.277
460.40 1.276
460.50 1.276
460.60 1.275
460.70 1.274
460.80 1.273
460.90 1.272
461.00 1.272
461.10 1.271
461.20 1.27
461.30 1.269
461.40 1.268
461.50 1.268
461.60 1.267
461.70 1.266
461.80 1.265
461.90 1.264
462.00 1.263
462.10 1.263
462.20 1.262
462.30 1.261
462.40 1.26
462.50 1.259
462.60 1.258
462.70 1.258
462.80 1.257
462.90 1.256
463.00 1.255
463.10 1.254
463.20 1.253
463.30 1.253
463.40 1.252
463.50 1.251
463.60 1.25
463.70 1.249
463.80 1.248
463.90 1.247
464.00 1.247
464.10 1.246
464.20 1.245
464.30 1.244
464.40 1.243
464.50 1.242
464.60 1.241
464.70 1.24
464.80 1.239
464.90 1.239
465.00 1.238
465.10 1.237
465.20 1.236
465.30 1.235
465.40 1.234
465.50 1.233
465.60 1.232
465.70 1.231
465.80 1.23
465.90 1.229
466.00 1.228
466.10 1.227
466.20 1.227
466.30 1.226
466.40 1.225
466.50 1.224
466.60 1.223
466.70 1.222
466.80 1.221
466.90 1.22
467.00 1.219
467.10 1.218
467.20 1.217
467.30 1.216
467.40 1.215
467.50 1.214
467.60 1.213
467.70 1.212
467.80 1.211
467.90 1.21
468.00 1.209
468.10 1.208
468.20 1.207
468.30 1.206
468.40 1.205
468.50 1.203
468.60 1.202
468.70 1.201
468.80 1.2
468.90 1.199
469.00 1.198
469.10 1.197
469.20 1.196
469.30 1.195
469.40 1.194
469.50 1.193
469.60 1.191
469.70 1.19
469.80 1.189
469.90 1.188
470.00 1.187
470.10 1.186
470.20 1.185
470.30 1.183
470.40 1.182
470.50 1.181
470.60 1.18
470.70 1.179
470.80 1.178
470.90 1.176
471.00 1.175
471.10 1.174
471.20 1.173
471.30 1.172
471.40 1.17
471.50 1.169
471.60 1.168
471.70 1.166
471.80 1.165
471.90 1.164
472.00 1.162
472.10 1.161
472.20 1.16
472.30 1.158
472.40 1.157
472.50 1.155
472.60 1.154
472.70 1.153
472.80 1.151
472.90 1.15
473.00 1.148
473.10 1.147
473.20 1.145
473.30 1.144
473.40 1.142
473.50 1.141
473.60 1.139
473.70 1.137
473.80 1.136
473.90 1.134
474.00 1.133
474.10 1.131
474.20 1.129
474.30 1.128
474.40 1.126
474.50 1.124
474.60 1.122
474.70 1.121
474.80 1.119
474.90 1.117
475.00 1.115
475.10 1.114
475.20 1.112
475.30 1.11
475.40 1.108
475.50 1.106
475.60 1.104
475.70 1.102
475.80 1.1
475.90 1.098
476.00 1.096
476.10 1.094
476.20 1.092
476.30 1.089
476.40 1.087
476.50 1.085
476.60 1.082
476.70 1.08
476.80 1.078
476.90 1.076
477.00 1.073
477.10 1.071
477.20 1.068
477.30 1.066
477.40 1.063
477.50 1.06
477.60 1.058
477.70 1.055
477.80 1.052
477.90 1.05
478.00 1.047
478.10 1.044
478.20 1.041
478.30 1.038
478.40 1.035
478.50 1.032
478.60 1.029
478.70 1.026
478.80 1.022
478.90 1.019
479.00 1.016
479.10 1.013
479.20 1.009
479.30 1.006
479.40 1.002
479.50 0.998
479.60 0.9942
479.70 0.9904
479.80 0.9866
479.90 0.9829
480.00 0.9791
480.10 0.9753
480.20 0.9709
480.30 0.9663
480.40 0.9616
480.50 0.9569
480.60 0.9522
480.70 0.9476
480.80 0.9429
480.90 0.9382
481.00 0.9336
481.10 0.9289
481.20 0.9234
481.30 0.9176
481.40 0.9117
481.50 0.9059
481.60 0.9001
481.70 0.8942
481.80 0.8884
481.90 0.8826
482.00 0.8768
482.10 0.871
482.20 0.864
482.30 0.8566
482.40 0.8491
482.50 0.8416
482.60 0.8342
482.70 0.8268
482.80 0.8193
482.90 0.8119
483.00 0.8045
483.10 0.7971
483.20 0.788
483.30 0.7782
483.40 0.7683
483.50 0.7585
483.60 0.7487
483.70 0.7389
483.80 0.7291
483.90 0.7193
484.00 0.7095
484.10 0.6998
484.20 0.6886
484.30 0.6767
484.40 0.6649
484.50 0.6531
484.60 0.6413
484.70 0.6288
484.80 0.6161
484.90 0.6033
485.00 0.5906
485.10 0.5779
485.20 0.5653
485.30 0.5528
485.40 0.54
485.50 0.5271
485.60 0.5131
485.70 0.4986
485.80 0.4803
485.90 0.4603
486.00 0.4318
486.10 0.3577
486.20 0.3915
486.30 0.4435
486.40 0.4661
486.50 0.486
486.60 0.5019
486.70 0.516
486.80 0.529
486.90 0.5415
487.00 0.5537
487.10 0.5657
487.20 0.5778
487.30 0.5899
487.40 0.6021
487.50 0.6142
487.60 0.6263
487.70 0.6377
487.80 0.6488
487.90 0.6599
488.00 0.671
488.10 0.6821
488.20 0.6917
488.30 0.7006
488.40 0.7096
488.50 0.7185
488.60 0.7274
488.70 0.7363
488.80 0.7452
488.90 0.7541
489.00 0.763
489.10 0.7719
489.20 0.7791
489.30 0.7855
489.40 0.7919
489.50 0.7983
489.60 0.8047
489.70 0.8111
489.80 0.8175
489.90 0.8239
490.00 0.8303
490.10 0.8366
490.20 0.8419
490.30 0.8466
490.40 0.8513
490.50 0.856
490.60 0.8606
490.70 0.8653
490.80 0.87
490.90 0.8747
491.00 0.8793
491.10 0.884
491.20 0.8878
491.30 0.8913
491.40 0.8948
491.50 0.8982
491.60 0.9017
491.70 0.9051
491.80 0.9085
491.90 0.912
492.00 0.9154
492.10 0.9189
492.20 0.9216
492.30 0.9242
492.40 0.9267
492.50 0.9292
492.60 0.9317
492.70 0.9342
492.80 0.9367
492.90 0.9392
493.00 0.9417
493.10 0.9442
493.20 0.9462
493.30 0.9481
493.40 0.95
493.50 0.9519
493.60 0.9538
493.70 0.9556
493.80 0.9575
493.90 0.9594
494.00 0.9613
494.10 0.9631
494.20 0.9646
494.30 0.966
494.40 0.9673
494.50 0.9687
494.60 0.97
494.70 0.9713
494.80 0.9727
494.90 0.974
495.00 0.9753
495.10 0.9767
495.20 0.9777
495.30 0.9787
495.40 0.9796
495.50 0.9806
495.60 0.9815
495.70 0.9825
495.80 0.9834
495.90 0.9843
496.00 0.9853
496.10 0.9862
496.20 0.987
496.30 0.9876
496.40 0.9883
496.50 0.9889
496.60 0.9896
496.70 0.9902
496.80 0.9908
496.90 0.9915
497.00 0.9921
497.10 0.9928
497.20 0.9933
497.30 0.9937
497.40 0.9941
497.50 0.9945
497.60 0.9949
497.70 0.9953
497.80 0.9957
497.90 0.9961
498.00 0.9966
498.10 0.997
498.20 0.9972
498.30 0.9975
498.40 0.9977
498.50 0.9979
498.60 0.9981
498.70 0.9984
498.80 0.9986
498.90 0.9988
499.00 0.999
499.10 0.9993
499.20 0.9994
499.30 0.9995
499.40 0.9995
499.50 0.9996
499.60 0.9997
499.70 0.9998
499.80 0.9998
499.90 0.9999
500.00 1
500.10 1
500.20 1
500.30 1
500.40 1
500.50 1
500.60 0.9999
500.70 0.9999
500.80 0.9999
500.90 0.9998
501.00 0.9998
501.10 0.9997
501.20 0.9996
501.30 0.9995
501.40 0.9994
501.50 0.9993
501.60 0.9992
501.70 0.999
501.80 0.9989
501.90 0.9988
502.00 0.9987
502.10 0.9985
502.20 0.9984
502.30 0.9982
502.40 0.998
502.50 0.9978
502.60 0.9976
502.70 0.9974
502.80 0.9972
502.90 0.997
503.00 0.9968
503.10 0.9966
503.20 0.9964
503.30 0.9962
503.40 0.9959
503.50 0.9957
503.60 0.9954
503.70 0.9951
503.80 0.9949
503.90 0.9946
504.00 0.9944
504.10 0.9941
504.20 0.9939
504.30 0.9936
504.40 0.9933
504.50 0.993
504.60 0.9927
504.70 0.9924
504.80 0.9921
504.90 0.9918
505.00 0.9915
505.10 0.9912
505.20 0.9909
505.30 0.9905
505.40 0.9902
505.50 0.9899
505.60 0.9895
505.70 0.9892
505.80 0.9889
505.90 0.9885
506.00 0.9882
506.10 0.9879
506.20 0.9875
506.30 0.9871
506.40 0.9868
506.50 0.9864
506.60 0.986
506.70 0.9857
506.80 0.9853
506.90 0.9849
507.00 0.9846
507.10 0.9842
507.20 0.9838
507.30 0.9834
507.40 0.9831
507.50 0.9827
507.60 0.9823
507.70 0.9819
507.80 0.9815
507.90 0.9811
508.00 0.9807
508.10 0.9803
508.20 0.9799
508.30 0.9795
508.40 0.9791
508.50 0.9787
508.60 0.9783
508.70 0.9779
508.80 0.9775
508.90 0.9771
509.00 0.9767
509.10 0.9762
509.20 0.9758
509.30 0.9754
509.40 0.975
509.50 0.9745
509.60 0.9741
509.70 0.9737
509.80 0.9733
509.90 0.9728
510.00 0.9724
510.10 0.972
510.20 0.9716
510.30 0.9711
510.40 0.9707
510.50 0.9702
510.60 0.9698
510.70 0.9694
510.80 0.9689
510.90 0.9685
511.00 0.9681
511.10 0.9676
511.20 0.9672
511.30 0.9667
511.40 0.9663
511.50 0.9658
511.60 0.9654
511.70 0.9649
511.80 0.9645
511.90 0.964
512.00 0.9636
512.10 0.9631
512.20 0.9627
512.30 0.9622
512.40 0.9618
512.50 0.9613
512.60 0.9608
512.70 0.9604
512.80 0.9599
512.90 0.9595
513.00 0.959
513.10 0.9586
513.20 0.9581
513.30 0.9576
513.40 0.9572
513.50 0.9567
513.60 0.9563
513.70 0.9558
513.80 0.9553
513.90 0.9549
514.00 0.9544
514.10 0.9539
514.20 0.9535
514.30 0.953
514.40 0.9525
514.50 0.9521
514.60 0.9516
514.70 0.9511
514.80 0.9507
514.90 0.9502
515.00 0.9498
515.10 0.9493
515.20 0.9488
515.30 0.9483
515.40 0.9479
515.50 0.9474
515.60 0.9469
515.70 0.9465
515.80 0.946
515.90 0.9455
516.00 0.945
516.10 0.9446
516.20 0.9441
516.30 0.9436
516.40 0.9432
516.50 0.9427
516.60 0.9422
516.70 0.9417
516.80 0.9413
516.90 0.9408
517.00 0.9403
517.10 0.9398
517.20 0.9394
517.30 0.9389
517.40 0.9384
517.50 0.9379
517.60 0.9375
517.70 0.937
517.80 0.9365
517.90 0.936
518.00 0.9356
518.10 0.9351
518.20 0.9346
518.30 0.9341
518.40 0.9337
518.50 0.9332
518.60 0.9327
518.70 0.9322
518.80 0.9318
518.90 0.9313
519.00 0.9308
519.10 0.9303
519.20 0.9299
519.30 0.9294
519.40 0.9289
519.50 0.9284
519.60 0.928
519.70 0.9275
519.80 0.927
519.90 0.9265
520.00 0.926
520.10 0.9256
520.20 0.9251
520.30 0.9246
520.40 0.9241
520.50 0.9237
520.60 0.9232
520.70 0.9227
520.80 0.9222
520.90 0.9217
521.00 0.9213
521.10 0.9208
521.20 0.9203
521.30 0.9198
521.40 0.9194
521.50 0.9189
521.60 0.9184
521.70 0.9179
521.80 0.9175
521.90 0.917
522.00 0.9165
522.10 0.916
522.20 0.9155
522.30 0.9151
522.40 0.9146
522.50 0.9141
522.60 0.9136
522.70 0.9132
522.80 0.9127
522.90 0.9122
523.00 0.9117
523.10 0.9113
523.20 0.9108
523.30 0.9103
523.40 0.9098
523.50 0.9094
523.60 0.9089
523.70 0.9084
523.80 0.9079
523.90 0.9074
524.00 0.907
524.10 0.9065
524.20 0.906
524.30 0.9055
524.40 0.9051
524.50 0.9046
524.60 0.9041
524.70 0.9036
524.80 0.9032
524.90 0.9027
525.00 0.9022
525.10 0.9017
525.20 0.9013
525.30 0.9008
525.40 0.9003
525.50 0.8998
525.60 0.8994
525.70 0.8989
525.80 0.8984
525.90 0.898
526.00 0.8975
526.10 0.897
526.20 0.8965
526.30 0.8961
526.40 0.8956
526.50 0.8951
526.60 0.8946
526.70 0.8942
526.80 0.8937
526.90 0.8932
527.00 0.8928
527.10 0.8923
527.20 0.8918
527.30 0.8913
527.40 0.8909
527.50 0.8904
527.60 0.8899
527.70 0.8895
527.80 0.889
527.90 0.8885
528.00 0.888
528.10 0.8876
528.20 0.8871
528.30 0.8866
528.40 0.8862
528.50 0.8857
528.60 0.8852
528.70 0.8848
528.80 0.8843
528.90 0.8838
529.00 0.8834
529.10 0.8829
529.20 0.8824
529.30 0.8819
529.40 0.8815
529.50 0.881
529.60 0.8805
529.70 0.8801
529.80 0.8796
529.90 0.8791
530.00 0.8787
530.10 0.8782
530.20 0.8777
530.30 0.8773
530.40 0.8768
530.50 0.8764
530.60 0.8759
530.70 0.8754
530.80 0.875
530.90 0.8745
531.00 0.874
531.10 0.8736
531.20 0.8731
531.30 0.8726
531.40 0.8722
531.50 0.8717
531.60 0.8712
531.70 0.8708
531.80 0.8703
531.90 0.8699
532.00 0.8694
532.10 0.8689
532.20 0.8685
532.30 0.868
532.40 0.8675
532.50 0.8671
532.60 0.8666
532.70 0.8662
532.80 0.8657
532.90 0.8652
533.00 0.8648
533.10 0.8643
533.20 0.8639
533.30 0.8634
533.40 0.8629
533.50 0.8625
533.60 0.862
533.70 0.8616
533.80 0.8611
533.90 0.8606
534.00 0.8602
534.10 0.8597
534.20 0.8593
534.30 0.8588
534.40 0.8584
534.50 0.8579
534.60 0.8574
534.70 0.857
534.80 0.8565
534.90 0.8561
535.00 0.8556
535.10 0.8552
535.20 0.8547
535.30 0.8543
535.40 0.8538
535.50 0.8534
535.60 0.8529
535.70 0.8524
535.80 0.852
535.90 0.8515
536.00 0.8511
536.10 0.8506
536.20 0.8502
536.30 0.8497
536.40 0.8493
536.50 0.8488
536.60 0.8484
536.70 0.8479
536.80 0.8475
536.90 0.847
537.00 0.8466
537.10 0.8461
537.20 0.8457
537.30 0.8452
537.40 0.8448
537.50 0.8443
537.60 0.8439
537.70 0.8434
537.80 0.843
537.90 0.8425
538.00 0.8421
538.10 0.8416
538.20 0.8412
538.30 0.8407
538.40 0.8403
538.50 0.8398
538.60 0.8394
538.70 0.8389
538.80 0.8385
538.90 0.8381
539.00 0.8376
539.10 0.8372
539.20 0.8367
539.30 0.8363
539.40 0.8358
539.50 0.8354
539.60 0.8349
539.70 0.8345
539.80 0.8341
539.90 0.8336
540.00 0.8332
540.10 0.8327
540.20 0.8323
540.30 0.8318
540.40 0.8314
540.50 0.8309
540.60 0.8305
540.70 0.8301
540.80 0.8296
540.90 0.8292
541.00 0.8287
541.10 0.8283
541.20 0.8279
541.30 0.8274
541.40 0.827
541.50 0.8265
541.60 0.8261
541.70 0.8257
541.80 0.8252
541.90 0.8248
542.00 0.8244
542.10 0.8239
542.20 0.8235
542.30 0.823
542.40 0.8226
542.50 0.8222
542.60 0.8217
542.70 0.8213
542.80 0.8209
542.90 0.8204
543.00 0.82
543.10 0.8196
543.20 0.8191
543.30 0.8187
543.40 0.8182
543.50 0.8178
543.60 0.8174
543.70 0.8169
543.80 0.8165
543.90 0.8161
544.00 0.8156
544.10 0.8152
544.20 0.8148
544.30 0.8143
544.40 0.8139
544.50 0.8135
544.60 0.813
544.70 0.8126
544.80 0.8122
544.90 0.8118
545.00 0.8113
545.10 0.8109
545.20 0.8105
545.30 0.81
545.40 0.8096
545.50 0.8092
545.60 0.8087
545.70 0.8083
545.80 0.8079
545.90 0.8075
546.00 0.807
546.10 0.8066
546.20 0.8062
546.30 0.8059
546.40 0.8055
546.50 0.8051
546.60 0.8048
546.70 0.8044
546.80 0.804
546.90 0.8037
547.00 0.8033
547.10 0.8029
547.20 0.8025
547.30 0.8021
547.40 0.8017
547.50 0.8013
547.60 0.8008
547.70 0.8004
547.80 0.8
547.90 0.7995
548.00 0.7991
548.10 0.7987
548.20 0.7983
548.30 0.7978
548.40 0.7974
548.50 0.797
548.60 0.7966
548.70 0.7961
548.80 0.7957
548.90 0.7953
549.00 0.7949
549.10 0.7944
549.20 0.794
549.30 0.7936
549.40 0.7932
549.50 0.7928
549.60 0.7923
549.70 0.7919
549.80 0.7915
549.90 0.7911
550.00 0.7907
550.10 0.7902
550.20 0.7898
550.30 0.7894
550.40 0.789
550.50 0.7886
550.60 0.7881
550.70 0.7877
550.80 0.7873
550.90 0.7869
551.00 0.7865
551.10 0.786
551.20 0.7856
551.30 0.7852
551.40 0.7848
551.50 0.7844
551.60 0.784
551.70 0.7835
551.80 0.7831
551.90 0.7827
552.00 0.7823
552.10 0.7819
552.20 0.7815
552.30 0.781
552.40 0.7806
552.50 0.7802
552.60 0.7798
552.70 0.7794
552.80 0.779
552.90 0.7786
553.00 0.7782
553.10 0.7777
553.20 0.7773
553.30 0.7769
553.40 0.7765
553.50 0.7761
553.60 0.7757
553.70 0.7753
553.80 0.7749
553.90 0.7744
554.00 0.774
554.10 0.7736
554.20 0.7732
554.30 0.7728
554.40 0.7724
554.50 0.772
554.60 0.7716
554.70 0.7712
554.80 0.7708
554.90 0.7704
555.00 0.77
555.10 0.7695
555.20 0.7691
555.30 0.7687
555.40 0.7683
555.50 0.7679
555.60 0.7675
555.70 0.7671
555.80 0.7667
555.90 0.7663
556.00 0.7659
556.10 0.7655
556.20 0.7651
556.30 0.7647
556.40 0.7643
556.50 0.7639
556.60 0.7635
556.70 0.7631
556.80 0.7627
556.90 0.7623
557.00 0.7619
557.10 0.7614
557.20 0.761
557.30 0.7606
557.40 0.7602
557.50 0.7598
557.60 0.7594
557.70 0.759
557.80 0.7586
557.90 0.7582
558.00 0.7578
558.10 0.7574
558.20 0.757
558.30 0.7566
558.40 0.7562
558.50 0.7558
558.60 0.7554
558.70 0.7551
558.80 0.7547
558.90 0.7543
559.00 0.7539
559.10 0.7535
559.20 0.7531
559.30 0.7527
559.40 0.7523
559.50 0.7519
559.60 0.7515
559.70 0.7511
559.80 0.7507
559.90 0.7503
560.00 0.7499
560.10 0.7495
560.20 0.7491
560.30 0.7487
560.40 0.7483
560.50 0.7479
560.60 0.7475
560.70 0.7471
560.80 0.7467
560.90 0.7464
561.00 0.746
561.10 0.7456
561.20 0.7452
561.30 0.7448
561.40 0.7444
561.50 0.744
561.60 0.7436
561.70 0.7432
561.80 0.7428
561.90 0.7424
562.00 0.7421
562.10 0.7417
562.20 0.7413
562.30 0.7409
562.40 0.7405
562.50 0.7401
562.60 0.7397
562.70 0.7393
562.80 0.7389
562.90 0.7386
563.00 0.7382
563.10 0.7378
563.20 0.7374
563.30 0.737
563.40 0.7366
563.50 0.7362
563.60 0.7358
563.70 0.7355
563.80 0.7351
563.90 0.7347
564.00 0.7343
564.10 0.7339
564.20 0.7335
564.30 0.7332
564.40 0.7328
564.50 0.7324
564.60 0.732
564.70 0.7316
564.80 0.7312
564.90 0.7309
565.00 0.7305
565.10 0.7301
565.20 0.7297
565.30 0.7293
565.40 0.7289
565.50 0.7286
565.60 0.7282
565.70 0.7278
565.80 0.7274
565.90 0.727
566.00 0.7267
566.10 0.7263
566.20 0.7259
566.30 0.7255
566.40 0.7251
566.50 0.7248
566.60 0.7244
566.70 0.724
566.80 0.7236
566.90 0.7233
567.00 0.7229
567.10 0.7225
567.20 0.7221
567.30 0.7217
567.40 0.7214
567.50 0.721
567.60 0.7206
567.70 0.7202
567.80 0.7199
567.90 0.7195
568.00 0.7191
568.10 0.7187
568.20 0.7184
568.30 0.718
568.40 0.7176
568.50 0.7172
568.60 0.7169
568.70 0.7165
568.80 0.7161
568.90 0.7157
569.00 0.7154
569.10 0.715
569.20 0.7146
569.30 0.7143
569.40 0.7139
569.50 0.7135
569.60 0.7131
569.70 0.7128
569.80 0.7124
569.90 0.712
570.00 0.7116
570.10 0.7113
570.20 0.7109
570.30 0.7105
570.40 0.7102
570.50 0.7098
570.60 0.7094
570.70 0.7091
570.80 0.7087
570.90 0.7083
571.00 0.708
571.10 0.7076
571.20 0.7072
571.30 0.7068
571.40 0.7065
571.50 0.7061
571.60 0.7057
571.70 0.7054
571.80 0.705
571.90 0.7046
572.00 0.7043
572.10 0.7039
572.20 0.7036
572.30 0.7032
572.40 0.7028
572.50 0.7025
572.60 0.7021
572.70 0.7017
572.80 0.7014
572.90 0.701
573.00 0.7006
573.10 0.7003
573.20 0.6999
573.30 0.6995
573.40 0.6992
573.50 0.6988
573.60 0.6985
573.70 0.6981
573.80 0.6977
573.90 0.6974
574.00 0.697
574.10 0.6967
574.20 0.6963
574.30 0.6959
574.40 0.6956
574.50 0.6952
574.60 0.6948
574.70 0.6945
574.80 0.6941
574.90 0.6938
575.00 0.6934
575.10 0.6931
575.20 0.6927
575.30 0.6923
575.40 0.692
575.50 0.6916
575.60 0.6913
575.70 0.6909
575.80 0.6905
575.90 0.6902
576.00 0.6898
576.10 0.6895
576.20 0.6891
576.30 0.6888
576.40 0.6884
576.50 0.688
576.60 0.6877
576.70 0.6873
576.80 0.687
576.90 0.6866
577.00 0.6863
577.10 0.6859
577.20 0.6856
577.30 0.6852
577.40 0.6849
577.50 0.6845
577.60 0.6842
577.70 0.6838
577.80 0.6834
577.90 0.6831
578.00 0.6827
578.10 0.6824
578.20 0.682
578.30 0.6817
578.40 0.6813
578.50 0.681
578.60 0.6806
578.70 0.6803
578.80 0.6799
578.90 0.6796
579.00 0.6792
579.10 0.6789
579.20 0.6785
579.30 0.6782
579.40 0.6778
579.50 0.6775
579.60 0.6771
579.70 0.6768
579.80 0.6764
579.90 0.6761
580.00 0.6757
580.10 0.6754
580.20 0.675
580.30 0.6747
580.40 0.6743
580.50 0.674
580.60 0.6736
580.70 0.6733
580.80 0.673
580.90 0.6726
581.00 0.6723
581.10 0.6719
581.20 0.6716
581.30 0.6712
581.40 0.6709
581.50 0.6705
581.60 0.6702
581.70 0.6699
581.80 0.6695
581.90 0.6692
582.00 0.6688
582.10 0.6685
582.20 0.6681
582.30 0.6678
582.40 0.6674
582.50 0.6671
582.60 0.6668
582.70 0.6664
582.80 0.6661
582.90 0.6657
583.00 0.6654
583.10 0.6651
583.20 0.6647
583.30 0.6644
583.40 0.664
583.50 0.6637
583.60 0.6633
583.70 0.663
583.80 0.6627
583.90 0.6623
584.00 0.662
584.10 0.6616
584.20 0.6613
584.30 0.661
584.40 0.6606
584.50 0.6603
584.60 0.6599
584.70 0.6596
584.80 0.6593
584.90 0.6589
585.00 0.6586
585.10 0.6583
585.20 0.6579
585.30 0.6576
585.40 0.6573
585.50 0.6569
585.60 0.6566
585.70 0.6562
585.80 0.6559
585.90 0.6556
586.00 0.6552
586.10 0.6549
586.20 0.6546
586.30 0.6542
586.40 0.6539
586.50 0.6536
586.60 0.6532
586.70 0.6529
586.80 0.6526
586.90 0.6522
587.00 0.6519
587.10 0.6516
587.20 0.6512
587.30 0.6509
587.40 0.6506
587.50 0.6502
587.60 0.6499
587.70 0.6496
587.80 0.6492
587.90 0.6489
588.00 0.6486
588.10 0.6482
588.20 0.6479
588.30 0.6476
588.40 0.6473
588.50 0.6469
588.60 0.6466
588.70 0.6463
588.80 0.6459
588.90 0.6456
589.00 0.6453
589.10 0.6449
589.20 0.6446
589.30 0.6443
589.40 0.644
589.50 0.6436
589.60 0.6433
589.70 0.643
589.80 0.6426
589.90 0.6423
590.00 0.642
590.10 0.6417
590.20 0.6413
590.30 0.641
590.40 0.6407
590.50 0.6404
590.60 0.64
590.70 0.6397
590.80 0.6394
590.90 0.6391
591.00 0.6387
591.10 0.6384
591.20 0.6381
591.30 0.6378
591.40 0.6374
591.50 0.6371
591.60 0.6368
591.70 0.6365
591.80 0.6361
591.90 0.6358
592.00 0.6355
592.10 0.6352
592.20 0.6348
592.30 0.6345
592.40 0.6342
592.50 0.6339
592.60 0.6336
592.70 0.6332
592.80 0.6329
592.90 0.6326
593.00 0.6323
593.10 0.632
593.20 0.6316
593.30 0.6313
593.40 0.631
593.50 0.6307
593.60 0.6303
593.70 0.63
593.80 0.6297
593.90 0.6294
594.00 0.6291
594.10 0.6287
594.20 0.6284
594.30 0.6281
594.40 0.6278
594.50 0.6275
594.60 0.6272
594.70 0.6268
594.80 0.6265
594.90 0.6262
595.00 0.6259
595.10 0.6256
595.20 0.6253
595.30 0.6249
595.40 0.6246
595.50 0.6243
595.60 0.624
595.70 0.6237
595.80 0.6234
595.90 0.623
596.00 0.6227
596.10 0.6224
596.20 0.622
596.30 0.6216
596.40 0.6211
596.50 0.6207
596.60 0.6202
596.70 0.6198
596.80 0.6194
596.90 0.6189
597.00 0.6185
597.10 0.6181
597.20 0.6177
597.30 0.6174
597.40 0.6171
597.50 0.6168
597.60 0.6164
597.70 0.6161
597.80 0.6158
597.90 0.6155
598.00 0.6152
598.10 0.6149
598.20 0.6145
598.30 0.6142
598.40 0.6139
598.50 0.6136
598.60 0.6133
598.70 0.613
598.80 0.6127
598.90 0.6124
599.00 0.612
599.10 0.6117
599.20 0.6114
599.30 0.6111
599.40 0.6108
599.50 0.6105
599.60 0.6102
599.70 0.6098
599.80 0.6095
599.90 0.6092
600.00 0.6089
600.10 0.6086
600.20 0.6083
600.30 0.608
600.40 0.6077
600.50 0.6073
600.60 0.607
600.70 0.6067
600.80 0.6064
600.90 0.6061
601.00 0.6058
601.10 0.6055
601.20 0.6052
601.30 0.6049
601.40 0.6046
601.50 0.6042
601.60 0.6039
601.70 0.6036
601.80 0.6033
601.90 0.603
602.00 0.6027
602.10 0.6024
602.20 0.6021
602.30 0.6018
602.40 0.6015
602.50 0.6012
602.60 0.6009
602.70 0.6005
602.80 0.6002
602.90 0.5999
603.00 0.5996
603.10 0.5993
603.20 0.599
603.30 0.5987
603.40 0.5984
603.50 0.5981
603.60 0.5978
603.70 0.5975
603.80 0.5972
603.90 0.5969
604.00 0.5966
604.10 0.5963
604.20 0.5959
604.30 0.5956
604.40 0.5953
604.50 0.595
604.60 0.5947
604.70 0.5944
604.80 0.5941
604.90 0.5938
605.00 0.5935
605.10 0.5932
605.20 0.5929
605.30 0.5926
605.40 0.5923
605.50 0.592
605.60 0.5917
605.70 0.5914
605.80 0.5911
605.90 0.5908
606.00 0.5905
606.10 0.5902
606.20 0.5899
606.30 0.5896
606.40 0.5893
606.50 0.589
606.60 0.5887
606.70 0.5884
606.80 0.5881
606.90 0.5878
607.00 0.5875
607.10 0.5872
607.20 0.5869
607.30 0.5866
607.40 0.5863
607.50 0.586
607.60 0.5857
607.70 0.5854
607.80 0.5851
607.90 0.5848
608.00 0.5845
608.10 0.5842
608.20 0.5839
608.30 0.5836
608.40 0.5833
608.50 0.583
608.60 0.5827
608.70 0.5824
608.80 0.5821
608.90 0.5818
609.00 0.5815
609.10 0.5812
609.20 0.5809
609.30 0.5806
609.40 0.5803
609.50 0.58
609.60 0.5797
609.70 0.5794
609.80 0.5791
609.90 0.5788
610.00 0.5785
610.10 0.5782
610.20 0.5779
610.30 0.5776
610.40 0.5773
610.50 0.577
610.60 0.5767
610.70 0.5764
610.80 0.5761
610.90 0.5758
611.00 0.5755
611.10 0.5752
611.20 0.5749
611.30 0.5746
611.40 0.5743
611.50 0.574
611.60 0.5737
611.70 0.5735
611.80 0.5732
611.90 0.5729
612.00 0.5726
612.10 0.5723
612.20 0.572
612.30 0.5717
612.40 0.5714
612.50 0.5711
612.60 0.5708
612.70 0.5705
612.80 0.5702
612.90 0.5699
613.00 0.5696
613.10 0.5693
613.20 0.569
613.30 0.5687
613.40 0.5684
613.50 0.5682
613.60 0.5679
613.70 0.5676
613.80 0.5673
613.90 0.567
614.00 0.5667
614.10 0.5664
614.20 0.5661
614.30 0.5658
614.40 0.5655
614.50 0.5652
614.60 0.5649
614.70 0.5646
614.80 0.5643
614.90 0.5641
615.00 0.5638
615.10 0.5635
615.20 0.5632
615.30 0.5629
615.40 0.5626
615.50 0.5623
615.60 0.562
615.70 0.5617
615.80 0.5614
615.90 0.5611
616.00 0.5608
616.10 0.5605
616.20 0.5603
616.30 0.56
616.40 0.5597
616.50 0.5594
616.60 0.5591
616.70 0.5588
616.80 0.5585
616.90 0.5582
617.00 0.5579
617.10 0.5576
617.20 0.5573
617.30 0.5571
617.40 0.5568
617.50 0.5565
617.60 0.5562
617.70 0.5559
617.80 0.5556
617.90 0.5553
618.00 0.555
618.10 0.5547
618.20 0.5544
618.30 0.5541
618.40 0.5539
618.50 0.5536
618.60 0.5533
618.70 0.553
618.80 0.5527
618.90 0.5524
619.00 0.5521
619.10 0.5518
619.20 0.5515
619.30 0.5513
619.40 0.551
619.50 0.5507
619.60 0.5504
619.70 0.5501
619.80 0.5498
619.90 0.5495
620.00 0.5492
620.10 0.5489
620.20 0.5486
620.30 0.5483
620.40 0.5481
620.50 0.5478
620.60 0.5475
620.70 0.5472
620.80 0.5469
620.90 0.5466
621.00 0.5463
621.10 0.546
621.20 0.5457
621.30 0.5454
621.40 0.5452
621.50 0.5449
621.60 0.5446
621.70 0.5443
621.80 0.544
621.90 0.5437
622.00 0.5434
622.10 0.5431
622.20 0.5428
622.30 0.5425
622.40 0.5423
622.50 0.542
622.60 0.5417
622.70 0.5414
622.80 0.5411
622.90 0.5408
623.00 0.5405
623.10 0.5402
623.20 0.5399
623.30 0.5397
623.40 0.5394
623.50 0.5391
623.60 0.5388
623.70 0.5385
623.80 0.5382
623.90 0.5379
624.00 0.5376
624.10 0.5373
624.20 0.537
624.30 0.5367
624.40 0.5364
624.50 0.5362
624.60 0.5359
624.70 0.5356
624.80 0.5353
624.90 0.535
625.00 0.5347
625.10 0.5344
625.20 0.5341
625.30 0.5338
625.40 0.5335
625.50 0.5332
625.60 0.5329
625.70 0.5327
625.80 0.5324
625.90 0.5321
626.00 0.5318
626.10 0.5315
626.20 0.5312
626.30 0.5309
626.40 0.5306
626.50 0.5303
626.60 0.53
626.70 0.5297
626.80 0.5294
626.90 0.5291
627.00 0.5288
627.10 0.5286
627.20 0.5283
627.30 0.528
627.40 0.5277
627.50 0.5274
627.60 0.5271
627.70 0.5268
627.80 0.5265
627.90 0.5262
628.00 0.5259
628.10 0.5256
628.20 0.5253
628.30 0.525
628.40 0.5247
628.50 0.5244
628.60 0.5241
628.70 0.5238
628.80 0.5235
628.90 0.5232
629.00 0.5229
629.10 0.5226
629.20 0.5223
629.30 0.522
629.40 0.5217
629.50 0.5214
629.60 0.5211
629.70 0.5208
629.80 0.5205
629.90 0.5202
630.00 0.5199
630.10 0.5196
630.20 0.5193
630.30 0.519
630.40 0.5187
630.50 0.5184
630.60 0.5181
630.70 0.5178
630.80 0.5175
630.90 0.5172
631.00 0.5169
631.10 0.5166
631.20 0.5163
631.30 0.516
631.40 0.5157
631.50 0.5154
631.60 0.5151
631.70 0.5147
631.80 0.5144
631.90 0.5141
632.00 0.5138
632.10 0.5135
632.20 0.5132
632.30 0.5129
632.40 0.5126
632.50 0.5123
632.60 0.5119
632.70 0.5116
632.80 0.5113
632.90 0.511
633.00 0.5107
633.10 0.5104
633.20 0.5101
633.30 0.5097
633.40 0.5094
633.50 0.5091
633.60 0.5088
633.70 0.5085
633.80 0.5081
633.90 0.5078
634.00 0.5075
634.10 0.5072
634.20 0.5068
634.30 0.5065
634.40 0.5062
634.50 0.5059
634.60 0.5055
634.70 0.5052
634.80 0.5049
634.90 0.5045
635.00 0.5042
635.10 0.5039
635.20 0.5035
635.30 0.5032
635.40 0.5029
635.50 0.5025
635.60 0.5022
635.70 0.5018
635.80 0.5015
635.90 0.5012
636.00 0.5008
636.10 0.5005
636.20 0.5001
636.30 0.4998
636.40 0.4994
636.50 0.4991
636.60 0.4987
636.70 0.4984
636.80 0.498
636.90 0.4977
637.00 0.4973
637.10 0.497
637.20 0.4966
637.30 0.4963
637.40 0.4959
637.50 0.4955
637.60 0.4952
637.70 0.4948
637.80 0.4944
637.90 0.4941
638.00 0.4937
638.10 0.4933
638.20 0.493
638.30 0.4926
638.40 0.4922
638.50 0.4918
638.60 0.4914
638.70 0.491
638.80 0.4906
638.90 0.4903
639.00 0.4899
639.10 0.4895
639.20 0.4891
639.30 0.4887
639.40 0.4883
639.50 0.4879
639.60 0.4875
639.70 0.4871
639.80 0.4867
639.90 0.4863
640.00 0.4859
640.10 0.4854
640.20 0.485
640.30 0.4846
640.40 0.4842
640.50 0.4838
640.60 0.4833
640.70 0.4829
640.80 0.4825
640.90 0.482
641.00 0.4816
641.10 0.4812
641.20 0.4807
641.30 0.4803
641.40 0.4798
641.50 0.4793
641.60 0.4789
641.70 0.4784
641.80 0.478
641.90 0.4775
642.00 0.477
642.10 0.4766
642.20 0.4761
642.30 0.4756
642.40 0.4751
642.50 0.4746
642.60 0.4741
642.70 0.4736
642.80 0.4731
642.90 0.4726
643.00 0.4721
643.10 0.4716
643.20 0.4711
643.30 0.4706
643.40 0.47
643.50 0.4695
643.60 0.4689
643.70 0.4683
643.80 0.4678
643.90 0.4672
644.00 0.4667
644.10 0.4661
644.20 0.4656
644.30 0.465
644.40 0.4644
644.50 0.4638
644.60 0.4632
644.70 0.4625
644.80 0.4619
644.90 0.4613
645.00 0.4607
645.10 0.4601
645.20 0.4595
645.30 0.4588
645.40 0.4581
645.50 0.4575
645.60 0.4568
645.70 0.4561
645.80 0.4554
645.90 0.4547
646.00 0.454
646.10 0.4533
646.20 0.4526
646.30 0.4519
646.40 0.4511
646.50 0.4503
646.60 0.4495
646.70 0.4488
646.80 0.448
646.90 0.4472
647.00 0.4464
647.10 0.4456
647.20 0.4448
647.30 0.444
647.40 0.4431
647.50 0.4422
647.60 0.4413
647.70 0.4404
647.80 0.4395
647.90 0.4385
648.00 0.4376
648.10 0.4367
648.20 0.4358
648.30 0.4349
648.40 0.4338
648.50 0.4327
648.60 0.4316
648.70 0.4305
648.80 0.4294
648.90 0.4284
649.00 0.4273
649.10 0.4262
649.20 0.4251
649.30 0.424
649.40 0.4227
649.50 0.4214
649.60 0.4201
649.70 0.4188
649.80 0.4175
649.90 0.4162
650.00 0.415
650.10 0.4137
650.20 0.4124
650.30 0.411
650.40 0.4095
650.50 0.4079
650.60 0.4063
650.70 0.4047
650.80 0.4032
650.90 0.4016
651.00 0.4
651.10 0.3985
651.20 0.3969
651.30 0.3953
651.40 0.3933
651.50 0.3914
651.60 0.3895
651.70 0.3876
651.80 0.3856
651.90 0.3837
652.00 0.3818
652.10 0.3799
652.20 0.3779
652.30 0.3759
652.40 0.3735
652.50 0.3711
652.60 0.3688
652.70 0.3664
652.80 0.364
652.90 0.3616
653.00 0.3592
653.10 0.3568
653.20 0.3545
653.30 0.352
653.40 0.349
653.50 0.346
653.60 0.343
653.70 0.3401
653.80 0.3371
653.90 0.3342
654.00 0.3312
654.10 0.3282
654.20 0.3253
654.30 0.3223
654.40 0.3189
654.50 0.3156
654.60 0.3123
654.70 0.309
654.80 0.3056
654.90 0.302
655.00 0.2984
655.10 0.2948
655.20 0.2912
655.30 0.2876
655.40 0.2837
655.50 0.2798
655.60 0.2755
655.70 0.2711
655.80 0.2659
655.90 0.2601
656.00 0.2518
656.10 0.2427
656.20 0.2169
656.30 0.1966
656.40 0.2312
656.50 0.2463
656.60 0.2544
656.70 0.2619
656.80 0.2669
656.90 0.2717
657.00 0.2757
657.10 0.2797
657.20 0.2833
657.30 0.2869
657.40 0.2902
657.50 0.2935
657.60 0.2969
657.70 0.3002
657.80 0.3035
657.90 0.3065
658.00 0.3096
658.10 0.3126
658.20 0.3156
658.30 0.3186
658.40 0.3212
658.50 0.3239
658.60 0.3265
658.70 0.3291
658.80 0.3318
658.90 0.3344
659.00 0.337
659.10 0.3397
659.20 0.3423
659.30 0.3448
659.40 0.3468
659.50 0.3488
659.60 0.3508
659.70 0.3529
659.80 0.3549
659.90 0.3569
660.00 0.3589
660.10 0.3609
660.20 0.3629
660.30 0.3648
660.40 0.3664
660.50 0.3679
660.60 0.3694
660.70 0.3709
660.80 0.3725
660.90 0.374
661.00 0.3755
661.10 0.377
661.20 0.3785
661.30 0.38
661.40 0.3811
661.50 0.3823
661.60 0.3834
661.70 0.3846
661.80 0.3857
661.90 0.3869
662.00 0.388
662.10 0.3892
662.20 0.3903
662.30 0.3914
662.40 0.3922
662.50 0.3931
662.60 0.3939
662.70 0.3948
662.80 0.3957
662.90 0.3965
663.00 0.3973
663.10 0.3982
663.20 0.399
663.30 0.3999
663.40 0.4005
663.50 0.4011
663.60 0.4018
663.70 0.4024
663.80 0.403
663.90 0.4037
664.00 0.4043
664.10 0.4049
664.20 0.4055
664.30 0.4061
664.40 0.4066
664.50 0.4071
664.60 0.4075
664.70 0.408
664.80 0.4084
664.90 0.4089
665.00 0.4094
665.10 0.4098
665.20 0.4103
665.30 0.4107
665.40 0.411
665.50 0.4114
665.60 0.4117
665.70 0.412
665.80 0.4123
665.90 0.4127
666.00 0.413
666.10 0.4133
666.20 0.4136
666.30 0.4139
666.40 0.4142
666.50 0.4144
666.60 0.4146
666.70 0.4149
666.80 0.4151
666.90 0.4153
667.00 0.4155
667.10 0.4158
667.20 0.416
667.30 0.4162
667.40 0.4163
667.50 0.4165
667.60 0.4167
667.70 0.4168
667.80 0.417
667.90 0.4171
668.00 0.4173
668.10 0.4174
668.20 0.4176
668.30 0.4177
668.40 0.4178
668.50 0.4179
668.60 0.418
668.70 0.418
668.80 0.4181
668.90 0.4182
669.00 0.4183
669.10 0.4184
669.20 0.4185
669.30 0.4186
669.40 0.4186
669.50 0.4186
669.60 0.4187
669.70 0.4187
669.80 0.4188
669.90 0.4188
670.00 0.4188
670.10 0.4189
670.20 0.4189
670.30 0.4189
670.40 0.4189
670.50 0.4189
670.60 0.4189
670.70 0.4189
670.80 0.4189
670.90 0.4189
671.00 0.4189
671.10 0.4189
671.20 0.4189
671.30 0.4189
671.40 0.4189
671.50 0.4189
671.60 0.4188
671.70 0.4188
671.80 0.4188
671.90 0.4187
672.00 0.4187
672.10 0.4187
672.20 0.4186
672.30 0.4186
672.40 0.4186
672.50 0.4185
672.60 0.4184
672.70 0.4184
672.80 0.4183
672.90 0.4183
673.00 0.4182
673.10 0.4182
673.20 0.4181
673.30 0.418
673.40 0.418
673.50 0.4179
673.60 0.4178
673.70 0.4177
673.80 0.4176
673.90 0.4176
674.00 0.4175
674.10 0.4174
674.20 0.4173
674.30 0.4173
674.40 0.4172
674.50 0.4171
674.60 0.417
674.70 0.4169
674.80 0.4168
674.90 0.4167
675.00 0.4166
675.10 0.4165
675.20 0.4164
675.30 0.4163
675.40 0.4162
675.50 0.4161
675.60 0.416
675.70 0.4159
675.80 0.4158
675.90 0.4157
676.00 0.4155
676.10 0.4154
676.20 0.4153
676.30 0.4152
676.40 0.4151
676.50 0.415
676.60 0.4149
676.70 0.4147
676.80 0.4146
676.90 0.4145
677.00 0.4144
677.10 0.4143
677.20 0.4141
677.30 0.414
677.40 0.4139
677.50 0.4138
677.60 0.4136
677.70 0.4135
677.80 0.4134
677.90 0.4132
678.00 0.4131
678.10 0.413
678.20 0.4128
678.30 0.4127
678.40 0.4126
678.50 0.4124
678.60 0.4123
678.70 0.4122
678.80 0.412
678.90 0.4119
679.00 0.4117
679.10 0.4116
679.20 0.4115
679.30 0.4113
679.40 0.4112
679.50 0.411
679.60 0.4109
679.70 0.4108
679.80 0.4106
679.90 0.4105
680.00 0.4103
680.10 0.4102
680.20 0.41
680.30 0.4099
680.40 0.4097
680.50 0.4096
680.60 0.4094
680.70 0.4093
680.80 0.4091
680.90 0.409
681.00 0.4088
681.10 0.4087
681.20 0.4086
681.30 0.4084
681.40 0.4082
681.50 0.4081
681.60 0.4079
681.70 0.4078
681.80 0.4076
681.90 0.4075
682.00 0.4073
682.10 0.4072
682.20 0.407
682.30 0.4069
682.40 0.4067
682.50 0.4066
682.60 0.4064
682.70 0.4062
682.80 0.4061
682.90 0.4059
683.00 0.4058
683.10 0.4056
683.20 0.4055
683.30 0.4053
683.40 0.4051
683.50 0.405
683.60 0.4048
683.70 0.4047
683.80 0.4045
683.90 0.4043
684.00 0.4042
684.10 0.404
684.20 0.4039
684.30 0.4037
684.40 0.4035
684.50 0.4034
684.60 0.4032
684.70 0.4031
684.80 0.4029
684.90 0.4027
685.00 0.4026
685.10 0.4024
685.20 0.4023
685.30 0.4021
685.40 0.4019
685.50 0.4018
685.60 0.4016
685.70 0.4014
685.80 0.4013
685.90 0.4011
686.00 0.4009
686.10 0.4008
686.20 0.4006
686.30 0.4005
686.40 0.4003
686.50 0.4001
686.60 0.4
686.70 0.3998
686.80 0.3996
686.90 0.3995
687.00 0.3993
687.10 0.3991
687.20 0.399
687.30 0.3988
687.40 0.3987
687.50 0.3985
687.60 0.3983
687.70 0.3982
687.80 0.398
687.90 0.3978
688.00 0.3977
688.10 0.3975
688.20 0.3973
688.30 0.3972
688.40 0.397
688.50 0.3968
688.60 0.3967
688.70 0.3965
688.80 0.3963
688.90 0.3962
689.00 0.396
689.10 0.3958
689.20 0.3957
689.30 0.3955
689.40 0.3953
689.50 0.3952
689.60 0.395
689.70 0.3948
689.80 0.3946
689.90 0.3945
690.00 0.3943
690.10 0.3941
690.20 0.394
690.30 0.3938
690.40 0.3936
690.50 0.3934
690.60 0.3933
690.70 0.3931
690.80 0.3929
690.90 0.3928
691.00 0.3926
691.10 0.3924
691.20 0.3923
691.30 0.3921
691.40 0.3919
691.50 0.3917
691.60 0.3916
691.70 0.3914
691.80 0.3912
691.90 0.3911
692.00 0.3909
692.10 0.3907
692.20 0.3906
692.30 0.3904
692.40 0.3902
692.50 0.39
692.60 0.3899
692.70 0.3897
692.80 0.3895
692.90 0.3894
693.00 0.3892
693.10 0.389
693.20 0.3889
693.30 0.3887
693.40 0.3885
693.50 0.3884
693.60 0.3882
693.70 0.388
693.80 0.3879
693.90 0.3877
694.00 0.3875
694.10 0.3874
694.20 0.3872
694.30 0.387
694.40 0.3869
694.50 0.3867
694.60 0.3865
694.70 0.3864
694.80 0.3862
694.90 0.386
695.00 0.3859
695.10 0.3857
695.20 0.3855
695.30 0.3854
695.40 0.3852
695.50 0.385
695.60 0.3849
695.70 0.3847
695.80 0.3845
695.90 0.3844
696.00 0.3842
696.10 0.384
696.20 0.3839
696.30 0.3837
696.40 0.3835
696.50 0.3834
696.60 0.3832
696.70 0.383
696.80 0.3829
696.90 0.3827
697.00 0.3825
697.10 0.3824
697.20 0.3822
697.30 0.382
697.40 0.3819
697.50 0.3817
697.60 0.3815
697.70 0.3814
697.80 0.3812
697.90 0.381
698.00 0.3809
698.10 0.3807
698.20 0.3806
698.30 0.3804
698.40 0.3802
698.50 0.3801
698.60 0.3799
698.70 0.3797
698.80 0.3796
698.90 0.3794
699.00 0.3792
699.10 0.3791
699.20 0.3789
699.30 0.3788
699.40 0.3786
699.50 0.3784
699.60 0.3783
699.70 0.3781
699.80 0.3779
699.90 0.3778
700.00 0.3776
700.10 0.3775
700.20 0.3773
700.30 0.3772
700.40 0.377
700.50 0.3769
700.60 0.3768
700.70 0.3766
700.80 0.3765
700.90 0.3763
701.00 0.3762
701.10 0.3761
701.20 0.3759
701.30 0.3758
701.40 0.3756
701.50 0.3755
701.60 0.3753
701.70 0.3752
701.80 0.3751
701.90 0.3749
702.00 0.3748
702.10 0.3746
702.20 0.3745
702.30 0.3744
702.40 0.3742
702.50 0.3741
702.60 0.3739
702.70 0.3738
702.80 0.3737
702.90 0.3735
703.00 0.3734
703.10 0.3732
703.20 0.3731
703.30 0.373
703.40 0.3728
703.50 0.3727
703.60 0.3725
703.70 0.3724
703.80 0.3723
703.90 0.3721
704.00 0.372
704.10 0.3719
704.20 0.3717
704.30 0.3716
704.40 0.3714
704.50 0.3713
704.60 0.3712
704.70 0.371
704.80 0.3709
704.90 0.3707
705.00 0.3706
705.10 0.3704
705.20 0.3703
705.30 0.3701
705.40 0.3699
705.50 0.3698
705.60 0.3696
705.70 0.3695
705.80 0.3693
705.90 0.3691
706.00 0.369
706.10 0.3688
706.20 0.3686
706.30 0.3685
706.40 0.3683
706.50 0.3681
706.60 0.368
706.70 0.3678
706.80 0.3677
706.90 0.3675
707.00 0.3673
707.10 0.3672
707.20 0.367
707.30 0.3668
707.40 0.3667
707.50 0.3665
707.60 0.3664
707.70 0.3662
707.80 0.366
707.90 0.3659
708.00 0.3657
708.10 0.3656
708.20 0.3654
708.30 0.3652
708.40 0.3651
708.50 0.3649
708.60 0.3647
708.70 0.3646
708.80 0.3644
708.90 0.3643
709.00 0.3641
709.10 0.3639
709.20 0.3638
709.30 0.3636
709.40 0.3635
709.50 0.3633
709.60 0.3631
709.70 0.363
709.80 0.3628
709.90 0.3627
710.00 0.3625
710.10 0.3623
710.20 0.3622
710.30 0.362
710.40 0.3619
710.50 0.3617
710.60 0.3615
710.70 0.3614
710.80 0.3612
710.90 0.3611
711.00 0.3609
711.10 0.3607
711.20 0.3606
711.30 0.3604
711.40 0.3603
711.50 0.3601
711.60 0.3599
711.70 0.3598
711.80 0.3596
711.90 0.3595
712.00 0.3593
712.10 0.3591
712.20 0.359
712.30 0.3588
712.40 0.3587
712.50 0.3585
712.60 0.3584
712.70 0.3582
712.80 0.358
712.90 0.3579
713.00 0.3577
713.10 0.3576
713.20 0.3574
713.30 0.3572
713.40 0.3571
713.50 0.3569
713.60 0.3568
713.70 0.3566
713.80 0.3565
713.90 0.3563
714.00 0.3561
714.10 0.356
714.20 0.3558
714.30 0.3557
714.40 0.3555
714.50 0.3554
714.60 0.3552
714.70 0.355
714.80 0.3549
714.90 0.3547
715.00 0.3546
715.10 0.3544
715.20 0.3543
715.30 0.3541
715.40 0.354
715.50 0.3538
715.60 0.3537
715.70 0.3535
715.80 0.3534
715.90 0.3532
716.00 0.3531
716.10 0.3529
716.20 0.3528
716.30 0.3526
716.40 0.3525
716.50 0.3523
716.60 0.3522
716.70 0.352
716.80 0.3519
716.90 0.3517
717.00 0.3516
717.10 0.3514
717.20 0.3513
717.30 0.3511
717.40 0.351
717.50 0.3508
717.60 0.3507
717.70 0.3505
717.80 0.3504
717.90 0.3502
718.00 0.3501
718.10 0.3499
718.20 0.3498
718.30 0.3496
718.40 0.3495
718.50 0.3493
718.60 0.3492
718.70 0.349
718.80 0.3489
718.90 0.3487
719.00 0.3486
719.10 0.3484
719.20 0.3483
719.30 0.3481
719.40 0.348
719.50 0.3478
719.60 0.3477
719.70 0.3475
719.80 0.3474
719.90 0.3473
720.00 0.3471
720.10 0.347
720.20 0.3468
720.30 0.3466
720.40 0.3465
720.50 0.3463
720.60 0.3462
720.70 0.346
720.80 0.3459
720.90 0.3457
721.00 0.3456
721.10 0.3454
721.20 0.3453
721.30 0.3451
721.40 0.345
721.50 0.3448
721.60 0.3447
721.70 0.3445
721.80 0.3443
721.90 0.3442
722.00 0.344
722.10 0.3439
722.20 0.3437
722.30 0.3436
722.40 0.3434
722.50 0.3433
722.60 0.3431
722.70 0.343
722.80 0.3428
722.90 0.3427
723.00 0.3425
723.10 0.3424
723.20 0.3422
723.30 0.3421
723.40 0.3419
723.50 0.3418
723.60 0.3416
723.70 0.3415
723.80 0.3413
723.90 0.3412
724.00 0.341
724.10 0.3409
724.20 0.3407
724.30 0.3406
724.40 0.3404
724.50 0.3403
724.60 0.3401
724.70 0.34
724.80 0.3398
724.90 0.3397
725.00 0.3395
725.10 0.3394
725.20 0.3392
725.30 0.3391
725.40 0.3389
725.50 0.3388
725.60 0.3386
725.70 0.3385
725.80 0.3383
725.90 0.3382
726.00 0.338
726.10 0.3379
726.20 0.3377
726.30 0.3376
726.40 0.3374
726.50 0.3373
726.60 0.3371
726.70 0.337
726.80 0.3368
726.90 0.3367
727.00 0.3365
727.10 0.3364
727.20 0.3362
727.30 0.3361
727.40 0.3359
727.50 0.3358
727.60 0.3356
727.70 0.3355
727.80 0.3353
727.90 0.3352
728.00 0.335
728.10 0.3349
728.20 0.3348
728.30 0.3346
728.40 0.3345
728.50 0.3343
728.60 0.3342
728.70 0.334
728.80 0.3339
728.90 0.3337
729.00 0.3336
729.10 0.3334
729.20 0.3333
729.30 0.3331
729.40 0.333
729.50 0.3328
729.60 0.3327
729.70 0.3326
729.80 0.3324
729.90 0.3323
730.00 0.3321
730.10 0.332
730.20 0.3318
730.30 0.3317
730.40 0.3315
730.50 0.3314
730.60 0.3312
730.70 0.3311
730.80 0.331
730.90 0.3308
731.00 0.3307
731.10 0.3305
731.20 0.3304
731.30 0.3302
731.40 0.3301
731.50 0.3299
731.60 0.3298
731.70 0.3296
731.80 0.3295
731.90 0.3294
732.00 0.3292
732.10 0.3291
732.20 0.3289
732.30 0.3288
732.40 0.3286
732.50 0.3285
732.60 0.3284
732.70 0.3282
732.80 0.3281
732.90 0.3279
733.00 0.3278
733.10 0.3276
733.20 0.3275
733.30 0.3273
733.40 0.3272
733.50 0.3271
733.60 0.3269
733.70 0.3268
733.80 0.3266
733.90 0.3265
734.00 0.3263
734.10 0.3262
734.20 0.3261
734.30 0.3259
734.40 0.3258
734.50 0.3256
734.60 0.3255
734.70 0.3254
734.80 0.3252
734.90 0.3251
735.00 0.3249
735.10 0.3248
735.20 0.3246
735.30 0.3245
735.40 0.3244
735.50 0.3242
735.60 0.3241
735.70 0.3239
735.80 0.3238
735.90 0.3236
736.00 0.3235
736.10 0.3234
736.20 0.3232
736.30 0.3231
736.40 0.3229
736.50 0.3228
736.60 0.3227
736.70 0.3225
736.80 0.3224
736.90 0.3222
737.00 0.3221
737.10 0.322
737.20 0.3218
737.30 0.3217
737.40 0.3215
737.50 0.3214
737.60 0.3213
737.70 0.3211
737.80 0.321
737.90 0.3208
738.00 0.3207
738.10 0.3206
738.20 0.3204
738.30 0.3203
738.40 0.3201
738.50 0.32
738.60 0.3199
738.70 0.3197
738.80 0.3196
738.90 0.3194
739.00 0.3193
739.10 0.3192
739.20 0.319
739.30 0.3189
739.40 0.3187
739.50 0.3186
739.60 0.3185
739.70 0.3183
739.80 0.3182
739.90 0.318
740.00 0.3179
740.10 0.3178
740.20 0.3176
740.30 0.3175
740.40 0.3174
740.50 0.3172
740.60 0.3171
740.70 0.3169
740.80 0.3168
740.90 0.3167
741.00 0.3165
741.10 0.3164
741.20 0.3163
741.30 0.3161
741.40 0.316
741.50 0.3158
741.60 0.3157
741.70 0.3156
741.80 0.3154
741.90 0.3153
742.00 0.3152
742.10 0.315
742.20 0.3149
742.30 0.3147
742.40 0.3146
742.50 0.3145
742.60 0.3143
742.70 0.3142
742.80 0.3141
742.90 0.3139
743.00 0.3138
743.10 0.3137
743.20 0.3135
743.30 0.3134
743.40 0.3133
743.50 0.3131
743.60 0.313
743.70 0.3128
743.80 0.3127
743.90 0.3126
744.00 0.3124
744.10 0.3123
744.20 0.3122
744.30 0.312
744.40 0.3119
744.50 0.3118
744.60 0.3116
744.70 0.3115
744.80 0.3114
744.90 0.3112
745.00 0.3111
745.10 0.311
745.20 0.3108
745.30 0.3107
745.40 0.3106
745.50 0.3104
745.60 0.3103
745.70 0.3101
745.80 0.31
745.90 0.3099
746.00 0.3097
746.10 0.3096
746.20 0.3095
746.30 0.3093
746.40 0.3092
746.50 0.3091
746.60 0.3089
746.70 0.3088
746.80 0.3087
746.90 0.3085
747.00 0.3084
747.10 0.3083
747.20 0.3081
747.30 0.308
747.40 0.3079
747.50 0.3077
747.60 0.3076
747.70 0.3075
747.80 0.3073
747.90 0.3072
748.00 0.3071
748.10 0.3069
748.20 0.3068
748.30 0.3067
748.40 0.3065
748.50 0.3064
748.60 0.3063
748.70 0.3061
748.80 0.306
748.90 0.3059
749.00 0.3058
749.10 0.3056
749.20 0.3055
749.30 0.3054
749.40 0.3052
749.50 0.3051
749.60 0.305
749.70 0.3048
749.80 0.3047
749.90 0.3046
750.00 0.3044
750.10 0.3043
750.20 0.3042
750.30 0.304
750.40 0.3039
750.50 0.3038
750.60 0.3036
750.70 0.3035
750.80 0.3034
750.90 0.3033
751.00 0.3031
751.10 0.303
751.20 0.3029
751.30 0.3027
751.40 0.3026
751.50 0.3025
751.60 0.3023
751.70 0.3022
751.80 0.3021
751.90 0.302
752.00 0.3018
752.10 0.3017
752.20 0.3016
752.30 0.3014
752.40 0.3013
752.50 0.3012
752.60 0.3011
752.70 0.3009
752.80 0.3008
752.90 0.3007
753.00 0.3005
753.10 0.3004
753.20 0.3003
753.30 0.3002
753.40 0.3
753.50 0.2999
753.60 0.2998
753.70 0.2996
753.80 0.2995
753.90 0.2994
754.00 0.2993
754.10 0.2991
754.20 0.299
754.30 0.2989
754.40 0.2987
754.50 0.2986
754.60 0.2985
754.70 0.2984
754.80 0.2982
754.90 0.2981
755.00 0.298
755.10 0.2978
755.20 0.2977
755.30 0.2976
755.40 0.2975
755.50 0.2973
755.60 0.2972
755.70 0.2971
755.80 0.297
755.90 0.2968
756.00 0.2967
756.10 0.2966
756.20 0.2964
756.30 0.2963
756.40 0.2962
756.50 0.2961
756.60 0.2959
756.70 0.2958
756.80 0.2957
756.90 0.2956
757.00 0.2954
757.10 0.2953
757.20 0.2952
757.30 0.2951
757.40 0.2949
757.50 0.2948
757.60 0.2947
757.70 0.2945
757.80 0.2944
757.90 0.2943
758.00 0.2942
758.10 0.294
758.20 0.2939
758.30 0.2938
758.40 0.2937
758.50 0.2935
758.60 0.2934
758.70 0.2933
758.80 0.2932
758.90 0.293
759.00 0.2929
759.10 0.2928
759.20 0.2927
759.30 0.2925
759.40 0.2924
759.50 0.2923
759.60 0.2922
759.70 0.292
759.80 0.2919
759.90 0.2918
760.00 0.2917
760.10 0.2915
760.20 0.2914
760.30 0.2913
760.40 0.2912
760.50 0.291
760.60 0.2909
760.70 0.2908
760.80 0.2907
760.90 0.2905
761.00 0.2904
761.10 0.2903
761.20 0.2902
761.30 0.2901
761.40 0.2899
761.50 0.2898
761.60 0.2897
761.70 0.2896
761.80 0.2894
761.90 0.2893
762.00 0.2892
762.10 0.2891
762.20 0.2889
762.30 0.2888
762.40 0.2887
762.50 0.2886
762.60 0.2885
762.70 0.2883
762.80 0.2882
762.90 0.2881
763.00 0.288
763.10 0.2878
763.20 0.2877
763.30 0.2876
763.40 0.2875
763.50 0.2874
763.60 0.2872
763.70 0.2871
763.80 0.287
763.90 0.2869
764.00 0.2867
764.10 0.2866
764.20 0.2865
764.30 0.2864
764.40 0.2863
764.50 0.2861
764.60 0.286
764.70 0.2859
764.80 0.2858
764.90 0.2857
765.00 0.2855
765.10 0.2854
765.20 0.2853
765.30 0.2852
765.40 0.285
765.50 0.2849
765.60 0.2848
765.70 0.2847
765.80 0.2846
765.90 0.2844
766.00 0.2843
766.10 0.2842
766.20 0.2841
766.30 0.284
766.40 0.2838
766.50 0.2837
766.60 0.2836
766.70 0.2835
766.80 0.2834
766.90 0.2832
767.00 0.2831
767.10 0.283
767.20 0.2829
767.30 0.2828
767.40 0.2826
767.50 0.2825
767.60 0.2824
767.70 0.2823
767.80 0.2822
767.90 0.282
768.00 0.2819
768.10 0.2818
768.20 0.2817
768.30 0.2816
768.40 0.2814
768.50 0.2813
768.60 0.2812
768.70 0.2811
768.80 0.281
768.90 0.2808
769.00 0.2807
769.10 0.2806
769.20 0.2805
769.30 0.2804
769.40 0.2802
769.50 0.2801
769.60 0.28
769.70 0.2799
769.80 0.2798
769.90 0.2797
770.00 0.2795
770.10 0.2794
770.20 0.2793
770.30 0.2792
770.40 0.2791
770.50 0.2789
770.60 0.2788
770.70 0.2787
770.80 0.2786
770.90 0.2785
771.00 0.2784
771.10 0.2782
771.20 0.2781
771.30 0.278
771.40 0.2779
771.50 0.2778
771.60 0.2777
771.70 0.2775
771.80 0.2774
771.90 0.2773
772.00 0.2772
772.10 0.2771
772.20 0.277
772.30 0.2768
772.40 0.2767
772.50 0.2766
772.60 0.2765
772.70 0.2764
772.80 0.2763
772.90 0.2761
773.00 0.276
773.10 0.2759
773.20 0.2758
773.30 0.2757
773.40 0.2756
773.50 0.2755
773.60 0.2753
773.70 0.2752
773.80 0.2751
773.90 0.275
774.00 0.2749
774.10 0.2748
774.20 0.2746
774.30 0.2745
774.40 0.2744
774.50 0.2743
774.60 0.2742
774.70 0.2741
774.80 0.274
774.90 0.2738
775.00 0.2737
775.10 0.2736
775.20 0.2735
775.30 0.2734
775.40 0.2733
775.50 0.2731
775.60 0.273
775.70 0.2729
775.80 0.2728
775.90 0.2727
776.00 0.2726
776.10 0.2725
776.20 0.2723
776.30 0.2722
776.40 0.2721
776.50 0.272
776.60 0.2719
776.70 0.2718
776.80 0.2717
776.90 0.2715
777.00 0.2714
777.10 0.2713
777.20 0.2712
777.30 0.2711
777.40 0.271
777.50 0.2709
777.60 0.2707
777.70 0.2706
777.80 0.2705
777.90 0.2704
778.00 0.2703
778.10 0.2702
778.20 0.2701
778.30 0.27
778.40 0.2698
778.50 0.2697
778.60 0.2696
778.70 0.2695
778.80 0.2694
778.90 0.2693
779.00 0.2692
779.10 0.269
779.20 0.2689
779.30 0.2688
779.40 0.2687
779.50 0.2686
779.60 0.2685
779.70 0.2684
779.80 0.2683
779.90 0.2681
780.00 0.268
780.10 0.2679
780.20 0.2678
780.30 0.2677
780.40 0.2676
780.50 0.2675
780.60 0.2674
780.70 0.2673
780.80 0.2671
780.90 0.267
781.00 0.2669
781.10 0.2668
781.20 0.2667
781.30 0.2666
781.40 0.2665
781.50 0.2664
781.60 0.2663
781.70 0.2661
781.80 0.266
781.90 0.2659
782.00 0.2658
782.10 0.2657
782.20 0.2656
782.30 0.2655
782.40 0.2654
782.50 0.2653
782.60 0.2651
782.70 0.265
782.80 0.2649
782.90 0.2648
783.00 0.2647
783.10 0.2646
783.20 0.2645
783.30 0.2644
783.40 0.2643
783.50 0.2642
783.60 0.264
783.70 0.2639
783.80 0.2638
783.90 0.2637
784.00 0.2636
784.10 0.2635
784.20 0.2634
784.30 0.2633
784.40 0.2632
784.50 0.2631
784.60 0.2629
784.70 0.2628
784.80 0.2627
784.90 0.2626
785.00 0.2625
785.10 0.2624
785.20 0.2623
785.30 0.2622
785.40 0.2621
785.50 0.262
785.60 0.2619
785.70 0.2617
785.80 0.2616
785.90 0.2615
786.00 0.2614
786.10 0.2613
786.20 0.2612
786.30 0.2611
786.40 0.261
786.50 0.2609
786.60 0.2608
786.70 0.2607
786.80 0.2606
786.90 0.2604
787.00 0.2603
787.10 0.2602
787.20 0.2601
787.30 0.26
787.40 0.2599
787.50 0.2598
787.60 0.2597
787.70 0.2596
787.80 0.2595
787.90 0.2594
788.00 0.2593
788.10 0.2591
788.20 0.259
788.30 0.2589
788.40 0.2588
788.50 0.2587
788.60 0.2586
788.70 0.2585
788.80 0.2584
788.90 0.2583
789.00 0.2582
789.10 0.2581
789.20 0.258
789.30 0.2579
789.40 0.2578
789.50 0.2576
789.60 0.2575
789.70 0.2574
789.80 0.2573
789.90 0.2572
790.00 0.2571
790.10 0.257
790.20 0.2569
790.30 0.2568
790.40 0.2567
790.50 0.2566
790.60 0.2565
790.70 0.2564
790.80 0.2563
790.90 0.2562
791.00 0.256
791.10 0.2559
791.20 0.2558
791.30 0.2557
791.40 0.2556
791.50 0.2555
791.60 0.2554
791.70 0.2553
791.80 0.2552
791.90 0.2551
792.00 0.255
792.10 0.2549
792.20 0.2548
792.30 0.2547
792.40 0.2546
792.50 0.2545
792.60 0.2544
792.70 0.2543
792.80 0.2542
792.90 0.2541
793.00 0.2539
793.10 0.2538
793.20 0.2537
793.30 0.2536
793.40 0.2535
793.50 0.2534
793.60 0.2533
793.70 0.2532
793.80 0.2531
793.90 0.253
794.00 0.2529
794.10 0.2528
794.20 0.2527
794.30 0.2526
794.40 0.2525
794.50 0.2524
794.60 0.2523
794.70 0.2522
794.80 0.2521
794.90 0.252
795.00 0.2519
795.10 0.2518
795.20 0.2517
795.30 0.2515
795.40 0.2514
795.50 0.2513
795.60 0.2512
795.70 0.2511
795.80 0.251
795.90 0.2509
796.00 0.2508
796.10 0.2507
796.20 0.2506
796.30 0.2505
796.40 0.2504
796.50 0.2503
796.60 0.2502
796.70 0.2501
796.80 0.25
796.90 0.2499
797.00 0.2498
797.10 0.2497
797.20 0.2496
797.30 0.2495
797.40 0.2494
797.50 0.2493
797.60 0.2492
797.70 0.2491
797.80 0.249
797.90 0.2489
798.00 0.2488
798.10 0.2487
798.20 0.2486
798.30 0.2485
798.40 0.2484
798.50 0.2483
798.60 0.2482
798.70 0.2481
798.80 0.2479
798.90 0.2478
799.00 0.2477
799.10 0.2476
799.20 0.2475
799.30 0.2474
799.40 0.2473
799.50 0.2472
799.60 0.2471
799.70 0.247
799.80 0.2469
799.90 0.2468
800.00 0.2467
800.10 0.2466
800.20 0.2465
800.30 0.2464
800.40 0.2463
800.50 0.2462
800.60 0.2461
800.70 0.246
800.80 0.2459
800.90 0.2458
801.00 0.2457
801.10 0.2456
801.20 0.2455
801.30 0.2454
801.40 0.2453
801.50 0.2452
801.60 0.2451
801.70 0.245
801.80 0.2449
801.90 0.2448
802.00 0.2447
802.10 0.2446
802.20 0.2445
802.30 0.2444
802.40 0.2443
802.50 0.2442
802.60 0.2441
802.70 0.244
802.80 0.2439
802.90 0.2438
803.00 0.2437
803.10 0.2436
803.20 0.2435
803.30 0.2434
803.40 0.2433
803.50 0.2432
803.60 0.2431
803.70 0.243
803.80 0.2429
803.90 0.2428
804.00 0.2427
804.10 0.2426
804.20 0.2425
804.30 0.2424
804.40 0.2423
804.50 0.2422
804.60 0.2421
804.70 0.242
804.80 0.2419
804.90 0.2418
805.00 0.2417
805.10 0.2416
805.20 0.2415
805.30 0.2414
805.40 0.2413
805.50 0.2412
805.60 0.2411
805.70 0.241
805.80 0.2409
805.90 0.2409
806.00 0.2408
806.10 0.2407
806.20 0.2406
806.30 0.2405
806.40 0.2404
806.50 0.2403
806.60 0.2402
806.70 0.2401
806.80 0.24
806.90 0.2399
807.00 0.2398
807.10 0.2397
807.20 0.2396
807.30 0.2395
807.40 0.2394
807.50 0.2393
807.60 0.2392
807.70 0.2391
807.80 0.239
807.90 0.2389
808.00 0.2388
808.10 0.2387
808.20 0.2386
808.30 0.2385
808.40 0.2384
808.50 0.2383
808.60 0.2382
808.70 0.2381
808.80 0.238
808.90 0.2379
809.00 0.2378
809.10 0.2377
809.20 0.2376
809.30 0.2375
809.40 0.2374
809.50 0.2373
809.60 0.2372
809.70 0.2371
809.80 0.237
809.90 0.237
810.00 0.2369
810.10 0.2368
810.20 0.2367
810.30 0.2366
810.40 0.2365
810.50 0.2364
810.60 0.2363
810.70 0.2362
810.80 0.2361
810.90 0.236
811.00 0.2359
811.10 0.2358
811.20 0.2357
811.30 0.2356
811.40 0.2355
811.50 0.2354
811.60 0.2353
811.70 0.2352
811.80 0.2351
811.90 0.235
812.00 0.2349
812.10 0.2348
812.20 0.2348
812.30 0.2347
812.40 0.2346
812.50 0.2345
812.60 0.2344
812.70 0.2343
812.80 0.2342
812.90 0.2341
813.00 0.234
813.10 0.2339
813.20 0.2338
813.30 0.2337
813.40 0.2336
813.50 0.2335
813.60 0.2334
813.70 0.2333
813.80 0.2332
813.90 0.2331
814.00 0.2331
814.10 0.233
814.20 0.2329
814.30 0.2328
814.40 0.2327
814.50 0.2326
814.60 0.2325
814.70 0.2324
814.80 0.2323
814.90 0.2322
815.00 0.2321
815.10 0.232
815.20 0.2319
815.30 0.2318
815.40 0.2317
815.50 0.2316
815.60 0.2315
815.70 0.2315
815.80 0.2314
815.90 0.2313
816.00 0.2312
816.10 0.2311
816.20 0.231
816.30 0.2309
816.40 0.2308
816.50 0.2307
816.60 0.2306
816.70 0.2305
816.80 0.2304
816.90 0.2303
817.00 0.2302
817.10 0.2301
817.20 0.2301
817.30 0.23
817.40 0.2299
817.50 0.2298
817.60 0.2297
817.70 0.2296
817.80 0.2295
817.90 0.2294
818.00 0.2293
818.10 0.2292
818.20 0.2291
818.30 0.229
818.40 0.2289
818.50 0.2288
818.60 0.2288
818.70 0.2287
818.80 0.2286
818.90 0.2285
819.00 0.2284
819.10 0.2283
819.20 0.2282
819.30 0.2281
819.40 0.228
819.50 0.2279
819.60 0.2278
819.70 0.2277
819.80 0.2277
819.90 0.2276
820.00 0.2275
820.10 0.2274
820.20 0.2273
820.30 0.2272
820.40 0.2271
820.50 0.227
820.60 0.2269
820.70 0.2268
820.80 0.2267
820.90 0.2267
821.00 0.2266
821.10 0.2265
821.20 0.2264
821.30 0.2263
821.40 0.2262
821.50 0.2261
821.60 0.226
821.70 0.2259
821.80 0.2258
821.90 0.2257
822.00 0.2257
822.10 0.2256
822.20 0.2255
822.30 0.2254
822.40 0.2253
822.50 0.2252
822.60 0.2251
822.70 0.225
822.80 0.2249
822.90 0.2248
823.00 0.2247
823.10 0.2247
823.20 0.2246
823.30 0.2245
823.40 0.2244
823.50 0.2243
823.60 0.2242
823.70 0.2241
823.80 0.224
823.90 0.2239
824.00 0.2239
824.10 0.2238
824.20 0.2237
824.30 0.2236
824.40 0.2235
824.50 0.2234
824.60 0.2233
824.70 0.2232
824.80 0.2231
824.90 0.223
825.00 0.223
825.10 0.2229
825.20 0.2228
825.30 0.2227
825.40 0.2226
825.50 0.2225
825.60 0.2224
825.70 0.2223
825.80 0.2222
825.90 0.2222
826.00 0.2221
826.10 0.222
826.20 0.2219
826.30 0.2218
826.40 0.2217
826.50 0.2216
826.60 0.2215
826.70 0.2214
826.80 0.2214
826.90 0.2213
827.00 0.2212
827.10 0.2211
827.20 0.221
827.30 0.2209
827.40 0.2208
827.50 0.2207
827.60 0.2206
827.70 0.2206
827.80 0.2205
827.90 0.2204
828.00 0.2203
828.10 0.2202
828.20 0.2201
828.30 0.22
828.40 0.2199
828.50 0.2199
828.60 0.2198
828.70 0.2197
828.80 0.2196
828.90 0.2195
829.00 0.2194
829.10 0.2193
829.20 0.2192
829.30 0.2192
829.40 0.2191
829.50 0.219
829.60 0.2189
829.70 0.2188
829.80 0.2187
829.90 0.2186
830.00 0.2185
830.10 0.2185
830.20 0.2184
830.30 0.2183
830.40 0.2182
830.50 0.2181
830.60 0.218
830.70 0.2179
830.80 0.2178
830.90 0.2178
831.00 0.2177
831.10 0.2176
831.20 0.2175
831.30 0.2174
831.40 0.2173
831.50 0.2172
831.60 0.2172
831.70 0.2171
831.80 0.217
831.90 0.2169
832.00 0.2168
832.10 0.2167
832.20 0.2166
832.30 0.2165
832.40 0.2165
832.50 0.2164
832.60 0.2163
832.70 0.2162
832.80 0.2161
832.90 0.216
833.00 0.2159
833.10 0.2159
833.20 0.2158
833.30 0.2157
833.40 0.2156
833.50 0.2155
833.60 0.2154
833.70 0.2153
833.80 0.2153
833.90 0.2152
834.00 0.2151
834.10 0.215
834.20 0.2149
834.30 0.2148
834.40 0.2148
834.50 0.2147
834.60 0.2146
834.70 0.2145
834.80 0.2144
834.90 0.2143
835.00 0.2142
835.10 0.2142
835.20 0.2141
835.30 0.214
835.40 0.2139
835.50 0.2138
835.60 0.2137
835.70 0.2136
835.80 0.2136
835.90 0.2135
836.00 0.2134
836.10 0.2133
836.20 0.2132
836.30 0.2131
836.40 0.2131
836.50 0.213
836.60 0.2129
836.70 0.2128
836.80 0.2127
836.90 0.2126
837.00 0.2125
837.10 0.2125
837.20 0.2124
837.30 0.2123
837.40 0.2122
837.50 0.2121
837.60 0.212
837.70 0.212
837.80 0.2119
837.90 0.2118
838.00 0.2117
838.10 0.2116
838.20 0.2115
838.30 0.2115
838.40 0.2114
838.50 0.2113
838.60 0.2112
838.70 0.2111
838.80 0.211
838.90 0.211
839.00 0.2109
839.10 0.2108
839.20 0.2107
839.30 0.2106
839.40 0.2105
839.50 0.2105
839.60 0.2104
839.70 0.2103
839.80 0.2102
839.90 0.2101
840.00 0.21
840.10 0.21
840.20 0.2099
840.30 0.2098
840.40 0.2097
840.50 0.2096
840.60 0.2095
840.70 0.2095
840.80 0.2094
840.90 0.2093
841.00 0.2092
841.10 0.2091
841.20 0.209
841.30 0.209
841.40 0.2089
841.50 0.2088
841.60 0.2087
841.70 0.2086
841.80 0.2086
841.90 0.2085
842.00 0.2084
842.10 0.2083
842.20 0.2082
842.30 0.2081
842.40 0.2081
842.50 0.208
842.60 0.2079
842.70 0.2078
842.80 0.2077
842.90 0.2077
843.00 0.2076
843.10 0.2075
843.20 0.2074
843.30 0.2073
843.40 0.2072
843.50 0.2072
843.60 0.2071
843.70 0.207
843.80 0.2069
843.90 0.2068
844.00 0.2068
844.10 0.2067
844.20 0.2066
844.30 0.2065
844.40 0.2064
844.50 0.2063
844.60 0.2063
844.70 0.2062
844.80 0.2061
844.90 0.206
845.00 0.2059
845.10 0.2059
845.20 0.2058
845.30 0.2057
845.40 0.2056
845.50 0.2055
845.60 0.2055
845.70 0.2054
845.80 0.2053
845.90 0.2052
846.00 0.2051
846.10 0.205
846.20 0.205
846.30 0.2049
846.40 0.2048
846.50 0.2047
846.60 0.2046
846.70 0.2046
846.80 0.2045
846.90 0.2044
847.00 0.2043
847.10 0.2042
847.20 0.2042
847.30 0.2041
847.40 0.204
847.50 0.204
847.60 0.2039
847.70 0.2038
847.80 0.2037
847.90 0.2037
848.00 0.2036
848.10 0.2035
848.20 0.2034
848.30 0.2034
848.40 0.2033
848.50 0.2032
848.60 0.2032
848.70 0.2031
848.80 0.203
848.90 0.2029
849.00 0.2029
849.10 0.2028
849.20 0.2027
849.30 0.2026
849.40 0.2026
849.50 0.2025
849.60 0.2024
849.70 0.2024
849.80 0.2023
849.90 0.2022
850.00 0.2021
850.10 0.2021
850.20 0.202
850.30 0.2019
850.40 0.2019
850.50 0.2018
850.60 0.2017
850.70 0.2016
850.80 0.2016
850.90 0.2015
851.00 0.2014
851.10 0.2013
851.20 0.2013
851.30 0.2012
851.40 0.2011
851.50 0.2011
851.60 0.201
851.70 0.2009
851.80 0.2008
851.90 0.2008
852.00 0.2007
852.10 0.2006
852.20 0.2006
852.30 0.2005
852.40 0.2004
852.50 0.2003
852.60 0.2003
852.70 0.2002
852.80 0.2001
852.90 0.2001
853.00 0.2
853.10 0.1999
853.20 0.1998
853.30 0.1998
853.40 0.1997
853.50 0.1996
853.60 0.1996
853.70 0.1995
853.80 0.1994
853.90 0.1993
854.00 0.1993
854.10 0.1992
854.20 0.1991
854.30 0.1991
854.40 0.199
854.50 0.1989
854.60 0.1988
854.70 0.1988
854.80 0.1987
854.90 0.1986
855.00 0.1986
855.10 0.1985
855.20 0.1984
855.30 0.1984
855.40 0.1983
855.50 0.1982
855.60 0.1981
855.70 0.1981
855.80 0.198
855.90 0.1979
856.00 0.1979
856.10 0.1978
856.20 0.1977
856.30 0.1976
856.40 0.1976
856.50 0.1975
856.60 0.1974
856.70 0.1974
856.80 0.1973
856.90 0.1972
857.00 0.1972
857.10 0.1971
857.20 0.197
857.30 0.197
857.40 0.1969
857.50 0.1968
857.60 0.1968
857.70 0.1967
857.80 0.1966
857.90 0.1966
858.00 0.1965
858.10 0.1964
858.20 0.1964
858.30 0.1963
858.40 0.1962
858.50 0.1962
858.60 0.1961
858.70 0.196
858.80 0.196
858.90 0.1959
859.00 0.1958
859.10 0.1958
859.20 0.1957
859.30 0.1956
859.40 0.1956
859.50 0.1955
859.60 0.1954
859.70 0.1954
859.80 0.1953
859.90 0.1952
860.00 0.1952
860.10 0.1951
860.20 0.195
860.30 0.195
860.40 0.1949
860.50 0.1948
860.60 0.1948
860.70 0.1947
860.80 0.1946
860.90 0.1946
861.00 0.1945
861.10 0.1944
861.20 0.1944
861.30 0.1943
861.40 0.1942
861.50 0.1942
861.60 0.1941
861.70 0.194
861.80 0.194
861.90 0.1939
862.00 0.1938
862.10 0.1938
862.20 0.1937
862.30 0.1936
862.40 0.1936
862.50 0.1935
862.60 0.1934
862.70 0.1934
862.80 0.1933
862.90 0.1932
863.00 0.1932
863.10 0.1931
863.20 0.193
863.30 0.193
863.40 0.1929
863.50 0.1928
863.60 0.1928
863.70 0.1927
863.80 0.1926
863.90 0.1926
864.00 0.1925
864.10 0.1924
864.20 0.1924
864.30 0.1923
864.40 0.1922
864.50 0.1922
864.60 0.1921
864.70 0.192
864.80 0.192
864.90 0.1919
865.00 0.1918
865.10 0.1918
865.20 0.1917
865.30 0.1916
865.40 0.1916
865.50 0.1915
865.60 0.1914
865.70 0.1914
865.80 0.1913
865.90 0.1912
866.00 0.1912
866.10 0.1911
866.20 0.191
866.30 0.191
866.40 0.1909
866.50 0.1908
866.60 0.1908
866.70 0.1907
866.80 0.1906
866.90 0.1906
867.00 0.1905
867.10 0.1905
867.20 0.1904
867.30 0.1904
867.40 0.1903
867.50 0.1902
867.60 0.1902
867.70 0.1901
867.80 0.1901
867.90 0.19
868.00 0.19
868.10 0.1899
868.20 0.1899
868.30 0.1898
868.40 0.1898
868.50 0.1897
868.60 0.1897
868.70 0.1896
868.80 0.1896
868.90 0.1895
869.00 0.1895
869.10 0.1894
869.20 0.1894
869.30 0.1893
869.40 0.1893
869.50 0.1892
869.60 0.1892
869.70 0.1891
869.80 0.1891
869.90 0.189
870.00 0.1889
870.10 0.1889
870.20 0.1888
870.30 0.1888
870.40 0.1887
870.50 0.1887
870.60 0.1886
870.70 0.1886
870.80 0.1885
870.90 0.1885
871.00 0.1884
871.10 0.1884
871.20 0.1883
871.30 0.1883
871.40 0.1882
871.50 0.1882
871.60 0.1881
871.70 0.1881
871.80 0.188
871.90 0.188
872.00 0.1879
872.10 0.1879
872.20 0.1878
872.30 0.1877
872.40 0.1876
872.50 0.1876
872.60 0.1875
872.70 0.1874
872.80 0.1874
872.90 0.1873
873.00 0.1872
873.10 0.1872
873.20 0.1871
873.30 0.187
873.40 0.187
873.50 0.1869
873.60 0.1868
873.70 0.1868
873.80 0.1867
873.90 0.1866
874.00 0.1866
874.10 0.1865
874.20 0.1864
874.30 0.1864
874.40 0.1863
874.50 0.1862
874.60 0.1862
874.70 0.1861
874.80 0.186
874.90 0.186
875.00 0.1859
875.10 0.1859
875.20 0.1858
875.30 0.1857
875.40 0.1857
875.50 0.1856
875.60 0.1855
875.70 0.1855
875.80 0.1854
875.90 0.1853
876.00 0.1853
876.10 0.1852
876.20 0.1851
876.30 0.1851
876.40 0.185
876.50 0.1849
876.60 0.1849
876.70 0.1848
876.80 0.1847
876.90 0.1847
877.00 0.1846
877.10 0.1846
877.20 0.1845
877.30 0.1845
877.40 0.1844
877.50 0.1844
877.60 0.1843
877.70 0.1843
877.80 0.1842
877.90 0.1842
878.00 0.1842
878.10 0.1841
878.20 0.1841
878.30 0.184
878.40 0.184
878.50 0.1839
878.60 0.1839
878.70 0.1838
878.80 0.1838
878.90 0.1838
879.00 0.1837
879.10 0.1837
879.20 0.1836
879.30 0.1836
879.40 0.1835
879.50 0.1835
879.60 0.1834
879.70 0.1834
879.80 0.1834
879.90 0.1833
880.00 0.1833
880.10 0.1832
880.20 0.1832
880.30 0.1831
880.40 0.1831
880.50 0.183
880.60 0.183
880.70 0.183
880.80 0.1829
880.90 0.1829
881.00 0.1828
881.10 0.1828
881.20 0.1827
881.30 0.1827
881.40 0.1827
881.50 0.1826
881.60 0.1826
881.70 0.1825
881.80 0.1825
881.90 0.1824
882.00 0.1824
882.10 0.1823
882.20 0.1822
882.30 0.182
882.40 0.1819
882.50 0.1818
882.60 0.1817
882.70 0.1816
882.80 0.1815
882.90 0.1814
883.00 0.1812
883.10 0.1811
883.20 0.181
883.30 0.1809
883.40 0.1808
883.50 0.1807
883.60 0.1805
883.70 0.1804
883.80 0.1803
883.90 0.1802
884.00 0.1801
884.10 0.18
884.20 0.1799
884.30 0.1797
884.40 0.1796
884.50 0.1795
884.60 0.1794
884.70 0.1793
884.80 0.1792
884.90 0.179
885.00 0.1789
885.10 0.1788
885.20 0.1787
885.30 0.1786
885.40 0.1785
885.50 0.1784
885.60 0.1782
885.70 0.1781
885.80 0.178
885.90 0.1779
886.00 0.1778
886.10 0.1777
886.20 0.1776
886.30 0.1774
886.40 0.1773
886.50 0.1772
886.60 0.1771
886.70 0.177
886.80 0.1769
886.90 0.1768
887.00 0.1766
887.10 0.1767
887.20 0.1767
887.30 0.1767
887.40 0.1767
887.50 0.1767
887.60 0.1767
887.70 0.1767
887.80 0.1767
887.90 0.1767
888.00 0.1768
888.10 0.1768
888.20 0.1768
888.30 0.1768
888.40 0.1768
888.50 0.1768
888.60 0.1768
888.70 0.1768
888.80 0.1768
888.90 0.1769
889.00 0.1769
889.10 0.1769
889.20 0.1769
889.30 0.1769
889.40 0.1769
889.50 0.1769
889.60 0.1769
889.70 0.1769
889.80 0.1769
889.90 0.177
890.00 0.177
890.10 0.177
890.20 0.177
890.30 0.177
890.40 0.177
890.50 0.177
890.60 0.177
890.70 0.177
890.80 0.1771
890.90 0.1771
891.00 0.1771
891.10 0.1771
891.20 0.1771
891.30 0.1771
891.40 0.1771
891.50 0.1771
891.60 0.1771
891.70 0.1771
891.80 0.1772
891.90 0.1772
892.00 0.1772
892.10 0.1771
892.20 0.177
892.30 0.177
892.40 0.1769
892.50 0.1769
892.60 0.1768
892.70 0.1767
892.80 0.1767
892.90 0.1766
893.00 0.1765
893.10 0.1765
893.20 0.1764
893.30 0.1764
893.40 0.1763
893.50 0.1762
893.60 0.1762
893.70 0.1761
893.80 0.176
893.90 0.176
894.00 0.1759
894.10 0.1758
894.20 0.1758
894.30 0.1757
894.40 0.1757
894.50 0.1756
894.60 0.1755
894.70 0.1755
894.80 0.1754
894.90 0.1753
895.00 0.1753
895.10 0.1752
895.20 0.1752
895.30 0.1751
895.40 0.175
895.50 0.175
895.60 0.1749
895.70 0.1748
895.80 0.1748
895.90 0.1747
896.00 0.1747
896.10 0.1746
896.20 0.1745
896.30 0.1745
896.40 0.1744
896.50 0.1743
896.60 0.1743
896.70 0.1742
896.80 0.1742
896.90 0.1741
897.00 0.174
897.10 0.1738
897.20 0.1736
897.30 0.1733
897.40 0.1731
897.50 0.1728
897.60 0.1726
897.70 0.1724
897.80 0.1721
897.90 0.1719
898.00 0.1717
898.10 0.1714
898.20 0.1712
898.30 0.171
898.40 0.1707
898.50 0.1705
898.60 0.1703
898.70 0.17
898.80 0.1698
898.90 0.1695
899.00 0.1693
899.10 0.1691
899.20 0.1688
899.30 0.1686
899.40 0.1684
899.50 0.1681
899.60 0.1679
899.70 0.1677
899.80 0.1674
899.90 0.1672
900.00 0.167
900.10 0.1667
900.20 0.1665
900.30 0.1663
900.40 0.166
900.50 0.1658
900.60 0.1656
900.70 0.1653
900.80 0.1651
900.90 0.1649
901.00 0.1646
901.10 0.1644
901.20 0.1642
901.30 0.1639
901.40 0.1637
901.50 0.1635
901.60 0.1632
901.70 0.163
901.80 0.1628
901.90 0.1625
902.00 0.1623
902.10 0.1624
902.20 0.1625
902.30 0.1626
902.40 0.1627
902.50 0.1627
902.60 0.1628
902.70 0.1629
902.80 0.163
902.90 0.1631
903.00 0.1632
903.10 0.1633
903.20 0.1633
903.30 0.1634
903.40 0.1635
903.50 0.1636
903.60 0.1637
903.70 0.1638
903.80 0.1639
903.90 0.1639
904.00 0.164
904.10 0.1641
904.20 0.1642
904.30 0.1643
904.40 0.1644
904.50 0.1645
904.60 0.1645
904.70 0.1646
904.80 0.1647
904.90 0.1648
905.00 0.1649
905.10 0.165
905.20 0.165
905.30 0.1651
905.40 0.1652
905.50 0.1653
905.60 0.1654
905.70 0.1655
905.80 0.1656
905.90 0.1656
906.00 0.1657
906.10 0.1658
906.20 0.1659
906.30 0.166
906.40 0.1661
906.50 0.1661
906.60 0.1662
906.70 0.1663
906.80 0.1664
906.90 0.1665
907.00 0.1666
907.10 0.1666
907.20 0.1665
907.30 0.1665
907.40 0.1665
907.50 0.1665
907.60 0.1665
907.70 0.1665
907.80 0.1665
907.90 0.1665
908.00 0.1665
908.10 0.1665
908.20 0.1665
908.30 0.1664
908.40 0.1664
908.50 0.1664
908.60 0.1664
908.70 0.1664
908.80 0.1664
908.90 0.1664
909.00 0.1664
909.10 0.1664
909.20 0.1664
909.30 0.1664
909.40 0.1663
909.50 0.1663
909.60 0.1663
909.70 0.1663
909.80 0.1663
909.90 0.1663
910.00 0.1663
910.10 0.1663
910.20 0.1663
910.30 0.1663
910.40 0.1663
910.50 0.1662
910.60 0.1662
910.70 0.1662
910.80 0.1662
910.90 0.1662
911.00 0.1662
911.10 0.1662
911.20 0.1662
911.30 0.1662
911.40 0.1662
911.50 0.1662
911.60 0.1661
911.70 0.1661
911.80 0.1661
911.90 0.1661
912.00 0.1661
912.10 0.166
912.20 0.1659
912.30 0.1657
912.40 0.1656
912.50 0.1655
912.60 0.1654
912.70 0.1652
912.80 0.1651
912.90 0.165
913.00 0.1649
913.10 0.1648
913.20 0.1646
913.30 0.1645
913.40 0.1644
913.50 0.1643
913.60 0.1641
913.70 0.164
913.80 0.1639
913.90 0.1638
914.00 0.1636
914.10 0.1635
914.20 0.1634
914.30 0.1633
914.40 0.1632
914.50 0.163
914.60 0.1629
914.70 0.1628
914.80 0.1627
914.90 0.1625
915.00 0.1624
915.10 0.1623
915.20 0.1622
915.30 0.1621
915.40 0.1619
915.50 0.1618
915.60 0.1617
915.70 0.1616
915.80 0.1614
915.90 0.1613
916.00 0.1612
916.10 0.1611
916.20 0.161
916.30 0.1608
916.40 0.1607
916.50 0.1606
916.60 0.1605
916.70 0.1604
916.80 0.1602
916.90 0.1601
917.00 0.16
917.10 0.1597
917.20 0.1594
917.30 0.1591
917.40 0.1588
917.50 0.1586
917.60 0.1583
917.70 0.158
917.80 0.1577
917.90 0.1574
918.00 0.1571
918.10 0.1568
918.20 0.1565
918.30 0.1563
918.40 0.156
918.50 0.1557
918.60 0.1554
918.70 0.1551
918.80 0.1548
918.90 0.1545
919.00 0.1543
919.10 0.154
919.20 0.1537
919.30 0.1534
919.40 0.1531
919.50 0.1528
919.60 0.1526
919.70 0.1523
919.80 0.152
919.90 0.1517
920.00 0.1514
920.10 0.1511
920.20 0.1508
920.30 0.1506
920.40 0.1503
920.50 0.15
920.60 0.1497
920.70 0.1494
920.80 0.1491
920.90 0.1489
921.00 0.1486
921.10 0.1483
921.20 0.148
921.30 0.1477
921.40 0.1474
921.50 0.1472
921.60 0.1469
921.70 0.1466
921.80 0.1463
921.90 0.146
922.00 0.1458
922.10 0.1458
922.20 0.1458
922.30 0.1459
922.40 0.1459
922.50 0.1459
922.60 0.1459
922.70 0.146
922.80 0.146
922.90 0.146
923.00 0.1461
923.10 0.1461
923.20 0.1461
923.30 0.1462
923.40 0.1462
923.50 0.1462
923.60 0.1463
923.70 0.1463
923.80 0.1463
923.90 0.1464
924.00 0.1464
924.10 0.1464
924.20 0.1464
924.30 0.1465
924.40 0.1465
924.50 0.1465
924.60 0.1466
924.70 0.1466
924.80 0.1466
924.90 0.1467
925.00 0.1467
925.10 0.1467
925.20 0.1468
925.30 0.1468
925.40 0.1468
925.50 0.1468
925.60 0.1469
925.70 0.1469
925.80 0.1469
925.90 0.147
926.00 0.147
926.10 0.147
926.20 0.1471
926.30 0.1471
926.40 0.1471
926.50 0.1472
926.60 0.1472
926.70 0.1472
926.80 0.1472
926.90 0.1473
927.00 0.1473
927.10 0.1474
927.20 0.1476
927.30 0.1477
927.40 0.1478
927.50 0.1479
927.60 0.1481
927.70 0.1482
927.80 0.1483
927.90 0.1484
928.00 0.1485
928.10 0.1487
928.20 0.1488
928.30 0.1489
928.40 0.149
928.50 0.1492
928.60 0.1493
928.70 0.1494
928.80 0.1495
928.90 0.1496
929.00 0.1498
929.10 0.1499
929.20 0.15
929.30 0.1501
929.40 0.1503
929.50 0.1504
929.60 0.1505
929.70 0.1506
929.80 0.1508
929.90 0.1509
930.00 0.151
930.10 0.1511
930.20 0.1512
930.30 0.1514
930.40 0.1515
930.50 0.1516
930.60 0.1517
930.70 0.1518
930.80 0.152
930.90 0.1521
931.00 0.1522
931.10 0.1523
931.20 0.1525
931.30 0.1526
931.40 0.1527
931.50 0.1528
931.60 0.1529
931.70 0.1531
931.80 0.1532
931.90 0.1533
932.00 0.1534
932.10 0.1534
932.20 0.1535
932.30 0.1535
932.40 0.1535
932.50 0.1535
932.60 0.1536
932.70 0.1536
932.80 0.1536
932.90 0.1536
933.00 0.1536
933.10 0.1537
933.20 0.1537
933.30 0.1537
933.40 0.1537
933.50 0.1537
933.60 0.1538
933.70 0.1538
933.80 0.1538
933.90 0.1538
934.00 0.1538
934.10 0.1539
934.20 0.1539
934.30 0.1539
934.40 0.1539
934.50 0.1539
934.60 0.1539
934.70 0.1538
934.80 0.1538
934.90 0.1538
935.00 0.1538
935.10 0.1538
935.20 0.1537
935.30 0.1537
935.40 0.1537
935.50 0.1537
935.60 0.1537
935.70 0.1537
935.80 0.1536
935.90 0.1536
936.00 0.1536
936.10 0.1536
936.20 0.1536
936.30 0.1535
936.40 0.1535
936.50 0.1535
936.60 0.1535
936.70 0.1535
936.80 0.1535
936.90 0.1534
937.00 0.1534
937.10 0.1534
937.20 0.1533
937.30 0.1533
937.40 0.1533
937.50 0.1532
937.60 0.1532
937.70 0.1531
937.80 0.1531
937.90 0.153
938.00 0.153
938.10 0.153
938.20 0.1529
938.30 0.1529
938.40 0.1528
938.50 0.1528
938.60 0.1527
938.70 0.1526
938.80 0.1526
938.90 0.1525
939.00 0.1525
939.10 0.1524
939.20 0.1523
939.30 0.1523
939.40 0.1522
939.50 0.1522
939.60 0.1521
939.70 0.152
939.80 0.152
939.90 0.1519
940.00 0.1519
940.10 0.1518
940.20 0.1517
940.30 0.1517
940.40 0.1516
940.50 0.1515
940.60 0.1514
940.70 0.1513
940.80 0.1512
940.90 0.1512
941.00 0.1511
941.10 0.151
941.20 0.1509
941.30 0.1508
941.40 0.1507
941.50 0.1506
941.60 0.1506
941.70 0.1505
941.80 0.1504
941.90 0.1503
942.00 0.1502
942.10 0.1501
942.20 0.15
942.30 0.1499
942.40 0.1498
942.50 0.1497
942.60 0.1495
942.70 0.1494
942.80 0.1493
942.90 0.1492
943.00 0.149
943.10 0.1489
943.20 0.1488
943.30 0.1486
943.40 0.1485
943.50 0.1484
943.60 0.1483
943.70 0.1481
943.80 0.148
943.90 0.1479
944.00 0.1478
944.10 0.1476
944.20 0.1475
944.30 0.1474
944.40 0.1472
944.50 0.147
944.60 0.1469
944.70 0.1467
944.80 0.1465
944.90 0.1464
945.00 0.1462
945.10 0.146
945.20 0.1458
945.30 0.1457
945.40 0.1455
945.50 0.1452
945.60 0.145
945.70 0.1448
945.80 0.1446
945.90 0.1443
946.00 0.1441
946.10 0.1439
946.20 0.1437
946.30 0.1434
946.40 0.1432
946.50 0.143
946.60 0.1428
946.70 0.1426
946.80 0.1423
946.90 0.1421
947.00 0.1419
947.10 0.1416
947.20 0.1413
947.30 0.1411
947.40 0.1407
947.50 0.1404
947.60 0.1401
947.70 0.1398
947.80 0.1394
947.90 0.1391
948.00 0.1388
948.10 0.1384
948.20 0.1381
948.30 0.1378
948.40 0.1374
948.50 0.1371
948.60 0.1368
948.70 0.1365
948.80 0.1361
948.90 0.1358
949.00 0.1355
949.10 0.1351
949.20 0.1348
949.30 0.1345
949.40 0.1341
949.50 0.1336
949.60 0.1332
949.70 0.1328
949.80 0.1324
949.90 0.132
950.00 0.1315
950.10 0.1311
950.20 0.1307
950.30 0.1303
950.40 0.1299
950.50 0.1295
950.60 0.129
950.70 0.1286
950.80 0.1282
950.90 0.1278
951.00 0.1274
951.10 0.1269
951.20 0.1265
951.30 0.1261
951.40 0.1257
951.50 0.1252
951.60 0.1248
951.70 0.1244
951.80 0.1239
951.90 0.1235
952.00 0.1231
952.10 0.1227
952.20 0.1223
952.30 0.122
952.40 0.1216
952.50 0.1212
952.60 0.1208
952.70 0.1204
952.80 0.1201
952.90 0.1199
953.00 0.1196
953.10 0.1194
953.20 0.1192
953.30 0.119
953.40 0.1188
953.50 0.1186
953.60 0.119
953.70 0.1193
953.80 0.1197
953.90 0.12
954.00 0.121
954.10 0.122
954.20 0.1235
954.30 0.1231
954.40 0.1207
954.50 0.1193
954.60 0.1184
954.70 0.1175
954.80 0.1172
954.90 0.1168
955.00 0.1165
955.10 0.1161
955.20 0.1162
955.30 0.1162
955.40 0.1163
955.50 0.1163
955.60 0.1163
955.70 0.1164
955.80 0.1164
955.90 0.1167
956.00 0.117
956.10 0.1172
956.20 0.1175
956.30 0.1177
956.40 0.118
956.50 0.1183
956.60 0.1185
956.70 0.1188
956.80 0.119
956.90 0.1193
957.00 0.1196
957.10 0.1198
957.20 0.1201
957.30 0.1204
957.40 0.1207
957.50 0.121
957.60 0.1212
957.70 0.1215
957.80 0.1218
957.90 0.122
958.00 0.1223
958.10 0.1226
958.20 0.1228
958.30 0.1231
958.40 0.1234
958.50 0.1236
958.60 0.1239
958.70 0.1241
958.80 0.1244
958.90 0.1247
959.00 0.1249
959.10 0.1252
959.20 0.1255
959.30 0.1257
959.40 0.1259
959.50 0.1261
959.60 0.1263
959.70 0.1265
959.80 0.1267
959.90 0.1269
960.00 0.1271
960.10 0.1273
960.20 0.1275
960.30 0.1277
960.40 0.1279
960.50 0.1281
960.60 0.1283
960.70 0.1285
960.80 0.1287
960.90 0.1289
961.00 0.1291
961.10 0.1293
961.20 0.1295
961.30 0.1297
961.40 0.1298
961.50 0.13
961.60 0.1301
961.70 0.1303
961.80 0.1304
961.90 0.1306
962.00 0.1307
962.10 0.1309
962.20 0.131
962.30 0.1311
962.40 0.1312
962.50 0.1314
962.60 0.1315
962.70 0.1316
962.80 0.1317
962.90 0.1319
963.00 0.132
963.10 0.1321
963.20 0.1322
963.30 0.1324
963.40 0.1324
963.50 0.1325
963.60 0.1326
963.70 0.1327
963.80 0.1328
963.90 0.1329
964.00 0.133
964.10 0.1331
964.20 0.1332
964.30 0.1333
964.40 0.1334
964.50 0.1334
964.60 0.1335
964.70 0.1336
964.80 0.1336
964.90 0.1337
965.00 0.1338
965.10 0.1338
965.20 0.1339
965.30 0.134
965.40 0.134
965.50 0.1341
965.60 0.1342
965.70 0.1342
965.80 0.1343
965.90 0.1344
966.00 0.1344
966.10 0.1345
966.20 0.1346
966.30 0.1346
966.40 0.1347
966.50 0.1347
966.60 0.1348
966.70 0.1348
966.80 0.1349
966.90 0.1349
967.00 0.135
967.10 0.135
967.20 0.135
967.30 0.1351
967.40 0.1351
967.50 0.1351
967.60 0.1351
967.70 0.1352
967.80 0.1352
967.90 0.1352
968.00 0.1353
968.10 0.1353
968.20 0.1353
968.30 0.1354
968.40 0.1354
968.50 0.1354
968.60 0.1354
968.70 0.1354
968.80 0.1354
968.90 0.1354
969.00 0.1355
969.10 0.1355
969.20 0.1355
969.30 0.1355
969.40 0.1355
969.50 0.1355
969.60 0.1355
969.70 0.1355
969.80 0.1356
969.90 0.1356
970.00 0.1356
970.10 0.1356
970.20 0.1356
970.30 0.1356
970.40 0.1356
970.50 0.1356
970.60 0.1356
970.70 0.1356
970.80 0.1356
970.90 0.1356
971.00 0.1356
971.10 0.1356
971.20 0.1356
971.30 0.1356
971.40 0.1356
971.50 0.1356
971.60 0.1356
971.70 0.1356
971.80 0.1356
971.90 0.1356
972.00 0.1356
972.10 0.1356
972.20 0.1355
972.30 0.1355
972.40 0.1355
972.50 0.1355
972.60 0.1355
972.70 0.1354
972.80 0.1354
972.90 0.1354
973.00 0.1354
973.10 0.1354
973.20 0.1354
973.30 0.1353
973.40 0.1353
973.50 0.1353
973.60 0.1353
973.70 0.1353
973.80 0.1353
973.90 0.1352
974.00 0.1352
974.10 0.1352
974.20 0.1352
974.30 0.1352
974.40 0.1351
974.50 0.1351
974.60 0.1351
974.70 0.1351
974.80 0.135
974.90 0.135
975.00 0.135
975.10 0.1349
975.20 0.1349
975.30 0.1349
975.40 0.1348
975.50 0.1348
975.60 0.1348
975.70 0.1347
975.80 0.1347
975.90 0.1347
976.00 0.1347
976.10 0.1346
976.20 0.1346
976.30 0.1346
976.40 0.1345
976.50 0.1345
976.60 0.1345
976.70 0.1344
976.80 0.1344
976.90 0.1344
977.00 0.1343
977.10 0.1343
977.20 0.1342
977.30 0.1342
977.40 0.1341
977.50 0.1341
977.60 0.134
977.70 0.134
977.80 0.1339
977.90 0.1339
978.00 0.1338
978.10 0.1338
978.20 0.1337
978.30 0.1337
978.40 0.1337
978.50 0.1336
978.60 0.1336
978.70 0.1335
978.80 0.1335
978.90 0.1334
979.00 0.1334
979.10 0.1333
979.20 0.1333
979.30 0.1332
979.40 0.1332
979.50 0.1331
979.60 0.1331
979.70 0.133
979.80 0.133
979.90 0.1329
980.00 0.1329
980.10 0.1328
980.20 0.1328
980.30 0.1327
980.40 0.1327
980.50 0.1326
980.60 0.1326
980.70 0.1325
980.80 0.1325
980.90 0.1324
981.00 0.1324
981.10 0.1323
981.20 0.1323
981.30 0.1322
981.40 0.1322
981.50 0.1321
981.60 0.1321
981.70 0.132
981.80 0.132
981.90 0.1319
982.00 0.1319
982.10 0.1318
982.20 0.1317
982.30 0.1317
982.40 0.1316
982.50 0.1315
982.60 0.1315
982.70 0.1314
982.80 0.1313
982.90 0.1313
983.00 0.1312
983.10 0.1311
983.20 0.131
983.30 0.131
983.40 0.1309
983.50 0.1308
983.60 0.1308
983.70 0.1307
983.80 0.1306
983.90 0.1306
984.00 0.1305
984.10 0.1304
984.20 0.1304
984.30 0.1303
984.40 0.1302
984.50 0.1302
984.60 0.1301
984.70 0.13
984.80 0.1299
984.90 0.1298
985.00 0.1297
985.10 0.1297
985.20 0.1296
985.30 0.1295
985.40 0.1294
985.50 0.1293
985.60 0.1292
985.70 0.1292
985.80 0.1291
985.90 0.129
986.00 0.1289
986.10 0.1288
986.20 0.1287
986.30 0.1286
986.40 0.1286
986.50 0.1285
986.60 0.1284
986.70 0.1283
986.80 0.1282
986.90 0.1281
987.00 0.128
987.10 0.1279
987.20 0.1278
987.30 0.1277
987.40 0.1276
987.50 0.1275
987.60 0.1274
987.70 0.1273
987.80 0.1272
987.90 0.1271
988.00 0.127
988.10 0.1269
988.20 0.1268
988.30 0.1267
988.40 0.1266
988.50 0.1265
988.60 0.1264
988.70 0.1263
988.80 0.1262
988.90 0.126
989.00 0.1259
989.10 0.1258
989.20 0.1257
989.30 0.1256
989.40 0.1254
989.50 0.1253
989.60 0.1252
989.70 0.1251
989.80 0.125
989.90 0.1248
990.00 0.1247
990.10 0.1246
990.20 0.1245
990.30 0.1244
990.40 0.1242
990.50 0.1241
990.60 0.124
990.70 0.1239
990.80 0.1237
990.90 0.1236
991.00 0.1234
991.10 0.1233
991.20 0.1231
991.30 0.123
991.40 0.1229
991.50 0.1227
991.60 0.1226
991.70 0.1224
991.80 0.1223
991.90 0.1222
992.00 0.122
992.10 0.1219
992.20 0.1217
992.30 0.1215
992.40 0.1214
992.50 0.1212
992.60 0.1211
992.70 0.1209
992.80 0.1207
992.90 0.1205
993.00 0.1204
993.10 0.1202
993.20 0.12
993.30 0.1198
993.40 0.1197
993.50 0.1195
993.60 0.1193
993.70 0.1191
993.80 0.1189
993.90 0.1188
994.00 0.1186
994.10 0.1184
994.20 0.1182
994.30 0.1181
994.40 0.1179
994.50 0.1177
994.60 0.1175
994.70 0.1173
994.80 0.1171
994.90 0.1169
995.00 0.1167
995.10 0.1165
995.20 0.1163
995.30 0.1161
995.40 0.1159
995.50 0.1157
995.60 0.1155
995.70 0.1152
995.80 0.115
995.90 0.1148
996.00 0.1145
996.10 0.1143
996.20 0.1141
996.30 0.1138
996.40 0.1136
996.50 0.1134
996.60 0.1131
996.70 0.1129
996.80 0.1127
996.90 0.1124
997.00 0.1122
997.10 0.112
997.20 0.1117
997.30 0.1114
997.40 0.1112
997.50 0.1109
997.60 0.1107
997.70 0.1104
997.80 0.1101
997.90 0.1098
998.00 0.1095
998.10 0.1092
998.20 0.1089
998.30 0.1086
998.40 0.1083
998.50 0.108
998.60 0.1077
998.70 0.1074
998.80 0.1071
998.90 0.1068
999.00 0.1065
999.10 0.1062
999.20 0.1059
999.30 0.1056
999.40 0.1053
999.50 0.105
999.60 0.1047
999.70 0.1043
999.80 0.104
999.90 0.1036
1000.00 0.1033
1000.10 0.1029
1000.20 0.1026
1000.30 0.1022
1000.40 0.1018
1000.50 0.1015
1000.60 0.1011
1000.70 0.1008
1000.80 0.1004
1000.90 0.1001
1001.00 0.0997
1001.10 0.09934
1001.20 0.09899
1001.30 0.09863
1001.40 0.09827
1001.50 0.09792
1001.60 0.09756
1001.70 0.09719
1001.80 0.09681
1001.90 0.09643
1002.00 0.09605
1002.10 0.09567
1002.20 0.0953
1002.30 0.09492
1002.40 0.09454
1002.50 0.09417
1002.60 0.09379
1002.70 0.09342
1002.80 0.09304
1002.90 0.09267
1003.00 0.09229
1003.10 0.09192
1003.20 0.09159
1003.30 0.09127
1003.40 0.09095
1003.50 0.09064
1003.60 0.09032
1003.70 0.09001
1003.80 0.08969
1003.90 0.08951
1004.00 0.08938
1004.10 0.08925
1004.20 0.08912
1004.30 0.08938
1004.40 0.08977
1004.50 0.0904
1004.60 0.09153
1004.70 0.09075
1004.80 0.08977
1004.90 0.08933
1005.00 0.0889
1005.10 0.08886
1005.20 0.08894
1005.30 0.08903
1005.40 0.08911
1005.50 0.08933
1005.60 0.08959
1005.70 0.08985
1005.80 0.09011
1005.90 0.09037
1006.00 0.09063
1006.10 0.09089
1006.20 0.09119
1006.30 0.0915
1006.40 0.0918
1006.50 0.09211
1006.60 0.09242
1006.70 0.09273
1006.80 0.09304
1006.90 0.09335
1007.00 0.09365
1007.10 0.09396
1007.20 0.09427
1007.30 0.09458
1007.40 0.09489
1007.50 0.0952
1007.60 0.09551
1007.70 0.0958
1007.80 0.09608
1007.90 0.09636
1008.00 0.09664
1008.10 0.09692
1008.20 0.0972
1008.30 0.09748
1008.40 0.09776
1008.50 0.09804
1008.60 0.09831
1008.70 0.09859
1008.80 0.09887
1008.90 0.09915
1009.00 0.09943
1009.10 0.09971
1009.20 0.09998
1009.30 0.1003
1009.40 0.1005
1009.50 0.1008
1009.60 0.1011
1009.70 0.1013
1009.80 0.1015
1009.90 0.1018
1010.00 0.102
1010.10 0.1022
1010.20 0.1024
1010.30 0.1026
1010.40 0.1028
1010.50 0.103
1010.60 0.1032
1010.70 0.1035
1010.80 0.1037
1010.90 0.1039
1011.00 0.1041
1011.10 0.1043
1011.20 0.1045
1011.30 0.1047
1011.40 0.1049
1011.50 0.1051
1011.60 0.1054
1011.70 0.1055
1011.80 0.1057
1011.90 0.1059
1012.00 0.1061
1012.10 0.1062
1012.20 0.1064
1012.30 0.1065
1012.40 0.1066
1012.50 0.1068
1012.60 0.1069
1012.70 0.1071
1012.80 0.1072
1012.90 0.1074
1013.00 0.1075
1013.10 0.1077
1013.20 0.1078
1013.30 0.108
1013.40 0.1081
1013.50 0.1083
1013.60 0.1084
1013.70 0.1085
1013.80 0.1086
1013.90 0.1088
1014.00 0.1089
1014.10 0.109
1014.20 0.1091
1014.30 0.1092
1014.40 0.1093
1014.50 0.1095
1014.60 0.1096
1014.70 0.1097
1014.80 0.1097
1014.90 0.1098
1015.00 0.1099
1015.10 0.11
1015.20 0.1101
1015.30 0.1102
1015.40 0.1103
1015.50 0.1104
1015.60 0.1104
1015.70 0.1105
1015.80 0.1106
1015.90 0.1107
1016.00 0.1108
1016.10 0.1109
1016.20 0.111
1016.30 0.111
1016.40 0.1111
1016.50 0.1112
1016.60 0.1113
1016.70 0.1114
1016.80 0.1114
1016.90 0.1115
1017.00 0.1116
1017.10 0.1116
1017.20 0.1117
1017.30 0.1117
1017.40 0.1118
1017.50 0.1118
1017.60 0.1119
1017.70 0.112
1017.80 0.112
1017.90 0.1121
1018.00 0.1121
1018.10 0.1122
1018.20 0.1122
1018.30 0.1123
1018.40 0.1123
1018.50 0.1124
1018.60 0.1124
1018.70 0.1125
1018.80 0.1125
1018.90 0.1126
1019.00 0.1126
1019.10 0.1126
1019.20 0.1127
1019.30 0.1127
1019.40 0.1127
1019.50 0.1128
1019.60 0.1128
1019.70 0.1128
1019.80 0.1129
1019.90 0.1129
1020.00 0.1129
1020.10 0.113
1020.20 0.113
1020.30 0.113
1020.40 0.1131
1020.50 0.1131
1020.60 0.1131
1020.70 0.1132
1020.80 0.1132
1020.90 0.1132
1021.00 0.1132
1021.10 0.1132
1021.20 0.1133
1021.30 0.1133
1021.40 0.1133
1021.50 0.1133
1021.60 0.1133
1021.70 0.1134
1021.80 0.1134
1021.90 0.1134
1022.00 0.1134
1022.10 0.1134
1022.20 0.1134
1022.30 0.1135
1022.40 0.1135
1022.50 0.1135
1022.60 0.1135
1022.70 0.1135
1022.80 0.1135
1022.90 0.1135
1023.00 0.1135
1023.10 0.1135
1023.20 0.1135
1023.30 0.1135
1023.40 0.1135
1023.50 0.1135
1023.60 0.1136
1023.70 0.1136
1023.80 0.1136
1023.90 0.1136
1024.00 0.1136
1024.10 0.1136
1024.20 0.1136
1024.30 0.1136
1024.40 0.1136
1024.50 0.1136
1024.60 0.1136
1024.70 0.1136
1024.80 0.1136
1024.90 0.1136
1025.00 0.1136
1025.10 0.1136
1025.20 0.1136
1025.30 0.1136
1025.40 0.1136
1025.50 0.1136
1025.60 0.1136
1025.70 0.1136
1025.80 0.1136
1025.90 0.1136
1026.00 0.1136
1026.10 0.1136
1026.20 0.1136
1026.30 0.1136
1026.40 0.1136
1026.50 0.1136
1026.60 0.1136
1026.70 0.1135
1026.80 0.1135
1026.90 0.1135
1027.00 0.1135
1027.10 0.1135
1027.20 0.1135
1027.30 0.1135
1027.40 0.1135
1027.50 0.1135
1027.60 0.1134
1027.70 0.1134
1027.80 0.1134
1027.90 0.1134
1028.00 0.1134
1028.10 0.1134
1028.20 0.1133
1028.30 0.1133
1028.40 0.1133
1028.50 0.1133
1028.60 0.1133
1028.70 0.1133
1028.80 0.1132
1028.90 0.1132
1029.00 0.1132
1029.10 0.1132
1029.20 0.1132
1029.30 0.1132
1029.40 0.1131
1029.50 0.1131
1029.60 0.1131
1029.70 0.1131
1029.80 0.1131
1029.90 0.1131
1030.00 0.1131
1030.10 0.113
1030.20 0.113
1030.30 0.113
1030.40 0.113
1030.50 0.113
1030.60 0.113
1030.70 0.1129
1030.80 0.1129
1030.90 0.1129
1031.00 0.1129
1031.10 0.1129
1031.20 0.1129
1031.30 0.1128
1031.40 0.1128
1031.50 0.1128
1031.60 0.1128
1031.70 0.1128
1031.80 0.1128
1031.90 0.1127
1032.00 0.1127
1032.10 0.1127
1032.20 0.1127
1032.30 0.1127
1032.40 0.1126
1032.50 0.1126
1032.60 0.1126
1032.70 0.1126
1032.80 0.1125
1032.90 0.1125
1033.00 0.1125
1033.10 0.1125
1033.20 0.1124
1033.30 0.1124
1033.40 0.1124
1033.50 0.1124
1033.60 0.1123
1033.70 0.1123
1033.80 0.1123
1033.90 0.1123
1034.00 0.1122
1034.10 0.1122
1034.20 0.1122
1034.30 0.1122
1034.40 0.1121
1034.50 0.1121
1034.60 0.1121
1034.70 0.1121
1034.80 0.112
1034.90 0.112
1035.00 0.112
1035.10 0.112
1035.20 0.1119
1035.30 0.1119
1035.40 0.1119
1035.50 0.1119
1035.60 0.1118
1035.70 0.1118
1035.80 0.1118
1035.90 0.1118
1036.00 0.1117
1036.10 0.1117
1036.20 0.1117
1036.30 0.1117
1036.40 0.1116
1036.50 0.1116
1036.60 0.1116
1036.70 0.1116
1036.80 0.1115
1036.90 0.1115
1037.00 0.1115
1037.10 0.1115
1037.20 0.1114
1037.30 0.1114
1037.40 0.1114
1037.50 0.1113
1037.60 0.1113
1037.70 0.1113
1037.80 0.1112
1037.90 0.1112
1038.00 0.1112
1038.10 0.1112
1038.20 0.1111
1038.30 0.1111
1038.40 0.1111
1038.50 0.111
1038.60 0.111
1038.70 0.111
1038.80 0.1109
1038.90 0.1109
1039.00 0.1109
1039.10 0.1108
1039.20 0.1108
1039.30 0.1108
1039.40 0.1108
1039.50 0.1107
1039.60 0.1107
1039.70 0.1107
1039.80 0.1106
1039.90 0.1106
1040.00 0.1106
1040.10 0.1105
1040.20 0.1105
1040.30 0.1105
1040.40 0.1105
1040.50 0.1104
1040.60 0.1104
1040.70 0.1104
1040.80 0.1103
1040.90 0.1103
1041.00 0.1103
1041.10 0.1102
1041.20 0.1102
1041.30 0.1102
1041.40 0.1102
1041.50 0.1101
1041.60 0.1101
1041.70 0.1101
1041.80 0.11
1041.90 0.11
1042.00 0.11
1042.10 0.1099
1042.20 0.1099
1042.30 0.1099
1042.40 0.1098
1042.50 0.1098
1042.60 0.1098
1042.70 0.1097
1042.80 0.1097
1042.90 0.1097
1043.00 0.1096
1043.10 0.1096
1043.20 0.1096
1043.30 0.1095
1043.40 0.1095
1043.50 0.1095
1043.60 0.1094
1043.70 0.1094
1043.80 0.1094
1043.90 0.1093
1044.00 0.1093
1044.10 0.1093
1044.20 0.1092
1044.30 0.1092
1044.40 0.1092
1044.50 0.1091
1044.60 0.1091
1044.70 0.1091
1044.80 0.109
1044.90 0.109
1045.00 0.109
1045.10 0.1089
1045.20 0.1089
1045.30 0.1089
1045.40 0.1088
1045.50 0.1088
1045.60 0.1088
1045.70 0.1087
1045.80 0.1087
1045.90 0.1087
1046.00 0.1086
1046.10 0.1086
1046.20 0.1086
1046.30 0.1085
1046.40 0.1085
1046.50 0.1085
1046.60 0.1084
1046.70 0.1084
1046.80 0.1084
1046.90 0.1083
1047.00 0.1083
1047.10 0.1083
1047.20 0.1082
1047.30 0.1082
1047.40 0.1082
1047.50 0.1081
1047.60 0.1081
1047.70 0.1081
1047.80 0.108
1047.90 0.108
1048.00 0.108
1048.10 0.1079
1048.20 0.1079
1048.30 0.1078
1048.40 0.1078
1048.50 0.1078
1048.60 0.1077
1048.70 0.1077
1048.80 0.1077
1048.90 0.1076
1049.00 0.1076
1049.10 0.1076
1049.20 0.1075
1049.30 0.1075
1049.40 0.1075
1049.50 0.1074
1049.60 0.1074
1049.70 0.1074
1049.80 0.1073
1049.90 0.1073
1050.00 0.1072
1050.10 0.1072
1050.20 0.1072
1050.30 0.1071
1050.40 0.1071
1050.50 0.1071
1050.60 0.107
1050.70 0.107
1050.80 0.107
1050.90 0.1069
1051.00 0.1069
1051.10 0.1069
1051.20 0.1068
1051.30 0.1068
1051.40 0.1067
1051.50 0.1067
1051.60 0.1067
1051.70 0.1066
1051.80 0.1066
1051.90 0.1066
1052.00 0.1065
1052.10 0.1065
1052.20 0.1065
1052.30 0.1064
1052.40 0.1064
1052.50 0.1063
1052.60 0.1063
1052.70 0.1063
1052.80 0.1062
1052.90 0.1062
1053.00 0.1062
1053.10 0.1061
1053.20 0.1061
1053.30 0.106
1053.40 0.106
1053.50 0.106
1053.60 0.1059
1053.70 0.1059
1053.80 0.1058
1053.90 0.1058
1054.00 0.1058
1054.10 0.1057
1054.20 0.1057
1054.30 0.1057
1054.40 0.1056
1054.50 0.1056
1054.60 0.1055
1054.70 0.1055
1054.80 0.1055
1054.90 0.1054
1055.00 0.1054
1055.10 0.1053
1055.20 0.1053
1055.30 0.1053
1055.40 0.1052
1055.50 0.1052
1055.60 0.1052
1055.70 0.1051
1055.80 0.1051
1055.90 0.105
1056.00 0.105
1056.10 0.105
1056.20 0.1049
1056.30 0.1049
1056.40 0.1049
1056.50 0.1048
1056.60 0.1048
1056.70 0.1047
1056.80 0.1047
1056.90 0.1047
1057.00 0.1046
1057.10 0.1046
1057.20 0.1045
1057.30 0.1045
1057.40 0.1045
1057.50 0.1044
1057.60 0.1044
1057.70 0.1043
1057.80 0.1043
1057.90 0.1043
1058.00 0.1042
1058.10 0.1042
1058.20 0.1041
1058.30 0.1041
1058.40 0.1041
1058.50 0.104
1058.60 0.104
1058.70 0.1039
1058.80 0.1039
1058.90 0.1039
1059.00 0.1038
1059.10 0.1038
1059.20 0.1037
1059.30 0.1037
1059.40 0.1036
1059.50 0.1036
1059.60 0.1036
1059.70 0.1035
1059.80 0.1035
1059.90 0.1034
1060.00 0.1034
1060.10 0.1034
1060.20 0.1033
1060.30 0.1033
1060.40 0.1032
1060.50 0.1032
1060.60 0.1032
1060.70 0.1031
1060.80 0.1031
1060.90 0.103
1061.00 0.103
1061.10 0.103
1061.20 0.1029
1061.30 0.1029
1061.40 0.1028
1061.50 0.1028
1061.60 0.1028
1061.70 0.1027
1061.80 0.1027
1061.90 0.1026
1062.00 0.1026
1062.10 0.1025
1062.20 0.1025
1062.30 0.1025
1062.40 0.1024
1062.50 0.1024
1062.60 0.1023
1062.70 0.1023
1062.80 0.1022
1062.90 0.1022
1063.00 0.1021
1063.10 0.1021
1063.20 0.102
1063.30 0.102
1063.40 0.1019
1063.50 0.1019
1063.60 0.1019
1063.70 0.1018
1063.80 0.1018
1063.90 0.1017
1064.00 0.1017
1064.10 0.1016
1064.20 0.1016
1064.30 0.1015
1064.40 0.1015
1064.50 0.1014
1064.60 0.1014
1064.70 0.1013
1064.80 0.1013
1064.90 0.1013
1065.00 0.1012
1065.10 0.1012
1065.20 0.1011
1065.30 0.1011
1065.40 0.101
1065.50 0.101
1065.60 0.1009
1065.70 0.1009
1065.80 0.1008
1065.90 0.1008
1066.00 0.1007
1066.10 0.1007
1066.20 0.1007
1066.30 0.1006
1066.40 0.1006
1066.50 0.1005
1066.60 0.1005
1066.70 0.1004
1066.80 0.1004
1066.90 0.1003
1067.00 0.1003
1067.10 0.1002
1067.20 0.1002
1067.30 0.1001
1067.40 0.1001
1067.50 0.1
1067.60 0.09996
1067.70 0.0999
1067.80 0.09985
1067.90 0.09979
1068.00 0.09974
1068.10 0.09968
1068.20 0.09963
1068.30 0.09957
1068.40 0.09952
1068.50 0.09946
1068.60 0.09941
1068.70 0.09936
1068.80 0.0993
1068.90 0.09925
1069.00 0.09919
1069.10 0.09914
1069.20 0.09908
1069.30 0.09903
1069.40 0.09897
1069.50 0.09892
1069.60 0.09886
1069.70 0.09881
1069.80 0.09875
1069.90 0.0987
1070.00 0.09865
1070.10 0.09859
1070.20 0.09854
1070.30 0.09848
1070.40 0.09843
1070.50 0.09837
1070.60 0.09832
1070.70 0.09826
1070.80 0.09821
1070.90 0.09816
1071.00 0.0981
1071.10 0.09805
1071.20 0.09799
1071.30 0.09794
1071.40 0.09789
1071.50 0.09783
1071.60 0.09778
1071.70 0.09772
1071.80 0.09767
1071.90 0.09761
1072.00 0.09756
1072.10 0.0975
1072.20 0.09743
1072.30 0.09737
1072.40 0.09731
1072.50 0.09725
1072.60 0.09718
1072.70 0.09712
1072.80 0.09706
1072.90 0.097
1073.00 0.09693
1073.10 0.09687
1073.20 0.09681
1073.30 0.09675
1073.40 0.09668
1073.50 0.09662
1073.60 0.09654
1073.70 0.09647
1073.80 0.09639
1073.90 0.09632
1074.00 0.09625
1074.10 0.09617
1074.20 0.0961
1074.30 0.09603
1074.40 0.09595
1074.50 0.09588
1074.60 0.0958
1074.70 0.09573
1074.80 0.09566
1074.90 0.09558
1075.00 0.09551
1075.10 0.09544
1075.20 0.09536
1075.30 0.09529
1075.40 0.09522
1075.50 0.09514
1075.60 0.09507
1075.70 0.095
1075.80 0.09492
1075.90 0.09485
1076.00 0.09478
1076.10 0.0947
1076.20 0.09463
1076.30 0.09456
1076.40 0.09448
1076.50 0.09441
1076.60 0.09434
1076.70 0.09426
1076.80 0.09419
1076.90 0.09412
1077.00 0.09404
1077.10 0.09396
1077.20 0.09388
1077.30 0.0938
1077.40 0.09371
1077.50 0.09363
1077.60 0.09353
1077.70 0.09344
1077.80 0.09335
1077.90 0.09326
1078.00 0.09316
1078.10 0.09307
1078.20 0.09298
1078.30 0.09288
1078.40 0.09279
1078.50 0.0927
1078.60 0.09261
1078.70 0.09252
1078.80 0.09242
1078.90 0.09233
1079.00 0.09224
1079.10 0.09215
1079.20 0.09205
1079.30 0.09196
1079.40 0.09187
1079.50 0.09177
1079.60 0.09166
1079.70 0.09155
1079.80 0.09145
1079.90 0.09134
1080.00 0.09123
1080.10 0.09112
1080.20 0.09101
1080.30 0.0909
1080.40 0.0908
1080.50 0.09069
1080.60 0.09058
1080.70 0.09047
1080.80 0.09036
1080.90 0.09025
1081.00 0.09015
1081.10 0.09004
1081.20 0.08993
1081.30 0.08982
1081.40 0.08971
1081.50 0.0896
1081.60 0.08948
1081.70 0.08935
1081.80 0.08923
1081.90 0.0891
1082.00 0.08897
1082.10 0.08884
1082.20 0.0887
1082.30 0.08857
1082.40 0.08843
1082.50 0.0883
1082.60 0.08816
1082.70 0.08803
1082.80 0.08789
1082.90 0.08776
1083.00 0.08762
1083.10 0.08749
1083.20 0.08735
1083.30 0.08722
1083.40 0.08708
1083.50 0.08694
1083.60 0.08679
1083.70 0.08664
1083.80 0.08649
1083.90 0.08633
1084.00 0.08618
1084.10 0.08603
1084.20 0.08588
1084.30 0.08573
1084.40 0.08557
1084.50 0.08541
1084.60 0.08523
1084.70 0.08505
1084.80 0.08487
1084.90 0.08469
1085.00 0.08451
1085.10 0.08433
1085.20 0.08415
1085.30 0.08397
1085.40 0.08379
1085.50 0.08361
1085.60 0.08343
1085.70 0.08325
1085.80 0.08307
1085.90 0.08289
1086.00 0.08271
1086.10 0.08253
1086.20 0.08235
1086.30 0.08217
1086.40 0.08199
1086.50 0.0818
1086.60 0.0816
1086.70 0.08139
1086.80 0.08118
1086.90 0.08098
1087.00 0.08077
1087.10 0.08054
1087.20 0.08031
1087.30 0.08008
1087.40 0.07985
1087.50 0.07962
1087.60 0.07939
1087.70 0.07916
1087.80 0.07893
1087.90 0.07871
1088.00 0.07848
1088.10 0.07825
1088.20 0.07802
1088.30 0.07779
1088.40 0.07756
1088.50 0.07732
1088.60 0.07706
1088.70 0.07679
1088.80 0.07652
1088.90 0.07626
1089.00 0.07599
1089.10 0.07573
1089.20 0.07546
1089.30 0.0752
1089.40 0.07493
1089.50 0.07467
1089.60 0.07441
1089.70 0.07414
1089.80 0.07388
1089.90 0.07361
1090.00 0.07335
1090.10 0.07308
1090.20 0.07282
1090.30 0.07256
1090.40 0.07229
1090.50 0.07202
1090.60 0.07173
1090.70 0.07143
1090.80 0.07114
1090.90 0.07085
1091.00 0.07055
1091.10 0.07026
1091.20 0.06997
1091.30 0.06968
1091.40 0.06938
1091.50 0.06909
1091.60 0.0688
1091.70 0.06851
1091.80 0.06822
1091.90 0.06792
1092.00 0.06763
1092.10 0.06731
1092.20 0.06698
1092.30 0.06666
1092.40 0.06634
1092.50 0.06602
1092.60 0.06569
1092.70 0.06537
1092.80 0.06503
1092.90 0.06469
1093.00 0.06435
1093.10 0.06403
1093.20 0.06377
1093.30 0.06352
1093.40 0.0637
1093.50 0.06395
1093.60 0.06347
1093.70 0.06359
1093.80 0.06382
1093.90 0.06407
1094.00 0.06437
1094.10 0.06467
1094.20 0.06497
1094.30 0.06527
1094.40 0.06555
1094.50 0.06583
1094.60 0.06611
1094.70 0.06639
1094.80 0.06667
1094.90 0.06695
1095.00 0.06722
1095.10 0.06747
1095.20 0.06772
1095.30 0.06797
1095.40 0.06821
1095.50 0.06846
1095.60 0.06871
1095.70 0.06895
1095.80 0.0692
1095.90 0.06945
1096.00 0.0697
1096.10 0.06994
1096.20 0.07019
1096.30 0.07044
1096.40 0.07068
1096.50 0.07092
1096.60 0.07115
1096.70 0.07138
1096.80 0.0716
1096.90 0.07183
1097.00 0.07206
1097.10 0.07227
1097.20 0.07247
1097.30 0.07268
1097.40 0.07289
1097.50 0.0731
1097.60 0.0733
1097.70 0.07351
1097.80 0.07372
1097.90 0.07393
1098.00 0.07413
1098.10 0.07434
1098.20 0.07455
1098.30 0.07476
1098.40 0.07496
1098.50 0.07516
1098.60 0.07532
1098.70 0.07549
1098.80 0.07566
1098.90 0.07583
1099.00 0.07599
1099.10 0.07616
1099.20 0.07633
1099.30 0.07649
1099.40 0.07666
1099.50 0.07683
1099.60 0.07699
1099.70 0.07716
1099.80 0.07732
1099.90 0.07749
1100.00 0.07766
1100.10 0.07782
1100.20 0.07799
1100.30 0.07816
1100.40 0.07832
1100.50 0.07847
1100.60 0.0786
1100.70 0.07873
1100.80 0.07885
1100.90 0.07898
1101.00 0.0791
1101.10 0.07923
1101.20 0.07935
1101.30 0.07948
1101.40 0.0796
1101.50 0.07973
1101.60 0.07985
1101.70 0.07998
1101.80 0.0801
1101.90 0.08023
1102.00 0.08035
1102.10 0.08046
1102.20 0.08057
1102.30 0.08067
1102.40 0.08078
1102.50 0.08088
1102.60 0.08097
1102.70 0.08107
1102.80 0.08116
1102.90 0.08125
1103.00 0.08134
1103.10 0.08143
1103.20 0.08152
1103.30 0.08162
1103.40 0.08171
1103.50 0.08179
1103.60 0.08186
1103.70 0.08193
1103.80 0.082
1103.90 0.08207
1104.00 0.08215
1104.10 0.08222
1104.20 0.08229
1104.30 0.08236
1104.40 0.08243
1104.50 0.0825
1104.60 0.08257
1104.70 0.08264
1104.80 0.08271
1104.90 0.08278
1105.00 0.08285
1105.10 0.08292
1105.20 0.08299
1105.30 0.08306
1105.40 0.08313
1105.50 0.08319
1105.60 0.08324
1105.70 0.08329
1105.80 0.08334
1105.90 0.08339
1106.00 0.08344
1106.10 0.08349
1106.20 0.08354
1106.30 0.08359
1106.40 0.08364
1106.50 0.08369
1106.60 0.08374
1106.70 0.08379
1106.80 0.08384
1106.90 0.08389
1107.00 0.08394
1107.10 0.08398
1107.20 0.08402
1107.30 0.08406
1107.40 0.0841
1107.50 0.08414
1107.60 0.08417
1107.70 0.0842
1107.80 0.08423
1107.90 0.08426
1108.00 0.08429
1108.10 0.08432
1108.20 0.08435
1108.30 0.08438
1108.40 0.08441
1108.50 0.08444
1108.60 0.08447
1108.70 0.0845
1108.80 0.08453
1108.90 0.08456
1109.00 0.08459
1109.10 0.08462
1109.20 0.08465
1109.30 0.08469
1109.40 0.08472
1109.50 0.08474
1109.60 0.08476
1109.70 0.08477
1109.80 0.08479
1109.90 0.08481
1110.00 0.08482
1110.10 0.08484
1110.20 0.08486
1110.30 0.08487
1110.40 0.08489
1110.50 0.08491
1110.60 0.08492
1110.70 0.08494
1110.80 0.08496
1110.90 0.08497
1111.00 0.08499
1111.10 0.08501
1111.20 0.08502
1111.30 0.08504
1111.40 0.08506
1111.50 0.08507
1111.60 0.08509
1111.70 0.08511
1111.80 0.08512
1111.90 0.08514
1112.00 0.08516
1112.10 0.08516
1112.20 0.08517
1112.30 0.08517
1112.40 0.08518
1112.50 0.08519
1112.60 0.08519
1112.70 0.0852
1112.80 0.0852
1112.90 0.08521
1113.00 0.08522
1113.10 0.08522
1113.20 0.08523
1113.30 0.08523
1113.40 0.08524
1113.50 0.08524
1113.60 0.08524
1113.70 0.08524
1113.80 0.08524
1113.90 0.08524
1114.00 0.08524
1114.10 0.08524
1114.20 0.08523
1114.30 0.08523
1114.40 0.08523
1114.50 0.08523
1114.60 0.08523
1114.70 0.08523
1114.80 0.08523
1114.90 0.08523
1115.00 0.08522
1115.10 0.08522
1115.20 0.08522
1115.30 0.08522
1115.40 0.08522
1115.50 0.08522
1115.60 0.08522
1115.70 0.08522
1115.80 0.08522
1115.90 0.08521
1116.00 0.08521
1116.10 0.08521
1116.20 0.08521
1116.30 0.08521
1116.40 0.08521
1116.50 0.08521
1116.60 0.08521
1116.70 0.0852
1116.80 0.0852
1116.90 0.0852
1117.00 0.0852
1117.10 0.08519
1117.20 0.08518
1117.30 0.08517
1117.40 0.08516
1117.50 0.08514
1117.60 0.08513
1117.70 0.08512
1117.80 0.08511
1117.90 0.0851
1118.00 0.08509
1118.10 0.08508
1118.20 0.08507
1118.30 0.08505
1118.40 0.08504
1118.50 0.08503
1118.60 0.08502
1118.70 0.08501
1118.80 0.085
1118.90 0.08499
1119.00 0.08498
1119.10 0.08497
1119.20 0.08495
1119.30 0.08494
1119.40 0.08493
1119.50 0.08492
1119.60 0.08491
1119.70 0.0849
1119.80 0.08489
1119.90 0.08488
1120.00 0.08487
1120.10 0.08485
1120.20 0.08484
1120.30 0.08483
1120.40 0.08482
1120.50 0.08481
1120.60 0.0848
1120.70 0.08479
1120.80 0.08478
1120.90 0.08477
1121.00 0.08475
1121.10 0.08474
1121.20 0.08473
1121.30 0.08472
1121.40 0.08471
1121.50 0.0847
1121.60 0.08469
1121.70 0.08468
1121.80 0.08467
1121.90 0.08465
1122.00 0.08464
1122.10 0.08463
1122.20 0.08461
1122.30 0.08459
1122.40 0.08458
1122.50 0.08456
1122.60 0.08454
1122.70 0.08452
1122.80 0.08451
1122.90 0.08449
1123.00 0.08447
1123.10 0.08446
1123.20 0.08444
1123.30 0.08442
1123.40 0.08441
1123.50 0.08439
1123.60 0.08437
1123.70 0.08436
1123.80 0.08434
1123.90 0.08432
1124.00 0.08431
1124.10 0.08429
1124.20 0.08427
1124.30 0.08426
1124.40 0.08424
1124.50 0.08422
1124.60 0.08421
1124.70 0.08419
1124.80 0.08417
1124.90 0.08415
1125.00 0.08414
1125.10 0.08412
1125.20 0.0841
1125.30 0.08409
1125.40 0.08407
1125.50 0.08405
1125.60 0.08404
1125.70 0.08402
1125.80 0.084
1125.90 0.08399
1126.00 0.08397
1126.10 0.08395
1126.20 0.08394
1126.30 0.08392
1126.40 0.0839
1126.50 0.08389
1126.60 0.08387
1126.70 0.08385
1126.80 0.08384
1126.90 0.08382
1127.00 0.0838
1127.10 0.08378
1127.20 0.08376
1127.30 0.08374
1127.40 0.08372
1127.50 0.0837
1127.60 0.08368
1127.70 0.08366
1127.80 0.08364
1127.90 0.08362
1128.00 0.0836
1128.10 0.08358
1128.20 0.08356
1128.30 0.08354
1128.40 0.08352
1128.50 0.0835
1128.60 0.08348
1128.70 0.08346
1128.80 0.08344
1128.90 0.08342
1129.00 0.0834
1129.10 0.08338
1129.20 0.08336
1129.30 0.08334
1129.40 0.08332
1129.50 0.0833
1129.60 0.08328
1129.70 0.08325
1129.80 0.08323
1129.90 0.08321
1130.00 0.08319
1130.10 0.08317
1130.20 0.08315
1130.30 0.08313
1130.40 0.08311
1130.50 0.08309
1130.60 0.08307
1130.70 0.08305
1130.80 0.08303
1130.90 0.08301
1131.00 0.08299
1131.10 0.08297
1131.20 0.08295
1131.30 0.08293
1131.40 0.08291
1131.50 0.08289
1131.60 0.08287
1131.70 0.08285
1131.80 0.08283
1131.90 0.08281
1132.00 0.08279
1132.10 0.08277
1132.20 0.08275
1132.30 0.08272
1132.40 0.0827
1132.50 0.08268
1132.60 0.08266
1132.70 0.08264
1132.80 0.08262
1132.90 0.08259
1133.00 0.08257
1133.10 0.08255
1133.20 0.08253
1133.30 0.08251
1133.40 0.08249
1133.50 0.08246
1133.60 0.08244
1133.70 0.08242
1133.80 0.0824
1133.90 0.08238
1134.00 0.08236
1134.10 0.08233
1134.20 0.08231
1134.30 0.08229
1134.40 0.08227
1134.50 0.08225
1134.60 0.08223
1134.70 0.0822
1134.80 0.08218
1134.90 0.08216
1135.00 0.08214
1135.10 0.08212
1135.20 0.0821
1135.30 0.08207
1135.40 0.08205
1135.50 0.08203
1135.60 0.08201
1135.70 0.08199
1135.80 0.08197
1135.90 0.08194
1136.00 0.08192
1136.10 0.0819
1136.20 0.08188
1136.30 0.08186
1136.40 0.08184
1136.50 0.08182
1136.60 0.08179
1136.70 0.08177
1136.80 0.08175
1136.90 0.08173
1137.00 0.08171
1137.10 0.08169
1137.20 0.08166
1137.30 0.08164
1137.40 0.08162
1137.50 0.08159
1137.60 0.08157
1137.70 0.08155
1137.80 0.08152
1137.90 0.0815
1138.00 0.08148
1138.10 0.08146
1138.20 0.08143
1138.30 0.08141
1138.40 0.08139
1138.50 0.08136
1138.60 0.08134
1138.70 0.08132
1138.80 0.0813
1138.90 0.08127
1139.00 0.08125
1139.10 0.08123
1139.20 0.0812
1139.30 0.08118
1139.40 0.08116
1139.50 0.08114
1139.60 0.08111
1139.70 0.08109
1139.80 0.08107
1139.90 0.08104
1140.00 0.08102
1140.10 0.081
1140.20 0.08098
1140.30 0.08095
1140.40 0.08093
1140.50 0.08091
1140.60 0.08089
1140.70 0.08086
1140.80 0.08084
1140.90 0.08082
1141.00 0.08079
1141.10 0.08077
1141.20 0.08075
1141.30 0.08073
1141.40 0.0807
1141.50 0.08068
1141.60 0.08066
1141.70 0.08064
1141.80 0.08061
1141.90 0.08059
1142.00 0.08057
1142.10 0.08054
1142.20 0.08052
1142.30 0.0805
1142.40 0.08048
1142.50 0.08045
1142.60 0.08043
1142.70 0.08041
1142.80 0.08038
1142.90 0.08036
1143.00 0.08034
1143.10 0.08031
1143.20 0.08029
1143.30 0.08027
1143.40 0.08024
1143.50 0.08022
1143.60 0.0802
1143.70 0.08017
1143.80 0.08015
1143.90 0.08013
1144.00 0.0801
1144.10 0.08008
1144.20 0.08006
1144.30 0.08004
1144.40 0.08001
1144.50 0.07999
1144.60 0.07997
1144.70 0.07994
1144.80 0.07992
1144.90 0.0799
1145.00 0.07987
1145.10 0.07985
1145.20 0.07983
1145.30 0.07981
1145.40 0.07978
1145.50 0.07976
1145.60 0.07974
1145.70 0.07971
1145.80 0.07969
1145.90 0.07967
1146.00 0.07964
1146.10 0.07962
1146.20 0.0796
1146.30 0.07958
1146.40 0.07955
1146.50 0.07953
1146.60 0.07951
1146.70 0.07948
1146.80 0.07946
1146.90 0.07944
1147.00 0.07942
1147.10 0.07939
1147.20 0.07937
1147.30 0.07935
1147.40 0.07932
1147.50 0.0793
1147.60 0.07928
1147.70 0.07925
1147.80 0.07923
1147.90 0.07921
1148.00 0.07918
1148.10 0.07916
1148.20 0.07914
1148.30 0.07911
1148.40 0.07909
1148.50 0.07907
1148.60 0.07905
1148.70 0.07902
1148.80 0.079
1148.90 0.07898
1149.00 0.07895
1149.10 0.07893
1149.20 0.07891
1149.30 0.07888
1149.40 0.07886
1149.50 0.07884
1149.60 0.07881
1149.70 0.07879
1149.80 0.07877
1149.90 0.07875
1150.00 0.07872
1150.10 0.0787
1150.20 0.07868
1150.30 0.07865
1150.40 0.07863
1150.50 0.07861
1150.60 0.07858
1150.70 0.07856
1150.80 0.07854
1150.90 0.07852
1151.00 0.07849
1151.10 0.07847
1151.20 0.07845
1151.30 0.07842
1151.40 0.0784
1151.50 0.07838
1151.60 0.07836
1151.70 0.07833
1151.80 0.07831
1151.90 0.07829
1152.00 0.07826
1152.10 0.07824
1152.20 0.07822
1152.30 0.07819
1152.40 0.07817
1152.50 0.07815
1152.60 0.07813
1152.70 0.0781
1152.80 0.07808
1152.90 0.07806
1153.00 0.07803
1153.10 0.07801
1153.20 0.07799
1153.30 0.07796
1153.40 0.07794
1153.50 0.07792
1153.60 0.07789
1153.70 0.07787
1153.80 0.07785
1153.90 0.07783
1154.00 0.0778
1154.10 0.07778
1154.20 0.07776
1154.30 0.07773
1154.40 0.07771
1154.50 0.07769
1154.60 0.07766
1154.70 0.07764
1154.80 0.07762
1154.90 0.0776
1155.00 0.07757
1155.10 0.07755
1155.20 0.07753
1155.30 0.0775
1155.40 0.07748
1155.50 0.07746
1155.60 0.07743
1155.70 0.07741
1155.80 0.07739
1155.90 0.07737
1156.00 0.07734
1156.10 0.07732
1156.20 0.0773
1156.30 0.07727
1156.40 0.07725
1156.50 0.07723
1156.60 0.07721
1156.70 0.07718
1156.80 0.07716
1156.90 0.07714
1157.00 0.07711
1157.10 0.07709
1157.20 0.07707
1157.30 0.07705
1157.40 0.07702
1157.50 0.077
1157.60 0.07698
1157.70 0.07695
1157.80 0.07693
1157.90 0.07691
1158.00 0.07688
1158.10 0.07686
1158.20 0.07684
1158.30 0.07682
1158.40 0.07679
1158.50 0.07677
1158.60 0.07675
1158.70 0.07672
1158.80 0.0767
1158.90 0.07668
1159.00 0.07666
1159.10 0.07663
1159.20 0.07661
1159.30 0.07659
1159.40 0.07656
1159.50 0.07654
1159.60 0.07652
1159.70 0.0765
1159.80 0.07647
1159.90 0.07645
1160.00 0.07643
1160.10 0.07641
1160.20 0.07638
1160.30 0.07636
1160.40 0.07634
1160.50 0.07631
1160.60 0.07629
1160.70 0.07627
1160.80 0.07625
1160.90 0.07622
1161.00 0.0762
1161.10 0.07618
1161.20 0.07615
1161.30 0.07613
1161.40 0.07611
1161.50 0.07609
1161.60 0.07606
1161.70 0.07604
1161.80 0.07602
1161.90 0.076
1162.00 0.07597
1162.10 0.07595
1162.20 0.07593
1162.30 0.07591
1162.40 0.07588
1162.50 0.07586
1162.60 0.07584
1162.70 0.07581
1162.80 0.07579
1162.90 0.07577
1163.00 0.07575
1163.10 0.07572
1163.20 0.0757
1163.30 0.07568
1163.40 0.07566
1163.50 0.07563
1163.60 0.07561
1163.70 0.07559
1163.80 0.07557
1163.90 0.07554
1164.00 0.07552
1164.10 0.0755
1164.20 0.07548
1164.30 0.07545
1164.40 0.07543
1164.50 0.07541
1164.60 0.07539
1164.70 0.07536
1164.80 0.07534
1164.90 0.07532
1165.00 0.0753
1165.10 0.07527
1165.20 0.07525
1165.30 0.07523
1165.40 0.07521
1165.50 0.07518
1165.60 0.07516
1165.70 0.07514
1165.80 0.07512
1165.90 0.07509
1166.00 0.07507
1166.10 0.07505
1166.20 0.07503
1166.30 0.075
1166.40 0.07498
1166.50 0.07496
1166.60 0.07494
1166.70 0.07491
1166.80 0.07489
1166.90 0.07487
1167.00 0.07485
1167.10 0.07482
1167.20 0.0748
1167.30 0.07478
1167.40 0.07476
1167.50 0.07473
1167.60 0.07471
1167.70 0.07469
1167.80 0.07467
1167.90 0.07465
1168.00 0.07462
1168.10 0.0746
1168.20 0.07458
1168.30 0.07456
1168.40 0.07453
1168.50 0.07451
1168.60 0.07449
1168.70 0.07447
1168.80 0.07444
1168.90 0.07442
1169.00 0.0744
1169.10 0.07438
1169.20 0.07435
1169.30 0.07433
1169.40 0.07431
1169.50 0.07429
1169.60 0.07427
1169.70 0.07424
1169.80 0.07422
1169.90 0.0742
1170.00 0.07418
1170.10 0.07415
1170.20 0.07413
1170.30 0.07411
1170.40 0.07409
1170.50 0.07406
1170.60 0.07404
1170.70 0.07402
1170.80 0.074
1170.90 0.07398
1171.00 0.07395
1171.10 0.07393
1171.20 0.07391
1171.30 0.07389
1171.40 0.07386
1171.50 0.07384
1171.60 0.07382
1171.70 0.0738
1171.80 0.07378
1171.90 0.07375
1172.00 0.07373
1172.10 0.07371
1172.20 0.07369
1172.30 0.07367
1172.40 0.07364
1172.50 0.07362
1172.60 0.0736
1172.70 0.07358
1172.80 0.07356
1172.90 0.07353
1173.00 0.07351
1173.10 0.07349
1173.20 0.07347
1173.30 0.07345
1173.40 0.07342
1173.50 0.0734
1173.60 0.07338
1173.70 0.07336
1173.80 0.07334
1173.90 0.07331
1174.00 0.07329
1174.10 0.07327
1174.20 0.07325
1174.30 0.07323
1174.40 0.0732
1174.50 0.07318
1174.60 0.07316
1174.70 0.07314
1174.80 0.07312
1174.90 0.07309
1175.00 0.07307
1175.10 0.07305
1175.20 0.07303
1175.30 0.07301
1175.40 0.07298
1175.50 0.07296
1175.60 0.07294
1175.70 0.07292
1175.80 0.0729
1175.90 0.07288
1176.00 0.07285
1176.10 0.07283
1176.20 0.07281
1176.30 0.07279
1176.40 0.07277
1176.50 0.07274
1176.60 0.07272
1176.70 0.0727
1176.80 0.07268
1176.90 0.07266
1177.00 0.07264
1177.10 0.07261
1177.20 0.07259
1177.30 0.07257
1177.40 0.07255
1177.50 0.07253
1177.60 0.0725
1177.70 0.07248
1177.80 0.07246
1177.90 0.07244
1178.00 0.07242
1178.10 0.0724
1178.20 0.07237
1178.30 0.07235
1178.40 0.07233
1178.50 0.07231
1178.60 0.07229
1178.70 0.07227
1178.80 0.07224
1178.90 0.07222
1179.00 0.0722
1179.10 0.07218
1179.20 0.07216
1179.30 0.07214
1179.40 0.07211
1179.50 0.07209
1179.60 0.07207
1179.70 0.07205
1179.80 0.07203
1179.90 0.07201
1180.00 0.07198
1180.10 0.07196
1180.20 0.07194
1180.30 0.07192
1180.40 0.0719
1180.50 0.07188
1180.60 0.07185
1180.70 0.07183
1180.80 0.07181
1180.90 0.07179
1181.00 0.07177
1181.10 0.07175
1181.20 0.07172
1181.30 0.0717
1181.40 0.07168
1181.50 0.07166
1181.60 0.07164
1181.70 0.07162
1181.80 0.0716
1181.90 0.07157
1182.00 0.07155
1182.10 0.07153
1182.20 0.07151
1182.30 0.07149
1182.40 0.07147
1182.50 0.07145
1182.60 0.07142
1182.70 0.0714
1182.80 0.07138
1182.90 0.07136
1183.00 0.07134
1183.10 0.07132
1183.20 0.0713
1183.30 0.07127
1183.40 0.07125
1183.50 0.07123
1183.60 0.07121
1183.70 0.07119
1183.80 0.07117
1183.90 0.07115
1184.00 0.07112
1184.10 0.0711
1184.20 0.07108
1184.30 0.07106
1184.40 0.07104
1184.50 0.07102
1184.60 0.071
1184.70 0.07098
1184.80 0.07095
1184.90 0.07093
1185.00 0.07091
1185.10 0.07089
1185.20 0.07087
1185.30 0.07085
1185.40 0.07083
1185.50 0.07081
1185.60 0.07078
1185.70 0.07076
1185.80 0.07074
1185.90 0.07072
1186.00 0.0707
1186.10 0.07068
1186.20 0.07066
1186.30 0.07064
1186.40 0.07061
1186.50 0.07059
1186.60 0.07057
1186.70 0.07055
1186.80 0.07053
1186.90 0.07051
1187.00 0.07049
1187.10 0.07047
1187.20 0.07045
1187.30 0.07042
1187.40 0.0704
1187.50 0.07038
1187.60 0.07036
1187.70 0.07034
1187.80 0.07032
1187.90 0.0703
1188.00 0.07028
1188.10 0.07025
1188.20 0.07023
1188.30 0.07021
1188.40 0.07019
1188.50 0.07017
1188.60 0.07015
1188.70 0.07013
1188.80 0.07011
1188.90 0.07009
1189.00 0.07006
1189.10 0.07004
1189.20 0.07002
1189.30 0.07
1189.40 0.06998
1189.50 0.06996
1189.60 0.06994
1189.70 0.06992
1189.80 0.0699
1189.90 0.06988
1190.00 0.06985
1190.10 0.06983
1190.20 0.06981
1190.30 0.06979
1190.40 0.06977
1190.50 0.06975
1190.60 0.06973
1190.70 0.06971
1190.80 0.06969
1190.90 0.06967
1191.00 0.06964
1191.10 0.06962
1191.20 0.0696
1191.30 0.06958
1191.40 0.06956
1191.50 0.06954
1191.60 0.06952
1191.70 0.0695
1191.80 0.06948
1191.90 0.06946
1192.00 0.06944
1192.10 0.06941
1192.20 0.06939
1192.30 0.06937
1192.40 0.06935
1192.50 0.06933
1192.60 0.06931
1192.70 0.06929
1192.80 0.06927
1192.90 0.06925
1193.00 0.06923
1193.10 0.06921
1193.20 0.06919
1193.30 0.06916
1193.40 0.06914
1193.50 0.06912
1193.60 0.0691
1193.70 0.06908
1193.80 0.06906
1193.90 0.06904
1194.00 0.06902
1194.10 0.069
1194.20 0.06898
1194.30 0.06896
1194.40 0.06894
1194.50 0.06892
1194.60 0.0689
1194.70 0.06887
1194.80 0.06885
1194.90 0.06883
1195.00 0.06881
1195.10 0.06879
1195.20 0.06877
1195.30 0.06875
1195.40 0.06873
1195.50 0.06871
1195.60 0.06869
1195.70 0.06867
1195.80 0.06865
1195.90 0.06863
1196.00 0.06861
1196.10 0.06859
1196.20 0.06857
1196.30 0.06854
1196.40 0.06852
1196.50 0.0685
1196.60 0.06848
1196.70 0.06846
1196.80 0.06844
1196.90 0.06842
1197.00 0.0684
1197.10 0.06838
1197.20 0.06836
1197.30 0.06834
1197.40 0.06832
1197.50 0.0683
1197.60 0.06828
1197.70 0.06826
1197.80 0.06824
1197.90 0.06822
1198.00 0.0682
1198.10 0.06817
1198.20 0.06815
1198.30 0.06813
1198.40 0.06811
1198.50 0.06809
1198.60 0.06807
1198.70 0.06805
1198.80 0.06803
1198.90 0.06801
1199.00 0.06799
1199.10 0.06797
1199.20 0.06795
1199.30 0.06793
1199.40 0.06791
1199.50 0.06789
1199.60 0.06787
1199.70 0.06785
1199.80 0.06783
1199.90 0.06781
1200.00 0
