# Version 2.1 - nm, norm@500 to 1, cut digits, bergeron_9000_80.dat_9000
# Wavelength(nm)  Flambda(ergs/cm^s/s/nm)
300.00 1.559
300.10 1.558
300.20 1.558
300.30 1.558
300.40 1.558
300.50 1.557
300.60 1.557
300.70 1.557
300.80 1.556
300.90 1.556
301.00 1.556
301.10 1.555
301.20 1.555
301.30 1.555
301.40 1.554
301.50 1.554
301.60 1.554
301.70 1.553
301.80 1.553
301.90 1.553
302.00 1.552
302.10 1.552
302.20 1.552
302.30 1.551
302.40 1.551
302.50 1.55
302.60 1.55
302.70 1.55
302.80 1.549
302.90 1.549
303.00 1.549
303.10 1.548
303.20 1.548
303.30 1.548
303.40 1.547
303.50 1.547
303.60 1.547
303.70 1.546
303.80 1.546
303.90 1.546
304.00 1.545
304.10 1.545
304.20 1.545
304.30 1.544
304.40 1.544
304.50 1.544
304.60 1.543
304.70 1.543
304.80 1.543
304.90 1.542
305.00 1.542
305.10 1.542
305.20 1.541
305.30 1.541
305.40 1.54
305.50 1.54
305.60 1.54
305.70 1.539
305.80 1.539
305.90 1.539
306.00 1.538
306.10 1.538
306.20 1.538
306.30 1.537
306.40 1.537
306.50 1.537
306.60 1.536
306.70 1.536
306.80 1.536
306.90 1.535
307.00 1.535
307.10 1.534
307.20 1.534
307.30 1.534
307.40 1.533
307.50 1.533
307.60 1.533
307.70 1.532
307.80 1.532
307.90 1.532
308.00 1.531
308.10 1.531
308.20 1.531
308.30 1.53
308.40 1.53
308.50 1.529
308.60 1.529
308.70 1.529
308.80 1.528
308.90 1.528
309.00 1.528
309.10 1.527
309.20 1.527
309.30 1.527
309.40 1.526
309.50 1.526
309.60 1.525
309.70 1.525
309.80 1.525
309.90 1.524
310.00 1.524
310.10 1.524
310.20 1.523
310.30 1.523
310.40 1.523
310.50 1.522
310.60 1.522
310.70 1.521
310.80 1.521
310.90 1.521
311.00 1.52
311.10 1.52
311.20 1.52
311.30 1.519
311.40 1.519
311.50 1.518
311.60 1.518
311.70 1.518
311.80 1.517
311.90 1.517
312.00 1.517
312.10 1.516
312.20 1.516
312.30 1.516
312.40 1.515
312.50 1.515
312.60 1.514
312.70 1.514
312.80 1.514
312.90 1.513
313.00 1.513
313.10 1.513
313.20 1.512
313.30 1.512
313.40 1.511
313.50 1.511
313.60 1.511
313.70 1.51
313.80 1.51
313.90 1.51
314.00 1.509
314.10 1.509
314.20 1.508
314.30 1.508
314.40 1.508
314.50 1.507
314.60 1.507
314.70 1.506
314.80 1.506
314.90 1.506
315.00 1.505
315.10 1.505
315.20 1.505
315.30 1.504
315.40 1.504
315.50 1.503
315.60 1.503
315.70 1.503
315.80 1.502
315.90 1.502
316.00 1.502
316.10 1.501
316.20 1.501
316.30 1.5
316.40 1.5
316.50 1.5
316.60 1.499
316.70 1.499
316.80 1.498
316.90 1.498
317.00 1.498
317.10 1.497
317.20 1.497
317.30 1.497
317.40 1.496
317.50 1.496
317.60 1.495
317.70 1.495
317.80 1.495
317.90 1.494
318.00 1.494
318.10 1.493
318.20 1.493
318.30 1.493
318.40 1.492
318.50 1.492
318.60 1.491
318.70 1.491
318.80 1.491
318.90 1.49
319.00 1.49
319.10 1.489
319.20 1.489
319.30 1.489
319.40 1.488
319.50 1.488
319.60 1.488
319.70 1.487
319.80 1.487
319.90 1.486
320.00 1.486
320.10 1.486
320.20 1.485
320.30 1.485
320.40 1.484
320.50 1.484
320.60 1.484
320.70 1.483
320.80 1.483
320.90 1.482
321.00 1.482
321.10 1.482
321.20 1.481
321.30 1.481
321.40 1.48
321.50 1.48
321.60 1.48
321.70 1.479
321.80 1.479
321.90 1.478
322.00 1.478
322.10 1.478
322.20 1.477
322.30 1.477
322.40 1.476
322.50 1.476
322.60 1.476
322.70 1.475
322.80 1.475
322.90 1.474
323.00 1.474
323.10 1.474
323.20 1.473
323.30 1.473
323.40 1.472
323.50 1.472
323.60 1.472
323.70 1.471
323.80 1.471
323.90 1.47
324.00 1.47
324.10 1.47
324.20 1.469
324.30 1.469
324.40 1.468
324.50 1.468
324.60 1.468
324.70 1.467
324.80 1.467
324.90 1.466
325.00 1.466
325.10 1.466
325.20 1.465
325.30 1.465
325.40 1.464
325.50 1.464
325.60 1.464
325.70 1.463
325.80 1.463
325.90 1.462
326.00 1.462
326.10 1.462
326.20 1.461
326.30 1.461
326.40 1.46
326.50 1.46
326.60 1.46
326.70 1.459
326.80 1.459
326.90 1.458
327.00 1.458
327.10 1.457
327.20 1.457
327.30 1.457
327.40 1.456
327.50 1.456
327.60 1.455
327.70 1.455
327.80 1.455
327.90 1.454
328.00 1.454
328.10 1.453
328.20 1.453
328.30 1.453
328.40 1.452
328.50 1.452
328.60 1.451
328.70 1.451
328.80 1.45
328.90 1.45
329.00 1.45
329.10 1.449
329.20 1.449
329.30 1.448
329.40 1.448
329.50 1.448
329.60 1.447
329.70 1.447
329.80 1.446
329.90 1.446
330.00 1.446
330.10 1.445
330.20 1.445
330.30 1.444
330.40 1.444
330.50 1.443
330.60 1.443
330.70 1.443
330.80 1.442
330.90 1.442
331.00 1.441
331.10 1.441
331.20 1.441
331.30 1.44
331.40 1.44
331.50 1.439
331.60 1.439
331.70 1.438
331.80 1.438
331.90 1.438
332.00 1.437
332.10 1.437
332.20 1.436
332.30 1.436
332.40 1.436
332.50 1.435
332.60 1.435
332.70 1.434
332.80 1.434
332.90 1.433
333.00 1.433
333.10 1.433
333.20 1.432
333.30 1.432
333.40 1.431
333.50 1.431
333.60 1.431
333.70 1.43
333.80 1.43
333.90 1.429
334.00 1.429
334.10 1.428
334.20 1.428
334.30 1.428
334.40 1.427
334.50 1.427
334.60 1.426
334.70 1.426
334.80 1.425
334.90 1.425
335.00 1.425
335.10 1.424
335.20 1.424
335.30 1.423
335.40 1.423
335.50 1.423
335.60 1.422
335.70 1.422
335.80 1.421
335.90 1.421
336.00 1.42
336.10 1.42
336.20 1.42
336.30 1.419
336.40 1.419
336.50 1.418
336.60 1.418
336.70 1.417
336.80 1.417
336.90 1.417
337.00 1.416
337.10 1.416
337.20 1.415
337.30 1.415
337.40 1.415
337.50 1.414
337.60 1.414
337.70 1.413
337.80 1.413
337.90 1.412
338.00 1.412
338.10 1.412
338.20 1.411
338.30 1.411
338.40 1.41
338.50 1.41
338.60 1.409
338.70 1.409
338.80 1.409
338.90 1.408
339.00 1.408
339.10 1.407
339.20 1.407
339.30 1.406
339.40 1.406
339.50 1.406
339.60 1.405
339.70 1.405
339.80 1.404
339.90 1.404
340.00 1.403
340.10 1.403
340.20 1.403
340.30 1.402
340.40 1.402
340.50 1.401
340.60 1.401
340.70 1.4
340.80 1.4
340.90 1.4
341.00 1.399
341.10 1.399
341.20 1.398
341.30 1.398
341.40 1.397
341.50 1.397
341.60 1.397
341.70 1.396
341.80 1.396
341.90 1.395
342.00 1.395
342.10 1.394
342.20 1.394
342.30 1.394
342.40 1.393
342.50 1.393
342.60 1.392
342.70 1.392
342.80 1.391
342.90 1.391
343.00 1.391
343.10 1.39
343.20 1.39
343.30 1.389
343.40 1.389
343.50 1.388
343.60 1.388
343.70 1.388
343.80 1.387
343.90 1.387
344.00 1.386
344.10 1.386
344.20 1.385
344.30 1.385
344.40 1.385
344.50 1.384
344.60 1.384
344.70 1.383
344.80 1.383
344.90 1.382
345.00 1.382
345.10 1.382
345.20 1.381
345.30 1.381
345.40 1.38
345.50 1.38
345.60 1.379
345.70 1.379
345.80 1.378
345.90 1.378
346.00 1.378
346.10 1.377
346.20 1.377
346.30 1.376
346.40 1.376
346.50 1.375
346.60 1.375
346.70 1.375
346.80 1.374
346.90 1.374
347.00 1.373
347.10 1.373
347.20 1.372
347.30 1.372
347.40 1.372
347.50 1.371
347.60 1.371
347.70 1.37
347.80 1.37
347.90 1.369
348.00 1.369
348.10 1.369
348.20 1.368
348.30 1.368
348.40 1.367
348.50 1.367
348.60 1.366
348.70 1.366
348.80 1.365
348.90 1.365
349.00 1.365
349.10 1.364
349.20 1.364
349.30 1.363
349.40 1.363
349.50 1.362
349.60 1.362
349.70 1.362
349.80 1.361
349.90 1.361
350.00 1.36
350.10 1.36
350.20 1.359
350.30 1.359
350.40 1.358
350.50 1.358
350.60 1.358
350.70 1.357
350.80 1.357
350.90 1.356
351.00 1.356
351.10 1.355
351.20 1.355
351.30 1.355
351.40 1.354
351.50 1.354
351.60 1.353
351.70 1.353
351.80 1.352
351.90 1.352
352.00 1.352
352.10 1.351
352.20 1.351
352.30 1.35
352.40 1.35
352.50 1.349
352.60 1.349
352.70 1.348
352.80 1.348
352.90 1.348
353.00 1.347
353.10 1.347
353.20 1.346
353.30 1.346
353.40 1.345
353.50 1.345
353.60 1.345
353.70 1.344
353.80 1.344
353.90 1.343
354.00 1.343
354.10 1.342
354.20 1.342
354.30 1.341
354.40 1.341
354.50 1.341
354.60 1.34
354.70 1.34
354.80 1.339
354.90 1.339
355.00 1.338
355.10 1.338
355.20 1.338
355.30 1.337
355.40 1.337
355.50 1.336
355.60 1.336
355.70 1.335
355.80 1.335
355.90 1.334
356.00 1.334
356.10 1.334
356.20 1.333
356.30 1.333
356.40 1.332
356.50 1.332
356.60 1.331
356.70 1.331
356.80 1.33
356.90 1.33
357.00 1.33
357.10 1.329
357.20 1.329
357.30 1.328
357.40 1.328
357.50 1.327
357.60 1.327
357.70 1.327
357.80 1.326
357.90 1.326
358.00 1.325
358.10 1.325
358.20 1.324
358.30 1.324
358.40 1.323
358.50 1.323
358.60 1.323
358.70 1.322
358.80 1.322
358.90 1.321
359.00 1.321
359.10 1.32
359.20 1.32
359.30 1.32
359.40 1.319
359.50 1.319
359.60 1.318
359.70 1.318
359.80 1.317
359.90 1.317
360.00 1.316
360.10 1.316
360.20 1.316
360.30 1.315
360.40 1.315
360.50 1.314
360.60 1.314
360.70 1.313
360.80 1.313
360.90 1.312
361.00 1.312
361.10 1.312
361.20 1.311
361.30 1.311
361.40 1.31
361.50 1.31
361.60 1.309
361.70 1.309
361.80 1.309
361.90 1.308
362.00 1.308
362.10 1.307
362.20 1.307
362.30 1.306
362.40 1.306
362.50 1.305
362.60 1.305
362.70 1.305
362.80 1.304
362.90 1.304
363.00 1.303
363.10 1.303
363.20 1.302
363.30 1.302
363.40 1.301
363.50 1.301
363.60 1.3
363.70 1.3
363.80 1.299
363.90 1.299
364.00 1.298
364.10 1.298
364.20 1.297
364.30 1.297
364.40 1.297
364.50 1.296
364.60 1.296
364.70 1.295
364.80 1.295
364.90 1.294
365.00 1.294
365.10 1.293
365.20 1.293
365.30 1.292
365.40 1.292
365.50 1.291
365.60 1.291
365.70 1.29
365.80 1.29
365.90 1.289
366.00 1.289
366.10 1.288
366.20 1.288
366.30 1.287
366.40 1.287
366.50 1.286
366.60 1.286
366.70 1.286
366.80 1.285
366.90 1.285
367.00 1.284
367.10 1.284
367.20 1.283
367.30 1.283
367.40 1.283
367.50 1.282
367.60 1.282
367.70 1.281
367.80 1.281
367.90 1.28
368.00 1.28
368.10 1.28
368.20 1.279
368.30 1.279
368.40 1.279
368.50 1.279
368.60 1.279
368.70 1.278
368.80 1.278
368.90 1.278
369.00 1.278
369.10 1.277
369.20 1.277
369.30 1.277
369.40 1.277
369.50 1.277
369.60 1.276
369.70 1.276
369.80 1.276
369.90 1.276
370.00 1.275
370.10 1.276
370.20 1.276
370.30 1.276
370.40 1.277
370.50 1.277
370.60 1.277
370.70 1.278
370.80 1.278
370.90 1.278
371.00 1.279
371.10 1.279
371.20 1.279
371.30 1.279
371.40 1.28
371.50 1.28
371.60 1.28
371.70 1.281
371.80 1.281
371.90 1.281
372.00 1.282
372.10 1.282
372.20 1.283
372.30 1.284
372.40 1.285
372.50 1.286
372.60 1.287
372.70 1.287
372.80 1.288
372.90 1.289
373.00 1.29
373.10 1.291
373.20 1.291
373.30 1.292
373.40 1.293
373.50 1.294
373.60 1.295
373.70 1.296
373.80 1.296
373.90 1.297
374.00 1.298
374.10 1.299
374.20 1.3
374.30 1.301
374.40 1.302
374.50 1.303
374.60 1.304
374.70 1.305
374.80 1.306
374.90 1.306
375.00 1.307
375.10 1.308
375.20 1.309
375.30 1.31
375.40 1.311
375.50 1.312
375.60 1.313
375.70 1.314
375.80 1.315
375.90 1.316
376.00 1.317
376.10 1.317
376.20 1.318
376.30 1.318
376.40 1.319
376.50 1.319
376.60 1.32
376.70 1.32
376.80 1.321
376.90 1.321
377.00 1.322
377.10 1.321
377.20 1.321
377.30 1.32
377.40 1.32
377.50 1.319
377.60 1.319
377.70 1.318
377.80 1.318
377.90 1.317
378.00 1.316
378.10 1.311
378.20 1.306
378.30 1.301
378.40 1.296
378.50 1.291
378.60 1.286
378.70 1.281
378.80 1.276
378.90 1.271
379.00 1.266
379.10 1.258
379.20 1.25
379.30 1.241
379.40 1.233
379.50 1.225
379.60 1.217
379.70 1.209
379.80 1.201
379.90 1.193
380.00 1.185
380.10 1.196
380.20 1.207
380.30 1.218
380.40 1.229
380.50 1.24
380.60 1.251
380.70 1.262
380.80 1.273
380.90 1.284
381.00 1.295
381.10 1.298
381.20 1.3
381.30 1.302
381.40 1.304
381.50 1.306
381.60 1.306
381.70 1.305
381.80 1.303
381.90 1.301
382.00 1.298
382.10 1.293
382.20 1.288
382.30 1.271
382.40 1.255
382.50 1.238
382.60 1.222
382.70 1.205
382.80 1.189
382.90 1.172
383.00 1.156
383.10 1.139
383.20 1.123
383.30 1.092
383.40 1.055
383.50 1.017
383.60 1.025
383.70 1.064
383.80 1.1
383.90 1.131
384.00 1.159
384.10 1.184
384.20 1.207
384.30 1.227
384.40 1.245
384.50 1.26
384.60 1.273
384.70 1.283
384.80 1.292
384.90 1.3
385.00 1.306
385.10 1.311
385.20 1.316
385.30 1.32
385.40 1.323
385.50 1.325
385.60 1.327
385.70 1.328
385.80 1.329
385.90 1.33
386.00 1.329
386.10 1.329
386.20 1.328
386.30 1.326
386.40 1.324
386.50 1.322
386.60 1.319
386.70 1.316
386.80 1.312
386.90 1.307
387.00 1.302
387.10 1.296
387.20 1.29
387.30 1.282
387.40 1.274
387.50 1.264
387.60 1.253
387.70 1.241
387.80 1.226
387.90 1.209
388.00 1.19
388.10 1.165
388.20 1.136
388.30 1.104
388.40 1.063
388.50 1.02
388.60 0.9725
388.70 0.9162
388.80 0.8613
388.90 0.8077
389.00 0.8572
389.10 0.9105
389.20 0.9676
389.30 1.015
389.40 1.06
389.50 1.101
389.60 1.134
389.70 1.163
389.80 1.189
389.90 1.21
390.00 1.228
390.10 1.243
390.20 1.256
390.30 1.268
390.40 1.279
390.50 1.288
390.60 1.296
390.70 1.304
390.80 1.311
390.90 1.318
391.00 1.323
391.10 1.329
391.20 1.334
391.30 1.338
391.40 1.342
391.50 1.346
391.60 1.349
391.70 1.352
391.80 1.355
391.90 1.357
392.00 1.359
392.10 1.361
392.20 1.363
392.30 1.364
392.40 1.365
392.50 1.365
392.60 1.365
392.70 1.366
392.80 1.365
392.90 1.365
393.00 1.364
393.10 1.363
393.20 1.361
393.30 1.359
393.40 1.358
393.50 1.355
393.60 1.352
393.70 1.349
393.80 1.346
393.90 1.342
394.00 1.338
394.10 1.334
394.20 1.329
394.30 1.323
394.40 1.318
394.50 1.311
394.60 1.305
394.70 1.297
394.80 1.29
394.90 1.281
395.00 1.272
395.10 1.263
395.20 1.253
395.30 1.241
395.40 1.229
395.50 1.216
395.60 1.202
395.70 1.186
395.80 1.169
395.90 1.15
396.00 1.128
396.10 1.103
396.20 1.073
396.30 1.037
396.40 0.9969
396.50 0.9437
396.60 0.8842
396.70 0.8183
396.80 0.7436
396.90 0.6653
397.00 0.5835
397.10 0.6578
397.20 0.7326
397.30 0.8078
397.40 0.8744
397.50 0.9347
397.60 0.9887
397.70 1.03
397.80 1.066
397.90 1.097
398.00 1.121
398.10 1.143
398.20 1.163
398.30 1.179
398.40 1.195
398.50 1.209
398.60 1.222
398.70 1.234
398.80 1.245
398.90 1.255
399.00 1.265
399.10 1.274
399.20 1.282
399.30 1.29
399.40 1.298
399.50 1.305
399.60 1.311
399.70 1.317
399.80 1.323
399.90 1.328
400.00 1.334
400.10 1.338
400.20 1.343
400.30 1.347
400.40 1.351
400.50 1.354
400.60 1.358
400.70 1.361
400.80 1.364
400.90 1.367
401.00 1.369
401.10 1.372
401.20 1.374
401.30 1.376
401.40 1.378
401.50 1.379
401.60 1.381
401.70 1.382
401.80 1.384
401.90 1.385
402.00 1.386
402.10 1.387
402.20 1.388
402.30 1.388
402.40 1.389
402.50 1.39
402.60 1.39
402.70 1.39
402.80 1.391
402.90 1.391
403.00 1.391
403.10 1.391
403.20 1.39
403.30 1.39
403.40 1.39
403.50 1.389
403.60 1.389
403.70 1.388
403.80 1.388
403.90 1.387
404.00 1.386
404.10 1.385
404.20 1.384
404.30 1.383
404.40 1.382
404.50 1.38
404.60 1.379
404.70 1.377
404.80 1.375
404.90 1.374
405.00 1.372
405.10 1.37
405.20 1.367
405.30 1.365
405.40 1.363
405.50 1.36
405.60 1.357
405.70 1.355
405.80 1.351
405.90 1.348
406.00 1.345
406.10 1.341
406.20 1.337
406.30 1.333
406.40 1.329
406.50 1.325
406.60 1.32
406.70 1.315
406.80 1.31
406.90 1.304
407.00 1.298
407.10 1.292
407.20 1.286
407.30 1.279
407.40 1.271
407.50 1.264
407.60 1.255
407.70 1.246
407.80 1.237
407.90 1.227
408.00 1.217
408.10 1.206
408.20 1.194
408.30 1.182
408.40 1.168
408.50 1.154
408.60 1.139
408.70 1.123
408.80 1.105
408.90 1.086
409.00 1.067
409.10 1.044
409.20 1.018
409.30 0.9909
409.40 0.9565
409.50 0.9168
409.60 0.8719
409.70 0.8124
409.80 0.7456
409.90 0.6718
410.00 0.5926
410.10 0.5273
410.20 0.4756
410.30 0.5566
410.40 0.6355
410.50 0.7124
410.60 0.7817
410.70 0.843
410.80 0.8963
410.90 0.9365
411.00 0.9719
411.10 1.003
411.20 1.028
411.30 1.051
411.40 1.072
411.50 1.09
411.60 1.107
411.70 1.124
411.80 1.138
411.90 1.152
412.00 1.165
412.10 1.177
412.20 1.188
412.30 1.199
412.40 1.209
412.50 1.218
412.60 1.227
412.70 1.235
412.80 1.242
412.90 1.25
413.00 1.256
413.10 1.263
413.20 1.269
413.30 1.274
413.40 1.28
413.50 1.285
413.60 1.289
413.70 1.294
413.80 1.298
413.90 1.302
414.00 1.305
414.10 1.309
414.20 1.312
414.30 1.315
414.40 1.318
414.50 1.321
414.60 1.323
414.70 1.326
414.80 1.328
414.90 1.33
415.00 1.332
415.10 1.334
415.20 1.336
415.30 1.337
415.40 1.339
415.50 1.34
415.60 1.342
415.70 1.343
415.80 1.344
415.90 1.345
416.00 1.346
416.10 1.347
416.20 1.348
416.30 1.349
416.40 1.35
416.50 1.351
416.60 1.351
416.70 1.352
416.80 1.353
416.90 1.353
417.00 1.354
417.10 1.354
417.20 1.355
417.30 1.355
417.40 1.355
417.50 1.356
417.60 1.356
417.70 1.356
417.80 1.356
417.90 1.357
418.00 1.357
418.10 1.357
418.20 1.357
418.30 1.357
418.40 1.357
418.50 1.357
418.60 1.357
418.70 1.357
418.80 1.357
418.90 1.357
419.00 1.357
419.10 1.357
419.20 1.357
419.30 1.357
419.40 1.356
419.50 1.356
419.60 1.356
419.70 1.356
419.80 1.356
419.90 1.355
420.00 1.355
420.10 1.355
420.20 1.354
420.30 1.354
420.40 1.354
420.50 1.354
420.60 1.353
420.70 1.353
420.80 1.352
420.90 1.352
421.00 1.352
421.10 1.351
421.20 1.351
421.30 1.35
421.40 1.35
421.50 1.35
421.60 1.349
421.70 1.349
421.80 1.348
421.90 1.348
422.00 1.347
422.10 1.347
422.20 1.346
422.30 1.346
422.40 1.345
422.50 1.344
422.60 1.344
422.70 1.343
422.80 1.343
422.90 1.342
423.00 1.341
423.10 1.341
423.20 1.34
423.30 1.34
423.40 1.339
423.50 1.338
423.60 1.338
423.70 1.337
423.80 1.336
423.90 1.335
424.00 1.335
424.10 1.334
424.20 1.333
424.30 1.332
424.40 1.332
424.50 1.331
424.60 1.33
424.70 1.329
424.80 1.328
424.90 1.327
425.00 1.327
425.10 1.326
425.20 1.325
425.30 1.324
425.40 1.323
425.50 1.322
425.60 1.321
425.70 1.32
425.80 1.319
425.90 1.318
426.00 1.317
426.10 1.316
426.20 1.314
426.30 1.313
426.40 1.312
426.50 1.311
426.60 1.309
426.70 1.308
426.80 1.307
426.90 1.305
427.00 1.304
427.10 1.303
427.20 1.301
427.30 1.3
427.40 1.298
427.50 1.296
427.60 1.295
427.70 1.293
427.80 1.291
427.90 1.29
428.00 1.288
428.10 1.286
428.20 1.284
428.30 1.282
428.40 1.28
428.50 1.277
428.60 1.275
428.70 1.273
428.80 1.27
428.90 1.268
429.00 1.265
429.10 1.263
429.20 1.26
429.30 1.257
429.40 1.254
429.50 1.251
429.60 1.247
429.70 1.244
429.80 1.24
429.90 1.236
430.00 1.232
430.10 1.228
430.20 1.224
430.30 1.22
430.40 1.215
430.50 1.21
430.60 1.205
430.70 1.199
430.80 1.194
430.90 1.188
431.00 1.182
431.10 1.175
431.20 1.168
431.30 1.161
431.40 1.154
431.50 1.146
431.60 1.137
431.70 1.128
431.80 1.119
431.90 1.109
432.00 1.098
432.10 1.087
432.20 1.074
432.30 1.061
432.40 1.046
432.50 1.03
432.60 1.012
432.70 0.9934
432.80 0.9718
432.90 0.9491
433.00 0.9252
433.10 0.8992
433.20 0.8711
433.30 0.841
433.40 0.803
433.50 0.7587
433.60 0.7082
433.70 0.6437
433.80 0.5786
433.90 0.5128
434.00 0.4454
434.10 0.4472
434.20 0.5178
434.30 0.5835
434.40 0.6482
434.50 0.7118
434.60 0.7609
434.70 0.804
434.80 0.8409
434.90 0.8701
435.00 0.8973
435.10 0.9225
435.20 0.9455
435.30 0.9673
435.40 0.9879
435.50 1.006
435.60 1.023
435.70 1.038
435.80 1.051
435.90 1.064
436.00 1.075
436.10 1.086
436.20 1.095
436.30 1.105
436.40 1.113
436.50 1.121
436.60 1.128
436.70 1.135
436.80 1.142
436.90 1.148
437.00 1.154
437.10 1.159
437.20 1.164
437.30 1.169
437.40 1.174
437.50 1.178
437.60 1.182
437.70 1.186
437.80 1.19
437.90 1.193
438.00 1.196
438.10 1.199
438.20 1.202
438.30 1.205
438.40 1.208
438.50 1.21
438.60 1.212
438.70 1.215
438.80 1.217
438.90 1.218
439.00 1.22
439.10 1.222
439.20 1.224
439.30 1.225
439.40 1.226
439.50 1.228
439.60 1.229
439.70 1.23
439.80 1.231
439.90 1.232
440.00 1.233
440.10 1.234
440.20 1.235
440.30 1.236
440.40 1.237
440.50 1.237
440.60 1.238
440.70 1.238
440.80 1.239
440.90 1.24
441.00 1.24
441.10 1.24
441.20 1.241
441.30 1.241
441.40 1.242
441.50 1.242
441.60 1.242
441.70 1.242
441.80 1.243
441.90 1.243
442.00 1.243
442.10 1.243
442.20 1.243
442.30 1.243
442.40 1.243
442.50 1.244
442.60 1.244
442.70 1.244
442.80 1.244
442.90 1.244
443.00 1.244
443.10 1.244
443.20 1.243
443.30 1.243
443.40 1.243
443.50 1.243
443.60 1.243
443.70 1.243
443.80 1.243
443.90 1.243
444.00 1.243
444.10 1.243
444.20 1.242
444.30 1.242
444.40 1.242
444.50 1.242
444.60 1.242
444.70 1.241
444.80 1.241
444.90 1.241
445.00 1.241
445.10 1.24
445.20 1.24
445.30 1.24
445.40 1.24
445.50 1.239
445.60 1.239
445.70 1.239
445.80 1.239
445.90 1.238
446.00 1.238
446.10 1.238
446.20 1.237
446.30 1.237
446.40 1.237
446.50 1.237
446.60 1.236
446.70 1.236
446.80 1.236
446.90 1.235
447.00 1.235
447.10 1.235
447.20 1.234
447.30 1.234
447.40 1.234
447.50 1.233
447.60 1.233
447.70 1.232
447.80 1.232
447.90 1.232
448.00 1.231
448.10 1.231
448.20 1.231
448.30 1.23
448.40 1.23
448.50 1.229
448.60 1.229
448.70 1.229
448.80 1.228
448.90 1.228
449.00 1.228
449.10 1.227
449.20 1.227
449.30 1.226
449.40 1.226
449.50 1.226
449.60 1.225
449.70 1.225
449.80 1.224
449.90 1.224
450.00 1.224
450.10 1.223
450.20 1.223
450.30 1.222
450.40 1.222
450.50 1.221
450.60 1.221
450.70 1.221
450.80 1.22
450.90 1.22
451.00 1.219
451.10 1.219
451.20 1.218
451.30 1.218
451.40 1.218
451.50 1.217
451.60 1.217
451.70 1.216
451.80 1.216
451.90 1.215
452.00 1.215
452.10 1.215
452.20 1.214
452.30 1.214
452.40 1.213
452.50 1.213
452.60 1.212
452.70 1.212
452.80 1.212
452.90 1.211
453.00 1.211
453.10 1.21
453.20 1.21
453.30 1.209
453.40 1.209
453.50 1.208
453.60 1.208
453.70 1.207
453.80 1.207
453.90 1.207
454.00 1.206
454.10 1.206
454.20 1.205
454.30 1.205
454.40 1.204
454.50 1.204
454.60 1.203
454.70 1.203
454.80 1.202
454.90 1.202
455.00 1.202
455.10 1.201
455.20 1.201
455.30 1.2
455.40 1.2
455.50 1.199
455.60 1.199
455.70 1.198
455.80 1.198
455.90 1.197
456.00 1.197
456.10 1.197
456.20 1.196
456.30 1.196
456.40 1.195
456.50 1.195
456.60 1.194
456.70 1.194
456.80 1.193
456.90 1.193
457.00 1.192
457.10 1.192
457.20 1.191
457.30 1.191
457.40 1.191
457.50 1.19
457.60 1.19
457.70 1.189
457.80 1.189
457.90 1.188
458.00 1.188
458.10 1.187
458.20 1.187
458.30 1.186
458.40 1.186
458.50 1.185
458.60 1.185
458.70 1.184
458.80 1.184
458.90 1.183
459.00 1.183
459.10 1.183
459.20 1.182
459.30 1.182
459.40 1.181
459.50 1.181
459.60 1.18
459.70 1.18
459.80 1.179
459.90 1.179
460.00 1.178
460.10 1.178
460.20 1.177
460.30 1.177
460.40 1.176
460.50 1.176
460.60 1.175
460.70 1.175
460.80 1.174
460.90 1.174
461.00 1.174
461.10 1.173
461.20 1.173
461.30 1.172
461.40 1.172
461.50 1.171
461.60 1.171
461.70 1.17
461.80 1.17
461.90 1.169
462.00 1.169
462.10 1.168
462.20 1.168
462.30 1.167
462.40 1.167
462.50 1.166
462.60 1.166
462.70 1.165
462.80 1.165
462.90 1.164
463.00 1.164
463.10 1.163
463.20 1.163
463.30 1.162
463.40 1.162
463.50 1.161
463.60 1.161
463.70 1.161
463.80 1.16
463.90 1.16
464.00 1.159
464.10 1.159
464.20 1.158
464.30 1.158
464.40 1.157
464.50 1.157
464.60 1.156
464.70 1.156
464.80 1.155
464.90 1.155
465.00 1.154
465.10 1.154
465.20 1.153
465.30 1.153
465.40 1.152
465.50 1.152
465.60 1.151
465.70 1.151
465.80 1.15
465.90 1.15
466.00 1.149
466.10 1.149
466.20 1.148
466.30 1.148
466.40 1.147
466.50 1.147
466.60 1.146
466.70 1.146
466.80 1.145
466.90 1.145
467.00 1.144
467.10 1.144
467.20 1.143
467.30 1.143
467.40 1.142
467.50 1.142
467.60 1.141
467.70 1.141
467.80 1.14
467.90 1.14
468.00 1.139
468.10 1.139
468.20 1.138
468.30 1.138
468.40 1.137
468.50 1.137
468.60 1.136
468.70 1.136
468.80 1.135
468.90 1.134
469.00 1.134
469.10 1.133
469.20 1.133
469.30 1.132
469.40 1.132
469.50 1.131
469.60 1.131
469.70 1.13
469.80 1.13
469.90 1.129
470.00 1.129
470.10 1.128
470.20 1.128
470.30 1.127
470.40 1.126
470.50 1.126
470.60 1.125
470.70 1.125
470.80 1.124
470.90 1.124
471.00 1.123
471.10 1.123
471.20 1.122
471.30 1.122
471.40 1.121
471.50 1.12
471.60 1.12
471.70 1.119
471.80 1.119
471.90 1.118
472.00 1.118
472.10 1.117
472.20 1.116
472.30 1.116
472.40 1.115
472.50 1.115
472.60 1.114
472.70 1.113
472.80 1.113
472.90 1.112
473.00 1.112
473.10 1.111
473.20 1.11
473.30 1.11
473.40 1.109
473.50 1.109
473.60 1.108
473.70 1.107
473.80 1.107
473.90 1.106
474.00 1.105
474.10 1.105
474.20 1.104
474.30 1.103
474.40 1.103
474.50 1.102
474.60 1.101
474.70 1.101
474.80 1.1
474.90 1.099
475.00 1.099
475.10 1.098
475.20 1.097
475.30 1.096
475.40 1.096
475.50 1.095
475.60 1.094
475.70 1.093
475.80 1.093
475.90 1.092
476.00 1.091
476.10 1.09
476.20 1.089
476.30 1.089
476.40 1.088
476.50 1.087
476.60 1.086
476.70 1.085
476.80 1.084
476.90 1.083
477.00 1.083
477.10 1.082
477.20 1.081
477.30 1.08
477.40 1.079
477.50 1.078
477.60 1.077
477.70 1.076
477.80 1.075
477.90 1.074
478.00 1.073
478.10 1.072
478.20 1.071
478.30 1.069
478.40 1.068
478.50 1.067
478.60 1.066
478.70 1.065
478.80 1.063
478.90 1.062
479.00 1.061
479.10 1.06
479.20 1.058
479.30 1.057
479.40 1.055
479.50 1.054
479.60 1.052
479.70 1.051
479.80 1.049
479.90 1.048
480.00 1.046
480.10 1.045
480.20 1.043
480.30 1.041
480.40 1.039
480.50 1.037
480.60 1.035
480.70 1.033
480.80 1.031
480.90 1.028
481.00 1.026
481.10 1.024
481.20 1.022
481.30 1.019
481.40 1.016
481.50 1.013
481.60 1.01
481.70 1.008
481.80 1.005
481.90 1.002
482.00 0.9991
482.10 0.9962
482.20 0.9923
482.30 0.988
482.40 0.9836
482.50 0.9792
482.60 0.9749
482.70 0.9705
482.80 0.9661
482.90 0.9618
483.00 0.9574
483.10 0.9531
483.20 0.9466
483.30 0.939
483.40 0.9315
483.50 0.9239
483.60 0.9164
483.70 0.9088
483.80 0.9013
483.90 0.8938
484.00 0.8863
484.10 0.8788
484.20 0.8684
484.30 0.8567
484.40 0.8449
484.50 0.8332
484.60 0.8215
484.70 0.8062
484.80 0.7891
484.90 0.772
485.00 0.7549
485.10 0.7378
485.20 0.7166
485.30 0.6933
485.40 0.6663
485.50 0.6375
485.60 0.6045
485.70 0.5694
485.80 0.5309
485.90 0.4908
486.00 0.4487
486.10 0.3863
486.20 0.4147
486.30 0.4633
486.40 0.5039
486.50 0.5438
486.60 0.5802
486.70 0.6149
486.80 0.6452
486.90 0.6735
487.00 0.6981
487.10 0.7208
487.20 0.7392
487.30 0.7557
487.40 0.7722
487.50 0.7886
487.60 0.805
487.70 0.8177
487.80 0.8287
487.90 0.8397
488.00 0.8507
488.10 0.8616
488.20 0.8697
488.30 0.8764
488.40 0.8832
488.50 0.8899
488.60 0.8966
488.70 0.9033
488.80 0.91
488.90 0.9167
489.00 0.9233
489.10 0.93
489.20 0.9345
489.30 0.938
489.40 0.9415
489.50 0.945
489.60 0.9485
489.70 0.952
489.80 0.9555
489.90 0.959
490.00 0.9625
490.10 0.9659
490.20 0.9684
490.30 0.9703
490.40 0.9723
490.50 0.9743
490.60 0.9762
490.70 0.9782
490.80 0.9801
490.90 0.9821
491.00 0.984
491.10 0.986
491.20 0.9874
491.30 0.9885
491.40 0.9896
491.50 0.9907
491.60 0.9919
491.70 0.993
491.80 0.9941
491.90 0.9952
492.00 0.9964
492.10 0.9975
492.20 0.9983
492.30 0.9989
492.40 0.9995
492.50 1
492.60 1.001
492.70 1.001
492.80 1.002
492.90 1.003
493.00 1.003
493.10 1.004
493.20 1.004
493.30 1.005
493.40 1.005
493.50 1.005
493.60 1.006
493.70 1.006
493.80 1.006
493.90 1.007
494.00 1.007
494.10 1.007
494.20 1.007
494.30 1.007
494.40 1.008
494.50 1.008
494.60 1.008
494.70 1.008
494.80 1.008
494.90 1.008
495.00 1.008
495.10 1.008
495.20 1.008
495.30 1.008
495.40 1.008
495.50 1.008
495.60 1.008
495.70 1.008
495.80 1.008
495.90 1.008
496.00 1.008
496.10 1.008
496.20 1.008
496.30 1.008
496.40 1.008
496.50 1.008
496.60 1.007
496.70 1.007
496.80 1.007
496.90 1.007
497.00 1.007
497.10 1.007
497.20 1.007
497.30 1.006
497.40 1.006
497.50 1.006
497.60 1.006
497.70 1.006
497.80 1.005
497.90 1.005
498.00 1.005
498.10 1.005
498.20 1.005
498.30 1.004
498.40 1.004
498.50 1.004
498.60 1.004
498.70 1.003
498.80 1.003
498.90 1.003
499.00 1.003
499.10 1.002
499.20 1.002
499.30 1.002
499.40 1.002
499.50 1.001
499.60 1.001
499.70 1.001
499.80 1.001
499.90 1
500.00 1
500.10 0.9997
500.20 0.9994
500.30 0.9991
500.40 0.9988
500.50 0.9985
500.60 0.9982
500.70 0.9979
500.80 0.9976
500.90 0.9973
501.00 0.997
501.10 0.9967
501.20 0.9964
501.30 0.9961
501.40 0.9958
501.50 0.9954
501.60 0.9951
501.70 0.9948
501.80 0.9945
501.90 0.9942
502.00 0.9938
502.10 0.9935
502.20 0.9932
502.30 0.9929
502.40 0.9925
502.50 0.9922
502.60 0.9918
502.70 0.9915
502.80 0.9912
502.90 0.9908
503.00 0.9905
503.10 0.9902
503.20 0.9898
503.30 0.9895
503.40 0.9891
503.50 0.9888
503.60 0.9885
503.70 0.9881
503.80 0.9878
503.90 0.9874
504.00 0.9871
504.10 0.9867
504.20 0.9864
504.30 0.986
504.40 0.9857
504.50 0.9853
504.60 0.985
504.70 0.9846
504.80 0.9843
504.90 0.9839
505.00 0.9836
505.10 0.9832
505.20 0.9829
505.30 0.9825
505.40 0.9821
505.50 0.9818
505.60 0.9814
505.70 0.9811
505.80 0.9807
505.90 0.9804
506.00 0.98
506.10 0.9796
506.20 0.9793
506.30 0.9789
506.40 0.9785
506.50 0.9782
506.60 0.9778
506.70 0.9774
506.80 0.9771
506.90 0.9767
507.00 0.9764
507.10 0.976
507.20 0.9756
507.30 0.9753
507.40 0.9749
507.50 0.9745
507.60 0.9742
507.70 0.9738
507.80 0.9734
507.90 0.9731
508.00 0.9727
508.10 0.9723
508.20 0.972
508.30 0.9716
508.40 0.9712
508.50 0.9709
508.60 0.9705
508.70 0.9701
508.80 0.9698
508.90 0.9694
509.00 0.969
509.10 0.9687
509.20 0.9683
509.30 0.9679
509.40 0.9676
509.50 0.9672
509.60 0.9668
509.70 0.9664
509.80 0.9661
509.90 0.9657
510.00 0.9653
510.10 0.965
510.20 0.9646
510.30 0.9642
510.40 0.9638
510.50 0.9635
510.60 0.9631
510.70 0.9627
510.80 0.9623
510.90 0.962
511.00 0.9616
511.10 0.9612
511.20 0.9608
511.30 0.9605
511.40 0.9601
511.50 0.9597
511.60 0.9594
511.70 0.959
511.80 0.9586
511.90 0.9582
512.00 0.9579
512.10 0.9575
512.20 0.9571
512.30 0.9567
512.40 0.9564
512.50 0.956
512.60 0.9556
512.70 0.9553
512.80 0.9549
512.90 0.9545
513.00 0.9541
513.10 0.9538
513.20 0.9534
513.30 0.953
513.40 0.9527
513.50 0.9523
513.60 0.9519
513.70 0.9515
513.80 0.9512
513.90 0.9508
514.00 0.9504
514.10 0.9501
514.20 0.9497
514.30 0.9493
514.40 0.9489
514.50 0.9486
514.60 0.9482
514.70 0.9478
514.80 0.9474
514.90 0.9471
515.00 0.9467
515.10 0.9463
515.20 0.9459
515.30 0.9456
515.40 0.9452
515.50 0.9448
515.60 0.9445
515.70 0.9441
515.80 0.9437
515.90 0.9433
516.00 0.943
516.10 0.9426
516.20 0.9422
516.30 0.9419
516.40 0.9415
516.50 0.9411
516.60 0.9407
516.70 0.9404
516.80 0.94
516.90 0.9396
517.00 0.9393
517.10 0.9389
517.20 0.9385
517.30 0.9382
517.40 0.9378
517.50 0.9374
517.60 0.937
517.70 0.9367
517.80 0.9363
517.90 0.9359
518.00 0.9356
518.10 0.9352
518.20 0.9348
518.30 0.9345
518.40 0.9341
518.50 0.9337
518.60 0.9333
518.70 0.933
518.80 0.9326
518.90 0.9322
519.00 0.9319
519.10 0.9315
519.20 0.9311
519.30 0.9307
519.40 0.9304
519.50 0.93
519.60 0.9296
519.70 0.9293
519.80 0.9289
519.90 0.9285
520.00 0.9282
520.10 0.9278
520.20 0.9274
520.30 0.9271
520.40 0.9267
520.50 0.9263
520.60 0.926
520.70 0.9256
520.80 0.9252
520.90 0.9249
521.00 0.9245
521.10 0.9241
521.20 0.9238
521.30 0.9234
521.40 0.923
521.50 0.9227
521.60 0.9223
521.70 0.9219
521.80 0.9215
521.90 0.9212
522.00 0.9208
522.10 0.9204
522.20 0.9201
522.30 0.9197
522.40 0.9193
522.50 0.919
522.60 0.9186
522.70 0.9183
522.80 0.9179
522.90 0.9175
523.00 0.9172
523.10 0.9168
523.20 0.9164
523.30 0.9161
523.40 0.9157
523.50 0.9153
523.60 0.915
523.70 0.9146
523.80 0.9142
523.90 0.9139
524.00 0.9135
524.10 0.9132
524.20 0.9128
524.30 0.9124
524.40 0.9121
524.50 0.9117
524.60 0.9113
524.70 0.911
524.80 0.9106
524.90 0.9102
525.00 0.9099
525.10 0.9095
525.20 0.9092
525.30 0.9088
525.40 0.9084
525.50 0.9081
525.60 0.9077
525.70 0.9073
525.80 0.907
525.90 0.9066
526.00 0.9063
526.10 0.9059
526.20 0.9055
526.30 0.9052
526.40 0.9048
526.50 0.9045
526.60 0.9041
526.70 0.9037
526.80 0.9034
526.90 0.903
527.00 0.9027
527.10 0.9023
527.20 0.9019
527.30 0.9016
527.40 0.9012
527.50 0.9009
527.60 0.9005
527.70 0.9001
527.80 0.8998
527.90 0.8994
528.00 0.8991
528.10 0.8987
528.20 0.8983
528.30 0.898
528.40 0.8976
528.50 0.8973
528.60 0.8969
528.70 0.8965
528.80 0.8962
528.90 0.8958
529.00 0.8955
529.10 0.8951
529.20 0.8948
529.30 0.8944
529.40 0.894
529.50 0.8937
529.60 0.8933
529.70 0.893
529.80 0.8926
529.90 0.8923
530.00 0.8919
530.10 0.8915
530.20 0.8912
530.30 0.8908
530.40 0.8905
530.50 0.8901
530.60 0.8898
530.70 0.8894
530.80 0.889
530.90 0.8887
531.00 0.8883
531.10 0.888
531.20 0.8876
531.30 0.8873
531.40 0.8869
531.50 0.8866
531.60 0.8862
531.70 0.8859
531.80 0.8855
531.90 0.8852
532.00 0.8848
532.10 0.8845
532.20 0.8841
532.30 0.8837
532.40 0.8834
532.50 0.883
532.60 0.8827
532.70 0.8823
532.80 0.882
532.90 0.8816
533.00 0.8813
533.10 0.8809
533.20 0.8806
533.30 0.8802
533.40 0.8799
533.50 0.8795
533.60 0.8792
533.70 0.8788
533.80 0.8785
533.90 0.8781
534.00 0.8778
534.10 0.8774
534.20 0.8771
534.30 0.8767
534.40 0.8764
534.50 0.876
534.60 0.8757
534.70 0.8753
534.80 0.875
534.90 0.8746
535.00 0.8743
535.10 0.8739
535.20 0.8736
535.30 0.8732
535.40 0.8729
535.50 0.8725
535.60 0.8722
535.70 0.8718
535.80 0.8715
535.90 0.8711
536.00 0.8708
536.10 0.8704
536.20 0.8701
536.30 0.8697
536.40 0.8694
536.50 0.869
536.60 0.8687
536.70 0.8683
536.80 0.868
536.90 0.8676
537.00 0.8673
537.10 0.867
537.20 0.8666
537.30 0.8663
537.40 0.8659
537.50 0.8656
537.60 0.8652
537.70 0.8649
537.80 0.8645
537.90 0.8642
538.00 0.8638
538.10 0.8635
538.20 0.8632
538.30 0.8628
538.40 0.8625
538.50 0.8621
538.60 0.8618
538.70 0.8614
538.80 0.8611
538.90 0.8607
539.00 0.8604
539.10 0.86
539.20 0.8597
539.30 0.8594
539.40 0.859
539.50 0.8587
539.60 0.8583
539.70 0.858
539.80 0.8576
539.90 0.8573
540.00 0.857
540.10 0.8566
540.20 0.8563
540.30 0.8559
540.40 0.8556
540.50 0.8553
540.60 0.8549
540.70 0.8546
540.80 0.8542
540.90 0.8539
541.00 0.8535
541.10 0.8532
541.20 0.8529
541.30 0.8525
541.40 0.8522
541.50 0.8518
541.60 0.8515
541.70 0.8512
541.80 0.8508
541.90 0.8505
542.00 0.8501
542.10 0.8498
542.20 0.8495
542.30 0.8491
542.40 0.8488
542.50 0.8484
542.60 0.8481
542.70 0.8478
542.80 0.8474
542.90 0.8471
543.00 0.8467
543.10 0.8464
543.20 0.8461
543.30 0.8457
543.40 0.8454
543.50 0.8451
543.60 0.8447
543.70 0.8444
543.80 0.8441
543.90 0.8437
544.00 0.8434
544.10 0.843
544.20 0.8427
544.30 0.8424
544.40 0.842
544.50 0.8417
544.60 0.8414
544.70 0.841
544.80 0.8407
544.90 0.8403
545.00 0.84
545.10 0.8397
545.20 0.8393
545.30 0.839
545.40 0.8387
545.50 0.8383
545.60 0.838
545.70 0.8377
545.80 0.8373
545.90 0.837
546.00 0.8367
546.10 0.8363
546.20 0.836
546.30 0.8357
546.40 0.8354
546.50 0.835
546.60 0.8347
546.70 0.8344
546.80 0.8341
546.90 0.8337
547.00 0.8334
547.10 0.8331
547.20 0.8328
547.30 0.8324
547.40 0.8321
547.50 0.8318
547.60 0.8314
547.70 0.8311
547.80 0.8308
547.90 0.8304
548.00 0.8301
548.10 0.8298
548.20 0.8294
548.30 0.8291
548.40 0.8288
548.50 0.8284
548.60 0.8281
548.70 0.8278
548.80 0.8275
548.90 0.8271
549.00 0.8268
549.10 0.8265
549.20 0.8261
549.30 0.8258
549.40 0.8255
549.50 0.8252
549.60 0.8248
549.70 0.8245
549.80 0.8242
549.90 0.8238
550.00 0.8235
550.10 0.8232
550.20 0.8228
550.30 0.8225
550.40 0.8222
550.50 0.8219
550.60 0.8215
550.70 0.8212
550.80 0.8209
550.90 0.8206
551.00 0.8202
551.10 0.8199
551.20 0.8196
551.30 0.8193
551.40 0.8189
551.50 0.8186
551.60 0.8183
551.70 0.8179
551.80 0.8176
551.90 0.8173
552.00 0.817
552.10 0.8166
552.20 0.8163
552.30 0.816
552.40 0.8157
552.50 0.8153
552.60 0.815
552.70 0.8147
552.80 0.8144
552.90 0.814
553.00 0.8137
553.10 0.8134
553.20 0.8131
553.30 0.8127
553.40 0.8124
553.50 0.8121
553.60 0.8118
553.70 0.8114
553.80 0.8111
553.90 0.8108
554.00 0.8105
554.10 0.8101
554.20 0.8098
554.30 0.8095
554.40 0.8092
554.50 0.8088
554.60 0.8085
554.70 0.8082
554.80 0.8079
554.90 0.8076
555.00 0.8072
555.10 0.8069
555.20 0.8066
555.30 0.8063
555.40 0.806
555.50 0.8056
555.60 0.8053
555.70 0.805
555.80 0.8047
555.90 0.8043
556.00 0.804
556.10 0.8037
556.20 0.8034
556.30 0.8031
556.40 0.8027
556.50 0.8024
556.60 0.8021
556.70 0.8018
556.80 0.8015
556.90 0.8012
557.00 0.8008
557.10 0.8005
557.20 0.8002
557.30 0.7999
557.40 0.7996
557.50 0.7993
557.60 0.7989
557.70 0.7986
557.80 0.7983
557.90 0.798
558.00 0.7977
558.10 0.7973
558.20 0.797
558.30 0.7967
558.40 0.7964
558.50 0.7961
558.60 0.7958
558.70 0.7954
558.80 0.7951
558.90 0.7948
559.00 0.7945
559.10 0.7942
559.20 0.7939
559.30 0.7935
559.40 0.7932
559.50 0.7929
559.60 0.7926
559.70 0.7923
559.80 0.792
559.90 0.7916
560.00 0.7913
560.10 0.791
560.20 0.7907
560.30 0.7904
560.40 0.7901
560.50 0.7897
560.60 0.7894
560.70 0.7891
560.80 0.7888
560.90 0.7885
561.00 0.7882
561.10 0.7879
561.20 0.7876
561.30 0.7872
561.40 0.7869
561.50 0.7866
561.60 0.7863
561.70 0.786
561.80 0.7857
561.90 0.7854
562.00 0.785
562.10 0.7847
562.20 0.7844
562.30 0.7841
562.40 0.7838
562.50 0.7835
562.60 0.7832
562.70 0.7829
562.80 0.7826
562.90 0.7823
563.00 0.7819
563.10 0.7816
563.20 0.7813
563.30 0.781
563.40 0.7807
563.50 0.7804
563.60 0.7801
563.70 0.7798
563.80 0.7795
563.90 0.7792
564.00 0.7788
564.10 0.7785
564.20 0.7782
564.30 0.7779
564.40 0.7776
564.50 0.7773
564.60 0.777
564.70 0.7767
564.80 0.7764
564.90 0.7761
565.00 0.7758
565.10 0.7754
565.20 0.7751
565.30 0.7748
565.40 0.7745
565.50 0.7742
565.60 0.7739
565.70 0.7736
565.80 0.7733
565.90 0.773
566.00 0.7727
566.10 0.7724
566.20 0.7721
566.30 0.7718
566.40 0.7715
566.50 0.7712
566.60 0.7708
566.70 0.7705
566.80 0.7702
566.90 0.7699
567.00 0.7696
567.10 0.7693
567.20 0.769
567.30 0.7687
567.40 0.7684
567.50 0.7681
567.60 0.7678
567.70 0.7675
567.80 0.7672
567.90 0.7669
568.00 0.7666
568.10 0.7663
568.20 0.766
568.30 0.7657
568.40 0.7654
568.50 0.7651
568.60 0.7648
568.70 0.7644
568.80 0.7641
568.90 0.7638
569.00 0.7635
569.10 0.7632
569.20 0.7629
569.30 0.7626
569.40 0.7623
569.50 0.762
569.60 0.7617
569.70 0.7614
569.80 0.7611
569.90 0.7608
570.00 0.7605
570.10 0.7602
570.20 0.7599
570.30 0.7596
570.40 0.7593
570.50 0.759
570.60 0.7587
570.70 0.7584
570.80 0.7581
570.90 0.7578
571.00 0.7575
571.10 0.7572
571.20 0.7569
571.30 0.7566
571.40 0.7563
571.50 0.756
571.60 0.7557
571.70 0.7554
571.80 0.7551
571.90 0.7548
572.00 0.7545
572.10 0.7542
572.20 0.7539
572.30 0.7536
572.40 0.7533
572.50 0.753
572.60 0.7527
572.70 0.7524
572.80 0.7521
572.90 0.7518
573.00 0.7515
573.10 0.7512
573.20 0.7509
573.30 0.7506
573.40 0.7503
573.50 0.75
573.60 0.7498
573.70 0.7495
573.80 0.7492
573.90 0.7489
574.00 0.7486
574.10 0.7483
574.20 0.748
574.30 0.7477
574.40 0.7474
574.50 0.7471
574.60 0.7468
574.70 0.7465
574.80 0.7462
574.90 0.7459
575.00 0.7456
575.10 0.7453
575.20 0.745
575.30 0.7447
575.40 0.7444
575.50 0.7441
575.60 0.7438
575.70 0.7435
575.80 0.7433
575.90 0.743
576.00 0.7427
576.10 0.7424
576.20 0.7421
576.30 0.7418
576.40 0.7415
576.50 0.7412
576.60 0.7409
576.70 0.7406
576.80 0.7403
576.90 0.74
577.00 0.7397
577.10 0.7394
577.20 0.7391
577.30 0.7389
577.40 0.7386
577.50 0.7383
577.60 0.738
577.70 0.7377
577.80 0.7374
577.90 0.7371
578.00 0.7368
578.10 0.7365
578.20 0.7363
578.30 0.736
578.40 0.7357
578.50 0.7354
578.60 0.7351
578.70 0.7348
578.80 0.7345
578.90 0.7342
579.00 0.7339
579.10 0.7336
579.20 0.7333
579.30 0.7331
579.40 0.7328
579.50 0.7325
579.60 0.7322
579.70 0.7319
579.80 0.7316
579.90 0.7313
580.00 0.731
580.10 0.7307
580.20 0.7305
580.30 0.7302
580.40 0.7299
580.50 0.7296
580.60 0.7293
580.70 0.729
580.80 0.7287
580.90 0.7284
581.00 0.7282
581.10 0.7279
581.20 0.7276
581.30 0.7273
581.40 0.727
581.50 0.7267
581.60 0.7264
581.70 0.7261
581.80 0.7259
581.90 0.7256
582.00 0.7253
582.10 0.725
582.20 0.7247
582.30 0.7244
582.40 0.7241
582.50 0.7239
582.60 0.7236
582.70 0.7233
582.80 0.723
582.90 0.7227
583.00 0.7224
583.10 0.7222
583.20 0.7219
583.30 0.7216
583.40 0.7213
583.50 0.721
583.60 0.7207
583.70 0.7204
583.80 0.7202
583.90 0.7199
584.00 0.7196
584.10 0.7193
584.20 0.719
584.30 0.7187
584.40 0.7185
584.50 0.7182
584.60 0.7179
584.70 0.7176
584.80 0.7173
584.90 0.717
585.00 0.7168
585.10 0.7165
585.20 0.7162
585.30 0.7159
585.40 0.7156
585.50 0.7154
585.60 0.7151
585.70 0.7148
585.80 0.7145
585.90 0.7142
586.00 0.7139
586.10 0.7137
586.20 0.7134
586.30 0.7131
586.40 0.7128
586.50 0.7125
586.60 0.7123
586.70 0.712
586.80 0.7117
586.90 0.7114
587.00 0.7111
587.10 0.7109
587.20 0.7106
587.30 0.7103
587.40 0.71
587.50 0.7097
587.60 0.7095
587.70 0.7092
587.80 0.7089
587.90 0.7086
588.00 0.7084
588.10 0.7081
588.20 0.7078
588.30 0.7075
588.40 0.7072
588.50 0.707
588.60 0.7067
588.70 0.7064
588.80 0.7061
588.90 0.7059
589.00 0.7056
589.10 0.7053
589.20 0.705
589.30 0.7047
589.40 0.7045
589.50 0.7042
589.60 0.7039
589.70 0.7036
589.80 0.7034
589.90 0.7031
590.00 0.7028
590.10 0.7025
590.20 0.7023
590.30 0.702
590.40 0.7017
590.50 0.7014
590.60 0.7012
590.70 0.7009
590.80 0.7006
590.90 0.7003
591.00 0.7
591.10 0.6998
591.20 0.6995
591.30 0.6992
591.40 0.6989
591.50 0.6987
591.60 0.6984
591.70 0.6981
591.80 0.6979
591.90 0.6976
592.00 0.6973
592.10 0.697
592.20 0.6968
592.30 0.6965
592.40 0.6962
592.50 0.6959
592.60 0.6957
592.70 0.6954
592.80 0.6951
592.90 0.6948
593.00 0.6946
593.10 0.6943
593.20 0.694
593.30 0.6938
593.40 0.6935
593.50 0.6932
593.60 0.6929
593.70 0.6927
593.80 0.6924
593.90 0.6921
594.00 0.6919
594.10 0.6916
594.20 0.6913
594.30 0.6911
594.40 0.6908
594.50 0.6905
594.60 0.6902
594.70 0.69
594.80 0.6897
594.90 0.6894
595.00 0.6892
595.10 0.6889
595.20 0.6886
595.30 0.6884
595.40 0.6881
595.50 0.6878
595.60 0.6875
595.70 0.6873
595.80 0.687
595.90 0.6867
596.00 0.6865
596.10 0.6862
596.20 0.6859
596.30 0.6856
596.40 0.6853
596.50 0.685
596.60 0.6847
596.70 0.6845
596.80 0.6842
596.90 0.6839
597.00 0.6836
597.10 0.6833
597.20 0.683
597.30 0.6827
597.40 0.6825
597.50 0.6822
597.60 0.6819
597.70 0.6817
597.80 0.6814
597.90 0.6811
598.00 0.6809
598.10 0.6806
598.20 0.6803
598.30 0.6801
598.40 0.6798
598.50 0.6795
598.60 0.6793
598.70 0.679
598.80 0.6787
598.90 0.6785
599.00 0.6782
599.10 0.6779
599.20 0.6777
599.30 0.6774
599.40 0.6771
599.50 0.6769
599.60 0.6766
599.70 0.6763
599.80 0.6761
599.90 0.6758
600.00 0.6755
600.10 0.6753
600.20 0.675
600.30 0.6748
600.40 0.6745
600.50 0.6742
600.60 0.674
600.70 0.6737
600.80 0.6734
600.90 0.6732
601.00 0.6729
601.10 0.6726
601.20 0.6724
601.30 0.6721
601.40 0.6718
601.50 0.6716
601.60 0.6713
601.70 0.6711
601.80 0.6708
601.90 0.6705
602.00 0.6703
602.10 0.67
602.20 0.6697
602.30 0.6695
602.40 0.6692
602.50 0.669
602.60 0.6687
602.70 0.6684
602.80 0.6682
602.90 0.6679
603.00 0.6676
603.10 0.6674
603.20 0.6671
603.30 0.6669
603.40 0.6666
603.50 0.6663
603.60 0.6661
603.70 0.6658
603.80 0.6656
603.90 0.6653
604.00 0.665
604.10 0.6648
604.20 0.6645
604.30 0.6643
604.40 0.664
604.50 0.6637
604.60 0.6635
604.70 0.6632
604.80 0.663
604.90 0.6627
605.00 0.6624
605.10 0.6622
605.20 0.6619
605.30 0.6617
605.40 0.6614
605.50 0.6611
605.60 0.6609
605.70 0.6606
605.80 0.6604
605.90 0.6601
606.00 0.6598
606.10 0.6596
606.20 0.6593
606.30 0.6591
606.40 0.6588
606.50 0.6586
606.60 0.6583
606.70 0.658
606.80 0.6578
606.90 0.6575
607.00 0.6573
607.10 0.657
607.20 0.6568
607.30 0.6565
607.40 0.6562
607.50 0.656
607.60 0.6557
607.70 0.6555
607.80 0.6552
607.90 0.655
608.00 0.6547
608.10 0.6544
608.20 0.6542
608.30 0.6539
608.40 0.6537
608.50 0.6534
608.60 0.6532
608.70 0.6529
608.80 0.6526
608.90 0.6524
609.00 0.6521
609.10 0.6519
609.20 0.6516
609.30 0.6514
609.40 0.6511
609.50 0.6509
609.60 0.6506
609.70 0.6504
609.80 0.6501
609.90 0.6498
610.00 0.6496
610.10 0.6493
610.20 0.6491
610.30 0.6488
610.40 0.6486
610.50 0.6483
610.60 0.6481
610.70 0.6478
610.80 0.6475
610.90 0.6473
611.00 0.647
611.10 0.6468
611.20 0.6465
611.30 0.6463
611.40 0.646
611.50 0.6458
611.60 0.6455
611.70 0.6453
611.80 0.645
611.90 0.6448
612.00 0.6445
612.10 0.6443
612.20 0.644
612.30 0.6438
612.40 0.6435
612.50 0.6433
612.60 0.643
612.70 0.6427
612.80 0.6425
612.90 0.6422
613.00 0.642
613.10 0.6417
613.20 0.6415
613.30 0.6412
613.40 0.641
613.50 0.6407
613.60 0.6405
613.70 0.6402
613.80 0.64
613.90 0.6397
614.00 0.6395
614.10 0.6392
614.20 0.639
614.30 0.6387
614.40 0.6385
614.50 0.6382
614.60 0.638
614.70 0.6377
614.80 0.6375
614.90 0.6372
615.00 0.637
615.10 0.6367
615.20 0.6365
615.30 0.6362
615.40 0.636
615.50 0.6357
615.60 0.6355
615.70 0.6352
615.80 0.635
615.90 0.6347
616.00 0.6345
616.10 0.6342
616.20 0.634
616.30 0.6337
616.40 0.6335
616.50 0.6332
616.60 0.633
616.70 0.6328
616.80 0.6325
616.90 0.6323
617.00 0.632
617.10 0.6318
617.20 0.6315
617.30 0.6313
617.40 0.631
617.50 0.6308
617.60 0.6305
617.70 0.6303
617.80 0.63
617.90 0.6298
618.00 0.6295
618.10 0.6293
618.20 0.629
618.30 0.6288
618.40 0.6285
618.50 0.6283
618.60 0.6281
618.70 0.6278
618.80 0.6276
618.90 0.6273
619.00 0.6271
619.10 0.6268
619.20 0.6266
619.30 0.6263
619.40 0.6261
619.50 0.6258
619.60 0.6256
619.70 0.6253
619.80 0.6251
619.90 0.6249
620.00 0.6246
620.10 0.6244
620.20 0.6241
620.30 0.6239
620.40 0.6236
620.50 0.6234
620.60 0.6231
620.70 0.6229
620.80 0.6226
620.90 0.6224
621.00 0.6221
621.10 0.6219
621.20 0.6217
621.30 0.6214
621.40 0.6212
621.50 0.6209
621.60 0.6207
621.70 0.6204
621.80 0.6202
621.90 0.62
622.00 0.6197
622.10 0.6195
622.20 0.6192
622.30 0.619
622.40 0.6187
622.50 0.6185
622.60 0.6182
622.70 0.618
622.80 0.6178
622.90 0.6175
623.00 0.6173
623.10 0.617
623.20 0.6168
623.30 0.6165
623.40 0.6163
623.50 0.6161
623.60 0.6158
623.70 0.6156
623.80 0.6153
623.90 0.6151
624.00 0.6148
624.10 0.6146
624.20 0.6143
624.30 0.6141
624.40 0.6139
624.50 0.6136
624.60 0.6134
624.70 0.6131
624.80 0.6129
624.90 0.6126
625.00 0.6124
625.10 0.6122
625.20 0.6119
625.30 0.6117
625.40 0.6114
625.50 0.6112
625.60 0.6109
625.70 0.6107
625.80 0.6105
625.90 0.6102
626.00 0.61
626.10 0.6097
626.20 0.6095
626.30 0.6092
626.40 0.609
626.50 0.6088
626.60 0.6085
626.70 0.6083
626.80 0.608
626.90 0.6078
627.00 0.6075
627.10 0.6073
627.20 0.6071
627.30 0.6068
627.40 0.6066
627.50 0.6063
627.60 0.6061
627.70 0.6059
627.80 0.6056
627.90 0.6054
628.00 0.6051
628.10 0.6049
628.20 0.6046
628.30 0.6044
628.40 0.6042
628.50 0.6039
628.60 0.6037
628.70 0.6034
628.80 0.6032
628.90 0.603
629.00 0.6027
629.10 0.6025
629.20 0.6022
629.30 0.602
629.40 0.6017
629.50 0.6015
629.60 0.6013
629.70 0.601
629.80 0.6008
629.90 0.6005
630.00 0.6003
630.10 0.6001
630.20 0.5998
630.30 0.5996
630.40 0.5993
630.50 0.5991
630.60 0.5989
630.70 0.5986
630.80 0.5984
630.90 0.5981
631.00 0.5979
631.10 0.5976
631.20 0.5974
631.30 0.5972
631.40 0.5969
631.50 0.5967
631.60 0.5964
631.70 0.5962
631.80 0.5959
631.90 0.5957
632.00 0.5955
632.10 0.5952
632.20 0.595
632.30 0.5947
632.40 0.5945
632.50 0.5942
632.60 0.594
632.70 0.5937
632.80 0.5935
632.90 0.5933
633.00 0.593
633.10 0.5928
633.20 0.5925
633.30 0.5923
633.40 0.592
633.50 0.5918
633.60 0.5916
633.70 0.5913
633.80 0.5911
633.90 0.5908
634.00 0.5906
634.10 0.5903
634.20 0.5901
634.30 0.5898
634.40 0.5896
634.50 0.5893
634.60 0.5891
634.70 0.5888
634.80 0.5886
634.90 0.5884
635.00 0.5881
635.10 0.5879
635.20 0.5876
635.30 0.5874
635.40 0.5871
635.50 0.5869
635.60 0.5866
635.70 0.5864
635.80 0.5861
635.90 0.5859
636.00 0.5856
636.10 0.5854
636.20 0.5851
636.30 0.5849
636.40 0.5846
636.50 0.5844
636.60 0.5841
636.70 0.5839
636.80 0.5836
636.90 0.5834
637.00 0.5831
637.10 0.5829
637.20 0.5826
637.30 0.5823
637.40 0.5821
637.50 0.5818
637.60 0.5816
637.70 0.5813
637.80 0.5811
637.90 0.5808
638.00 0.5805
638.10 0.5803
638.20 0.58
638.30 0.5798
638.40 0.5795
638.50 0.5793
638.60 0.579
638.70 0.5787
638.80 0.5785
638.90 0.5782
639.00 0.578
639.10 0.5777
639.20 0.5774
639.30 0.5772
639.40 0.5769
639.50 0.5766
639.60 0.5764
639.70 0.5761
639.80 0.5758
639.90 0.5756
640.00 0.5753
640.10 0.575
640.20 0.5748
640.30 0.5745
640.40 0.5742
640.50 0.5739
640.60 0.5737
640.70 0.5734
640.80 0.5731
640.90 0.5728
641.00 0.5726
641.10 0.5723
641.20 0.572
641.30 0.5717
641.40 0.5714
641.50 0.5712
641.60 0.5709
641.70 0.5706
641.80 0.5703
641.90 0.57
642.00 0.5697
642.10 0.5694
642.20 0.5691
642.30 0.5689
642.40 0.5686
642.50 0.5682
642.60 0.5679
642.70 0.5676
642.80 0.5673
642.90 0.567
643.00 0.5667
643.10 0.5664
643.20 0.5661
643.30 0.5658
643.40 0.5655
643.50 0.5652
643.60 0.5649
643.70 0.5646
643.80 0.5642
643.90 0.5639
644.00 0.5636
644.10 0.5633
644.20 0.563
644.30 0.5626
644.40 0.5623
644.50 0.5619
644.60 0.5616
644.70 0.5613
644.80 0.5609
644.90 0.5606
645.00 0.5602
645.10 0.5599
645.20 0.5595
645.30 0.5592
645.40 0.5588
645.50 0.5584
645.60 0.558
645.70 0.5576
645.80 0.5573
645.90 0.5569
646.00 0.5565
646.10 0.5561
646.20 0.5557
646.30 0.5554
646.40 0.5549
646.50 0.5545
646.60 0.5541
646.70 0.5536
646.80 0.5532
646.90 0.5528
647.00 0.5524
647.10 0.5519
647.20 0.5515
647.30 0.5511
647.40 0.5506
647.50 0.5501
647.60 0.5496
647.70 0.5491
647.80 0.5486
647.90 0.5481
648.00 0.5476
648.10 0.5471
648.20 0.5466
648.30 0.5461
648.40 0.5455
648.50 0.545
648.60 0.5444
648.70 0.5438
648.80 0.5432
648.90 0.5426
649.00 0.542
649.10 0.5414
649.20 0.5408
649.30 0.5402
649.40 0.5395
649.50 0.5387
649.60 0.538
649.70 0.5373
649.80 0.5366
649.90 0.5358
650.00 0.5351
650.10 0.5344
650.20 0.5336
650.30 0.5329
650.40 0.5319
650.50 0.5309
650.60 0.53
650.70 0.529
650.80 0.5281
650.90 0.5271
651.00 0.5261
651.10 0.5252
651.20 0.5242
651.30 0.5231
651.40 0.5214
651.50 0.5197
651.60 0.5181
651.70 0.5164
651.80 0.5147
651.90 0.513
652.00 0.5113
652.10 0.5096
652.20 0.5079
652.30 0.506
652.40 0.5032
652.50 0.5004
652.60 0.4976
652.70 0.4948
652.80 0.4921
652.90 0.4893
653.00 0.4865
653.10 0.4837
653.20 0.4809
653.30 0.478
653.40 0.4742
653.50 0.4705
653.60 0.4668
653.70 0.4631
653.80 0.4594
653.90 0.4557
654.00 0.4521
654.10 0.4484
654.20 0.4447
654.30 0.4406
654.40 0.4351
654.50 0.4295
654.60 0.424
654.70 0.4184
654.80 0.4125
654.90 0.4052
655.00 0.3978
655.10 0.3904
655.20 0.3831
655.30 0.3754
655.40 0.3666
655.50 0.3577
655.60 0.3483
655.70 0.3388
655.80 0.3289
655.90 0.3188
656.00 0.3076
656.10 0.2961
656.20 0.277
656.30 0.2533
656.40 0.2868
656.50 0.3003
656.60 0.3113
656.70 0.322
656.80 0.3317
656.90 0.3413
657.00 0.3504
657.10 0.3594
657.20 0.368
657.30 0.3762
657.40 0.3832
657.50 0.3903
657.60 0.3973
657.70 0.4044
657.80 0.4111
657.90 0.4162
658.00 0.4214
658.10 0.4266
658.20 0.4318
658.30 0.4366
658.40 0.4399
658.50 0.4432
658.60 0.4465
658.70 0.4499
658.80 0.4532
658.90 0.4565
659.00 0.4598
659.10 0.4631
659.20 0.4664
659.30 0.4695
659.40 0.4718
659.50 0.4742
659.60 0.4766
659.70 0.4789
659.80 0.4813
659.90 0.4836
660.00 0.486
660.10 0.4883
660.20 0.4907
660.30 0.4928
660.40 0.494
660.50 0.4953
660.60 0.4965
660.70 0.4978
660.80 0.499
660.90 0.5003
661.00 0.5015
661.10 0.5028
661.20 0.504
661.30 0.5051
661.40 0.5057
661.50 0.5062
661.60 0.5067
661.70 0.5073
661.80 0.5078
661.90 0.5084
662.00 0.5089
662.10 0.5094
662.20 0.5099
662.30 0.5104
662.40 0.5107
662.50 0.511
662.60 0.5113
662.70 0.5117
662.80 0.512
662.90 0.5123
663.00 0.5126
663.10 0.5129
663.20 0.5132
663.30 0.5134
663.40 0.5136
663.50 0.5138
663.60 0.5139
663.70 0.5141
663.80 0.5143
663.90 0.5144
664.00 0.5146
664.10 0.5147
664.20 0.5149
664.30 0.5151
664.40 0.5151
664.50 0.5152
664.60 0.5153
664.70 0.5153
664.80 0.5154
664.90 0.5154
665.00 0.5155
665.10 0.5156
665.20 0.5156
665.30 0.5157
665.40 0.5157
665.50 0.5157
665.60 0.5157
665.70 0.5157
665.80 0.5157
665.90 0.5157
666.00 0.5157
666.10 0.5157
666.20 0.5157
666.30 0.5157
666.40 0.5157
666.50 0.5156
666.60 0.5156
666.70 0.5155
666.80 0.5155
666.90 0.5154
667.00 0.5154
667.10 0.5154
667.20 0.5153
667.30 0.5153
667.40 0.5152
667.50 0.5151
667.60 0.515
667.70 0.515
667.80 0.5149
667.90 0.5148
668.00 0.5147
668.10 0.5146
668.20 0.5146
668.30 0.5145
668.40 0.5144
668.50 0.5143
668.60 0.5142
668.70 0.5141
668.80 0.514
668.90 0.5139
669.00 0.5138
669.10 0.5137
669.20 0.5136
669.30 0.5135
669.40 0.5133
669.50 0.5132
669.60 0.5131
669.70 0.513
669.80 0.5129
669.90 0.5127
670.00 0.5126
670.10 0.5125
670.20 0.5124
670.30 0.5123
670.40 0.5121
670.50 0.512
670.60 0.5119
670.70 0.5117
670.80 0.5116
670.90 0.5115
671.00 0.5113
671.10 0.5112
671.20 0.5111
671.30 0.5109
671.40 0.5108
671.50 0.5106
671.60 0.5105
671.70 0.5103
671.80 0.5102
671.90 0.5101
672.00 0.5099
672.10 0.5098
672.20 0.5096
672.30 0.5095
672.40 0.5093
672.50 0.5092
672.60 0.509
672.70 0.5089
672.80 0.5087
672.90 0.5086
673.00 0.5084
673.10 0.5083
673.20 0.5081
673.30 0.508
673.40 0.5078
673.50 0.5077
673.60 0.5075
673.70 0.5073
673.80 0.5072
673.90 0.507
674.00 0.5069
674.10 0.5067
674.20 0.5066
674.30 0.5064
674.40 0.5062
674.50 0.5061
674.60 0.5059
674.70 0.5057
674.80 0.5056
674.90 0.5054
675.00 0.5053
675.10 0.5051
675.20 0.5049
675.30 0.5048
675.40 0.5046
675.50 0.5044
675.60 0.5043
675.70 0.5041
675.80 0.5039
675.90 0.5038
676.00 0.5036
676.10 0.5034
676.20 0.5033
676.30 0.5031
676.40 0.5029
676.50 0.5028
676.60 0.5026
676.70 0.5024
676.80 0.5023
676.90 0.5021
677.00 0.5019
677.10 0.5018
677.20 0.5016
677.30 0.5014
677.40 0.5013
677.50 0.5011
677.60 0.5009
677.70 0.5007
677.80 0.5006
677.90 0.5004
678.00 0.5002
678.10 0.5001
678.20 0.4999
678.30 0.4997
678.40 0.4996
678.50 0.4994
678.60 0.4992
678.70 0.499
678.80 0.4989
678.90 0.4987
679.00 0.4985
679.10 0.4983
679.20 0.4982
679.30 0.498
679.40 0.4978
679.50 0.4976
679.60 0.4975
679.70 0.4973
679.80 0.4971
679.90 0.497
680.00 0.4968
680.10 0.4966
680.20 0.4964
680.30 0.4963
680.40 0.4961
680.50 0.4959
680.60 0.4957
680.70 0.4956
680.80 0.4954
680.90 0.4952
681.00 0.495
681.10 0.4949
681.20 0.4947
681.30 0.4945
681.40 0.4943
681.50 0.4942
681.60 0.494
681.70 0.4938
681.80 0.4936
681.90 0.4935
682.00 0.4933
682.10 0.4931
682.20 0.4929
682.30 0.4928
682.40 0.4926
682.50 0.4924
682.60 0.4922
682.70 0.4921
682.80 0.4919
682.90 0.4917
683.00 0.4915
683.10 0.4914
683.20 0.4912
683.30 0.491
683.40 0.4908
683.50 0.4907
683.60 0.4905
683.70 0.4903
683.80 0.4901
683.90 0.49
684.00 0.4898
684.10 0.4896
684.20 0.4894
684.30 0.4893
684.40 0.4891
684.50 0.4889
684.60 0.4887
684.70 0.4886
684.80 0.4884
684.90 0.4882
685.00 0.488
685.10 0.4879
685.20 0.4877
685.30 0.4875
685.40 0.4873
685.50 0.4872
685.60 0.487
685.70 0.4868
685.80 0.4866
685.90 0.4865
686.00 0.4863
686.10 0.4861
686.20 0.4859
686.30 0.4858
686.40 0.4856
686.50 0.4854
686.60 0.4852
686.70 0.4851
686.80 0.4849
686.90 0.4847
687.00 0.4845
687.10 0.4844
687.20 0.4842
687.30 0.484
687.40 0.4838
687.50 0.4837
687.60 0.4835
687.70 0.4833
687.80 0.4831
687.90 0.483
688.00 0.4828
688.10 0.4826
688.20 0.4824
688.30 0.4823
688.40 0.4821
688.50 0.4819
688.60 0.4817
688.70 0.4816
688.80 0.4814
688.90 0.4812
689.00 0.481
689.10 0.4809
689.20 0.4807
689.30 0.4805
689.40 0.4803
689.50 0.4802
689.60 0.48
689.70 0.4798
689.80 0.4796
689.90 0.4795
690.00 0.4793
690.10 0.4791
690.20 0.4789
690.30 0.4788
690.40 0.4786
690.50 0.4784
690.60 0.4782
690.70 0.4781
690.80 0.4779
690.90 0.4777
691.00 0.4775
691.10 0.4774
691.20 0.4772
691.30 0.477
691.40 0.4768
691.50 0.4767
691.60 0.4765
691.70 0.4763
691.80 0.4761
691.90 0.476
692.00 0.4758
692.10 0.4756
692.20 0.4754
692.30 0.4753
692.40 0.4751
692.50 0.4749
692.60 0.4748
692.70 0.4746
692.80 0.4744
692.90 0.4742
693.00 0.4741
693.10 0.4739
693.20 0.4737
693.30 0.4735
693.40 0.4734
693.50 0.4732
693.60 0.473
693.70 0.4729
693.80 0.4727
693.90 0.4725
694.00 0.4723
694.10 0.4722
694.20 0.472
694.30 0.4718
694.40 0.4716
694.50 0.4715
694.60 0.4713
694.70 0.4711
694.80 0.471
694.90 0.4708
695.00 0.4706
695.10 0.4704
695.20 0.4703
695.30 0.4701
695.40 0.4699
695.50 0.4698
695.60 0.4696
695.70 0.4694
695.80 0.4692
695.90 0.4691
696.00 0.4689
696.10 0.4687
696.20 0.4686
696.30 0.4684
696.40 0.4682
696.50 0.4681
696.60 0.4679
696.70 0.4677
696.80 0.4675
696.90 0.4674
697.00 0.4672
697.10 0.467
697.20 0.4669
697.30 0.4667
697.40 0.4665
697.50 0.4664
697.60 0.4662
697.70 0.466
697.80 0.4658
697.90 0.4657
698.00 0.4655
698.10 0.4653
698.20 0.4652
698.30 0.465
698.40 0.4648
698.50 0.4647
698.60 0.4645
698.70 0.4643
698.80 0.4642
698.90 0.464
699.00 0.4638
699.10 0.4637
699.20 0.4635
699.30 0.4633
699.40 0.4631
699.50 0.463
699.60 0.4628
699.70 0.4626
699.80 0.4625
699.90 0.4623
700.00 0.4621
700.10 0.462
700.20 0.4618
700.30 0.4617
700.40 0.4615
700.50 0.4614
700.60 0.4612
700.70 0.4611
700.80 0.461
700.90 0.4608
701.00 0.4607
701.10 0.4605
701.20 0.4604
701.30 0.4602
701.40 0.4601
701.50 0.4599
701.60 0.4598
701.70 0.4596
701.80 0.4595
701.90 0.4593
702.00 0.4592
702.10 0.459
702.20 0.4589
702.30 0.4587
702.40 0.4586
702.50 0.4584
702.60 0.4583
702.70 0.4582
702.80 0.458
702.90 0.4579
703.00 0.4577
703.10 0.4576
703.20 0.4574
703.30 0.4573
703.40 0.4571
703.50 0.457
703.60 0.4568
703.70 0.4567
703.80 0.4565
703.90 0.4564
704.00 0.4563
704.10 0.4561
704.20 0.456
704.30 0.4558
704.40 0.4557
704.50 0.4555
704.60 0.4554
704.70 0.4552
704.80 0.4551
704.90 0.4549
705.00 0.4548
705.10 0.4546
705.20 0.4545
705.30 0.4543
705.40 0.4541
705.50 0.454
705.60 0.4538
705.70 0.4536
705.80 0.4535
705.90 0.4533
706.00 0.4531
706.10 0.453
706.20 0.4528
706.30 0.4526
706.40 0.4525
706.50 0.4523
706.60 0.4521
706.70 0.452
706.80 0.4518
706.90 0.4517
707.00 0.4515
707.10 0.4513
707.20 0.4512
707.30 0.451
707.40 0.4508
707.50 0.4507
707.60 0.4505
707.70 0.4503
707.80 0.4502
707.90 0.45
708.00 0.4498
708.10 0.4497
708.20 0.4495
708.30 0.4494
708.40 0.4492
708.50 0.449
708.60 0.4489
708.70 0.4487
708.80 0.4485
708.90 0.4484
709.00 0.4482
709.10 0.448
709.20 0.4479
709.30 0.4477
709.40 0.4476
709.50 0.4474
709.60 0.4472
709.70 0.4471
709.80 0.4469
709.90 0.4467
710.00 0.4466
710.10 0.4464
710.20 0.4463
710.30 0.4461
710.40 0.4459
710.50 0.4458
710.60 0.4456
710.70 0.4454
710.80 0.4453
710.90 0.4451
711.00 0.445
711.10 0.4448
711.20 0.4446
711.30 0.4445
711.40 0.4443
711.50 0.4442
711.60 0.444
711.70 0.4438
711.80 0.4437
711.90 0.4435
712.00 0.4433
712.10 0.4432
712.20 0.443
712.30 0.4429
712.40 0.4427
712.50 0.4425
712.60 0.4424
712.70 0.4422
712.80 0.4421
712.90 0.4419
713.00 0.4417
713.10 0.4416
713.20 0.4414
713.30 0.4413
713.40 0.4411
713.50 0.4409
713.60 0.4408
713.70 0.4406
713.80 0.4405
713.90 0.4403
714.00 0.4401
714.10 0.44
714.20 0.4398
714.30 0.4397
714.40 0.4395
714.50 0.4393
714.60 0.4392
714.70 0.439
714.80 0.4389
714.90 0.4387
715.00 0.4385
715.10 0.4384
715.20 0.4382
715.30 0.4381
715.40 0.4379
715.50 0.4378
715.60 0.4376
715.70 0.4374
715.80 0.4373
715.90 0.4371
716.00 0.437
716.10 0.4368
716.20 0.4366
716.30 0.4365
716.40 0.4363
716.50 0.4362
716.60 0.436
716.70 0.4359
716.80 0.4357
716.90 0.4355
717.00 0.4354
717.10 0.4352
717.20 0.4351
717.30 0.4349
717.40 0.4348
717.50 0.4346
717.60 0.4345
717.70 0.4343
717.80 0.4341
717.90 0.434
718.00 0.4338
718.10 0.4337
718.20 0.4335
718.30 0.4334
718.40 0.4332
718.50 0.433
718.60 0.4329
718.70 0.4327
718.80 0.4326
718.90 0.4324
719.00 0.4323
719.10 0.4321
719.20 0.432
719.30 0.4318
719.40 0.4317
719.50 0.4315
719.60 0.4313
719.70 0.4312
719.80 0.431
719.90 0.4309
720.00 0.4307
720.10 0.4306
720.20 0.4304
720.30 0.4303
720.40 0.4301
720.50 0.4299
720.60 0.4298
720.70 0.4296
720.80 0.4295
720.90 0.4293
721.00 0.4292
721.10 0.429
721.20 0.4289
721.30 0.4287
721.40 0.4285
721.50 0.4284
721.60 0.4282
721.70 0.4281
721.80 0.4279
721.90 0.4278
722.00 0.4276
722.10 0.4275
722.20 0.4273
722.30 0.4271
722.40 0.427
722.50 0.4268
722.60 0.4267
722.70 0.4265
722.80 0.4264
722.90 0.4262
723.00 0.4261
723.10 0.4259
723.20 0.4258
723.30 0.4256
723.40 0.4254
723.50 0.4253
723.60 0.4251
723.70 0.425
723.80 0.4248
723.90 0.4247
724.00 0.4245
724.10 0.4244
724.20 0.4242
724.30 0.4241
724.40 0.4239
724.50 0.4238
724.60 0.4236
724.70 0.4234
724.80 0.4233
724.90 0.4231
725.00 0.423
725.10 0.4228
725.20 0.4227
725.30 0.4225
725.40 0.4224
725.50 0.4222
725.60 0.4221
725.70 0.4219
725.80 0.4218
725.90 0.4216
726.00 0.4215
726.10 0.4213
726.20 0.4212
726.30 0.421
726.40 0.4209
726.50 0.4207
726.60 0.4206
726.70 0.4204
726.80 0.4202
726.90 0.4201
727.00 0.4199
727.10 0.4198
727.20 0.4196
727.30 0.4195
727.40 0.4193
727.50 0.4192
727.60 0.419
727.70 0.4189
727.80 0.4187
727.90 0.4186
728.00 0.4184
728.10 0.4183
728.20 0.4181
728.30 0.418
728.40 0.4178
728.50 0.4177
728.60 0.4175
728.70 0.4174
728.80 0.4172
728.90 0.4171
729.00 0.4169
729.10 0.4168
729.20 0.4166
729.30 0.4165
729.40 0.4163
729.50 0.4162
729.60 0.416
729.70 0.4159
729.80 0.4157
729.90 0.4156
730.00 0.4154
730.10 0.4153
730.20 0.4151
730.30 0.415
730.40 0.4148
730.50 0.4147
730.60 0.4145
730.70 0.4144
730.80 0.4142
730.90 0.4141
731.00 0.4139
731.10 0.4138
731.20 0.4136
731.30 0.4135
731.40 0.4133
731.50 0.4132
731.60 0.413
731.70 0.4129
731.80 0.4127
731.90 0.4126
732.00 0.4124
732.10 0.4123
732.20 0.4121
732.30 0.412
732.40 0.4119
732.50 0.4117
732.60 0.4116
732.70 0.4114
732.80 0.4113
732.90 0.4111
733.00 0.411
733.10 0.4108
733.20 0.4107
733.30 0.4105
733.40 0.4104
733.50 0.4102
733.60 0.4101
733.70 0.4099
733.80 0.4098
733.90 0.4096
734.00 0.4095
734.10 0.4093
734.20 0.4092
734.30 0.409
734.40 0.4089
734.50 0.4088
734.60 0.4086
734.70 0.4085
734.80 0.4083
734.90 0.4082
735.00 0.408
735.10 0.4079
735.20 0.4077
735.30 0.4076
735.40 0.4074
735.50 0.4073
735.60 0.4071
735.70 0.407
735.80 0.4068
735.90 0.4067
736.00 0.4066
736.10 0.4064
736.20 0.4063
736.30 0.4061
736.40 0.406
736.50 0.4058
736.60 0.4057
736.70 0.4055
736.80 0.4054
736.90 0.4052
737.00 0.4051
737.10 0.405
737.20 0.4048
737.30 0.4047
737.40 0.4045
737.50 0.4044
737.60 0.4042
737.70 0.4041
737.80 0.4039
737.90 0.4038
738.00 0.4037
738.10 0.4035
738.20 0.4034
738.30 0.4032
738.40 0.4031
738.50 0.4029
738.60 0.4028
738.70 0.4026
738.80 0.4025
738.90 0.4024
739.00 0.4022
739.10 0.4021
739.20 0.4019
739.30 0.4018
739.40 0.4016
739.50 0.4015
739.60 0.4013
739.70 0.4012
739.80 0.4011
739.90 0.4009
740.00 0.4008
740.10 0.4006
740.20 0.4005
740.30 0.4003
740.40 0.4002
740.50 0.4001
740.60 0.3999
740.70 0.3998
740.80 0.3996
740.90 0.3995
741.00 0.3993
741.10 0.3992
741.20 0.3991
741.30 0.3989
741.40 0.3988
741.50 0.3986
741.60 0.3985
741.70 0.3983
741.80 0.3982
741.90 0.3981
742.00 0.3979
742.10 0.3978
742.20 0.3976
742.30 0.3975
742.40 0.3973
742.50 0.3972
742.60 0.3971
742.70 0.3969
742.80 0.3968
742.90 0.3966
743.00 0.3965
743.10 0.3964
743.20 0.3962
743.30 0.3961
743.40 0.3959
743.50 0.3958
743.60 0.3956
743.70 0.3955
743.80 0.3954
743.90 0.3952
744.00 0.3951
744.10 0.3949
744.20 0.3948
744.30 0.3947
744.40 0.3945
744.50 0.3944
744.60 0.3942
744.70 0.3941
744.80 0.394
744.90 0.3938
745.00 0.3937
745.10 0.3935
745.20 0.3934
745.30 0.3933
745.40 0.3931
745.50 0.393
745.60 0.3928
745.70 0.3927
745.80 0.3926
745.90 0.3924
746.00 0.3923
746.10 0.3921
746.20 0.392
746.30 0.3919
746.40 0.3917
746.50 0.3916
746.60 0.3914
746.70 0.3913
746.80 0.3912
746.90 0.391
747.00 0.3909
747.10 0.3907
747.20 0.3906
747.30 0.3905
747.40 0.3903
747.50 0.3902
747.60 0.3901
747.70 0.3899
747.80 0.3898
747.90 0.3896
748.00 0.3895
748.10 0.3894
748.20 0.3892
748.30 0.3891
748.40 0.3889
748.50 0.3888
748.60 0.3887
748.70 0.3885
748.80 0.3884
748.90 0.3883
749.00 0.3881
749.10 0.388
749.20 0.3878
749.30 0.3877
749.40 0.3876
749.50 0.3874
749.60 0.3873
749.70 0.3872
749.80 0.387
749.90 0.3869
750.00 0.3867
750.10 0.3866
750.20 0.3865
750.30 0.3863
750.40 0.3862
750.50 0.3861
750.60 0.3859
750.70 0.3858
750.80 0.3856
750.90 0.3855
751.00 0.3854
751.10 0.3852
751.20 0.3851
751.30 0.385
751.40 0.3848
751.50 0.3847
751.60 0.3845
751.70 0.3844
751.80 0.3843
751.90 0.3841
752.00 0.384
752.10 0.3839
752.20 0.3837
752.30 0.3836
752.40 0.3835
752.50 0.3833
752.60 0.3832
752.70 0.3831
752.80 0.3829
752.90 0.3828
753.00 0.3826
753.10 0.3825
753.20 0.3824
753.30 0.3822
753.40 0.3821
753.50 0.382
753.60 0.3818
753.70 0.3817
753.80 0.3816
753.90 0.3814
754.00 0.3813
754.10 0.3812
754.20 0.381
754.30 0.3809
754.40 0.3807
754.50 0.3806
754.60 0.3805
754.70 0.3803
754.80 0.3802
754.90 0.3801
755.00 0.3799
755.10 0.3798
755.20 0.3797
755.30 0.3795
755.40 0.3794
755.50 0.3793
755.60 0.3791
755.70 0.379
755.80 0.3789
755.90 0.3787
756.00 0.3786
756.10 0.3785
756.20 0.3783
756.30 0.3782
756.40 0.3781
756.50 0.3779
756.60 0.3778
756.70 0.3777
756.80 0.3775
756.90 0.3774
757.00 0.3773
757.10 0.3771
757.20 0.377
757.30 0.3769
757.40 0.3767
757.50 0.3766
757.60 0.3765
757.70 0.3763
757.80 0.3762
757.90 0.3761
758.00 0.3759
758.10 0.3758
758.20 0.3757
758.30 0.3755
758.40 0.3754
758.50 0.3753
758.60 0.3751
758.70 0.375
758.80 0.3749
758.90 0.3747
759.00 0.3746
759.10 0.3745
759.20 0.3743
759.30 0.3742
759.40 0.3741
759.50 0.3739
759.60 0.3738
759.70 0.3737
759.80 0.3735
759.90 0.3734
760.00 0.3733
760.10 0.3731
760.20 0.373
760.30 0.3729
760.40 0.3728
760.50 0.3726
760.60 0.3725
760.70 0.3724
760.80 0.3722
760.90 0.3721
761.00 0.372
761.10 0.3718
761.20 0.3717
761.30 0.3716
761.40 0.3714
761.50 0.3713
761.60 0.3712
761.70 0.3711
761.80 0.3709
761.90 0.3708
762.00 0.3707
762.10 0.3705
762.20 0.3704
762.30 0.3703
762.40 0.3701
762.50 0.37
762.60 0.3699
762.70 0.3697
762.80 0.3696
762.90 0.3695
763.00 0.3694
763.10 0.3692
763.20 0.3691
763.30 0.369
763.40 0.3688
763.50 0.3687
763.60 0.3686
763.70 0.3684
763.80 0.3683
763.90 0.3682
764.00 0.3681
764.10 0.3679
764.20 0.3678
764.30 0.3677
764.40 0.3675
764.50 0.3674
764.60 0.3673
764.70 0.3672
764.80 0.367
764.90 0.3669
765.00 0.3668
765.10 0.3666
765.20 0.3665
765.30 0.3664
765.40 0.3662
765.50 0.3661
765.60 0.366
765.70 0.3659
765.80 0.3657
765.90 0.3656
766.00 0.3655
766.10 0.3653
766.20 0.3652
766.30 0.3651
766.40 0.365
766.50 0.3648
766.60 0.3647
766.70 0.3646
766.80 0.3645
766.90 0.3643
767.00 0.3642
767.10 0.3641
767.20 0.3639
767.30 0.3638
767.40 0.3637
767.50 0.3636
767.60 0.3634
767.70 0.3633
767.80 0.3632
767.90 0.363
768.00 0.3629
768.10 0.3628
768.20 0.3627
768.30 0.3625
768.40 0.3624
768.50 0.3623
768.60 0.3622
768.70 0.362
768.80 0.3619
768.90 0.3618
769.00 0.3617
769.10 0.3615
769.20 0.3614
769.30 0.3613
769.40 0.3611
769.50 0.361
769.60 0.3609
769.70 0.3608
769.80 0.3606
769.90 0.3605
770.00 0.3604
770.10 0.3603
770.20 0.3601
770.30 0.36
770.40 0.3599
770.50 0.3598
770.60 0.3596
770.70 0.3595
770.80 0.3594
770.90 0.3593
771.00 0.3591
771.10 0.359
771.20 0.3589
771.30 0.3587
771.40 0.3586
771.50 0.3585
771.60 0.3584
771.70 0.3582
771.80 0.3581
771.90 0.358
772.00 0.3579
772.10 0.3577
772.20 0.3576
772.30 0.3575
772.40 0.3574
772.50 0.3572
772.60 0.3571
772.70 0.357
772.80 0.3569
772.90 0.3567
773.00 0.3566
773.10 0.3565
773.20 0.3564
773.30 0.3562
773.40 0.3561
773.50 0.356
773.60 0.3559
773.70 0.3558
773.80 0.3556
773.90 0.3555
774.00 0.3554
774.10 0.3553
774.20 0.3551
774.30 0.355
774.40 0.3549
774.50 0.3548
774.60 0.3546
774.70 0.3545
774.80 0.3544
774.90 0.3543
775.00 0.3541
775.10 0.354
775.20 0.3539
775.30 0.3538
775.40 0.3536
775.50 0.3535
775.60 0.3534
775.70 0.3533
775.80 0.3532
775.90 0.353
776.00 0.3529
776.10 0.3528
776.20 0.3527
776.30 0.3525
776.40 0.3524
776.50 0.3523
776.60 0.3522
776.70 0.352
776.80 0.3519
776.90 0.3518
777.00 0.3517
777.10 0.3516
777.20 0.3514
777.30 0.3513
777.40 0.3512
777.50 0.3511
777.60 0.3509
777.70 0.3508
777.80 0.3507
777.90 0.3506
778.00 0.3505
778.10 0.3503
778.20 0.3502
778.30 0.3501
778.40 0.35
778.50 0.3498
778.60 0.3497
778.70 0.3496
778.80 0.3495
778.90 0.3494
779.00 0.3492
779.10 0.3491
779.20 0.349
779.30 0.3489
779.40 0.3488
779.50 0.3486
779.60 0.3485
779.70 0.3484
779.80 0.3483
779.90 0.3481
780.00 0.348
780.10 0.3479
780.20 0.3478
780.30 0.3477
780.40 0.3475
780.50 0.3474
780.60 0.3473
780.70 0.3472
780.80 0.3471
780.90 0.3469
781.00 0.3468
781.10 0.3467
781.20 0.3466
781.30 0.3465
781.40 0.3463
781.50 0.3462
781.60 0.3461
781.70 0.346
781.80 0.3459
781.90 0.3457
782.00 0.3456
782.10 0.3455
782.20 0.3454
782.30 0.3453
782.40 0.3451
782.50 0.345
782.60 0.3449
782.70 0.3448
782.80 0.3447
782.90 0.3445
783.00 0.3444
783.10 0.3443
783.20 0.3442
783.30 0.3441
783.40 0.3439
783.50 0.3438
783.60 0.3437
783.70 0.3436
783.80 0.3435
783.90 0.3433
784.00 0.3432
784.10 0.3431
784.20 0.343
784.30 0.3429
784.40 0.3427
784.50 0.3426
784.60 0.3425
784.70 0.3424
784.80 0.3423
784.90 0.3422
785.00 0.342
785.10 0.3419
785.20 0.3418
785.30 0.3417
785.40 0.3416
785.50 0.3414
785.60 0.3413
785.70 0.3412
785.80 0.3411
785.90 0.341
786.00 0.3409
786.10 0.3407
786.20 0.3406
786.30 0.3405
786.40 0.3404
786.50 0.3403
786.60 0.3401
786.70 0.34
786.80 0.3399
786.90 0.3398
787.00 0.3397
787.10 0.3396
787.20 0.3394
787.30 0.3393
787.40 0.3392
787.50 0.3391
787.60 0.339
787.70 0.3389
787.80 0.3387
787.90 0.3386
788.00 0.3385
788.10 0.3384
788.20 0.3383
788.30 0.3381
788.40 0.338
788.50 0.3379
788.60 0.3378
788.70 0.3377
788.80 0.3376
788.90 0.3374
789.00 0.3373
789.10 0.3372
789.20 0.3371
789.30 0.337
789.40 0.3369
789.50 0.3367
789.60 0.3366
789.70 0.3365
789.80 0.3364
789.90 0.3363
790.00 0.3362
790.10 0.3361
790.20 0.3359
790.30 0.3358
790.40 0.3357
790.50 0.3356
790.60 0.3355
790.70 0.3354
790.80 0.3352
790.90 0.3351
791.00 0.335
791.10 0.3349
791.20 0.3348
791.30 0.3347
791.40 0.3345
791.50 0.3344
791.60 0.3343
791.70 0.3342
791.80 0.3341
791.90 0.334
792.00 0.3339
792.10 0.3337
792.20 0.3336
792.30 0.3335
792.40 0.3334
792.50 0.3333
792.60 0.3332
792.70 0.3331
792.80 0.3329
792.90 0.3328
793.00 0.3327
793.10 0.3326
793.20 0.3325
793.30 0.3324
793.40 0.3323
793.50 0.3321
793.60 0.332
793.70 0.3319
793.80 0.3318
793.90 0.3317
794.00 0.3316
794.10 0.3315
794.20 0.3313
794.30 0.3312
794.40 0.3311
794.50 0.331
794.60 0.3309
794.70 0.3308
794.80 0.3307
794.90 0.3305
795.00 0.3304
795.10 0.3303
795.20 0.3302
795.30 0.3301
795.40 0.33
795.50 0.3299
795.60 0.3297
795.70 0.3296
795.80 0.3295
795.90 0.3294
796.00 0.3293
796.10 0.3292
796.20 0.3291
796.30 0.329
796.40 0.3288
796.50 0.3287
796.60 0.3286
796.70 0.3285
796.80 0.3284
796.90 0.3283
797.00 0.3282
797.10 0.3281
797.20 0.3279
797.30 0.3278
797.40 0.3277
797.50 0.3276
797.60 0.3275
797.70 0.3274
797.80 0.3273
797.90 0.3272
798.00 0.327
798.10 0.3269
798.20 0.3268
798.30 0.3267
798.40 0.3266
798.50 0.3265
798.60 0.3264
798.70 0.3263
798.80 0.3261
798.90 0.326
799.00 0.3259
799.10 0.3258
799.20 0.3257
799.30 0.3256
799.40 0.3255
799.50 0.3254
799.60 0.3253
799.70 0.3251
799.80 0.325
799.90 0.3249
800.00 0.3248
800.10 0.3247
800.20 0.3246
800.30 0.3245
800.40 0.3244
800.50 0.3242
800.60 0.3241
800.70 0.324
800.80 0.3239
800.90 0.3238
801.00 0.3237
801.10 0.3236
801.20 0.3235
801.30 0.3234
801.40 0.3233
801.50 0.3231
801.60 0.323
801.70 0.3229
801.80 0.3228
801.90 0.3227
802.00 0.3226
802.10 0.3225
802.20 0.3224
802.30 0.3223
802.40 0.3221
802.50 0.322
802.60 0.3219
802.70 0.3218
802.80 0.3217
802.90 0.3216
803.00 0.3215
803.10 0.3214
803.20 0.3213
803.30 0.3212
803.40 0.321
803.50 0.3209
803.60 0.3208
803.70 0.3207
803.80 0.3206
803.90 0.3205
804.00 0.3204
804.10 0.3203
804.20 0.3202
804.30 0.3201
804.40 0.32
804.50 0.3198
804.60 0.3197
804.70 0.3196
804.80 0.3195
804.90 0.3194
805.00 0.3193
805.10 0.3192
805.20 0.3191
805.30 0.319
805.40 0.3189
805.50 0.3188
805.60 0.3186
805.70 0.3185
805.80 0.3184
805.90 0.3183
806.00 0.3182
806.10 0.3181
806.20 0.318
806.30 0.3179
806.40 0.3178
806.50 0.3177
806.60 0.3176
806.70 0.3174
806.80 0.3173
806.90 0.3172
807.00 0.3171
807.10 0.317
807.20 0.3169
807.30 0.3168
807.40 0.3167
807.50 0.3166
807.60 0.3165
807.70 0.3164
807.80 0.3163
807.90 0.3162
808.00 0.316
808.10 0.3159
808.20 0.3158
808.30 0.3157
808.40 0.3156
808.50 0.3155
808.60 0.3154
808.70 0.3153
808.80 0.3152
808.90 0.3151
809.00 0.315
809.10 0.3149
809.20 0.3148
809.30 0.3146
809.40 0.3145
809.50 0.3144
809.60 0.3143
809.70 0.3142
809.80 0.3141
809.90 0.314
810.00 0.3139
810.10 0.3138
810.20 0.3137
810.30 0.3136
810.40 0.3135
810.50 0.3134
810.60 0.3133
810.70 0.3131
810.80 0.313
810.90 0.3129
811.00 0.3128
811.10 0.3127
811.20 0.3126
811.30 0.3125
811.40 0.3124
811.50 0.3123
811.60 0.3122
811.70 0.3121
811.80 0.312
811.90 0.3119
812.00 0.3118
812.10 0.3117
812.20 0.3116
812.30 0.3115
812.40 0.3113
812.50 0.3112
812.60 0.3111
812.70 0.311
812.80 0.3109
812.90 0.3108
813.00 0.3107
813.10 0.3106
813.20 0.3105
813.30 0.3104
813.40 0.3103
813.50 0.3102
813.60 0.3101
813.70 0.31
813.80 0.3099
813.90 0.3098
814.00 0.3097
814.10 0.3096
814.20 0.3094
814.30 0.3093
814.40 0.3092
814.50 0.3091
814.60 0.309
814.70 0.3089
814.80 0.3088
814.90 0.3087
815.00 0.3086
815.10 0.3085
815.20 0.3084
815.30 0.3083
815.40 0.3082
815.50 0.3081
815.60 0.308
815.70 0.3079
815.80 0.3078
815.90 0.3077
816.00 0.3076
816.10 0.3075
816.20 0.3074
816.30 0.3073
816.40 0.3071
816.50 0.307
816.60 0.3069
816.70 0.3068
816.80 0.3067
816.90 0.3066
817.00 0.3065
817.10 0.3064
817.20 0.3063
817.30 0.3062
817.40 0.3061
817.50 0.306
817.60 0.3059
817.70 0.3058
817.80 0.3057
817.90 0.3056
818.00 0.3055
818.10 0.3054
818.20 0.3053
818.30 0.3052
818.40 0.3051
818.50 0.305
818.60 0.3049
818.70 0.3048
818.80 0.3047
818.90 0.3046
819.00 0.3045
819.10 0.3043
819.20 0.3042
819.30 0.3041
819.40 0.304
819.50 0.3039
819.60 0.3038
819.70 0.3037
819.80 0.3036
819.90 0.3035
820.00 0.3034
820.10 0.3033
820.20 0.3032
820.30 0.3031
820.40 0.303
820.50 0.3029
820.60 0.3028
820.70 0.3027
820.80 0.3026
820.90 0.3025
821.00 0.3024
821.10 0.3023
821.20 0.3022
821.30 0.3021
821.40 0.302
821.50 0.3019
821.60 0.3018
821.70 0.3017
821.80 0.3016
821.90 0.3015
822.00 0.3014
822.10 0.3013
822.20 0.3012
822.30 0.3011
822.40 0.301
822.50 0.3009
822.60 0.3008
822.70 0.3007
822.80 0.3006
822.90 0.3005
823.00 0.3004
823.10 0.3003
823.20 0.3002
823.30 0.3001
823.40 0.3
823.50 0.2999
823.60 0.2998
823.70 0.2997
823.80 0.2996
823.90 0.2995
824.00 0.2994
824.10 0.2993
824.20 0.2992
824.30 0.2991
824.40 0.299
824.50 0.2989
824.60 0.2988
824.70 0.2987
824.80 0.2986
824.90 0.2985
825.00 0.2984
825.10 0.2983
825.20 0.2982
825.30 0.2981
825.40 0.298
825.50 0.2979
825.60 0.2978
825.70 0.2977
825.80 0.2976
825.90 0.2975
826.00 0.2974
826.10 0.2973
826.20 0.2972
826.30 0.2971
826.40 0.297
826.50 0.2969
826.60 0.2968
826.70 0.2967
826.80 0.2966
826.90 0.2965
827.00 0.2964
827.10 0.2963
827.20 0.2962
827.30 0.2961
827.40 0.296
827.50 0.2959
827.60 0.2958
827.70 0.2957
827.80 0.2956
827.90 0.2955
828.00 0.2954
828.10 0.2953
828.20 0.2952
828.30 0.2951
828.40 0.295
828.50 0.2949
828.60 0.2948
828.70 0.2947
828.80 0.2946
828.90 0.2945
829.00 0.2944
829.10 0.2943
829.20 0.2942
829.30 0.2941
829.40 0.294
829.50 0.2939
829.60 0.2938
829.70 0.2937
829.80 0.2936
829.90 0.2935
830.00 0.2934
830.10 0.2933
830.20 0.2932
830.30 0.2931
830.40 0.293
830.50 0.2929
830.60 0.2928
830.70 0.2927
830.80 0.2926
830.90 0.2925
831.00 0.2924
831.10 0.2923
831.20 0.2922
831.30 0.2921
831.40 0.292
831.50 0.2919
831.60 0.2918
831.70 0.2917
831.80 0.2916
831.90 0.2915
832.00 0.2914
832.10 0.2913
832.20 0.2912
832.30 0.2911
832.40 0.291
832.50 0.2909
832.60 0.2908
832.70 0.2907
832.80 0.2906
832.90 0.2906
833.00 0.2905
833.10 0.2904
833.20 0.2903
833.30 0.2902
833.40 0.2901
833.50 0.29
833.60 0.2899
833.70 0.2898
833.80 0.2897
833.90 0.2896
834.00 0.2895
834.10 0.2894
834.20 0.2893
834.30 0.2892
834.40 0.2891
834.50 0.289
834.60 0.2889
834.70 0.2888
834.80 0.2887
834.90 0.2886
835.00 0.2885
835.10 0.2884
835.20 0.2883
835.30 0.2882
835.40 0.2881
835.50 0.288
835.60 0.2879
835.70 0.2878
835.80 0.2877
835.90 0.2876
836.00 0.2875
836.10 0.2875
836.20 0.2874
836.30 0.2873
836.40 0.2872
836.50 0.2871
836.60 0.287
836.70 0.2869
836.80 0.2868
836.90 0.2867
837.00 0.2866
837.10 0.2865
837.20 0.2864
837.30 0.2863
837.40 0.2862
837.50 0.2861
837.60 0.286
837.70 0.2859
837.80 0.2858
837.90 0.2857
838.00 0.2856
838.10 0.2855
838.20 0.2854
838.30 0.2853
838.40 0.2853
838.50 0.2852
838.60 0.2851
838.70 0.285
838.80 0.2849
838.90 0.2848
839.00 0.2847
839.10 0.2846
839.20 0.2845
839.30 0.2844
839.40 0.2843
839.50 0.2842
839.60 0.2841
839.70 0.284
839.80 0.2839
839.90 0.2838
840.00 0.2837
840.10 0.2836
840.20 0.2835
840.30 0.2835
840.40 0.2834
840.50 0.2833
840.60 0.2832
840.70 0.2831
840.80 0.283
840.90 0.2829
841.00 0.2828
841.10 0.2827
841.20 0.2826
841.30 0.2825
841.40 0.2824
841.50 0.2823
841.60 0.2822
841.70 0.2821
841.80 0.282
841.90 0.2819
842.00 0.2819
842.10 0.2818
842.20 0.2817
842.30 0.2816
842.40 0.2815
842.50 0.2814
842.60 0.2813
842.70 0.2812
842.80 0.2811
842.90 0.281
843.00 0.2809
843.10 0.2808
843.20 0.2807
843.30 0.2806
843.40 0.2805
843.50 0.2804
843.60 0.2804
843.70 0.2803
843.80 0.2802
843.90 0.2801
844.00 0.28
844.10 0.2799
844.20 0.2798
844.30 0.2797
844.40 0.2796
844.50 0.2795
844.60 0.2794
844.70 0.2793
844.80 0.2792
844.90 0.2791
845.00 0.2791
845.10 0.279
845.20 0.2789
845.30 0.2788
845.40 0.2787
845.50 0.2786
845.60 0.2785
845.70 0.2784
845.80 0.2783
845.90 0.2782
846.00 0.2781
846.10 0.278
846.20 0.2779
846.30 0.2779
846.40 0.2778
846.50 0.2777
846.60 0.2776
846.70 0.2775
846.80 0.2774
846.90 0.2773
847.00 0.2772
847.10 0.2771
847.20 0.277
847.30 0.2769
847.40 0.2769
847.50 0.2768
847.60 0.2767
847.70 0.2766
847.80 0.2765
847.90 0.2764
848.00 0.2763
848.10 0.2762
848.20 0.2762
848.30 0.2761
848.40 0.276
848.50 0.2759
848.60 0.2758
848.70 0.2757
848.80 0.2756
848.90 0.2755
849.00 0.2755
849.10 0.2754
849.20 0.2753
849.30 0.2752
849.40 0.2751
849.50 0.275
849.60 0.2749
849.70 0.2748
849.80 0.2748
849.90 0.2747
850.00 0.2746
850.10 0.2745
850.20 0.2744
850.30 0.2743
850.40 0.2742
850.50 0.2741
850.60 0.2741
850.70 0.274
850.80 0.2739
850.90 0.2738
851.00 0.2737
851.10 0.2736
851.20 0.2735
851.30 0.2735
851.40 0.2734
851.50 0.2733
851.60 0.2732
851.70 0.2731
851.80 0.273
851.90 0.2729
852.00 0.2729
852.10 0.2728
852.20 0.2727
852.30 0.2726
852.40 0.2725
852.50 0.2724
852.60 0.2723
852.70 0.2722
852.80 0.2722
852.90 0.2721
853.00 0.272
853.10 0.2719
853.20 0.2718
853.30 0.2717
853.40 0.2716
853.50 0.2715
853.60 0.2715
853.70 0.2714
853.80 0.2713
853.90 0.2712
854.00 0.2711
854.10 0.271
854.20 0.2709
854.30 0.2709
854.40 0.2708
854.50 0.2707
854.60 0.2706
854.70 0.2705
854.80 0.2704
854.90 0.2703
855.00 0.2703
855.10 0.2702
855.20 0.2701
855.30 0.27
855.40 0.2699
855.50 0.2698
855.60 0.2697
855.70 0.2696
855.80 0.2696
855.90 0.2695
856.00 0.2694
856.10 0.2693
856.20 0.2692
856.30 0.2691
856.40 0.269
856.50 0.269
856.60 0.2689
856.70 0.2688
856.80 0.2687
856.90 0.2686
857.00 0.2685
857.10 0.2684
857.20 0.2684
857.30 0.2683
857.40 0.2682
857.50 0.2681
857.60 0.268
857.70 0.2679
857.80 0.2679
857.90 0.2678
858.00 0.2677
858.10 0.2676
858.20 0.2675
858.30 0.2674
858.40 0.2674
858.50 0.2673
858.60 0.2672
858.70 0.2671
858.80 0.267
858.90 0.2669
859.00 0.2668
859.10 0.2668
859.20 0.2667
859.30 0.2666
859.40 0.2665
859.50 0.2664
859.60 0.2663
859.70 0.2663
859.80 0.2662
859.90 0.2661
860.00 0.266
860.10 0.2659
860.20 0.2658
860.30 0.2658
860.40 0.2657
860.50 0.2656
860.60 0.2655
860.70 0.2654
860.80 0.2653
860.90 0.2653
861.00 0.2652
861.10 0.2651
861.20 0.265
861.30 0.2649
861.40 0.2648
861.50 0.2648
861.60 0.2647
861.70 0.2646
861.80 0.2645
861.90 0.2644
862.00 0.2643
862.10 0.2642
862.20 0.2642
862.30 0.2641
862.40 0.264
862.50 0.2639
862.60 0.2638
862.70 0.2637
862.80 0.2636
862.90 0.2635
863.00 0.2634
863.10 0.2633
863.20 0.2632
863.30 0.2631
863.40 0.263
863.50 0.2629
863.60 0.2628
863.70 0.2627
863.80 0.2626
863.90 0.2625
864.00 0.2625
864.10 0.2624
864.20 0.2623
864.30 0.2622
864.40 0.2621
864.50 0.262
864.60 0.2619
864.70 0.2618
864.80 0.2617
864.90 0.2616
865.00 0.2615
865.10 0.2614
865.20 0.2613
865.30 0.2612
865.40 0.2611
865.50 0.261
865.60 0.261
865.70 0.2609
865.80 0.2608
865.90 0.2607
866.00 0.2606
866.10 0.2605
866.20 0.2604
866.30 0.2603
866.40 0.2602
866.50 0.2601
866.60 0.26
866.70 0.2599
866.80 0.2598
866.90 0.2597
867.00 0.2596
867.10 0.2596
867.20 0.2595
867.30 0.2594
867.40 0.2594
867.50 0.2593
867.60 0.2592
867.70 0.2592
867.80 0.2591
867.90 0.259
868.00 0.259
868.10 0.2589
868.20 0.2588
868.30 0.2588
868.40 0.2587
868.50 0.2586
868.60 0.2586
868.70 0.2585
868.80 0.2584
868.90 0.2583
869.00 0.2583
869.10 0.2582
869.20 0.2581
869.30 0.2581
869.40 0.258
869.50 0.2579
869.60 0.2579
869.70 0.2578
869.80 0.2577
869.90 0.2577
870.00 0.2576
870.10 0.2575
870.20 0.2575
870.30 0.2574
870.40 0.2573
870.50 0.2573
870.60 0.2572
870.70 0.2571
870.80 0.2571
870.90 0.257
871.00 0.2569
871.10 0.2568
871.20 0.2568
871.30 0.2567
871.40 0.2566
871.50 0.2566
871.60 0.2565
871.70 0.2564
871.80 0.2564
871.90 0.2563
872.00 0.2562
872.10 0.2561
872.20 0.2561
872.30 0.256
872.40 0.2559
872.50 0.2558
872.60 0.2557
872.70 0.2556
872.80 0.2555
872.90 0.2554
873.00 0.2553
873.10 0.2553
873.20 0.2552
873.30 0.2551
873.40 0.255
873.50 0.2549
873.60 0.2548
873.70 0.2547
873.80 0.2546
873.90 0.2545
874.00 0.2545
874.10 0.2544
874.20 0.2543
874.30 0.2542
874.40 0.2541
874.50 0.254
874.60 0.2539
874.70 0.2538
874.80 0.2537
874.90 0.2537
875.00 0.2536
875.10 0.2535
875.20 0.2534
875.30 0.2533
875.40 0.2532
875.50 0.2531
875.60 0.253
875.70 0.2529
875.80 0.2529
875.90 0.2528
876.00 0.2527
876.10 0.2526
876.20 0.2525
876.30 0.2524
876.40 0.2523
876.50 0.2522
876.60 0.2522
876.70 0.2521
876.80 0.252
876.90 0.2519
877.00 0.2518
877.10 0.2517
877.20 0.2517
877.30 0.2516
877.40 0.2515
877.50 0.2515
877.60 0.2514
877.70 0.2513
877.80 0.2513
877.90 0.2512
878.00 0.2511
878.10 0.2511
878.20 0.251
878.30 0.2509
878.40 0.2509
878.50 0.2508
878.60 0.2507
878.70 0.2507
878.80 0.2506
878.90 0.2505
879.00 0.2505
879.10 0.2504
879.20 0.2504
879.30 0.2503
879.40 0.2502
879.50 0.2502
879.60 0.2501
879.70 0.25
879.80 0.25
879.90 0.2499
880.00 0.2498
880.10 0.2498
880.20 0.2497
880.30 0.2496
880.40 0.2496
880.50 0.2495
880.60 0.2494
880.70 0.2494
880.80 0.2493
880.90 0.2492
881.00 0.2492
881.10 0.2491
881.20 0.249
881.30 0.249
881.40 0.2489
881.50 0.2488
881.60 0.2488
881.70 0.2487
881.80 0.2487
881.90 0.2486
882.00 0.2485
882.10 0.2484
882.20 0.2482
882.30 0.2481
882.40 0.248
882.50 0.2478
882.60 0.2477
882.70 0.2476
882.80 0.2474
882.90 0.2473
883.00 0.2471
883.10 0.247
883.20 0.2469
883.30 0.2467
883.40 0.2466
883.50 0.2465
883.60 0.2463
883.70 0.2462
883.80 0.246
883.90 0.2459
884.00 0.2458
884.10 0.2456
884.20 0.2455
884.30 0.2453
884.40 0.2452
884.50 0.2451
884.60 0.2449
884.70 0.2448
884.80 0.2447
884.90 0.2445
885.00 0.2444
885.10 0.2443
885.20 0.2441
885.30 0.244
885.40 0.2438
885.50 0.2437
885.60 0.2436
885.70 0.2434
885.80 0.2433
885.90 0.2432
886.00 0.243
886.10 0.2429
886.20 0.2428
886.30 0.2426
886.40 0.2425
886.50 0.2423
886.60 0.2422
886.70 0.2421
886.80 0.2419
886.90 0.2418
887.00 0.2417
887.10 0.2417
887.20 0.2416
887.30 0.2416
887.40 0.2416
887.50 0.2416
887.60 0.2416
887.70 0.2416
887.80 0.2416
887.90 0.2416
888.00 0.2416
888.10 0.2416
888.20 0.2416
888.30 0.2416
888.40 0.2415
888.50 0.2415
888.60 0.2415
888.70 0.2415
888.80 0.2415
888.90 0.2415
889.00 0.2415
889.10 0.2415
889.20 0.2415
889.30 0.2415
889.40 0.2415
889.50 0.2415
889.60 0.2415
889.70 0.2414
889.80 0.2414
889.90 0.2414
890.00 0.2414
890.10 0.2414
890.20 0.2414
890.30 0.2414
890.40 0.2414
890.50 0.2414
890.60 0.2414
890.70 0.2414
890.80 0.2414
890.90 0.2413
891.00 0.2413
891.10 0.2413
891.20 0.2413
891.30 0.2413
891.40 0.2413
891.50 0.2413
891.60 0.2413
891.70 0.2413
891.80 0.2413
891.90 0.2413
892.00 0.2413
892.10 0.2412
892.20 0.2411
892.30 0.241
892.40 0.2409
892.50 0.2408
892.60 0.2408
892.70 0.2407
892.80 0.2406
892.90 0.2405
893.00 0.2404
893.10 0.2403
893.20 0.2403
893.30 0.2402
893.40 0.2401
893.50 0.24
893.60 0.2399
893.70 0.2399
893.80 0.2398
893.90 0.2397
894.00 0.2396
894.10 0.2395
894.20 0.2394
894.30 0.2394
894.40 0.2393
894.50 0.2392
894.60 0.2391
894.70 0.239
894.80 0.239
894.90 0.2389
895.00 0.2388
895.10 0.2387
895.20 0.2386
895.30 0.2385
895.40 0.2385
895.50 0.2384
895.60 0.2383
895.70 0.2382
895.80 0.2381
895.90 0.2381
896.00 0.238
896.10 0.2379
896.20 0.2378
896.30 0.2377
896.40 0.2376
896.50 0.2376
896.60 0.2375
896.70 0.2374
896.80 0.2373
896.90 0.2372
897.00 0.2372
897.10 0.237
897.20 0.2368
897.30 0.2366
897.40 0.2364
897.50 0.2362
897.60 0.236
897.70 0.2358
897.80 0.2357
897.90 0.2355
898.00 0.2353
898.10 0.2351
898.20 0.2349
898.30 0.2347
898.40 0.2345
898.50 0.2344
898.60 0.2342
898.70 0.234
898.80 0.2338
898.90 0.2336
899.00 0.2334
899.10 0.2332
899.20 0.233
899.30 0.2329
899.40 0.2327
899.50 0.2325
899.60 0.2323
899.70 0.2321
899.80 0.2319
899.90 0.2318
900.00 0.2316
900.10 0.2314
900.20 0.2312
900.30 0.231
900.40 0.2308
900.50 0.2306
900.60 0.2305
900.70 0.2303
900.80 0.2301
900.90 0.2299
901.00 0.2297
901.10 0.2295
901.20 0.2293
901.30 0.2292
901.40 0.229
901.50 0.2288
901.60 0.2286
901.70 0.2284
901.80 0.2282
901.90 0.2281
902.00 0.2279
902.10 0.2279
902.20 0.228
902.30 0.228
902.40 0.2281
902.50 0.2281
902.60 0.2282
902.70 0.2282
902.80 0.2283
902.90 0.2283
903.00 0.2284
903.10 0.2284
903.20 0.2285
903.30 0.2285
903.40 0.2286
903.50 0.2286
903.60 0.2287
903.70 0.2287
903.80 0.2288
903.90 0.2288
904.00 0.2289
904.10 0.2289
904.20 0.229
904.30 0.229
904.40 0.2291
904.50 0.2291
904.60 0.2292
904.70 0.2292
904.80 0.2293
904.90 0.2293
905.00 0.2294
905.10 0.2294
905.20 0.2295
905.30 0.2295
905.40 0.2296
905.50 0.2296
905.60 0.2297
905.70 0.2297
905.80 0.2298
905.90 0.2298
906.00 0.2298
906.10 0.2299
906.20 0.2299
906.30 0.23
906.40 0.23
906.50 0.2301
906.60 0.2301
906.70 0.2302
906.80 0.2302
906.90 0.2303
907.00 0.2303
907.10 0.2303
907.20 0.2302
907.30 0.2302
907.40 0.2301
907.50 0.2301
907.60 0.23
907.70 0.2299
907.80 0.2299
907.90 0.2298
908.00 0.2298
908.10 0.2297
908.20 0.2297
908.30 0.2296
908.40 0.2296
908.50 0.2295
908.60 0.2294
908.70 0.2294
908.80 0.2293
908.90 0.2293
909.00 0.2292
909.10 0.2292
909.20 0.2291
909.30 0.2291
909.40 0.229
909.50 0.2289
909.60 0.2289
909.70 0.2288
909.80 0.2288
909.90 0.2287
910.00 0.2287
910.10 0.2286
910.20 0.2286
910.30 0.2285
910.40 0.2284
910.50 0.2284
910.60 0.2283
910.70 0.2283
910.80 0.2282
910.90 0.2282
911.00 0.2281
911.10 0.2281
911.20 0.228
911.30 0.228
911.40 0.2279
911.50 0.2278
911.60 0.2278
911.70 0.2277
911.80 0.2277
911.90 0.2276
912.00 0.2276
912.10 0.2275
912.20 0.2274
912.30 0.2273
912.40 0.2272
912.50 0.2271
912.60 0.227
912.70 0.227
912.80 0.2269
912.90 0.2268
913.00 0.2267
913.10 0.2266
913.20 0.2265
913.30 0.2264
913.40 0.2263
913.50 0.2263
913.60 0.2262
913.70 0.2261
913.80 0.226
913.90 0.2259
914.00 0.2258
914.10 0.2257
914.20 0.2256
914.30 0.2256
914.40 0.2255
914.50 0.2254
914.60 0.2253
914.70 0.2252
914.80 0.2251
914.90 0.225
915.00 0.2249
915.10 0.2249
915.20 0.2248
915.30 0.2247
915.40 0.2246
915.50 0.2245
915.60 0.2244
915.70 0.2243
915.80 0.2243
915.90 0.2242
916.00 0.2241
916.10 0.224
916.20 0.2239
916.30 0.2238
916.40 0.2237
916.50 0.2237
916.60 0.2236
916.70 0.2235
916.80 0.2234
916.90 0.2233
917.00 0.2232
917.10 0.2229
917.20 0.2226
917.30 0.2224
917.40 0.2221
917.50 0.2218
917.60 0.2215
917.70 0.2212
917.80 0.2209
917.90 0.2207
918.00 0.2204
918.10 0.2201
918.20 0.2198
918.30 0.2195
918.40 0.2192
918.50 0.219
918.60 0.2187
918.70 0.2184
918.80 0.2181
918.90 0.2178
919.00 0.2176
919.10 0.2173
919.20 0.217
919.30 0.2167
919.40 0.2164
919.50 0.2161
919.60 0.2159
919.70 0.2156
919.80 0.2153
919.90 0.215
920.00 0.2147
920.10 0.2145
920.20 0.2142
920.30 0.2139
920.40 0.2136
920.50 0.2133
920.60 0.2131
920.70 0.2128
920.80 0.2125
920.90 0.2122
921.00 0.2119
921.10 0.2116
921.20 0.2114
921.30 0.2111
921.40 0.2108
921.50 0.2105
921.60 0.2103
921.70 0.21
921.80 0.2097
921.90 0.2094
922.00 0.2091
922.10 0.2092
922.20 0.2093
922.30 0.2093
922.40 0.2094
922.50 0.2095
922.60 0.2095
922.70 0.2096
922.80 0.2097
922.90 0.2097
923.00 0.2098
923.10 0.2099
923.20 0.2099
923.30 0.21
923.40 0.21
923.50 0.2101
923.60 0.2102
923.70 0.2102
923.80 0.2103
923.90 0.2104
924.00 0.2104
924.10 0.2105
924.20 0.2106
924.30 0.2106
924.40 0.2107
924.50 0.2108
924.60 0.2108
924.70 0.2109
924.80 0.2109
924.90 0.211
925.00 0.2111
925.10 0.2111
925.20 0.2112
925.30 0.2113
925.40 0.2113
925.50 0.2114
925.60 0.2115
925.70 0.2115
925.80 0.2116
925.90 0.2117
926.00 0.2117
926.10 0.2118
926.20 0.2118
926.30 0.2119
926.40 0.212
926.50 0.212
926.60 0.2121
926.70 0.2122
926.80 0.2122
926.90 0.2123
927.00 0.2124
927.10 0.2124
927.20 0.2124
927.30 0.2124
927.40 0.2124
927.50 0.2124
927.60 0.2124
927.70 0.2124
927.80 0.2124
927.90 0.2124
928.00 0.2124
928.10 0.2124
928.20 0.2124
928.30 0.2125
928.40 0.2125
928.50 0.2125
928.60 0.2125
928.70 0.2125
928.80 0.2125
928.90 0.2125
929.00 0.2125
929.10 0.2125
929.20 0.2125
929.30 0.2125
929.40 0.2125
929.50 0.2125
929.60 0.2125
929.70 0.2126
929.80 0.2126
929.90 0.2126
930.00 0.2126
930.10 0.2126
930.20 0.2126
930.30 0.2126
930.40 0.2126
930.50 0.2126
930.60 0.2126
930.70 0.2126
930.80 0.2126
930.90 0.2126
931.00 0.2127
931.10 0.2127
931.20 0.2127
931.30 0.2127
931.40 0.2127
931.50 0.2127
931.60 0.2127
931.70 0.2127
931.80 0.2127
931.90 0.2127
932.00 0.2127
932.10 0.2127
932.20 0.2126
932.30 0.2126
932.40 0.2126
932.50 0.2125
932.60 0.2125
932.70 0.2125
932.80 0.2124
932.90 0.2124
933.00 0.2123
933.10 0.2123
933.20 0.2123
933.30 0.2122
933.40 0.2122
933.50 0.2122
933.60 0.2121
933.70 0.2121
933.80 0.212
933.90 0.212
934.00 0.212
934.10 0.2119
934.20 0.2119
934.30 0.2119
934.40 0.2118
934.50 0.2117
934.60 0.2117
934.70 0.2116
934.80 0.2116
934.90 0.2115
935.00 0.2115
935.10 0.2114
935.20 0.2114
935.30 0.2113
935.40 0.2113
935.50 0.2112
935.60 0.2112
935.70 0.2111
935.80 0.2111
935.90 0.211
936.00 0.211
936.10 0.2109
936.20 0.2109
936.30 0.2108
936.40 0.2107
936.50 0.2107
936.60 0.2106
936.70 0.2106
936.80 0.2105
936.90 0.2105
937.00 0.2104
937.10 0.2104
937.20 0.2103
937.30 0.2102
937.40 0.2102
937.50 0.2101
937.60 0.2101
937.70 0.21
937.80 0.2099
937.90 0.2099
938.00 0.2098
938.10 0.2098
938.20 0.2097
938.30 0.2096
938.40 0.2096
938.50 0.2095
938.60 0.2094
938.70 0.2094
938.80 0.2093
938.90 0.2092
939.00 0.2092
939.10 0.2091
939.20 0.209
939.30 0.209
939.40 0.2089
939.50 0.2088
939.60 0.2087
939.70 0.2087
939.80 0.2086
939.90 0.2085
940.00 0.2085
940.10 0.2084
940.20 0.2083
940.30 0.2083
940.40 0.2082
940.50 0.2081
940.60 0.208
940.70 0.208
940.80 0.2079
940.90 0.2078
941.00 0.2077
941.10 0.2076
941.20 0.2076
941.30 0.2075
941.40 0.2074
941.50 0.2073
941.60 0.2073
941.70 0.2072
941.80 0.2071
941.90 0.207
942.00 0.2069
942.10 0.2069
942.20 0.2068
942.30 0.2067
942.40 0.2066
942.50 0.2065
942.60 0.2064
942.70 0.2063
942.80 0.2062
942.90 0.2061
943.00 0.206
943.10 0.2059
943.20 0.2058
943.30 0.2057
943.40 0.2056
943.50 0.2056
943.60 0.2055
943.70 0.2054
943.80 0.2053
943.90 0.2052
944.00 0.2051
944.10 0.205
944.20 0.2049
944.30 0.2048
944.40 0.2047
944.50 0.2046
944.60 0.2045
944.70 0.2044
944.80 0.2042
944.90 0.2041
945.00 0.204
945.10 0.2039
945.20 0.2038
945.30 0.2037
945.40 0.2036
945.50 0.2034
945.60 0.2033
945.70 0.2031
945.80 0.203
945.90 0.2029
946.00 0.2027
946.10 0.2026
946.20 0.2025
946.30 0.2023
946.40 0.2022
946.50 0.2021
946.60 0.2019
946.70 0.2018
946.80 0.2017
946.90 0.2015
947.00 0.2014
947.10 0.2013
947.20 0.2011
947.30 0.2009
947.40 0.2008
947.50 0.2006
947.60 0.2004
947.70 0.2002
947.80 0.2
947.90 0.1998
948.00 0.1996
948.10 0.1994
948.20 0.1992
948.30 0.1991
948.40 0.1989
948.50 0.1987
948.60 0.1985
948.70 0.1983
948.80 0.1981
948.90 0.1979
949.00 0.1977
949.10 0.1976
949.20 0.1974
949.30 0.1972
949.40 0.1969
949.50 0.1966
949.60 0.1963
949.70 0.196
949.80 0.1958
949.90 0.1955
950.00 0.1952
950.10 0.1949
950.20 0.1946
950.30 0.1943
950.40 0.1941
950.50 0.1938
950.60 0.1935
950.70 0.1932
950.80 0.1929
950.90 0.1927
951.00 0.1924
951.10 0.1921
951.20 0.1918
951.30 0.1915
951.40 0.1911
951.50 0.1907
951.60 0.1903
951.70 0.1899
951.80 0.1895
951.90 0.1891
952.00 0.1887
952.10 0.1882
952.20 0.1877
952.30 0.1871
952.40 0.1866
952.50 0.1861
952.60 0.1856
952.70 0.1851
952.80 0.1846
952.90 0.184
953.00 0.1834
953.10 0.1828
953.20 0.1822
953.30 0.1816
953.40 0.181
953.50 0.1804
953.60 0.1803
953.70 0.1801
953.80 0.18
953.90 0.1798
954.00 0.1801
954.10 0.1805
954.20 0.1818
954.30 0.1833
954.40 0.1809
954.50 0.1795
954.60 0.1791
954.70 0.1787
954.80 0.1787
954.90 0.1788
955.00 0.1789
955.10 0.179
955.20 0.1794
955.30 0.1799
955.40 0.1803
955.50 0.1808
955.60 0.1812
955.70 0.1817
955.80 0.1821
955.90 0.1825
956.00 0.1828
956.10 0.1832
956.20 0.1835
956.30 0.1839
956.40 0.1842
956.50 0.1846
956.60 0.1849
956.70 0.1853
956.80 0.1857
956.90 0.186
957.00 0.1864
957.10 0.1866
957.20 0.1869
957.30 0.1871
957.40 0.1873
957.50 0.1874
957.60 0.1876
957.70 0.1877
957.80 0.1879
957.90 0.1881
958.00 0.1882
958.10 0.1884
958.20 0.1885
958.30 0.1887
958.40 0.1888
958.50 0.189
958.60 0.1891
958.70 0.1893
958.80 0.1895
958.90 0.1896
959.00 0.1898
959.10 0.1899
959.20 0.1901
959.30 0.1902
959.40 0.1903
959.50 0.1904
959.60 0.1904
959.70 0.1905
959.80 0.1906
959.90 0.1906
960.00 0.1907
960.10 0.1908
960.20 0.1908
960.30 0.1909
960.40 0.191
960.50 0.191
960.60 0.1911
960.70 0.1912
960.80 0.1912
960.90 0.1913
961.00 0.1914
961.10 0.1914
961.20 0.1915
961.30 0.1915
961.40 0.1916
961.50 0.1916
961.60 0.1916
961.70 0.1917
961.80 0.1917
961.90 0.1917
962.00 0.1918
962.10 0.1918
962.20 0.1918
962.30 0.1918
962.40 0.1918
962.50 0.1918
962.60 0.1918
962.70 0.1919
962.80 0.1919
962.90 0.1919
963.00 0.1919
963.10 0.1919
963.20 0.1919
963.30 0.1919
963.40 0.1919
963.50 0.1919
963.60 0.1919
963.70 0.1919
963.80 0.1919
963.90 0.1919
964.00 0.1919
964.10 0.1919
964.20 0.1919
964.30 0.1919
964.40 0.1919
964.50 0.1919
964.60 0.1919
964.70 0.1919
964.80 0.1919
964.90 0.1918
965.00 0.1918
965.10 0.1918
965.20 0.1918
965.30 0.1918
965.40 0.1918
965.50 0.1917
965.60 0.1917
965.70 0.1917
965.80 0.1917
965.90 0.1917
966.00 0.1917
966.10 0.1916
966.20 0.1916
966.30 0.1916
966.40 0.1916
966.50 0.1916
966.60 0.1915
966.70 0.1915
966.80 0.1915
966.90 0.1915
967.00 0.1914
967.10 0.1914
967.20 0.1914
967.30 0.1913
967.40 0.1913
967.50 0.1913
967.60 0.1912
967.70 0.1912
967.80 0.1912
967.90 0.1912
968.00 0.1911
968.10 0.1911
968.20 0.1911
968.30 0.191
968.40 0.191
968.50 0.191
968.60 0.1909
968.70 0.1909
968.80 0.1908
968.90 0.1908
969.00 0.1908
969.10 0.1907
969.20 0.1907
969.30 0.1907
969.40 0.1906
969.50 0.1906
969.60 0.1905
969.70 0.1905
969.80 0.1905
969.90 0.1904
970.00 0.1904
970.10 0.1903
970.20 0.1903
970.30 0.1903
970.40 0.1902
970.50 0.1902
970.60 0.1901
970.70 0.1901
970.80 0.1901
970.90 0.19
971.00 0.19
971.10 0.1899
971.20 0.1899
971.30 0.1898
971.40 0.1898
971.50 0.1898
971.60 0.1897
971.70 0.1897
971.80 0.1896
971.90 0.1896
972.00 0.1895
972.10 0.1895
972.20 0.1894
972.30 0.1894
972.40 0.1894
972.50 0.1893
972.60 0.1893
972.70 0.1892
972.80 0.1892
972.90 0.1891
973.00 0.1891
973.10 0.189
973.20 0.189
973.30 0.1889
973.40 0.1889
973.50 0.1888
973.60 0.1888
973.70 0.1887
973.80 0.1887
973.90 0.1886
974.00 0.1886
974.10 0.1885
974.20 0.1885
974.30 0.1884
974.40 0.1884
974.50 0.1883
974.60 0.1883
974.70 0.1882
974.80 0.1882
974.90 0.1881
975.00 0.1881
975.10 0.188
975.20 0.188
975.30 0.1879
975.40 0.1879
975.50 0.1878
975.60 0.1878
975.70 0.1877
975.80 0.1877
975.90 0.1876
976.00 0.1876
976.10 0.1875
976.20 0.1875
976.30 0.1874
976.40 0.1874
976.50 0.1873
976.60 0.1872
976.70 0.1872
976.80 0.1871
976.90 0.1871
977.00 0.187
977.10 0.187
977.20 0.1869
977.30 0.1869
977.40 0.1868
977.50 0.1868
977.60 0.1867
977.70 0.1866
977.80 0.1866
977.90 0.1865
978.00 0.1865
978.10 0.1864
978.20 0.1864
978.30 0.1863
978.40 0.1862
978.50 0.1862
978.60 0.1861
978.70 0.1861
978.80 0.186
978.90 0.186
979.00 0.1859
979.10 0.1859
979.20 0.1858
979.30 0.1857
979.40 0.1857
979.50 0.1856
979.60 0.1856
979.70 0.1855
979.80 0.1855
979.90 0.1854
980.00 0.1853
980.10 0.1853
980.20 0.1852
980.30 0.1852
980.40 0.1851
980.50 0.1851
980.60 0.185
980.70 0.185
980.80 0.1849
980.90 0.1848
981.00 0.1848
981.10 0.1847
981.20 0.1847
981.30 0.1846
981.40 0.1846
981.50 0.1845
981.60 0.1845
981.70 0.1844
981.80 0.1843
981.90 0.1843
982.00 0.1842
982.10 0.1842
982.20 0.1841
982.30 0.184
982.40 0.184
982.50 0.1839
982.60 0.1839
982.70 0.1838
982.80 0.1837
982.90 0.1837
983.00 0.1836
983.10 0.1836
983.20 0.1835
983.30 0.1834
983.40 0.1834
983.50 0.1833
983.60 0.1832
983.70 0.1832
983.80 0.1831
983.90 0.1831
984.00 0.183
984.10 0.1829
984.20 0.1829
984.30 0.1828
984.40 0.1828
984.50 0.1827
984.60 0.1826
984.70 0.1826
984.80 0.1825
984.90 0.1824
985.00 0.1824
985.10 0.1823
985.20 0.1822
985.30 0.1822
985.40 0.1821
985.50 0.182
985.60 0.182
985.70 0.1819
985.80 0.1818
985.90 0.1818
986.00 0.1817
986.10 0.1816
986.20 0.1816
986.30 0.1815
986.40 0.1814
986.50 0.1814
986.60 0.1813
986.70 0.1812
986.80 0.1812
986.90 0.1811
987.00 0.181
987.10 0.181
987.20 0.1809
987.30 0.1808
987.40 0.1807
987.50 0.1807
987.60 0.1806
987.70 0.1805
987.80 0.1804
987.90 0.1804
988.00 0.1803
988.10 0.1802
988.20 0.1802
988.30 0.1801
988.40 0.18
988.50 0.1799
988.60 0.1799
988.70 0.1798
988.80 0.1797
988.90 0.1796
989.00 0.1796
989.10 0.1795
989.20 0.1794
989.30 0.1793
989.40 0.1792
989.50 0.1792
989.60 0.1791
989.70 0.179
989.80 0.1789
989.90 0.1788
990.00 0.1788
990.10 0.1787
990.20 0.1786
990.30 0.1785
990.40 0.1785
990.50 0.1784
990.60 0.1783
990.70 0.1782
990.80 0.1781
990.90 0.178
991.00 0.1779
991.10 0.1779
991.20 0.1778
991.30 0.1777
991.40 0.1776
991.50 0.1775
991.60 0.1774
991.70 0.1773
991.80 0.1772
991.90 0.1771
992.00 0.1771
992.10 0.177
992.20 0.1769
992.30 0.1768
992.40 0.1767
992.50 0.1766
992.60 0.1765
992.70 0.1764
992.80 0.1763
992.90 0.1762
993.00 0.176
993.10 0.1759
993.20 0.1758
993.30 0.1757
993.40 0.1756
993.50 0.1755
993.60 0.1754
993.70 0.1753
993.80 0.1752
993.90 0.1751
994.00 0.175
994.10 0.1749
994.20 0.1747
994.30 0.1746
994.40 0.1745
994.50 0.1744
994.60 0.1743
994.70 0.1742
994.80 0.1741
994.90 0.1739
995.00 0.1738
995.10 0.1737
995.20 0.1735
995.30 0.1734
995.40 0.1733
995.50 0.1732
995.60 0.173
995.70 0.1729
995.80 0.1727
995.90 0.1726
996.00 0.1724
996.10 0.1723
996.20 0.1721
996.30 0.172
996.40 0.1718
996.50 0.1717
996.60 0.1715
996.70 0.1714
996.80 0.1712
996.90 0.1711
997.00 0.1709
997.10 0.1708
997.20 0.1706
997.30 0.1704
997.40 0.1702
997.50 0.1701
997.60 0.1699
997.70 0.1697
997.80 0.1695
997.90 0.1692
998.00 0.169
998.10 0.1688
998.20 0.1686
998.30 0.1684
998.40 0.1681
998.50 0.1679
998.60 0.1677
998.70 0.1675
998.80 0.1673
998.90 0.167
999.00 0.1668
999.10 0.1666
999.20 0.1664
999.30 0.1661
999.40 0.1659
999.50 0.1657
999.60 0.1655
999.70 0.1652
999.80 0.1648
999.90 0.1645
1000.00 0.1641
1000.10 0.1638
1000.20 0.1634
1000.30 0.1631
1000.40 0.1627
1000.50 0.1624
1000.60 0.162
1000.70 0.1617
1000.80 0.1613
1000.90 0.161
1001.00 0.1606
1001.10 0.1603
1001.20 0.1599
1001.30 0.1596
1001.40 0.1592
1001.50 0.1589
1001.60 0.1586
1001.70 0.1581
1001.80 0.1576
1001.90 0.1571
1002.00 0.1566
1002.10 0.1559
1002.20 0.1553
1002.30 0.1546
1002.40 0.154
1002.50 0.1533
1002.60 0.1526
1002.70 0.152
1002.80 0.1513
1002.90 0.1507
1003.00 0.15
1003.10 0.1493
1003.20 0.1485
1003.30 0.1476
1003.40 0.1467
1003.50 0.1458
1003.60 0.1449
1003.70 0.1441
1003.80 0.1432
1003.90 0.1424
1004.00 0.1416
1004.10 0.1409
1004.20 0.1401
1004.30 0.14
1004.40 0.1402
1004.50 0.1407
1004.60 0.1434
1004.70 0.1418
1004.80 0.1401
1004.90 0.1399
1005.00 0.1397
1005.10 0.1401
1005.20 0.1408
1005.30 0.1415
1005.40 0.1422
1005.50 0.1429
1005.60 0.1437
1005.70 0.1445
1005.80 0.1453
1005.90 0.1461
1006.00 0.1469
1006.10 0.1477
1006.20 0.1484
1006.30 0.149
1006.40 0.1495
1006.50 0.1501
1006.60 0.1507
1006.70 0.1513
1006.80 0.1519
1006.90 0.1525
1007.00 0.1531
1007.10 0.1535
1007.20 0.154
1007.30 0.1544
1007.40 0.1548
1007.50 0.1552
1007.60 0.1556
1007.70 0.1559
1007.80 0.1562
1007.90 0.1564
1008.00 0.1567
1008.10 0.1569
1008.20 0.1572
1008.30 0.1574
1008.40 0.1576
1008.50 0.1579
1008.60 0.1581
1008.70 0.1584
1008.80 0.1586
1008.90 0.1589
1009.00 0.1591
1009.10 0.1594
1009.20 0.1596
1009.30 0.1599
1009.40 0.1601
1009.50 0.1604
1009.60 0.1606
1009.70 0.1608
1009.80 0.1609
1009.90 0.161
1010.00 0.1611
1010.10 0.1612
1010.20 0.1614
1010.30 0.1615
1010.40 0.1616
1010.50 0.1617
1010.60 0.1618
1010.70 0.1619
1010.80 0.1621
1010.90 0.1622
1011.00 0.1623
1011.10 0.1624
1011.20 0.1625
1011.30 0.1627
1011.40 0.1628
1011.50 0.1629
1011.60 0.163
1011.70 0.1631
1011.80 0.1632
1011.90 0.1632
1012.00 0.1633
1012.10 0.1634
1012.20 0.1634
1012.30 0.1635
1012.40 0.1635
1012.50 0.1636
1012.60 0.1636
1012.70 0.1637
1012.80 0.1637
1012.90 0.1638
1013.00 0.1638
1013.10 0.1639
1013.20 0.1639
1013.30 0.164
1013.40 0.164
1013.50 0.1641
1013.60 0.1641
1013.70 0.1641
1013.80 0.1642
1013.90 0.1642
1014.00 0.1642
1014.10 0.1642
1014.20 0.1643
1014.30 0.1643
1014.40 0.1643
1014.50 0.1644
1014.60 0.1644
1014.70 0.1644
1014.80 0.1644
1014.90 0.1644
1015.00 0.1644
1015.10 0.1644
1015.20 0.1644
1015.30 0.1644
1015.40 0.1644
1015.50 0.1644
1015.60 0.1644
1015.70 0.1645
1015.80 0.1645
1015.90 0.1645
1016.00 0.1645
1016.10 0.1645
1016.20 0.1645
1016.30 0.1645
1016.40 0.1645
1016.50 0.1645
1016.60 0.1645
1016.70 0.1645
1016.80 0.1645
1016.90 0.1645
1017.00 0.1645
1017.10 0.1645
1017.20 0.1645
1017.30 0.1645
1017.40 0.1644
1017.50 0.1644
1017.60 0.1644
1017.70 0.1644
1017.80 0.1644
1017.90 0.1644
1018.00 0.1644
1018.10 0.1644
1018.20 0.1644
1018.30 0.1643
1018.40 0.1643
1018.50 0.1643
1018.60 0.1643
1018.70 0.1643
1018.80 0.1643
1018.90 0.1642
1019.00 0.1642
1019.10 0.1642
1019.20 0.1642
1019.30 0.1642
1019.40 0.1641
1019.50 0.1641
1019.60 0.1641
1019.70 0.1641
1019.80 0.164
1019.90 0.164
1020.00 0.164
1020.10 0.164
1020.20 0.164
1020.30 0.1639
1020.40 0.1639
1020.50 0.1639
1020.60 0.1639
1020.70 0.1638
1020.80 0.1638
1020.90 0.1638
1021.00 0.1638
1021.10 0.1637
1021.20 0.1637
1021.30 0.1637
1021.40 0.1636
1021.50 0.1636
1021.60 0.1636
1021.70 0.1636
1021.80 0.1635
1021.90 0.1635
1022.00 0.1635
1022.10 0.1634
1022.20 0.1634
1022.30 0.1634
1022.40 0.1633
1022.50 0.1633
1022.60 0.1633
1022.70 0.1632
1022.80 0.1632
1022.90 0.1632
1023.00 0.1631
1023.10 0.1631
1023.20 0.1631
1023.30 0.1631
1023.40 0.163
1023.50 0.163
1023.60 0.163
1023.70 0.1629
1023.80 0.1629
1023.90 0.1629
1024.00 0.1628
1024.10 0.1628
1024.20 0.1628
1024.30 0.1627
1024.40 0.1627
1024.50 0.1627
1024.60 0.1626
1024.70 0.1626
1024.80 0.1625
1024.90 0.1625
1025.00 0.1625
1025.10 0.1624
1025.20 0.1624
1025.30 0.1624
1025.40 0.1623
1025.50 0.1623
1025.60 0.1623
1025.70 0.1622
1025.80 0.1622
1025.90 0.1621
1026.00 0.1621
1026.10 0.1621
1026.20 0.162
1026.30 0.162
1026.40 0.162
1026.50 0.1619
1026.60 0.1619
1026.70 0.1619
1026.80 0.1618
1026.90 0.1618
1027.00 0.1617
1027.10 0.1617
1027.20 0.1617
1027.30 0.1616
1027.40 0.1616
1027.50 0.1615
1027.60 0.1615
1027.70 0.1615
1027.80 0.1614
1027.90 0.1614
1028.00 0.1613
1028.10 0.1613
1028.20 0.1613
1028.30 0.1612
1028.40 0.1612
1028.50 0.1611
1028.60 0.1611
1028.70 0.161
1028.80 0.161
1028.90 0.161
1029.00 0.1609
1029.10 0.1609
1029.20 0.1608
1029.30 0.1608
1029.40 0.1608
1029.50 0.1607
1029.60 0.1607
1029.70 0.1606
1029.80 0.1606
1029.90 0.1606
1030.00 0.1605
1030.10 0.1605
1030.20 0.1604
1030.30 0.1604
1030.40 0.1604
1030.50 0.1603
1030.60 0.1603
1030.70 0.1602
1030.80 0.1602
1030.90 0.1602
1031.00 0.1601
1031.10 0.1601
1031.20 0.16
1031.30 0.16
1031.40 0.16
1031.50 0.1599
1031.60 0.1599
1031.70 0.1598
1031.80 0.1598
1031.90 0.1598
1032.00 0.1597
1032.10 0.1597
1032.20 0.1596
1032.30 0.1596
1032.40 0.1595
1032.50 0.1595
1032.60 0.1595
1032.70 0.1594
1032.80 0.1594
1032.90 0.1593
1033.00 0.1593
1033.10 0.1592
1033.20 0.1592
1033.30 0.1592
1033.40 0.1591
1033.50 0.1591
1033.60 0.159
1033.70 0.159
1033.80 0.1589
1033.90 0.1589
1034.00 0.1589
1034.10 0.1588
1034.20 0.1588
1034.30 0.1587
1034.40 0.1587
1034.50 0.1586
1034.60 0.1586
1034.70 0.1586
1034.80 0.1585
1034.90 0.1585
1035.00 0.1584
1035.10 0.1584
1035.20 0.1584
1035.30 0.1583
1035.40 0.1583
1035.50 0.1582
1035.60 0.1582
1035.70 0.1581
1035.80 0.1581
1035.90 0.1581
1036.00 0.158
1036.10 0.158
1036.20 0.1579
1036.30 0.1579
1036.40 0.1578
1036.50 0.1578
1036.60 0.1578
1036.70 0.1577
1036.80 0.1577
1036.90 0.1576
1037.00 0.1576
1037.10 0.1576
1037.20 0.1575
1037.30 0.1575
1037.40 0.1574
1037.50 0.1574
1037.60 0.1573
1037.70 0.1573
1037.80 0.1572
1037.90 0.1572
1038.00 0.1572
1038.10 0.1571
1038.20 0.1571
1038.30 0.157
1038.40 0.157
1038.50 0.1569
1038.60 0.1569
1038.70 0.1569
1038.80 0.1568
1038.90 0.1568
1039.00 0.1567
1039.10 0.1567
1039.20 0.1566
1039.30 0.1566
1039.40 0.1566
1039.50 0.1565
1039.60 0.1565
1039.70 0.1564
1039.80 0.1564
1039.90 0.1563
1040.00 0.1563
1040.10 0.1563
1040.20 0.1562
1040.30 0.1562
1040.40 0.1561
1040.50 0.1561
1040.60 0.156
1040.70 0.156
1040.80 0.1559
1040.90 0.1559
1041.00 0.1559
1041.10 0.1558
1041.20 0.1558
1041.30 0.1557
1041.40 0.1557
1041.50 0.1556
1041.60 0.1556
1041.70 0.1556
1041.80 0.1555
1041.90 0.1555
1042.00 0.1554
1042.10 0.1554
1042.20 0.1553
1042.30 0.1553
1042.40 0.1553
1042.50 0.1552
1042.60 0.1552
1042.70 0.1551
1042.80 0.1551
1042.90 0.155
1043.00 0.155
1043.10 0.155
1043.20 0.1549
1043.30 0.1549
1043.40 0.1548
1043.50 0.1548
1043.60 0.1547
1043.70 0.1547
1043.80 0.1546
1043.90 0.1546
1044.00 0.1546
1044.10 0.1545
1044.20 0.1545
1044.30 0.1544
1044.40 0.1544
1044.50 0.1543
1044.60 0.1543
1044.70 0.1543
1044.80 0.1542
1044.90 0.1542
1045.00 0.1541
1045.10 0.1541
1045.20 0.154
1045.30 0.154
1045.40 0.154
1045.50 0.1539
1045.60 0.1539
1045.70 0.1538
1045.80 0.1538
1045.90 0.1537
1046.00 0.1537
1046.10 0.1537
1046.20 0.1536
1046.30 0.1536
1046.40 0.1535
1046.50 0.1535
1046.60 0.1534
1046.70 0.1534
1046.80 0.1534
1046.90 0.1533
1047.00 0.1533
1047.10 0.1532
1047.20 0.1532
1047.30 0.1531
1047.40 0.1531
1047.50 0.153
1047.60 0.153
1047.70 0.153
1047.80 0.1529
1047.90 0.1529
1048.00 0.1528
1048.10 0.1528
1048.20 0.1527
1048.30 0.1527
1048.40 0.1527
1048.50 0.1526
1048.60 0.1526
1048.70 0.1525
1048.80 0.1525
1048.90 0.1524
1049.00 0.1524
1049.10 0.1524
1049.20 0.1523
1049.30 0.1523
1049.40 0.1522
1049.50 0.1522
1049.60 0.1521
1049.70 0.1521
1049.80 0.152
1049.90 0.152
1050.00 0.152
1050.10 0.1519
1050.20 0.1519
1050.30 0.1518
1050.40 0.1518
1050.50 0.1517
1050.60 0.1517
1050.70 0.1517
1050.80 0.1516
1050.90 0.1516
1051.00 0.1515
1051.10 0.1515
1051.20 0.1514
1051.30 0.1514
1051.40 0.1514
1051.50 0.1513
1051.60 0.1513
1051.70 0.1512
1051.80 0.1512
1051.90 0.1511
1052.00 0.1511
1052.10 0.1511
1052.20 0.151
1052.30 0.151
1052.40 0.1509
1052.50 0.1509
1052.60 0.1508
1052.70 0.1508
1052.80 0.1508
1052.90 0.1507
1053.00 0.1507
1053.10 0.1506
1053.20 0.1506
1053.30 0.1505
1053.40 0.1505
1053.50 0.1504
1053.60 0.1504
1053.70 0.1504
1053.80 0.1503
1053.90 0.1503
1054.00 0.1502
1054.10 0.1502
1054.20 0.1501
1054.30 0.1501
1054.40 0.1501
1054.50 0.15
1054.60 0.15
1054.70 0.1499
1054.80 0.1499
1054.90 0.1498
1055.00 0.1498
1055.10 0.1498
1055.20 0.1497
1055.30 0.1497
1055.40 0.1496
1055.50 0.1496
1055.60 0.1495
1055.70 0.1495
1055.80 0.1495
1055.90 0.1494
1056.00 0.1494
1056.10 0.1493
1056.20 0.1493
1056.30 0.1492
1056.40 0.1492
1056.50 0.1492
1056.60 0.1491
1056.70 0.1491
1056.80 0.149
1056.90 0.149
1057.00 0.1489
1057.10 0.1489
1057.20 0.1489
1057.30 0.1488
1057.40 0.1488
1057.50 0.1487
1057.60 0.1487
1057.70 0.1486
1057.80 0.1486
1057.90 0.1485
1058.00 0.1485
1058.10 0.1485
1058.20 0.1484
1058.30 0.1484
1058.40 0.1483
1058.50 0.1483
1058.60 0.1482
1058.70 0.1482
1058.80 0.1482
1058.90 0.1481
1059.00 0.1481
1059.10 0.148
1059.20 0.148
1059.30 0.1479
1059.40 0.1479
1059.50 0.1478
1059.60 0.1478
1059.70 0.1478
1059.80 0.1477
1059.90 0.1477
1060.00 0.1476
1060.10 0.1476
1060.20 0.1475
1060.30 0.1475
1060.40 0.1475
1060.50 0.1474
1060.60 0.1474
1060.70 0.1473
1060.80 0.1473
1060.90 0.1472
1061.00 0.1472
1061.10 0.1472
1061.20 0.1471
1061.30 0.1471
1061.40 0.147
1061.50 0.147
1061.60 0.1469
1061.70 0.1469
1061.80 0.1468
1061.90 0.1468
1062.00 0.1468
1062.10 0.1467
1062.20 0.1467
1062.30 0.1466
1062.40 0.1466
1062.50 0.1465
1062.60 0.1465
1062.70 0.1465
1062.80 0.1464
1062.90 0.1464
1063.00 0.1463
1063.10 0.1463
1063.20 0.1462
1063.30 0.1462
1063.40 0.1461
1063.50 0.1461
1063.60 0.1461
1063.70 0.146
1063.80 0.146
1063.90 0.1459
1064.00 0.1459
1064.10 0.1458
1064.20 0.1458
1064.30 0.1457
1064.40 0.1457
1064.50 0.1457
1064.60 0.1456
1064.70 0.1456
1064.80 0.1455
1064.90 0.1455
1065.00 0.1454
1065.10 0.1454
1065.20 0.1453
1065.30 0.1453
1065.40 0.1453
1065.50 0.1452
1065.60 0.1452
1065.70 0.1451
1065.80 0.1451
1065.90 0.145
1066.00 0.145
1066.10 0.1449
1066.20 0.1449
1066.30 0.1449
1066.40 0.1448
1066.50 0.1448
1066.60 0.1447
1066.70 0.1447
1066.80 0.1446
1066.90 0.1446
1067.00 0.1445
1067.10 0.1445
1067.20 0.1445
1067.30 0.1444
1067.40 0.1444
1067.50 0.1443
1067.60 0.1443
1067.70 0.1442
1067.80 0.1442
1067.90 0.1441
1068.00 0.1441
1068.10 0.144
1068.20 0.144
1068.30 0.1439
1068.40 0.1439
1068.50 0.1438
1068.60 0.1438
1068.70 0.1437
1068.80 0.1437
1068.90 0.1436
1069.00 0.1436
1069.10 0.1436
1069.20 0.1435
1069.30 0.1435
1069.40 0.1434
1069.50 0.1434
1069.60 0.1433
1069.70 0.1433
1069.80 0.1432
1069.90 0.1432
1070.00 0.1431
1070.10 0.1431
1070.20 0.143
1070.30 0.143
1070.40 0.1429
1070.50 0.1429
1070.60 0.1429
1070.70 0.1428
1070.80 0.1428
1070.90 0.1427
1071.00 0.1427
1071.10 0.1426
1071.20 0.1426
1071.30 0.1425
1071.40 0.1425
1071.50 0.1424
1071.60 0.1424
1071.70 0.1423
1071.80 0.1423
1071.90 0.1422
1072.00 0.1422
1072.10 0.1421
1072.20 0.1421
1072.30 0.142
1072.40 0.142
1072.50 0.1419
1072.60 0.1419
1072.70 0.1418
1072.80 0.1418
1072.90 0.1417
1073.00 0.1417
1073.10 0.1416
1073.20 0.1416
1073.30 0.1415
1073.40 0.1415
1073.50 0.1414
1073.60 0.1414
1073.70 0.1413
1073.80 0.1413
1073.90 0.1412
1074.00 0.1412
1074.10 0.1411
1074.20 0.1411
1074.30 0.141
1074.40 0.141
1074.50 0.1409
1074.60 0.1408
1074.70 0.1408
1074.80 0.1407
1074.90 0.1407
1075.00 0.1406
1075.10 0.1406
1075.20 0.1405
1075.30 0.1405
1075.40 0.1404
1075.50 0.1404
1075.60 0.1403
1075.70 0.1403
1075.80 0.1402
1075.90 0.1401
1076.00 0.1401
1076.10 0.14
1076.20 0.14
1076.30 0.1399
1076.40 0.1399
1076.50 0.1398
1076.60 0.1398
1076.70 0.1397
1076.80 0.1397
1076.90 0.1396
1077.00 0.1396
1077.10 0.1395
1077.20 0.1394
1077.30 0.1394
1077.40 0.1393
1077.50 0.1393
1077.60 0.1392
1077.70 0.1391
1077.80 0.1391
1077.90 0.139
1078.00 0.1389
1078.10 0.1389
1078.20 0.1388
1078.30 0.1387
1078.40 0.1387
1078.50 0.1386
1078.60 0.1385
1078.70 0.1385
1078.80 0.1384
1078.90 0.1383
1079.00 0.1383
1079.10 0.1382
1079.20 0.1381
1079.30 0.1381
1079.40 0.138
1079.50 0.1379
1079.60 0.1379
1079.70 0.1378
1079.80 0.1377
1079.90 0.1377
1080.00 0.1376
1080.10 0.1375
1080.20 0.1374
1080.30 0.1374
1080.40 0.1373
1080.50 0.1372
1080.60 0.1371
1080.70 0.1371
1080.80 0.137
1080.90 0.1369
1081.00 0.1368
1081.10 0.1368
1081.20 0.1367
1081.30 0.1366
1081.40 0.1365
1081.50 0.1365
1081.60 0.1364
1081.70 0.1363
1081.80 0.1362
1081.90 0.1361
1082.00 0.1361
1082.10 0.136
1082.20 0.1359
1082.30 0.1358
1082.40 0.1357
1082.50 0.1356
1082.60 0.1355
1082.70 0.1354
1082.80 0.1353
1082.90 0.1352
1083.00 0.1351
1083.10 0.135
1083.20 0.1349
1083.30 0.1348
1083.40 0.1347
1083.50 0.1346
1083.60 0.1345
1083.70 0.1344
1083.80 0.1343
1083.90 0.1342
1084.00 0.1341
1084.10 0.134
1084.20 0.1339
1084.30 0.1338
1084.40 0.1337
1084.50 0.1336
1084.60 0.1334
1084.70 0.1333
1084.80 0.1332
1084.90 0.133
1085.00 0.1329
1085.10 0.1328
1085.20 0.1326
1085.30 0.1325
1085.40 0.1323
1085.50 0.1322
1085.60 0.1321
1085.70 0.1319
1085.80 0.1318
1085.90 0.1317
1086.00 0.1315
1086.10 0.1314
1086.20 0.1313
1086.30 0.1311
1086.40 0.131
1086.50 0.1308
1086.60 0.1307
1086.70 0.1305
1086.80 0.1303
1086.90 0.1302
1087.00 0.13
1087.10 0.1298
1087.20 0.1296
1087.30 0.1294
1087.40 0.1292
1087.50 0.129
1087.60 0.1287
1087.70 0.1285
1087.80 0.1283
1087.90 0.1281
1088.00 0.1279
1088.10 0.1277
1088.20 0.1275
1088.30 0.1273
1088.40 0.1271
1088.50 0.1268
1088.60 0.1265
1088.70 0.1262
1088.80 0.1258
1088.90 0.1255
1089.00 0.1251
1089.10 0.1248
1089.20 0.1245
1089.30 0.1241
1089.40 0.1238
1089.50 0.1235
1089.60 0.1231
1089.70 0.1228
1089.80 0.1225
1089.90 0.1221
1090.00 0.1218
1090.10 0.1215
1090.20 0.1211
1090.30 0.1208
1090.40 0.1205
1090.50 0.12
1090.60 0.1194
1090.70 0.1188
1090.80 0.1181
1090.90 0.1175
1091.00 0.1168
1091.10 0.1162
1091.20 0.1156
1091.30 0.1149
1091.40 0.1143
1091.50 0.1137
1091.60 0.113
1091.70 0.1124
1091.80 0.1117
1091.90 0.1111
1092.00 0.1104
1092.10 0.1094
1092.20 0.1084
1092.30 0.1075
1092.40 0.1065
1092.50 0.1055
1092.60 0.1045
1092.70 0.1035
1092.80 0.1025
1092.90 0.1014
1093.00 0.1004
1093.10 0.09948
1093.20 0.09884
1093.30 0.09824
1093.40 0.0986
1093.50 0.09927
1093.60 0.0981
1093.70 0.0985
1093.80 0.09908
1093.90 0.09979
1094.00 0.1008
1094.10 0.1017
1094.20 0.1027
1094.30 0.1037
1094.40 0.1046
1094.50 0.1055
1094.60 0.1064
1094.70 0.1073
1094.80 0.1082
1094.90 0.1092
1095.00 0.11
1095.10 0.1105
1095.20 0.1111
1095.30 0.1117
1095.40 0.1122
1095.50 0.1128
1095.60 0.1134
1095.70 0.1139
1095.80 0.1145
1095.90 0.1151
1096.00 0.1156
1096.10 0.1162
1096.20 0.1167
1096.30 0.1173
1096.40 0.1179
1096.50 0.1184
1096.60 0.1187
1096.70 0.1191
1096.80 0.1194
1096.90 0.1197
1097.00 0.1201
1097.10 0.1203
1097.20 0.1205
1097.30 0.1208
1097.40 0.121
1097.50 0.1212
1097.60 0.1215
1097.70 0.1217
1097.80 0.1219
1097.90 0.1222
1098.00 0.1224
1098.10 0.1226
1098.20 0.1229
1098.30 0.1231
1098.40 0.1233
1098.50 0.1235
1098.60 0.1236
1098.70 0.1238
1098.80 0.1239
1098.90 0.124
1099.00 0.1241
1099.10 0.1242
1099.20 0.1244
1099.30 0.1245
1099.40 0.1246
1099.50 0.1247
1099.60 0.1249
1099.70 0.125
1099.80 0.1251
1099.90 0.1252
1100.00 0.1254
1100.10 0.1255
1100.20 0.1256
1100.30 0.1257
1100.40 0.1258
1100.50 0.1259
1100.60 0.126
1100.70 0.1261
1100.80 0.1261
1100.90 0.1262
1101.00 0.1263
1101.10 0.1263
1101.20 0.1264
1101.30 0.1265
1101.40 0.1265
1101.50 0.1266
1101.60 0.1267
1101.70 0.1267
1101.80 0.1268
1101.90 0.1269
1102.00 0.1269
1102.10 0.127
1102.20 0.127
1102.30 0.1271
1102.40 0.1271
1102.50 0.1271
1102.60 0.1272
1102.70 0.1272
1102.80 0.1272
1102.90 0.1273
1103.00 0.1273
1103.10 0.1273
1103.20 0.1274
1103.30 0.1274
1103.40 0.1274
1103.50 0.1275
1103.60 0.1275
1103.70 0.1275
1103.80 0.1275
1103.90 0.1275
1104.00 0.1275
1104.10 0.1275
1104.20 0.1276
1104.30 0.1276
1104.40 0.1276
1104.50 0.1276
1104.60 0.1276
1104.70 0.1276
1104.80 0.1276
1104.90 0.1277
1105.00 0.1277
1105.10 0.1277
1105.20 0.1277
1105.30 0.1277
1105.40 0.1277
1105.50 0.1277
1105.60 0.1277
1105.70 0.1277
1105.80 0.1277
1105.90 0.1277
1106.00 0.1277
1106.10 0.1277
1106.20 0.1277
1106.30 0.1277
1106.40 0.1277
1106.50 0.1277
1106.60 0.1277
1106.70 0.1277
1106.80 0.1277
1106.90 0.1277
1107.00 0.1277
1107.10 0.1277
1107.20 0.1277
1107.30 0.1277
1107.40 0.1277
1107.50 0.1277
1107.60 0.1277
1107.70 0.1277
1107.80 0.1277
1107.90 0.1277
1108.00 0.1277
1108.10 0.1276
1108.20 0.1276
1108.30 0.1276
1108.40 0.1276
1108.50 0.1276
1108.60 0.1276
1108.70 0.1276
1108.80 0.1276
1108.90 0.1276
1109.00 0.1275
1109.10 0.1275
1109.20 0.1275
1109.30 0.1275
1109.40 0.1275
1109.50 0.1275
1109.60 0.1275
1109.70 0.1275
1109.80 0.1274
1109.90 0.1274
1110.00 0.1274
1110.10 0.1274
1110.20 0.1274
1110.30 0.1273
1110.40 0.1273
1110.50 0.1273
1110.60 0.1273
1110.70 0.1273
1110.80 0.1273
1110.90 0.1272
1111.00 0.1272
1111.10 0.1272
1111.20 0.1272
1111.30 0.1272
1111.40 0.1271
1111.50 0.1271
1111.60 0.1271
1111.70 0.1271
1111.80 0.1271
1111.90 0.1271
1112.00 0.127
1112.10 0.127
1112.20 0.127
1112.30 0.127
1112.40 0.127
1112.50 0.1269
1112.60 0.1269
1112.70 0.1269
1112.80 0.1269
1112.90 0.1268
1113.00 0.1268
1113.10 0.1268
1113.20 0.1268
1113.30 0.1267
1113.40 0.1267
1113.50 0.1267
1113.60 0.1267
1113.70 0.1266
1113.80 0.1266
1113.90 0.1266
1114.00 0.1266
1114.10 0.1265
1114.20 0.1265
1114.30 0.1265
1114.40 0.1265
1114.50 0.1264
1114.60 0.1264
1114.70 0.1264
1114.80 0.1264
1114.90 0.1263
1115.00 0.1263
1115.10 0.1263
1115.20 0.1263
1115.30 0.1262
1115.40 0.1262
1115.50 0.1262
1115.60 0.1262
1115.70 0.1261
1115.80 0.1261
1115.90 0.1261
1116.00 0.126
1116.10 0.126
1116.20 0.126
1116.30 0.126
1116.40 0.1259
1116.50 0.1259
1116.60 0.1259
1116.70 0.1259
1116.80 0.1258
1116.90 0.1258
1117.00 0.1258
1117.10 0.1258
1117.20 0.1257
1117.30 0.1257
1117.40 0.1257
1117.50 0.1256
1117.60 0.1256
1117.70 0.1256
1117.80 0.1256
1117.90 0.1255
1118.00 0.1255
1118.10 0.1255
1118.20 0.1254
1118.30 0.1254
1118.40 0.1254
1118.50 0.1254
1118.60 0.1253
1118.70 0.1253
1118.80 0.1253
1118.90 0.1252
1119.00 0.1252
1119.10 0.1252
1119.20 0.1251
1119.30 0.1251
1119.40 0.1251
1119.50 0.1251
1119.60 0.125
1119.70 0.125
1119.80 0.125
1119.90 0.1249
1120.00 0.1249
1120.10 0.1249
1120.20 0.1249
1120.30 0.1248
1120.40 0.1248
1120.50 0.1248
1120.60 0.1247
1120.70 0.1247
1120.80 0.1247
1120.90 0.1247
1121.00 0.1246
1121.10 0.1246
1121.20 0.1246
1121.30 0.1245
1121.40 0.1245
1121.50 0.1245
1121.60 0.1245
1121.70 0.1244
1121.80 0.1244
1121.90 0.1244
1122.00 0.1243
1122.10 0.1243
1122.20 0.1243
1122.30 0.1242
1122.40 0.1242
1122.50 0.1242
1122.60 0.1242
1122.70 0.1241
1122.80 0.1241
1122.90 0.1241
1123.00 0.124
1123.10 0.124
1123.20 0.124
1123.30 0.1239
1123.40 0.1239
1123.50 0.1239
1123.60 0.1238
1123.70 0.1238
1123.80 0.1238
1123.90 0.1238
1124.00 0.1237
1124.10 0.1237
1124.20 0.1237
1124.30 0.1236
1124.40 0.1236
1124.50 0.1236
1124.60 0.1235
1124.70 0.1235
1124.80 0.1235
1124.90 0.1234
1125.00 0.1234
1125.10 0.1234
1125.20 0.1234
1125.30 0.1233
1125.40 0.1233
1125.50 0.1233
1125.60 0.1232
1125.70 0.1232
1125.80 0.1232
1125.90 0.1231
1126.00 0.1231
1126.10 0.1231
1126.20 0.123
1126.30 0.123
1126.40 0.123
1126.50 0.123
1126.60 0.1229
1126.70 0.1229
1126.80 0.1229
1126.90 0.1228
1127.00 0.1228
1127.10 0.1228
1127.20 0.1227
1127.30 0.1227
1127.40 0.1227
1127.50 0.1226
1127.60 0.1226
1127.70 0.1226
1127.80 0.1226
1127.90 0.1225
1128.00 0.1225
1128.10 0.1225
1128.20 0.1224
1128.30 0.1224
1128.40 0.1224
1128.50 0.1223
1128.60 0.1223
1128.70 0.1223
1128.80 0.1222
1128.90 0.1222
1129.00 0.1222
1129.10 0.1221
1129.20 0.1221
1129.30 0.1221
1129.40 0.1221
1129.50 0.122
1129.60 0.122
1129.70 0.122
1129.80 0.1219
1129.90 0.1219
1130.00 0.1219
1130.10 0.1218
1130.20 0.1218
1130.30 0.1218
1130.40 0.1217
1130.50 0.1217
1130.60 0.1217
1130.70 0.1216
1130.80 0.1216
1130.90 0.1216
1131.00 0.1216
1131.10 0.1215
1131.20 0.1215
1131.30 0.1215
1131.40 0.1214
1131.50 0.1214
1131.60 0.1214
1131.70 0.1213
1131.80 0.1213
1131.90 0.1213
1132.00 0.1212
1132.10 0.1212
1132.20 0.1212
1132.30 0.1211
1132.40 0.1211
1132.50 0.1211
1132.60 0.1211
1132.70 0.121
1132.80 0.121
1132.90 0.121
1133.00 0.1209
1133.10 0.1209
1133.20 0.1209
1133.30 0.1208
1133.40 0.1208
1133.50 0.1208
1133.60 0.1207
1133.70 0.1207
1133.80 0.1207
1133.90 0.1206
1134.00 0.1206
1134.10 0.1206
1134.20 0.1205
1134.30 0.1205
1134.40 0.1205
1134.50 0.1205
1134.60 0.1204
1134.70 0.1204
1134.80 0.1204
1134.90 0.1203
1135.00 0.1203
1135.10 0.1203
1135.20 0.1202
1135.30 0.1202
1135.40 0.1202
1135.50 0.1201
1135.60 0.1201
1135.70 0.1201
1135.80 0.12
1135.90 0.12
1136.00 0.12
1136.10 0.12
1136.20 0.1199
1136.30 0.1199
1136.40 0.1199
1136.50 0.1198
1136.60 0.1198
1136.70 0.1198
1136.80 0.1197
1136.90 0.1197
1137.00 0.1197
1137.10 0.1196
1137.20 0.1196
1137.30 0.1196
1137.40 0.1195
1137.50 0.1195
1137.60 0.1195
1137.70 0.1195
1137.80 0.1194
1137.90 0.1194
1138.00 0.1194
1138.10 0.1193
1138.20 0.1193
1138.30 0.1193
1138.40 0.1192
1138.50 0.1192
1138.60 0.1192
1138.70 0.1191
1138.80 0.1191
1138.90 0.1191
1139.00 0.119
1139.10 0.119
1139.20 0.119
1139.30 0.119
1139.40 0.1189
1139.50 0.1189
1139.60 0.1189
1139.70 0.1188
1139.80 0.1188
1139.90 0.1188
1140.00 0.1187
1140.10 0.1187
1140.20 0.1187
1140.30 0.1186
1140.40 0.1186
1140.50 0.1186
1140.60 0.1185
1140.70 0.1185
1140.80 0.1185
1140.90 0.1185
1141.00 0.1184
1141.10 0.1184
1141.20 0.1184
1141.30 0.1183
1141.40 0.1183
1141.50 0.1183
1141.60 0.1182
1141.70 0.1182
1141.80 0.1182
1141.90 0.1181
1142.00 0.1181
1142.10 0.1181
1142.20 0.1181
1142.30 0.118
1142.40 0.118
1142.50 0.118
1142.60 0.1179
1142.70 0.1179
1142.80 0.1179
1142.90 0.1178
1143.00 0.1178
1143.10 0.1178
1143.20 0.1177
1143.30 0.1177
1143.40 0.1177
1143.50 0.1176
1143.60 0.1176
1143.70 0.1176
1143.80 0.1176
1143.90 0.1175
1144.00 0.1175
1144.10 0.1175
1144.20 0.1174
1144.30 0.1174
1144.40 0.1174
1144.50 0.1173
1144.60 0.1173
1144.70 0.1173
1144.80 0.1172
1144.90 0.1172
1145.00 0.1172
1145.10 0.1172
1145.20 0.1171
1145.30 0.1171
1145.40 0.1171
1145.50 0.117
1145.60 0.117
1145.70 0.117
1145.80 0.1169
1145.90 0.1169
1146.00 0.1169
1146.10 0.1168
1146.20 0.1168
1146.30 0.1168
1146.40 0.1168
1146.50 0.1167
1146.60 0.1167
1146.70 0.1167
1146.80 0.1166
1146.90 0.1166
1147.00 0.1166
1147.10 0.1165
1147.20 0.1165
1147.30 0.1165
1147.40 0.1164
1147.50 0.1164
1147.60 0.1164
1147.70 0.1164
1147.80 0.1163
1147.90 0.1163
1148.00 0.1163
1148.10 0.1162
1148.20 0.1162
1148.30 0.1162
1148.40 0.1161
1148.50 0.1161
1148.60 0.1161
1148.70 0.1161
1148.80 0.116
1148.90 0.116
1149.00 0.116
1149.10 0.1159
1149.20 0.1159
1149.30 0.1159
1149.40 0.1158
1149.50 0.1158
1149.60 0.1158
1149.70 0.1157
1149.80 0.1157
1149.90 0.1157
1150.00 0.1157
1150.10 0.1156
1150.20 0.1156
1150.30 0.1156
1150.40 0.1155
1150.50 0.1155
1150.60 0.1155
1150.70 0.1154
1150.80 0.1154
1150.90 0.1154
1151.00 0.1154
1151.10 0.1153
1151.20 0.1153
1151.30 0.1153
1151.40 0.1152
1151.50 0.1152
1151.60 0.1152
1151.70 0.1151
1151.80 0.1151
1151.90 0.1151
1152.00 0.115
1152.10 0.115
1152.20 0.115
1152.30 0.115
1152.40 0.1149
1152.50 0.1149
1152.60 0.1149
1152.70 0.1148
1152.80 0.1148
1152.90 0.1148
1153.00 0.1147
1153.10 0.1147
1153.20 0.1147
1153.30 0.1147
1153.40 0.1146
1153.50 0.1146
1153.60 0.1146
1153.70 0.1145
1153.80 0.1145
1153.90 0.1145
1154.00 0.1144
1154.10 0.1144
1154.20 0.1144
1154.30 0.1144
1154.40 0.1143
1154.50 0.1143
1154.60 0.1143
1154.70 0.1142
1154.80 0.1142
1154.90 0.1142
1155.00 0.1141
1155.10 0.1141
1155.20 0.1141
1155.30 0.1141
1155.40 0.114
1155.50 0.114
1155.60 0.114
1155.70 0.1139
1155.80 0.1139
1155.90 0.1139
1156.00 0.1138
1156.10 0.1138
1156.20 0.1138
1156.30 0.1138
1156.40 0.1137
1156.50 0.1137
1156.60 0.1137
1156.70 0.1136
1156.80 0.1136
1156.90 0.1136
1157.00 0.1135
1157.10 0.1135
1157.20 0.1135
1157.30 0.1135
1157.40 0.1134
1157.50 0.1134
1157.60 0.1134
1157.70 0.1133
1157.80 0.1133
1157.90 0.1133
1158.00 0.1132
1158.10 0.1132
1158.20 0.1132
1158.30 0.1132
1158.40 0.1131
1158.50 0.1131
1158.60 0.1131
1158.70 0.113
1158.80 0.113
1158.90 0.113
1159.00 0.113
1159.10 0.1129
1159.20 0.1129
1159.30 0.1129
1159.40 0.1128
1159.50 0.1128
1159.60 0.1128
1159.70 0.1127
1159.80 0.1127
1159.90 0.1127
1160.00 0.1127
1160.10 0.1126
1160.20 0.1126
1160.30 0.1126
1160.40 0.1125
1160.50 0.1125
1160.60 0.1125
1160.70 0.1124
1160.80 0.1124
1160.90 0.1124
1161.00 0.1124
1161.10 0.1123
1161.20 0.1123
1161.30 0.1123
1161.40 0.1122
1161.50 0.1122
1161.60 0.1122
1161.70 0.1122
1161.80 0.1121
1161.90 0.1121
1162.00 0.1121
1162.10 0.112
1162.20 0.112
1162.30 0.112
1162.40 0.1119
1162.50 0.1119
1162.60 0.1119
1162.70 0.1119
1162.80 0.1118
1162.90 0.1118
1163.00 0.1118
1163.10 0.1117
1163.20 0.1117
1163.30 0.1117
1163.40 0.1117
1163.50 0.1116
1163.60 0.1116
1163.70 0.1116
1163.80 0.1115
1163.90 0.1115
1164.00 0.1115
1164.10 0.1115
1164.20 0.1114
1164.30 0.1114
1164.40 0.1114
1164.50 0.1113
1164.60 0.1113
1164.70 0.1113
1164.80 0.1112
1164.90 0.1112
1165.00 0.1112
1165.10 0.1112
1165.20 0.1111
1165.30 0.1111
1165.40 0.1111
1165.50 0.111
1165.60 0.111
1165.70 0.111
1165.80 0.111
1165.90 0.1109
1166.00 0.1109
1166.10 0.1109
1166.20 0.1108
1166.30 0.1108
1166.40 0.1108
1166.50 0.1108
1166.60 0.1107
1166.70 0.1107
1166.80 0.1107
1166.90 0.1106
1167.00 0.1106
1167.10 0.1106
1167.20 0.1105
1167.30 0.1105
1167.40 0.1105
1167.50 0.1105
1167.60 0.1104
1167.70 0.1104
1167.80 0.1104
1167.90 0.1103
1168.00 0.1103
1168.10 0.1103
1168.20 0.1103
1168.30 0.1102
1168.40 0.1102
1168.50 0.1102
1168.60 0.1101
1168.70 0.1101
1168.80 0.1101
1168.90 0.1101
1169.00 0.11
1169.10 0.11
1169.20 0.11
1169.30 0.1099
1169.40 0.1099
1169.50 0.1099
1169.60 0.1099
1169.70 0.1098
1169.80 0.1098
1169.90 0.1098
1170.00 0.1097
1170.10 0.1097
1170.20 0.1097
1170.30 0.1097
1170.40 0.1096
1170.50 0.1096
1170.60 0.1096
1170.70 0.1095
1170.80 0.1095
1170.90 0.1095
1171.00 0.1095
1171.10 0.1094
1171.20 0.1094
1171.30 0.1094
1171.40 0.1093
1171.50 0.1093
1171.60 0.1093
1171.70 0.1093
1171.80 0.1092
1171.90 0.1092
1172.00 0.1092
1172.10 0.1091
1172.20 0.1091
1172.30 0.1091
1172.40 0.1091
1172.50 0.109
1172.60 0.109
1172.70 0.109
1172.80 0.1089
1172.90 0.1089
1173.00 0.1089
1173.10 0.1089
1173.20 0.1088
1173.30 0.1088
1173.40 0.1088
1173.50 0.1087
1173.60 0.1087
1173.70 0.1087
1173.80 0.1087
1173.90 0.1086
1174.00 0.1086
1174.10 0.1086
1174.20 0.1085
1174.30 0.1085
1174.40 0.1085
1174.50 0.1085
1174.60 0.1084
1174.70 0.1084
1174.80 0.1084
1174.90 0.1083
1175.00 0.1083
1175.10 0.1083
1175.20 0.1083
1175.30 0.1082
1175.40 0.1082
1175.50 0.1082
1175.60 0.1081
1175.70 0.1081
1175.80 0.1081
1175.90 0.1081
1176.00 0.108
1176.10 0.108
1176.20 0.108
1176.30 0.108
1176.40 0.1079
1176.50 0.1079
1176.60 0.1079
1176.70 0.1078
1176.80 0.1078
1176.90 0.1078
1177.00 0.1078
1177.10 0.1077
1177.20 0.1077
1177.30 0.1077
1177.40 0.1076
1177.50 0.1076
1177.60 0.1076
1177.70 0.1076
1177.80 0.1075
1177.90 0.1075
1178.00 0.1075
1178.10 0.1074
1178.20 0.1074
1178.30 0.1074
1178.40 0.1074
1178.50 0.1073
1178.60 0.1073
1178.70 0.1073
1178.80 0.1073
1178.90 0.1072
1179.00 0.1072
1179.10 0.1072
1179.20 0.1071
1179.30 0.1071
1179.40 0.1071
1179.50 0.1071
1179.60 0.107
1179.70 0.107
1179.80 0.107
1179.90 0.1069
1180.00 0.1069
1180.10 0.1069
1180.20 0.1069
1180.30 0.1068
1180.40 0.1068
1180.50 0.1068
1180.60 0.1067
1180.70 0.1067
1180.80 0.1067
1180.90 0.1067
1181.00 0.1066
1181.10 0.1066
1181.20 0.1066
1181.30 0.1066
1181.40 0.1065
1181.50 0.1065
1181.60 0.1065
1181.70 0.1064
1181.80 0.1064
1181.90 0.1064
1182.00 0.1064
1182.10 0.1063
1182.20 0.1063
1182.30 0.1063
1182.40 0.1062
1182.50 0.1062
1182.60 0.1062
1182.70 0.1062
1182.80 0.1061
1182.90 0.1061
1183.00 0.1061
1183.10 0.1061
1183.20 0.106
1183.30 0.106
1183.40 0.106
1183.50 0.1059
1183.60 0.1059
1183.70 0.1059
1183.80 0.1059
1183.90 0.1058
1184.00 0.1058
1184.10 0.1058
1184.20 0.1058
1184.30 0.1057
1184.40 0.1057
1184.50 0.1057
1184.60 0.1056
1184.70 0.1056
1184.80 0.1056
1184.90 0.1056
1185.00 0.1055
1185.10 0.1055
1185.20 0.1055
1185.30 0.1055
1185.40 0.1054
1185.50 0.1054
1185.60 0.1054
1185.70 0.1053
1185.80 0.1053
1185.90 0.1053
1186.00 0.1053
1186.10 0.1052
1186.20 0.1052
1186.30 0.1052
1186.40 0.1051
1186.50 0.1051
1186.60 0.1051
1186.70 0.1051
1186.80 0.105
1186.90 0.105
1187.00 0.105
1187.10 0.105
1187.20 0.1049
1187.30 0.1049
1187.40 0.1049
1187.50 0.1048
1187.60 0.1048
1187.70 0.1048
1187.80 0.1048
1187.90 0.1047
1188.00 0.1047
1188.10 0.1047
1188.20 0.1047
1188.30 0.1046
1188.40 0.1046
1188.50 0.1046
1188.60 0.1046
1188.70 0.1045
1188.80 0.1045
1188.90 0.1045
1189.00 0.1044
1189.10 0.1044
1189.20 0.1044
1189.30 0.1044
1189.40 0.1043
1189.50 0.1043
1189.60 0.1043
1189.70 0.1043
1189.80 0.1042
1189.90 0.1042
1190.00 0.1042
1190.10 0.1041
1190.20 0.1041
1190.30 0.1041
1190.40 0.1041
1190.50 0.104
1190.60 0.104
1190.70 0.104
1190.80 0.104
1190.90 0.1039
1191.00 0.1039
1191.10 0.1039
1191.20 0.1038
1191.30 0.1038
1191.40 0.1038
1191.50 0.1038
1191.60 0.1037
1191.70 0.1037
1191.80 0.1037
1191.90 0.1037
1192.00 0.1036
1192.10 0.1036
1192.20 0.1036
1192.30 0.1036
1192.40 0.1035
1192.50 0.1035
1192.60 0.1035
1192.70 0.1034
1192.80 0.1034
1192.90 0.1034
1193.00 0.1034
1193.10 0.1033
1193.20 0.1033
1193.30 0.1033
1193.40 0.1033
1193.50 0.1032
1193.60 0.1032
1193.70 0.1032
1193.80 0.1032
1193.90 0.1031
1194.00 0.1031
1194.10 0.1031
1194.20 0.103
1194.30 0.103
1194.40 0.103
1194.50 0.103
1194.60 0.1029
1194.70 0.1029
1194.80 0.1029
1194.90 0.1029
1195.00 0.1028
1195.10 0.1028
1195.20 0.1028
1195.30 0.1028
1195.40 0.1027
1195.50 0.1027
1195.60 0.1027
1195.70 0.1026
1195.80 0.1026
1195.90 0.1026
1196.00 0.1026
1196.10 0.1025
1196.20 0.1025
1196.30 0.1025
1196.40 0.1025
1196.50 0.1024
1196.60 0.1024
1196.70 0.1024
1196.80 0.1024
1196.90 0.1023
1197.00 0.1023
1197.10 0.1023
1197.20 0.1022
1197.30 0.1022
1197.40 0.1022
1197.50 0.1022
1197.60 0.1021
1197.70 0.1021
1197.80 0.1021
1197.90 0.1021
1198.00 0.102
1198.10 0.102
1198.20 0.102
1198.30 0.102
1198.40 0.1019
1198.50 0.1019
1198.60 0.1019
1198.70 0.1019
1198.80 0.1018
1198.90 0.1018
1199.00 0.1018
1199.10 0.1017
1199.20 0.1017
1199.30 0.1017
1199.40 0.1017
1199.50 0.1016
1199.60 0.1016
1199.70 0.1016
1199.80 0.1016
1199.90 0.1015
1200.00 0
