# Version 2.1 - nm, norm@500 to 1, cut digits, bergeron_15000_70.dat_15000
# Wavelength(nm)  Flambda(ergs/cm^s/s/nm)
300.00 2.144
300.10 2.142
300.20 2.14
300.30 2.139
300.40 2.137
300.50 2.135
300.60 2.134
300.70 2.132
300.80 2.13
300.90 2.129
301.00 2.127
301.10 2.126
301.20 2.124
301.30 2.122
301.40 2.121
301.50 2.119
301.60 2.117
301.70 2.116
301.80 2.114
301.90 2.113
302.00 2.111
302.10 2.109
302.20 2.108
302.30 2.106
302.40 2.105
302.50 2.103
302.60 2.101
302.70 2.1
302.80 2.098
302.90 2.097
303.00 2.095
303.10 2.093
303.20 2.092
303.30 2.09
303.40 2.089
303.50 2.087
303.60 2.086
303.70 2.084
303.80 2.082
303.90 2.081
304.00 2.079
304.10 2.078
304.20 2.076
304.30 2.075
304.40 2.073
304.50 2.071
304.60 2.07
304.70 2.068
304.80 2.067
304.90 2.065
305.00 2.064
305.10 2.062
305.20 2.06
305.30 2.059
305.40 2.057
305.50 2.056
305.60 2.054
305.70 2.053
305.80 2.051
305.90 2.05
306.00 2.048
306.10 2.047
306.20 2.045
306.30 2.043
306.40 2.042
306.50 2.04
306.60 2.039
306.70 2.037
306.80 2.036
306.90 2.034
307.00 2.033
307.10 2.031
307.20 2.03
307.30 2.028
307.40 2.027
307.50 2.025
307.60 2.024
307.70 2.022
307.80 2.021
307.90 2.019
308.00 2.018
308.10 2.016
308.20 2.015
308.30 2.013
308.40 2.012
308.50 2.01
308.60 2.009
308.70 2.007
308.80 2.006
308.90 2.004
309.00 2.003
309.10 2.001
309.20 2
309.30 1.998
309.40 1.997
309.50 1.995
309.60 1.994
309.70 1.992
309.80 1.991
309.90 1.989
310.00 1.988
310.10 1.986
310.20 1.985
310.30 1.983
310.40 1.982
310.50 1.98
310.60 1.979
310.70 1.977
310.80 1.976
310.90 1.974
311.00 1.973
311.10 1.971
311.20 1.97
311.30 1.969
311.40 1.967
311.50 1.966
311.60 1.964
311.70 1.963
311.80 1.961
311.90 1.96
312.00 1.958
312.10 1.957
312.20 1.955
312.30 1.954
312.40 1.953
312.50 1.951
312.60 1.95
312.70 1.948
312.80 1.947
312.90 1.945
313.00 1.944
313.10 1.943
313.20 1.941
313.30 1.94
313.40 1.938
313.50 1.937
313.60 1.935
313.70 1.934
313.80 1.933
313.90 1.931
314.00 1.93
314.10 1.928
314.20 1.927
314.30 1.925
314.40 1.924
314.50 1.923
314.60 1.921
314.70 1.92
314.80 1.918
314.90 1.917
315.00 1.916
315.10 1.914
315.20 1.913
315.30 1.911
315.40 1.91
315.50 1.909
315.60 1.907
315.70 1.906
315.80 1.904
315.90 1.903
316.00 1.902
316.10 1.9
316.20 1.899
316.30 1.897
316.40 1.896
316.50 1.895
316.60 1.893
316.70 1.892
316.80 1.89
316.90 1.889
317.00 1.888
317.10 1.886
317.20 1.885
317.30 1.884
317.40 1.882
317.50 1.881
317.60 1.879
317.70 1.878
317.80 1.877
317.90 1.875
318.00 1.874
318.10 1.873
318.20 1.871
318.30 1.87
318.40 1.868
318.50 1.867
318.60 1.866
318.70 1.864
318.80 1.863
318.90 1.862
319.00 1.86
319.10 1.859
319.20 1.858
319.30 1.856
319.40 1.855
319.50 1.854
319.60 1.852
319.70 1.851
319.80 1.85
319.90 1.848
320.00 1.847
320.10 1.846
320.20 1.844
320.30 1.843
320.40 1.842
320.50 1.84
320.60 1.839
320.70 1.838
320.80 1.836
320.90 1.835
321.00 1.834
321.10 1.832
321.20 1.831
321.30 1.83
321.40 1.828
321.50 1.827
321.60 1.826
321.70 1.824
321.80 1.823
321.90 1.822
322.00 1.82
322.10 1.819
322.20 1.818
322.30 1.816
322.40 1.815
322.50 1.814
322.60 1.812
322.70 1.811
322.80 1.81
322.90 1.809
323.00 1.807
323.10 1.806
323.20 1.805
323.30 1.803
323.40 1.802
323.50 1.801
323.60 1.799
323.70 1.798
323.80 1.797
323.90 1.796
324.00 1.794
324.10 1.793
324.20 1.792
324.30 1.79
324.40 1.789
324.50 1.788
324.60 1.787
324.70 1.785
324.80 1.784
324.90 1.783
325.00 1.781
325.10 1.78
325.20 1.779
325.30 1.778
325.40 1.776
325.50 1.775
325.60 1.774
325.70 1.773
325.80 1.771
325.90 1.77
326.00 1.769
326.10 1.768
326.20 1.766
326.30 1.765
326.40 1.764
326.50 1.762
326.60 1.761
326.70 1.76
326.80 1.759
326.90 1.757
327.00 1.756
327.10 1.755
327.20 1.754
327.30 1.752
327.40 1.751
327.50 1.75
327.60 1.749
327.70 1.747
327.80 1.746
327.90 1.745
328.00 1.744
328.10 1.742
328.20 1.741
328.30 1.74
328.40 1.739
328.50 1.738
328.60 1.736
328.70 1.735
328.80 1.734
328.90 1.733
329.00 1.731
329.10 1.73
329.20 1.729
329.30 1.728
329.40 1.726
329.50 1.725
329.60 1.724
329.70 1.723
329.80 1.722
329.90 1.72
330.00 1.719
330.10 1.718
330.20 1.717
330.30 1.716
330.40 1.714
330.50 1.713
330.60 1.712
330.70 1.711
330.80 1.709
330.90 1.708
331.00 1.707
331.10 1.706
331.20 1.705
331.30 1.703
331.40 1.702
331.50 1.701
331.60 1.7
331.70 1.699
331.80 1.697
331.90 1.696
332.00 1.695
332.10 1.694
332.20 1.693
332.30 1.691
332.40 1.69
332.50 1.689
332.60 1.688
332.70 1.687
332.80 1.686
332.90 1.684
333.00 1.683
333.10 1.682
333.20 1.681
333.30 1.68
333.40 1.678
333.50 1.677
333.60 1.676
333.70 1.675
333.80 1.674
333.90 1.673
334.00 1.671
334.10 1.67
334.20 1.669
334.30 1.668
334.40 1.667
334.50 1.666
334.60 1.664
334.70 1.663
334.80 1.662
334.90 1.661
335.00 1.66
335.10 1.659
335.20 1.657
335.30 1.656
335.40 1.655
335.50 1.654
335.60 1.653
335.70 1.652
335.80 1.65
335.90 1.649
336.00 1.648
336.10 1.647
336.20 1.646
336.30 1.645
336.40 1.644
336.50 1.642
336.60 1.641
336.70 1.64
336.80 1.639
336.90 1.638
337.00 1.637
337.10 1.636
337.20 1.634
337.30 1.633
337.40 1.632
337.50 1.631
337.60 1.63
337.70 1.629
337.80 1.628
337.90 1.627
338.00 1.625
338.10 1.624
338.20 1.623
338.30 1.622
338.40 1.621
338.50 1.62
338.60 1.619
338.70 1.618
338.80 1.616
338.90 1.615
339.00 1.614
339.10 1.613
339.20 1.612
339.30 1.611
339.40 1.61
339.50 1.609
339.60 1.607
339.70 1.606
339.80 1.605
339.90 1.604
340.00 1.603
340.10 1.602
340.20 1.601
340.30 1.6
340.40 1.599
340.50 1.597
340.60 1.596
340.70 1.595
340.80 1.594
340.90 1.593
341.00 1.592
341.10 1.591
341.20 1.59
341.30 1.589
341.40 1.588
341.50 1.586
341.60 1.585
341.70 1.584
341.80 1.583
341.90 1.582
342.00 1.581
342.10 1.58
342.20 1.579
342.30 1.578
342.40 1.577
342.50 1.576
342.60 1.575
342.70 1.573
342.80 1.572
342.90 1.571
343.00 1.57
343.10 1.569
343.20 1.568
343.30 1.567
343.40 1.566
343.50 1.565
343.60 1.564
343.70 1.563
343.80 1.562
343.90 1.561
344.00 1.559
344.10 1.558
344.20 1.557
344.30 1.556
344.40 1.555
344.50 1.554
344.60 1.553
344.70 1.552
344.80 1.551
344.90 1.55
345.00 1.549
345.10 1.548
345.20 1.547
345.30 1.546
345.40 1.545
345.50 1.544
345.60 1.542
345.70 1.541
345.80 1.54
345.90 1.539
346.00 1.538
346.10 1.537
346.20 1.536
346.30 1.535
346.40 1.534
346.50 1.533
346.60 1.532
346.70 1.531
346.80 1.53
346.90 1.529
347.00 1.528
347.10 1.527
347.20 1.526
347.30 1.525
347.40 1.524
347.50 1.523
347.60 1.522
347.70 1.521
347.80 1.52
347.90 1.519
348.00 1.517
348.10 1.516
348.20 1.515
348.30 1.514
348.40 1.513
348.50 1.512
348.60 1.511
348.70 1.51
348.80 1.509
348.90 1.508
349.00 1.507
349.10 1.506
349.20 1.505
349.30 1.504
349.40 1.503
349.50 1.502
349.60 1.501
349.70 1.5
349.80 1.499
349.90 1.498
350.00 1.497
350.10 1.496
350.20 1.495
350.30 1.494
350.40 1.493
350.50 1.492
350.60 1.491
350.70 1.49
350.80 1.489
350.90 1.488
351.00 1.487
351.10 1.486
351.20 1.485
351.30 1.484
351.40 1.483
351.50 1.482
351.60 1.481
351.70 1.48
351.80 1.479
351.90 1.478
352.00 1.477
352.10 1.476
352.20 1.475
352.30 1.474
352.40 1.473
352.50 1.472
352.60 1.471
352.70 1.47
352.80 1.469
352.90 1.468
353.00 1.467
353.10 1.466
353.20 1.465
353.30 1.464
353.40 1.463
353.50 1.462
353.60 1.461
353.70 1.46
353.80 1.459
353.90 1.458
354.00 1.457
354.10 1.456
354.20 1.455
354.30 1.454
354.40 1.453
354.50 1.452
354.60 1.451
354.70 1.45
354.80 1.449
354.90 1.448
355.00 1.448
355.10 1.447
355.20 1.446
355.30 1.445
355.40 1.444
355.50 1.443
355.60 1.442
355.70 1.441
355.80 1.44
355.90 1.439
356.00 1.438
356.10 1.437
356.20 1.436
356.30 1.435
356.40 1.434
356.50 1.433
356.60 1.432
356.70 1.431
356.80 1.43
356.90 1.429
357.00 1.428
357.10 1.427
357.20 1.426
357.30 1.425
357.40 1.424
357.50 1.424
357.60 1.423
357.70 1.422
357.80 1.421
357.90 1.42
358.00 1.419
358.10 1.418
358.20 1.417
358.30 1.416
358.40 1.415
358.50 1.414
358.60 1.413
358.70 1.412
358.80 1.411
358.90 1.41
359.00 1.409
359.10 1.408
359.20 1.408
359.30 1.407
359.40 1.406
359.50 1.405
359.60 1.404
359.70 1.403
359.80 1.402
359.90 1.401
360.00 1.4
360.10 1.399
360.20 1.398
360.30 1.397
360.40 1.396
360.50 1.395
360.60 1.395
360.70 1.394
360.80 1.393
360.90 1.392
361.00 1.391
361.10 1.39
361.20 1.389
361.30 1.388
361.40 1.387
361.50 1.386
361.60 1.385
361.70 1.384
361.80 1.384
361.90 1.383
362.00 1.382
362.10 1.381
362.20 1.38
362.30 1.379
362.40 1.378
362.50 1.377
362.60 1.376
362.70 1.375
362.80 1.374
362.90 1.374
363.00 1.373
363.10 1.372
363.20 1.371
363.30 1.37
363.40 1.369
363.50 1.368
363.60 1.367
363.70 1.366
363.80 1.365
363.90 1.364
364.00 1.363
364.10 1.362
364.20 1.361
364.30 1.361
364.40 1.36
364.50 1.359
364.60 1.358
364.70 1.357
364.80 1.356
364.90 1.355
365.00 1.354
365.10 1.353
365.20 1.352
365.30 1.351
365.40 1.351
365.50 1.35
365.60 1.349
365.70 1.348
365.80 1.347
365.90 1.346
366.00 1.345
366.10 1.344
366.20 1.344
366.30 1.343
366.40 1.342
366.50 1.341
366.60 1.34
366.70 1.339
366.80 1.339
366.90 1.338
367.00 1.337
367.10 1.336
367.20 1.335
367.30 1.334
367.40 1.334
367.50 1.333
367.60 1.332
367.70 1.331
367.80 1.33
367.90 1.329
368.00 1.329
368.10 1.328
368.20 1.328
368.30 1.328
368.40 1.328
368.50 1.328
368.60 1.328
368.70 1.328
368.80 1.328
368.90 1.328
369.00 1.328
369.10 1.328
369.20 1.328
369.30 1.327
369.40 1.327
369.50 1.327
369.60 1.327
369.70 1.327
369.80 1.327
369.90 1.327
370.00 1.327
370.10 1.328
370.20 1.33
370.30 1.332
370.40 1.333
370.50 1.335
370.60 1.337
370.70 1.338
370.80 1.34
370.90 1.342
371.00 1.343
371.10 1.345
371.20 1.346
371.30 1.348
371.40 1.35
371.50 1.351
371.60 1.353
371.70 1.354
371.80 1.356
371.90 1.358
372.00 1.359
372.10 1.363
372.20 1.366
372.30 1.37
372.40 1.373
372.50 1.377
372.60 1.38
372.70 1.384
372.80 1.387
372.90 1.39
373.00 1.394
373.10 1.397
373.20 1.401
373.30 1.404
373.40 1.408
373.50 1.411
373.60 1.415
373.70 1.418
373.80 1.421
373.90 1.425
374.00 1.428
374.10 1.432
374.20 1.436
374.30 1.44
374.40 1.444
374.50 1.448
374.60 1.452
374.70 1.456
374.80 1.46
374.90 1.464
375.00 1.468
375.10 1.471
375.20 1.475
375.30 1.479
375.40 1.483
375.50 1.487
375.60 1.491
375.70 1.495
375.80 1.499
375.90 1.503
376.00 1.507
376.10 1.509
376.20 1.51
376.30 1.512
376.40 1.514
376.50 1.516
376.60 1.518
376.70 1.52
376.80 1.522
376.90 1.524
377.00 1.526
377.10 1.523
377.20 1.519
377.30 1.516
377.40 1.512
377.50 1.509
377.60 1.505
377.70 1.502
377.80 1.498
377.90 1.495
378.00 1.491
378.10 1.472
378.20 1.453
378.30 1.434
378.40 1.415
378.50 1.396
378.60 1.376
378.70 1.357
378.80 1.338
378.90 1.319
379.00 1.3
379.10 1.285
379.20 1.271
379.30 1.256
379.40 1.241
379.50 1.226
379.60 1.212
379.70 1.197
379.80 1.182
379.90 1.168
380.00 1.153
380.10 1.176
380.20 1.2
380.30 1.223
380.40 1.246
380.50 1.27
380.60 1.293
380.70 1.316
380.80 1.34
380.90 1.363
381.00 1.386
381.10 1.396
381.20 1.406
381.30 1.416
381.40 1.426
381.50 1.436
381.60 1.436
381.70 1.433
381.80 1.428
381.90 1.419
382.00 1.407
382.10 1.392
382.20 1.373
382.30 1.34
382.40 1.307
382.50 1.274
382.60 1.242
382.70 1.209
382.80 1.176
382.90 1.144
383.00 1.111
383.10 1.079
383.20 1.046
383.30 1.014
383.40 0.9796
383.50 0.9426
383.60 0.9502
383.70 0.9867
383.80 1.02
383.90 1.052
384.00 1.084
384.10 1.12
384.20 1.158
384.30 1.197
384.40 1.236
384.50 1.274
384.60 1.309
384.70 1.342
384.80 1.372
384.90 1.399
385.00 1.423
385.10 1.444
385.20 1.463
385.30 1.479
385.40 1.492
385.50 1.504
385.60 1.514
385.70 1.521
385.80 1.527
385.90 1.532
386.00 1.533
386.10 1.534
386.20 1.533
386.30 1.529
386.40 1.525
386.50 1.518
386.60 1.51
386.70 1.5
386.80 1.488
386.90 1.474
387.00 1.459
387.10 1.442
387.20 1.422
387.30 1.4
387.40 1.377
387.50 1.35
387.60 1.321
387.70 1.29
387.80 1.254
387.90 1.216
388.00 1.177
388.10 1.134
388.20 1.09
388.30 1.046
388.40 1.003
388.50 0.9618
388.60 0.9224
388.70 0.8823
388.80 0.8411
388.90 0.799
389.00 0.8376
389.10 0.8768
389.20 0.9165
389.30 0.9549
389.40 0.9951
389.50 1.037
389.60 1.08
389.70 1.124
389.80 1.166
389.90 1.207
390.00 1.245
390.10 1.281
390.20 1.314
390.30 1.345
390.40 1.374
390.50 1.4
390.60 1.425
390.70 1.448
390.80 1.47
390.90 1.49
391.00 1.509
391.10 1.527
391.20 1.544
391.30 1.56
391.40 1.574
391.50 1.588
391.60 1.601
391.70 1.613
391.80 1.623
391.90 1.633
392.00 1.642
392.10 1.649
392.20 1.656
392.30 1.662
392.40 1.667
392.50 1.671
392.60 1.673
392.70 1.675
392.80 1.676
392.90 1.675
393.00 1.674
393.10 1.672
393.20 1.668
393.30 1.663
393.40 1.658
393.50 1.651
393.60 1.644
393.70 1.635
393.80 1.625
393.90 1.614
394.00 1.602
394.10 1.589
394.20 1.575
394.30 1.56
394.40 1.543
394.50 1.526
394.60 1.508
394.70 1.488
394.80 1.468
394.90 1.447
395.00 1.424
395.10 1.401
395.20 1.377
395.30 1.351
395.40 1.324
395.50 1.296
395.60 1.266
395.70 1.235
395.80 1.203
395.90 1.168
396.00 1.132
396.10 1.094
396.20 1.054
396.30 1.012
396.40 0.9699
396.50 0.9271
396.60 0.8853
396.70 0.8445
396.80 0.8017
396.90 0.7493
397.00 0.6875
397.10 0.7443
397.20 0.7941
397.30 0.8369
397.40 0.8767
397.50 0.9174
397.60 0.9591
397.70 1.001
397.80 1.041
397.90 1.08
398.00 1.117
398.10 1.152
398.20 1.186
398.30 1.217
398.40 1.248
398.50 1.277
398.60 1.304
398.70 1.33
398.80 1.355
398.90 1.379
399.00 1.402
399.10 1.424
399.20 1.445
399.30 1.466
399.40 1.486
399.50 1.505
399.60 1.523
399.70 1.541
399.80 1.557
399.90 1.573
400.00 1.589
400.10 1.603
400.20 1.617
400.30 1.631
400.40 1.643
400.50 1.655
400.60 1.666
400.70 1.676
400.80 1.686
400.90 1.696
401.00 1.704
401.10 1.713
401.20 1.72
401.30 1.728
401.40 1.734
401.50 1.741
401.60 1.746
401.70 1.752
401.80 1.757
401.90 1.761
402.00 1.765
402.10 1.769
402.20 1.772
402.30 1.775
402.40 1.777
402.50 1.779
402.60 1.781
402.70 1.783
402.80 1.784
402.90 1.785
403.00 1.785
403.10 1.786
403.20 1.786
403.30 1.785
403.40 1.785
403.50 1.784
403.60 1.783
403.70 1.781
403.80 1.779
403.90 1.777
404.00 1.775
404.10 1.772
404.20 1.769
404.30 1.766
404.40 1.762
404.50 1.758
404.60 1.754
404.70 1.75
404.80 1.745
404.90 1.74
405.00 1.734
405.10 1.728
405.20 1.722
405.30 1.715
405.40 1.708
405.50 1.7
405.60 1.692
405.70 1.684
405.80 1.675
405.90 1.666
406.00 1.656
406.10 1.646
406.20 1.635
406.30 1.624
406.40 1.612
406.50 1.6
406.60 1.587
406.70 1.573
406.80 1.559
406.90 1.545
407.00 1.529
407.10 1.513
407.20 1.496
407.30 1.478
407.40 1.459
407.50 1.44
407.60 1.42
407.70 1.4
407.80 1.379
407.90 1.357
408.00 1.334
408.10 1.311
408.20 1.287
408.30 1.263
408.40 1.238
408.50 1.212
408.60 1.186
408.70 1.16
408.80 1.132
408.90 1.104
409.00 1.075
409.10 1.045
409.20 1.014
409.30 0.9819
409.40 0.9476
409.50 0.9122
409.60 0.8756
409.70 0.8381
409.80 0.8007
409.90 0.7634
410.00 0.718
410.10 0.6678
410.20 0.6128
410.30 0.6857
410.40 0.7419
410.50 0.7816
410.60 0.818
410.70 0.8545
410.80 0.8909
410.90 0.9256
411.00 0.959
411.10 0.9911
411.20 1.021
411.30 1.05
411.40 1.078
411.50 1.105
411.60 1.131
411.70 1.157
411.80 1.181
411.90 1.205
412.00 1.229
412.10 1.251
412.20 1.274
412.30 1.295
412.40 1.316
412.50 1.336
412.60 1.356
412.70 1.375
412.80 1.393
412.90 1.411
413.00 1.428
413.10 1.444
413.20 1.459
413.30 1.474
413.40 1.487
413.50 1.501
413.60 1.513
413.70 1.525
413.80 1.537
413.90 1.547
414.00 1.558
414.10 1.568
414.20 1.577
414.30 1.586
414.40 1.594
414.50 1.602
414.60 1.61
414.70 1.617
414.80 1.624
414.90 1.63
415.00 1.636
415.10 1.642
415.20 1.647
415.30 1.653
415.40 1.658
415.50 1.662
415.60 1.666
415.70 1.67
415.80 1.674
415.90 1.678
416.00 1.681
416.10 1.684
416.20 1.687
416.30 1.69
416.40 1.693
416.50 1.695
416.60 1.697
416.70 1.7
416.80 1.702
416.90 1.703
417.00 1.705
417.10 1.707
417.20 1.708
417.30 1.71
417.40 1.711
417.50 1.712
417.60 1.713
417.70 1.714
417.80 1.715
417.90 1.716
418.00 1.716
418.10 1.717
418.20 1.717
418.30 1.718
418.40 1.718
418.50 1.718
418.60 1.718
418.70 1.719
418.80 1.719
418.90 1.719
419.00 1.719
419.10 1.719
419.20 1.718
419.30 1.718
419.40 1.718
419.50 1.718
419.60 1.717
419.70 1.717
419.80 1.717
419.90 1.716
420.00 1.716
420.10 1.715
420.20 1.714
420.30 1.714
420.40 1.713
420.50 1.712
420.60 1.712
420.70 1.711
420.80 1.71
420.90 1.709
421.00 1.708
421.10 1.708
421.20 1.707
421.30 1.706
421.40 1.705
421.50 1.704
421.60 1.703
421.70 1.701
421.80 1.7
421.90 1.699
422.00 1.698
422.10 1.697
422.20 1.696
422.30 1.694
422.40 1.693
422.50 1.692
422.60 1.69
422.70 1.689
422.80 1.688
422.90 1.686
423.00 1.685
423.10 1.683
423.20 1.682
423.30 1.68
423.40 1.678
423.50 1.677
423.60 1.675
423.70 1.673
423.80 1.672
423.90 1.67
424.00 1.668
424.10 1.666
424.20 1.664
424.30 1.662
424.40 1.66
424.50 1.658
424.60 1.656
424.70 1.654
424.80 1.652
424.90 1.65
425.00 1.647
425.10 1.645
425.20 1.643
425.30 1.64
425.40 1.638
425.50 1.635
425.60 1.632
425.70 1.63
425.80 1.627
425.90 1.624
426.00 1.621
426.10 1.618
426.20 1.615
426.30 1.611
426.40 1.608
426.50 1.605
426.60 1.601
426.70 1.598
426.80 1.594
426.90 1.591
427.00 1.587
427.10 1.583
427.20 1.579
427.30 1.575
427.40 1.571
427.50 1.566
427.60 1.562
427.70 1.557
427.80 1.552
427.90 1.547
428.00 1.542
428.10 1.537
428.20 1.532
428.30 1.526
428.40 1.521
428.50 1.515
428.60 1.509
428.70 1.502
428.80 1.496
428.90 1.489
429.00 1.482
429.10 1.475
429.20 1.468
429.30 1.46
429.40 1.452
429.50 1.444
429.60 1.435
429.70 1.427
429.80 1.417
429.90 1.408
430.00 1.398
430.10 1.388
430.20 1.378
430.30 1.367
430.40 1.356
430.50 1.345
430.60 1.333
430.70 1.321
430.80 1.308
430.90 1.295
431.00 1.282
431.10 1.268
431.20 1.254
431.30 1.24
431.40 1.225
431.50 1.21
431.60 1.193
431.70 1.177
431.80 1.16
431.90 1.142
432.00 1.123
432.10 1.104
432.20 1.083
432.30 1.062
432.40 1.04
432.50 1.017
432.60 0.9925
432.70 0.9674
432.80 0.9418
432.90 0.9164
433.00 0.8914
433.10 0.8673
433.20 0.8429
433.30 0.8181
433.40 0.7911
433.50 0.7629
433.60 0.7337
433.70 0.7025
433.80 0.6683
433.90 0.631
434.00 0.5411
434.10 0.5421
434.20 0.634
434.30 0.6698
434.40 0.7029
434.50 0.7333
434.60 0.7616
434.70 0.7887
434.80 0.8147
434.90 0.8383
435.00 0.8617
435.10 0.8846
435.20 0.9085
435.30 0.9326
435.40 0.9568
435.50 0.9803
435.60 1.003
435.70 1.025
435.80 1.045
435.90 1.065
436.00 1.083
436.10 1.101
436.20 1.117
436.30 1.134
436.40 1.149
436.50 1.163
436.60 1.177
436.70 1.191
436.80 1.203
436.90 1.216
437.00 1.228
437.10 1.239
437.20 1.25
437.30 1.261
437.40 1.271
437.50 1.281
437.60 1.29
437.70 1.299
437.80 1.308
437.90 1.316
438.00 1.324
438.10 1.332
438.20 1.339
438.30 1.346
438.40 1.353
438.50 1.359
438.60 1.365
438.70 1.371
438.80 1.376
438.90 1.382
439.00 1.387
439.10 1.391
439.20 1.396
439.30 1.4
439.40 1.404
439.50 1.408
439.60 1.411
439.70 1.415
439.80 1.418
439.90 1.421
440.00 1.424
440.10 1.427
440.20 1.429
440.30 1.432
440.40 1.434
440.50 1.436
440.60 1.438
440.70 1.44
440.80 1.442
440.90 1.443
441.00 1.445
441.10 1.446
441.20 1.448
441.30 1.449
441.40 1.45
441.50 1.451
441.60 1.452
441.70 1.453
441.80 1.454
441.90 1.455
442.00 1.456
442.10 1.456
442.20 1.457
442.30 1.457
442.40 1.458
442.50 1.458
442.60 1.458
442.70 1.459
442.80 1.459
442.90 1.459
443.00 1.459
443.10 1.459
443.20 1.459
443.30 1.459
443.40 1.459
443.50 1.459
443.60 1.459
443.70 1.459
443.80 1.459
443.90 1.459
444.00 1.458
444.10 1.458
444.20 1.458
444.30 1.457
444.40 1.457
444.50 1.457
444.60 1.456
444.70 1.456
444.80 1.455
444.90 1.455
445.00 1.454
445.10 1.454
445.20 1.453
445.30 1.453
445.40 1.452
445.50 1.452
445.60 1.451
445.70 1.451
445.80 1.45
445.90 1.449
446.00 1.449
446.10 1.448
446.20 1.447
446.30 1.447
446.40 1.446
446.50 1.445
446.60 1.445
446.70 1.444
446.80 1.443
446.90 1.442
447.00 1.442
447.10 1.441
447.20 1.44
447.30 1.439
447.40 1.439
447.50 1.438
447.60 1.437
447.70 1.436
447.80 1.435
447.90 1.435
448.00 1.434
448.10 1.433
448.20 1.432
448.30 1.431
448.40 1.43
448.50 1.43
448.60 1.429
448.70 1.428
448.80 1.427
448.90 1.426
449.00 1.426
449.10 1.425
449.20 1.424
449.30 1.423
449.40 1.422
449.50 1.421
449.60 1.42
449.70 1.42
449.80 1.419
449.90 1.418
450.00 1.417
450.10 1.416
450.20 1.415
450.30 1.414
450.40 1.413
450.50 1.412
450.60 1.411
450.70 1.411
450.80 1.41
450.90 1.409
451.00 1.408
451.10 1.407
451.20 1.406
451.30 1.405
451.40 1.404
451.50 1.403
451.60 1.402
451.70 1.402
451.80 1.401
451.90 1.4
452.00 1.399
452.10 1.398
452.20 1.397
452.30 1.396
452.40 1.395
452.50 1.394
452.60 1.393
452.70 1.392
452.80 1.391
452.90 1.39
453.00 1.39
453.10 1.389
453.20 1.388
453.30 1.387
453.40 1.386
453.50 1.385
453.60 1.384
453.70 1.383
453.80 1.382
453.90 1.381
454.00 1.38
454.10 1.379
454.20 1.378
454.30 1.377
454.40 1.376
454.50 1.376
454.60 1.375
454.70 1.374
454.80 1.373
454.90 1.372
455.00 1.371
455.10 1.37
455.20 1.369
455.30 1.368
455.40 1.367
455.50 1.366
455.60 1.365
455.70 1.364
455.80 1.363
455.90 1.362
456.00 1.361
456.10 1.36
456.20 1.36
456.30 1.359
456.40 1.358
456.50 1.357
456.60 1.356
456.70 1.355
456.80 1.354
456.90 1.353
457.00 1.352
457.10 1.351
457.20 1.35
457.30 1.349
457.40 1.348
457.50 1.347
457.60 1.346
457.70 1.345
457.80 1.345
457.90 1.344
458.00 1.343
458.10 1.342
458.20 1.341
458.30 1.34
458.40 1.339
458.50 1.338
458.60 1.337
458.70 1.336
458.80 1.335
458.90 1.334
459.00 1.333
459.10 1.332
459.20 1.331
459.30 1.33
459.40 1.329
459.50 1.328
459.60 1.327
459.70 1.327
459.80 1.326
459.90 1.325
460.00 1.324
460.10 1.323
460.20 1.322
460.30 1.321
460.40 1.32
460.50 1.319
460.60 1.318
460.70 1.317
460.80 1.316
460.90 1.315
461.00 1.314
461.10 1.313
461.20 1.312
461.30 1.311
461.40 1.31
461.50 1.309
461.60 1.308
461.70 1.307
461.80 1.307
461.90 1.306
462.00 1.305
462.10 1.304
462.20 1.303
462.30 1.302
462.40 1.301
462.50 1.3
462.60 1.299
462.70 1.298
462.80 1.297
462.90 1.296
463.00 1.295
463.10 1.294
463.20 1.293
463.30 1.292
463.40 1.291
463.50 1.29
463.60 1.289
463.70 1.288
463.80 1.287
463.90 1.287
464.00 1.286
464.10 1.285
464.20 1.284
464.30 1.283
464.40 1.282
464.50 1.281
464.60 1.28
464.70 1.279
464.80 1.278
464.90 1.277
465.00 1.276
465.10 1.275
465.20 1.274
465.30 1.273
465.40 1.272
465.50 1.271
465.60 1.27
465.70 1.269
465.80 1.268
465.90 1.267
466.00 1.266
466.10 1.265
466.20 1.264
466.30 1.263
466.40 1.262
466.50 1.261
466.60 1.26
466.70 1.26
466.80 1.259
466.90 1.258
467.00 1.257
467.10 1.256
467.20 1.255
467.30 1.254
467.40 1.253
467.50 1.252
467.60 1.251
467.70 1.25
467.80 1.249
467.90 1.248
468.00 1.247
468.10 1.246
468.20 1.245
468.30 1.244
468.40 1.243
468.50 1.242
468.60 1.241
468.70 1.24
468.80 1.239
468.90 1.238
469.00 1.237
469.10 1.236
469.20 1.235
469.30 1.234
469.40 1.233
469.50 1.232
469.60 1.231
469.70 1.23
469.80 1.229
469.90 1.228
470.00 1.227
470.10 1.226
470.20 1.224
470.30 1.223
470.40 1.222
470.50 1.221
470.60 1.22
470.70 1.219
470.80 1.218
470.90 1.217
471.00 1.216
471.10 1.215
471.20 1.214
471.30 1.213
471.40 1.212
471.50 1.211
471.60 1.21
471.70 1.209
471.80 1.207
471.90 1.206
472.00 1.205
472.10 1.204
472.20 1.203
472.30 1.202
472.40 1.201
472.50 1.2
472.60 1.198
472.70 1.197
472.80 1.196
472.90 1.195
473.00 1.194
473.10 1.193
473.20 1.191
473.30 1.19
473.40 1.189
473.50 1.188
473.60 1.187
473.70 1.185
473.80 1.184
473.90 1.183
474.00 1.182
474.10 1.18
474.20 1.179
474.30 1.178
474.40 1.176
474.50 1.175
474.60 1.174
474.70 1.172
474.80 1.171
474.90 1.17
475.00 1.168
475.10 1.167
475.20 1.166
475.30 1.164
475.40 1.163
475.50 1.161
475.60 1.16
475.70 1.158
475.80 1.157
475.90 1.155
476.00 1.154
476.10 1.152
476.20 1.151
476.30 1.149
476.40 1.147
476.50 1.146
476.60 1.144
476.70 1.142
476.80 1.14
476.90 1.139
477.00 1.137
477.10 1.135
477.20 1.133
477.30 1.131
477.40 1.129
477.50 1.127
477.60 1.125
477.70 1.123
477.80 1.121
477.90 1.119
478.00 1.117
478.10 1.115
478.20 1.113
478.30 1.111
478.40 1.108
478.50 1.106
478.60 1.103
478.70 1.101
478.80 1.098
478.90 1.096
479.00 1.093
479.10 1.091
479.20 1.088
479.30 1.085
479.40 1.081
479.50 1.078
479.60 1.075
479.70 1.072
479.80 1.069
479.90 1.066
480.00 1.063
480.10 1.059
480.20 1.056
480.30 1.051
480.40 1.047
480.50 1.043
480.60 1.039
480.70 1.035
480.80 1.031
480.90 1.026
481.00 1.022
481.10 1.018
481.20 1.013
481.30 1.007
481.40 1.002
481.50 0.996
481.60 0.9903
481.70 0.9847
481.80 0.979
481.90 0.9734
482.00 0.9678
482.10 0.9621
482.20 0.9551
482.30 0.9473
482.40 0.9396
482.50 0.9319
482.60 0.9242
482.70 0.9165
482.80 0.9088
482.90 0.9011
483.00 0.8934
483.10 0.8857
483.20 0.8762
483.30 0.8659
483.40 0.8555
483.50 0.8452
483.60 0.8348
483.70 0.8245
483.80 0.8142
483.90 0.8038
484.00 0.7935
484.10 0.7832
484.20 0.7716
484.30 0.7593
484.40 0.747
484.50 0.7347
484.60 0.7224
484.70 0.7093
484.80 0.6958
484.90 0.6823
485.00 0.6689
485.10 0.6554
485.20 0.6415
485.30 0.6274
485.40 0.6125
485.50 0.5972
485.60 0.5808
485.70 0.5638
485.80 0.5439
485.90 0.5227
486.00 0.4939
486.10 0.4002
486.20 0.449
486.30 0.5052
486.40 0.5285
486.50 0.5494
486.60 0.5673
486.70 0.5837
486.80 0.5989
486.90 0.6135
487.00 0.6273
487.10 0.6407
487.20 0.6536
487.30 0.6662
487.40 0.6788
487.50 0.6915
487.60 0.7041
487.70 0.7158
487.80 0.7271
487.90 0.7383
488.00 0.7496
488.10 0.7608
488.20 0.7706
488.30 0.7798
488.40 0.7889
488.50 0.798
488.60 0.8071
488.70 0.8162
488.80 0.8252
488.90 0.8343
489.00 0.8434
489.10 0.8524
489.20 0.8596
489.30 0.8658
489.40 0.8721
489.50 0.8783
489.60 0.8846
489.70 0.8908
489.80 0.897
489.90 0.9033
490.00 0.9095
490.10 0.9157
490.20 0.9205
490.30 0.9245
490.40 0.9286
490.50 0.9327
490.60 0.9368
490.70 0.9408
490.80 0.9449
490.90 0.949
491.00 0.953
491.10 0.9571
491.20 0.9601
491.30 0.9626
491.40 0.9651
491.50 0.9676
491.60 0.9701
491.70 0.9726
491.80 0.9751
491.90 0.9776
492.00 0.9801
492.10 0.9826
492.20 0.9844
492.30 0.9859
492.40 0.9874
492.50 0.9889
492.60 0.9904
492.70 0.9919
492.80 0.9934
492.90 0.9949
493.00 0.9964
493.10 0.9979
493.20 0.9989
493.30 0.9998
493.40 1.001
493.50 1.001
493.60 1.002
493.70 1.003
493.80 1.004
493.90 1.005
494.00 1.006
494.10 1.006
494.20 1.007
494.30 1.007
494.40 1.008
494.50 1.008
494.60 1.008
494.70 1.009
494.80 1.009
494.90 1.01
495.00 1.01
495.10 1.01
495.20 1.01
495.30 1.01
495.40 1.011
495.50 1.011
495.60 1.011
495.70 1.011
495.80 1.011
495.90 1.011
496.00 1.011
496.10 1.011
496.20 1.011
496.30 1.011
496.40 1.011
496.50 1.011
496.60 1.011
496.70 1.01
496.80 1.01
496.90 1.01
497.00 1.01
497.10 1.01
497.20 1.01
497.30 1.009
497.40 1.009
497.50 1.009
497.60 1.009
497.70 1.008
497.80 1.008
497.90 1.008
498.00 1.008
498.10 1.007
498.20 1.007
498.30 1.007
498.40 1.006
498.50 1.006
498.60 1.006
498.70 1.005
498.80 1.005
498.90 1.005
499.00 1.004
499.10 1.004
499.20 1.003
499.30 1.003
499.40 1.003
499.50 1.002
499.60 1.002
499.70 1.001
499.80 1.001
499.90 1
500.00 1
500.10 0.9996
500.20 0.9991
500.30 0.9986
500.40 0.9982
500.50 0.9977
500.60 0.9972
500.70 0.9967
500.80 0.9963
500.90 0.9958
501.00 0.9953
501.10 0.9948
501.20 0.9943
501.30 0.9938
501.40 0.9933
501.50 0.9928
501.60 0.9923
501.70 0.9918
501.80 0.9913
501.90 0.9908
502.00 0.9903
502.10 0.9898
502.20 0.9892
502.30 0.9887
502.40 0.9882
502.50 0.9876
502.60 0.9871
502.70 0.9865
502.80 0.986
502.90 0.9855
503.00 0.9849
503.10 0.9844
503.20 0.9838
503.30 0.9833
503.40 0.9828
503.50 0.9822
503.60 0.9817
503.70 0.9811
503.80 0.9806
503.90 0.98
504.00 0.9795
504.10 0.979
504.20 0.9784
504.30 0.9778
504.40 0.9773
504.50 0.9767
504.60 0.9761
504.70 0.9756
504.80 0.975
504.90 0.9744
505.00 0.9739
505.10 0.9733
505.20 0.9727
505.30 0.9722
505.40 0.9716
505.50 0.971
505.60 0.9704
505.70 0.9698
505.80 0.9693
505.90 0.9687
506.00 0.9681
506.10 0.9675
506.20 0.967
506.30 0.9664
506.40 0.9658
506.50 0.9652
506.60 0.9646
506.70 0.9641
506.80 0.9635
506.90 0.9629
507.00 0.9624
507.10 0.9618
507.20 0.9612
507.30 0.9606
507.40 0.96
507.50 0.9595
507.60 0.9589
507.70 0.9583
507.80 0.9577
507.90 0.9571
508.00 0.9566
508.10 0.956
508.20 0.9554
508.30 0.9548
508.40 0.9542
508.50 0.9536
508.60 0.9531
508.70 0.9525
508.80 0.9519
508.90 0.9513
509.00 0.9507
509.10 0.9501
509.20 0.9496
509.30 0.949
509.40 0.9484
509.50 0.9478
509.60 0.9472
509.70 0.9466
509.80 0.946
509.90 0.9454
510.00 0.9449
510.10 0.9443
510.20 0.9437
510.30 0.9431
510.40 0.9425
510.50 0.9419
510.60 0.9413
510.70 0.9408
510.80 0.9402
510.90 0.9396
511.00 0.939
511.10 0.9384
511.20 0.9378
511.30 0.9372
511.40 0.9366
511.50 0.9361
511.60 0.9355
511.70 0.9349
511.80 0.9343
511.90 0.9337
512.00 0.9331
512.10 0.9325
512.20 0.9319
512.30 0.9314
512.40 0.9308
512.50 0.9302
512.60 0.9296
512.70 0.9291
512.80 0.9285
512.90 0.9279
513.00 0.9273
513.10 0.9268
513.20 0.9262
513.30 0.9256
513.40 0.925
513.50 0.9244
513.60 0.9238
513.70 0.9233
513.80 0.9227
513.90 0.9221
514.00 0.9215
514.10 0.9209
514.20 0.9204
514.30 0.9198
514.40 0.9192
514.50 0.9186
514.60 0.9181
514.70 0.9175
514.80 0.9169
514.90 0.9163
515.00 0.9157
515.10 0.9152
515.20 0.9146
515.30 0.914
515.40 0.9134
515.50 0.9128
515.60 0.9123
515.70 0.9117
515.80 0.9111
515.90 0.9105
516.00 0.9099
516.10 0.9094
516.20 0.9088
516.30 0.9082
516.40 0.9076
516.50 0.9071
516.60 0.9065
516.70 0.9059
516.80 0.9054
516.90 0.9048
517.00 0.9042
517.10 0.9037
517.20 0.9031
517.30 0.9025
517.40 0.9019
517.50 0.9014
517.60 0.9008
517.70 0.9002
517.80 0.8997
517.90 0.8991
518.00 0.8986
518.10 0.898
518.20 0.8974
518.30 0.8969
518.40 0.8963
518.50 0.8957
518.60 0.8952
518.70 0.8946
518.80 0.894
518.90 0.8935
519.00 0.8929
519.10 0.8924
519.20 0.8918
519.30 0.8912
519.40 0.8907
519.50 0.8901
519.60 0.8895
519.70 0.889
519.80 0.8884
519.90 0.8878
520.00 0.8873
520.10 0.8867
520.20 0.8861
520.30 0.8856
520.40 0.885
520.50 0.8845
520.60 0.8839
520.70 0.8834
520.80 0.8828
520.90 0.8822
521.00 0.8817
521.10 0.8811
521.20 0.8806
521.30 0.88
521.40 0.8795
521.50 0.8789
521.60 0.8784
521.70 0.8778
521.80 0.8773
521.90 0.8767
522.00 0.8762
522.10 0.8756
522.20 0.8751
522.30 0.8745
522.40 0.8739
522.50 0.8734
522.60 0.8728
522.70 0.8723
522.80 0.8717
522.90 0.8712
523.00 0.8706
523.10 0.8701
523.20 0.8695
523.30 0.869
523.40 0.8684
523.50 0.8679
523.60 0.8673
523.70 0.8668
523.80 0.8662
523.90 0.8657
524.00 0.8652
524.10 0.8646
524.20 0.8641
524.30 0.8635
524.40 0.863
524.50 0.8624
524.60 0.8619
524.70 0.8614
524.80 0.8608
524.90 0.8603
525.00 0.8597
525.10 0.8592
525.20 0.8587
525.30 0.8581
525.40 0.8576
525.50 0.857
525.60 0.8565
525.70 0.8559
525.80 0.8554
525.90 0.8548
526.00 0.8543
526.10 0.8538
526.20 0.8532
526.30 0.8527
526.40 0.8521
526.50 0.8516
526.60 0.8511
526.70 0.8505
526.80 0.85
526.90 0.8495
527.00 0.8489
527.10 0.8484
527.20 0.8479
527.30 0.8473
527.40 0.8468
527.50 0.8463
527.60 0.8458
527.70 0.8452
527.80 0.8447
527.90 0.8442
528.00 0.8436
528.10 0.8431
528.20 0.8426
528.30 0.842
528.40 0.8415
528.50 0.841
528.60 0.8405
528.70 0.8399
528.80 0.8394
528.90 0.8389
529.00 0.8384
529.10 0.8378
529.20 0.8373
529.30 0.8368
529.40 0.8363
529.50 0.8357
529.60 0.8352
529.70 0.8347
529.80 0.8342
529.90 0.8336
530.00 0.8331
530.10 0.8326
530.20 0.8321
530.30 0.8315
530.40 0.831
530.50 0.8305
530.60 0.83
530.70 0.8295
530.80 0.8289
530.90 0.8284
531.00 0.8279
531.10 0.8274
531.20 0.8269
531.30 0.8263
531.40 0.8258
531.50 0.8253
531.60 0.8248
531.70 0.8243
531.80 0.8238
531.90 0.8232
532.00 0.8227
532.10 0.8222
532.20 0.8217
532.30 0.8212
532.40 0.8207
532.50 0.8202
532.60 0.8197
532.70 0.8192
532.80 0.8187
532.90 0.8182
533.00 0.8177
533.10 0.8171
533.20 0.8166
533.30 0.8161
533.40 0.8156
533.50 0.8151
533.60 0.8146
533.70 0.8141
533.80 0.8136
533.90 0.8131
534.00 0.8126
534.10 0.812
534.20 0.8115
534.30 0.811
534.40 0.8105
534.50 0.81
534.60 0.8095
534.70 0.809
534.80 0.8085
534.90 0.808
535.00 0.8075
535.10 0.807
535.20 0.8065
535.30 0.806
535.40 0.8055
535.50 0.805
535.60 0.8045
535.70 0.804
535.80 0.8035
535.90 0.803
536.00 0.8025
536.10 0.802
536.20 0.8015
536.30 0.801
536.40 0.8005
536.50 0.8
536.60 0.7995
536.70 0.799
536.80 0.7985
536.90 0.798
537.00 0.7975
537.10 0.797
537.20 0.7965
537.30 0.796
537.40 0.7955
537.50 0.795
537.60 0.7945
537.70 0.794
537.80 0.7936
537.90 0.7931
538.00 0.7926
538.10 0.7921
538.20 0.7916
538.30 0.7911
538.40 0.7906
538.50 0.7901
538.60 0.7896
538.70 0.7892
538.80 0.7887
538.90 0.7882
539.00 0.7877
539.10 0.7872
539.20 0.7867
539.30 0.7862
539.40 0.7858
539.50 0.7853
539.60 0.7848
539.70 0.7843
539.80 0.7838
539.90 0.7833
540.00 0.7829
540.10 0.7824
540.20 0.7819
540.30 0.7814
540.40 0.7809
540.50 0.7804
540.60 0.78
540.70 0.7795
540.80 0.779
540.90 0.7785
541.00 0.778
541.10 0.7776
541.20 0.7771
541.30 0.7766
541.40 0.7761
541.50 0.7756
541.60 0.7752
541.70 0.7747
541.80 0.7742
541.90 0.7737
542.00 0.7733
542.10 0.7728
542.20 0.7723
542.30 0.7718
542.40 0.7713
542.50 0.7709
542.60 0.7704
542.70 0.7699
542.80 0.7694
542.90 0.769
543.00 0.7685
543.10 0.768
543.20 0.7676
543.30 0.7671
543.40 0.7666
543.50 0.7661
543.60 0.7657
543.70 0.7652
543.80 0.7647
543.90 0.7642
544.00 0.7638
544.10 0.7633
544.20 0.7628
544.30 0.7624
544.40 0.7619
544.50 0.7614
544.60 0.761
544.70 0.7605
544.80 0.76
544.90 0.7595
545.00 0.7591
545.10 0.7586
545.20 0.7581
545.30 0.7577
545.40 0.7572
545.50 0.7567
545.60 0.7563
545.70 0.7558
545.80 0.7553
545.90 0.7549
546.00 0.7544
546.10 0.7539
546.20 0.7535
546.30 0.7531
546.40 0.7526
546.50 0.7522
546.60 0.7517
546.70 0.7513
546.80 0.7508
546.90 0.7504
547.00 0.75
547.10 0.7495
547.20 0.7491
547.30 0.7486
547.40 0.7481
547.50 0.7477
547.60 0.7472
547.70 0.7468
547.80 0.7463
547.90 0.7458
548.00 0.7454
548.10 0.7449
548.20 0.7445
548.30 0.744
548.40 0.7436
548.50 0.7431
548.60 0.7427
548.70 0.7422
548.80 0.7418
548.90 0.7413
549.00 0.7409
549.10 0.7404
549.20 0.74
549.30 0.7395
549.40 0.7391
549.50 0.7386
549.60 0.7382
549.70 0.7377
549.80 0.7373
549.90 0.7368
550.00 0.7364
550.10 0.7359
550.20 0.7355
550.30 0.735
550.40 0.7346
550.50 0.7341
550.60 0.7337
550.70 0.7332
550.80 0.7328
550.90 0.7323
551.00 0.7319
551.10 0.7314
551.20 0.731
551.30 0.7305
551.40 0.7301
551.50 0.7296
551.60 0.7292
551.70 0.7288
551.80 0.7283
551.90 0.7279
552.00 0.7274
552.10 0.727
552.20 0.7265
552.30 0.7261
552.40 0.7257
552.50 0.7252
552.60 0.7248
552.70 0.7243
552.80 0.7239
552.90 0.7235
553.00 0.723
553.10 0.7226
553.20 0.7222
553.30 0.7217
553.40 0.7213
553.50 0.7208
553.60 0.7204
553.70 0.72
553.80 0.7195
553.90 0.7191
554.00 0.7187
554.10 0.7182
554.20 0.7178
554.30 0.7174
554.40 0.7169
554.50 0.7165
554.60 0.716
554.70 0.7156
554.80 0.7152
554.90 0.7147
555.00 0.7143
555.10 0.7139
555.20 0.7134
555.30 0.713
555.40 0.7126
555.50 0.7122
555.60 0.7117
555.70 0.7113
555.80 0.7109
555.90 0.7104
556.00 0.71
556.10 0.7096
556.20 0.7091
556.30 0.7087
556.40 0.7083
556.50 0.7079
556.60 0.7075
556.70 0.707
556.80 0.7066
556.90 0.7062
557.00 0.7058
557.10 0.7053
557.20 0.7049
557.30 0.7045
557.40 0.7041
557.50 0.7036
557.60 0.7032
557.70 0.7028
557.80 0.7024
557.90 0.7019
558.00 0.7015
558.10 0.7011
558.20 0.7007
558.30 0.7002
558.40 0.6998
558.50 0.6994
558.60 0.699
558.70 0.6985
558.80 0.6981
558.90 0.6977
559.00 0.6973
559.10 0.6968
559.20 0.6964
559.30 0.696
559.40 0.6956
559.50 0.6952
559.60 0.6948
559.70 0.6944
559.80 0.6939
559.90 0.6935
560.00 0.6931
560.10 0.6927
560.20 0.6923
560.30 0.6919
560.40 0.6915
560.50 0.691
560.60 0.6906
560.70 0.6902
560.80 0.6898
560.90 0.6894
561.00 0.689
561.10 0.6886
561.20 0.6882
561.30 0.6878
561.40 0.6873
561.50 0.6869
561.60 0.6865
561.70 0.6861
561.80 0.6857
561.90 0.6853
562.00 0.6849
562.10 0.6844
562.20 0.684
562.30 0.6836
562.40 0.6832
562.50 0.6828
562.60 0.6824
562.70 0.682
562.80 0.6816
562.90 0.6812
563.00 0.6808
563.10 0.6804
563.20 0.68
563.30 0.6796
563.40 0.6791
563.50 0.6787
563.60 0.6783
563.70 0.6779
563.80 0.6775
563.90 0.6771
564.00 0.6767
564.10 0.6763
564.20 0.6759
564.30 0.6755
564.40 0.6751
564.50 0.6747
564.60 0.6743
564.70 0.6739
564.80 0.6735
564.90 0.6731
565.00 0.6727
565.10 0.6723
565.20 0.6719
565.30 0.6715
565.40 0.6711
565.50 0.6707
565.60 0.6703
565.70 0.6699
565.80 0.6695
565.90 0.6691
566.00 0.6687
566.10 0.6683
566.20 0.6679
566.30 0.6675
566.40 0.6671
566.50 0.6667
566.60 0.6663
566.70 0.6659
566.80 0.6655
566.90 0.6651
567.00 0.6647
567.10 0.6644
567.20 0.664
567.30 0.6636
567.40 0.6632
567.50 0.6628
567.60 0.6624
567.70 0.662
567.80 0.6616
567.90 0.6612
568.00 0.6608
568.10 0.6604
568.20 0.66
568.30 0.6596
568.40 0.6592
568.50 0.6589
568.60 0.6585
568.70 0.6581
568.80 0.6577
568.90 0.6573
569.00 0.6569
569.10 0.6565
569.20 0.6561
569.30 0.6557
569.40 0.6554
569.50 0.655
569.60 0.6546
569.70 0.6542
569.80 0.6538
569.90 0.6534
570.00 0.653
570.10 0.6526
570.20 0.6523
570.30 0.6519
570.40 0.6515
570.50 0.6511
570.60 0.6507
570.70 0.6503
570.80 0.65
570.90 0.6496
571.00 0.6492
571.10 0.6488
571.20 0.6484
571.30 0.648
571.40 0.6477
571.50 0.6473
571.60 0.6469
571.70 0.6465
571.80 0.6461
571.90 0.6458
572.00 0.6454
572.10 0.645
572.20 0.6446
572.30 0.6442
572.40 0.6439
572.50 0.6435
572.60 0.6431
572.70 0.6427
572.80 0.6423
572.90 0.642
573.00 0.6416
573.10 0.6412
573.20 0.6408
573.30 0.6405
573.40 0.6401
573.50 0.6397
573.60 0.6393
573.70 0.6389
573.80 0.6386
573.90 0.6382
574.00 0.6378
574.10 0.6374
574.20 0.6371
574.30 0.6367
574.40 0.6363
574.50 0.636
574.60 0.6356
574.70 0.6352
574.80 0.6348
574.90 0.6345
575.00 0.6341
575.10 0.6337
575.20 0.6333
575.30 0.633
575.40 0.6326
575.50 0.6322
575.60 0.6319
575.70 0.6315
575.80 0.6311
575.90 0.6308
576.00 0.6304
576.10 0.63
576.20 0.6297
576.30 0.6293
576.40 0.6289
576.50 0.6285
576.60 0.6282
576.70 0.6278
576.80 0.6274
576.90 0.6271
577.00 0.6267
577.10 0.6263
577.20 0.626
577.30 0.6256
577.40 0.6252
577.50 0.6249
577.60 0.6245
577.70 0.6242
577.80 0.6238
577.90 0.6234
578.00 0.6231
578.10 0.6227
578.20 0.6223
578.30 0.622
578.40 0.6216
578.50 0.6212
578.60 0.6209
578.70 0.6205
578.80 0.6202
578.90 0.6198
579.00 0.6194
579.10 0.6191
579.20 0.6187
579.30 0.6184
579.40 0.618
579.50 0.6176
579.60 0.6173
579.70 0.6169
579.80 0.6166
579.90 0.6162
580.00 0.6158
580.10 0.6155
580.20 0.6151
580.30 0.6148
580.40 0.6144
580.50 0.614
580.60 0.6137
580.70 0.6133
580.80 0.613
580.90 0.6126
581.00 0.6123
581.10 0.6119
581.20 0.6116
581.30 0.6112
581.40 0.6108
581.50 0.6105
581.60 0.6101
581.70 0.6098
581.80 0.6094
581.90 0.6091
582.00 0.6087
582.10 0.6084
582.20 0.608
582.30 0.6077
582.40 0.6073
582.50 0.607
582.60 0.6066
582.70 0.6063
582.80 0.6059
582.90 0.6056
583.00 0.6052
583.10 0.6048
583.20 0.6045
583.30 0.6041
583.40 0.6038
583.50 0.6035
583.60 0.6031
583.70 0.6028
583.80 0.6024
583.90 0.6021
584.00 0.6017
584.10 0.6014
584.20 0.601
584.30 0.6007
584.40 0.6003
584.50 0.6
584.60 0.5996
584.70 0.5993
584.80 0.5989
584.90 0.5986
585.00 0.5982
585.10 0.5979
585.20 0.5975
585.30 0.5972
585.40 0.5969
585.50 0.5965
585.60 0.5962
585.70 0.5958
585.80 0.5955
585.90 0.5951
586.00 0.5948
586.10 0.5945
586.20 0.5941
586.30 0.5938
586.40 0.5934
586.50 0.5931
586.60 0.5927
586.70 0.5924
586.80 0.5921
586.90 0.5917
587.00 0.5914
587.10 0.591
587.20 0.5907
587.30 0.5904
587.40 0.59
587.50 0.5897
587.60 0.5893
587.70 0.589
587.80 0.5887
587.90 0.5883
588.00 0.588
588.10 0.5877
588.20 0.5873
588.30 0.587
588.40 0.5866
588.50 0.5863
588.60 0.586
588.70 0.5856
588.80 0.5853
588.90 0.585
589.00 0.5846
589.10 0.5843
589.20 0.5839
589.30 0.5836
589.40 0.5833
589.50 0.5829
589.60 0.5826
589.70 0.5823
589.80 0.5819
589.90 0.5816
590.00 0.5813
590.10 0.5809
590.20 0.5806
590.30 0.5803
590.40 0.5799
590.50 0.5796
590.60 0.5793
590.70 0.5789
590.80 0.5786
590.90 0.5783
591.00 0.578
591.10 0.5776
591.20 0.5773
591.30 0.577
591.40 0.5766
591.50 0.5763
591.60 0.576
591.70 0.5756
591.80 0.5753
591.90 0.575
592.00 0.5747
592.10 0.5743
592.20 0.574
592.30 0.5737
592.40 0.5733
592.50 0.573
592.60 0.5727
592.70 0.5724
592.80 0.572
592.90 0.5717
593.00 0.5714
593.10 0.5711
593.20 0.5707
593.30 0.5704
593.40 0.5701
593.50 0.5698
593.60 0.5694
593.70 0.5691
593.80 0.5688
593.90 0.5685
594.00 0.5681
594.10 0.5678
594.20 0.5675
594.30 0.5672
594.40 0.5668
594.50 0.5665
594.60 0.5662
594.70 0.5659
594.80 0.5656
594.90 0.5652
595.00 0.5649
595.10 0.5646
595.20 0.5643
595.30 0.564
595.40 0.5636
595.50 0.5633
595.60 0.563
595.70 0.5627
595.80 0.5623
595.90 0.562
596.00 0.5617
596.10 0.5614
596.20 0.5611
596.30 0.5607
596.40 0.5604
596.50 0.56
596.60 0.5597
596.70 0.5593
596.80 0.559
596.90 0.5586
597.00 0.5583
597.10 0.5579
597.20 0.5576
597.30 0.5573
597.40 0.557
597.50 0.5567
597.60 0.5564
597.70 0.556
597.80 0.5557
597.90 0.5554
598.00 0.5551
598.10 0.5548
598.20 0.5545
598.30 0.5541
598.40 0.5538
598.50 0.5535
598.60 0.5532
598.70 0.5529
598.80 0.5526
598.90 0.5523
599.00 0.5519
599.10 0.5516
599.20 0.5513
599.30 0.551
599.40 0.5507
599.50 0.5504
599.60 0.5501
599.70 0.5498
599.80 0.5494
599.90 0.5491
600.00 0.5488
600.10 0.5485
600.20 0.5482
600.30 0.5479
600.40 0.5476
600.50 0.5473
600.60 0.547
600.70 0.5467
600.80 0.5463
600.90 0.546
601.00 0.5457
601.10 0.5454
601.20 0.5451
601.30 0.5448
601.40 0.5445
601.50 0.5442
601.60 0.5439
601.70 0.5436
601.80 0.5433
601.90 0.543
602.00 0.5426
602.10 0.5423
602.20 0.542
602.30 0.5417
602.40 0.5414
602.50 0.5411
602.60 0.5408
602.70 0.5405
602.80 0.5402
602.90 0.5399
603.00 0.5396
603.10 0.5393
603.20 0.539
603.30 0.5387
603.40 0.5384
603.50 0.5381
603.60 0.5378
603.70 0.5375
603.80 0.5372
603.90 0.5369
604.00 0.5366
604.10 0.5363
604.20 0.536
604.30 0.5356
604.40 0.5353
604.50 0.535
604.60 0.5347
604.70 0.5344
604.80 0.5341
604.90 0.5338
605.00 0.5335
605.10 0.5332
605.20 0.5329
605.30 0.5326
605.40 0.5323
605.50 0.532
605.60 0.5317
605.70 0.5314
605.80 0.5311
605.90 0.5308
606.00 0.5305
606.10 0.5302
606.20 0.5299
606.30 0.5296
606.40 0.5293
606.50 0.5291
606.60 0.5288
606.70 0.5285
606.80 0.5282
606.90 0.5279
607.00 0.5276
607.10 0.5273
607.20 0.527
607.30 0.5267
607.40 0.5264
607.50 0.5261
607.60 0.5258
607.70 0.5255
607.80 0.5252
607.90 0.5249
608.00 0.5246
608.10 0.5243
608.20 0.524
608.30 0.5237
608.40 0.5234
608.50 0.5231
608.60 0.5228
608.70 0.5226
608.80 0.5223
608.90 0.522
609.00 0.5217
609.10 0.5214
609.20 0.5211
609.30 0.5208
609.40 0.5205
609.50 0.5202
609.60 0.5199
609.70 0.5196
609.80 0.5193
609.90 0.5191
610.00 0.5188
610.10 0.5185
610.20 0.5182
610.30 0.5179
610.40 0.5176
610.50 0.5173
610.60 0.517
610.70 0.5167
610.80 0.5164
610.90 0.5162
611.00 0.5159
611.10 0.5156
611.20 0.5153
611.30 0.515
611.40 0.5147
611.50 0.5144
611.60 0.5141
611.70 0.5138
611.80 0.5136
611.90 0.5133
612.00 0.513
612.10 0.5127
612.20 0.5124
612.30 0.5121
612.40 0.5118
612.50 0.5116
612.60 0.5113
612.70 0.511
612.80 0.5107
612.90 0.5104
613.00 0.5101
613.10 0.5098
613.20 0.5096
613.30 0.5093
613.40 0.509
613.50 0.5087
613.60 0.5084
613.70 0.5081
613.80 0.5079
613.90 0.5076
614.00 0.5073
614.10 0.507
614.20 0.5067
614.30 0.5064
614.40 0.5062
614.50 0.5059
614.60 0.5056
614.70 0.5053
614.80 0.505
614.90 0.5047
615.00 0.5045
615.10 0.5042
615.20 0.5039
615.30 0.5036
615.40 0.5033
615.50 0.5031
615.60 0.5028
615.70 0.5025
615.80 0.5022
615.90 0.5019
616.00 0.5017
616.10 0.5014
616.20 0.5011
616.30 0.5008
616.40 0.5005
616.50 0.5003
616.60 0.5
616.70 0.4997
616.80 0.4994
616.90 0.4991
617.00 0.4989
617.10 0.4986
617.20 0.4983
617.30 0.498
617.40 0.4978
617.50 0.4975
617.60 0.4972
617.70 0.4969
617.80 0.4966
617.90 0.4964
618.00 0.4961
618.10 0.4958
618.20 0.4955
618.30 0.4953
618.40 0.495
618.50 0.4947
618.60 0.4944
618.70 0.4942
618.80 0.4939
618.90 0.4936
619.00 0.4933
619.10 0.4931
619.20 0.4928
619.30 0.4925
619.40 0.4922
619.50 0.492
619.60 0.4917
619.70 0.4914
619.80 0.4911
619.90 0.4909
620.00 0.4906
620.10 0.4903
620.20 0.49
620.30 0.4898
620.40 0.4895
620.50 0.4892
620.60 0.489
620.70 0.4887
620.80 0.4884
620.90 0.4881
621.00 0.4879
621.10 0.4876
621.20 0.4873
621.30 0.4871
621.40 0.4868
621.50 0.4865
621.60 0.4862
621.70 0.486
621.80 0.4857
621.90 0.4854
622.00 0.4852
622.10 0.4849
622.20 0.4846
622.30 0.4843
622.40 0.4841
622.50 0.4838
622.60 0.4835
622.70 0.4833
622.80 0.483
622.90 0.4827
623.00 0.4825
623.10 0.4822
623.20 0.4819
623.30 0.4816
623.40 0.4814
623.50 0.4811
623.60 0.4808
623.70 0.4806
623.80 0.4803
623.90 0.48
624.00 0.4798
624.10 0.4795
624.20 0.4792
624.30 0.479
624.40 0.4787
624.50 0.4784
624.60 0.4782
624.70 0.4779
624.80 0.4776
624.90 0.4774
625.00 0.4771
625.10 0.4768
625.20 0.4766
625.30 0.4763
625.40 0.476
625.50 0.4758
625.60 0.4755
625.70 0.4752
625.80 0.475
625.90 0.4747
626.00 0.4744
626.10 0.4742
626.20 0.4739
626.30 0.4736
626.40 0.4734
626.50 0.4731
626.60 0.4728
626.70 0.4726
626.80 0.4723
626.90 0.4721
627.00 0.4718
627.10 0.4715
627.20 0.4713
627.30 0.471
627.40 0.4707
627.50 0.4705
627.60 0.4702
627.70 0.4699
627.80 0.4697
627.90 0.4694
628.00 0.4691
628.10 0.4689
628.20 0.4686
628.30 0.4684
628.40 0.4681
628.50 0.4678
628.60 0.4676
628.70 0.4673
628.80 0.467
628.90 0.4668
629.00 0.4665
629.10 0.4663
629.20 0.466
629.30 0.4657
629.40 0.4655
629.50 0.4652
629.60 0.4649
629.70 0.4647
629.80 0.4644
629.90 0.4642
630.00 0.4639
630.10 0.4636
630.20 0.4634
630.30 0.4631
630.40 0.4628
630.50 0.4626
630.60 0.4623
630.70 0.4621
630.80 0.4618
630.90 0.4615
631.00 0.4613
631.10 0.461
631.20 0.4607
631.30 0.4605
631.40 0.4602
631.50 0.46
631.60 0.4597
631.70 0.4594
631.80 0.4592
631.90 0.4589
632.00 0.4586
632.10 0.4584
632.20 0.4581
632.30 0.4579
632.40 0.4576
632.50 0.4573
632.60 0.4571
632.70 0.4568
632.80 0.4566
632.90 0.4563
633.00 0.456
633.10 0.4558
633.20 0.4555
633.30 0.4552
633.40 0.455
633.50 0.4547
633.60 0.4545
633.70 0.4542
633.80 0.4539
633.90 0.4537
634.00 0.4534
634.10 0.4531
634.20 0.4529
634.30 0.4526
634.40 0.4523
634.50 0.4521
634.60 0.4518
634.70 0.4516
634.80 0.4513
634.90 0.451
635.00 0.4508
635.10 0.4505
635.20 0.4502
635.30 0.45
635.40 0.4497
635.50 0.4494
635.60 0.4492
635.70 0.4489
635.80 0.4486
635.90 0.4484
636.00 0.4481
636.10 0.4478
636.20 0.4476
636.30 0.4473
636.40 0.447
636.50 0.4468
636.60 0.4465
636.70 0.4462
636.80 0.446
636.90 0.4457
637.00 0.4454
637.10 0.4452
637.20 0.4449
637.30 0.4446
637.40 0.4443
637.50 0.4441
637.60 0.4438
637.70 0.4435
637.80 0.4433
637.90 0.443
638.00 0.4427
638.10 0.4424
638.20 0.4422
638.30 0.4419
638.40 0.4416
638.50 0.4413
638.60 0.4411
638.70 0.4408
638.80 0.4405
638.90 0.4402
639.00 0.4399
639.10 0.4397
639.20 0.4394
639.30 0.4391
639.40 0.4388
639.50 0.4385
639.60 0.4383
639.70 0.438
639.80 0.4377
639.90 0.4374
640.00 0.4371
640.10 0.4368
640.20 0.4366
640.30 0.4363
640.40 0.436
640.50 0.4357
640.60 0.4354
640.70 0.4351
640.80 0.4348
640.90 0.4345
641.00 0.4342
641.10 0.4339
641.20 0.4336
641.30 0.4333
641.40 0.433
641.50 0.4327
641.60 0.4324
641.70 0.4321
641.80 0.4318
641.90 0.4315
642.00 0.4312
642.10 0.4309
642.20 0.4306
642.30 0.4303
642.40 0.43
642.50 0.4297
642.60 0.4293
642.70 0.429
642.80 0.4287
642.90 0.4284
643.00 0.4281
643.10 0.4277
643.20 0.4274
643.30 0.4271
643.40 0.4268
643.50 0.4264
643.60 0.4261
643.70 0.4257
643.80 0.4254
643.90 0.425
644.00 0.4247
644.10 0.4244
644.20 0.424
644.30 0.4237
644.40 0.4233
644.50 0.4229
644.60 0.4226
644.70 0.4222
644.80 0.4218
644.90 0.4214
645.00 0.4211
645.10 0.4207
645.20 0.4203
645.30 0.4199
645.40 0.4195
645.50 0.4191
645.60 0.4187
645.70 0.4183
645.80 0.4179
645.90 0.4175
646.00 0.4171
646.10 0.4166
646.20 0.4162
646.30 0.4158
646.40 0.4153
646.50 0.4149
646.60 0.4144
646.70 0.4139
646.80 0.4135
646.90 0.413
647.00 0.4125
647.10 0.4121
647.20 0.4116
647.30 0.4111
647.40 0.4106
647.50 0.41
647.60 0.4095
647.70 0.4089
647.80 0.4084
647.90 0.4078
648.00 0.4073
648.10 0.4067
648.20 0.4062
648.30 0.4056
648.40 0.4049
648.50 0.4042
648.60 0.4036
648.70 0.4029
648.80 0.4022
648.90 0.4016
649.00 0.4009
649.10 0.4002
649.20 0.3996
649.30 0.3989
649.40 0.398
649.50 0.3972
649.60 0.3964
649.70 0.3956
649.80 0.3947
649.90 0.3939
650.00 0.3931
650.10 0.3922
650.20 0.3914
650.30 0.3905
650.40 0.3895
650.50 0.3884
650.60 0.3873
650.70 0.3862
650.80 0.3851
650.90 0.3841
651.00 0.383
651.10 0.3819
651.20 0.3808
651.30 0.3797
651.40 0.3783
651.50 0.3768
651.60 0.3754
651.70 0.374
651.80 0.3725
651.90 0.3711
652.00 0.3697
652.10 0.3682
652.20 0.3668
652.30 0.3653
652.40 0.3634
652.50 0.3615
652.60 0.3596
652.70 0.3576
652.80 0.3557
652.90 0.3538
653.00 0.3519
653.10 0.35
653.20 0.3481
653.30 0.3461
653.40 0.3436
653.50 0.341
653.60 0.3385
653.70 0.336
653.80 0.3335
653.90 0.3309
654.00 0.3284
654.10 0.3259
654.20 0.3234
654.30 0.3208
654.40 0.3177
654.50 0.3147
654.60 0.3116
654.70 0.3086
654.80 0.3054
654.90 0.3019
655.00 0.2983
655.10 0.2947
655.20 0.2911
655.30 0.2875
655.40 0.2835
655.50 0.2795
655.60 0.2752
655.70 0.2706
655.80 0.2656
655.90 0.26
656.00 0.2526
656.10 0.2445
656.20 0.2153
656.30 0.1853
656.40 0.2338
656.50 0.2476
656.60 0.2548
656.70 0.2615
656.80 0.2664
656.90 0.2711
657.00 0.2752
657.10 0.2792
657.20 0.2829
657.30 0.2865
657.40 0.2898
657.50 0.2931
657.60 0.2963
657.70 0.2996
657.80 0.3028
657.90 0.3055
658.00 0.3083
658.10 0.311
658.20 0.3137
658.30 0.3163
658.40 0.3185
658.50 0.3206
658.60 0.3228
658.70 0.3249
658.80 0.3271
658.90 0.3292
659.00 0.3314
659.10 0.3335
659.20 0.3357
659.30 0.3377
659.40 0.3392
659.50 0.3407
659.60 0.3422
659.70 0.3437
659.80 0.3452
659.90 0.3467
660.00 0.3482
660.10 0.3497
660.20 0.3512
660.30 0.3526
660.40 0.3536
660.50 0.3546
660.60 0.3556
660.70 0.3566
660.80 0.3576
660.90 0.3586
661.00 0.3596
661.10 0.3606
661.20 0.3616
661.30 0.3625
661.40 0.3632
661.50 0.3638
661.60 0.3644
661.70 0.3651
661.80 0.3657
661.90 0.3663
662.00 0.367
662.10 0.3676
662.20 0.3682
662.30 0.3688
662.40 0.3692
662.50 0.3696
662.60 0.3699
662.70 0.3703
662.80 0.3707
662.90 0.3711
663.00 0.3715
663.10 0.3718
663.20 0.3722
663.30 0.3726
663.40 0.3728
663.50 0.373
663.60 0.3732
663.70 0.3734
663.80 0.3737
663.90 0.3739
664.00 0.3741
664.10 0.3743
664.20 0.3745
664.30 0.3747
664.40 0.3748
664.50 0.3749
664.60 0.375
664.70 0.3751
664.80 0.3752
664.90 0.3753
665.00 0.3754
665.10 0.3755
665.20 0.3756
665.30 0.3757
665.40 0.3757
665.50 0.3757
665.60 0.3758
665.70 0.3758
665.80 0.3758
665.90 0.3758
666.00 0.3759
666.10 0.3759
666.20 0.3759
666.30 0.3759
666.40 0.3759
666.50 0.3758
666.60 0.3758
666.70 0.3758
666.80 0.3758
666.90 0.3757
667.00 0.3757
667.10 0.3757
667.20 0.3756
667.30 0.3756
667.40 0.3755
667.50 0.3754
667.60 0.3754
667.70 0.3753
667.80 0.3752
667.90 0.3752
668.00 0.3751
668.10 0.375
668.20 0.375
668.30 0.3749
668.40 0.3748
668.50 0.3747
668.60 0.3746
668.70 0.3745
668.80 0.3744
668.90 0.3743
669.00 0.3742
669.10 0.3741
669.20 0.374
669.30 0.3739
669.40 0.3738
669.50 0.3737
669.60 0.3735
669.70 0.3734
669.80 0.3733
669.90 0.3732
670.00 0.3731
670.10 0.3729
670.20 0.3728
670.30 0.3727
670.40 0.3726
670.50 0.3724
670.60 0.3723
670.70 0.3722
670.80 0.372
670.90 0.3719
671.00 0.3718
671.10 0.3716
671.20 0.3715
671.30 0.3714
671.40 0.3712
671.50 0.3711
671.60 0.3709
671.70 0.3708
671.80 0.3707
671.90 0.3705
672.00 0.3704
672.10 0.3702
672.20 0.3701
672.30 0.3699
672.40 0.3698
672.50 0.3696
672.60 0.3695
672.70 0.3693
672.80 0.3692
672.90 0.369
673.00 0.3689
673.10 0.3687
673.20 0.3686
673.30 0.3684
673.40 0.3683
673.50 0.3681
673.60 0.368
673.70 0.3678
673.80 0.3677
673.90 0.3675
674.00 0.3673
674.10 0.3672
674.20 0.367
674.30 0.3669
674.40 0.3667
674.50 0.3665
674.60 0.3664
674.70 0.3662
674.80 0.3661
674.90 0.3659
675.00 0.3657
675.10 0.3656
675.20 0.3654
675.30 0.3653
675.40 0.3651
675.50 0.3649
675.60 0.3648
675.70 0.3646
675.80 0.3644
675.90 0.3643
676.00 0.3641
676.10 0.3639
676.20 0.3638
676.30 0.3636
676.40 0.3635
676.50 0.3633
676.60 0.3631
676.70 0.363
676.80 0.3628
676.90 0.3626
677.00 0.3625
677.10 0.3623
677.20 0.3621
677.30 0.362
677.40 0.3618
677.50 0.3616
677.60 0.3614
677.70 0.3613
677.80 0.3611
677.90 0.3609
678.00 0.3608
678.10 0.3606
678.20 0.3604
678.30 0.3603
678.40 0.3601
678.50 0.3599
678.60 0.3598
678.70 0.3596
678.80 0.3594
678.90 0.3593
679.00 0.3591
679.10 0.3589
679.20 0.3587
679.30 0.3586
679.40 0.3584
679.50 0.3582
679.60 0.3581
679.70 0.3579
679.80 0.3577
679.90 0.3576
680.00 0.3574
680.10 0.3572
680.20 0.357
680.30 0.3569
680.40 0.3567
680.50 0.3565
680.60 0.3564
680.70 0.3562
680.80 0.356
680.90 0.3559
681.00 0.3557
681.10 0.3555
681.20 0.3553
681.30 0.3552
681.40 0.355
681.50 0.3548
681.60 0.3547
681.70 0.3545
681.80 0.3543
681.90 0.3541
682.00 0.354
682.10 0.3538
682.20 0.3536
682.30 0.3535
682.40 0.3533
682.50 0.3531
682.60 0.353
682.70 0.3528
682.80 0.3526
682.90 0.3524
683.00 0.3523
683.10 0.3521
683.20 0.3519
683.30 0.3518
683.40 0.3516
683.50 0.3514
683.60 0.3513
683.70 0.3511
683.80 0.3509
683.90 0.3507
684.00 0.3506
684.10 0.3504
684.20 0.3502
684.30 0.3501
684.40 0.3499
684.50 0.3497
684.60 0.3496
684.70 0.3494
684.80 0.3492
684.90 0.349
685.00 0.3489
685.10 0.3487
685.20 0.3485
685.30 0.3484
685.40 0.3482
685.50 0.348
685.60 0.3479
685.70 0.3477
685.80 0.3475
685.90 0.3473
686.00 0.3472
686.10 0.347
686.20 0.3468
686.30 0.3467
686.40 0.3465
686.50 0.3463
686.60 0.3462
686.70 0.346
686.80 0.3458
686.90 0.3457
687.00 0.3455
687.10 0.3453
687.20 0.3451
687.30 0.345
687.40 0.3448
687.50 0.3446
687.60 0.3445
687.70 0.3443
687.80 0.3441
687.90 0.344
688.00 0.3438
688.10 0.3436
688.20 0.3435
688.30 0.3433
688.40 0.3431
688.50 0.343
688.60 0.3428
688.70 0.3426
688.80 0.3425
688.90 0.3423
689.00 0.3421
689.10 0.342
689.20 0.3418
689.30 0.3416
689.40 0.3415
689.50 0.3413
689.60 0.3411
689.70 0.3409
689.80 0.3408
689.90 0.3406
690.00 0.3404
690.10 0.3403
690.20 0.3401
690.30 0.3399
690.40 0.3398
690.50 0.3396
690.60 0.3395
690.70 0.3393
690.80 0.3391
690.90 0.339
691.00 0.3388
691.10 0.3386
691.20 0.3385
691.30 0.3383
691.40 0.3381
691.50 0.338
691.60 0.3378
691.70 0.3376
691.80 0.3375
691.90 0.3373
692.00 0.3371
692.10 0.337
692.20 0.3368
692.30 0.3366
692.40 0.3365
692.50 0.3363
692.60 0.3361
692.70 0.336
692.80 0.3358
692.90 0.3356
693.00 0.3355
693.10 0.3353
693.20 0.3352
693.30 0.335
693.40 0.3348
693.50 0.3347
693.60 0.3345
693.70 0.3343
693.80 0.3342
693.90 0.334
694.00 0.3338
694.10 0.3337
694.20 0.3335
694.30 0.3334
694.40 0.3332
694.50 0.333
694.60 0.3329
694.70 0.3327
694.80 0.3325
694.90 0.3324
695.00 0.3322
695.10 0.3321
695.20 0.3319
695.30 0.3317
695.40 0.3316
695.50 0.3314
695.60 0.3312
695.70 0.3311
695.80 0.3309
695.90 0.3308
696.00 0.3306
696.10 0.3304
696.20 0.3303
696.30 0.3301
696.40 0.3299
696.50 0.3298
696.60 0.3296
696.70 0.3295
696.80 0.3293
696.90 0.3291
697.00 0.329
697.10 0.3288
697.20 0.3287
697.30 0.3285
697.40 0.3283
697.50 0.3282
697.60 0.328
697.70 0.3279
697.80 0.3277
697.90 0.3275
698.00 0.3274
698.10 0.3272
698.20 0.327
698.30 0.3269
698.40 0.3267
698.50 0.3266
698.60 0.3264
698.70 0.3262
698.80 0.3261
698.90 0.3259
699.00 0.3258
699.10 0.3256
699.20 0.3255
699.30 0.3253
699.40 0.3251
699.50 0.325
699.60 0.3248
699.70 0.3247
699.80 0.3245
699.90 0.3243
700.00 0.3242
700.10 0.324
700.20 0.3238
700.30 0.3237
700.40 0.3235
700.50 0.3233
700.60 0.3232
700.70 0.323
700.80 0.3228
700.90 0.3227
701.00 0.3225
701.10 0.3224
701.20 0.3222
701.30 0.322
701.40 0.3219
701.50 0.3217
701.60 0.3215
701.70 0.3214
701.80 0.3212
701.90 0.321
702.00 0.3209
702.10 0.3207
702.20 0.3205
702.30 0.3204
702.40 0.3202
702.50 0.32
702.60 0.3199
702.70 0.3197
702.80 0.3195
702.90 0.3194
703.00 0.3192
703.10 0.3191
703.20 0.3189
703.30 0.3187
703.40 0.3186
703.50 0.3184
703.60 0.3182
703.70 0.3181
703.80 0.3179
703.90 0.3177
704.00 0.3176
704.10 0.3174
704.20 0.3173
704.30 0.3171
704.40 0.3169
704.50 0.3168
704.60 0.3166
704.70 0.3164
704.80 0.3163
704.90 0.3161
705.00 0.316
705.10 0.3158
705.20 0.3156
705.30 0.3155
705.40 0.3153
705.50 0.3152
705.60 0.315
705.70 0.3149
705.80 0.3147
705.90 0.3146
706.00 0.3144
706.10 0.3143
706.20 0.3141
706.30 0.314
706.40 0.3138
706.50 0.3137
706.60 0.3135
706.70 0.3133
706.80 0.3132
706.90 0.313
707.00 0.3129
707.10 0.3127
707.20 0.3126
707.30 0.3124
707.40 0.3123
707.50 0.3121
707.60 0.312
707.70 0.3118
707.80 0.3117
707.90 0.3115
708.00 0.3114
708.10 0.3112
708.20 0.3111
708.30 0.3109
708.40 0.3108
708.50 0.3106
708.60 0.3105
708.70 0.3103
708.80 0.3102
708.90 0.31
709.00 0.3099
709.10 0.3097
709.20 0.3096
709.30 0.3094
709.40 0.3093
709.50 0.3091
709.60 0.309
709.70 0.3088
709.80 0.3087
709.90 0.3085
710.00 0.3084
710.10 0.3082
710.20 0.3081
710.30 0.3079
710.40 0.3078
710.50 0.3076
710.60 0.3075
710.70 0.3073
710.80 0.3072
710.90 0.307
711.00 0.3069
711.10 0.3067
711.20 0.3066
711.30 0.3064
711.40 0.3063
711.50 0.3061
711.60 0.306
711.70 0.3058
711.80 0.3057
711.90 0.3055
712.00 0.3054
712.10 0.3052
712.20 0.3051
712.30 0.305
712.40 0.3048
712.50 0.3047
712.60 0.3045
712.70 0.3044
712.80 0.3042
712.90 0.3041
713.00 0.3039
713.10 0.3038
713.20 0.3036
713.30 0.3035
713.40 0.3033
713.50 0.3032
713.60 0.303
713.70 0.3029
713.80 0.3027
713.90 0.3026
714.00 0.3025
714.10 0.3023
714.20 0.3022
714.30 0.302
714.40 0.3019
714.50 0.3017
714.60 0.3016
714.70 0.3014
714.80 0.3013
714.90 0.3011
715.00 0.301
715.10 0.3009
715.20 0.3007
715.30 0.3006
715.40 0.3004
715.50 0.3003
715.60 0.3001
715.70 0.3
715.80 0.2999
715.90 0.2997
716.00 0.2996
716.10 0.2994
716.20 0.2993
716.30 0.2991
716.40 0.299
716.50 0.2988
716.60 0.2987
716.70 0.2986
716.80 0.2984
716.90 0.2983
717.00 0.2981
717.10 0.298
717.20 0.2979
717.30 0.2977
717.40 0.2976
717.50 0.2974
717.60 0.2973
717.70 0.2971
717.80 0.297
717.90 0.2969
718.00 0.2967
718.10 0.2966
718.20 0.2964
718.30 0.2963
718.40 0.2961
718.50 0.296
718.60 0.2959
718.70 0.2957
718.80 0.2956
718.90 0.2954
719.00 0.2953
719.10 0.2952
719.20 0.295
719.30 0.2949
719.40 0.2947
719.50 0.2946
719.60 0.2945
719.70 0.2943
719.80 0.2942
719.90 0.294
720.00 0.2939
720.10 0.2938
720.20 0.2936
720.30 0.2935
720.40 0.2933
720.50 0.2932
720.60 0.2931
720.70 0.2929
720.80 0.2928
720.90 0.2926
721.00 0.2925
721.10 0.2924
721.20 0.2922
721.30 0.2921
721.40 0.2919
721.50 0.2918
721.60 0.2917
721.70 0.2915
721.80 0.2914
721.90 0.2912
722.00 0.2911
722.10 0.291
722.20 0.2908
722.30 0.2907
722.40 0.2905
722.50 0.2904
722.60 0.2903
722.70 0.2901
722.80 0.29
722.90 0.2898
723.00 0.2897
723.10 0.2896
723.20 0.2894
723.30 0.2893
723.40 0.2891
723.50 0.289
723.60 0.2889
723.70 0.2887
723.80 0.2886
723.90 0.2885
724.00 0.2883
724.10 0.2882
724.20 0.288
724.30 0.2879
724.40 0.2878
724.50 0.2876
724.60 0.2875
724.70 0.2874
724.80 0.2872
724.90 0.2871
725.00 0.2869
725.10 0.2868
725.20 0.2867
725.30 0.2865
725.40 0.2864
725.50 0.2863
725.60 0.2861
725.70 0.286
725.80 0.2859
725.90 0.2857
726.00 0.2856
726.10 0.2854
726.20 0.2853
726.30 0.2852
726.40 0.285
726.50 0.2849
726.60 0.2848
726.70 0.2846
726.80 0.2845
726.90 0.2844
727.00 0.2842
727.10 0.2841
727.20 0.284
727.30 0.2838
727.40 0.2837
727.50 0.2836
727.60 0.2834
727.70 0.2833
727.80 0.2831
727.90 0.283
728.00 0.2829
728.10 0.2827
728.20 0.2826
728.30 0.2825
728.40 0.2823
728.50 0.2822
728.60 0.2821
728.70 0.2819
728.80 0.2818
728.90 0.2817
729.00 0.2815
729.10 0.2814
729.20 0.2813
729.30 0.2811
729.40 0.281
729.50 0.2809
729.60 0.2807
729.70 0.2806
729.80 0.2805
729.90 0.2803
730.00 0.2802
730.10 0.2801
730.20 0.2799
730.30 0.2798
730.40 0.2797
730.50 0.2795
730.60 0.2794
730.70 0.2793
730.80 0.2791
730.90 0.279
731.00 0.2789
731.10 0.2787
731.20 0.2786
731.30 0.2785
731.40 0.2784
731.50 0.2782
731.60 0.2781
731.70 0.278
731.80 0.2778
731.90 0.2777
732.00 0.2776
732.10 0.2774
732.20 0.2773
732.30 0.2772
732.40 0.277
732.50 0.2769
732.60 0.2768
732.70 0.2767
732.80 0.2765
732.90 0.2764
733.00 0.2763
733.10 0.2761
733.20 0.276
733.30 0.2759
733.40 0.2757
733.50 0.2756
733.60 0.2755
733.70 0.2754
733.80 0.2752
733.90 0.2751
734.00 0.275
734.10 0.2748
734.20 0.2747
734.30 0.2746
734.40 0.2744
734.50 0.2743
734.60 0.2742
734.70 0.2741
734.80 0.2739
734.90 0.2738
735.00 0.2737
735.10 0.2735
735.20 0.2734
735.30 0.2733
735.40 0.2732
735.50 0.273
735.60 0.2729
735.70 0.2728
735.80 0.2726
735.90 0.2725
736.00 0.2724
736.10 0.2723
736.20 0.2721
736.30 0.272
736.40 0.2719
736.50 0.2717
736.60 0.2716
736.70 0.2715
736.80 0.2714
736.90 0.2712
737.00 0.2711
737.10 0.271
737.20 0.2708
737.30 0.2707
737.40 0.2706
737.50 0.2705
737.60 0.2703
737.70 0.2702
737.80 0.2701
737.90 0.27
738.00 0.2698
738.10 0.2697
738.20 0.2696
738.30 0.2694
738.40 0.2693
738.50 0.2692
738.60 0.2691
738.70 0.2689
738.80 0.2688
738.90 0.2687
739.00 0.2686
739.10 0.2684
739.20 0.2683
739.30 0.2682
739.40 0.2681
739.50 0.2679
739.60 0.2678
739.70 0.2677
739.80 0.2675
739.90 0.2674
740.00 0.2673
740.10 0.2672
740.20 0.267
740.30 0.2669
740.40 0.2668
740.50 0.2667
740.60 0.2665
740.70 0.2664
740.80 0.2663
740.90 0.2662
741.00 0.2661
741.10 0.2659
741.20 0.2658
741.30 0.2657
741.40 0.2656
741.50 0.2654
741.60 0.2653
741.70 0.2652
741.80 0.2651
741.90 0.2649
742.00 0.2648
742.10 0.2647
742.20 0.2646
742.30 0.2644
742.40 0.2643
742.50 0.2642
742.60 0.2641
742.70 0.264
742.80 0.2638
742.90 0.2637
743.00 0.2636
743.10 0.2635
743.20 0.2633
743.30 0.2632
743.40 0.2631
743.50 0.263
743.60 0.2628
743.70 0.2627
743.80 0.2626
743.90 0.2625
744.00 0.2624
744.10 0.2622
744.20 0.2621
744.30 0.262
744.40 0.2619
744.50 0.2617
744.60 0.2616
744.70 0.2615
744.80 0.2614
744.90 0.2613
745.00 0.2611
745.10 0.261
745.20 0.2609
745.30 0.2608
745.40 0.2607
745.50 0.2605
745.60 0.2604
745.70 0.2603
745.80 0.2602
745.90 0.26
746.00 0.2599
746.10 0.2598
746.20 0.2597
746.30 0.2596
746.40 0.2594
746.50 0.2593
746.60 0.2592
746.70 0.2591
746.80 0.259
746.90 0.2588
747.00 0.2587
747.10 0.2586
747.20 0.2585
747.30 0.2584
747.40 0.2582
747.50 0.2581
747.60 0.258
747.70 0.2579
747.80 0.2578
747.90 0.2576
748.00 0.2575
748.10 0.2574
748.20 0.2573
748.30 0.2572
748.40 0.257
748.50 0.2569
748.60 0.2568
748.70 0.2567
748.80 0.2566
748.90 0.2564
749.00 0.2563
749.10 0.2562
749.20 0.2561
749.30 0.256
749.40 0.2558
749.50 0.2557
749.60 0.2556
749.70 0.2555
749.80 0.2554
749.90 0.2552
750.00 0.2551
750.10 0.255
750.20 0.2549
750.30 0.2548
750.40 0.2547
750.50 0.2545
750.60 0.2544
750.70 0.2543
750.80 0.2542
750.90 0.2541
751.00 0.254
751.10 0.2538
751.20 0.2537
751.30 0.2536
751.40 0.2535
751.50 0.2534
751.60 0.2533
751.70 0.2531
751.80 0.253
751.90 0.2529
752.00 0.2528
752.10 0.2527
752.20 0.2526
752.30 0.2524
752.40 0.2523
752.50 0.2522
752.60 0.2521
752.70 0.252
752.80 0.2519
752.90 0.2517
753.00 0.2516
753.10 0.2515
753.20 0.2514
753.30 0.2513
753.40 0.2512
753.50 0.2511
753.60 0.2509
753.70 0.2508
753.80 0.2507
753.90 0.2506
754.00 0.2505
754.10 0.2504
754.20 0.2502
754.30 0.2501
754.40 0.25
754.50 0.2499
754.60 0.2498
754.70 0.2497
754.80 0.2496
754.90 0.2494
755.00 0.2493
755.10 0.2492
755.20 0.2491
755.30 0.249
755.40 0.2489
755.50 0.2488
755.60 0.2486
755.70 0.2485
755.80 0.2484
755.90 0.2483
756.00 0.2482
756.10 0.2481
756.20 0.248
756.30 0.2478
756.40 0.2477
756.50 0.2476
756.60 0.2475
756.70 0.2474
756.80 0.2473
756.90 0.2472
757.00 0.247
757.10 0.2469
757.20 0.2468
757.30 0.2467
757.40 0.2466
757.50 0.2465
757.60 0.2464
757.70 0.2462
757.80 0.2461
757.90 0.246
758.00 0.2459
758.10 0.2458
758.20 0.2457
758.30 0.2456
758.40 0.2455
758.50 0.2453
758.60 0.2452
758.70 0.2451
758.80 0.245
758.90 0.2449
759.00 0.2448
759.10 0.2447
759.20 0.2446
759.30 0.2444
759.40 0.2443
759.50 0.2442
759.60 0.2441
759.70 0.244
759.80 0.2439
759.90 0.2438
760.00 0.2437
760.10 0.2435
760.20 0.2434
760.30 0.2433
760.40 0.2432
760.50 0.2431
760.60 0.243
760.70 0.2429
760.80 0.2428
760.90 0.2427
761.00 0.2425
761.10 0.2424
761.20 0.2423
761.30 0.2422
761.40 0.2421
761.50 0.242
761.60 0.2419
761.70 0.2418
761.80 0.2417
761.90 0.2416
762.00 0.2414
762.10 0.2413
762.20 0.2412
762.30 0.2411
762.40 0.241
762.50 0.2409
762.60 0.2408
762.70 0.2407
762.80 0.2406
762.90 0.2405
763.00 0.2404
763.10 0.2402
763.20 0.2401
763.30 0.24
763.40 0.2399
763.50 0.2398
763.60 0.2397
763.70 0.2396
763.80 0.2395
763.90 0.2394
764.00 0.2393
764.10 0.2392
764.20 0.239
764.30 0.2389
764.40 0.2388
764.50 0.2387
764.60 0.2386
764.70 0.2385
764.80 0.2384
764.90 0.2383
765.00 0.2382
765.10 0.2381
765.20 0.238
765.30 0.2379
765.40 0.2377
765.50 0.2376
765.60 0.2375
765.70 0.2374
765.80 0.2373
765.90 0.2372
766.00 0.2371
766.10 0.237
766.20 0.2369
766.30 0.2368
766.40 0.2367
766.50 0.2366
766.60 0.2365
766.70 0.2363
766.80 0.2362
766.90 0.2361
767.00 0.236
767.10 0.2359
767.20 0.2358
767.30 0.2357
767.40 0.2356
767.50 0.2355
767.60 0.2354
767.70 0.2353
767.80 0.2352
767.90 0.2351
768.00 0.235
768.10 0.2348
768.20 0.2347
768.30 0.2346
768.40 0.2345
768.50 0.2344
768.60 0.2343
768.70 0.2342
768.80 0.2341
768.90 0.234
769.00 0.2339
769.10 0.2338
769.20 0.2337
769.30 0.2336
769.40 0.2335
769.50 0.2334
769.60 0.2332
769.70 0.2331
769.80 0.233
769.90 0.2329
770.00 0.2328
770.10 0.2327
770.20 0.2326
770.30 0.2325
770.40 0.2324
770.50 0.2323
770.60 0.2322
770.70 0.2321
770.80 0.232
770.90 0.2319
771.00 0.2318
771.10 0.2317
771.20 0.2316
771.30 0.2315
771.40 0.2314
771.50 0.2313
771.60 0.2312
771.70 0.2311
771.80 0.2309
771.90 0.2308
772.00 0.2307
772.10 0.2306
772.20 0.2305
772.30 0.2304
772.40 0.2303
772.50 0.2302
772.60 0.2301
772.70 0.23
772.80 0.2299
772.90 0.2298
773.00 0.2297
773.10 0.2296
773.20 0.2295
773.30 0.2294
773.40 0.2293
773.50 0.2292
773.60 0.2291
773.70 0.229
773.80 0.2289
773.90 0.2288
774.00 0.2287
774.10 0.2286
774.20 0.2285
774.30 0.2284
774.40 0.2283
774.50 0.2282
774.60 0.2281
774.70 0.228
774.80 0.2279
774.90 0.2278
775.00 0.2276
775.10 0.2275
775.20 0.2274
775.30 0.2273
775.40 0.2272
775.50 0.2271
775.60 0.227
775.70 0.2269
775.80 0.2268
775.90 0.2267
776.00 0.2266
776.10 0.2265
776.20 0.2264
776.30 0.2263
776.40 0.2262
776.50 0.2261
776.60 0.226
776.70 0.2259
776.80 0.2258
776.90 0.2257
777.00 0.2256
777.10 0.2255
777.20 0.2254
777.30 0.2253
777.40 0.2252
777.50 0.2251
777.60 0.225
777.70 0.2249
777.80 0.2248
777.90 0.2247
778.00 0.2246
778.10 0.2245
778.20 0.2244
778.30 0.2243
778.40 0.2242
778.50 0.2241
778.60 0.224
778.70 0.2239
778.80 0.2238
778.90 0.2237
779.00 0.2236
779.10 0.2235
779.20 0.2234
779.30 0.2233
779.40 0.2232
779.50 0.2231
779.60 0.223
779.70 0.2229
779.80 0.2228
779.90 0.2227
780.00 0.2226
780.10 0.2225
780.20 0.2224
780.30 0.2223
780.40 0.2222
780.50 0.2221
780.60 0.222
780.70 0.2219
780.80 0.2218
780.90 0.2217
781.00 0.2216
781.10 0.2215
781.20 0.2214
781.30 0.2213
781.40 0.2212
781.50 0.2211
781.60 0.221
781.70 0.2209
781.80 0.2208
781.90 0.2207
782.00 0.2206
782.10 0.2205
782.20 0.2204
782.30 0.2203
782.40 0.2202
782.50 0.2201
782.60 0.22
782.70 0.2199
782.80 0.2198
782.90 0.2197
783.00 0.2196
783.10 0.2195
783.20 0.2194
783.30 0.2194
783.40 0.2193
783.50 0.2192
783.60 0.2191
783.70 0.219
783.80 0.2189
783.90 0.2188
784.00 0.2187
784.10 0.2186
784.20 0.2185
784.30 0.2184
784.40 0.2183
784.50 0.2182
784.60 0.2181
784.70 0.218
784.80 0.2179
784.90 0.2178
785.00 0.2177
785.10 0.2176
785.20 0.2175
785.30 0.2174
785.40 0.2173
785.50 0.2172
785.60 0.2171
785.70 0.217
785.80 0.2169
785.90 0.2168
786.00 0.2167
786.10 0.2166
786.20 0.2165
786.30 0.2164
786.40 0.2164
786.50 0.2163
786.60 0.2162
786.70 0.2161
786.80 0.216
786.90 0.2159
787.00 0.2158
787.10 0.2157
787.20 0.2156
787.30 0.2155
787.40 0.2154
787.50 0.2153
787.60 0.2152
787.70 0.2151
787.80 0.215
787.90 0.2149
788.00 0.2148
788.10 0.2147
788.20 0.2146
788.30 0.2145
788.40 0.2144
788.50 0.2143
788.60 0.2142
788.70 0.2142
788.80 0.2141
788.90 0.214
789.00 0.2139
789.10 0.2138
789.20 0.2137
789.30 0.2136
789.40 0.2135
789.50 0.2134
789.60 0.2133
789.70 0.2132
789.80 0.2131
789.90 0.213
790.00 0.2129
790.10 0.2128
790.20 0.2127
790.30 0.2126
790.40 0.2125
790.50 0.2125
790.60 0.2124
790.70 0.2123
790.80 0.2122
790.90 0.2121
791.00 0.212
791.10 0.2119
791.20 0.2118
791.30 0.2117
791.40 0.2116
791.50 0.2115
791.60 0.2114
791.70 0.2113
791.80 0.2112
791.90 0.2111
792.00 0.2111
792.10 0.211
792.20 0.2109
792.30 0.2108
792.40 0.2107
792.50 0.2106
792.60 0.2105
792.70 0.2104
792.80 0.2103
792.90 0.2102
793.00 0.2101
793.10 0.21
793.20 0.2099
793.30 0.2099
793.40 0.2098
793.50 0.2097
793.60 0.2096
793.70 0.2095
793.80 0.2094
793.90 0.2093
794.00 0.2092
794.10 0.2091
794.20 0.209
794.30 0.2089
794.40 0.2088
794.50 0.2088
794.60 0.2087
794.70 0.2086
794.80 0.2085
794.90 0.2084
795.00 0.2083
795.10 0.2082
795.20 0.2081
795.30 0.208
795.40 0.2079
795.50 0.2078
795.60 0.2077
795.70 0.2077
795.80 0.2076
795.90 0.2075
796.00 0.2074
796.10 0.2073
796.20 0.2072
796.30 0.2071
796.40 0.207
796.50 0.2069
796.60 0.2068
796.70 0.2067
796.80 0.2067
796.90 0.2066
797.00 0.2065
797.10 0.2064
797.20 0.2063
797.30 0.2062
797.40 0.2061
797.50 0.206
797.60 0.2059
797.70 0.2058
797.80 0.2057
797.90 0.2057
798.00 0.2056
798.10 0.2055
798.20 0.2054
798.30 0.2053
798.40 0.2052
798.50 0.2051
798.60 0.205
798.70 0.2049
798.80 0.2048
798.90 0.2048
799.00 0.2047
799.10 0.2046
799.20 0.2045
799.30 0.2044
799.40 0.2043
799.50 0.2042
799.60 0.2041
799.70 0.204
799.80 0.2039
799.90 0.2039
800.00 0.2038
800.10 0.2037
800.20 0.2036
800.30 0.2035
800.40 0.2034
800.50 0.2033
800.60 0.2032
800.70 0.2032
800.80 0.2031
800.90 0.203
801.00 0.2029
801.10 0.2028
801.20 0.2027
801.30 0.2026
801.40 0.2025
801.50 0.2024
801.60 0.2024
801.70 0.2023
801.80 0.2022
801.90 0.2021
802.00 0.202
802.10 0.2019
802.20 0.2018
802.30 0.2017
802.40 0.2017
802.50 0.2016
802.60 0.2015
802.70 0.2014
802.80 0.2013
802.90 0.2012
803.00 0.2011
803.10 0.201
803.20 0.201
803.30 0.2009
803.40 0.2008
803.50 0.2007
803.60 0.2006
803.70 0.2005
803.80 0.2004
803.90 0.2003
804.00 0.2003
804.10 0.2002
804.20 0.2001
804.30 0.2
804.40 0.1999
804.50 0.1998
804.60 0.1997
804.70 0.1997
804.80 0.1996
804.90 0.1995
805.00 0.1994
805.10 0.1993
805.20 0.1992
805.30 0.1991
805.40 0.199
805.50 0.199
805.60 0.1989
805.70 0.1988
805.80 0.1987
805.90 0.1986
806.00 0.1985
806.10 0.1984
806.20 0.1984
806.30 0.1983
806.40 0.1982
806.50 0.1981
806.60 0.198
806.70 0.1979
806.80 0.1978
806.90 0.1978
807.00 0.1977
807.10 0.1976
807.20 0.1975
807.30 0.1974
807.40 0.1973
807.50 0.1972
807.60 0.1972
807.70 0.1971
807.80 0.197
807.90 0.1969
808.00 0.1968
808.10 0.1967
808.20 0.1966
808.30 0.1966
808.40 0.1965
808.50 0.1964
808.60 0.1963
808.70 0.1962
808.80 0.1961
808.90 0.196
809.00 0.196
809.10 0.1959
809.20 0.1958
809.30 0.1957
809.40 0.1956
809.50 0.1955
809.60 0.1955
809.70 0.1954
809.80 0.1953
809.90 0.1952
810.00 0.1951
810.10 0.195
810.20 0.1949
810.30 0.1949
810.40 0.1948
810.50 0.1947
810.60 0.1946
810.70 0.1945
810.80 0.1944
810.90 0.1944
811.00 0.1943
811.10 0.1942
811.20 0.1941
811.30 0.194
811.40 0.1939
811.50 0.1939
811.60 0.1938
811.70 0.1937
811.80 0.1936
811.90 0.1935
812.00 0.1934
812.10 0.1934
812.20 0.1933
812.30 0.1932
812.40 0.1931
812.50 0.193
812.60 0.1929
812.70 0.1929
812.80 0.1928
812.90 0.1927
813.00 0.1926
813.10 0.1925
813.20 0.1924
813.30 0.1924
813.40 0.1923
813.50 0.1922
813.60 0.1921
813.70 0.192
813.80 0.192
813.90 0.1919
814.00 0.1918
814.10 0.1917
814.20 0.1916
814.30 0.1915
814.40 0.1915
814.50 0.1914
814.60 0.1913
814.70 0.1912
814.80 0.1911
814.90 0.1911
815.00 0.191
815.10 0.1909
815.20 0.1908
815.30 0.1907
815.40 0.1906
815.50 0.1906
815.60 0.1905
815.70 0.1904
815.80 0.1903
815.90 0.1902
816.00 0.1902
816.10 0.1901
816.20 0.19
816.30 0.1899
816.40 0.1898
816.50 0.1897
816.60 0.1897
816.70 0.1896
816.80 0.1895
816.90 0.1894
817.00 0.1893
817.10 0.1893
817.20 0.1892
817.30 0.1891
817.40 0.189
817.50 0.1889
817.60 0.1888
817.70 0.1888
817.80 0.1887
817.90 0.1886
818.00 0.1885
818.10 0.1884
818.20 0.1884
818.30 0.1883
818.40 0.1882
818.50 0.1881
818.60 0.188
818.70 0.188
818.80 0.1879
818.90 0.1878
819.00 0.1877
819.10 0.1876
819.20 0.1876
819.30 0.1875
819.40 0.1874
819.50 0.1873
819.60 0.1872
819.70 0.1872
819.80 0.1871
819.90 0.187
820.00 0.1869
820.10 0.1868
820.20 0.1868
820.30 0.1867
820.40 0.1866
820.50 0.1865
820.60 0.1864
820.70 0.1864
820.80 0.1863
820.90 0.1862
821.00 0.1861
821.10 0.186
821.20 0.186
821.30 0.1859
821.40 0.1858
821.50 0.1857
821.60 0.1856
821.70 0.1856
821.80 0.1855
821.90 0.1854
822.00 0.1853
822.10 0.1852
822.20 0.1852
822.30 0.1851
822.40 0.185
822.50 0.1849
822.60 0.1849
822.70 0.1848
822.80 0.1847
822.90 0.1846
823.00 0.1845
823.10 0.1845
823.20 0.1844
823.30 0.1843
823.40 0.1842
823.50 0.1841
823.60 0.1841
823.70 0.184
823.80 0.1839
823.90 0.1838
824.00 0.1838
824.10 0.1837
824.20 0.1836
824.30 0.1835
824.40 0.1834
824.50 0.1834
824.60 0.1833
824.70 0.1832
824.80 0.1831
824.90 0.1831
825.00 0.183
825.10 0.1829
825.20 0.1828
825.30 0.1827
825.40 0.1827
825.50 0.1826
825.60 0.1825
825.70 0.1824
825.80 0.1824
825.90 0.1823
826.00 0.1822
826.10 0.1821
826.20 0.182
826.30 0.182
826.40 0.1819
826.50 0.1818
826.60 0.1817
826.70 0.1817
826.80 0.1816
826.90 0.1815
827.00 0.1814
827.10 0.1814
827.20 0.1813
827.30 0.1812
827.40 0.1811
827.50 0.181
827.60 0.181
827.70 0.1809
827.80 0.1808
827.90 0.1807
828.00 0.1807
828.10 0.1806
828.20 0.1805
828.30 0.1804
828.40 0.1804
828.50 0.1803
828.60 0.1802
828.70 0.1801
828.80 0.1801
828.90 0.18
829.00 0.1799
829.10 0.1798
829.20 0.1798
829.30 0.1797
829.40 0.1796
829.50 0.1795
829.60 0.1794
829.70 0.1794
829.80 0.1793
829.90 0.1792
830.00 0.1791
830.10 0.1791
830.20 0.179
830.30 0.1789
830.40 0.1788
830.50 0.1788
830.60 0.1787
830.70 0.1786
830.80 0.1785
830.90 0.1785
831.00 0.1784
831.10 0.1783
831.20 0.1782
831.30 0.1782
831.40 0.1781
831.50 0.178
831.60 0.1779
831.70 0.1779
831.80 0.1778
831.90 0.1777
832.00 0.1776
832.10 0.1776
832.20 0.1775
832.30 0.1774
832.40 0.1773
832.50 0.1773
832.60 0.1772
832.70 0.1771
832.80 0.177
832.90 0.177
833.00 0.1769
833.10 0.1768
833.20 0.1767
833.30 0.1767
833.40 0.1766
833.50 0.1765
833.60 0.1764
833.70 0.1764
833.80 0.1763
833.90 0.1762
834.00 0.1762
834.10 0.1761
834.20 0.176
834.30 0.1759
834.40 0.1759
834.50 0.1758
834.60 0.1757
834.70 0.1756
834.80 0.1756
834.90 0.1755
835.00 0.1754
835.10 0.1753
835.20 0.1753
835.30 0.1752
835.40 0.1751
835.50 0.175
835.60 0.175
835.70 0.1749
835.80 0.1748
835.90 0.1748
836.00 0.1747
836.10 0.1746
836.20 0.1745
836.30 0.1745
836.40 0.1744
836.50 0.1743
836.60 0.1742
836.70 0.1742
836.80 0.1741
836.90 0.174
837.00 0.1739
837.10 0.1739
837.20 0.1738
837.30 0.1737
837.40 0.1737
837.50 0.1736
837.60 0.1735
837.70 0.1734
837.80 0.1734
837.90 0.1733
838.00 0.1732
838.10 0.1731
838.20 0.1731
838.30 0.173
838.40 0.1729
838.50 0.1729
838.60 0.1728
838.70 0.1727
838.80 0.1726
838.90 0.1726
839.00 0.1725
839.10 0.1724
839.20 0.1724
839.30 0.1723
839.40 0.1722
839.50 0.1721
839.60 0.1721
839.70 0.172
839.80 0.1719
839.90 0.1718
840.00 0.1718
840.10 0.1717
840.20 0.1716
840.30 0.1716
840.40 0.1715
840.50 0.1714
840.60 0.1713
840.70 0.1713
840.80 0.1712
840.90 0.1711
841.00 0.1711
841.10 0.171
841.20 0.1709
841.30 0.1708
841.40 0.1708
841.50 0.1707
841.60 0.1706
841.70 0.1706
841.80 0.1705
841.90 0.1704
842.00 0.1703
842.10 0.1703
842.20 0.1702
842.30 0.1701
842.40 0.1701
842.50 0.17
842.60 0.1699
842.70 0.1698
842.80 0.1698
842.90 0.1697
843.00 0.1696
843.10 0.1696
843.20 0.1695
843.30 0.1694
843.40 0.1693
843.50 0.1693
843.60 0.1692
843.70 0.1691
843.80 0.1691
843.90 0.169
844.00 0.1689
844.10 0.1688
844.20 0.1688
844.30 0.1687
844.40 0.1686
844.50 0.1686
844.60 0.1685
844.70 0.1684
844.80 0.1684
844.90 0.1683
845.00 0.1682
845.10 0.1681
845.20 0.1681
845.30 0.168
845.40 0.1679
845.50 0.1679
845.60 0.1678
845.70 0.1677
845.80 0.1676
845.90 0.1676
846.00 0.1675
846.10 0.1674
846.20 0.1674
846.30 0.1673
846.40 0.1672
846.50 0.1672
846.60 0.1671
846.70 0.167
846.80 0.1669
846.90 0.1669
847.00 0.1668
847.10 0.1668
847.20 0.1667
847.30 0.1667
847.40 0.1666
847.50 0.1666
847.60 0.1665
847.70 0.1665
847.80 0.1664
847.90 0.1664
848.00 0.1663
848.10 0.1663
848.20 0.1662
848.30 0.1662
848.40 0.1662
848.50 0.1661
848.60 0.1661
848.70 0.166
848.80 0.166
848.90 0.1659
849.00 0.1659
849.10 0.1658
849.20 0.1658
849.30 0.1657
849.40 0.1657
849.50 0.1656
849.60 0.1656
849.70 0.1656
849.80 0.1655
849.90 0.1655
850.00 0.1654
850.10 0.1654
850.20 0.1653
850.30 0.1653
850.40 0.1652
850.50 0.1652
850.60 0.1651
850.70 0.1651
850.80 0.1651
850.90 0.165
851.00 0.165
851.10 0.1649
851.20 0.1649
851.30 0.1648
851.40 0.1648
851.50 0.1647
851.60 0.1647
851.70 0.1646
851.80 0.1646
851.90 0.1646
852.00 0.1645
852.10 0.1645
852.20 0.1644
852.30 0.1644
852.40 0.1643
852.50 0.1643
852.60 0.1642
852.70 0.1642
852.80 0.1641
852.90 0.1641
853.00 0.164
853.10 0.164
853.20 0.1639
853.30 0.1639
853.40 0.1638
853.50 0.1638
853.60 0.1637
853.70 0.1637
853.80 0.1636
853.90 0.1636
854.00 0.1635
854.10 0.1635
854.20 0.1634
854.30 0.1634
854.40 0.1633
854.50 0.1633
854.60 0.1632
854.70 0.1632
854.80 0.1631
854.90 0.1631
855.00 0.163
855.10 0.163
855.20 0.1629
855.30 0.1629
855.40 0.1628
855.50 0.1628
855.60 0.1627
855.70 0.1627
855.80 0.1626
855.90 0.1626
856.00 0.1625
856.10 0.1625
856.20 0.1624
856.30 0.1624
856.40 0.1623
856.50 0.1623
856.60 0.1622
856.70 0.1622
856.80 0.1621
856.90 0.1621
857.00 0.162
857.10 0.162
857.20 0.162
857.30 0.1619
857.40 0.1619
857.50 0.1618
857.60 0.1618
857.70 0.1617
857.80 0.1617
857.90 0.1616
858.00 0.1616
858.10 0.1616
858.20 0.1615
858.30 0.1615
858.40 0.1614
858.50 0.1614
858.60 0.1613
858.70 0.1613
858.80 0.1613
858.90 0.1612
859.00 0.1612
859.10 0.1611
859.20 0.1611
859.30 0.161
859.40 0.161
859.50 0.1609
859.60 0.1609
859.70 0.1609
859.80 0.1608
859.90 0.1608
860.00 0.1607
860.10 0.1607
860.20 0.1606
860.30 0.1606
860.40 0.1606
860.50 0.1605
860.60 0.1605
860.70 0.1604
860.80 0.1604
860.90 0.1603
861.00 0.1603
861.10 0.1602
861.20 0.1602
861.30 0.1602
861.40 0.1601
861.50 0.1601
861.60 0.16
861.70 0.16
861.80 0.1599
861.90 0.1599
862.00 0.1599
862.10 0.1598
862.20 0.1597
862.30 0.1596
862.40 0.1596
862.50 0.1595
862.60 0.1594
862.70 0.1594
862.80 0.1593
862.90 0.1592
863.00 0.1592
863.10 0.1591
863.20 0.159
863.30 0.159
863.40 0.1589
863.50 0.1588
863.60 0.1587
863.70 0.1587
863.80 0.1586
863.90 0.1585
864.00 0.1585
864.10 0.1584
864.20 0.1583
864.30 0.1583
864.40 0.1582
864.50 0.1581
864.60 0.158
864.70 0.158
864.80 0.1579
864.90 0.1578
865.00 0.1578
865.10 0.1577
865.20 0.1576
865.30 0.1576
865.40 0.1575
865.50 0.1574
865.60 0.1574
865.70 0.1573
865.80 0.1572
865.90 0.1571
866.00 0.1571
866.10 0.157
866.20 0.1569
866.30 0.1569
866.40 0.1568
866.50 0.1567
866.60 0.1567
866.70 0.1566
866.80 0.1565
866.90 0.1565
867.00 0.1564
867.10 0.1564
867.20 0.1564
867.30 0.1564
867.40 0.1564
867.50 0.1563
867.60 0.1563
867.70 0.1563
867.80 0.1563
867.90 0.1563
868.00 0.1563
868.10 0.1563
868.20 0.1563
868.30 0.1563
868.40 0.1563
868.50 0.1563
868.60 0.1563
868.70 0.1562
868.80 0.1562
868.90 0.1562
869.00 0.1562
869.10 0.1562
869.20 0.1562
869.30 0.1562
869.40 0.1562
869.50 0.1562
869.60 0.1562
869.70 0.1562
869.80 0.1562
869.90 0.1561
870.00 0.1561
870.10 0.1561
870.20 0.1561
870.30 0.1561
870.40 0.1561
870.50 0.1561
870.60 0.1561
870.70 0.1561
870.80 0.1561
870.90 0.1561
871.00 0.1561
871.10 0.156
871.20 0.156
871.30 0.156
871.40 0.156
871.50 0.156
871.60 0.156
871.70 0.156
871.80 0.156
871.90 0.156
872.00 0.156
872.10 0.1559
872.20 0.1558
872.30 0.1557
872.40 0.1557
872.50 0.1556
872.60 0.1555
872.70 0.1554
872.80 0.1554
872.90 0.1553
873.00 0.1552
873.10 0.1551
873.20 0.155
873.30 0.155
873.40 0.1549
873.50 0.1548
873.60 0.1547
873.70 0.1547
873.80 0.1546
873.90 0.1545
874.00 0.1544
874.10 0.1543
874.20 0.1543
874.30 0.1542
874.40 0.1541
874.50 0.154
874.60 0.154
874.70 0.1539
874.80 0.1538
874.90 0.1537
875.00 0.1536
875.10 0.1536
875.20 0.1535
875.30 0.1534
875.40 0.1533
875.50 0.1533
875.60 0.1532
875.70 0.1531
875.80 0.153
875.90 0.153
876.00 0.1529
876.10 0.1528
876.20 0.1527
876.30 0.1526
876.40 0.1526
876.50 0.1525
876.60 0.1524
876.70 0.1523
876.80 0.1523
876.90 0.1522
877.00 0.1521
877.10 0.1521
877.20 0.1521
877.30 0.1521
877.40 0.1521
877.50 0.1521
877.60 0.1521
877.70 0.1521
877.80 0.1521
877.90 0.1521
878.00 0.1521
878.10 0.1521
878.20 0.1521
878.30 0.152
878.40 0.152
878.50 0.152
878.60 0.152
878.70 0.152
878.80 0.152
878.90 0.152
879.00 0.152
879.10 0.152
879.20 0.152
879.30 0.152
879.40 0.152
879.50 0.152
879.60 0.152
879.70 0.152
879.80 0.152
879.90 0.152
880.00 0.152
880.10 0.152
880.20 0.152
880.30 0.152
880.40 0.1519
880.50 0.1519
880.60 0.1519
880.70 0.1519
880.80 0.1519
880.90 0.1519
881.00 0.1519
881.10 0.1519
881.20 0.1519
881.30 0.1519
881.40 0.1519
881.50 0.1519
881.60 0.1519
881.70 0.1519
881.80 0.1519
881.90 0.1519
882.00 0.1519
882.10 0.1516
882.20 0.1513
882.30 0.1511
882.40 0.1508
882.50 0.1505
882.60 0.1503
882.70 0.15
882.80 0.1497
882.90 0.1494
883.00 0.1492
883.10 0.1489
883.20 0.1486
883.30 0.1484
883.40 0.1481
883.50 0.1478
883.60 0.1476
883.70 0.1473
883.80 0.147
883.90 0.1468
884.00 0.1465
884.10 0.1462
884.20 0.146
884.30 0.1457
884.40 0.1454
884.50 0.1452
884.60 0.1449
884.70 0.1446
884.80 0.1444
884.90 0.1441
885.00 0.1438
885.10 0.1436
885.20 0.1433
885.30 0.143
885.40 0.1428
885.50 0.1425
885.60 0.1422
885.70 0.142
885.80 0.1417
885.90 0.1414
886.00 0.1412
886.10 0.1409
886.20 0.1406
886.30 0.1404
886.40 0.1401
886.50 0.1398
886.60 0.1396
886.70 0.1393
886.80 0.139
886.90 0.1388
887.00 0.1385
887.10 0.1387
887.20 0.1388
887.30 0.139
887.40 0.1392
887.50 0.1393
887.60 0.1395
887.70 0.1397
887.80 0.1399
887.90 0.14
888.00 0.1402
888.10 0.1404
888.20 0.1405
888.30 0.1407
888.40 0.1409
888.50 0.141
888.60 0.1412
888.70 0.1414
888.80 0.1415
888.90 0.1417
889.00 0.1419
889.10 0.142
889.20 0.1422
889.30 0.1423
889.40 0.1425
889.50 0.1427
889.60 0.1428
889.70 0.143
889.80 0.1432
889.90 0.1433
890.00 0.1435
890.10 0.1437
890.20 0.1438
890.30 0.144
890.40 0.1442
890.50 0.1443
890.60 0.1445
890.70 0.1447
890.80 0.1448
890.90 0.145
891.00 0.1452
891.10 0.1453
891.20 0.1455
891.30 0.1457
891.40 0.1458
891.50 0.146
891.60 0.1461
891.70 0.1463
891.80 0.1465
891.90 0.1466
892.00 0.1468
892.10 0.1467
892.20 0.1466
892.30 0.1465
892.40 0.1464
892.50 0.1463
892.60 0.1462
892.70 0.1461
892.80 0.146
892.90 0.1459
893.00 0.1458
893.10 0.1457
893.20 0.1456
893.30 0.1455
893.40 0.1454
893.50 0.1454
893.60 0.1453
893.70 0.1452
893.80 0.1451
893.90 0.145
894.00 0.1449
894.10 0.1448
894.20 0.1447
894.30 0.1446
894.40 0.1445
894.50 0.1444
894.60 0.1443
894.70 0.1442
894.80 0.1441
894.90 0.144
895.00 0.1439
895.10 0.1438
895.20 0.1437
895.30 0.1436
895.40 0.1435
895.50 0.1434
895.60 0.1433
895.70 0.1432
895.80 0.1431
895.90 0.143
896.00 0.143
896.10 0.1429
896.20 0.1428
896.30 0.1427
896.40 0.1426
896.50 0.1425
896.60 0.1424
896.70 0.1423
896.80 0.1422
896.90 0.1421
897.00 0.142
897.10 0.1416
897.20 0.1412
897.30 0.1407
897.40 0.1403
897.50 0.1399
897.60 0.1395
897.70 0.139
897.80 0.1386
897.90 0.1382
898.00 0.1378
898.10 0.1373
898.20 0.1369
898.30 0.1365
898.40 0.1361
898.50 0.1356
898.60 0.1352
898.70 0.1348
898.80 0.1344
898.90 0.1339
899.00 0.1335
899.10 0.1331
899.20 0.1327
899.30 0.1323
899.40 0.1318
899.50 0.1314
899.60 0.131
899.70 0.1306
899.80 0.1301
899.90 0.1297
900.00 0.1293
900.10 0.1289
900.20 0.1285
900.30 0.128
900.40 0.1276
900.50 0.1272
900.60 0.1268
900.70 0.1264
900.80 0.1259
900.90 0.1255
901.00 0.1251
901.10 0.1247
901.20 0.1243
901.30 0.1239
901.40 0.1234
901.50 0.123
901.60 0.1226
901.70 0.1222
901.80 0.1218
901.90 0.1214
902.00 0.1209
902.10 0.1212
902.20 0.1215
902.30 0.1217
902.40 0.122
902.50 0.1222
902.60 0.1225
902.70 0.1228
902.80 0.123
902.90 0.1233
903.00 0.1235
903.10 0.1238
903.20 0.1241
903.30 0.1243
903.40 0.1246
903.50 0.1248
903.60 0.1251
903.70 0.1254
903.80 0.1256
903.90 0.1259
904.00 0.1261
904.10 0.1264
904.20 0.1267
904.30 0.1269
904.40 0.1272
904.50 0.1274
904.60 0.1277
904.70 0.128
904.80 0.1282
904.90 0.1285
905.00 0.1287
905.10 0.129
905.20 0.1292
905.30 0.1295
905.40 0.1298
905.50 0.13
905.60 0.1303
905.70 0.1305
905.80 0.1308
905.90 0.131
906.00 0.1313
906.10 0.1316
906.20 0.1318
906.30 0.1321
906.40 0.1323
906.50 0.1326
906.60 0.1328
906.70 0.1331
906.80 0.1334
906.90 0.1336
907.00 0.1339
907.10 0.1339
907.20 0.134
907.30 0.134
907.40 0.134
907.50 0.1341
907.60 0.1341
907.70 0.1342
907.80 0.1342
907.90 0.1342
908.00 0.1343
908.10 0.1343
908.20 0.1344
908.30 0.1344
908.40 0.1344
908.50 0.1345
908.60 0.1345
908.70 0.1346
908.80 0.1346
908.90 0.1347
909.00 0.1347
909.10 0.1347
909.20 0.1348
909.30 0.1348
909.40 0.1349
909.50 0.1349
909.60 0.1349
909.70 0.135
909.80 0.135
909.90 0.1351
910.00 0.1351
910.10 0.1351
910.20 0.1352
910.30 0.1352
910.40 0.1353
910.50 0.1353
910.60 0.1353
910.70 0.1354
910.80 0.1354
910.90 0.1355
911.00 0.1355
911.10 0.1356
911.20 0.1356
911.30 0.1356
911.40 0.1357
911.50 0.1357
911.60 0.1358
911.70 0.1358
911.80 0.1358
911.90 0.1359
912.00 0.1359
912.10 0.1357
912.20 0.1355
912.30 0.1354
912.40 0.1352
912.50 0.135
912.60 0.1348
912.70 0.1346
912.80 0.1344
912.90 0.1342
913.00 0.1341
913.10 0.1339
913.20 0.1337
913.30 0.1335
913.40 0.1333
913.50 0.1331
913.60 0.1329
913.70 0.1328
913.80 0.1326
913.90 0.1324
914.00 0.1322
914.10 0.132
914.20 0.1318
914.30 0.1317
914.40 0.1315
914.50 0.1313
914.60 0.1311
914.70 0.1309
914.80 0.1307
914.90 0.1305
915.00 0.1304
915.10 0.1302
915.20 0.13
915.30 0.1298
915.40 0.1296
915.50 0.1294
915.60 0.1293
915.70 0.1291
915.80 0.1289
915.90 0.1287
916.00 0.1285
916.10 0.1283
916.20 0.1282
916.30 0.128
916.40 0.1278
916.50 0.1276
916.60 0.1274
916.70 0.1272
916.80 0.1271
916.90 0.1269
917.00 0.1267
917.10 0.1263
917.20 0.1258
917.30 0.1254
917.40 0.125
917.50 0.1245
917.60 0.1241
917.70 0.1237
917.80 0.1232
917.90 0.1228
918.00 0.1223
918.10 0.1219
918.20 0.1215
918.30 0.121
918.40 0.1206
918.50 0.1202
918.60 0.1197
918.70 0.1193
918.80 0.1189
918.90 0.1184
919.00 0.118
919.10 0.1176
919.20 0.1172
919.30 0.1167
919.40 0.1163
919.50 0.1159
919.60 0.1154
919.70 0.115
919.80 0.1146
919.90 0.1141
920.00 0.1137
920.10 0.1133
920.20 0.1128
920.30 0.1124
920.40 0.112
920.50 0.1116
920.60 0.1111
920.70 0.1107
920.80 0.1103
920.90 0.1098
921.00 0.1094
921.10 0.109
921.20 0.1086
921.30 0.1081
921.40 0.1077
921.50 0.1073
921.60 0.1068
921.70 0.1064
921.80 0.106
921.90 0.1056
922.00 0.1051
922.10 0.1054
922.20 0.1056
922.30 0.1058
922.40 0.106
922.50 0.1063
922.60 0.1065
922.70 0.1067
922.80 0.1069
922.90 0.1072
923.00 0.1074
923.10 0.1076
923.20 0.1078
923.30 0.108
923.40 0.1083
923.50 0.1085
923.60 0.1087
923.70 0.1089
923.80 0.1092
923.90 0.1094
924.00 0.1096
924.10 0.1098
924.20 0.1101
924.30 0.1103
924.40 0.1105
924.50 0.1107
924.60 0.1109
924.70 0.1112
924.80 0.1114
924.90 0.1116
925.00 0.1118
925.10 0.1121
925.20 0.1123
925.30 0.1125
925.40 0.1127
925.50 0.1129
925.60 0.1132
925.70 0.1134
925.80 0.1136
925.90 0.1138
926.00 0.114
926.10 0.1143
926.20 0.1145
926.30 0.1147
926.40 0.1149
926.50 0.1151
926.60 0.1154
926.70 0.1156
926.80 0.1158
926.90 0.116
927.00 0.1162
927.10 0.1164
927.20 0.1166
927.30 0.1167
927.40 0.1169
927.50 0.1171
927.60 0.1172
927.70 0.1174
927.80 0.1176
927.90 0.1177
928.00 0.1179
928.10 0.1181
928.20 0.1182
928.30 0.1184
928.40 0.1185
928.50 0.1187
928.60 0.1189
928.70 0.119
928.80 0.1192
928.90 0.1194
929.00 0.1195
929.10 0.1197
929.20 0.1199
929.30 0.12
929.40 0.1202
929.50 0.1203
929.60 0.1205
929.70 0.1207
929.80 0.1208
929.90 0.121
930.00 0.1212
930.10 0.1213
930.20 0.1215
930.30 0.1217
930.40 0.1218
930.50 0.122
930.60 0.1221
930.70 0.1223
930.80 0.1225
930.90 0.1226
931.00 0.1228
931.10 0.1229
931.20 0.1231
931.30 0.1233
931.40 0.1234
931.50 0.1236
931.60 0.1238
931.70 0.1239
931.80 0.1241
931.90 0.1242
932.00 0.1244
932.10 0.1244
932.20 0.1245
932.30 0.1245
932.40 0.1246
932.50 0.1246
932.60 0.1247
932.70 0.1247
932.80 0.1247
932.90 0.1248
933.00 0.1248
933.10 0.1249
933.20 0.1249
933.30 0.125
933.40 0.125
933.50 0.125
933.60 0.1251
933.70 0.1251
933.80 0.1252
933.90 0.1252
934.00 0.1252
934.10 0.1253
934.20 0.1253
934.30 0.1254
934.40 0.1254
934.50 0.1254
934.60 0.1254
934.70 0.1253
934.80 0.1253
934.90 0.1253
935.00 0.1253
935.10 0.1253
935.20 0.1253
935.30 0.1253
935.40 0.1253
935.50 0.1253
935.60 0.1253
935.70 0.1253
935.80 0.1253
935.90 0.1253
936.00 0.1253
936.10 0.1253
936.20 0.1253
936.30 0.1252
936.40 0.1252
936.50 0.1252
936.60 0.1252
936.70 0.1252
936.80 0.1252
936.90 0.1252
937.00 0.1252
937.10 0.1252
937.20 0.1251
937.30 0.1251
937.40 0.1251
937.50 0.125
937.60 0.125
937.70 0.125
937.80 0.1249
937.90 0.1249
938.00 0.1249
938.10 0.1248
938.20 0.1248
938.30 0.1248
938.40 0.1247
938.50 0.1246
938.60 0.1246
938.70 0.1245
938.80 0.1245
938.90 0.1244
939.00 0.1243
939.10 0.1243
939.20 0.1242
939.30 0.1242
939.40 0.1241
939.50 0.1241
939.60 0.124
939.70 0.1239
939.80 0.1239
939.90 0.1238
940.00 0.1238
940.10 0.1237
940.20 0.1237
940.30 0.1236
940.40 0.1235
940.50 0.1234
940.60 0.1233
940.70 0.1233
940.80 0.1232
940.90 0.1231
941.00 0.123
941.10 0.1229
941.20 0.1228
941.30 0.1227
941.40 0.1227
941.50 0.1226
941.60 0.1225
941.70 0.1224
941.80 0.1223
941.90 0.1222
942.00 0.1222
942.10 0.1221
942.20 0.122
942.30 0.1219
942.40 0.1217
942.50 0.1216
942.60 0.1215
942.70 0.1213
942.80 0.1212
942.90 0.1211
943.00 0.121
943.10 0.1208
943.20 0.1207
943.30 0.1206
943.40 0.1205
943.50 0.1203
943.60 0.1202
943.70 0.1201
943.80 0.12
943.90 0.1198
944.00 0.1197
944.10 0.1196
944.20 0.1195
944.30 0.1193
944.40 0.1192
944.50 0.119
944.60 0.1189
944.70 0.1187
944.80 0.1185
944.90 0.1184
945.00 0.1182
945.10 0.1181
945.20 0.1179
945.30 0.1177
945.40 0.1175
945.50 0.1173
945.60 0.1171
945.70 0.1169
945.80 0.1167
945.90 0.1165
946.00 0.1163
946.10 0.1161
946.20 0.1159
946.30 0.1157
946.40 0.1155
946.50 0.1153
946.60 0.1151
946.70 0.1149
946.80 0.1147
946.90 0.1145
947.00 0.1143
947.10 0.1141
947.20 0.1138
947.30 0.1136
947.40 0.1133
947.50 0.113
947.60 0.1127
947.70 0.1125
947.80 0.1122
947.90 0.1119
948.00 0.1116
948.10 0.1113
948.20 0.111
948.30 0.1107
948.40 0.1105
948.50 0.1102
948.60 0.1099
948.70 0.1096
948.80 0.1093
948.90 0.109
949.00 0.1088
949.10 0.1085
949.20 0.1082
949.30 0.1079
949.40 0.1075
949.50 0.1072
949.60 0.1068
949.70 0.1064
949.80 0.106
949.90 0.1057
950.00 0.1053
950.10 0.1049
950.20 0.1045
950.30 0.1042
950.40 0.1038
950.50 0.1034
950.60 0.103
950.70 0.1027
950.80 0.1023
950.90 0.1019
951.00 0.1015
951.10 0.1012
951.20 0.1008
951.30 0.1004
951.40 0.09999
951.50 0.09956
951.60 0.09913
951.70 0.09869
951.80 0.09826
951.90 0.09783
952.00 0.0974
952.10 0.09694
952.20 0.09649
952.30 0.09603
952.40 0.09558
952.50 0.09513
952.60 0.09467
952.70 0.09422
952.80 0.09377
952.90 0.09332
953.00 0.09287
953.10 0.09242
953.20 0.09197
953.30 0.09152
953.40 0.09107
953.50 0.09063
953.60 0.09025
953.70 0.08987
953.80 0.0895
953.90 0.08912
954.00 0.08901
954.10 0.0889
954.20 0.08936
954.30 0.09081
954.40 0.08938
954.50 0.08879
954.60 0.08884
954.70 0.08889
954.80 0.08921
954.90 0.08952
955.00 0.08984
955.10 0.09015
955.20 0.09053
955.30 0.09092
955.40 0.0913
955.50 0.09168
955.60 0.09206
955.70 0.09245
955.80 0.09283
955.90 0.0932
956.00 0.09358
956.10 0.09396
956.20 0.09433
956.30 0.09471
956.40 0.09508
956.50 0.09546
956.60 0.09583
956.70 0.0962
956.80 0.09658
956.90 0.09695
957.00 0.09733
957.10 0.09767
957.20 0.09802
957.30 0.09837
957.40 0.09866
957.50 0.09895
957.60 0.09924
957.70 0.09953
957.80 0.09982
957.90 0.1001
958.00 0.1004
958.10 0.1007
958.20 0.101
958.30 0.1013
958.40 0.1016
958.50 0.1019
958.60 0.1021
958.70 0.1024
958.80 0.1027
958.90 0.103
959.00 0.1033
959.10 0.1036
959.20 0.1039
959.30 0.1042
959.40 0.1044
959.50 0.1046
959.60 0.1048
959.70 0.1049
959.80 0.1051
959.90 0.1053
960.00 0.1055
960.10 0.1057
960.20 0.1059
960.30 0.1061
960.40 0.1063
960.50 0.1065
960.60 0.1067
960.70 0.1069
960.80 0.1071
960.90 0.1073
961.00 0.1075
961.10 0.1077
961.20 0.1079
961.30 0.1081
961.40 0.1082
961.50 0.1084
961.60 0.1085
961.70 0.1086
961.80 0.1088
961.90 0.1089
962.00 0.1091
962.10 0.1092
962.20 0.1093
962.30 0.1094
962.40 0.1095
962.50 0.1096
962.60 0.1097
962.70 0.1098
962.80 0.1099
962.90 0.11
963.00 0.1101
963.10 0.1102
963.20 0.1103
963.30 0.1105
963.40 0.1105
963.50 0.1106
963.60 0.1107
963.70 0.1108
963.80 0.1108
963.90 0.1109
964.00 0.111
964.10 0.1111
964.20 0.1111
964.30 0.1112
964.40 0.1113
964.50 0.1113
964.60 0.1113
964.70 0.1114
964.80 0.1114
964.90 0.1115
965.00 0.1115
965.10 0.1116
965.20 0.1116
965.30 0.1116
965.40 0.1117
965.50 0.1117
965.60 0.1118
965.70 0.1118
965.80 0.1119
965.90 0.1119
966.00 0.112
966.10 0.112
966.20 0.112
966.30 0.1121
966.40 0.1121
966.50 0.1121
966.60 0.1122
966.70 0.1122
966.80 0.1122
966.90 0.1122
967.00 0.1122
967.10 0.1123
967.20 0.1123
967.30 0.1123
967.40 0.1123
967.50 0.1123
967.60 0.1123
967.70 0.1123
967.80 0.1123
967.90 0.1123
968.00 0.1123
968.10 0.1124
968.20 0.1124
968.30 0.1124
968.40 0.1124
968.50 0.1124
968.60 0.1124
968.70 0.1123
968.80 0.1123
968.90 0.1123
969.00 0.1123
969.10 0.1123
969.20 0.1123
969.30 0.1123
969.40 0.1123
969.50 0.1123
969.60 0.1123
969.70 0.1123
969.80 0.1123
969.90 0.1123
970.00 0.1123
970.10 0.1123
970.20 0.1123
970.30 0.1123
970.40 0.1122
970.50 0.1122
970.60 0.1122
970.70 0.1122
970.80 0.1122
970.90 0.1122
971.00 0.1121
971.10 0.1121
971.20 0.1121
971.30 0.1121
971.40 0.1121
971.50 0.112
971.60 0.112
971.70 0.112
971.80 0.112
971.90 0.112
972.00 0.112
972.10 0.1119
972.20 0.1119
972.30 0.1119
972.40 0.1118
972.50 0.1118
972.60 0.1118
972.70 0.1118
972.80 0.1117
972.90 0.1117
973.00 0.1117
973.10 0.1117
973.20 0.1116
973.30 0.1116
973.40 0.1116
973.50 0.1116
973.60 0.1115
973.70 0.1115
973.80 0.1115
973.90 0.1115
974.00 0.1114
974.10 0.1114
974.20 0.1114
974.30 0.1114
974.40 0.1113
974.50 0.1113
974.60 0.1113
974.70 0.1112
974.80 0.1112
974.90 0.1112
975.00 0.1111
975.10 0.1111
975.20 0.1111
975.30 0.111
975.40 0.111
975.50 0.111
975.60 0.1109
975.70 0.1109
975.80 0.1109
975.90 0.1108
976.00 0.1108
976.10 0.1108
976.20 0.1107
976.30 0.1107
976.40 0.1107
976.50 0.1106
976.60 0.1106
976.70 0.1106
976.80 0.1105
976.90 0.1105
977.00 0.1105
977.10 0.1104
977.20 0.1104
977.30 0.1103
977.40 0.1103
977.50 0.1103
977.60 0.1102
977.70 0.1102
977.80 0.1101
977.90 0.1101
978.00 0.1101
978.10 0.11
978.20 0.11
978.30 0.1099
978.40 0.1099
978.50 0.1098
978.60 0.1098
978.70 0.1098
978.80 0.1097
978.90 0.1097
979.00 0.1096
979.10 0.1096
979.20 0.1096
979.30 0.1095
979.40 0.1095
979.50 0.1094
979.60 0.1094
979.70 0.1094
979.80 0.1093
979.90 0.1093
980.00 0.1092
980.10 0.1092
980.20 0.1092
980.30 0.1091
980.40 0.1091
980.50 0.109
980.60 0.109
980.70 0.109
980.80 0.1089
980.90 0.1089
981.00 0.1088
981.10 0.1088
981.20 0.1087
981.30 0.1087
981.40 0.1087
981.50 0.1086
981.60 0.1086
981.70 0.1085
981.80 0.1085
981.90 0.1085
982.00 0.1084
982.10 0.1084
982.20 0.1083
982.30 0.1083
982.40 0.1082
982.50 0.1082
982.60 0.1081
982.70 0.1081
982.80 0.108
982.90 0.108
983.00 0.1079
983.10 0.1079
983.20 0.1078
983.30 0.1078
983.40 0.1077
983.50 0.1077
983.60 0.1076
983.70 0.1076
983.80 0.1075
983.90 0.1075
984.00 0.1075
984.10 0.1074
984.20 0.1074
984.30 0.1073
984.40 0.1073
984.50 0.1072
984.60 0.1072
984.70 0.1071
984.80 0.1071
984.90 0.107
985.00 0.1069
985.10 0.1069
985.20 0.1068
985.30 0.1068
985.40 0.1067
985.50 0.1067
985.60 0.1066
985.70 0.1065
985.80 0.1065
985.90 0.1064
986.00 0.1064
986.10 0.1063
986.20 0.1063
986.30 0.1062
986.40 0.1062
986.50 0.1061
986.60 0.106
986.70 0.106
986.80 0.1059
986.90 0.1059
987.00 0.1058
987.10 0.1058
987.20 0.1057
987.30 0.1056
987.40 0.1056
987.50 0.1055
987.60 0.1054
987.70 0.1054
987.80 0.1053
987.90 0.1052
988.00 0.1052
988.10 0.1051
988.20 0.105
988.30 0.105
988.40 0.1049
988.50 0.1049
988.60 0.1048
988.70 0.1047
988.80 0.1046
988.90 0.1046
989.00 0.1045
989.10 0.1044
989.20 0.1043
989.30 0.1043
989.40 0.1042
989.50 0.1041
989.60 0.104
989.70 0.104
989.80 0.1039
989.90 0.1038
990.00 0.1037
990.10 0.1037
990.20 0.1036
990.30 0.1035
990.40 0.1034
990.50 0.1034
990.60 0.1033
990.70 0.1032
990.80 0.1031
990.90 0.103
991.00 0.1029
991.10 0.1028
991.20 0.1028
991.30 0.1027
991.40 0.1026
991.50 0.1025
991.60 0.1024
991.70 0.1023
991.80 0.1022
991.90 0.1021
992.00 0.1021
992.10 0.102
992.20 0.1018
992.30 0.1017
992.40 0.1016
992.50 0.1015
992.60 0.1014
992.70 0.1013
992.80 0.1012
992.90 0.1011
993.00 0.101
993.10 0.1008
993.20 0.1007
993.30 0.1006
993.40 0.1005
993.50 0.1004
993.60 0.1003
993.70 0.1001
993.80 0.1
993.90 0.0999
994.00 0.09978
994.10 0.09966
994.20 0.09954
994.30 0.09942
994.40 0.0993
994.50 0.09918
994.60 0.09907
994.70 0.09893
994.80 0.09878
994.90 0.09863
995.00 0.09849
995.10 0.09834
995.20 0.0982
995.30 0.09805
995.40 0.09791
995.50 0.09776
995.60 0.09761
995.70 0.09745
995.80 0.09727
995.90 0.0971
996.00 0.09693
996.10 0.09675
996.20 0.09658
996.30 0.09641
996.40 0.09623
996.50 0.09606
996.60 0.09589
996.70 0.09572
996.80 0.09554
996.90 0.09537
997.00 0.0952
997.10 0.095
997.20 0.0948
997.30 0.09461
997.40 0.09441
997.50 0.09421
997.60 0.09402
997.70 0.09379
997.80 0.09355
997.90 0.09331
998.00 0.09307
998.10 0.09283
998.20 0.09259
998.30 0.09235
998.40 0.09211
998.50 0.09187
998.60 0.09163
998.70 0.09139
998.80 0.09115
998.90 0.09091
999.00 0.09067
999.10 0.09044
999.20 0.0902
999.30 0.08996
999.40 0.08972
999.50 0.08948
999.60 0.08924
999.70 0.08895
999.80 0.08864
999.90 0.08833
1000.00 0.08802
1000.10 0.08771
1000.20 0.0874
1000.30 0.08709
1000.40 0.08678
1000.50 0.08647
1000.60 0.08617
1000.70 0.08586
1000.80 0.08555
1000.90 0.08524
1001.00 0.08493
1001.10 0.08462
1001.20 0.08431
1001.30 0.08401
1001.40 0.0837
1001.50 0.08339
1001.60 0.08308
1001.70 0.08274
1001.80 0.08239
1001.90 0.08203
1002.00 0.08168
1002.10 0.0813
1002.20 0.08091
1002.30 0.08053
1002.40 0.08015
1002.50 0.07976
1002.60 0.07938
1002.70 0.079
1002.80 0.07862
1002.90 0.07823
1003.00 0.07785
1003.10 0.07747
1003.20 0.07705
1003.30 0.07661
1003.40 0.07618
1003.50 0.07575
1003.60 0.07531
1003.70 0.07488
1003.80 0.07445
1003.90 0.07396
1004.00 0.07346
1004.10 0.07296
1004.20 0.07246
1004.30 0.07194
1004.40 0.07142
1004.50 0.07102
1004.60 0.07152
1004.70 0.071
1004.80 0.0711
1004.90 0.07157
1005.00 0.07205
1005.10 0.07251
1005.20 0.07296
1005.30 0.07341
1005.40 0.07386
1005.50 0.07426
1005.60 0.07464
1005.70 0.07502
1005.80 0.0754
1005.90 0.07578
1006.00 0.07616
1006.10 0.07654
1006.20 0.07688
1006.30 0.07721
1006.40 0.07754
1006.50 0.07787
1006.60 0.0782
1006.70 0.07853
1006.80 0.07886
1006.90 0.07919
1007.00 0.07952
1007.10 0.07982
1007.20 0.08012
1007.30 0.08041
1007.40 0.08071
1007.50 0.081
1007.60 0.0813
1007.70 0.08155
1007.80 0.0818
1007.90 0.08204
1008.00 0.08228
1008.10 0.08252
1008.20 0.08277
1008.30 0.08301
1008.40 0.08325
1008.50 0.08349
1008.60 0.08373
1008.70 0.08398
1008.80 0.08422
1008.90 0.08446
1009.00 0.0847
1009.10 0.08494
1009.20 0.08518
1009.30 0.08542
1009.40 0.08566
1009.50 0.08591
1009.60 0.08615
1009.70 0.08633
1009.80 0.0865
1009.90 0.08667
1010.00 0.08683
1010.10 0.087
1010.20 0.08717
1010.30 0.08733
1010.40 0.0875
1010.50 0.08767
1010.60 0.08784
1010.70 0.088
1010.80 0.08817
1010.90 0.08834
1011.00 0.0885
1011.10 0.08867
1011.20 0.08883
1011.30 0.089
1011.40 0.08917
1011.50 0.08933
1011.60 0.0895
1011.70 0.08964
1011.80 0.08976
1011.90 0.08989
1012.00 0.09001
1012.10 0.09011
1012.20 0.09021
1012.30 0.09032
1012.40 0.09042
1012.50 0.09052
1012.60 0.09062
1012.70 0.09072
1012.80 0.09082
1012.90 0.09092
1013.00 0.09102
1013.10 0.09112
1013.20 0.09122
1013.30 0.09132
1013.40 0.09142
1013.50 0.09152
1013.60 0.09162
1013.70 0.0917
1013.80 0.09177
1013.90 0.09184
1014.00 0.09191
1014.10 0.09198
1014.20 0.09205
1014.30 0.09213
1014.40 0.0922
1014.50 0.09227
1014.60 0.09234
1014.70 0.09239
1014.80 0.09243
1014.90 0.09247
1015.00 0.09252
1015.10 0.09256
1015.20 0.0926
1015.30 0.09265
1015.40 0.09269
1015.50 0.09273
1015.60 0.09278
1015.70 0.09282
1015.80 0.09286
1015.90 0.0929
1016.00 0.09295
1016.10 0.09299
1016.20 0.09303
1016.30 0.09308
1016.40 0.09312
1016.50 0.09316
1016.60 0.09321
1016.70 0.09324
1016.80 0.09326
1016.90 0.09329
1017.00 0.09331
1017.10 0.09333
1017.20 0.09334
1017.30 0.09336
1017.40 0.09338
1017.50 0.09339
1017.60 0.09341
1017.70 0.09343
1017.80 0.09344
1017.90 0.09346
1018.00 0.09347
1018.10 0.09349
1018.20 0.09351
1018.30 0.09352
1018.40 0.09354
1018.50 0.09355
1018.60 0.09357
1018.70 0.09358
1018.80 0.09358
1018.90 0.09358
1019.00 0.09358
1019.10 0.09358
1019.20 0.09358
1019.30 0.09358
1019.40 0.09358
1019.50 0.09359
1019.60 0.09359
1019.70 0.09359
1019.80 0.09359
1019.90 0.09359
1020.00 0.09359
1020.10 0.09359
1020.20 0.09359
1020.30 0.0936
1020.40 0.0936
1020.50 0.0936
1020.60 0.0936
1020.70 0.09359
1020.80 0.09359
1020.90 0.09358
1021.00 0.09357
1021.10 0.09356
1021.20 0.09355
1021.30 0.09355
1021.40 0.09354
1021.50 0.09353
1021.60 0.09352
1021.70 0.09352
1021.80 0.09351
1021.90 0.0935
1022.00 0.09349
1022.10 0.09348
1022.20 0.09346
1022.30 0.09344
1022.40 0.09343
1022.50 0.09341
1022.60 0.09339
1022.70 0.09338
1022.80 0.09336
1022.90 0.09335
1023.00 0.09333
1023.10 0.09331
1023.20 0.0933
1023.30 0.09328
1023.40 0.09327
1023.50 0.09325
1023.60 0.09323
1023.70 0.09322
1023.80 0.0932
1023.90 0.09318
1024.00 0.09317
1024.10 0.09315
1024.20 0.09314
1024.30 0.09312
1024.40 0.0931
1024.50 0.09309
1024.60 0.09307
1024.70 0.09305
1024.80 0.09303
1024.90 0.09301
1025.00 0.09298
1025.10 0.09296
1025.20 0.09294
1025.30 0.09292
1025.40 0.0929
1025.50 0.09287
1025.60 0.09285
1025.70 0.09283
1025.80 0.09281
1025.90 0.09279
1026.00 0.09276
1026.10 0.09274
1026.20 0.09272
1026.30 0.0927
1026.40 0.09268
1026.50 0.09265
1026.60 0.09263
1026.70 0.09261
1026.80 0.09259
1026.90 0.09257
1027.00 0.09255
1027.10 0.09252
1027.20 0.09249
1027.30 0.09246
1027.40 0.09244
1027.50 0.09241
1027.60 0.09238
1027.70 0.09236
1027.80 0.09233
1027.90 0.0923
1028.00 0.09228
1028.10 0.09225
1028.20 0.09222
1028.30 0.0922
1028.40 0.09217
1028.50 0.09214
1028.60 0.09212
1028.70 0.09209
1028.80 0.09206
1028.90 0.09204
1029.00 0.09201
1029.10 0.09198
1029.20 0.09195
1029.30 0.09193
1029.40 0.0919
1029.50 0.09187
1029.60 0.09185
1029.70 0.09182
1029.80 0.09179
1029.90 0.09177
1030.00 0.09174
1030.10 0.09171
1030.20 0.09169
1030.30 0.09166
1030.40 0.09163
1030.50 0.09161
1030.60 0.09158
1030.70 0.09155
1030.80 0.09153
1030.90 0.0915
1031.00 0.09147
1031.10 0.09145
1031.20 0.09142
1031.30 0.0914
1031.40 0.09137
1031.50 0.09134
1031.60 0.09132
1031.70 0.09129
1031.80 0.09126
1031.90 0.09124
1032.00 0.09121
1032.10 0.09118
1032.20 0.09115
1032.30 0.09112
1032.40 0.09109
1032.50 0.09106
1032.60 0.09103
1032.70 0.091
1032.80 0.09097
1032.90 0.09094
1033.00 0.09092
1033.10 0.09089
1033.20 0.09086
1033.30 0.09083
1033.40 0.0908
1033.50 0.09077
1033.60 0.09074
1033.70 0.09071
1033.80 0.09068
1033.90 0.09065
1034.00 0.09062
1034.10 0.09059
1034.20 0.09056
1034.30 0.09054
1034.40 0.09051
1034.50 0.09048
1034.60 0.09045
1034.70 0.09042
1034.80 0.09039
1034.90 0.09036
1035.00 0.09033
1035.10 0.0903
1035.20 0.09027
1035.30 0.09024
1035.40 0.09021
1035.50 0.09019
1035.60 0.09016
1035.70 0.09013
1035.80 0.0901
1035.90 0.09007
1036.00 0.09004
1036.10 0.09001
1036.20 0.08998
1036.30 0.08995
1036.40 0.08992
1036.50 0.08989
1036.60 0.08987
1036.70 0.08984
1036.80 0.08981
1036.90 0.08978
1037.00 0.08975
1037.10 0.08972
1037.20 0.08969
1037.30 0.08966
1037.40 0.08963
1037.50 0.0896
1037.60 0.08957
1037.70 0.08954
1037.80 0.08951
1037.90 0.08948
1038.00 0.08945
1038.10 0.08942
1038.20 0.08939
1038.30 0.08936
1038.40 0.08933
1038.50 0.0893
1038.60 0.08927
1038.70 0.08924
1038.80 0.08921
1038.90 0.08918
1039.00 0.08915
1039.10 0.08912
1039.20 0.08909
1039.30 0.08906
1039.40 0.08903
1039.50 0.089
1039.60 0.08897
1039.70 0.08894
1039.80 0.08891
1039.90 0.08888
1040.00 0.08885
1040.10 0.08882
1040.20 0.08879
1040.30 0.08876
1040.40 0.08873
1040.50 0.0887
1040.60 0.08867
1040.70 0.08864
1040.80 0.08861
1040.90 0.08858
1041.00 0.08855
1041.10 0.08852
1041.20 0.08849
1041.30 0.08846
1041.40 0.08843
1041.50 0.0884
1041.60 0.08837
1041.70 0.08834
1041.80 0.08831
1041.90 0.08828
1042.00 0.08825
1042.10 0.08822
1042.20 0.08819
1042.30 0.08816
1042.40 0.08813
1042.50 0.0881
1042.60 0.08807
1042.70 0.08804
1042.80 0.08801
1042.90 0.08797
1043.00 0.08794
1043.10 0.08791
1043.20 0.08788
1043.30 0.08785
1043.40 0.08782
1043.50 0.08779
1043.60 0.08776
1043.70 0.08773
1043.80 0.0877
1043.90 0.08767
1044.00 0.08764
1044.10 0.08761
1044.20 0.08758
1044.30 0.08755
1044.40 0.08752
1044.50 0.08749
1044.60 0.08746
1044.70 0.08743
1044.80 0.0874
1044.90 0.08737
1045.00 0.08734
1045.10 0.08731
1045.20 0.08728
1045.30 0.08725
1045.40 0.08722
1045.50 0.08719
1045.60 0.08716
1045.70 0.08713
1045.80 0.0871
1045.90 0.08707
1046.00 0.08704
1046.10 0.08701
1046.20 0.08698
1046.30 0.08695
1046.40 0.08692
1046.50 0.08689
1046.60 0.08686
1046.70 0.08683
1046.80 0.0868
1046.90 0.08677
1047.00 0.08674
1047.10 0.08671
1047.20 0.08668
1047.30 0.08665
1047.40 0.08662
1047.50 0.08659
1047.60 0.08656
1047.70 0.08653
1047.80 0.0865
1047.90 0.08646
1048.00 0.08643
1048.10 0.0864
1048.20 0.08637
1048.30 0.08634
1048.40 0.08631
1048.50 0.08628
1048.60 0.08625
1048.70 0.08622
1048.80 0.08619
1048.90 0.08616
1049.00 0.08613
1049.10 0.0861
1049.20 0.08607
1049.30 0.08604
1049.40 0.08601
1049.50 0.08598
1049.60 0.08595
1049.70 0.08592
1049.80 0.08589
1049.90 0.08586
1050.00 0.08583
1050.10 0.0858
1050.20 0.08577
1050.30 0.08574
1050.40 0.08571
1050.50 0.08568
1050.60 0.08565
1050.70 0.08562
1050.80 0.08559
1050.90 0.08556
1051.00 0.08553
1051.10 0.0855
1051.20 0.08547
1051.30 0.08544
1051.40 0.08541
1051.50 0.08538
1051.60 0.08535
1051.70 0.08532
1051.80 0.08529
1051.90 0.08526
1052.00 0.08523
1052.10 0.0852
1052.20 0.08517
1052.30 0.08514
1052.40 0.08511
1052.50 0.08508
1052.60 0.08505
1052.70 0.08502
1052.80 0.08499
1052.90 0.08496
1053.00 0.08493
1053.10 0.0849
1053.20 0.08487
1053.30 0.08484
1053.40 0.08481
1053.50 0.08478
1053.60 0.08475
1053.70 0.08472
1053.80 0.08468
1053.90 0.08465
1054.00 0.08462
1054.10 0.08459
1054.20 0.08456
1054.30 0.08453
1054.40 0.0845
1054.50 0.08447
1054.60 0.08444
1054.70 0.08441
1054.80 0.08438
1054.90 0.08435
1055.00 0.08432
1055.10 0.08429
1055.20 0.08426
1055.30 0.08423
1055.40 0.0842
1055.50 0.08417
1055.60 0.08414
1055.70 0.08411
1055.80 0.08408
1055.90 0.08405
1056.00 0.08402
1056.10 0.08399
1056.20 0.08396
1056.30 0.08393
1056.40 0.0839
1056.50 0.08387
1056.60 0.08384
1056.70 0.08381
1056.80 0.08378
1056.90 0.08375
1057.00 0.08372
1057.10 0.08369
1057.20 0.08366
1057.30 0.08363
1057.40 0.0836
1057.50 0.08357
1057.60 0.08354
1057.70 0.08351
1057.80 0.08348
1057.90 0.08345
1058.00 0.08342
1058.10 0.08339
1058.20 0.08336
1058.30 0.08333
1058.40 0.08329
1058.50 0.08326
1058.60 0.08323
1058.70 0.0832
1058.80 0.08317
1058.90 0.08314
1059.00 0.08311
1059.10 0.08308
1059.20 0.08305
1059.30 0.08302
1059.40 0.08299
1059.50 0.08296
1059.60 0.08293
1059.70 0.0829
1059.80 0.08287
1059.90 0.08284
1060.00 0.08281
1060.10 0.08278
1060.20 0.08275
1060.30 0.08272
1060.40 0.08269
1060.50 0.08266
1060.60 0.08263
1060.70 0.0826
1060.80 0.08257
1060.90 0.08254
1061.00 0.08251
1061.10 0.08248
1061.20 0.08245
1061.30 0.08242
1061.40 0.08239
1061.50 0.08236
1061.60 0.08232
1061.70 0.08229
1061.80 0.08226
1061.90 0.08223
1062.00 0.0822
1062.10 0.08217
1062.20 0.08214
1062.30 0.08211
1062.40 0.08208
1062.50 0.08205
1062.60 0.08202
1062.70 0.08199
1062.80 0.08195
1062.90 0.08192
1063.00 0.08189
1063.10 0.08186
1063.20 0.08183
1063.30 0.0818
1063.40 0.08177
1063.50 0.08174
1063.60 0.0817
1063.70 0.08167
1063.80 0.08164
1063.90 0.08161
1064.00 0.08158
1064.10 0.08155
1064.20 0.08152
1064.30 0.08149
1064.40 0.08146
1064.50 0.08142
1064.60 0.08139
1064.70 0.08136
1064.80 0.08133
1064.90 0.0813
1065.00 0.08127
1065.10 0.08124
1065.20 0.08121
1065.30 0.08118
1065.40 0.08114
1065.50 0.08111
1065.60 0.08108
1065.70 0.08105
1065.80 0.08102
1065.90 0.08099
1066.00 0.08096
1066.10 0.08093
1066.20 0.0809
1066.30 0.08087
1066.40 0.08084
1066.50 0.0808
1066.60 0.08077
1066.70 0.08074
1066.80 0.08071
1066.90 0.08068
1067.00 0.08065
1067.10 0.08062
1067.20 0.08058
1067.30 0.08055
1067.40 0.08052
1067.50 0.08048
1067.60 0.08045
1067.70 0.08042
1067.80 0.08038
1067.90 0.08035
1068.00 0.08031
1068.10 0.08028
1068.20 0.08025
1068.30 0.08021
1068.40 0.08018
1068.50 0.08015
1068.60 0.08011
1068.70 0.08008
1068.80 0.08005
1068.90 0.08001
1069.00 0.07998
1069.10 0.07995
1069.20 0.07991
1069.30 0.07988
1069.40 0.07985
1069.50 0.07981
1069.60 0.07978
1069.70 0.07975
1069.80 0.07971
1069.90 0.07968
1070.00 0.07965
1070.10 0.07961
1070.20 0.07958
1070.30 0.07955
1070.40 0.07951
1070.50 0.07948
1070.60 0.07945
1070.70 0.07941
1070.80 0.07938
1070.90 0.07935
1071.00 0.07931
1071.10 0.07928
1071.20 0.07925
1071.30 0.07921
1071.40 0.07918
1071.50 0.07915
1071.60 0.07911
1071.70 0.07908
1071.80 0.07905
1071.90 0.07902
1072.00 0.07898
1072.10 0.07895
1072.20 0.07891
1072.30 0.07887
1072.40 0.07884
1072.50 0.0788
1072.60 0.07877
1072.70 0.07873
1072.80 0.07869
1072.90 0.07866
1073.00 0.07862
1073.10 0.07858
1073.20 0.07855
1073.30 0.07851
1073.40 0.07848
1073.50 0.07844
1073.60 0.0784
1073.70 0.07836
1073.80 0.07831
1073.90 0.07827
1074.00 0.07823
1074.10 0.07819
1074.20 0.07815
1074.30 0.07811
1074.40 0.07807
1074.50 0.07802
1074.60 0.07798
1074.70 0.07794
1074.80 0.0779
1074.90 0.07786
1075.00 0.07782
1075.10 0.07778
1075.20 0.07773
1075.30 0.07769
1075.40 0.07765
1075.50 0.07761
1075.60 0.07757
1075.70 0.07753
1075.80 0.07749
1075.90 0.07745
1076.00 0.0774
1076.10 0.07736
1076.20 0.07732
1076.30 0.07728
1076.40 0.07724
1076.50 0.0772
1076.60 0.07716
1076.70 0.07712
1076.80 0.07708
1076.90 0.07703
1077.00 0.07699
1077.10 0.07695
1077.20 0.0769
1077.30 0.07686
1077.40 0.07681
1077.50 0.07676
1077.60 0.07671
1077.70 0.07666
1077.80 0.07661
1077.90 0.07656
1078.00 0.0765
1078.10 0.07645
1078.20 0.0764
1078.30 0.07635
1078.40 0.0763
1078.50 0.07624
1078.60 0.07619
1078.70 0.07614
1078.80 0.07609
1078.90 0.07604
1079.00 0.07598
1079.10 0.07593
1079.20 0.07588
1079.30 0.07583
1079.40 0.07578
1079.50 0.07572
1079.60 0.07566
1079.70 0.0756
1079.80 0.07553
1079.90 0.07547
1080.00 0.0754
1080.10 0.07534
1080.20 0.07528
1080.30 0.07521
1080.40 0.07515
1080.50 0.07509
1080.60 0.07502
1080.70 0.07496
1080.80 0.0749
1080.90 0.07483
1081.00 0.07477
1081.10 0.07471
1081.20 0.07465
1081.30 0.07458
1081.40 0.07452
1081.50 0.07445
1081.60 0.07438
1081.70 0.07431
1081.80 0.07424
1081.90 0.07417
1082.00 0.0741
1082.10 0.07402
1082.20 0.07393
1082.30 0.07385
1082.40 0.07377
1082.50 0.07368
1082.60 0.0736
1082.70 0.07352
1082.80 0.07343
1082.90 0.07335
1083.00 0.07327
1083.10 0.07318
1083.20 0.0731
1083.30 0.07302
1083.40 0.07293
1083.50 0.07284
1083.60 0.07275
1083.70 0.07265
1083.80 0.07255
1083.90 0.07245
1084.00 0.07235
1084.10 0.07225
1084.20 0.07215
1084.30 0.07205
1084.40 0.07195
1084.50 0.07184
1084.60 0.07172
1084.70 0.0716
1084.80 0.07148
1084.90 0.07135
1085.00 0.07123
1085.10 0.07111
1085.20 0.07099
1085.30 0.07087
1085.40 0.07074
1085.50 0.07062
1085.60 0.0705
1085.70 0.07038
1085.80 0.07026
1085.90 0.07014
1086.00 0.07001
1086.10 0.06989
1086.20 0.06977
1086.30 0.06965
1086.40 0.06953
1086.50 0.0694
1086.60 0.06925
1086.70 0.0691
1086.80 0.06896
1086.90 0.06881
1087.00 0.06866
1087.10 0.0685
1087.20 0.06833
1087.30 0.06816
1087.40 0.06799
1087.50 0.06783
1087.60 0.06766
1087.70 0.06749
1087.80 0.06732
1087.90 0.06716
1088.00 0.06699
1088.10 0.06682
1088.20 0.06666
1088.30 0.06649
1088.40 0.06632
1088.50 0.06614
1088.60 0.06593
1088.70 0.06572
1088.80 0.0655
1088.90 0.06529
1089.00 0.06508
1089.10 0.06487
1089.20 0.06466
1089.30 0.06444
1089.40 0.06423
1089.50 0.06402
1089.60 0.06381
1089.70 0.0636
1089.80 0.06339
1089.90 0.06317
1090.00 0.06296
1090.10 0.06275
1090.20 0.06254
1090.30 0.06233
1090.40 0.06212
1090.50 0.06189
1090.60 0.06163
1090.70 0.06136
1090.80 0.0611
1090.90 0.06083
1091.00 0.06057
1091.10 0.0603
1091.20 0.06004
1091.30 0.05977
1091.40 0.05951
1091.50 0.05925
1091.60 0.05898
1091.70 0.05872
1091.80 0.05846
1091.90 0.05819
1092.00 0.05792
1092.10 0.05759
1092.20 0.05725
1092.30 0.05692
1092.40 0.05659
1092.50 0.05626
1092.60 0.05593
1092.70 0.05556
1092.80 0.0551
1092.90 0.05464
1093.00 0.05418
1093.10 0.05365
1093.20 0.05296
1093.30 0.05226
1093.40 0.05164
1093.50 0.05166
1093.60 0.05195
1093.70 0.05264
1093.80 0.05329
1093.90 0.05387
1094.00 0.0543
1094.10 0.05472
1094.20 0.05515
1094.30 0.05553
1094.40 0.05582
1094.50 0.05611
1094.60 0.05641
1094.70 0.0567
1094.80 0.05699
1094.90 0.05729
1095.00 0.05756
1095.10 0.05778
1095.20 0.058
1095.30 0.05823
1095.40 0.05845
1095.50 0.05867
1095.60 0.0589
1095.70 0.05912
1095.80 0.05934
1095.90 0.05956
1096.00 0.05979
1096.10 0.06001
1096.20 0.06023
1096.30 0.06045
1096.40 0.06067
1096.50 0.06088
1096.60 0.06107
1096.70 0.06126
1096.80 0.06145
1096.90 0.06163
1097.00 0.06182
1097.10 0.06198
1097.20 0.06214
1097.30 0.06229
1097.40 0.06245
1097.50 0.06261
1097.60 0.06276
1097.70 0.06292
1097.80 0.06308
1097.90 0.06323
1098.00 0.06339
1098.10 0.06355
1098.20 0.06371
1098.30 0.06386
1098.40 0.06402
1098.50 0.06416
1098.60 0.06427
1098.70 0.06439
1098.80 0.0645
1098.90 0.06461
1099.00 0.06473
1099.10 0.06484
1099.20 0.06495
1099.30 0.06506
1099.40 0.06518
1099.50 0.06529
1099.60 0.0654
1099.70 0.06551
1099.80 0.06563
1099.90 0.06574
1100.00 0.06585
1100.10 0.06596
1100.20 0.06608
1100.30 0.06619
1100.40 0.0663
1100.50 0.0664
1100.60 0.06647
1100.70 0.06655
1100.80 0.06662
1100.90 0.06669
1101.00 0.06677
1101.10 0.06684
1101.20 0.06691
1101.30 0.06699
1101.40 0.06706
1101.50 0.06713
1101.60 0.06721
1101.70 0.06728
1101.80 0.06735
1101.90 0.06743
1102.00 0.0675
1102.10 0.06756
1102.20 0.06762
1102.30 0.06768
1102.40 0.06774
1102.50 0.0678
1102.60 0.06784
1102.70 0.06788
1102.80 0.06793
1102.90 0.06797
1103.00 0.06802
1103.10 0.06806
1103.20 0.0681
1103.30 0.06815
1103.40 0.06819
1103.50 0.06823
1103.60 0.06826
1103.70 0.06829
1103.80 0.06832
1103.90 0.06835
1104.00 0.06838
1104.10 0.06841
1104.20 0.06844
1104.30 0.06846
1104.40 0.06849
1104.50 0.06852
1104.60 0.06855
1104.70 0.06858
1104.80 0.06861
1104.90 0.06864
1105.00 0.06867
1105.10 0.0687
1105.20 0.06873
1105.30 0.06876
1105.40 0.06879
1105.50 0.06881
1105.60 0.06882
1105.70 0.06884
1105.80 0.06885
1105.90 0.06886
1106.00 0.06887
1106.10 0.06889
1106.20 0.0689
1106.30 0.06891
1106.40 0.06893
1106.50 0.06894
1106.60 0.06895
1106.70 0.06897
1106.80 0.06898
1106.90 0.06899
1107.00 0.06901
1107.10 0.06901
1107.20 0.06901
1107.30 0.06902
1107.40 0.06902
1107.50 0.06903
1107.60 0.06903
1107.70 0.06903
1107.80 0.06903
1107.90 0.06903
1108.00 0.06903
1108.10 0.06903
1108.20 0.06903
1108.30 0.06903
1108.40 0.06903
1108.50 0.06903
1108.60 0.06903
1108.70 0.06903
1108.80 0.06903
1108.90 0.06903
1109.00 0.06903
1109.10 0.06903
1109.20 0.06903
1109.30 0.06903
1109.40 0.06903
1109.50 0.06902
1109.60 0.06902
1109.70 0.06901
1109.80 0.069
1109.90 0.06899
1110.00 0.06898
1110.10 0.06897
1110.20 0.06897
1110.30 0.06896
1110.40 0.06895
1110.50 0.06894
1110.60 0.06893
1110.70 0.06893
1110.80 0.06892
1110.90 0.06891
1111.00 0.0689
1111.10 0.06889
1111.20 0.06889
1111.30 0.06888
1111.40 0.06887
1111.50 0.06886
1111.60 0.06885
1111.70 0.06884
1111.80 0.06884
1111.90 0.06883
1112.00 0.06882
1112.10 0.06881
1112.20 0.06879
1112.30 0.06878
1112.40 0.06877
1112.50 0.06876
1112.60 0.06874
1112.70 0.06873
1112.80 0.06872
1112.90 0.06871
1113.00 0.06869
1113.10 0.06868
1113.20 0.06867
1113.30 0.06865
1113.40 0.06864
1113.50 0.06863
1113.60 0.06861
1113.70 0.0686
1113.80 0.06858
1113.90 0.06856
1114.00 0.06855
1114.10 0.06853
1114.20 0.06852
1114.30 0.0685
1114.40 0.06849
1114.50 0.06847
1114.60 0.06845
1114.70 0.06844
1114.80 0.06842
1114.90 0.06841
1115.00 0.06839
1115.10 0.06838
1115.20 0.06836
1115.30 0.06834
1115.40 0.06833
1115.50 0.06831
1115.60 0.0683
1115.70 0.06828
1115.80 0.06827
1115.90 0.06825
1116.00 0.06823
1116.10 0.06822
1116.20 0.0682
1116.30 0.06819
1116.40 0.06817
1116.50 0.06816
1116.60 0.06814
1116.70 0.06812
1116.80 0.06811
1116.90 0.06809
1117.00 0.06808
1117.10 0.06806
1117.20 0.06804
1117.30 0.06802
1117.40 0.068
1117.50 0.06798
1117.60 0.06796
1117.70 0.06795
1117.80 0.06793
1117.90 0.06791
1118.00 0.06789
1118.10 0.06787
1118.20 0.06785
1118.30 0.06783
1118.40 0.06782
1118.50 0.0678
1118.60 0.06778
1118.70 0.06776
1118.80 0.06774
1118.90 0.06772
1119.00 0.0677
1119.10 0.06768
1119.20 0.06767
1119.30 0.06765
1119.40 0.06763
1119.50 0.06761
1119.60 0.06759
1119.70 0.06757
1119.80 0.06755
1119.90 0.06754
1120.00 0.06752
1120.10 0.0675
1120.20 0.06748
1120.30 0.06746
1120.40 0.06744
1120.50 0.06742
1120.60 0.0674
1120.70 0.06739
1120.80 0.06737
1120.90 0.06735
1121.00 0.06733
1121.10 0.06731
1121.20 0.06729
1121.30 0.06727
1121.40 0.06726
1121.50 0.06724
1121.60 0.06722
1121.70 0.0672
1121.80 0.06718
1121.90 0.06716
1122.00 0.06715
1122.10 0.06713
1122.20 0.06711
1122.30 0.06708
1122.40 0.06706
1122.50 0.06704
1122.60 0.06702
1122.70 0.067
1122.80 0.06698
1122.90 0.06696
1123.00 0.06694
1123.10 0.06692
1123.20 0.0669
1123.30 0.06688
1123.40 0.06686
1123.50 0.06684
1123.60 0.06682
1123.70 0.0668
1123.80 0.06678
1123.90 0.06676
1124.00 0.06674
1124.10 0.06672
1124.20 0.0667
1124.30 0.06668
1124.40 0.06666
1124.50 0.06664
1124.60 0.06662
1124.70 0.06661
1124.80 0.06659
1124.90 0.06657
1125.00 0.06655
1125.10 0.06653
1125.20 0.06651
1125.30 0.06649
1125.40 0.06647
1125.50 0.06645
1125.60 0.06643
1125.70 0.06641
1125.80 0.06639
1125.90 0.06637
1126.00 0.06635
1126.10 0.06633
1126.20 0.06631
1126.30 0.06629
1126.40 0.06627
1126.50 0.06625
1126.60 0.06623
1126.70 0.06621
1126.80 0.06619
1126.90 0.06617
1127.00 0.06615
1127.10 0.06613
1127.20 0.06611
1127.30 0.06609
1127.40 0.06607
1127.50 0.06605
1127.60 0.06603
1127.70 0.06601
1127.80 0.06598
1127.90 0.06596
1128.00 0.06594
1128.10 0.06592
1128.20 0.0659
1128.30 0.06588
1128.40 0.06586
1128.50 0.06584
1128.60 0.06582
1128.70 0.0658
1128.80 0.06578
1128.90 0.06576
1129.00 0.06574
1129.10 0.06572
1129.20 0.0657
1129.30 0.06568
1129.40 0.06566
1129.50 0.06564
1129.60 0.06562
1129.70 0.0656
1129.80 0.06558
1129.90 0.06556
1130.00 0.06554
1130.10 0.06552
1130.20 0.0655
1130.30 0.06548
1130.40 0.06546
1130.50 0.06544
1130.60 0.06542
1130.70 0.0654
1130.80 0.06538
1130.90 0.06535
1131.00 0.06533
1131.10 0.06531
1131.20 0.06529
1131.30 0.06527
1131.40 0.06525
1131.50 0.06523
1131.60 0.06521
1131.70 0.06519
1131.80 0.06517
1131.90 0.06515
1132.00 0.06513
1132.10 0.06511
1132.20 0.06509
1132.30 0.06507
1132.40 0.06505
1132.50 0.06503
1132.60 0.06501
1132.70 0.06499
1132.80 0.06497
1132.90 0.06495
1133.00 0.06493
1133.10 0.06491
1133.20 0.06489
1133.30 0.06487
1133.40 0.06485
1133.50 0.06483
1133.60 0.06481
1133.70 0.06479
1133.80 0.06476
1133.90 0.06474
1134.00 0.06472
1134.10 0.0647
1134.20 0.06468
1134.30 0.06466
1134.40 0.06464
1134.50 0.06462
1134.60 0.0646
1134.70 0.06458
1134.80 0.06456
1134.90 0.06454
1135.00 0.06452
1135.10 0.0645
1135.20 0.06448
1135.30 0.06446
1135.40 0.06444
1135.50 0.06442
1135.60 0.0644
1135.70 0.06438
1135.80 0.06436
1135.90 0.06434
1136.00 0.06432
1136.10 0.0643
1136.20 0.06428
1136.30 0.06426
1136.40 0.06424
1136.50 0.06422
1136.60 0.0642
1136.70 0.06418
1136.80 0.06416
1136.90 0.06414
1137.00 0.06412
1137.10 0.0641
1137.20 0.06407
1137.30 0.06405
1137.40 0.06403
1137.50 0.06401
1137.60 0.06399
1137.70 0.06397
1137.80 0.06395
1137.90 0.06393
1138.00 0.06391
1138.10 0.06389
1138.20 0.06387
1138.30 0.06385
1138.40 0.06383
1138.50 0.06381
1138.60 0.06379
1138.70 0.06377
1138.80 0.06375
1138.90 0.06373
1139.00 0.06371
1139.10 0.06369
1139.20 0.06367
1139.30 0.06365
1139.40 0.06363
1139.50 0.06361
1139.60 0.06359
1139.70 0.06357
1139.80 0.06355
1139.90 0.06353
1140.00 0.06351
1140.10 0.06349
1140.20 0.06347
1140.30 0.06345
1140.40 0.06343
1140.50 0.06341
1140.60 0.06339
1140.70 0.06337
1140.80 0.06335
1140.90 0.06333
1141.00 0.06331
1141.10 0.06329
1141.20 0.06327
1141.30 0.06325
1141.40 0.06323
1141.50 0.06321
1141.60 0.06319
1141.70 0.06317
1141.80 0.06315
1141.90 0.06313
1142.00 0.06311
1142.10 0.06309
1142.20 0.06307
1142.30 0.06305
1142.40 0.06303
1142.50 0.063
1142.60 0.06298
1142.70 0.06296
1142.80 0.06294
1142.90 0.06292
1143.00 0.0629
1143.10 0.06288
1143.20 0.06286
1143.30 0.06284
1143.40 0.06282
1143.50 0.0628
1143.60 0.06278
1143.70 0.06276
1143.80 0.06274
1143.90 0.06272
1144.00 0.0627
1144.10 0.06268
1144.20 0.06266
1144.30 0.06264
1144.40 0.06263
1144.50 0.06261
1144.60 0.06259
1144.70 0.06257
1144.80 0.06255
1144.90 0.06253
1145.00 0.06251
1145.10 0.06249
1145.20 0.06247
1145.30 0.06245
1145.40 0.06243
1145.50 0.06241
1145.60 0.06239
1145.70 0.06237
1145.80 0.06235
1145.90 0.06233
1146.00 0.06231
1146.10 0.06229
1146.20 0.06227
1146.30 0.06225
1146.40 0.06223
1146.50 0.06221
1146.60 0.06219
1146.70 0.06217
1146.80 0.06215
1146.90 0.06213
1147.00 0.06211
1147.10 0.06209
1147.20 0.06207
1147.30 0.06205
1147.40 0.06203
1147.50 0.06201
1147.60 0.06199
1147.70 0.06197
1147.80 0.06195
1147.90 0.06193
1148.00 0.06191
1148.10 0.06189
1148.20 0.06187
1148.30 0.06185
1148.40 0.06183
1148.50 0.06181
1148.60 0.06179
1148.70 0.06177
1148.80 0.06175
1148.90 0.06173
1149.00 0.06171
1149.10 0.0617
1149.20 0.06168
1149.30 0.06166
1149.40 0.06164
1149.50 0.06162
1149.60 0.0616
1149.70 0.06158
1149.80 0.06156
1149.90 0.06154
1150.00 0.06152
1150.10 0.0615
1150.20 0.06148
1150.30 0.06146
1150.40 0.06144
1150.50 0.06142
1150.60 0.0614
1150.70 0.06138
1150.80 0.06136
1150.90 0.06134
1151.00 0.06132
1151.10 0.0613
1151.20 0.06128
1151.30 0.06126
1151.40 0.06125
1151.50 0.06123
1151.60 0.06121
1151.70 0.06119
1151.80 0.06117
1151.90 0.06115
1152.00 0.06113
1152.10 0.06111
1152.20 0.06109
1152.30 0.06107
1152.40 0.06105
1152.50 0.06103
1152.60 0.06101
1152.70 0.06099
1152.80 0.06097
1152.90 0.06095
1153.00 0.06093
1153.10 0.06091
1153.20 0.0609
1153.30 0.06088
1153.40 0.06086
1153.50 0.06084
1153.60 0.06082
1153.70 0.0608
1153.80 0.06078
1153.90 0.06076
1154.00 0.06074
1154.10 0.06072
1154.20 0.0607
1154.30 0.06068
1154.40 0.06066
1154.50 0.06064
1154.60 0.06062
1154.70 0.06061
1154.80 0.06059
1154.90 0.06057
1155.00 0.06055
1155.10 0.06053
1155.20 0.06051
1155.30 0.06049
1155.40 0.06047
1155.50 0.06045
1155.60 0.06043
1155.70 0.06041
1155.80 0.06039
1155.90 0.06037
1156.00 0.06035
1156.10 0.06034
1156.20 0.06032
1156.30 0.0603
1156.40 0.06028
1156.50 0.06026
1156.60 0.06024
1156.70 0.06022
1156.80 0.0602
1156.90 0.06018
1157.00 0.06016
1157.10 0.06014
1157.20 0.06012
1157.30 0.06011
1157.40 0.06009
1157.50 0.06007
1157.60 0.06005
1157.70 0.06003
1157.80 0.06001
1157.90 0.05999
1158.00 0.05997
1158.10 0.05995
1158.20 0.05993
1158.30 0.05991
1158.40 0.0599
1158.50 0.05988
1158.60 0.05986
1158.70 0.05984
1158.80 0.05982
1158.90 0.0598
1159.00 0.05978
1159.10 0.05976
1159.20 0.05974
1159.30 0.05972
1159.40 0.05971
1159.50 0.05969
1159.60 0.05967
1159.70 0.05965
1159.80 0.05963
1159.90 0.05961
1160.00 0.05959
1160.10 0.05957
1160.20 0.05955
1160.30 0.05954
1160.40 0.05952
1160.50 0.0595
1160.60 0.05948
1160.70 0.05946
1160.80 0.05944
1160.90 0.05942
1161.00 0.0594
1161.10 0.05938
1161.20 0.05937
1161.30 0.05935
1161.40 0.05933
1161.50 0.05931
1161.60 0.05929
1161.70 0.05927
1161.80 0.05925
1161.90 0.05923
1162.00 0.05921
1162.10 0.0592
1162.20 0.05918
1162.30 0.05916
1162.40 0.05914
1162.50 0.05912
1162.60 0.0591
1162.70 0.05908
1162.80 0.05906
1162.90 0.05905
1163.00 0.05903
1163.10 0.05901
1163.20 0.05899
1163.30 0.05897
1163.40 0.05895
1163.50 0.05893
1163.60 0.05892
1163.70 0.0589
1163.80 0.05888
1163.90 0.05886
1164.00 0.05884
1164.10 0.05882
1164.20 0.0588
1164.30 0.05878
1164.40 0.05877
1164.50 0.05875
1164.60 0.05873
1164.70 0.05871
1164.80 0.05869
1164.90 0.05867
1165.00 0.05865
1165.10 0.05864
1165.20 0.05862
1165.30 0.0586
1165.40 0.05858
1165.50 0.05856
1165.60 0.05854
1165.70 0.05852
1165.80 0.05851
1165.90 0.05849
1166.00 0.05847
1166.10 0.05845
1166.20 0.05843
1166.30 0.05841
1166.40 0.05839
1166.50 0.05838
1166.60 0.05836
1166.70 0.05834
1166.80 0.05832
1166.90 0.0583
1167.00 0.05828
1167.10 0.05827
1167.20 0.05825
1167.30 0.05823
1167.40 0.05821
1167.50 0.05819
1167.60 0.05817
1167.70 0.05816
1167.80 0.05814
1167.90 0.05812
1168.00 0.0581
1168.10 0.05808
1168.20 0.05806
1168.30 0.05804
1168.40 0.05803
1168.50 0.05801
1168.60 0.05799
1168.70 0.05797
1168.80 0.05795
1168.90 0.05793
1169.00 0.05792
1169.10 0.0579
1169.20 0.05788
1169.30 0.05786
1169.40 0.05784
1169.50 0.05783
1169.60 0.05781
1169.70 0.05779
1169.80 0.05777
1169.90 0.05775
1170.00 0.05773
1170.10 0.05772
1170.20 0.0577
1170.30 0.05768
1170.40 0.05766
1170.50 0.05764
1170.60 0.05762
1170.70 0.05761
1170.80 0.05759
1170.90 0.05757
1171.00 0.05755
1171.10 0.05753
1171.20 0.05752
1171.30 0.0575
1171.40 0.05748
1171.50 0.05746
1171.60 0.05744
1171.70 0.05742
1171.80 0.05741
1171.90 0.05739
1172.00 0.05737
1172.10 0.05735
1172.20 0.05733
1172.30 0.05732
1172.40 0.0573
1172.50 0.05728
1172.60 0.05726
1172.70 0.05724
1172.80 0.05723
1172.90 0.05721
1173.00 0.05719
1173.10 0.05717
1173.20 0.05715
1173.30 0.05714
1173.40 0.05712
1173.50 0.0571
1173.60 0.05708
1173.70 0.05706
1173.80 0.05705
1173.90 0.05703
1174.00 0.05701
1174.10 0.05699
1174.20 0.05697
1174.30 0.05696
1174.40 0.05694
1174.50 0.05692
1174.60 0.0569
1174.70 0.05688
1174.80 0.05687
1174.90 0.05685
1175.00 0.05683
1175.10 0.05681
1175.20 0.05679
1175.30 0.05678
1175.40 0.05676
1175.50 0.05674
1175.60 0.05672
1175.70 0.0567
1175.80 0.05669
1175.90 0.05667
1176.00 0.05665
1176.10 0.05663
1176.20 0.05662
1176.30 0.0566
1176.40 0.05658
1176.50 0.05656
1176.60 0.05654
1176.70 0.05653
1176.80 0.05651
1176.90 0.05649
1177.00 0.05647
1177.10 0.05645
1177.20 0.05644
1177.30 0.05642
1177.40 0.0564
1177.50 0.05638
1177.60 0.05637
1177.70 0.05635
1177.80 0.05633
1177.90 0.05631
1178.00 0.0563
1178.10 0.05628
1178.20 0.05626
1178.30 0.05624
1178.40 0.05622
1178.50 0.05621
1178.60 0.05619
1178.70 0.05617
1178.80 0.05615
1178.90 0.05614
1179.00 0.05612
1179.10 0.0561
1179.20 0.05608
1179.30 0.05607
1179.40 0.05605
1179.50 0.05603
1179.60 0.05601
1179.70 0.056
1179.80 0.05598
1179.90 0.05596
1180.00 0.05594
1180.10 0.05593
1180.20 0.05591
1180.30 0.05589
1180.40 0.05587
1180.50 0.05586
1180.60 0.05584
1180.70 0.05582
1180.80 0.0558
1180.90 0.05579
1181.00 0.05577
1181.10 0.05575
1181.20 0.05573
1181.30 0.05571
1181.40 0.0557
1181.50 0.05568
1181.60 0.05566
1181.70 0.05564
1181.80 0.05563
1181.90 0.05561
1182.00 0.05559
1182.10 0.05558
1182.20 0.05556
1182.30 0.05554
1182.40 0.05552
1182.50 0.05551
1182.60 0.05549
1182.70 0.05547
1182.80 0.05545
1182.90 0.05544
1183.00 0.05542
1183.10 0.0554
1183.20 0.05538
1183.30 0.05537
1183.40 0.05535
1183.50 0.05533
1183.60 0.05531
1183.70 0.0553
1183.80 0.05528
1183.90 0.05526
1184.00 0.05525
1184.10 0.05523
1184.20 0.05521
1184.30 0.05519
1184.40 0.05518
1184.50 0.05516
1184.60 0.05514
1184.70 0.05512
1184.80 0.05511
1184.90 0.05509
1185.00 0.05507
1185.10 0.05506
1185.20 0.05504
1185.30 0.05502
1185.40 0.055
1185.50 0.05499
1185.60 0.05497
1185.70 0.05495
1185.80 0.05493
1185.90 0.05492
1186.00 0.0549
1186.10 0.05488
1186.20 0.05487
1186.30 0.05485
1186.40 0.05483
1186.50 0.05481
1186.60 0.0548
1186.70 0.05478
1186.80 0.05476
1186.90 0.05475
1187.00 0.05473
1187.10 0.05471
1187.20 0.05469
1187.30 0.05468
1187.40 0.05466
1187.50 0.05464
1187.60 0.05463
1187.70 0.05461
1187.80 0.05459
1187.90 0.05458
1188.00 0.05456
1188.10 0.05454
1188.20 0.05452
1188.30 0.05451
1188.40 0.05449
1188.50 0.05447
1188.60 0.05446
1188.70 0.05444
1188.80 0.05442
1188.90 0.0544
1189.00 0.05439
1189.10 0.05437
1189.20 0.05435
1189.30 0.05434
1189.40 0.05432
1189.50 0.0543
1189.60 0.05429
1189.70 0.05427
1189.80 0.05425
1189.90 0.05424
1190.00 0.05422
1190.10 0.0542
1190.20 0.05418
1190.30 0.05417
1190.40 0.05415
1190.50 0.05413
1190.60 0.05412
1190.70 0.0541
1190.80 0.05408
1190.90 0.05407
1191.00 0.05405
1191.10 0.05403
1191.20 0.05402
1191.30 0.054
1191.40 0.05398
1191.50 0.05396
1191.60 0.05395
1191.70 0.05393
1191.80 0.05391
1191.90 0.0539
1192.00 0.05388
1192.10 0.05386
1192.20 0.05385
1192.30 0.05383
1192.40 0.05381
1192.50 0.0538
1192.60 0.05378
1192.70 0.05376
1192.80 0.05375
1192.90 0.05373
1193.00 0.05371
1193.10 0.0537
1193.20 0.05368
1193.30 0.05366
1193.40 0.05365
1193.50 0.05363
1193.60 0.05361
1193.70 0.0536
1193.80 0.05358
1193.90 0.05356
1194.00 0.05355
1194.10 0.05353
1194.20 0.05351
1194.30 0.0535
1194.40 0.05348
1194.50 0.05346
1194.60 0.05345
1194.70 0.05343
1194.80 0.05341
1194.90 0.0534
1195.00 0.05338
1195.10 0.05336
1195.20 0.05335
1195.30 0.05333
1195.40 0.05331
1195.50 0.0533
1195.60 0.05328
1195.70 0.05326
1195.80 0.05325
1195.90 0.05323
1196.00 0.05321
1196.10 0.0532
1196.20 0.05318
1196.30 0.05316
1196.40 0.05315
1196.50 0.05313
1196.60 0.05311
1196.70 0.0531
1196.80 0.05308
1196.90 0.05306
1197.00 0.05305
1197.10 0.05303
1197.20 0.05301
1197.30 0.053
1197.40 0.05298
1197.50 0.05297
1197.60 0.05295
1197.70 0.05293
1197.80 0.05292
1197.90 0.0529
1198.00 0.05288
1198.10 0.05287
1198.20 0.05285
1198.30 0.05283
1198.40 0.05282
1198.50 0.0528
1198.60 0.05278
1198.70 0.05277
1198.80 0.05275
1198.90 0.05274
1199.00 0.05272
1199.10 0.0527
1199.20 0.05269
1199.30 0.05267
1199.40 0.05265
1199.50 0.05264
1199.60 0.05262
1199.70 0.0526
1199.80 0.05259
1199.90 0.05257
1200.00 0
