# Version 2.1 - nm, norm@500 to 1, cut digits, bergeron_16000_95.dat_16000
# Wavelength(nm)  Flambda(ergs/cm^s/s/nm)
300.00 2.979
300.10 2.977
300.20 2.974
300.30 2.972
300.40 2.97
300.50 2.967
300.60 2.965
300.70 2.962
300.80 2.96
300.90 2.957
301.00 2.955
301.10 2.952
301.20 2.95
301.30 2.948
301.40 2.945
301.50 2.943
301.60 2.94
301.70 2.938
301.80 2.935
301.90 2.933
302.00 2.931
302.10 2.928
302.20 2.926
302.30 2.923
302.40 2.921
302.50 2.919
302.60 2.916
302.70 2.914
302.80 2.911
302.90 2.909
303.00 2.907
303.10 2.904
303.20 2.902
303.30 2.9
303.40 2.897
303.50 2.895
303.60 2.892
303.70 2.89
303.80 2.888
303.90 2.885
304.00 2.883
304.10 2.881
304.20 2.878
304.30 2.876
304.40 2.874
304.50 2.871
304.60 2.869
304.70 2.867
304.80 2.864
304.90 2.862
305.00 2.86
305.10 2.857
305.20 2.855
305.30 2.853
305.40 2.85
305.50 2.848
305.60 2.846
305.70 2.843
305.80 2.841
305.90 2.839
306.00 2.836
306.10 2.834
306.20 2.832
306.30 2.829
306.40 2.827
306.50 2.825
306.60 2.822
306.70 2.82
306.80 2.818
306.90 2.816
307.00 2.813
307.10 2.811
307.20 2.809
307.30 2.806
307.40 2.804
307.50 2.802
307.60 2.8
307.70 2.797
307.80 2.795
307.90 2.793
308.00 2.791
308.10 2.788
308.20 2.786
308.30 2.784
308.40 2.782
308.50 2.779
308.60 2.777
308.70 2.775
308.80 2.773
308.90 2.77
309.00 2.768
309.10 2.766
309.20 2.764
309.30 2.761
309.40 2.759
309.50 2.757
309.60 2.755
309.70 2.753
309.80 2.75
309.90 2.748
310.00 2.746
310.10 2.744
310.20 2.742
310.30 2.739
310.40 2.737
310.50 2.735
310.60 2.733
310.70 2.73
310.80 2.728
310.90 2.726
311.00 2.724
311.10 2.722
311.20 2.72
311.30 2.717
311.40 2.715
311.50 2.713
311.60 2.711
311.70 2.709
311.80 2.706
311.90 2.704
312.00 2.702
312.10 2.7
312.20 2.698
312.30 2.696
312.40 2.693
312.50 2.691
312.60 2.689
312.70 2.687
312.80 2.685
312.90 2.683
313.00 2.68
313.10 2.678
313.20 2.676
313.30 2.674
313.40 2.672
313.50 2.67
313.60 2.668
313.70 2.665
313.80 2.663
313.90 2.661
314.00 2.659
314.10 2.657
314.20 2.655
314.30 2.653
314.40 2.651
314.50 2.648
314.60 2.646
314.70 2.644
314.80 2.642
314.90 2.64
315.00 2.638
315.10 2.636
315.20 2.634
315.30 2.632
315.40 2.629
315.50 2.627
315.60 2.625
315.70 2.623
315.80 2.621
315.90 2.619
316.00 2.617
316.10 2.615
316.20 2.613
316.30 2.611
316.40 2.609
316.50 2.607
316.60 2.604
316.70 2.602
316.80 2.6
316.90 2.598
317.00 2.596
317.10 2.594
317.20 2.592
317.30 2.59
317.40 2.588
317.50 2.586
317.60 2.584
317.70 2.582
317.80 2.58
317.90 2.578
318.00 2.576
318.10 2.574
318.20 2.572
318.30 2.57
318.40 2.568
318.50 2.565
318.60 2.563
318.70 2.561
318.80 2.559
318.90 2.557
319.00 2.555
319.10 2.553
319.20 2.551
319.30 2.549
319.40 2.547
319.50 2.545
319.60 2.543
319.70 2.541
319.80 2.539
319.90 2.537
320.00 2.535
320.10 2.533
320.20 2.531
320.30 2.529
320.40 2.527
320.50 2.525
320.60 2.523
320.70 2.521
320.80 2.519
320.90 2.517
321.00 2.515
321.10 2.513
321.20 2.511
321.30 2.509
321.40 2.507
321.50 2.505
321.60 2.503
321.70 2.501
321.80 2.499
321.90 2.498
322.00 2.496
322.10 2.494
322.20 2.492
322.30 2.49
322.40 2.488
322.50 2.486
322.60 2.484
322.70 2.482
322.80 2.48
322.90 2.478
323.00 2.476
323.10 2.474
323.20 2.472
323.30 2.47
323.40 2.468
323.50 2.466
323.60 2.465
323.70 2.463
323.80 2.461
323.90 2.459
324.00 2.457
324.10 2.455
324.20 2.453
324.30 2.451
324.40 2.449
324.50 2.447
324.60 2.445
324.70 2.443
324.80 2.442
324.90 2.44
325.00 2.438
325.10 2.436
325.20 2.434
325.30 2.432
325.40 2.43
325.50 2.428
325.60 2.426
325.70 2.424
325.80 2.423
325.90 2.421
326.00 2.419
326.10 2.417
326.20 2.415
326.30 2.413
326.40 2.411
326.50 2.409
326.60 2.407
326.70 2.406
326.80 2.404
326.90 2.402
327.00 2.4
327.10 2.398
327.20 2.396
327.30 2.394
327.40 2.393
327.50 2.391
327.60 2.389
327.70 2.387
327.80 2.385
327.90 2.383
328.00 2.381
328.10 2.38
328.20 2.378
328.30 2.376
328.40 2.374
328.50 2.372
328.60 2.37
328.70 2.369
328.80 2.367
328.90 2.365
329.00 2.363
329.10 2.361
329.20 2.359
329.30 2.358
329.40 2.356
329.50 2.354
329.60 2.352
329.70 2.35
329.80 2.348
329.90 2.347
330.00 2.345
330.10 2.343
330.20 2.341
330.30 2.339
330.40 2.338
330.50 2.336
330.60 2.334
330.70 2.332
330.80 2.33
330.90 2.329
331.00 2.327
331.10 2.325
331.20 2.323
331.30 2.321
331.40 2.32
331.50 2.318
331.60 2.316
331.70 2.314
331.80 2.312
331.90 2.311
332.00 2.309
332.10 2.307
332.20 2.305
332.30 2.304
332.40 2.302
332.50 2.3
332.60 2.298
332.70 2.296
332.80 2.295
332.90 2.293
333.00 2.291
333.10 2.289
333.20 2.288
333.30 2.286
333.40 2.284
333.50 2.282
333.60 2.281
333.70 2.279
333.80 2.277
333.90 2.276
334.00 2.274
334.10 2.272
334.20 2.27
334.30 2.269
334.40 2.267
334.50 2.265
334.60 2.263
334.70 2.262
334.80 2.26
334.90 2.258
335.00 2.256
335.10 2.255
335.20 2.253
335.30 2.251
335.40 2.25
335.50 2.248
335.60 2.246
335.70 2.244
335.80 2.243
335.90 2.241
336.00 2.239
336.10 2.237
336.20 2.236
336.30 2.234
336.40 2.232
336.50 2.231
336.60 2.229
336.70 2.227
336.80 2.226
336.90 2.224
337.00 2.222
337.10 2.22
337.20 2.219
337.30 2.217
337.40 2.215
337.50 2.214
337.60 2.212
337.70 2.21
337.80 2.209
337.90 2.207
338.00 2.205
338.10 2.204
338.20 2.202
338.30 2.2
338.40 2.199
338.50 2.197
338.60 2.195
338.70 2.194
338.80 2.192
338.90 2.19
339.00 2.189
339.10 2.187
339.20 2.185
339.30 2.184
339.40 2.182
339.50 2.18
339.60 2.179
339.70 2.177
339.80 2.175
339.90 2.174
340.00 2.172
340.10 2.17
340.20 2.169
340.30 2.167
340.40 2.165
340.50 2.164
340.60 2.162
340.70 2.161
340.80 2.159
340.90 2.157
341.00 2.156
341.10 2.154
341.20 2.152
341.30 2.151
341.40 2.149
341.50 2.148
341.60 2.146
341.70 2.144
341.80 2.143
341.90 2.141
342.00 2.14
342.10 2.138
342.20 2.136
342.30 2.135
342.40 2.133
342.50 2.131
342.60 2.13
342.70 2.128
342.80 2.127
342.90 2.125
343.00 2.123
343.10 2.122
343.20 2.12
343.30 2.119
343.40 2.117
343.50 2.115
343.60 2.114
343.70 2.112
343.80 2.111
343.90 2.109
344.00 2.107
344.10 2.106
344.20 2.104
344.30 2.103
344.40 2.101
344.50 2.1
344.60 2.098
344.70 2.096
344.80 2.095
344.90 2.093
345.00 2.092
345.10 2.09
345.20 2.089
345.30 2.087
345.40 2.085
345.50 2.084
345.60 2.082
345.70 2.081
345.80 2.079
345.90 2.078
346.00 2.076
346.10 2.075
346.20 2.073
346.30 2.071
346.40 2.07
346.50 2.068
346.60 2.067
346.70 2.065
346.80 2.064
346.90 2.062
347.00 2.061
347.10 2.059
347.20 2.058
347.30 2.056
347.40 2.055
347.50 2.053
347.60 2.051
347.70 2.05
347.80 2.048
347.90 2.047
348.00 2.045
348.10 2.044
348.20 2.042
348.30 2.041
348.40 2.039
348.50 2.038
348.60 2.036
348.70 2.035
348.80 2.033
348.90 2.032
349.00 2.03
349.10 2.029
349.20 2.027
349.30 2.026
349.40 2.024
349.50 2.023
349.60 2.021
349.70 2.02
349.80 2.018
349.90 2.017
350.00 2.015
350.10 2.014
350.20 2.012
350.30 2.011
350.40 2.009
350.50 2.008
350.60 2.006
350.70 2.005
350.80 2.003
350.90 2.002
351.00 2
351.10 1.999
351.20 1.997
351.30 1.996
351.40 1.994
351.50 1.993
351.60 1.991
351.70 1.99
351.80 1.988
351.90 1.987
352.00 1.985
352.10 1.984
352.20 1.982
352.30 1.981
352.40 1.979
352.50 1.978
352.60 1.977
352.70 1.975
352.80 1.974
352.90 1.972
353.00 1.971
353.10 1.969
353.20 1.968
353.30 1.966
353.40 1.965
353.50 1.963
353.60 1.962
353.70 1.961
353.80 1.959
353.90 1.958
354.00 1.956
354.10 1.955
354.20 1.953
354.30 1.952
354.40 1.95
354.50 1.949
354.60 1.948
354.70 1.946
354.80 1.945
354.90 1.943
355.00 1.942
355.10 1.94
355.20 1.939
355.30 1.938
355.40 1.936
355.50 1.935
355.60 1.933
355.70 1.932
355.80 1.93
355.90 1.929
356.00 1.928
356.10 1.926
356.20 1.925
356.30 1.923
356.40 1.922
356.50 1.921
356.60 1.919
356.70 1.918
356.80 1.916
356.90 1.915
357.00 1.914
357.10 1.912
357.20 1.911
357.30 1.909
357.40 1.908
357.50 1.907
357.60 1.905
357.70 1.904
357.80 1.902
357.90 1.901
358.00 1.9
358.10 1.898
358.20 1.897
358.30 1.895
358.40 1.894
358.50 1.893
358.60 1.891
358.70 1.89
358.80 1.888
358.90 1.887
359.00 1.886
359.10 1.884
359.20 1.883
359.30 1.882
359.40 1.88
359.50 1.879
359.60 1.877
359.70 1.876
359.80 1.875
359.90 1.873
360.00 1.872
360.10 1.871
360.20 1.869
360.30 1.868
360.40 1.867
360.50 1.865
360.60 1.864
360.70 1.862
360.80 1.861
360.90 1.86
361.00 1.858
361.10 1.857
361.20 1.856
361.30 1.854
361.40 1.853
361.50 1.852
361.60 1.85
361.70 1.849
361.80 1.848
361.90 1.846
362.00 1.845
362.10 1.844
362.20 1.842
362.30 1.841
362.40 1.84
362.50 1.838
362.60 1.837
362.70 1.836
362.80 1.834
362.90 1.833
363.00 1.832
363.10 1.83
363.20 1.828
363.30 1.827
363.40 1.825
363.50 1.824
363.60 1.822
363.70 1.821
363.80 1.819
363.90 1.818
364.00 1.816
364.10 1.814
364.20 1.813
364.30 1.811
364.40 1.81
364.50 1.808
364.60 1.807
364.70 1.805
364.80 1.803
364.90 1.802
365.00 1.8
365.10 1.799
365.20 1.797
365.30 1.795
365.40 1.794
365.50 1.792
365.60 1.791
365.70 1.789
365.80 1.788
365.90 1.786
366.00 1.784
366.10 1.783
366.20 1.782
366.30 1.78
366.40 1.779
366.50 1.778
366.60 1.776
366.70 1.775
366.80 1.774
366.90 1.772
367.00 1.771
367.10 1.769
367.20 1.768
367.30 1.767
367.40 1.765
367.50 1.764
367.60 1.763
367.70 1.761
367.80 1.76
367.90 1.759
368.00 1.757
368.10 1.756
368.20 1.755
368.30 1.753
368.40 1.752
368.50 1.751
368.60 1.749
368.70 1.748
368.80 1.747
368.90 1.745
369.00 1.744
369.10 1.743
369.20 1.741
369.30 1.74
369.40 1.739
369.50 1.737
369.60 1.736
369.70 1.734
369.80 1.733
369.90 1.732
370.00 1.73
370.10 1.729
370.20 1.728
370.30 1.726
370.40 1.725
370.50 1.724
370.60 1.723
370.70 1.721
370.80 1.72
370.90 1.719
371.00 1.717
371.10 1.716
371.20 1.715
371.30 1.713
371.40 1.712
371.50 1.711
371.60 1.709
371.70 1.708
371.80 1.707
371.90 1.705
372.00 1.704
372.10 1.703
372.20 1.702
372.30 1.7
372.40 1.699
372.50 1.698
372.60 1.697
372.70 1.695
372.80 1.694
372.90 1.693
373.00 1.692
373.10 1.69
373.20 1.689
373.30 1.688
373.40 1.687
373.50 1.685
373.60 1.684
373.70 1.683
373.80 1.682
373.90 1.681
374.00 1.679
374.10 1.678
374.20 1.677
374.30 1.676
374.40 1.675
374.50 1.673
374.60 1.672
374.70 1.671
374.80 1.67
374.90 1.669
375.00 1.668
375.10 1.666
375.20 1.665
375.30 1.664
375.40 1.663
375.50 1.662
375.60 1.661
375.70 1.659
375.80 1.658
375.90 1.657
376.00 1.656
376.10 1.655
376.20 1.654
376.30 1.653
376.40 1.652
376.50 1.651
376.60 1.65
376.70 1.648
376.80 1.647
376.90 1.646
377.00 1.645
377.10 1.644
377.20 1.643
377.30 1.642
377.40 1.641
377.50 1.64
377.60 1.638
377.70 1.637
377.80 1.636
377.90 1.635
378.00 1.634
378.10 1.633
378.20 1.631
378.30 1.63
378.40 1.629
378.50 1.627
378.60 1.626
378.70 1.625
378.80 1.623
378.90 1.622
379.00 1.621
379.10 1.619
379.20 1.618
379.30 1.617
379.40 1.616
379.50 1.615
379.60 1.614
379.70 1.613
379.80 1.612
379.90 1.61
380.00 1.609
380.10 1.609
380.20 1.608
380.30 1.608
380.40 1.607
380.50 1.607
380.60 1.606
380.70 1.606
380.80 1.605
380.90 1.605
381.00 1.605
381.10 1.604
381.20 1.603
381.30 1.602
381.40 1.602
381.50 1.601
381.60 1.6
381.70 1.599
381.80 1.598
381.90 1.597
382.00 1.596
382.10 1.595
382.20 1.593
382.30 1.591
382.40 1.59
382.50 1.588
382.60 1.586
382.70 1.584
382.80 1.583
382.90 1.581
383.00 1.579
383.10 1.577
383.20 1.575
383.30 1.574
383.40 1.573
383.50 1.572
383.60 1.571
383.70 1.572
383.80 1.572
383.90 1.572
384.00 1.573
384.10 1.573
384.20 1.574
384.30 1.575
384.40 1.576
384.50 1.577
384.60 1.578
384.70 1.578
384.80 1.578
384.90 1.578
385.00 1.579
385.10 1.578
385.20 1.578
385.30 1.578
385.40 1.577
385.50 1.577
385.60 1.576
385.70 1.576
385.80 1.575
385.90 1.574
386.00 1.573
386.10 1.572
386.20 1.571
386.30 1.569
386.40 1.568
386.50 1.566
386.60 1.565
386.70 1.563
386.80 1.561
386.90 1.56
387.00 1.558
387.10 1.556
387.20 1.554
387.30 1.551
387.40 1.549
387.50 1.546
387.60 1.544
387.70 1.541
387.80 1.538
387.90 1.535
388.00 1.532
388.10 1.528
388.20 1.525
388.30 1.521
388.40 1.516
388.50 1.513
388.60 1.509
388.70 1.507
388.80 1.506
388.90 1.504
389.00 1.505
389.10 1.506
389.20 1.507
389.30 1.51
389.40 1.513
389.50 1.517
389.60 1.52
389.70 1.523
389.80 1.526
389.90 1.529
390.00 1.531
390.10 1.533
390.20 1.536
390.30 1.538
390.40 1.54
390.50 1.541
390.60 1.543
390.70 1.544
390.80 1.546
390.90 1.547
391.00 1.548
391.10 1.549
391.20 1.55
391.30 1.55
391.40 1.551
391.50 1.551
391.60 1.552
391.70 1.552
391.80 1.552
391.90 1.552
392.00 1.552
392.10 1.551
392.20 1.551
392.30 1.55
392.40 1.549
392.50 1.548
392.60 1.547
392.70 1.545
392.80 1.544
392.90 1.542
393.00 1.54
393.10 1.538
393.20 1.536
393.30 1.533
393.40 1.531
393.50 1.528
393.60 1.525
393.70 1.522
393.80 1.519
393.90 1.515
394.00 1.512
394.10 1.508
394.20 1.504
394.30 1.499
394.40 1.495
394.50 1.49
394.60 1.485
394.70 1.48
394.80 1.475
394.90 1.47
395.00 1.465
395.10 1.459
395.20 1.453
395.30 1.447
395.40 1.441
395.50 1.435
395.60 1.428
395.70 1.421
395.80 1.414
395.90 1.406
396.00 1.399
396.10 1.392
396.20 1.384
396.30 1.376
396.40 1.367
396.50 1.356
396.60 1.345
396.70 1.334
396.80 1.326
396.90 1.319
397.00 1.312
397.10 1.318
397.20 1.324
397.30 1.331
397.40 1.342
397.50 1.352
397.60 1.362
397.70 1.371
397.80 1.379
397.90 1.386
398.00 1.393
398.10 1.4
398.20 1.407
398.30 1.414
398.40 1.42
398.50 1.427
398.60 1.433
398.70 1.439
398.80 1.444
398.90 1.45
399.00 1.455
399.10 1.46
399.20 1.466
399.30 1.47
399.40 1.475
399.50 1.48
399.60 1.484
399.70 1.489
399.80 1.493
399.90 1.497
400.00 1.5
400.10 1.504
400.20 1.507
400.30 1.511
400.40 1.514
400.50 1.517
400.60 1.519
400.70 1.522
400.80 1.524
400.90 1.527
401.00 1.529
401.10 1.531
401.20 1.532
401.30 1.534
401.40 1.535
401.50 1.537
401.60 1.538
401.70 1.539
401.80 1.54
401.90 1.54
402.00 1.541
402.10 1.541
402.20 1.541
402.30 1.541
402.40 1.541
402.50 1.541
402.60 1.541
402.70 1.54
402.80 1.539
402.90 1.538
403.00 1.537
403.10 1.536
403.20 1.535
403.30 1.533
403.40 1.532
403.50 1.53
403.60 1.528
403.70 1.526
403.80 1.524
403.90 1.521
404.00 1.519
404.10 1.516
404.20 1.513
404.30 1.51
404.40 1.507
404.50 1.503
404.60 1.5
404.70 1.496
404.80 1.492
404.90 1.488
405.00 1.484
405.10 1.479
405.20 1.475
405.30 1.47
405.40 1.465
405.50 1.46
405.60 1.454
405.70 1.449
405.80 1.443
405.90 1.437
406.00 1.431
406.10 1.425
406.20 1.419
406.30 1.412
406.40 1.405
406.50 1.398
406.60 1.391
406.70 1.384
406.80 1.376
406.90 1.368
407.00 1.36
407.10 1.352
407.20 1.343
407.30 1.334
407.40 1.325
407.50 1.316
407.60 1.306
407.70 1.297
407.80 1.287
407.90 1.277
408.00 1.266
408.10 1.256
408.20 1.245
408.30 1.234
408.40 1.223
408.50 1.212
408.60 1.2
408.70 1.188
408.80 1.175
408.90 1.163
409.00 1.15
409.10 1.137
409.20 1.125
409.30 1.113
409.40 1.101
409.50 1.087
409.60 1.074
409.70 1.06
409.80 1.045
409.90 1.031
410.00 1.02
410.10 1.014
410.20 1.012
410.30 1.016
410.40 1.024
410.50 1.036
410.60 1.049
410.70 1.062
410.80 1.076
410.90 1.088
411.00 1.1
411.10 1.111
411.20 1.122
411.30 1.133
411.40 1.145
411.50 1.157
411.60 1.168
411.70 1.18
411.80 1.19
411.90 1.201
412.00 1.211
412.10 1.221
412.20 1.231
412.30 1.24
412.40 1.249
412.50 1.259
412.60 1.268
412.70 1.277
412.80 1.285
412.90 1.294
413.00 1.302
413.10 1.31
413.20 1.318
413.30 1.326
413.40 1.333
413.50 1.341
413.60 1.348
413.70 1.354
413.80 1.361
413.90 1.368
414.00 1.374
414.10 1.38
414.20 1.386
414.30 1.392
414.40 1.398
414.50 1.403
414.60 1.409
414.70 1.414
414.80 1.419
414.90 1.425
415.00 1.43
415.10 1.434
415.20 1.439
415.30 1.444
415.40 1.448
415.50 1.452
415.60 1.457
415.70 1.461
415.80 1.465
415.90 1.469
416.00 1.472
416.10 1.476
416.20 1.48
416.30 1.483
416.40 1.486
416.50 1.49
416.60 1.493
416.70 1.496
416.80 1.499
416.90 1.502
417.00 1.504
417.10 1.507
417.20 1.51
417.30 1.512
417.40 1.514
417.50 1.517
417.60 1.519
417.70 1.521
417.80 1.523
417.90 1.525
418.00 1.527
418.10 1.528
418.20 1.53
418.30 1.532
418.40 1.533
418.50 1.535
418.60 1.536
418.70 1.537
418.80 1.538
418.90 1.54
419.00 1.541
419.10 1.542
419.20 1.543
419.30 1.543
419.40 1.544
419.50 1.545
419.60 1.545
419.70 1.546
419.80 1.546
419.90 1.546
420.00 1.547
420.10 1.547
420.20 1.547
420.30 1.547
420.40 1.547
420.50 1.547
420.60 1.547
420.70 1.547
420.80 1.546
420.90 1.546
421.00 1.545
421.10 1.545
421.20 1.544
421.30 1.544
421.40 1.543
421.50 1.542
421.60 1.541
421.70 1.54
421.80 1.539
421.90 1.538
422.00 1.537
422.10 1.536
422.20 1.534
422.30 1.533
422.40 1.531
422.50 1.53
422.60 1.528
422.70 1.527
422.80 1.525
422.90 1.523
423.00 1.521
423.10 1.519
423.20 1.517
423.30 1.515
423.40 1.513
423.50 1.511
423.60 1.508
423.70 1.506
423.80 1.503
423.90 1.501
424.00 1.498
424.10 1.496
424.20 1.493
424.30 1.49
424.40 1.487
424.50 1.484
424.60 1.481
424.70 1.478
424.80 1.475
424.90 1.472
425.00 1.468
425.10 1.465
425.20 1.461
425.30 1.458
425.40 1.454
425.50 1.45
425.60 1.447
425.70 1.443
425.80 1.439
425.90 1.435
426.00 1.431
426.10 1.426
426.20 1.421
426.30 1.416
426.40 1.412
426.50 1.407
426.60 1.403
426.70 1.398
426.80 1.393
426.90 1.388
427.00 1.384
427.10 1.379
427.20 1.374
427.30 1.368
427.40 1.363
427.50 1.358
427.60 1.352
427.70 1.347
427.80 1.341
427.90 1.336
428.00 1.33
428.10 1.324
428.20 1.318
428.30 1.312
428.40 1.306
428.50 1.299
428.60 1.293
428.70 1.287
428.80 1.28
428.90 1.273
429.00 1.267
429.10 1.26
429.20 1.253
429.30 1.246
429.40 1.238
429.50 1.231
429.60 1.224
429.70 1.216
429.80 1.208
429.90 1.201
430.00 1.193
430.10 1.185
430.20 1.177
430.30 1.168
430.40 1.16
430.50 1.151
430.60 1.143
430.70 1.134
430.80 1.125
430.90 1.115
431.00 1.106
431.10 1.096
431.20 1.087
431.30 1.077
431.40 1.066
431.50 1.056
431.60 1.046
431.70 1.035
431.80 1.024
431.90 1.013
432.00 1.002
432.10 0.9904
432.20 0.9787
432.30 0.9667
432.40 0.9544
432.50 0.9416
432.60 0.9285
432.70 0.9151
432.80 0.9014
432.90 0.8876
433.00 0.8739
433.10 0.8603
433.20 0.8467
433.30 0.833
433.40 0.8191
433.50 0.8048
433.60 0.7901
433.70 0.7712
433.80 0.7472
433.90 0.7182
434.00 0.6887
434.10 0.6893
434.20 0.7198
434.30 0.7476
434.40 0.7704
434.50 0.7881
434.60 0.8019
434.70 0.8153
434.80 0.8283
434.90 0.841
435.00 0.8537
435.10 0.8663
435.20 0.879
435.30 0.8917
435.40 0.9043
435.50 0.9166
435.60 0.9285
435.70 0.9401
435.80 0.9511
435.90 0.9619
436.00 0.9724
436.10 0.9825
436.20 0.9924
436.30 1.002
436.40 1.012
436.50 1.021
436.60 1.03
436.70 1.039
436.80 1.048
436.90 1.056
437.00 1.065
437.10 1.073
437.20 1.081
437.30 1.089
437.40 1.096
437.50 1.104
437.60 1.111
437.70 1.118
437.80 1.125
437.90 1.131
438.00 1.138
438.10 1.145
438.20 1.151
438.30 1.157
438.40 1.163
438.50 1.169
438.60 1.175
438.70 1.181
438.80 1.186
438.90 1.192
439.00 1.197
439.10 1.202
439.20 1.208
439.30 1.213
439.40 1.218
439.50 1.223
439.60 1.228
439.70 1.232
439.80 1.237
439.90 1.242
440.00 1.246
440.10 1.25
440.20 1.255
440.30 1.259
440.40 1.263
440.50 1.267
440.60 1.271
440.70 1.275
440.80 1.278
440.90 1.282
441.00 1.286
441.10 1.289
441.20 1.293
441.30 1.296
441.40 1.299
441.50 1.303
441.60 1.306
441.70 1.309
441.80 1.312
441.90 1.315
442.00 1.318
442.10 1.321
442.20 1.324
442.30 1.326
442.40 1.329
442.50 1.332
442.60 1.334
442.70 1.337
442.80 1.339
442.90 1.342
443.00 1.344
443.10 1.346
443.20 1.349
443.30 1.351
443.40 1.353
443.50 1.355
443.60 1.357
443.70 1.359
443.80 1.361
443.90 1.363
444.00 1.365
444.10 1.367
444.20 1.369
444.30 1.37
444.40 1.372
444.50 1.374
444.60 1.375
444.70 1.377
444.80 1.379
444.90 1.38
445.00 1.382
445.10 1.383
445.20 1.384
445.30 1.386
445.40 1.387
445.50 1.388
445.60 1.389
445.70 1.391
445.80 1.392
445.90 1.393
446.00 1.394
446.10 1.395
446.20 1.396
446.30 1.397
446.40 1.398
446.50 1.399
446.60 1.4
446.70 1.401
446.80 1.402
446.90 1.402
447.00 1.403
447.10 1.404
447.20 1.405
447.30 1.405
447.40 1.406
447.50 1.407
447.60 1.407
447.70 1.408
447.80 1.408
447.90 1.409
448.00 1.409
448.10 1.41
448.20 1.41
448.30 1.411
448.40 1.411
448.50 1.411
448.60 1.412
448.70 1.412
448.80 1.412
448.90 1.413
449.00 1.413
449.10 1.414
449.20 1.414
449.30 1.414
449.40 1.414
449.50 1.414
449.60 1.414
449.70 1.415
449.80 1.415
449.90 1.415
450.00 1.415
450.10 1.415
450.20 1.415
450.30 1.415
450.40 1.415
450.50 1.415
450.60 1.415
450.70 1.415
450.80 1.415
450.90 1.415
451.00 1.415
451.10 1.414
451.20 1.414
451.30 1.414
451.40 1.414
451.50 1.414
451.60 1.414
451.70 1.413
451.80 1.413
451.90 1.413
452.00 1.413
452.10 1.412
452.20 1.412
452.30 1.412
452.40 1.411
452.50 1.411
452.60 1.411
452.70 1.41
452.80 1.41
452.90 1.41
453.00 1.409
453.10 1.409
453.20 1.408
453.30 1.408
453.40 1.408
453.50 1.407
453.60 1.407
453.70 1.406
453.80 1.406
453.90 1.405
454.00 1.405
454.10 1.404
454.20 1.404
454.30 1.403
454.40 1.403
454.50 1.402
454.60 1.401
454.70 1.401
454.80 1.4
454.90 1.4
455.00 1.399
455.10 1.398
455.20 1.398
455.30 1.397
455.40 1.397
455.50 1.396
455.60 1.395
455.70 1.394
455.80 1.394
455.90 1.393
456.00 1.392
456.10 1.392
456.20 1.391
456.30 1.39
456.40 1.39
456.50 1.389
456.60 1.388
456.70 1.387
456.80 1.387
456.90 1.386
457.00 1.385
457.10 1.385
457.20 1.384
457.30 1.383
457.40 1.383
457.50 1.382
457.60 1.381
457.70 1.38
457.80 1.379
457.90 1.378
458.00 1.377
458.10 1.376
458.20 1.376
458.30 1.375
458.40 1.374
458.50 1.373
458.60 1.372
458.70 1.371
458.80 1.37
458.90 1.369
459.00 1.368
459.10 1.367
459.20 1.366
459.30 1.365
459.40 1.364
459.50 1.363
459.60 1.362
459.70 1.361
459.80 1.36
459.90 1.36
460.00 1.359
460.10 1.357
460.20 1.356
460.30 1.355
460.40 1.354
460.50 1.353
460.60 1.352
460.70 1.351
460.80 1.35
460.90 1.349
461.00 1.348
461.10 1.347
461.20 1.346
461.30 1.345
461.40 1.344
461.50 1.342
461.60 1.341
461.70 1.34
461.80 1.339
461.90 1.338
462.00 1.337
462.10 1.336
462.20 1.335
462.30 1.333
462.40 1.332
462.50 1.331
462.60 1.33
462.70 1.329
462.80 1.327
462.90 1.326
463.00 1.325
463.10 1.324
463.20 1.323
463.30 1.321
463.40 1.32
463.50 1.319
463.60 1.317
463.70 1.316
463.80 1.315
463.90 1.314
464.00 1.312
464.10 1.311
464.20 1.31
464.30 1.309
464.40 1.307
464.50 1.306
464.60 1.304
464.70 1.303
464.80 1.302
464.90 1.3
465.00 1.299
465.10 1.298
465.20 1.296
465.30 1.295
465.40 1.293
465.50 1.292
465.60 1.291
465.70 1.289
465.80 1.288
465.90 1.286
466.00 1.285
466.10 1.284
466.20 1.282
466.30 1.281
466.40 1.279
466.50 1.277
466.60 1.276
466.70 1.274
466.80 1.273
466.90 1.271
467.00 1.27
467.10 1.268
467.20 1.267
467.30 1.265
467.40 1.264
467.50 1.262
467.60 1.26
467.70 1.259
467.80 1.257
467.90 1.255
468.00 1.254
468.10 1.252
468.20 1.251
468.30 1.249
468.40 1.247
468.50 1.245
468.60 1.244
468.70 1.242
468.80 1.24
468.90 1.239
469.00 1.237
469.10 1.235
469.20 1.233
469.30 1.232
469.40 1.23
469.50 1.228
469.60 1.226
469.70 1.224
469.80 1.222
469.90 1.221
470.00 1.219
470.10 1.217
470.20 1.215
470.30 1.213
470.40 1.211
470.50 1.209
470.60 1.208
470.70 1.206
470.80 1.204
470.90 1.202
471.00 1.2
471.10 1.198
471.20 1.196
471.30 1.194
471.40 1.192
471.50 1.19
471.60 1.188
471.70 1.186
471.80 1.184
471.90 1.182
472.00 1.18
472.10 1.178
472.20 1.175
472.30 1.173
472.40 1.171
472.50 1.169
472.60 1.166
472.70 1.164
472.80 1.162
472.90 1.16
473.00 1.158
473.10 1.155
473.20 1.153
473.30 1.151
473.40 1.148
473.50 1.146
473.60 1.143
473.70 1.141
473.80 1.139
473.90 1.136
474.00 1.134
474.10 1.131
474.20 1.129
474.30 1.126
474.40 1.124
474.50 1.121
474.60 1.119
474.70 1.116
474.80 1.113
474.90 1.111
475.00 1.108
475.10 1.106
475.20 1.103
475.30 1.1
475.40 1.097
475.50 1.094
475.60 1.092
475.70 1.089
475.80 1.086
475.90 1.083
476.00 1.08
476.10 1.078
476.20 1.075
476.30 1.072
476.40 1.069
476.50 1.066
476.60 1.062
476.70 1.059
476.80 1.056
476.90 1.053
477.00 1.05
477.10 1.047
477.20 1.044
477.30 1.041
477.40 1.037
477.50 1.034
477.60 1.031
477.70 1.028
477.80 1.024
477.90 1.021
478.00 1.018
478.10 1.014
478.20 1.011
478.30 1.007
478.40 1.004
478.50 0.9999
478.60 0.9963
478.70 0.9927
478.80 0.989
478.90 0.9854
479.00 0.9818
479.10 0.9782
479.20 0.9743
479.30 0.9704
479.40 0.9664
479.50 0.9624
479.60 0.9585
479.70 0.9545
479.80 0.9506
479.90 0.9466
480.00 0.9427
480.10 0.9387
480.20 0.9344
480.30 0.93
480.40 0.9256
480.50 0.9212
480.60 0.9168
480.70 0.9124
480.80 0.908
480.90 0.9036
481.00 0.8992
481.10 0.8948
481.20 0.89
481.30 0.885
481.40 0.8801
481.50 0.8751
481.60 0.8702
481.70 0.8652
481.80 0.8603
481.90 0.8553
482.00 0.8504
482.10 0.8455
482.20 0.84
482.30 0.8343
482.40 0.8285
482.50 0.8228
482.60 0.8171
482.70 0.8114
482.80 0.8057
482.90 0.8
483.00 0.7943
483.10 0.7886
483.20 0.782
483.30 0.7749
483.40 0.7679
483.50 0.7609
483.60 0.7539
483.70 0.7468
483.80 0.7398
483.90 0.7328
484.00 0.7258
484.10 0.7188
484.20 0.7107
484.30 0.7021
484.40 0.6935
484.50 0.6849
484.60 0.6763
484.70 0.6666
484.80 0.6565
484.90 0.6464
485.00 0.6363
485.10 0.6261
485.20 0.6155
485.30 0.6047
485.40 0.5934
485.50 0.582
485.60 0.5699
485.70 0.5574
485.80 0.5416
485.90 0.5243
486.00 0.4988
486.10 0.467
486.20 0.4733
486.30 0.5089
486.40 0.5287
486.50 0.5457
486.60 0.5593
486.70 0.5712
486.80 0.5824
486.90 0.5932
487.00 0.6035
487.10 0.6137
487.20 0.6234
487.30 0.6328
487.40 0.6421
487.50 0.6515
487.60 0.6609
487.70 0.6692
487.80 0.6769
487.90 0.6847
488.00 0.6925
488.10 0.7003
488.20 0.7069
488.30 0.713
488.40 0.7191
488.50 0.7251
488.60 0.7312
488.70 0.7373
488.80 0.7434
488.90 0.7494
489.00 0.7555
489.10 0.7615
489.20 0.7666
489.30 0.7713
489.40 0.776
489.50 0.7807
489.60 0.7853
489.70 0.79
489.80 0.7947
489.90 0.7993
490.00 0.804
490.10 0.8086
490.20 0.8127
490.30 0.8165
490.40 0.8203
490.50 0.8241
490.60 0.8278
490.70 0.8316
490.80 0.8354
490.90 0.8392
491.00 0.843
491.10 0.8467
491.20 0.8501
491.30 0.8533
491.40 0.8564
491.50 0.8596
491.60 0.8627
491.70 0.8659
491.80 0.8691
491.90 0.8722
492.00 0.8754
492.10 0.8785
492.20 0.8813
492.30 0.884
492.40 0.8866
492.50 0.8893
492.60 0.8919
492.70 0.8945
492.80 0.8972
492.90 0.8998
493.00 0.9025
493.10 0.9051
493.20 0.9075
493.30 0.9098
493.40 0.912
493.50 0.9143
493.60 0.9166
493.70 0.9188
493.80 0.9211
493.90 0.9233
494.00 0.9256
494.10 0.9279
494.20 0.9299
494.30 0.9317
494.40 0.9336
494.50 0.9355
494.60 0.9374
494.70 0.9392
494.80 0.9411
494.90 0.943
495.00 0.9448
495.10 0.9467
495.20 0.9483
495.30 0.9499
495.40 0.9515
495.50 0.953
495.60 0.9546
495.70 0.9561
495.80 0.9577
495.90 0.9592
496.00 0.9608
496.10 0.9623
496.20 0.9637
496.30 0.965
496.40 0.9663
496.50 0.9676
496.60 0.9689
496.70 0.9702
496.80 0.9715
496.90 0.9728
497.00 0.974
497.10 0.9753
497.20 0.9764
497.30 0.9775
497.40 0.9785
497.50 0.9796
497.60 0.9806
497.70 0.9817
497.80 0.9827
497.90 0.9838
498.00 0.9848
498.10 0.9858
498.20 0.9867
498.30 0.9876
498.40 0.9884
498.50 0.9892
498.60 0.99
498.70 0.9909
498.80 0.9917
498.90 0.9925
499.00 0.9933
499.10 0.9941
499.20 0.9948
499.30 0.9955
499.40 0.9961
499.50 0.9968
499.60 0.9974
499.70 0.9981
499.80 0.9987
499.90 0.9994
500.00 1
500.10 1.001
500.20 1.001
500.30 1.002
500.40 1.002
500.50 1.003
500.60 1.003
500.70 1.004
500.80 1.004
500.90 1.005
501.00 1.005
501.10 1.006
501.20 1.006
501.30 1.006
501.40 1.007
501.50 1.007
501.60 1.007
501.70 1.008
501.80 1.008
501.90 1.008
502.00 1.009
502.10 1.009
502.20 1.009
502.30 1.01
502.40 1.01
502.50 1.01
502.60 1.01
502.70 1.011
502.80 1.011
502.90 1.011
503.00 1.011
503.10 1.011
503.20 1.012
503.30 1.012
503.40 1.012
503.50 1.012
503.60 1.012
503.70 1.012
503.80 1.012
503.90 1.013
504.00 1.013
504.10 1.013
504.20 1.013
504.30 1.013
504.40 1.013
504.50 1.013
504.60 1.013
504.70 1.013
504.80 1.013
504.90 1.013
505.00 1.013
505.10 1.013
505.20 1.013
505.30 1.013
505.40 1.013
505.50 1.013
505.60 1.013
505.70 1.013
505.80 1.013
505.90 1.013
506.00 1.013
506.10 1.013
506.20 1.013
506.30 1.012
506.40 1.012
506.50 1.012
506.60 1.012
506.70 1.012
506.80 1.012
506.90 1.012
507.00 1.012
507.10 1.011
507.20 1.011
507.30 1.011
507.40 1.011
507.50 1.011
507.60 1.011
507.70 1.01
507.80 1.01
507.90 1.01
508.00 1.01
508.10 1.01
508.20 1.01
508.30 1.009
508.40 1.009
508.50 1.009
508.60 1.009
508.70 1.008
508.80 1.008
508.90 1.008
509.00 1.008
509.10 1.007
509.20 1.007
509.30 1.007
509.40 1.007
509.50 1.006
509.60 1.006
509.70 1.006
509.80 1.005
509.90 1.005
510.00 1.005
510.10 1.005
510.20 1.004
510.30 1.004
510.40 1.004
510.50 1.003
510.60 1.003
510.70 1.003
510.80 1.002
510.90 1.002
511.00 1.002
511.10 1.001
511.20 1.001
511.30 1.001
511.40 1
511.50 1
511.60 0.9997
511.70 0.9993
511.80 0.999
511.90 0.9986
512.00 0.9983
512.10 0.9979
512.20 0.9976
512.30 0.9972
512.40 0.9968
512.50 0.9964
512.60 0.996
512.70 0.9956
512.80 0.9953
512.90 0.9949
513.00 0.9945
513.10 0.9941
513.20 0.9937
513.30 0.9933
513.40 0.9929
513.50 0.9925
513.60 0.9921
513.70 0.9917
513.80 0.9913
513.90 0.9909
514.00 0.9905
514.10 0.99
514.20 0.9896
514.30 0.9892
514.40 0.9888
514.50 0.9884
514.60 0.9879
514.70 0.9875
514.80 0.9871
514.90 0.9867
515.00 0.9863
515.10 0.9858
515.20 0.9854
515.30 0.985
515.40 0.9845
515.50 0.9841
515.60 0.9836
515.70 0.9832
515.80 0.9827
515.90 0.9823
516.00 0.9818
516.10 0.9814
516.20 0.9809
516.30 0.9805
516.40 0.98
516.50 0.9796
516.60 0.9791
516.70 0.9787
516.80 0.9782
516.90 0.9778
517.00 0.9773
517.10 0.9769
517.20 0.9764
517.30 0.9759
517.40 0.9755
517.50 0.975
517.60 0.9745
517.70 0.974
517.80 0.9736
517.90 0.9731
518.00 0.9726
518.10 0.9722
518.20 0.9717
518.30 0.9712
518.40 0.9707
518.50 0.9703
518.60 0.9698
518.70 0.9693
518.80 0.9688
518.90 0.9684
519.00 0.9679
519.10 0.9674
519.20 0.9669
519.30 0.9664
519.40 0.9659
519.50 0.9655
519.60 0.965
519.70 0.9645
519.80 0.964
519.90 0.9635
520.00 0.963
520.10 0.9625
520.20 0.9621
520.30 0.9616
520.40 0.9611
520.50 0.9606
520.60 0.9601
520.70 0.9596
520.80 0.9591
520.90 0.9586
521.00 0.9581
521.10 0.9576
521.20 0.9571
521.30 0.9566
521.40 0.9561
521.50 0.9556
521.60 0.9551
521.70 0.9546
521.80 0.9541
521.90 0.9536
522.00 0.9531
522.10 0.9525
522.20 0.952
522.30 0.9515
522.40 0.951
522.50 0.9505
522.60 0.95
522.70 0.9495
522.80 0.949
522.90 0.9485
523.00 0.948
523.10 0.9475
523.20 0.947
523.30 0.9465
523.40 0.9459
523.50 0.9454
523.60 0.9449
523.70 0.9444
523.80 0.9439
523.90 0.9434
524.00 0.9428
524.10 0.9423
524.20 0.9418
524.30 0.9413
524.40 0.9408
524.50 0.9403
524.60 0.9398
524.70 0.9392
524.80 0.9387
524.90 0.9382
525.00 0.9377
525.10 0.9372
525.20 0.9367
525.30 0.9362
525.40 0.9356
525.50 0.9351
525.60 0.9346
525.70 0.9341
525.80 0.9336
525.90 0.933
526.00 0.9325
526.10 0.932
526.20 0.9315
526.30 0.931
526.40 0.9304
526.50 0.9299
526.60 0.9294
526.70 0.9288
526.80 0.9283
526.90 0.9278
527.00 0.9273
527.10 0.9267
527.20 0.9262
527.30 0.9257
527.40 0.9252
527.50 0.9246
527.60 0.9241
527.70 0.9236
527.80 0.9231
527.90 0.9225
528.00 0.922
528.10 0.9215
528.20 0.921
528.30 0.9204
528.40 0.9199
528.50 0.9194
528.60 0.9189
528.70 0.9184
528.80 0.9178
528.90 0.9173
529.00 0.9168
529.10 0.9163
529.20 0.9157
529.30 0.9152
529.40 0.9147
529.50 0.9142
529.60 0.9136
529.70 0.9131
529.80 0.9126
529.90 0.9121
530.00 0.9115
530.10 0.911
530.20 0.9105
530.30 0.91
530.40 0.9094
530.50 0.9089
530.60 0.9084
530.70 0.9078
530.80 0.9073
530.90 0.9068
531.00 0.9063
531.10 0.9057
531.20 0.9052
531.30 0.9047
531.40 0.9041
531.50 0.9036
531.60 0.9031
531.70 0.9026
531.80 0.902
531.90 0.9015
532.00 0.901
532.10 0.9005
532.20 0.8999
532.30 0.8994
532.40 0.8989
532.50 0.8984
532.60 0.8979
532.70 0.8973
532.80 0.8968
532.90 0.8963
533.00 0.8958
533.10 0.8953
533.20 0.8947
533.30 0.8942
533.40 0.8937
533.50 0.8931
533.60 0.8926
533.70 0.8921
533.80 0.8916
533.90 0.891
534.00 0.8905
534.10 0.89
534.20 0.8895
534.30 0.8889
534.40 0.8884
534.50 0.8879
534.60 0.8874
534.70 0.8869
534.80 0.8863
534.90 0.8858
535.00 0.8853
535.10 0.8848
535.20 0.8842
535.30 0.8837
535.40 0.8832
535.50 0.8827
535.60 0.8822
535.70 0.8816
535.80 0.8811
535.90 0.8806
536.00 0.8801
536.10 0.8796
536.20 0.8791
536.30 0.8785
536.40 0.878
536.50 0.8775
536.60 0.877
536.70 0.8765
536.80 0.876
536.90 0.8754
537.00 0.8749
537.10 0.8744
537.20 0.8739
537.30 0.8734
537.40 0.8729
537.50 0.8723
537.60 0.8718
537.70 0.8713
537.80 0.8708
537.90 0.8703
538.00 0.8697
538.10 0.8692
538.20 0.8687
538.30 0.8682
538.40 0.8677
538.50 0.8672
538.60 0.8667
538.70 0.8662
538.80 0.8657
538.90 0.8651
539.00 0.8646
539.10 0.8641
539.20 0.8636
539.30 0.8631
539.40 0.8626
539.50 0.8621
539.60 0.8616
539.70 0.861
539.80 0.8605
539.90 0.86
540.00 0.8595
540.10 0.859
540.20 0.8585
540.30 0.858
540.40 0.8575
540.50 0.857
540.60 0.8564
540.70 0.8559
540.80 0.8554
540.90 0.8549
541.00 0.8544
541.10 0.8539
541.20 0.8534
541.30 0.8529
541.40 0.8524
541.50 0.8519
541.60 0.8514
541.70 0.8509
541.80 0.8503
541.90 0.8498
542.00 0.8493
542.10 0.8488
542.20 0.8483
542.30 0.8478
542.40 0.8473
542.50 0.8468
542.60 0.8463
542.70 0.8458
542.80 0.8453
542.90 0.8448
543.00 0.8443
543.10 0.8438
543.20 0.8433
543.30 0.8428
543.40 0.8423
543.50 0.8418
543.60 0.8413
543.70 0.8408
543.80 0.8403
543.90 0.8398
544.00 0.8393
544.10 0.8388
544.20 0.8383
544.30 0.8378
544.40 0.8373
544.50 0.8368
544.60 0.8363
544.70 0.8358
544.80 0.8353
544.90 0.8348
545.00 0.8343
545.10 0.8338
545.20 0.8333
545.30 0.8328
545.40 0.8323
545.50 0.8318
545.60 0.8313
545.70 0.8308
545.80 0.8304
545.90 0.8299
546.00 0.8294
546.10 0.8289
546.20 0.8286
546.30 0.8283
546.40 0.8281
546.50 0.8278
546.60 0.8276
546.70 0.8273
546.80 0.8271
546.90 0.8268
547.00 0.8266
547.10 0.8264
547.20 0.8259
547.30 0.8254
547.40 0.8249
547.50 0.8244
547.60 0.8239
547.70 0.8234
547.80 0.8229
547.90 0.8224
548.00 0.8219
548.10 0.8214
548.20 0.8209
548.30 0.8204
548.40 0.8199
548.50 0.8194
548.60 0.8189
548.70 0.8184
548.80 0.8179
548.90 0.8174
549.00 0.8169
549.10 0.8164
549.20 0.8159
549.30 0.8154
549.40 0.815
549.50 0.8145
549.60 0.814
549.70 0.8135
549.80 0.813
549.90 0.8125
550.00 0.812
550.10 0.8115
550.20 0.811
550.30 0.8105
550.40 0.8101
550.50 0.8096
550.60 0.8091
550.70 0.8086
550.80 0.8081
550.90 0.8076
551.00 0.8071
551.10 0.8066
551.20 0.8061
551.30 0.8056
551.40 0.8051
551.50 0.8046
551.60 0.8042
551.70 0.8037
551.80 0.8032
551.90 0.8027
552.00 0.8022
552.10 0.8017
552.20 0.8012
552.30 0.8007
552.40 0.8003
552.50 0.7998
552.60 0.7993
552.70 0.7988
552.80 0.7983
552.90 0.7979
553.00 0.7974
553.10 0.7969
553.20 0.7964
553.30 0.7959
553.40 0.7954
553.50 0.795
553.60 0.7945
553.70 0.794
553.80 0.7935
553.90 0.793
554.00 0.7925
554.10 0.7921
554.20 0.7916
554.30 0.7911
554.40 0.7906
554.50 0.7902
554.60 0.7897
554.70 0.7892
554.80 0.7887
554.90 0.7883
555.00 0.7878
555.10 0.7873
555.20 0.7868
555.30 0.7864
555.40 0.7859
555.50 0.7854
555.60 0.785
555.70 0.7845
555.80 0.784
555.90 0.7835
556.00 0.7831
556.10 0.7826
556.20 0.7821
556.30 0.7817
556.40 0.7812
556.50 0.7807
556.60 0.7803
556.70 0.7798
556.80 0.7793
556.90 0.7788
557.00 0.7784
557.10 0.7779
557.20 0.7774
557.30 0.777
557.40 0.7765
557.50 0.776
557.60 0.7756
557.70 0.7751
557.80 0.7746
557.90 0.7741
558.00 0.7737
558.10 0.7732
558.20 0.7727
558.30 0.7723
558.40 0.7718
558.50 0.7714
558.60 0.7709
558.70 0.7704
558.80 0.77
558.90 0.7695
559.00 0.7691
559.10 0.7686
559.20 0.7682
559.30 0.7677
559.40 0.7672
559.50 0.7668
559.60 0.7663
559.70 0.7659
559.80 0.7654
559.90 0.7649
560.00 0.7645
560.10 0.764
560.20 0.7636
560.30 0.7631
560.40 0.7626
560.50 0.7622
560.60 0.7617
560.70 0.7613
560.80 0.7608
560.90 0.7604
561.00 0.7599
561.10 0.7594
561.20 0.759
561.30 0.7585
561.40 0.7581
561.50 0.7576
561.60 0.7572
561.70 0.7567
561.80 0.7563
561.90 0.7558
562.00 0.7554
562.10 0.7549
562.20 0.7544
562.30 0.754
562.40 0.7536
562.50 0.7531
562.60 0.7527
562.70 0.7522
562.80 0.7518
562.90 0.7513
563.00 0.7509
563.10 0.7504
563.20 0.75
563.30 0.7495
563.40 0.7491
563.50 0.7486
563.60 0.7482
563.70 0.7477
563.80 0.7473
563.90 0.7468
564.00 0.7464
564.10 0.746
564.20 0.7455
564.30 0.7451
564.40 0.7446
564.50 0.7442
564.60 0.7437
564.70 0.7433
564.80 0.7429
564.90 0.7424
565.00 0.742
565.10 0.7415
565.20 0.7411
565.30 0.7407
565.40 0.7402
565.50 0.7398
565.60 0.7394
565.70 0.7389
565.80 0.7385
565.90 0.738
566.00 0.7376
566.10 0.7372
566.20 0.7367
566.30 0.7363
566.40 0.7359
566.50 0.7354
566.60 0.735
566.70 0.7346
566.80 0.7341
566.90 0.7337
567.00 0.7332
567.10 0.7328
567.20 0.7324
567.30 0.7319
567.40 0.7315
567.50 0.7311
567.60 0.7306
567.70 0.7302
567.80 0.7297
567.90 0.7293
568.00 0.7289
568.10 0.7284
568.20 0.728
568.30 0.7276
568.40 0.7272
568.50 0.7267
568.60 0.7263
568.70 0.7259
568.80 0.7255
568.90 0.725
569.00 0.7246
569.10 0.7242
569.20 0.7238
569.30 0.7233
569.40 0.7229
569.50 0.7225
569.60 0.722
569.70 0.7216
569.80 0.7212
569.90 0.7208
570.00 0.7203
570.10 0.7199
570.20 0.7195
570.30 0.7191
570.40 0.7186
570.50 0.7182
570.60 0.7178
570.70 0.7174
570.80 0.7169
570.90 0.7165
571.00 0.7161
571.10 0.7157
571.20 0.7152
571.30 0.7148
571.40 0.7144
571.50 0.714
571.60 0.7136
571.70 0.7131
571.80 0.7127
571.90 0.7123
572.00 0.7119
572.10 0.7114
572.20 0.711
572.30 0.7106
572.40 0.7102
572.50 0.7098
572.60 0.7094
572.70 0.709
572.80 0.7085
572.90 0.7081
573.00 0.7077
573.10 0.7073
573.20 0.7069
573.30 0.7065
573.40 0.706
573.50 0.7056
573.60 0.7052
573.70 0.7048
573.80 0.7044
573.90 0.704
574.00 0.7035
574.10 0.7031
574.20 0.7027
574.30 0.7023
574.40 0.7019
574.50 0.7015
574.60 0.7011
574.70 0.7007
574.80 0.7003
574.90 0.6999
575.00 0.6994
575.10 0.699
575.20 0.6986
575.30 0.6982
575.40 0.6978
575.50 0.6974
575.60 0.697
575.70 0.6966
575.80 0.6962
575.90 0.6957
576.00 0.6953
576.10 0.6949
576.20 0.6945
576.30 0.6941
576.40 0.6937
576.50 0.6933
576.60 0.6929
576.70 0.6925
576.80 0.6921
576.90 0.6917
577.00 0.6913
577.10 0.6909
577.20 0.6905
577.30 0.6901
577.40 0.6897
577.50 0.6893
577.60 0.6889
577.70 0.6885
577.80 0.6881
577.90 0.6877
578.00 0.6873
578.10 0.6869
578.20 0.6865
578.30 0.6861
578.40 0.6857
578.50 0.6853
578.60 0.6849
578.70 0.6845
578.80 0.6841
578.90 0.6837
579.00 0.6833
579.10 0.6829
579.20 0.6825
579.30 0.6821
579.40 0.6817
579.50 0.6813
579.60 0.6809
579.70 0.6805
579.80 0.6801
579.90 0.6797
580.00 0.6793
580.10 0.6789
580.20 0.6785
580.30 0.6781
580.40 0.6777
580.50 0.6773
580.60 0.6769
580.70 0.6765
580.80 0.6761
580.90 0.6757
581.00 0.6753
581.10 0.6749
581.20 0.6746
581.30 0.6742
581.40 0.6738
581.50 0.6734
581.60 0.673
581.70 0.6726
581.80 0.6722
581.90 0.6718
582.00 0.6715
582.10 0.6711
582.20 0.6707
582.30 0.6703
582.40 0.6699
582.50 0.6695
582.60 0.6691
582.70 0.6687
582.80 0.6683
582.90 0.668
583.00 0.6676
583.10 0.6672
583.20 0.6668
583.30 0.6664
583.40 0.666
583.50 0.6656
583.60 0.6652
583.70 0.6648
583.80 0.6645
583.90 0.6641
584.00 0.6637
584.10 0.6633
584.20 0.6629
584.30 0.6625
584.40 0.6621
584.50 0.6618
584.60 0.6614
584.70 0.661
584.80 0.6606
584.90 0.6603
585.00 0.6599
585.10 0.6595
585.20 0.6591
585.30 0.6587
585.40 0.6584
585.50 0.658
585.60 0.6576
585.70 0.6572
585.80 0.6568
585.90 0.6565
586.00 0.6561
586.10 0.6557
586.20 0.6553
586.30 0.655
586.40 0.6546
586.50 0.6542
586.60 0.6538
586.70 0.6534
586.80 0.653
586.90 0.6527
587.00 0.6523
587.10 0.6519
587.20 0.6515
587.30 0.6512
587.40 0.6508
587.50 0.6504
587.60 0.65
587.70 0.6497
587.80 0.6493
587.90 0.6489
588.00 0.6485
588.10 0.6482
588.20 0.6478
588.30 0.6474
588.40 0.6471
588.50 0.6467
588.60 0.6463
588.70 0.6459
588.80 0.6456
588.90 0.6452
589.00 0.6448
589.10 0.6445
589.20 0.6441
589.30 0.6437
589.40 0.6433
589.50 0.643
589.60 0.6426
589.70 0.6422
589.80 0.6419
589.90 0.6415
590.00 0.6411
590.10 0.6408
590.20 0.6404
590.30 0.64
590.40 0.6397
590.50 0.6393
590.60 0.6389
590.70 0.6386
590.80 0.6382
590.90 0.6378
591.00 0.6375
591.10 0.6371
591.20 0.6367
591.30 0.6364
591.40 0.636
591.50 0.6356
591.60 0.6353
591.70 0.6349
591.80 0.6345
591.90 0.6342
592.00 0.6338
592.10 0.6334
592.20 0.6331
592.30 0.6327
592.40 0.6324
592.50 0.632
592.60 0.6317
592.70 0.6313
592.80 0.6309
592.90 0.6306
593.00 0.6302
593.10 0.6299
593.20 0.6295
593.30 0.6292
593.40 0.6288
593.50 0.6284
593.60 0.6281
593.70 0.6277
593.80 0.6273
593.90 0.627
594.00 0.6266
594.10 0.6263
594.20 0.6259
594.30 0.6256
594.40 0.6252
594.50 0.6248
594.60 0.6245
594.70 0.6241
594.80 0.6238
594.90 0.6234
595.00 0.623
595.10 0.6227
595.20 0.6223
595.30 0.622
595.40 0.6216
595.50 0.6213
595.60 0.6209
595.70 0.6206
595.80 0.6202
595.90 0.6199
596.00 0.6195
596.10 0.6192
596.20 0.6185
596.30 0.6177
596.40 0.6169
596.50 0.6161
596.60 0.6153
596.70 0.6145
596.80 0.6137
596.90 0.6129
597.00 0.6121
597.10 0.6113
597.20 0.6108
597.30 0.6105
597.40 0.6101
597.50 0.6098
597.60 0.6094
597.70 0.609
597.80 0.6087
597.90 0.6083
598.00 0.608
598.10 0.6076
598.20 0.6072
598.30 0.6069
598.40 0.6065
598.50 0.6061
598.60 0.6058
598.70 0.6054
598.80 0.6051
598.90 0.6047
599.00 0.6044
599.10 0.604
599.20 0.6036
599.30 0.6033
599.40 0.6029
599.50 0.6026
599.60 0.6022
599.70 0.6019
599.80 0.6015
599.90 0.6012
600.00 0.6008
600.10 0.6005
600.20 0.6001
600.30 0.5998
600.40 0.5994
600.50 0.599
600.60 0.5987
600.70 0.5983
600.80 0.598
600.90 0.5976
601.00 0.5973
601.10 0.5969
601.20 0.5966
601.30 0.5962
601.40 0.5958
601.50 0.5955
601.60 0.5951
601.70 0.5948
601.80 0.5944
601.90 0.5941
602.00 0.5937
602.10 0.5934
602.20 0.593
602.30 0.5927
602.40 0.5923
602.50 0.592
602.60 0.5916
602.70 0.5913
602.80 0.5909
602.90 0.5906
603.00 0.5902
603.10 0.5899
603.20 0.5895
603.30 0.5891
603.40 0.5888
603.50 0.5884
603.60 0.5881
603.70 0.5877
603.80 0.5874
603.90 0.587
604.00 0.5867
604.10 0.5863
604.20 0.586
604.30 0.5856
604.40 0.5853
604.50 0.5849
604.60 0.5846
604.70 0.5842
604.80 0.5839
604.90 0.5835
605.00 0.5832
605.10 0.5828
605.20 0.5825
605.30 0.5821
605.40 0.5818
605.50 0.5814
605.60 0.5811
605.70 0.5808
605.80 0.5804
605.90 0.5801
606.00 0.5797
606.10 0.5794
606.20 0.579
606.30 0.5787
606.40 0.5783
606.50 0.578
606.60 0.5776
606.70 0.5773
606.80 0.5769
606.90 0.5766
607.00 0.5762
607.10 0.5759
607.20 0.5755
607.30 0.5752
607.40 0.5749
607.50 0.5745
607.60 0.5742
607.70 0.5738
607.80 0.5735
607.90 0.5731
608.00 0.5728
608.10 0.5725
608.20 0.5721
608.30 0.5718
608.40 0.5714
608.50 0.5711
608.60 0.5707
608.70 0.5704
608.80 0.57
608.90 0.5697
609.00 0.5694
609.10 0.569
609.20 0.5687
609.30 0.5683
609.40 0.568
609.50 0.5676
609.60 0.5673
609.70 0.567
609.80 0.5666
609.90 0.5663
610.00 0.5659
610.10 0.5656
610.20 0.5652
610.30 0.5649
610.40 0.5645
610.50 0.5642
610.60 0.5639
610.70 0.5635
610.80 0.5632
610.90 0.5628
611.00 0.5625
611.10 0.5621
611.20 0.5618
611.30 0.5614
611.40 0.5611
611.50 0.5608
611.60 0.5604
611.70 0.5601
611.80 0.5597
611.90 0.5594
612.00 0.5591
612.10 0.5587
612.20 0.5584
612.30 0.558
612.40 0.5577
612.50 0.5574
612.60 0.557
612.70 0.5567
612.80 0.5563
612.90 0.556
613.00 0.5556
613.10 0.5553
613.20 0.555
613.30 0.5546
613.40 0.5543
613.50 0.5539
613.60 0.5536
613.70 0.5533
613.80 0.5529
613.90 0.5526
614.00 0.5522
614.10 0.5519
614.20 0.5516
614.30 0.5512
614.40 0.5509
614.50 0.5505
614.60 0.5502
614.70 0.5498
614.80 0.5495
614.90 0.5491
615.00 0.5488
615.10 0.5485
615.20 0.5481
615.30 0.5478
615.40 0.5474
615.50 0.5471
615.60 0.5467
615.70 0.5464
615.80 0.5461
615.90 0.5457
616.00 0.5454
616.10 0.545
616.20 0.5447
616.30 0.5444
616.40 0.544
616.50 0.5437
616.60 0.5433
616.70 0.543
616.80 0.5426
616.90 0.5423
617.00 0.5419
617.10 0.5416
617.20 0.5412
617.30 0.5409
617.40 0.5406
617.50 0.5402
617.60 0.5399
617.70 0.5395
617.80 0.5392
617.90 0.5388
618.00 0.5385
618.10 0.5382
618.20 0.5378
618.30 0.5375
618.40 0.5371
618.50 0.5368
618.60 0.5364
618.70 0.5361
618.80 0.5357
618.90 0.5354
619.00 0.535
619.10 0.5347
619.20 0.5344
619.30 0.534
619.40 0.5337
619.50 0.5333
619.60 0.533
619.70 0.5326
619.80 0.5323
619.90 0.5319
620.00 0.5316
620.10 0.5313
620.20 0.5309
620.30 0.5306
620.40 0.5302
620.50 0.5298
620.60 0.5295
620.70 0.5291
620.80 0.5288
620.90 0.5284
621.00 0.5281
621.10 0.5277
621.20 0.5274
621.30 0.527
621.40 0.5267
621.50 0.5263
621.60 0.526
621.70 0.5256
621.80 0.5253
621.90 0.5249
622.00 0.5246
622.10 0.5242
622.20 0.5239
622.30 0.5235
622.40 0.5232
622.50 0.5228
622.60 0.5225
622.70 0.5221
622.80 0.5218
622.90 0.5214
623.00 0.521
623.10 0.5207
623.20 0.5203
623.30 0.52
623.40 0.5196
623.50 0.5193
623.60 0.5189
623.70 0.5186
623.80 0.5182
623.90 0.5178
624.00 0.5175
624.10 0.5171
624.20 0.5168
624.30 0.5164
624.40 0.5161
624.50 0.5157
624.60 0.5153
624.70 0.515
624.80 0.5146
624.90 0.5143
625.00 0.5139
625.10 0.5135
625.20 0.5132
625.30 0.5128
625.40 0.5125
625.50 0.5121
625.60 0.5117
625.70 0.5114
625.80 0.511
625.90 0.5106
626.00 0.5103
626.10 0.5099
626.20 0.5096
626.30 0.5092
626.40 0.5088
626.50 0.5085
626.60 0.5081
626.70 0.5077
626.80 0.5074
626.90 0.507
627.00 0.5066
627.10 0.5063
627.20 0.5059
627.30 0.5055
627.40 0.5052
627.50 0.5048
627.60 0.5044
627.70 0.5041
627.80 0.5037
627.90 0.5033
628.00 0.503
628.10 0.5026
628.20 0.5022
628.30 0.5018
628.40 0.5015
628.50 0.5011
628.60 0.5007
628.70 0.5003
628.80 0.5
628.90 0.4996
629.00 0.4992
629.10 0.4988
629.20 0.4984
629.30 0.4981
629.40 0.4977
629.50 0.4973
629.60 0.4969
629.70 0.4965
629.80 0.4961
629.90 0.4958
630.00 0.4954
630.10 0.495
630.20 0.4946
630.30 0.4942
630.40 0.4938
630.50 0.4934
630.60 0.493
630.70 0.4926
630.80 0.4923
630.90 0.4919
631.00 0.4915
631.10 0.4911
631.20 0.4907
631.30 0.4903
631.40 0.4899
631.50 0.4895
631.60 0.4891
631.70 0.4887
631.80 0.4883
631.90 0.4879
632.00 0.4875
632.10 0.4871
632.20 0.4867
632.30 0.4863
632.40 0.4859
632.50 0.4854
632.60 0.485
632.70 0.4846
632.80 0.4842
632.90 0.4838
633.00 0.4834
633.10 0.483
633.20 0.4826
633.30 0.4821
633.40 0.4817
633.50 0.4813
633.60 0.4809
633.70 0.4804
633.80 0.48
633.90 0.4796
634.00 0.4792
634.10 0.4788
634.20 0.4783
634.30 0.4779
634.40 0.4775
634.50 0.477
634.60 0.4766
634.70 0.4761
634.80 0.4757
634.90 0.4753
635.00 0.4748
635.10 0.4744
635.20 0.4739
635.30 0.4735
635.40 0.473
635.50 0.4726
635.60 0.4721
635.70 0.4717
635.80 0.4712
635.90 0.4708
636.00 0.4703
636.10 0.4699
636.20 0.4694
636.30 0.469
636.40 0.4685
636.50 0.468
636.60 0.4675
636.70 0.4671
636.80 0.4666
636.90 0.4661
637.00 0.4656
637.10 0.4652
637.20 0.4647
637.30 0.4642
637.40 0.4637
637.50 0.4632
637.60 0.4627
637.70 0.4622
637.80 0.4617
637.90 0.4612
638.00 0.4608
638.10 0.4603
638.20 0.4598
638.30 0.4593
638.40 0.4587
638.50 0.4582
638.60 0.4577
638.70 0.4572
638.80 0.4567
638.90 0.4562
639.00 0.4556
639.10 0.4551
639.20 0.4546
639.30 0.4541
639.40 0.4536
639.50 0.453
639.60 0.4525
639.70 0.4519
639.80 0.4514
639.90 0.4508
640.00 0.4503
640.10 0.4498
640.20 0.4492
640.30 0.4487
640.40 0.4481
640.50 0.4475
640.60 0.4469
640.70 0.4464
640.80 0.4458
640.90 0.4452
641.00 0.4447
641.10 0.4441
641.20 0.4435
641.30 0.4429
641.40 0.4423
641.50 0.4417
641.60 0.4411
641.70 0.4405
641.80 0.4399
641.90 0.4393
642.00 0.4387
642.10 0.4381
642.20 0.4375
642.30 0.4369
642.40 0.4363
642.50 0.4356
642.60 0.435
642.70 0.4344
642.80 0.4337
642.90 0.4331
643.00 0.4324
643.10 0.4318
643.20 0.4312
643.30 0.4305
643.40 0.4298
643.50 0.4292
643.60 0.4285
643.70 0.4278
643.80 0.4271
643.90 0.4264
644.00 0.4257
644.10 0.4251
644.20 0.4244
644.30 0.4237
644.40 0.423
644.50 0.4222
644.60 0.4215
644.70 0.4208
644.80 0.4201
644.90 0.4193
645.00 0.4186
645.10 0.4179
645.20 0.4172
645.30 0.4164
645.40 0.4157
645.50 0.4149
645.60 0.4141
645.70 0.4133
645.80 0.4126
645.90 0.4118
646.00 0.411
646.10 0.4102
646.20 0.4095
646.30 0.4087
646.40 0.4078
646.50 0.407
646.60 0.4062
646.70 0.4053
646.80 0.4045
646.90 0.4037
647.00 0.4029
647.10 0.402
647.20 0.4012
647.30 0.4003
647.40 0.3994
647.50 0.3985
647.60 0.3976
647.70 0.3967
647.80 0.3957
647.90 0.3948
648.00 0.3939
648.10 0.393
648.20 0.3921
648.30 0.3911
648.40 0.3901
648.50 0.3891
648.60 0.388
648.70 0.387
648.80 0.3859
648.90 0.3849
649.00 0.3839
649.10 0.3828
649.20 0.3818
649.30 0.3807
649.40 0.3795
649.50 0.3784
649.60 0.3772
649.70 0.376
649.80 0.3748
649.90 0.3737
650.00 0.3725
650.10 0.3713
650.20 0.3702
650.30 0.369
650.40 0.3676
650.50 0.3662
650.60 0.3649
650.70 0.3635
650.80 0.3622
650.90 0.3608
651.00 0.3595
651.10 0.3581
651.20 0.3568
651.30 0.3554
651.40 0.3538
651.50 0.3523
651.60 0.3508
651.70 0.3493
651.80 0.3477
651.90 0.3462
652.00 0.3447
652.10 0.3431
652.20 0.3416
652.30 0.34
652.40 0.3383
652.50 0.3365
652.60 0.3347
652.70 0.333
652.80 0.3312
652.90 0.3294
653.00 0.3277
653.10 0.3259
653.20 0.3241
653.30 0.3223
653.40 0.3202
653.50 0.318
653.60 0.3159
653.70 0.3137
653.80 0.3116
653.90 0.3095
654.00 0.3073
654.10 0.3052
654.20 0.3031
654.30 0.3009
654.40 0.2984
654.50 0.296
654.60 0.2936
654.70 0.2911
654.80 0.2887
654.90 0.2859
655.00 0.2832
655.10 0.2805
655.20 0.2777
655.30 0.2749
655.40 0.2718
655.50 0.2686
655.60 0.2649
655.70 0.2611
655.80 0.2565
655.90 0.2513
656.00 0.2432
656.10 0.2339
656.20 0.2127
656.30 0.1945
656.40 0.2226
656.50 0.2376
656.60 0.2456
656.70 0.2528
656.80 0.2572
656.90 0.2613
657.00 0.2648
657.10 0.2681
657.20 0.2709
657.30 0.2737
657.40 0.2762
657.50 0.2786
657.60 0.2811
657.70 0.2835
657.80 0.2859
657.90 0.2881
658.00 0.2902
658.10 0.2924
658.20 0.2945
658.30 0.2966
658.40 0.2984
658.50 0.3002
658.60 0.3021
658.70 0.3039
658.80 0.3057
658.90 0.3075
659.00 0.3093
659.10 0.3111
659.20 0.313
659.30 0.3147
659.40 0.3161
659.50 0.3175
659.60 0.319
659.70 0.3204
659.80 0.3218
659.90 0.3232
660.00 0.3246
660.10 0.3261
660.20 0.3275
660.30 0.3288
660.40 0.33
660.50 0.3312
660.60 0.3323
660.70 0.3335
660.80 0.3346
660.90 0.3358
661.00 0.337
661.10 0.3381
661.20 0.3393
661.30 0.3404
661.40 0.3413
661.50 0.3423
661.60 0.3433
661.70 0.3442
661.80 0.3452
661.90 0.3461
662.00 0.3471
662.10 0.3481
662.20 0.349
662.30 0.3499
662.40 0.3507
662.50 0.3515
662.60 0.3522
662.70 0.353
662.80 0.3538
662.90 0.3545
663.00 0.3553
663.10 0.3561
663.20 0.3568
663.30 0.3576
663.40 0.3582
663.50 0.3588
663.60 0.3594
663.70 0.36
663.80 0.3606
663.90 0.3613
664.00 0.3619
664.10 0.3625
664.20 0.3631
664.30 0.3637
664.40 0.3642
664.50 0.3647
664.60 0.3652
664.70 0.3656
664.80 0.3661
664.90 0.3666
665.00 0.3671
665.10 0.3676
665.20 0.3681
665.30 0.3685
665.40 0.3689
665.50 0.3693
665.60 0.3697
665.70 0.3701
665.80 0.3705
665.90 0.3709
666.00 0.3713
666.10 0.3716
666.20 0.372
666.30 0.3724
666.40 0.3727
666.50 0.3731
666.60 0.3734
666.70 0.3737
666.80 0.374
666.90 0.3744
667.00 0.3747
667.10 0.375
667.20 0.3753
667.30 0.3756
667.40 0.3759
667.50 0.3762
667.60 0.3764
667.70 0.3767
667.80 0.377
667.90 0.3772
668.00 0.3775
668.10 0.3777
668.20 0.378
668.30 0.3783
668.40 0.3785
668.50 0.3787
668.60 0.3789
668.70 0.3791
668.80 0.3793
668.90 0.3795
669.00 0.3797
669.10 0.38
669.20 0.3802
669.30 0.3804
669.40 0.3805
669.50 0.3807
669.60 0.3809
669.70 0.381
669.80 0.3812
669.90 0.3814
670.00 0.3815
670.10 0.3817
670.20 0.3818
670.30 0.382
670.40 0.3821
670.50 0.3822
670.60 0.3824
670.70 0.3825
670.80 0.3826
670.90 0.3827
671.00 0.3829
671.10 0.383
671.20 0.3831
671.30 0.3832
671.40 0.3833
671.50 0.3834
671.60 0.3835
671.70 0.3836
671.80 0.3836
671.90 0.3837
672.00 0.3838
672.10 0.3839
672.20 0.384
672.30 0.3841
672.40 0.3841
672.50 0.3842
672.60 0.3842
672.70 0.3843
672.80 0.3843
672.90 0.3844
673.00 0.3844
673.10 0.3845
673.20 0.3845
673.30 0.3846
673.40 0.3846
673.50 0.3846
673.60 0.3847
673.70 0.3847
673.80 0.3847
673.90 0.3847
674.00 0.3848
674.10 0.3848
674.20 0.3848
674.30 0.3848
674.40 0.3848
674.50 0.3848
674.60 0.3848
674.70 0.3848
674.80 0.3848
674.90 0.3848
675.00 0.3848
675.10 0.3848
675.20 0.3848
675.30 0.3848
675.40 0.3848
675.50 0.3848
675.60 0.3848
675.70 0.3847
675.80 0.3847
675.90 0.3847
676.00 0.3847
676.10 0.3847
676.20 0.3846
676.30 0.3846
676.40 0.3846
676.50 0.3845
676.60 0.3845
676.70 0.3844
676.80 0.3844
676.90 0.3844
677.00 0.3843
677.10 0.3843
677.20 0.3842
677.30 0.3842
677.40 0.3841
677.50 0.3841
677.60 0.384
677.70 0.384
677.80 0.3839
677.90 0.3838
678.00 0.3838
678.10 0.3837
678.20 0.3837
678.30 0.3836
678.40 0.3835
678.50 0.3835
678.60 0.3834
678.70 0.3833
678.80 0.3832
678.90 0.3832
679.00 0.3831
679.10 0.383
679.20 0.3829
679.30 0.3829
679.40 0.3828
679.50 0.3827
679.60 0.3826
679.70 0.3825
679.80 0.3824
679.90 0.3823
680.00 0.3823
680.10 0.3822
680.20 0.3821
680.30 0.382
680.40 0.3819
680.50 0.3818
680.60 0.3817
680.70 0.3816
680.80 0.3815
680.90 0.3814
681.00 0.3813
681.10 0.3812
681.20 0.3811
681.30 0.381
681.40 0.3809
681.50 0.3808
681.60 0.3807
681.70 0.3806
681.80 0.3805
681.90 0.3804
682.00 0.3803
682.10 0.3802
682.20 0.3801
682.30 0.38
682.40 0.3798
682.50 0.3797
682.60 0.3796
682.70 0.3795
682.80 0.3794
682.90 0.3793
683.00 0.3792
683.10 0.379
683.20 0.3789
683.30 0.3788
683.40 0.3787
683.50 0.3786
683.60 0.3784
683.70 0.3783
683.80 0.3782
683.90 0.3781
684.00 0.378
684.10 0.3778
684.20 0.3777
684.30 0.3776
684.40 0.3775
684.50 0.3773
684.60 0.3772
684.70 0.3771
684.80 0.3769
684.90 0.3768
685.00 0.3767
685.10 0.3766
685.20 0.3764
685.30 0.3763
685.40 0.3762
685.50 0.376
685.60 0.3759
685.70 0.3758
685.80 0.3756
685.90 0.3755
686.00 0.3754
686.10 0.3752
686.20 0.3751
686.30 0.375
686.40 0.3748
686.50 0.3747
686.60 0.3746
686.70 0.3744
686.80 0.3743
686.90 0.3742
687.00 0.374
687.10 0.3739
687.20 0.3737
687.30 0.3736
687.40 0.3735
687.50 0.3733
687.60 0.3732
687.70 0.373
687.80 0.3729
687.90 0.3728
688.00 0.3726
688.10 0.3725
688.20 0.3723
688.30 0.3722
688.40 0.3721
688.50 0.3719
688.60 0.3718
688.70 0.3716
688.80 0.3715
688.90 0.3713
689.00 0.3712
689.10 0.371
689.20 0.3709
689.30 0.3708
689.40 0.3706
689.50 0.3704
689.60 0.3703
689.70 0.3701
689.80 0.37
689.90 0.3698
690.00 0.3696
690.10 0.3695
690.20 0.3693
690.30 0.3692
690.40 0.369
690.50 0.3688
690.60 0.3687
690.70 0.3685
690.80 0.3684
690.90 0.3682
691.00 0.3681
691.10 0.3679
691.20 0.3677
691.30 0.3676
691.40 0.3674
691.50 0.3673
691.60 0.3671
691.70 0.3669
691.80 0.3668
691.90 0.3666
692.00 0.3665
692.10 0.3663
692.20 0.3662
692.30 0.366
692.40 0.3658
692.50 0.3657
692.60 0.3655
692.70 0.3654
692.80 0.3652
692.90 0.3651
693.00 0.3649
693.10 0.3647
693.20 0.3646
693.30 0.3644
693.40 0.3643
693.50 0.3641
693.60 0.364
693.70 0.3638
693.80 0.3637
693.90 0.3635
694.00 0.3633
694.10 0.3632
694.20 0.363
694.30 0.3629
694.40 0.3627
694.50 0.3626
694.60 0.3624
694.70 0.3622
694.80 0.3621
694.90 0.3619
695.00 0.3618
695.10 0.3616
695.20 0.3615
695.30 0.3613
695.40 0.3612
695.50 0.361
695.60 0.3609
695.70 0.3607
695.80 0.3605
695.90 0.3604
696.00 0.3602
696.10 0.3601
696.20 0.3599
696.30 0.3598
696.40 0.3596
696.50 0.3595
696.60 0.3593
696.70 0.3592
696.80 0.359
696.90 0.3588
697.00 0.3587
697.10 0.3585
697.20 0.3584
697.30 0.3582
697.40 0.3581
697.50 0.3579
697.60 0.3578
697.70 0.3576
697.80 0.3575
697.90 0.3573
698.00 0.3572
698.10 0.357
698.20 0.3569
698.30 0.3567
698.40 0.3565
698.50 0.3564
698.60 0.3562
698.70 0.3561
698.80 0.3559
698.90 0.3558
699.00 0.3556
699.10 0.3555
699.20 0.3553
699.30 0.3552
699.40 0.355
699.50 0.3549
699.60 0.3547
699.70 0.3546
699.80 0.3544
699.90 0.3543
700.00 0.3541
700.10 0.354
700.20 0.3538
700.30 0.3537
700.40 0.3535
700.50 0.3534
700.60 0.3532
700.70 0.3531
700.80 0.3529
700.90 0.3528
701.00 0.3526
701.10 0.3525
701.20 0.3523
701.30 0.3522
701.40 0.352
701.50 0.3519
701.60 0.3517
701.70 0.3516
701.80 0.3514
701.90 0.3513
702.00 0.3511
702.10 0.351
702.20 0.3508
702.30 0.3507
702.40 0.3505
702.50 0.3504
702.60 0.3502
702.70 0.3501
702.80 0.3499
702.90 0.3498
703.00 0.3496
703.10 0.3495
703.20 0.3493
703.30 0.3492
703.40 0.349
703.50 0.3489
703.60 0.3487
703.70 0.3486
703.80 0.3485
703.90 0.3483
704.00 0.3482
704.10 0.348
704.20 0.3479
704.30 0.3477
704.40 0.3476
704.50 0.3474
704.60 0.3473
704.70 0.3471
704.80 0.347
704.90 0.3468
705.00 0.3467
705.10 0.3465
705.20 0.3464
705.30 0.3462
705.40 0.346
705.50 0.3459
705.60 0.3457
705.70 0.3456
705.80 0.3454
705.90 0.3452
706.00 0.3451
706.10 0.3449
706.20 0.3447
706.30 0.3446
706.40 0.3444
706.50 0.3443
706.60 0.3441
706.70 0.3439
706.80 0.3438
706.90 0.3436
707.00 0.3435
707.10 0.3433
707.20 0.3431
707.30 0.343
707.40 0.3428
707.50 0.3427
707.60 0.3425
707.70 0.3423
707.80 0.3422
707.90 0.342
708.00 0.3419
708.10 0.3417
708.20 0.3415
708.30 0.3414
708.40 0.3412
708.50 0.3411
708.60 0.3409
708.70 0.3407
708.80 0.3406
708.90 0.3404
709.00 0.3403
709.10 0.3401
709.20 0.34
709.30 0.3398
709.40 0.3396
709.50 0.3395
709.60 0.3393
709.70 0.3392
709.80 0.339
709.90 0.3388
710.00 0.3387
710.10 0.3385
710.20 0.3384
710.30 0.3382
710.40 0.338
710.50 0.3379
710.60 0.3377
710.70 0.3376
710.80 0.3374
710.90 0.3373
711.00 0.3371
711.10 0.3369
711.20 0.3368
711.30 0.3366
711.40 0.3365
711.50 0.3363
711.60 0.3361
711.70 0.336
711.80 0.3358
711.90 0.3357
712.00 0.3355
712.10 0.3354
712.20 0.3352
712.30 0.335
712.40 0.3349
712.50 0.3347
712.60 0.3346
712.70 0.3344
712.80 0.3342
712.90 0.3341
713.00 0.3339
713.10 0.3338
713.20 0.3336
713.30 0.3335
713.40 0.3333
713.50 0.3331
713.60 0.333
713.70 0.3328
713.80 0.3327
713.90 0.3325
714.00 0.3324
714.10 0.3322
714.20 0.3321
714.30 0.3319
714.40 0.3317
714.50 0.3316
714.60 0.3314
714.70 0.3313
714.80 0.3311
714.90 0.331
715.00 0.3308
715.10 0.3307
715.20 0.3305
715.30 0.3304
715.40 0.3302
715.50 0.3301
715.60 0.33
715.70 0.3298
715.80 0.3297
715.90 0.3295
716.00 0.3294
716.10 0.3293
716.20 0.3291
716.30 0.329
716.40 0.3288
716.50 0.3287
716.60 0.3286
716.70 0.3284
716.80 0.3283
716.90 0.3282
717.00 0.328
717.10 0.3279
717.20 0.3277
717.30 0.3276
717.40 0.3275
717.50 0.3273
717.60 0.3272
717.70 0.327
717.80 0.3269
717.90 0.3268
718.00 0.3266
718.10 0.3265
718.20 0.3264
718.30 0.3262
718.40 0.3261
718.50 0.3259
718.60 0.3258
718.70 0.3257
718.80 0.3255
718.90 0.3254
719.00 0.3252
719.10 0.3251
719.20 0.325
719.30 0.3248
719.40 0.3247
719.50 0.3246
719.60 0.3244
719.70 0.3243
719.80 0.3242
719.90 0.324
720.00 0.3239
720.10 0.3237
720.20 0.3236
720.30 0.3234
720.40 0.3233
720.50 0.3231
720.60 0.3229
720.70 0.3228
720.80 0.3226
720.90 0.3225
721.00 0.3223
721.10 0.3222
721.20 0.322
721.30 0.3219
721.40 0.3217
721.50 0.3215
721.60 0.3214
721.70 0.3212
721.80 0.3211
721.90 0.3209
722.00 0.3208
722.10 0.3206
722.20 0.3205
722.30 0.3203
722.40 0.3201
722.50 0.32
722.60 0.3198
722.70 0.3197
722.80 0.3195
722.90 0.3194
723.00 0.3192
723.10 0.3191
723.20 0.3189
723.30 0.3188
723.40 0.3186
723.50 0.3185
723.60 0.3183
723.70 0.3181
723.80 0.318
723.90 0.3178
724.00 0.3177
724.10 0.3175
724.20 0.3174
724.30 0.3172
724.40 0.3171
724.50 0.3169
724.60 0.3168
724.70 0.3166
724.80 0.3165
724.90 0.3163
725.00 0.3162
725.10 0.316
725.20 0.3159
725.30 0.3157
725.40 0.3155
725.50 0.3154
725.60 0.3152
725.70 0.3151
725.80 0.3149
725.90 0.3148
726.00 0.3146
726.10 0.3145
726.20 0.3143
726.30 0.3142
726.40 0.314
726.50 0.3139
726.60 0.3137
726.70 0.3136
726.80 0.3134
726.90 0.3133
727.00 0.3131
727.10 0.313
727.20 0.3128
727.30 0.3127
727.40 0.3125
727.50 0.3124
727.60 0.3122
727.70 0.3121
727.80 0.3119
727.90 0.3118
728.00 0.3116
728.10 0.3115
728.20 0.3113
728.30 0.3112
728.40 0.311
728.50 0.3109
728.60 0.3107
728.70 0.3106
728.80 0.3104
728.90 0.3103
729.00 0.3101
729.10 0.31
729.20 0.3098
729.30 0.3097
729.40 0.3096
729.50 0.3094
729.60 0.3093
729.70 0.3091
729.80 0.309
729.90 0.3088
730.00 0.3087
730.10 0.3085
730.20 0.3084
730.30 0.3082
730.40 0.3081
730.50 0.3079
730.60 0.3078
730.70 0.3076
730.80 0.3075
730.90 0.3073
731.00 0.3072
731.10 0.3071
731.20 0.3069
731.30 0.3068
731.40 0.3066
731.50 0.3065
731.60 0.3063
731.70 0.3062
731.80 0.306
731.90 0.3059
732.00 0.3057
732.10 0.3056
732.20 0.3055
732.30 0.3053
732.40 0.3052
732.50 0.305
732.60 0.3049
732.70 0.3047
732.80 0.3046
732.90 0.3044
733.00 0.3043
733.10 0.3041
733.20 0.304
733.30 0.3039
733.40 0.3037
733.50 0.3036
733.60 0.3034
733.70 0.3033
733.80 0.3031
733.90 0.303
734.00 0.3029
734.10 0.3027
734.20 0.3026
734.30 0.3024
734.40 0.3023
734.50 0.3021
734.60 0.302
734.70 0.3018
734.80 0.3017
734.90 0.3016
735.00 0.3014
735.10 0.3013
735.20 0.3011
735.30 0.301
735.40 0.3008
735.50 0.3007
735.60 0.3006
735.70 0.3004
735.80 0.3003
735.90 0.3001
736.00 0.3
736.10 0.2998
736.20 0.2997
736.30 0.2996
736.40 0.2994
736.50 0.2993
736.60 0.2991
736.70 0.299
736.80 0.2988
736.90 0.2987
737.00 0.2986
737.10 0.2984
737.20 0.2983
737.30 0.2981
737.40 0.298
737.50 0.2979
737.60 0.2977
737.70 0.2976
737.80 0.2974
737.90 0.2973
738.00 0.2971
738.10 0.297
738.20 0.2969
738.30 0.2967
738.40 0.2966
738.50 0.2964
738.60 0.2963
738.70 0.2962
738.80 0.296
738.90 0.2959
739.00 0.2957
739.10 0.2956
739.20 0.2955
739.30 0.2953
739.40 0.2952
739.50 0.295
739.60 0.2949
739.70 0.2948
739.80 0.2946
739.90 0.2945
740.00 0.2943
740.10 0.2942
740.20 0.2941
740.30 0.2939
740.40 0.2938
740.50 0.2936
740.60 0.2935
740.70 0.2934
740.80 0.2932
740.90 0.2931
741.00 0.293
741.10 0.2928
741.20 0.2927
741.30 0.2925
741.40 0.2924
741.50 0.2923
741.60 0.2921
741.70 0.292
741.80 0.2919
741.90 0.2917
742.00 0.2916
742.10 0.2914
742.20 0.2913
742.30 0.2912
742.40 0.291
742.50 0.2909
742.60 0.2908
742.70 0.2906
742.80 0.2905
742.90 0.2904
743.00 0.2902
743.10 0.2901
743.20 0.2899
743.30 0.2898
743.40 0.2897
743.50 0.2895
743.60 0.2894
743.70 0.2893
743.80 0.2891
743.90 0.289
744.00 0.2889
744.10 0.2887
744.20 0.2886
744.30 0.2884
744.40 0.2883
744.50 0.2882
744.60 0.288
744.70 0.2879
744.80 0.2878
744.90 0.2876
745.00 0.2875
745.10 0.2874
745.20 0.2872
745.30 0.2871
745.40 0.287
745.50 0.2868
745.60 0.2867
745.70 0.2866
745.80 0.2864
745.90 0.2863
746.00 0.2862
746.10 0.286
746.20 0.2859
746.30 0.2857
746.40 0.2856
746.50 0.2855
746.60 0.2853
746.70 0.2852
746.80 0.2851
746.90 0.2849
747.00 0.2848
747.10 0.2847
747.20 0.2845
747.30 0.2844
747.40 0.2843
747.50 0.2841
747.60 0.284
747.70 0.2839
747.80 0.2837
747.90 0.2836
748.00 0.2835
748.10 0.2833
748.20 0.2832
748.30 0.2831
748.40 0.2829
748.50 0.2828
748.60 0.2827
748.70 0.2825
748.80 0.2824
748.90 0.2823
749.00 0.2821
749.10 0.282
749.20 0.2819
749.30 0.2817
749.40 0.2816
749.50 0.2815
749.60 0.2814
749.70 0.2812
749.80 0.2811
749.90 0.281
750.00 0.2808
750.10 0.2807
750.20 0.2806
750.30 0.2804
750.40 0.2803
750.50 0.2802
750.60 0.28
750.70 0.2799
750.80 0.2798
750.90 0.2797
751.00 0.2795
751.10 0.2794
751.20 0.2793
751.30 0.2791
751.40 0.279
751.50 0.2789
751.60 0.2787
751.70 0.2786
751.80 0.2785
751.90 0.2784
752.00 0.2782
752.10 0.2781
752.20 0.278
752.30 0.2778
752.40 0.2777
752.50 0.2776
752.60 0.2775
752.70 0.2773
752.80 0.2772
752.90 0.2771
753.00 0.2769
753.10 0.2768
753.20 0.2767
753.30 0.2766
753.40 0.2764
753.50 0.2763
753.60 0.2762
753.70 0.276
753.80 0.2759
753.90 0.2758
754.00 0.2757
754.10 0.2755
754.20 0.2754
754.30 0.2753
754.40 0.2751
754.50 0.275
754.60 0.2749
754.70 0.2748
754.80 0.2746
754.90 0.2745
755.00 0.2744
755.10 0.2743
755.20 0.2741
755.30 0.274
755.40 0.2739
755.50 0.2737
755.60 0.2736
755.70 0.2735
755.80 0.2734
755.90 0.2732
756.00 0.2731
756.10 0.273
756.20 0.2729
756.30 0.2727
756.40 0.2726
756.50 0.2725
756.60 0.2723
756.70 0.2722
756.80 0.2721
756.90 0.272
757.00 0.2718
757.10 0.2717
757.20 0.2716
757.30 0.2715
757.40 0.2713
757.50 0.2712
757.60 0.2711
757.70 0.271
757.80 0.2708
757.90 0.2707
758.00 0.2706
758.10 0.2705
758.20 0.2703
758.30 0.2702
758.40 0.2701
758.50 0.27
758.60 0.2698
758.70 0.2697
758.80 0.2696
758.90 0.2695
759.00 0.2693
759.10 0.2692
759.20 0.2691
759.30 0.269
759.40 0.2688
759.50 0.2687
759.60 0.2686
759.70 0.2685
759.80 0.2683
759.90 0.2682
760.00 0.2681
760.10 0.268
760.20 0.2678
760.30 0.2677
760.40 0.2676
760.50 0.2675
760.60 0.2673
760.70 0.2672
760.80 0.2671
760.90 0.267
761.00 0.2669
761.10 0.2667
761.20 0.2666
761.30 0.2665
761.40 0.2664
761.50 0.2662
761.60 0.2661
761.70 0.266
761.80 0.2659
761.90 0.2658
762.00 0.2656
762.10 0.2655
762.20 0.2654
762.30 0.2653
762.40 0.2651
762.50 0.265
762.60 0.2649
762.70 0.2648
762.80 0.2647
762.90 0.2645
763.00 0.2644
763.10 0.2643
763.20 0.2642
763.30 0.2641
763.40 0.2639
763.50 0.2638
763.60 0.2637
763.70 0.2636
763.80 0.2634
763.90 0.2633
764.00 0.2632
764.10 0.2631
764.20 0.263
764.30 0.2628
764.40 0.2627
764.50 0.2626
764.60 0.2625
764.70 0.2624
764.80 0.2622
764.90 0.2621
765.00 0.262
765.10 0.2619
765.20 0.2618
765.30 0.2616
765.40 0.2615
765.50 0.2614
765.60 0.2613
765.70 0.2612
765.80 0.261
765.90 0.2609
766.00 0.2608
766.10 0.2607
766.20 0.2606
766.30 0.2604
766.40 0.2603
766.50 0.2602
766.60 0.2601
766.70 0.26
766.80 0.2598
766.90 0.2597
767.00 0.2596
767.10 0.2595
767.20 0.2594
767.30 0.2592
767.40 0.2591
767.50 0.259
767.60 0.2589
767.70 0.2588
767.80 0.2587
767.90 0.2585
768.00 0.2584
768.10 0.2583
768.20 0.2582
768.30 0.2581
768.40 0.2579
768.50 0.2578
768.60 0.2577
768.70 0.2576
768.80 0.2575
768.90 0.2574
769.00 0.2572
769.10 0.2571
769.20 0.257
769.30 0.2569
769.40 0.2568
769.50 0.2566
769.60 0.2565
769.70 0.2564
769.80 0.2563
769.90 0.2562
770.00 0.2561
770.10 0.2559
770.20 0.2558
770.30 0.2557
770.40 0.2556
770.50 0.2555
770.60 0.2554
770.70 0.2552
770.80 0.2551
770.90 0.255
771.00 0.2549
771.10 0.2548
771.20 0.2547
771.30 0.2545
771.40 0.2544
771.50 0.2543
771.60 0.2542
771.70 0.2541
771.80 0.254
771.90 0.2539
772.00 0.2537
772.10 0.2536
772.20 0.2535
772.30 0.2534
772.40 0.2533
772.50 0.2532
772.60 0.2531
772.70 0.2529
772.80 0.2528
772.90 0.2527
773.00 0.2526
773.10 0.2525
773.20 0.2524
773.30 0.2522
773.40 0.2521
773.50 0.252
773.60 0.2519
773.70 0.2518
773.80 0.2517
773.90 0.2516
774.00 0.2514
774.10 0.2513
774.20 0.2512
774.30 0.2511
774.40 0.251
774.50 0.2509
774.60 0.2508
774.70 0.2507
774.80 0.2505
774.90 0.2504
775.00 0.2503
775.10 0.2502
775.20 0.2501
775.30 0.25
775.40 0.2499
775.50 0.2497
775.60 0.2496
775.70 0.2495
775.80 0.2494
775.90 0.2493
776.00 0.2492
776.10 0.2491
776.20 0.249
776.30 0.2488
776.40 0.2487
776.50 0.2486
776.60 0.2485
776.70 0.2484
776.80 0.2483
776.90 0.2482
777.00 0.248
777.10 0.2479
777.20 0.2478
777.30 0.2477
777.40 0.2476
777.50 0.2475
777.60 0.2474
777.70 0.2473
777.80 0.2471
777.90 0.247
778.00 0.2469
778.10 0.2468
778.20 0.2467
778.30 0.2466
778.40 0.2465
778.50 0.2464
778.60 0.2463
778.70 0.2461
778.80 0.246
778.90 0.2459
779.00 0.2458
779.10 0.2457
779.20 0.2456
779.30 0.2455
779.40 0.2454
779.50 0.2452
779.60 0.2451
779.70 0.245
779.80 0.2449
779.90 0.2448
780.00 0.2447
780.10 0.2446
780.20 0.2445
780.30 0.2444
780.40 0.2443
780.50 0.2441
780.60 0.244
780.70 0.2439
780.80 0.2438
780.90 0.2437
781.00 0.2436
781.10 0.2435
781.20 0.2434
781.30 0.2433
781.40 0.2432
781.50 0.2431
781.60 0.2429
781.70 0.2428
781.80 0.2427
781.90 0.2426
782.00 0.2425
782.10 0.2424
782.20 0.2423
782.30 0.2422
782.40 0.2421
782.50 0.242
782.60 0.2419
782.70 0.2417
782.80 0.2416
782.90 0.2415
783.00 0.2414
783.10 0.2413
783.20 0.2412
783.30 0.2411
783.40 0.241
783.50 0.2409
783.60 0.2408
783.70 0.2407
783.80 0.2406
783.90 0.2404
784.00 0.2403
784.10 0.2402
784.20 0.2401
784.30 0.24
784.40 0.2399
784.50 0.2398
784.60 0.2397
784.70 0.2396
784.80 0.2395
784.90 0.2394
785.00 0.2393
785.10 0.2392
785.20 0.239
785.30 0.2389
785.40 0.2388
785.50 0.2387
785.60 0.2386
785.70 0.2385
785.80 0.2384
785.90 0.2383
786.00 0.2382
786.10 0.2381
786.20 0.238
786.30 0.2379
786.40 0.2378
786.50 0.2377
786.60 0.2376
786.70 0.2374
786.80 0.2373
786.90 0.2372
787.00 0.2371
787.10 0.237
787.20 0.2369
787.30 0.2368
787.40 0.2367
787.50 0.2366
787.60 0.2365
787.70 0.2364
787.80 0.2363
787.90 0.2362
788.00 0.2361
788.10 0.236
788.20 0.2358
788.30 0.2357
788.40 0.2356
788.50 0.2355
788.60 0.2354
788.70 0.2353
788.80 0.2352
788.90 0.2351
789.00 0.235
789.10 0.2349
789.20 0.2348
789.30 0.2347
789.40 0.2346
789.50 0.2345
789.60 0.2344
789.70 0.2343
789.80 0.2342
789.90 0.2341
790.00 0.234
790.10 0.2338
790.20 0.2337
790.30 0.2336
790.40 0.2335
790.50 0.2334
790.60 0.2333
790.70 0.2332
790.80 0.2331
790.90 0.233
791.00 0.2329
791.10 0.2328
791.20 0.2327
791.30 0.2326
791.40 0.2325
791.50 0.2324
791.60 0.2323
791.70 0.2322
791.80 0.2321
791.90 0.232
792.00 0.2319
792.10 0.2318
792.20 0.2317
792.30 0.2316
792.40 0.2315
792.50 0.2314
792.60 0.2313
792.70 0.2312
792.80 0.2311
792.90 0.231
793.00 0.2309
793.10 0.2308
793.20 0.2307
793.30 0.2306
793.40 0.2304
793.50 0.2303
793.60 0.2302
793.70 0.2301
793.80 0.23
793.90 0.2299
794.00 0.2298
794.10 0.2297
794.20 0.2296
794.30 0.2295
794.40 0.2294
794.50 0.2293
794.60 0.2292
794.70 0.2291
794.80 0.229
794.90 0.2289
795.00 0.2288
795.10 0.2287
795.20 0.2286
795.30 0.2285
795.40 0.2284
795.50 0.2283
795.60 0.2282
795.70 0.2281
795.80 0.228
795.90 0.2279
796.00 0.2278
796.10 0.2277
796.20 0.2276
796.30 0.2275
796.40 0.2274
796.50 0.2273
796.60 0.2272
796.70 0.2271
796.80 0.227
796.90 0.2269
797.00 0.2268
797.10 0.2267
797.20 0.2266
797.30 0.2265
797.40 0.2264
797.50 0.2263
797.60 0.2262
797.70 0.2261
797.80 0.226
797.90 0.2259
798.00 0.2258
798.10 0.2257
798.20 0.2256
798.30 0.2255
798.40 0.2254
798.50 0.2253
798.60 0.2252
798.70 0.2251
798.80 0.225
798.90 0.2249
799.00 0.2248
799.10 0.2247
799.20 0.2246
799.30 0.2245
799.40 0.2244
799.50 0.2243
799.60 0.2242
799.70 0.2241
799.80 0.224
799.90 0.2239
800.00 0.2238
800.10 0.2237
800.20 0.2236
800.30 0.2235
800.40 0.2234
800.50 0.2233
800.60 0.2232
800.70 0.2231
800.80 0.223
800.90 0.2229
801.00 0.2228
801.10 0.2227
801.20 0.2226
801.30 0.2225
801.40 0.2224
801.50 0.2223
801.60 0.2222
801.70 0.2221
801.80 0.222
801.90 0.2219
802.00 0.2218
802.10 0.2217
802.20 0.2216
802.30 0.2215
802.40 0.2215
802.50 0.2214
802.60 0.2213
802.70 0.2212
802.80 0.2211
802.90 0.221
803.00 0.2209
803.10 0.2208
803.20 0.2207
803.30 0.2206
803.40 0.2205
803.50 0.2204
803.60 0.2203
803.70 0.2202
803.80 0.2201
803.90 0.22
804.00 0.2199
804.10 0.2198
804.20 0.2197
804.30 0.2196
804.40 0.2195
804.50 0.2194
804.60 0.2193
804.70 0.2192
804.80 0.2191
804.90 0.219
805.00 0.2189
805.10 0.2188
805.20 0.2187
805.30 0.2186
805.40 0.2186
805.50 0.2185
805.60 0.2184
805.70 0.2183
805.80 0.2182
805.90 0.2181
806.00 0.218
806.10 0.2179
806.20 0.2178
806.30 0.2177
806.40 0.2176
806.50 0.2175
806.60 0.2174
806.70 0.2173
806.80 0.2172
806.90 0.2171
807.00 0.217
807.10 0.2169
807.20 0.2168
807.30 0.2167
807.40 0.2166
807.50 0.2165
807.60 0.2165
807.70 0.2164
807.80 0.2163
807.90 0.2162
808.00 0.2161
808.10 0.216
808.20 0.2159
808.30 0.2158
808.40 0.2157
808.50 0.2156
808.60 0.2155
808.70 0.2154
808.80 0.2153
808.90 0.2152
809.00 0.2151
809.10 0.215
809.20 0.2149
809.30 0.2148
809.40 0.2147
809.50 0.2147
809.60 0.2146
809.70 0.2145
809.80 0.2144
809.90 0.2143
810.00 0.2142
810.10 0.2141
810.20 0.214
810.30 0.2139
810.40 0.2138
810.50 0.2137
810.60 0.2136
810.70 0.2135
810.80 0.2134
810.90 0.2133
811.00 0.2133
811.10 0.2132
811.20 0.2131
811.30 0.213
811.40 0.2129
811.50 0.2128
811.60 0.2127
811.70 0.2126
811.80 0.2125
811.90 0.2124
812.00 0.2123
812.10 0.2122
812.20 0.2121
812.30 0.2121
812.40 0.212
812.50 0.2119
812.60 0.2118
812.70 0.2117
812.80 0.2116
812.90 0.2115
813.00 0.2114
813.10 0.2113
813.20 0.2112
813.30 0.2111
813.40 0.211
813.50 0.211
813.60 0.2109
813.70 0.2108
813.80 0.2107
813.90 0.2106
814.00 0.2105
814.10 0.2104
814.20 0.2103
814.30 0.2102
814.40 0.2101
814.50 0.21
814.60 0.2099
814.70 0.2099
814.80 0.2098
814.90 0.2097
815.00 0.2096
815.10 0.2095
815.20 0.2094
815.30 0.2093
815.40 0.2092
815.50 0.2091
815.60 0.209
815.70 0.2089
815.80 0.2089
815.90 0.2088
816.00 0.2087
816.10 0.2086
816.20 0.2085
816.30 0.2084
816.40 0.2083
816.50 0.2082
816.60 0.2081
816.70 0.208
816.80 0.208
816.90 0.2079
817.00 0.2078
817.10 0.2077
817.20 0.2076
817.30 0.2075
817.40 0.2074
817.50 0.2073
817.60 0.2072
817.70 0.2071
817.80 0.207
817.90 0.207
818.00 0.2069
818.10 0.2068
818.20 0.2067
818.30 0.2066
818.40 0.2065
818.50 0.2064
818.60 0.2063
818.70 0.2062
818.80 0.2062
818.90 0.2061
819.00 0.206
819.10 0.2059
819.20 0.2058
819.30 0.2057
819.40 0.2056
819.50 0.2055
819.60 0.2054
819.70 0.2053
819.80 0.2053
819.90 0.2052
820.00 0.2051
820.10 0.205
820.20 0.2049
820.30 0.2048
820.40 0.2048
820.50 0.2047
820.60 0.2046
820.70 0.2045
820.80 0.2044
820.90 0.2043
821.00 0.2042
821.10 0.2041
821.20 0.204
821.30 0.204
821.40 0.2039
821.50 0.2038
821.60 0.2037
821.70 0.2036
821.80 0.2035
821.90 0.2034
822.00 0.2033
822.10 0.2033
822.20 0.2032
822.30 0.2031
822.40 0.203
822.50 0.2029
822.60 0.2028
822.70 0.2027
822.80 0.2026
822.90 0.2026
823.00 0.2025
823.10 0.2024
823.20 0.2023
823.30 0.2022
823.40 0.2021
823.50 0.202
823.60 0.202
823.70 0.2019
823.80 0.2018
823.90 0.2017
824.00 0.2016
824.10 0.2015
824.20 0.2014
824.30 0.2013
824.40 0.2013
824.50 0.2012
824.60 0.2011
824.70 0.201
824.80 0.2009
824.90 0.2008
825.00 0.2007
825.10 0.2007
825.20 0.2006
825.30 0.2005
825.40 0.2004
825.50 0.2003
825.60 0.2002
825.70 0.2001
825.80 0.2
825.90 0.2
826.00 0.1999
826.10 0.1998
826.20 0.1997
826.30 0.1996
826.40 0.1995
826.50 0.1994
826.60 0.1994
826.70 0.1993
826.80 0.1992
826.90 0.1991
827.00 0.199
827.10 0.1989
827.20 0.1988
827.30 0.1988
827.40 0.1987
827.50 0.1986
827.60 0.1985
827.70 0.1984
827.80 0.1983
827.90 0.1983
828.00 0.1982
828.10 0.1981
828.20 0.198
828.30 0.1979
828.40 0.1978
828.50 0.1977
828.60 0.1977
828.70 0.1976
828.80 0.1975
828.90 0.1974
829.00 0.1973
829.10 0.1972
829.20 0.1972
829.30 0.1971
829.40 0.197
829.50 0.1969
829.60 0.1968
829.70 0.1967
829.80 0.1966
829.90 0.1966
830.00 0.1965
830.10 0.1964
830.20 0.1963
830.30 0.1962
830.40 0.1961
830.50 0.1961
830.60 0.196
830.70 0.1959
830.80 0.1958
830.90 0.1957
831.00 0.1956
831.10 0.1956
831.20 0.1955
831.30 0.1954
831.40 0.1953
831.50 0.1952
831.60 0.1951
831.70 0.1951
831.80 0.195
831.90 0.1949
832.00 0.1948
832.10 0.1947
832.20 0.1946
832.30 0.1946
832.40 0.1945
832.50 0.1944
832.60 0.1943
832.70 0.1942
832.80 0.1941
832.90 0.1941
833.00 0.194
833.10 0.1939
833.20 0.1938
833.30 0.1937
833.40 0.1937
833.50 0.1936
833.60 0.1935
833.70 0.1934
833.80 0.1933
833.90 0.1932
834.00 0.1932
834.10 0.1931
834.20 0.193
834.30 0.1929
834.40 0.1928
834.50 0.1927
834.60 0.1927
834.70 0.1926
834.80 0.1925
834.90 0.1924
835.00 0.1923
835.10 0.1923
835.20 0.1922
835.30 0.1921
835.40 0.192
835.50 0.1919
835.60 0.1918
835.70 0.1918
835.80 0.1917
835.90 0.1916
836.00 0.1915
836.10 0.1914
836.20 0.1914
836.30 0.1913
836.40 0.1912
836.50 0.1911
836.60 0.191
836.70 0.191
836.80 0.1909
836.90 0.1908
837.00 0.1907
837.10 0.1906
837.20 0.1905
837.30 0.1905
837.40 0.1904
837.50 0.1903
837.60 0.1902
837.70 0.1901
837.80 0.1901
837.90 0.19
838.00 0.1899
838.10 0.1898
838.20 0.1897
838.30 0.1897
838.40 0.1896
838.50 0.1895
838.60 0.1894
838.70 0.1893
838.80 0.1893
838.90 0.1892
839.00 0.1891
839.10 0.189
839.20 0.1889
839.30 0.1889
839.40 0.1888
839.50 0.1887
839.60 0.1886
839.70 0.1885
839.80 0.1885
839.90 0.1884
840.00 0.1883
840.10 0.1882
840.20 0.1881
840.30 0.1881
840.40 0.188
840.50 0.1879
840.60 0.1878
840.70 0.1877
840.80 0.1877
840.90 0.1876
841.00 0.1875
841.10 0.1874
841.20 0.1873
841.30 0.1873
841.40 0.1872
841.50 0.1871
841.60 0.187
841.70 0.187
841.80 0.1869
841.90 0.1868
842.00 0.1867
842.10 0.1866
842.20 0.1866
842.30 0.1865
842.40 0.1864
842.50 0.1863
842.60 0.1862
842.70 0.1862
842.80 0.1861
842.90 0.186
843.00 0.1859
843.10 0.1859
843.20 0.1858
843.30 0.1857
843.40 0.1856
843.50 0.1855
843.60 0.1855
843.70 0.1854
843.80 0.1853
843.90 0.1852
844.00 0.1852
844.10 0.1851
844.20 0.185
844.30 0.1849
844.40 0.1848
844.50 0.1848
844.60 0.1847
844.70 0.1846
844.80 0.1845
844.90 0.1845
845.00 0.1844
845.10 0.1843
845.20 0.1842
845.30 0.1841
845.40 0.1841
845.50 0.184
845.60 0.1839
845.70 0.1838
845.80 0.1838
845.90 0.1837
846.00 0.1836
846.10 0.1835
846.20 0.1834
846.30 0.1834
846.40 0.1833
846.50 0.1832
846.60 0.1831
846.70 0.1831
846.80 0.183
846.90 0.1829
847.00 0.1828
847.10 0.1828
847.20 0.1827
847.30 0.1826
847.40 0.1825
847.50 0.1824
847.60 0.1824
847.70 0.1823
847.80 0.1822
847.90 0.1821
848.00 0.1821
848.10 0.182
848.20 0.1819
848.30 0.1818
848.40 0.1818
848.50 0.1817
848.60 0.1816
848.70 0.1815
848.80 0.1815
848.90 0.1814
849.00 0.1813
849.10 0.1812
849.20 0.1812
849.30 0.1811
849.40 0.181
849.50 0.1809
849.60 0.1809
849.70 0.1808
849.80 0.1807
849.90 0.1806
850.00 0.1806
850.10 0.1805
850.20 0.1804
850.30 0.1803
850.40 0.1803
850.50 0.1802
850.60 0.1801
850.70 0.18
850.80 0.18
850.90 0.1799
851.00 0.1798
851.10 0.1797
851.20 0.1797
851.30 0.1796
851.40 0.1795
851.50 0.1794
851.60 0.1794
851.70 0.1793
851.80 0.1792
851.90 0.1791
852.00 0.1791
852.10 0.179
852.20 0.1789
852.30 0.1788
852.40 0.1788
852.50 0.1787
852.60 0.1786
852.70 0.1785
852.80 0.1785
852.90 0.1784
853.00 0.1783
853.10 0.1782
853.20 0.1782
853.30 0.1781
853.40 0.178
853.50 0.1779
853.60 0.1779
853.70 0.1778
853.80 0.1777
853.90 0.1777
854.00 0.1776
854.10 0.1775
854.20 0.1774
854.30 0.1774
854.40 0.1773
854.50 0.1772
854.60 0.1771
854.70 0.1771
854.80 0.177
854.90 0.1769
855.00 0.1768
855.10 0.1768
855.20 0.1767
855.30 0.1766
855.40 0.1765
855.50 0.1765
855.60 0.1764
855.70 0.1763
855.80 0.1763
855.90 0.1762
856.00 0.1761
856.10 0.176
856.20 0.176
856.30 0.1759
856.40 0.1758
856.50 0.1757
856.60 0.1757
856.70 0.1756
856.80 0.1755
856.90 0.1755
857.00 0.1754
857.10 0.1753
857.20 0.1752
857.30 0.1752
857.40 0.1751
857.50 0.175
857.60 0.175
857.70 0.1749
857.80 0.1748
857.90 0.1747
858.00 0.1747
858.10 0.1746
858.20 0.1745
858.30 0.1745
858.40 0.1744
858.50 0.1743
858.60 0.1742
858.70 0.1742
858.80 0.1741
858.90 0.174
859.00 0.1739
859.10 0.1739
859.20 0.1738
859.30 0.1737
859.40 0.1737
859.50 0.1736
859.60 0.1735
859.70 0.1735
859.80 0.1734
859.90 0.1733
860.00 0.1732
860.10 0.1732
860.20 0.1731
860.30 0.173
860.40 0.173
860.50 0.1729
860.60 0.1728
860.70 0.1727
860.80 0.1727
860.90 0.1726
861.00 0.1725
861.10 0.1725
861.20 0.1724
861.30 0.1723
861.40 0.1722
861.50 0.1722
861.60 0.1721
861.70 0.172
861.80 0.172
861.90 0.1719
862.00 0.1718
862.10 0.1718
862.20 0.1717
862.30 0.1716
862.40 0.1715
862.50 0.1715
862.60 0.1714
862.70 0.1713
862.80 0.1713
862.90 0.1712
863.00 0.1711
863.10 0.1711
863.20 0.171
863.30 0.1709
863.40 0.1708
863.50 0.1708
863.60 0.1707
863.70 0.1706
863.80 0.1706
863.90 0.1705
864.00 0.1704
864.10 0.1704
864.20 0.1703
864.30 0.1702
864.40 0.1702
864.50 0.1701
864.60 0.17
864.70 0.1699
864.80 0.1699
864.90 0.1698
865.00 0.1697
865.10 0.1697
865.20 0.1696
865.30 0.1695
865.40 0.1695
865.50 0.1694
865.60 0.1693
865.70 0.1693
865.80 0.1692
865.90 0.1691
866.00 0.1691
866.10 0.169
866.20 0.1689
866.30 0.1688
866.40 0.1688
866.50 0.1687
866.60 0.1686
866.70 0.1686
866.80 0.1685
866.90 0.1684
867.00 0.1684
867.10 0.1683
867.20 0.1682
867.30 0.1682
867.40 0.1681
867.50 0.168
867.60 0.168
867.70 0.1679
867.80 0.1678
867.90 0.1678
868.00 0.1677
868.10 0.1676
868.20 0.1676
868.30 0.1675
868.40 0.1674
868.50 0.1674
868.60 0.1673
868.70 0.1672
868.80 0.1672
868.90 0.1671
869.00 0.167
869.10 0.167
869.20 0.1669
869.30 0.1668
869.40 0.1668
869.50 0.1667
869.60 0.1666
869.70 0.1666
869.80 0.1665
869.90 0.1664
870.00 0.1664
870.10 0.1663
870.20 0.1662
870.30 0.1662
870.40 0.1661
870.50 0.166
870.60 0.166
870.70 0.1659
870.80 0.1658
870.90 0.1658
871.00 0.1657
871.10 0.1656
871.20 0.1656
871.30 0.1655
871.40 0.1654
871.50 0.1654
871.60 0.1653
871.70 0.1652
871.80 0.1652
871.90 0.1651
872.00 0.165
872.10 0.165
872.20 0.1649
872.30 0.1648
872.40 0.1648
872.50 0.1647
872.60 0.1646
872.70 0.1646
872.80 0.1645
872.90 0.1645
873.00 0.1644
873.10 0.1643
873.20 0.1643
873.30 0.1642
873.40 0.1641
873.50 0.1641
873.60 0.164
873.70 0.1639
873.80 0.1639
873.90 0.1638
874.00 0.1637
874.10 0.1637
874.20 0.1636
874.30 0.1635
874.40 0.1635
874.50 0.1634
874.60 0.1634
874.70 0.1633
874.80 0.1632
874.90 0.1632
875.00 0.1631
875.10 0.163
875.20 0.163
875.30 0.1629
875.40 0.1628
875.50 0.1628
875.60 0.1627
875.70 0.1626
875.80 0.1626
875.90 0.1625
876.00 0.1624
876.10 0.1624
876.20 0.1623
876.30 0.1623
876.40 0.1622
876.50 0.1621
876.60 0.1621
876.70 0.162
876.80 0.1619
876.90 0.1619
877.00 0.1618
877.10 0.1617
877.20 0.1617
877.30 0.1616
877.40 0.1616
877.50 0.1615
877.60 0.1614
877.70 0.1614
877.80 0.1613
877.90 0.1612
878.00 0.1612
878.10 0.1611
878.20 0.1611
878.30 0.161
878.40 0.1609
878.50 0.1609
878.60 0.1608
878.70 0.1608
878.80 0.1607
878.90 0.1606
879.00 0.1606
879.10 0.1605
879.20 0.1604
879.30 0.1604
879.40 0.1603
879.50 0.1603
879.60 0.1602
879.70 0.1601
879.80 0.1601
879.90 0.16
880.00 0.1599
880.10 0.1599
880.20 0.1598
880.30 0.1598
880.40 0.1597
880.50 0.1596
880.60 0.1596
880.70 0.1595
880.80 0.1595
880.90 0.1594
881.00 0.1593
881.10 0.1593
881.20 0.1592
881.30 0.1591
881.40 0.1591
881.50 0.159
881.60 0.159
881.70 0.1589
881.80 0.1588
881.90 0.1588
882.00 0.1587
882.10 0.1587
882.20 0.1586
882.30 0.1585
882.40 0.1585
882.50 0.1584
882.60 0.1583
882.70 0.1583
882.80 0.1582
882.90 0.1582
883.00 0.1581
883.10 0.158
883.20 0.158
883.30 0.1579
883.40 0.1579
883.50 0.1578
883.60 0.1577
883.70 0.1577
883.80 0.1576
883.90 0.1575
884.00 0.1575
884.10 0.1574
884.20 0.1574
884.30 0.1573
884.40 0.1572
884.50 0.1572
884.60 0.1571
884.70 0.1571
884.80 0.157
884.90 0.1569
885.00 0.1569
885.10 0.1568
885.20 0.1567
885.30 0.1567
885.40 0.1566
885.50 0.1566
885.60 0.1565
885.70 0.1564
885.80 0.1564
885.90 0.1563
886.00 0.1563
886.10 0.1562
886.20 0.1561
886.30 0.1561
886.40 0.156
886.50 0.156
886.60 0.1559
886.70 0.1558
886.80 0.1558
886.90 0.1557
887.00 0.1557
887.10 0.1556
887.20 0.1555
887.30 0.1555
887.40 0.1554
887.50 0.1554
887.60 0.1553
887.70 0.1553
887.80 0.1552
887.90 0.1551
888.00 0.1551
888.10 0.155
888.20 0.155
888.30 0.1549
888.40 0.1549
888.50 0.1548
888.60 0.1548
888.70 0.1547
888.80 0.1546
888.90 0.1546
889.00 0.1545
889.10 0.1545
889.20 0.1544
889.30 0.1544
889.40 0.1543
889.50 0.1542
889.60 0.1542
889.70 0.1541
889.80 0.1541
889.90 0.154
890.00 0.154
890.10 0.1539
890.20 0.1539
890.30 0.1538
890.40 0.1537
890.50 0.1537
890.60 0.1536
890.70 0.1536
890.80 0.1535
890.90 0.1535
891.00 0.1534
891.10 0.1534
891.20 0.1533
891.30 0.1532
891.40 0.1532
891.50 0.1531
891.60 0.1531
891.70 0.153
891.80 0.153
891.90 0.1529
892.00 0.1529
892.10 0.1528
892.20 0.1527
892.30 0.1527
892.40 0.1526
892.50 0.1526
892.60 0.1525
892.70 0.1525
892.80 0.1524
892.90 0.1523
893.00 0.1523
893.10 0.1522
893.20 0.1522
893.30 0.1521
893.40 0.1521
893.50 0.152
893.60 0.152
893.70 0.1519
893.80 0.1518
893.90 0.1518
894.00 0.1517
894.10 0.1517
894.20 0.1516
894.30 0.1516
894.40 0.1515
894.50 0.1515
894.60 0.1514
894.70 0.1513
894.80 0.1513
894.90 0.1512
895.00 0.1512
895.10 0.1511
895.20 0.1511
895.30 0.151
895.40 0.151
895.50 0.1509
895.60 0.1508
895.70 0.1508
895.80 0.1507
895.90 0.1507
896.00 0.1506
896.10 0.1506
896.20 0.1505
896.30 0.1505
896.40 0.1504
896.50 0.1503
896.60 0.1503
896.70 0.1502
896.80 0.1502
896.90 0.1501
897.00 0.1501
897.10 0.15
897.20 0.1499
897.30 0.1499
897.40 0.1498
897.50 0.1498
897.60 0.1497
897.70 0.1496
897.80 0.1496
897.90 0.1495
898.00 0.1495
898.10 0.1494
898.20 0.1493
898.30 0.1493
898.40 0.1492
898.50 0.1492
898.60 0.1491
898.70 0.149
898.80 0.149
898.90 0.1489
899.00 0.1489
899.10 0.1488
899.20 0.1487
899.30 0.1487
899.40 0.1486
899.50 0.1486
899.60 0.1485
899.70 0.1484
899.80 0.1484
899.90 0.1483
900.00 0.1483
900.10 0.1482
900.20 0.1481
900.30 0.1481
900.40 0.148
900.50 0.148
900.60 0.1479
900.70 0.1478
900.80 0.1478
900.90 0.1477
901.00 0.1477
901.10 0.1476
901.20 0.1475
901.30 0.1475
901.40 0.1474
901.50 0.1474
901.60 0.1473
901.70 0.1472
901.80 0.1472
901.90 0.1471
902.00 0.1471
902.10 0.147
902.20 0.147
902.30 0.1469
902.40 0.1469
902.50 0.1468
902.60 0.1468
902.70 0.1467
902.80 0.1467
902.90 0.1466
903.00 0.1466
903.10 0.1465
903.20 0.1465
903.30 0.1464
903.40 0.1464
903.50 0.1463
903.60 0.1463
903.70 0.1463
903.80 0.1462
903.90 0.1462
904.00 0.1461
904.10 0.1461
904.20 0.146
904.30 0.146
904.40 0.1459
904.50 0.1459
904.60 0.1458
904.70 0.1458
904.80 0.1457
904.90 0.1457
905.00 0.1456
905.10 0.1456
905.20 0.1455
905.30 0.1455
905.40 0.1455
905.50 0.1454
905.60 0.1454
905.70 0.1453
905.80 0.1453
905.90 0.1452
906.00 0.1452
906.10 0.1451
906.20 0.1451
906.30 0.145
906.40 0.145
906.50 0.1449
906.60 0.1449
906.70 0.1448
906.80 0.1448
906.90 0.1447
907.00 0.1447
907.10 0.1447
907.20 0.1446
907.30 0.1446
907.40 0.1445
907.50 0.1445
907.60 0.1444
907.70 0.1444
907.80 0.1443
907.90 0.1443
908.00 0.1442
908.10 0.1442
908.20 0.1441
908.30 0.1441
908.40 0.144
908.50 0.144
908.60 0.1439
908.70 0.1439
908.80 0.1438
908.90 0.1438
909.00 0.1437
909.10 0.1437
909.20 0.1436
909.30 0.1436
909.40 0.1435
909.50 0.1435
909.60 0.1434
909.70 0.1434
909.80 0.1433
909.90 0.1433
910.00 0.1432
910.10 0.1432
910.20 0.1432
910.30 0.1431
910.40 0.1431
910.50 0.143
910.60 0.143
910.70 0.1429
910.80 0.1429
910.90 0.1428
911.00 0.1428
911.10 0.1427
911.20 0.1427
911.30 0.1426
911.40 0.1426
911.50 0.1425
911.60 0.1425
911.70 0.1424
911.80 0.1424
911.90 0.1423
912.00 0.1423
912.10 0.1422
912.20 0.1422
912.30 0.1421
912.40 0.1421
912.50 0.142
912.60 0.142
912.70 0.1419
912.80 0.1419
912.90 0.1418
913.00 0.1418
913.10 0.1417
913.20 0.1417
913.30 0.1416
913.40 0.1416
913.50 0.1415
913.60 0.1415
913.70 0.1414
913.80 0.1414
913.90 0.1413
914.00 0.1413
914.10 0.1412
914.20 0.1412
914.30 0.1411
914.40 0.1411
914.50 0.141
914.60 0.1409
914.70 0.1409
914.80 0.1408
914.90 0.1408
915.00 0.1407
915.10 0.1407
915.20 0.1406
915.30 0.1406
915.40 0.1405
915.50 0.1405
915.60 0.1404
915.70 0.1404
915.80 0.1403
915.90 0.1403
916.00 0.1402
916.10 0.1402
916.20 0.1401
916.30 0.1401
916.40 0.14
916.50 0.14
916.60 0.1399
916.70 0.1399
916.80 0.1398
916.90 0.1398
917.00 0.1397
917.10 0.1397
917.20 0.1396
917.30 0.1396
917.40 0.1395
917.50 0.1394
917.60 0.1394
917.70 0.1393
917.80 0.1393
917.90 0.1392
918.00 0.1392
918.10 0.1391
918.20 0.1391
918.30 0.139
918.40 0.1389
918.50 0.1389
918.60 0.1388
918.70 0.1388
918.80 0.1387
918.90 0.1387
919.00 0.1386
919.10 0.1386
919.20 0.1385
919.30 0.1384
919.40 0.1384
919.50 0.1383
919.60 0.1383
919.70 0.1382
919.80 0.1382
919.90 0.1381
920.00 0.1381
920.10 0.138
920.20 0.1379
920.30 0.1379
920.40 0.1378
920.50 0.1378
920.60 0.1377
920.70 0.1377
920.80 0.1376
920.90 0.1376
921.00 0.1375
921.10 0.1374
921.20 0.1374
921.30 0.1373
921.40 0.1373
921.50 0.1372
921.60 0.1372
921.70 0.1371
921.80 0.1371
921.90 0.137
922.00 0.137
922.10 0.1369
922.20 0.1368
922.30 0.1368
922.40 0.1367
922.50 0.1367
922.60 0.1366
922.70 0.1366
922.80 0.1365
922.90 0.1364
923.00 0.1364
923.10 0.1363
923.20 0.1363
923.30 0.1362
923.40 0.1362
923.50 0.1361
923.60 0.1361
923.70 0.136
923.80 0.1359
923.90 0.1359
924.00 0.1358
924.10 0.1358
924.20 0.1357
924.30 0.1357
924.40 0.1356
924.50 0.1355
924.60 0.1355
924.70 0.1354
924.80 0.1354
924.90 0.1353
925.00 0.1353
925.10 0.1352
925.20 0.1352
925.30 0.1351
925.40 0.135
925.50 0.135
925.60 0.1349
925.70 0.1349
925.80 0.1348
925.90 0.1348
926.00 0.1347
926.10 0.1347
926.20 0.1346
926.30 0.1345
926.40 0.1345
926.50 0.1344
926.60 0.1344
926.70 0.1343
926.80 0.1343
926.90 0.1342
927.00 0.1342
927.10 0.1341
927.20 0.1341
927.30 0.1341
927.40 0.134
927.50 0.134
927.60 0.134
927.70 0.1339
927.80 0.1339
927.90 0.1339
928.00 0.1339
928.10 0.1338
928.20 0.1338
928.30 0.1338
928.40 0.1337
928.50 0.1337
928.60 0.1337
928.70 0.1336
928.80 0.1336
928.90 0.1336
929.00 0.1335
929.10 0.1335
929.20 0.1335
929.30 0.1334
929.40 0.1334
929.50 0.1334
929.60 0.1334
929.70 0.1333
929.80 0.1333
929.90 0.1333
930.00 0.1332
930.10 0.1332
930.20 0.1332
930.30 0.1331
930.40 0.1331
930.50 0.1331
930.60 0.133
930.70 0.133
930.80 0.133
930.90 0.133
931.00 0.1329
931.10 0.1329
931.20 0.1329
931.30 0.1328
931.40 0.1328
931.50 0.1328
931.60 0.1327
931.70 0.1327
931.80 0.1327
931.90 0.1326
932.00 0.1326
932.10 0.1326
932.20 0.1325
932.30 0.1325
932.40 0.1325
932.50 0.1324
932.60 0.1324
932.70 0.1324
932.80 0.1323
932.90 0.1323
933.00 0.1322
933.10 0.1322
933.20 0.1322
933.30 0.1321
933.40 0.1321
933.50 0.1321
933.60 0.132
933.70 0.132
933.80 0.1319
933.90 0.1319
934.00 0.1319
934.10 0.1318
934.20 0.1318
934.30 0.1318
934.40 0.1317
934.50 0.1317
934.60 0.1316
934.70 0.1316
934.80 0.1316
934.90 0.1315
935.00 0.1315
935.10 0.1314
935.20 0.1314
935.30 0.1313
935.40 0.1313
935.50 0.1313
935.60 0.1312
935.70 0.1312
935.80 0.1311
935.90 0.1311
936.00 0.1311
936.10 0.131
936.20 0.131
936.30 0.1309
936.40 0.1309
936.50 0.1309
936.60 0.1308
936.70 0.1308
936.80 0.1307
936.90 0.1307
937.00 0.1307
937.10 0.1306
937.20 0.1306
937.30 0.1305
937.40 0.1305
937.50 0.1305
937.60 0.1304
937.70 0.1304
937.80 0.1303
937.90 0.1303
938.00 0.1302
938.10 0.1302
938.20 0.1302
938.30 0.1301
938.40 0.1301
938.50 0.13
938.60 0.13
938.70 0.1299
938.80 0.1299
938.90 0.1298
939.00 0.1298
939.10 0.1298
939.20 0.1297
939.30 0.1297
939.40 0.1296
939.50 0.1296
939.60 0.1295
939.70 0.1295
939.80 0.1295
939.90 0.1294
940.00 0.1294
940.10 0.1293
940.20 0.1293
940.30 0.1292
940.40 0.1292
940.50 0.1291
940.60 0.1291
940.70 0.1291
940.80 0.129
940.90 0.129
941.00 0.1289
941.10 0.1289
941.20 0.1288
941.30 0.1288
941.40 0.1287
941.50 0.1287
941.60 0.1286
941.70 0.1286
941.80 0.1285
941.90 0.1285
942.00 0.1285
942.10 0.1284
942.20 0.1284
942.30 0.1283
942.40 0.1283
942.50 0.1282
942.60 0.1282
942.70 0.1281
942.80 0.1281
942.90 0.128
943.00 0.128
943.10 0.1279
943.20 0.1279
943.30 0.1278
943.40 0.1278
943.50 0.1277
943.60 0.1277
943.70 0.1276
943.80 0.1276
943.90 0.1275
944.00 0.1275
944.10 0.1274
944.20 0.1274
944.30 0.1273
944.40 0.1273
944.50 0.1272
944.60 0.1272
944.70 0.1271
944.80 0.127
944.90 0.127
945.00 0.1269
945.10 0.1269
945.20 0.1268
945.30 0.1268
945.40 0.1267
945.50 0.1267
945.60 0.1266
945.70 0.1265
945.80 0.1265
945.90 0.1264
946.00 0.1264
946.10 0.1263
946.20 0.1262
946.30 0.1262
946.40 0.1261
946.50 0.1261
946.60 0.126
946.70 0.1259
946.80 0.1259
946.90 0.1258
947.00 0.1258
947.10 0.1257
947.20 0.1256
947.30 0.1256
947.40 0.1255
947.50 0.1254
947.60 0.1254
947.70 0.1253
947.80 0.1252
947.90 0.1251
948.00 0.1251
948.10 0.125
948.20 0.1249
948.30 0.1249
948.40 0.1248
948.50 0.1247
948.60 0.1247
948.70 0.1246
948.80 0.1245
948.90 0.1244
949.00 0.1244
949.10 0.1243
949.20 0.1242
949.30 0.1242
949.40 0.1241
949.50 0.124
949.60 0.1239
949.70 0.1239
949.80 0.1238
949.90 0.1237
950.00 0.1236
950.10 0.1236
950.20 0.1235
950.30 0.1234
950.40 0.1233
950.50 0.1233
950.60 0.1232
950.70 0.1231
950.80 0.123
950.90 0.123
951.00 0.1229
951.10 0.1228
951.20 0.1227
951.30 0.1227
951.40 0.1226
951.50 0.1225
951.60 0.1225
951.70 0.1224
951.80 0.1223
951.90 0.1223
952.00 0.1222
952.10 0.1221
952.20 0.1221
952.30 0.122
952.40 0.122
952.50 0.1219
952.60 0.1219
952.70 0.1218
952.80 0.1218
952.90 0.1217
953.00 0.1217
953.10 0.1217
953.20 0.1216
953.30 0.1216
953.40 0.1216
953.50 0.1216
953.60 0.1216
953.70 0.1217
953.80 0.1218
953.90 0.1218
954.00 0.1219
954.10 0.122
954.20 0.1221
954.30 0.121
954.40 0.12
954.50 0.1199
954.60 0.1197
954.70 0.1195
954.80 0.1194
954.90 0.1192
955.00 0.119
955.10 0.1189
955.20 0.1187
955.30 0.1186
955.40 0.1185
955.50 0.1184
955.60 0.1182
955.70 0.1181
955.80 0.118
955.90 0.1179
956.00 0.1179
956.10 0.1178
956.20 0.1177
956.30 0.1177
956.40 0.1176
956.50 0.1176
956.60 0.1175
956.70 0.1175
956.80 0.1174
956.90 0.1173
957.00 0.1173
957.10 0.1173
957.20 0.1172
957.30 0.1172
957.40 0.1172
957.50 0.1172
957.60 0.1172
957.70 0.1172
957.80 0.1172
957.90 0.1172
958.00 0.1172
958.10 0.1172
958.20 0.1171
958.30 0.1171
958.40 0.1171
958.50 0.1171
958.60 0.1171
958.70 0.1171
958.80 0.1171
958.90 0.1171
959.00 0.1171
959.10 0.1171
959.20 0.1171
959.30 0.117
959.40 0.117
959.50 0.117
959.60 0.117
959.70 0.117
959.80 0.117
959.90 0.117
960.00 0.117
960.10 0.117
960.20 0.117
960.30 0.117
960.40 0.117
960.50 0.117
960.60 0.117
960.70 0.117
960.80 0.117
960.90 0.117
961.00 0.117
961.10 0.117
961.20 0.117
961.30 0.117
961.40 0.117
961.50 0.117
961.60 0.117
961.70 0.117
961.80 0.117
961.90 0.117
962.00 0.117
962.10 0.117
962.20 0.117
962.30 0.117
962.40 0.117
962.50 0.117
962.60 0.117
962.70 0.117
962.80 0.117
962.90 0.117
963.00 0.117
963.10 0.117
963.20 0.117
963.30 0.117
963.40 0.117
963.50 0.117
963.60 0.117
963.70 0.117
963.80 0.117
963.90 0.117
964.00 0.117
964.10 0.117
964.20 0.1169
964.30 0.1169
964.40 0.1169
964.50 0.1169
964.60 0.1169
964.70 0.1169
964.80 0.1169
964.90 0.1169
965.00 0.1169
965.10 0.1169
965.20 0.1168
965.30 0.1168
965.40 0.1168
965.50 0.1168
965.60 0.1168
965.70 0.1168
965.80 0.1168
965.90 0.1168
966.00 0.1168
966.10 0.1167
966.20 0.1167
966.30 0.1167
966.40 0.1167
966.50 0.1167
966.60 0.1167
966.70 0.1167
966.80 0.1166
966.90 0.1166
967.00 0.1166
967.10 0.1166
967.20 0.1166
967.30 0.1166
967.40 0.1165
967.50 0.1165
967.60 0.1165
967.70 0.1165
967.80 0.1165
967.90 0.1164
968.00 0.1164
968.10 0.1164
968.20 0.1164
968.30 0.1164
968.40 0.1164
968.50 0.1163
968.60 0.1163
968.70 0.1163
968.80 0.1163
968.90 0.1162
969.00 0.1162
969.10 0.1162
969.20 0.1162
969.30 0.1162
969.40 0.1161
969.50 0.1161
969.60 0.1161
969.70 0.1161
969.80 0.116
969.90 0.116
970.00 0.116
970.10 0.116
970.20 0.1159
970.30 0.1159
970.40 0.1159
970.50 0.1159
970.60 0.1158
970.70 0.1158
970.80 0.1158
970.90 0.1158
971.00 0.1157
971.10 0.1157
971.20 0.1157
971.30 0.1157
971.40 0.1156
971.50 0.1156
971.60 0.1156
971.70 0.1156
971.80 0.1155
971.90 0.1155
972.00 0.1155
972.10 0.1154
972.20 0.1154
972.30 0.1154
972.40 0.1154
972.50 0.1153
972.60 0.1153
972.70 0.1153
972.80 0.1152
972.90 0.1152
973.00 0.1152
973.10 0.1151
973.20 0.1151
973.30 0.1151
973.40 0.115
973.50 0.115
973.60 0.115
973.70 0.115
973.80 0.1149
973.90 0.1149
974.00 0.1149
974.10 0.1148
974.20 0.1148
974.30 0.1148
974.40 0.1147
974.50 0.1147
974.60 0.1147
974.70 0.1146
974.80 0.1146
974.90 0.1146
975.00 0.1145
975.10 0.1145
975.20 0.1145
975.30 0.1144
975.40 0.1144
975.50 0.1144
975.60 0.1143
975.70 0.1143
975.80 0.1143
975.90 0.1142
976.00 0.1142
976.10 0.1142
976.20 0.1141
976.30 0.1141
976.40 0.1141
976.50 0.114
976.60 0.114
976.70 0.114
976.80 0.1139
976.90 0.1139
977.00 0.1138
977.10 0.1138
977.20 0.1138
977.30 0.1137
977.40 0.1137
977.50 0.1136
977.60 0.1136
977.70 0.1136
977.80 0.1135
977.90 0.1135
978.00 0.1135
978.10 0.1134
978.20 0.1134
978.30 0.1133
978.40 0.1133
978.50 0.1133
978.60 0.1132
978.70 0.1132
978.80 0.1131
978.90 0.1131
979.00 0.1131
979.10 0.113
979.20 0.113
979.30 0.1129
979.40 0.1129
979.50 0.1129
979.60 0.1128
979.70 0.1128
979.80 0.1127
979.90 0.1127
980.00 0.1127
980.10 0.1126
980.20 0.1126
980.30 0.1125
980.40 0.1125
980.50 0.1125
980.60 0.1124
980.70 0.1124
980.80 0.1123
980.90 0.1123
981.00 0.1123
981.10 0.1122
981.20 0.1122
981.30 0.1121
981.40 0.1121
981.50 0.1121
981.60 0.112
981.70 0.112
981.80 0.1119
981.90 0.1119
982.00 0.1119
982.10 0.1118
982.20 0.1118
982.30 0.1117
982.40 0.1117
982.50 0.1116
982.60 0.1116
982.70 0.1115
982.80 0.1115
982.90 0.1115
983.00 0.1114
983.10 0.1114
983.20 0.1113
983.30 0.1113
983.40 0.1112
983.50 0.1112
983.60 0.1111
983.70 0.1111
983.80 0.111
983.90 0.111
984.00 0.111
984.10 0.1109
984.20 0.1109
984.30 0.1108
984.40 0.1108
984.50 0.1107
984.60 0.1107
984.70 0.1106
984.80 0.1106
984.90 0.1105
985.00 0.1105
985.10 0.1104
985.20 0.1104
985.30 0.1103
985.40 0.1103
985.50 0.1102
985.60 0.1102
985.70 0.1101
985.80 0.1101
985.90 0.11
986.00 0.11
986.10 0.1099
986.20 0.1098
986.30 0.1098
986.40 0.1097
986.50 0.1097
986.60 0.1096
986.70 0.1096
986.80 0.1095
986.90 0.1095
987.00 0.1094
987.10 0.1094
987.20 0.1093
987.30 0.1093
987.40 0.1092
987.50 0.1091
987.60 0.1091
987.70 0.109
987.80 0.109
987.90 0.1089
988.00 0.1088
988.10 0.1088
988.20 0.1087
988.30 0.1087
988.40 0.1086
988.50 0.1086
988.60 0.1085
988.70 0.1084
988.80 0.1084
988.90 0.1083
989.00 0.1082
989.10 0.1082
989.20 0.1081
989.30 0.108
989.40 0.108
989.50 0.1079
989.60 0.1078
989.70 0.1078
989.80 0.1077
989.90 0.1076
990.00 0.1076
990.10 0.1075
990.20 0.1074
990.30 0.1074
990.40 0.1073
990.50 0.1072
990.60 0.1072
990.70 0.1071
990.80 0.107
990.90 0.1069
991.00 0.1069
991.10 0.1068
991.20 0.1067
991.30 0.1066
991.40 0.1066
991.50 0.1065
991.60 0.1064
991.70 0.1063
991.80 0.1062
991.90 0.1062
992.00 0.1061
992.10 0.106
992.20 0.1059
992.30 0.1058
992.40 0.1058
992.50 0.1057
992.60 0.1056
992.70 0.1055
992.80 0.1054
992.90 0.1053
993.00 0.1052
993.10 0.1051
993.20 0.105
993.30 0.105
993.40 0.1049
993.50 0.1048
993.60 0.1047
993.70 0.1046
993.80 0.1045
993.90 0.1044
994.00 0.1043
994.10 0.1042
994.20 0.1041
994.30 0.104
994.40 0.1039
994.50 0.1038
994.60 0.1038
994.70 0.1037
994.80 0.1035
994.90 0.1034
995.00 0.1033
995.10 0.1032
995.20 0.1031
995.30 0.103
995.40 0.1029
995.50 0.1028
995.60 0.1027
995.70 0.1026
995.80 0.1025
995.90 0.1024
996.00 0.1023
996.10 0.1022
996.20 0.1021
996.30 0.102
996.40 0.1018
996.50 0.1017
996.60 0.1016
996.70 0.1015
996.80 0.1014
996.90 0.1013
997.00 0.1012
997.10 0.1011
997.20 0.1009
997.30 0.1008
997.40 0.1007
997.50 0.1006
997.60 0.1005
997.70 0.1004
997.80 0.1003
997.90 0.1001
998.00 0.1
998.10 0.09991
998.20 0.09979
998.30 0.09968
998.40 0.09956
998.50 0.09944
998.60 0.09933
998.70 0.09921
998.80 0.0991
998.90 0.09898
999.00 0.09887
999.10 0.09875
999.20 0.09863
999.30 0.09852
999.40 0.0984
999.50 0.09829
999.60 0.09817
999.70 0.09807
999.80 0.09797
999.90 0.09787
1000.00 0.09777
1000.10 0.09767
1000.20 0.09757
1000.30 0.09747
1000.40 0.09737
1000.50 0.09727
1000.60 0.09717
1000.70 0.09707
1000.80 0.09697
1000.90 0.09687
1001.00 0.09677
1001.10 0.09667
1001.20 0.09657
1001.30 0.09647
1001.40 0.09638
1001.50 0.09628
1001.60 0.09618
1001.70 0.0961
1001.80 0.09602
1001.90 0.09595
1002.00 0.09587
1002.10 0.09583
1002.20 0.09579
1002.30 0.09574
1002.40 0.0957
1002.50 0.09566
1002.60 0.09562
1002.70 0.09557
1002.80 0.09553
1002.90 0.09549
1003.00 0.09545
1003.10 0.0954
1003.20 0.09549
1003.30 0.09562
1003.40 0.09575
1003.50 0.09588
1003.60 0.09601
1003.70 0.09615
1003.80 0.09628
1003.90 0.09645
1004.00 0.09664
1004.10 0.09683
1004.20 0.09702
1004.30 0.09722
1004.40 0.09743
1004.50 0.0976
1004.60 0.09768
1004.70 0.09375
1004.80 0.09359
1004.90 0.09335
1005.00 0.09312
1005.10 0.0929
1005.20 0.09268
1005.30 0.09247
1005.40 0.09225
1005.50 0.09208
1005.60 0.09193
1005.70 0.09177
1005.80 0.09162
1005.90 0.09146
1006.00 0.09131
1006.10 0.09115
1006.20 0.09105
1006.30 0.09096
1006.40 0.09087
1006.50 0.09079
1006.60 0.0907
1006.70 0.09061
1006.80 0.09053
1006.90 0.09044
1007.00 0.09035
1007.10 0.09031
1007.20 0.09027
1007.30 0.09023
1007.40 0.09019
1007.50 0.09014
1007.60 0.0901
1007.70 0.09009
1007.80 0.09009
1007.90 0.0901
1008.00 0.0901
1008.10 0.0901
1008.20 0.0901
1008.30 0.0901
1008.40 0.0901
1008.50 0.0901
1008.60 0.0901
1008.70 0.0901
1008.80 0.0901
1008.90 0.0901
1009.00 0.0901
1009.10 0.09011
1009.20 0.09011
1009.30 0.09011
1009.40 0.09011
1009.50 0.09011
1009.60 0.09011
1009.70 0.09013
1009.80 0.09015
1009.90 0.09018
1010.00 0.0902
1010.10 0.09022
1010.20 0.09025
1010.30 0.09027
1010.40 0.0903
1010.50 0.09032
1010.60 0.09035
1010.70 0.09037
1010.80 0.09039
1010.90 0.09042
1011.00 0.09044
1011.10 0.09047
1011.20 0.09049
1011.30 0.09051
1011.40 0.09054
1011.50 0.09056
1011.60 0.09058
1011.70 0.09061
1011.80 0.09064
1011.90 0.09067
1012.00 0.0907
1012.10 0.09073
1012.20 0.09076
1012.30 0.09078
1012.40 0.09081
1012.50 0.09084
1012.60 0.09087
1012.70 0.0909
1012.80 0.09092
1012.90 0.09095
1013.00 0.09098
1013.10 0.09101
1013.20 0.09104
1013.30 0.09106
1013.40 0.09109
1013.50 0.09112
1013.60 0.09115
1013.70 0.09118
1013.80 0.0912
1013.90 0.09123
1014.00 0.09125
1014.10 0.09128
1014.20 0.0913
1014.30 0.09133
1014.40 0.09135
1014.50 0.09138
1014.60 0.09141
1014.70 0.09143
1014.80 0.09145
1014.90 0.09147
1015.00 0.09149
1015.10 0.09152
1015.20 0.09154
1015.30 0.09156
1015.40 0.09158
1015.50 0.0916
1015.60 0.09163
1015.70 0.09165
1015.80 0.09167
1015.90 0.09169
1016.00 0.09171
1016.10 0.09174
1016.20 0.09176
1016.30 0.09178
1016.40 0.0918
1016.50 0.09182
1016.60 0.09184
1016.70 0.09186
1016.80 0.09188
1016.90 0.0919
1017.00 0.09192
1017.10 0.09193
1017.20 0.09195
1017.30 0.09196
1017.40 0.09198
1017.50 0.09199
1017.60 0.09201
1017.70 0.09203
1017.80 0.09204
1017.90 0.09206
1018.00 0.09207
1018.10 0.09209
1018.20 0.0921
1018.30 0.09212
1018.40 0.09213
1018.50 0.09215
1018.60 0.09216
1018.70 0.09218
1018.80 0.09219
1018.90 0.0922
1019.00 0.09221
1019.10 0.09222
1019.20 0.09223
1019.30 0.09224
1019.40 0.09225
1019.50 0.09226
1019.60 0.09227
1019.70 0.09228
1019.80 0.09229
1019.90 0.0923
1020.00 0.09231
1020.10 0.09232
1020.20 0.09233
1020.30 0.09234
1020.40 0.09235
1020.50 0.09236
1020.60 0.09237
1020.70 0.09237
1020.80 0.09238
1020.90 0.09239
1021.00 0.09239
1021.10 0.0924
1021.20 0.0924
1021.30 0.09241
1021.40 0.09241
1021.50 0.09242
1021.60 0.09242
1021.70 0.09243
1021.80 0.09244
1021.90 0.09244
1022.00 0.09245
1022.10 0.09245
1022.20 0.09245
1022.30 0.09245
1022.40 0.09245
1022.50 0.09245
1022.60 0.09245
1022.70 0.09245
1022.80 0.09245
1022.90 0.09245
1023.00 0.09245
1023.10 0.09245
1023.20 0.09245
1023.30 0.09245
1023.40 0.09245
1023.50 0.09246
1023.60 0.09246
1023.70 0.09246
1023.80 0.09246
1023.90 0.09246
1024.00 0.09246
1024.10 0.09246
1024.20 0.09246
1024.30 0.09246
1024.40 0.09246
1024.50 0.09246
1024.60 0.09246
1024.70 0.09246
1024.80 0.09245
1024.90 0.09245
1025.00 0.09244
1025.10 0.09244
1025.20 0.09243
1025.30 0.09243
1025.40 0.09243
1025.50 0.09242
1025.60 0.09242
1025.70 0.09241
1025.80 0.09241
1025.90 0.0924
1026.00 0.0924
1026.10 0.09239
1026.20 0.09239
1026.30 0.09238
1026.40 0.09238
1026.50 0.09237
1026.60 0.09237
1026.70 0.09236
1026.80 0.09236
1026.90 0.09235
1027.00 0.09235
1027.10 0.09234
1027.20 0.09233
1027.30 0.09231
1027.40 0.0923
1027.50 0.09229
1027.60 0.09228
1027.70 0.09227
1027.80 0.09226
1027.90 0.09224
1028.00 0.09223
1028.10 0.09222
1028.20 0.09221
1028.30 0.0922
1028.40 0.09219
1028.50 0.09218
1028.60 0.09216
1028.70 0.09215
1028.80 0.09214
1028.90 0.09213
1029.00 0.09212
1029.10 0.09211
1029.20 0.0921
1029.30 0.09208
1029.40 0.09207
1029.50 0.09206
1029.60 0.09205
1029.70 0.09204
1029.80 0.09203
1029.90 0.09202
1030.00 0.092
1030.10 0.09199
1030.20 0.09198
1030.30 0.09197
1030.40 0.09196
1030.50 0.09195
1030.60 0.09194
1030.70 0.09192
1030.80 0.09191
1030.90 0.0919
1031.00 0.09189
1031.10 0.09188
1031.20 0.09187
1031.30 0.09186
1031.40 0.09184
1031.50 0.09183
1031.60 0.09182
1031.70 0.09181
1031.80 0.0918
1031.90 0.09179
1032.00 0.09178
1032.10 0.09176
1032.20 0.09174
1032.30 0.09172
1032.40 0.0917
1032.50 0.09168
1032.60 0.09166
1032.70 0.09164
1032.80 0.09163
1032.90 0.09161
1033.00 0.09159
1033.10 0.09157
1033.20 0.09155
1033.30 0.09153
1033.40 0.09151
1033.50 0.09149
1033.60 0.09148
1033.70 0.09146
1033.80 0.09144
1033.90 0.09142
1034.00 0.0914
1034.10 0.09138
1034.20 0.09136
1034.30 0.09135
1034.40 0.09133
1034.50 0.09131
1034.60 0.09129
1034.70 0.09127
1034.80 0.09125
1034.90 0.09123
1035.00 0.09121
1035.10 0.0912
1035.20 0.09118
1035.30 0.09116
1035.40 0.09114
1035.50 0.09112
1035.60 0.0911
1035.70 0.09108
1035.80 0.09107
1035.90 0.09105
1036.00 0.09103
1036.10 0.09101
1036.20 0.09099
1036.30 0.09097
1036.40 0.09095
1036.50 0.09094
1036.60 0.09092
1036.70 0.0909
1036.80 0.09088
1036.90 0.09086
1037.00 0.09084
1037.10 0.09082
1037.20 0.0908
1037.30 0.09077
1037.40 0.09075
1037.50 0.09072
1037.60 0.0907
1037.70 0.09067
1037.80 0.09065
1037.90 0.09063
1038.00 0.0906
1038.10 0.09058
1038.20 0.09055
1038.30 0.09053
1038.40 0.09051
1038.50 0.09048
1038.60 0.09046
1038.70 0.09043
1038.80 0.09041
1038.90 0.09038
1039.00 0.09036
1039.10 0.09034
1039.20 0.09031
1039.30 0.09029
1039.40 0.09026
1039.50 0.09024
1039.60 0.09022
1039.70 0.09019
1039.80 0.09017
1039.90 0.09014
1040.00 0.09012
1040.10 0.0901
1040.20 0.09007
1040.30 0.09005
1040.40 0.09002
1040.50 0.09
1040.60 0.08998
1040.70 0.08995
1040.80 0.08993
1040.90 0.0899
1041.00 0.08988
1041.10 0.08986
1041.20 0.08983
1041.30 0.08981
1041.40 0.08978
1041.50 0.08976
1041.60 0.08974
1041.70 0.08971
1041.80 0.08969
1041.90 0.08966
1042.00 0.08964
1042.10 0.08961
1042.20 0.08958
1042.30 0.08955
1042.40 0.08953
1042.50 0.0895
1042.60 0.08947
1042.70 0.08944
1042.80 0.08941
1042.90 0.08938
1043.00 0.08935
1043.10 0.08933
1043.20 0.0893
1043.30 0.08927
1043.40 0.08924
1043.50 0.08921
1043.60 0.08918
1043.70 0.08915
1043.80 0.08913
1043.90 0.0891
1044.00 0.08907
1044.10 0.08904
1044.20 0.08901
1044.30 0.08898
1044.40 0.08895
1044.50 0.08893
1044.60 0.0889
1044.70 0.08887
1044.80 0.08884
1044.90 0.08881
1045.00 0.08878
1045.10 0.08876
1045.20 0.08873
1045.30 0.0887
1045.40 0.08867
1045.50 0.08864
1045.60 0.08861
1045.70 0.08859
1045.80 0.08856
1045.90 0.08853
1046.00 0.0885
1046.10 0.08847
1046.20 0.08844
1046.30 0.08841
1046.40 0.08839
1046.50 0.08836
1046.60 0.08833
1046.70 0.0883
1046.80 0.08827
1046.90 0.08825
1047.00 0.08822
1047.10 0.08818
1047.20 0.08815
1047.30 0.08812
1047.40 0.08809
1047.50 0.08805
1047.60 0.08802
1047.70 0.08799
1047.80 0.08795
1047.90 0.08792
1048.00 0.08789
1048.10 0.08786
1048.20 0.08782
1048.30 0.08779
1048.40 0.08776
1048.50 0.08773
1048.60 0.08769
1048.70 0.08766
1048.80 0.08763
1048.90 0.0876
1049.00 0.08756
1049.10 0.08753
1049.20 0.0875
1049.30 0.08747
1049.40 0.08743
1049.50 0.0874
1049.60 0.08737
1049.70 0.08733
1049.80 0.0873
1049.90 0.08727
1050.00 0.08724
1050.10 0.0872
1050.20 0.08717
1050.30 0.08714
1050.40 0.08711
1050.50 0.08707
1050.60 0.08704
1050.70 0.08701
1050.80 0.08698
1050.90 0.08695
1051.00 0.08691
1051.10 0.08688
1051.20 0.08685
1051.30 0.08682
1051.40 0.08678
1051.50 0.08675
1051.60 0.08672
1051.70 0.08669
1051.80 0.08665
1051.90 0.08662
1052.00 0.08659
1052.10 0.08655
1052.20 0.08652
1052.30 0.08648
1052.40 0.08644
1052.50 0.0864
1052.60 0.08637
1052.70 0.08633
1052.80 0.08629
1052.90 0.08626
1053.00 0.08622
1053.10 0.08618
1053.20 0.08615
1053.30 0.08611
1053.40 0.08607
1053.50 0.08604
1053.60 0.086
1053.70 0.08596
1053.80 0.08593
1053.90 0.08589
1054.00 0.08585
1054.10 0.08582
1054.20 0.08578
1054.30 0.08574
1054.40 0.08571
1054.50 0.08567
1054.60 0.08563
1054.70 0.0856
1054.80 0.08556
1054.90 0.08552
1055.00 0.08549
1055.10 0.08545
1055.20 0.08541
1055.30 0.08538
1055.40 0.08534
1055.50 0.0853
1055.60 0.08527
1055.70 0.08523
1055.80 0.08519
1055.90 0.08516
1056.00 0.08512
1056.10 0.08508
1056.20 0.08505
1056.30 0.08501
1056.40 0.08497
1056.50 0.08494
1056.60 0.0849
1056.70 0.08486
1056.80 0.08483
1056.90 0.08479
1057.00 0.08476
1057.10 0.08471
1057.20 0.08467
1057.30 0.08463
1057.40 0.08459
1057.50 0.08455
1057.60 0.08451
1057.70 0.08446
1057.80 0.08442
1057.90 0.08438
1058.00 0.08434
1058.10 0.0843
1058.20 0.08426
1058.30 0.08421
1058.40 0.08417
1058.50 0.08413
1058.60 0.08409
1058.70 0.08405
1058.80 0.08401
1058.90 0.08396
1059.00 0.08392
1059.10 0.08388
1059.20 0.08384
1059.30 0.0838
1059.40 0.08376
1059.50 0.08372
1059.60 0.08367
1059.70 0.08363
1059.80 0.08359
1059.90 0.08355
1060.00 0.08351
1060.10 0.08347
1060.20 0.08343
1060.30 0.08338
1060.40 0.08334
1060.50 0.0833
1060.60 0.08326
1060.70 0.08322
1060.80 0.08318
1060.90 0.08314
1061.00 0.0831
1061.10 0.08305
1061.20 0.08301
1061.30 0.08297
1061.40 0.08293
1061.50 0.08289
1061.60 0.08285
1061.70 0.08281
1061.80 0.08277
1061.90 0.08273
1062.00 0.08268
1062.10 0.08264
1062.20 0.08259
1062.30 0.08254
1062.40 0.08249
1062.50 0.08245
1062.60 0.0824
1062.70 0.08235
1062.80 0.0823
1062.90 0.08226
1063.00 0.08221
1063.10 0.08216
1063.20 0.08212
1063.30 0.08207
1063.40 0.08202
1063.50 0.08197
1063.60 0.08193
1063.70 0.08188
1063.80 0.08183
1063.90 0.08178
1064.00 0.08174
1064.10 0.08169
1064.20 0.08164
1064.30 0.0816
1064.40 0.08155
1064.50 0.0815
1064.60 0.08145
1064.70 0.08141
1064.80 0.08136
1064.90 0.08131
1065.00 0.08127
1065.10 0.08122
1065.20 0.08117
1065.30 0.08113
1065.40 0.08108
1065.50 0.08103
1065.60 0.08098
1065.70 0.08094
1065.80 0.08089
1065.90 0.08084
1066.00 0.0808
1066.10 0.08075
1066.20 0.0807
1066.30 0.08066
1066.40 0.08061
1066.50 0.08056
1066.60 0.08052
1066.70 0.08047
1066.80 0.08042
1066.90 0.08038
1067.00 0.08033
1067.10 0.08027
1067.20 0.08022
1067.30 0.08016
1067.40 0.08011
1067.50 0.08006
1067.60 0.08
1067.70 0.07995
1067.80 0.07989
1067.90 0.07984
1068.00 0.07978
1068.10 0.07973
1068.20 0.07967
1068.30 0.07962
1068.40 0.07956
1068.50 0.07951
1068.60 0.07945
1068.70 0.0794
1068.80 0.07934
1068.90 0.07929
1069.00 0.07924
1069.10 0.07918
1069.20 0.07913
1069.30 0.07907
1069.40 0.07902
1069.50 0.07896
1069.60 0.07891
1069.70 0.07885
1069.80 0.0788
1069.90 0.07875
1070.00 0.07869
1070.10 0.07864
1070.20 0.07858
1070.30 0.07853
1070.40 0.07847
1070.50 0.07842
1070.60 0.07837
1070.70 0.07831
1070.80 0.07826
1070.90 0.0782
1071.00 0.07815
1071.10 0.0781
1071.20 0.07804
1071.30 0.07799
1071.40 0.07793
1071.50 0.07788
1071.60 0.07783
1071.70 0.07777
1071.80 0.07772
1071.90 0.07766
1072.00 0.07761
1072.10 0.07755
1072.20 0.07749
1072.30 0.07743
1072.40 0.07737
1072.50 0.07731
1072.60 0.07725
1072.70 0.07719
1072.80 0.07713
1072.90 0.07707
1073.00 0.07701
1073.10 0.07695
1073.20 0.07689
1073.30 0.07683
1073.40 0.07677
1073.50 0.07671
1073.60 0.07664
1073.70 0.07657
1073.80 0.07651
1073.90 0.07644
1074.00 0.07638
1074.10 0.07631
1074.20 0.07625
1074.30 0.07618
1074.40 0.07612
1074.50 0.07605
1074.60 0.07599
1074.70 0.07592
1074.80 0.07585
1074.90 0.07579
1075.00 0.07572
1075.10 0.07566
1075.20 0.07559
1075.30 0.07553
1075.40 0.07546
1075.50 0.0754
1075.60 0.07533
1075.70 0.07527
1075.80 0.0752
1075.90 0.07514
1076.00 0.07507
1076.10 0.07501
1076.20 0.07494
1076.30 0.07488
1076.40 0.07481
1076.50 0.07475
1076.60 0.07468
1076.70 0.07462
1076.80 0.07455
1076.90 0.07449
1077.00 0.07442
1077.10 0.07435
1077.20 0.07428
1077.30 0.07421
1077.40 0.07414
1077.50 0.07407
1077.60 0.074
1077.70 0.07392
1077.80 0.07385
1077.90 0.07378
1078.00 0.07371
1078.10 0.07363
1078.20 0.07356
1078.30 0.07349
1078.40 0.07341
1078.50 0.07334
1078.60 0.07327
1078.70 0.07319
1078.80 0.07312
1078.90 0.07305
1079.00 0.07298
1079.10 0.0729
1079.20 0.07283
1079.30 0.07276
1079.40 0.07269
1079.50 0.07261
1079.60 0.07253
1079.70 0.07245
1079.80 0.07238
1079.90 0.0723
1080.00 0.07222
1080.10 0.07214
1080.20 0.07206
1080.30 0.07198
1080.40 0.0719
1080.50 0.07183
1080.60 0.07175
1080.70 0.07167
1080.80 0.07159
1080.90 0.07151
1081.00 0.07143
1081.10 0.07136
1081.20 0.07128
1081.30 0.0712
1081.40 0.07112
1081.50 0.07104
1081.60 0.07096
1081.70 0.07088
1081.80 0.0708
1081.90 0.07072
1082.00 0.07063
1082.10 0.07055
1082.20 0.07046
1082.30 0.07038
1082.40 0.07029
1082.50 0.07021
1082.60 0.07012
1082.70 0.07004
1082.80 0.06995
1082.90 0.06987
1083.00 0.06978
1083.10 0.0697
1083.20 0.06961
1083.30 0.06953
1083.40 0.06945
1083.50 0.06936
1083.60 0.06927
1083.70 0.06918
1083.80 0.06909
1083.90 0.06901
1084.00 0.06892
1084.10 0.06883
1084.20 0.06874
1084.30 0.06865
1084.40 0.06856
1084.50 0.06847
1084.60 0.06838
1084.70 0.06829
1084.80 0.0682
1084.90 0.06811
1085.00 0.06801
1085.10 0.06792
1085.20 0.06783
1085.30 0.06774
1085.40 0.06765
1085.50 0.06755
1085.60 0.06746
1085.70 0.06737
1085.80 0.06728
1085.90 0.06719
1086.00 0.0671
1086.10 0.067
1086.20 0.06691
1086.30 0.06682
1086.40 0.06673
1086.50 0.06664
1086.60 0.06654
1086.70 0.06645
1086.80 0.06636
1086.90 0.06626
1087.00 0.06617
1087.10 0.06607
1087.20 0.06598
1087.30 0.06589
1087.40 0.06579
1087.50 0.0657
1087.60 0.06561
1087.70 0.06551
1087.80 0.06542
1087.90 0.06533
1088.00 0.06523
1088.10 0.06514
1088.20 0.06505
1088.30 0.06495
1088.40 0.06486
1088.50 0.06477
1088.60 0.06468
1088.70 0.0646
1088.80 0.06451
1088.90 0.06443
1089.00 0.06434
1089.10 0.06426
1089.20 0.06417
1089.30 0.06409
1089.40 0.064
1089.50 0.06392
1089.60 0.06383
1089.70 0.06375
1089.80 0.06366
1089.90 0.06358
1090.00 0.06349
1090.10 0.06341
1090.20 0.06332
1090.30 0.06324
1090.40 0.06315
1090.50 0.06308
1090.60 0.06304
1090.70 0.06299
1090.80 0.06295
1090.90 0.0629
1091.00 0.06286
1091.10 0.06281
1091.20 0.06277
1091.30 0.06272
1091.40 0.06268
1091.50 0.06263
1091.60 0.06259
1091.70 0.06254
1091.80 0.0625
1091.90 0.06245
1092.00 0.06241
1092.10 0.06246
1092.20 0.0625
1092.30 0.06254
1092.40 0.06259
1092.50 0.06263
1092.60 0.06268
1092.70 0.06275
1092.80 0.06287
1092.90 0.063
1093.00 0.06313
1093.10 0.06328
1093.20 0.06346
1093.30 0.06364
1093.40 0.06377
1093.50 0.06381
1093.60 0.06366
1093.70 0.06345
1093.80 0.06323
1093.90 0.06302
1094.00 0.06286
1094.10 0.06269
1094.20 0.06253
1094.30 0.06239
1094.40 0.06231
1094.50 0.06223
1094.60 0.06215
1094.70 0.06208
1094.80 0.062
1094.90 0.06192
1095.00 0.06187
1095.10 0.06187
1095.20 0.06188
1095.30 0.06189
1095.40 0.06189
1095.50 0.0619
1095.60 0.0619
1095.70 0.06191
1095.80 0.06191
1095.90 0.06192
1096.00 0.06193
1096.10 0.06193
1096.20 0.06194
1096.30 0.06194
1096.40 0.06195
1096.50 0.06196
1096.60 0.06201
1096.70 0.06205
1096.80 0.06209
1096.90 0.06213
1097.00 0.06217
1097.10 0.06221
1097.20 0.06226
1097.30 0.0623
1097.40 0.06235
1097.50 0.06239
1097.60 0.06244
1097.70 0.06248
1097.80 0.06253
1097.90 0.06257
1098.00 0.06261
1098.10 0.06266
1098.20 0.0627
1098.30 0.06275
1098.40 0.06279
1098.50 0.06284
1098.60 0.06289
1098.70 0.06294
1098.80 0.06299
1098.90 0.06304
1099.00 0.06309
1099.10 0.06314
1099.20 0.06319
1099.30 0.06323
1099.40 0.06328
1099.50 0.06333
1099.60 0.06338
1099.70 0.06343
1099.80 0.06348
1099.90 0.06353
1100.00 0.06358
1100.10 0.06363
1100.20 0.06368
1100.30 0.06373
1100.40 0.06378
1100.50 0.06383
1100.60 0.06387
1100.70 0.06392
1100.80 0.06396
1100.90 0.06401
1101.00 0.06406
1101.10 0.0641
1101.20 0.06415
1101.30 0.0642
1101.40 0.06424
1101.50 0.06429
1101.60 0.06433
1101.70 0.06438
1101.80 0.06443
1101.90 0.06447
1102.00 0.06452
1102.10 0.06456
1102.20 0.06461
1102.30 0.06465
1102.40 0.06469
1102.50 0.06473
1102.60 0.06478
1102.70 0.06482
1102.80 0.06486
1102.90 0.0649
1103.00 0.06494
1103.10 0.06498
1103.20 0.06502
1103.30 0.06506
1103.40 0.0651
1103.50 0.06514
1103.60 0.06518
1103.70 0.06521
1103.80 0.06525
1103.90 0.06528
1104.00 0.06532
1104.10 0.06536
1104.20 0.06539
1104.30 0.06543
1104.40 0.06546
1104.50 0.0655
1104.60 0.06553
1104.70 0.06557
1104.80 0.0656
1104.90 0.06564
1105.00 0.06567
1105.10 0.06571
1105.20 0.06575
1105.30 0.06578
1105.40 0.06582
1105.50 0.06585
1105.60 0.06588
1105.70 0.06591
1105.80 0.06594
1105.90 0.06597
1106.00 0.066
1106.10 0.06603
1106.20 0.06606
1106.30 0.06609
1106.40 0.06612
1106.50 0.06614
1106.60 0.06617
1106.70 0.0662
1106.80 0.06623
1106.90 0.06626
1107.00 0.06629
1107.10 0.06632
1107.20 0.06634
1107.30 0.06637
1107.40 0.0664
1107.50 0.06642
1107.60 0.06644
1107.70 0.06647
1107.80 0.06649
1107.90 0.06651
1108.00 0.06653
1108.10 0.06656
1108.20 0.06658
1108.30 0.0666
1108.40 0.06662
1108.50 0.06665
1108.60 0.06667
1108.70 0.06669
1108.80 0.06671
1108.90 0.06674
1109.00 0.06676
1109.10 0.06678
1109.20 0.0668
1109.30 0.06683
1109.40 0.06685
1109.50 0.06687
1109.60 0.06689
1109.70 0.0669
1109.80 0.06692
1109.90 0.06694
1110.00 0.06695
1110.10 0.06697
1110.20 0.06699
1110.30 0.067
1110.40 0.06702
1110.50 0.06703
1110.60 0.06705
1110.70 0.06707
1110.80 0.06708
1110.90 0.0671
1111.00 0.06712
1111.10 0.06713
1111.20 0.06715
1111.30 0.06717
1111.40 0.06718
1111.50 0.0672
1111.60 0.06721
1111.70 0.06723
1111.80 0.06725
1111.90 0.06726
1112.00 0.06728
1112.10 0.06729
1112.20 0.0673
1112.30 0.06731
1112.40 0.06733
1112.50 0.06734
1112.60 0.06735
1112.70 0.06736
1112.80 0.06737
1112.90 0.06738
1113.00 0.0674
1113.10 0.06741
1113.20 0.06742
1113.30 0.06743
1113.40 0.06744
1113.50 0.06745
1113.60 0.06746
1113.70 0.06746
1113.80 0.06747
1113.90 0.06748
1114.00 0.06748
1114.10 0.06749
1114.20 0.0675
1114.30 0.0675
1114.40 0.06751
1114.50 0.06752
1114.60 0.06752
1114.70 0.06753
1114.80 0.06754
1114.90 0.06754
1115.00 0.06755
1115.10 0.06756
1115.20 0.06756
1115.30 0.06757
1115.40 0.06758
1115.50 0.06758
1115.60 0.06759
1115.70 0.0676
1115.80 0.0676
1115.90 0.06761
1116.00 0.06761
1116.10 0.06762
1116.20 0.06763
1116.30 0.06763
1116.40 0.06764
1116.50 0.06765
1116.60 0.06765
1116.70 0.06766
1116.80 0.06767
1116.90 0.06767
1117.00 0.06768
1117.10 0.06768
1117.20 0.06768
1117.30 0.06768
1117.40 0.06768
1117.50 0.06768
1117.60 0.06768
1117.70 0.06768
1117.80 0.06768
1117.90 0.06768
1118.00 0.06768
1118.10 0.06768
1118.20 0.06768
1118.30 0.06768
1118.40 0.06767
1118.50 0.06767
1118.60 0.06767
1118.70 0.06767
1118.80 0.06767
1118.90 0.06767
1119.00 0.06767
1119.10 0.06767
1119.20 0.06767
1119.30 0.06767
1119.40 0.06767
1119.50 0.06767
1119.60 0.06767
1119.70 0.06767
1119.80 0.06767
1119.90 0.06767
1120.00 0.06767
1120.10 0.06767
1120.20 0.06767
1120.30 0.06767
1120.40 0.06767
1120.50 0.06767
1120.60 0.06767
1120.70 0.06767
1120.80 0.06767
1120.90 0.06767
1121.00 0.06767
1121.10 0.06767
1121.20 0.06766
1121.30 0.06766
1121.40 0.06766
1121.50 0.06766
1121.60 0.06766
1121.70 0.06766
1121.80 0.06766
1121.90 0.06766
1122.00 0.06766
1122.10 0.06766
1122.20 0.06765
1122.30 0.06764
1122.40 0.06764
1122.50 0.06763
1122.60 0.06762
1122.70 0.06762
1122.80 0.06761
1122.90 0.0676
1123.00 0.0676
1123.10 0.06759
1123.20 0.06759
1123.30 0.06758
1123.40 0.06757
1123.50 0.06757
1123.60 0.06756
1123.70 0.06755
1123.80 0.06755
1123.90 0.06754
1124.00 0.06754
1124.10 0.06753
1124.20 0.06752
1124.30 0.06752
1124.40 0.06751
1124.50 0.0675
1124.60 0.0675
1124.70 0.06749
1124.80 0.06748
1124.90 0.06748
1125.00 0.06747
1125.10 0.06747
1125.20 0.06746
1125.30 0.06745
1125.40 0.06745
1125.50 0.06744
1125.60 0.06743
1125.70 0.06743
1125.80 0.06742
1125.90 0.06742
1126.00 0.06741
1126.10 0.0674
1126.20 0.0674
1126.30 0.06739
1126.40 0.06738
1126.50 0.06738
1126.60 0.06737
1126.70 0.06736
1126.80 0.06736
1126.90 0.06735
1127.00 0.06735
1127.10 0.06734
1127.20 0.06733
1127.30 0.06731
1127.40 0.0673
1127.50 0.06729
1127.60 0.06728
1127.70 0.06727
1127.80 0.06726
1127.90 0.06725
1128.00 0.06724
1128.10 0.06723
1128.20 0.06722
1128.30 0.06721
1128.40 0.0672
1128.50 0.06719
1128.60 0.06718
1128.70 0.06717
1128.80 0.06716
1128.90 0.06715
1129.00 0.06714
1129.10 0.06713
1129.20 0.06712
1129.30 0.0671
1129.40 0.06709
1129.50 0.06708
1129.60 0.06707
1129.70 0.06706
1129.80 0.06705
1129.90 0.06704
1130.00 0.06703
1130.10 0.06702
1130.20 0.06701
1130.30 0.067
1130.40 0.06699
1130.50 0.06698
1130.60 0.06697
1130.70 0.06696
1130.80 0.06695
1130.90 0.06694
1131.00 0.06693
1131.10 0.06692
1131.20 0.06691
1131.30 0.0669
1131.40 0.06689
1131.50 0.06688
1131.60 0.06687
1131.70 0.06685
1131.80 0.06684
1131.90 0.06683
1132.00 0.06682
1132.10 0.06681
1132.20 0.0668
1132.30 0.06678
1132.40 0.06677
1132.50 0.06676
1132.60 0.06674
1132.70 0.06673
1132.80 0.06672
1132.90 0.0667
1133.00 0.06669
1133.10 0.06668
1133.20 0.06666
1133.30 0.06665
1133.40 0.06664
1133.50 0.06662
1133.60 0.06661
1133.70 0.0666
1133.80 0.06658
1133.90 0.06657
1134.00 0.06656
1134.10 0.06654
1134.20 0.06653
1134.30 0.06652
1134.40 0.0665
1134.50 0.06649
1134.60 0.06648
1134.70 0.06646
1134.80 0.06645
1134.90 0.06644
1135.00 0.06642
1135.10 0.06641
1135.20 0.0664
1135.30 0.06638
1135.40 0.06637
1135.50 0.06636
1135.60 0.06634
1135.70 0.06633
1135.80 0.06632
1135.90 0.0663
1136.00 0.06629
1136.10 0.06628
1136.20 0.06626
1136.30 0.06625
1136.40 0.06624
1136.50 0.06623
1136.60 0.06621
1136.70 0.0662
1136.80 0.06619
1136.90 0.06617
1137.00 0.06616
1137.10 0.06614
1137.20 0.06613
1137.30 0.06611
1137.40 0.0661
1137.50 0.06608
1137.60 0.06607
1137.70 0.06605
1137.80 0.06604
1137.90 0.06602
1138.00 0.06601
1138.10 0.06599
1138.20 0.06598
1138.30 0.06596
1138.40 0.06595
1138.50 0.06593
1138.60 0.06591
1138.70 0.0659
1138.80 0.06588
1138.90 0.06587
1139.00 0.06585
1139.10 0.06584
1139.20 0.06582
1139.30 0.06581
1139.40 0.06579
1139.50 0.06578
1139.60 0.06576
1139.70 0.06575
1139.80 0.06573
1139.90 0.06572
1140.00 0.0657
1140.10 0.06569
1140.20 0.06567
1140.30 0.06566
1140.40 0.06564
1140.50 0.06563
1140.60 0.06561
1140.70 0.0656
1140.80 0.06558
1140.90 0.06557
1141.00 0.06555
1141.10 0.06554
1141.20 0.06552
1141.30 0.0655
1141.40 0.06549
1141.50 0.06547
1141.60 0.06546
1141.70 0.06544
1141.80 0.06543
1141.90 0.06541
1142.00 0.0654
1142.10 0.06538
1142.20 0.06537
1142.30 0.06535
1142.40 0.06533
1142.50 0.06532
1142.60 0.0653
1142.70 0.06528
1142.80 0.06527
1142.90 0.06525
1143.00 0.06523
1143.10 0.06522
1143.20 0.0652
1143.30 0.06518
1143.40 0.06517
1143.50 0.06515
1143.60 0.06513
1143.70 0.06512
1143.80 0.0651
1143.90 0.06508
1144.00 0.06507
1144.10 0.06505
1144.20 0.06503
1144.30 0.06502
1144.40 0.065
1144.50 0.06498
1144.60 0.06497
1144.70 0.06495
1144.80 0.06493
1144.90 0.06492
1145.00 0.0649
1145.10 0.06488
1145.20 0.06487
1145.30 0.06485
1145.40 0.06483
1145.50 0.06482
1145.60 0.0648
1145.70 0.06479
1145.80 0.06477
1145.90 0.06475
1146.00 0.06474
1146.10 0.06472
1146.20 0.0647
1146.30 0.06469
1146.40 0.06467
1146.50 0.06465
1146.60 0.06464
1146.70 0.06462
1146.80 0.0646
1146.90 0.06459
1147.00 0.06457
1147.10 0.06455
1147.20 0.06454
1147.30 0.06452
1147.40 0.0645
1147.50 0.06448
1147.60 0.06447
1147.70 0.06445
1147.80 0.06443
1147.90 0.06441
1148.00 0.0644
1148.10 0.06438
1148.20 0.06436
1148.30 0.06435
1148.40 0.06433
1148.50 0.06431
1148.60 0.06429
1148.70 0.06428
1148.80 0.06426
1148.90 0.06424
1149.00 0.06422
1149.10 0.06421
1149.20 0.06419
1149.30 0.06417
1149.40 0.06415
1149.50 0.06414
1149.60 0.06412
1149.70 0.0641
1149.80 0.06409
1149.90 0.06407
1150.00 0.06405
1150.10 0.06403
1150.20 0.06402
1150.30 0.064
1150.40 0.06398
1150.50 0.06396
1150.60 0.06395
1150.70 0.06393
1150.80 0.06391
1150.90 0.0639
1151.00 0.06388
1151.10 0.06386
1151.20 0.06384
1151.30 0.06383
1151.40 0.06381
1151.50 0.06379
1151.60 0.06377
1151.70 0.06376
1151.80 0.06374
1151.90 0.06372
1152.00 0.06371
1152.10 0.06369
1152.20 0.06367
1152.30 0.06365
1152.40 0.06363
1152.50 0.06362
1152.60 0.0636
1152.70 0.06358
1152.80 0.06356
1152.90 0.06354
1153.00 0.06353
1153.10 0.06351
1153.20 0.06349
1153.30 0.06347
1153.40 0.06345
1153.50 0.06344
1153.60 0.06342
1153.70 0.0634
1153.80 0.06338
1153.90 0.06336
1154.00 0.06335
1154.10 0.06333
1154.20 0.06331
1154.30 0.06329
1154.40 0.06327
1154.50 0.06326
1154.60 0.06324
1154.70 0.06322
1154.80 0.0632
1154.90 0.06318
1155.00 0.06317
1155.10 0.06315
1155.20 0.06313
1155.30 0.06311
1155.40 0.0631
1155.50 0.06308
1155.60 0.06306
1155.70 0.06304
1155.80 0.06302
1155.90 0.06301
1156.00 0.06299
1156.10 0.06297
1156.20 0.06295
1156.30 0.06293
1156.40 0.06292
1156.50 0.0629
1156.60 0.06288
1156.70 0.06286
1156.80 0.06285
1156.90 0.06283
1157.00 0.06281
1157.10 0.06279
1157.20 0.06277
1157.30 0.06276
1157.40 0.06274
1157.50 0.06272
1157.60 0.0627
1157.70 0.06268
1157.80 0.06266
1157.90 0.06265
1158.00 0.06263
1158.10 0.06261
1158.20 0.06259
1158.30 0.06257
1158.40 0.06255
1158.50 0.06254
1158.60 0.06252
1158.70 0.0625
1158.80 0.06248
1158.90 0.06246
1159.00 0.06245
1159.10 0.06243
1159.20 0.06241
1159.30 0.06239
1159.40 0.06237
1159.50 0.06235
1159.60 0.06234
1159.70 0.06232
1159.80 0.0623
1159.90 0.06228
1160.00 0.06226
1160.10 0.06225
1160.20 0.06223
1160.30 0.06221
1160.40 0.06219
1160.50 0.06217
1160.60 0.06216
1160.70 0.06214
1160.80 0.06212
1160.90 0.0621
1161.00 0.06208
1161.10 0.06206
1161.20 0.06205
1161.30 0.06203
1161.40 0.06201
1161.50 0.06199
1161.60 0.06197
1161.70 0.06196
1161.80 0.06194
1161.90 0.06192
1162.00 0.0619
1162.10 0.06188
1162.20 0.06187
1162.30 0.06185
1162.40 0.06183
1162.50 0.06181
1162.60 0.06179
1162.70 0.06177
1162.80 0.06175
1162.90 0.06174
1163.00 0.06172
1163.10 0.0617
1163.20 0.06168
1163.30 0.06166
1163.40 0.06164
1163.50 0.06163
1163.60 0.06161
1163.70 0.06159
1163.80 0.06157
1163.90 0.06155
1164.00 0.06153
1164.10 0.06152
1164.20 0.0615
1164.30 0.06148
1164.40 0.06146
1164.50 0.06144
1164.60 0.06142
1164.70 0.06141
1164.80 0.06139
1164.90 0.06137
1165.00 0.06135
1165.10 0.06133
1165.20 0.06132
1165.30 0.0613
1165.40 0.06128
1165.50 0.06126
1165.60 0.06124
1165.70 0.06122
1165.80 0.06121
1165.90 0.06119
1166.00 0.06117
1166.10 0.06115
1166.20 0.06113
1166.30 0.06111
1166.40 0.0611
1166.50 0.06108
1166.60 0.06106
1166.70 0.06104
1166.80 0.06102
1166.90 0.06101
1167.00 0.06099
1167.10 0.06097
1167.20 0.06095
1167.30 0.06093
1167.40 0.06091
1167.50 0.06089
1167.60 0.06088
1167.70 0.06086
1167.80 0.06084
1167.90 0.06082
1168.00 0.0608
1168.10 0.06078
1168.20 0.06077
1168.30 0.06075
1168.40 0.06073
1168.50 0.06071
1168.60 0.06069
1168.70 0.06067
1168.80 0.06065
1168.90 0.06064
1169.00 0.06062
1169.10 0.0606
1169.20 0.06058
1169.30 0.06056
1169.40 0.06054
1169.50 0.06053
1169.60 0.06051
1169.70 0.06049
1169.80 0.06047
1169.90 0.06045
1170.00 0.06043
1170.10 0.06042
1170.20 0.0604
1170.30 0.06038
1170.40 0.06036
1170.50 0.06034
1170.60 0.06032
1170.70 0.06031
1170.80 0.06029
1170.90 0.06027
1171.00 0.06025
1171.10 0.06023
1171.20 0.06021
1171.30 0.0602
1171.40 0.06018
1171.50 0.06016
1171.60 0.06014
1171.70 0.06012
1171.80 0.0601
1171.90 0.06009
1172.00 0.06007
1172.10 0.06005
1172.20 0.06003
1172.30 0.06001
1172.40 0.05999
1172.50 0.05998
1172.60 0.05996
1172.70 0.05994
1172.80 0.05992
1172.90 0.0599
1173.00 0.05988
1173.10 0.05986
1173.20 0.05985
1173.30 0.05983
1173.40 0.05981
1173.50 0.05979
1173.60 0.05977
1173.70 0.05975
1173.80 0.05974
1173.90 0.05972
1174.00 0.0597
1174.10 0.05968
1174.20 0.05966
1174.30 0.05964
1174.40 0.05963
1174.50 0.05961
1174.60 0.05959
1174.70 0.05957
1174.80 0.05955
1174.90 0.05953
1175.00 0.05952
1175.10 0.0595
1175.20 0.05948
1175.30 0.05946
1175.40 0.05944
1175.50 0.05943
1175.60 0.05941
1175.70 0.05939
1175.80 0.05937
1175.90 0.05935
1176.00 0.05933
1176.10 0.05932
1176.20 0.0593
1176.30 0.05928
1176.40 0.05926
1176.50 0.05924
1176.60 0.05922
1176.70 0.05921
1176.80 0.05919
1176.90 0.05917
1177.00 0.05915
1177.10 0.05913
1177.20 0.05912
1177.30 0.0591
1177.40 0.05908
1177.50 0.05906
1177.60 0.05904
1177.70 0.05902
1177.80 0.059
1177.90 0.05899
1178.00 0.05897
1178.10 0.05895
1178.20 0.05893
1178.30 0.05891
1178.40 0.05889
1178.50 0.05888
1178.60 0.05886
1178.70 0.05884
1178.80 0.05882
1178.90 0.0588
1179.00 0.05878
1179.10 0.05877
1179.20 0.05875
1179.30 0.05873
1179.40 0.05871
1179.50 0.05869
1179.60 0.05867
1179.70 0.05866
1179.80 0.05864
1179.90 0.05862
1180.00 0.0586
1180.10 0.05858
1180.20 0.05857
1180.30 0.05855
1180.40 0.05853
1180.50 0.05851
1180.60 0.05849
1180.70 0.05847
1180.80 0.05846
1180.90 0.05844
1181.00 0.05842
1181.10 0.0584
1181.20 0.05838
1181.30 0.05836
1181.40 0.05835
1181.50 0.05833
1181.60 0.05831
1181.70 0.05829
1181.80 0.05827
1181.90 0.05826
1182.00 0.05824
1182.10 0.05822
1182.20 0.0582
1182.30 0.05818
1182.40 0.05816
1182.50 0.05815
1182.60 0.05813
1182.70 0.05811
1182.80 0.05809
1182.90 0.05807
1183.00 0.05805
1183.10 0.05804
1183.20 0.05802
1183.30 0.058
1183.40 0.05798
1183.50 0.05796
1183.60 0.05794
1183.70 0.05793
1183.80 0.05791
1183.90 0.05789
1184.00 0.05787
1184.10 0.05785
1184.20 0.05783
1184.30 0.05782
1184.40 0.0578
1184.50 0.05778
1184.60 0.05776
1184.70 0.05774
1184.80 0.05773
1184.90 0.05771
1185.00 0.05769
1185.10 0.05767
1185.20 0.05765
1185.30 0.05763
1185.40 0.05762
1185.50 0.0576
1185.60 0.05758
1185.70 0.05756
1185.80 0.05754
1185.90 0.05753
1186.00 0.05751
1186.10 0.05749
1186.20 0.05747
1186.30 0.05745
1186.40 0.05743
1186.50 0.05742
1186.60 0.0574
1186.70 0.05738
1186.80 0.05736
1186.90 0.05734
1187.00 0.05733
1187.10 0.05731
1187.20 0.05729
1187.30 0.05727
1187.40 0.05725
1187.50 0.05723
1187.60 0.05722
1187.70 0.0572
1187.80 0.05718
1187.90 0.05716
1188.00 0.05714
1188.10 0.05713
1188.20 0.05711
1188.30 0.05709
1188.40 0.05707
1188.50 0.05705
1188.60 0.05703
1188.70 0.05702
1188.80 0.057
1188.90 0.05698
1189.00 0.05696
1189.10 0.05694
1189.20 0.05693
1189.30 0.05691
1189.40 0.05689
1189.50 0.05687
1189.60 0.05685
1189.70 0.05683
1189.80 0.05682
1189.90 0.0568
1190.00 0.05678
1190.10 0.05676
1190.20 0.05674
1190.30 0.05673
1190.40 0.05671
1190.50 0.05669
1190.60 0.05667
1190.70 0.05665
1190.80 0.05664
1190.90 0.05662
1191.00 0.0566
1191.10 0.05658
1191.20 0.05656
1191.30 0.05655
1191.40 0.05653
1191.50 0.05651
1191.60 0.05649
1191.70 0.05647
1191.80 0.05646
1191.90 0.05644
1192.00 0.05642
1192.10 0.0564
1192.20 0.05638
1192.30 0.05637
1192.40 0.05635
1192.50 0.05633
1192.60 0.05631
1192.70 0.05629
1192.80 0.05628
1192.90 0.05626
1193.00 0.05624
1193.10 0.05622
1193.20 0.0562
1193.30 0.05619
1193.40 0.05617
1193.50 0.05615
1193.60 0.05613
1193.70 0.05611
1193.80 0.0561
1193.90 0.05608
1194.00 0.05606
1194.10 0.05604
1194.20 0.05602
1194.30 0.05601
1194.40 0.05599
1194.50 0.05597
1194.60 0.05595
1194.70 0.05593
1194.80 0.05592
1194.90 0.0559
1195.00 0.05588
1195.10 0.05586
1195.20 0.05584
1195.30 0.05583
1195.40 0.05581
1195.50 0.05579
1195.60 0.05577
1195.70 0.05575
1195.80 0.05574
1195.90 0.05572
1196.00 0.0557
1196.10 0.05568
1196.20 0.05566
1196.30 0.05565
1196.40 0.05563
1196.50 0.05561
1196.60 0.05559
1196.70 0.05558
1196.80 0.05556
1196.90 0.05554
1197.00 0.05552
1197.10 0.0555
1197.20 0.05549
1197.30 0.05547
1197.40 0.05545
1197.50 0.05543
1197.60 0.05541
1197.70 0.05539
1197.80 0.05538
1197.90 0.05536
1198.00 0.05534
1198.10 0.05532
1198.20 0.0553
1198.30 0.05529
1198.40 0.05527
1198.50 0.05525
1198.60 0.05523
1198.70 0.05521
1198.80 0.0552
1198.90 0.05518
1199.00 0.05516
1199.10 0.05514
1199.20 0.05512
1199.30 0.0551
1199.40 0.05509
1199.50 0.05507
1199.60 0.05505
1199.70 0.05503
1199.80 0.05501
1199.90 0.055
1200.00 0
