# Version 2.1 - nm, norm@500 to 1, cut digits, bergeron_9000_70.dat_9000
# Wavelength(nm)  Flambda(ergs/cm^s/s/nm)
300.00 1.366
300.10 1.365
300.20 1.365
300.30 1.364
300.40 1.364
300.50 1.364
300.60 1.363
300.70 1.363
300.80 1.363
300.90 1.362
301.00 1.362
301.10 1.361
301.20 1.361
301.30 1.361
301.40 1.36
301.50 1.36
301.60 1.36
301.70 1.359
301.80 1.359
301.90 1.358
302.00 1.358
302.10 1.358
302.20 1.357
302.30 1.357
302.40 1.357
302.50 1.356
302.60 1.356
302.70 1.355
302.80 1.355
302.90 1.355
303.00 1.354
303.10 1.354
303.20 1.354
303.30 1.353
303.40 1.353
303.50 1.352
303.60 1.352
303.70 1.352
303.80 1.351
303.90 1.351
304.00 1.351
304.10 1.35
304.20 1.35
304.30 1.349
304.40 1.349
304.50 1.349
304.60 1.348
304.70 1.348
304.80 1.348
304.90 1.347
305.00 1.347
305.10 1.346
305.20 1.346
305.30 1.346
305.40 1.345
305.50 1.345
305.60 1.344
305.70 1.344
305.80 1.344
305.90 1.343
306.00 1.343
306.10 1.343
306.20 1.342
306.30 1.342
306.40 1.341
306.50 1.341
306.60 1.341
306.70 1.34
306.80 1.34
306.90 1.339
307.00 1.339
307.10 1.339
307.20 1.338
307.30 1.338
307.40 1.338
307.50 1.337
307.60 1.337
307.70 1.336
307.80 1.336
307.90 1.336
308.00 1.335
308.10 1.335
308.20 1.334
308.30 1.334
308.40 1.334
308.50 1.333
308.60 1.333
308.70 1.332
308.80 1.332
308.90 1.332
309.00 1.331
309.10 1.331
309.20 1.331
309.30 1.33
309.40 1.33
309.50 1.329
309.60 1.329
309.70 1.329
309.80 1.328
309.90 1.328
310.00 1.327
310.10 1.327
310.20 1.327
310.30 1.326
310.40 1.326
310.50 1.325
310.60 1.325
310.70 1.325
310.80 1.324
310.90 1.324
311.00 1.323
311.10 1.323
311.20 1.323
311.30 1.322
311.40 1.322
311.50 1.321
311.60 1.321
311.70 1.321
311.80 1.32
311.90 1.32
312.00 1.32
312.10 1.319
312.20 1.319
312.30 1.318
312.40 1.318
312.50 1.318
312.60 1.317
312.70 1.317
312.80 1.316
312.90 1.316
313.00 1.316
313.10 1.315
313.20 1.315
313.30 1.314
313.40 1.314
313.50 1.314
313.60 1.313
313.70 1.313
313.80 1.312
313.90 1.312
314.00 1.312
314.10 1.311
314.20 1.311
314.30 1.31
314.40 1.31
314.50 1.31
314.60 1.309
314.70 1.309
314.80 1.308
314.90 1.308
315.00 1.308
315.10 1.307
315.20 1.307
315.30 1.306
315.40 1.306
315.50 1.306
315.60 1.305
315.70 1.305
315.80 1.304
315.90 1.304
316.00 1.304
316.10 1.303
316.20 1.303
316.30 1.302
316.40 1.302
316.50 1.302
316.60 1.301
316.70 1.301
316.80 1.3
316.90 1.3
317.00 1.3
317.10 1.299
317.20 1.299
317.30 1.298
317.40 1.298
317.50 1.298
317.60 1.297
317.70 1.297
317.80 1.296
317.90 1.296
318.00 1.296
318.10 1.295
318.20 1.295
318.30 1.294
318.40 1.294
318.50 1.294
318.60 1.293
318.70 1.293
318.80 1.292
318.90 1.292
319.00 1.292
319.10 1.291
319.20 1.291
319.30 1.29
319.40 1.29
319.50 1.29
319.60 1.289
319.70 1.289
319.80 1.288
319.90 1.288
320.00 1.288
320.10 1.287
320.20 1.287
320.30 1.286
320.40 1.286
320.50 1.286
320.60 1.285
320.70 1.285
320.80 1.284
320.90 1.284
321.00 1.283
321.10 1.283
321.20 1.283
321.30 1.282
321.40 1.282
321.50 1.281
321.60 1.281
321.70 1.281
321.80 1.28
321.90 1.28
322.00 1.279
322.10 1.279
322.20 1.279
322.30 1.278
322.40 1.278
322.50 1.277
322.60 1.277
322.70 1.277
322.80 1.276
322.90 1.276
323.00 1.275
323.10 1.275
323.20 1.275
323.30 1.274
323.40 1.274
323.50 1.273
323.60 1.273
323.70 1.273
323.80 1.272
323.90 1.272
324.00 1.271
324.10 1.271
324.20 1.27
324.30 1.27
324.40 1.27
324.50 1.269
324.60 1.269
324.70 1.268
324.80 1.268
324.90 1.268
325.00 1.267
325.10 1.267
325.20 1.266
325.30 1.266
325.40 1.266
325.50 1.265
325.60 1.265
325.70 1.264
325.80 1.264
325.90 1.263
326.00 1.263
326.10 1.263
326.20 1.262
326.30 1.262
326.40 1.261
326.50 1.261
326.60 1.261
326.70 1.26
326.80 1.26
326.90 1.259
327.00 1.259
327.10 1.259
327.20 1.258
327.30 1.258
327.40 1.257
327.50 1.257
327.60 1.256
327.70 1.256
327.80 1.256
327.90 1.255
328.00 1.255
328.10 1.254
328.20 1.254
328.30 1.254
328.40 1.253
328.50 1.253
328.60 1.252
328.70 1.252
328.80 1.252
328.90 1.251
329.00 1.251
329.10 1.25
329.20 1.25
329.30 1.25
329.40 1.249
329.50 1.249
329.60 1.248
329.70 1.248
329.80 1.247
329.90 1.247
330.00 1.247
330.10 1.246
330.20 1.246
330.30 1.245
330.40 1.245
330.50 1.245
330.60 1.244
330.70 1.244
330.80 1.243
330.90 1.243
331.00 1.243
331.10 1.242
331.20 1.242
331.30 1.241
331.40 1.241
331.50 1.24
331.60 1.24
331.70 1.24
331.80 1.239
331.90 1.239
332.00 1.238
332.10 1.238
332.20 1.238
332.30 1.237
332.40 1.237
332.50 1.236
332.60 1.236
332.70 1.236
332.80 1.235
332.90 1.235
333.00 1.234
333.10 1.234
333.20 1.233
333.30 1.233
333.40 1.233
333.50 1.232
333.60 1.232
333.70 1.231
333.80 1.231
333.90 1.231
334.00 1.23
334.10 1.23
334.20 1.229
334.30 1.229
334.40 1.228
334.50 1.228
334.60 1.228
334.70 1.227
334.80 1.227
334.90 1.226
335.00 1.226
335.10 1.226
335.20 1.225
335.30 1.225
335.40 1.224
335.50 1.224
335.60 1.224
335.70 1.223
335.80 1.223
335.90 1.222
336.00 1.222
336.10 1.221
336.20 1.221
336.30 1.221
336.40 1.22
336.50 1.22
336.60 1.219
336.70 1.219
336.80 1.219
336.90 1.218
337.00 1.218
337.10 1.217
337.20 1.217
337.30 1.216
337.40 1.216
337.50 1.216
337.60 1.215
337.70 1.215
337.80 1.214
337.90 1.214
338.00 1.214
338.10 1.213
338.20 1.213
338.30 1.212
338.40 1.212
338.50 1.212
338.60 1.211
338.70 1.211
338.80 1.21
338.90 1.21
339.00 1.209
339.10 1.209
339.20 1.209
339.30 1.208
339.40 1.208
339.50 1.207
339.60 1.207
339.70 1.207
339.80 1.206
339.90 1.206
340.00 1.205
340.10 1.205
340.20 1.204
340.30 1.204
340.40 1.204
340.50 1.203
340.60 1.203
340.70 1.202
340.80 1.202
340.90 1.202
341.00 1.201
341.10 1.201
341.20 1.2
341.30 1.2
341.40 1.199
341.50 1.199
341.60 1.199
341.70 1.198
341.80 1.198
341.90 1.197
342.00 1.197
342.10 1.197
342.20 1.196
342.30 1.196
342.40 1.195
342.50 1.195
342.60 1.194
342.70 1.194
342.80 1.194
342.90 1.193
343.00 1.193
343.10 1.192
343.20 1.192
343.30 1.192
343.40 1.191
343.50 1.191
343.60 1.19
343.70 1.19
343.80 1.19
343.90 1.189
344.00 1.189
344.10 1.188
344.20 1.188
344.30 1.187
344.40 1.187
344.50 1.187
344.60 1.186
344.70 1.186
344.80 1.185
344.90 1.185
345.00 1.185
345.10 1.184
345.20 1.184
345.30 1.183
345.40 1.183
345.50 1.182
345.60 1.182
345.70 1.182
345.80 1.181
345.90 1.181
346.00 1.18
346.10 1.18
346.20 1.18
346.30 1.179
346.40 1.179
346.50 1.178
346.60 1.178
346.70 1.177
346.80 1.177
346.90 1.177
347.00 1.176
347.10 1.176
347.20 1.175
347.30 1.175
347.40 1.175
347.50 1.174
347.60 1.174
347.70 1.173
347.80 1.173
347.90 1.173
348.00 1.172
348.10 1.172
348.20 1.171
348.30 1.171
348.40 1.17
348.50 1.17
348.60 1.17
348.70 1.169
348.80 1.169
348.90 1.168
349.00 1.168
349.10 1.168
349.20 1.167
349.30 1.167
349.40 1.166
349.50 1.166
349.60 1.165
349.70 1.165
349.80 1.165
349.90 1.164
350.00 1.164
350.10 1.163
350.20 1.163
350.30 1.163
350.40 1.162
350.50 1.162
350.60 1.161
350.70 1.161
350.80 1.16
350.90 1.16
351.00 1.16
351.10 1.159
351.20 1.159
351.30 1.158
351.40 1.158
351.50 1.158
351.60 1.157
351.70 1.157
351.80 1.156
351.90 1.156
352.00 1.156
352.10 1.155
352.20 1.155
352.30 1.154
352.40 1.154
352.50 1.154
352.60 1.153
352.70 1.153
352.80 1.152
352.90 1.152
353.00 1.151
353.10 1.151
353.20 1.151
353.30 1.15
353.40 1.15
353.50 1.149
353.60 1.149
353.70 1.149
353.80 1.148
353.90 1.148
354.00 1.147
354.10 1.147
354.20 1.146
354.30 1.146
354.40 1.146
354.50 1.145
354.60 1.145
354.70 1.144
354.80 1.144
354.90 1.144
355.00 1.143
355.10 1.143
355.20 1.142
355.30 1.142
355.40 1.142
355.50 1.141
355.60 1.141
355.70 1.14
355.80 1.14
355.90 1.14
356.00 1.139
356.10 1.139
356.20 1.138
356.30 1.138
356.40 1.137
356.50 1.137
356.60 1.137
356.70 1.136
356.80 1.136
356.90 1.135
357.00 1.135
357.10 1.135
357.20 1.134
357.30 1.134
357.40 1.133
357.50 1.133
357.60 1.133
357.70 1.132
357.80 1.132
357.90 1.131
358.00 1.131
358.10 1.13
358.20 1.13
358.30 1.13
358.40 1.129
358.50 1.129
358.60 1.128
358.70 1.128
358.80 1.128
358.90 1.127
359.00 1.127
359.10 1.126
359.20 1.126
359.30 1.126
359.40 1.125
359.50 1.125
359.60 1.124
359.70 1.124
359.80 1.123
359.90 1.123
360.00 1.123
360.10 1.122
360.20 1.122
360.30 1.121
360.40 1.121
360.50 1.121
360.60 1.12
360.70 1.12
360.80 1.119
360.90 1.119
361.00 1.119
361.10 1.118
361.20 1.118
361.30 1.117
361.40 1.117
361.50 1.117
361.60 1.116
361.70 1.116
361.80 1.115
361.90 1.115
362.00 1.114
362.10 1.114
362.20 1.114
362.30 1.113
362.40 1.113
362.50 1.112
362.60 1.112
362.70 1.112
362.80 1.111
362.90 1.111
363.00 1.11
363.10 1.11
363.20 1.11
363.30 1.109
363.40 1.109
363.50 1.108
363.60 1.108
363.70 1.107
363.80 1.107
363.90 1.106
364.00 1.106
364.10 1.106
364.20 1.105
364.30 1.105
364.40 1.104
364.50 1.104
364.60 1.104
364.70 1.103
364.80 1.103
364.90 1.102
365.00 1.102
365.10 1.102
365.20 1.101
365.30 1.101
365.40 1.101
365.50 1.1
365.60 1.1
365.70 1.1
365.80 1.099
365.90 1.099
366.00 1.099
366.10 1.098
366.20 1.098
366.30 1.098
366.40 1.097
366.50 1.097
366.60 1.097
366.70 1.096
366.80 1.096
366.90 1.096
367.00 1.096
367.10 1.095
367.20 1.095
367.30 1.095
367.40 1.094
367.50 1.094
367.60 1.094
367.70 1.094
367.80 1.093
367.90 1.093
368.00 1.093
368.10 1.094
368.20 1.095
368.30 1.096
368.40 1.097
368.50 1.098
368.60 1.099
368.70 1.1
368.80 1.101
368.90 1.102
369.00 1.103
369.10 1.104
369.20 1.105
369.30 1.106
369.40 1.107
369.50 1.108
369.60 1.109
369.70 1.11
369.80 1.111
369.90 1.112
370.00 1.113
370.10 1.116
370.20 1.118
370.30 1.121
370.40 1.124
370.50 1.126
370.60 1.129
370.70 1.132
370.80 1.134
370.90 1.137
371.00 1.139
371.10 1.142
371.20 1.145
371.30 1.147
371.40 1.15
371.50 1.153
371.60 1.155
371.70 1.158
371.80 1.16
371.90 1.163
372.00 1.165
372.10 1.169
372.20 1.172
372.30 1.175
372.40 1.178
372.50 1.182
372.60 1.185
372.70 1.188
372.80 1.191
372.90 1.194
373.00 1.198
373.10 1.201
373.20 1.204
373.30 1.207
373.40 1.21
373.50 1.213
373.60 1.217
373.70 1.22
373.80 1.223
373.90 1.226
374.00 1.229
374.10 1.232
374.20 1.235
374.30 1.237
374.40 1.24
374.50 1.243
374.60 1.246
374.70 1.248
374.80 1.251
374.90 1.254
375.00 1.256
375.10 1.259
375.20 1.262
375.30 1.265
375.40 1.267
375.50 1.27
375.60 1.273
375.70 1.275
375.80 1.278
375.90 1.281
376.00 1.283
376.10 1.285
376.20 1.286
376.30 1.287
376.40 1.289
376.50 1.29
376.60 1.291
376.70 1.292
376.80 1.294
376.90 1.295
377.00 1.296
377.10 1.294
377.20 1.293
377.30 1.291
377.40 1.289
377.50 1.287
377.60 1.285
377.70 1.284
377.80 1.282
377.90 1.28
378.00 1.278
378.10 1.264
378.20 1.25
378.30 1.236
378.40 1.221
378.50 1.207
378.60 1.193
378.70 1.179
378.80 1.165
378.90 1.151
379.00 1.137
379.10 1.113
379.20 1.089
379.30 1.066
379.40 1.042
379.50 1.018
379.60 0.9946
379.70 0.9711
379.80 0.9475
379.90 0.924
380.00 0.9005
380.10 0.9323
380.20 0.9642
380.30 0.996
380.40 1.028
380.50 1.06
380.60 1.091
380.70 1.123
380.80 1.155
380.90 1.186
381.00 1.218
381.10 1.225
381.20 1.232
381.30 1.239
381.40 1.246
381.50 1.253
381.60 1.254
381.70 1.253
381.80 1.249
381.90 1.244
382.00 1.237
382.10 1.227
382.20 1.214
382.30 1.179
382.40 1.143
382.50 1.107
382.60 1.072
382.70 1.036
382.80 1.001
382.90 0.9652
383.00 0.9297
383.10 0.8943
383.20 0.859
383.30 0.7911
383.40 0.713
383.50 0.631
383.60 0.6486
383.70 0.7309
383.80 0.8075
383.90 0.8737
384.00 0.9317
384.10 0.984
384.20 1.031
384.30 1.074
384.40 1.112
384.50 1.145
384.60 1.173
384.70 1.198
384.80 1.219
384.90 1.237
385.00 1.252
385.10 1.265
385.20 1.276
385.30 1.286
385.40 1.293
385.50 1.3
385.60 1.305
385.70 1.309
385.80 1.312
385.90 1.315
386.00 1.316
386.10 1.316
386.20 1.316
386.30 1.314
386.40 1.311
386.50 1.308
386.60 1.304
386.70 1.298
386.80 1.292
386.90 1.284
387.00 1.276
387.10 1.266
387.20 1.254
387.30 1.241
387.40 1.226
387.50 1.209
387.60 1.189
387.70 1.167
387.80 1.139
387.90 1.108
388.00 1.073
388.10 1.029
388.20 0.9816
388.30 0.9293
388.40 0.8686
388.50 0.8037
388.60 0.7346
388.70 0.6543
388.80 0.5734
388.90 0.4917
389.00 0.5676
389.10 0.646
389.20 0.727
389.30 0.7967
389.40 0.862
389.50 0.9231
389.60 0.976
389.70 1.025
389.80 1.069
389.90 1.105
390.00 1.137
390.10 1.166
390.20 1.189
390.30 1.21
390.40 1.229
390.50 1.246
390.60 1.261
390.70 1.274
390.80 1.286
390.90 1.298
391.00 1.308
391.10 1.317
391.20 1.325
391.30 1.333
391.40 1.34
391.50 1.347
391.60 1.353
391.70 1.358
391.80 1.363
391.90 1.367
392.00 1.371
392.10 1.374
392.20 1.377
392.30 1.379
392.40 1.381
392.50 1.382
392.60 1.383
392.70 1.384
392.80 1.384
392.90 1.384
393.00 1.383
393.10 1.382
393.20 1.381
393.30 1.379
393.40 1.376
393.50 1.373
393.60 1.37
393.70 1.366
393.80 1.362
393.90 1.357
394.00 1.352
394.10 1.346
394.20 1.339
394.30 1.332
394.40 1.324
394.50 1.316
394.60 1.307
394.70 1.297
394.80 1.287
394.90 1.275
395.00 1.263
395.10 1.249
395.20 1.235
395.30 1.219
395.40 1.202
395.50 1.184
395.60 1.163
395.70 1.14
395.80 1.115
395.90 1.085
396.00 1.052
396.10 1.016
396.20 0.9718
396.30 0.9227
396.40 0.8687
396.50 0.8057
396.60 0.7396
396.70 0.6702
396.80 0.5935
396.90 0.5122
397.00 0.4261
397.10 0.5047
397.20 0.5826
397.30 0.6598
397.40 0.7295
397.50 0.7958
397.60 0.8589
397.70 0.9134
397.80 0.9629
397.90 1.008
398.00 1.044
398.10 1.077
398.20 1.106
398.30 1.131
398.40 1.154
398.50 1.175
398.60 1.193
398.70 1.21
398.80 1.226
398.90 1.24
399.00 1.253
399.10 1.266
399.20 1.277
399.30 1.288
399.40 1.298
399.50 1.307
399.60 1.316
399.70 1.325
399.80 1.332
399.90 1.339
400.00 1.346
400.10 1.352
400.20 1.358
400.30 1.364
400.40 1.369
400.50 1.374
400.60 1.378
400.70 1.383
400.80 1.387
400.90 1.39
401.00 1.394
401.10 1.397
401.20 1.4
401.30 1.403
401.40 1.405
401.50 1.408
401.60 1.41
401.70 1.412
401.80 1.413
401.90 1.415
402.00 1.416
402.10 1.418
402.20 1.419
402.30 1.42
402.40 1.421
402.50 1.422
402.60 1.422
402.70 1.423
402.80 1.423
402.90 1.423
403.00 1.423
403.10 1.423
403.20 1.423
403.30 1.423
403.40 1.423
403.50 1.422
403.60 1.422
403.70 1.421
403.80 1.421
403.90 1.42
404.00 1.419
404.10 1.418
404.20 1.416
404.30 1.415
404.40 1.414
404.50 1.412
404.60 1.41
404.70 1.408
404.80 1.406
404.90 1.404
405.00 1.402
405.10 1.4
405.20 1.397
405.30 1.394
405.40 1.391
405.50 1.388
405.60 1.385
405.70 1.381
405.80 1.378
405.90 1.374
406.00 1.37
406.10 1.366
406.20 1.361
406.30 1.356
406.40 1.351
406.50 1.346
406.60 1.341
406.70 1.335
406.80 1.329
406.90 1.322
407.00 1.315
407.10 1.308
407.20 1.3
407.30 1.292
407.40 1.283
407.50 1.274
407.60 1.264
407.70 1.254
407.80 1.243
407.90 1.231
408.00 1.218
408.10 1.205
408.20 1.191
408.30 1.175
408.40 1.159
408.50 1.142
408.60 1.123
408.70 1.103
408.80 1.081
408.90 1.058
409.00 1.032
409.10 1.002
409.20 0.9697
409.30 0.9341
409.40 0.8908
409.50 0.8431
409.60 0.7912
409.70 0.7318
409.80 0.6701
409.90 0.6061
410.00 0.5352
410.10 0.4706
410.20 0.4125
410.30 0.497
410.40 0.5731
410.50 0.6408
410.60 0.7032
410.70 0.7626
410.80 0.819
410.90 0.8672
411.00 0.9111
411.10 0.9508
411.20 0.9834
411.30 1.013
411.40 1.041
411.50 1.064
411.60 1.086
411.70 1.106
411.80 1.124
411.90 1.141
412.00 1.157
412.10 1.171
412.20 1.185
412.30 1.198
412.40 1.21
412.50 1.221
412.60 1.232
412.70 1.241
412.80 1.251
412.90 1.259
413.00 1.267
413.10 1.275
413.20 1.282
413.30 1.288
413.40 1.295
413.50 1.301
413.60 1.306
413.70 1.311
413.80 1.316
413.90 1.321
414.00 1.325
414.10 1.329
414.20 1.333
414.30 1.337
414.40 1.34
414.50 1.343
414.60 1.347
414.70 1.349
414.80 1.352
414.90 1.355
415.00 1.357
415.10 1.36
415.20 1.362
415.30 1.364
415.40 1.366
415.50 1.368
415.60 1.369
415.70 1.371
415.80 1.372
415.90 1.374
416.00 1.375
416.10 1.376
416.20 1.377
416.30 1.378
416.40 1.379
416.50 1.38
416.60 1.381
416.70 1.382
416.80 1.383
416.90 1.383
417.00 1.384
417.10 1.385
417.20 1.385
417.30 1.386
417.40 1.386
417.50 1.386
417.60 1.387
417.70 1.387
417.80 1.387
417.90 1.388
418.00 1.388
418.10 1.388
418.20 1.388
418.30 1.388
418.40 1.388
418.50 1.388
418.60 1.388
418.70 1.388
418.80 1.388
418.90 1.388
419.00 1.388
419.10 1.388
419.20 1.388
419.30 1.388
419.40 1.388
419.50 1.387
419.60 1.387
419.70 1.387
419.80 1.387
419.90 1.386
420.00 1.386
420.10 1.386
420.20 1.386
420.30 1.385
420.40 1.385
420.50 1.384
420.60 1.384
420.70 1.384
420.80 1.383
420.90 1.383
421.00 1.382
421.10 1.382
421.20 1.382
421.30 1.381
421.40 1.381
421.50 1.38
421.60 1.38
421.70 1.379
421.80 1.378
421.90 1.378
422.00 1.377
422.10 1.377
422.20 1.376
422.30 1.376
422.40 1.375
422.50 1.374
422.60 1.374
422.70 1.373
422.80 1.372
422.90 1.372
423.00 1.371
423.10 1.37
423.20 1.369
423.30 1.369
423.40 1.368
423.50 1.367
423.60 1.366
423.70 1.366
423.80 1.365
423.90 1.364
424.00 1.363
424.10 1.362
424.20 1.361
424.30 1.36
424.40 1.36
424.50 1.359
424.60 1.358
424.70 1.357
424.80 1.356
424.90 1.355
425.00 1.354
425.10 1.353
425.20 1.352
425.30 1.351
425.40 1.35
425.50 1.348
425.60 1.347
425.70 1.346
425.80 1.345
425.90 1.344
426.00 1.342
426.10 1.341
426.20 1.34
426.30 1.338
426.40 1.337
426.50 1.335
426.60 1.334
426.70 1.333
426.80 1.331
426.90 1.33
427.00 1.328
427.10 1.326
427.20 1.325
427.30 1.323
427.40 1.321
427.50 1.319
427.60 1.318
427.70 1.316
427.80 1.314
427.90 1.312
428.00 1.309
428.10 1.307
428.20 1.305
428.30 1.303
428.40 1.3
428.50 1.298
428.60 1.295
428.70 1.292
428.80 1.289
428.90 1.286
429.00 1.283
429.10 1.28
429.20 1.277
429.30 1.274
429.40 1.27
429.50 1.266
429.60 1.263
429.70 1.259
429.80 1.254
429.90 1.25
430.00 1.246
430.10 1.241
430.20 1.236
430.30 1.231
430.40 1.226
430.50 1.22
430.60 1.215
430.70 1.209
430.80 1.203
430.90 1.196
431.00 1.189
431.10 1.182
431.20 1.175
431.30 1.168
431.40 1.16
431.50 1.151
431.60 1.142
431.70 1.133
431.80 1.123
431.90 1.112
432.00 1.1
432.10 1.087
432.20 1.073
432.30 1.057
432.40 1.041
432.50 1.022
432.60 1.001
432.70 0.9785
432.80 0.953
432.90 0.9262
433.00 0.8983
433.10 0.8684
433.20 0.8364
433.30 0.8021
433.40 0.7602
433.50 0.7145
433.60 0.6649
433.70 0.6112
433.80 0.5544
433.90 0.4945
434.00 0.4063
434.10 0.408
434.20 0.4994
434.30 0.5587
434.40 0.615
434.50 0.6681
434.60 0.7169
434.70 0.7617
434.80 0.8025
434.90 0.8358
435.00 0.8669
435.10 0.8959
435.20 0.9229
435.30 0.9487
435.40 0.9732
435.50 0.9945
435.60 1.014
435.70 1.032
435.80 1.048
435.90 1.062
436.00 1.075
436.10 1.087
436.20 1.097
436.30 1.108
436.40 1.116
436.50 1.125
436.60 1.133
436.70 1.14
436.80 1.147
436.90 1.153
437.00 1.159
437.10 1.165
437.20 1.171
437.30 1.176
437.40 1.181
437.50 1.186
437.60 1.19
437.70 1.195
437.80 1.199
437.90 1.203
438.00 1.207
438.10 1.21
438.20 1.213
438.30 1.216
438.40 1.219
438.50 1.222
438.60 1.225
438.70 1.227
438.80 1.23
438.90 1.232
439.00 1.234
439.10 1.236
439.20 1.238
439.30 1.24
439.40 1.241
439.50 1.243
439.60 1.245
439.70 1.246
439.80 1.247
439.90 1.249
440.00 1.25
440.10 1.251
440.20 1.252
440.30 1.253
440.40 1.254
440.50 1.254
440.60 1.255
440.70 1.256
440.80 1.256
440.90 1.257
441.00 1.258
441.10 1.258
441.20 1.259
441.30 1.259
441.40 1.259
441.50 1.26
441.60 1.26
441.70 1.261
441.80 1.261
441.90 1.261
442.00 1.261
442.10 1.262
442.20 1.262
442.30 1.262
442.40 1.262
442.50 1.262
442.60 1.262
442.70 1.262
442.80 1.262
442.90 1.262
443.00 1.262
443.10 1.262
443.20 1.262
443.30 1.262
443.40 1.262
443.50 1.262
443.60 1.262
443.70 1.262
443.80 1.262
443.90 1.262
444.00 1.261
444.10 1.261
444.20 1.261
444.30 1.261
444.40 1.261
444.50 1.261
444.60 1.26
444.70 1.26
444.80 1.26
444.90 1.26
445.00 1.26
445.10 1.259
445.20 1.259
445.30 1.259
445.40 1.259
445.50 1.258
445.60 1.258
445.70 1.258
445.80 1.257
445.90 1.257
446.00 1.257
446.10 1.256
446.20 1.256
446.30 1.256
446.40 1.255
446.50 1.255
446.60 1.255
446.70 1.254
446.80 1.254
446.90 1.254
447.00 1.253
447.10 1.253
447.20 1.253
447.30 1.252
447.40 1.252
447.50 1.252
447.60 1.251
447.70 1.251
447.80 1.25
447.90 1.25
448.00 1.25
448.10 1.249
448.20 1.249
448.30 1.248
448.40 1.248
448.50 1.247
448.60 1.247
448.70 1.247
448.80 1.246
448.90 1.246
449.00 1.245
449.10 1.245
449.20 1.245
449.30 1.244
449.40 1.244
449.50 1.243
449.60 1.243
449.70 1.242
449.80 1.242
449.90 1.241
450.00 1.241
450.10 1.241
450.20 1.24
450.30 1.24
450.40 1.239
450.50 1.239
450.60 1.238
450.70 1.238
450.80 1.237
450.90 1.237
451.00 1.236
451.10 1.236
451.20 1.236
451.30 1.235
451.40 1.235
451.50 1.234
451.60 1.234
451.70 1.233
451.80 1.233
451.90 1.232
452.00 1.232
452.10 1.231
452.20 1.231
452.30 1.23
452.40 1.23
452.50 1.229
452.60 1.229
452.70 1.228
452.80 1.228
452.90 1.227
453.00 1.227
453.10 1.226
453.20 1.226
453.30 1.225
453.40 1.225
453.50 1.224
453.60 1.224
453.70 1.223
453.80 1.223
453.90 1.222
454.00 1.222
454.10 1.221
454.20 1.221
454.30 1.22
454.40 1.22
454.50 1.219
454.60 1.219
454.70 1.218
454.80 1.218
454.90 1.217
455.00 1.217
455.10 1.216
455.20 1.216
455.30 1.215
455.40 1.215
455.50 1.214
455.60 1.214
455.70 1.213
455.80 1.213
455.90 1.212
456.00 1.212
456.10 1.211
456.20 1.211
456.30 1.21
456.40 1.21
456.50 1.209
456.60 1.209
456.70 1.208
456.80 1.208
456.90 1.207
457.00 1.207
457.10 1.206
457.20 1.206
457.30 1.205
457.40 1.205
457.50 1.204
457.60 1.204
457.70 1.203
457.80 1.203
457.90 1.202
458.00 1.202
458.10 1.201
458.20 1.201
458.30 1.2
458.40 1.2
458.50 1.199
458.60 1.199
458.70 1.198
458.80 1.198
458.90 1.197
459.00 1.197
459.10 1.196
459.20 1.196
459.30 1.195
459.40 1.195
459.50 1.194
459.60 1.194
459.70 1.193
459.80 1.193
459.90 1.192
460.00 1.192
460.10 1.191
460.20 1.191
460.30 1.19
460.40 1.189
460.50 1.189
460.60 1.188
460.70 1.188
460.80 1.187
460.90 1.187
461.00 1.186
461.10 1.186
461.20 1.185
461.30 1.185
461.40 1.184
461.50 1.184
461.60 1.183
461.70 1.183
461.80 1.182
461.90 1.182
462.00 1.181
462.10 1.181
462.20 1.18
462.30 1.18
462.40 1.179
462.50 1.179
462.60 1.178
462.70 1.177
462.80 1.177
462.90 1.176
463.00 1.176
463.10 1.175
463.20 1.175
463.30 1.174
463.40 1.174
463.50 1.173
463.60 1.173
463.70 1.172
463.80 1.172
463.90 1.171
464.00 1.171
464.10 1.17
464.20 1.17
464.30 1.169
464.40 1.169
464.50 1.168
464.60 1.167
464.70 1.167
464.80 1.166
464.90 1.166
465.00 1.165
465.10 1.165
465.20 1.164
465.30 1.164
465.40 1.163
465.50 1.163
465.60 1.162
465.70 1.162
465.80 1.161
465.90 1.161
466.00 1.16
466.10 1.159
466.20 1.159
466.30 1.158
466.40 1.158
466.50 1.157
466.60 1.157
466.70 1.156
466.80 1.156
466.90 1.155
467.00 1.155
467.10 1.154
467.20 1.153
467.30 1.153
467.40 1.152
467.50 1.152
467.60 1.151
467.70 1.151
467.80 1.15
467.90 1.15
468.00 1.149
468.10 1.148
468.20 1.148
468.30 1.147
468.40 1.147
468.50 1.146
468.60 1.146
468.70 1.145
468.80 1.145
468.90 1.144
469.00 1.143
469.10 1.143
469.20 1.142
469.30 1.142
469.40 1.141
469.50 1.141
469.60 1.14
469.70 1.139
469.80 1.139
469.90 1.138
470.00 1.138
470.10 1.137
470.20 1.136
470.30 1.136
470.40 1.135
470.50 1.135
470.60 1.134
470.70 1.134
470.80 1.133
470.90 1.132
471.00 1.132
471.10 1.131
471.20 1.131
471.30 1.13
471.40 1.129
471.50 1.129
471.60 1.128
471.70 1.127
471.80 1.127
471.90 1.126
472.00 1.126
472.10 1.125
472.20 1.124
472.30 1.124
472.40 1.123
472.50 1.122
472.60 1.122
472.70 1.121
472.80 1.12
472.90 1.12
473.00 1.119
473.10 1.119
473.20 1.118
473.30 1.117
473.40 1.116
473.50 1.116
473.60 1.115
473.70 1.114
473.80 1.114
473.90 1.113
474.00 1.112
474.10 1.112
474.20 1.111
474.30 1.11
474.40 1.109
474.50 1.109
474.60 1.108
474.70 1.107
474.80 1.106
474.90 1.106
475.00 1.105
475.10 1.104
475.20 1.103
475.30 1.102
475.40 1.102
475.50 1.101
475.60 1.1
475.70 1.099
475.80 1.098
475.90 1.097
476.00 1.097
476.10 1.096
476.20 1.095
476.30 1.094
476.40 1.093
476.50 1.092
476.60 1.091
476.70 1.09
476.80 1.089
476.90 1.088
477.00 1.087
477.10 1.086
477.20 1.085
477.30 1.084
477.40 1.083
477.50 1.082
477.60 1.081
477.70 1.08
477.80 1.079
477.90 1.078
478.00 1.077
478.10 1.075
478.20 1.074
478.30 1.073
478.40 1.071
478.50 1.07
478.60 1.069
478.70 1.067
478.80 1.066
478.90 1.065
479.00 1.063
479.10 1.062
479.20 1.06
479.30 1.059
479.40 1.057
479.50 1.055
479.60 1.054
479.70 1.052
479.80 1.05
479.90 1.049
480.00 1.047
480.10 1.045
480.20 1.043
480.30 1.041
480.40 1.038
480.50 1.036
480.60 1.034
480.70 1.032
480.80 1.029
480.90 1.027
481.00 1.025
481.10 1.022
481.20 1.019
481.30 1.016
481.40 1.013
481.50 1.01
481.60 1.007
481.70 1.003
481.80 1
481.90 0.9971
482.00 0.9939
482.10 0.9907
482.20 0.9864
482.30 0.9817
482.40 0.9769
482.50 0.9722
482.60 0.9674
482.70 0.9627
482.80 0.9579
482.90 0.9532
483.00 0.9485
483.10 0.9437
483.20 0.9369
483.30 0.929
483.40 0.9212
483.50 0.9133
483.60 0.9055
483.70 0.8977
483.80 0.8899
483.90 0.882
484.00 0.8742
484.10 0.8664
484.20 0.8555
484.30 0.8431
484.40 0.8307
484.50 0.8184
484.60 0.806
484.70 0.79
484.80 0.7722
484.90 0.7544
485.00 0.7366
485.10 0.7189
485.20 0.6974
485.30 0.6741
485.40 0.6477
485.50 0.6197
485.60 0.5885
485.70 0.5557
485.80 0.5191
485.90 0.4806
486.00 0.4387
486.10 0.3529
486.20 0.4016
486.30 0.4534
486.40 0.4931
486.50 0.5314
486.60 0.5657
486.70 0.5981
486.80 0.6272
486.90 0.6546
487.00 0.6789
487.10 0.7016
487.20 0.7206
487.30 0.7377
487.40 0.7548
487.50 0.7719
487.60 0.789
487.70 0.8023
487.80 0.814
487.90 0.8256
488.00 0.8372
488.10 0.8488
488.20 0.8572
488.30 0.8642
488.40 0.8712
488.50 0.8781
488.60 0.8851
488.70 0.8921
488.80 0.899
488.90 0.906
489.00 0.9129
489.10 0.9199
489.20 0.9247
489.30 0.9285
489.40 0.9323
489.50 0.9361
489.60 0.94
489.70 0.9438
489.80 0.9476
489.90 0.9514
490.00 0.9552
490.10 0.959
490.20 0.9617
490.30 0.964
490.40 0.9662
490.50 0.9685
490.60 0.9707
490.70 0.973
490.80 0.9752
490.90 0.9774
491.00 0.9797
491.10 0.9819
491.20 0.9835
491.30 0.9849
491.40 0.9862
491.50 0.9875
491.60 0.9888
491.70 0.9901
491.80 0.9915
491.90 0.9928
492.00 0.9941
492.10 0.9954
492.20 0.9963
492.30 0.997
492.40 0.9978
492.50 0.9985
492.60 0.9992
492.70 0.9999
492.80 1.001
492.90 1.001
493.00 1.002
493.10 1.003
493.20 1.003
493.30 1.004
493.40 1.004
493.50 1.004
493.60 1.005
493.70 1.005
493.80 1.006
493.90 1.006
494.00 1.006
494.10 1.007
494.20 1.007
494.30 1.007
494.40 1.007
494.50 1.007
494.60 1.008
494.70 1.008
494.80 1.008
494.90 1.008
495.00 1.008
495.10 1.008
495.20 1.008
495.30 1.008
495.40 1.008
495.50 1.008
495.60 1.008
495.70 1.008
495.80 1.008
495.90 1.008
496.00 1.008
496.10 1.008
496.20 1.008
496.30 1.008
496.40 1.008
496.50 1.008
496.60 1.008
496.70 1.007
496.80 1.007
496.90 1.007
497.00 1.007
497.10 1.007
497.20 1.007
497.30 1.007
497.40 1.006
497.50 1.006
497.60 1.006
497.70 1.006
497.80 1.006
497.90 1.005
498.00 1.005
498.10 1.005
498.20 1.005
498.30 1.005
498.40 1.004
498.50 1.004
498.60 1.004
498.70 1.004
498.80 1.003
498.90 1.003
499.00 1.003
499.10 1.003
499.20 1.002
499.30 1.002
499.40 1.002
499.50 1.001
499.60 1.001
499.70 1.001
499.80 1.001
499.90 1
500.00 1
500.10 0.9997
500.20 0.9994
500.30 0.9991
500.40 0.9988
500.50 0.9985
500.60 0.9981
500.70 0.9978
500.80 0.9975
500.90 0.9972
501.00 0.9969
501.10 0.9965
501.20 0.9962
501.30 0.9959
501.40 0.9955
501.50 0.9952
501.60 0.9949
501.70 0.9945
501.80 0.9942
501.90 0.9938
502.00 0.9935
502.10 0.9932
502.20 0.9928
502.30 0.9925
502.40 0.9921
502.50 0.9918
502.60 0.9914
502.70 0.9911
502.80 0.9907
502.90 0.9904
503.00 0.99
503.10 0.9897
503.20 0.9893
503.30 0.9889
503.40 0.9886
503.50 0.9882
503.60 0.9878
503.70 0.9875
503.80 0.9871
503.90 0.9867
504.00 0.9864
504.10 0.986
504.20 0.9857
504.30 0.9853
504.40 0.9849
504.50 0.9845
504.60 0.9842
504.70 0.9838
504.80 0.9834
504.90 0.983
505.00 0.9827
505.10 0.9823
505.20 0.9819
505.30 0.9815
505.40 0.9812
505.50 0.9808
505.60 0.9804
505.70 0.98
505.80 0.9796
505.90 0.9793
506.00 0.9789
506.10 0.9785
506.20 0.9781
506.30 0.9777
506.40 0.9773
506.50 0.977
506.60 0.9766
506.70 0.9762
506.80 0.9758
506.90 0.9754
507.00 0.975
507.10 0.9747
507.20 0.9743
507.30 0.9739
507.40 0.9735
507.50 0.9731
507.60 0.9727
507.70 0.9723
507.80 0.9719
507.90 0.9716
508.00 0.9712
508.10 0.9708
508.20 0.9704
508.30 0.97
508.40 0.9696
508.50 0.9692
508.60 0.9688
508.70 0.9684
508.80 0.968
508.90 0.9677
509.00 0.9673
509.10 0.9669
509.20 0.9665
509.30 0.9661
509.40 0.9657
509.50 0.9653
509.60 0.9649
509.70 0.9645
509.80 0.9641
509.90 0.9638
510.00 0.9634
510.10 0.963
510.20 0.9626
510.30 0.9622
510.40 0.9618
510.50 0.9614
510.60 0.961
510.70 0.9606
510.80 0.9602
510.90 0.9598
511.00 0.9594
511.10 0.959
511.20 0.9587
511.30 0.9583
511.40 0.9579
511.50 0.9575
511.60 0.9571
511.70 0.9567
511.80 0.9563
511.90 0.9559
512.00 0.9555
512.10 0.9551
512.20 0.9547
512.30 0.9543
512.40 0.9539
512.50 0.9535
512.60 0.9531
512.70 0.9527
512.80 0.9524
512.90 0.952
513.00 0.9516
513.10 0.9512
513.20 0.9508
513.30 0.9504
513.40 0.95
513.50 0.9496
513.60 0.9492
513.70 0.9488
513.80 0.9484
513.90 0.948
514.00 0.9476
514.10 0.9473
514.20 0.9469
514.30 0.9465
514.40 0.9461
514.50 0.9457
514.60 0.9453
514.70 0.9449
514.80 0.9445
514.90 0.9441
515.00 0.9437
515.10 0.9433
515.20 0.9429
515.30 0.9425
515.40 0.9421
515.50 0.9417
515.60 0.9413
515.70 0.941
515.80 0.9406
515.90 0.9402
516.00 0.9398
516.10 0.9394
516.20 0.939
516.30 0.9386
516.40 0.9382
516.50 0.9378
516.60 0.9374
516.70 0.937
516.80 0.9367
516.90 0.9363
517.00 0.9359
517.10 0.9355
517.20 0.9351
517.30 0.9347
517.40 0.9343
517.50 0.9339
517.60 0.9335
517.70 0.9331
517.80 0.9327
517.90 0.9324
518.00 0.932
518.10 0.9316
518.20 0.9312
518.30 0.9308
518.40 0.9304
518.50 0.93
518.60 0.9296
518.70 0.9292
518.80 0.9289
518.90 0.9285
519.00 0.9281
519.10 0.9277
519.20 0.9273
519.30 0.9269
519.40 0.9265
519.50 0.9261
519.60 0.9258
519.70 0.9254
519.80 0.925
519.90 0.9246
520.00 0.9242
520.10 0.9238
520.20 0.9234
520.30 0.923
520.40 0.9227
520.50 0.9223
520.60 0.9219
520.70 0.9215
520.80 0.9211
520.90 0.9207
521.00 0.9203
521.10 0.9199
521.20 0.9196
521.30 0.9192
521.40 0.9188
521.50 0.9184
521.60 0.918
521.70 0.9176
521.80 0.9172
521.90 0.9169
522.00 0.9165
522.10 0.9161
522.20 0.9157
522.30 0.9153
522.40 0.9149
522.50 0.9145
522.60 0.9142
522.70 0.9138
522.80 0.9134
522.90 0.913
523.00 0.9126
523.10 0.9122
523.20 0.9119
523.30 0.9115
523.40 0.9111
523.50 0.9107
523.60 0.9103
523.70 0.9099
523.80 0.9096
523.90 0.9092
524.00 0.9088
524.10 0.9084
524.20 0.908
524.30 0.9077
524.40 0.9073
524.50 0.9069
524.60 0.9065
524.70 0.9061
524.80 0.9058
524.90 0.9054
525.00 0.905
525.10 0.9046
525.20 0.9042
525.30 0.9039
525.40 0.9035
525.50 0.9031
525.60 0.9027
525.70 0.9023
525.80 0.902
525.90 0.9016
526.00 0.9012
526.10 0.9008
526.20 0.9004
526.30 0.9001
526.40 0.8997
526.50 0.8993
526.60 0.8989
526.70 0.8985
526.80 0.8982
526.90 0.8978
527.00 0.8974
527.10 0.897
527.20 0.8967
527.30 0.8963
527.40 0.8959
527.50 0.8955
527.60 0.8951
527.70 0.8948
527.80 0.8944
527.90 0.894
528.00 0.8936
528.10 0.8933
528.20 0.8929
528.30 0.8925
528.40 0.8921
528.50 0.8918
528.60 0.8914
528.70 0.891
528.80 0.8906
528.90 0.8903
529.00 0.8899
529.10 0.8895
529.20 0.8891
529.30 0.8888
529.40 0.8884
529.50 0.888
529.60 0.8876
529.70 0.8873
529.80 0.8869
529.90 0.8865
530.00 0.8862
530.10 0.8858
530.20 0.8854
530.30 0.885
530.40 0.8847
530.50 0.8843
530.60 0.8839
530.70 0.8835
530.80 0.8832
530.90 0.8828
531.00 0.8824
531.10 0.882
531.20 0.8817
531.30 0.8813
531.40 0.8809
531.50 0.8806
531.60 0.8802
531.70 0.8798
531.80 0.8794
531.90 0.8791
532.00 0.8787
532.10 0.8783
532.20 0.878
532.30 0.8776
532.40 0.8772
532.50 0.8769
532.60 0.8765
532.70 0.8761
532.80 0.8757
532.90 0.8754
533.00 0.875
533.10 0.8746
533.20 0.8743
533.30 0.8739
533.40 0.8735
533.50 0.8732
533.60 0.8728
533.70 0.8724
533.80 0.8721
533.90 0.8717
534.00 0.8713
534.10 0.871
534.20 0.8706
534.30 0.8703
534.40 0.8699
534.50 0.8695
534.60 0.8692
534.70 0.8688
534.80 0.8684
534.90 0.8681
535.00 0.8677
535.10 0.8673
535.20 0.867
535.30 0.8666
535.40 0.8662
535.50 0.8659
535.60 0.8655
535.70 0.8651
535.80 0.8648
535.90 0.8644
536.00 0.864
536.10 0.8637
536.20 0.8633
536.30 0.8629
536.40 0.8626
536.50 0.8622
536.60 0.8619
536.70 0.8615
536.80 0.8611
536.90 0.8608
537.00 0.8604
537.10 0.86
537.20 0.8597
537.30 0.8593
537.40 0.859
537.50 0.8586
537.60 0.8582
537.70 0.8579
537.80 0.8575
537.90 0.8572
538.00 0.8568
538.10 0.8564
538.20 0.8561
538.30 0.8557
538.40 0.8554
538.50 0.855
538.60 0.8546
538.70 0.8543
538.80 0.8539
538.90 0.8536
539.00 0.8532
539.10 0.8529
539.20 0.8525
539.30 0.8521
539.40 0.8518
539.50 0.8514
539.60 0.8511
539.70 0.8507
539.80 0.8503
539.90 0.85
540.00 0.8496
540.10 0.8493
540.20 0.8489
540.30 0.8486
540.40 0.8482
540.50 0.8478
540.60 0.8475
540.70 0.8471
540.80 0.8468
540.90 0.8464
541.00 0.8461
541.10 0.8457
541.20 0.8453
541.30 0.845
541.40 0.8446
541.50 0.8443
541.60 0.8439
541.70 0.8436
541.80 0.8432
541.90 0.8429
542.00 0.8425
542.10 0.8422
542.20 0.8418
542.30 0.8415
542.40 0.8411
542.50 0.8407
542.60 0.8404
542.70 0.84
542.80 0.8397
542.90 0.8393
543.00 0.839
543.10 0.8386
543.20 0.8383
543.30 0.8379
543.40 0.8376
543.50 0.8372
543.60 0.8369
543.70 0.8365
543.80 0.8362
543.90 0.8358
544.00 0.8355
544.10 0.8351
544.20 0.8348
544.30 0.8344
544.40 0.8341
544.50 0.8337
544.60 0.8334
544.70 0.833
544.80 0.8327
544.90 0.8323
545.00 0.832
545.10 0.8316
545.20 0.8313
545.30 0.8309
545.40 0.8306
545.50 0.8302
545.60 0.8299
545.70 0.8295
545.80 0.8292
545.90 0.8288
546.00 0.8285
546.10 0.8281
546.20 0.8278
546.30 0.8275
546.40 0.8271
546.50 0.8268
546.60 0.8265
546.70 0.8261
546.80 0.8258
546.90 0.8254
547.00 0.8251
547.10 0.8248
547.20 0.8244
547.30 0.8241
547.40 0.8237
547.50 0.8234
547.60 0.8231
547.70 0.8227
547.80 0.8224
547.90 0.822
548.00 0.8217
548.10 0.8213
548.20 0.821
548.30 0.8206
548.40 0.8203
548.50 0.82
548.60 0.8196
548.70 0.8193
548.80 0.8189
548.90 0.8186
549.00 0.8182
549.10 0.8179
549.20 0.8175
549.30 0.8172
549.40 0.8169
549.50 0.8165
549.60 0.8162
549.70 0.8158
549.80 0.8155
549.90 0.8151
550.00 0.8148
550.10 0.8145
550.20 0.8141
550.30 0.8138
550.40 0.8134
550.50 0.8131
550.60 0.8128
550.70 0.8124
550.80 0.8121
550.90 0.8117
551.00 0.8114
551.10 0.8111
551.20 0.8107
551.30 0.8104
551.40 0.81
551.50 0.8097
551.60 0.8094
551.70 0.809
551.80 0.8087
551.90 0.8083
552.00 0.808
552.10 0.8077
552.20 0.8073
552.30 0.807
552.40 0.8067
552.50 0.8063
552.60 0.806
552.70 0.8056
552.80 0.8053
552.90 0.805
553.00 0.8046
553.10 0.8043
553.20 0.804
553.30 0.8036
553.40 0.8033
553.50 0.803
553.60 0.8026
553.70 0.8023
553.80 0.802
553.90 0.8016
554.00 0.8013
554.10 0.8009
554.20 0.8006
554.30 0.8003
554.40 0.7999
554.50 0.7996
554.60 0.7993
554.70 0.7989
554.80 0.7986
554.90 0.7983
555.00 0.7979
555.10 0.7976
555.20 0.7973
555.30 0.7969
555.40 0.7966
555.50 0.7963
555.60 0.7959
555.70 0.7956
555.80 0.7953
555.90 0.7949
556.00 0.7946
556.10 0.7943
556.20 0.794
556.30 0.7936
556.40 0.7933
556.50 0.793
556.60 0.7926
556.70 0.7923
556.80 0.792
556.90 0.7916
557.00 0.7913
557.10 0.791
557.20 0.7906
557.30 0.7903
557.40 0.79
557.50 0.7896
557.60 0.7893
557.70 0.789
557.80 0.7887
557.90 0.7883
558.00 0.788
558.10 0.7877
558.20 0.7873
558.30 0.787
558.40 0.7867
558.50 0.7864
558.60 0.786
558.70 0.7857
558.80 0.7854
558.90 0.785
559.00 0.7847
559.10 0.7844
559.20 0.7841
559.30 0.7837
559.40 0.7834
559.50 0.7831
559.60 0.7828
559.70 0.7824
559.80 0.7821
559.90 0.7818
560.00 0.7815
560.10 0.7811
560.20 0.7808
560.30 0.7805
560.40 0.7801
560.50 0.7798
560.60 0.7795
560.70 0.7792
560.80 0.7788
560.90 0.7785
561.00 0.7782
561.10 0.7779
561.20 0.7775
561.30 0.7772
561.40 0.7769
561.50 0.7766
561.60 0.7762
561.70 0.7759
561.80 0.7756
561.90 0.7753
562.00 0.775
562.10 0.7746
562.20 0.7743
562.30 0.774
562.40 0.7737
562.50 0.7734
562.60 0.773
562.70 0.7727
562.80 0.7724
562.90 0.7721
563.00 0.7718
563.10 0.7714
563.20 0.7711
563.30 0.7708
563.40 0.7705
563.50 0.7701
563.60 0.7698
563.70 0.7695
563.80 0.7692
563.90 0.7689
564.00 0.7685
564.10 0.7682
564.20 0.7679
564.30 0.7676
564.40 0.7673
564.50 0.7669
564.60 0.7666
564.70 0.7663
564.80 0.766
564.90 0.7657
565.00 0.7653
565.10 0.765
565.20 0.7647
565.30 0.7644
565.40 0.7641
565.50 0.7638
565.60 0.7634
565.70 0.7631
565.80 0.7628
565.90 0.7625
566.00 0.7622
566.10 0.7619
566.20 0.7615
566.30 0.7612
566.40 0.7609
566.50 0.7606
566.60 0.7603
566.70 0.76
566.80 0.7596
566.90 0.7593
567.00 0.759
567.10 0.7587
567.20 0.7584
567.30 0.7581
567.40 0.7577
567.50 0.7574
567.60 0.7571
567.70 0.7568
567.80 0.7565
567.90 0.7562
568.00 0.7559
568.10 0.7556
568.20 0.7552
568.30 0.7549
568.40 0.7546
568.50 0.7543
568.60 0.754
568.70 0.7537
568.80 0.7534
568.90 0.7531
569.00 0.7527
569.10 0.7524
569.20 0.7521
569.30 0.7518
569.40 0.7515
569.50 0.7512
569.60 0.7509
569.70 0.7506
569.80 0.7503
569.90 0.7499
570.00 0.7496
570.10 0.7493
570.20 0.749
570.30 0.7487
570.40 0.7484
570.50 0.7481
570.60 0.7478
570.70 0.7475
570.80 0.7471
570.90 0.7468
571.00 0.7465
571.10 0.7462
571.20 0.7459
571.30 0.7456
571.40 0.7453
571.50 0.745
571.60 0.7447
571.70 0.7444
571.80 0.7441
571.90 0.7438
572.00 0.7434
572.10 0.7431
572.20 0.7428
572.30 0.7425
572.40 0.7422
572.50 0.7419
572.60 0.7416
572.70 0.7413
572.80 0.741
572.90 0.7407
573.00 0.7404
573.10 0.7401
573.20 0.7398
573.30 0.7395
573.40 0.7391
573.50 0.7388
573.60 0.7385
573.70 0.7382
573.80 0.7379
573.90 0.7376
574.00 0.7373
574.10 0.737
574.20 0.7367
574.30 0.7364
574.40 0.7361
574.50 0.7358
574.60 0.7355
574.70 0.7352
574.80 0.7349
574.90 0.7346
575.00 0.7343
575.10 0.734
575.20 0.7337
575.30 0.7334
575.40 0.7331
575.50 0.7327
575.60 0.7324
575.70 0.7321
575.80 0.7318
575.90 0.7315
576.00 0.7312
576.10 0.7309
576.20 0.7306
576.30 0.7303
576.40 0.73
576.50 0.7297
576.60 0.7294
576.70 0.7291
576.80 0.7288
576.90 0.7285
577.00 0.7282
577.10 0.7279
577.20 0.7276
577.30 0.7273
577.40 0.727
577.50 0.7267
577.60 0.7264
577.70 0.7261
577.80 0.7258
577.90 0.7255
578.00 0.7252
578.10 0.7249
578.20 0.7246
578.30 0.7243
578.40 0.724
578.50 0.7237
578.60 0.7234
578.70 0.7231
578.80 0.7228
578.90 0.7225
579.00 0.7222
579.10 0.722
579.20 0.7217
579.30 0.7214
579.40 0.7211
579.50 0.7208
579.60 0.7205
579.70 0.7202
579.80 0.7199
579.90 0.7196
580.00 0.7193
580.10 0.719
580.20 0.7187
580.30 0.7184
580.40 0.7181
580.50 0.7178
580.60 0.7175
580.70 0.7172
580.80 0.7169
580.90 0.7166
581.00 0.7163
581.10 0.716
581.20 0.7157
581.30 0.7154
581.40 0.7151
581.50 0.7148
581.60 0.7145
581.70 0.7143
581.80 0.714
581.90 0.7137
582.00 0.7134
582.10 0.7131
582.20 0.7128
582.30 0.7125
582.40 0.7122
582.50 0.7119
582.60 0.7116
582.70 0.7113
582.80 0.711
582.90 0.7107
583.00 0.7104
583.10 0.7101
583.20 0.7098
583.30 0.7096
583.40 0.7093
583.50 0.709
583.60 0.7087
583.70 0.7084
583.80 0.7081
583.90 0.7078
584.00 0.7075
584.10 0.7072
584.20 0.707
584.30 0.7067
584.40 0.7064
584.50 0.7061
584.60 0.7058
584.70 0.7055
584.80 0.7052
584.90 0.7049
585.00 0.7046
585.10 0.7043
585.20 0.704
585.30 0.7038
585.40 0.7035
585.50 0.7032
585.60 0.7029
585.70 0.7026
585.80 0.7023
585.90 0.702
586.00 0.7017
586.10 0.7015
586.20 0.7012
586.30 0.7009
586.40 0.7006
586.50 0.7003
586.60 0.7
586.70 0.6997
586.80 0.6994
586.90 0.6992
587.00 0.6989
587.10 0.6986
587.20 0.6983
587.30 0.698
587.40 0.6977
587.50 0.6974
587.60 0.6971
587.70 0.6969
587.80 0.6966
587.90 0.6963
588.00 0.696
588.10 0.6957
588.20 0.6954
588.30 0.6951
588.40 0.6948
588.50 0.6946
588.60 0.6943
588.70 0.694
588.80 0.6937
588.90 0.6934
589.00 0.6931
589.10 0.6929
589.20 0.6926
589.30 0.6923
589.40 0.692
589.50 0.6917
589.60 0.6914
589.70 0.6912
589.80 0.6909
589.90 0.6906
590.00 0.6903
590.10 0.69
590.20 0.6898
590.30 0.6895
590.40 0.6892
590.50 0.6889
590.60 0.6886
590.70 0.6883
590.80 0.6881
590.90 0.6878
591.00 0.6875
591.10 0.6872
591.20 0.6869
591.30 0.6866
591.40 0.6864
591.50 0.6861
591.60 0.6858
591.70 0.6855
591.80 0.6852
591.90 0.685
592.00 0.6847
592.10 0.6844
592.20 0.6841
592.30 0.6838
592.40 0.6836
592.50 0.6833
592.60 0.683
592.70 0.6827
592.80 0.6824
592.90 0.6822
593.00 0.6819
593.10 0.6816
593.20 0.6813
593.30 0.6811
593.40 0.6808
593.50 0.6805
593.60 0.6802
593.70 0.6799
593.80 0.6797
593.90 0.6794
594.00 0.6791
594.10 0.6788
594.20 0.6786
594.30 0.6783
594.40 0.678
594.50 0.6777
594.60 0.6775
594.70 0.6772
594.80 0.6769
594.90 0.6766
595.00 0.6763
595.10 0.6761
595.20 0.6758
595.30 0.6755
595.40 0.6752
595.50 0.675
595.60 0.6747
595.70 0.6744
595.80 0.6741
595.90 0.6739
596.00 0.6736
596.10 0.6733
596.20 0.673
596.30 0.6727
596.40 0.6724
596.50 0.6721
596.60 0.6718
596.70 0.6715
596.80 0.6712
596.90 0.6709
597.00 0.6706
597.10 0.6703
597.20 0.6701
597.30 0.6698
597.40 0.6695
597.50 0.6692
597.60 0.669
597.70 0.6687
597.80 0.6684
597.90 0.6681
598.00 0.6679
598.10 0.6676
598.20 0.6673
598.30 0.6671
598.40 0.6668
598.50 0.6665
598.60 0.6662
598.70 0.666
598.80 0.6657
598.90 0.6654
599.00 0.6651
599.10 0.6649
599.20 0.6646
599.30 0.6643
599.40 0.6641
599.50 0.6638
599.60 0.6635
599.70 0.6633
599.80 0.663
599.90 0.6627
600.00 0.6624
600.10 0.6622
600.20 0.6619
600.30 0.6616
600.40 0.6614
600.50 0.6611
600.60 0.6608
600.70 0.6606
600.80 0.6603
600.90 0.66
601.00 0.6597
601.10 0.6595
601.20 0.6592
601.30 0.6589
601.40 0.6587
601.50 0.6584
601.60 0.6581
601.70 0.6579
601.80 0.6576
601.90 0.6573
602.00 0.657
602.10 0.6568
602.20 0.6565
602.30 0.6562
602.40 0.656
602.50 0.6557
602.60 0.6554
602.70 0.6552
602.80 0.6549
602.90 0.6546
603.00 0.6544
603.10 0.6541
603.20 0.6538
603.30 0.6536
603.40 0.6533
603.50 0.653
603.60 0.6528
603.70 0.6525
603.80 0.6522
603.90 0.652
604.00 0.6517
604.10 0.6514
604.20 0.6512
604.30 0.6509
604.40 0.6507
604.50 0.6504
604.60 0.6501
604.70 0.6499
604.80 0.6496
604.90 0.6493
605.00 0.6491
605.10 0.6488
605.20 0.6485
605.30 0.6483
605.40 0.648
605.50 0.6477
605.60 0.6475
605.70 0.6472
605.80 0.6469
605.90 0.6467
606.00 0.6464
606.10 0.6461
606.20 0.6459
606.30 0.6456
606.40 0.6454
606.50 0.6451
606.60 0.6448
606.70 0.6446
606.80 0.6443
606.90 0.644
607.00 0.6438
607.10 0.6435
607.20 0.6433
607.30 0.643
607.40 0.6427
607.50 0.6425
607.60 0.6422
607.70 0.642
607.80 0.6417
607.90 0.6414
608.00 0.6412
608.10 0.6409
608.20 0.6406
608.30 0.6404
608.40 0.6401
608.50 0.6399
608.60 0.6396
608.70 0.6393
608.80 0.6391
608.90 0.6388
609.00 0.6386
609.10 0.6383
609.20 0.6381
609.30 0.6378
609.40 0.6375
609.50 0.6373
609.60 0.637
609.70 0.6368
609.80 0.6365
609.90 0.6362
610.00 0.636
610.10 0.6357
610.20 0.6355
610.30 0.6352
610.40 0.6349
610.50 0.6347
610.60 0.6344
610.70 0.6342
610.80 0.6339
610.90 0.6336
611.00 0.6334
611.10 0.6331
611.20 0.6329
611.30 0.6326
611.40 0.6324
611.50 0.6321
611.60 0.6318
611.70 0.6316
611.80 0.6313
611.90 0.6311
612.00 0.6308
612.10 0.6306
612.20 0.6303
612.30 0.63
612.40 0.6298
612.50 0.6295
612.60 0.6293
612.70 0.629
612.80 0.6288
612.90 0.6285
613.00 0.6283
613.10 0.628
613.20 0.6277
613.30 0.6275
613.40 0.6272
613.50 0.627
613.60 0.6267
613.70 0.6265
613.80 0.6262
613.90 0.626
614.00 0.6257
614.10 0.6254
614.20 0.6252
614.30 0.6249
614.40 0.6247
614.50 0.6244
614.60 0.6242
614.70 0.6239
614.80 0.6237
614.90 0.6234
615.00 0.6232
615.10 0.6229
615.20 0.6227
615.30 0.6224
615.40 0.6221
615.50 0.6219
615.60 0.6216
615.70 0.6214
615.80 0.6211
615.90 0.6209
616.00 0.6206
616.10 0.6204
616.20 0.6201
616.30 0.6199
616.40 0.6196
616.50 0.6194
616.60 0.6191
616.70 0.6189
616.80 0.6186
616.90 0.6184
617.00 0.6181
617.10 0.6178
617.20 0.6176
617.30 0.6173
617.40 0.6171
617.50 0.6168
617.60 0.6166
617.70 0.6163
617.80 0.6161
617.90 0.6158
618.00 0.6156
618.10 0.6153
618.20 0.6151
618.30 0.6148
618.40 0.6146
618.50 0.6143
618.60 0.6141
618.70 0.6138
618.80 0.6136
618.90 0.6133
619.00 0.6131
619.10 0.6128
619.20 0.6126
619.30 0.6123
619.40 0.6121
619.50 0.6118
619.60 0.6116
619.70 0.6113
619.80 0.6111
619.90 0.6108
620.00 0.6106
620.10 0.6103
620.20 0.6101
620.30 0.6098
620.40 0.6096
620.50 0.6093
620.60 0.6091
620.70 0.6088
620.80 0.6086
620.90 0.6083
621.00 0.6081
621.10 0.6078
621.20 0.6076
621.30 0.6074
621.40 0.6071
621.50 0.6069
621.60 0.6066
621.70 0.6064
621.80 0.6061
621.90 0.6059
622.00 0.6056
622.10 0.6054
622.20 0.6051
622.30 0.6049
622.40 0.6046
622.50 0.6044
622.60 0.6041
622.70 0.6039
622.80 0.6036
622.90 0.6034
623.00 0.6032
623.10 0.6029
623.20 0.6027
623.30 0.6024
623.40 0.6022
623.50 0.6019
623.60 0.6017
623.70 0.6014
623.80 0.6012
623.90 0.6009
624.00 0.6007
624.10 0.6004
624.20 0.6002
624.30 0.5999
624.40 0.5997
624.50 0.5994
624.60 0.5992
624.70 0.599
624.80 0.5987
624.90 0.5985
625.00 0.5982
625.10 0.598
625.20 0.5977
625.30 0.5975
625.40 0.5972
625.50 0.597
625.60 0.5967
625.70 0.5965
625.80 0.5963
625.90 0.596
626.00 0.5958
626.10 0.5955
626.20 0.5953
626.30 0.595
626.40 0.5948
626.50 0.5945
626.60 0.5943
626.70 0.594
626.80 0.5938
626.90 0.5936
627.00 0.5933
627.10 0.5931
627.20 0.5928
627.30 0.5926
627.40 0.5923
627.50 0.5921
627.60 0.5918
627.70 0.5916
627.80 0.5913
627.90 0.5911
628.00 0.5909
628.10 0.5906
628.20 0.5904
628.30 0.5901
628.40 0.5899
628.50 0.5896
628.60 0.5894
628.70 0.5891
628.80 0.5889
628.90 0.5886
629.00 0.5884
629.10 0.5882
629.20 0.5879
629.30 0.5877
629.40 0.5874
629.50 0.5872
629.60 0.5869
629.70 0.5867
629.80 0.5864
629.90 0.5862
630.00 0.586
630.10 0.5857
630.20 0.5855
630.30 0.5852
630.40 0.585
630.50 0.5847
630.60 0.5845
630.70 0.5842
630.80 0.584
630.90 0.5838
631.00 0.5835
631.10 0.5833
631.20 0.583
631.30 0.5828
631.40 0.5825
631.50 0.5823
631.60 0.582
631.70 0.5818
631.80 0.5816
631.90 0.5813
632.00 0.5811
632.10 0.5808
632.20 0.5806
632.30 0.5803
632.40 0.5801
632.50 0.5798
632.60 0.5796
632.70 0.5793
632.80 0.5791
632.90 0.5788
633.00 0.5786
633.10 0.5784
633.20 0.5781
633.30 0.5779
633.40 0.5776
633.50 0.5774
633.60 0.5771
633.70 0.5769
633.80 0.5766
633.90 0.5764
634.00 0.5761
634.10 0.5759
634.20 0.5756
634.30 0.5754
634.40 0.5751
634.50 0.5749
634.60 0.5746
634.70 0.5744
634.80 0.5741
634.90 0.5739
635.00 0.5737
635.10 0.5734
635.20 0.5732
635.30 0.5729
635.40 0.5727
635.50 0.5724
635.60 0.5722
635.70 0.5719
635.80 0.5717
635.90 0.5714
636.00 0.5711
636.10 0.5709
636.20 0.5706
636.30 0.5704
636.40 0.5701
636.50 0.5699
636.60 0.5696
636.70 0.5694
636.80 0.5691
636.90 0.5689
637.00 0.5686
637.10 0.5684
637.20 0.5681
637.30 0.5679
637.40 0.5676
637.50 0.5674
637.60 0.5671
637.70 0.5668
637.80 0.5666
637.90 0.5663
638.00 0.5661
638.10 0.5658
638.20 0.5656
638.30 0.5653
638.40 0.565
638.50 0.5648
638.60 0.5645
638.70 0.5642
638.80 0.564
638.90 0.5637
639.00 0.5635
639.10 0.5632
639.20 0.5629
639.30 0.5627
639.40 0.5624
639.50 0.5621
639.60 0.5619
639.70 0.5616
639.80 0.5613
639.90 0.5611
640.00 0.5608
640.10 0.5605
640.20 0.5602
640.30 0.56
640.40 0.5597
640.50 0.5594
640.60 0.5591
640.70 0.5589
640.80 0.5586
640.90 0.5583
641.00 0.558
641.10 0.5577
641.20 0.5575
641.30 0.5572
641.40 0.5569
641.50 0.5566
641.60 0.5563
641.70 0.556
641.80 0.5557
641.90 0.5554
642.00 0.5552
642.10 0.5549
642.20 0.5546
642.30 0.5543
642.40 0.554
642.50 0.5537
642.60 0.5534
642.70 0.5531
642.80 0.5528
642.90 0.5525
643.00 0.5522
643.10 0.5519
643.20 0.5516
643.30 0.5512
643.40 0.5509
643.50 0.5506
643.60 0.5503
643.70 0.55
643.80 0.5496
643.90 0.5493
644.00 0.549
644.10 0.5487
644.20 0.5483
644.30 0.548
644.40 0.5477
644.50 0.5473
644.60 0.547
644.70 0.5466
644.80 0.5463
644.90 0.5459
645.00 0.5456
645.10 0.5452
645.20 0.5449
645.30 0.5445
645.40 0.5441
645.50 0.5437
645.60 0.5434
645.70 0.543
645.80 0.5426
645.90 0.5422
646.00 0.5418
646.10 0.5414
646.20 0.5411
646.30 0.5407
646.40 0.5402
646.50 0.5398
646.60 0.5394
646.70 0.5389
646.80 0.5385
646.90 0.5381
647.00 0.5376
647.10 0.5372
647.20 0.5368
647.30 0.5363
647.40 0.5358
647.50 0.5353
647.60 0.5348
647.70 0.5343
647.80 0.5338
647.90 0.5333
648.00 0.5328
648.10 0.5323
648.20 0.5318
648.30 0.5313
648.40 0.5307
648.50 0.5301
648.60 0.5295
648.70 0.5289
648.80 0.5283
648.90 0.5277
649.00 0.5271
649.10 0.5265
649.20 0.5259
649.30 0.5253
649.40 0.5245
649.50 0.5238
649.60 0.523
649.70 0.5222
649.80 0.5215
649.90 0.5207
650.00 0.52
650.10 0.5192
650.20 0.5185
650.30 0.5177
650.40 0.5167
650.50 0.5157
650.60 0.5147
650.70 0.5137
650.80 0.5127
650.90 0.5117
651.00 0.5107
651.10 0.5098
651.20 0.5088
651.30 0.5077
651.40 0.5064
651.50 0.505
651.60 0.5036
651.70 0.5023
651.80 0.5009
651.90 0.4996
652.00 0.4982
652.10 0.4969
652.20 0.4955
652.30 0.494
652.40 0.4921
652.50 0.4901
652.60 0.4882
652.70 0.4862
652.80 0.4842
652.90 0.4823
653.00 0.4803
653.10 0.4784
653.20 0.4764
653.30 0.4742
653.40 0.471
653.50 0.4677
653.60 0.4645
653.70 0.4612
653.80 0.458
653.90 0.4547
654.00 0.4515
654.10 0.4482
654.20 0.445
654.30 0.4414
654.40 0.4364
654.50 0.4314
654.60 0.4264
654.70 0.4215
654.80 0.4161
654.90 0.409
655.00 0.4019
655.10 0.3948
655.20 0.3878
655.30 0.3803
655.40 0.3715
655.50 0.3623
655.60 0.3519
655.70 0.3412
655.80 0.3294
655.90 0.3171
656.00 0.303
656.10 0.289
656.20 0.2643
656.30 0.2252
656.40 0.2787
656.50 0.294
656.60 0.3078
656.70 0.3212
656.80 0.3328
656.90 0.3442
657.00 0.3543
657.10 0.3642
657.20 0.3727
657.30 0.3809
657.40 0.3877
657.50 0.3944
657.60 0.4012
657.70 0.4079
657.80 0.4142
657.90 0.4189
658.00 0.4235
658.10 0.4281
658.20 0.4327
658.30 0.437
658.40 0.4399
658.50 0.4427
658.60 0.4456
658.70 0.4484
658.80 0.4513
658.90 0.4541
659.00 0.457
659.10 0.4598
659.20 0.4627
659.30 0.4653
659.40 0.4668
659.50 0.4683
659.60 0.4699
659.70 0.4714
659.80 0.473
659.90 0.4745
660.00 0.4761
660.10 0.4776
660.20 0.4791
660.30 0.4805
660.40 0.4815
660.50 0.4824
660.60 0.4833
660.70 0.4843
660.80 0.4852
660.90 0.4861
661.00 0.4871
661.10 0.488
661.20 0.4889
661.30 0.4898
661.40 0.4903
661.50 0.4909
661.60 0.4914
661.70 0.492
661.80 0.4926
661.90 0.4931
662.00 0.4937
662.10 0.4942
662.20 0.4948
662.30 0.4953
662.40 0.4956
662.50 0.496
662.60 0.4963
662.70 0.4966
662.80 0.4969
662.90 0.4973
663.00 0.4976
663.10 0.4979
663.20 0.4982
663.30 0.4985
663.40 0.4987
663.50 0.4988
663.60 0.499
663.70 0.4992
663.80 0.4993
663.90 0.4995
664.00 0.4997
664.10 0.4998
664.20 0.5
664.30 0.5001
664.40 0.5002
664.50 0.5003
664.60 0.5004
664.70 0.5004
664.80 0.5005
664.90 0.5006
665.00 0.5006
665.10 0.5007
665.20 0.5008
665.30 0.5008
665.40 0.5008
665.50 0.5009
665.60 0.5009
665.70 0.5009
665.80 0.5009
665.90 0.5009
666.00 0.5009
666.10 0.5009
666.20 0.5009
666.30 0.5009
666.40 0.5008
666.50 0.5008
666.60 0.5007
666.70 0.5007
666.80 0.5006
666.90 0.5006
667.00 0.5006
667.10 0.5005
667.20 0.5005
667.30 0.5004
667.40 0.5003
667.50 0.5003
667.60 0.5002
667.70 0.5001
667.80 0.5
667.90 0.5
668.00 0.4999
668.10 0.4998
668.20 0.4997
668.30 0.4996
668.40 0.4995
668.50 0.4994
668.60 0.4993
668.70 0.4992
668.80 0.4991
668.90 0.499
669.00 0.4989
669.10 0.4988
669.20 0.4987
669.30 0.4986
669.40 0.4985
669.50 0.4984
669.60 0.4982
669.70 0.4981
669.80 0.498
669.90 0.4979
670.00 0.4977
670.10 0.4976
670.20 0.4975
670.30 0.4974
670.40 0.4972
670.50 0.4971
670.60 0.497
670.70 0.4968
670.80 0.4967
670.90 0.4966
671.00 0.4964
671.10 0.4963
671.20 0.4962
671.30 0.496
671.40 0.4959
671.50 0.4957
671.60 0.4956
671.70 0.4954
671.80 0.4953
671.90 0.4952
672.00 0.495
672.10 0.4949
672.20 0.4947
672.30 0.4946
672.40 0.4944
672.50 0.4943
672.60 0.4941
672.70 0.494
672.80 0.4938
672.90 0.4937
673.00 0.4935
673.10 0.4934
673.20 0.4932
673.30 0.493
673.40 0.4929
673.50 0.4927
673.60 0.4926
673.70 0.4924
673.80 0.4922
673.90 0.4921
674.00 0.4919
674.10 0.4918
674.20 0.4916
674.30 0.4914
674.40 0.4913
674.50 0.4911
674.60 0.4909
674.70 0.4908
674.80 0.4906
674.90 0.4905
675.00 0.4903
675.10 0.4901
675.20 0.49
675.30 0.4898
675.40 0.4896
675.50 0.4895
675.60 0.4893
675.70 0.4891
675.80 0.489
675.90 0.4888
676.00 0.4886
676.10 0.4885
676.20 0.4883
676.30 0.4881
676.40 0.488
676.50 0.4878
676.60 0.4876
676.70 0.4874
676.80 0.4873
676.90 0.4871
677.00 0.4869
677.10 0.4868
677.20 0.4866
677.30 0.4864
677.40 0.4862
677.50 0.4861
677.60 0.4859
677.70 0.4857
677.80 0.4856
677.90 0.4854
678.00 0.4852
678.10 0.485
678.20 0.4849
678.30 0.4847
678.40 0.4845
678.50 0.4843
678.60 0.4842
678.70 0.484
678.80 0.4838
678.90 0.4837
679.00 0.4835
679.10 0.4833
679.20 0.4831
679.30 0.483
679.40 0.4828
679.50 0.4826
679.60 0.4824
679.70 0.4823
679.80 0.4821
679.90 0.4819
680.00 0.4817
680.10 0.4816
680.20 0.4814
680.30 0.4812
680.40 0.481
680.50 0.4809
680.60 0.4807
680.70 0.4805
680.80 0.4803
680.90 0.4802
681.00 0.48
681.10 0.4798
681.20 0.4796
681.30 0.4795
681.40 0.4793
681.50 0.4791
681.60 0.4789
681.70 0.4788
681.80 0.4786
681.90 0.4784
682.00 0.4782
682.10 0.4781
682.20 0.4779
682.30 0.4777
682.40 0.4775
682.50 0.4774
682.60 0.4772
682.70 0.477
682.80 0.4768
682.90 0.4767
683.00 0.4765
683.10 0.4763
683.20 0.4761
683.30 0.4759
683.40 0.4758
683.50 0.4756
683.60 0.4754
683.70 0.4752
683.80 0.4751
683.90 0.4749
684.00 0.4747
684.10 0.4745
684.20 0.4744
684.30 0.4742
684.40 0.474
684.50 0.4738
684.60 0.4737
684.70 0.4735
684.80 0.4733
684.90 0.4731
685.00 0.473
685.10 0.4728
685.20 0.4726
685.30 0.4724
685.40 0.4723
685.50 0.4721
685.60 0.4719
685.70 0.4717
685.80 0.4716
685.90 0.4714
686.00 0.4712
686.10 0.471
686.20 0.4708
686.30 0.4707
686.40 0.4705
686.50 0.4703
686.60 0.4701
686.70 0.47
686.80 0.4698
686.90 0.4696
687.00 0.4694
687.10 0.4693
687.20 0.4691
687.30 0.4689
687.40 0.4687
687.50 0.4686
687.60 0.4684
687.70 0.4682
687.80 0.468
687.90 0.4679
688.00 0.4677
688.10 0.4675
688.20 0.4674
688.30 0.4672
688.40 0.467
688.50 0.4668
688.60 0.4666
688.70 0.4665
688.80 0.4663
688.90 0.4661
689.00 0.4659
689.10 0.4658
689.20 0.4656
689.30 0.4654
689.40 0.4652
689.50 0.4651
689.60 0.4649
689.70 0.4647
689.80 0.4645
689.90 0.4644
690.00 0.4642
690.10 0.464
690.20 0.4638
690.30 0.4637
690.40 0.4635
690.50 0.4633
690.60 0.4631
690.70 0.463
690.80 0.4628
690.90 0.4626
691.00 0.4624
691.10 0.4623
691.20 0.4621
691.30 0.4619
691.40 0.4617
691.50 0.4616
691.60 0.4614
691.70 0.4612
691.80 0.4611
691.90 0.4609
692.00 0.4607
692.10 0.4605
692.20 0.4604
692.30 0.4602
692.40 0.46
692.50 0.4598
692.60 0.4597
692.70 0.4595
692.80 0.4593
692.90 0.4591
693.00 0.459
693.10 0.4588
693.20 0.4586
693.30 0.4585
693.40 0.4583
693.50 0.4581
693.60 0.4579
693.70 0.4578
693.80 0.4576
693.90 0.4574
694.00 0.4572
694.10 0.4571
694.20 0.4569
694.30 0.4567
694.40 0.4566
694.50 0.4564
694.60 0.4562
694.70 0.456
694.80 0.4559
694.90 0.4557
695.00 0.4555
695.10 0.4554
695.20 0.4552
695.30 0.455
695.40 0.4548
695.50 0.4547
695.60 0.4545
695.70 0.4543
695.80 0.4542
695.90 0.454
696.00 0.4538
696.10 0.4536
696.20 0.4535
696.30 0.4533
696.40 0.4531
696.50 0.453
696.60 0.4528
696.70 0.4526
696.80 0.4525
696.90 0.4523
697.00 0.4521
697.10 0.4519
697.20 0.4518
697.30 0.4516
697.40 0.4514
697.50 0.4513
697.60 0.4511
697.70 0.4509
697.80 0.4508
697.90 0.4506
698.00 0.4504
698.10 0.4503
698.20 0.4501
698.30 0.4499
698.40 0.4497
698.50 0.4496
698.60 0.4494
698.70 0.4492
698.80 0.4491
698.90 0.4489
699.00 0.4487
699.10 0.4486
699.20 0.4484
699.30 0.4482
699.40 0.4481
699.50 0.4479
699.60 0.4477
699.70 0.4476
699.80 0.4474
699.90 0.4472
700.00 0.4471
700.10 0.4469
700.20 0.4468
700.30 0.4466
700.40 0.4465
700.50 0.4464
700.60 0.4462
700.70 0.4461
700.80 0.4459
700.90 0.4458
701.00 0.4456
701.10 0.4455
701.20 0.4454
701.30 0.4452
701.40 0.4451
701.50 0.4449
701.60 0.4448
701.70 0.4447
701.80 0.4445
701.90 0.4444
702.00 0.4442
702.10 0.4441
702.20 0.4439
702.30 0.4438
702.40 0.4437
702.50 0.4435
702.60 0.4434
702.70 0.4432
702.80 0.4431
702.90 0.443
703.00 0.4428
703.10 0.4427
703.20 0.4425
703.30 0.4424
703.40 0.4423
703.50 0.4421
703.60 0.442
703.70 0.4418
703.80 0.4417
703.90 0.4416
704.00 0.4414
704.10 0.4413
704.20 0.4411
704.30 0.441
704.40 0.4409
704.50 0.4407
704.60 0.4406
704.70 0.4404
704.80 0.4403
704.90 0.4402
705.00 0.44
705.10 0.4399
705.20 0.4397
705.30 0.4395
705.40 0.4394
705.50 0.4392
705.60 0.439
705.70 0.4389
705.80 0.4387
705.90 0.4385
706.00 0.4384
706.10 0.4382
706.20 0.438
706.30 0.4379
706.40 0.4377
706.50 0.4376
706.60 0.4374
706.70 0.4372
706.80 0.4371
706.90 0.4369
707.00 0.4367
707.10 0.4366
707.20 0.4364
707.30 0.4362
707.40 0.4361
707.50 0.4359
707.60 0.4357
707.70 0.4356
707.80 0.4354
707.90 0.4353
708.00 0.4351
708.10 0.4349
708.20 0.4348
708.30 0.4346
708.40 0.4344
708.50 0.4343
708.60 0.4341
708.70 0.4339
708.80 0.4338
708.90 0.4336
709.00 0.4335
709.10 0.4333
709.20 0.4331
709.30 0.433
709.40 0.4328
709.50 0.4326
709.60 0.4325
709.70 0.4323
709.80 0.4322
709.90 0.432
710.00 0.4318
710.10 0.4317
710.20 0.4315
710.30 0.4314
710.40 0.4312
710.50 0.431
710.60 0.4309
710.70 0.4307
710.80 0.4305
710.90 0.4304
711.00 0.4302
711.10 0.4301
711.20 0.4299
711.30 0.4297
711.40 0.4296
711.50 0.4294
711.60 0.4293
711.70 0.4291
711.80 0.4289
711.90 0.4288
712.00 0.4286
712.10 0.4284
712.20 0.4283
712.30 0.4281
712.40 0.428
712.50 0.4278
712.60 0.4276
712.70 0.4275
712.80 0.4273
712.90 0.4272
713.00 0.427
713.10 0.4268
713.20 0.4267
713.30 0.4265
713.40 0.4264
713.50 0.4262
713.60 0.426
713.70 0.4259
713.80 0.4257
713.90 0.4256
714.00 0.4254
714.10 0.4252
714.20 0.4251
714.30 0.4249
714.40 0.4248
714.50 0.4246
714.60 0.4245
714.70 0.4243
714.80 0.4241
714.90 0.424
715.00 0.4238
715.10 0.4237
715.20 0.4235
715.30 0.4233
715.40 0.4232
715.50 0.423
715.60 0.4229
715.70 0.4227
715.80 0.4226
715.90 0.4224
716.00 0.4222
716.10 0.4221
716.20 0.4219
716.30 0.4218
716.40 0.4216
716.50 0.4215
716.60 0.4213
716.70 0.4211
716.80 0.421
716.90 0.4208
717.00 0.4207
717.10 0.4205
717.20 0.4204
717.30 0.4202
717.40 0.4201
717.50 0.4199
717.60 0.4197
717.70 0.4196
717.80 0.4194
717.90 0.4193
718.00 0.4191
718.10 0.419
718.20 0.4188
718.30 0.4187
718.40 0.4185
718.50 0.4183
718.60 0.4182
718.70 0.418
718.80 0.4179
718.90 0.4177
719.00 0.4176
719.10 0.4174
719.20 0.4173
719.30 0.4171
719.40 0.4169
719.50 0.4168
719.60 0.4166
719.70 0.4165
719.80 0.4163
719.90 0.4162
720.00 0.416
720.10 0.4159
720.20 0.4157
720.30 0.4156
720.40 0.4154
720.50 0.4152
720.60 0.4151
720.70 0.4149
720.80 0.4148
720.90 0.4146
721.00 0.4145
721.10 0.4143
721.20 0.4142
721.30 0.414
721.40 0.4139
721.50 0.4137
721.60 0.4135
721.70 0.4134
721.80 0.4132
721.90 0.4131
722.00 0.4129
722.10 0.4128
722.20 0.4126
722.30 0.4125
722.40 0.4123
722.50 0.4122
722.60 0.412
722.70 0.4119
722.80 0.4117
722.90 0.4115
723.00 0.4114
723.10 0.4112
723.20 0.4111
723.30 0.4109
723.40 0.4108
723.50 0.4106
723.60 0.4105
723.70 0.4103
723.80 0.4102
723.90 0.41
724.00 0.4099
724.10 0.4097
724.20 0.4096
724.30 0.4094
724.40 0.4093
724.50 0.4091
724.60 0.4089
724.70 0.4088
724.80 0.4086
724.90 0.4085
725.00 0.4083
725.10 0.4082
725.20 0.408
725.30 0.4079
725.40 0.4077
725.50 0.4076
725.60 0.4074
725.70 0.4073
725.80 0.4071
725.90 0.407
726.00 0.4068
726.10 0.4067
726.20 0.4065
726.30 0.4064
726.40 0.4062
726.50 0.4061
726.60 0.4059
726.70 0.4058
726.80 0.4056
726.90 0.4055
727.00 0.4053
727.10 0.4052
727.20 0.405
727.30 0.4049
727.40 0.4047
727.50 0.4046
727.60 0.4044
727.70 0.4043
727.80 0.4041
727.90 0.404
728.00 0.4038
728.10 0.4037
728.20 0.4035
728.30 0.4034
728.40 0.4032
728.50 0.4031
728.60 0.4029
728.70 0.4028
728.80 0.4026
728.90 0.4025
729.00 0.4023
729.10 0.4022
729.20 0.402
729.30 0.4019
729.40 0.4017
729.50 0.4016
729.60 0.4014
729.70 0.4013
729.80 0.4011
729.90 0.401
730.00 0.4008
730.10 0.4007
730.20 0.4005
730.30 0.4004
730.40 0.4002
730.50 0.4001
730.60 0.3999
730.70 0.3998
730.80 0.3996
730.90 0.3995
731.00 0.3993
731.10 0.3992
731.20 0.399
731.30 0.3989
731.40 0.3987
731.50 0.3986
731.60 0.3984
731.70 0.3983
731.80 0.3982
731.90 0.398
732.00 0.3979
732.10 0.3977
732.20 0.3976
732.30 0.3974
732.40 0.3973
732.50 0.3971
732.60 0.397
732.70 0.3968
732.80 0.3967
732.90 0.3965
733.00 0.3964
733.10 0.3962
733.20 0.3961
733.30 0.3959
733.40 0.3958
733.50 0.3957
733.60 0.3955
733.70 0.3954
733.80 0.3952
733.90 0.3951
734.00 0.3949
734.10 0.3948
734.20 0.3946
734.30 0.3945
734.40 0.3943
734.50 0.3942
734.60 0.394
734.70 0.3939
734.80 0.3938
734.90 0.3936
735.00 0.3935
735.10 0.3933
735.20 0.3932
735.30 0.393
735.40 0.3929
735.50 0.3927
735.60 0.3926
735.70 0.3924
735.80 0.3923
735.90 0.3922
736.00 0.392
736.10 0.3919
736.20 0.3917
736.30 0.3916
736.40 0.3914
736.50 0.3913
736.60 0.3911
736.70 0.391
736.80 0.3909
736.90 0.3907
737.00 0.3906
737.10 0.3904
737.20 0.3903
737.30 0.3901
737.40 0.39
737.50 0.3898
737.60 0.3897
737.70 0.3896
737.80 0.3894
737.90 0.3893
738.00 0.3891
738.10 0.389
738.20 0.3888
738.30 0.3887
738.40 0.3886
738.50 0.3884
738.60 0.3883
738.70 0.3881
738.80 0.388
738.90 0.3878
739.00 0.3877
739.10 0.3876
739.20 0.3874
739.30 0.3873
739.40 0.3871
739.50 0.387
739.60 0.3868
739.70 0.3867
739.80 0.3866
739.90 0.3864
740.00 0.3863
740.10 0.3861
740.20 0.386
740.30 0.3858
740.40 0.3857
740.50 0.3856
740.60 0.3854
740.70 0.3853
740.80 0.3851
740.90 0.385
741.00 0.3849
741.10 0.3847
741.20 0.3846
741.30 0.3844
741.40 0.3843
741.50 0.3841
741.60 0.384
741.70 0.3839
741.80 0.3837
741.90 0.3836
742.00 0.3834
742.10 0.3833
742.20 0.3832
742.30 0.383
742.40 0.3829
742.50 0.3827
742.60 0.3826
742.70 0.3825
742.80 0.3823
742.90 0.3822
743.00 0.382
743.10 0.3819
743.20 0.3818
743.30 0.3816
743.40 0.3815
743.50 0.3813
743.60 0.3812
743.70 0.3811
743.80 0.3809
743.90 0.3808
744.00 0.3806
744.10 0.3805
744.20 0.3804
744.30 0.3802
744.40 0.3801
744.50 0.3799
744.60 0.3798
744.70 0.3797
744.80 0.3795
744.90 0.3794
745.00 0.3792
745.10 0.3791
745.20 0.379
745.30 0.3788
745.40 0.3787
745.50 0.3785
745.60 0.3784
745.70 0.3783
745.80 0.3781
745.90 0.378
746.00 0.3779
746.10 0.3777
746.20 0.3776
746.30 0.3774
746.40 0.3773
746.50 0.3772
746.60 0.377
746.70 0.3769
746.80 0.3767
746.90 0.3766
747.00 0.3765
747.10 0.3763
747.20 0.3762
747.30 0.3761
747.40 0.3759
747.50 0.3758
747.60 0.3756
747.70 0.3755
747.80 0.3754
747.90 0.3752
748.00 0.3751
748.10 0.375
748.20 0.3748
748.30 0.3747
748.40 0.3745
748.50 0.3744
748.60 0.3743
748.70 0.3741
748.80 0.374
748.90 0.3739
749.00 0.3737
749.10 0.3736
749.20 0.3735
749.30 0.3733
749.40 0.3732
749.50 0.373
749.60 0.3729
749.70 0.3728
749.80 0.3726
749.90 0.3725
750.00 0.3724
750.10 0.3722
750.20 0.3721
750.30 0.372
750.40 0.3718
750.50 0.3717
750.60 0.3715
750.70 0.3714
750.80 0.3713
750.90 0.3711
751.00 0.371
751.10 0.3709
751.20 0.3707
751.30 0.3706
751.40 0.3705
751.50 0.3703
751.60 0.3702
751.70 0.3701
751.80 0.3699
751.90 0.3698
752.00 0.3697
752.10 0.3695
752.20 0.3694
752.30 0.3692
752.40 0.3691
752.50 0.369
752.60 0.3688
752.70 0.3687
752.80 0.3686
752.90 0.3684
753.00 0.3683
753.10 0.3682
753.20 0.368
753.30 0.3679
753.40 0.3678
753.50 0.3676
753.60 0.3675
753.70 0.3674
753.80 0.3672
753.90 0.3671
754.00 0.367
754.10 0.3668
754.20 0.3667
754.30 0.3666
754.40 0.3664
754.50 0.3663
754.60 0.3662
754.70 0.366
754.80 0.3659
754.90 0.3658
755.00 0.3656
755.10 0.3655
755.20 0.3654
755.30 0.3652
755.40 0.3651
755.50 0.365
755.60 0.3648
755.70 0.3647
755.80 0.3646
755.90 0.3644
756.00 0.3643
756.10 0.3642
756.20 0.364
756.30 0.3639
756.40 0.3638
756.50 0.3636
756.60 0.3635
756.70 0.3634
756.80 0.3632
756.90 0.3631
757.00 0.363
757.10 0.3628
757.20 0.3627
757.30 0.3626
757.40 0.3625
757.50 0.3623
757.60 0.3622
757.70 0.3621
757.80 0.3619
757.90 0.3618
758.00 0.3617
758.10 0.3615
758.20 0.3614
758.30 0.3613
758.40 0.3611
758.50 0.361
758.60 0.3609
758.70 0.3607
758.80 0.3606
758.90 0.3605
759.00 0.3604
759.10 0.3602
759.20 0.3601
759.30 0.36
759.40 0.3598
759.50 0.3597
759.60 0.3596
759.70 0.3594
759.80 0.3593
759.90 0.3592
760.00 0.359
760.10 0.3589
760.20 0.3588
760.30 0.3587
760.40 0.3585
760.50 0.3584
760.60 0.3583
760.70 0.3581
760.80 0.358
760.90 0.3579
761.00 0.3577
761.10 0.3576
761.20 0.3575
761.30 0.3574
761.40 0.3572
761.50 0.3571
761.60 0.357
761.70 0.3568
761.80 0.3567
761.90 0.3566
762.00 0.3565
762.10 0.3563
762.20 0.3562
762.30 0.3561
762.40 0.3559
762.50 0.3558
762.60 0.3557
762.70 0.3556
762.80 0.3554
762.90 0.3553
763.00 0.3552
763.10 0.355
763.20 0.3549
763.30 0.3548
763.40 0.3547
763.50 0.3545
763.60 0.3544
763.70 0.3543
763.80 0.3541
763.90 0.354
764.00 0.3539
764.10 0.3538
764.20 0.3536
764.30 0.3535
764.40 0.3534
764.50 0.3532
764.60 0.3531
764.70 0.353
764.80 0.3529
764.90 0.3527
765.00 0.3526
765.10 0.3525
765.20 0.3524
765.30 0.3522
765.40 0.3521
765.50 0.352
765.60 0.3518
765.70 0.3517
765.80 0.3516
765.90 0.3515
766.00 0.3513
766.10 0.3512
766.20 0.3511
766.30 0.351
766.40 0.3508
766.50 0.3507
766.60 0.3506
766.70 0.3504
766.80 0.3503
766.90 0.3502
767.00 0.3501
767.10 0.3499
767.20 0.3498
767.30 0.3497
767.40 0.3496
767.50 0.3494
767.60 0.3493
767.70 0.3492
767.80 0.3491
767.90 0.3489
768.00 0.3488
768.10 0.3487
768.20 0.3486
768.30 0.3484
768.40 0.3483
768.50 0.3482
768.60 0.3481
768.70 0.3479
768.80 0.3478
768.90 0.3477
769.00 0.3476
769.10 0.3474
769.20 0.3473
769.30 0.3472
769.40 0.3471
769.50 0.3469
769.60 0.3468
769.70 0.3467
769.80 0.3466
769.90 0.3464
770.00 0.3463
770.10 0.3462
770.20 0.3461
770.30 0.3459
770.40 0.3458
770.50 0.3457
770.60 0.3456
770.70 0.3454
770.80 0.3453
770.90 0.3452
771.00 0.3451
771.10 0.3449
771.20 0.3448
771.30 0.3447
771.40 0.3446
771.50 0.3444
771.60 0.3443
771.70 0.3442
771.80 0.3441
771.90 0.3439
772.00 0.3438
772.10 0.3437
772.20 0.3436
772.30 0.3435
772.40 0.3433
772.50 0.3432
772.60 0.3431
772.70 0.343
772.80 0.3428
772.90 0.3427
773.00 0.3426
773.10 0.3425
773.20 0.3423
773.30 0.3422
773.40 0.3421
773.50 0.342
773.60 0.3419
773.70 0.3417
773.80 0.3416
773.90 0.3415
774.00 0.3414
774.10 0.3412
774.20 0.3411
774.30 0.341
774.40 0.3409
774.50 0.3408
774.60 0.3406
774.70 0.3405
774.80 0.3404
774.90 0.3403
775.00 0.3401
775.10 0.34
775.20 0.3399
775.30 0.3398
775.40 0.3397
775.50 0.3395
775.60 0.3394
775.70 0.3393
775.80 0.3392
775.90 0.339
776.00 0.3389
776.10 0.3388
776.20 0.3387
776.30 0.3386
776.40 0.3384
776.50 0.3383
776.60 0.3382
776.70 0.3381
776.80 0.338
776.90 0.3378
777.00 0.3377
777.10 0.3376
777.20 0.3375
777.30 0.3373
777.40 0.3372
777.50 0.3371
777.60 0.337
777.70 0.3369
777.80 0.3367
777.90 0.3366
778.00 0.3365
778.10 0.3364
778.20 0.3363
778.30 0.3361
778.40 0.336
778.50 0.3359
778.60 0.3358
778.70 0.3357
778.80 0.3355
778.90 0.3354
779.00 0.3353
779.10 0.3352
779.20 0.3351
779.30 0.3349
779.40 0.3348
779.50 0.3347
779.60 0.3346
779.70 0.3345
779.80 0.3343
779.90 0.3342
780.00 0.3341
780.10 0.334
780.20 0.3339
780.30 0.3337
780.40 0.3336
780.50 0.3335
780.60 0.3334
780.70 0.3333
780.80 0.3332
780.90 0.333
781.00 0.3329
781.10 0.3328
781.20 0.3327
781.30 0.3326
781.40 0.3324
781.50 0.3323
781.60 0.3322
781.70 0.3321
781.80 0.332
781.90 0.3319
782.00 0.3317
782.10 0.3316
782.20 0.3315
782.30 0.3314
782.40 0.3313
782.50 0.3311
782.60 0.331
782.70 0.3309
782.80 0.3308
782.90 0.3307
783.00 0.3306
783.10 0.3304
783.20 0.3303
783.30 0.3302
783.40 0.3301
783.50 0.33
783.60 0.3298
783.70 0.3297
783.80 0.3296
783.90 0.3295
784.00 0.3294
784.10 0.3293
784.20 0.3291
784.30 0.329
784.40 0.3289
784.50 0.3288
784.60 0.3287
784.70 0.3286
784.80 0.3284
784.90 0.3283
785.00 0.3282
785.10 0.3281
785.20 0.328
785.30 0.3279
785.40 0.3277
785.50 0.3276
785.60 0.3275
785.70 0.3274
785.80 0.3273
785.90 0.3272
786.00 0.327
786.10 0.3269
786.20 0.3268
786.30 0.3267
786.40 0.3266
786.50 0.3265
786.60 0.3263
786.70 0.3262
786.80 0.3261
786.90 0.326
787.00 0.3259
787.10 0.3258
787.20 0.3257
787.30 0.3255
787.40 0.3254
787.50 0.3253
787.60 0.3252
787.70 0.3251
787.80 0.325
787.90 0.3248
788.00 0.3247
788.10 0.3246
788.20 0.3245
788.30 0.3244
788.40 0.3243
788.50 0.3242
788.60 0.324
788.70 0.3239
788.80 0.3238
788.90 0.3237
789.00 0.3236
789.10 0.3235
789.20 0.3234
789.30 0.3232
789.40 0.3231
789.50 0.323
789.60 0.3229
789.70 0.3228
789.80 0.3227
789.90 0.3225
790.00 0.3224
790.10 0.3223
790.20 0.3222
790.30 0.3221
790.40 0.322
790.50 0.3219
790.60 0.3217
790.70 0.3216
790.80 0.3215
790.90 0.3214
791.00 0.3213
791.10 0.3212
791.20 0.3211
791.30 0.321
791.40 0.3208
791.50 0.3207
791.60 0.3206
791.70 0.3205
791.80 0.3204
791.90 0.3203
792.00 0.3202
792.10 0.32
792.20 0.3199
792.30 0.3198
792.40 0.3197
792.50 0.3196
792.60 0.3195
792.70 0.3194
792.80 0.3193
792.90 0.3191
793.00 0.319
793.10 0.3189
793.20 0.3188
793.30 0.3187
793.40 0.3186
793.50 0.3185
793.60 0.3184
793.70 0.3182
793.80 0.3181
793.90 0.318
794.00 0.3179
794.10 0.3178
794.20 0.3177
794.30 0.3176
794.40 0.3175
794.50 0.3173
794.60 0.3172
794.70 0.3171
794.80 0.317
794.90 0.3169
795.00 0.3168
795.10 0.3167
795.20 0.3166
795.30 0.3164
795.40 0.3163
795.50 0.3162
795.60 0.3161
795.70 0.316
795.80 0.3159
795.90 0.3158
796.00 0.3157
796.10 0.3155
796.20 0.3154
796.30 0.3153
796.40 0.3152
796.50 0.3151
796.60 0.315
796.70 0.3149
796.80 0.3148
796.90 0.3147
797.00 0.3145
797.10 0.3144
797.20 0.3143
797.30 0.3142
797.40 0.3141
797.50 0.314
797.60 0.3139
797.70 0.3138
797.80 0.3137
797.90 0.3136
798.00 0.3134
798.10 0.3133
798.20 0.3132
798.30 0.3131
798.40 0.313
798.50 0.3129
798.60 0.3128
798.70 0.3127
798.80 0.3126
798.90 0.3124
799.00 0.3123
799.10 0.3122
799.20 0.3121
799.30 0.312
799.40 0.3119
799.50 0.3118
799.60 0.3117
799.70 0.3116
799.80 0.3115
799.90 0.3113
800.00 0.3112
800.10 0.3111
800.20 0.311
800.30 0.3109
800.40 0.3108
800.50 0.3107
800.60 0.3106
800.70 0.3105
800.80 0.3104
800.90 0.3103
801.00 0.3101
801.10 0.31
801.20 0.3099
801.30 0.3098
801.40 0.3097
801.50 0.3096
801.60 0.3095
801.70 0.3094
801.80 0.3093
801.90 0.3092
802.00 0.3091
802.10 0.309
802.20 0.3088
802.30 0.3087
802.40 0.3086
802.50 0.3085
802.60 0.3084
802.70 0.3083
802.80 0.3082
802.90 0.3081
803.00 0.308
803.10 0.3079
803.20 0.3078
803.30 0.3077
803.40 0.3075
803.50 0.3074
803.60 0.3073
803.70 0.3072
803.80 0.3071
803.90 0.307
804.00 0.3069
804.10 0.3068
804.20 0.3067
804.30 0.3066
804.40 0.3065
804.50 0.3064
804.60 0.3063
804.70 0.3061
804.80 0.306
804.90 0.3059
805.00 0.3058
805.10 0.3057
805.20 0.3056
805.30 0.3055
805.40 0.3054
805.50 0.3053
805.60 0.3052
805.70 0.3051
805.80 0.305
805.90 0.3049
806.00 0.3048
806.10 0.3047
806.20 0.3045
806.30 0.3044
806.40 0.3043
806.50 0.3042
806.60 0.3041
806.70 0.304
806.80 0.3039
806.90 0.3038
807.00 0.3037
807.10 0.3036
807.20 0.3035
807.30 0.3034
807.40 0.3033
807.50 0.3032
807.60 0.3031
807.70 0.303
807.80 0.3028
807.90 0.3027
808.00 0.3026
808.10 0.3025
808.20 0.3024
808.30 0.3023
808.40 0.3022
808.50 0.3021
808.60 0.302
808.70 0.3019
808.80 0.3018
808.90 0.3017
809.00 0.3016
809.10 0.3015
809.20 0.3014
809.30 0.3013
809.40 0.3012
809.50 0.3011
809.60 0.3009
809.70 0.3008
809.80 0.3007
809.90 0.3006
810.00 0.3005
810.10 0.3004
810.20 0.3003
810.30 0.3002
810.40 0.3001
810.50 0.3
810.60 0.2999
810.70 0.2998
810.80 0.2997
810.90 0.2996
811.00 0.2995
811.10 0.2994
811.20 0.2993
811.30 0.2992
811.40 0.2991
811.50 0.299
811.60 0.2989
811.70 0.2987
811.80 0.2986
811.90 0.2985
812.00 0.2984
812.10 0.2983
812.20 0.2982
812.30 0.2981
812.40 0.298
812.50 0.2979
812.60 0.2978
812.70 0.2977
812.80 0.2976
812.90 0.2975
813.00 0.2974
813.10 0.2973
813.20 0.2972
813.30 0.2971
813.40 0.297
813.50 0.2969
813.60 0.2968
813.70 0.2967
813.80 0.2966
813.90 0.2965
814.00 0.2964
814.10 0.2963
814.20 0.2962
814.30 0.2961
814.40 0.296
814.50 0.2958
814.60 0.2957
814.70 0.2956
814.80 0.2955
814.90 0.2954
815.00 0.2953
815.10 0.2952
815.20 0.2951
815.30 0.295
815.40 0.2949
815.50 0.2948
815.60 0.2947
815.70 0.2946
815.80 0.2945
815.90 0.2944
816.00 0.2943
816.10 0.2942
816.20 0.2941
816.30 0.294
816.40 0.2939
816.50 0.2938
816.60 0.2937
816.70 0.2936
816.80 0.2935
816.90 0.2934
817.00 0.2933
817.10 0.2932
817.20 0.2931
817.30 0.293
817.40 0.2929
817.50 0.2928
817.60 0.2927
817.70 0.2926
817.80 0.2925
817.90 0.2924
818.00 0.2923
818.10 0.2922
818.20 0.2921
818.30 0.292
818.40 0.2919
818.50 0.2918
818.60 0.2917
818.70 0.2916
818.80 0.2915
818.90 0.2914
819.00 0.2913
819.10 0.2912
819.20 0.2911
819.30 0.291
819.40 0.2909
819.50 0.2908
819.60 0.2906
819.70 0.2905
819.80 0.2904
819.90 0.2903
820.00 0.2902
820.10 0.2901
820.20 0.2901
820.30 0.29
820.40 0.2899
820.50 0.2898
820.60 0.2897
820.70 0.2895
820.80 0.2894
820.90 0.2893
821.00 0.2892
821.10 0.2891
821.20 0.289
821.30 0.2889
821.40 0.2888
821.50 0.2887
821.60 0.2886
821.70 0.2885
821.80 0.2884
821.90 0.2884
822.00 0.2883
822.10 0.2882
822.20 0.2881
822.30 0.288
822.40 0.2879
822.50 0.2878
822.60 0.2877
822.70 0.2876
822.80 0.2875
822.90 0.2874
823.00 0.2873
823.10 0.2872
823.20 0.2871
823.30 0.287
823.40 0.2869
823.50 0.2868
823.60 0.2867
823.70 0.2866
823.80 0.2865
823.90 0.2864
824.00 0.2863
824.10 0.2862
824.20 0.2861
824.30 0.286
824.40 0.2859
824.50 0.2858
824.60 0.2857
824.70 0.2856
824.80 0.2855
824.90 0.2854
825.00 0.2853
825.10 0.2852
825.20 0.2851
825.30 0.285
825.40 0.2849
825.50 0.2848
825.60 0.2847
825.70 0.2846
825.80 0.2845
825.90 0.2844
826.00 0.2843
826.10 0.2842
826.20 0.2841
826.30 0.284
826.40 0.2839
826.50 0.2838
826.60 0.2837
826.70 0.2836
826.80 0.2835
826.90 0.2834
827.00 0.2833
827.10 0.2832
827.20 0.2831
827.30 0.283
827.40 0.2829
827.50 0.2828
827.60 0.2827
827.70 0.2826
827.80 0.2825
827.90 0.2824
828.00 0.2823
828.10 0.2822
828.20 0.2822
828.30 0.2821
828.40 0.282
828.50 0.2819
828.60 0.2818
828.70 0.2817
828.80 0.2816
828.90 0.2815
829.00 0.2814
829.10 0.2813
829.20 0.2812
829.30 0.2811
829.40 0.281
829.50 0.2809
829.60 0.2808
829.70 0.2807
829.80 0.2806
829.90 0.2805
830.00 0.2804
830.10 0.2803
830.20 0.2802
830.30 0.2801
830.40 0.28
830.50 0.2799
830.60 0.2798
830.70 0.2797
830.80 0.2796
830.90 0.2795
831.00 0.2794
831.10 0.2793
831.20 0.2792
831.30 0.2792
831.40 0.2791
831.50 0.279
831.60 0.2789
831.70 0.2788
831.80 0.2787
831.90 0.2786
832.00 0.2785
832.10 0.2784
832.20 0.2783
832.30 0.2782
832.40 0.2781
832.50 0.278
832.60 0.2779
832.70 0.2778
832.80 0.2777
832.90 0.2776
833.00 0.2775
833.10 0.2774
833.20 0.2773
833.30 0.2772
833.40 0.2771
833.50 0.2771
833.60 0.277
833.70 0.2769
833.80 0.2768
833.90 0.2767
834.00 0.2766
834.10 0.2765
834.20 0.2764
834.30 0.2763
834.40 0.2762
834.50 0.2761
834.60 0.276
834.70 0.2759
834.80 0.2758
834.90 0.2757
835.00 0.2756
835.10 0.2755
835.20 0.2754
835.30 0.2754
835.40 0.2753
835.50 0.2752
835.60 0.2751
835.70 0.275
835.80 0.2749
835.90 0.2748
836.00 0.2747
836.10 0.2746
836.20 0.2745
836.30 0.2744
836.40 0.2743
836.50 0.2742
836.60 0.2741
836.70 0.274
836.80 0.2739
836.90 0.2738
837.00 0.2738
837.10 0.2737
837.20 0.2736
837.30 0.2735
837.40 0.2734
837.50 0.2733
837.60 0.2732
837.70 0.2731
837.80 0.273
837.90 0.2729
838.00 0.2728
838.10 0.2727
838.20 0.2726
838.30 0.2725
838.40 0.2724
838.50 0.2724
838.60 0.2723
838.70 0.2722
838.80 0.2721
838.90 0.272
839.00 0.2719
839.10 0.2718
839.20 0.2717
839.30 0.2716
839.40 0.2715
839.50 0.2714
839.60 0.2713
839.70 0.2712
839.80 0.2711
839.90 0.271
840.00 0.271
840.10 0.2709
840.20 0.2708
840.30 0.2707
840.40 0.2706
840.50 0.2705
840.60 0.2704
840.70 0.2703
840.80 0.2702
840.90 0.2701
841.00 0.27
841.10 0.2699
841.20 0.2698
841.30 0.2698
841.40 0.2697
841.50 0.2696
841.60 0.2695
841.70 0.2694
841.80 0.2693
841.90 0.2692
842.00 0.2691
842.10 0.269
842.20 0.2689
842.30 0.2688
842.40 0.2687
842.50 0.2686
842.60 0.2685
842.70 0.2685
842.80 0.2684
842.90 0.2683
843.00 0.2682
843.10 0.2681
843.20 0.268
843.30 0.2679
843.40 0.2678
843.50 0.2677
843.60 0.2676
843.70 0.2675
843.80 0.2674
843.90 0.2673
844.00 0.2672
844.10 0.2671
844.20 0.2671
844.30 0.267
844.40 0.2669
844.50 0.2668
844.60 0.2667
844.70 0.2666
844.80 0.2665
844.90 0.2664
845.00 0.2663
845.10 0.2662
845.20 0.2661
845.30 0.266
845.40 0.2659
845.50 0.2658
845.60 0.2658
845.70 0.2657
845.80 0.2656
845.90 0.2655
846.00 0.2654
846.10 0.2653
846.20 0.2652
846.30 0.2651
846.40 0.265
846.50 0.2649
846.60 0.2648
846.70 0.2647
846.80 0.2646
846.90 0.2645
847.00 0.2645
847.10 0.2644
847.20 0.2643
847.30 0.2643
847.40 0.2642
847.50 0.2641
847.60 0.2641
847.70 0.264
847.80 0.264
847.90 0.2639
848.00 0.2638
848.10 0.2638
848.20 0.2637
848.30 0.2636
848.40 0.2636
848.50 0.2635
848.60 0.2635
848.70 0.2634
848.80 0.2633
848.90 0.2633
849.00 0.2632
849.10 0.2631
849.20 0.2631
849.30 0.263
849.40 0.263
849.50 0.2629
849.60 0.2628
849.70 0.2628
849.80 0.2627
849.90 0.2626
850.00 0.2626
850.10 0.2625
850.20 0.2625
850.30 0.2624
850.40 0.2623
850.50 0.2623
850.60 0.2622
850.70 0.2621
850.80 0.2621
850.90 0.262
851.00 0.262
851.10 0.2619
851.20 0.2618
851.30 0.2618
851.40 0.2617
851.50 0.2617
851.60 0.2616
851.70 0.2615
851.80 0.2615
851.90 0.2614
852.00 0.2613
852.10 0.2613
852.20 0.2612
852.30 0.2611
852.40 0.261
852.50 0.261
852.60 0.2609
852.70 0.2608
852.80 0.2607
852.90 0.2607
853.00 0.2606
853.10 0.2605
853.20 0.2604
853.30 0.2604
853.40 0.2603
853.50 0.2602
853.60 0.2601
853.70 0.2601
853.80 0.26
853.90 0.2599
854.00 0.2598
854.10 0.2598
854.20 0.2597
854.30 0.2596
854.40 0.2596
854.50 0.2595
854.60 0.2594
854.70 0.2593
854.80 0.2593
854.90 0.2592
855.00 0.2591
855.10 0.259
855.20 0.259
855.30 0.2589
855.40 0.2588
855.50 0.2587
855.60 0.2587
855.70 0.2586
855.80 0.2585
855.90 0.2584
856.00 0.2584
856.10 0.2583
856.20 0.2582
856.30 0.2581
856.40 0.2581
856.50 0.258
856.60 0.2579
856.70 0.2578
856.80 0.2578
856.90 0.2577
857.00 0.2576
857.10 0.2576
857.20 0.2575
857.30 0.2574
857.40 0.2573
857.50 0.2572
857.60 0.2572
857.70 0.2571
857.80 0.257
857.90 0.2569
858.00 0.2569
858.10 0.2568
858.20 0.2567
858.30 0.2566
858.40 0.2566
858.50 0.2565
858.60 0.2564
858.70 0.2563
858.80 0.2563
858.90 0.2562
859.00 0.2561
859.10 0.256
859.20 0.256
859.30 0.2559
859.40 0.2558
859.50 0.2557
859.60 0.2557
859.70 0.2556
859.80 0.2555
859.90 0.2554
860.00 0.2554
860.10 0.2553
860.20 0.2552
860.30 0.2551
860.40 0.2551
860.50 0.255
860.60 0.2549
860.70 0.2548
860.80 0.2548
860.90 0.2547
861.00 0.2546
861.10 0.2545
861.20 0.2545
861.30 0.2544
861.40 0.2543
861.50 0.2542
861.60 0.2542
861.70 0.2541
861.80 0.254
861.90 0.2539
862.00 0.2539
862.10 0.2537
862.20 0.2536
862.30 0.2535
862.40 0.2533
862.50 0.2532
862.60 0.253
862.70 0.2529
862.80 0.2528
862.90 0.2526
863.00 0.2525
863.10 0.2524
863.20 0.2522
863.30 0.2521
863.40 0.252
863.50 0.2518
863.60 0.2517
863.70 0.2515
863.80 0.2514
863.90 0.2513
864.00 0.2511
864.10 0.251
864.20 0.2509
864.30 0.2507
864.40 0.2506
864.50 0.2505
864.60 0.2503
864.70 0.2502
864.80 0.2501
864.90 0.2499
865.00 0.2498
865.10 0.2497
865.20 0.2495
865.30 0.2494
865.40 0.2492
865.50 0.2491
865.60 0.249
865.70 0.2488
865.80 0.2487
865.90 0.2486
866.00 0.2484
866.10 0.2483
866.20 0.2482
866.30 0.248
866.40 0.2479
866.50 0.2478
866.60 0.2476
866.70 0.2475
866.80 0.2474
866.90 0.2472
867.00 0.2471
867.10 0.2471
867.20 0.2471
867.30 0.2471
867.40 0.2471
867.50 0.2471
867.60 0.2471
867.70 0.2471
867.80 0.2471
867.90 0.247
868.00 0.247
868.10 0.247
868.20 0.247
868.30 0.247
868.40 0.247
868.50 0.247
868.60 0.247
868.70 0.247
868.80 0.247
868.90 0.247
869.00 0.247
869.10 0.247
869.20 0.247
869.30 0.247
869.40 0.247
869.50 0.247
869.60 0.247
869.70 0.2469
869.80 0.2469
869.90 0.2469
870.00 0.2469
870.10 0.2469
870.20 0.2469
870.30 0.2469
870.40 0.2469
870.50 0.2469
870.60 0.2469
870.70 0.2469
870.80 0.2469
870.90 0.2469
871.00 0.2469
871.10 0.2469
871.20 0.2469
871.30 0.2469
871.40 0.2469
871.50 0.2468
871.60 0.2468
871.70 0.2468
871.80 0.2468
871.90 0.2468
872.00 0.2468
872.10 0.2467
872.20 0.2466
872.30 0.2465
872.40 0.2464
872.50 0.2463
872.60 0.2462
872.70 0.246
872.80 0.2459
872.90 0.2458
873.00 0.2457
873.10 0.2456
873.20 0.2455
873.30 0.2454
873.40 0.2453
873.50 0.2452
873.60 0.245
873.70 0.2449
873.80 0.2448
873.90 0.2447
874.00 0.2446
874.10 0.2445
874.20 0.2444
874.30 0.2443
874.40 0.2442
874.50 0.244
874.60 0.2439
874.70 0.2438
874.80 0.2437
874.90 0.2436
875.00 0.2435
875.10 0.2434
875.20 0.2433
875.30 0.2432
875.40 0.2431
875.50 0.2429
875.60 0.2428
875.70 0.2427
875.80 0.2426
875.90 0.2425
876.00 0.2424
876.10 0.2423
876.20 0.2422
876.30 0.2421
876.40 0.242
876.50 0.2419
876.60 0.2417
876.70 0.2416
876.80 0.2415
876.90 0.2414
877.00 0.2413
877.10 0.2413
877.20 0.2413
877.30 0.2412
877.40 0.2412
877.50 0.2412
877.60 0.2411
877.70 0.2411
877.80 0.2411
877.90 0.2411
878.00 0.241
878.10 0.241
878.20 0.241
878.30 0.241
878.40 0.2409
878.50 0.2409
878.60 0.2409
878.70 0.2409
878.80 0.2408
878.90 0.2408
879.00 0.2408
879.10 0.2408
879.20 0.2407
879.30 0.2407
879.40 0.2407
879.50 0.2407
879.60 0.2406
879.70 0.2406
879.80 0.2406
879.90 0.2406
880.00 0.2405
880.10 0.2405
880.20 0.2405
880.30 0.2405
880.40 0.2404
880.50 0.2404
880.60 0.2404
880.70 0.2404
880.80 0.2403
880.90 0.2403
881.00 0.2403
881.10 0.2403
881.20 0.2402
881.30 0.2402
881.40 0.2402
881.50 0.2401
881.60 0.2401
881.70 0.2401
881.80 0.2401
881.90 0.24
882.00 0.24
882.10 0.2397
882.20 0.2393
882.30 0.239
882.40 0.2387
882.50 0.2383
882.60 0.238
882.70 0.2376
882.80 0.2373
882.90 0.237
883.00 0.2366
883.10 0.2363
883.20 0.2359
883.30 0.2356
883.40 0.2353
883.50 0.2349
883.60 0.2346
883.70 0.2342
883.80 0.2339
883.90 0.2336
884.00 0.2332
884.10 0.2329
884.20 0.2325
884.30 0.2322
884.40 0.2319
884.50 0.2315
884.60 0.2312
884.70 0.2309
884.80 0.2305
884.90 0.2302
885.00 0.2298
885.10 0.2295
885.20 0.2292
885.30 0.2288
885.40 0.2285
885.50 0.2282
885.60 0.2278
885.70 0.2275
885.80 0.2272
885.90 0.2268
886.00 0.2265
886.10 0.2261
886.20 0.2258
886.30 0.2255
886.40 0.2251
886.50 0.2248
886.60 0.2245
886.70 0.2241
886.80 0.2238
886.90 0.2235
887.00 0.2231
887.10 0.2233
887.20 0.2235
887.30 0.2237
887.40 0.2239
887.50 0.2241
887.60 0.2243
887.70 0.2245
887.80 0.2247
887.90 0.2249
888.00 0.2251
888.10 0.2253
888.20 0.2255
888.30 0.2257
888.40 0.2259
888.50 0.2261
888.60 0.2263
888.70 0.2265
888.80 0.2267
888.90 0.2269
889.00 0.2271
889.10 0.2273
889.20 0.2275
889.30 0.2277
889.40 0.2279
889.50 0.2281
889.60 0.2283
889.70 0.2285
889.80 0.2287
889.90 0.2289
890.00 0.2291
890.10 0.2293
890.20 0.2295
890.30 0.2297
890.40 0.2299
890.50 0.2301
890.60 0.2303
890.70 0.2305
890.80 0.2307
890.90 0.2309
891.00 0.231
891.10 0.2312
891.20 0.2314
891.30 0.2316
891.40 0.2318
891.50 0.232
891.60 0.2322
891.70 0.2324
891.80 0.2326
891.90 0.2328
892.00 0.233
892.10 0.2329
892.20 0.2328
892.30 0.2327
892.40 0.2326
892.50 0.2325
892.60 0.2324
892.70 0.2323
892.80 0.2322
892.90 0.232
893.00 0.2319
893.10 0.2318
893.20 0.2317
893.30 0.2316
893.40 0.2315
893.50 0.2314
893.60 0.2313
893.70 0.2312
893.80 0.2311
893.90 0.231
894.00 0.2309
894.10 0.2308
894.20 0.2307
894.30 0.2306
894.40 0.2305
894.50 0.2304
894.60 0.2303
894.70 0.2302
894.80 0.23
894.90 0.2299
895.00 0.2298
895.10 0.2297
895.20 0.2296
895.30 0.2295
895.40 0.2294
895.50 0.2293
895.60 0.2292
895.70 0.2291
895.80 0.229
895.90 0.2289
896.00 0.2288
896.10 0.2287
896.20 0.2286
896.30 0.2285
896.40 0.2284
896.50 0.2283
896.60 0.2282
896.70 0.2281
896.80 0.228
896.90 0.2279
897.00 0.2278
897.10 0.2273
897.20 0.2268
897.30 0.2263
897.40 0.2258
897.50 0.2253
897.60 0.2248
897.70 0.2243
897.80 0.2238
897.90 0.2233
898.00 0.2228
898.10 0.2224
898.20 0.2219
898.30 0.2214
898.40 0.2209
898.50 0.2204
898.60 0.2199
898.70 0.2194
898.80 0.2189
898.90 0.2184
899.00 0.218
899.10 0.2175
899.20 0.217
899.30 0.2165
899.40 0.216
899.50 0.2155
899.60 0.215
899.70 0.2146
899.80 0.2141
899.90 0.2136
900.00 0.2131
900.10 0.2126
900.20 0.2121
900.30 0.2116
900.40 0.2112
900.50 0.2107
900.60 0.2102
900.70 0.2097
900.80 0.2092
900.90 0.2087
901.00 0.2083
901.10 0.2078
901.20 0.2073
901.30 0.2068
901.40 0.2063
901.50 0.2058
901.60 0.2054
901.70 0.2049
901.80 0.2044
901.90 0.2039
902.00 0.2034
902.10 0.2038
902.20 0.2041
902.30 0.2045
902.40 0.2049
902.50 0.2052
902.60 0.2056
902.70 0.2059
902.80 0.2063
902.90 0.2066
903.00 0.207
903.10 0.2074
903.20 0.2077
903.30 0.2081
903.40 0.2084
903.50 0.2088
903.60 0.2091
903.70 0.2095
903.80 0.2098
903.90 0.2102
904.00 0.2105
904.10 0.2109
904.20 0.2113
904.30 0.2116
904.40 0.212
904.50 0.2123
904.60 0.2127
904.70 0.213
904.80 0.2134
904.90 0.2137
905.00 0.2141
905.10 0.2144
905.20 0.2148
905.30 0.2151
905.40 0.2155
905.50 0.2158
905.60 0.2162
905.70 0.2165
905.80 0.2169
905.90 0.2172
906.00 0.2176
906.10 0.2179
906.20 0.2183
906.30 0.2186
906.40 0.219
906.50 0.2194
906.60 0.2197
906.70 0.22
906.80 0.2204
906.90 0.2207
907.00 0.2211
907.10 0.2211
907.20 0.2211
907.30 0.221
907.40 0.221
907.50 0.221
907.60 0.221
907.70 0.221
907.80 0.2209
907.90 0.2209
908.00 0.2209
908.10 0.2209
908.20 0.2209
908.30 0.2208
908.40 0.2208
908.50 0.2208
908.60 0.2208
908.70 0.2207
908.80 0.2207
908.90 0.2207
909.00 0.2207
909.10 0.2207
909.20 0.2206
909.30 0.2206
909.40 0.2206
909.50 0.2206
909.60 0.2206
909.70 0.2205
909.80 0.2205
909.90 0.2205
910.00 0.2205
910.10 0.2205
910.20 0.2204
910.30 0.2204
910.40 0.2204
910.50 0.2204
910.60 0.2204
910.70 0.2203
910.80 0.2203
910.90 0.2203
911.00 0.2203
911.10 0.2203
911.20 0.2202
911.30 0.2202
911.40 0.2202
911.50 0.2202
911.60 0.2201
911.70 0.2201
911.80 0.2201
911.90 0.2201
912.00 0.2201
912.10 0.2199
912.20 0.2198
912.30 0.2197
912.40 0.2195
912.50 0.2194
912.60 0.2193
912.70 0.2191
912.80 0.219
912.90 0.2188
913.00 0.2187
913.10 0.2186
913.20 0.2184
913.30 0.2183
913.40 0.2182
913.50 0.218
913.60 0.2179
913.70 0.2178
913.80 0.2176
913.90 0.2175
914.00 0.2174
914.10 0.2172
914.20 0.2171
914.30 0.2169
914.40 0.2168
914.50 0.2167
914.60 0.2165
914.70 0.2164
914.80 0.2163
914.90 0.2161
915.00 0.216
915.10 0.2159
915.20 0.2157
915.30 0.2156
915.40 0.2155
915.50 0.2153
915.60 0.2152
915.70 0.2151
915.80 0.2149
915.90 0.2148
916.00 0.2147
916.10 0.2145
916.20 0.2144
916.30 0.2143
916.40 0.2141
916.50 0.214
916.60 0.2139
916.70 0.2137
916.80 0.2136
916.90 0.2135
917.00 0.2133
917.10 0.2126
917.20 0.2119
917.30 0.2112
917.40 0.2105
917.50 0.2098
917.60 0.2091
917.70 0.2083
917.80 0.2076
917.90 0.2069
918.00 0.2062
918.10 0.2055
918.20 0.2048
918.30 0.2041
918.40 0.2034
918.50 0.2027
918.60 0.202
918.70 0.2013
918.80 0.2006
918.90 0.1998
919.00 0.1991
919.10 0.1984
919.20 0.1977
919.30 0.197
919.40 0.1963
919.50 0.1956
919.60 0.1949
919.70 0.1942
919.80 0.1935
919.90 0.1928
920.00 0.1921
920.10 0.1914
920.20 0.1907
920.30 0.19
920.40 0.1893
920.50 0.1886
920.60 0.1879
920.70 0.1872
920.80 0.1865
920.90 0.1858
921.00 0.1851
921.10 0.1844
921.20 0.1837
921.30 0.183
921.40 0.1823
921.50 0.1816
921.60 0.1809
921.70 0.1802
921.80 0.1795
921.90 0.1788
922.00 0.1781
922.10 0.1785
922.20 0.179
922.30 0.1794
922.40 0.1798
922.50 0.1803
922.60 0.1807
922.70 0.1812
922.80 0.1816
922.90 0.182
923.00 0.1825
923.10 0.1829
923.20 0.1833
923.30 0.1838
923.40 0.1842
923.50 0.1847
923.60 0.1851
923.70 0.1855
923.80 0.186
923.90 0.1864
924.00 0.1868
924.10 0.1873
924.20 0.1877
924.30 0.1881
924.40 0.1886
924.50 0.189
924.60 0.1894
924.70 0.1899
924.80 0.1903
924.90 0.1908
925.00 0.1912
925.10 0.1916
925.20 0.1921
925.30 0.1925
925.40 0.1929
925.50 0.1934
925.60 0.1938
925.70 0.1942
925.80 0.1946
925.90 0.1951
926.00 0.1955
926.10 0.1959
926.20 0.1964
926.30 0.1968
926.40 0.1972
926.50 0.1977
926.60 0.1981
926.70 0.1985
926.80 0.199
926.90 0.1994
927.00 0.1998
927.10 0.1999
927.20 0.2
927.30 0.2001
927.40 0.2002
927.50 0.2003
927.60 0.2004
927.70 0.2005
927.80 0.2006
927.90 0.2007
928.00 0.2008
928.10 0.2009
928.20 0.201
928.30 0.201
928.40 0.2011
928.50 0.2012
928.60 0.2013
928.70 0.2014
928.80 0.2015
928.90 0.2016
929.00 0.2017
929.10 0.2018
929.20 0.2019
929.30 0.202
929.40 0.2021
929.50 0.2022
929.60 0.2023
929.70 0.2024
929.80 0.2024
929.90 0.2025
930.00 0.2026
930.10 0.2027
930.20 0.2028
930.30 0.2029
930.40 0.203
930.50 0.2031
930.60 0.2032
930.70 0.2033
930.80 0.2034
930.90 0.2035
931.00 0.2036
931.10 0.2037
931.20 0.2037
931.30 0.2038
931.40 0.2039
931.50 0.204
931.60 0.2041
931.70 0.2042
931.80 0.2043
931.90 0.2044
932.00 0.2045
932.10 0.2045
932.20 0.2045
932.30 0.2045
932.40 0.2044
932.50 0.2044
932.60 0.2044
932.70 0.2044
932.80 0.2044
932.90 0.2044
933.00 0.2044
933.10 0.2044
933.20 0.2044
933.30 0.2043
933.40 0.2043
933.50 0.2043
933.60 0.2043
933.70 0.2043
933.80 0.2043
933.90 0.2043
934.00 0.2043
934.10 0.2043
934.20 0.2043
934.30 0.2042
934.40 0.2042
934.50 0.2042
934.60 0.2041
934.70 0.2041
934.80 0.204
934.90 0.204
935.00 0.204
935.10 0.2039
935.20 0.2039
935.30 0.2038
935.40 0.2038
935.50 0.2038
935.60 0.2037
935.70 0.2037
935.80 0.2037
935.90 0.2036
936.00 0.2036
936.10 0.2035
936.20 0.2035
936.30 0.2035
936.40 0.2034
936.50 0.2034
936.60 0.2033
936.70 0.2033
936.80 0.2033
936.90 0.2032
937.00 0.2032
937.10 0.2031
937.20 0.2031
937.30 0.203
937.40 0.2029
937.50 0.2029
937.60 0.2028
937.70 0.2028
937.80 0.2027
937.90 0.2027
938.00 0.2026
938.10 0.2025
938.20 0.2025
938.30 0.2024
938.40 0.2024
938.50 0.2023
938.60 0.2022
938.70 0.2021
938.80 0.2021
938.90 0.202
939.00 0.2019
939.10 0.2019
939.20 0.2018
939.30 0.2017
939.40 0.2016
939.50 0.2016
939.60 0.2015
939.70 0.2014
939.80 0.2014
939.90 0.2013
940.00 0.2012
940.10 0.2012
940.20 0.2011
940.30 0.201
940.40 0.2009
940.50 0.2008
940.60 0.2007
940.70 0.2007
940.80 0.2006
940.90 0.2005
941.00 0.2004
941.10 0.2003
941.20 0.2002
941.30 0.2001
941.40 0.2001
941.50 0.2
941.60 0.1999
941.70 0.1998
941.80 0.1997
941.90 0.1996
942.00 0.1995
942.10 0.1994
942.20 0.1993
942.30 0.1992
942.40 0.1991
942.50 0.199
942.60 0.1989
942.70 0.1988
942.80 0.1987
942.90 0.1986
943.00 0.1984
943.10 0.1983
943.20 0.1982
943.30 0.1981
943.40 0.198
943.50 0.1979
943.60 0.1978
943.70 0.1976
943.80 0.1975
943.90 0.1974
944.00 0.1973
944.10 0.1972
944.20 0.1971
944.30 0.197
944.40 0.1968
944.50 0.1967
944.60 0.1965
944.70 0.1964
944.80 0.1963
944.90 0.1961
945.00 0.196
945.10 0.1958
945.20 0.1957
945.30 0.1956
945.40 0.1954
945.50 0.1952
945.60 0.195
945.70 0.1949
945.80 0.1947
945.90 0.1945
946.00 0.1943
946.10 0.1942
946.20 0.194
946.30 0.1938
946.40 0.1936
946.50 0.1935
946.60 0.1933
946.70 0.1931
946.80 0.1929
946.90 0.1928
947.00 0.1926
947.10 0.1924
947.20 0.1922
947.30 0.1919
947.40 0.1917
947.50 0.1914
947.60 0.1911
947.70 0.1908
947.80 0.1906
947.90 0.1903
948.00 0.19
948.10 0.1898
948.20 0.1895
948.30 0.1892
948.40 0.1889
948.50 0.1887
948.60 0.1884
948.70 0.1881
948.80 0.1878
948.90 0.1876
949.00 0.1873
949.10 0.187
949.20 0.1867
949.30 0.1865
949.40 0.186
949.50 0.1855
949.60 0.185
949.70 0.1846
949.80 0.1841
949.90 0.1836
950.00 0.1831
950.10 0.1826
950.20 0.1822
950.30 0.1817
950.40 0.1812
950.50 0.1807
950.60 0.1802
950.70 0.1798
950.80 0.1793
950.90 0.1788
951.00 0.1783
951.10 0.1779
951.20 0.1774
951.30 0.1769
951.40 0.1761
951.50 0.1754
951.60 0.1746
951.70 0.1739
951.80 0.1731
951.90 0.1723
952.00 0.1716
952.10 0.1705
952.20 0.1695
952.30 0.1685
952.40 0.1674
952.50 0.1664
952.60 0.1654
952.70 0.1643
952.80 0.1633
952.90 0.1619
953.00 0.1605
953.10 0.1591
953.20 0.1577
953.30 0.1564
953.40 0.155
953.50 0.1536
953.60 0.1522
953.70 0.1507
953.80 0.1493
953.90 0.1479
954.00 0.1472
954.10 0.1466
954.20 0.1472
954.30 0.1508
954.40 0.147
954.50 0.1464
954.60 0.147
954.70 0.1475
954.80 0.1489
954.90 0.1502
955.00 0.1515
955.10 0.1529
955.20 0.1542
955.30 0.1554
955.40 0.1567
955.50 0.158
955.60 0.1593
955.70 0.1606
955.80 0.1618
955.90 0.1627
956.00 0.1635
956.10 0.1644
956.20 0.1652
956.30 0.1661
956.40 0.1669
956.50 0.1677
956.60 0.1686
956.70 0.1694
956.80 0.1703
956.90 0.1711
957.00 0.172
957.10 0.1725
957.20 0.1731
957.30 0.1737
957.40 0.1741
957.50 0.1744
957.60 0.1748
957.70 0.1751
957.80 0.1755
957.90 0.1759
958.00 0.1762
958.10 0.1766
958.20 0.1769
958.30 0.1773
958.40 0.1777
958.50 0.178
958.60 0.1784
958.70 0.1787
958.80 0.1791
958.90 0.1794
959.00 0.1798
959.10 0.1802
959.20 0.1805
959.30 0.1809
959.40 0.181
959.50 0.1812
959.60 0.1813
959.70 0.1815
959.80 0.1816
959.90 0.1818
960.00 0.182
960.10 0.1821
960.20 0.1823
960.30 0.1824
960.40 0.1826
960.50 0.1827
960.60 0.1829
960.70 0.183
960.80 0.1832
960.90 0.1833
961.00 0.1835
961.10 0.1837
961.20 0.1838
961.30 0.184
961.40 0.184
961.50 0.1841
961.60 0.1842
961.70 0.1843
961.80 0.1844
961.90 0.1845
962.00 0.1846
962.10 0.1846
962.20 0.1847
962.30 0.1847
962.40 0.1848
962.50 0.1848
962.60 0.1849
962.70 0.1849
962.80 0.185
962.90 0.185
963.00 0.1851
963.10 0.1851
963.20 0.1852
963.30 0.1852
963.40 0.1853
963.50 0.1853
963.60 0.1853
963.70 0.1853
963.80 0.1854
963.90 0.1854
964.00 0.1854
964.10 0.1854
964.20 0.1855
964.30 0.1855
964.40 0.1855
964.50 0.1855
964.60 0.1855
964.70 0.1855
964.80 0.1855
964.90 0.1855
965.00 0.1855
965.10 0.1855
965.20 0.1855
965.30 0.1855
965.40 0.1855
965.50 0.1855
965.60 0.1855
965.70 0.1855
965.80 0.1855
965.90 0.1855
966.00 0.1855
966.10 0.1855
966.20 0.1855
966.30 0.1855
966.40 0.1855
966.50 0.1855
966.60 0.1855
966.70 0.1855
966.80 0.1854
966.90 0.1854
967.00 0.1854
967.10 0.1854
967.20 0.1854
967.30 0.1853
967.40 0.1853
967.50 0.1853
967.60 0.1853
967.70 0.1853
967.80 0.1852
967.90 0.1852
968.00 0.1852
968.10 0.1852
968.20 0.1851
968.30 0.1851
968.40 0.1851
968.50 0.185
968.60 0.185
968.70 0.185
968.80 0.185
968.90 0.1849
969.00 0.1849
969.10 0.1849
969.20 0.1848
969.30 0.1848
969.40 0.1848
969.50 0.1847
969.60 0.1847
969.70 0.1847
969.80 0.1846
969.90 0.1846
970.00 0.1846
970.10 0.1845
970.20 0.1845
970.30 0.1845
970.40 0.1844
970.50 0.1844
970.60 0.1844
970.70 0.1843
970.80 0.1843
970.90 0.1842
971.00 0.1842
971.10 0.1842
971.20 0.1841
971.30 0.1841
971.40 0.184
971.50 0.184
971.60 0.184
971.70 0.1839
971.80 0.1839
971.90 0.1839
972.00 0.1838
972.10 0.1838
972.20 0.1837
972.30 0.1837
972.40 0.1836
972.50 0.1836
972.60 0.1835
972.70 0.1835
972.80 0.1835
972.90 0.1834
973.00 0.1834
973.10 0.1833
973.20 0.1833
973.30 0.1832
973.40 0.1832
973.50 0.1831
973.60 0.1831
973.70 0.183
973.80 0.183
973.90 0.183
974.00 0.1829
974.10 0.1829
974.20 0.1828
974.30 0.1828
974.40 0.1827
974.50 0.1827
974.60 0.1826
974.70 0.1826
974.80 0.1825
974.90 0.1825
975.00 0.1824
975.10 0.1824
975.20 0.1823
975.30 0.1823
975.40 0.1822
975.50 0.1822
975.60 0.1821
975.70 0.1821
975.80 0.182
975.90 0.182
976.00 0.1819
976.10 0.1819
976.20 0.1818
976.30 0.1818
976.40 0.1817
976.50 0.1817
976.60 0.1816
976.70 0.1816
976.80 0.1815
976.90 0.1815
977.00 0.1814
977.10 0.1814
977.20 0.1813
977.30 0.1813
977.40 0.1812
977.50 0.1811
977.60 0.1811
977.70 0.181
977.80 0.181
977.90 0.1809
978.00 0.1809
978.10 0.1808
978.20 0.1808
978.30 0.1807
978.40 0.1806
978.50 0.1806
978.60 0.1805
978.70 0.1805
978.80 0.1804
978.90 0.1804
979.00 0.1803
979.10 0.1803
979.20 0.1802
979.30 0.1802
979.40 0.1801
979.50 0.18
979.60 0.18
979.70 0.1799
979.80 0.1799
979.90 0.1798
980.00 0.1798
980.10 0.1797
980.20 0.1797
980.30 0.1796
980.40 0.1796
980.50 0.1795
980.60 0.1794
980.70 0.1794
980.80 0.1793
980.90 0.1793
981.00 0.1792
981.10 0.1792
981.20 0.1791
981.30 0.1791
981.40 0.179
981.50 0.179
981.60 0.1789
981.70 0.1788
981.80 0.1788
981.90 0.1787
982.00 0.1787
982.10 0.1786
982.20 0.1786
982.30 0.1785
982.40 0.1784
982.50 0.1784
982.60 0.1783
982.70 0.1783
982.80 0.1782
982.90 0.1781
983.00 0.1781
983.10 0.178
983.20 0.1779
983.30 0.1779
983.40 0.1778
983.50 0.1778
983.60 0.1777
983.70 0.1776
983.80 0.1776
983.90 0.1775
984.00 0.1775
984.10 0.1774
984.20 0.1773
984.30 0.1773
984.40 0.1772
984.50 0.1772
984.60 0.1771
984.70 0.177
984.80 0.177
984.90 0.1769
985.00 0.1768
985.10 0.1768
985.20 0.1767
985.30 0.1766
985.40 0.1766
985.50 0.1765
985.60 0.1764
985.70 0.1764
985.80 0.1763
985.90 0.1762
986.00 0.1762
986.10 0.1761
986.20 0.176
986.30 0.176
986.40 0.1759
986.50 0.1758
986.60 0.1758
986.70 0.1757
986.80 0.1757
986.90 0.1756
987.00 0.1755
987.10 0.1754
987.20 0.1754
987.30 0.1753
987.40 0.1752
987.50 0.1752
987.60 0.1751
987.70 0.175
987.80 0.175
987.90 0.1749
988.00 0.1748
988.10 0.1747
988.20 0.1747
988.30 0.1746
988.40 0.1745
988.50 0.1745
988.60 0.1744
988.70 0.1743
988.80 0.1742
988.90 0.1741
989.00 0.1741
989.10 0.174
989.20 0.1739
989.30 0.1738
989.40 0.1738
989.50 0.1737
989.60 0.1736
989.70 0.1735
989.80 0.1734
989.90 0.1734
990.00 0.1733
990.10 0.1732
990.20 0.1731
990.30 0.1731
990.40 0.173
990.50 0.1729
990.60 0.1728
990.70 0.1727
990.80 0.1726
990.90 0.1725
991.00 0.1725
991.10 0.1724
991.20 0.1723
991.30 0.1722
991.40 0.1721
991.50 0.172
991.60 0.1719
991.70 0.1718
991.80 0.1717
991.90 0.1716
992.00 0.1715
992.10 0.1714
992.20 0.1713
992.30 0.1712
992.40 0.1712
992.50 0.1711
992.60 0.171
992.70 0.1708
992.80 0.1707
992.90 0.1706
993.00 0.1705
993.10 0.1704
993.20 0.1703
993.30 0.1702
993.40 0.1701
993.50 0.1699
993.60 0.1698
993.70 0.1697
993.80 0.1696
993.90 0.1695
994.00 0.1694
994.10 0.1693
994.20 0.1692
994.30 0.1691
994.40 0.1689
994.50 0.1688
994.60 0.1687
994.70 0.1686
994.80 0.1685
994.90 0.1683
995.00 0.1682
995.10 0.168
995.20 0.1679
995.30 0.1678
995.40 0.1676
995.50 0.1675
995.60 0.1674
995.70 0.1672
995.80 0.167
995.90 0.1669
996.00 0.1667
996.10 0.1665
996.20 0.1664
996.30 0.1662
996.40 0.166
996.50 0.1659
996.60 0.1657
996.70 0.1655
996.80 0.1654
996.90 0.1652
997.00 0.165
997.10 0.1648
997.20 0.1646
997.30 0.1644
997.40 0.1642
997.50 0.164
997.60 0.1638
997.70 0.1636
997.80 0.1633
997.90 0.163
998.00 0.1628
998.10 0.1625
998.20 0.1622
998.30 0.1619
998.40 0.1617
998.50 0.1614
998.60 0.1611
998.70 0.1609
998.80 0.1606
998.90 0.1603
999.00 0.1601
999.10 0.1598
999.20 0.1595
999.30 0.1592
999.40 0.159
999.50 0.1587
999.60 0.1584
999.70 0.158
999.80 0.1575
999.90 0.157
1000.00 0.1565
1000.10 0.1561
1000.20 0.1556
1000.30 0.1551
1000.40 0.1546
1000.50 0.1541
1000.60 0.1536
1000.70 0.1531
1000.80 0.1527
1000.90 0.1522
1001.00 0.1517
1001.10 0.1512
1001.20 0.1507
1001.30 0.1502
1001.40 0.1498
1001.50 0.1493
1001.60 0.1488
1001.70 0.1481
1001.80 0.1474
1001.90 0.1467
1002.00 0.1459
1002.10 0.1449
1002.20 0.1439
1002.30 0.143
1002.40 0.142
1002.50 0.141
1002.60 0.14
1002.70 0.139
1002.80 0.138
1002.90 0.1371
1003.00 0.1361
1003.10 0.1351
1003.20 0.1338
1003.30 0.1324
1003.40 0.131
1003.50 0.1296
1003.60 0.1281
1003.70 0.1267
1003.80 0.1253
1003.90 0.1237
1004.00 0.1221
1004.10 0.1204
1004.20 0.1187
1004.30 0.1172
1004.40 0.1157
1004.50 0.1146
1004.60 0.1155
1004.70 0.1144
1004.80 0.1149
1004.90 0.1163
1005.00 0.1177
1005.10 0.1193
1005.20 0.1209
1005.30 0.1225
1005.40 0.1241
1005.50 0.1254
1005.60 0.1268
1005.70 0.1281
1005.80 0.1294
1005.90 0.1307
1006.00 0.1321
1006.10 0.1334
1006.20 0.1344
1006.30 0.1353
1006.40 0.1363
1006.50 0.1372
1006.60 0.1382
1006.70 0.1391
1006.80 0.14
1006.90 0.141
1007.00 0.1419
1007.10 0.1426
1007.20 0.1432
1007.30 0.1439
1007.40 0.1446
1007.50 0.1452
1007.60 0.1459
1007.70 0.1464
1007.80 0.1467
1007.90 0.1471
1008.00 0.1475
1008.10 0.1479
1008.20 0.1483
1008.30 0.1487
1008.40 0.1491
1008.50 0.1494
1008.60 0.1498
1008.70 0.1502
1008.80 0.1506
1008.90 0.151
1009.00 0.1514
1009.10 0.1518
1009.20 0.1521
1009.30 0.1525
1009.40 0.1529
1009.50 0.1533
1009.60 0.1537
1009.70 0.1539
1009.80 0.1541
1009.90 0.1542
1010.00 0.1544
1010.10 0.1546
1010.20 0.1547
1010.30 0.1549
1010.40 0.1551
1010.50 0.1552
1010.60 0.1554
1010.70 0.1556
1010.80 0.1558
1010.90 0.1559
1011.00 0.1561
1011.10 0.1563
1011.20 0.1564
1011.30 0.1566
1011.40 0.1568
1011.50 0.1569
1011.60 0.1571
1011.70 0.1572
1011.80 0.1573
1011.90 0.1574
1012.00 0.1575
1012.10 0.1576
1012.20 0.1577
1012.30 0.1577
1012.40 0.1578
1012.50 0.1579
1012.60 0.1579
1012.70 0.158
1012.80 0.1581
1012.90 0.1582
1013.00 0.1582
1013.10 0.1583
1013.20 0.1584
1013.30 0.1584
1013.40 0.1585
1013.50 0.1586
1013.60 0.1587
1013.70 0.1587
1013.80 0.1587
1013.90 0.1588
1014.00 0.1588
1014.10 0.1588
1014.20 0.1589
1014.30 0.1589
1014.40 0.1589
1014.50 0.159
1014.60 0.159
1014.70 0.159
1014.80 0.159
1014.90 0.159
1015.00 0.1591
1015.10 0.1591
1015.20 0.1591
1015.30 0.1591
1015.40 0.1591
1015.50 0.1591
1015.60 0.1591
1015.70 0.1591
1015.80 0.1591
1015.90 0.1592
1016.00 0.1592
1016.10 0.1592
1016.20 0.1592
1016.30 0.1592
1016.40 0.1592
1016.50 0.1592
1016.60 0.1592
1016.70 0.1592
1016.80 0.1592
1016.90 0.1592
1017.00 0.1592
1017.10 0.1592
1017.20 0.1592
1017.30 0.1592
1017.40 0.1592
1017.50 0.1592
1017.60 0.1592
1017.70 0.1592
1017.80 0.1592
1017.90 0.1592
1018.00 0.1592
1018.10 0.1591
1018.20 0.1591
1018.30 0.1591
1018.40 0.1591
1018.50 0.1591
1018.60 0.1591
1018.70 0.1591
1018.80 0.1591
1018.90 0.159
1019.00 0.159
1019.10 0.159
1019.20 0.159
1019.30 0.159
1019.40 0.1589
1019.50 0.1589
1019.60 0.1589
1019.70 0.1589
1019.80 0.1589
1019.90 0.1588
1020.00 0.1588
1020.10 0.1588
1020.20 0.1588
1020.30 0.1587
1020.40 0.1587
1020.50 0.1587
1020.60 0.1587
1020.70 0.1587
1020.80 0.1586
1020.90 0.1586
1021.00 0.1586
1021.10 0.1585
1021.20 0.1585
1021.30 0.1585
1021.40 0.1585
1021.50 0.1584
1021.60 0.1584
1021.70 0.1584
1021.80 0.1584
1021.90 0.1583
1022.00 0.1583
1022.10 0.1583
1022.20 0.1582
1022.30 0.1582
1022.40 0.1582
1022.50 0.1581
1022.60 0.1581
1022.70 0.1581
1022.80 0.158
1022.90 0.158
1023.00 0.158
1023.10 0.1579
1023.20 0.1579
1023.30 0.1579
1023.40 0.1578
1023.50 0.1578
1023.60 0.1578
1023.70 0.1577
1023.80 0.1577
1023.90 0.1577
1024.00 0.1576
1024.10 0.1576
1024.20 0.1576
1024.30 0.1575
1024.40 0.1575
1024.50 0.1575
1024.60 0.1574
1024.70 0.1574
1024.80 0.1574
1024.90 0.1573
1025.00 0.1573
1025.10 0.1573
1025.20 0.1572
1025.30 0.1572
1025.40 0.1571
1025.50 0.1571
1025.60 0.1571
1025.70 0.157
1025.80 0.157
1025.90 0.157
1026.00 0.1569
1026.10 0.1569
1026.20 0.1569
1026.30 0.1568
1026.40 0.1568
1026.50 0.1567
1026.60 0.1567
1026.70 0.1567
1026.80 0.1566
1026.90 0.1566
1027.00 0.1566
1027.10 0.1565
1027.20 0.1565
1027.30 0.1564
1027.40 0.1564
1027.50 0.1564
1027.60 0.1563
1027.70 0.1563
1027.80 0.1562
1027.90 0.1562
1028.00 0.1562
1028.10 0.1561
1028.20 0.1561
1028.30 0.156
1028.40 0.156
1028.50 0.156
1028.60 0.1559
1028.70 0.1559
1028.80 0.1558
1028.90 0.1558
1029.00 0.1558
1029.10 0.1557
1029.20 0.1557
1029.30 0.1556
1029.40 0.1556
1029.50 0.1556
1029.60 0.1555
1029.70 0.1555
1029.80 0.1554
1029.90 0.1554
1030.00 0.1554
1030.10 0.1553
1030.20 0.1553
1030.30 0.1552
1030.40 0.1552
1030.50 0.1552
1030.60 0.1551
1030.70 0.1551
1030.80 0.155
1030.90 0.155
1031.00 0.155
1031.10 0.1549
1031.20 0.1549
1031.30 0.1548
1031.40 0.1548
1031.50 0.1548
1031.60 0.1547
1031.70 0.1547
1031.80 0.1546
1031.90 0.1546
1032.00 0.1546
1032.10 0.1545
1032.20 0.1545
1032.30 0.1544
1032.40 0.1544
1032.50 0.1543
1032.60 0.1543
1032.70 0.1543
1032.80 0.1542
1032.90 0.1542
1033.00 0.1541
1033.10 0.1541
1033.20 0.154
1033.30 0.154
1033.40 0.154
1033.50 0.1539
1033.60 0.1539
1033.70 0.1538
1033.80 0.1538
1033.90 0.1538
1034.00 0.1537
1034.10 0.1537
1034.20 0.1536
1034.30 0.1536
1034.40 0.1535
1034.50 0.1535
1034.60 0.1535
1034.70 0.1534
1034.80 0.1534
1034.90 0.1533
1035.00 0.1533
1035.10 0.1532
1035.20 0.1532
1035.30 0.1532
1035.40 0.1531
1035.50 0.1531
1035.60 0.153
1035.70 0.153
1035.80 0.1529
1035.90 0.1529
1036.00 0.1529
1036.10 0.1528
1036.20 0.1528
1036.30 0.1527
1036.40 0.1527
1036.50 0.1527
1036.60 0.1526
1036.70 0.1526
1036.80 0.1525
1036.90 0.1525
1037.00 0.1524
1037.10 0.1524
1037.20 0.1524
1037.30 0.1523
1037.40 0.1523
1037.50 0.1522
1037.60 0.1522
1037.70 0.1521
1037.80 0.1521
1037.90 0.1521
1038.00 0.152
1038.10 0.152
1038.20 0.1519
1038.30 0.1519
1038.40 0.1518
1038.50 0.1518
1038.60 0.1518
1038.70 0.1517
1038.80 0.1517
1038.90 0.1516
1039.00 0.1516
1039.10 0.1515
1039.20 0.1515
1039.30 0.1515
1039.40 0.1514
1039.50 0.1514
1039.60 0.1513
1039.70 0.1513
1039.80 0.1512
1039.90 0.1512
1040.00 0.1512
1040.10 0.1511
1040.20 0.1511
1040.30 0.151
1040.40 0.151
1040.50 0.1509
1040.60 0.1509
1040.70 0.1509
1040.80 0.1508
1040.90 0.1508
1041.00 0.1507
1041.10 0.1507
1041.20 0.1506
1041.30 0.1506
1041.40 0.1506
1041.50 0.1505
1041.60 0.1505
1041.70 0.1504
1041.80 0.1504
1041.90 0.1504
1042.00 0.1503
1042.10 0.1503
1042.20 0.1502
1042.30 0.1502
1042.40 0.1501
1042.50 0.1501
1042.60 0.1501
1042.70 0.15
1042.80 0.15
1042.90 0.1499
1043.00 0.1499
1043.10 0.1498
1043.20 0.1498
1043.30 0.1498
1043.40 0.1497
1043.50 0.1497
1043.60 0.1496
1043.70 0.1496
1043.80 0.1495
1043.90 0.1495
1044.00 0.1494
1044.10 0.1494
1044.20 0.1494
1044.30 0.1493
1044.40 0.1493
1044.50 0.1492
1044.60 0.1492
1044.70 0.1491
1044.80 0.1491
1044.90 0.1491
1045.00 0.149
1045.10 0.149
1045.20 0.1489
1045.30 0.1489
1045.40 0.1489
1045.50 0.1488
1045.60 0.1488
1045.70 0.1487
1045.80 0.1487
1045.90 0.1486
1046.00 0.1486
1046.10 0.1486
1046.20 0.1485
1046.30 0.1485
1046.40 0.1484
1046.50 0.1484
1046.60 0.1483
1046.70 0.1483
1046.80 0.1483
1046.90 0.1482
1047.00 0.1482
1047.10 0.1481
1047.20 0.1481
1047.30 0.148
1047.40 0.148
1047.50 0.148
1047.60 0.1479
1047.70 0.1479
1047.80 0.1478
1047.90 0.1478
1048.00 0.1477
1048.10 0.1477
1048.20 0.1477
1048.30 0.1476
1048.40 0.1476
1048.50 0.1475
1048.60 0.1475
1048.70 0.1474
1048.80 0.1474
1048.90 0.1474
1049.00 0.1473
1049.10 0.1473
1049.20 0.1472
1049.30 0.1472
1049.40 0.1471
1049.50 0.1471
1049.60 0.1471
1049.70 0.147
1049.80 0.147
1049.90 0.1469
1050.00 0.1469
1050.10 0.1468
1050.20 0.1468
1050.30 0.1468
1050.40 0.1467
1050.50 0.1467
1050.60 0.1466
1050.70 0.1466
1050.80 0.1465
1050.90 0.1465
1051.00 0.1465
1051.10 0.1464
1051.20 0.1464
1051.30 0.1463
1051.40 0.1463
1051.50 0.1462
1051.60 0.1462
1051.70 0.1462
1051.80 0.1461
1051.90 0.1461
1052.00 0.146
1052.10 0.146
1052.20 0.146
1052.30 0.1459
1052.40 0.1459
1052.50 0.1458
1052.60 0.1458
1052.70 0.1457
1052.80 0.1457
1052.90 0.1457
1053.00 0.1456
1053.10 0.1456
1053.20 0.1455
1053.30 0.1455
1053.40 0.1454
1053.50 0.1454
1053.60 0.1454
1053.70 0.1453
1053.80 0.1453
1053.90 0.1452
1054.00 0.1452
1054.10 0.1451
1054.20 0.1451
1054.30 0.1451
1054.40 0.145
1054.50 0.145
1054.60 0.1449
1054.70 0.1449
1054.80 0.1448
1054.90 0.1448
1055.00 0.1448
1055.10 0.1447
1055.20 0.1447
1055.30 0.1446
1055.40 0.1446
1055.50 0.1446
1055.60 0.1445
1055.70 0.1445
1055.80 0.1444
1055.90 0.1444
1056.00 0.1443
1056.10 0.1443
1056.20 0.1443
1056.30 0.1442
1056.40 0.1442
1056.50 0.1441
1056.60 0.1441
1056.70 0.144
1056.80 0.144
1056.90 0.144
1057.00 0.1439
1057.10 0.1439
1057.20 0.1438
1057.30 0.1438
1057.40 0.1437
1057.50 0.1437
1057.60 0.1437
1057.70 0.1436
1057.80 0.1436
1057.90 0.1435
1058.00 0.1435
1058.10 0.1434
1058.20 0.1434
1058.30 0.1434
1058.40 0.1433
1058.50 0.1433
1058.60 0.1432
1058.70 0.1432
1058.80 0.1431
1058.90 0.1431
1059.00 0.1431
1059.10 0.143
1059.20 0.143
1059.30 0.1429
1059.40 0.1429
1059.50 0.1429
1059.60 0.1428
1059.70 0.1428
1059.80 0.1427
1059.90 0.1427
1060.00 0.1426
1060.10 0.1426
1060.20 0.1426
1060.30 0.1425
1060.40 0.1425
1060.50 0.1424
1060.60 0.1424
1060.70 0.1423
1060.80 0.1423
1060.90 0.1423
1061.00 0.1422
1061.10 0.1422
1061.20 0.1421
1061.30 0.1421
1061.40 0.142
1061.50 0.142
1061.60 0.142
1061.70 0.1419
1061.80 0.1419
1061.90 0.1418
1062.00 0.1418
1062.10 0.1418
1062.20 0.1417
1062.30 0.1417
1062.40 0.1416
1062.50 0.1416
1062.60 0.1415
1062.70 0.1415
1062.80 0.1414
1062.90 0.1414
1063.00 0.1414
1063.10 0.1413
1063.20 0.1413
1063.30 0.1412
1063.40 0.1412
1063.50 0.1411
1063.60 0.1411
1063.70 0.1411
1063.80 0.141
1063.90 0.141
1064.00 0.1409
1064.10 0.1409
1064.20 0.1408
1064.30 0.1408
1064.40 0.1408
1064.50 0.1407
1064.60 0.1407
1064.70 0.1406
1064.80 0.1406
1064.90 0.1405
1065.00 0.1405
1065.10 0.1405
1065.20 0.1404
1065.30 0.1404
1065.40 0.1403
1065.50 0.1403
1065.60 0.1402
1065.70 0.1402
1065.80 0.1402
1065.90 0.1401
1066.00 0.1401
1066.10 0.14
1066.20 0.14
1066.30 0.1399
1066.40 0.1399
1066.50 0.1399
1066.60 0.1398
1066.70 0.1398
1066.80 0.1397
1066.90 0.1397
1067.00 0.1396
1067.10 0.1396
1067.20 0.1396
1067.30 0.1395
1067.40 0.1395
1067.50 0.1394
1067.60 0.1394
1067.70 0.1393
1067.80 0.1393
1067.90 0.1392
1068.00 0.1392
1068.10 0.1391
1068.20 0.1391
1068.30 0.1391
1068.40 0.139
1068.50 0.139
1068.60 0.1389
1068.70 0.1389
1068.80 0.1388
1068.90 0.1388
1069.00 0.1387
1069.10 0.1387
1069.20 0.1386
1069.30 0.1386
1069.40 0.1386
1069.50 0.1385
1069.60 0.1385
1069.70 0.1384
1069.80 0.1384
1069.90 0.1383
1070.00 0.1383
1070.10 0.1382
1070.20 0.1382
1070.30 0.1382
1070.40 0.1381
1070.50 0.1381
1070.60 0.138
1070.70 0.138
1070.80 0.1379
1070.90 0.1379
1071.00 0.1378
1071.10 0.1378
1071.20 0.1377
1071.30 0.1377
1071.40 0.1377
1071.50 0.1376
1071.60 0.1376
1071.70 0.1375
1071.80 0.1375
1071.90 0.1374
1072.00 0.1374
1072.10 0.1373
1072.20 0.1373
1072.30 0.1372
1072.40 0.1372
1072.50 0.1371
1072.60 0.1371
1072.70 0.1371
1072.80 0.137
1072.90 0.137
1073.00 0.1369
1073.10 0.1369
1073.20 0.1368
1073.30 0.1368
1073.40 0.1367
1073.50 0.1367
1073.60 0.1366
1073.70 0.1366
1073.80 0.1365
1073.90 0.1365
1074.00 0.1364
1074.10 0.1364
1074.20 0.1363
1074.30 0.1363
1074.40 0.1362
1074.50 0.1361
1074.60 0.1361
1074.70 0.136
1074.80 0.136
1074.90 0.1359
1075.00 0.1359
1075.10 0.1358
1075.20 0.1358
1075.30 0.1357
1075.40 0.1357
1075.50 0.1356
1075.60 0.1356
1075.70 0.1355
1075.80 0.1355
1075.90 0.1354
1076.00 0.1354
1076.10 0.1353
1076.20 0.1353
1076.30 0.1352
1076.40 0.1351
1076.50 0.1351
1076.60 0.135
1076.70 0.135
1076.80 0.1349
1076.90 0.1349
1077.00 0.1348
1077.10 0.1348
1077.20 0.1347
1077.30 0.1347
1077.40 0.1346
1077.50 0.1345
1077.60 0.1345
1077.70 0.1344
1077.80 0.1344
1077.90 0.1343
1078.00 0.1342
1078.10 0.1342
1078.20 0.1341
1078.30 0.1341
1078.40 0.134
1078.50 0.1339
1078.60 0.1339
1078.70 0.1338
1078.80 0.1338
1078.90 0.1337
1079.00 0.1336
1079.10 0.1336
1079.20 0.1335
1079.30 0.1335
1079.40 0.1334
1079.50 0.1333
1079.60 0.1333
1079.70 0.1332
1079.80 0.1331
1079.90 0.1331
1080.00 0.133
1080.10 0.1329
1080.20 0.1328
1080.30 0.1328
1080.40 0.1327
1080.50 0.1326
1080.60 0.1326
1080.70 0.1325
1080.80 0.1324
1080.90 0.1324
1081.00 0.1323
1081.10 0.1322
1081.20 0.1322
1081.30 0.1321
1081.40 0.132
1081.50 0.1319
1081.60 0.1319
1081.70 0.1318
1081.80 0.1317
1081.90 0.1316
1082.00 0.1316
1082.10 0.1315
1082.20 0.1314
1082.30 0.1313
1082.40 0.1312
1082.50 0.1311
1082.60 0.131
1082.70 0.1309
1082.80 0.1308
1082.90 0.1307
1083.00 0.1306
1083.10 0.1306
1083.20 0.1305
1083.30 0.1304
1083.40 0.1303
1083.50 0.1302
1083.60 0.1301
1083.70 0.13
1083.80 0.1299
1083.90 0.1298
1084.00 0.1297
1084.10 0.1296
1084.20 0.1295
1084.30 0.1293
1084.40 0.1292
1084.50 0.1291
1084.60 0.129
1084.70 0.1288
1084.80 0.1287
1084.90 0.1286
1085.00 0.1284
1085.10 0.1283
1085.20 0.1281
1085.30 0.128
1085.40 0.1279
1085.50 0.1277
1085.60 0.1276
1085.70 0.1274
1085.80 0.1273
1085.90 0.1272
1086.00 0.127
1086.10 0.1269
1086.20 0.1267
1086.30 0.1266
1086.40 0.1265
1086.50 0.1263
1086.60 0.1261
1086.70 0.126
1086.80 0.1258
1086.90 0.1256
1087.00 0.1254
1087.10 0.1252
1087.20 0.125
1087.30 0.1248
1087.40 0.1246
1087.50 0.1244
1087.60 0.1241
1087.70 0.1239
1087.80 0.1237
1087.90 0.1235
1088.00 0.1233
1088.10 0.1231
1088.20 0.1228
1088.30 0.1226
1088.40 0.1224
1088.50 0.1221
1088.60 0.1217
1088.70 0.1213
1088.80 0.1209
1088.90 0.1205
1089.00 0.1201
1089.10 0.1197
1089.20 0.1193
1089.30 0.1189
1089.40 0.1185
1089.50 0.1181
1089.60 0.1177
1089.70 0.1173
1089.80 0.1169
1089.90 0.1165
1090.00 0.1161
1090.10 0.1157
1090.20 0.1153
1090.30 0.1149
1090.40 0.1145
1090.50 0.114
1090.60 0.1133
1090.70 0.1125
1090.80 0.1118
1090.90 0.1111
1091.00 0.1103
1091.10 0.1096
1091.20 0.1088
1091.30 0.1081
1091.40 0.1073
1091.50 0.1066
1091.60 0.1059
1091.70 0.1051
1091.80 0.1044
1091.90 0.1036
1092.00 0.1028
1092.10 0.1017
1092.20 0.1006
1092.30 0.09949
1092.40 0.09838
1092.50 0.09726
1092.60 0.09615
1092.70 0.09496
1092.80 0.09359
1092.90 0.09223
1093.00 0.09086
1093.10 0.08945
1093.20 0.08796
1093.30 0.08645
1093.40 0.08484
1093.50 0.08449
1093.60 0.0858
1093.70 0.08731
1093.80 0.08876
1093.90 0.09016
1094.00 0.09147
1094.10 0.09278
1094.20 0.09409
1094.30 0.09532
1094.40 0.09636
1094.50 0.09741
1094.60 0.09845
1094.70 0.09949
1094.80 0.1005
1094.90 0.1016
1095.00 0.1025
1095.10 0.1032
1095.20 0.1038
1095.30 0.1045
1095.40 0.1052
1095.50 0.1059
1095.60 0.1065
1095.70 0.1072
1095.80 0.1079
1095.90 0.1085
1096.00 0.1092
1096.10 0.1099
1096.20 0.1105
1096.30 0.1112
1096.40 0.1119
1096.50 0.1125
1096.60 0.1129
1096.70 0.1134
1096.80 0.1138
1096.90 0.1143
1097.00 0.1147
1097.10 0.115
1097.20 0.1153
1097.30 0.1156
1097.40 0.1159
1097.50 0.1162
1097.60 0.1164
1097.70 0.1167
1097.80 0.117
1097.90 0.1173
1098.00 0.1176
1098.10 0.1179
1098.20 0.1181
1098.30 0.1184
1098.40 0.1187
1098.50 0.119
1098.60 0.1191
1098.70 0.1192
1098.80 0.1193
1098.90 0.1195
1099.00 0.1196
1099.10 0.1197
1099.20 0.1199
1099.30 0.12
1099.40 0.1201
1099.50 0.1203
1099.60 0.1204
1099.70 0.1205
1099.80 0.1207
1099.90 0.1208
1100.00 0.1209
1100.10 0.121
1100.20 0.1212
1100.30 0.1213
1100.40 0.1214
1100.50 0.1215
1100.60 0.1216
1100.70 0.1217
1100.80 0.1218
1100.90 0.1218
1101.00 0.1219
1101.10 0.122
1101.20 0.122
1101.30 0.1221
1101.40 0.1222
1101.50 0.1223
1101.60 0.1223
1101.70 0.1224
1101.80 0.1225
1101.90 0.1226
1102.00 0.1226
1102.10 0.1227
1102.20 0.1227
1102.30 0.1228
1102.40 0.1228
1102.50 0.1228
1102.60 0.1229
1102.70 0.1229
1102.80 0.1229
1102.90 0.123
1103.00 0.123
1103.10 0.123
1103.20 0.1231
1103.30 0.1231
1103.40 0.1231
1103.50 0.1231
1103.60 0.1232
1103.70 0.1232
1103.80 0.1232
1103.90 0.1232
1104.00 0.1232
1104.10 0.1232
1104.20 0.1232
1104.30 0.1232
1104.40 0.1233
1104.50 0.1233
1104.60 0.1233
1104.70 0.1233
1104.80 0.1233
1104.90 0.1233
1105.00 0.1233
1105.10 0.1234
1105.20 0.1234
1105.30 0.1234
1105.40 0.1234
1105.50 0.1234
1105.60 0.1234
1105.70 0.1234
1105.80 0.1234
1105.90 0.1234
1106.00 0.1234
1106.10 0.1234
1106.20 0.1234
1106.30 0.1234
1106.40 0.1234
1106.50 0.1234
1106.60 0.1234
1106.70 0.1234
1106.80 0.1234
1106.90 0.1234
1107.00 0.1234
1107.10 0.1233
1107.20 0.1233
1107.30 0.1233
1107.40 0.1233
1107.50 0.1233
1107.60 0.1233
1107.70 0.1233
1107.80 0.1233
1107.90 0.1233
1108.00 0.1232
1108.10 0.1232
1108.20 0.1232
1108.30 0.1232
1108.40 0.1232
1108.50 0.1232
1108.60 0.1232
1108.70 0.1231
1108.80 0.1231
1108.90 0.1231
1109.00 0.1231
1109.10 0.1231
1109.20 0.1231
1109.30 0.1231
1109.40 0.123
1109.50 0.123
1109.60 0.123
1109.70 0.123
1109.80 0.123
1109.90 0.123
1110.00 0.1229
1110.10 0.1229
1110.20 0.1229
1110.30 0.1229
1110.40 0.1229
1110.50 0.1229
1110.60 0.1228
1110.70 0.1228
1110.80 0.1228
1110.90 0.1228
1111.00 0.1228
1111.10 0.1227
1111.20 0.1227
1111.30 0.1227
1111.40 0.1227
1111.50 0.1227
1111.60 0.1226
1111.70 0.1226
1111.80 0.1226
1111.90 0.1226
1112.00 0.1226
1112.10 0.1226
1112.20 0.1225
1112.30 0.1225
1112.40 0.1225
1112.50 0.1225
1112.60 0.1224
1112.70 0.1224
1112.80 0.1224
1112.90 0.1224
1113.00 0.1223
1113.10 0.1223
1113.20 0.1223
1113.30 0.1223
1113.40 0.1222
1113.50 0.1222
1113.60 0.1222
1113.70 0.1222
1113.80 0.1221
1113.90 0.1221
1114.00 0.1221
1114.10 0.122
1114.20 0.122
1114.30 0.122
1114.40 0.122
1114.50 0.1219
1114.60 0.1219
1114.70 0.1219
1114.80 0.1219
1114.90 0.1218
1115.00 0.1218
1115.10 0.1218
1115.20 0.1217
1115.30 0.1217
1115.40 0.1217
1115.50 0.1217
1115.60 0.1216
1115.70 0.1216
1115.80 0.1216
1115.90 0.1216
1116.00 0.1215
1116.10 0.1215
1116.20 0.1215
1116.30 0.1214
1116.40 0.1214
1116.50 0.1214
1116.60 0.1214
1116.70 0.1213
1116.80 0.1213
1116.90 0.1213
1117.00 0.1213
1117.10 0.1212
1117.20 0.1212
1117.30 0.1212
1117.40 0.1211
1117.50 0.1211
1117.60 0.1211
1117.70 0.1211
1117.80 0.121
1117.90 0.121
1118.00 0.121
1118.10 0.1209
1118.20 0.1209
1118.30 0.1209
1118.40 0.1208
1118.50 0.1208
1118.60 0.1208
1118.70 0.1208
1118.80 0.1207
1118.90 0.1207
1119.00 0.1207
1119.10 0.1206
1119.20 0.1206
1119.30 0.1206
1119.40 0.1206
1119.50 0.1205
1119.60 0.1205
1119.70 0.1205
1119.80 0.1204
1119.90 0.1204
1120.00 0.1204
1120.10 0.1203
1120.20 0.1203
1120.30 0.1203
1120.40 0.1203
1120.50 0.1202
1120.60 0.1202
1120.70 0.1202
1120.80 0.1201
1120.90 0.1201
1121.00 0.1201
1121.10 0.1201
1121.20 0.12
1121.30 0.12
1121.40 0.12
1121.50 0.1199
1121.60 0.1199
1121.70 0.1199
1121.80 0.1199
1121.90 0.1198
1122.00 0.1198
1122.10 0.1198
1122.20 0.1197
1122.30 0.1197
1122.40 0.1197
1122.50 0.1196
1122.60 0.1196
1122.70 0.1196
1122.80 0.1195
1122.90 0.1195
1123.00 0.1195
1123.10 0.1195
1123.20 0.1194
1123.30 0.1194
1123.40 0.1194
1123.50 0.1193
1123.60 0.1193
1123.70 0.1193
1123.80 0.1192
1123.90 0.1192
1124.00 0.1192
1124.10 0.1191
1124.20 0.1191
1124.30 0.1191
1124.40 0.1191
1124.50 0.119
1124.60 0.119
1124.70 0.119
1124.80 0.1189
1124.90 0.1189
1125.00 0.1189
1125.10 0.1188
1125.20 0.1188
1125.30 0.1188
1125.40 0.1187
1125.50 0.1187
1125.60 0.1187
1125.70 0.1187
1125.80 0.1186
1125.90 0.1186
1126.00 0.1186
1126.10 0.1185
1126.20 0.1185
1126.30 0.1185
1126.40 0.1184
1126.50 0.1184
1126.60 0.1184
1126.70 0.1184
1126.80 0.1183
1126.90 0.1183
1127.00 0.1183
1127.10 0.1182
1127.20 0.1182
1127.30 0.1182
1127.40 0.1181
1127.50 0.1181
1127.60 0.1181
1127.70 0.118
1127.80 0.118
1127.90 0.118
1128.00 0.1179
1128.10 0.1179
1128.20 0.1179
1128.30 0.1179
1128.40 0.1178
1128.50 0.1178
1128.60 0.1178
1128.70 0.1177
1128.80 0.1177
1128.90 0.1177
1129.00 0.1176
1129.10 0.1176
1129.20 0.1176
1129.30 0.1175
1129.40 0.1175
1129.50 0.1175
1129.60 0.1174
1129.70 0.1174
1129.80 0.1174
1129.90 0.1174
1130.00 0.1173
1130.10 0.1173
1130.20 0.1173
1130.30 0.1172
1130.40 0.1172
1130.50 0.1172
1130.60 0.1171
1130.70 0.1171
1130.80 0.1171
1130.90 0.117
1131.00 0.117
1131.10 0.117
1131.20 0.117
1131.30 0.1169
1131.40 0.1169
1131.50 0.1169
1131.60 0.1168
1131.70 0.1168
1131.80 0.1168
1131.90 0.1167
1132.00 0.1167
1132.10 0.1167
1132.20 0.1166
1132.30 0.1166
1132.40 0.1166
1132.50 0.1166
1132.60 0.1165
1132.70 0.1165
1132.80 0.1165
1132.90 0.1164
1133.00 0.1164
1133.10 0.1164
1133.20 0.1163
1133.30 0.1163
1133.40 0.1163
1133.50 0.1162
1133.60 0.1162
1133.70 0.1162
1133.80 0.1162
1133.90 0.1161
1134.00 0.1161
1134.10 0.1161
1134.20 0.116
1134.30 0.116
1134.40 0.116
1134.50 0.1159
1134.60 0.1159
1134.70 0.1159
1134.80 0.1158
1134.90 0.1158
1135.00 0.1158
1135.10 0.1157
1135.20 0.1157
1135.30 0.1157
1135.40 0.1157
1135.50 0.1156
1135.60 0.1156
1135.70 0.1156
1135.80 0.1155
1135.90 0.1155
1136.00 0.1155
1136.10 0.1154
1136.20 0.1154
1136.30 0.1154
1136.40 0.1154
1136.50 0.1153
1136.60 0.1153
1136.70 0.1153
1136.80 0.1152
1136.90 0.1152
1137.00 0.1152
1137.10 0.1151
1137.20 0.1151
1137.30 0.1151
1137.40 0.115
1137.50 0.115
1137.60 0.115
1137.70 0.115
1137.80 0.1149
1137.90 0.1149
1138.00 0.1149
1138.10 0.1148
1138.20 0.1148
1138.30 0.1148
1138.40 0.1147
1138.50 0.1147
1138.60 0.1147
1138.70 0.1146
1138.80 0.1146
1138.90 0.1146
1139.00 0.1146
1139.10 0.1145
1139.20 0.1145
1139.30 0.1145
1139.40 0.1144
1139.50 0.1144
1139.60 0.1144
1139.70 0.1143
1139.80 0.1143
1139.90 0.1143
1140.00 0.1142
1140.10 0.1142
1140.20 0.1142
1140.30 0.1142
1140.40 0.1141
1140.50 0.1141
1140.60 0.1141
1140.70 0.114
1140.80 0.114
1140.90 0.114
1141.00 0.1139
1141.10 0.1139
1141.20 0.1139
1141.30 0.1138
1141.40 0.1138
1141.50 0.1138
1141.60 0.1138
1141.70 0.1137
1141.80 0.1137
1141.90 0.1137
1142.00 0.1136
1142.10 0.1136
1142.20 0.1136
1142.30 0.1135
1142.40 0.1135
1142.50 0.1135
1142.60 0.1134
1142.70 0.1134
1142.80 0.1134
1142.90 0.1134
1143.00 0.1133
1143.10 0.1133
1143.20 0.1133
1143.30 0.1132
1143.40 0.1132
1143.50 0.1132
1143.60 0.1131
1143.70 0.1131
1143.80 0.1131
1143.90 0.1131
1144.00 0.113
1144.10 0.113
1144.20 0.113
1144.30 0.1129
1144.40 0.1129
1144.50 0.1129
1144.60 0.1128
1144.70 0.1128
1144.80 0.1128
1144.90 0.1128
1145.00 0.1127
1145.10 0.1127
1145.20 0.1127
1145.30 0.1126
1145.40 0.1126
1145.50 0.1126
1145.60 0.1125
1145.70 0.1125
1145.80 0.1125
1145.90 0.1125
1146.00 0.1124
1146.10 0.1124
1146.20 0.1124
1146.30 0.1123
1146.40 0.1123
1146.50 0.1123
1146.60 0.1122
1146.70 0.1122
1146.80 0.1122
1146.90 0.1121
1147.00 0.1121
1147.10 0.1121
1147.20 0.1121
1147.30 0.112
1147.40 0.112
1147.50 0.112
1147.60 0.1119
1147.70 0.1119
1147.80 0.1119
1147.90 0.1118
1148.00 0.1118
1148.10 0.1118
1148.20 0.1118
1148.30 0.1117
1148.40 0.1117
1148.50 0.1117
1148.60 0.1116
1148.70 0.1116
1148.80 0.1116
1148.90 0.1115
1149.00 0.1115
1149.10 0.1115
1149.20 0.1115
1149.30 0.1114
1149.40 0.1114
1149.50 0.1114
1149.60 0.1113
1149.70 0.1113
1149.80 0.1113
1149.90 0.1112
1150.00 0.1112
1150.10 0.1112
1150.20 0.1112
1150.30 0.1111
1150.40 0.1111
1150.50 0.1111
1150.60 0.111
1150.70 0.111
1150.80 0.111
1150.90 0.111
1151.00 0.1109
1151.10 0.1109
1151.20 0.1109
1151.30 0.1108
1151.40 0.1108
1151.50 0.1108
1151.60 0.1107
1151.70 0.1107
1151.80 0.1107
1151.90 0.1107
1152.00 0.1106
1152.10 0.1106
1152.20 0.1106
1152.30 0.1105
1152.40 0.1105
1152.50 0.1105
1152.60 0.1104
1152.70 0.1104
1152.80 0.1104
1152.90 0.1104
1153.00 0.1103
1153.10 0.1103
1153.20 0.1103
1153.30 0.1102
1153.40 0.1102
1153.50 0.1102
1153.60 0.1102
1153.70 0.1101
1153.80 0.1101
1153.90 0.1101
1154.00 0.11
1154.10 0.11
1154.20 0.11
1154.30 0.1099
1154.40 0.1099
1154.50 0.1099
1154.60 0.1099
1154.70 0.1098
1154.80 0.1098
1154.90 0.1098
1155.00 0.1097
1155.10 0.1097
1155.20 0.1097
1155.30 0.1097
1155.40 0.1096
1155.50 0.1096
1155.60 0.1096
1155.70 0.1095
1155.80 0.1095
1155.90 0.1095
1156.00 0.1094
1156.10 0.1094
1156.20 0.1094
1156.30 0.1094
1156.40 0.1093
1156.50 0.1093
1156.60 0.1093
1156.70 0.1092
1156.80 0.1092
1156.90 0.1092
1157.00 0.1092
1157.10 0.1091
1157.20 0.1091
1157.30 0.1091
1157.40 0.109
1157.50 0.109
1157.60 0.109
1157.70 0.109
1157.80 0.1089
1157.90 0.1089
1158.00 0.1089
1158.10 0.1088
1158.20 0.1088
1158.30 0.1088
1158.40 0.1087
1158.50 0.1087
1158.60 0.1087
1158.70 0.1087
1158.80 0.1086
1158.90 0.1086
1159.00 0.1086
1159.10 0.1085
1159.20 0.1085
1159.30 0.1085
1159.40 0.1085
1159.50 0.1084
1159.60 0.1084
1159.70 0.1084
1159.80 0.1083
1159.90 0.1083
1160.00 0.1083
1160.10 0.1083
1160.20 0.1082
1160.30 0.1082
1160.40 0.1082
1160.50 0.1081
1160.60 0.1081
1160.70 0.1081
1160.80 0.108
1160.90 0.108
1161.00 0.108
1161.10 0.108
1161.20 0.1079
1161.30 0.1079
1161.40 0.1079
1161.50 0.1078
1161.60 0.1078
1161.70 0.1078
1161.80 0.1078
1161.90 0.1077
1162.00 0.1077
1162.10 0.1077
1162.20 0.1076
1162.30 0.1076
1162.40 0.1076
1162.50 0.1076
1162.60 0.1075
1162.70 0.1075
1162.80 0.1075
1162.90 0.1074
1163.00 0.1074
1163.10 0.1074
1163.20 0.1074
1163.30 0.1073
1163.40 0.1073
1163.50 0.1073
1163.60 0.1072
1163.70 0.1072
1163.80 0.1072
1163.90 0.1072
1164.00 0.1071
1164.10 0.1071
1164.20 0.1071
1164.30 0.107
1164.40 0.107
1164.50 0.107
1164.60 0.107
1164.70 0.1069
1164.80 0.1069
1164.90 0.1069
1165.00 0.1068
1165.10 0.1068
1165.20 0.1068
1165.30 0.1068
1165.40 0.1067
1165.50 0.1067
1165.60 0.1067
1165.70 0.1066
1165.80 0.1066
1165.90 0.1066
1166.00 0.1066
1166.10 0.1065
1166.20 0.1065
1166.30 0.1065
1166.40 0.1064
1166.50 0.1064
1166.60 0.1064
1166.70 0.1064
1166.80 0.1063
1166.90 0.1063
1167.00 0.1063
1167.10 0.1062
1167.20 0.1062
1167.30 0.1062
1167.40 0.1062
1167.50 0.1061
1167.60 0.1061
1167.70 0.1061
1167.80 0.106
1167.90 0.106
1168.00 0.106
1168.10 0.106
1168.20 0.1059
1168.30 0.1059
1168.40 0.1059
1168.50 0.1059
1168.60 0.1058
1168.70 0.1058
1168.80 0.1058
1168.90 0.1057
1169.00 0.1057
1169.10 0.1057
1169.20 0.1057
1169.30 0.1056
1169.40 0.1056
1169.50 0.1056
1169.60 0.1055
1169.70 0.1055
1169.80 0.1055
1169.90 0.1055
1170.00 0.1054
1170.10 0.1054
1170.20 0.1054
1170.30 0.1053
1170.40 0.1053
1170.50 0.1053
1170.60 0.1053
1170.70 0.1052
1170.80 0.1052
1170.90 0.1052
1171.00 0.1051
1171.10 0.1051
1171.20 0.1051
1171.30 0.1051
1171.40 0.105
1171.50 0.105
1171.60 0.105
1171.70 0.105
1171.80 0.1049
1171.90 0.1049
1172.00 0.1049
1172.10 0.1048
1172.20 0.1048
1172.30 0.1048
1172.40 0.1048
1172.50 0.1047
1172.60 0.1047
1172.70 0.1047
1172.80 0.1046
1172.90 0.1046
1173.00 0.1046
1173.10 0.1046
1173.20 0.1045
1173.30 0.1045
1173.40 0.1045
1173.50 0.1045
1173.60 0.1044
1173.70 0.1044
1173.80 0.1044
1173.90 0.1043
1174.00 0.1043
1174.10 0.1043
1174.20 0.1043
1174.30 0.1042
1174.40 0.1042
1174.50 0.1042
1174.60 0.1041
1174.70 0.1041
1174.80 0.1041
1174.90 0.1041
1175.00 0.104
1175.10 0.104
1175.20 0.104
1175.30 0.104
1175.40 0.1039
1175.50 0.1039
1175.60 0.1039
1175.70 0.1038
1175.80 0.1038
1175.90 0.1038
1176.00 0.1038
1176.10 0.1037
1176.20 0.1037
1176.30 0.1037
1176.40 0.1037
1176.50 0.1036
1176.60 0.1036
1176.70 0.1036
1176.80 0.1035
1176.90 0.1035
1177.00 0.1035
1177.10 0.1035
1177.20 0.1034
1177.30 0.1034
1177.40 0.1034
1177.50 0.1033
1177.60 0.1033
1177.70 0.1033
1177.80 0.1033
1177.90 0.1032
1178.00 0.1032
1178.10 0.1032
1178.20 0.1032
1178.30 0.1031
1178.40 0.1031
1178.50 0.1031
1178.60 0.103
1178.70 0.103
1178.80 0.103
1178.90 0.103
1179.00 0.1029
1179.10 0.1029
1179.20 0.1029
1179.30 0.1029
1179.40 0.1028
1179.50 0.1028
1179.60 0.1028
1179.70 0.1027
1179.80 0.1027
1179.90 0.1027
1180.00 0.1027
1180.10 0.1026
1180.20 0.1026
1180.30 0.1026
1180.40 0.1026
1180.50 0.1025
1180.60 0.1025
1180.70 0.1025
1180.80 0.1024
1180.90 0.1024
1181.00 0.1024
1181.10 0.1024
1181.20 0.1023
1181.30 0.1023
1181.40 0.1023
1181.50 0.1023
1181.60 0.1022
1181.70 0.1022
1181.80 0.1022
1181.90 0.1021
1182.00 0.1021
1182.10 0.1021
1182.20 0.1021
1182.30 0.102
1182.40 0.102
1182.50 0.102
1182.60 0.102
1182.70 0.1019
1182.80 0.1019
1182.90 0.1019
1183.00 0.1019
1183.10 0.1018
1183.20 0.1018
1183.30 0.1018
1183.40 0.1017
1183.50 0.1017
1183.60 0.1017
1183.70 0.1017
1183.80 0.1016
1183.90 0.1016
1184.00 0.1016
1184.10 0.1016
1184.20 0.1015
1184.30 0.1015
1184.40 0.1015
1184.50 0.1014
1184.60 0.1014
1184.70 0.1014
1184.80 0.1014
1184.90 0.1013
1185.00 0.1013
1185.10 0.1013
1185.20 0.1013
1185.30 0.1012
1185.40 0.1012
1185.50 0.1012
1185.60 0.1012
1185.70 0.1011
1185.80 0.1011
1185.90 0.1011
1186.00 0.101
1186.10 0.101
1186.20 0.101
1186.30 0.101
1186.40 0.1009
1186.50 0.1009
1186.60 0.1009
1186.70 0.1009
1186.80 0.1008
1186.90 0.1008
1187.00 0.1008
1187.10 0.1008
1187.20 0.1007
1187.30 0.1007
1187.40 0.1007
1187.50 0.1006
1187.60 0.1006
1187.70 0.1006
1187.80 0.1006
1187.90 0.1005
1188.00 0.1005
1188.10 0.1005
1188.20 0.1005
1188.30 0.1004
1188.40 0.1004
1188.50 0.1004
1188.60 0.1004
1188.70 0.1003
1188.80 0.1003
1188.90 0.1003
1189.00 0.1003
1189.10 0.1002
1189.20 0.1002
1189.30 0.1002
1189.40 0.1001
1189.50 0.1001
1189.60 0.1001
1189.70 0.1001
1189.80 0.1
1189.90 0.1
1190.00 0.09999
1190.10 0.09996
1190.20 0.09993
1190.30 0.09991
1190.40 0.09988
1190.50 0.09985
1190.60 0.09983
1190.70 0.0998
1190.80 0.09977
1190.90 0.09975
1191.00 0.09972
1191.10 0.09969
1191.20 0.09967
1191.30 0.09964
1191.40 0.09962
1191.50 0.09959
1191.60 0.09956
1191.70 0.09954
1191.80 0.09951
1191.90 0.09948
1192.00 0.09946
1192.10 0.09943
1192.20 0.09941
1192.30 0.09938
1192.40 0.09935
1192.50 0.09933
1192.60 0.0993
1192.70 0.09927
1192.80 0.09925
1192.90 0.09922
1193.00 0.0992
1193.10 0.09917
1193.20 0.09914
1193.30 0.09912
1193.40 0.09909
1193.50 0.09907
1193.60 0.09904
1193.70 0.09901
1193.80 0.09899
1193.90 0.09896
1194.00 0.09894
1194.10 0.09891
1194.20 0.09888
1194.30 0.09886
1194.40 0.09883
1194.50 0.09881
1194.60 0.09878
1194.70 0.09875
1194.80 0.09873
1194.90 0.0987
1195.00 0.09868
1195.10 0.09865
1195.20 0.09862
1195.30 0.0986
1195.40 0.09857
1195.50 0.09855
1195.60 0.09852
1195.70 0.09849
1195.80 0.09847
1195.90 0.09844
1196.00 0.09842
1196.10 0.09839
1196.20 0.09836
1196.30 0.09834
1196.40 0.09831
1196.50 0.09829
1196.60 0.09826
1196.70 0.09824
1196.80 0.09821
1196.90 0.09818
1197.00 0.09816
1197.10 0.09813
1197.20 0.09811
1197.30 0.09808
1197.40 0.09805
1197.50 0.09803
1197.60 0.098
1197.70 0.09798
1197.80 0.09795
1197.90 0.09793
1198.00 0.0979
1198.10 0.09787
1198.20 0.09785
1198.30 0.09782
1198.40 0.0978
1198.50 0.09777
1198.60 0.09775
1198.70 0.09772
1198.80 0.09769
1198.90 0.09767
1199.00 0.09764
1199.10 0.09762
1199.20 0.09759
1199.30 0.09757
1199.40 0.09754
1199.50 0.09751
1199.60 0.09749
1199.70 0.09746
1199.80 0.09744
1199.90 0.09741
1200.00 0
