# Version 2.1 - nm, norm@500 to 1, cut digits, bergeron_16500_90.dat_16500
# Wavelength(nm)  Flambda(ergs/cm^s/s/nm)
300.00 2.845
300.10 2.842
300.20 2.84
300.30 2.837
300.40 2.835
300.50 2.832
300.60 2.83
300.70 2.827
300.80 2.825
300.90 2.823
301.00 2.82
301.10 2.818
301.20 2.815
301.30 2.813
301.40 2.81
301.50 2.808
301.60 2.806
301.70 2.803
301.80 2.801
301.90 2.798
302.00 2.796
302.10 2.794
302.20 2.791
302.30 2.789
302.40 2.786
302.50 2.784
302.60 2.782
302.70 2.779
302.80 2.777
302.90 2.775
303.00 2.772
303.10 2.77
303.20 2.767
303.30 2.765
303.40 2.763
303.50 2.76
303.60 2.758
303.70 2.756
303.80 2.753
303.90 2.751
304.00 2.749
304.10 2.746
304.20 2.744
304.30 2.742
304.40 2.739
304.50 2.737
304.60 2.735
304.70 2.732
304.80 2.73
304.90 2.728
305.00 2.725
305.10 2.723
305.20 2.721
305.30 2.718
305.40 2.716
305.50 2.714
305.60 2.711
305.70 2.709
305.80 2.707
305.90 2.705
306.00 2.702
306.10 2.7
306.20 2.698
306.30 2.695
306.40 2.693
306.50 2.691
306.60 2.689
306.70 2.686
306.80 2.684
306.90 2.682
307.00 2.68
307.10 2.677
307.20 2.675
307.30 2.673
307.40 2.67
307.50 2.668
307.60 2.666
307.70 2.664
307.80 2.661
307.90 2.659
308.00 2.657
308.10 2.655
308.20 2.653
308.30 2.65
308.40 2.648
308.50 2.646
308.60 2.644
308.70 2.641
308.80 2.639
308.90 2.637
309.00 2.635
309.10 2.632
309.20 2.63
309.30 2.628
309.40 2.626
309.50 2.624
309.60 2.621
309.70 2.619
309.80 2.617
309.90 2.615
310.00 2.613
310.10 2.61
310.20 2.608
310.30 2.606
310.40 2.604
310.50 2.602
310.60 2.6
310.70 2.597
310.80 2.595
310.90 2.593
311.00 2.591
311.10 2.589
311.20 2.586
311.30 2.584
311.40 2.582
311.50 2.58
311.60 2.578
311.70 2.576
311.80 2.573
311.90 2.571
312.00 2.569
312.10 2.567
312.20 2.565
312.30 2.563
312.40 2.561
312.50 2.559
312.60 2.556
312.70 2.554
312.80 2.552
312.90 2.55
313.00 2.548
313.10 2.546
313.20 2.544
313.30 2.542
313.40 2.539
313.50 2.537
313.60 2.535
313.70 2.533
313.80 2.531
313.90 2.529
314.00 2.527
314.10 2.525
314.20 2.523
314.30 2.521
314.40 2.518
314.50 2.516
314.60 2.514
314.70 2.512
314.80 2.51
314.90 2.508
315.00 2.506
315.10 2.504
315.20 2.502
315.30 2.5
315.40 2.498
315.50 2.496
315.60 2.494
315.70 2.491
315.80 2.489
315.90 2.487
316.00 2.485
316.10 2.483
316.20 2.481
316.30 2.479
316.40 2.477
316.50 2.475
316.60 2.473
316.70 2.471
316.80 2.469
316.90 2.467
317.00 2.465
317.10 2.463
317.20 2.461
317.30 2.459
317.40 2.457
317.50 2.455
317.60 2.453
317.70 2.451
317.80 2.449
317.90 2.447
318.00 2.445
318.10 2.443
318.20 2.441
318.30 2.439
318.40 2.437
318.50 2.435
318.60 2.433
318.70 2.431
318.80 2.429
318.90 2.427
319.00 2.425
319.10 2.423
319.20 2.421
319.30 2.419
319.40 2.417
319.50 2.415
319.60 2.413
319.70 2.411
319.80 2.409
319.90 2.407
320.00 2.405
320.10 2.403
320.20 2.401
320.30 2.399
320.40 2.397
320.50 2.395
320.60 2.393
320.70 2.391
320.80 2.389
320.90 2.387
321.00 2.385
321.10 2.384
321.20 2.382
321.30 2.38
321.40 2.378
321.50 2.376
321.60 2.374
321.70 2.372
321.80 2.37
321.90 2.368
322.00 2.366
322.10 2.364
322.20 2.362
322.30 2.36
322.40 2.358
322.50 2.357
322.60 2.355
322.70 2.353
322.80 2.351
322.90 2.349
323.00 2.347
323.10 2.345
323.20 2.343
323.30 2.341
323.40 2.339
323.50 2.338
323.60 2.336
323.70 2.334
323.80 2.332
323.90 2.33
324.00 2.328
324.10 2.326
324.20 2.324
324.30 2.323
324.40 2.321
324.50 2.319
324.60 2.317
324.70 2.315
324.80 2.313
324.90 2.311
325.00 2.309
325.10 2.308
325.20 2.306
325.30 2.304
325.40 2.302
325.50 2.3
325.60 2.298
325.70 2.296
325.80 2.295
325.90 2.293
326.00 2.291
326.10 2.289
326.20 2.287
326.30 2.285
326.40 2.284
326.50 2.282
326.60 2.28
326.70 2.278
326.80 2.276
326.90 2.274
327.00 2.273
327.10 2.271
327.20 2.269
327.30 2.267
327.40 2.265
327.50 2.263
327.60 2.262
327.70 2.26
327.80 2.258
327.90 2.256
328.00 2.254
328.10 2.253
328.20 2.251
328.30 2.249
328.40 2.247
328.50 2.245
328.60 2.244
328.70 2.242
328.80 2.24
328.90 2.238
329.00 2.236
329.10 2.235
329.20 2.233
329.30 2.231
329.40 2.229
329.50 2.228
329.60 2.226
329.70 2.224
329.80 2.222
329.90 2.22
330.00 2.219
330.10 2.217
330.20 2.215
330.30 2.213
330.40 2.212
330.50 2.21
330.60 2.208
330.70 2.206
330.80 2.205
330.90 2.203
331.00 2.201
331.10 2.199
331.20 2.198
331.30 2.196
331.40 2.194
331.50 2.192
331.60 2.191
331.70 2.189
331.80 2.187
331.90 2.185
332.00 2.184
332.10 2.182
332.20 2.18
332.30 2.178
332.40 2.177
332.50 2.175
332.60 2.173
332.70 2.172
332.80 2.17
332.90 2.168
333.00 2.166
333.10 2.165
333.20 2.163
333.30 2.161
333.40 2.16
333.50 2.158
333.60 2.156
333.70 2.155
333.80 2.153
333.90 2.151
334.00 2.149
334.10 2.148
334.20 2.146
334.30 2.144
334.40 2.143
334.50 2.141
334.60 2.139
334.70 2.138
334.80 2.136
334.90 2.134
335.00 2.133
335.10 2.131
335.20 2.129
335.30 2.128
335.40 2.126
335.50 2.124
335.60 2.123
335.70 2.121
335.80 2.119
335.90 2.118
336.00 2.116
336.10 2.114
336.20 2.113
336.30 2.111
336.40 2.109
336.50 2.108
336.60 2.106
336.70 2.104
336.80 2.103
336.90 2.101
337.00 2.099
337.10 2.098
337.20 2.096
337.30 2.094
337.40 2.093
337.50 2.091
337.60 2.09
337.70 2.088
337.80 2.086
337.90 2.085
338.00 2.083
338.10 2.081
338.20 2.08
338.30 2.078
338.40 2.077
338.50 2.075
338.60 2.073
338.70 2.072
338.80 2.07
338.90 2.068
339.00 2.067
339.10 2.065
339.20 2.064
339.30 2.062
339.40 2.06
339.50 2.059
339.60 2.057
339.70 2.056
339.80 2.054
339.90 2.052
340.00 2.051
340.10 2.049
340.20 2.048
340.30 2.046
340.40 2.044
340.50 2.043
340.60 2.041
340.70 2.04
340.80 2.038
340.90 2.037
341.00 2.035
341.10 2.033
341.20 2.032
341.30 2.03
341.40 2.029
341.50 2.027
341.60 2.026
341.70 2.024
341.80 2.022
341.90 2.021
342.00 2.019
342.10 2.018
342.20 2.016
342.30 2.015
342.40 2.013
342.50 2.012
342.60 2.01
342.70 2.008
342.80 2.007
342.90 2.005
343.00 2.004
343.10 2.002
343.20 2.001
343.30 1.999
343.40 1.998
343.50 1.996
343.60 1.995
343.70 1.993
343.80 1.991
343.90 1.99
344.00 1.988
344.10 1.987
344.20 1.985
344.30 1.984
344.40 1.982
344.50 1.981
344.60 1.979
344.70 1.978
344.80 1.976
344.90 1.975
345.00 1.973
345.10 1.972
345.20 1.97
345.30 1.969
345.40 1.967
345.50 1.966
345.60 1.964
345.70 1.963
345.80 1.961
345.90 1.96
346.00 1.958
346.10 1.957
346.20 1.955
346.30 1.954
346.40 1.952
346.50 1.951
346.60 1.949
346.70 1.948
346.80 1.946
346.90 1.945
347.00 1.943
347.10 1.942
347.20 1.94
347.30 1.939
347.40 1.937
347.50 1.936
347.60 1.934
347.70 1.933
347.80 1.931
347.90 1.93
348.00 1.928
348.10 1.927
348.20 1.925
348.30 1.924
348.40 1.922
348.50 1.921
348.60 1.92
348.70 1.918
348.80 1.917
348.90 1.915
349.00 1.914
349.10 1.912
349.20 1.911
349.30 1.909
349.40 1.908
349.50 1.906
349.60 1.905
349.70 1.904
349.80 1.902
349.90 1.901
350.00 1.899
350.10 1.898
350.20 1.896
350.30 1.895
350.40 1.893
350.50 1.892
350.60 1.891
350.70 1.889
350.80 1.888
350.90 1.886
351.00 1.885
351.10 1.883
351.20 1.882
351.30 1.881
351.40 1.879
351.50 1.878
351.60 1.876
351.70 1.875
351.80 1.874
351.90 1.872
352.00 1.871
352.10 1.869
352.20 1.868
352.30 1.866
352.40 1.865
352.50 1.864
352.60 1.862
352.70 1.861
352.80 1.859
352.90 1.858
353.00 1.857
353.10 1.855
353.20 1.854
353.30 1.852
353.40 1.851
353.50 1.85
353.60 1.848
353.70 1.847
353.80 1.845
353.90 1.844
354.00 1.843
354.10 1.841
354.20 1.84
354.30 1.839
354.40 1.837
354.50 1.836
354.60 1.834
354.70 1.833
354.80 1.832
354.90 1.83
355.00 1.829
355.10 1.828
355.20 1.826
355.30 1.825
355.40 1.823
355.50 1.822
355.60 1.821
355.70 1.819
355.80 1.818
355.90 1.817
356.00 1.815
356.10 1.814
356.20 1.812
356.30 1.811
356.40 1.81
356.50 1.808
356.60 1.807
356.70 1.806
356.80 1.804
356.90 1.803
357.00 1.802
357.10 1.8
357.20 1.799
357.30 1.798
357.40 1.796
357.50 1.795
357.60 1.794
357.70 1.792
357.80 1.791
357.90 1.79
358.00 1.788
358.10 1.787
358.20 1.786
358.30 1.784
358.40 1.783
358.50 1.782
358.60 1.78
358.70 1.779
358.80 1.778
358.90 1.776
359.00 1.775
359.10 1.774
359.20 1.772
359.30 1.771
359.40 1.77
359.50 1.768
359.60 1.767
359.70 1.766
359.80 1.764
359.90 1.763
360.00 1.762
360.10 1.761
360.20 1.759
360.30 1.758
360.40 1.757
360.50 1.755
360.60 1.754
360.70 1.753
360.80 1.751
360.90 1.75
361.00 1.749
361.10 1.748
361.20 1.746
361.30 1.745
361.40 1.744
361.50 1.742
361.60 1.741
361.70 1.74
361.80 1.738
361.90 1.737
362.00 1.736
362.10 1.735
362.20 1.733
362.30 1.732
362.40 1.731
362.50 1.73
362.60 1.728
362.70 1.727
362.80 1.726
362.90 1.724
363.00 1.723
363.10 1.722
363.20 1.72
363.30 1.719
363.40 1.717
363.50 1.716
363.60 1.714
363.70 1.713
363.80 1.711
363.90 1.71
364.00 1.709
364.10 1.707
364.20 1.706
364.30 1.704
364.40 1.703
364.50 1.701
364.60 1.7
364.70 1.698
364.80 1.697
364.90 1.695
365.00 1.694
365.10 1.692
365.20 1.691
365.30 1.689
365.40 1.688
365.50 1.686
365.60 1.685
365.70 1.683
365.80 1.682
365.90 1.68
366.00 1.679
366.10 1.678
366.20 1.676
366.30 1.675
366.40 1.674
366.50 1.672
366.60 1.671
366.70 1.67
366.80 1.668
366.90 1.667
367.00 1.666
367.10 1.665
367.20 1.663
367.30 1.662
367.40 1.661
367.50 1.659
367.60 1.658
367.70 1.657
367.80 1.655
367.90 1.654
368.00 1.653
368.10 1.652
368.20 1.65
368.30 1.649
368.40 1.648
368.50 1.646
368.60 1.645
368.70 1.644
368.80 1.643
368.90 1.641
369.00 1.64
369.10 1.639
369.20 1.637
369.30 1.636
369.40 1.635
369.50 1.634
369.60 1.632
369.70 1.631
369.80 1.63
369.90 1.629
370.00 1.627
370.10 1.626
370.20 1.625
370.30 1.624
370.40 1.622
370.50 1.621
370.60 1.62
370.70 1.619
370.80 1.618
370.90 1.616
371.00 1.615
371.10 1.614
371.20 1.613
371.30 1.612
371.40 1.61
371.50 1.609
371.60 1.608
371.70 1.607
371.80 1.606
371.90 1.604
372.00 1.603
372.10 1.602
372.20 1.601
372.30 1.6
372.40 1.599
372.50 1.598
372.60 1.597
372.70 1.596
372.80 1.595
372.90 1.594
373.00 1.593
373.10 1.592
373.20 1.591
373.30 1.59
373.40 1.589
373.50 1.588
373.60 1.587
373.70 1.586
373.80 1.585
373.90 1.584
374.00 1.583
374.10 1.582
374.20 1.581
374.30 1.58
374.40 1.579
374.50 1.578
374.60 1.577
374.70 1.577
374.80 1.576
374.90 1.575
375.00 1.574
375.10 1.573
375.20 1.572
375.30 1.571
375.40 1.571
375.50 1.57
375.60 1.569
375.70 1.568
375.80 1.567
375.90 1.566
376.00 1.565
376.10 1.565
376.20 1.564
376.30 1.563
376.40 1.562
376.50 1.561
376.60 1.561
376.70 1.56
376.80 1.559
376.90 1.558
377.00 1.557
377.10 1.556
377.20 1.555
377.30 1.554
377.40 1.553
377.50 1.552
377.60 1.551
377.70 1.55
377.80 1.55
377.90 1.549
378.00 1.548
378.10 1.546
378.20 1.544
378.30 1.543
378.40 1.541
378.50 1.54
378.60 1.538
378.70 1.536
378.80 1.535
378.90 1.533
379.00 1.532
379.10 1.531
379.20 1.529
379.30 1.528
379.40 1.527
379.50 1.526
379.60 1.525
379.70 1.523
379.80 1.522
379.90 1.521
380.00 1.52
380.10 1.52
380.20 1.52
380.30 1.521
380.40 1.521
380.50 1.521
380.60 1.521
380.70 1.521
380.80 1.522
380.90 1.522
381.00 1.522
381.10 1.522
381.20 1.521
381.30 1.521
381.40 1.521
381.50 1.52
381.60 1.519
381.70 1.519
381.80 1.517
381.90 1.516
382.00 1.515
382.10 1.513
382.20 1.511
382.30 1.508
382.40 1.505
382.50 1.502
382.60 1.499
382.70 1.496
382.80 1.493
382.90 1.49
383.00 1.487
383.10 1.484
383.20 1.481
383.30 1.479
383.40 1.477
383.50 1.475
383.60 1.475
383.70 1.477
383.80 1.478
383.90 1.48
384.00 1.482
384.10 1.485
384.20 1.488
384.30 1.491
384.40 1.493
384.50 1.496
384.60 1.498
384.70 1.5
384.80 1.502
384.90 1.503
385.00 1.504
385.10 1.505
385.20 1.505
385.30 1.505
385.40 1.505
385.50 1.505
385.60 1.505
385.70 1.504
385.80 1.503
385.90 1.502
386.00 1.501
386.10 1.5
386.20 1.498
386.30 1.496
386.40 1.494
386.50 1.492
386.60 1.49
386.70 1.487
386.80 1.484
386.90 1.481
387.00 1.478
387.10 1.475
387.20 1.471
387.30 1.467
387.40 1.463
387.50 1.459
387.60 1.454
387.70 1.449
387.80 1.444
387.90 1.438
388.00 1.432
388.10 1.425
388.20 1.418
388.30 1.411
388.40 1.403
388.50 1.395
388.60 1.388
388.70 1.385
388.80 1.381
388.90 1.379
389.00 1.381
389.10 1.384
389.20 1.387
389.30 1.394
389.40 1.401
389.50 1.409
389.60 1.417
389.70 1.424
389.80 1.43
389.90 1.436
390.00 1.442
390.10 1.447
390.20 1.452
390.30 1.457
390.40 1.461
390.50 1.465
390.60 1.469
390.70 1.473
390.80 1.476
390.90 1.479
391.00 1.482
391.10 1.485
391.20 1.487
391.30 1.489
391.40 1.491
391.50 1.493
391.60 1.495
391.70 1.496
391.80 1.497
391.90 1.498
392.00 1.498
392.10 1.498
392.20 1.498
392.30 1.498
392.40 1.497
392.50 1.496
392.60 1.495
392.70 1.494
392.80 1.492
392.90 1.49
393.00 1.487
393.10 1.485
393.20 1.481
393.30 1.478
393.40 1.475
393.50 1.471
393.60 1.466
393.70 1.462
393.80 1.457
393.90 1.452
394.00 1.446
394.10 1.44
394.20 1.434
394.30 1.428
394.40 1.421
394.50 1.414
394.60 1.406
394.70 1.399
394.80 1.391
394.90 1.383
395.00 1.374
395.10 1.366
395.20 1.357
395.30 1.347
395.40 1.338
395.50 1.328
395.60 1.318
395.70 1.307
395.80 1.296
395.90 1.285
396.00 1.274
396.10 1.263
396.20 1.251
396.30 1.237
396.40 1.223
396.50 1.206
396.60 1.189
396.70 1.17
396.80 1.158
396.90 1.146
397.00 1.134
397.10 1.144
397.20 1.155
397.30 1.166
397.40 1.184
397.50 1.201
397.60 1.218
397.70 1.231
397.80 1.244
397.90 1.256
398.00 1.267
398.10 1.278
398.20 1.289
398.30 1.3
398.40 1.31
398.50 1.32
398.60 1.33
398.70 1.339
398.80 1.349
398.90 1.358
399.00 1.367
399.10 1.375
399.20 1.384
399.30 1.392
399.40 1.4
399.50 1.408
399.60 1.416
399.70 1.423
399.80 1.43
399.90 1.437
400.00 1.444
400.10 1.45
400.20 1.457
400.30 1.463
400.40 1.468
400.50 1.474
400.60 1.479
400.70 1.484
400.80 1.489
400.90 1.493
401.00 1.498
401.10 1.502
401.20 1.505
401.30 1.509
401.40 1.512
401.50 1.515
401.60 1.518
401.70 1.521
401.80 1.523
401.90 1.525
402.00 1.527
402.10 1.529
402.20 1.53
402.30 1.531
402.40 1.533
402.50 1.533
402.60 1.534
402.70 1.534
402.80 1.534
402.90 1.534
403.00 1.534
403.10 1.533
403.20 1.532
403.30 1.531
403.40 1.529
403.50 1.528
403.60 1.526
403.70 1.524
403.80 1.522
403.90 1.519
404.00 1.516
404.10 1.513
404.20 1.51
404.30 1.506
404.40 1.503
404.50 1.499
404.60 1.494
404.70 1.49
404.80 1.485
404.90 1.48
405.00 1.475
405.10 1.47
405.20 1.464
405.30 1.458
405.40 1.452
405.50 1.445
405.60 1.439
405.70 1.432
405.80 1.424
405.90 1.417
406.00 1.41
406.10 1.402
406.20 1.393
406.30 1.385
406.40 1.376
406.50 1.368
406.60 1.358
406.70 1.349
406.80 1.339
406.90 1.33
407.00 1.319
407.10 1.309
407.20 1.298
407.30 1.287
407.40 1.276
407.50 1.265
407.60 1.253
407.70 1.241
407.80 1.229
407.90 1.216
408.00 1.204
408.10 1.191
408.20 1.178
408.30 1.165
408.40 1.151
408.50 1.138
408.60 1.124
408.70 1.11
408.80 1.095
408.90 1.08
409.00 1.065
409.10 1.051
409.20 1.036
409.30 1.021
409.40 1.006
409.50 0.9894
409.60 0.9724
409.70 0.9531
409.80 0.9327
409.90 0.9113
410.00 0.8934
410.10 0.8814
410.20 0.8753
410.30 0.8859
410.40 0.9009
410.50 0.9202
410.60 0.9401
410.70 0.9588
410.80 0.9763
410.90 0.9916
411.00 1.006
411.10 1.02
411.20 1.034
411.30 1.048
411.40 1.061
411.50 1.075
411.60 1.088
411.70 1.101
411.80 1.114
411.90 1.127
412.00 1.139
412.10 1.151
412.20 1.163
412.30 1.175
412.40 1.187
412.50 1.198
412.60 1.209
412.70 1.22
412.80 1.231
412.90 1.241
413.00 1.252
413.10 1.262
413.20 1.272
413.30 1.281
413.40 1.291
413.50 1.3
413.60 1.309
413.70 1.318
413.80 1.326
413.90 1.335
414.00 1.343
414.10 1.351
414.20 1.359
414.30 1.367
414.40 1.374
414.50 1.381
414.60 1.389
414.70 1.396
414.80 1.402
414.90 1.409
415.00 1.416
415.10 1.422
415.20 1.428
415.30 1.435
415.40 1.44
415.50 1.446
415.60 1.452
415.70 1.457
415.80 1.463
415.90 1.468
416.00 1.473
416.10 1.478
416.20 1.483
416.30 1.488
416.40 1.492
416.50 1.497
416.60 1.501
416.70 1.505
416.80 1.509
416.90 1.513
417.00 1.517
417.10 1.52
417.20 1.524
417.30 1.527
417.40 1.531
417.50 1.534
417.60 1.537
417.70 1.54
417.80 1.543
417.90 1.546
418.00 1.548
418.10 1.551
418.20 1.553
418.30 1.555
418.40 1.558
418.50 1.56
418.60 1.562
418.70 1.564
418.80 1.565
418.90 1.567
419.00 1.569
419.10 1.57
419.20 1.572
419.30 1.573
419.40 1.574
419.50 1.575
419.60 1.576
419.70 1.577
419.80 1.578
419.90 1.579
420.00 1.579
420.10 1.58
420.20 1.58
420.30 1.581
420.40 1.581
420.50 1.581
420.60 1.581
420.70 1.581
420.80 1.581
420.90 1.581
421.00 1.581
421.10 1.58
421.20 1.58
421.30 1.58
421.40 1.579
421.50 1.578
421.60 1.577
421.70 1.577
421.80 1.576
421.90 1.575
422.00 1.574
422.10 1.572
422.20 1.571
422.30 1.57
422.40 1.568
422.50 1.567
422.60 1.565
422.70 1.564
422.80 1.562
422.90 1.56
423.00 1.558
423.10 1.556
423.20 1.554
423.30 1.552
423.40 1.549
423.50 1.547
423.60 1.544
423.70 1.542
423.80 1.539
423.90 1.537
424.00 1.534
424.10 1.531
424.20 1.528
424.30 1.525
424.40 1.522
424.50 1.519
424.60 1.515
424.70 1.512
424.80 1.508
424.90 1.505
425.00 1.501
425.10 1.497
425.20 1.493
425.30 1.489
425.40 1.485
425.50 1.481
425.60 1.477
425.70 1.473
425.80 1.468
425.90 1.464
426.00 1.459
426.10 1.454
426.20 1.448
426.30 1.443
426.40 1.438
426.50 1.433
426.60 1.428
426.70 1.422
426.80 1.417
426.90 1.412
427.00 1.406
427.10 1.4
427.20 1.394
427.30 1.388
427.40 1.382
427.50 1.376
427.60 1.37
427.70 1.364
427.80 1.357
427.90 1.351
428.00 1.344
428.10 1.337
428.20 1.331
428.30 1.324
428.40 1.317
428.50 1.309
428.60 1.302
428.70 1.295
428.80 1.287
428.90 1.28
429.00 1.272
429.10 1.264
429.20 1.256
429.30 1.248
429.40 1.24
429.50 1.232
429.60 1.223
429.70 1.215
429.80 1.206
429.90 1.197
430.00 1.188
430.10 1.179
430.20 1.17
430.30 1.161
430.40 1.152
430.50 1.142
430.60 1.133
430.70 1.123
430.80 1.113
430.90 1.103
431.00 1.092
431.10 1.082
431.20 1.071
431.30 1.06
431.40 1.05
431.50 1.039
431.60 1.027
431.70 1.016
431.80 1.004
431.90 0.9926
432.00 0.9807
432.10 0.9687
432.20 0.9563
432.30 0.9437
432.40 0.931
432.50 0.9178
432.60 0.9043
432.70 0.8906
432.80 0.8766
432.90 0.8626
433.00 0.8487
433.10 0.835
433.20 0.8213
433.30 0.8076
433.40 0.7935
433.50 0.7786
433.60 0.7629
433.70 0.7418
433.80 0.7156
433.90 0.6843
434.00 0.6482
434.10 0.6489
434.20 0.6861
434.30 0.7163
434.40 0.7412
434.50 0.761
434.60 0.7758
434.70 0.7898
434.80 0.803
434.90 0.8158
435.00 0.8285
435.10 0.8412
435.20 0.8542
435.30 0.8671
435.40 0.88
435.50 0.8926
435.60 0.9049
435.70 0.9169
435.80 0.9284
435.90 0.9397
436.00 0.9508
436.10 0.9615
436.20 0.9721
436.30 0.9825
436.40 0.9926
436.50 1.003
436.60 1.012
436.70 1.022
436.80 1.032
436.90 1.041
437.00 1.05
437.10 1.059
437.20 1.068
437.30 1.076
437.40 1.085
437.50 1.093
437.60 1.101
437.70 1.109
437.80 1.116
437.90 1.124
438.00 1.132
438.10 1.139
438.20 1.146
438.30 1.153
438.40 1.16
438.50 1.167
438.60 1.174
438.70 1.18
438.80 1.187
438.90 1.193
439.00 1.199
439.10 1.206
439.20 1.212
439.30 1.217
439.40 1.223
439.50 1.229
439.60 1.234
439.70 1.24
439.80 1.245
439.90 1.25
440.00 1.255
440.10 1.261
440.20 1.265
440.30 1.27
440.40 1.275
440.50 1.28
440.60 1.284
440.70 1.289
440.80 1.293
440.90 1.297
441.00 1.302
441.10 1.306
441.20 1.31
441.30 1.313
441.40 1.317
441.50 1.321
441.60 1.325
441.70 1.328
441.80 1.332
441.90 1.335
442.00 1.338
442.10 1.342
442.20 1.345
442.30 1.348
442.40 1.351
442.50 1.354
442.60 1.357
442.70 1.359
442.80 1.362
442.90 1.365
443.00 1.367
443.10 1.37
443.20 1.372
443.30 1.375
443.40 1.377
443.50 1.379
443.60 1.381
443.70 1.384
443.80 1.386
443.90 1.388
444.00 1.39
444.10 1.392
444.20 1.393
444.30 1.395
444.40 1.397
444.50 1.399
444.60 1.4
444.70 1.402
444.80 1.403
444.90 1.405
445.00 1.406
445.10 1.408
445.20 1.409
445.30 1.41
445.40 1.411
445.50 1.413
445.60 1.414
445.70 1.415
445.80 1.416
445.90 1.417
446.00 1.418
446.10 1.419
446.20 1.42
446.30 1.421
446.40 1.422
446.50 1.422
446.60 1.423
446.70 1.424
446.80 1.425
446.90 1.425
447.00 1.426
447.10 1.426
447.20 1.427
447.30 1.428
447.40 1.428
447.50 1.428
447.60 1.429
447.70 1.429
447.80 1.43
447.90 1.43
448.00 1.43
448.10 1.431
448.20 1.431
448.30 1.431
448.40 1.431
448.50 1.432
448.60 1.432
448.70 1.432
448.80 1.432
448.90 1.432
449.00 1.433
449.10 1.433
449.20 1.433
449.30 1.433
449.40 1.433
449.50 1.433
449.60 1.433
449.70 1.433
449.80 1.433
449.90 1.433
450.00 1.432
450.10 1.432
450.20 1.432
450.30 1.432
450.40 1.432
450.50 1.432
450.60 1.431
450.70 1.431
450.80 1.431
450.90 1.431
451.00 1.43
451.10 1.43
451.20 1.43
451.30 1.43
451.40 1.429
451.50 1.429
451.60 1.428
451.70 1.428
451.80 1.428
451.90 1.427
452.00 1.427
452.10 1.426
452.20 1.426
452.30 1.426
452.40 1.425
452.50 1.425
452.60 1.424
452.70 1.424
452.80 1.423
452.90 1.422
453.00 1.422
453.10 1.421
453.20 1.421
453.30 1.42
453.40 1.42
453.50 1.419
453.60 1.419
453.70 1.418
453.80 1.417
453.90 1.417
454.00 1.416
454.10 1.415
454.20 1.415
454.30 1.414
454.40 1.414
454.50 1.413
454.60 1.412
454.70 1.411
454.80 1.411
454.90 1.41
455.00 1.409
455.10 1.408
455.20 1.408
455.30 1.407
455.40 1.406
455.50 1.406
455.60 1.405
455.70 1.404
455.80 1.403
455.90 1.402
456.00 1.402
456.10 1.401
456.20 1.4
456.30 1.399
456.40 1.398
456.50 1.398
456.60 1.397
456.70 1.396
456.80 1.395
456.90 1.395
457.00 1.394
457.10 1.393
457.20 1.392
457.30 1.391
457.40 1.391
457.50 1.39
457.60 1.389
457.70 1.388
457.80 1.387
457.90 1.386
458.00 1.385
458.10 1.384
458.20 1.383
458.30 1.382
458.40 1.381
458.50 1.38
458.60 1.379
458.70 1.378
458.80 1.377
458.90 1.377
459.00 1.376
459.10 1.375
459.20 1.374
459.30 1.373
459.40 1.372
459.50 1.371
459.60 1.37
459.70 1.369
459.80 1.368
459.90 1.367
460.00 1.366
460.10 1.364
460.20 1.363
460.30 1.362
460.40 1.361
460.50 1.36
460.60 1.359
460.70 1.358
460.80 1.357
460.90 1.356
461.00 1.355
461.10 1.354
461.20 1.353
461.30 1.351
461.40 1.35
461.50 1.349
461.60 1.348
461.70 1.347
461.80 1.346
461.90 1.345
462.00 1.344
462.10 1.342
462.20 1.341
462.30 1.34
462.40 1.339
462.50 1.338
462.60 1.337
462.70 1.335
462.80 1.334
462.90 1.333
463.00 1.332
463.10 1.331
463.20 1.329
463.30 1.328
463.40 1.327
463.50 1.326
463.60 1.324
463.70 1.323
463.80 1.322
463.90 1.321
464.00 1.319
464.10 1.318
464.20 1.317
464.30 1.316
464.40 1.314
464.50 1.313
464.60 1.312
464.70 1.31
464.80 1.309
464.90 1.308
465.00 1.307
465.10 1.305
465.20 1.304
465.30 1.302
465.40 1.301
465.50 1.3
465.60 1.298
465.70 1.297
465.80 1.296
465.90 1.294
466.00 1.293
466.10 1.291
466.20 1.29
466.30 1.289
466.40 1.287
466.50 1.286
466.60 1.284
466.70 1.283
466.80 1.281
466.90 1.28
467.00 1.278
467.10 1.277
467.20 1.275
467.30 1.274
467.40 1.272
467.50 1.271
467.60 1.269
467.70 1.268
467.80 1.266
467.90 1.264
468.00 1.263
468.10 1.261
468.20 1.26
468.30 1.258
468.40 1.256
468.50 1.255
468.60 1.253
468.70 1.252
468.80 1.25
468.90 1.248
469.00 1.247
469.10 1.245
469.20 1.243
469.30 1.241
469.40 1.24
469.50 1.238
469.60 1.236
469.70 1.234
469.80 1.233
469.90 1.231
470.00 1.229
470.10 1.227
470.20 1.226
470.30 1.224
470.40 1.222
470.50 1.22
470.60 1.218
470.70 1.217
470.80 1.215
470.90 1.213
471.00 1.211
471.10 1.209
471.20 1.207
471.30 1.205
471.40 1.203
471.50 1.201
471.60 1.199
471.70 1.197
471.80 1.195
471.90 1.193
472.00 1.191
472.10 1.189
472.20 1.187
472.30 1.185
472.40 1.182
472.50 1.18
472.60 1.178
472.70 1.176
472.80 1.174
472.90 1.171
473.00 1.169
473.10 1.167
473.20 1.165
473.30 1.162
473.40 1.16
473.50 1.157
473.60 1.155
473.70 1.152
473.80 1.15
473.90 1.148
474.00 1.145
474.10 1.143
474.20 1.14
474.30 1.138
474.40 1.135
474.50 1.132
474.60 1.13
474.70 1.127
474.80 1.124
474.90 1.122
475.00 1.119
475.10 1.116
475.20 1.114
475.30 1.111
475.40 1.108
475.50 1.105
475.60 1.102
475.70 1.099
475.80 1.096
475.90 1.093
476.00 1.09
476.10 1.087
476.20 1.084
476.30 1.081
476.40 1.078
476.50 1.075
476.60 1.071
476.70 1.068
476.80 1.065
476.90 1.062
477.00 1.059
477.10 1.056
477.20 1.052
477.30 1.049
477.40 1.045
477.50 1.041
477.60 1.038
477.70 1.034
477.80 1.031
477.90 1.027
478.00 1.024
478.10 1.02
478.20 1.017
478.30 1.013
478.40 1.009
478.50 1.005
478.60 1.001
478.70 0.9971
478.80 0.9932
478.90 0.9893
479.00 0.9854
479.10 0.9815
479.20 0.9774
479.30 0.9731
479.40 0.9688
479.50 0.9645
479.60 0.9602
479.70 0.956
479.80 0.9517
479.90 0.9474
480.00 0.9431
480.10 0.9389
480.20 0.9343
480.30 0.9296
480.40 0.9249
480.50 0.9202
480.60 0.9155
480.70 0.9108
480.80 0.9061
480.90 0.9014
481.00 0.8967
481.10 0.892
481.20 0.8869
481.30 0.8817
481.40 0.8764
481.50 0.8712
481.60 0.8659
481.70 0.8607
481.80 0.8554
481.90 0.8502
482.00 0.8449
482.10 0.8397
482.20 0.834
482.30 0.828
482.40 0.822
482.50 0.816
482.60 0.8101
482.70 0.8041
482.80 0.7982
482.90 0.7922
483.00 0.7863
483.10 0.7803
483.20 0.7736
483.30 0.7665
483.40 0.7594
483.50 0.7522
483.60 0.7451
483.70 0.738
483.80 0.7309
483.90 0.7239
484.00 0.7168
484.10 0.7097
484.20 0.7017
484.30 0.6933
484.40 0.685
484.50 0.6766
484.60 0.6682
484.70 0.6591
484.80 0.6497
484.90 0.6402
485.00 0.6308
485.10 0.6214
485.20 0.6116
485.30 0.6017
485.40 0.5914
485.50 0.5808
485.60 0.5692
485.70 0.5572
485.80 0.5408
485.90 0.5225
486.00 0.4938
486.10 0.446
486.20 0.4611
486.30 0.5055
486.40 0.5271
486.50 0.5453
486.60 0.5589
486.70 0.5704
486.80 0.5808
486.90 0.5907
487.00 0.6002
487.10 0.6094
487.20 0.6183
487.30 0.627
487.40 0.6357
487.50 0.6444
487.60 0.6531
487.70 0.661
487.80 0.6685
487.90 0.6761
488.00 0.6836
488.10 0.6912
488.20 0.6978
488.30 0.7039
488.40 0.7101
488.50 0.7162
488.60 0.7224
488.70 0.7285
488.80 0.7347
488.90 0.7408
489.00 0.7469
489.10 0.753
489.20 0.7583
489.30 0.7632
489.40 0.7681
489.50 0.773
489.60 0.7779
489.70 0.7827
489.80 0.7876
489.90 0.7925
490.00 0.7973
490.10 0.8022
490.20 0.8065
490.30 0.8106
490.40 0.8146
490.50 0.8187
490.60 0.8227
490.70 0.8267
490.80 0.8308
490.90 0.8348
491.00 0.8388
491.10 0.8429
491.20 0.8464
491.30 0.8498
491.40 0.8532
491.50 0.8566
491.60 0.86
491.70 0.8634
491.80 0.8668
491.90 0.8702
492.00 0.8736
492.10 0.8769
492.20 0.8799
492.30 0.8828
492.40 0.8857
492.50 0.8885
492.60 0.8914
492.70 0.8943
492.80 0.8971
492.90 0.9
493.00 0.9028
493.10 0.9057
493.20 0.9082
493.30 0.9107
493.40 0.9131
493.50 0.9155
493.60 0.9179
493.70 0.9203
493.80 0.9228
493.90 0.9252
494.00 0.9276
494.10 0.93
494.20 0.9321
494.30 0.9341
494.40 0.9361
494.50 0.938
494.60 0.94
494.70 0.942
494.80 0.9439
494.90 0.9459
495.00 0.9479
495.10 0.9498
495.20 0.9515
495.30 0.9531
495.40 0.9547
495.50 0.9563
495.60 0.9579
495.70 0.9595
495.80 0.961
495.90 0.9626
496.00 0.9642
496.10 0.9658
496.20 0.9671
496.30 0.9684
496.40 0.9697
496.50 0.9709
496.60 0.9722
496.70 0.9734
496.80 0.9747
496.90 0.9759
497.00 0.9772
497.10 0.9784
497.20 0.9795
497.30 0.9805
497.40 0.9814
497.50 0.9824
497.60 0.9834
497.70 0.9843
497.80 0.9853
497.90 0.9862
498.00 0.9872
498.10 0.9882
498.20 0.989
498.30 0.9897
498.40 0.9904
498.50 0.9911
498.60 0.9918
498.70 0.9925
498.80 0.9933
498.90 0.994
499.00 0.9947
499.10 0.9954
499.20 0.996
499.30 0.9965
499.40 0.997
499.50 0.9975
499.60 0.998
499.70 0.9985
499.80 0.999
499.90 0.9995
500.00 1
500.10 1.001
500.20 1.001
500.30 1.001
500.40 1.002
500.50 1.002
500.60 1.002
500.70 1.002
500.80 1.003
500.90 1.003
501.00 1.003
501.10 1.004
501.20 1.004
501.30 1.004
501.40 1.004
501.50 1.005
501.60 1.005
501.70 1.005
501.80 1.005
501.90 1.005
502.00 1.005
502.10 1.006
502.20 1.006
502.30 1.006
502.40 1.006
502.50 1.006
502.60 1.006
502.70 1.006
502.80 1.006
502.90 1.006
503.00 1.006
503.10 1.006
503.20 1.006
503.30 1.006
503.40 1.006
503.50 1.006
503.60 1.006
503.70 1.006
503.80 1.006
503.90 1.006
504.00 1.006
504.10 1.006
504.20 1.006
504.30 1.006
504.40 1.006
504.50 1.005
504.60 1.005
504.70 1.005
504.80 1.005
504.90 1.005
505.00 1.005
505.10 1.005
505.20 1.004
505.30 1.004
505.40 1.004
505.50 1.004
505.60 1.004
505.70 1.003
505.80 1.003
505.90 1.003
506.00 1.003
506.10 1.003
506.20 1.002
506.30 1.002
506.40 1.002
506.50 1.002
506.60 1.001
506.70 1.001
506.80 1.001
506.90 1
507.00 1
507.10 0.9999
507.20 0.9996
507.30 0.9993
507.40 0.9989
507.50 0.9986
507.60 0.9983
507.70 0.998
507.80 0.9977
507.90 0.9973
508.00 0.997
508.10 0.9967
508.20 0.9963
508.30 0.996
508.40 0.9956
508.50 0.9953
508.60 0.9949
508.70 0.9945
508.80 0.9942
508.90 0.9938
509.00 0.9934
509.10 0.9931
509.20 0.9927
509.30 0.9923
509.40 0.9919
509.50 0.9915
509.60 0.9911
509.70 0.9907
509.80 0.9903
509.90 0.9899
510.00 0.9895
510.10 0.9891
510.20 0.9887
510.30 0.9883
510.40 0.9879
510.50 0.9874
510.60 0.987
510.70 0.9866
510.80 0.9861
510.90 0.9857
511.00 0.9853
511.10 0.9848
511.20 0.9844
511.30 0.9839
511.40 0.9835
511.50 0.983
511.60 0.9826
511.70 0.9821
511.80 0.9817
511.90 0.9812
512.00 0.9808
512.10 0.9803
512.20 0.9798
512.30 0.9794
512.40 0.9789
512.50 0.9784
512.60 0.9779
512.70 0.9775
512.80 0.977
512.90 0.9765
513.00 0.9761
513.10 0.9756
513.20 0.9751
513.30 0.9746
513.40 0.9741
513.50 0.9736
513.60 0.9731
513.70 0.9726
513.80 0.9722
513.90 0.9717
514.00 0.9712
514.10 0.9707
514.20 0.9702
514.30 0.9697
514.40 0.9692
514.50 0.9687
514.60 0.9681
514.70 0.9676
514.80 0.9671
514.90 0.9666
515.00 0.9661
515.10 0.9656
515.20 0.9651
515.30 0.9646
515.40 0.9641
515.50 0.9636
515.60 0.963
515.70 0.9625
515.80 0.962
515.90 0.9615
516.00 0.961
516.10 0.9605
516.20 0.96
516.30 0.9594
516.40 0.9589
516.50 0.9584
516.60 0.9579
516.70 0.9573
516.80 0.9568
516.90 0.9563
517.00 0.9558
517.10 0.9553
517.20 0.9547
517.30 0.9542
517.40 0.9537
517.50 0.9531
517.60 0.9526
517.70 0.9521
517.80 0.9516
517.90 0.951
518.00 0.9505
518.10 0.95
518.20 0.9495
518.30 0.9489
518.40 0.9484
518.50 0.9478
518.60 0.9473
518.70 0.9468
518.80 0.9462
518.90 0.9457
519.00 0.9452
519.10 0.9446
519.20 0.9441
519.30 0.9436
519.40 0.943
519.50 0.9425
519.60 0.942
519.70 0.9414
519.80 0.9409
519.90 0.9404
520.00 0.9398
520.10 0.9393
520.20 0.9387
520.30 0.9382
520.40 0.9377
520.50 0.9371
520.60 0.9366
520.70 0.936
520.80 0.9355
520.90 0.9349
521.00 0.9344
521.10 0.9339
521.20 0.9333
521.30 0.9328
521.40 0.9322
521.50 0.9317
521.60 0.9311
521.70 0.9306
521.80 0.93
521.90 0.9295
522.00 0.9289
522.10 0.9284
522.20 0.9278
522.30 0.9273
522.40 0.9267
522.50 0.9262
522.60 0.9257
522.70 0.9251
522.80 0.9246
522.90 0.924
523.00 0.9235
523.10 0.9229
523.20 0.9224
523.30 0.9219
523.40 0.9213
523.50 0.9208
523.60 0.9202
523.70 0.9197
523.80 0.9191
523.90 0.9186
524.00 0.918
524.10 0.9175
524.20 0.9169
524.30 0.9164
524.40 0.9158
524.50 0.9153
524.60 0.9147
524.70 0.9142
524.80 0.9136
524.90 0.9131
525.00 0.9125
525.10 0.912
525.20 0.9114
525.30 0.9109
525.40 0.9103
525.50 0.9098
525.60 0.9092
525.70 0.9087
525.80 0.9082
525.90 0.9076
526.00 0.9071
526.10 0.9065
526.20 0.906
526.30 0.9054
526.40 0.9049
526.50 0.9043
526.60 0.9038
526.70 0.9032
526.80 0.9027
526.90 0.9021
527.00 0.9016
527.10 0.901
527.20 0.9005
527.30 0.8999
527.40 0.8994
527.50 0.8988
527.60 0.8983
527.70 0.8977
527.80 0.8972
527.90 0.8966
528.00 0.8961
528.10 0.8956
528.20 0.895
528.30 0.8945
528.40 0.8939
528.50 0.8934
528.60 0.8928
528.70 0.8923
528.80 0.8918
528.90 0.8912
529.00 0.8907
529.10 0.8901
529.20 0.8896
529.30 0.889
529.40 0.8885
529.50 0.8879
529.60 0.8874
529.70 0.8869
529.80 0.8863
529.90 0.8858
530.00 0.8852
530.10 0.8847
530.20 0.8841
530.30 0.8836
530.40 0.883
530.50 0.8825
530.60 0.882
530.70 0.8814
530.80 0.8809
530.90 0.8803
531.00 0.8798
531.10 0.8792
531.20 0.8787
531.30 0.8782
531.40 0.8776
531.50 0.8771
531.60 0.8765
531.70 0.876
531.80 0.8755
531.90 0.8749
532.00 0.8744
532.10 0.8739
532.20 0.8733
532.30 0.8728
532.40 0.8722
532.50 0.8717
532.60 0.8712
532.70 0.8706
532.80 0.8701
532.90 0.8696
533.00 0.869
533.10 0.8685
533.20 0.868
533.30 0.8674
533.40 0.8669
533.50 0.8664
533.60 0.8658
533.70 0.8653
533.80 0.8648
533.90 0.8642
534.00 0.8637
534.10 0.8632
534.20 0.8626
534.30 0.8621
534.40 0.8616
534.50 0.861
534.60 0.8605
534.70 0.86
534.80 0.8594
534.90 0.8589
535.00 0.8584
535.10 0.8578
535.20 0.8573
535.30 0.8568
535.40 0.8563
535.50 0.8557
535.60 0.8552
535.70 0.8547
535.80 0.8541
535.90 0.8536
536.00 0.8531
536.10 0.8526
536.20 0.852
536.30 0.8515
536.40 0.851
536.50 0.8505
536.60 0.8499
536.70 0.8494
536.80 0.8489
536.90 0.8483
537.00 0.8478
537.10 0.8473
537.20 0.8468
537.30 0.8463
537.40 0.8457
537.50 0.8452
537.60 0.8447
537.70 0.8442
537.80 0.8437
537.90 0.8431
538.00 0.8426
538.10 0.8421
538.20 0.8416
538.30 0.8411
538.40 0.8405
538.50 0.84
538.60 0.8395
538.70 0.839
538.80 0.8384
538.90 0.8379
539.00 0.8374
539.10 0.8369
539.20 0.8364
539.30 0.8358
539.40 0.8353
539.50 0.8348
539.60 0.8343
539.70 0.8338
539.80 0.8333
539.90 0.8327
540.00 0.8322
540.10 0.8317
540.20 0.8312
540.30 0.8307
540.40 0.8302
540.50 0.8297
540.60 0.8291
540.70 0.8286
540.80 0.8281
540.90 0.8276
541.00 0.8271
541.10 0.8266
541.20 0.8261
541.30 0.8256
541.40 0.8251
541.50 0.8246
541.60 0.824
541.70 0.8235
541.80 0.823
541.90 0.8225
542.00 0.822
542.10 0.8215
542.20 0.821
542.30 0.8205
542.40 0.82
542.50 0.8194
542.60 0.8189
542.70 0.8184
542.80 0.8179
542.90 0.8174
543.00 0.8169
543.10 0.8164
543.20 0.8159
543.30 0.8154
543.40 0.8149
543.50 0.8144
543.60 0.8139
543.70 0.8134
543.80 0.8129
543.90 0.8124
544.00 0.8119
544.10 0.8114
544.20 0.8109
544.30 0.8104
544.40 0.8099
544.50 0.8094
544.60 0.8089
544.70 0.8084
544.80 0.8079
544.90 0.8074
545.00 0.8069
545.10 0.8064
545.20 0.8059
545.30 0.8054
545.40 0.8049
545.50 0.8044
545.60 0.8039
545.70 0.8034
545.80 0.8029
545.90 0.8024
546.00 0.8019
546.10 0.8014
546.20 0.801
546.30 0.8007
546.40 0.8003
546.50 0.8
546.60 0.7996
546.70 0.7993
546.80 0.7989
546.90 0.7986
547.00 0.7982
547.10 0.7979
547.20 0.7974
547.30 0.7969
547.40 0.7964
547.50 0.7959
547.60 0.7954
547.70 0.7949
547.80 0.7944
547.90 0.7939
548.00 0.7935
548.10 0.793
548.20 0.7925
548.30 0.792
548.40 0.7915
548.50 0.791
548.60 0.7905
548.70 0.79
548.80 0.7895
548.90 0.789
549.00 0.7885
549.10 0.788
549.20 0.7875
549.30 0.787
549.40 0.7865
549.50 0.786
549.60 0.7856
549.70 0.7851
549.80 0.7846
549.90 0.7841
550.00 0.7836
550.10 0.7831
550.20 0.7826
550.30 0.7821
550.40 0.7817
550.50 0.7812
550.60 0.7807
550.70 0.7802
550.80 0.7797
550.90 0.7792
551.00 0.7788
551.10 0.7783
551.20 0.7778
551.30 0.7773
551.40 0.7768
551.50 0.7763
551.60 0.7759
551.70 0.7754
551.80 0.7749
551.90 0.7744
552.00 0.7739
552.10 0.7734
552.20 0.773
552.30 0.7725
552.40 0.772
552.50 0.7715
552.60 0.7711
552.70 0.7706
552.80 0.7701
552.90 0.7696
553.00 0.7691
553.10 0.7687
553.20 0.7682
553.30 0.7677
553.40 0.7672
553.50 0.7668
553.60 0.7663
553.70 0.7658
553.80 0.7653
553.90 0.7649
554.00 0.7644
554.10 0.7639
554.20 0.7634
554.30 0.763
554.40 0.7625
554.50 0.762
554.60 0.7615
554.70 0.7611
554.80 0.7606
554.90 0.7601
555.00 0.7597
555.10 0.7592
555.20 0.7587
555.30 0.7582
555.40 0.7578
555.50 0.7573
555.60 0.7569
555.70 0.7564
555.80 0.7559
555.90 0.7555
556.00 0.755
556.10 0.7545
556.20 0.7541
556.30 0.7536
556.40 0.7531
556.50 0.7527
556.60 0.7522
556.70 0.7517
556.80 0.7513
556.90 0.7508
557.00 0.7503
557.10 0.7499
557.20 0.7494
557.30 0.749
557.40 0.7485
557.50 0.748
557.60 0.7476
557.70 0.7471
557.80 0.7467
557.90 0.7462
558.00 0.7457
558.10 0.7453
558.20 0.7448
558.30 0.7444
558.40 0.7439
558.50 0.7435
558.60 0.743
558.70 0.7426
558.80 0.7421
558.90 0.7416
559.00 0.7412
559.10 0.7407
559.20 0.7403
559.30 0.7398
559.40 0.7394
559.50 0.7389
559.60 0.7385
559.70 0.738
559.80 0.7376
559.90 0.7371
560.00 0.7367
560.10 0.7362
560.20 0.7358
560.30 0.7353
560.40 0.7349
560.50 0.7344
560.60 0.734
560.70 0.7335
560.80 0.7331
560.90 0.7326
561.00 0.7322
561.10 0.7317
561.20 0.7313
561.30 0.7308
561.40 0.7304
561.50 0.7299
561.60 0.7295
561.70 0.729
561.80 0.7286
561.90 0.7281
562.00 0.7277
562.10 0.7272
562.20 0.7268
562.30 0.7263
562.40 0.7259
562.50 0.7254
562.60 0.725
562.70 0.7246
562.80 0.7241
562.90 0.7237
563.00 0.7232
563.10 0.7228
563.20 0.7223
563.30 0.7219
563.40 0.7215
563.50 0.721
563.60 0.7206
563.70 0.7202
563.80 0.7197
563.90 0.7193
564.00 0.7189
564.10 0.7184
564.20 0.718
564.30 0.7175
564.40 0.7171
564.50 0.7167
564.60 0.7162
564.70 0.7158
564.80 0.7154
564.90 0.7149
565.00 0.7145
565.10 0.714
565.20 0.7136
565.30 0.7132
565.40 0.7127
565.50 0.7123
565.60 0.7119
565.70 0.7114
565.80 0.711
565.90 0.7106
566.00 0.7102
566.10 0.7097
566.20 0.7093
566.30 0.7089
566.40 0.7084
566.50 0.708
566.60 0.7076
566.70 0.7072
566.80 0.7067
566.90 0.7063
567.00 0.7059
567.10 0.7054
567.20 0.705
567.30 0.7046
567.40 0.7042
567.50 0.7037
567.60 0.7033
567.70 0.7029
567.80 0.7025
567.90 0.702
568.00 0.7016
568.10 0.7012
568.20 0.7008
568.30 0.7003
568.40 0.6999
568.50 0.6995
568.60 0.6991
568.70 0.6986
568.80 0.6982
568.90 0.6978
569.00 0.6974
569.10 0.697
569.20 0.6965
569.30 0.6961
569.40 0.6957
569.50 0.6953
569.60 0.6949
569.70 0.6944
569.80 0.694
569.90 0.6936
570.00 0.6932
570.10 0.6928
570.20 0.6923
570.30 0.6919
570.40 0.6915
570.50 0.6911
570.60 0.6907
570.70 0.6902
570.80 0.6898
570.90 0.6894
571.00 0.689
571.10 0.6886
571.20 0.6882
571.30 0.6877
571.40 0.6873
571.50 0.6869
571.60 0.6865
571.70 0.6861
571.80 0.6857
571.90 0.6852
572.00 0.6848
572.10 0.6844
572.20 0.684
572.30 0.6836
572.40 0.6832
572.50 0.6828
572.60 0.6824
572.70 0.682
572.80 0.6816
572.90 0.6812
573.00 0.6808
573.10 0.6803
573.20 0.6799
573.30 0.6795
573.40 0.6791
573.50 0.6787
573.60 0.6783
573.70 0.6779
573.80 0.6775
573.90 0.6771
574.00 0.6767
574.10 0.6762
574.20 0.6758
574.30 0.6754
574.40 0.675
574.50 0.6746
574.60 0.6742
574.70 0.6738
574.80 0.6734
574.90 0.673
575.00 0.6726
575.10 0.6722
575.20 0.6718
575.30 0.6714
575.40 0.671
575.50 0.6706
575.60 0.6702
575.70 0.6698
575.80 0.6694
575.90 0.669
576.00 0.6686
576.10 0.6682
576.20 0.6678
576.30 0.6674
576.40 0.667
576.50 0.6666
576.60 0.6662
576.70 0.6658
576.80 0.6654
576.90 0.665
577.00 0.6646
577.10 0.6642
577.20 0.6638
577.30 0.6634
577.40 0.663
577.50 0.6626
577.60 0.6623
577.70 0.6619
577.80 0.6615
577.90 0.6611
578.00 0.6607
578.10 0.6603
578.20 0.6599
578.30 0.6595
578.40 0.6591
578.50 0.6587
578.60 0.6583
578.70 0.6579
578.80 0.6575
578.90 0.6571
579.00 0.6567
579.10 0.6563
579.20 0.656
579.30 0.6556
579.40 0.6552
579.50 0.6548
579.60 0.6544
579.70 0.654
579.80 0.6536
579.90 0.6532
580.00 0.6528
580.10 0.6524
580.20 0.6521
580.30 0.6517
580.40 0.6513
580.50 0.6509
580.60 0.6505
580.70 0.6501
580.80 0.6497
580.90 0.6493
581.00 0.6489
581.10 0.6486
581.20 0.6482
581.30 0.6478
581.40 0.6474
581.50 0.647
581.60 0.6466
581.70 0.6463
581.80 0.6459
581.90 0.6455
582.00 0.6451
582.10 0.6447
582.20 0.6444
582.30 0.644
582.40 0.6436
582.50 0.6432
582.60 0.6428
582.70 0.6425
582.80 0.6421
582.90 0.6417
583.00 0.6413
583.10 0.641
583.20 0.6406
583.30 0.6402
583.40 0.6398
583.50 0.6394
583.60 0.6391
583.70 0.6387
583.80 0.6383
583.90 0.6379
584.00 0.6375
584.10 0.6371
584.20 0.6368
584.30 0.6364
584.40 0.636
584.50 0.6356
584.60 0.6353
584.70 0.6349
584.80 0.6345
584.90 0.6342
585.00 0.6338
585.10 0.6334
585.20 0.633
585.30 0.6327
585.40 0.6323
585.50 0.6319
585.60 0.6315
585.70 0.6312
585.80 0.6308
585.90 0.6304
586.00 0.6301
586.10 0.6297
586.20 0.6293
586.30 0.6289
586.40 0.6286
586.50 0.6282
586.60 0.6278
586.70 0.6275
586.80 0.6271
586.90 0.6267
587.00 0.6264
587.10 0.626
587.20 0.6256
587.30 0.6253
587.40 0.6249
587.50 0.6245
587.60 0.6241
587.70 0.6238
587.80 0.6234
587.90 0.623
588.00 0.6227
588.10 0.6223
588.20 0.6219
588.30 0.6216
588.40 0.6212
588.50 0.6208
588.60 0.6205
588.70 0.6201
588.80 0.6198
588.90 0.6194
589.00 0.619
589.10 0.6187
589.20 0.6183
589.30 0.6179
589.40 0.6176
589.50 0.6172
589.60 0.6169
589.70 0.6165
589.80 0.6161
589.90 0.6158
590.00 0.6154
590.10 0.6151
590.20 0.6147
590.30 0.6144
590.40 0.614
590.50 0.6136
590.60 0.6133
590.70 0.6129
590.80 0.6125
590.90 0.6122
591.00 0.6118
591.10 0.6115
591.20 0.6111
591.30 0.6108
591.40 0.6104
591.50 0.61
591.60 0.6097
591.70 0.6093
591.80 0.609
591.90 0.6086
592.00 0.6083
592.10 0.6079
592.20 0.6076
592.30 0.6072
592.40 0.6068
592.50 0.6065
592.60 0.6061
592.70 0.6058
592.80 0.6054
592.90 0.6051
593.00 0.6047
593.10 0.6044
593.20 0.604
593.30 0.6036
593.40 0.6033
593.50 0.6029
593.60 0.6026
593.70 0.6022
593.80 0.6019
593.90 0.6016
594.00 0.6012
594.10 0.6009
594.20 0.6005
594.30 0.6002
594.40 0.5998
594.50 0.5995
594.60 0.5991
594.70 0.5988
594.80 0.5984
594.90 0.5981
595.00 0.5977
595.10 0.5974
595.20 0.597
595.30 0.5967
595.40 0.5963
595.50 0.596
595.60 0.5956
595.70 0.5953
595.80 0.595
595.90 0.5946
596.00 0.5943
596.10 0.5939
596.20 0.5934
596.30 0.5928
596.40 0.5922
596.50 0.5916
596.60 0.591
596.70 0.5904
596.80 0.5898
596.90 0.5892
597.00 0.5886
597.10 0.588
597.20 0.5875
597.30 0.5872
597.40 0.5868
597.50 0.5865
597.60 0.5861
597.70 0.5858
597.80 0.5854
597.90 0.5851
598.00 0.5847
598.10 0.5844
598.20 0.584
598.30 0.5837
598.40 0.5833
598.50 0.583
598.60 0.5827
598.70 0.5823
598.80 0.582
598.90 0.5816
599.00 0.5813
599.10 0.5809
599.20 0.5806
599.30 0.5802
599.40 0.5799
599.50 0.5796
599.60 0.5792
599.70 0.5789
599.80 0.5785
599.90 0.5782
600.00 0.5779
600.10 0.5775
600.20 0.5772
600.30 0.5768
600.40 0.5765
600.50 0.5761
600.60 0.5758
600.70 0.5754
600.80 0.5751
600.90 0.5747
601.00 0.5744
601.10 0.5741
601.20 0.5737
601.30 0.5734
601.40 0.573
601.50 0.5727
601.60 0.5724
601.70 0.572
601.80 0.5717
601.90 0.5713
602.00 0.571
602.10 0.5707
602.20 0.5703
602.30 0.57
602.40 0.5696
602.50 0.5693
602.60 0.569
602.70 0.5686
602.80 0.5683
602.90 0.5679
603.00 0.5676
603.10 0.5673
603.20 0.5669
603.30 0.5666
603.40 0.5663
603.50 0.5659
603.60 0.5656
603.70 0.5653
603.80 0.5649
603.90 0.5646
604.00 0.5642
604.10 0.5639
604.20 0.5636
604.30 0.5632
604.40 0.5629
604.50 0.5626
604.60 0.5622
604.70 0.5619
604.80 0.5616
604.90 0.5612
605.00 0.5609
605.10 0.5605
605.20 0.5602
605.30 0.5599
605.40 0.5595
605.50 0.5592
605.60 0.5589
605.70 0.5586
605.80 0.5582
605.90 0.5579
606.00 0.5576
606.10 0.5572
606.20 0.5569
606.30 0.5566
606.40 0.5562
606.50 0.5559
606.60 0.5556
606.70 0.5552
606.80 0.5549
606.90 0.5546
607.00 0.5542
607.10 0.5539
607.20 0.5536
607.30 0.5532
607.40 0.5529
607.50 0.5526
607.60 0.5523
607.70 0.5519
607.80 0.5516
607.90 0.5513
608.00 0.551
608.10 0.5506
608.20 0.5503
608.30 0.55
608.40 0.5496
608.50 0.5493
608.60 0.549
608.70 0.5486
608.80 0.5483
608.90 0.548
609.00 0.5477
609.10 0.5473
609.20 0.547
609.30 0.5467
609.40 0.5463
609.50 0.546
609.60 0.5457
609.70 0.5454
609.80 0.545
609.90 0.5447
610.00 0.5444
610.10 0.544
610.20 0.5437
610.30 0.5434
610.40 0.5431
610.50 0.5427
610.60 0.5424
610.70 0.5421
610.80 0.5418
610.90 0.5414
611.00 0.5411
611.10 0.5408
611.20 0.5405
611.30 0.5401
611.40 0.5398
611.50 0.5395
611.60 0.5392
611.70 0.5388
611.80 0.5385
611.90 0.5382
612.00 0.5379
612.10 0.5375
612.20 0.5372
612.30 0.5369
612.40 0.5366
612.50 0.5362
612.60 0.5359
612.70 0.5356
612.80 0.5353
612.90 0.535
613.00 0.5346
613.10 0.5343
613.20 0.534
613.30 0.5337
613.40 0.5333
613.50 0.533
613.60 0.5327
613.70 0.5324
613.80 0.532
613.90 0.5317
614.00 0.5314
614.10 0.5311
614.20 0.5307
614.30 0.5304
614.40 0.5301
614.50 0.5298
614.60 0.5295
614.70 0.5291
614.80 0.5288
614.90 0.5285
615.00 0.5282
615.10 0.5279
615.20 0.5275
615.30 0.5272
615.40 0.5269
615.50 0.5266
615.60 0.5263
615.70 0.5259
615.80 0.5256
615.90 0.5253
616.00 0.525
616.10 0.5246
616.20 0.5243
616.30 0.524
616.40 0.5237
616.50 0.5233
616.60 0.523
616.70 0.5227
616.80 0.5224
616.90 0.522
617.00 0.5217
617.10 0.5214
617.20 0.5211
617.30 0.5207
617.40 0.5204
617.50 0.5201
617.60 0.5198
617.70 0.5195
617.80 0.5191
617.90 0.5188
618.00 0.5185
618.10 0.5182
618.20 0.5178
618.30 0.5175
618.40 0.5172
618.50 0.5169
618.60 0.5166
618.70 0.5162
618.80 0.5159
618.90 0.5156
619.00 0.5153
619.10 0.5149
619.20 0.5146
619.30 0.5143
619.40 0.514
619.50 0.5137
619.60 0.5133
619.70 0.513
619.80 0.5127
619.90 0.5124
620.00 0.5121
620.10 0.5118
620.20 0.5114
620.30 0.5111
620.40 0.5108
620.50 0.5105
620.60 0.5101
620.70 0.5098
620.80 0.5095
620.90 0.5092
621.00 0.5088
621.10 0.5085
621.20 0.5082
621.30 0.5079
621.40 0.5075
621.50 0.5072
621.60 0.5069
621.70 0.5066
621.80 0.5062
621.90 0.5059
622.00 0.5056
622.10 0.5053
622.20 0.5049
622.30 0.5046
622.40 0.5043
622.50 0.504
622.60 0.5036
622.70 0.5033
622.80 0.503
622.90 0.5027
623.00 0.5024
623.10 0.502
623.20 0.5017
623.30 0.5014
623.40 0.5011
623.50 0.5007
623.60 0.5004
623.70 0.5001
623.80 0.4997
623.90 0.4994
624.00 0.4991
624.10 0.4988
624.20 0.4984
624.30 0.4981
624.40 0.4978
624.50 0.4974
624.60 0.4971
624.70 0.4968
624.80 0.4965
624.90 0.4961
625.00 0.4958
625.10 0.4955
625.20 0.4951
625.30 0.4948
625.40 0.4945
625.50 0.4941
625.60 0.4938
625.70 0.4935
625.80 0.4931
625.90 0.4928
626.00 0.4925
626.10 0.4921
626.20 0.4918
626.30 0.4915
626.40 0.4912
626.50 0.4908
626.60 0.4905
626.70 0.4902
626.80 0.4898
626.90 0.4895
627.00 0.4892
627.10 0.4888
627.20 0.4885
627.30 0.4882
627.40 0.4878
627.50 0.4875
627.60 0.4872
627.70 0.4868
627.80 0.4865
627.90 0.4861
628.00 0.4858
628.10 0.4855
628.20 0.4851
628.30 0.4848
628.40 0.4844
628.50 0.4841
628.60 0.4838
628.70 0.4834
628.80 0.4831
628.90 0.4827
629.00 0.4824
629.10 0.4821
629.20 0.4817
629.30 0.4814
629.40 0.481
629.50 0.4807
629.60 0.4803
629.70 0.48
629.80 0.4796
629.90 0.4793
630.00 0.479
630.10 0.4786
630.20 0.4783
630.30 0.4779
630.40 0.4776
630.50 0.4772
630.60 0.4769
630.70 0.4765
630.80 0.4762
630.90 0.4758
631.00 0.4755
631.10 0.4751
631.20 0.4747
631.30 0.4744
631.40 0.474
631.50 0.4737
631.60 0.4733
631.70 0.4729
631.80 0.4726
631.90 0.4722
632.00 0.4719
632.10 0.4715
632.20 0.4712
632.30 0.4708
632.40 0.4704
632.50 0.4701
632.60 0.4697
632.70 0.4693
632.80 0.4689
632.90 0.4686
633.00 0.4682
633.10 0.4678
633.20 0.4675
633.30 0.4671
633.40 0.4667
633.50 0.4663
633.60 0.466
633.70 0.4656
633.80 0.4652
633.90 0.4648
634.00 0.4644
634.10 0.464
634.20 0.4637
634.30 0.4633
634.40 0.4629
634.50 0.4625
634.60 0.4621
634.70 0.4617
634.80 0.4613
634.90 0.4609
635.00 0.4605
635.10 0.4601
635.20 0.4597
635.30 0.4594
635.40 0.4589
635.50 0.4585
635.60 0.4581
635.70 0.4577
635.80 0.4573
635.90 0.4569
636.00 0.4565
636.10 0.4561
636.20 0.4557
636.30 0.4553
636.40 0.4549
636.50 0.4544
636.60 0.454
636.70 0.4536
636.80 0.4532
636.90 0.4528
637.00 0.4523
637.10 0.4519
637.20 0.4515
637.30 0.4511
637.40 0.4506
637.50 0.4502
637.60 0.4497
637.70 0.4493
637.80 0.4488
637.90 0.4484
638.00 0.4479
638.10 0.4475
638.20 0.4471
638.30 0.4466
638.40 0.4461
638.50 0.4457
638.60 0.4452
638.70 0.4447
638.80 0.4443
638.90 0.4438
639.00 0.4433
639.10 0.4429
639.20 0.4424
639.30 0.4419
639.40 0.4414
639.50 0.441
639.60 0.4405
639.70 0.44
639.80 0.4395
639.90 0.439
640.00 0.4385
640.10 0.438
640.20 0.4375
640.30 0.437
640.40 0.4365
640.50 0.436
640.60 0.4354
640.70 0.4349
640.80 0.4344
640.90 0.4339
641.00 0.4334
641.10 0.4328
641.20 0.4323
641.30 0.4318
641.40 0.4312
641.50 0.4307
641.60 0.4301
641.70 0.4296
641.80 0.429
641.90 0.4285
642.00 0.4279
642.10 0.4274
642.20 0.4268
642.30 0.4262
642.40 0.4256
642.50 0.4251
642.60 0.4245
642.70 0.4239
642.80 0.4233
642.90 0.4227
643.00 0.4221
643.10 0.4215
643.20 0.4209
643.30 0.4203
643.40 0.4197
643.50 0.419
643.60 0.4184
643.70 0.4178
643.80 0.4171
643.90 0.4165
644.00 0.4159
644.10 0.4152
644.20 0.4146
644.30 0.4139
644.40 0.4133
644.50 0.4126
644.60 0.4119
644.70 0.4112
644.80 0.4105
644.90 0.4098
645.00 0.4092
645.10 0.4085
645.20 0.4078
645.30 0.4071
645.40 0.4063
645.50 0.4056
645.60 0.4049
645.70 0.4041
645.80 0.4034
645.90 0.4027
646.00 0.4019
646.10 0.4012
646.20 0.4004
646.30 0.3997
646.40 0.3989
646.50 0.3981
646.60 0.3973
646.70 0.3965
646.80 0.3957
646.90 0.3949
647.00 0.3941
647.10 0.3933
647.20 0.3925
647.30 0.3917
647.40 0.3908
647.50 0.3899
647.60 0.389
647.70 0.3881
647.80 0.3872
647.90 0.3863
648.00 0.3854
648.10 0.3845
648.20 0.3836
648.30 0.3827
648.40 0.3817
648.50 0.3807
648.60 0.3797
648.70 0.3787
648.80 0.3777
648.90 0.3767
649.00 0.3757
649.10 0.3747
649.20 0.3737
649.30 0.3726
649.40 0.3715
649.50 0.3704
649.60 0.3692
649.70 0.3681
649.80 0.367
649.90 0.3658
650.00 0.3647
650.10 0.3636
650.20 0.3624
650.30 0.3613
650.40 0.36
650.50 0.3587
650.60 0.3574
650.70 0.3561
650.80 0.3548
650.90 0.3535
651.00 0.3522
651.10 0.3509
651.20 0.3496
651.30 0.3483
651.40 0.3468
651.50 0.3454
651.60 0.3439
651.70 0.3424
651.80 0.341
651.90 0.3395
652.00 0.3381
652.10 0.3366
652.20 0.3351
652.30 0.3336
652.40 0.332
652.50 0.3303
652.60 0.3286
652.70 0.327
652.80 0.3253
652.90 0.3236
653.00 0.3219
653.10 0.3203
653.20 0.3186
653.30 0.3169
653.40 0.3149
653.50 0.3129
653.60 0.3109
653.70 0.309
653.80 0.307
653.90 0.305
654.00 0.303
654.10 0.301
654.20 0.2991
654.30 0.297
654.40 0.2948
654.50 0.2925
654.60 0.2903
654.70 0.2881
654.80 0.2857
654.90 0.2832
655.00 0.2806
655.10 0.278
655.20 0.2754
655.30 0.2728
655.40 0.2698
655.50 0.2668
655.60 0.2633
655.70 0.2596
655.80 0.2553
655.90 0.2501
656.00 0.2422
656.10 0.2331
656.20 0.2111
656.30 0.1915
656.40 0.2218
656.50 0.2367
656.60 0.2445
656.70 0.2516
656.80 0.2558
656.90 0.2598
657.00 0.263
657.10 0.2661
657.20 0.2688
657.30 0.2715
657.40 0.2738
657.50 0.2761
657.60 0.2784
657.70 0.2807
657.80 0.283
657.90 0.2849
658.00 0.2869
658.10 0.2889
658.20 0.2908
658.30 0.2927
658.40 0.2944
658.50 0.296
658.60 0.2977
658.70 0.2994
658.80 0.301
658.90 0.3027
659.00 0.3044
659.10 0.306
659.20 0.3077
659.30 0.3093
659.40 0.3106
659.50 0.3119
659.60 0.3133
659.70 0.3146
659.80 0.3159
659.90 0.3173
660.00 0.3186
660.10 0.3199
660.20 0.3212
660.30 0.3225
660.40 0.3236
660.50 0.3247
660.60 0.3258
660.70 0.3269
660.80 0.328
660.90 0.3291
661.00 0.3301
661.10 0.3312
661.20 0.3323
661.30 0.3334
661.40 0.3343
661.50 0.3352
661.60 0.3361
661.70 0.337
661.80 0.3379
661.90 0.3388
662.00 0.3397
662.10 0.3406
662.20 0.3415
662.30 0.3424
662.40 0.3431
662.50 0.3438
662.60 0.3445
662.70 0.3453
662.80 0.346
662.90 0.3467
663.00 0.3474
663.10 0.3481
663.20 0.3489
663.30 0.3496
663.40 0.3501
663.50 0.3507
663.60 0.3513
663.70 0.3519
663.80 0.3525
663.90 0.3531
664.00 0.3536
664.10 0.3542
664.20 0.3548
664.30 0.3554
664.40 0.3558
664.50 0.3563
664.60 0.3567
664.70 0.3572
664.80 0.3576
664.90 0.3581
665.00 0.3585
665.10 0.359
665.20 0.3594
665.30 0.3599
665.40 0.3602
665.50 0.3606
665.60 0.3609
665.70 0.3613
665.80 0.3617
665.90 0.362
666.00 0.3624
666.10 0.3627
666.20 0.3631
666.30 0.3634
666.40 0.3637
666.50 0.364
666.60 0.3643
666.70 0.3646
666.80 0.3648
666.90 0.3651
667.00 0.3654
667.10 0.3657
667.20 0.366
667.30 0.3662
667.40 0.3665
667.50 0.3667
667.60 0.3669
667.70 0.3671
667.80 0.3673
667.90 0.3676
668.00 0.3678
668.10 0.368
668.20 0.3682
668.30 0.3684
668.40 0.3686
668.50 0.3688
668.60 0.3689
668.70 0.3691
668.80 0.3693
668.90 0.3694
669.00 0.3696
669.10 0.3698
669.20 0.3699
669.30 0.3701
669.40 0.3702
669.50 0.3703
669.60 0.3704
669.70 0.3705
669.80 0.3707
669.90 0.3708
670.00 0.3709
670.10 0.371
670.20 0.3711
670.30 0.3712
670.40 0.3713
670.50 0.3714
670.60 0.3715
670.70 0.3715
670.80 0.3716
670.90 0.3717
671.00 0.3718
671.10 0.3718
671.20 0.3719
671.30 0.372
671.40 0.372
671.50 0.372
671.60 0.3721
671.70 0.3721
671.80 0.3722
671.90 0.3722
672.00 0.3722
672.10 0.3723
672.20 0.3723
672.30 0.3724
672.40 0.3724
672.50 0.3724
672.60 0.3724
672.70 0.3724
672.80 0.3724
672.90 0.3724
673.00 0.3724
673.10 0.3724
673.20 0.3724
673.30 0.3724
673.40 0.3724
673.50 0.3724
673.60 0.3724
673.70 0.3724
673.80 0.3723
673.90 0.3723
674.00 0.3723
674.10 0.3723
674.20 0.3723
674.30 0.3723
674.40 0.3722
674.50 0.3722
674.60 0.3721
674.70 0.3721
674.80 0.372
674.90 0.372
675.00 0.372
675.10 0.3719
675.20 0.3719
675.30 0.3718
675.40 0.3718
675.50 0.3717
675.60 0.3717
675.70 0.3716
675.80 0.3715
675.90 0.3715
676.00 0.3714
676.10 0.3713
676.20 0.3713
676.30 0.3712
676.40 0.3711
676.50 0.3711
676.60 0.371
676.70 0.3709
676.80 0.3708
676.90 0.3708
677.00 0.3707
677.10 0.3706
677.20 0.3705
677.30 0.3704
677.40 0.3704
677.50 0.3703
677.60 0.3702
677.70 0.3701
677.80 0.37
677.90 0.3699
678.00 0.3698
678.10 0.3697
678.20 0.3696
678.30 0.3695
678.40 0.3694
678.50 0.3693
678.60 0.3692
678.70 0.3691
678.80 0.369
678.90 0.3689
679.00 0.3688
679.10 0.3687
679.20 0.3686
679.30 0.3685
679.40 0.3684
679.50 0.3683
679.60 0.3681
679.70 0.368
679.80 0.3679
679.90 0.3678
680.00 0.3677
680.10 0.3676
680.20 0.3675
680.30 0.3673
680.40 0.3672
680.50 0.3671
680.60 0.367
680.70 0.3669
680.80 0.3667
680.90 0.3666
681.00 0.3665
681.10 0.3664
681.20 0.3662
681.30 0.3661
681.40 0.366
681.50 0.3659
681.60 0.3657
681.70 0.3656
681.80 0.3655
681.90 0.3653
682.00 0.3652
682.10 0.3651
682.20 0.365
682.30 0.3648
682.40 0.3647
682.50 0.3646
682.60 0.3644
682.70 0.3643
682.80 0.3642
682.90 0.364
683.00 0.3639
683.10 0.3637
683.20 0.3636
683.30 0.3635
683.40 0.3633
683.50 0.3632
683.60 0.3631
683.70 0.3629
683.80 0.3628
683.90 0.3626
684.00 0.3625
684.10 0.3624
684.20 0.3622
684.30 0.3621
684.40 0.3619
684.50 0.3618
684.60 0.3616
684.70 0.3615
684.80 0.3614
684.90 0.3612
685.00 0.3611
685.10 0.3609
685.20 0.3608
685.30 0.3606
685.40 0.3605
685.50 0.3603
685.60 0.3602
685.70 0.36
685.80 0.3599
685.90 0.3597
686.00 0.3596
686.10 0.3595
686.20 0.3593
686.30 0.3592
686.40 0.359
686.50 0.3589
686.60 0.3587
686.70 0.3586
686.80 0.3584
686.90 0.3583
687.00 0.3581
687.10 0.358
687.20 0.3578
687.30 0.3577
687.40 0.3575
687.50 0.3574
687.60 0.3572
687.70 0.357
687.80 0.3569
687.90 0.3567
688.00 0.3566
688.10 0.3564
688.20 0.3563
688.30 0.3561
688.40 0.356
688.50 0.3558
688.60 0.3557
688.70 0.3555
688.80 0.3554
688.90 0.3552
689.00 0.3551
689.10 0.3549
689.20 0.3547
689.30 0.3546
689.40 0.3544
689.50 0.3543
689.60 0.3541
689.70 0.3539
689.80 0.3538
689.90 0.3536
690.00 0.3535
690.10 0.3533
690.20 0.3531
690.30 0.353
690.40 0.3528
690.50 0.3526
690.60 0.3525
690.70 0.3523
690.80 0.3521
690.90 0.352
691.00 0.3518
691.10 0.3517
691.20 0.3515
691.30 0.3513
691.40 0.3512
691.50 0.351
691.60 0.3509
691.70 0.3507
691.80 0.3505
691.90 0.3504
692.00 0.3502
692.10 0.35
692.20 0.3499
692.30 0.3497
692.40 0.3496
692.50 0.3494
692.60 0.3492
692.70 0.3491
692.80 0.3489
692.90 0.3488
693.00 0.3486
693.10 0.3484
693.20 0.3483
693.30 0.3481
693.40 0.348
693.50 0.3478
693.60 0.3476
693.70 0.3475
693.80 0.3473
693.90 0.3472
694.00 0.347
694.10 0.3468
694.20 0.3467
694.30 0.3465
694.40 0.3464
694.50 0.3462
694.60 0.346
694.70 0.3459
694.80 0.3457
694.90 0.3456
695.00 0.3454
695.10 0.3452
695.20 0.3451
695.30 0.3449
695.40 0.3448
695.50 0.3446
695.60 0.3444
695.70 0.3443
695.80 0.3441
695.90 0.344
696.00 0.3438
696.10 0.3437
696.20 0.3435
696.30 0.3433
696.40 0.3432
696.50 0.343
696.60 0.3429
696.70 0.3427
696.80 0.3425
696.90 0.3424
697.00 0.3422
697.10 0.3421
697.20 0.3419
697.30 0.3418
697.40 0.3416
697.50 0.3414
697.60 0.3413
697.70 0.3411
697.80 0.341
697.90 0.3408
698.00 0.3407
698.10 0.3405
698.20 0.3403
698.30 0.3402
698.40 0.34
698.50 0.3399
698.60 0.3397
698.70 0.3396
698.80 0.3394
698.90 0.3393
699.00 0.3391
699.10 0.3389
699.20 0.3388
699.30 0.3386
699.40 0.3385
699.50 0.3383
699.60 0.3382
699.70 0.338
699.80 0.3379
699.90 0.3377
700.00 0.3375
700.10 0.3374
700.20 0.3372
700.30 0.3371
700.40 0.3369
700.50 0.3368
700.60 0.3366
700.70 0.3365
700.80 0.3363
700.90 0.3361
701.00 0.336
701.10 0.3358
701.20 0.3357
701.30 0.3355
701.40 0.3354
701.50 0.3352
701.60 0.3351
701.70 0.3349
701.80 0.3348
701.90 0.3346
702.00 0.3345
702.10 0.3343
702.20 0.3342
702.30 0.334
702.40 0.3338
702.50 0.3337
702.60 0.3335
702.70 0.3334
702.80 0.3332
702.90 0.3331
703.00 0.3329
703.10 0.3328
703.20 0.3326
703.30 0.3325
703.40 0.3323
703.50 0.3322
703.60 0.332
703.70 0.3319
703.80 0.3317
703.90 0.3316
704.00 0.3314
704.10 0.3313
704.20 0.3311
704.30 0.3309
704.40 0.3308
704.50 0.3306
704.60 0.3305
704.70 0.3303
704.80 0.3302
704.90 0.33
705.00 0.3299
705.10 0.3297
705.20 0.3296
705.30 0.3294
705.40 0.3292
705.50 0.3291
705.60 0.3289
705.70 0.3288
705.80 0.3286
705.90 0.3285
706.00 0.3283
706.10 0.3281
706.20 0.328
706.30 0.3278
706.40 0.3277
706.50 0.3275
706.60 0.3273
706.70 0.3272
706.80 0.327
706.90 0.3269
707.00 0.3267
707.10 0.3266
707.20 0.3264
707.30 0.3262
707.40 0.3261
707.50 0.3259
707.60 0.3258
707.70 0.3256
707.80 0.3255
707.90 0.3253
708.00 0.3251
708.10 0.325
708.20 0.3248
708.30 0.3247
708.40 0.3245
708.50 0.3244
708.60 0.3242
708.70 0.324
708.80 0.3239
708.90 0.3237
709.00 0.3236
709.10 0.3234
709.20 0.3233
709.30 0.3231
709.40 0.323
709.50 0.3228
709.60 0.3226
709.70 0.3225
709.80 0.3223
709.90 0.3222
710.00 0.322
710.10 0.3219
710.20 0.3217
710.30 0.3216
710.40 0.3214
710.50 0.3212
710.60 0.3211
710.70 0.3209
710.80 0.3208
710.90 0.3206
711.00 0.3205
711.10 0.3203
711.20 0.3202
711.30 0.32
711.40 0.3198
711.50 0.3197
711.60 0.3195
711.70 0.3194
711.80 0.3192
711.90 0.3191
712.00 0.3189
712.10 0.3188
712.20 0.3186
712.30 0.3185
712.40 0.3183
712.50 0.3182
712.60 0.318
712.70 0.3178
712.80 0.3177
712.90 0.3175
713.00 0.3174
713.10 0.3172
713.20 0.3171
713.30 0.3169
713.40 0.3168
713.50 0.3166
713.60 0.3165
713.70 0.3163
713.80 0.3162
713.90 0.316
714.00 0.3159
714.10 0.3157
714.20 0.3155
714.30 0.3154
714.40 0.3152
714.50 0.3151
714.60 0.3149
714.70 0.3148
714.80 0.3146
714.90 0.3145
715.00 0.3143
715.10 0.3142
715.20 0.314
715.30 0.3139
715.40 0.3138
715.50 0.3136
715.60 0.3135
715.70 0.3133
715.80 0.3132
715.90 0.313
716.00 0.3129
716.10 0.3128
716.20 0.3126
716.30 0.3125
716.40 0.3123
716.50 0.3122
716.60 0.3121
716.70 0.3119
716.80 0.3118
716.90 0.3116
717.00 0.3115
717.10 0.3113
717.20 0.3112
717.30 0.3111
717.40 0.3109
717.50 0.3108
717.60 0.3106
717.70 0.3105
717.80 0.3104
717.90 0.3102
718.00 0.3101
718.10 0.3099
718.20 0.3098
718.30 0.3097
718.40 0.3095
718.50 0.3094
718.60 0.3092
718.70 0.3091
718.80 0.309
718.90 0.3088
719.00 0.3087
719.10 0.3085
719.20 0.3084
719.30 0.3083
719.40 0.3081
719.50 0.308
719.60 0.3078
719.70 0.3077
719.80 0.3076
719.90 0.3074
720.00 0.3073
720.10 0.3071
720.20 0.307
720.30 0.3068
720.40 0.3067
720.50 0.3065
720.60 0.3064
720.70 0.3062
720.80 0.3061
720.90 0.3059
721.00 0.3058
721.10 0.3056
721.20 0.3055
721.30 0.3053
721.40 0.3052
721.50 0.305
721.60 0.3049
721.70 0.3047
721.80 0.3046
721.90 0.3044
722.00 0.3043
722.10 0.3041
722.20 0.304
722.30 0.3038
722.40 0.3037
722.50 0.3036
722.60 0.3034
722.70 0.3033
722.80 0.3031
722.90 0.303
723.00 0.3028
723.10 0.3027
723.20 0.3025
723.30 0.3024
723.40 0.3022
723.50 0.3021
723.60 0.3019
723.70 0.3018
723.80 0.3016
723.90 0.3015
724.00 0.3013
724.10 0.3012
724.20 0.301
724.30 0.3009
724.40 0.3007
724.50 0.3006
724.60 0.3005
724.70 0.3003
724.80 0.3002
724.90 0.3
725.00 0.2999
725.10 0.2997
725.20 0.2996
725.30 0.2994
725.40 0.2993
725.50 0.2991
725.60 0.299
725.70 0.2989
725.80 0.2987
725.90 0.2986
726.00 0.2984
726.10 0.2983
726.20 0.2981
726.30 0.298
726.40 0.2978
726.50 0.2977
726.60 0.2975
726.70 0.2974
726.80 0.2973
726.90 0.2971
727.00 0.297
727.10 0.2968
727.20 0.2967
727.30 0.2965
727.40 0.2964
727.50 0.2963
727.60 0.2961
727.70 0.296
727.80 0.2958
727.90 0.2957
728.00 0.2955
728.10 0.2954
728.20 0.2952
728.30 0.2951
728.40 0.295
728.50 0.2948
728.60 0.2947
728.70 0.2945
728.80 0.2944
728.90 0.2942
729.00 0.2941
729.10 0.294
729.20 0.2938
729.30 0.2937
729.40 0.2935
729.50 0.2934
729.60 0.2932
729.70 0.2931
729.80 0.293
729.90 0.2928
730.00 0.2927
730.10 0.2925
730.20 0.2924
730.30 0.2923
730.40 0.2921
730.50 0.292
730.60 0.2918
730.70 0.2917
730.80 0.2916
730.90 0.2914
731.00 0.2913
731.10 0.2911
731.20 0.291
731.30 0.2909
731.40 0.2907
731.50 0.2906
731.60 0.2904
731.70 0.2903
731.80 0.2902
731.90 0.29
732.00 0.2899
732.10 0.2897
732.20 0.2896
732.30 0.2895
732.40 0.2893
732.50 0.2892
732.60 0.289
732.70 0.2889
732.80 0.2888
732.90 0.2886
733.00 0.2885
733.10 0.2883
733.20 0.2882
733.30 0.2881
733.40 0.2879
733.50 0.2878
733.60 0.2877
733.70 0.2875
733.80 0.2874
733.90 0.2872
734.00 0.2871
734.10 0.287
734.20 0.2868
734.30 0.2867
734.40 0.2865
734.50 0.2864
734.60 0.2863
734.70 0.2861
734.80 0.286
734.90 0.2859
735.00 0.2857
735.10 0.2856
735.20 0.2854
735.30 0.2853
735.40 0.2852
735.50 0.285
735.60 0.2849
735.70 0.2848
735.80 0.2846
735.90 0.2845
736.00 0.2844
736.10 0.2842
736.20 0.2841
736.30 0.2839
736.40 0.2838
736.50 0.2837
736.60 0.2835
736.70 0.2834
736.80 0.2833
736.90 0.2831
737.00 0.283
737.10 0.2829
737.20 0.2827
737.30 0.2826
737.40 0.2824
737.50 0.2823
737.60 0.2822
737.70 0.282
737.80 0.2819
737.90 0.2818
738.00 0.2816
738.10 0.2815
738.20 0.2814
738.30 0.2812
738.40 0.2811
738.50 0.281
738.60 0.2808
738.70 0.2807
738.80 0.2805
738.90 0.2804
739.00 0.2803
739.10 0.2801
739.20 0.28
739.30 0.2799
739.40 0.2797
739.50 0.2796
739.60 0.2795
739.70 0.2793
739.80 0.2792
739.90 0.2791
740.00 0.2789
740.10 0.2788
740.20 0.2787
740.30 0.2785
740.40 0.2784
740.50 0.2783
740.60 0.2781
740.70 0.278
740.80 0.2779
740.90 0.2777
741.00 0.2776
741.10 0.2775
741.20 0.2773
741.30 0.2772
741.40 0.2771
741.50 0.277
741.60 0.2768
741.70 0.2767
741.80 0.2766
741.90 0.2764
742.00 0.2763
742.10 0.2762
742.20 0.276
742.30 0.2759
742.40 0.2758
742.50 0.2756
742.60 0.2755
742.70 0.2754
742.80 0.2752
742.90 0.2751
743.00 0.275
743.10 0.2749
743.20 0.2747
743.30 0.2746
743.40 0.2745
743.50 0.2743
743.60 0.2742
743.70 0.2741
743.80 0.2739
743.90 0.2738
744.00 0.2737
744.10 0.2736
744.20 0.2734
744.30 0.2733
744.40 0.2732
744.50 0.273
744.60 0.2729
744.70 0.2728
744.80 0.2726
744.90 0.2725
745.00 0.2724
745.10 0.2723
745.20 0.2721
745.30 0.272
745.40 0.2719
745.50 0.2717
745.60 0.2716
745.70 0.2715
745.80 0.2714
745.90 0.2712
746.00 0.2711
746.10 0.271
746.20 0.2708
746.30 0.2707
746.40 0.2706
746.50 0.2705
746.60 0.2703
746.70 0.2702
746.80 0.2701
746.90 0.2699
747.00 0.2698
747.10 0.2697
747.20 0.2696
747.30 0.2694
747.40 0.2693
747.50 0.2692
747.60 0.269
747.70 0.2689
747.80 0.2688
747.90 0.2687
748.00 0.2685
748.10 0.2684
748.20 0.2683
748.30 0.2681
748.40 0.268
748.50 0.2679
748.60 0.2678
748.70 0.2676
748.80 0.2675
748.90 0.2674
749.00 0.2673
749.10 0.2671
749.20 0.267
749.30 0.2669
749.40 0.2667
749.50 0.2666
749.60 0.2665
749.70 0.2664
749.80 0.2662
749.90 0.2661
750.00 0.266
750.10 0.2659
750.20 0.2657
750.30 0.2656
750.40 0.2655
750.50 0.2654
750.60 0.2652
750.70 0.2651
750.80 0.265
750.90 0.2649
751.00 0.2647
751.10 0.2646
751.20 0.2645
751.30 0.2644
751.40 0.2642
751.50 0.2641
751.60 0.264
751.70 0.2639
751.80 0.2638
751.90 0.2636
752.00 0.2635
752.10 0.2634
752.20 0.2633
752.30 0.2631
752.40 0.263
752.50 0.2629
752.60 0.2628
752.70 0.2626
752.80 0.2625
752.90 0.2624
753.00 0.2623
753.10 0.2621
753.20 0.262
753.30 0.2619
753.40 0.2618
753.50 0.2617
753.60 0.2615
753.70 0.2614
753.80 0.2613
753.90 0.2612
754.00 0.261
754.10 0.2609
754.20 0.2608
754.30 0.2607
754.40 0.2606
754.50 0.2604
754.60 0.2603
754.70 0.2602
754.80 0.2601
754.90 0.2599
755.00 0.2598
755.10 0.2597
755.20 0.2596
755.30 0.2595
755.40 0.2593
755.50 0.2592
755.60 0.2591
755.70 0.259
755.80 0.2588
755.90 0.2587
756.00 0.2586
756.10 0.2585
756.20 0.2584
756.30 0.2582
756.40 0.2581
756.50 0.258
756.60 0.2579
756.70 0.2578
756.80 0.2576
756.90 0.2575
757.00 0.2574
757.10 0.2573
757.20 0.2572
757.30 0.257
757.40 0.2569
757.50 0.2568
757.60 0.2567
757.70 0.2565
757.80 0.2564
757.90 0.2563
758.00 0.2562
758.10 0.2561
758.20 0.2559
758.30 0.2558
758.40 0.2557
758.50 0.2556
758.60 0.2555
758.70 0.2553
758.80 0.2552
758.90 0.2551
759.00 0.255
759.10 0.2549
759.20 0.2547
759.30 0.2546
759.40 0.2545
759.50 0.2544
759.60 0.2543
759.70 0.2542
759.80 0.254
759.90 0.2539
760.00 0.2538
760.10 0.2537
760.20 0.2536
760.30 0.2534
760.40 0.2533
760.50 0.2532
760.60 0.2531
760.70 0.253
760.80 0.2529
760.90 0.2527
761.00 0.2526
761.10 0.2525
761.20 0.2524
761.30 0.2523
761.40 0.2522
761.50 0.252
761.60 0.2519
761.70 0.2518
761.80 0.2517
761.90 0.2516
762.00 0.2515
762.10 0.2513
762.20 0.2512
762.30 0.2511
762.40 0.251
762.50 0.2509
762.60 0.2508
762.70 0.2506
762.80 0.2505
762.90 0.2504
763.00 0.2503
763.10 0.2502
763.20 0.2501
763.30 0.2499
763.40 0.2498
763.50 0.2497
763.60 0.2496
763.70 0.2495
763.80 0.2494
763.90 0.2492
764.00 0.2491
764.10 0.249
764.20 0.2489
764.30 0.2488
764.40 0.2487
764.50 0.2486
764.60 0.2484
764.70 0.2483
764.80 0.2482
764.90 0.2481
765.00 0.248
765.10 0.2479
765.20 0.2477
765.30 0.2476
765.40 0.2475
765.50 0.2474
765.60 0.2473
765.70 0.2472
765.80 0.2471
765.90 0.2469
766.00 0.2468
766.10 0.2467
766.20 0.2466
766.30 0.2465
766.40 0.2464
766.50 0.2463
766.60 0.2461
766.70 0.246
766.80 0.2459
766.90 0.2458
767.00 0.2457
767.10 0.2456
767.20 0.2455
767.30 0.2453
767.40 0.2452
767.50 0.2451
767.60 0.245
767.70 0.2449
767.80 0.2448
767.90 0.2447
768.00 0.2445
768.10 0.2444
768.20 0.2443
768.30 0.2442
768.40 0.2441
768.50 0.244
768.60 0.2439
768.70 0.2438
768.80 0.2436
768.90 0.2435
769.00 0.2434
769.10 0.2433
769.20 0.2432
769.30 0.2431
769.40 0.243
769.50 0.2429
769.60 0.2427
769.70 0.2426
769.80 0.2425
769.90 0.2424
770.00 0.2423
770.10 0.2422
770.20 0.2421
770.30 0.242
770.40 0.2418
770.50 0.2417
770.60 0.2416
770.70 0.2415
770.80 0.2414
770.90 0.2413
771.00 0.2412
771.10 0.2411
771.20 0.241
771.30 0.2409
771.40 0.2407
771.50 0.2406
771.60 0.2405
771.70 0.2404
771.80 0.2403
771.90 0.2402
772.00 0.2401
772.10 0.24
772.20 0.2399
772.30 0.2398
772.40 0.2396
772.50 0.2395
772.60 0.2394
772.70 0.2393
772.80 0.2392
772.90 0.2391
773.00 0.239
773.10 0.2389
773.20 0.2388
773.30 0.2387
773.40 0.2385
773.50 0.2384
773.60 0.2383
773.70 0.2382
773.80 0.2381
773.90 0.238
774.00 0.2379
774.10 0.2378
774.20 0.2377
774.30 0.2376
774.40 0.2375
774.50 0.2373
774.60 0.2372
774.70 0.2371
774.80 0.237
774.90 0.2369
775.00 0.2368
775.10 0.2367
775.20 0.2366
775.30 0.2365
775.40 0.2364
775.50 0.2363
775.60 0.2362
775.70 0.236
775.80 0.2359
775.90 0.2358
776.00 0.2357
776.10 0.2356
776.20 0.2355
776.30 0.2354
776.40 0.2353
776.50 0.2352
776.60 0.2351
776.70 0.235
776.80 0.2349
776.90 0.2347
777.00 0.2346
777.10 0.2345
777.20 0.2344
777.30 0.2343
777.40 0.2342
777.50 0.2341
777.60 0.234
777.70 0.2339
777.80 0.2338
777.90 0.2337
778.00 0.2336
778.10 0.2335
778.20 0.2334
778.30 0.2332
778.40 0.2331
778.50 0.233
778.60 0.2329
778.70 0.2328
778.80 0.2327
778.90 0.2326
779.00 0.2325
779.10 0.2324
779.20 0.2323
779.30 0.2322
779.40 0.2321
779.50 0.232
779.60 0.2319
779.70 0.2318
779.80 0.2316
779.90 0.2315
780.00 0.2314
780.10 0.2313
780.20 0.2312
780.30 0.2311
780.40 0.231
780.50 0.2309
780.60 0.2308
780.70 0.2307
780.80 0.2306
780.90 0.2305
781.00 0.2304
781.10 0.2303
781.20 0.2302
781.30 0.2301
781.40 0.23
781.50 0.2299
781.60 0.2298
781.70 0.2297
781.80 0.2296
781.90 0.2295
782.00 0.2293
782.10 0.2292
782.20 0.2291
782.30 0.229
782.40 0.2289
782.50 0.2288
782.60 0.2287
782.70 0.2286
782.80 0.2285
782.90 0.2284
783.00 0.2283
783.10 0.2282
783.20 0.2281
783.30 0.228
783.40 0.2279
783.50 0.2278
783.60 0.2277
783.70 0.2276
783.80 0.2275
783.90 0.2274
784.00 0.2273
784.10 0.2272
784.20 0.2271
784.30 0.227
784.40 0.2269
784.50 0.2268
784.60 0.2267
784.70 0.2266
784.80 0.2265
784.90 0.2264
785.00 0.2263
785.10 0.2262
785.20 0.226
785.30 0.2259
785.40 0.2258
785.50 0.2257
785.60 0.2256
785.70 0.2255
785.80 0.2254
785.90 0.2253
786.00 0.2252
786.10 0.2251
786.20 0.225
786.30 0.2249
786.40 0.2248
786.50 0.2247
786.60 0.2246
786.70 0.2245
786.80 0.2244
786.90 0.2243
787.00 0.2242
787.10 0.2241
787.20 0.224
787.30 0.2239
787.40 0.2238
787.50 0.2237
787.60 0.2236
787.70 0.2235
787.80 0.2234
787.90 0.2233
788.00 0.2232
788.10 0.2231
788.20 0.223
788.30 0.2229
788.40 0.2228
788.50 0.2227
788.60 0.2226
788.70 0.2225
788.80 0.2224
788.90 0.2223
789.00 0.2222
789.10 0.2221
789.20 0.222
789.30 0.2219
789.40 0.2218
789.50 0.2217
789.60 0.2216
789.70 0.2215
789.80 0.2214
789.90 0.2213
790.00 0.2212
790.10 0.2211
790.20 0.221
790.30 0.2209
790.40 0.2208
790.50 0.2207
790.60 0.2206
790.70 0.2205
790.80 0.2204
790.90 0.2203
791.00 0.2202
791.10 0.2201
791.20 0.22
791.30 0.2199
791.40 0.2198
791.50 0.2197
791.60 0.2196
791.70 0.2195
791.80 0.2194
791.90 0.2193
792.00 0.2192
792.10 0.2191
792.20 0.219
792.30 0.2189
792.40 0.2188
792.50 0.2187
792.60 0.2186
792.70 0.2185
792.80 0.2184
792.90 0.2183
793.00 0.2182
793.10 0.2181
793.20 0.218
793.30 0.2179
793.40 0.2178
793.50 0.2177
793.60 0.2176
793.70 0.2176
793.80 0.2175
793.90 0.2174
794.00 0.2173
794.10 0.2172
794.20 0.2171
794.30 0.217
794.40 0.2169
794.50 0.2168
794.60 0.2167
794.70 0.2166
794.80 0.2165
794.90 0.2164
795.00 0.2163
795.10 0.2162
795.20 0.2161
795.30 0.216
795.40 0.2159
795.50 0.2158
795.60 0.2157
795.70 0.2156
795.80 0.2155
795.90 0.2154
796.00 0.2153
796.10 0.2152
796.20 0.2151
796.30 0.215
796.40 0.2149
796.50 0.2148
796.60 0.2147
796.70 0.2146
796.80 0.2146
796.90 0.2145
797.00 0.2144
797.10 0.2143
797.20 0.2142
797.30 0.2141
797.40 0.214
797.50 0.2139
797.60 0.2138
797.70 0.2137
797.80 0.2136
797.90 0.2135
798.00 0.2134
798.10 0.2133
798.20 0.2132
798.30 0.2131
798.40 0.213
798.50 0.2129
798.60 0.2128
798.70 0.2127
798.80 0.2126
798.90 0.2125
799.00 0.2124
799.10 0.2124
799.20 0.2123
799.30 0.2122
799.40 0.2121
799.50 0.212
799.60 0.2119
799.70 0.2118
799.80 0.2117
799.90 0.2116
800.00 0.2115
800.10 0.2114
800.20 0.2113
800.30 0.2112
800.40 0.2111
800.50 0.211
800.60 0.2109
800.70 0.2108
800.80 0.2107
800.90 0.2107
801.00 0.2106
801.10 0.2105
801.20 0.2104
801.30 0.2103
801.40 0.2102
801.50 0.2101
801.60 0.21
801.70 0.2099
801.80 0.2098
801.90 0.2097
802.00 0.2096
802.10 0.2095
802.20 0.2094
802.30 0.2094
802.40 0.2093
802.50 0.2092
802.60 0.2091
802.70 0.209
802.80 0.2089
802.90 0.2088
803.00 0.2087
803.10 0.2086
803.20 0.2085
803.30 0.2084
803.40 0.2083
803.50 0.2082
803.60 0.2082
803.70 0.2081
803.80 0.208
803.90 0.2079
804.00 0.2078
804.10 0.2077
804.20 0.2076
804.30 0.2075
804.40 0.2074
804.50 0.2073
804.60 0.2072
804.70 0.2071
804.80 0.2071
804.90 0.207
805.00 0.2069
805.10 0.2068
805.20 0.2067
805.30 0.2066
805.40 0.2065
805.50 0.2064
805.60 0.2063
805.70 0.2062
805.80 0.2061
805.90 0.206
806.00 0.206
806.10 0.2059
806.20 0.2058
806.30 0.2057
806.40 0.2056
806.50 0.2055
806.60 0.2054
806.70 0.2053
806.80 0.2052
806.90 0.2051
807.00 0.205
807.10 0.205
807.20 0.2049
807.30 0.2048
807.40 0.2047
807.50 0.2046
807.60 0.2045
807.70 0.2044
807.80 0.2043
807.90 0.2042
808.00 0.2041
808.10 0.204
808.20 0.204
808.30 0.2039
808.40 0.2038
808.50 0.2037
808.60 0.2036
808.70 0.2035
808.80 0.2034
808.90 0.2033
809.00 0.2032
809.10 0.2031
809.20 0.2031
809.30 0.203
809.40 0.2029
809.50 0.2028
809.60 0.2027
809.70 0.2026
809.80 0.2025
809.90 0.2024
810.00 0.2023
810.10 0.2022
810.20 0.2022
810.30 0.2021
810.40 0.202
810.50 0.2019
810.60 0.2018
810.70 0.2017
810.80 0.2016
810.90 0.2015
811.00 0.2015
811.10 0.2014
811.20 0.2013
811.30 0.2012
811.40 0.2011
811.50 0.201
811.60 0.2009
811.70 0.2008
811.80 0.2007
811.90 0.2007
812.00 0.2006
812.10 0.2005
812.20 0.2004
812.30 0.2003
812.40 0.2002
812.50 0.2001
812.60 0.2
812.70 0.2
812.80 0.1999
812.90 0.1998
813.00 0.1997
813.10 0.1996
813.20 0.1995
813.30 0.1994
813.40 0.1993
813.50 0.1993
813.60 0.1992
813.70 0.1991
813.80 0.199
813.90 0.1989
814.00 0.1988
814.10 0.1987
814.20 0.1987
814.30 0.1986
814.40 0.1985
814.50 0.1984
814.60 0.1983
814.70 0.1982
814.80 0.1981
814.90 0.198
815.00 0.198
815.10 0.1979
815.20 0.1978
815.30 0.1977
815.40 0.1976
815.50 0.1975
815.60 0.1974
815.70 0.1974
815.80 0.1973
815.90 0.1972
816.00 0.1971
816.10 0.197
816.20 0.1969
816.30 0.1968
816.40 0.1967
816.50 0.1967
816.60 0.1966
816.70 0.1965
816.80 0.1964
816.90 0.1963
817.00 0.1962
817.10 0.1961
817.20 0.1961
817.30 0.196
817.40 0.1959
817.50 0.1958
817.60 0.1957
817.70 0.1956
817.80 0.1955
817.90 0.1955
818.00 0.1954
818.10 0.1953
818.20 0.1952
818.30 0.1951
818.40 0.195
818.50 0.1949
818.60 0.1949
818.70 0.1948
818.80 0.1947
818.90 0.1946
819.00 0.1945
819.10 0.1944
819.20 0.1943
819.30 0.1943
819.40 0.1942
819.50 0.1941
819.60 0.194
819.70 0.1939
819.80 0.1938
819.90 0.1938
820.00 0.1937
820.10 0.1936
820.20 0.1935
820.30 0.1934
820.40 0.1933
820.50 0.1933
820.60 0.1932
820.70 0.1931
820.80 0.193
820.90 0.1929
821.00 0.1928
821.10 0.1928
821.20 0.1927
821.30 0.1926
821.40 0.1925
821.50 0.1924
821.60 0.1923
821.70 0.1923
821.80 0.1922
821.90 0.1921
822.00 0.192
822.10 0.1919
822.20 0.1918
822.30 0.1918
822.40 0.1917
822.50 0.1916
822.60 0.1915
822.70 0.1914
822.80 0.1913
822.90 0.1913
823.00 0.1912
823.10 0.1911
823.20 0.191
823.30 0.1909
823.40 0.1908
823.50 0.1908
823.60 0.1907
823.70 0.1906
823.80 0.1905
823.90 0.1904
824.00 0.1903
824.10 0.1903
824.20 0.1902
824.30 0.1901
824.40 0.19
824.50 0.1899
824.60 0.1899
824.70 0.1898
824.80 0.1897
824.90 0.1896
825.00 0.1895
825.10 0.1894
825.20 0.1894
825.30 0.1893
825.40 0.1892
825.50 0.1891
825.60 0.189
825.70 0.189
825.80 0.1889
825.90 0.1888
826.00 0.1887
826.10 0.1886
826.20 0.1885
826.30 0.1885
826.40 0.1884
826.50 0.1883
826.60 0.1882
826.70 0.1881
826.80 0.1881
826.90 0.188
827.00 0.1879
827.10 0.1878
827.20 0.1877
827.30 0.1876
827.40 0.1876
827.50 0.1875
827.60 0.1874
827.70 0.1873
827.80 0.1872
827.90 0.1872
828.00 0.1871
828.10 0.187
828.20 0.1869
828.30 0.1868
828.40 0.1868
828.50 0.1867
828.60 0.1866
828.70 0.1865
828.80 0.1864
828.90 0.1864
829.00 0.1863
829.10 0.1862
829.20 0.1861
829.30 0.186
829.40 0.186
829.50 0.1859
829.60 0.1858
829.70 0.1857
829.80 0.1856
829.90 0.1856
830.00 0.1855
830.10 0.1854
830.20 0.1853
830.30 0.1852
830.40 0.1852
830.50 0.1851
830.60 0.185
830.70 0.1849
830.80 0.1848
830.90 0.1848
831.00 0.1847
831.10 0.1846
831.20 0.1845
831.30 0.1844
831.40 0.1844
831.50 0.1843
831.60 0.1842
831.70 0.1841
831.80 0.184
831.90 0.184
832.00 0.1839
832.10 0.1838
832.20 0.1837
832.30 0.1836
832.40 0.1836
832.50 0.1835
832.60 0.1834
832.70 0.1833
832.80 0.1833
832.90 0.1832
833.00 0.1831
833.10 0.183
833.20 0.1829
833.30 0.1829
833.40 0.1828
833.50 0.1827
833.60 0.1826
833.70 0.1826
833.80 0.1825
833.90 0.1824
834.00 0.1823
834.10 0.1822
834.20 0.1822
834.30 0.1821
834.40 0.182
834.50 0.1819
834.60 0.1818
834.70 0.1818
834.80 0.1817
834.90 0.1816
835.00 0.1815
835.10 0.1815
835.20 0.1814
835.30 0.1813
835.40 0.1812
835.50 0.1811
835.60 0.1811
835.70 0.181
835.80 0.1809
835.90 0.1808
836.00 0.1808
836.10 0.1807
836.20 0.1806
836.30 0.1805
836.40 0.1804
836.50 0.1804
836.60 0.1803
836.70 0.1802
836.80 0.1801
836.90 0.1801
837.00 0.18
837.10 0.1799
837.20 0.1798
837.30 0.1798
837.40 0.1797
837.50 0.1796
837.60 0.1795
837.70 0.1795
837.80 0.1794
837.90 0.1793
838.00 0.1792
838.10 0.1791
838.20 0.1791
838.30 0.179
838.40 0.1789
838.50 0.1788
838.60 0.1788
838.70 0.1787
838.80 0.1786
838.90 0.1785
839.00 0.1785
839.10 0.1784
839.20 0.1783
839.30 0.1782
839.40 0.1782
839.50 0.1781
839.60 0.178
839.70 0.1779
839.80 0.1779
839.90 0.1778
840.00 0.1777
840.10 0.1776
840.20 0.1775
840.30 0.1775
840.40 0.1774
840.50 0.1773
840.60 0.1772
840.70 0.1772
840.80 0.1771
840.90 0.177
841.00 0.1769
841.10 0.1769
841.20 0.1768
841.30 0.1767
841.40 0.1766
841.50 0.1766
841.60 0.1765
841.70 0.1764
841.80 0.1763
841.90 0.1763
842.00 0.1762
842.10 0.1761
842.20 0.176
842.30 0.176
842.40 0.1759
842.50 0.1758
842.60 0.1757
842.70 0.1757
842.80 0.1756
842.90 0.1755
843.00 0.1754
843.10 0.1754
843.20 0.1753
843.30 0.1752
843.40 0.1751
843.50 0.1751
843.60 0.175
843.70 0.1749
843.80 0.1749
843.90 0.1748
844.00 0.1747
844.10 0.1746
844.20 0.1746
844.30 0.1745
844.40 0.1744
844.50 0.1743
844.60 0.1743
844.70 0.1742
844.80 0.1741
844.90 0.174
845.00 0.174
845.10 0.1739
845.20 0.1738
845.30 0.1737
845.40 0.1737
845.50 0.1736
845.60 0.1735
845.70 0.1734
845.80 0.1734
845.90 0.1733
846.00 0.1732
846.10 0.1732
846.20 0.1731
846.30 0.173
846.40 0.1729
846.50 0.1729
846.60 0.1728
846.70 0.1727
846.80 0.1726
846.90 0.1726
847.00 0.1725
847.10 0.1724
847.20 0.1724
847.30 0.1723
847.40 0.1722
847.50 0.1721
847.60 0.1721
847.70 0.172
847.80 0.1719
847.90 0.1718
848.00 0.1718
848.10 0.1717
848.20 0.1716
848.30 0.1716
848.40 0.1715
848.50 0.1714
848.60 0.1713
848.70 0.1713
848.80 0.1712
848.90 0.1711
849.00 0.1711
849.10 0.171
849.20 0.1709
849.30 0.1708
849.40 0.1708
849.50 0.1707
849.60 0.1706
849.70 0.1706
849.80 0.1705
849.90 0.1704
850.00 0.1703
850.10 0.1703
850.20 0.1702
850.30 0.1701
850.40 0.1701
850.50 0.17
850.60 0.1699
850.70 0.1699
850.80 0.1698
850.90 0.1697
851.00 0.1696
851.10 0.1696
851.20 0.1695
851.30 0.1694
851.40 0.1694
851.50 0.1693
851.60 0.1692
851.70 0.1691
851.80 0.1691
851.90 0.169
852.00 0.1689
852.10 0.1689
852.20 0.1688
852.30 0.1687
852.40 0.1687
852.50 0.1686
852.60 0.1685
852.70 0.1684
852.80 0.1684
852.90 0.1683
853.00 0.1682
853.10 0.1682
853.20 0.1681
853.30 0.168
853.40 0.168
853.50 0.1679
853.60 0.1678
853.70 0.1677
853.80 0.1677
853.90 0.1676
854.00 0.1675
854.10 0.1675
854.20 0.1674
854.30 0.1673
854.40 0.1673
854.50 0.1672
854.60 0.1671
854.70 0.1671
854.80 0.167
854.90 0.1669
855.00 0.1668
855.10 0.1668
855.20 0.1667
855.30 0.1666
855.40 0.1666
855.50 0.1665
855.60 0.1664
855.70 0.1664
855.80 0.1663
855.90 0.1662
856.00 0.1662
856.10 0.1661
856.20 0.166
856.30 0.166
856.40 0.1659
856.50 0.1658
856.60 0.1657
856.70 0.1657
856.80 0.1656
856.90 0.1655
857.00 0.1655
857.10 0.1654
857.20 0.1653
857.30 0.1653
857.40 0.1652
857.50 0.1651
857.60 0.1651
857.70 0.165
857.80 0.1649
857.90 0.1649
858.00 0.1648
858.10 0.1647
858.20 0.1647
858.30 0.1646
858.40 0.1645
858.50 0.1645
858.60 0.1644
858.70 0.1643
858.80 0.1643
858.90 0.1642
859.00 0.1641
859.10 0.1641
859.20 0.164
859.30 0.1639
859.40 0.1639
859.50 0.1638
859.60 0.1637
859.70 0.1637
859.80 0.1636
859.90 0.1635
860.00 0.1635
860.10 0.1634
860.20 0.1633
860.30 0.1633
860.40 0.1632
860.50 0.1631
860.60 0.1631
860.70 0.163
860.80 0.1629
860.90 0.1629
861.00 0.1628
861.10 0.1627
861.20 0.1627
861.30 0.1626
861.40 0.1625
861.50 0.1625
861.60 0.1624
861.70 0.1623
861.80 0.1623
861.90 0.1622
862.00 0.1621
862.10 0.1621
862.20 0.162
862.30 0.1619
862.40 0.1619
862.50 0.1618
862.60 0.1617
862.70 0.1617
862.80 0.1616
862.90 0.1615
863.00 0.1615
863.10 0.1614
863.20 0.1614
863.30 0.1613
863.40 0.1612
863.50 0.1612
863.60 0.1611
863.70 0.161
863.80 0.161
863.90 0.1609
864.00 0.1608
864.10 0.1608
864.20 0.1607
864.30 0.1606
864.40 0.1606
864.50 0.1605
864.60 0.1604
864.70 0.1604
864.80 0.1603
864.90 0.1603
865.00 0.1602
865.10 0.1601
865.20 0.1601
865.30 0.16
865.40 0.1599
865.50 0.1599
865.60 0.1598
865.70 0.1597
865.80 0.1597
865.90 0.1596
866.00 0.1595
866.10 0.1595
866.20 0.1594
866.30 0.1594
866.40 0.1593
866.50 0.1592
866.60 0.1592
866.70 0.1591
866.80 0.159
866.90 0.159
867.00 0.1589
867.10 0.1588
867.20 0.1588
867.30 0.1587
867.40 0.1587
867.50 0.1586
867.60 0.1585
867.70 0.1585
867.80 0.1584
867.90 0.1584
868.00 0.1583
868.10 0.1582
868.20 0.1582
868.30 0.1581
868.40 0.158
868.50 0.158
868.60 0.1579
868.70 0.1579
868.80 0.1578
868.90 0.1577
869.00 0.1577
869.10 0.1576
869.20 0.1576
869.30 0.1575
869.40 0.1574
869.50 0.1574
869.60 0.1573
869.70 0.1572
869.80 0.1572
869.90 0.1571
870.00 0.1571
870.10 0.157
870.20 0.1569
870.30 0.1569
870.40 0.1568
870.50 0.1568
870.60 0.1567
870.70 0.1566
870.80 0.1566
870.90 0.1565
871.00 0.1565
871.10 0.1564
871.20 0.1563
871.30 0.1563
871.40 0.1562
871.50 0.1561
871.60 0.1561
871.70 0.156
871.80 0.156
871.90 0.1559
872.00 0.1558
872.10 0.1558
872.20 0.1557
872.30 0.1557
872.40 0.1556
872.50 0.1555
872.60 0.1555
872.70 0.1554
872.80 0.1554
872.90 0.1553
873.00 0.1552
873.10 0.1552
873.20 0.1551
873.30 0.1551
873.40 0.155
873.50 0.1549
873.60 0.1549
873.70 0.1548
873.80 0.1548
873.90 0.1547
874.00 0.1546
874.10 0.1546
874.20 0.1545
874.30 0.1545
874.40 0.1544
874.50 0.1543
874.60 0.1543
874.70 0.1542
874.80 0.1542
874.90 0.1541
875.00 0.1541
875.10 0.154
875.20 0.1539
875.30 0.1539
875.40 0.1538
875.50 0.1538
875.60 0.1537
875.70 0.1536
875.80 0.1536
875.90 0.1535
876.00 0.1535
876.10 0.1534
876.20 0.1533
876.30 0.1533
876.40 0.1532
876.50 0.1532
876.60 0.1531
876.70 0.153
876.80 0.153
876.90 0.1529
877.00 0.1529
877.10 0.1528
877.20 0.1528
877.30 0.1527
877.40 0.1526
877.50 0.1526
877.60 0.1525
877.70 0.1525
877.80 0.1524
877.90 0.1524
878.00 0.1523
878.10 0.1522
878.20 0.1522
878.30 0.1521
878.40 0.1521
878.50 0.152
878.60 0.152
878.70 0.1519
878.80 0.1519
878.90 0.1518
879.00 0.1517
879.10 0.1517
879.20 0.1516
879.30 0.1516
879.40 0.1515
879.50 0.1515
879.60 0.1514
879.70 0.1514
879.80 0.1513
879.90 0.1512
880.00 0.1512
880.10 0.1511
880.20 0.1511
880.30 0.151
880.40 0.151
880.50 0.1509
880.60 0.1509
880.70 0.1508
880.80 0.1507
880.90 0.1507
881.00 0.1506
881.10 0.1506
881.20 0.1505
881.30 0.1505
881.40 0.1504
881.50 0.1504
881.60 0.1503
881.70 0.1502
881.80 0.1502
881.90 0.1501
882.00 0.1501
882.10 0.15
882.20 0.15
882.30 0.1499
882.40 0.1498
882.50 0.1498
882.60 0.1497
882.70 0.1497
882.80 0.1496
882.90 0.1495
883.00 0.1495
883.10 0.1494
883.20 0.1494
883.30 0.1493
883.40 0.1493
883.50 0.1492
883.60 0.1491
883.70 0.1491
883.80 0.149
883.90 0.149
884.00 0.1489
884.10 0.1488
884.20 0.1488
884.30 0.1487
884.40 0.1487
884.50 0.1486
884.60 0.1486
884.70 0.1485
884.80 0.1484
884.90 0.1484
885.00 0.1483
885.10 0.1483
885.20 0.1482
885.30 0.1481
885.40 0.1481
885.50 0.148
885.60 0.148
885.70 0.1479
885.80 0.1479
885.90 0.1478
886.00 0.1477
886.10 0.1477
886.20 0.1476
886.30 0.1476
886.40 0.1475
886.50 0.1474
886.60 0.1474
886.70 0.1473
886.80 0.1473
886.90 0.1472
887.00 0.1472
887.10 0.1471
887.20 0.1471
887.30 0.147
887.40 0.147
887.50 0.1469
887.60 0.1469
887.70 0.1468
887.80 0.1468
887.90 0.1467
888.00 0.1467
888.10 0.1466
888.20 0.1466
888.30 0.1465
888.40 0.1465
888.50 0.1464
888.60 0.1464
888.70 0.1463
888.80 0.1463
888.90 0.1463
889.00 0.1462
889.10 0.1462
889.20 0.1461
889.30 0.1461
889.40 0.146
889.50 0.146
889.60 0.1459
889.70 0.1459
889.80 0.1458
889.90 0.1458
890.00 0.1457
890.10 0.1457
890.20 0.1456
890.30 0.1456
890.40 0.1455
890.50 0.1455
890.60 0.1455
890.70 0.1454
890.80 0.1454
890.90 0.1453
891.00 0.1453
891.10 0.1452
891.20 0.1452
891.30 0.1451
891.40 0.1451
891.50 0.145
891.60 0.145
891.70 0.1449
891.80 0.1449
891.90 0.1448
892.00 0.1448
892.10 0.1447
892.20 0.1447
892.30 0.1446
892.40 0.1446
892.50 0.1445
892.60 0.1445
892.70 0.1444
892.80 0.1444
892.90 0.1443
893.00 0.1443
893.10 0.1442
893.20 0.1442
893.30 0.1441
893.40 0.1441
893.50 0.144
893.60 0.144
893.70 0.1439
893.80 0.1439
893.90 0.1438
894.00 0.1438
894.10 0.1437
894.20 0.1437
894.30 0.1436
894.40 0.1436
894.50 0.1435
894.60 0.1435
894.70 0.1434
894.80 0.1434
894.90 0.1433
895.00 0.1433
895.10 0.1432
895.20 0.1432
895.30 0.1431
895.40 0.1431
895.50 0.143
895.60 0.143
895.70 0.1429
895.80 0.1429
895.90 0.1428
896.00 0.1428
896.10 0.1427
896.20 0.1427
896.30 0.1426
896.40 0.1426
896.50 0.1425
896.60 0.1425
896.70 0.1424
896.80 0.1424
896.90 0.1423
897.00 0.1423
897.10 0.1422
897.20 0.1422
897.30 0.1421
897.40 0.142
897.50 0.142
897.60 0.1419
897.70 0.1418
897.80 0.1418
897.90 0.1417
898.00 0.1417
898.10 0.1416
898.20 0.1415
898.30 0.1415
898.40 0.1414
898.50 0.1413
898.60 0.1413
898.70 0.1412
898.80 0.1412
898.90 0.1411
899.00 0.141
899.10 0.141
899.20 0.1409
899.30 0.1408
899.40 0.1408
899.50 0.1407
899.60 0.1407
899.70 0.1406
899.80 0.1405
899.90 0.1405
900.00 0.1404
900.10 0.1403
900.20 0.1403
900.30 0.1402
900.40 0.1402
900.50 0.1401
900.60 0.14
900.70 0.14
900.80 0.1399
900.90 0.1398
901.00 0.1398
901.10 0.1397
901.20 0.1397
901.30 0.1396
901.40 0.1395
901.50 0.1395
901.60 0.1394
901.70 0.1393
901.80 0.1393
901.90 0.1392
902.00 0.1392
902.10 0.1391
902.20 0.1391
902.30 0.1391
902.40 0.139
902.50 0.139
902.60 0.139
902.70 0.1389
902.80 0.1389
902.90 0.1389
903.00 0.1388
903.10 0.1388
903.20 0.1387
903.30 0.1387
903.40 0.1387
903.50 0.1386
903.60 0.1386
903.70 0.1386
903.80 0.1385
903.90 0.1385
904.00 0.1385
904.10 0.1384
904.20 0.1384
904.30 0.1384
904.40 0.1383
904.50 0.1383
904.60 0.1383
904.70 0.1382
904.80 0.1382
904.90 0.1382
905.00 0.1381
905.10 0.1381
905.20 0.1381
905.30 0.138
905.40 0.138
905.50 0.138
905.60 0.1379
905.70 0.1379
905.80 0.1379
905.90 0.1378
906.00 0.1378
906.10 0.1377
906.20 0.1377
906.30 0.1377
906.40 0.1376
906.50 0.1376
906.60 0.1376
906.70 0.1375
906.80 0.1375
906.90 0.1375
907.00 0.1374
907.10 0.1374
907.20 0.1374
907.30 0.1373
907.40 0.1373
907.50 0.1372
907.60 0.1372
907.70 0.1372
907.80 0.1371
907.90 0.1371
908.00 0.137
908.10 0.137
908.20 0.1369
908.30 0.1369
908.40 0.1369
908.50 0.1368
908.60 0.1368
908.70 0.1367
908.80 0.1367
908.90 0.1367
909.00 0.1366
909.10 0.1366
909.20 0.1365
909.30 0.1365
909.40 0.1365
909.50 0.1364
909.60 0.1364
909.70 0.1363
909.80 0.1363
909.90 0.1363
910.00 0.1362
910.10 0.1362
910.20 0.1361
910.30 0.1361
910.40 0.136
910.50 0.136
910.60 0.136
910.70 0.1359
910.80 0.1359
910.90 0.1358
911.00 0.1358
911.10 0.1358
911.20 0.1357
911.30 0.1357
911.40 0.1356
911.50 0.1356
911.60 0.1356
911.70 0.1355
911.80 0.1355
911.90 0.1354
912.00 0.1354
912.10 0.1353
912.20 0.1353
912.30 0.1352
912.40 0.1352
912.50 0.1352
912.60 0.1351
912.70 0.1351
912.80 0.135
912.90 0.135
913.00 0.1349
913.10 0.1349
913.20 0.1348
913.30 0.1348
913.40 0.1347
913.50 0.1347
913.60 0.1346
913.70 0.1346
913.80 0.1345
913.90 0.1345
914.00 0.1344
914.10 0.1344
914.20 0.1343
914.30 0.1343
914.40 0.1342
914.50 0.1342
914.60 0.1341
914.70 0.1341
914.80 0.134
914.90 0.134
915.00 0.1339
915.10 0.1339
915.20 0.1338
915.30 0.1338
915.40 0.1337
915.50 0.1337
915.60 0.1336
915.70 0.1336
915.80 0.1335
915.90 0.1335
916.00 0.1334
916.10 0.1334
916.20 0.1333
916.30 0.1333
916.40 0.1332
916.50 0.1332
916.60 0.1331
916.70 0.1331
916.80 0.133
916.90 0.133
917.00 0.1329
917.10 0.1329
917.20 0.1328
917.30 0.1327
917.40 0.1327
917.50 0.1326
917.60 0.1326
917.70 0.1325
917.80 0.1324
917.90 0.1324
918.00 0.1323
918.10 0.1322
918.20 0.1322
918.30 0.1321
918.40 0.132
918.50 0.132
918.60 0.1319
918.70 0.1318
918.80 0.1318
918.90 0.1317
919.00 0.1317
919.10 0.1316
919.20 0.1315
919.30 0.1315
919.40 0.1314
919.50 0.1313
919.60 0.1313
919.70 0.1312
919.80 0.1311
919.90 0.1311
920.00 0.131
920.10 0.131
920.20 0.1309
920.30 0.1308
920.40 0.1308
920.50 0.1307
920.60 0.1306
920.70 0.1306
920.80 0.1305
920.90 0.1304
921.00 0.1304
921.10 0.1303
921.20 0.1303
921.30 0.1302
921.40 0.1301
921.50 0.1301
921.60 0.13
921.70 0.1299
921.80 0.1299
921.90 0.1298
922.00 0.1297
922.10 0.1297
922.20 0.1296
922.30 0.1295
922.40 0.1295
922.50 0.1294
922.60 0.1293
922.70 0.1293
922.80 0.1292
922.90 0.1291
923.00 0.1291
923.10 0.129
923.20 0.1289
923.30 0.1289
923.40 0.1288
923.50 0.1287
923.60 0.1287
923.70 0.1286
923.80 0.1285
923.90 0.1285
924.00 0.1284
924.10 0.1283
924.20 0.1283
924.30 0.1282
924.40 0.1281
924.50 0.1281
924.60 0.128
924.70 0.1279
924.80 0.1279
924.90 0.1278
925.00 0.1277
925.10 0.1277
925.20 0.1276
925.30 0.1275
925.40 0.1275
925.50 0.1274
925.60 0.1273
925.70 0.1273
925.80 0.1272
925.90 0.1271
926.00 0.1271
926.10 0.127
926.20 0.1269
926.30 0.1269
926.40 0.1268
926.50 0.1267
926.60 0.1267
926.70 0.1266
926.80 0.1265
926.90 0.1265
927.00 0.1264
927.10 0.1264
927.20 0.1264
927.30 0.1264
927.40 0.1264
927.50 0.1264
927.60 0.1264
927.70 0.1263
927.80 0.1263
927.90 0.1263
928.00 0.1263
928.10 0.1263
928.20 0.1263
928.30 0.1263
928.40 0.1263
928.50 0.1263
928.60 0.1263
928.70 0.1263
928.80 0.1262
928.90 0.1262
929.00 0.1262
929.10 0.1262
929.20 0.1262
929.30 0.1262
929.40 0.1262
929.50 0.1262
929.60 0.1262
929.70 0.1262
929.80 0.1262
929.90 0.1262
930.00 0.1261
930.10 0.1261
930.20 0.1261
930.30 0.1261
930.40 0.1261
930.50 0.1261
930.60 0.1261
930.70 0.1261
930.80 0.1261
930.90 0.1261
931.00 0.1261
931.10 0.126
931.20 0.126
931.30 0.126
931.40 0.126
931.50 0.126
931.60 0.126
931.70 0.126
931.80 0.126
931.90 0.126
932.00 0.126
932.10 0.1259
932.20 0.1259
932.30 0.1259
932.40 0.1259
932.50 0.1258
932.60 0.1258
932.70 0.1258
932.80 0.1258
932.90 0.1257
933.00 0.1257
933.10 0.1257
933.20 0.1257
933.30 0.1256
933.40 0.1256
933.50 0.1256
933.60 0.1256
933.70 0.1255
933.80 0.1255
933.90 0.1255
934.00 0.1255
934.10 0.1254
934.20 0.1254
934.30 0.1254
934.40 0.1254
934.50 0.1253
934.60 0.1253
934.70 0.1253
934.80 0.1252
934.90 0.1252
935.00 0.1252
935.10 0.1251
935.20 0.1251
935.30 0.1251
935.40 0.125
935.50 0.125
935.60 0.125
935.70 0.1249
935.80 0.1249
935.90 0.1249
936.00 0.1248
936.10 0.1248
936.20 0.1248
936.30 0.1247
936.40 0.1247
936.50 0.1247
936.60 0.1246
936.70 0.1246
936.80 0.1246
936.90 0.1245
937.00 0.1245
937.10 0.1245
937.20 0.1244
937.30 0.1244
937.40 0.1243
937.50 0.1243
937.60 0.1243
937.70 0.1242
937.80 0.1242
937.90 0.1241
938.00 0.1241
938.10 0.1241
938.20 0.124
938.30 0.124
938.40 0.1239
938.50 0.1239
938.60 0.1239
938.70 0.1238
938.80 0.1238
938.90 0.1237
939.00 0.1237
939.10 0.1236
939.20 0.1236
939.30 0.1236
939.40 0.1235
939.50 0.1235
939.60 0.1234
939.70 0.1234
939.80 0.1233
939.90 0.1233
940.00 0.1233
940.10 0.1232
940.20 0.1232
940.30 0.1231
940.40 0.1231
940.50 0.123
940.60 0.123
940.70 0.1229
940.80 0.1229
940.90 0.1228
941.00 0.1228
941.10 0.1227
941.20 0.1227
941.30 0.1226
941.40 0.1226
941.50 0.1225
941.60 0.1225
941.70 0.1225
941.80 0.1224
941.90 0.1224
942.00 0.1223
942.10 0.1223
942.20 0.1222
942.30 0.1221
942.40 0.1221
942.50 0.122
942.60 0.122
942.70 0.1219
942.80 0.1219
942.90 0.1218
943.00 0.1217
943.10 0.1217
943.20 0.1216
943.30 0.1216
943.40 0.1215
943.50 0.1214
943.60 0.1214
943.70 0.1213
943.80 0.1213
943.90 0.1212
944.00 0.1212
944.10 0.1211
944.20 0.121
944.30 0.121
944.40 0.1209
944.50 0.1208
944.60 0.1208
944.70 0.1207
944.80 0.1206
944.90 0.1206
945.00 0.1205
945.10 0.1204
945.20 0.1204
945.30 0.1203
945.40 0.1202
945.50 0.1201
945.60 0.12
945.70 0.12
945.80 0.1199
945.90 0.1198
946.00 0.1197
946.10 0.1196
946.20 0.1195
946.30 0.1195
946.40 0.1194
946.50 0.1193
946.60 0.1192
946.70 0.1191
946.80 0.1191
946.90 0.119
947.00 0.1189
947.10 0.1188
947.20 0.1187
947.30 0.1186
947.40 0.1185
947.50 0.1184
947.60 0.1183
947.70 0.1182
947.80 0.1181
947.90 0.118
948.00 0.1179
948.10 0.1178
948.20 0.1177
948.30 0.1176
948.40 0.1175
948.50 0.1174
948.60 0.1173
948.70 0.1171
948.80 0.117
948.90 0.1169
949.00 0.1168
949.10 0.1167
949.20 0.1166
949.30 0.1165
949.40 0.1164
949.50 0.1163
949.60 0.1162
949.70 0.1161
949.80 0.1159
949.90 0.1158
950.00 0.1157
950.10 0.1156
950.20 0.1155
950.30 0.1154
950.40 0.1152
950.50 0.1151
950.60 0.115
950.70 0.1149
950.80 0.1148
950.90 0.1147
951.00 0.1146
951.10 0.1144
951.20 0.1143
951.30 0.1142
951.40 0.1141
951.50 0.114
951.60 0.1139
951.70 0.1138
951.80 0.1137
951.90 0.1136
952.00 0.1135
952.10 0.1134
952.20 0.1134
952.30 0.1133
952.40 0.1132
952.50 0.1132
952.60 0.1131
952.70 0.113
952.80 0.1129
952.90 0.1129
953.00 0.1129
953.10 0.1129
953.20 0.1129
953.30 0.1129
953.40 0.1128
953.50 0.1128
953.60 0.113
953.70 0.1132
953.80 0.1134
953.90 0.1135
954.00 0.1138
954.10 0.1141
954.20 0.1143
954.30 0.1126
954.40 0.1108
954.50 0.1106
954.60 0.1102
954.70 0.1099
954.80 0.1097
954.90 0.1094
955.00 0.1091
955.10 0.1089
955.20 0.1087
955.30 0.1085
955.40 0.1083
955.50 0.1082
955.60 0.108
955.70 0.1078
955.80 0.1076
955.90 0.1076
956.00 0.1076
956.10 0.1075
956.20 0.1075
956.30 0.1074
956.40 0.1074
956.50 0.1073
956.60 0.1073
956.70 0.1072
956.80 0.1072
956.90 0.1071
957.00 0.1071
957.10 0.1071
957.20 0.1071
957.30 0.1071
957.40 0.1071
957.50 0.1072
957.60 0.1072
957.70 0.1072
957.80 0.1072
957.90 0.1073
958.00 0.1073
958.10 0.1073
958.20 0.1073
958.30 0.1074
958.40 0.1074
958.50 0.1074
958.60 0.1074
958.70 0.1075
958.80 0.1075
958.90 0.1075
959.00 0.1075
959.10 0.1076
959.20 0.1076
959.30 0.1076
959.40 0.1077
959.50 0.1077
959.60 0.1077
959.70 0.1078
959.80 0.1078
959.90 0.1078
960.00 0.1079
960.10 0.1079
960.20 0.1079
960.30 0.108
960.40 0.108
960.50 0.108
960.60 0.1081
960.70 0.1081
960.80 0.1082
960.90 0.1082
961.00 0.1082
961.10 0.1083
961.20 0.1083
961.30 0.1083
961.40 0.1084
961.50 0.1084
961.60 0.1084
961.70 0.1085
961.80 0.1085
961.90 0.1085
962.00 0.1086
962.10 0.1086
962.20 0.1086
962.30 0.1086
962.40 0.1087
962.50 0.1087
962.60 0.1087
962.70 0.1088
962.80 0.1088
962.90 0.1088
963.00 0.1088
963.10 0.1089
963.20 0.1089
963.30 0.1089
963.40 0.109
963.50 0.109
963.60 0.109
963.70 0.109
963.80 0.109
963.90 0.1091
964.00 0.1091
964.10 0.1091
964.20 0.1091
964.30 0.1092
964.40 0.1092
964.50 0.1092
964.60 0.1092
964.70 0.1092
964.80 0.1092
964.90 0.1092
965.00 0.1093
965.10 0.1093
965.20 0.1093
965.30 0.1093
965.40 0.1093
965.50 0.1093
965.60 0.1093
965.70 0.1094
965.80 0.1094
965.90 0.1094
966.00 0.1094
966.10 0.1094
966.20 0.1094
966.30 0.1094
966.40 0.1094
966.50 0.1095
966.60 0.1095
966.70 0.1095
966.80 0.1095
966.90 0.1095
967.00 0.1095
967.10 0.1095
967.20 0.1095
967.30 0.1095
967.40 0.1095
967.50 0.1095
967.60 0.1095
967.70 0.1095
967.80 0.1095
967.90 0.1095
968.00 0.1095
968.10 0.1095
968.20 0.1095
968.30 0.1095
968.40 0.1095
968.50 0.1095
968.60 0.1095
968.70 0.1095
968.80 0.1095
968.90 0.1095
969.00 0.1094
969.10 0.1094
969.20 0.1094
969.30 0.1094
969.40 0.1094
969.50 0.1094
969.60 0.1094
969.70 0.1094
969.80 0.1094
969.90 0.1094
970.00 0.1094
970.10 0.1094
970.20 0.1094
970.30 0.1094
970.40 0.1093
970.50 0.1093
970.60 0.1093
970.70 0.1093
970.80 0.1093
970.90 0.1093
971.00 0.1092
971.10 0.1092
971.20 0.1092
971.30 0.1092
971.40 0.1092
971.50 0.1092
971.60 0.1092
971.70 0.1091
971.80 0.1091
971.90 0.1091
972.00 0.1091
972.10 0.1091
972.20 0.1091
972.30 0.109
972.40 0.109
972.50 0.109
972.60 0.109
972.70 0.1089
972.80 0.1089
972.90 0.1089
973.00 0.1089
973.10 0.1089
973.20 0.1088
973.30 0.1088
973.40 0.1088
973.50 0.1088
973.60 0.1087
973.70 0.1087
973.80 0.1087
973.90 0.1087
974.00 0.1087
974.10 0.1086
974.20 0.1086
974.30 0.1086
974.40 0.1086
974.50 0.1085
974.60 0.1085
974.70 0.1085
974.80 0.1084
974.90 0.1084
975.00 0.1084
975.10 0.1083
975.20 0.1083
975.30 0.1083
975.40 0.1083
975.50 0.1082
975.60 0.1082
975.70 0.1082
975.80 0.1081
975.90 0.1081
976.00 0.1081
976.10 0.108
976.20 0.108
976.30 0.108
976.40 0.108
976.50 0.1079
976.60 0.1079
976.70 0.1079
976.80 0.1078
976.90 0.1078
977.00 0.1078
977.10 0.1077
977.20 0.1077
977.30 0.1077
977.40 0.1076
977.50 0.1076
977.60 0.1075
977.70 0.1075
977.80 0.1075
977.90 0.1074
978.00 0.1074
978.10 0.1073
978.20 0.1073
978.30 0.1072
978.40 0.1072
978.50 0.1072
978.60 0.1071
978.70 0.1071
978.80 0.107
978.90 0.107
979.00 0.107
979.10 0.1069
979.20 0.1069
979.30 0.1068
979.40 0.1068
979.50 0.1068
979.60 0.1067
979.70 0.1067
979.80 0.1066
979.90 0.1066
980.00 0.1066
980.10 0.1065
980.20 0.1065
980.30 0.1064
980.40 0.1064
980.50 0.1064
980.60 0.1063
980.70 0.1063
980.80 0.1062
980.90 0.1062
981.00 0.1062
981.10 0.1061
981.20 0.1061
981.30 0.106
981.40 0.106
981.50 0.1059
981.60 0.1059
981.70 0.1059
981.80 0.1058
981.90 0.1058
982.00 0.1057
982.10 0.1057
982.20 0.1056
982.30 0.1056
982.40 0.1055
982.50 0.1055
982.60 0.1054
982.70 0.1054
982.80 0.1053
982.90 0.1053
983.00 0.1052
983.10 0.1052
983.20 0.1051
983.30 0.1051
983.40 0.105
983.50 0.105
983.60 0.1049
983.70 0.1048
983.80 0.1048
983.90 0.1047
984.00 0.1047
984.10 0.1046
984.20 0.1046
984.30 0.1045
984.40 0.1045
984.50 0.1044
984.60 0.1044
984.70 0.1043
984.80 0.1042
984.90 0.1042
985.00 0.1041
985.10 0.1041
985.20 0.104
985.30 0.1039
985.40 0.1039
985.50 0.1038
985.60 0.1037
985.70 0.1037
985.80 0.1036
985.90 0.1035
986.00 0.1035
986.10 0.1034
986.20 0.1033
986.30 0.1033
986.40 0.1032
986.50 0.1032
986.60 0.1031
986.70 0.103
986.80 0.103
986.90 0.1029
987.00 0.1028
987.10 0.1028
987.20 0.1027
987.30 0.1026
987.40 0.1025
987.50 0.1025
987.60 0.1024
987.70 0.1023
987.80 0.1022
987.90 0.1022
988.00 0.1021
988.10 0.102
988.20 0.1019
988.30 0.1019
988.40 0.1018
988.50 0.1017
988.60 0.1016
988.70 0.1015
988.80 0.1014
988.90 0.1014
989.00 0.1013
989.10 0.1012
989.20 0.1011
989.30 0.101
989.40 0.1009
989.50 0.1008
989.60 0.1007
989.70 0.1006
989.80 0.1006
989.90 0.1005
990.00 0.1004
990.10 0.1003
990.20 0.1002
990.30 0.1001
990.40 0.1
990.50 0.09994
990.60 0.09985
990.70 0.09975
990.80 0.09965
990.90 0.09955
991.00 0.09944
991.10 0.09934
991.20 0.09924
991.30 0.09913
991.40 0.09903
991.50 0.09893
991.60 0.09882
991.70 0.09872
991.80 0.09862
991.90 0.09852
992.00 0.09841
992.10 0.0983
992.20 0.09819
992.30 0.09808
992.40 0.09797
992.50 0.09785
992.60 0.09774
992.70 0.09762
992.80 0.0975
992.90 0.09737
993.00 0.09725
993.10 0.09712
993.20 0.097
993.30 0.09687
993.40 0.09675
993.50 0.09663
993.60 0.0965
993.70 0.09638
993.80 0.09625
993.90 0.09613
994.00 0.09601
994.10 0.09588
994.20 0.09576
994.30 0.09563
994.40 0.09551
994.50 0.09539
994.60 0.09526
994.70 0.09513
994.80 0.09499
994.90 0.09486
995.00 0.09472
995.10 0.09458
995.20 0.09445
995.30 0.09431
995.40 0.09417
995.50 0.09404
995.60 0.0939
995.70 0.09376
995.80 0.09361
995.90 0.09347
996.00 0.09332
996.10 0.09318
996.20 0.09303
996.30 0.09289
996.40 0.09275
996.50 0.0926
996.60 0.09246
996.70 0.09231
996.80 0.09217
996.90 0.09202
997.00 0.09188
997.10 0.09173
997.20 0.09158
997.30 0.09143
997.40 0.09128
997.50 0.09113
997.60 0.09099
997.70 0.09084
997.80 0.09069
997.90 0.09054
998.00 0.09039
998.10 0.09024
998.20 0.09009
998.30 0.08994
998.40 0.08979
998.50 0.08964
998.60 0.08949
998.70 0.08934
998.80 0.08919
998.90 0.08904
999.00 0.08889
999.10 0.08874
999.20 0.08859
999.30 0.08844
999.40 0.08829
999.50 0.08814
999.60 0.08799
999.70 0.08786
999.80 0.08772
999.90 0.08759
1000.00 0.08745
1000.10 0.08732
1000.20 0.08718
1000.30 0.08705
1000.40 0.08691
1000.50 0.08678
1000.60 0.08665
1000.70 0.08651
1000.80 0.08638
1000.90 0.08624
1001.00 0.08611
1001.10 0.08598
1001.20 0.08584
1001.30 0.08571
1001.40 0.08557
1001.50 0.08544
1001.60 0.08531
1001.70 0.08519
1001.80 0.08508
1001.90 0.08498
1002.00 0.08487
1002.10 0.08479
1002.20 0.08472
1002.30 0.08465
1002.40 0.08457
1002.50 0.0845
1002.60 0.08443
1002.70 0.08435
1002.80 0.08428
1002.90 0.08421
1003.00 0.08413
1003.10 0.08406
1003.20 0.08413
1003.30 0.08424
1003.40 0.08436
1003.50 0.08447
1003.60 0.08458
1003.70 0.0847
1003.80 0.08481
1003.90 0.08504
1004.00 0.0853
1004.10 0.08557
1004.20 0.08583
1004.30 0.08617
1004.40 0.08653
1004.50 0.08687
1004.60 0.0871
1004.70 0.08486
1004.80 0.08453
1004.90 0.08416
1005.00 0.08379
1005.10 0.08349
1005.20 0.08322
1005.30 0.08295
1005.40 0.08268
1005.50 0.08252
1005.60 0.0824
1005.70 0.08228
1005.80 0.08215
1005.90 0.08203
1006.00 0.0819
1006.10 0.08178
1006.20 0.08174
1006.30 0.08172
1006.40 0.0817
1006.50 0.08168
1006.60 0.08166
1006.70 0.08164
1006.80 0.08163
1006.90 0.08161
1007.00 0.08159
1007.10 0.08161
1007.20 0.08163
1007.30 0.08166
1007.40 0.08168
1007.50 0.0817
1007.60 0.08172
1007.70 0.08177
1007.80 0.08183
1007.90 0.08188
1008.00 0.08194
1008.10 0.082
1008.20 0.08205
1008.30 0.08211
1008.40 0.08216
1008.50 0.08222
1008.60 0.08228
1008.70 0.08233
1008.80 0.08239
1008.90 0.08245
1009.00 0.0825
1009.10 0.08256
1009.20 0.08261
1009.30 0.08267
1009.40 0.08273
1009.50 0.08278
1009.60 0.08284
1009.70 0.0829
1009.80 0.08296
1009.90 0.08303
1010.00 0.08309
1010.10 0.08315
1010.20 0.08322
1010.30 0.08328
1010.40 0.08334
1010.50 0.08341
1010.60 0.08347
1010.70 0.08353
1010.80 0.0836
1010.90 0.08366
1011.00 0.08372
1011.10 0.08379
1011.20 0.08385
1011.30 0.08391
1011.40 0.08398
1011.50 0.08404
1011.60 0.0841
1011.70 0.08416
1011.80 0.08422
1011.90 0.08428
1012.00 0.08434
1012.10 0.0844
1012.20 0.08445
1012.30 0.08451
1012.40 0.08457
1012.50 0.08462
1012.60 0.08468
1012.70 0.08474
1012.80 0.08479
1012.90 0.08485
1013.00 0.0849
1013.10 0.08496
1013.20 0.08502
1013.30 0.08507
1013.40 0.08513
1013.50 0.08518
1013.60 0.08524
1013.70 0.08529
1013.80 0.08534
1013.90 0.08539
1014.00 0.08544
1014.10 0.08549
1014.20 0.08554
1014.30 0.08559
1014.40 0.08564
1014.50 0.08569
1014.60 0.08574
1014.70 0.08578
1014.80 0.08582
1014.90 0.08587
1015.00 0.08591
1015.10 0.08595
1015.20 0.08599
1015.30 0.08603
1015.40 0.08608
1015.50 0.08612
1015.60 0.08616
1015.70 0.0862
1015.80 0.08624
1015.90 0.08629
1016.00 0.08633
1016.10 0.08637
1016.20 0.08641
1016.30 0.08645
1016.40 0.0865
1016.50 0.08654
1016.60 0.08658
1016.70 0.08662
1016.80 0.08665
1016.90 0.08669
1017.00 0.08673
1017.10 0.08676
1017.20 0.08679
1017.30 0.08682
1017.40 0.08685
1017.50 0.08688
1017.60 0.08691
1017.70 0.08694
1017.80 0.08698
1017.90 0.08701
1018.00 0.08704
1018.10 0.08707
1018.20 0.0871
1018.30 0.08713
1018.40 0.08716
1018.50 0.08719
1018.60 0.08722
1018.70 0.08725
1018.80 0.08727
1018.90 0.0873
1019.00 0.08732
1019.10 0.08734
1019.20 0.08736
1019.30 0.08739
1019.40 0.08741
1019.50 0.08743
1019.60 0.08746
1019.70 0.08748
1019.80 0.0875
1019.90 0.08753
1020.00 0.08755
1020.10 0.08757
1020.20 0.08759
1020.30 0.08762
1020.40 0.08764
1020.50 0.08766
1020.60 0.08769
1020.70 0.0877
1020.80 0.08772
1020.90 0.08774
1021.00 0.08775
1021.10 0.08777
1021.20 0.08778
1021.30 0.0878
1021.40 0.08782
1021.50 0.08783
1021.60 0.08785
1021.70 0.08786
1021.80 0.08788
1021.90 0.0879
1022.00 0.08791
1022.10 0.08792
1022.20 0.08793
1022.30 0.08794
1022.40 0.08795
1022.50 0.08796
1022.60 0.08797
1022.70 0.08797
1022.80 0.08798
1022.90 0.08799
1023.00 0.088
1023.10 0.08801
1023.20 0.08802
1023.30 0.08803
1023.40 0.08804
1023.50 0.08805
1023.60 0.08805
1023.70 0.08806
1023.80 0.08807
1023.90 0.08808
1024.00 0.08809
1024.10 0.0881
1024.20 0.08811
1024.30 0.08812
1024.40 0.08813
1024.50 0.08813
1024.60 0.08814
1024.70 0.08815
1024.80 0.08815
1024.90 0.08815
1025.00 0.08815
1025.10 0.08815
1025.20 0.08815
1025.30 0.08815
1025.40 0.08816
1025.50 0.08816
1025.60 0.08816
1025.70 0.08816
1025.80 0.08816
1025.90 0.08816
1026.00 0.08816
1026.10 0.08816
1026.20 0.08817
1026.30 0.08817
1026.40 0.08817
1026.50 0.08817
1026.60 0.08817
1026.70 0.08817
1026.80 0.08817
1026.90 0.08817
1027.00 0.08818
1027.10 0.08817
1027.20 0.08816
1027.30 0.08815
1027.40 0.08815
1027.50 0.08814
1027.60 0.08813
1027.70 0.08812
1027.80 0.08812
1027.90 0.08811
1028.00 0.0881
1028.10 0.08809
1028.20 0.08809
1028.30 0.08808
1028.40 0.08807
1028.50 0.08806
1028.60 0.08806
1028.70 0.08805
1028.80 0.08804
1028.90 0.08803
1029.00 0.08803
1029.10 0.08802
1029.20 0.08801
1029.30 0.088
1029.40 0.088
1029.50 0.08799
1029.60 0.08798
1029.70 0.08797
1029.80 0.08797
1029.90 0.08796
1030.00 0.08795
1030.10 0.08794
1030.20 0.08794
1030.30 0.08793
1030.40 0.08792
1030.50 0.08791
1030.60 0.08791
1030.70 0.0879
1030.80 0.08789
1030.90 0.08789
1031.00 0.08788
1031.10 0.08787
1031.20 0.08786
1031.30 0.08786
1031.40 0.08785
1031.50 0.08784
1031.60 0.08783
1031.70 0.08783
1031.80 0.08782
1031.90 0.08781
1032.00 0.0878
1032.10 0.08779
1032.20 0.08777
1032.30 0.08775
1032.40 0.08774
1032.50 0.08772
1032.60 0.08771
1032.70 0.08769
1032.80 0.08767
1032.90 0.08766
1033.00 0.08764
1033.10 0.08763
1033.20 0.08761
1033.30 0.08759
1033.40 0.08758
1033.50 0.08756
1033.60 0.08754
1033.70 0.08753
1033.80 0.08751
1033.90 0.0875
1034.00 0.08748
1034.10 0.08746
1034.20 0.08745
1034.30 0.08743
1034.40 0.08741
1034.50 0.0874
1034.60 0.08738
1034.70 0.08737
1034.80 0.08735
1034.90 0.08733
1035.00 0.08732
1035.10 0.0873
1035.20 0.08729
1035.30 0.08727
1035.40 0.08725
1035.50 0.08724
1035.60 0.08722
1035.70 0.08721
1035.80 0.08719
1035.90 0.08717
1036.00 0.08716
1036.10 0.08714
1036.20 0.08712
1036.30 0.08711
1036.40 0.08709
1036.50 0.08708
1036.60 0.08706
1036.70 0.08704
1036.80 0.08703
1036.90 0.08701
1037.00 0.087
1037.10 0.08697
1037.20 0.08695
1037.30 0.08693
1037.40 0.08691
1037.50 0.08688
1037.60 0.08686
1037.70 0.08684
1037.80 0.08682
1037.90 0.0868
1038.00 0.08677
1038.10 0.08675
1038.20 0.08673
1038.30 0.08671
1038.40 0.08668
1038.50 0.08666
1038.60 0.08664
1038.70 0.08662
1038.80 0.08659
1038.90 0.08657
1039.00 0.08655
1039.10 0.08653
1039.20 0.08651
1039.30 0.08648
1039.40 0.08646
1039.50 0.08644
1039.60 0.08642
1039.70 0.08639
1039.80 0.08637
1039.90 0.08635
1040.00 0.08633
1040.10 0.08631
1040.20 0.08628
1040.30 0.08626
1040.40 0.08624
1040.50 0.08622
1040.60 0.0862
1040.70 0.08617
1040.80 0.08615
1040.90 0.08613
1041.00 0.08611
1041.10 0.08608
1041.20 0.08606
1041.30 0.08604
1041.40 0.08602
1041.50 0.086
1041.60 0.08597
1041.70 0.08595
1041.80 0.08593
1041.90 0.08591
1042.00 0.08589
1042.10 0.08586
1042.20 0.08583
1042.30 0.08581
1042.40 0.08578
1042.50 0.08575
1042.60 0.08573
1042.70 0.0857
1042.80 0.08567
1042.90 0.08565
1043.00 0.08562
1043.10 0.08559
1043.20 0.08557
1043.30 0.08554
1043.40 0.08551
1043.50 0.08549
1043.60 0.08546
1043.70 0.08543
1043.80 0.08541
1043.90 0.08538
1044.00 0.08535
1044.10 0.08533
1044.20 0.0853
1044.30 0.08527
1044.40 0.08525
1044.50 0.08522
1044.60 0.0852
1044.70 0.08517
1044.80 0.08514
1044.90 0.08512
1045.00 0.08509
1045.10 0.08506
1045.20 0.08504
1045.30 0.08501
1045.40 0.08498
1045.50 0.08496
1045.60 0.08493
1045.70 0.0849
1045.80 0.08488
1045.90 0.08485
1046.00 0.08483
1046.10 0.0848
1046.20 0.08477
1046.30 0.08475
1046.40 0.08472
1046.50 0.08469
1046.60 0.08467
1046.70 0.08464
1046.80 0.08462
1046.90 0.08459
1047.00 0.08456
1047.10 0.08453
1047.20 0.0845
1047.30 0.08447
1047.40 0.08444
1047.50 0.08441
1047.60 0.08438
1047.70 0.08435
1047.80 0.08432
1047.90 0.08429
1048.00 0.08426
1048.10 0.08423
1048.20 0.0842
1048.30 0.08416
1048.40 0.08413
1048.50 0.0841
1048.60 0.08407
1048.70 0.08404
1048.80 0.08401
1048.90 0.08398
1049.00 0.08395
1049.10 0.08392
1049.20 0.08389
1049.30 0.08386
1049.40 0.08383
1049.50 0.0838
1049.60 0.08377
1049.70 0.08374
1049.80 0.08371
1049.90 0.08368
1050.00 0.08365
1050.10 0.08362
1050.20 0.08359
1050.30 0.08356
1050.40 0.08353
1050.50 0.0835
1050.60 0.08347
1050.70 0.08344
1050.80 0.08341
1050.90 0.08338
1051.00 0.08334
1051.10 0.08331
1051.20 0.08328
1051.30 0.08325
1051.40 0.08322
1051.50 0.08319
1051.60 0.08316
1051.70 0.08313
1051.80 0.0831
1051.90 0.08307
1052.00 0.08304
1052.10 0.08301
1052.20 0.08297
1052.30 0.08294
1052.40 0.08291
1052.50 0.08287
1052.60 0.08284
1052.70 0.0828
1052.80 0.08277
1052.90 0.08273
1053.00 0.0827
1053.10 0.08266
1053.20 0.08263
1053.30 0.0826
1053.40 0.08256
1053.50 0.08253
1053.60 0.08249
1053.70 0.08246
1053.80 0.08243
1053.90 0.08239
1054.00 0.08236
1054.10 0.08232
1054.20 0.08229
1054.30 0.08225
1054.40 0.08222
1054.50 0.08219
1054.60 0.08215
1054.70 0.08212
1054.80 0.08208
1054.90 0.08205
1055.00 0.08202
1055.10 0.08198
1055.20 0.08195
1055.30 0.08191
1055.40 0.08188
1055.50 0.08185
1055.60 0.08181
1055.70 0.08178
1055.80 0.08174
1055.90 0.08171
1056.00 0.08168
1056.10 0.08164
1056.20 0.08161
1056.30 0.08157
1056.40 0.08154
1056.50 0.08151
1056.60 0.08147
1056.70 0.08144
1056.80 0.0814
1056.90 0.08137
1057.00 0.08134
1057.10 0.0813
1057.20 0.08126
1057.30 0.08122
1057.40 0.08118
1057.50 0.08114
1057.60 0.0811
1057.70 0.08107
1057.80 0.08103
1057.90 0.08099
1058.00 0.08095
1058.10 0.08091
1058.20 0.08087
1058.30 0.08083
1058.40 0.08079
1058.50 0.08076
1058.60 0.08072
1058.70 0.08068
1058.80 0.08064
1058.90 0.0806
1059.00 0.08056
1059.10 0.08053
1059.20 0.08049
1059.30 0.08045
1059.40 0.08041
1059.50 0.08037
1059.60 0.08033
1059.70 0.08029
1059.80 0.08026
1059.90 0.08022
1060.00 0.08018
1060.10 0.08014
1060.20 0.0801
1060.30 0.08006
1060.40 0.08003
1060.50 0.07999
1060.60 0.07995
1060.70 0.07991
1060.80 0.07987
1060.90 0.07983
1061.00 0.0798
1061.10 0.07976
1061.20 0.07972
1061.30 0.07968
1061.40 0.07964
1061.50 0.07961
1061.60 0.07957
1061.70 0.07953
1061.80 0.07949
1061.90 0.07945
1062.00 0.07941
1062.10 0.07937
1062.20 0.07932
1062.30 0.07928
1062.40 0.07924
1062.50 0.07919
1062.60 0.07915
1062.70 0.0791
1062.80 0.07906
1062.90 0.07901
1063.00 0.07897
1063.10 0.07892
1063.20 0.07888
1063.30 0.07883
1063.40 0.07879
1063.50 0.07875
1063.60 0.0787
1063.70 0.07866
1063.80 0.07861
1063.90 0.07857
1064.00 0.07852
1064.10 0.07848
1064.20 0.07843
1064.30 0.07839
1064.40 0.07835
1064.50 0.0783
1064.60 0.07826
1064.70 0.07821
1064.80 0.07817
1064.90 0.07812
1065.00 0.07808
1065.10 0.07804
1065.20 0.07799
1065.30 0.07795
1065.40 0.0779
1065.50 0.07786
1065.60 0.07782
1065.70 0.07777
1065.80 0.07773
1065.90 0.07768
1066.00 0.07764
1066.10 0.07759
1066.20 0.07755
1066.30 0.07751
1066.40 0.07746
1066.50 0.07742
1066.60 0.07737
1066.70 0.07733
1066.80 0.07729
1066.90 0.07724
1067.00 0.0772
1067.10 0.07715
1067.20 0.07709
1067.30 0.07704
1067.40 0.07699
1067.50 0.07694
1067.60 0.07688
1067.70 0.07683
1067.80 0.07678
1067.90 0.07673
1068.00 0.07667
1068.10 0.07662
1068.20 0.07657
1068.30 0.07652
1068.40 0.07647
1068.50 0.07641
1068.60 0.07636
1068.70 0.07631
1068.80 0.07626
1068.90 0.07621
1069.00 0.07615
1069.10 0.0761
1069.20 0.07605
1069.30 0.076
1069.40 0.07595
1069.50 0.07589
1069.60 0.07584
1069.70 0.07579
1069.80 0.07574
1069.90 0.07569
1070.00 0.07563
1070.10 0.07558
1070.20 0.07553
1070.30 0.07548
1070.40 0.07543
1070.50 0.07537
1070.60 0.07532
1070.70 0.07527
1070.80 0.07522
1070.90 0.07517
1071.00 0.07512
1071.10 0.07506
1071.20 0.07501
1071.30 0.07496
1071.40 0.07491
1071.50 0.07486
1071.60 0.07481
1071.70 0.07475
1071.80 0.0747
1071.90 0.07465
1072.00 0.0746
1072.10 0.07454
1072.20 0.07448
1072.30 0.07442
1072.40 0.07436
1072.50 0.07431
1072.60 0.07425
1072.70 0.07419
1072.80 0.07413
1072.90 0.07407
1073.00 0.07401
1073.10 0.07395
1073.20 0.07389
1073.30 0.07384
1073.40 0.07378
1073.50 0.07372
1073.60 0.07365
1073.70 0.07359
1073.80 0.07352
1073.90 0.07346
1074.00 0.07339
1074.10 0.07333
1074.20 0.07326
1074.30 0.0732
1074.40 0.07313
1074.50 0.07307
1074.60 0.073
1074.70 0.07294
1074.80 0.07287
1074.90 0.07281
1075.00 0.07274
1075.10 0.07268
1075.20 0.07261
1075.30 0.07255
1075.40 0.07248
1075.50 0.07242
1075.60 0.07235
1075.70 0.07229
1075.80 0.07222
1075.90 0.07216
1076.00 0.07209
1076.10 0.07203
1076.20 0.07196
1076.30 0.0719
1076.40 0.07183
1076.50 0.07177
1076.60 0.07171
1076.70 0.07164
1076.80 0.07158
1076.90 0.07151
1077.00 0.07145
1077.10 0.07138
1077.20 0.07131
1077.30 0.07124
1077.40 0.07117
1077.50 0.07109
1077.60 0.07102
1077.70 0.07095
1077.80 0.07087
1077.90 0.0708
1078.00 0.07072
1078.10 0.07065
1078.20 0.07057
1078.30 0.0705
1078.40 0.07042
1078.50 0.07035
1078.60 0.07028
1078.70 0.0702
1078.80 0.07013
1078.90 0.07005
1079.00 0.06998
1079.10 0.0699
1079.20 0.06983
1079.30 0.06976
1079.40 0.06968
1079.50 0.0696
1079.60 0.06952
1079.70 0.06944
1079.80 0.06936
1079.90 0.06928
1080.00 0.0692
1080.10 0.06912
1080.20 0.06903
1080.30 0.06895
1080.40 0.06887
1080.50 0.06879
1080.60 0.06871
1080.70 0.06863
1080.80 0.06855
1080.90 0.06846
1081.00 0.06838
1081.10 0.0683
1081.20 0.06822
1081.30 0.06814
1081.40 0.06806
1081.50 0.06797
1081.60 0.06789
1081.70 0.0678
1081.80 0.06772
1081.90 0.06763
1082.00 0.06754
1082.10 0.06745
1082.20 0.06736
1082.30 0.06727
1082.40 0.06718
1082.50 0.06709
1082.60 0.067
1082.70 0.06691
1082.80 0.06682
1082.90 0.06673
1083.00 0.06664
1083.10 0.06655
1083.20 0.06646
1083.30 0.06637
1083.40 0.06628
1083.50 0.06619
1083.60 0.06609
1083.70 0.066
1083.80 0.0659
1083.90 0.0658
1084.00 0.06571
1084.10 0.06561
1084.20 0.06552
1084.30 0.06542
1084.40 0.06533
1084.50 0.06523
1084.60 0.06513
1084.70 0.06502
1084.80 0.06492
1084.90 0.06482
1085.00 0.06472
1085.10 0.06462
1085.20 0.06451
1085.30 0.06441
1085.40 0.06431
1085.50 0.06421
1085.60 0.0641
1085.70 0.064
1085.80 0.0639
1085.90 0.0638
1086.00 0.0637
1086.10 0.0636
1086.20 0.06349
1086.30 0.06339
1086.40 0.06329
1086.50 0.06319
1086.60 0.06308
1086.70 0.06297
1086.80 0.06287
1086.90 0.06276
1087.00 0.06265
1087.10 0.06254
1087.20 0.06243
1087.30 0.06232
1087.40 0.06221
1087.50 0.0621
1087.60 0.06199
1087.70 0.06188
1087.80 0.06177
1087.90 0.06166
1088.00 0.06155
1088.10 0.06144
1088.20 0.06133
1088.30 0.06122
1088.40 0.06111
1088.50 0.061
1088.60 0.06089
1088.70 0.06077
1088.80 0.06066
1088.90 0.06055
1089.00 0.06043
1089.10 0.06032
1089.20 0.06021
1089.30 0.0601
1089.40 0.05999
1089.50 0.05987
1089.60 0.05976
1089.70 0.05965
1089.80 0.05954
1089.90 0.05942
1090.00 0.05931
1090.10 0.0592
1090.20 0.05909
1090.30 0.05898
1090.40 0.05886
1090.50 0.05876
1090.60 0.05865
1090.70 0.05855
1090.80 0.05845
1090.90 0.05835
1091.00 0.05825
1091.10 0.05815
1091.20 0.05804
1091.30 0.05794
1091.40 0.05784
1091.50 0.05774
1091.60 0.05764
1091.70 0.05754
1091.80 0.05744
1091.90 0.05734
1092.00 0.05724
1092.10 0.05719
1092.20 0.05713
1092.30 0.05708
1092.40 0.05703
1092.50 0.05698
1092.60 0.05692
1092.70 0.05691
1092.80 0.05697
1092.90 0.05703
1093.00 0.05709
1093.10 0.0572
1093.20 0.05741
1093.30 0.05764
1093.40 0.05788
1093.50 0.05795
1093.60 0.05768
1093.70 0.05741
1093.80 0.05716
1093.90 0.05696
1094.00 0.05687
1094.10 0.05677
1094.20 0.05668
1094.30 0.05662
1094.40 0.05664
1094.50 0.05666
1094.60 0.05668
1094.70 0.0567
1094.80 0.05672
1094.90 0.05674
1095.00 0.05677
1095.10 0.05683
1095.20 0.0569
1095.30 0.05696
1095.40 0.05703
1095.50 0.05709
1095.60 0.05716
1095.70 0.05722
1095.80 0.05728
1095.90 0.05735
1096.00 0.05741
1096.10 0.05748
1096.20 0.05754
1096.30 0.0576
1096.40 0.05767
1096.50 0.05773
1096.60 0.05781
1096.70 0.05788
1096.80 0.05795
1096.90 0.05802
1097.00 0.0581
1097.10 0.05817
1097.20 0.05824
1097.30 0.05831
1097.40 0.05839
1097.50 0.05846
1097.60 0.05853
1097.70 0.0586
1097.80 0.05868
1097.90 0.05875
1098.00 0.05882
1098.10 0.05889
1098.20 0.05896
1098.30 0.05904
1098.40 0.05911
1098.50 0.05918
1098.60 0.05924
1098.70 0.05931
1098.80 0.05938
1098.90 0.05944
1099.00 0.05951
1099.10 0.05958
1099.20 0.05964
1099.30 0.05971
1099.40 0.05978
1099.50 0.05984
1099.60 0.05991
1099.70 0.05998
1099.80 0.06004
1099.90 0.06011
1100.00 0.06018
1100.10 0.06024
1100.20 0.06031
1100.30 0.06038
1100.40 0.06044
1100.50 0.06051
1100.60 0.06056
1100.70 0.06062
1100.80 0.06068
1100.90 0.06074
1101.00 0.0608
1101.10 0.06085
1101.20 0.06091
1101.30 0.06097
1101.40 0.06103
1101.50 0.06109
1101.60 0.06114
1101.70 0.0612
1101.80 0.06126
1101.90 0.06132
1102.00 0.06138
1102.10 0.06143
1102.20 0.06148
1102.30 0.06153
1102.40 0.06159
1102.50 0.06164
1102.60 0.06169
1102.70 0.06174
1102.80 0.06179
1102.90 0.06184
1103.00 0.06188
1103.10 0.06193
1103.20 0.06198
1103.30 0.06203
1103.40 0.06208
1103.50 0.06213
1103.60 0.06217
1103.70 0.06221
1103.80 0.06225
1103.90 0.06229
1104.00 0.06234
1104.10 0.06238
1104.20 0.06242
1104.30 0.06246
1104.40 0.0625
1104.50 0.06254
1104.60 0.06259
1104.70 0.06263
1104.80 0.06267
1104.90 0.06271
1105.00 0.06275
1105.10 0.06279
1105.20 0.06284
1105.30 0.06288
1105.40 0.06292
1105.50 0.06296
1105.60 0.06299
1105.70 0.06303
1105.80 0.06306
1105.90 0.06309
1106.00 0.06313
1106.10 0.06316
1106.20 0.0632
1106.30 0.06323
1106.40 0.06326
1106.50 0.0633
1106.60 0.06333
1106.70 0.06336
1106.80 0.0634
1106.90 0.06343
1107.00 0.06347
1107.10 0.06349
1107.20 0.06352
1107.30 0.06355
1107.40 0.06358
1107.50 0.06361
1107.60 0.06364
1107.70 0.06366
1107.80 0.06369
1107.90 0.06371
1108.00 0.06374
1108.10 0.06376
1108.20 0.06379
1108.30 0.06381
1108.40 0.06384
1108.50 0.06386
1108.60 0.06388
1108.70 0.06391
1108.80 0.06393
1108.90 0.06396
1109.00 0.06398
1109.10 0.06401
1109.20 0.06403
1109.30 0.06406
1109.40 0.06408
1109.50 0.06411
1109.60 0.06412
1109.70 0.06414
1109.80 0.06416
1109.90 0.06418
1110.00 0.06419
1110.10 0.06421
1110.20 0.06423
1110.30 0.06425
1110.40 0.06426
1110.50 0.06428
1110.60 0.0643
1110.70 0.06432
1110.80 0.06433
1110.90 0.06435
1111.00 0.06437
1111.10 0.06439
1111.20 0.0644
1111.30 0.06442
1111.40 0.06444
1111.50 0.06446
1111.60 0.06447
1111.70 0.06449
1111.80 0.06451
1111.90 0.06452
1112.00 0.06454
1112.10 0.06455
1112.20 0.06457
1112.30 0.06458
1112.40 0.06459
1112.50 0.0646
1112.60 0.06461
1112.70 0.06462
1112.80 0.06463
1112.90 0.06465
1113.00 0.06466
1113.10 0.06467
1113.20 0.06468
1113.30 0.06469
1113.40 0.0647
1113.50 0.06471
1113.60 0.06472
1113.70 0.06473
1113.80 0.06473
1113.90 0.06474
1114.00 0.06474
1114.10 0.06475
1114.20 0.06476
1114.30 0.06476
1114.40 0.06477
1114.50 0.06477
1114.60 0.06478
1114.70 0.06479
1114.80 0.06479
1114.90 0.0648
1115.00 0.0648
1115.10 0.06481
1115.20 0.06481
1115.30 0.06482
1115.40 0.06483
1115.50 0.06483
1115.60 0.06484
1115.70 0.06484
1115.80 0.06485
1115.90 0.06486
1116.00 0.06486
1116.10 0.06487
1116.20 0.06487
1116.30 0.06488
1116.40 0.06489
1116.50 0.06489
1116.60 0.0649
1116.70 0.0649
1116.80 0.06491
1116.90 0.06491
1117.00 0.06492
1117.10 0.06492
1117.20 0.06492
1117.30 0.06492
1117.40 0.06491
1117.50 0.06491
1117.60 0.06491
1117.70 0.06491
1117.80 0.06491
1117.90 0.0649
1118.00 0.0649
1118.10 0.0649
1118.20 0.0649
1118.30 0.0649
1118.40 0.0649
1118.50 0.06489
1118.60 0.06489
1118.70 0.06489
1118.80 0.06489
1118.90 0.06489
1119.00 0.06488
1119.10 0.06488
1119.20 0.06488
1119.30 0.06488
1119.40 0.06488
1119.50 0.06488
1119.60 0.06487
1119.70 0.06487
1119.80 0.06487
1119.90 0.06487
1120.00 0.06487
1120.10 0.06486
1120.20 0.06486
1120.30 0.06486
1120.40 0.06486
1120.50 0.06486
1120.60 0.06486
1120.70 0.06485
1120.80 0.06485
1120.90 0.06485
1121.00 0.06485
1121.10 0.06485
1121.20 0.06484
1121.30 0.06484
1121.40 0.06484
1121.50 0.06484
1121.60 0.06484
1121.70 0.06484
1121.80 0.06483
1121.90 0.06483
1122.00 0.06483
1122.10 0.06482
1122.20 0.06481
1122.30 0.06481
1122.40 0.0648
1122.50 0.06479
1122.60 0.06478
1122.70 0.06477
1122.80 0.06477
1122.90 0.06476
1123.00 0.06475
1123.10 0.06474
1123.20 0.06473
1123.30 0.06473
1123.40 0.06472
1123.50 0.06471
1123.60 0.0647
1123.70 0.06469
1123.80 0.06469
1123.90 0.06468
1124.00 0.06467
1124.10 0.06466
1124.20 0.06465
1124.30 0.06465
1124.40 0.06464
1124.50 0.06463
1124.60 0.06462
1124.70 0.06461
1124.80 0.06461
1124.90 0.0646
1125.00 0.06459
1125.10 0.06458
1125.20 0.06457
1125.30 0.06457
1125.40 0.06456
1125.50 0.06455
1125.60 0.06454
1125.70 0.06453
1125.80 0.06453
1125.90 0.06452
1126.00 0.06451
1126.10 0.0645
1126.20 0.06449
1126.30 0.06449
1126.40 0.06448
1126.50 0.06447
1126.60 0.06446
1126.70 0.06445
1126.80 0.06445
1126.90 0.06444
1127.00 0.06443
1127.10 0.06442
1127.20 0.06441
1127.30 0.06439
1127.40 0.06438
1127.50 0.06437
1127.60 0.06436
1127.70 0.06434
1127.80 0.06433
1127.90 0.06432
1128.00 0.06431
1128.10 0.0643
1128.20 0.06428
1128.30 0.06427
1128.40 0.06426
1128.50 0.06425
1128.60 0.06424
1128.70 0.06422
1128.80 0.06421
1128.90 0.0642
1129.00 0.06419
1129.10 0.06418
1129.20 0.06416
1129.30 0.06415
1129.40 0.06414
1129.50 0.06413
1129.60 0.06412
1129.70 0.0641
1129.80 0.06409
1129.90 0.06408
1130.00 0.06407
1130.10 0.06406
1130.20 0.06404
1130.30 0.06403
1130.40 0.06402
1130.50 0.06401
1130.60 0.064
1130.70 0.06398
1130.80 0.06397
1130.90 0.06396
1131.00 0.06395
1131.10 0.06394
1131.20 0.06392
1131.30 0.06391
1131.40 0.0639
1131.50 0.06389
1131.60 0.06388
1131.70 0.06386
1131.80 0.06385
1131.90 0.06384
1132.00 0.06383
1132.10 0.06381
1132.20 0.0638
1132.30 0.06378
1132.40 0.06377
1132.50 0.06376
1132.60 0.06374
1132.70 0.06373
1132.80 0.06371
1132.90 0.0637
1133.00 0.06368
1133.10 0.06367
1133.20 0.06365
1133.30 0.06364
1133.40 0.06362
1133.50 0.06361
1133.60 0.0636
1133.70 0.06358
1133.80 0.06357
1133.90 0.06355
1134.00 0.06354
1134.10 0.06352
1134.20 0.06351
1134.30 0.06349
1134.40 0.06348
1134.50 0.06346
1134.60 0.06345
1134.70 0.06344
1134.80 0.06342
1134.90 0.06341
1135.00 0.06339
1135.10 0.06338
1135.20 0.06336
1135.30 0.06335
1135.40 0.06333
1135.50 0.06332
1135.60 0.0633
1135.70 0.06329
1135.80 0.06328
1135.90 0.06326
1136.00 0.06325
1136.10 0.06323
1136.20 0.06322
1136.30 0.0632
1136.40 0.06319
1136.50 0.06317
1136.60 0.06316
1136.70 0.06315
1136.80 0.06313
1136.90 0.06312
1137.00 0.0631
1137.10 0.06309
1137.20 0.06307
1137.30 0.06305
1137.40 0.06304
1137.50 0.06302
1137.60 0.063
1137.70 0.06299
1137.80 0.06297
1137.90 0.06296
1138.00 0.06294
1138.10 0.06292
1138.20 0.06291
1138.30 0.06289
1138.40 0.06287
1138.50 0.06286
1138.60 0.06284
1138.70 0.06283
1138.80 0.06281
1138.90 0.06279
1139.00 0.06278
1139.10 0.06276
1139.20 0.06274
1139.30 0.06273
1139.40 0.06271
1139.50 0.0627
1139.60 0.06268
1139.70 0.06266
1139.80 0.06265
1139.90 0.06263
1140.00 0.06261
1140.10 0.0626
1140.20 0.06258
1140.30 0.06257
1140.40 0.06255
1140.50 0.06253
1140.60 0.06252
1140.70 0.0625
1140.80 0.06249
1140.90 0.06247
1141.00 0.06245
1141.10 0.06244
1141.20 0.06242
1141.30 0.0624
1141.40 0.06239
1141.50 0.06237
1141.60 0.06236
1141.70 0.06234
1141.80 0.06232
1141.90 0.06231
1142.00 0.06229
1142.10 0.06227
1142.20 0.06226
1142.30 0.06224
1142.40 0.06222
1142.50 0.06221
1142.60 0.06219
1142.70 0.06217
1142.80 0.06215
1142.90 0.06214
1143.00 0.06212
1143.10 0.0621
1143.20 0.06209
1143.30 0.06207
1143.40 0.06205
1143.50 0.06203
1143.60 0.06202
1143.70 0.062
1143.80 0.06198
1143.90 0.06197
1144.00 0.06195
1144.10 0.06193
1144.20 0.06191
1144.30 0.0619
1144.40 0.06188
1144.50 0.06186
1144.60 0.06185
1144.70 0.06183
1144.80 0.06181
1144.90 0.0618
1145.00 0.06178
1145.10 0.06176
1145.20 0.06174
1145.30 0.06173
1145.40 0.06171
1145.50 0.06169
1145.60 0.06168
1145.70 0.06166
1145.80 0.06164
1145.90 0.06163
1146.00 0.06161
1146.10 0.06159
1146.20 0.06157
1146.30 0.06156
1146.40 0.06154
1146.50 0.06152
1146.60 0.06151
1146.70 0.06149
1146.80 0.06147
1146.90 0.06146
1147.00 0.06144
1147.10 0.06142
1147.20 0.0614
1147.30 0.06139
1147.40 0.06137
1147.50 0.06135
1147.60 0.06133
1147.70 0.06131
1147.80 0.0613
1147.90 0.06128
1148.00 0.06126
1148.10 0.06124
1148.20 0.06123
1148.30 0.06121
1148.40 0.06119
1148.50 0.06117
1148.60 0.06116
1148.70 0.06114
1148.80 0.06112
1148.90 0.0611
1149.00 0.06109
1149.10 0.06107
1149.20 0.06105
1149.30 0.06103
1149.40 0.06102
1149.50 0.061
1149.60 0.06098
1149.70 0.06096
1149.80 0.06094
1149.90 0.06093
1150.00 0.06091
1150.10 0.06089
1150.20 0.06087
1150.30 0.06086
1150.40 0.06084
1150.50 0.06082
1150.60 0.0608
1150.70 0.06079
1150.80 0.06077
1150.90 0.06075
1151.00 0.06073
1151.10 0.06072
1151.20 0.0607
1151.30 0.06068
1151.40 0.06066
1151.50 0.06065
1151.60 0.06063
1151.70 0.06061
1151.80 0.06059
1151.90 0.06058
1152.00 0.06056
1152.10 0.06054
1152.20 0.06052
1152.30 0.06051
1152.40 0.06049
1152.50 0.06047
1152.60 0.06045
1152.70 0.06043
1152.80 0.06042
1152.90 0.0604
1153.00 0.06038
1153.10 0.06036
1153.20 0.06034
1153.30 0.06033
1153.40 0.06031
1153.50 0.06029
1153.60 0.06027
1153.70 0.06025
1153.80 0.06024
1153.90 0.06022
1154.00 0.0602
1154.10 0.06018
1154.20 0.06016
1154.30 0.06015
1154.40 0.06013
1154.50 0.06011
1154.60 0.06009
1154.70 0.06007
1154.80 0.06006
1154.90 0.06004
1155.00 0.06002
1155.10 0.06
1155.20 0.05998
1155.30 0.05997
1155.40 0.05995
1155.50 0.05993
1155.60 0.05991
1155.70 0.0599
1155.80 0.05988
1155.90 0.05986
1156.00 0.05984
1156.10 0.05982
1156.20 0.05981
1156.30 0.05979
1156.40 0.05977
1156.50 0.05975
1156.60 0.05973
1156.70 0.05972
1156.80 0.0597
1156.90 0.05968
1157.00 0.05966
1157.10 0.05965
1157.20 0.05963
1157.30 0.05961
1157.40 0.05959
1157.50 0.05957
1157.60 0.05956
1157.70 0.05954
1157.80 0.05952
1157.90 0.0595
1158.00 0.05948
1158.10 0.05946
1158.20 0.05945
1158.30 0.05943
1158.40 0.05941
1158.50 0.05939
1158.60 0.05937
1158.70 0.05936
1158.80 0.05934
1158.90 0.05932
1159.00 0.0593
1159.10 0.05929
1159.20 0.05927
1159.30 0.05925
1159.40 0.05923
1159.50 0.05921
1159.60 0.0592
1159.70 0.05918
1159.80 0.05916
1159.90 0.05914
1160.00 0.05912
1160.10 0.05911
1160.20 0.05909
1160.30 0.05907
1160.40 0.05905
1160.50 0.05903
1160.60 0.05902
1160.70 0.059
1160.80 0.05898
1160.90 0.05896
1161.00 0.05894
1161.10 0.05893
1161.20 0.05891
1161.30 0.05889
1161.40 0.05887
1161.50 0.05886
1161.60 0.05884
1161.70 0.05882
1161.80 0.0588
1161.90 0.05878
1162.00 0.05877
1162.10 0.05875
1162.20 0.05873
1162.30 0.05871
1162.40 0.05869
1162.50 0.05868
1162.60 0.05866
1162.70 0.05864
1162.80 0.05862
1162.90 0.0586
1163.00 0.05859
1163.10 0.05857
1163.20 0.05855
1163.30 0.05853
1163.40 0.05851
1163.50 0.0585
1163.60 0.05848
1163.70 0.05846
1163.80 0.05844
1163.90 0.05842
1164.00 0.05841
1164.10 0.05839
1164.20 0.05837
1164.30 0.05835
1164.40 0.05833
1164.50 0.05831
1164.60 0.0583
1164.70 0.05828
1164.80 0.05826
1164.90 0.05824
1165.00 0.05823
1165.10 0.05821
1165.20 0.05819
1165.30 0.05817
1165.40 0.05815
1165.50 0.05814
1165.60 0.05812
1165.70 0.0581
1165.80 0.05808
1165.90 0.05806
1166.00 0.05805
1166.10 0.05803
1166.20 0.05801
1166.30 0.05799
1166.40 0.05797
1166.50 0.05796
1166.60 0.05794
1166.70 0.05792
1166.80 0.0579
1166.90 0.05788
1167.00 0.05787
1167.10 0.05785
1167.20 0.05783
1167.30 0.05781
1167.40 0.05779
1167.50 0.05778
1167.60 0.05776
1167.70 0.05774
1167.80 0.05772
1167.90 0.0577
1168.00 0.05769
1168.10 0.05767
1168.20 0.05765
1168.30 0.05763
1168.40 0.05762
1168.50 0.0576
1168.60 0.05758
1168.70 0.05756
1168.80 0.05754
1168.90 0.05753
1169.00 0.05751
1169.10 0.05749
1169.20 0.05747
1169.30 0.05745
1169.40 0.05744
1169.50 0.05742
1169.60 0.0574
1169.70 0.05738
1169.80 0.05736
1169.90 0.05735
1170.00 0.05733
1170.10 0.05731
1170.20 0.05729
1170.30 0.05728
1170.40 0.05726
1170.50 0.05724
1170.60 0.05722
1170.70 0.0572
1170.80 0.05719
1170.90 0.05717
1171.00 0.05715
1171.10 0.05713
1171.20 0.05712
1171.30 0.0571
1171.40 0.05708
1171.50 0.05706
1171.60 0.05704
1171.70 0.05703
1171.80 0.05701
1171.90 0.05699
1172.00 0.05697
1172.10 0.05696
1172.20 0.05694
1172.30 0.05692
1172.40 0.0569
1172.50 0.05688
1172.60 0.05687
1172.70 0.05685
1172.80 0.05683
1172.90 0.05681
1173.00 0.0568
1173.10 0.05678
1173.20 0.05676
1173.30 0.05674
1173.40 0.05672
1173.50 0.05671
1173.60 0.05669
1173.70 0.05667
1173.80 0.05665
1173.90 0.05664
1174.00 0.05662
1174.10 0.0566
1174.20 0.05658
1174.30 0.05656
1174.40 0.05655
1174.50 0.05653
1174.60 0.05651
1174.70 0.05649
1174.80 0.05648
1174.90 0.05646
1175.00 0.05644
1175.10 0.05642
1175.20 0.05641
1175.30 0.05639
1175.40 0.05637
1175.50 0.05635
1175.60 0.05634
1175.70 0.05632
1175.80 0.0563
1175.90 0.05628
1176.00 0.05626
1176.10 0.05625
1176.20 0.05623
1176.30 0.05621
1176.40 0.05619
1176.50 0.05618
1176.60 0.05616
1176.70 0.05614
1176.80 0.05612
1176.90 0.05611
1177.00 0.05609
1177.10 0.05607
1177.20 0.05605
1177.30 0.05604
1177.40 0.05602
1177.50 0.056
1177.60 0.05598
1177.70 0.05597
1177.80 0.05595
1177.90 0.05593
1178.00 0.05591
1178.10 0.05589
1178.20 0.05588
1178.30 0.05586
1178.40 0.05584
1178.50 0.05582
1178.60 0.05581
1178.70 0.05579
1178.80 0.05577
1178.90 0.05575
1179.00 0.05574
1179.10 0.05572
1179.20 0.0557
1179.30 0.05568
1179.40 0.05567
1179.50 0.05565
1179.60 0.05563
1179.70 0.05561
1179.80 0.0556
1179.90 0.05558
1180.00 0.05556
1180.10 0.05554
1180.20 0.05553
1180.30 0.05551
1180.40 0.05549
1180.50 0.05547
1180.60 0.05546
1180.70 0.05544
1180.80 0.05542
1180.90 0.0554
1181.00 0.05539
1181.10 0.05537
1181.20 0.05535
1181.30 0.05533
1181.40 0.05532
1181.50 0.0553
1181.60 0.05528
1181.70 0.05526
1181.80 0.05525
1181.90 0.05523
1182.00 0.05521
1182.10 0.05519
1182.20 0.05518
1182.30 0.05516
1182.40 0.05514
1182.50 0.05512
1182.60 0.05511
1182.70 0.05509
1182.80 0.05507
1182.90 0.05506
1183.00 0.05504
1183.10 0.05502
1183.20 0.055
1183.30 0.05499
1183.40 0.05497
1183.50 0.05495
1183.60 0.05493
1183.70 0.05492
1183.80 0.0549
1183.90 0.05488
1184.00 0.05486
1184.10 0.05485
1184.20 0.05483
1184.30 0.05481
1184.40 0.05479
1184.50 0.05478
1184.60 0.05476
1184.70 0.05474
1184.80 0.05473
1184.90 0.05471
1185.00 0.05469
1185.10 0.05467
1185.20 0.05466
1185.30 0.05464
1185.40 0.05462
1185.50 0.0546
1185.60 0.05459
1185.70 0.05457
1185.80 0.05455
1185.90 0.05453
1186.00 0.05452
1186.10 0.0545
1186.20 0.05448
1186.30 0.05447
1186.40 0.05445
1186.50 0.05443
1186.60 0.05441
1186.70 0.0544
1186.80 0.05438
1186.90 0.05436
1187.00 0.05435
1187.10 0.05433
1187.20 0.05431
1187.30 0.05429
1187.40 0.05428
1187.50 0.05426
1187.60 0.05424
1187.70 0.05422
1187.80 0.05421
1187.90 0.05419
1188.00 0.05417
1188.10 0.05416
1188.20 0.05414
1188.30 0.05412
1188.40 0.0541
1188.50 0.05409
1188.60 0.05407
1188.70 0.05405
1188.80 0.05404
1188.90 0.05402
1189.00 0.054
1189.10 0.05398
1189.20 0.05397
1189.30 0.05395
1189.40 0.05393
1189.50 0.05392
1189.60 0.0539
1189.70 0.05388
1189.80 0.05386
1189.90 0.05385
1190.00 0.05383
1190.10 0.05381
1190.20 0.0538
1190.30 0.05378
1190.40 0.05376
1190.50 0.05374
1190.60 0.05373
1190.70 0.05371
1190.80 0.05369
1190.90 0.05368
1191.00 0.05366
1191.10 0.05364
1191.20 0.05362
1191.30 0.05361
1191.40 0.05359
1191.50 0.05357
1191.60 0.05356
1191.70 0.05354
1191.80 0.05352
1191.90 0.05351
1192.00 0.05349
1192.10 0.05347
1192.20 0.05345
1192.30 0.05344
1192.40 0.05342
1192.50 0.0534
1192.60 0.05339
1192.70 0.05337
1192.80 0.05335
1192.90 0.05333
1193.00 0.05332
1193.10 0.0533
1193.20 0.05328
1193.30 0.05327
1193.40 0.05325
1193.50 0.05323
1193.60 0.05322
1193.70 0.0532
1193.80 0.05318
1193.90 0.05316
1194.00 0.05315
1194.10 0.05313
1194.20 0.05311
1194.30 0.0531
1194.40 0.05308
1194.50 0.05306
1194.60 0.05305
1194.70 0.05303
1194.80 0.05301
1194.90 0.053
1195.00 0.05298
1195.10 0.05296
1195.20 0.05294
1195.30 0.05293
1195.40 0.05291
1195.50 0.05289
1195.60 0.05288
1195.70 0.05286
1195.80 0.05284
1195.90 0.05283
1196.00 0.05281
1196.10 0.05279
1196.20 0.05278
1196.30 0.05276
1196.40 0.05274
1196.50 0.05272
1196.60 0.05271
1196.70 0.05269
1196.80 0.05267
1196.90 0.05266
1197.00 0.05264
1197.10 0.05262
1197.20 0.05261
1197.30 0.05259
1197.40 0.05257
1197.50 0.05256
1197.60 0.05254
1197.70 0.05252
1197.80 0.05251
1197.90 0.05249
1198.00 0.05247
1198.10 0.05245
1198.20 0.05244
1198.30 0.05242
1198.40 0.0524
1198.50 0.05239
1198.60 0.05237
1198.70 0.05235
1198.80 0.05234
1198.90 0.05232
1199.00 0.0523
1199.10 0.05229
1199.20 0.05227
1199.30 0.05225
1199.40 0.05224
1199.50 0.05222
1199.60 0.0522
1199.70 0.05219
1199.80 0.05217
1199.90 0.05215
1200.00 0
