# Version 2.1 - nm, norm@500 to 1, cut digits, bergeron_7500_95.dat_7500
# Wavelength(nm)  Flambda(ergs/cm^s/s/nm)
300.00 1.263
300.10 1.263
300.20 1.263
300.30 1.264
300.40 1.264
300.50 1.264
300.60 1.264
300.70 1.264
300.80 1.265
300.90 1.265
301.00 1.265
301.10 1.265
301.20 1.265
301.30 1.266
301.40 1.266
301.50 1.266
301.60 1.266
301.70 1.266
301.80 1.267
301.90 1.267
302.00 1.267
302.10 1.267
302.20 1.267
302.30 1.268
302.40 1.268
302.50 1.268
302.60 1.268
302.70 1.268
302.80 1.269
302.90 1.269
303.00 1.269
303.10 1.269
303.20 1.269
303.30 1.27
303.40 1.27
303.50 1.27
303.60 1.27
303.70 1.27
303.80 1.27
303.90 1.271
304.00 1.271
304.10 1.271
304.20 1.271
304.30 1.271
304.40 1.272
304.50 1.272
304.60 1.272
304.70 1.272
304.80 1.272
304.90 1.272
305.00 1.273
305.10 1.273
305.20 1.273
305.30 1.273
305.40 1.273
305.50 1.273
305.60 1.274
305.70 1.274
305.80 1.274
305.90 1.274
306.00 1.274
306.10 1.275
306.20 1.275
306.30 1.275
306.40 1.275
306.50 1.275
306.60 1.275
306.70 1.276
306.80 1.276
306.90 1.276
307.00 1.276
307.10 1.276
307.20 1.276
307.30 1.277
307.40 1.277
307.50 1.277
307.60 1.277
307.70 1.277
307.80 1.277
307.90 1.277
308.00 1.278
308.10 1.278
308.20 1.278
308.30 1.278
308.40 1.278
308.50 1.278
308.60 1.279
308.70 1.279
308.80 1.279
308.90 1.279
309.00 1.279
309.10 1.279
309.20 1.279
309.30 1.28
309.40 1.28
309.50 1.28
309.60 1.28
309.70 1.28
309.80 1.28
309.90 1.281
310.00 1.281
310.10 1.281
310.20 1.281
310.30 1.281
310.40 1.281
310.50 1.281
310.60 1.282
310.70 1.282
310.80 1.282
310.90 1.282
311.00 1.282
311.10 1.282
311.20 1.282
311.30 1.282
311.40 1.283
311.50 1.283
311.60 1.283
311.70 1.283
311.80 1.283
311.90 1.283
312.00 1.283
312.10 1.284
312.20 1.284
312.30 1.284
312.40 1.284
312.50 1.284
312.60 1.284
312.70 1.284
312.80 1.284
312.90 1.285
313.00 1.285
313.10 1.285
313.20 1.285
313.30 1.285
313.40 1.285
313.50 1.285
313.60 1.285
313.70 1.286
313.80 1.286
313.90 1.286
314.00 1.286
314.10 1.286
314.20 1.286
314.30 1.286
314.40 1.286
314.50 1.287
314.60 1.287
314.70 1.287
314.80 1.287
314.90 1.287
315.00 1.287
315.10 1.287
315.20 1.287
315.30 1.287
315.40 1.288
315.50 1.288
315.60 1.288
315.70 1.288
315.80 1.288
315.90 1.288
316.00 1.288
316.10 1.288
316.20 1.288
316.30 1.289
316.40 1.289
316.50 1.289
316.60 1.289
316.70 1.289
316.80 1.289
316.90 1.289
317.00 1.289
317.10 1.289
317.20 1.29
317.30 1.29
317.40 1.29
317.50 1.29
317.60 1.29
317.70 1.29
317.80 1.29
317.90 1.29
318.00 1.29
318.10 1.29
318.20 1.291
318.30 1.291
318.40 1.291
318.50 1.291
318.60 1.291
318.70 1.291
318.80 1.291
318.90 1.291
319.00 1.291
319.10 1.291
319.20 1.291
319.30 1.292
319.40 1.292
319.50 1.292
319.60 1.292
319.70 1.292
319.80 1.292
319.90 1.292
320.00 1.292
320.10 1.292
320.20 1.292
320.30 1.292
320.40 1.292
320.50 1.293
320.60 1.293
320.70 1.293
320.80 1.293
320.90 1.293
321.00 1.293
321.10 1.293
321.20 1.293
321.30 1.293
321.40 1.293
321.50 1.293
321.60 1.293
321.70 1.294
321.80 1.294
321.90 1.294
322.00 1.294
322.10 1.294
322.20 1.294
322.30 1.294
322.40 1.294
322.50 1.294
322.60 1.294
322.70 1.294
322.80 1.294
322.90 1.294
323.00 1.294
323.10 1.295
323.20 1.295
323.30 1.295
323.40 1.295
323.50 1.295
323.60 1.295
323.70 1.295
323.80 1.295
323.90 1.295
324.00 1.295
324.10 1.295
324.20 1.295
324.30 1.295
324.40 1.295
324.50 1.295
324.60 1.295
324.70 1.296
324.80 1.296
324.90 1.296
325.00 1.296
325.10 1.296
325.20 1.296
325.30 1.296
325.40 1.296
325.50 1.296
325.60 1.296
325.70 1.296
325.80 1.296
325.90 1.296
326.00 1.296
326.10 1.296
326.20 1.296
326.30 1.296
326.40 1.296
326.50 1.296
326.60 1.297
326.70 1.297
326.80 1.297
326.90 1.297
327.00 1.297
327.10 1.297
327.20 1.297
327.30 1.297
327.40 1.297
327.50 1.297
327.60 1.297
327.70 1.297
327.80 1.297
327.90 1.297
328.00 1.297
328.10 1.297
328.20 1.297
328.30 1.297
328.40 1.297
328.50 1.297
328.60 1.297
328.70 1.297
328.80 1.297
328.90 1.298
329.00 1.298
329.10 1.298
329.20 1.298
329.30 1.298
329.40 1.298
329.50 1.298
329.60 1.298
329.70 1.298
329.80 1.298
329.90 1.298
330.00 1.298
330.10 1.298
330.20 1.298
330.30 1.298
330.40 1.298
330.50 1.298
330.60 1.298
330.70 1.298
330.80 1.298
330.90 1.298
331.00 1.298
331.10 1.298
331.20 1.298
331.30 1.298
331.40 1.298
331.50 1.298
331.60 1.298
331.70 1.298
331.80 1.298
331.90 1.298
332.00 1.298
332.10 1.298
332.20 1.298
332.30 1.298
332.40 1.299
332.50 1.299
332.60 1.299
332.70 1.299
332.80 1.299
332.90 1.299
333.00 1.299
333.10 1.299
333.20 1.299
333.30 1.299
333.40 1.299
333.50 1.299
333.60 1.299
333.70 1.299
333.80 1.299
333.90 1.299
334.00 1.299
334.10 1.299
334.20 1.299
334.30 1.299
334.40 1.299
334.50 1.299
334.60 1.299
334.70 1.299
334.80 1.299
334.90 1.299
335.00 1.299
335.10 1.299
335.20 1.299
335.30 1.299
335.40 1.299
335.50 1.299
335.60 1.299
335.70 1.299
335.80 1.299
335.90 1.299
336.00 1.299
336.10 1.299
336.20 1.299
336.30 1.299
336.40 1.299
336.50 1.299
336.60 1.299
336.70 1.299
336.80 1.299
336.90 1.299
337.00 1.299
337.10 1.299
337.20 1.299
337.30 1.299
337.40 1.299
337.50 1.299
337.60 1.299
337.70 1.299
337.80 1.299
337.90 1.299
338.00 1.299
338.10 1.299
338.20 1.299
338.30 1.299
338.40 1.299
338.50 1.299
338.60 1.299
338.70 1.299
338.80 1.299
338.90 1.299
339.00 1.299
339.10 1.299
339.20 1.299
339.30 1.299
339.40 1.299
339.50 1.299
339.60 1.299
339.70 1.299
339.80 1.299
339.90 1.299
340.00 1.299
340.10 1.299
340.20 1.299
340.30 1.299
340.40 1.299
340.50 1.298
340.60 1.298
340.70 1.298
340.80 1.298
340.90 1.298
341.00 1.298
341.10 1.298
341.20 1.298
341.30 1.298
341.40 1.298
341.50 1.298
341.60 1.298
341.70 1.298
341.80 1.298
341.90 1.298
342.00 1.298
342.10 1.298
342.20 1.298
342.30 1.298
342.40 1.298
342.50 1.298
342.60 1.298
342.70 1.298
342.80 1.298
342.90 1.298
343.00 1.298
343.10 1.298
343.20 1.298
343.30 1.298
343.40 1.298
343.50 1.298
343.60 1.298
343.70 1.298
343.80 1.298
343.90 1.298
344.00 1.297
344.10 1.297
344.20 1.297
344.30 1.297
344.40 1.297
344.50 1.297
344.60 1.297
344.70 1.297
344.80 1.297
344.90 1.297
345.00 1.297
345.10 1.297
345.20 1.297
345.30 1.297
345.40 1.297
345.50 1.297
345.60 1.297
345.70 1.297
345.80 1.297
345.90 1.297
346.00 1.297
346.10 1.297
346.20 1.297
346.30 1.297
346.40 1.297
346.50 1.297
346.60 1.296
346.70 1.296
346.80 1.296
346.90 1.296
347.00 1.296
347.10 1.296
347.20 1.296
347.30 1.296
347.40 1.296
347.50 1.296
347.60 1.296
347.70 1.296
347.80 1.296
347.90 1.296
348.00 1.296
348.10 1.296
348.20 1.296
348.30 1.296
348.40 1.296
348.50 1.296
348.60 1.295
348.70 1.295
348.80 1.295
348.90 1.295
349.00 1.295
349.10 1.295
349.20 1.295
349.30 1.295
349.40 1.295
349.50 1.295
349.60 1.295
349.70 1.295
349.80 1.295
349.90 1.295
350.00 1.295
350.10 1.295
350.20 1.295
350.30 1.294
350.40 1.294
350.50 1.294
350.60 1.294
350.70 1.294
350.80 1.294
350.90 1.294
351.00 1.294
351.10 1.294
351.20 1.294
351.30 1.294
351.40 1.294
351.50 1.294
351.60 1.294
351.70 1.294
351.80 1.294
351.90 1.293
352.00 1.293
352.10 1.293
352.20 1.293
352.30 1.293
352.40 1.293
352.50 1.293
352.60 1.293
352.70 1.293
352.80 1.293
352.90 1.293
353.00 1.293
353.10 1.293
353.20 1.293
353.30 1.293
353.40 1.292
353.50 1.292
353.60 1.292
353.70 1.292
353.80 1.292
353.90 1.292
354.00 1.292
354.10 1.292
354.20 1.292
354.30 1.292
354.40 1.292
354.50 1.292
354.60 1.292
354.70 1.291
354.80 1.291
354.90 1.291
355.00 1.291
355.10 1.291
355.20 1.291
355.30 1.291
355.40 1.291
355.50 1.291
355.60 1.291
355.70 1.291
355.80 1.291
355.90 1.29
356.00 1.29
356.10 1.29
356.20 1.29
356.30 1.29
356.40 1.29
356.50 1.29
356.60 1.29
356.70 1.29
356.80 1.29
356.90 1.29
357.00 1.29
357.10 1.289
357.20 1.289
357.30 1.289
357.40 1.289
357.50 1.289
357.60 1.289
357.70 1.289
357.80 1.289
357.90 1.289
358.00 1.289
358.10 1.289
358.20 1.288
358.30 1.288
358.40 1.288
358.50 1.288
358.60 1.288
358.70 1.288
358.80 1.288
358.90 1.288
359.00 1.288
359.10 1.288
359.20 1.288
359.30 1.287
359.40 1.287
359.50 1.287
359.60 1.287
359.70 1.287
359.80 1.287
359.90 1.287
360.00 1.287
360.10 1.287
360.20 1.287
360.30 1.287
360.40 1.286
360.50 1.286
360.60 1.286
360.70 1.286
360.80 1.286
360.90 1.286
361.00 1.286
361.10 1.286
361.20 1.286
361.30 1.286
361.40 1.285
361.50 1.285
361.60 1.285
361.70 1.285
361.80 1.285
361.90 1.285
362.00 1.285
362.10 1.285
362.20 1.285
362.30 1.284
362.40 1.284
362.50 1.284
362.60 1.284
362.70 1.284
362.80 1.284
362.90 1.284
363.00 1.284
363.10 1.284
363.20 1.284
363.30 1.283
363.40 1.283
363.50 1.283
363.60 1.283
363.70 1.283
363.80 1.283
363.90 1.283
364.00 1.283
364.10 1.283
364.20 1.282
364.30 1.282
364.40 1.282
364.50 1.282
364.60 1.282
364.70 1.282
364.80 1.282
364.90 1.282
365.00 1.281
365.10 1.281
365.20 1.281
365.30 1.281
365.40 1.281
365.50 1.281
365.60 1.281
365.70 1.281
365.80 1.28
365.90 1.28
366.00 1.28
366.10 1.28
366.20 1.28
366.30 1.28
366.40 1.28
366.50 1.28
366.60 1.279
366.70 1.279
366.80 1.279
366.90 1.279
367.00 1.279
367.10 1.279
367.20 1.279
367.30 1.279
367.40 1.279
367.50 1.278
367.60 1.278
367.70 1.278
367.80 1.278
367.90 1.278
368.00 1.278
368.10 1.278
368.20 1.278
368.30 1.277
368.40 1.277
368.50 1.277
368.60 1.277
368.70 1.277
368.80 1.277
368.90 1.277
369.00 1.277
369.10 1.276
369.20 1.276
369.30 1.276
369.40 1.276
369.50 1.276
369.60 1.276
369.70 1.276
369.80 1.276
369.90 1.275
370.00 1.275
370.10 1.275
370.20 1.275
370.30 1.275
370.40 1.275
370.50 1.275
370.60 1.274
370.70 1.274
370.80 1.274
370.90 1.274
371.00 1.274
371.10 1.274
371.20 1.274
371.30 1.273
371.40 1.273
371.50 1.273
371.60 1.273
371.70 1.273
371.80 1.273
371.90 1.273
372.00 1.273
372.10 1.272
372.20 1.272
372.30 1.272
372.40 1.272
372.50 1.272
372.60 1.272
372.70 1.272
372.80 1.271
372.90 1.271
373.00 1.271
373.10 1.271
373.20 1.271
373.30 1.271
373.40 1.271
373.50 1.271
373.60 1.27
373.70 1.27
373.80 1.27
373.90 1.27
374.00 1.27
374.10 1.27
374.20 1.27
374.30 1.269
374.40 1.269
374.50 1.269
374.60 1.269
374.70 1.269
374.80 1.269
374.90 1.269
375.00 1.268
375.10 1.268
375.20 1.268
375.30 1.268
375.40 1.268
375.50 1.268
375.60 1.267
375.70 1.267
375.80 1.267
375.90 1.267
376.00 1.267
376.10 1.267
376.20 1.267
376.30 1.266
376.40 1.266
376.50 1.266
376.60 1.266
376.70 1.266
376.80 1.266
376.90 1.266
377.00 1.265
377.10 1.265
377.20 1.265
377.30 1.265
377.40 1.265
377.50 1.265
377.60 1.264
377.70 1.264
377.80 1.264
377.90 1.264
378.00 1.264
378.10 1.264
378.20 1.264
378.30 1.263
378.40 1.263
378.50 1.263
378.60 1.263
378.70 1.263
378.80 1.263
378.90 1.262
379.00 1.262
379.10 1.262
379.20 1.262
379.30 1.262
379.40 1.261
379.50 1.261
379.60 1.261
379.70 1.261
379.80 1.26
379.90 1.26
380.00 1.26
380.10 1.26
380.20 1.26
380.30 1.26
380.40 1.26
380.50 1.26
380.60 1.26
380.70 1.259
380.80 1.259
380.90 1.259
381.00 1.259
381.10 1.259
381.20 1.259
381.30 1.259
381.40 1.259
381.50 1.258
381.60 1.258
381.70 1.258
381.80 1.258
381.90 1.258
382.00 1.258
382.10 1.257
382.20 1.257
382.30 1.257
382.40 1.257
382.50 1.256
382.60 1.256
382.70 1.256
382.80 1.255
382.90 1.255
383.00 1.255
383.10 1.254
383.20 1.254
383.30 1.253
383.40 1.252
383.50 1.25
383.60 1.25
383.70 1.252
383.80 1.253
383.90 1.253
384.00 1.254
384.10 1.254
384.20 1.254
384.30 1.254
384.40 1.254
384.50 1.254
384.60 1.254
384.70 1.254
384.80 1.254
384.90 1.254
385.00 1.254
385.10 1.254
385.20 1.254
385.30 1.253
385.40 1.253
385.50 1.253
385.60 1.253
385.70 1.253
385.80 1.253
385.90 1.253
386.00 1.252
386.10 1.252
386.20 1.252
386.30 1.252
386.40 1.252
386.50 1.252
386.60 1.251
386.70 1.251
386.80 1.251
386.90 1.251
387.00 1.25
387.10 1.25
387.20 1.25
387.30 1.25
387.40 1.249
387.50 1.249
387.60 1.248
387.70 1.248
387.80 1.247
387.90 1.247
388.00 1.246
388.10 1.246
388.20 1.245
388.30 1.244
388.40 1.243
388.50 1.242
388.60 1.24
388.70 1.238
388.80 1.234
388.90 1.23
389.00 1.234
389.10 1.237
389.20 1.239
389.30 1.241
389.40 1.242
389.50 1.243
389.60 1.244
389.70 1.244
389.80 1.245
389.90 1.245
390.00 1.245
390.10 1.246
390.20 1.246
390.30 1.246
390.40 1.246
390.50 1.246
390.60 1.247
390.70 1.247
390.80 1.247
390.90 1.247
391.00 1.247
391.10 1.247
391.20 1.247
391.30 1.247
391.40 1.247
391.50 1.247
391.60 1.247
391.70 1.247
391.80 1.247
391.90 1.247
392.00 1.246
392.10 1.246
392.20 1.246
392.30 1.246
392.40 1.246
392.50 1.246
392.60 1.246
392.70 1.246
392.80 1.245
392.90 1.245
393.00 1.245
393.10 1.245
393.20 1.245
393.30 1.244
393.40 1.244
393.50 1.244
393.60 1.244
393.70 1.243
393.80 1.243
393.90 1.243
394.00 1.242
394.10 1.242
394.20 1.241
394.30 1.241
394.40 1.24
394.50 1.24
394.60 1.239
394.70 1.239
394.80 1.238
394.90 1.238
395.00 1.237
395.10 1.236
395.20 1.235
395.30 1.234
395.40 1.233
395.50 1.232
395.60 1.231
395.70 1.23
395.80 1.229
395.90 1.227
396.00 1.226
396.10 1.224
396.20 1.222
396.30 1.219
396.40 1.217
396.50 1.214
396.60 1.21
396.70 1.206
396.80 1.2
396.90 1.191
397.00 1.18
397.10 1.19
397.20 1.199
397.30 1.205
397.40 1.209
397.50 1.212
397.60 1.215
397.70 1.218
397.80 1.22
397.90 1.222
398.00 1.223
398.10 1.225
398.20 1.226
398.30 1.227
398.40 1.228
398.50 1.229
398.60 1.23
398.70 1.231
398.80 1.231
398.90 1.232
399.00 1.232
399.10 1.233
399.20 1.233
399.30 1.234
399.40 1.234
399.50 1.234
399.60 1.235
399.70 1.235
399.80 1.235
399.90 1.235
400.00 1.236
400.10 1.236
400.20 1.236
400.30 1.236
400.40 1.236
400.50 1.236
400.60 1.236
400.70 1.236
400.80 1.236
400.90 1.236
401.00 1.236
401.10 1.236
401.20 1.236
401.30 1.236
401.40 1.236
401.50 1.236
401.60 1.236
401.70 1.236
401.80 1.236
401.90 1.236
402.00 1.236
402.10 1.235
402.20 1.235
402.30 1.235
402.40 1.235
402.50 1.235
402.60 1.235
402.70 1.235
402.80 1.235
402.90 1.234
403.00 1.234
403.10 1.234
403.20 1.234
403.30 1.234
403.40 1.234
403.50 1.233
403.60 1.233
403.70 1.233
403.80 1.233
403.90 1.233
404.00 1.232
404.10 1.232
404.20 1.232
404.30 1.232
404.40 1.231
404.50 1.231
404.60 1.231
404.70 1.23
404.80 1.23
404.90 1.23
405.00 1.23
405.10 1.229
405.20 1.229
405.30 1.229
405.40 1.228
405.50 1.228
405.60 1.227
405.70 1.227
405.80 1.226
405.90 1.226
406.00 1.226
406.10 1.225
406.20 1.225
406.30 1.224
406.40 1.223
406.50 1.223
406.60 1.222
406.70 1.221
406.80 1.221
406.90 1.22
407.00 1.219
407.10 1.218
407.20 1.218
407.30 1.217
407.40 1.216
407.50 1.214
407.60 1.213
407.70 1.212
407.80 1.211
407.90 1.209
408.00 1.208
408.10 1.206
408.20 1.204
408.30 1.202
408.40 1.2
408.50 1.198
408.60 1.195
408.70 1.193
408.80 1.19
408.90 1.186
409.00 1.183
409.10 1.179
409.20 1.174
409.30 1.169
409.40 1.164
409.50 1.157
409.60 1.15
409.70 1.141
409.80 1.131
409.90 1.12
410.00 1.104
410.10 1.086
410.20 1.067
410.30 1.092
410.40 1.112
410.50 1.126
410.60 1.136
410.70 1.145
410.80 1.152
410.90 1.159
411.00 1.164
411.10 1.169
411.20 1.174
411.30 1.177
411.40 1.181
411.50 1.184
411.60 1.187
411.70 1.189
411.80 1.191
411.90 1.193
412.00 1.195
412.10 1.197
412.20 1.198
412.30 1.2
412.40 1.201
412.50 1.202
412.60 1.203
412.70 1.204
412.80 1.205
412.90 1.206
413.00 1.206
413.10 1.207
413.20 1.208
413.30 1.208
413.40 1.209
413.50 1.209
413.60 1.209
413.70 1.21
413.80 1.21
413.90 1.21
414.00 1.21
414.10 1.211
414.20 1.211
414.30 1.211
414.40 1.211
414.50 1.211
414.60 1.211
414.70 1.211
414.80 1.211
414.90 1.211
415.00 1.211
415.10 1.211
415.20 1.211
415.30 1.211
415.40 1.211
415.50 1.211
415.60 1.211
415.70 1.211
415.80 1.211
415.90 1.211
416.00 1.211
416.10 1.211
416.20 1.211
416.30 1.211
416.40 1.211
416.50 1.211
416.60 1.21
416.70 1.21
416.80 1.21
416.90 1.21
417.00 1.21
417.10 1.21
417.20 1.21
417.30 1.21
417.40 1.209
417.50 1.209
417.60 1.209
417.70 1.209
417.80 1.209
417.90 1.209
418.00 1.208
418.10 1.208
418.20 1.208
418.30 1.208
418.40 1.208
418.50 1.208
418.60 1.207
418.70 1.207
418.80 1.207
418.90 1.207
419.00 1.207
419.10 1.207
419.20 1.206
419.30 1.206
419.40 1.206
419.50 1.206
419.60 1.206
419.70 1.205
419.80 1.205
419.90 1.205
420.00 1.205
420.10 1.205
420.20 1.204
420.30 1.204
420.40 1.204
420.50 1.204
420.60 1.204
420.70 1.203
420.80 1.203
420.90 1.203
421.00 1.203
421.10 1.202
421.20 1.202
421.30 1.202
421.40 1.202
421.50 1.202
421.60 1.201
421.70 1.201
421.80 1.201
421.90 1.201
422.00 1.2
422.10 1.2
422.20 1.2
422.30 1.2
422.40 1.2
422.50 1.199
422.60 1.199
422.70 1.199
422.80 1.199
422.90 1.198
423.00 1.198
423.10 1.198
423.20 1.198
423.30 1.197
423.40 1.197
423.50 1.197
423.60 1.197
423.70 1.196
423.80 1.196
423.90 1.196
424.00 1.196
424.10 1.195
424.20 1.195
424.30 1.195
424.40 1.195
424.50 1.194
424.60 1.194
424.70 1.194
424.80 1.193
424.90 1.193
425.00 1.193
425.10 1.193
425.20 1.192
425.30 1.192
425.40 1.192
425.50 1.192
425.60 1.191
425.70 1.191
425.80 1.191
425.90 1.19
426.00 1.19
426.10 1.19
426.20 1.189
426.30 1.189
426.40 1.189
426.50 1.188
426.60 1.188
426.70 1.188
426.80 1.187
426.90 1.187
427.00 1.187
427.10 1.186
427.20 1.186
427.30 1.186
427.40 1.185
427.50 1.185
427.60 1.185
427.70 1.184
427.80 1.184
427.90 1.183
428.00 1.183
428.10 1.183
428.20 1.182
428.30 1.182
428.40 1.181
428.50 1.181
428.60 1.18
428.70 1.18
428.80 1.179
428.90 1.179
429.00 1.178
429.10 1.178
429.20 1.177
429.30 1.176
429.40 1.176
429.50 1.175
429.60 1.174
429.70 1.174
429.80 1.173
429.90 1.172
430.00 1.171
430.10 1.17
430.20 1.17
430.30 1.169
430.40 1.168
430.50 1.167
430.60 1.165
430.70 1.164
430.80 1.163
430.90 1.162
431.00 1.16
431.10 1.159
431.20 1.157
431.30 1.155
431.40 1.153
431.50 1.151
431.60 1.149
431.70 1.147
431.80 1.144
431.90 1.142
432.00 1.138
432.10 1.135
432.20 1.131
432.30 1.127
432.40 1.123
432.50 1.118
432.60 1.113
432.70 1.107
432.80 1.1
432.90 1.092
433.00 1.084
433.10 1.074
433.20 1.064
433.30 1.052
433.40 1.038
433.50 1.021
433.60 1.002
433.70 0.9772
433.80 0.9469
433.90 0.9115
434.00 0.8502
434.10 0.8513
434.20 0.9147
434.30 0.949
434.40 0.9784
434.50 1.003
434.60 1.021
434.70 1.037
434.80 1.051
434.90 1.062
435.00 1.072
435.10 1.081
435.20 1.089
435.30 1.096
435.40 1.102
435.50 1.107
435.60 1.112
435.70 1.117
435.80 1.121
435.90 1.124
436.00 1.127
436.10 1.13
436.20 1.133
436.30 1.135
436.40 1.137
436.50 1.139
436.60 1.141
436.70 1.142
436.80 1.143
436.90 1.145
437.00 1.146
437.10 1.147
437.20 1.148
437.30 1.148
437.40 1.149
437.50 1.15
437.60 1.151
437.70 1.151
437.80 1.152
437.90 1.152
438.00 1.152
438.10 1.153
438.20 1.153
438.30 1.153
438.40 1.154
438.50 1.154
438.60 1.154
438.70 1.154
438.80 1.154
438.90 1.154
439.00 1.155
439.10 1.155
439.20 1.155
439.30 1.155
439.40 1.155
439.50 1.155
439.60 1.155
439.70 1.155
439.80 1.155
439.90 1.155
440.00 1.155
440.10 1.155
440.20 1.154
440.30 1.154
440.40 1.154
440.50 1.154
440.60 1.154
440.70 1.154
440.80 1.154
440.90 1.154
441.00 1.154
441.10 1.153
441.20 1.153
441.30 1.153
441.40 1.153
441.50 1.153
441.60 1.153
441.70 1.153
441.80 1.152
441.90 1.152
442.00 1.152
442.10 1.152
442.20 1.152
442.30 1.151
442.40 1.151
442.50 1.151
442.60 1.151
442.70 1.151
442.80 1.151
442.90 1.15
443.00 1.15
443.10 1.15
443.20 1.15
443.30 1.15
443.40 1.149
443.50 1.149
443.60 1.149
443.70 1.149
443.80 1.148
443.90 1.148
444.00 1.148
444.10 1.148
444.20 1.148
444.30 1.147
444.40 1.147
444.50 1.147
444.60 1.147
444.70 1.147
444.80 1.146
444.90 1.146
445.00 1.146
445.10 1.146
445.20 1.145
445.30 1.145
445.40 1.145
445.50 1.145
445.60 1.144
445.70 1.144
445.80 1.144
445.90 1.144
446.00 1.144
446.10 1.143
446.20 1.143
446.30 1.143
446.40 1.143
446.50 1.142
446.60 1.142
446.70 1.142
446.80 1.142
446.90 1.141
447.00 1.141
447.10 1.141
447.20 1.141
447.30 1.14
447.40 1.14
447.50 1.14
447.60 1.14
447.70 1.14
447.80 1.139
447.90 1.139
448.00 1.139
448.10 1.139
448.20 1.138
448.30 1.138
448.40 1.138
448.50 1.138
448.60 1.137
448.70 1.137
448.80 1.137
448.90 1.137
449.00 1.136
449.10 1.136
449.20 1.136
449.30 1.136
449.40 1.135
449.50 1.135
449.60 1.135
449.70 1.135
449.80 1.134
449.90 1.134
450.00 1.134
450.10 1.134
450.20 1.133
450.30 1.133
450.40 1.133
450.50 1.133
450.60 1.132
450.70 1.132
450.80 1.132
450.90 1.132
451.00 1.131
451.10 1.131
451.20 1.131
451.30 1.131
451.40 1.13
451.50 1.13
451.60 1.13
451.70 1.13
451.80 1.129
451.90 1.129
452.00 1.129
452.10 1.129
452.20 1.128
452.30 1.128
452.40 1.128
452.50 1.128
452.60 1.127
452.70 1.127
452.80 1.127
452.90 1.126
453.00 1.126
453.10 1.126
453.20 1.126
453.30 1.125
453.40 1.125
453.50 1.125
453.60 1.125
453.70 1.124
453.80 1.124
453.90 1.124
454.00 1.124
454.10 1.123
454.20 1.123
454.30 1.123
454.40 1.123
454.50 1.122
454.60 1.122
454.70 1.122
454.80 1.122
454.90 1.121
455.00 1.121
455.10 1.121
455.20 1.121
455.30 1.12
455.40 1.12
455.50 1.12
455.60 1.12
455.70 1.119
455.80 1.119
455.90 1.119
456.00 1.118
456.10 1.118
456.20 1.118
456.30 1.118
456.40 1.117
456.50 1.117
456.60 1.117
456.70 1.117
456.80 1.116
456.90 1.116
457.00 1.116
457.10 1.116
457.20 1.115
457.30 1.115
457.40 1.115
457.50 1.115
457.60 1.114
457.70 1.114
457.80 1.114
457.90 1.114
458.00 1.113
458.10 1.113
458.20 1.113
458.30 1.112
458.40 1.112
458.50 1.112
458.60 1.112
458.70 1.111
458.80 1.111
458.90 1.111
459.00 1.111
459.10 1.11
459.20 1.11
459.30 1.11
459.40 1.11
459.50 1.109
459.60 1.109
459.70 1.109
459.80 1.109
459.90 1.108
460.00 1.108
460.10 1.108
460.20 1.107
460.30 1.107
460.40 1.107
460.50 1.107
460.60 1.106
460.70 1.106
460.80 1.106
460.90 1.106
461.00 1.105
461.10 1.105
461.20 1.105
461.30 1.105
461.40 1.104
461.50 1.104
461.60 1.104
461.70 1.103
461.80 1.103
461.90 1.103
462.00 1.103
462.10 1.102
462.20 1.102
462.30 1.102
462.40 1.102
462.50 1.101
462.60 1.101
462.70 1.101
462.80 1.1
462.90 1.1
463.00 1.1
463.10 1.1
463.20 1.099
463.30 1.099
463.40 1.099
463.50 1.099
463.60 1.098
463.70 1.098
463.80 1.098
463.90 1.098
464.00 1.097
464.10 1.097
464.20 1.097
464.30 1.096
464.40 1.096
464.50 1.096
464.60 1.096
464.70 1.095
464.80 1.095
464.90 1.095
465.00 1.095
465.10 1.094
465.20 1.094
465.30 1.094
465.40 1.093
465.50 1.093
465.60 1.093
465.70 1.093
465.80 1.092
465.90 1.092
466.00 1.092
466.10 1.092
466.20 1.091
466.30 1.091
466.40 1.091
466.50 1.09
466.60 1.09
466.70 1.09
466.80 1.09
466.90 1.089
467.00 1.089
467.10 1.089
467.20 1.088
467.30 1.088
467.40 1.088
467.50 1.088
467.60 1.087
467.70 1.087
467.80 1.087
467.90 1.087
468.00 1.086
468.10 1.086
468.20 1.086
468.30 1.085
468.40 1.085
468.50 1.085
468.60 1.085
468.70 1.084
468.80 1.084
468.90 1.084
469.00 1.084
469.10 1.083
469.20 1.083
469.30 1.083
469.40 1.082
469.50 1.082
469.60 1.082
469.70 1.082
469.80 1.081
469.90 1.081
470.00 1.081
470.10 1.08
470.20 1.08
470.30 1.08
470.40 1.08
470.50 1.079
470.60 1.079
470.70 1.079
470.80 1.078
470.90 1.078
471.00 1.078
471.10 1.078
471.20 1.077
471.30 1.077
471.40 1.077
471.50 1.076
471.60 1.076
471.70 1.076
471.80 1.076
471.90 1.075
472.00 1.075
472.10 1.075
472.20 1.074
472.30 1.074
472.40 1.074
472.50 1.074
472.60 1.073
472.70 1.073
472.80 1.073
472.90 1.072
473.00 1.072
473.10 1.072
473.20 1.071
473.30 1.071
473.40 1.071
473.50 1.071
473.60 1.07
473.70 1.07
473.80 1.07
473.90 1.069
474.00 1.069
474.10 1.069
474.20 1.068
474.30 1.068
474.40 1.068
474.50 1.067
474.60 1.067
474.70 1.067
474.80 1.066
474.90 1.066
475.00 1.066
475.10 1.066
475.20 1.065
475.30 1.065
475.40 1.065
475.50 1.064
475.60 1.064
475.70 1.064
475.80 1.063
475.90 1.063
476.00 1.063
476.10 1.062
476.20 1.062
476.30 1.062
476.40 1.061
476.50 1.061
476.60 1.061
476.70 1.06
476.80 1.06
476.90 1.059
477.00 1.059
477.10 1.059
477.20 1.058
477.30 1.058
477.40 1.058
477.50 1.057
477.60 1.057
477.70 1.057
477.80 1.056
477.90 1.056
478.00 1.055
478.10 1.055
478.20 1.055
478.30 1.054
478.40 1.054
478.50 1.053
478.60 1.053
478.70 1.052
478.80 1.052
478.90 1.052
479.00 1.051
479.10 1.051
479.20 1.05
479.30 1.05
479.40 1.049
479.50 1.049
479.60 1.048
479.70 1.048
479.80 1.047
479.90 1.047
480.00 1.046
480.10 1.046
480.20 1.045
480.30 1.044
480.40 1.044
480.50 1.043
480.60 1.042
480.70 1.042
480.80 1.041
480.90 1.04
481.00 1.04
481.10 1.039
481.20 1.038
481.30 1.037
481.40 1.036
481.50 1.035
481.60 1.034
481.70 1.033
481.80 1.032
481.90 1.031
482.00 1.03
482.10 1.029
482.20 1.028
482.30 1.026
482.40 1.025
482.50 1.023
482.60 1.022
482.70 1.02
482.80 1.018
482.90 1.017
483.00 1.015
483.10 1.014
483.20 1.011
483.30 1.008
483.40 1.004
483.50 1.001
483.60 0.998
483.70 0.9949
483.80 0.9917
483.90 0.9885
484.00 0.9853
484.10 0.9821
484.20 0.977
484.30 0.9709
484.40 0.9648
484.50 0.9587
484.60 0.9527
484.70 0.9437
484.80 0.9333
484.90 0.9229
485.00 0.9126
485.10 0.9022
485.20 0.8883
485.30 0.8726
485.40 0.8537
485.50 0.8332
485.60 0.8073
485.70 0.779
485.80 0.7408
485.90 0.698
486.00 0.6419
486.10 0.5469
486.20 0.5872
486.30 0.6639
486.40 0.7116
486.50 0.7545
486.60 0.7874
486.70 0.8154
486.80 0.8381
486.90 0.8583
487.00 0.875
487.10 0.8902
487.20 0.9018
487.30 0.9117
487.40 0.9216
487.50 0.9314
487.60 0.9413
487.70 0.9482
487.80 0.9538
487.90 0.9593
488.00 0.9648
488.10 0.9703
488.20 0.9739
488.30 0.9765
488.40 0.9792
488.50 0.9818
488.60 0.9844
488.70 0.9871
488.80 0.9897
488.90 0.9923
489.00 0.995
489.10 0.9976
489.20 0.9991
489.30 1
489.40 1.001
489.50 1.002
489.60 1.003
489.70 1.004
489.80 1.005
489.90 1.006
490.00 1.007
490.10 1.008
490.20 1.009
490.30 1.009
490.40 1.01
490.50 1.01
490.60 1.011
490.70 1.011
490.80 1.011
490.90 1.012
491.00 1.012
491.10 1.013
491.20 1.013
491.30 1.013
491.40 1.013
491.50 1.013
491.60 1.013
491.70 1.013
491.80 1.014
491.90 1.014
492.00 1.014
492.10 1.014
492.20 1.014
492.30 1.014
492.40 1.014
492.50 1.014
492.60 1.014
492.70 1.014
492.80 1.014
492.90 1.014
493.00 1.014
493.10 1.014
493.20 1.014
493.30 1.013
493.40 1.013
493.50 1.013
493.60 1.013
493.70 1.013
493.80 1.013
493.90 1.013
494.00 1.013
494.10 1.013
494.20 1.012
494.30 1.012
494.40 1.012
494.50 1.012
494.60 1.012
494.70 1.012
494.80 1.011
494.90 1.011
495.00 1.011
495.10 1.011
495.20 1.011
495.30 1.011
495.40 1.01
495.50 1.01
495.60 1.01
495.70 1.01
495.80 1.01
495.90 1.009
496.00 1.009
496.10 1.009
496.20 1.009
496.30 1.009
496.40 1.008
496.50 1.008
496.60 1.008
496.70 1.008
496.80 1.007
496.90 1.007
497.00 1.007
497.10 1.007
497.20 1.007
497.30 1.006
497.40 1.006
497.50 1.006
497.60 1.006
497.70 1.005
497.80 1.005
497.90 1.005
498.00 1.005
498.10 1.005
498.20 1.004
498.30 1.004
498.40 1.004
498.50 1.004
498.60 1.003
498.70 1.003
498.80 1.003
498.90 1.003
499.00 1.002
499.10 1.002
499.20 1.002
499.30 1.002
499.40 1.001
499.50 1.001
499.60 1.001
499.70 1.001
499.80 1
499.90 1
500.00 1
500.10 0.9998
500.20 0.9995
500.30 0.9993
500.40 0.999
500.50 0.9988
500.60 0.9985
500.70 0.9983
500.80 0.998
500.90 0.9978
501.00 0.9975
501.10 0.9973
501.20 0.997
501.30 0.9968
501.40 0.9965
501.50 0.9963
501.60 0.996
501.70 0.9958
501.80 0.9955
501.90 0.9953
502.00 0.995
502.10 0.9948
502.20 0.9945
502.30 0.9943
502.40 0.994
502.50 0.9937
502.60 0.9935
502.70 0.9932
502.80 0.993
502.90 0.9927
503.00 0.9925
503.10 0.9922
503.20 0.9919
503.30 0.9917
503.40 0.9914
503.50 0.9912
503.60 0.9909
503.70 0.9907
503.80 0.9904
503.90 0.9902
504.00 0.9899
504.10 0.9896
504.20 0.9894
504.30 0.9891
504.40 0.9889
504.50 0.9886
504.60 0.9883
504.70 0.9881
504.80 0.9878
504.90 0.9876
505.00 0.9873
505.10 0.987
505.20 0.9868
505.30 0.9865
505.40 0.9863
505.50 0.986
505.60 0.9857
505.70 0.9855
505.80 0.9852
505.90 0.985
506.00 0.9847
506.10 0.9844
506.20 0.9842
506.30 0.9839
506.40 0.9837
506.50 0.9834
506.60 0.9832
506.70 0.9829
506.80 0.9826
506.90 0.9824
507.00 0.9821
507.10 0.9819
507.20 0.9816
507.30 0.9813
507.40 0.9811
507.50 0.9808
507.60 0.9806
507.70 0.9803
507.80 0.98
507.90 0.9798
508.00 0.9795
508.10 0.9792
508.20 0.979
508.30 0.9787
508.40 0.9785
508.50 0.9782
508.60 0.9779
508.70 0.9777
508.80 0.9774
508.90 0.9772
509.00 0.9769
509.10 0.9766
509.20 0.9764
509.30 0.9761
509.40 0.9758
509.50 0.9756
509.60 0.9753
509.70 0.975
509.80 0.9748
509.90 0.9745
510.00 0.9742
510.10 0.974
510.20 0.9737
510.30 0.9735
510.40 0.9732
510.50 0.9729
510.60 0.9727
510.70 0.9724
510.80 0.9722
510.90 0.9719
511.00 0.9716
511.10 0.9714
511.20 0.9711
511.30 0.9709
511.40 0.9706
511.50 0.9703
511.60 0.9701
511.70 0.9698
511.80 0.9695
511.90 0.9693
512.00 0.969
512.10 0.9688
512.20 0.9685
512.30 0.9682
512.40 0.968
512.50 0.9677
512.60 0.9674
512.70 0.9672
512.80 0.9669
512.90 0.9667
513.00 0.9664
513.10 0.9661
513.20 0.9659
513.30 0.9656
513.40 0.9653
513.50 0.9651
513.60 0.9648
513.70 0.9645
513.80 0.9643
513.90 0.964
514.00 0.9637
514.10 0.9635
514.20 0.9632
514.30 0.9629
514.40 0.9627
514.50 0.9624
514.60 0.9622
514.70 0.9619
514.80 0.9616
514.90 0.9614
515.00 0.9611
515.10 0.9608
515.20 0.9606
515.30 0.9603
515.40 0.96
515.50 0.9598
515.60 0.9595
515.70 0.9592
515.80 0.959
515.90 0.9587
516.00 0.9585
516.10 0.9582
516.20 0.9579
516.30 0.9577
516.40 0.9574
516.50 0.9571
516.60 0.9569
516.70 0.9566
516.80 0.9564
516.90 0.9561
517.00 0.9558
517.10 0.9556
517.20 0.9553
517.30 0.955
517.40 0.9548
517.50 0.9545
517.60 0.9543
517.70 0.954
517.80 0.9537
517.90 0.9535
518.00 0.9532
518.10 0.953
518.20 0.9527
518.30 0.9524
518.40 0.9522
518.50 0.9519
518.60 0.9516
518.70 0.9514
518.80 0.9511
518.90 0.9508
519.00 0.9506
519.10 0.9503
519.20 0.95
519.30 0.9498
519.40 0.9495
519.50 0.9493
519.60 0.949
519.70 0.9488
519.80 0.9485
519.90 0.9482
520.00 0.948
520.10 0.9477
520.20 0.9475
520.30 0.9472
520.40 0.9469
520.50 0.9467
520.60 0.9464
520.70 0.9461
520.80 0.9459
520.90 0.9456
521.00 0.9454
521.10 0.9451
521.20 0.9448
521.30 0.9446
521.40 0.9443
521.50 0.944
521.60 0.9438
521.70 0.9435
521.80 0.9432
521.90 0.943
522.00 0.9427
522.10 0.9424
522.20 0.9422
522.30 0.9419
522.40 0.9416
522.50 0.9414
522.60 0.9411
522.70 0.9409
522.80 0.9406
522.90 0.9403
523.00 0.9401
523.10 0.9398
523.20 0.9396
523.30 0.9393
523.40 0.939
523.50 0.9388
523.60 0.9385
523.70 0.9382
523.80 0.938
523.90 0.9377
524.00 0.9374
524.10 0.9372
524.20 0.9369
524.30 0.9367
524.40 0.9364
524.50 0.9362
524.60 0.9359
524.70 0.9356
524.80 0.9354
524.90 0.9351
525.00 0.9349
525.10 0.9346
525.20 0.9343
525.30 0.9341
525.40 0.9338
525.50 0.9336
525.60 0.9333
525.70 0.933
525.80 0.9328
525.90 0.9325
526.00 0.9323
526.10 0.932
526.20 0.9317
526.30 0.9315
526.40 0.9312
526.50 0.931
526.60 0.9307
526.70 0.9304
526.80 0.9302
526.90 0.9299
527.00 0.9297
527.10 0.9294
527.20 0.9291
527.30 0.9289
527.40 0.9286
527.50 0.9283
527.60 0.9281
527.70 0.9278
527.80 0.9275
527.90 0.9273
528.00 0.927
528.10 0.9267
528.20 0.9265
528.30 0.9262
528.40 0.926
528.50 0.9257
528.60 0.9255
528.70 0.9252
528.80 0.9249
528.90 0.9247
529.00 0.9244
529.10 0.9242
529.20 0.9239
529.30 0.9236
529.40 0.9234
529.50 0.9231
529.60 0.9229
529.70 0.9226
529.80 0.9223
529.90 0.9221
530.00 0.9218
530.10 0.9216
530.20 0.9213
530.30 0.921
530.40 0.9208
530.50 0.9205
530.60 0.9202
530.70 0.92
530.80 0.9197
530.90 0.9195
531.00 0.9192
531.10 0.9189
531.20 0.9187
531.30 0.9184
531.40 0.9182
531.50 0.9179
531.60 0.9177
531.70 0.9174
531.80 0.9171
531.90 0.9169
532.00 0.9166
532.10 0.9164
532.20 0.9161
532.30 0.9158
532.40 0.9156
532.50 0.9153
532.60 0.9151
532.70 0.9148
532.80 0.9145
532.90 0.9143
533.00 0.914
533.10 0.9138
533.20 0.9135
533.30 0.9133
533.40 0.913
533.50 0.9127
533.60 0.9125
533.70 0.9122
533.80 0.912
533.90 0.9117
534.00 0.9115
534.10 0.9112
534.20 0.9109
534.30 0.9107
534.40 0.9104
534.50 0.9102
534.60 0.9099
534.70 0.9096
534.80 0.9094
534.90 0.9091
535.00 0.9089
535.10 0.9086
535.20 0.9083
535.30 0.9081
535.40 0.9078
535.50 0.9076
535.60 0.9073
535.70 0.907
535.80 0.9068
535.90 0.9065
536.00 0.9063
536.10 0.906
536.20 0.9058
536.30 0.9055
536.40 0.9052
536.50 0.905
536.60 0.9047
536.70 0.9045
536.80 0.9042
536.90 0.904
537.00 0.9037
537.10 0.9035
537.20 0.9032
537.30 0.903
537.40 0.9027
537.50 0.9025
537.60 0.9022
537.70 0.9019
537.80 0.9017
537.90 0.9014
538.00 0.9012
538.10 0.9009
538.20 0.9007
538.30 0.9004
538.40 0.9001
538.50 0.8999
538.60 0.8996
538.70 0.8993
538.80 0.8991
538.90 0.8988
539.00 0.8986
539.10 0.8983
539.20 0.8981
539.30 0.8978
539.40 0.8975
539.50 0.8973
539.60 0.897
539.70 0.8968
539.80 0.8965
539.90 0.8963
540.00 0.896
540.10 0.8958
540.20 0.8955
540.30 0.8952
540.40 0.895
540.50 0.8947
540.60 0.8945
540.70 0.8942
540.80 0.894
540.90 0.8937
541.00 0.8934
541.10 0.8932
541.20 0.8929
541.30 0.8927
541.40 0.8924
541.50 0.8922
541.60 0.8919
541.70 0.8917
541.80 0.8914
541.90 0.8912
542.00 0.8909
542.10 0.8907
542.20 0.8904
542.30 0.8902
542.40 0.8899
542.50 0.8896
542.60 0.8894
542.70 0.8891
542.80 0.8889
542.90 0.8886
543.00 0.8884
543.10 0.8881
543.20 0.8879
543.30 0.8876
543.40 0.8873
543.50 0.8871
543.60 0.8868
543.70 0.8866
543.80 0.8863
543.90 0.8861
544.00 0.8858
544.10 0.8856
544.20 0.8853
544.30 0.8851
544.40 0.8848
544.50 0.8845
544.60 0.8843
544.70 0.884
544.80 0.8838
544.90 0.8835
545.00 0.8832
545.10 0.883
545.20 0.8827
545.30 0.8825
545.40 0.8822
545.50 0.882
545.60 0.8817
545.70 0.8815
545.80 0.8812
545.90 0.881
546.00 0.8807
546.10 0.8805
546.20 0.8802
546.30 0.88
546.40 0.8797
546.50 0.8795
546.60 0.8792
546.70 0.879
546.80 0.8787
546.90 0.8785
547.00 0.8782
547.10 0.878
547.20 0.8777
547.30 0.8775
547.40 0.8772
547.50 0.877
547.60 0.8767
547.70 0.8765
547.80 0.8762
547.90 0.876
548.00 0.8757
548.10 0.8755
548.20 0.8752
548.30 0.875
548.40 0.8747
548.50 0.8745
548.60 0.8742
548.70 0.874
548.80 0.8737
548.90 0.8734
549.00 0.8732
549.10 0.8729
549.20 0.8727
549.30 0.8724
549.40 0.8722
549.50 0.8719
549.60 0.8717
549.70 0.8714
549.80 0.8712
549.90 0.8709
550.00 0.8707
550.10 0.8704
550.20 0.8702
550.30 0.8699
550.40 0.8697
550.50 0.8694
550.60 0.8691
550.70 0.8689
550.80 0.8686
550.90 0.8684
551.00 0.8681
551.10 0.8679
551.20 0.8676
551.30 0.8674
551.40 0.8671
551.50 0.8669
551.60 0.8666
551.70 0.8664
551.80 0.8661
551.90 0.8659
552.00 0.8656
552.10 0.8654
552.20 0.8651
552.30 0.8649
552.40 0.8646
552.50 0.8644
552.60 0.8641
552.70 0.8639
552.80 0.8636
552.90 0.8634
553.00 0.8631
553.10 0.8628
553.20 0.8626
553.30 0.8624
553.40 0.8621
553.50 0.8619
553.60 0.8616
553.70 0.8614
553.80 0.8611
553.90 0.8609
554.00 0.8606
554.10 0.8604
554.20 0.8601
554.30 0.8599
554.40 0.8596
554.50 0.8594
554.60 0.8591
554.70 0.8589
554.80 0.8586
554.90 0.8584
555.00 0.8581
555.10 0.8579
555.20 0.8576
555.30 0.8574
555.40 0.8571
555.50 0.8569
555.60 0.8566
555.70 0.8564
555.80 0.8561
555.90 0.8559
556.00 0.8556
556.10 0.8554
556.20 0.8551
556.30 0.8549
556.40 0.8546
556.50 0.8544
556.60 0.8541
556.70 0.8539
556.80 0.8536
556.90 0.8534
557.00 0.8531
557.10 0.8529
557.20 0.8526
557.30 0.8524
557.40 0.8521
557.50 0.8519
557.60 0.8516
557.70 0.8514
557.80 0.8511
557.90 0.8509
558.00 0.8506
558.10 0.8504
558.20 0.8501
558.30 0.8499
558.40 0.8496
558.50 0.8494
558.60 0.8492
558.70 0.8489
558.80 0.8487
558.90 0.8484
559.00 0.8482
559.10 0.8479
559.20 0.8477
559.30 0.8474
559.40 0.8472
559.50 0.8469
559.60 0.8467
559.70 0.8464
559.80 0.8462
559.90 0.8459
560.00 0.8457
560.10 0.8454
560.20 0.8452
560.30 0.8449
560.40 0.8447
560.50 0.8445
560.60 0.8442
560.70 0.844
560.80 0.8437
560.90 0.8435
561.00 0.8432
561.10 0.843
561.20 0.8428
561.30 0.8425
561.40 0.8423
561.50 0.842
561.60 0.8418
561.70 0.8415
561.80 0.8413
561.90 0.841
562.00 0.8408
562.10 0.8405
562.20 0.8403
562.30 0.84
562.40 0.8398
562.50 0.8396
562.60 0.8393
562.70 0.8391
562.80 0.8388
562.90 0.8386
563.00 0.8383
563.10 0.8381
563.20 0.8378
563.30 0.8376
563.40 0.8373
563.50 0.8371
563.60 0.8369
563.70 0.8366
563.80 0.8364
563.90 0.8361
564.00 0.8359
564.10 0.8356
564.20 0.8354
564.30 0.8351
564.40 0.8349
564.50 0.8346
564.60 0.8344
564.70 0.8341
564.80 0.8339
564.90 0.8337
565.00 0.8334
565.10 0.8332
565.20 0.8329
565.30 0.8327
565.40 0.8324
565.50 0.8322
565.60 0.8319
565.70 0.8317
565.80 0.8315
565.90 0.8312
566.00 0.831
566.10 0.8307
566.20 0.8305
566.30 0.8302
566.40 0.83
566.50 0.8298
566.60 0.8295
566.70 0.8293
566.80 0.829
566.90 0.8288
567.00 0.8285
567.10 0.8283
567.20 0.828
567.30 0.8278
567.40 0.8275
567.50 0.8273
567.60 0.8271
567.70 0.8268
567.80 0.8266
567.90 0.8263
568.00 0.8261
568.10 0.8258
568.20 0.8256
568.30 0.8254
568.40 0.8251
568.50 0.8249
568.60 0.8246
568.70 0.8244
568.80 0.8242
568.90 0.8239
569.00 0.8237
569.10 0.8235
569.20 0.8232
569.30 0.823
569.40 0.8227
569.50 0.8225
569.60 0.8222
569.70 0.822
569.80 0.8218
569.90 0.8215
570.00 0.8213
570.10 0.821
570.20 0.8208
570.30 0.8205
570.40 0.8203
570.50 0.8201
570.60 0.8198
570.70 0.8196
570.80 0.8193
570.90 0.8191
571.00 0.8188
571.10 0.8186
571.20 0.8183
571.30 0.8181
571.40 0.8179
571.50 0.8176
571.60 0.8174
571.70 0.8171
571.80 0.8169
571.90 0.8167
572.00 0.8164
572.10 0.8162
572.20 0.816
572.30 0.8157
572.40 0.8155
572.50 0.8152
572.60 0.815
572.70 0.8148
572.80 0.8145
572.90 0.8143
573.00 0.814
573.10 0.8138
573.20 0.8136
573.30 0.8133
573.40 0.8131
573.50 0.8128
573.60 0.8126
573.70 0.8124
573.80 0.8121
573.90 0.8119
574.00 0.8116
574.10 0.8114
574.20 0.8111
574.30 0.8109
574.40 0.8107
574.50 0.8104
574.60 0.8102
574.70 0.8099
574.80 0.8097
574.90 0.8095
575.00 0.8092
575.10 0.809
575.20 0.8087
575.30 0.8085
575.40 0.8083
575.50 0.808
575.60 0.8078
575.70 0.8075
575.80 0.8073
575.90 0.8071
576.00 0.8068
576.10 0.8066
576.20 0.8064
576.30 0.8061
576.40 0.8059
576.50 0.8056
576.60 0.8054
576.70 0.8052
576.80 0.8049
576.90 0.8047
577.00 0.8044
577.10 0.8042
577.20 0.804
577.30 0.8037
577.40 0.8035
577.50 0.8033
577.60 0.803
577.70 0.8028
577.80 0.8025
577.90 0.8023
578.00 0.8021
578.10 0.8018
578.20 0.8016
578.30 0.8014
578.40 0.8011
578.50 0.8009
578.60 0.8007
578.70 0.8004
578.80 0.8002
578.90 0.7999
579.00 0.7997
579.10 0.7995
579.20 0.7992
579.30 0.799
579.40 0.7988
579.50 0.7985
579.60 0.7983
579.70 0.7981
579.80 0.7978
579.90 0.7976
580.00 0.7974
580.10 0.7971
580.20 0.7969
580.30 0.7967
580.40 0.7964
580.50 0.7962
580.60 0.7959
580.70 0.7957
580.80 0.7955
580.90 0.7952
581.00 0.795
581.10 0.7948
581.20 0.7945
581.30 0.7943
581.40 0.794
581.50 0.7938
581.60 0.7936
581.70 0.7933
581.80 0.7931
581.90 0.7929
582.00 0.7926
582.10 0.7924
582.20 0.7921
582.30 0.7919
582.40 0.7917
582.50 0.7915
582.60 0.7912
582.70 0.791
582.80 0.7908
582.90 0.7905
583.00 0.7903
583.10 0.7901
583.20 0.7898
583.30 0.7896
583.40 0.7894
583.50 0.7891
583.60 0.7889
583.70 0.7887
583.80 0.7884
583.90 0.7882
584.00 0.788
584.10 0.7877
584.20 0.7875
584.30 0.7873
584.40 0.787
584.50 0.7868
584.60 0.7866
584.70 0.7863
584.80 0.7861
584.90 0.7859
585.00 0.7856
585.10 0.7854
585.20 0.7851
585.30 0.7849
585.40 0.7847
585.50 0.7844
585.60 0.7842
585.70 0.784
585.80 0.7837
585.90 0.7835
586.00 0.7833
586.10 0.783
586.20 0.7828
586.30 0.7826
586.40 0.7823
586.50 0.7821
586.60 0.7819
586.70 0.7816
586.80 0.7814
586.90 0.7812
587.00 0.7809
587.10 0.7807
587.20 0.7805
587.30 0.7802
587.40 0.78
587.50 0.7798
587.60 0.7796
587.70 0.7793
587.80 0.7791
587.90 0.7789
588.00 0.7786
588.10 0.7784
588.20 0.7782
588.30 0.7779
588.40 0.7777
588.50 0.7775
588.60 0.7772
588.70 0.777
588.80 0.7768
588.90 0.7765
589.00 0.7763
589.10 0.7761
589.20 0.7758
589.30 0.7756
589.40 0.7754
589.50 0.7751
589.60 0.7749
589.70 0.7747
589.80 0.7744
589.90 0.7742
590.00 0.774
590.10 0.7737
590.20 0.7735
590.30 0.7733
590.40 0.7731
590.50 0.7728
590.60 0.7726
590.70 0.7724
590.80 0.7722
590.90 0.7719
591.00 0.7717
591.10 0.7715
591.20 0.7712
591.30 0.771
591.40 0.7708
591.50 0.7706
591.60 0.7703
591.70 0.7701
591.80 0.7699
591.90 0.7696
592.00 0.7694
592.10 0.7692
592.20 0.769
592.30 0.7687
592.40 0.7685
592.50 0.7683
592.60 0.768
592.70 0.7678
592.80 0.7676
592.90 0.7673
593.00 0.7671
593.10 0.7669
593.20 0.7667
593.30 0.7664
593.40 0.7662
593.50 0.766
593.60 0.7657
593.70 0.7655
593.80 0.7653
593.90 0.765
594.00 0.7648
594.10 0.7646
594.20 0.7643
594.30 0.7641
594.40 0.7639
594.50 0.7637
594.60 0.7634
594.70 0.7632
594.80 0.763
594.90 0.7628
595.00 0.7625
595.10 0.7623
595.20 0.7621
595.30 0.7619
595.40 0.7616
595.50 0.7614
595.60 0.7612
595.70 0.7609
595.80 0.7607
595.90 0.7605
596.00 0.7603
596.10 0.76
596.20 0.7598
596.30 0.7595
596.40 0.7592
596.50 0.759
596.60 0.7587
596.70 0.7584
596.80 0.7582
596.90 0.7579
597.00 0.7576
597.10 0.7573
597.20 0.7571
597.30 0.7569
597.40 0.7566
597.50 0.7564
597.60 0.7562
597.70 0.756
597.80 0.7557
597.90 0.7555
598.00 0.7553
598.10 0.7551
598.20 0.7548
598.30 0.7546
598.40 0.7544
598.50 0.7541
598.60 0.7539
598.70 0.7537
598.80 0.7534
598.90 0.7532
599.00 0.753
599.10 0.7528
599.20 0.7525
599.30 0.7523
599.40 0.7521
599.50 0.7518
599.60 0.7516
599.70 0.7514
599.80 0.7512
599.90 0.7509
600.00 0.7507
600.10 0.7505
600.20 0.7503
600.30 0.75
600.40 0.7498
600.50 0.7496
600.60 0.7494
600.70 0.7491
600.80 0.7489
600.90 0.7487
601.00 0.7484
601.10 0.7482
601.20 0.748
601.30 0.7478
601.40 0.7475
601.50 0.7473
601.60 0.7471
601.70 0.7469
601.80 0.7466
601.90 0.7464
602.00 0.7462
602.10 0.746
602.20 0.7458
602.30 0.7455
602.40 0.7453
602.50 0.7451
602.60 0.7448
602.70 0.7446
602.80 0.7444
602.90 0.7442
603.00 0.7439
603.10 0.7437
603.20 0.7435
603.30 0.7433
603.40 0.743
603.50 0.7428
603.60 0.7426
603.70 0.7424
603.80 0.7421
603.90 0.7419
604.00 0.7417
604.10 0.7415
604.20 0.7412
604.30 0.741
604.40 0.7408
604.50 0.7406
604.60 0.7403
604.70 0.7401
604.80 0.7399
604.90 0.7397
605.00 0.7394
605.10 0.7392
605.20 0.739
605.30 0.7388
605.40 0.7386
605.50 0.7383
605.60 0.7381
605.70 0.7379
605.80 0.7377
605.90 0.7374
606.00 0.7372
606.10 0.737
606.20 0.7368
606.30 0.7365
606.40 0.7363
606.50 0.7361
606.60 0.7359
606.70 0.7356
606.80 0.7354
606.90 0.7352
607.00 0.735
607.10 0.7347
607.20 0.7345
607.30 0.7343
607.40 0.7341
607.50 0.7338
607.60 0.7336
607.70 0.7334
607.80 0.7332
607.90 0.733
608.00 0.7327
608.10 0.7325
608.20 0.7323
608.30 0.7321
608.40 0.7319
608.50 0.7316
608.60 0.7314
608.70 0.7312
608.80 0.731
608.90 0.7307
609.00 0.7305
609.10 0.7303
609.20 0.7301
609.30 0.7298
609.40 0.7296
609.50 0.7294
609.60 0.7292
609.70 0.7289
609.80 0.7287
609.90 0.7285
610.00 0.7283
610.10 0.7281
610.20 0.7278
610.30 0.7276
610.40 0.7274
610.50 0.7272
610.60 0.727
610.70 0.7267
610.80 0.7265
610.90 0.7263
611.00 0.7261
611.10 0.7259
611.20 0.7257
611.30 0.7254
611.40 0.7252
611.50 0.725
611.60 0.7248
611.70 0.7246
611.80 0.7243
611.90 0.7241
612.00 0.7239
612.10 0.7237
612.20 0.7235
612.30 0.7232
612.40 0.723
612.50 0.7228
612.60 0.7226
612.70 0.7223
612.80 0.7221
612.90 0.7219
613.00 0.7217
613.10 0.7214
613.20 0.7212
613.30 0.721
613.40 0.7208
613.50 0.7206
613.60 0.7203
613.70 0.7201
613.80 0.7199
613.90 0.7197
614.00 0.7195
614.10 0.7192
614.20 0.719
614.30 0.7188
614.40 0.7186
614.50 0.7184
614.60 0.7182
614.70 0.7179
614.80 0.7177
614.90 0.7175
615.00 0.7173
615.10 0.7171
615.20 0.7169
615.30 0.7166
615.40 0.7164
615.50 0.7162
615.60 0.716
615.70 0.7157
615.80 0.7155
615.90 0.7153
616.00 0.7151
616.10 0.7149
616.20 0.7146
616.30 0.7144
616.40 0.7142
616.50 0.714
616.60 0.7138
616.70 0.7135
616.80 0.7133
616.90 0.7131
617.00 0.7129
617.10 0.7127
617.20 0.7125
617.30 0.7122
617.40 0.712
617.50 0.7118
617.60 0.7116
617.70 0.7114
617.80 0.7111
617.90 0.7109
618.00 0.7107
618.10 0.7105
618.20 0.7103
618.30 0.7101
618.40 0.7098
618.50 0.7096
618.60 0.7094
618.70 0.7092
618.80 0.709
618.90 0.7087
619.00 0.7085
619.10 0.7083
619.20 0.7081
619.30 0.7079
619.40 0.7077
619.50 0.7074
619.60 0.7072
619.70 0.707
619.80 0.7068
619.90 0.7066
620.00 0.7063
620.10 0.7061
620.20 0.7059
620.30 0.7057
620.40 0.7055
620.50 0.7052
620.60 0.705
620.70 0.7048
620.80 0.7046
620.90 0.7044
621.00 0.7041
621.10 0.7039
621.20 0.7037
621.30 0.7035
621.40 0.7033
621.50 0.7031
621.60 0.7028
621.70 0.7026
621.80 0.7024
621.90 0.7022
622.00 0.702
622.10 0.7018
622.20 0.7016
622.30 0.7013
622.40 0.7011
622.50 0.7009
622.60 0.7007
622.70 0.7004
622.80 0.7002
622.90 0.7
623.00 0.6998
623.10 0.6996
623.20 0.6993
623.30 0.6991
623.40 0.6989
623.50 0.6987
623.60 0.6985
623.70 0.6983
623.80 0.698
623.90 0.6978
624.00 0.6976
624.10 0.6974
624.20 0.6972
624.30 0.697
624.40 0.6967
624.50 0.6965
624.60 0.6963
624.70 0.6961
624.80 0.6959
624.90 0.6956
625.00 0.6954
625.10 0.6952
625.20 0.695
625.30 0.6948
625.40 0.6946
625.50 0.6943
625.60 0.6941
625.70 0.6939
625.80 0.6937
625.90 0.6935
626.00 0.6932
626.10 0.693
626.20 0.6928
626.30 0.6926
626.40 0.6924
626.50 0.6922
626.60 0.6919
626.70 0.6917
626.80 0.6915
626.90 0.6913
627.00 0.6911
627.10 0.6909
627.20 0.6906
627.30 0.6904
627.40 0.6902
627.50 0.69
627.60 0.6898
627.70 0.6895
627.80 0.6893
627.90 0.6891
628.00 0.6889
628.10 0.6887
628.20 0.6884
628.30 0.6882
628.40 0.688
628.50 0.6878
628.60 0.6876
628.70 0.6874
628.80 0.6871
628.90 0.6869
629.00 0.6867
629.10 0.6865
629.20 0.6863
629.30 0.686
629.40 0.6858
629.50 0.6856
629.60 0.6854
629.70 0.6852
629.80 0.685
629.90 0.6847
630.00 0.6845
630.10 0.6843
630.20 0.6841
630.30 0.6839
630.40 0.6836
630.50 0.6834
630.60 0.6832
630.70 0.683
630.80 0.6828
630.90 0.6825
631.00 0.6823
631.10 0.6821
631.20 0.6819
631.30 0.6817
631.40 0.6814
631.50 0.6812
631.60 0.681
631.70 0.6808
631.80 0.6805
631.90 0.6803
632.00 0.6801
632.10 0.6799
632.20 0.6797
632.30 0.6794
632.40 0.6792
632.50 0.679
632.60 0.6788
632.70 0.6785
632.80 0.6783
632.90 0.6781
633.00 0.6779
633.10 0.6777
633.20 0.6774
633.30 0.6772
633.40 0.677
633.50 0.6768
633.60 0.6765
633.70 0.6763
633.80 0.6761
633.90 0.6759
634.00 0.6756
634.10 0.6754
634.20 0.6752
634.30 0.675
634.40 0.6747
634.50 0.6745
634.60 0.6743
634.70 0.6741
634.80 0.6738
634.90 0.6736
635.00 0.6734
635.10 0.6732
635.20 0.673
635.30 0.6727
635.40 0.6725
635.50 0.6723
635.60 0.672
635.70 0.6718
635.80 0.6716
635.90 0.6713
636.00 0.6711
636.10 0.6709
636.20 0.6707
636.30 0.6704
636.40 0.6702
636.50 0.67
636.60 0.6697
636.70 0.6695
636.80 0.6693
636.90 0.669
637.00 0.6688
637.10 0.6686
637.20 0.6683
637.30 0.6681
637.40 0.6679
637.50 0.6676
637.60 0.6674
637.70 0.6672
637.80 0.6669
637.90 0.6667
638.00 0.6664
638.10 0.6662
638.20 0.666
638.30 0.6657
638.40 0.6655
638.50 0.6653
638.60 0.665
638.70 0.6648
638.80 0.6645
638.90 0.6643
639.00 0.6641
639.10 0.6638
639.20 0.6636
639.30 0.6633
639.40 0.6631
639.50 0.6628
639.60 0.6626
639.70 0.6623
639.80 0.6621
639.90 0.6618
640.00 0.6616
640.10 0.6613
640.20 0.6611
640.30 0.6608
640.40 0.6606
640.50 0.6603
640.60 0.6601
640.70 0.6598
640.80 0.6596
640.90 0.6593
641.00 0.659
641.10 0.6588
641.20 0.6585
641.30 0.6583
641.40 0.658
641.50 0.6577
641.60 0.6575
641.70 0.6572
641.80 0.6569
641.90 0.6567
642.00 0.6564
642.10 0.6562
642.20 0.6559
642.30 0.6556
642.40 0.6553
642.50 0.6551
642.60 0.6548
642.70 0.6545
642.80 0.6542
642.90 0.6539
643.00 0.6537
643.10 0.6534
643.20 0.6531
643.30 0.6528
643.40 0.6525
643.50 0.6522
643.60 0.6519
643.70 0.6516
643.80 0.6513
643.90 0.651
644.00 0.6507
644.10 0.6504
644.20 0.6501
644.30 0.6498
644.40 0.6495
644.50 0.6492
644.60 0.6489
644.70 0.6485
644.80 0.6482
644.90 0.6479
645.00 0.6476
645.10 0.6473
645.20 0.6469
645.30 0.6466
645.40 0.6463
645.50 0.6459
645.60 0.6455
645.70 0.6452
645.80 0.6448
645.90 0.6445
646.00 0.6441
646.10 0.6438
646.20 0.6434
646.30 0.643
646.40 0.6426
646.50 0.6422
646.60 0.6418
646.70 0.6414
646.80 0.641
646.90 0.6406
647.00 0.6402
647.10 0.6398
647.20 0.6394
647.30 0.639
647.40 0.6385
647.50 0.6381
647.60 0.6376
647.70 0.6371
647.80 0.6367
647.90 0.6362
648.00 0.6358
648.10 0.6353
648.20 0.6348
648.30 0.6343
648.40 0.6338
648.50 0.6332
648.60 0.6327
648.70 0.6321
648.80 0.6315
648.90 0.631
649.00 0.6304
649.10 0.6299
649.20 0.6293
649.30 0.6287
649.40 0.628
649.50 0.6273
649.60 0.6266
649.70 0.6259
649.80 0.6252
649.90 0.6245
650.00 0.6238
650.10 0.6231
650.20 0.6224
650.30 0.6216
650.40 0.6207
650.50 0.6197
650.60 0.6188
650.70 0.6179
650.80 0.6169
650.90 0.616
651.00 0.6151
651.10 0.6141
651.20 0.6132
651.30 0.6122
651.40 0.6109
651.50 0.6096
651.60 0.6083
651.70 0.6069
651.80 0.6056
651.90 0.6043
652.00 0.603
652.10 0.6017
652.20 0.6004
652.30 0.5989
652.40 0.5969
652.50 0.5949
652.60 0.5929
652.70 0.5909
652.80 0.5889
652.90 0.587
653.00 0.585
653.10 0.583
653.20 0.581
653.30 0.5787
653.40 0.5754
653.50 0.572
653.60 0.5687
653.70 0.5654
653.80 0.562
653.90 0.5587
654.00 0.5554
654.10 0.5521
654.20 0.5487
654.30 0.545
654.40 0.5397
654.50 0.5344
654.60 0.5291
654.70 0.5238
654.80 0.518
654.90 0.5101
655.00 0.5022
655.10 0.4943
655.20 0.4864
655.30 0.4779
655.40 0.467
655.50 0.4556
655.60 0.442
655.70 0.4277
655.80 0.4106
655.90 0.3928
656.00 0.3725
656.10 0.3521
656.20 0.3304
656.30 0.3156
656.40 0.3388
656.50 0.3596
656.60 0.3797
656.70 0.3992
656.80 0.4161
656.90 0.4323
657.00 0.4456
657.10 0.4585
657.20 0.4691
657.30 0.4791
657.40 0.4867
657.50 0.4943
657.60 0.5018
657.70 0.5094
657.80 0.5165
657.90 0.5214
658.00 0.5264
658.10 0.5313
658.20 0.5362
658.30 0.5408
658.40 0.5438
658.50 0.5467
658.60 0.5497
658.70 0.5527
658.80 0.5556
658.90 0.5586
659.00 0.5615
659.10 0.5645
659.20 0.5674
659.30 0.5701
659.40 0.5717
659.50 0.5733
659.60 0.5749
659.70 0.5765
659.80 0.5781
659.90 0.5797
660.00 0.5813
660.10 0.5829
660.20 0.5845
660.30 0.586
660.40 0.5869
660.50 0.5878
660.60 0.5888
660.70 0.5897
660.80 0.5906
660.90 0.5915
661.00 0.5924
661.10 0.5933
661.20 0.5943
661.30 0.5951
661.40 0.5956
661.50 0.5962
661.60 0.5967
661.70 0.5973
661.80 0.5978
661.90 0.5983
662.00 0.5989
662.10 0.5994
662.20 0.5999
662.30 0.6004
662.40 0.6007
662.50 0.601
662.60 0.6014
662.70 0.6017
662.80 0.602
662.90 0.6023
663.00 0.6026
663.10 0.6029
663.20 0.6032
663.30 0.6035
663.40 0.6037
663.50 0.6038
663.60 0.604
663.70 0.6042
663.80 0.6043
663.90 0.6045
664.00 0.6047
664.10 0.6048
664.20 0.605
664.30 0.6051
664.40 0.6052
664.50 0.6053
664.60 0.6054
664.70 0.6054
664.80 0.6055
664.90 0.6056
665.00 0.6056
665.10 0.6057
665.20 0.6058
665.30 0.6058
665.40 0.6059
665.50 0.6059
665.60 0.6059
665.70 0.6059
665.80 0.6059
665.90 0.6059
666.00 0.6059
666.10 0.6059
666.20 0.6059
666.30 0.6059
666.40 0.6059
666.50 0.6058
666.60 0.6058
666.70 0.6058
666.80 0.6057
666.90 0.6057
667.00 0.6057
667.10 0.6056
667.20 0.6056
667.30 0.6055
667.40 0.6055
667.50 0.6054
667.60 0.6053
667.70 0.6053
667.80 0.6052
667.90 0.6051
668.00 0.6051
668.10 0.605
668.20 0.6049
668.30 0.6049
668.40 0.6048
668.50 0.6047
668.60 0.6046
668.70 0.6045
668.80 0.6044
668.90 0.6043
669.00 0.6042
669.10 0.6041
669.20 0.604
669.30 0.6039
669.40 0.6038
669.50 0.6037
669.60 0.6036
669.70 0.6035
669.80 0.6034
669.90 0.6033
670.00 0.6032
670.10 0.6031
670.20 0.6029
670.30 0.6028
670.40 0.6027
670.50 0.6026
670.60 0.6025
670.70 0.6023
670.80 0.6022
670.90 0.6021
671.00 0.602
671.10 0.6019
671.20 0.6017
671.30 0.6016
671.40 0.6015
671.50 0.6013
671.60 0.6012
671.70 0.6011
671.80 0.6009
671.90 0.6008
672.00 0.6007
672.10 0.6005
672.20 0.6004
672.30 0.6003
672.40 0.6001
672.50 0.6
672.60 0.5998
672.70 0.5997
672.80 0.5996
672.90 0.5994
673.00 0.5993
673.10 0.5992
673.20 0.599
673.30 0.5989
673.40 0.5987
673.50 0.5986
673.60 0.5984
673.70 0.5983
673.80 0.5981
673.90 0.598
674.00 0.5978
674.10 0.5977
674.20 0.5975
674.30 0.5974
674.40 0.5972
674.50 0.5971
674.60 0.5969
674.70 0.5968
674.80 0.5966
674.90 0.5965
675.00 0.5963
675.10 0.5962
675.20 0.596
675.30 0.5959
675.40 0.5957
675.50 0.5956
675.60 0.5954
675.70 0.5953
675.80 0.5951
675.90 0.5949
676.00 0.5948
676.10 0.5946
676.20 0.5945
676.30 0.5943
676.40 0.5942
676.50 0.594
676.60 0.5939
676.70 0.5937
676.80 0.5935
676.90 0.5934
677.00 0.5932
677.10 0.5931
677.20 0.5929
677.30 0.5927
677.40 0.5926
677.50 0.5924
677.60 0.5923
677.70 0.5921
677.80 0.592
677.90 0.5918
678.00 0.5916
678.10 0.5915
678.20 0.5913
678.30 0.5912
678.40 0.591
678.50 0.5908
678.60 0.5907
678.70 0.5905
678.80 0.5903
678.90 0.5902
679.00 0.59
679.10 0.5899
679.20 0.5897
679.30 0.5895
679.40 0.5894
679.50 0.5892
679.60 0.589
679.70 0.5889
679.80 0.5887
679.90 0.5885
680.00 0.5884
680.10 0.5882
680.20 0.5881
680.30 0.5879
680.40 0.5877
680.50 0.5876
680.60 0.5874
680.70 0.5872
680.80 0.5871
680.90 0.5869
681.00 0.5867
681.10 0.5866
681.20 0.5864
681.30 0.5862
681.40 0.5861
681.50 0.5859
681.60 0.5857
681.70 0.5856
681.80 0.5854
681.90 0.5852
682.00 0.5851
682.10 0.5849
682.20 0.5847
682.30 0.5846
682.40 0.5844
682.50 0.5842
682.60 0.5841
682.70 0.5839
682.80 0.5838
682.90 0.5836
683.00 0.5834
683.10 0.5833
683.20 0.5831
683.30 0.5829
683.40 0.5828
683.50 0.5826
683.60 0.5824
683.70 0.5823
683.80 0.5821
683.90 0.5819
684.00 0.5818
684.10 0.5816
684.20 0.5814
684.30 0.5813
684.40 0.5811
684.50 0.5809
684.60 0.5808
684.70 0.5806
684.80 0.5804
684.90 0.5802
685.00 0.5801
685.10 0.5799
685.20 0.5797
685.30 0.5796
685.40 0.5794
685.50 0.5792
685.60 0.5791
685.70 0.5789
685.80 0.5787
685.90 0.5786
686.00 0.5784
686.10 0.5782
686.20 0.5781
686.30 0.5779
686.40 0.5777
686.50 0.5776
686.60 0.5774
686.70 0.5772
686.80 0.5771
686.90 0.5769
687.00 0.5767
687.10 0.5766
687.20 0.5764
687.30 0.5762
687.40 0.5761
687.50 0.5759
687.60 0.5757
687.70 0.5755
687.80 0.5754
687.90 0.5752
688.00 0.575
688.10 0.5749
688.20 0.5747
688.30 0.5745
688.40 0.5744
688.50 0.5742
688.60 0.574
688.70 0.5739
688.80 0.5737
688.90 0.5735
689.00 0.5734
689.10 0.5732
689.20 0.573
689.30 0.5729
689.40 0.5727
689.50 0.5725
689.60 0.5724
689.70 0.5722
689.80 0.572
689.90 0.5718
690.00 0.5717
690.10 0.5715
690.20 0.5713
690.30 0.5712
690.40 0.571
690.50 0.5708
690.60 0.5707
690.70 0.5705
690.80 0.5703
690.90 0.5702
691.00 0.57
691.10 0.5698
691.20 0.5697
691.30 0.5695
691.40 0.5693
691.50 0.5691
691.60 0.569
691.70 0.5688
691.80 0.5686
691.90 0.5685
692.00 0.5683
692.10 0.5681
692.20 0.568
692.30 0.5678
692.40 0.5676
692.50 0.5675
692.60 0.5673
692.70 0.5671
692.80 0.567
692.90 0.5668
693.00 0.5666
693.10 0.5665
693.20 0.5663
693.30 0.5661
693.40 0.566
693.50 0.5658
693.60 0.5656
693.70 0.5655
693.80 0.5653
693.90 0.5651
694.00 0.565
694.10 0.5648
694.20 0.5646
694.30 0.5645
694.40 0.5643
694.50 0.5641
694.60 0.564
694.70 0.5638
694.80 0.5636
694.90 0.5635
695.00 0.5633
695.10 0.5631
695.20 0.563
695.30 0.5628
695.40 0.5626
695.50 0.5625
695.60 0.5623
695.70 0.5621
695.80 0.562
695.90 0.5618
696.00 0.5616
696.10 0.5615
696.20 0.5613
696.30 0.5611
696.40 0.561
696.50 0.5608
696.60 0.5606
696.70 0.5605
696.80 0.5603
696.90 0.5601
697.00 0.56
697.10 0.5598
697.20 0.5596
697.30 0.5595
697.40 0.5593
697.50 0.5591
697.60 0.559
697.70 0.5588
697.80 0.5586
697.90 0.5585
698.00 0.5583
698.10 0.5581
698.20 0.558
698.30 0.5578
698.40 0.5577
698.50 0.5575
698.60 0.5573
698.70 0.5572
698.80 0.557
698.90 0.5568
699.00 0.5567
699.10 0.5565
699.20 0.5563
699.30 0.5562
699.40 0.556
699.50 0.5558
699.60 0.5557
699.70 0.5555
699.80 0.5553
699.90 0.5552
700.00 0.555
700.10 0.5549
700.20 0.5547
700.30 0.5545
700.40 0.5544
700.50 0.5542
700.60 0.554
700.70 0.5539
700.80 0.5537
700.90 0.5535
701.00 0.5534
701.10 0.5532
701.20 0.553
701.30 0.5529
701.40 0.5527
701.50 0.5525
701.60 0.5524
701.70 0.5522
701.80 0.552
701.90 0.5519
702.00 0.5517
702.10 0.5515
702.20 0.5514
702.30 0.5512
702.40 0.5511
702.50 0.5509
702.60 0.5507
702.70 0.5506
702.80 0.5504
702.90 0.5502
703.00 0.5501
703.10 0.5499
703.20 0.5497
703.30 0.5496
703.40 0.5494
703.50 0.5493
703.60 0.5491
703.70 0.5489
703.80 0.5488
703.90 0.5486
704.00 0.5484
704.10 0.5483
704.20 0.5481
704.30 0.5479
704.40 0.5478
704.50 0.5476
704.60 0.5475
704.70 0.5473
704.80 0.5471
704.90 0.547
705.00 0.5468
705.10 0.5466
705.20 0.5465
705.30 0.5463
705.40 0.5462
705.50 0.546
705.60 0.5458
705.70 0.5457
705.80 0.5455
705.90 0.5453
706.00 0.5452
706.10 0.545
706.20 0.5448
706.30 0.5447
706.40 0.5445
706.50 0.5444
706.60 0.5442
706.70 0.544
706.80 0.5439
706.90 0.5437
707.00 0.5435
707.10 0.5434
707.20 0.5432
707.30 0.5431
707.40 0.5429
707.50 0.5427
707.60 0.5426
707.70 0.5424
707.80 0.5423
707.90 0.5421
708.00 0.5419
708.10 0.5418
708.20 0.5416
708.30 0.5414
708.40 0.5413
708.50 0.5411
708.60 0.541
708.70 0.5408
708.80 0.5406
708.90 0.5405
709.00 0.5403
709.10 0.5402
709.20 0.54
709.30 0.5398
709.40 0.5397
709.50 0.5395
709.60 0.5394
709.70 0.5392
709.80 0.539
709.90 0.5389
710.00 0.5387
710.10 0.5385
710.20 0.5384
710.30 0.5382
710.40 0.5381
710.50 0.5379
710.60 0.5377
710.70 0.5376
710.80 0.5374
710.90 0.5373
711.00 0.5371
711.10 0.5369
711.20 0.5368
711.30 0.5366
711.40 0.5365
711.50 0.5363
711.60 0.5361
711.70 0.536
711.80 0.5358
711.90 0.5357
712.00 0.5355
712.10 0.5353
712.20 0.5352
712.30 0.535
712.40 0.5349
712.50 0.5347
712.60 0.5345
712.70 0.5344
712.80 0.5342
712.90 0.5341
713.00 0.5339
713.10 0.5337
713.20 0.5336
713.30 0.5334
713.40 0.5333
713.50 0.5331
713.60 0.5329
713.70 0.5328
713.80 0.5326
713.90 0.5325
714.00 0.5323
714.10 0.5322
714.20 0.532
714.30 0.5318
714.40 0.5317
714.50 0.5315
714.60 0.5314
714.70 0.5312
714.80 0.531
714.90 0.5309
715.00 0.5307
715.10 0.5306
715.20 0.5304
715.30 0.5303
715.40 0.5301
715.50 0.5299
715.60 0.5298
715.70 0.5296
715.80 0.5295
715.90 0.5293
716.00 0.5292
716.10 0.529
716.20 0.5289
716.30 0.5287
716.40 0.5286
716.50 0.5284
716.60 0.5282
716.70 0.5281
716.80 0.5279
716.90 0.5278
717.00 0.5276
717.10 0.5275
717.20 0.5273
717.30 0.5272
717.40 0.527
717.50 0.5269
717.60 0.5267
717.70 0.5265
717.80 0.5264
717.90 0.5262
718.00 0.5261
718.10 0.5259
718.20 0.5258
718.30 0.5256
718.40 0.5255
718.50 0.5253
718.60 0.5252
718.70 0.525
718.80 0.5249
718.90 0.5247
719.00 0.5246
719.10 0.5244
719.20 0.5242
719.30 0.5241
719.40 0.5239
719.50 0.5238
719.60 0.5236
719.70 0.5235
719.80 0.5233
719.90 0.5232
720.00 0.523
720.10 0.5229
720.20 0.5227
720.30 0.5226
720.40 0.5224
720.50 0.5222
720.60 0.5221
720.70 0.5219
720.80 0.5218
720.90 0.5216
721.00 0.5215
721.10 0.5213
721.20 0.5211
721.30 0.521
721.40 0.5208
721.50 0.5207
721.60 0.5205
721.70 0.5204
721.80 0.5202
721.90 0.52
722.00 0.5199
722.10 0.5197
722.20 0.5196
722.30 0.5194
722.40 0.5193
722.50 0.5191
722.60 0.519
722.70 0.5188
722.80 0.5186
722.90 0.5185
723.00 0.5183
723.10 0.5182
723.20 0.518
723.30 0.5179
723.40 0.5177
723.50 0.5176
723.60 0.5174
723.70 0.5172
723.80 0.5171
723.90 0.5169
724.00 0.5168
724.10 0.5166
724.20 0.5165
724.30 0.5163
724.40 0.5162
724.50 0.516
724.60 0.5158
724.70 0.5157
724.80 0.5155
724.90 0.5154
725.00 0.5152
725.10 0.5151
725.20 0.5149
725.30 0.5148
725.40 0.5146
725.50 0.5145
725.60 0.5143
725.70 0.5141
725.80 0.514
725.90 0.5138
726.00 0.5137
726.10 0.5135
726.20 0.5134
726.30 0.5132
726.40 0.5131
726.50 0.5129
726.60 0.5128
726.70 0.5126
726.80 0.5125
726.90 0.5123
727.00 0.5121
727.10 0.512
727.20 0.5118
727.30 0.5117
727.40 0.5115
727.50 0.5114
727.60 0.5112
727.70 0.5111
727.80 0.5109
727.90 0.5108
728.00 0.5106
728.10 0.5105
728.20 0.5103
728.30 0.5102
728.40 0.51
728.50 0.5099
728.60 0.5097
728.70 0.5095
728.80 0.5094
728.90 0.5092
729.00 0.5091
729.10 0.5089
729.20 0.5088
729.30 0.5086
729.40 0.5085
729.50 0.5083
729.60 0.5082
729.70 0.508
729.80 0.5079
729.90 0.5077
730.00 0.5076
730.10 0.5074
730.20 0.5073
730.30 0.5071
730.40 0.507
730.50 0.5068
730.60 0.5067
730.70 0.5065
730.80 0.5064
730.90 0.5062
731.00 0.506
731.10 0.5059
731.20 0.5057
731.30 0.5056
731.40 0.5054
731.50 0.5053
731.60 0.5051
731.70 0.505
731.80 0.5048
731.90 0.5047
732.00 0.5045
732.10 0.5044
732.20 0.5042
732.30 0.5041
732.40 0.5039
732.50 0.5038
732.60 0.5036
732.70 0.5035
732.80 0.5033
732.90 0.5032
733.00 0.503
733.10 0.5029
733.20 0.5027
733.30 0.5026
733.40 0.5024
733.50 0.5023
733.60 0.5021
733.70 0.502
733.80 0.5018
733.90 0.5017
734.00 0.5015
734.10 0.5014
734.20 0.5012
734.30 0.5011
734.40 0.5009
734.50 0.5008
734.60 0.5006
734.70 0.5005
734.80 0.5003
734.90 0.5002
735.00 0.5
735.10 0.4999
735.20 0.4997
735.30 0.4996
735.40 0.4994
735.50 0.4993
735.60 0.4991
735.70 0.499
735.80 0.4988
735.90 0.4987
736.00 0.4985
736.10 0.4984
736.20 0.4982
736.30 0.4981
736.40 0.4979
736.50 0.4978
736.60 0.4976
736.70 0.4975
736.80 0.4973
736.90 0.4972
737.00 0.497
737.10 0.4969
737.20 0.4967
737.30 0.4966
737.40 0.4964
737.50 0.4963
737.60 0.4961
737.70 0.496
737.80 0.4959
737.90 0.4957
738.00 0.4956
738.10 0.4954
738.20 0.4953
738.30 0.4951
738.40 0.495
738.50 0.4948
738.60 0.4947
738.70 0.4945
738.80 0.4944
738.90 0.4942
739.00 0.4941
739.10 0.4939
739.20 0.4938
739.30 0.4936
739.40 0.4935
739.50 0.4933
739.60 0.4932
739.70 0.4931
739.80 0.4929
739.90 0.4928
740.00 0.4926
740.10 0.4925
740.20 0.4923
740.30 0.4922
740.40 0.492
740.50 0.4919
740.60 0.4917
740.70 0.4916
740.80 0.4914
740.90 0.4913
741.00 0.4911
741.10 0.491
741.20 0.4908
741.30 0.4907
741.40 0.4906
741.50 0.4904
741.60 0.4903
741.70 0.4901
741.80 0.49
741.90 0.4898
742.00 0.4897
742.10 0.4895
742.20 0.4894
742.30 0.4892
742.40 0.4891
742.50 0.4889
742.60 0.4888
742.70 0.4887
742.80 0.4885
742.90 0.4884
743.00 0.4882
743.10 0.4881
743.20 0.4879
743.30 0.4878
743.40 0.4876
743.50 0.4875
743.60 0.4873
743.70 0.4872
743.80 0.4871
743.90 0.4869
744.00 0.4868
744.10 0.4866
744.20 0.4865
744.30 0.4863
744.40 0.4862
744.50 0.486
744.60 0.4859
744.70 0.4857
744.80 0.4856
744.90 0.4855
745.00 0.4853
745.10 0.4852
745.20 0.485
745.30 0.4849
745.40 0.4847
745.50 0.4846
745.60 0.4844
745.70 0.4843
745.80 0.4842
745.90 0.484
746.00 0.4839
746.10 0.4837
746.20 0.4836
746.30 0.4834
746.40 0.4833
746.50 0.4832
746.60 0.483
746.70 0.4829
746.80 0.4827
746.90 0.4826
747.00 0.4824
747.10 0.4823
747.20 0.4821
747.30 0.482
747.40 0.4819
747.50 0.4817
747.60 0.4816
747.70 0.4814
747.80 0.4813
747.90 0.4811
748.00 0.481
748.10 0.4809
748.20 0.4807
748.30 0.4806
748.40 0.4804
748.50 0.4803
748.60 0.4801
748.70 0.48
748.80 0.4799
748.90 0.4797
749.00 0.4796
749.10 0.4794
749.20 0.4793
749.30 0.4792
749.40 0.479
749.50 0.4789
749.60 0.4787
749.70 0.4786
749.80 0.4784
749.90 0.4783
750.00 0.4782
750.10 0.478
750.20 0.4779
750.30 0.4777
750.40 0.4776
750.50 0.4774
750.60 0.4773
750.70 0.4772
750.80 0.477
750.90 0.4769
751.00 0.4767
751.10 0.4766
751.20 0.4765
751.30 0.4763
751.40 0.4762
751.50 0.476
751.60 0.4759
751.70 0.4757
751.80 0.4756
751.90 0.4755
752.00 0.4753
752.10 0.4752
752.20 0.475
752.30 0.4749
752.40 0.4747
752.50 0.4746
752.60 0.4745
752.70 0.4743
752.80 0.4742
752.90 0.474
753.00 0.4739
753.10 0.4738
753.20 0.4736
753.30 0.4735
753.40 0.4733
753.50 0.4732
753.60 0.4731
753.70 0.4729
753.80 0.4728
753.90 0.4726
754.00 0.4725
754.10 0.4724
754.20 0.4722
754.30 0.4721
754.40 0.4719
754.50 0.4718
754.60 0.4716
754.70 0.4715
754.80 0.4714
754.90 0.4712
755.00 0.4711
755.10 0.4709
755.20 0.4708
755.30 0.4707
755.40 0.4705
755.50 0.4704
755.60 0.4703
755.70 0.4701
755.80 0.47
755.90 0.4698
756.00 0.4697
756.10 0.4696
756.20 0.4694
756.30 0.4693
756.40 0.4691
756.50 0.469
756.60 0.4689
756.70 0.4687
756.80 0.4686
756.90 0.4684
757.00 0.4683
757.10 0.4682
757.20 0.468
757.30 0.4679
757.40 0.4677
757.50 0.4676
757.60 0.4675
757.70 0.4673
757.80 0.4672
757.90 0.4671
758.00 0.4669
758.10 0.4668
758.20 0.4666
758.30 0.4665
758.40 0.4664
758.50 0.4662
758.60 0.4661
758.70 0.4659
758.80 0.4658
758.90 0.4657
759.00 0.4655
759.10 0.4654
759.20 0.4653
759.30 0.4651
759.40 0.465
759.50 0.4648
759.60 0.4647
759.70 0.4646
759.80 0.4644
759.90 0.4643
760.00 0.4642
760.10 0.464
760.20 0.4639
760.30 0.4637
760.40 0.4636
760.50 0.4635
760.60 0.4633
760.70 0.4632
760.80 0.4631
760.90 0.4629
761.00 0.4628
761.10 0.4626
761.20 0.4625
761.30 0.4624
761.40 0.4622
761.50 0.4621
761.60 0.462
761.70 0.4618
761.80 0.4617
761.90 0.4615
762.00 0.4614
762.10 0.4613
762.20 0.4611
762.30 0.461
762.40 0.4609
762.50 0.4607
762.60 0.4606
762.70 0.4605
762.80 0.4603
762.90 0.4602
763.00 0.46
763.10 0.4599
763.20 0.4598
763.30 0.4596
763.40 0.4595
763.50 0.4594
763.60 0.4592
763.70 0.4591
763.80 0.459
763.90 0.4588
764.00 0.4587
764.10 0.4585
764.20 0.4584
764.30 0.4583
764.40 0.4581
764.50 0.458
764.60 0.4579
764.70 0.4577
764.80 0.4576
764.90 0.4575
765.00 0.4573
765.10 0.4572
765.20 0.4571
765.30 0.4569
765.40 0.4568
765.50 0.4566
765.60 0.4565
765.70 0.4564
765.80 0.4562
765.90 0.4561
766.00 0.456
766.10 0.4558
766.20 0.4557
766.30 0.4556
766.40 0.4554
766.50 0.4553
766.60 0.4552
766.70 0.455
766.80 0.4549
766.90 0.4548
767.00 0.4546
767.10 0.4545
767.20 0.4544
767.30 0.4542
767.40 0.4541
767.50 0.454
767.60 0.4538
767.70 0.4537
767.80 0.4536
767.90 0.4534
768.00 0.4533
768.10 0.4532
768.20 0.453
768.30 0.4529
768.40 0.4528
768.50 0.4526
768.60 0.4525
768.70 0.4523
768.80 0.4522
768.90 0.4521
769.00 0.452
769.10 0.4518
769.20 0.4517
769.30 0.4516
769.40 0.4514
769.50 0.4513
769.60 0.4512
769.70 0.451
769.80 0.4509
769.90 0.4508
770.00 0.4506
770.10 0.4505
770.20 0.4504
770.30 0.4502
770.40 0.4501
770.50 0.45
770.60 0.4498
770.70 0.4497
770.80 0.4496
770.90 0.4494
771.00 0.4493
771.10 0.4492
771.20 0.449
771.30 0.4489
771.40 0.4488
771.50 0.4486
771.60 0.4485
771.70 0.4484
771.80 0.4482
771.90 0.4481
772.00 0.448
772.10 0.4478
772.20 0.4477
772.30 0.4476
772.40 0.4474
772.50 0.4473
772.60 0.4472
772.70 0.447
772.80 0.4469
772.90 0.4468
773.00 0.4466
773.10 0.4465
773.20 0.4464
773.30 0.4462
773.40 0.4461
773.50 0.446
773.60 0.4458
773.70 0.4457
773.80 0.4456
773.90 0.4454
774.00 0.4453
774.10 0.4452
774.20 0.4451
774.30 0.4449
774.40 0.4448
774.50 0.4447
774.60 0.4445
774.70 0.4444
774.80 0.4443
774.90 0.4441
775.00 0.444
775.10 0.4439
775.20 0.4437
775.30 0.4436
775.40 0.4435
775.50 0.4433
775.60 0.4432
775.70 0.4431
775.80 0.443
775.90 0.4428
776.00 0.4427
776.10 0.4426
776.20 0.4424
776.30 0.4423
776.40 0.4422
776.50 0.442
776.60 0.4419
776.70 0.4418
776.80 0.4417
776.90 0.4415
777.00 0.4414
777.10 0.4413
777.20 0.4411
777.30 0.441
777.40 0.4409
777.50 0.4407
777.60 0.4406
777.70 0.4405
777.80 0.4404
777.90 0.4402
778.00 0.4401
778.10 0.44
778.20 0.4398
778.30 0.4397
778.40 0.4396
778.50 0.4394
778.60 0.4393
778.70 0.4392
778.80 0.4391
778.90 0.4389
779.00 0.4388
779.10 0.4387
779.20 0.4385
779.30 0.4384
779.40 0.4383
779.50 0.4382
779.60 0.438
779.70 0.4379
779.80 0.4378
779.90 0.4376
780.00 0.4375
780.10 0.4374
780.20 0.4373
780.30 0.4371
780.40 0.437
780.50 0.4369
780.60 0.4367
780.70 0.4366
780.80 0.4365
780.90 0.4364
781.00 0.4362
781.10 0.4361
781.20 0.436
781.30 0.4358
781.40 0.4357
781.50 0.4356
781.60 0.4355
781.70 0.4353
781.80 0.4352
781.90 0.4351
782.00 0.4349
782.10 0.4348
782.20 0.4347
782.30 0.4346
782.40 0.4344
782.50 0.4343
782.60 0.4342
782.70 0.434
782.80 0.4339
782.90 0.4338
783.00 0.4337
783.10 0.4335
783.20 0.4334
783.30 0.4333
783.40 0.4331
783.50 0.433
783.60 0.4329
783.70 0.4328
783.80 0.4326
783.90 0.4325
784.00 0.4324
784.10 0.4323
784.20 0.4321
784.30 0.432
784.40 0.4319
784.50 0.4317
784.60 0.4316
784.70 0.4315
784.80 0.4314
784.90 0.4312
785.00 0.4311
785.10 0.431
785.20 0.4309
785.30 0.4307
785.40 0.4306
785.50 0.4305
785.60 0.4304
785.70 0.4302
785.80 0.4301
785.90 0.43
786.00 0.4298
786.10 0.4297
786.20 0.4296
786.30 0.4295
786.40 0.4293
786.50 0.4292
786.60 0.4291
786.70 0.429
786.80 0.4288
786.90 0.4287
787.00 0.4286
787.10 0.4285
787.20 0.4283
787.30 0.4282
787.40 0.4281
787.50 0.428
787.60 0.4278
787.70 0.4277
787.80 0.4276
787.90 0.4275
788.00 0.4273
788.10 0.4272
788.20 0.4271
788.30 0.427
788.40 0.4268
788.50 0.4267
788.60 0.4266
788.70 0.4265
788.80 0.4263
788.90 0.4262
789.00 0.4261
789.10 0.426
789.20 0.4258
789.30 0.4257
789.40 0.4256
789.50 0.4255
789.60 0.4253
789.70 0.4252
789.80 0.4251
789.90 0.425
790.00 0.4248
790.10 0.4247
790.20 0.4246
790.30 0.4245
790.40 0.4243
790.50 0.4242
790.60 0.4241
790.70 0.424
790.80 0.4238
790.90 0.4237
791.00 0.4236
791.10 0.4235
791.20 0.4233
791.30 0.4232
791.40 0.4231
791.50 0.423
791.60 0.4228
791.70 0.4227
791.80 0.4226
791.90 0.4225
792.00 0.4223
792.10 0.4222
792.20 0.4221
792.30 0.422
792.40 0.4218
792.50 0.4217
792.60 0.4216
792.70 0.4215
792.80 0.4214
792.90 0.4212
793.00 0.4211
793.10 0.421
793.20 0.4209
793.30 0.4207
793.40 0.4206
793.50 0.4205
793.60 0.4204
793.70 0.4202
793.80 0.4201
793.90 0.42
794.00 0.4199
794.10 0.4198
794.20 0.4196
794.30 0.4195
794.40 0.4194
794.50 0.4193
794.60 0.4191
794.70 0.419
794.80 0.4189
794.90 0.4188
795.00 0.4187
795.10 0.4185
795.20 0.4184
795.30 0.4183
795.40 0.4182
795.50 0.418
795.60 0.4179
795.70 0.4178
795.80 0.4177
795.90 0.4176
796.00 0.4174
796.10 0.4173
796.20 0.4172
796.30 0.4171
796.40 0.4169
796.50 0.4168
796.60 0.4167
796.70 0.4166
796.80 0.4165
796.90 0.4163
797.00 0.4162
797.10 0.4161
797.20 0.416
797.30 0.4158
797.40 0.4157
797.50 0.4156
797.60 0.4155
797.70 0.4154
797.80 0.4152
797.90 0.4151
798.00 0.415
798.10 0.4149
798.20 0.4148
798.30 0.4146
798.40 0.4145
798.50 0.4144
798.60 0.4143
798.70 0.4142
798.80 0.414
798.90 0.4139
799.00 0.4138
799.10 0.4137
799.20 0.4136
799.30 0.4134
799.40 0.4133
799.50 0.4132
799.60 0.4131
799.70 0.413
799.80 0.4128
799.90 0.4127
800.00 0.4126
800.10 0.4125
800.20 0.4123
800.30 0.4122
800.40 0.4121
800.50 0.412
800.60 0.4119
800.70 0.4117
800.80 0.4116
800.90 0.4115
801.00 0.4114
801.10 0.4113
801.20 0.4111
801.30 0.411
801.40 0.4109
801.50 0.4108
801.60 0.4107
801.70 0.4105
801.80 0.4104
801.90 0.4103
802.00 0.4102
802.10 0.4101
802.20 0.4099
802.30 0.4098
802.40 0.4097
802.50 0.4096
802.60 0.4095
802.70 0.4093
802.80 0.4092
802.90 0.4091
803.00 0.409
803.10 0.4089
803.20 0.4087
803.30 0.4086
803.40 0.4085
803.50 0.4084
803.60 0.4083
803.70 0.4081
803.80 0.408
803.90 0.4079
804.00 0.4078
804.10 0.4077
804.20 0.4076
804.30 0.4074
804.40 0.4073
804.50 0.4072
804.60 0.4071
804.70 0.407
804.80 0.4068
804.90 0.4067
805.00 0.4066
805.10 0.4065
805.20 0.4064
805.30 0.4062
805.40 0.4061
805.50 0.406
805.60 0.4059
805.70 0.4058
805.80 0.4057
805.90 0.4055
806.00 0.4054
806.10 0.4053
806.20 0.4052
806.30 0.4051
806.40 0.4049
806.50 0.4048
806.60 0.4047
806.70 0.4046
806.80 0.4045
806.90 0.4044
807.00 0.4042
807.10 0.4041
807.20 0.404
807.30 0.4039
807.40 0.4038
807.50 0.4037
807.60 0.4035
807.70 0.4034
807.80 0.4033
807.90 0.4032
808.00 0.4031
808.10 0.4029
808.20 0.4028
808.30 0.4027
808.40 0.4026
808.50 0.4025
808.60 0.4024
808.70 0.4022
808.80 0.4021
808.90 0.402
809.00 0.4019
809.10 0.4018
809.20 0.4017
809.30 0.4015
809.40 0.4014
809.50 0.4013
809.60 0.4012
809.70 0.4011
809.80 0.401
809.90 0.4008
810.00 0.4007
810.10 0.4006
810.20 0.4005
810.30 0.4004
810.40 0.4003
810.50 0.4001
810.60 0.4
810.70 0.3999
810.80 0.3998
810.90 0.3997
811.00 0.3996
811.10 0.3994
811.20 0.3993
811.30 0.3992
811.40 0.3991
811.50 0.399
811.60 0.3989
811.70 0.3988
811.80 0.3986
811.90 0.3985
812.00 0.3984
812.10 0.3983
812.20 0.3982
812.30 0.3981
812.40 0.3979
812.50 0.3978
812.60 0.3977
812.70 0.3976
812.80 0.3975
812.90 0.3974
813.00 0.3972
813.10 0.3971
813.20 0.397
813.30 0.3969
813.40 0.3968
813.50 0.3967
813.60 0.3966
813.70 0.3964
813.80 0.3963
813.90 0.3962
814.00 0.3961
814.10 0.396
814.20 0.3959
814.30 0.3957
814.40 0.3956
814.50 0.3955
814.60 0.3954
814.70 0.3953
814.80 0.3952
814.90 0.3951
815.00 0.3949
815.10 0.3948
815.20 0.3947
815.30 0.3946
815.40 0.3945
815.50 0.3944
815.60 0.3943
815.70 0.3941
815.80 0.394
815.90 0.3939
816.00 0.3938
816.10 0.3937
816.20 0.3936
816.30 0.3935
816.40 0.3933
816.50 0.3932
816.60 0.3931
816.70 0.393
816.80 0.3929
816.90 0.3928
817.00 0.3927
817.10 0.3925
817.20 0.3924
817.30 0.3923
817.40 0.3922
817.50 0.3921
817.60 0.392
817.70 0.3919
817.80 0.3918
817.90 0.3916
818.00 0.3915
818.10 0.3914
818.20 0.3913
818.30 0.3912
818.40 0.3911
818.50 0.391
818.60 0.3908
818.70 0.3907
818.80 0.3906
818.90 0.3905
819.00 0.3904
819.10 0.3903
819.20 0.3902
819.30 0.3901
819.40 0.3899
819.50 0.3898
819.60 0.3897
819.70 0.3896
819.80 0.3895
819.90 0.3894
820.00 0.3893
820.10 0.3892
820.20 0.3891
820.30 0.389
820.40 0.3888
820.50 0.3887
820.60 0.3886
820.70 0.3885
820.80 0.3884
820.90 0.3883
821.00 0.3882
821.10 0.3881
821.20 0.3879
821.30 0.3878
821.40 0.3877
821.50 0.3876
821.60 0.3875
821.70 0.3874
821.80 0.3873
821.90 0.3872
822.00 0.387
822.10 0.3869
822.20 0.3868
822.30 0.3867
822.40 0.3866
822.50 0.3865
822.60 0.3864
822.70 0.3863
822.80 0.3862
822.90 0.386
823.00 0.3859
823.10 0.3858
823.20 0.3857
823.30 0.3856
823.40 0.3855
823.50 0.3854
823.60 0.3853
823.70 0.3852
823.80 0.385
823.90 0.3849
824.00 0.3848
824.10 0.3847
824.20 0.3846
824.30 0.3845
824.40 0.3844
824.50 0.3843
824.60 0.3842
824.70 0.384
824.80 0.3839
824.90 0.3838
825.00 0.3837
825.10 0.3836
825.20 0.3835
825.30 0.3834
825.40 0.3833
825.50 0.3832
825.60 0.3831
825.70 0.3829
825.80 0.3828
825.90 0.3827
826.00 0.3826
826.10 0.3825
826.20 0.3824
826.30 0.3823
826.40 0.3822
826.50 0.3821
826.60 0.382
826.70 0.3818
826.80 0.3817
826.90 0.3816
827.00 0.3815
827.10 0.3814
827.20 0.3813
827.30 0.3812
827.40 0.3811
827.50 0.381
827.60 0.3809
827.70 0.3807
827.80 0.3806
827.90 0.3805
828.00 0.3804
828.10 0.3803
828.20 0.3802
828.30 0.3801
828.40 0.38
828.50 0.3799
828.60 0.3798
828.70 0.3796
828.80 0.3795
828.90 0.3794
829.00 0.3793
829.10 0.3792
829.20 0.3791
829.30 0.379
829.40 0.3789
829.50 0.3788
829.60 0.3787
829.70 0.3785
829.80 0.3784
829.90 0.3783
830.00 0.3782
830.10 0.3781
830.20 0.378
830.30 0.3779
830.40 0.3778
830.50 0.3777
830.60 0.3776
830.70 0.3775
830.80 0.3773
830.90 0.3772
831.00 0.3771
831.10 0.377
831.20 0.3769
831.30 0.3768
831.40 0.3767
831.50 0.3766
831.60 0.3765
831.70 0.3764
831.80 0.3763
831.90 0.3762
832.00 0.376
832.10 0.3759
832.20 0.3758
832.30 0.3757
832.40 0.3756
832.50 0.3755
832.60 0.3754
832.70 0.3753
832.80 0.3752
832.90 0.3751
833.00 0.375
833.10 0.3749
833.20 0.3747
833.30 0.3746
833.40 0.3745
833.50 0.3744
833.60 0.3743
833.70 0.3742
833.80 0.3741
833.90 0.374
834.00 0.3739
834.10 0.3738
834.20 0.3737
834.30 0.3736
834.40 0.3735
834.50 0.3733
834.60 0.3732
834.70 0.3731
834.80 0.373
834.90 0.3729
835.00 0.3728
835.10 0.3727
835.20 0.3726
835.30 0.3725
835.40 0.3724
835.50 0.3723
835.60 0.3722
835.70 0.3721
835.80 0.372
835.90 0.3718
836.00 0.3717
836.10 0.3716
836.20 0.3715
836.30 0.3714
836.40 0.3713
836.50 0.3712
836.60 0.3711
836.70 0.371
836.80 0.3709
836.90 0.3708
837.00 0.3707
837.10 0.3706
837.20 0.3705
837.30 0.3704
837.40 0.3703
837.50 0.3701
837.60 0.37
837.70 0.3699
837.80 0.3698
837.90 0.3697
838.00 0.3696
838.10 0.3695
838.20 0.3694
838.30 0.3693
838.40 0.3692
838.50 0.3691
838.60 0.369
838.70 0.3689
838.80 0.3688
838.90 0.3687
839.00 0.3686
839.10 0.3685
839.20 0.3683
839.30 0.3682
839.40 0.3681
839.50 0.368
839.60 0.3679
839.70 0.3678
839.80 0.3677
839.90 0.3676
840.00 0.3675
840.10 0.3674
840.20 0.3673
840.30 0.3672
840.40 0.3671
840.50 0.367
840.60 0.3669
840.70 0.3668
840.80 0.3667
840.90 0.3666
841.00 0.3665
841.10 0.3663
841.20 0.3662
841.30 0.3661
841.40 0.366
841.50 0.3659
841.60 0.3658
841.70 0.3657
841.80 0.3656
841.90 0.3655
842.00 0.3654
842.10 0.3653
842.20 0.3652
842.30 0.3651
842.40 0.365
842.50 0.3649
842.60 0.3648
842.70 0.3647
842.80 0.3646
842.90 0.3645
843.00 0.3644
843.10 0.3643
843.20 0.3642
843.30 0.364
843.40 0.3639
843.50 0.3638
843.60 0.3637
843.70 0.3636
843.80 0.3635
843.90 0.3634
844.00 0.3633
844.10 0.3632
844.20 0.3631
844.30 0.363
844.40 0.3629
844.50 0.3628
844.60 0.3627
844.70 0.3626
844.80 0.3625
844.90 0.3624
845.00 0.3623
845.10 0.3622
845.20 0.3621
845.30 0.362
845.40 0.3619
845.50 0.3618
845.60 0.3617
845.70 0.3616
845.80 0.3615
845.90 0.3614
846.00 0.3612
846.10 0.3611
846.20 0.361
846.30 0.3609
846.40 0.3608
846.50 0.3607
846.60 0.3606
846.70 0.3605
846.80 0.3604
846.90 0.3603
847.00 0.3602
847.10 0.3601
847.20 0.36
847.30 0.3599
847.40 0.3598
847.50 0.3597
847.60 0.3596
847.70 0.3595
847.80 0.3594
847.90 0.3593
848.00 0.3592
848.10 0.3591
848.20 0.359
848.30 0.3589
848.40 0.3588
848.50 0.3587
848.60 0.3586
848.70 0.3585
848.80 0.3584
848.90 0.3583
849.00 0.3582
849.10 0.3581
849.20 0.358
849.30 0.3579
849.40 0.3577
849.50 0.3576
849.60 0.3575
849.70 0.3574
849.80 0.3573
849.90 0.3572
850.00 0.3571
850.10 0.357
850.20 0.3569
850.30 0.3568
850.40 0.3567
850.50 0.3566
850.60 0.3565
850.70 0.3564
850.80 0.3563
850.90 0.3562
851.00 0.3561
851.10 0.356
851.20 0.3559
851.30 0.3558
851.40 0.3557
851.50 0.3556
851.60 0.3555
851.70 0.3554
851.80 0.3553
851.90 0.3552
852.00 0.3551
852.10 0.355
852.20 0.3549
852.30 0.3548
852.40 0.3547
852.50 0.3546
852.60 0.3545
852.70 0.3544
852.80 0.3543
852.90 0.3542
853.00 0.3541
853.10 0.354
853.20 0.3539
853.30 0.3538
853.40 0.3537
853.50 0.3536
853.60 0.3535
853.70 0.3534
853.80 0.3533
853.90 0.3532
854.00 0.3531
854.10 0.353
854.20 0.3529
854.30 0.3528
854.40 0.3527
854.50 0.3526
854.60 0.3525
854.70 0.3524
854.80 0.3523
854.90 0.3522
855.00 0.3521
855.10 0.352
855.20 0.3519
855.30 0.3518
855.40 0.3517
855.50 0.3516
855.60 0.3515
855.70 0.3514
855.80 0.3513
855.90 0.3512
856.00 0.3511
856.10 0.351
856.20 0.3509
856.30 0.3508
856.40 0.3507
856.50 0.3506
856.60 0.3505
856.70 0.3504
856.80 0.3503
856.90 0.3502
857.00 0.3501
857.10 0.35
857.20 0.3499
857.30 0.3498
857.40 0.3497
857.50 0.3496
857.60 0.3495
857.70 0.3494
857.80 0.3493
857.90 0.3492
858.00 0.3491
858.10 0.349
858.20 0.3489
858.30 0.3488
858.40 0.3487
858.50 0.3486
858.60 0.3485
858.70 0.3484
858.80 0.3483
858.90 0.3482
859.00 0.3481
859.10 0.348
859.20 0.3479
859.30 0.3478
859.40 0.3477
859.50 0.3476
859.60 0.3475
859.70 0.3474
859.80 0.3473
859.90 0.3472
860.00 0.3471
860.10 0.347
860.20 0.3469
860.30 0.3468
860.40 0.3467
860.50 0.3466
860.60 0.3465
860.70 0.3464
860.80 0.3463
860.90 0.3462
861.00 0.3461
861.10 0.346
861.20 0.3459
861.30 0.3458
861.40 0.3457
861.50 0.3456
861.60 0.3455
861.70 0.3454
861.80 0.3453
861.90 0.3452
862.00 0.3452
862.10 0.3451
862.20 0.345
862.30 0.3449
862.40 0.3448
862.50 0.3447
862.60 0.3446
862.70 0.3445
862.80 0.3444
862.90 0.3443
863.00 0.3442
863.10 0.3441
863.20 0.344
863.30 0.3439
863.40 0.3438
863.50 0.3437
863.60 0.3436
863.70 0.3435
863.80 0.3434
863.90 0.3433
864.00 0.3432
864.10 0.3431
864.20 0.343
864.30 0.3429
864.40 0.3428
864.50 0.3427
864.60 0.3426
864.70 0.3425
864.80 0.3424
864.90 0.3423
865.00 0.3422
865.10 0.3421
865.20 0.342
865.30 0.3419
865.40 0.3418
865.50 0.3417
865.60 0.3416
865.70 0.3415
865.80 0.3415
865.90 0.3414
866.00 0.3413
866.10 0.3412
866.20 0.3411
866.30 0.341
866.40 0.3409
866.50 0.3408
866.60 0.3407
866.70 0.3406
866.80 0.3405
866.90 0.3404
867.00 0.3403
867.10 0.3402
867.20 0.3401
867.30 0.34
867.40 0.3399
867.50 0.3398
867.60 0.3397
867.70 0.3396
867.80 0.3395
867.90 0.3394
868.00 0.3393
868.10 0.3392
868.20 0.3391
868.30 0.339
868.40 0.3389
868.50 0.3389
868.60 0.3388
868.70 0.3387
868.80 0.3386
868.90 0.3385
869.00 0.3384
869.10 0.3383
869.20 0.3382
869.30 0.3381
869.40 0.338
869.50 0.3379
869.60 0.3378
869.70 0.3377
869.80 0.3376
869.90 0.3375
870.00 0.3374
870.10 0.3373
870.20 0.3372
870.30 0.3371
870.40 0.337
870.50 0.3369
870.60 0.3368
870.70 0.3368
870.80 0.3367
870.90 0.3366
871.00 0.3365
871.10 0.3364
871.20 0.3363
871.30 0.3362
871.40 0.3361
871.50 0.336
871.60 0.3359
871.70 0.3358
871.80 0.3357
871.90 0.3356
872.00 0.3355
872.10 0.3354
872.20 0.3353
872.30 0.3352
872.40 0.3351
872.50 0.3351
872.60 0.335
872.70 0.3349
872.80 0.3348
872.90 0.3347
873.00 0.3346
873.10 0.3345
873.20 0.3344
873.30 0.3343
873.40 0.3342
873.50 0.3341
873.60 0.334
873.70 0.3339
873.80 0.3338
873.90 0.3337
874.00 0.3336
874.10 0.3335
874.20 0.3335
874.30 0.3334
874.40 0.3333
874.50 0.3332
874.60 0.3331
874.70 0.333
874.80 0.3329
874.90 0.3328
875.00 0.3327
875.10 0.3326
875.20 0.3325
875.30 0.3324
875.40 0.3323
875.50 0.3322
875.60 0.3321
875.70 0.332
875.80 0.332
875.90 0.3319
876.00 0.3318
876.10 0.3317
876.20 0.3316
876.30 0.3315
876.40 0.3314
876.50 0.3313
876.60 0.3312
876.70 0.3311
876.80 0.331
876.90 0.3309
877.00 0.3308
877.10 0.3307
877.20 0.3307
877.30 0.3306
877.40 0.3305
877.50 0.3304
877.60 0.3303
877.70 0.3302
877.80 0.3301
877.90 0.33
878.00 0.3299
878.10 0.3298
878.20 0.3297
878.30 0.3296
878.40 0.3295
878.50 0.3294
878.60 0.3294
878.70 0.3293
878.80 0.3292
878.90 0.3291
879.00 0.329
879.10 0.3289
879.20 0.3288
879.30 0.3287
879.40 0.3286
879.50 0.3285
879.60 0.3284
879.70 0.3283
879.80 0.3282
879.90 0.3281
880.00 0.3281
880.10 0.328
880.20 0.3279
880.30 0.3278
880.40 0.3277
880.50 0.3276
880.60 0.3275
880.70 0.3274
880.80 0.3273
880.90 0.3272
881.00 0.3271
881.10 0.327
881.20 0.327
881.30 0.3269
881.40 0.3268
881.50 0.3267
881.60 0.3266
881.70 0.3265
881.80 0.3264
881.90 0.3263
882.00 0.3262
882.10 0.3261
882.20 0.326
882.30 0.3259
882.40 0.3259
882.50 0.3258
882.60 0.3257
882.70 0.3256
882.80 0.3255
882.90 0.3254
883.00 0.3253
883.10 0.3252
883.20 0.3251
883.30 0.325
883.40 0.3249
883.50 0.3248
883.60 0.3248
883.70 0.3247
883.80 0.3246
883.90 0.3245
884.00 0.3244
884.10 0.3243
884.20 0.3242
884.30 0.3241
884.40 0.324
884.50 0.3239
884.60 0.3238
884.70 0.3237
884.80 0.3237
884.90 0.3236
885.00 0.3235
885.10 0.3234
885.20 0.3233
885.30 0.3232
885.40 0.3231
885.50 0.323
885.60 0.3229
885.70 0.3228
885.80 0.3227
885.90 0.3227
886.00 0.3226
886.10 0.3225
886.20 0.3224
886.30 0.3223
886.40 0.3222
886.50 0.3221
886.60 0.322
886.70 0.3219
886.80 0.3218
886.90 0.3218
887.00 0.3217
887.10 0.3216
887.20 0.3215
887.30 0.3214
887.40 0.3213
887.50 0.3212
887.60 0.3211
887.70 0.321
887.80 0.3209
887.90 0.3209
888.00 0.3208
888.10 0.3207
888.20 0.3206
888.30 0.3205
888.40 0.3204
888.50 0.3203
888.60 0.3202
888.70 0.3201
888.80 0.3201
888.90 0.32
889.00 0.3199
889.10 0.3198
889.20 0.3197
889.30 0.3196
889.40 0.3195
889.50 0.3194
889.60 0.3193
889.70 0.3192
889.80 0.3192
889.90 0.3191
890.00 0.319
890.10 0.3189
890.20 0.3188
890.30 0.3187
890.40 0.3186
890.50 0.3185
890.60 0.3184
890.70 0.3184
890.80 0.3183
890.90 0.3182
891.00 0.3181
891.10 0.318
891.20 0.3179
891.30 0.3178
891.40 0.3177
891.50 0.3177
891.60 0.3176
891.70 0.3175
891.80 0.3174
891.90 0.3173
892.00 0.3172
892.10 0.3171
892.20 0.317
892.30 0.3169
892.40 0.3169
892.50 0.3168
892.60 0.3167
892.70 0.3166
892.80 0.3165
892.90 0.3164
893.00 0.3163
893.10 0.3162
893.20 0.3161
893.30 0.3161
893.40 0.316
893.50 0.3159
893.60 0.3158
893.70 0.3157
893.80 0.3156
893.90 0.3155
894.00 0.3154
894.10 0.3154
894.20 0.3153
894.30 0.3152
894.40 0.3151
894.50 0.315
894.60 0.3149
894.70 0.3148
894.80 0.3147
894.90 0.3147
895.00 0.3146
895.10 0.3145
895.20 0.3144
895.30 0.3143
895.40 0.3142
895.50 0.3141
895.60 0.314
895.70 0.3139
895.80 0.3139
895.90 0.3138
896.00 0.3137
896.10 0.3136
896.20 0.3135
896.30 0.3134
896.40 0.3133
896.50 0.3132
896.60 0.3132
896.70 0.3131
896.80 0.313
896.90 0.3129
897.00 0.3128
897.10 0.3127
897.20 0.3126
897.30 0.3126
897.40 0.3125
897.50 0.3124
897.60 0.3123
897.70 0.3122
897.80 0.3121
897.90 0.312
898.00 0.3119
898.10 0.3118
898.20 0.3118
898.30 0.3117
898.40 0.3116
898.50 0.3115
898.60 0.3114
898.70 0.3113
898.80 0.3112
898.90 0.3111
899.00 0.3111
899.10 0.311
899.20 0.3109
899.30 0.3108
899.40 0.3107
899.50 0.3106
899.60 0.3105
899.70 0.3105
899.80 0.3104
899.90 0.3103
900.00 0.3102
900.10 0.3101
900.20 0.31
900.30 0.3099
900.40 0.3098
900.50 0.3098
900.60 0.3097
900.70 0.3096
900.80 0.3095
900.90 0.3094
901.00 0.3093
901.10 0.3092
901.20 0.3092
901.30 0.3091
901.40 0.309
901.50 0.3089
901.60 0.3088
901.70 0.3087
901.80 0.3086
901.90 0.3085
902.00 0.3085
902.10 0.3084
902.20 0.3083
902.30 0.3082
902.40 0.3081
902.50 0.308
902.60 0.308
902.70 0.3079
902.80 0.3078
902.90 0.3077
903.00 0.3076
903.10 0.3075
903.20 0.3074
903.30 0.3074
903.40 0.3073
903.50 0.3072
903.60 0.3071
903.70 0.307
903.80 0.3069
903.90 0.3069
904.00 0.3068
904.10 0.3067
904.20 0.3066
904.30 0.3065
904.40 0.3064
904.50 0.3063
904.60 0.3063
904.70 0.3062
904.80 0.3061
904.90 0.306
905.00 0.3059
905.10 0.3058
905.20 0.3058
905.30 0.3057
905.40 0.3056
905.50 0.3055
905.60 0.3054
905.70 0.3053
905.80 0.3053
905.90 0.3052
906.00 0.3051
906.10 0.305
906.20 0.3049
906.30 0.3048
906.40 0.3048
906.50 0.3047
906.60 0.3046
906.70 0.3045
906.80 0.3044
906.90 0.3043
907.00 0.3043
907.10 0.3042
907.20 0.3041
907.30 0.304
907.40 0.3039
907.50 0.3038
907.60 0.3038
907.70 0.3037
907.80 0.3036
907.90 0.3035
908.00 0.3034
908.10 0.3033
908.20 0.3032
908.30 0.3032
908.40 0.3031
908.50 0.303
908.60 0.3029
908.70 0.3028
908.80 0.3027
908.90 0.3027
909.00 0.3026
909.10 0.3025
909.20 0.3024
909.30 0.3023
909.40 0.3022
909.50 0.3022
909.60 0.3021
909.70 0.302
909.80 0.3019
909.90 0.3018
910.00 0.3017
910.10 0.3017
910.20 0.3016
910.30 0.3015
910.40 0.3014
910.50 0.3013
910.60 0.3012
910.70 0.3012
910.80 0.3011
910.90 0.301
911.00 0.3009
911.10 0.3008
911.20 0.3007
911.30 0.3007
911.40 0.3006
911.50 0.3005
911.60 0.3004
911.70 0.3003
911.80 0.3003
911.90 0.3002
912.00 0.3001
912.10 0.3
912.20 0.2999
912.30 0.2998
912.40 0.2998
912.50 0.2997
912.60 0.2996
912.70 0.2995
912.80 0.2994
912.90 0.2993
913.00 0.2993
913.10 0.2992
913.20 0.2991
913.30 0.299
913.40 0.2989
913.50 0.2988
913.60 0.2988
913.70 0.2987
913.80 0.2986
913.90 0.2985
914.00 0.2984
914.10 0.2984
914.20 0.2983
914.30 0.2982
914.40 0.2981
914.50 0.298
914.60 0.2979
914.70 0.2979
914.80 0.2978
914.90 0.2977
915.00 0.2976
915.10 0.2975
915.20 0.2974
915.30 0.2974
915.40 0.2973
915.50 0.2972
915.60 0.2971
915.70 0.297
915.80 0.297
915.90 0.2969
916.00 0.2968
916.10 0.2967
916.20 0.2966
916.30 0.2965
916.40 0.2965
916.50 0.2964
916.60 0.2963
916.70 0.2962
916.80 0.2961
916.90 0.2961
917.00 0.296
917.10 0.2959
917.20 0.2958
917.30 0.2957
917.40 0.2956
917.50 0.2955
917.60 0.2955
917.70 0.2954
917.80 0.2953
917.90 0.2952
918.00 0.2951
918.10 0.295
918.20 0.295
918.30 0.2949
918.40 0.2948
918.50 0.2947
918.60 0.2946
918.70 0.2945
918.80 0.2944
918.90 0.2944
919.00 0.2943
919.10 0.2942
919.20 0.2941
919.30 0.294
919.40 0.2939
919.50 0.2939
919.60 0.2938
919.70 0.2937
919.80 0.2936
919.90 0.2935
920.00 0.2934
920.10 0.2934
920.20 0.2933
920.30 0.2932
920.40 0.2931
920.50 0.293
920.60 0.2929
920.70 0.2928
920.80 0.2928
920.90 0.2927
921.00 0.2926
921.10 0.2925
921.20 0.2924
921.30 0.2923
921.40 0.2923
921.50 0.2922
921.60 0.2921
921.70 0.292
921.80 0.2919
921.90 0.2918
922.00 0.2918
922.10 0.2917
922.20 0.2916
922.30 0.2915
922.40 0.2914
922.50 0.2914
922.60 0.2913
922.70 0.2912
922.80 0.2911
922.90 0.2911
923.00 0.291
923.10 0.2909
923.20 0.2908
923.30 0.2908
923.40 0.2907
923.50 0.2906
923.60 0.2905
923.70 0.2905
923.80 0.2904
923.90 0.2903
924.00 0.2902
924.10 0.2901
924.20 0.2901
924.30 0.29
924.40 0.2899
924.50 0.2898
924.60 0.2898
924.70 0.2897
924.80 0.2896
924.90 0.2895
925.00 0.2895
925.10 0.2894
925.20 0.2893
925.30 0.2892
925.40 0.2892
925.50 0.2891
925.60 0.289
925.70 0.2889
925.80 0.2889
925.90 0.2888
926.00 0.2887
926.10 0.2886
926.20 0.2885
926.30 0.2885
926.40 0.2884
926.50 0.2883
926.60 0.2882
926.70 0.2882
926.80 0.2881
926.90 0.288
927.00 0.2879
927.10 0.2879
927.20 0.2878
927.30 0.2877
927.40 0.2876
927.50 0.2876
927.60 0.2875
927.70 0.2874
927.80 0.2873
927.90 0.2872
928.00 0.2872
928.10 0.2871
928.20 0.287
928.30 0.2869
928.40 0.2868
928.50 0.2868
928.60 0.2867
928.70 0.2866
928.80 0.2865
928.90 0.2865
929.00 0.2864
929.10 0.2863
929.20 0.2862
929.30 0.2861
929.40 0.2861
929.50 0.286
929.60 0.2859
929.70 0.2858
929.80 0.2858
929.90 0.2857
930.00 0.2856
930.10 0.2855
930.20 0.2855
930.30 0.2854
930.40 0.2853
930.50 0.2852
930.60 0.2851
930.70 0.2851
930.80 0.285
930.90 0.2849
931.00 0.2848
931.10 0.2848
931.20 0.2847
931.30 0.2846
931.40 0.2845
931.50 0.2844
931.60 0.2844
931.70 0.2843
931.80 0.2842
931.90 0.2841
932.00 0.2841
932.10 0.284
932.20 0.2839
932.30 0.2838
932.40 0.2837
932.50 0.2837
932.60 0.2836
932.70 0.2835
932.80 0.2834
932.90 0.2834
933.00 0.2833
933.10 0.2832
933.20 0.2831
933.30 0.2831
933.40 0.283
933.50 0.2829
933.60 0.2828
933.70 0.2827
933.80 0.2827
933.90 0.2826
934.00 0.2825
934.10 0.2824
934.20 0.2824
934.30 0.2823
934.40 0.2822
934.50 0.2821
934.60 0.282
934.70 0.282
934.80 0.2819
934.90 0.2818
935.00 0.2817
935.10 0.2817
935.20 0.2816
935.30 0.2815
935.40 0.2814
935.50 0.2814
935.60 0.2813
935.70 0.2812
935.80 0.2811
935.90 0.2811
936.00 0.281
936.10 0.2809
936.20 0.2808
936.30 0.2808
936.40 0.2807
936.50 0.2806
936.60 0.2805
936.70 0.2804
936.80 0.2804
936.90 0.2803
937.00 0.2802
937.10 0.2801
937.20 0.2801
937.30 0.28
937.40 0.2799
937.50 0.2798
937.60 0.2798
937.70 0.2797
937.80 0.2796
937.90 0.2795
938.00 0.2795
938.10 0.2794
938.20 0.2793
938.30 0.2792
938.40 0.2792
938.50 0.2791
938.60 0.279
938.70 0.2789
938.80 0.2789
938.90 0.2788
939.00 0.2787
939.10 0.2786
939.20 0.2785
939.30 0.2785
939.40 0.2784
939.50 0.2783
939.60 0.2782
939.70 0.2782
939.80 0.2781
939.90 0.278
940.00 0.2779
940.10 0.2779
940.20 0.2778
940.30 0.2777
940.40 0.2776
940.50 0.2776
940.60 0.2775
940.70 0.2774
940.80 0.2773
940.90 0.2773
941.00 0.2772
941.10 0.2771
941.20 0.277
941.30 0.277
941.40 0.2769
941.50 0.2768
941.60 0.2767
941.70 0.2767
941.80 0.2766
941.90 0.2765
942.00 0.2764
942.10 0.2764
942.20 0.2763
942.30 0.2762
942.40 0.2761
942.50 0.2761
942.60 0.276
942.70 0.2759
942.80 0.2758
942.90 0.2758
943.00 0.2757
943.10 0.2756
943.20 0.2755
943.30 0.2755
943.40 0.2754
943.50 0.2753
943.60 0.2752
943.70 0.2752
943.80 0.2751
943.90 0.275
944.00 0.2749
944.10 0.2749
944.20 0.2748
944.30 0.2747
944.40 0.2746
944.50 0.2746
944.60 0.2745
944.70 0.2744
944.80 0.2743
944.90 0.2743
945.00 0.2742
945.10 0.2741
945.20 0.274
945.30 0.274
945.40 0.2739
945.50 0.2738
945.60 0.2737
945.70 0.2737
945.80 0.2736
945.90 0.2735
946.00 0.2734
946.10 0.2734
946.20 0.2733
946.30 0.2732
946.40 0.2731
946.50 0.2731
946.60 0.273
946.70 0.2729
946.80 0.2728
946.90 0.2728
947.00 0.2727
947.10 0.2726
947.20 0.2725
947.30 0.2725
947.40 0.2724
947.50 0.2723
947.60 0.2722
947.70 0.2721
947.80 0.2721
947.90 0.272
948.00 0.2719
948.10 0.2718
948.20 0.2718
948.30 0.2717
948.40 0.2716
948.50 0.2715
948.60 0.2715
948.70 0.2714
948.80 0.2713
948.90 0.2712
949.00 0.2712
949.10 0.2711
949.20 0.271
949.30 0.2709
949.40 0.2709
949.50 0.2708
949.60 0.2707
949.70 0.2706
949.80 0.2705
949.90 0.2705
950.00 0.2704
950.10 0.2703
950.20 0.2702
950.30 0.2702
950.40 0.2701
950.50 0.27
950.60 0.2699
950.70 0.2698
950.80 0.2698
950.90 0.2697
951.00 0.2696
951.10 0.2695
951.20 0.2695
951.30 0.2694
951.40 0.2693
951.50 0.2692
951.60 0.2691
951.70 0.2691
951.80 0.269
951.90 0.2689
952.00 0.2688
952.10 0.2687
952.20 0.2687
952.30 0.2686
952.40 0.2685
952.50 0.2684
952.60 0.2683
952.70 0.2682
952.80 0.2682
952.90 0.2681
953.00 0.268
953.10 0.2679
953.20 0.2678
953.30 0.2677
953.40 0.2676
953.50 0.2675
953.60 0.2674
953.70 0.2673
953.80 0.2672
953.90 0.2671
954.00 0.267
954.10 0.2669
954.20 0.2669
954.30 0.2669
954.40 0.2667
954.50 0.2666
954.60 0.2666
954.70 0.2665
954.80 0.2665
954.90 0.2664
955.00 0.2664
955.10 0.2663
955.20 0.2663
955.30 0.2662
955.40 0.2662
955.50 0.2661
955.60 0.2661
955.70 0.266
955.80 0.266
955.90 0.2659
956.00 0.2659
956.10 0.2658
956.20 0.2657
956.30 0.2657
956.40 0.2656
956.50 0.2655
956.60 0.2655
956.70 0.2654
956.80 0.2654
956.90 0.2653
957.00 0.2652
957.10 0.2652
957.20 0.2651
957.30 0.265
957.40 0.265
957.50 0.2649
957.60 0.2648
957.70 0.2648
957.80 0.2647
957.90 0.2646
958.00 0.2646
958.10 0.2645
958.20 0.2644
958.30 0.2644
958.40 0.2643
958.50 0.2642
958.60 0.2642
958.70 0.2641
958.80 0.264
958.90 0.264
959.00 0.2639
959.10 0.2638
959.20 0.2638
959.30 0.2637
959.40 0.2636
959.50 0.2636
959.60 0.2635
959.70 0.2634
959.80 0.2634
959.90 0.2633
960.00 0.2632
960.10 0.2632
960.20 0.2631
960.30 0.263
960.40 0.263
960.50 0.2629
960.60 0.2628
960.70 0.2628
960.80 0.2627
960.90 0.2626
961.00 0.2626
961.10 0.2625
961.20 0.2624
961.30 0.2624
961.40 0.2623
961.50 0.2622
961.60 0.2621
961.70 0.2621
961.80 0.262
961.90 0.2619
962.00 0.2619
962.10 0.2618
962.20 0.2617
962.30 0.2617
962.40 0.2616
962.50 0.2615
962.60 0.2615
962.70 0.2614
962.80 0.2613
962.90 0.2613
963.00 0.2612
963.10 0.2611
963.20 0.2611
963.30 0.261
963.40 0.2609
963.50 0.2608
963.60 0.2608
963.70 0.2607
963.80 0.2606
963.90 0.2606
964.00 0.2605
964.10 0.2604
964.20 0.2604
964.30 0.2603
964.40 0.2602
964.50 0.2602
964.60 0.2601
964.70 0.26
964.80 0.26
964.90 0.2599
965.00 0.2598
965.10 0.2598
965.20 0.2597
965.30 0.2596
965.40 0.2595
965.50 0.2595
965.60 0.2594
965.70 0.2593
965.80 0.2593
965.90 0.2592
966.00 0.2591
966.10 0.2591
966.20 0.259
966.30 0.2589
966.40 0.2589
966.50 0.2588
966.60 0.2587
966.70 0.2587
966.80 0.2586
966.90 0.2585
967.00 0.2584
967.10 0.2584
967.20 0.2583
967.30 0.2582
967.40 0.2582
967.50 0.2581
967.60 0.258
967.70 0.258
967.80 0.2579
967.90 0.2578
968.00 0.2578
968.10 0.2577
968.20 0.2576
968.30 0.2576
968.40 0.2575
968.50 0.2574
968.60 0.2573
968.70 0.2573
968.80 0.2572
968.90 0.2571
969.00 0.2571
969.10 0.257
969.20 0.2569
969.30 0.2569
969.40 0.2568
969.50 0.2567
969.60 0.2567
969.70 0.2566
969.80 0.2565
969.90 0.2565
970.00 0.2564
970.10 0.2563
970.20 0.2563
970.30 0.2562
970.40 0.2561
970.50 0.2561
970.60 0.256
970.70 0.2559
970.80 0.2558
970.90 0.2558
971.00 0.2557
971.10 0.2556
971.20 0.2556
971.30 0.2555
971.40 0.2554
971.50 0.2554
971.60 0.2553
971.70 0.2552
971.80 0.2552
971.90 0.2551
972.00 0.255
972.10 0.255
972.20 0.2549
972.30 0.2548
972.40 0.2548
972.50 0.2547
972.60 0.2546
972.70 0.2546
972.80 0.2545
972.90 0.2544
973.00 0.2544
973.10 0.2543
973.20 0.2542
973.30 0.2542
973.40 0.2541
973.50 0.254
973.60 0.254
973.70 0.2539
973.80 0.2538
973.90 0.2537
974.00 0.2537
974.10 0.2536
974.20 0.2535
974.30 0.2535
974.40 0.2534
974.50 0.2533
974.60 0.2533
974.70 0.2532
974.80 0.2531
974.90 0.2531
975.00 0.253
975.10 0.2529
975.20 0.2529
975.30 0.2528
975.40 0.2527
975.50 0.2527
975.60 0.2526
975.70 0.2525
975.80 0.2525
975.90 0.2524
976.00 0.2523
976.10 0.2523
976.20 0.2522
976.30 0.2521
976.40 0.2521
976.50 0.252
976.60 0.2519
976.70 0.2519
976.80 0.2518
976.90 0.2517
977.00 0.2517
977.10 0.2516
977.20 0.2515
977.30 0.2515
977.40 0.2514
977.50 0.2513
977.60 0.2513
977.70 0.2512
977.80 0.2511
977.90 0.2511
978.00 0.251
978.10 0.2509
978.20 0.2509
978.30 0.2508
978.40 0.2507
978.50 0.2507
978.60 0.2506
978.70 0.2505
978.80 0.2505
978.90 0.2504
979.00 0.2503
979.10 0.2503
979.20 0.2502
979.30 0.2501
979.40 0.2501
979.50 0.25
979.60 0.2499
979.70 0.2499
979.80 0.2498
979.90 0.2497
980.00 0.2497
980.10 0.2496
980.20 0.2495
980.30 0.2495
980.40 0.2494
980.50 0.2493
980.60 0.2493
980.70 0.2492
980.80 0.2491
980.90 0.2491
981.00 0.249
981.10 0.2489
981.20 0.2489
981.30 0.2488
981.40 0.2487
981.50 0.2487
981.60 0.2486
981.70 0.2486
981.80 0.2485
981.90 0.2484
982.00 0.2484
982.10 0.2483
982.20 0.2482
982.30 0.2482
982.40 0.2481
982.50 0.248
982.60 0.248
982.70 0.2479
982.80 0.2478
982.90 0.2478
983.00 0.2477
983.10 0.2476
983.20 0.2476
983.30 0.2475
983.40 0.2474
983.50 0.2474
983.60 0.2473
983.70 0.2472
983.80 0.2472
983.90 0.2471
984.00 0.247
984.10 0.247
984.20 0.2469
984.30 0.2468
984.40 0.2468
984.50 0.2467
984.60 0.2466
984.70 0.2466
984.80 0.2465
984.90 0.2464
985.00 0.2464
985.10 0.2463
985.20 0.2462
985.30 0.2462
985.40 0.2461
985.50 0.2461
985.60 0.246
985.70 0.2459
985.80 0.2459
985.90 0.2458
986.00 0.2457
986.10 0.2457
986.20 0.2456
986.30 0.2455
986.40 0.2455
986.50 0.2454
986.60 0.2453
986.70 0.2453
986.80 0.2452
986.90 0.2451
987.00 0.2451
987.10 0.245
987.20 0.2449
987.30 0.2449
987.40 0.2448
987.50 0.2448
987.60 0.2447
987.70 0.2446
987.80 0.2446
987.90 0.2445
988.00 0.2444
988.10 0.2444
988.20 0.2443
988.30 0.2442
988.40 0.2442
988.50 0.2441
988.60 0.244
988.70 0.244
988.80 0.2439
988.90 0.2438
989.00 0.2438
989.10 0.2437
989.20 0.2436
989.30 0.2436
989.40 0.2435
989.50 0.2434
989.60 0.2434
989.70 0.2433
989.80 0.2432
989.90 0.2432
990.00 0.2431
990.10 0.2431
990.20 0.243
990.30 0.2429
990.40 0.2429
990.50 0.2428
990.60 0.2427
990.70 0.2427
990.80 0.2426
990.90 0.2425
991.00 0.2425
991.10 0.2424
991.20 0.2423
991.30 0.2423
991.40 0.2422
991.50 0.2421
991.60 0.2421
991.70 0.242
991.80 0.2419
991.90 0.2419
992.00 0.2418
992.10 0.2417
992.20 0.2417
992.30 0.2416
992.40 0.2415
992.50 0.2415
992.60 0.2414
992.70 0.2414
992.80 0.2413
992.90 0.2412
993.00 0.2412
993.10 0.2411
993.20 0.241
993.30 0.241
993.40 0.2409
993.50 0.2408
993.60 0.2408
993.70 0.2407
993.80 0.2406
993.90 0.2406
994.00 0.2405
994.10 0.2404
994.20 0.2404
994.30 0.2403
994.40 0.2402
994.50 0.2402
994.60 0.2401
994.70 0.24
994.80 0.24
994.90 0.2399
995.00 0.2398
995.10 0.2398
995.20 0.2397
995.30 0.2396
995.40 0.2396
995.50 0.2395
995.60 0.2394
995.70 0.2394
995.80 0.2393
995.90 0.2392
996.00 0.2392
996.10 0.2391
996.20 0.239
996.30 0.239
996.40 0.2389
996.50 0.2388
996.60 0.2387
996.70 0.2387
996.80 0.2386
996.90 0.2385
997.00 0.2385
997.10 0.2384
997.20 0.2383
997.30 0.2383
997.40 0.2382
997.50 0.2381
997.60 0.2381
997.70 0.238
997.80 0.2379
997.90 0.2379
998.00 0.2378
998.10 0.2377
998.20 0.2376
998.30 0.2376
998.40 0.2375
998.50 0.2374
998.60 0.2373
998.70 0.2373
998.80 0.2372
998.90 0.2371
999.00 0.2371
999.10 0.237
999.20 0.2369
999.30 0.2368
999.40 0.2368
999.50 0.2367
999.60 0.2366
999.70 0.2365
999.80 0.2365
999.90 0.2364
1000.00 0.2363
1000.10 0.2362
1000.20 0.2361
1000.30 0.2361
1000.40 0.236
1000.50 0.2359
1000.60 0.2358
1000.70 0.2358
1000.80 0.2357
1000.90 0.2356
1001.00 0.2355
1001.10 0.2354
1001.20 0.2354
1001.30 0.2353
1001.40 0.2352
1001.50 0.2351
1001.60 0.235
1001.70 0.235
1001.80 0.2349
1001.90 0.2348
1002.00 0.2347
1002.10 0.2346
1002.20 0.2345
1002.30 0.2344
1002.40 0.2343
1002.50 0.2342
1002.60 0.2341
1002.70 0.2341
1002.80 0.234
1002.90 0.2339
1003.00 0.2338
1003.10 0.2337
1003.20 0.2336
1003.30 0.2335
1003.40 0.2334
1003.50 0.2333
1003.60 0.2331
1003.70 0.233
1003.80 0.2329
1003.90 0.2328
1004.00 0.2327
1004.10 0.2326
1004.20 0.2324
1004.30 0.2323
1004.40 0.2322
1004.50 0.2322
1004.60 0.2324
1004.70 0.2321
1004.80 0.232
1004.90 0.232
1005.00 0.2319
1005.10 0.2319
1005.20 0.2319
1005.30 0.2319
1005.40 0.2319
1005.50 0.2319
1005.60 0.2319
1005.70 0.2319
1005.80 0.2319
1005.90 0.2319
1006.00 0.2319
1006.10 0.2318
1006.20 0.2318
1006.30 0.2318
1006.40 0.2318
1006.50 0.2317
1006.60 0.2317
1006.70 0.2317
1006.80 0.2316
1006.90 0.2316
1007.00 0.2316
1007.10 0.2316
1007.20 0.2315
1007.30 0.2315
1007.40 0.2314
1007.50 0.2314
1007.60 0.2314
1007.70 0.2313
1007.80 0.2313
1007.90 0.2312
1008.00 0.2312
1008.10 0.2312
1008.20 0.2311
1008.30 0.2311
1008.40 0.231
1008.50 0.231
1008.60 0.2309
1008.70 0.2309
1008.80 0.2309
1008.90 0.2308
1009.00 0.2308
1009.10 0.2307
1009.20 0.2307
1009.30 0.2306
1009.40 0.2306
1009.50 0.2306
1009.60 0.2305
1009.70 0.2305
1009.80 0.2304
1009.90 0.2304
1010.00 0.2303
1010.10 0.2303
1010.20 0.2302
1010.30 0.2302
1010.40 0.2301
1010.50 0.2301
1010.60 0.23
1010.70 0.23
1010.80 0.2299
1010.90 0.2299
1011.00 0.2298
1011.10 0.2298
1011.20 0.2297
1011.30 0.2297
1011.40 0.2296
1011.50 0.2296
1011.60 0.2295
1011.70 0.2295
1011.80 0.2294
1011.90 0.2293
1012.00 0.2293
1012.10 0.2292
1012.20 0.2292
1012.30 0.2291
1012.40 0.2291
1012.50 0.229
1012.60 0.229
1012.70 0.2289
1012.80 0.2289
1012.90 0.2288
1013.00 0.2288
1013.10 0.2287
1013.20 0.2286
1013.30 0.2286
1013.40 0.2285
1013.50 0.2285
1013.60 0.2284
1013.70 0.2284
1013.80 0.2283
1013.90 0.2283
1014.00 0.2282
1014.10 0.2281
1014.20 0.2281
1014.30 0.228
1014.40 0.228
1014.50 0.2279
1014.60 0.2279
1014.70 0.2278
1014.80 0.2278
1014.90 0.2277
1015.00 0.2276
1015.10 0.2276
1015.20 0.2275
1015.30 0.2275
1015.40 0.2274
1015.50 0.2274
1015.60 0.2273
1015.70 0.2272
1015.80 0.2272
1015.90 0.2271
1016.00 0.2271
1016.10 0.227
1016.20 0.227
1016.30 0.2269
1016.40 0.2269
1016.50 0.2268
1016.60 0.2267
1016.70 0.2267
1016.80 0.2266
1016.90 0.2266
1017.00 0.2265
1017.10 0.2265
1017.20 0.2264
1017.30 0.2263
1017.40 0.2263
1017.50 0.2262
1017.60 0.2262
1017.70 0.2261
1017.80 0.2261
1017.90 0.226
1018.00 0.2259
1018.10 0.2259
1018.20 0.2258
1018.30 0.2258
1018.40 0.2257
1018.50 0.2257
1018.60 0.2256
1018.70 0.2255
1018.80 0.2255
1018.90 0.2254
1019.00 0.2254
1019.10 0.2253
1019.20 0.2253
1019.30 0.2252
1019.40 0.2251
1019.50 0.2251
1019.60 0.225
1019.70 0.225
1019.80 0.2249
1019.90 0.2249
1020.00 0.2248
1020.10 0.2247
1020.20 0.2247
1020.30 0.2246
1020.40 0.2246
1020.50 0.2245
1020.60 0.2245
1020.70 0.2244
1020.80 0.2243
1020.90 0.2243
1021.00 0.2242
1021.10 0.2242
1021.20 0.2241
1021.30 0.2241
1021.40 0.224
1021.50 0.2239
1021.60 0.2239
1021.70 0.2238
1021.80 0.2238
1021.90 0.2237
1022.00 0.2237
1022.10 0.2236
1022.20 0.2236
1022.30 0.2235
1022.40 0.2234
1022.50 0.2234
1022.60 0.2233
1022.70 0.2233
1022.80 0.2232
1022.90 0.2231
1023.00 0.2231
1023.10 0.223
1023.20 0.223
1023.30 0.2229
1023.40 0.2229
1023.50 0.2228
1023.60 0.2227
1023.70 0.2227
1023.80 0.2226
1023.90 0.2226
1024.00 0.2225
1024.10 0.2225
1024.20 0.2224
1024.30 0.2223
1024.40 0.2223
1024.50 0.2222
1024.60 0.2222
1024.70 0.2221
1024.80 0.2221
1024.90 0.222
1025.00 0.2219
1025.10 0.2219
1025.20 0.2218
1025.30 0.2218
1025.40 0.2217
1025.50 0.2217
1025.60 0.2216
1025.70 0.2215
1025.80 0.2215
1025.90 0.2214
1026.00 0.2214
1026.10 0.2213
1026.20 0.2213
1026.30 0.2212
1026.40 0.2212
1026.50 0.2211
1026.60 0.221
1026.70 0.221
1026.80 0.2209
1026.90 0.2209
1027.00 0.2208
1027.10 0.2208
1027.20 0.2207
1027.30 0.2206
1027.40 0.2206
1027.50 0.2205
1027.60 0.2205
1027.70 0.2204
1027.80 0.2204
1027.90 0.2203
1028.00 0.2202
1028.10 0.2202
1028.20 0.2201
1028.30 0.2201
1028.40 0.22
1028.50 0.22
1028.60 0.2199
1028.70 0.2199
1028.80 0.2198
1028.90 0.2197
1029.00 0.2197
1029.10 0.2196
1029.20 0.2196
1029.30 0.2195
1029.40 0.2195
1029.50 0.2194
1029.60 0.2193
1029.70 0.2193
1029.80 0.2192
1029.90 0.2192
1030.00 0.2191
1030.10 0.2191
1030.20 0.219
1030.30 0.219
1030.40 0.2189
1030.50 0.2188
1030.60 0.2188
1030.70 0.2187
1030.80 0.2187
1030.90 0.2186
1031.00 0.2186
1031.10 0.2185
1031.20 0.2184
1031.30 0.2184
1031.40 0.2183
1031.50 0.2183
1031.60 0.2182
1031.70 0.2182
1031.80 0.2181
1031.90 0.2181
1032.00 0.218
1032.10 0.2179
1032.20 0.2179
1032.30 0.2178
1032.40 0.2178
1032.50 0.2177
1032.60 0.2177
1032.70 0.2176
1032.80 0.2175
1032.90 0.2175
1033.00 0.2174
1033.10 0.2174
1033.20 0.2173
1033.30 0.2173
1033.40 0.2172
1033.50 0.2172
1033.60 0.2171
1033.70 0.217
1033.80 0.217
1033.90 0.2169
1034.00 0.2169
1034.10 0.2168
1034.20 0.2168
1034.30 0.2167
1034.40 0.2167
1034.50 0.2166
1034.60 0.2165
1034.70 0.2165
1034.80 0.2164
1034.90 0.2164
1035.00 0.2163
1035.10 0.2163
1035.20 0.2162
1035.30 0.2162
1035.40 0.2161
1035.50 0.216
1035.60 0.216
1035.70 0.2159
1035.80 0.2159
1035.90 0.2158
1036.00 0.2158
1036.10 0.2157
1036.20 0.2157
1036.30 0.2156
1036.40 0.2156
1036.50 0.2155
1036.60 0.2154
1036.70 0.2154
1036.80 0.2153
1036.90 0.2153
1037.00 0.2152
1037.10 0.2152
1037.20 0.2151
1037.30 0.2151
1037.40 0.215
1037.50 0.2149
1037.60 0.2149
1037.70 0.2148
1037.80 0.2148
1037.90 0.2147
1038.00 0.2147
1038.10 0.2146
1038.20 0.2146
1038.30 0.2145
1038.40 0.2145
1038.50 0.2144
1038.60 0.2143
1038.70 0.2143
1038.80 0.2142
1038.90 0.2142
1039.00 0.2141
1039.10 0.2141
1039.20 0.214
1039.30 0.214
1039.40 0.2139
1039.50 0.2139
1039.60 0.2138
1039.70 0.2137
1039.80 0.2137
1039.90 0.2136
1040.00 0.2136
1040.10 0.2135
1040.20 0.2135
1040.30 0.2134
1040.40 0.2134
1040.50 0.2133
1040.60 0.2133
1040.70 0.2132
1040.80 0.2131
1040.90 0.2131
1041.00 0.213
1041.10 0.213
1041.20 0.2129
1041.30 0.2129
1041.40 0.2128
1041.50 0.2128
1041.60 0.2127
1041.70 0.2127
1041.80 0.2126
1041.90 0.2125
1042.00 0.2125
1042.10 0.2124
1042.20 0.2124
1042.30 0.2123
1042.40 0.2123
1042.50 0.2122
1042.60 0.2122
1042.70 0.2121
1042.80 0.2121
1042.90 0.212
1043.00 0.2119
1043.10 0.2119
1043.20 0.2118
1043.30 0.2118
1043.40 0.2117
1043.50 0.2117
1043.60 0.2116
1043.70 0.2116
1043.80 0.2115
1043.90 0.2115
1044.00 0.2114
1044.10 0.2114
1044.20 0.2113
1044.30 0.2112
1044.40 0.2112
1044.50 0.2111
1044.60 0.2111
1044.70 0.211
1044.80 0.211
1044.90 0.2109
1045.00 0.2109
1045.10 0.2108
1045.20 0.2108
1045.30 0.2107
1045.40 0.2107
1045.50 0.2106
1045.60 0.2105
1045.70 0.2105
1045.80 0.2104
1045.90 0.2104
1046.00 0.2103
1046.10 0.2103
1046.20 0.2102
1046.30 0.2102
1046.40 0.2101
1046.50 0.2101
1046.60 0.21
1046.70 0.21
1046.80 0.2099
1046.90 0.2099
1047.00 0.2098
1047.10 0.2097
1047.20 0.2097
1047.30 0.2096
1047.40 0.2096
1047.50 0.2095
1047.60 0.2095
1047.70 0.2094
1047.80 0.2094
1047.90 0.2093
1048.00 0.2093
1048.10 0.2092
1048.20 0.2092
1048.30 0.2091
1048.40 0.2091
1048.50 0.209
1048.60 0.2089
1048.70 0.2089
1048.80 0.2088
1048.90 0.2088
1049.00 0.2087
1049.10 0.2087
1049.20 0.2086
1049.30 0.2086
1049.40 0.2085
1049.50 0.2085
1049.60 0.2084
1049.70 0.2084
1049.80 0.2083
1049.90 0.2083
1050.00 0.2082
1050.10 0.2082
1050.20 0.2081
1050.30 0.208
1050.40 0.208
1050.50 0.2079
1050.60 0.2079
1050.70 0.2078
1050.80 0.2078
1050.90 0.2077
1051.00 0.2077
1051.10 0.2076
1051.20 0.2076
1051.30 0.2075
1051.40 0.2075
1051.50 0.2074
1051.60 0.2074
1051.70 0.2073
1051.80 0.2073
1051.90 0.2072
1052.00 0.2072
1052.10 0.2071
1052.20 0.207
1052.30 0.207
1052.40 0.2069
1052.50 0.2069
1052.60 0.2068
1052.70 0.2068
1052.80 0.2067
1052.90 0.2067
1053.00 0.2066
1053.10 0.2066
1053.20 0.2065
1053.30 0.2065
1053.40 0.2064
1053.50 0.2064
1053.60 0.2063
1053.70 0.2063
1053.80 0.2062
1053.90 0.2062
1054.00 0.2061
1054.10 0.2061
1054.20 0.206
1054.30 0.2059
1054.40 0.2059
1054.50 0.2058
1054.60 0.2058
1054.70 0.2057
1054.80 0.2057
1054.90 0.2056
1055.00 0.2056
1055.10 0.2055
1055.20 0.2055
1055.30 0.2054
1055.40 0.2054
1055.50 0.2053
1055.60 0.2053
1055.70 0.2052
1055.80 0.2052
1055.90 0.2051
1056.00 0.2051
1056.10 0.205
1056.20 0.205
1056.30 0.2049
1056.40 0.2049
1056.50 0.2048
1056.60 0.2048
1056.70 0.2047
1056.80 0.2046
1056.90 0.2046
1057.00 0.2045
1057.10 0.2045
1057.20 0.2044
1057.30 0.2044
1057.40 0.2043
1057.50 0.2043
1057.60 0.2042
1057.70 0.2042
1057.80 0.2041
1057.90 0.2041
1058.00 0.204
1058.10 0.204
1058.20 0.2039
1058.30 0.2039
1058.40 0.2038
1058.50 0.2038
1058.60 0.2037
1058.70 0.2037
1058.80 0.2036
1058.90 0.2036
1059.00 0.2035
1059.10 0.2035
1059.20 0.2034
1059.30 0.2034
1059.40 0.2033
1059.50 0.2033
1059.60 0.2032
1059.70 0.2032
1059.80 0.2031
1059.90 0.203
1060.00 0.203
1060.10 0.2029
1060.20 0.2029
1060.30 0.2028
1060.40 0.2028
1060.50 0.2027
1060.60 0.2027
1060.70 0.2026
1060.80 0.2026
1060.90 0.2025
1061.00 0.2025
1061.10 0.2024
1061.20 0.2024
1061.30 0.2023
1061.40 0.2023
1061.50 0.2022
1061.60 0.2022
1061.70 0.2021
1061.80 0.2021
1061.90 0.202
1062.00 0.202
1062.10 0.2019
1062.20 0.2019
1062.30 0.2018
1062.40 0.2018
1062.50 0.2017
1062.60 0.2017
1062.70 0.2016
1062.80 0.2016
1062.90 0.2015
1063.00 0.2015
1063.10 0.2014
1063.20 0.2014
1063.30 0.2013
1063.40 0.2013
1063.50 0.2012
1063.60 0.2012
1063.70 0.2011
1063.80 0.2011
1063.90 0.201
1064.00 0.201
1064.10 0.2009
1064.20 0.2009
1064.30 0.2008
1064.40 0.2008
1064.50 0.2007
1064.60 0.2006
1064.70 0.2006
1064.80 0.2005
1064.90 0.2005
1065.00 0.2004
1065.10 0.2004
1065.20 0.2003
1065.30 0.2003
1065.40 0.2002
1065.50 0.2002
1065.60 0.2001
1065.70 0.2001
1065.80 0.2
1065.90 0.2
1066.00 0.1999
1066.10 0.1999
1066.20 0.1998
1066.30 0.1998
1066.40 0.1997
1066.50 0.1997
1066.60 0.1996
1066.70 0.1996
1066.80 0.1995
1066.90 0.1995
1067.00 0.1994
1067.10 0.1994
1067.20 0.1993
1067.30 0.1993
1067.40 0.1992
1067.50 0.1992
1067.60 0.1991
1067.70 0.1991
1067.80 0.199
1067.90 0.199
1068.00 0.1989
1068.10 0.1989
1068.20 0.1988
1068.30 0.1988
1068.40 0.1987
1068.50 0.1987
1068.60 0.1986
1068.70 0.1986
1068.80 0.1985
1068.90 0.1985
1069.00 0.1984
1069.10 0.1984
1069.20 0.1983
1069.30 0.1983
1069.40 0.1982
1069.50 0.1982
1069.60 0.1981
1069.70 0.1981
1069.80 0.198
1069.90 0.198
1070.00 0.1979
1070.10 0.1979
1070.20 0.1978
1070.30 0.1978
1070.40 0.1977
1070.50 0.1977
1070.60 0.1976
1070.70 0.1976
1070.80 0.1975
1070.90 0.1975
1071.00 0.1974
1071.10 0.1974
1071.20 0.1973
1071.30 0.1973
1071.40 0.1972
1071.50 0.1972
1071.60 0.1971
1071.70 0.1971
1071.80 0.197
1071.90 0.197
1072.00 0.1969
1072.10 0.1969
1072.20 0.1968
1072.30 0.1968
1072.40 0.1967
1072.50 0.1967
1072.60 0.1966
1072.70 0.1966
1072.80 0.1965
1072.90 0.1965
1073.00 0.1964
1073.10 0.1964
1073.20 0.1963
1073.30 0.1963
1073.40 0.1962
1073.50 0.1962
1073.60 0.1961
1073.70 0.1961
1073.80 0.196
1073.90 0.196
1074.00 0.1959
1074.10 0.1959
1074.20 0.1958
1074.30 0.1958
1074.40 0.1957
1074.50 0.1957
1074.60 0.1956
1074.70 0.1956
1074.80 0.1955
1074.90 0.1955
1075.00 0.1954
1075.10 0.1954
1075.20 0.1953
1075.30 0.1953
1075.40 0.1952
1075.50 0.1952
1075.60 0.1951
1075.70 0.1951
1075.80 0.195
1075.90 0.195
1076.00 0.1949
1076.10 0.1949
1076.20 0.1948
1076.30 0.1948
1076.40 0.1947
1076.50 0.1947
1076.60 0.1946
1076.70 0.1946
1076.80 0.1945
1076.90 0.1945
1077.00 0.1944
1077.10 0.1944
1077.20 0.1943
1077.30 0.1943
1077.40 0.1942
1077.50 0.1942
1077.60 0.1941
1077.70 0.1941
1077.80 0.194
1077.90 0.194
1078.00 0.1939
1078.10 0.1939
1078.20 0.1938
1078.30 0.1938
1078.40 0.1937
1078.50 0.1937
1078.60 0.1936
1078.70 0.1936
1078.80 0.1935
1078.90 0.1935
1079.00 0.1934
1079.10 0.1934
1079.20 0.1933
1079.30 0.1933
1079.40 0.1932
1079.50 0.1932
1079.60 0.1931
1079.70 0.1931
1079.80 0.193
1079.90 0.193
1080.00 0.1929
1080.10 0.1929
1080.20 0.1928
1080.30 0.1928
1080.40 0.1927
1080.50 0.1927
1080.60 0.1926
1080.70 0.1926
1080.80 0.1925
1080.90 0.1924
1081.00 0.1924
1081.10 0.1923
1081.20 0.1923
1081.30 0.1922
1081.40 0.1922
1081.50 0.1921
1081.60 0.1921
1081.70 0.192
1081.80 0.192
1081.90 0.1919
1082.00 0.1919
1082.10 0.1918
1082.20 0.1918
1082.30 0.1917
1082.40 0.1917
1082.50 0.1916
1082.60 0.1916
1082.70 0.1915
1082.80 0.1915
1082.90 0.1914
1083.00 0.1913
1083.10 0.1913
1083.20 0.1912
1083.30 0.1912
1083.40 0.1911
1083.50 0.1911
1083.60 0.191
1083.70 0.191
1083.80 0.1909
1083.90 0.1909
1084.00 0.1908
1084.10 0.1907
1084.20 0.1907
1084.30 0.1906
1084.40 0.1906
1084.50 0.1905
1084.60 0.1905
1084.70 0.1904
1084.80 0.1903
1084.90 0.1903
1085.00 0.1902
1085.10 0.1902
1085.20 0.1901
1085.30 0.19
1085.40 0.19
1085.50 0.1899
1085.60 0.1899
1085.70 0.1898
1085.80 0.1897
1085.90 0.1897
1086.00 0.1896
1086.10 0.1896
1086.20 0.1895
1086.30 0.1895
1086.40 0.1894
1086.50 0.1893
1086.60 0.1893
1086.70 0.1892
1086.80 0.1891
1086.90 0.1891
1087.00 0.189
1087.10 0.1889
1087.20 0.1889
1087.30 0.1888
1087.40 0.1887
1087.50 0.1887
1087.60 0.1886
1087.70 0.1885
1087.80 0.1884
1087.90 0.1884
1088.00 0.1883
1088.10 0.1882
1088.20 0.1882
1088.30 0.1881
1088.40 0.188
1088.50 0.1879
1088.60 0.1879
1088.70 0.1878
1088.80 0.1877
1088.90 0.1876
1089.00 0.1875
1089.10 0.1874
1089.20 0.1873
1089.30 0.1872
1089.40 0.1872
1089.50 0.1871
1089.60 0.187
1089.70 0.1869
1089.80 0.1868
1089.90 0.1867
1090.00 0.1866
1090.10 0.1865
1090.20 0.1865
1090.30 0.1864
1090.40 0.1863
1090.50 0.1862
1090.60 0.1861
1090.70 0.186
1090.80 0.1858
1090.90 0.1857
1091.00 0.1856
1091.10 0.1855
1091.20 0.1854
1091.30 0.1853
1091.40 0.1851
1091.50 0.185
1091.60 0.1849
1091.70 0.1848
1091.80 0.1847
1091.90 0.1846
1092.00 0.1845
1092.10 0.1843
1092.20 0.1842
1092.30 0.184
1092.40 0.1839
1092.50 0.1837
1092.60 0.1836
1092.70 0.1834
1092.80 0.1832
1092.90 0.1831
1093.00 0.1829
1093.10 0.1827
1093.20 0.1825
1093.30 0.1824
1093.40 0.1824
1093.50 0.1825
1093.60 0.1823
1093.70 0.1822
1093.80 0.1823
1093.90 0.1824
1094.00 0.1825
1094.10 0.1826
1094.20 0.1827
1094.30 0.1828
1094.40 0.1828
1094.50 0.1829
1094.60 0.1829
1094.70 0.183
1094.80 0.183
1094.90 0.1831
1095.00 0.1831
1095.10 0.1832
1095.20 0.1832
1095.30 0.1832
1095.40 0.1832
1095.50 0.1833
1095.60 0.1833
1095.70 0.1833
1095.80 0.1833
1095.90 0.1833
1096.00 0.1834
1096.10 0.1834
1096.20 0.1834
1096.30 0.1834
1096.40 0.1835
1096.50 0.1835
1096.60 0.1835
1096.70 0.1835
1096.80 0.1835
1096.90 0.1835
1097.00 0.1835
1097.10 0.1835
1097.20 0.1835
1097.30 0.1835
1097.40 0.1835
1097.50 0.1835
1097.60 0.1834
1097.70 0.1834
1097.80 0.1834
1097.90 0.1834
1098.00 0.1834
1098.10 0.1834
1098.20 0.1834
1098.30 0.1834
1098.40 0.1834
1098.50 0.1834
1098.60 0.1833
1098.70 0.1833
1098.80 0.1833
1098.90 0.1833
1099.00 0.1832
1099.10 0.1832
1099.20 0.1832
1099.30 0.1832
1099.40 0.1832
1099.50 0.1831
1099.60 0.1831
1099.70 0.1831
1099.80 0.1831
1099.90 0.183
1100.00 0.183
1100.10 0.183
1100.20 0.183
1100.30 0.1829
1100.40 0.1829
1100.50 0.1829
1100.60 0.1829
1100.70 0.1828
1100.80 0.1828
1100.90 0.1828
1101.00 0.1827
1101.10 0.1827
1101.20 0.1827
1101.30 0.1826
1101.40 0.1826
1101.50 0.1826
1101.60 0.1825
1101.70 0.1825
1101.80 0.1825
1101.90 0.1824
1102.00 0.1824
1102.10 0.1824
1102.20 0.1823
1102.30 0.1823
1102.40 0.1823
1102.50 0.1822
1102.60 0.1822
1102.70 0.1821
1102.80 0.1821
1102.90 0.1821
1103.00 0.182
1103.10 0.182
1103.20 0.182
1103.30 0.1819
1103.40 0.1819
1103.50 0.1818
1103.60 0.1818
1103.70 0.1818
1103.80 0.1817
1103.90 0.1817
1104.00 0.1816
1104.10 0.1816
1104.20 0.1816
1104.30 0.1815
1104.40 0.1815
1104.50 0.1814
1104.60 0.1814
1104.70 0.1814
1104.80 0.1813
1104.90 0.1813
1105.00 0.1813
1105.10 0.1812
1105.20 0.1812
1105.30 0.1811
1105.40 0.1811
1105.50 0.1811
1105.60 0.181
1105.70 0.181
1105.80 0.1809
1105.90 0.1809
1106.00 0.1809
1106.10 0.1808
1106.20 0.1808
1106.30 0.1807
1106.40 0.1807
1106.50 0.1806
1106.60 0.1806
1106.70 0.1806
1106.80 0.1805
1106.90 0.1805
1107.00 0.1804
1107.10 0.1804
1107.20 0.1804
1107.30 0.1803
1107.40 0.1803
1107.50 0.1802
1107.60 0.1802
1107.70 0.1801
1107.80 0.1801
1107.90 0.1801
1108.00 0.18
1108.10 0.18
1108.20 0.1799
1108.30 0.1799
1108.40 0.1799
1108.50 0.1798
1108.60 0.1798
1108.70 0.1797
1108.80 0.1797
1108.90 0.1796
1109.00 0.1796
1109.10 0.1796
1109.20 0.1795
1109.30 0.1795
1109.40 0.1794
1109.50 0.1794
1109.60 0.1794
1109.70 0.1793
1109.80 0.1793
1109.90 0.1792
1110.00 0.1792
1110.10 0.1791
1110.20 0.1791
1110.30 0.1791
1110.40 0.179
1110.50 0.179
1110.60 0.1789
1110.70 0.1789
1110.80 0.1788
1110.90 0.1788
1111.00 0.1788
1111.10 0.1787
1111.20 0.1787
1111.30 0.1786
1111.40 0.1786
1111.50 0.1785
1111.60 0.1785
1111.70 0.1785
1111.80 0.1784
1111.90 0.1784
1112.00 0.1783
1112.10 0.1783
1112.20 0.1782
1112.30 0.1782
1112.40 0.1782
1112.50 0.1781
1112.60 0.1781
1112.70 0.178
1112.80 0.178
1112.90 0.1779
1113.00 0.1779
1113.10 0.1779
1113.20 0.1778
1113.30 0.1778
1113.40 0.1777
1113.50 0.1777
1113.60 0.1776
1113.70 0.1776
1113.80 0.1776
1113.90 0.1775
1114.00 0.1775
1114.10 0.1774
1114.20 0.1774
1114.30 0.1773
1114.40 0.1773
1114.50 0.1773
1114.60 0.1772
1114.70 0.1772
1114.80 0.1771
1114.90 0.1771
1115.00 0.177
1115.10 0.177
1115.20 0.177
1115.30 0.1769
1115.40 0.1769
1115.50 0.1768
1115.60 0.1768
1115.70 0.1767
1115.80 0.1767
1115.90 0.1767
1116.00 0.1766
1116.10 0.1766
1116.20 0.1765
1116.30 0.1765
1116.40 0.1765
1116.50 0.1764
1116.60 0.1764
1116.70 0.1763
1116.80 0.1763
1116.90 0.1762
1117.00 0.1762
1117.10 0.1762
1117.20 0.1761
1117.30 0.1761
1117.40 0.176
1117.50 0.176
1117.60 0.1759
1117.70 0.1759
1117.80 0.1759
1117.90 0.1758
1118.00 0.1758
1118.10 0.1757
1118.20 0.1757
1118.30 0.1756
1118.40 0.1756
1118.50 0.1756
1118.60 0.1755
1118.70 0.1755
1118.80 0.1754
1118.90 0.1754
1119.00 0.1753
1119.10 0.1753
1119.20 0.1753
1119.30 0.1752
1119.40 0.1752
1119.50 0.1751
1119.60 0.1751
1119.70 0.175
1119.80 0.175
1119.90 0.175
1120.00 0.1749
1120.10 0.1749
1120.20 0.1748
1120.30 0.1748
1120.40 0.1747
1120.50 0.1747
1120.60 0.1747
1120.70 0.1746
1120.80 0.1746
1120.90 0.1745
1121.00 0.1745
1121.10 0.1745
1121.20 0.1744
1121.30 0.1744
1121.40 0.1743
1121.50 0.1743
1121.60 0.1742
1121.70 0.1742
1121.80 0.1742
1121.90 0.1741
1122.00 0.1741
1122.10 0.174
1122.20 0.174
1122.30 0.1739
1122.40 0.1739
1122.50 0.1739
1122.60 0.1738
1122.70 0.1738
1122.80 0.1737
1122.90 0.1737
1123.00 0.1737
1123.10 0.1736
1123.20 0.1736
1123.30 0.1735
1123.40 0.1735
1123.50 0.1734
1123.60 0.1734
1123.70 0.1734
1123.80 0.1733
1123.90 0.1733
1124.00 0.1732
1124.10 0.1732
1124.20 0.1731
1124.30 0.1731
1124.40 0.1731
1124.50 0.173
1124.60 0.173
1124.70 0.1729
1124.80 0.1729
1124.90 0.1729
1125.00 0.1728
1125.10 0.1728
1125.20 0.1727
1125.30 0.1727
1125.40 0.1726
1125.50 0.1726
1125.60 0.1726
1125.70 0.1725
1125.80 0.1725
1125.90 0.1724
1126.00 0.1724
1126.10 0.1724
1126.20 0.1723
1126.30 0.1723
1126.40 0.1722
1126.50 0.1722
1126.60 0.1721
1126.70 0.1721
1126.80 0.1721
1126.90 0.172
1127.00 0.172
1127.10 0.1719
1127.20 0.1719
1127.30 0.1719
1127.40 0.1718
1127.50 0.1718
1127.60 0.1717
1127.70 0.1717
1127.80 0.1716
1127.90 0.1716
1128.00 0.1716
1128.10 0.1715
1128.20 0.1715
1128.30 0.1714
1128.40 0.1714
1128.50 0.1714
1128.60 0.1713
1128.70 0.1713
1128.80 0.1712
1128.90 0.1712
1129.00 0.1712
1129.10 0.1711
1129.20 0.1711
1129.30 0.171
1129.40 0.171
1129.50 0.1709
1129.60 0.1709
1129.70 0.1709
1129.80 0.1708
1129.90 0.1708
1130.00 0.1707
1130.10 0.1707
1130.20 0.1707
1130.30 0.1706
1130.40 0.1706
1130.50 0.1705
1130.60 0.1705
1130.70 0.1705
1130.80 0.1704
1130.90 0.1704
1131.00 0.1703
1131.10 0.1703
1131.20 0.1702
1131.30 0.1702
1131.40 0.1702
1131.50 0.1701
1131.60 0.1701
1131.70 0.17
1131.80 0.17
1131.90 0.17
1132.00 0.1699
1132.10 0.1699
1132.20 0.1698
1132.30 0.1698
1132.40 0.1698
1132.50 0.1697
1132.60 0.1697
1132.70 0.1696
1132.80 0.1696
1132.90 0.1696
1133.00 0.1695
1133.10 0.1695
1133.20 0.1694
1133.30 0.1694
1133.40 0.1693
1133.50 0.1693
1133.60 0.1693
1133.70 0.1692
1133.80 0.1692
1133.90 0.1691
1134.00 0.1691
1134.10 0.1691
1134.20 0.169
1134.30 0.169
1134.40 0.1689
1134.50 0.1689
1134.60 0.1689
1134.70 0.1688
1134.80 0.1688
1134.90 0.1687
1135.00 0.1687
1135.10 0.1687
1135.20 0.1686
1135.30 0.1686
1135.40 0.1685
1135.50 0.1685
1135.60 0.1685
1135.70 0.1684
1135.80 0.1684
1135.90 0.1683
1136.00 0.1683
1136.10 0.1683
1136.20 0.1682
1136.30 0.1682
1136.40 0.1681
1136.50 0.1681
1136.60 0.168
1136.70 0.168
1136.80 0.168
1136.90 0.1679
1137.00 0.1679
1137.10 0.1678
1137.20 0.1678
1137.30 0.1678
1137.40 0.1677
1137.50 0.1677
1137.60 0.1676
1137.70 0.1676
1137.80 0.1676
1137.90 0.1675
1138.00 0.1675
1138.10 0.1674
1138.20 0.1674
1138.30 0.1674
1138.40 0.1673
1138.50 0.1673
1138.60 0.1672
1138.70 0.1672
1138.80 0.1672
1138.90 0.1671
1139.00 0.1671
1139.10 0.167
1139.20 0.167
1139.30 0.167
1139.40 0.1669
1139.50 0.1669
1139.60 0.1668
1139.70 0.1668
1139.80 0.1668
1139.90 0.1667
1140.00 0.1667
1140.10 0.1666
1140.20 0.1666
1140.30 0.1666
1140.40 0.1665
1140.50 0.1665
1140.60 0.1664
1140.70 0.1664
1140.80 0.1664
1140.90 0.1663
1141.00 0.1663
1141.10 0.1662
1141.20 0.1662
1141.30 0.1662
1141.40 0.1661
1141.50 0.1661
1141.60 0.166
1141.70 0.166
1141.80 0.166
1141.90 0.1659
1142.00 0.1659
1142.10 0.1658
1142.20 0.1658
1142.30 0.1658
1142.40 0.1657
1142.50 0.1657
1142.60 0.1656
1142.70 0.1656
1142.80 0.1656
1142.90 0.1655
1143.00 0.1655
1143.10 0.1654
1143.20 0.1654
1143.30 0.1654
1143.40 0.1653
1143.50 0.1653
1143.60 0.1653
1143.70 0.1652
1143.80 0.1652
1143.90 0.1651
1144.00 0.1651
1144.10 0.1651
1144.20 0.165
1144.30 0.165
1144.40 0.1649
1144.50 0.1649
1144.60 0.1649
1144.70 0.1648
1144.80 0.1648
1144.90 0.1647
1145.00 0.1647
1145.10 0.1647
1145.20 0.1646
1145.30 0.1646
1145.40 0.1645
1145.50 0.1645
1145.60 0.1645
1145.70 0.1644
1145.80 0.1644
1145.90 0.1643
1146.00 0.1643
1146.10 0.1643
1146.20 0.1642
1146.30 0.1642
1146.40 0.1641
1146.50 0.1641
1146.60 0.1641
1146.70 0.164
1146.80 0.164
1146.90 0.164
1147.00 0.1639
1147.10 0.1639
1147.20 0.1638
1147.30 0.1638
1147.40 0.1638
1147.50 0.1637
1147.60 0.1637
1147.70 0.1636
1147.80 0.1636
1147.90 0.1636
1148.00 0.1635
1148.10 0.1635
1148.20 0.1634
1148.30 0.1634
1148.40 0.1634
1148.50 0.1633
1148.60 0.1633
1148.70 0.1632
1148.80 0.1632
1148.90 0.1632
1149.00 0.1631
1149.10 0.1631
1149.20 0.1631
1149.30 0.163
1149.40 0.163
1149.50 0.1629
1149.60 0.1629
1149.70 0.1629
1149.80 0.1628
1149.90 0.1628
1150.00 0.1627
1150.10 0.1627
1150.20 0.1627
1150.30 0.1626
1150.40 0.1626
1150.50 0.1625
1150.60 0.1625
1150.70 0.1625
1150.80 0.1624
1150.90 0.1624
1151.00 0.1624
1151.10 0.1623
1151.20 0.1623
1151.30 0.1622
1151.40 0.1622
1151.50 0.1622
1151.60 0.1621
1151.70 0.1621
1151.80 0.162
1151.90 0.162
1152.00 0.162
1152.10 0.1619
1152.20 0.1619
1152.30 0.1618
1152.40 0.1618
1152.50 0.1618
1152.60 0.1617
1152.70 0.1617
1152.80 0.1617
1152.90 0.1616
1153.00 0.1616
1153.10 0.1615
1153.20 0.1615
1153.30 0.1615
1153.40 0.1614
1153.50 0.1614
1153.60 0.1613
1153.70 0.1613
1153.80 0.1613
1153.90 0.1612
1154.00 0.1612
1154.10 0.1612
1154.20 0.1611
1154.30 0.1611
1154.40 0.161
1154.50 0.161
1154.60 0.161
1154.70 0.1609
1154.80 0.1609
1154.90 0.1608
1155.00 0.1608
1155.10 0.1608
1155.20 0.1607
1155.30 0.1607
1155.40 0.1607
1155.50 0.1606
1155.60 0.1606
1155.70 0.1605
1155.80 0.1605
1155.90 0.1605
1156.00 0.1604
1156.10 0.1604
1156.20 0.1604
1156.30 0.1603
1156.40 0.1603
1156.50 0.1602
1156.60 0.1602
1156.70 0.1602
1156.80 0.1601
1156.90 0.1601
1157.00 0.16
1157.10 0.16
1157.20 0.16
1157.30 0.1599
1157.40 0.1599
1157.50 0.1599
1157.60 0.1598
1157.70 0.1598
1157.80 0.1597
1157.90 0.1597
1158.00 0.1597
1158.10 0.1596
1158.20 0.1596
1158.30 0.1596
1158.40 0.1595
1158.50 0.1595
1158.60 0.1594
1158.70 0.1594
1158.80 0.1594
1158.90 0.1593
1159.00 0.1593
1159.10 0.1592
1159.20 0.1592
1159.30 0.1592
1159.40 0.1591
1159.50 0.1591
1159.60 0.1591
1159.70 0.159
1159.80 0.159
1159.90 0.1589
1160.00 0.1589
1160.10 0.1589
1160.20 0.1588
1160.30 0.1588
1160.40 0.1588
1160.50 0.1587
1160.60 0.1587
1160.70 0.1586
1160.80 0.1586
1160.90 0.1586
1161.00 0.1585
1161.10 0.1585
1161.20 0.1585
1161.30 0.1584
1161.40 0.1584
1161.50 0.1583
1161.60 0.1583
1161.70 0.1583
1161.80 0.1582
1161.90 0.1582
1162.00 0.1582
1162.10 0.1581
1162.20 0.1581
1162.30 0.158
1162.40 0.158
1162.50 0.158
1162.60 0.1579
1162.70 0.1579
1162.80 0.1579
1162.90 0.1578
1163.00 0.1578
1163.10 0.1577
1163.20 0.1577
1163.30 0.1577
1163.40 0.1576
1163.50 0.1576
1163.60 0.1576
1163.70 0.1575
1163.80 0.1575
1163.90 0.1574
1164.00 0.1574
1164.10 0.1574
1164.20 0.1573
1164.30 0.1573
1164.40 0.1573
1164.50 0.1572
1164.60 0.1572
1164.70 0.1571
1164.80 0.1571
1164.90 0.1571
1165.00 0.157
1165.10 0.157
1165.20 0.157
1165.30 0.1569
1165.40 0.1569
1165.50 0.1569
1165.60 0.1568
1165.70 0.1568
1165.80 0.1567
1165.90 0.1567
1166.00 0.1567
1166.10 0.1566
1166.20 0.1566
1166.30 0.1566
1166.40 0.1565
1166.50 0.1565
1166.60 0.1564
1166.70 0.1564
1166.80 0.1564
1166.90 0.1563
1167.00 0.1563
1167.10 0.1563
1167.20 0.1562
1167.30 0.1562
1167.40 0.1562
1167.50 0.1561
1167.60 0.1561
1167.70 0.156
1167.80 0.156
1167.90 0.156
1168.00 0.1559
1168.10 0.1559
1168.20 0.1559
1168.30 0.1558
1168.40 0.1558
1168.50 0.1557
1168.60 0.1557
1168.70 0.1557
1168.80 0.1556
1168.90 0.1556
1169.00 0.1556
1169.10 0.1555
1169.20 0.1555
1169.30 0.1555
1169.40 0.1554
1169.50 0.1554
1169.60 0.1553
1169.70 0.1553
1169.80 0.1553
1169.90 0.1552
1170.00 0.1552
1170.10 0.1552
1170.20 0.1551
1170.30 0.1551
1170.40 0.155
1170.50 0.155
1170.60 0.155
1170.70 0.1549
1170.80 0.1549
1170.90 0.1549
1171.00 0.1548
1171.10 0.1548
1171.20 0.1548
1171.30 0.1547
1171.40 0.1547
1171.50 0.1546
1171.60 0.1546
1171.70 0.1546
1171.80 0.1545
1171.90 0.1545
1172.00 0.1545
1172.10 0.1544
1172.20 0.1544
1172.30 0.1544
1172.40 0.1543
1172.50 0.1543
1172.60 0.1542
1172.70 0.1542
1172.80 0.1542
1172.90 0.1541
1173.00 0.1541
1173.10 0.1541
1173.20 0.154
1173.30 0.154
1173.40 0.154
1173.50 0.1539
1173.60 0.1539
1173.70 0.1538
1173.80 0.1538
1173.90 0.1538
1174.00 0.1537
1174.10 0.1537
1174.20 0.1537
1174.30 0.1536
1174.40 0.1536
1174.50 0.1536
1174.60 0.1535
1174.70 0.1535
1174.80 0.1534
1174.90 0.1534
1175.00 0.1534
1175.10 0.1533
1175.20 0.1533
1175.30 0.1533
1175.40 0.1532
1175.50 0.1532
1175.60 0.1532
1175.70 0.1531
1175.80 0.1531
1175.90 0.1531
1176.00 0.153
1176.10 0.153
1176.20 0.1529
1176.30 0.1529
1176.40 0.1529
1176.50 0.1528
1176.60 0.1528
1176.70 0.1528
1176.80 0.1527
1176.90 0.1527
1177.00 0.1527
1177.10 0.1526
1177.20 0.1526
1177.30 0.1526
1177.40 0.1525
1177.50 0.1525
1177.60 0.1524
1177.70 0.1524
1177.80 0.1524
1177.90 0.1523
1178.00 0.1523
1178.10 0.1523
1178.20 0.1522
1178.30 0.1522
1178.40 0.1522
1178.50 0.1521
1178.60 0.1521
1178.70 0.1521
1178.80 0.152
1178.90 0.152
1179.00 0.1519
1179.10 0.1519
1179.20 0.1519
1179.30 0.1518
1179.40 0.1518
1179.50 0.1518
1179.60 0.1517
1179.70 0.1517
1179.80 0.1517
1179.90 0.1516
1180.00 0.1516
1180.10 0.1516
1180.20 0.1515
1180.30 0.1515
1180.40 0.1514
1180.50 0.1514
1180.60 0.1514
1180.70 0.1513
1180.80 0.1513
1180.90 0.1513
1181.00 0.1512
1181.10 0.1512
1181.20 0.1512
1181.30 0.1511
1181.40 0.1511
1181.50 0.1511
1181.60 0.151
1181.70 0.151
1181.80 0.151
1181.90 0.1509
1182.00 0.1509
1182.10 0.1508
1182.20 0.1508
1182.30 0.1508
1182.40 0.1507
1182.50 0.1507
1182.60 0.1507
1182.70 0.1506
1182.80 0.1506
1182.90 0.1506
1183.00 0.1505
1183.10 0.1505
1183.20 0.1505
1183.30 0.1504
1183.40 0.1504
1183.50 0.1504
1183.60 0.1503
1183.70 0.1503
1183.80 0.1502
1183.90 0.1502
1184.00 0.1502
1184.10 0.1501
1184.20 0.1501
1184.30 0.1501
1184.40 0.15
1184.50 0.15
1184.60 0.15
1184.70 0.1499
1184.80 0.1499
1184.90 0.1499
1185.00 0.1498
1185.10 0.1498
1185.20 0.1498
1185.30 0.1497
1185.40 0.1497
1185.50 0.1496
1185.60 0.1496
1185.70 0.1496
1185.80 0.1495
1185.90 0.1495
1186.00 0.1495
1186.10 0.1494
1186.20 0.1494
1186.30 0.1494
1186.40 0.1493
1186.50 0.1493
1186.60 0.1493
1186.70 0.1492
1186.80 0.1492
1186.90 0.1492
1187.00 0.1491
1187.10 0.1491
1187.20 0.1491
1187.30 0.149
1187.40 0.149
1187.50 0.149
1187.60 0.1489
1187.70 0.1489
1187.80 0.1488
1187.90 0.1488
1188.00 0.1488
1188.10 0.1487
1188.20 0.1487
1188.30 0.1487
1188.40 0.1486
1188.50 0.1486
1188.60 0.1486
1188.70 0.1485
1188.80 0.1485
1188.90 0.1485
1189.00 0.1484
1189.10 0.1484
1189.20 0.1484
1189.30 0.1483
1189.40 0.1483
1189.50 0.1483
1189.60 0.1482
1189.70 0.1482
1189.80 0.1482
1189.90 0.1481
1190.00 0.1481
1190.10 0.1481
1190.20 0.148
1190.30 0.148
1190.40 0.1479
1190.50 0.1479
1190.60 0.1479
1190.70 0.1478
1190.80 0.1478
1190.90 0.1478
1191.00 0.1477
1191.10 0.1477
1191.20 0.1477
1191.30 0.1476
1191.40 0.1476
1191.50 0.1476
1191.60 0.1475
1191.70 0.1475
1191.80 0.1475
1191.90 0.1474
1192.00 0.1474
1192.10 0.1474
1192.20 0.1473
1192.30 0.1473
1192.40 0.1473
1192.50 0.1472
1192.60 0.1472
1192.70 0.1472
1192.80 0.1471
1192.90 0.1471
1193.00 0.1471
1193.10 0.147
1193.20 0.147
1193.30 0.147
1193.40 0.1469
1193.50 0.1469
1193.60 0.1468
1193.70 0.1468
1193.80 0.1468
1193.90 0.1467
1194.00 0.1467
1194.10 0.1467
1194.20 0.1466
1194.30 0.1466
1194.40 0.1466
1194.50 0.1465
1194.60 0.1465
1194.70 0.1465
1194.80 0.1464
1194.90 0.1464
1195.00 0.1464
1195.10 0.1463
1195.20 0.1463
1195.30 0.1463
1195.40 0.1462
1195.50 0.1462
1195.60 0.1462
1195.70 0.1461
1195.80 0.1461
1195.90 0.1461
1196.00 0.146
1196.10 0.146
1196.20 0.146
1196.30 0.1459
1196.40 0.1459
1196.50 0.1459
1196.60 0.1458
1196.70 0.1458
1196.80 0.1458
1196.90 0.1457
1197.00 0.1457
1197.10 0.1457
1197.20 0.1456
1197.30 0.1456
1197.40 0.1456
1197.50 0.1455
1197.60 0.1455
1197.70 0.1455
1197.80 0.1454
1197.90 0.1454
1198.00 0.1454
1198.10 0.1453
1198.20 0.1453
1198.30 0.1453
1198.40 0.1452
1198.50 0.1452
1198.60 0.1452
1198.70 0.1451
1198.80 0.1451
1198.90 0.1451
1199.00 0.145
1199.10 0.145
1199.20 0.145
1199.30 0.1449
1199.40 0.1449
1199.50 0.1449
1199.60 0.1448
1199.70 0.1448
1199.80 0.1448
1199.90 0.1447
1200.00 0
