# Version 2.1 - nm, norm@500 to 1, cut digits, bergeron_11000_70.dat_11000
# Wavelength(nm)  Flambda(ergs/cm^s/s/nm)
300.00 1.439
300.10 1.439
300.20 1.438
300.30 1.437
300.40 1.436
300.50 1.436
300.60 1.435
300.70 1.434
300.80 1.433
300.90 1.432
301.00 1.432
301.10 1.431
301.20 1.43
301.30 1.429
301.40 1.428
301.50 1.428
301.60 1.427
301.70 1.426
301.80 1.425
301.90 1.425
302.00 1.424
302.10 1.423
302.20 1.422
302.30 1.421
302.40 1.421
302.50 1.42
302.60 1.419
302.70 1.418
302.80 1.418
302.90 1.417
303.00 1.416
303.10 1.415
303.20 1.414
303.30 1.414
303.40 1.413
303.50 1.412
303.60 1.411
303.70 1.411
303.80 1.41
303.90 1.409
304.00 1.408
304.10 1.407
304.20 1.407
304.30 1.406
304.40 1.405
304.50 1.404
304.60 1.404
304.70 1.403
304.80 1.402
304.90 1.401
305.00 1.401
305.10 1.4
305.20 1.399
305.30 1.398
305.40 1.397
305.50 1.397
305.60 1.396
305.70 1.395
305.80 1.394
305.90 1.394
306.00 1.393
306.10 1.392
306.20 1.391
306.30 1.391
306.40 1.39
306.50 1.389
306.60 1.388
306.70 1.388
306.80 1.387
306.90 1.386
307.00 1.385
307.10 1.385
307.20 1.384
307.30 1.383
307.40 1.382
307.50 1.382
307.60 1.381
307.70 1.38
307.80 1.379
307.90 1.379
308.00 1.378
308.10 1.377
308.20 1.376
308.30 1.376
308.40 1.375
308.50 1.374
308.60 1.373
308.70 1.373
308.80 1.372
308.90 1.371
309.00 1.37
309.10 1.37
309.20 1.369
309.30 1.368
309.40 1.367
309.50 1.367
309.60 1.366
309.70 1.365
309.80 1.364
309.90 1.364
310.00 1.363
310.10 1.362
310.20 1.361
310.30 1.361
310.40 1.36
310.50 1.359
310.60 1.358
310.70 1.358
310.80 1.357
310.90 1.356
311.00 1.355
311.10 1.355
311.20 1.354
311.30 1.353
311.40 1.353
311.50 1.352
311.60 1.351
311.70 1.35
311.80 1.35
311.90 1.349
312.00 1.348
312.10 1.347
312.20 1.347
312.30 1.346
312.40 1.345
312.50 1.344
312.60 1.344
312.70 1.343
312.80 1.342
312.90 1.342
313.00 1.341
313.10 1.34
313.20 1.339
313.30 1.339
313.40 1.338
313.50 1.337
313.60 1.337
313.70 1.336
313.80 1.335
313.90 1.334
314.00 1.334
314.10 1.333
314.20 1.332
314.30 1.331
314.40 1.331
314.50 1.33
314.60 1.329
314.70 1.329
314.80 1.328
314.90 1.327
315.00 1.326
315.10 1.326
315.20 1.325
315.30 1.324
315.40 1.324
315.50 1.323
315.60 1.322
315.70 1.321
315.80 1.321
315.90 1.32
316.00 1.319
316.10 1.319
316.20 1.318
316.30 1.317
316.40 1.316
316.50 1.316
316.60 1.315
316.70 1.314
316.80 1.314
316.90 1.313
317.00 1.312
317.10 1.312
317.20 1.311
317.30 1.31
317.40 1.309
317.50 1.309
317.60 1.308
317.70 1.307
317.80 1.307
317.90 1.306
318.00 1.305
318.10 1.305
318.20 1.304
318.30 1.303
318.40 1.302
318.50 1.302
318.60 1.301
318.70 1.3
318.80 1.3
318.90 1.299
319.00 1.298
319.10 1.298
319.20 1.297
319.30 1.296
319.40 1.295
319.50 1.295
319.60 1.294
319.70 1.293
319.80 1.293
319.90 1.292
320.00 1.291
320.10 1.291
320.20 1.29
320.30 1.289
320.40 1.288
320.50 1.288
320.60 1.287
320.70 1.286
320.80 1.286
320.90 1.285
321.00 1.284
321.10 1.284
321.20 1.283
321.30 1.282
321.40 1.282
321.50 1.281
321.60 1.28
321.70 1.28
321.80 1.279
321.90 1.278
322.00 1.277
322.10 1.277
322.20 1.276
322.30 1.275
322.40 1.275
322.50 1.274
322.60 1.273
322.70 1.273
322.80 1.272
322.90 1.271
323.00 1.271
323.10 1.27
323.20 1.269
323.30 1.269
323.40 1.268
323.50 1.267
323.60 1.267
323.70 1.266
323.80 1.265
323.90 1.265
324.00 1.264
324.10 1.263
324.20 1.263
324.30 1.262
324.40 1.261
324.50 1.261
324.60 1.26
324.70 1.259
324.80 1.259
324.90 1.258
325.00 1.257
325.10 1.257
325.20 1.256
325.30 1.255
325.40 1.255
325.50 1.254
325.60 1.253
325.70 1.253
325.80 1.252
325.90 1.251
326.00 1.251
326.10 1.25
326.20 1.249
326.30 1.249
326.40 1.248
326.50 1.247
326.60 1.247
326.70 1.246
326.80 1.245
326.90 1.245
327.00 1.244
327.10 1.243
327.20 1.243
327.30 1.242
327.40 1.241
327.50 1.241
327.60 1.24
327.70 1.239
327.80 1.239
327.90 1.238
328.00 1.237
328.10 1.237
328.20 1.236
328.30 1.235
328.40 1.235
328.50 1.234
328.60 1.233
328.70 1.233
328.80 1.232
328.90 1.231
329.00 1.231
329.10 1.23
329.20 1.229
329.30 1.229
329.40 1.228
329.50 1.228
329.60 1.227
329.70 1.226
329.80 1.226
329.90 1.225
330.00 1.224
330.10 1.224
330.20 1.223
330.30 1.222
330.40 1.222
330.50 1.221
330.60 1.22
330.70 1.22
330.80 1.219
330.90 1.218
331.00 1.218
331.10 1.217
331.20 1.217
331.30 1.216
331.40 1.215
331.50 1.215
331.60 1.214
331.70 1.213
331.80 1.213
331.90 1.212
332.00 1.211
332.10 1.211
332.20 1.21
332.30 1.21
332.40 1.209
332.50 1.208
332.60 1.208
332.70 1.207
332.80 1.206
332.90 1.206
333.00 1.205
333.10 1.204
333.20 1.204
333.30 1.203
333.40 1.203
333.50 1.202
333.60 1.201
333.70 1.201
333.80 1.2
333.90 1.199
334.00 1.199
334.10 1.198
334.20 1.197
334.30 1.197
334.40 1.196
334.50 1.196
334.60 1.195
334.70 1.194
334.80 1.194
334.90 1.193
335.00 1.192
335.10 1.192
335.20 1.191
335.30 1.191
335.40 1.19
335.50 1.189
335.60 1.189
335.70 1.188
335.80 1.187
335.90 1.187
336.00 1.186
336.10 1.186
336.20 1.185
336.30 1.184
336.40 1.184
336.50 1.183
336.60 1.183
336.70 1.182
336.80 1.181
336.90 1.181
337.00 1.18
337.10 1.179
337.20 1.179
337.30 1.178
337.40 1.178
337.50 1.177
337.60 1.176
337.70 1.176
337.80 1.175
337.90 1.175
338.00 1.174
338.10 1.173
338.20 1.173
338.30 1.172
338.40 1.171
338.50 1.171
338.60 1.17
338.70 1.17
338.80 1.169
338.90 1.168
339.00 1.168
339.10 1.167
339.20 1.167
339.30 1.166
339.40 1.165
339.50 1.165
339.60 1.164
339.70 1.164
339.80 1.163
339.90 1.162
340.00 1.162
340.10 1.161
340.20 1.161
340.30 1.16
340.40 1.159
340.50 1.159
340.60 1.158
340.70 1.157
340.80 1.157
340.90 1.156
341.00 1.156
341.10 1.155
341.20 1.154
341.30 1.154
341.40 1.153
341.50 1.153
341.60 1.152
341.70 1.151
341.80 1.151
341.90 1.15
342.00 1.15
342.10 1.149
342.20 1.148
342.30 1.148
342.40 1.147
342.50 1.147
342.60 1.146
342.70 1.146
342.80 1.145
342.90 1.144
343.00 1.144
343.10 1.143
343.20 1.143
343.30 1.142
343.40 1.141
343.50 1.141
343.60 1.14
343.70 1.14
343.80 1.139
343.90 1.138
344.00 1.138
344.10 1.137
344.20 1.137
344.30 1.136
344.40 1.135
344.50 1.135
344.60 1.134
344.70 1.134
344.80 1.133
344.90 1.133
345.00 1.132
345.10 1.131
345.20 1.131
345.30 1.13
345.40 1.13
345.50 1.129
345.60 1.128
345.70 1.128
345.80 1.127
345.90 1.127
346.00 1.126
346.10 1.126
346.20 1.125
346.30 1.124
346.40 1.124
346.50 1.123
346.60 1.123
346.70 1.122
346.80 1.121
346.90 1.121
347.00 1.12
347.10 1.12
347.20 1.119
347.30 1.119
347.40 1.118
347.50 1.117
347.60 1.117
347.70 1.116
347.80 1.116
347.90 1.115
348.00 1.115
348.10 1.114
348.20 1.113
348.30 1.113
348.40 1.112
348.50 1.112
348.60 1.111
348.70 1.111
348.80 1.11
348.90 1.109
349.00 1.109
349.10 1.108
349.20 1.108
349.30 1.107
349.40 1.107
349.50 1.106
349.60 1.105
349.70 1.105
349.80 1.104
349.90 1.104
350.00 1.103
350.10 1.103
350.20 1.102
350.30 1.101
350.40 1.101
350.50 1.1
350.60 1.1
350.70 1.099
350.80 1.099
350.90 1.098
351.00 1.097
351.10 1.097
351.20 1.096
351.30 1.096
351.40 1.095
351.50 1.095
351.60 1.094
351.70 1.094
351.80 1.093
351.90 1.092
352.00 1.092
352.10 1.091
352.20 1.091
352.30 1.09
352.40 1.09
352.50 1.089
352.60 1.089
352.70 1.088
352.80 1.087
352.90 1.087
353.00 1.086
353.10 1.086
353.20 1.085
353.30 1.085
353.40 1.084
353.50 1.084
353.60 1.083
353.70 1.082
353.80 1.082
353.90 1.081
354.00 1.081
354.10 1.08
354.20 1.08
354.30 1.079
354.40 1.079
354.50 1.078
354.60 1.077
354.70 1.077
354.80 1.076
354.90 1.076
355.00 1.075
355.10 1.075
355.20 1.074
355.30 1.074
355.40 1.073
355.50 1.073
355.60 1.072
355.70 1.071
355.80 1.071
355.90 1.07
356.00 1.07
356.10 1.069
356.20 1.069
356.30 1.068
356.40 1.068
356.50 1.067
356.60 1.067
356.70 1.066
356.80 1.065
356.90 1.065
357.00 1.064
357.10 1.064
357.20 1.063
357.30 1.063
357.40 1.062
357.50 1.062
357.60 1.061
357.70 1.061
357.80 1.06
357.90 1.06
358.00 1.059
358.10 1.058
358.20 1.058
358.30 1.057
358.40 1.057
358.50 1.056
358.60 1.056
358.70 1.055
358.80 1.055
358.90 1.054
359.00 1.054
359.10 1.053
359.20 1.053
359.30 1.052
359.40 1.052
359.50 1.051
359.60 1.05
359.70 1.05
359.80 1.049
359.90 1.049
360.00 1.048
360.10 1.048
360.20 1.047
360.30 1.047
360.40 1.046
360.50 1.046
360.60 1.045
360.70 1.045
360.80 1.044
360.90 1.044
361.00 1.043
361.10 1.042
361.20 1.042
361.30 1.041
361.40 1.041
361.50 1.04
361.60 1.04
361.70 1.039
361.80 1.039
361.90 1.038
362.00 1.038
362.10 1.037
362.20 1.037
362.30 1.036
362.40 1.036
362.50 1.035
362.60 1.035
362.70 1.034
362.80 1.034
362.90 1.033
363.00 1.033
363.10 1.032
363.20 1.031
363.30 1.031
363.40 1.03
363.50 1.03
363.60 1.029
363.70 1.029
363.80 1.028
363.90 1.028
364.00 1.027
364.10 1.026
364.20 1.026
364.30 1.025
364.40 1.025
364.50 1.024
364.60 1.024
364.70 1.023
364.80 1.023
364.90 1.022
365.00 1.022
365.10 1.021
365.20 1.021
365.30 1.02
365.40 1.02
365.50 1.019
365.60 1.019
365.70 1.018
365.80 1.018
365.90 1.017
366.00 1.017
366.10 1.016
366.20 1.016
366.30 1.015
366.40 1.015
366.50 1.015
366.60 1.014
366.70 1.014
366.80 1.013
366.90 1.013
367.00 1.012
367.10 1.012
367.20 1.011
367.30 1.011
367.40 1.011
367.50 1.01
367.60 1.01
367.70 1.009
367.80 1.009
367.90 1.008
368.00 1.008
368.10 1.008
368.20 1.009
368.30 1.009
368.40 1.01
368.50 1.01
368.60 1.011
368.70 1.012
368.80 1.012
368.90 1.013
369.00 1.013
369.10 1.014
369.20 1.014
369.30 1.015
369.40 1.015
369.50 1.016
369.60 1.016
369.70 1.017
369.80 1.017
369.90 1.018
370.00 1.018
370.10 1.021
370.20 1.023
370.30 1.025
370.40 1.027
370.50 1.03
370.60 1.032
370.70 1.034
370.80 1.037
370.90 1.039
371.00 1.041
371.10 1.044
371.20 1.046
371.30 1.048
371.40 1.051
371.50 1.053
371.60 1.055
371.70 1.057
371.80 1.06
371.90 1.062
372.00 1.064
372.10 1.068
372.20 1.072
372.30 1.076
372.40 1.079
372.50 1.083
372.60 1.087
372.70 1.091
372.80 1.094
372.90 1.098
373.00 1.102
373.10 1.105
373.20 1.109
373.30 1.113
373.40 1.117
373.50 1.12
373.60 1.124
373.70 1.128
373.80 1.131
373.90 1.135
374.00 1.139
374.10 1.142
374.20 1.146
374.30 1.15
374.40 1.154
374.50 1.158
374.60 1.161
374.70 1.165
374.80 1.169
374.90 1.173
375.00 1.176
375.10 1.18
375.20 1.184
375.30 1.188
375.40 1.191
375.50 1.195
375.60 1.199
375.70 1.202
375.80 1.206
375.90 1.21
376.00 1.214
376.10 1.215
376.20 1.217
376.30 1.219
376.40 1.221
376.50 1.223
376.60 1.225
376.70 1.226
376.80 1.228
376.90 1.23
377.00 1.232
377.10 1.229
377.20 1.226
377.30 1.223
377.40 1.22
377.50 1.217
377.60 1.214
377.70 1.211
377.80 1.208
377.90 1.206
378.00 1.203
378.10 1.185
378.20 1.166
378.30 1.148
378.40 1.13
378.50 1.112
378.60 1.094
378.70 1.076
378.80 1.058
378.90 1.04
379.00 1.022
379.10 1.005
379.20 0.9882
379.30 0.9712
379.40 0.9542
379.50 0.9372
379.60 0.9202
379.70 0.9032
379.80 0.8863
379.90 0.8693
380.00 0.8524
380.10 0.8787
380.20 0.905
380.30 0.9313
380.40 0.9575
380.50 0.9837
380.60 1.01
380.70 1.036
380.80 1.062
380.90 1.088
381.00 1.114
381.10 1.124
381.20 1.133
381.30 1.143
381.40 1.152
381.50 1.162
381.60 1.163
381.70 1.161
381.80 1.156
381.90 1.149
382.00 1.138
382.10 1.125
382.20 1.108
382.30 1.075
382.40 1.043
382.50 1.01
382.60 0.9776
382.70 0.9451
382.80 0.9127
382.90 0.8803
383.00 0.8479
383.10 0.8156
383.20 0.7833
383.30 0.7462
383.40 0.7063
383.50 0.6635
383.60 0.6732
383.70 0.7148
383.80 0.7547
383.90 0.7914
384.00 0.8284
384.10 0.8674
384.20 0.9067
384.30 0.9453
384.40 0.9836
384.50 1.021
384.60 1.055
384.70 1.086
384.80 1.114
384.90 1.139
385.00 1.161
385.10 1.179
385.20 1.196
385.30 1.21
385.40 1.222
385.50 1.232
385.60 1.241
385.70 1.247
385.80 1.252
385.90 1.256
386.00 1.258
386.10 1.258
386.20 1.258
386.30 1.255
386.40 1.251
386.50 1.246
386.60 1.238
386.70 1.23
386.80 1.22
386.90 1.208
387.00 1.195
387.10 1.18
387.20 1.162
387.30 1.143
387.40 1.123
387.50 1.098
387.60 1.072
387.70 1.044
387.80 1.011
387.90 0.9753
388.00 0.9376
388.10 0.8967
388.20 0.8551
388.30 0.8128
388.40 0.7707
388.50 0.7296
388.60 0.6896
388.70 0.6477
388.80 0.6025
388.90 0.5542
389.00 0.5994
389.10 0.643
389.20 0.6849
389.30 0.7246
389.40 0.7653
389.50 0.807
389.60 0.8494
389.70 0.8913
389.80 0.9327
389.90 0.9715
390.00 1.008
390.10 1.043
390.20 1.073
390.30 1.102
390.40 1.129
390.50 1.152
390.60 1.175
390.70 1.196
390.80 1.215
390.90 1.233
391.00 1.25
391.10 1.266
391.20 1.28
391.30 1.294
391.40 1.307
391.50 1.319
391.60 1.33
391.70 1.339
391.80 1.348
391.90 1.357
392.00 1.364
392.10 1.37
392.20 1.376
392.30 1.381
392.40 1.385
392.50 1.388
392.60 1.39
392.70 1.391
392.80 1.392
392.90 1.392
393.00 1.391
393.10 1.389
393.20 1.386
393.30 1.382
393.40 1.378
393.50 1.372
393.60 1.365
393.70 1.358
393.80 1.35
393.90 1.341
394.00 1.331
394.10 1.32
394.20 1.308
394.30 1.296
394.40 1.282
394.50 1.267
394.60 1.252
394.70 1.235
394.80 1.217
394.90 1.199
395.00 1.179
395.10 1.159
395.20 1.137
395.30 1.114
395.40 1.09
395.50 1.065
395.60 1.038
395.70 1.009
395.80 0.9794
395.90 0.9469
396.00 0.9129
396.10 0.8775
396.20 0.8397
396.30 0.8009
396.40 0.7612
396.50 0.7211
396.60 0.6817
396.70 0.643
396.80 0.6011
396.90 0.5474
397.00 0.4818
397.10 0.5428
397.20 0.5944
397.30 0.6368
397.40 0.6751
397.50 0.7139
397.60 0.7534
397.70 0.7927
397.80 0.8311
397.90 0.8685
398.00 0.9035
398.10 0.9371
398.20 0.9694
398.30 0.999
398.40 1.027
398.50 1.054
398.60 1.08
398.70 1.104
398.80 1.127
398.90 1.148
399.00 1.169
399.10 1.189
399.20 1.208
399.30 1.227
399.40 1.244
399.50 1.261
399.60 1.277
399.70 1.293
399.80 1.308
399.90 1.322
400.00 1.336
400.10 1.348
400.20 1.361
400.30 1.373
400.40 1.384
400.50 1.394
400.60 1.405
400.70 1.414
400.80 1.423
400.90 1.432
401.00 1.44
401.10 1.447
401.20 1.455
401.30 1.461
401.40 1.468
401.50 1.474
401.60 1.479
401.70 1.485
401.80 1.49
401.90 1.494
402.00 1.498
402.10 1.502
402.20 1.505
402.30 1.508
402.40 1.511
402.50 1.514
402.60 1.516
402.70 1.518
402.80 1.519
402.90 1.52
403.00 1.521
403.10 1.522
403.20 1.522
403.30 1.522
403.40 1.522
403.50 1.521
403.60 1.521
403.70 1.519
403.80 1.518
403.90 1.516
404.00 1.514
404.10 1.512
404.20 1.51
404.30 1.507
404.40 1.504
404.50 1.5
404.60 1.496
404.70 1.492
404.80 1.488
404.90 1.483
405.00 1.478
405.10 1.473
405.20 1.467
405.30 1.461
405.40 1.455
405.50 1.448
405.60 1.441
405.70 1.433
405.80 1.425
405.90 1.417
406.00 1.408
406.10 1.399
406.20 1.389
406.30 1.379
406.40 1.369
406.50 1.358
406.60 1.346
406.70 1.334
406.80 1.322
406.90 1.309
407.00 1.295
407.10 1.281
407.20 1.266
407.30 1.251
407.40 1.235
407.50 1.218
407.60 1.2
407.70 1.182
407.80 1.164
407.90 1.144
408.00 1.124
408.10 1.104
408.20 1.082
408.30 1.06
408.40 1.037
408.50 1.014
408.60 0.99
408.70 0.9655
408.80 0.9399
408.90 0.9136
409.00 0.8866
409.10 0.8582
409.20 0.8288
409.30 0.7987
409.40 0.7665
409.50 0.7334
409.60 0.6994
409.70 0.6644
409.80 0.6294
409.90 0.5943
410.00 0.5513
410.10 0.5014
410.20 0.4445
410.30 0.5185
410.40 0.5745
410.50 0.6126
410.60 0.647
410.70 0.6814
410.80 0.7157
410.90 0.7485
411.00 0.7802
411.10 0.8109
411.20 0.8396
411.30 0.8675
411.40 0.8945
411.50 0.92
411.60 0.9449
411.70 0.9691
411.80 0.9922
411.90 1.015
412.00 1.037
412.10 1.058
412.20 1.078
412.30 1.098
412.40 1.117
412.50 1.136
412.60 1.154
412.70 1.171
412.80 1.188
412.90 1.204
413.00 1.219
413.10 1.234
413.20 1.248
413.30 1.261
413.40 1.274
413.50 1.286
413.60 1.298
413.70 1.309
413.80 1.32
413.90 1.331
414.00 1.341
414.10 1.35
414.20 1.359
414.30 1.368
414.40 1.377
414.50 1.385
414.60 1.393
414.70 1.4
414.80 1.407
414.90 1.414
415.00 1.421
415.10 1.427
415.20 1.433
415.30 1.439
415.40 1.444
415.50 1.45
415.60 1.455
415.70 1.459
415.80 1.464
415.90 1.469
416.00 1.473
416.10 1.477
416.20 1.481
416.30 1.484
416.40 1.488
416.50 1.491
416.60 1.495
416.70 1.498
416.80 1.501
416.90 1.503
417.00 1.506
417.10 1.509
417.20 1.511
417.30 1.513
417.40 1.516
417.50 1.518
417.60 1.52
417.70 1.521
417.80 1.523
417.90 1.525
418.00 1.526
418.10 1.528
418.20 1.529
418.30 1.53
418.40 1.531
418.50 1.533
418.60 1.534
418.70 1.535
418.80 1.535
418.90 1.536
419.00 1.537
419.10 1.537
419.20 1.538
419.30 1.539
419.40 1.539
419.50 1.539
419.60 1.54
419.70 1.54
419.80 1.54
419.90 1.54
420.00 1.54
420.10 1.54
420.20 1.54
420.30 1.54
420.40 1.54
420.50 1.54
420.60 1.54
420.70 1.539
420.80 1.539
420.90 1.539
421.00 1.538
421.10 1.538
421.20 1.537
421.30 1.537
421.40 1.536
421.50 1.535
421.60 1.535
421.70 1.534
421.80 1.533
421.90 1.532
422.00 1.531
422.10 1.531
422.20 1.53
422.30 1.529
422.40 1.528
422.50 1.526
422.60 1.525
422.70 1.524
422.80 1.523
422.90 1.522
423.00 1.52
423.10 1.519
423.20 1.517
423.30 1.516
423.40 1.515
423.50 1.513
423.60 1.511
423.70 1.51
423.80 1.508
423.90 1.506
424.00 1.504
424.10 1.503
424.20 1.501
424.30 1.499
424.40 1.497
424.50 1.495
424.60 1.493
424.70 1.491
424.80 1.488
424.90 1.486
425.00 1.484
425.10 1.481
425.20 1.479
425.30 1.476
425.40 1.474
425.50 1.471
425.60 1.468
425.70 1.466
425.80 1.463
425.90 1.46
426.00 1.457
426.10 1.454
426.20 1.45
426.30 1.446
426.40 1.443
426.50 1.439
426.60 1.436
426.70 1.432
426.80 1.428
426.90 1.425
427.00 1.421
427.10 1.417
427.20 1.412
427.30 1.408
427.40 1.404
427.50 1.399
427.60 1.395
427.70 1.39
427.80 1.385
427.90 1.38
428.00 1.375
428.10 1.369
428.20 1.364
428.30 1.358
428.40 1.353
428.50 1.347
428.60 1.34
428.70 1.334
428.80 1.328
428.90 1.321
429.00 1.314
429.10 1.307
429.20 1.3
429.30 1.292
429.40 1.284
429.50 1.276
429.60 1.268
429.70 1.26
429.80 1.251
429.90 1.242
430.00 1.232
430.10 1.223
430.20 1.213
430.30 1.203
430.40 1.192
430.50 1.181
430.60 1.17
430.70 1.159
430.80 1.147
430.90 1.135
431.00 1.123
431.10 1.11
431.20 1.097
431.30 1.084
431.40 1.07
431.50 1.056
431.60 1.042
431.70 1.026
431.80 1.011
431.90 0.9939
432.00 0.9765
432.10 0.9586
432.20 0.9392
432.30 0.9189
432.40 0.8979
432.50 0.875
432.60 0.8513
432.70 0.8268
432.80 0.8019
432.90 0.7775
433.00 0.7534
433.10 0.7305
433.20 0.7073
433.30 0.6838
433.40 0.6578
433.50 0.6307
433.60 0.6023
433.70 0.5728
433.80 0.5402
433.90 0.5044
434.00 0.4127
434.10 0.4138
434.20 0.5076
434.30 0.5423
434.40 0.5742
434.50 0.6032
434.60 0.6309
434.70 0.6574
434.80 0.6827
434.90 0.7055
435.00 0.728
435.10 0.7502
435.20 0.7735
435.30 0.7971
435.40 0.8211
435.50 0.8445
435.60 0.8671
435.70 0.8888
435.80 0.9086
435.90 0.9276
436.00 0.9458
436.10 0.9624
436.20 0.9785
436.30 0.9939
436.40 1.008
436.50 1.022
436.60 1.035
436.70 1.048
436.80 1.06
436.90 1.072
437.00 1.083
437.10 1.095
437.20 1.105
437.30 1.116
437.40 1.126
437.50 1.136
437.60 1.145
437.70 1.155
437.80 1.164
437.90 1.172
438.00 1.18
438.10 1.188
438.20 1.196
438.30 1.203
438.40 1.21
438.50 1.217
438.60 1.224
438.70 1.23
438.80 1.236
438.90 1.242
439.00 1.247
439.10 1.253
439.20 1.258
439.30 1.263
439.40 1.268
439.50 1.272
439.60 1.277
439.70 1.281
439.80 1.285
439.90 1.289
440.00 1.293
440.10 1.296
440.20 1.3
440.30 1.303
440.40 1.306
440.50 1.309
440.60 1.312
440.70 1.315
440.80 1.318
440.90 1.32
441.00 1.323
441.10 1.325
441.20 1.327
441.30 1.329
441.40 1.331
441.50 1.333
441.60 1.335
441.70 1.337
441.80 1.339
441.90 1.341
442.00 1.342
442.10 1.344
442.20 1.345
442.30 1.346
442.40 1.348
442.50 1.349
442.60 1.35
442.70 1.351
442.80 1.352
442.90 1.353
443.00 1.354
443.10 1.355
443.20 1.356
443.30 1.357
443.40 1.357
443.50 1.358
443.60 1.359
443.70 1.359
443.80 1.36
443.90 1.361
444.00 1.361
444.10 1.361
444.20 1.362
444.30 1.362
444.40 1.363
444.50 1.363
444.60 1.363
444.70 1.363
444.80 1.364
444.90 1.364
445.00 1.364
445.10 1.364
445.20 1.364
445.30 1.364
445.40 1.364
445.50 1.365
445.60 1.365
445.70 1.365
445.80 1.365
445.90 1.364
446.00 1.364
446.10 1.364
446.20 1.364
446.30 1.364
446.40 1.364
446.50 1.364
446.60 1.364
446.70 1.363
446.80 1.363
446.90 1.363
447.00 1.363
447.10 1.362
447.20 1.362
447.30 1.362
447.40 1.362
447.50 1.361
447.60 1.361
447.70 1.361
447.80 1.36
447.90 1.36
448.00 1.36
448.10 1.359
448.20 1.359
448.30 1.358
448.40 1.358
448.50 1.358
448.60 1.357
448.70 1.357
448.80 1.356
448.90 1.356
449.00 1.355
449.10 1.355
449.20 1.355
449.30 1.354
449.40 1.354
449.50 1.353
449.60 1.353
449.70 1.352
449.80 1.351
449.90 1.351
450.00 1.35
450.10 1.35
450.20 1.349
450.30 1.349
450.40 1.348
450.50 1.348
450.60 1.347
450.70 1.346
450.80 1.346
450.90 1.345
451.00 1.345
451.10 1.344
451.20 1.343
451.30 1.343
451.40 1.342
451.50 1.342
451.60 1.341
451.70 1.34
451.80 1.34
451.90 1.339
452.00 1.338
452.10 1.338
452.20 1.337
452.30 1.336
452.40 1.336
452.50 1.335
452.60 1.334
452.70 1.334
452.80 1.333
452.90 1.332
453.00 1.332
453.10 1.331
453.20 1.33
453.30 1.33
453.40 1.329
453.50 1.328
453.60 1.328
453.70 1.327
453.80 1.326
453.90 1.325
454.00 1.325
454.10 1.324
454.20 1.323
454.30 1.323
454.40 1.322
454.50 1.321
454.60 1.32
454.70 1.32
454.80 1.319
454.90 1.318
455.00 1.318
455.10 1.317
455.20 1.316
455.30 1.315
455.40 1.315
455.50 1.314
455.60 1.313
455.70 1.312
455.80 1.312
455.90 1.311
456.00 1.31
456.10 1.309
456.20 1.309
456.30 1.308
456.40 1.307
456.50 1.307
456.60 1.306
456.70 1.305
456.80 1.304
456.90 1.304
457.00 1.303
457.10 1.302
457.20 1.301
457.30 1.301
457.40 1.3
457.50 1.299
457.60 1.298
457.70 1.298
457.80 1.297
457.90 1.296
458.00 1.295
458.10 1.295
458.20 1.294
458.30 1.293
458.40 1.292
458.50 1.292
458.60 1.291
458.70 1.29
458.80 1.289
458.90 1.288
459.00 1.288
459.10 1.287
459.20 1.286
459.30 1.285
459.40 1.285
459.50 1.284
459.60 1.283
459.70 1.282
459.80 1.281
459.90 1.281
460.00 1.28
460.10 1.279
460.20 1.278
460.30 1.277
460.40 1.277
460.50 1.276
460.60 1.275
460.70 1.274
460.80 1.273
460.90 1.273
461.00 1.272
461.10 1.271
461.20 1.27
461.30 1.269
461.40 1.269
461.50 1.268
461.60 1.267
461.70 1.266
461.80 1.265
461.90 1.265
462.00 1.264
462.10 1.263
462.20 1.262
462.30 1.261
462.40 1.26
462.50 1.26
462.60 1.259
462.70 1.258
462.80 1.257
462.90 1.256
463.00 1.255
463.10 1.255
463.20 1.254
463.30 1.253
463.40 1.252
463.50 1.251
463.60 1.25
463.70 1.25
463.80 1.249
463.90 1.248
464.00 1.247
464.10 1.246
464.20 1.245
464.30 1.245
464.40 1.244
464.50 1.243
464.60 1.242
464.70 1.241
464.80 1.24
464.90 1.239
465.00 1.239
465.10 1.238
465.20 1.237
465.30 1.236
465.40 1.235
465.50 1.234
465.60 1.233
465.70 1.233
465.80 1.232
465.90 1.231
466.00 1.23
466.10 1.229
466.20 1.228
466.30 1.227
466.40 1.226
466.50 1.225
466.60 1.225
466.70 1.224
466.80 1.223
466.90 1.222
467.00 1.221
467.10 1.22
467.20 1.219
467.30 1.218
467.40 1.217
467.50 1.216
467.60 1.215
467.70 1.215
467.80 1.214
467.90 1.213
468.00 1.212
468.10 1.211
468.20 1.21
468.30 1.209
468.40 1.208
468.50 1.207
468.60 1.206
468.70 1.205
468.80 1.204
468.90 1.203
469.00 1.202
469.10 1.201
469.20 1.2
469.30 1.199
469.40 1.198
469.50 1.197
469.60 1.196
469.70 1.195
469.80 1.194
469.90 1.193
470.00 1.192
470.10 1.191
470.20 1.19
470.30 1.189
470.40 1.188
470.50 1.187
470.60 1.186
470.70 1.185
470.80 1.184
470.90 1.183
471.00 1.182
471.10 1.181
471.20 1.18
471.30 1.179
471.40 1.177
471.50 1.176
471.60 1.175
471.70 1.174
471.80 1.173
471.90 1.172
472.00 1.171
472.10 1.169
472.20 1.168
472.30 1.167
472.40 1.166
472.50 1.165
472.60 1.163
472.70 1.162
472.80 1.161
472.90 1.16
473.00 1.158
473.10 1.157
473.20 1.156
473.30 1.155
473.40 1.153
473.50 1.152
473.60 1.15
473.70 1.149
473.80 1.148
473.90 1.146
474.00 1.145
474.10 1.144
474.20 1.142
474.30 1.141
474.40 1.139
474.50 1.138
474.60 1.136
474.70 1.135
474.80 1.133
474.90 1.132
475.00 1.13
475.10 1.129
475.20 1.127
475.30 1.125
475.40 1.124
475.50 1.122
475.60 1.12
475.70 1.118
475.80 1.117
475.90 1.115
476.00 1.113
476.10 1.112
476.20 1.11
476.30 1.108
476.40 1.106
476.50 1.104
476.60 1.102
476.70 1.1
476.80 1.098
476.90 1.096
477.00 1.094
477.10 1.092
477.20 1.089
477.30 1.087
477.40 1.085
477.50 1.082
477.60 1.08
477.70 1.078
477.80 1.075
477.90 1.073
478.00 1.071
478.10 1.068
478.20 1.065
478.30 1.063
478.40 1.06
478.50 1.057
478.60 1.054
478.70 1.051
478.80 1.048
478.90 1.045
479.00 1.042
479.10 1.039
479.20 1.036
479.30 1.032
479.40 1.029
479.50 1.025
479.60 1.022
479.70 1.018
479.80 1.015
479.90 1.011
480.00 1.007
480.10 1.004
480.20 0.9995
480.30 0.9949
480.40 0.9904
480.50 0.9858
480.60 0.9812
480.70 0.9767
480.80 0.9721
480.90 0.9675
481.00 0.963
481.10 0.9584
481.20 0.9529
481.30 0.9469
481.40 0.9409
481.50 0.9349
481.60 0.929
481.70 0.923
481.80 0.917
481.90 0.9111
482.00 0.9051
482.10 0.8991
482.20 0.8918
482.30 0.8839
482.40 0.876
482.50 0.8681
482.60 0.8602
482.70 0.8523
482.80 0.8444
482.90 0.8365
483.00 0.8286
483.10 0.8207
483.20 0.811
483.30 0.8005
483.40 0.7899
483.50 0.7794
483.60 0.7689
483.70 0.7584
483.80 0.7479
483.90 0.7374
484.00 0.7269
484.10 0.7165
484.20 0.7047
484.30 0.6923
484.40 0.6799
484.50 0.6675
484.60 0.6551
484.70 0.642
484.80 0.6285
484.90 0.615
485.00 0.6015
485.10 0.588
485.20 0.5739
485.30 0.5595
485.40 0.5442
485.50 0.5285
485.60 0.5116
485.70 0.4941
485.80 0.4739
485.90 0.4525
486.00 0.4241
486.10 0.3282
486.20 0.3813
486.30 0.4354
486.40 0.4589
486.50 0.4802
486.60 0.4986
486.70 0.5157
486.80 0.5316
486.90 0.5468
487.00 0.5611
487.10 0.575
487.20 0.5882
487.30 0.6011
487.40 0.614
487.50 0.6269
487.60 0.6397
487.70 0.6518
487.80 0.6634
487.90 0.675
488.00 0.6866
488.10 0.6982
488.20 0.7085
488.30 0.718
488.40 0.7276
488.50 0.7372
488.60 0.7467
488.70 0.7563
488.80 0.7658
488.90 0.7753
489.00 0.7849
489.10 0.7944
489.20 0.802
489.30 0.8088
489.40 0.8156
489.50 0.8224
489.60 0.8291
489.70 0.8359
489.80 0.8427
489.90 0.8494
490.00 0.8562
490.10 0.8629
490.20 0.8683
490.30 0.873
490.40 0.8777
490.50 0.8824
490.60 0.8872
490.70 0.8919
490.80 0.8966
490.90 0.9013
491.00 0.906
491.10 0.9107
491.20 0.9144
491.30 0.9177
491.40 0.9209
491.50 0.9241
491.60 0.9274
491.70 0.9306
491.80 0.9339
491.90 0.9371
492.00 0.9403
492.10 0.9435
492.20 0.9461
492.30 0.9483
492.40 0.9505
492.50 0.9527
492.60 0.955
492.70 0.9572
492.80 0.9594
492.90 0.9616
493.00 0.9638
493.10 0.966
493.20 0.9678
493.30 0.9693
493.40 0.9708
493.50 0.9723
493.60 0.9738
493.70 0.9753
493.80 0.9768
493.90 0.9783
494.00 0.9798
494.10 0.9813
494.20 0.9825
494.30 0.9834
494.40 0.9844
494.50 0.9854
494.60 0.9863
494.70 0.9873
494.80 0.9883
494.90 0.9892
495.00 0.9902
495.10 0.9912
495.20 0.9919
495.30 0.9925
495.40 0.993
495.50 0.9936
495.60 0.9942
495.70 0.9948
495.80 0.9954
495.90 0.996
496.00 0.9966
496.10 0.9971
496.20 0.9975
496.30 0.9979
496.40 0.9982
496.50 0.9985
496.60 0.9988
496.70 0.9991
496.80 0.9994
496.90 0.9998
497.00 1
497.10 1
497.20 1.001
497.30 1.001
497.40 1.001
497.50 1.001
497.60 1.001
497.70 1.001
497.80 1.001
497.90 1.001
498.00 1.001
498.10 1.002
498.20 1.002
498.30 1.002
498.40 1.002
498.50 1.002
498.60 1.001
498.70 1.001
498.80 1.001
498.90 1.001
499.00 1.001
499.10 1.001
499.20 1.001
499.30 1.001
499.40 1.001
499.50 1.001
499.60 1.001
499.70 1
499.80 1
499.90 1
500.00 1
500.10 0.9999
500.20 0.9996
500.30 0.9994
500.40 0.9992
500.50 0.9989
500.60 0.9987
500.70 0.9985
500.80 0.9982
500.90 0.998
501.00 0.9978
501.10 0.9976
501.20 0.9973
501.30 0.997
501.40 0.9967
501.50 0.9964
501.60 0.9961
501.70 0.9958
501.80 0.9955
501.90 0.9952
502.00 0.9949
502.10 0.9946
502.20 0.9943
502.30 0.9939
502.40 0.9936
502.50 0.9932
502.60 0.9929
502.70 0.9926
502.80 0.9922
502.90 0.9919
503.00 0.9915
503.10 0.9912
503.20 0.9908
503.30 0.9904
503.40 0.99
503.50 0.9897
503.60 0.9893
503.70 0.9889
503.80 0.9885
503.90 0.9881
504.00 0.9878
504.10 0.9874
504.20 0.987
504.30 0.9866
504.40 0.9862
504.50 0.9857
504.60 0.9853
504.70 0.9849
504.80 0.9845
504.90 0.9841
505.00 0.9837
505.10 0.9833
505.20 0.9829
505.30 0.9824
505.40 0.982
505.50 0.9816
505.60 0.9811
505.70 0.9807
505.80 0.9803
505.90 0.9798
506.00 0.9794
506.10 0.979
506.20 0.9785
506.30 0.9781
506.40 0.9776
506.50 0.9772
506.60 0.9767
506.70 0.9763
506.80 0.9758
506.90 0.9754
507.00 0.9749
507.10 0.9745
507.20 0.974
507.30 0.9735
507.40 0.9731
507.50 0.9726
507.60 0.9721
507.70 0.9717
507.80 0.9712
507.90 0.9707
508.00 0.9703
508.10 0.9698
508.20 0.9693
508.30 0.9689
508.40 0.9684
508.50 0.9679
508.60 0.9674
508.70 0.967
508.80 0.9665
508.90 0.966
509.00 0.9656
509.10 0.9651
509.20 0.9646
509.30 0.9641
509.40 0.9636
509.50 0.9632
509.60 0.9627
509.70 0.9622
509.80 0.9617
509.90 0.9612
510.00 0.9607
510.10 0.9603
510.20 0.9598
510.30 0.9593
510.40 0.9588
510.50 0.9583
510.60 0.9578
510.70 0.9573
510.80 0.9568
510.90 0.9564
511.00 0.9559
511.10 0.9554
511.20 0.9549
511.30 0.9544
511.40 0.9539
511.50 0.9534
511.60 0.9529
511.70 0.9524
511.80 0.9519
511.90 0.9514
512.00 0.951
512.10 0.9505
512.20 0.95
512.30 0.9495
512.40 0.949
512.50 0.9485
512.60 0.948
512.70 0.9475
512.80 0.947
512.90 0.9465
513.00 0.946
513.10 0.9455
513.20 0.945
513.30 0.9445
513.40 0.944
513.50 0.9435
513.60 0.943
513.70 0.9425
513.80 0.942
513.90 0.9415
514.00 0.941
514.10 0.9405
514.20 0.94
514.30 0.9395
514.40 0.939
514.50 0.9385
514.60 0.938
514.70 0.9375
514.80 0.9371
514.90 0.9366
515.00 0.9361
515.10 0.9356
515.20 0.9351
515.30 0.9346
515.40 0.9341
515.50 0.9336
515.60 0.9331
515.70 0.9326
515.80 0.9321
515.90 0.9316
516.00 0.9311
516.10 0.9306
516.20 0.9301
516.30 0.9296
516.40 0.9291
516.50 0.9286
516.60 0.9281
516.70 0.9276
516.80 0.9271
516.90 0.9266
517.00 0.9261
517.10 0.9256
517.20 0.9251
517.30 0.9246
517.40 0.9241
517.50 0.9236
517.60 0.9231
517.70 0.9226
517.80 0.9221
517.90 0.9216
518.00 0.9211
518.10 0.9206
518.20 0.9201
518.30 0.9196
518.40 0.9191
518.50 0.9186
518.60 0.9182
518.70 0.9177
518.80 0.9172
518.90 0.9167
519.00 0.9162
519.10 0.9157
519.20 0.9152
519.30 0.9147
519.40 0.9142
519.50 0.9137
519.60 0.9132
519.70 0.9127
519.80 0.9122
519.90 0.9117
520.00 0.9112
520.10 0.9107
520.20 0.9102
520.30 0.9097
520.40 0.9093
520.50 0.9088
520.60 0.9083
520.70 0.9078
520.80 0.9073
520.90 0.9068
521.00 0.9063
521.10 0.9058
521.20 0.9053
521.30 0.9048
521.40 0.9043
521.50 0.9038
521.60 0.9033
521.70 0.9029
521.80 0.9024
521.90 0.9019
522.00 0.9014
522.10 0.9009
522.20 0.9004
522.30 0.8999
522.40 0.8994
522.50 0.8989
522.60 0.8984
522.70 0.8979
522.80 0.8975
522.90 0.897
523.00 0.8965
523.10 0.896
523.20 0.8955
523.30 0.895
523.40 0.8945
523.50 0.894
523.60 0.8936
523.70 0.8931
523.80 0.8926
523.90 0.8921
524.00 0.8916
524.10 0.8911
524.20 0.8906
524.30 0.8902
524.40 0.8897
524.50 0.8892
524.60 0.8887
524.70 0.8882
524.80 0.8877
524.90 0.8872
525.00 0.8867
525.10 0.8863
525.20 0.8858
525.30 0.8853
525.40 0.8848
525.50 0.8843
525.60 0.8838
525.70 0.8834
525.80 0.8829
525.90 0.8824
526.00 0.8819
526.10 0.8814
526.20 0.881
526.30 0.8805
526.40 0.88
526.50 0.8795
526.60 0.879
526.70 0.8785
526.80 0.8781
526.90 0.8776
527.00 0.8771
527.10 0.8766
527.20 0.8762
527.30 0.8757
527.40 0.8752
527.50 0.8747
527.60 0.8742
527.70 0.8738
527.80 0.8733
527.90 0.8728
528.00 0.8723
528.10 0.8718
528.20 0.8714
528.30 0.8709
528.40 0.8704
528.50 0.8699
528.60 0.8695
528.70 0.869
528.80 0.8685
528.90 0.868
529.00 0.8676
529.10 0.8671
529.20 0.8666
529.30 0.8661
529.40 0.8657
529.50 0.8652
529.60 0.8647
529.70 0.8643
529.80 0.8638
529.90 0.8633
530.00 0.8628
530.10 0.8624
530.20 0.8619
530.30 0.8614
530.40 0.861
530.50 0.8605
530.60 0.86
530.70 0.8595
530.80 0.8591
530.90 0.8586
531.00 0.8581
531.10 0.8577
531.20 0.8572
531.30 0.8567
531.40 0.8563
531.50 0.8558
531.60 0.8553
531.70 0.8549
531.80 0.8544
531.90 0.8539
532.00 0.8535
532.10 0.853
532.20 0.8525
532.30 0.8521
532.40 0.8516
532.50 0.8511
532.60 0.8507
532.70 0.8502
532.80 0.8497
532.90 0.8493
533.00 0.8488
533.10 0.8483
533.20 0.8479
533.30 0.8474
533.40 0.847
533.50 0.8465
533.60 0.846
533.70 0.8456
533.80 0.8451
533.90 0.8446
534.00 0.8442
534.10 0.8437
534.20 0.8433
534.30 0.8428
534.40 0.8423
534.50 0.8419
534.60 0.8414
534.70 0.841
534.80 0.8405
534.90 0.84
535.00 0.8396
535.10 0.8391
535.20 0.8387
535.30 0.8382
535.40 0.8378
535.50 0.8373
535.60 0.8368
535.70 0.8364
535.80 0.8359
535.90 0.8355
536.00 0.835
536.10 0.8346
536.20 0.8341
536.30 0.8337
536.40 0.8332
536.50 0.8327
536.60 0.8323
536.70 0.8318
536.80 0.8314
536.90 0.8309
537.00 0.8305
537.10 0.83
537.20 0.8296
537.30 0.8291
537.40 0.8287
537.50 0.8282
537.60 0.8278
537.70 0.8273
537.80 0.8269
537.90 0.8264
538.00 0.826
538.10 0.8255
538.20 0.8251
538.30 0.8246
538.40 0.8242
538.50 0.8237
538.60 0.8233
538.70 0.8228
538.80 0.8224
538.90 0.8219
539.00 0.8215
539.10 0.821
539.20 0.8206
539.30 0.8202
539.40 0.8197
539.50 0.8193
539.60 0.8188
539.70 0.8184
539.80 0.8179
539.90 0.8175
540.00 0.817
540.10 0.8166
540.20 0.8162
540.30 0.8157
540.40 0.8153
540.50 0.8148
540.60 0.8144
540.70 0.8139
540.80 0.8135
540.90 0.8131
541.00 0.8126
541.10 0.8122
541.20 0.8117
541.30 0.8113
541.40 0.8108
541.50 0.8104
541.60 0.81
541.70 0.8095
541.80 0.8091
541.90 0.8086
542.00 0.8082
542.10 0.8078
542.20 0.8073
542.30 0.8069
542.40 0.8065
542.50 0.806
542.60 0.8056
542.70 0.8051
542.80 0.8047
542.90 0.8043
543.00 0.8038
543.10 0.8034
543.20 0.803
543.30 0.8025
543.40 0.8021
543.50 0.8017
543.60 0.8012
543.70 0.8008
543.80 0.8004
543.90 0.7999
544.00 0.7995
544.10 0.7991
544.20 0.7986
544.30 0.7982
544.40 0.7978
544.50 0.7973
544.60 0.7969
544.70 0.7965
544.80 0.796
544.90 0.7956
545.00 0.7952
545.10 0.7947
545.20 0.7943
545.30 0.7939
545.40 0.7935
545.50 0.793
545.60 0.7926
545.70 0.7922
545.80 0.7917
545.90 0.7913
546.00 0.7909
546.10 0.7905
546.20 0.7901
546.30 0.7897
546.40 0.7893
546.50 0.7889
546.60 0.7885
546.70 0.7881
546.80 0.7877
546.90 0.7873
547.00 0.7869
547.10 0.7865
547.20 0.7861
547.30 0.7857
547.40 0.7852
547.50 0.7848
547.60 0.7844
547.70 0.784
547.80 0.7835
547.90 0.7831
548.00 0.7827
548.10 0.7823
548.20 0.7819
548.30 0.7814
548.40 0.781
548.50 0.7806
548.60 0.7802
548.70 0.7797
548.80 0.7793
548.90 0.7789
549.00 0.7785
549.10 0.778
549.20 0.7776
549.30 0.7772
549.40 0.7768
549.50 0.7764
549.60 0.7759
549.70 0.7755
549.80 0.7751
549.90 0.7747
550.00 0.7743
550.10 0.7739
550.20 0.7734
550.30 0.773
550.40 0.7726
550.50 0.7722
550.60 0.7718
550.70 0.7714
550.80 0.7709
550.90 0.7705
551.00 0.7701
551.10 0.7697
551.20 0.7693
551.30 0.7689
551.40 0.7684
551.50 0.768
551.60 0.7676
551.70 0.7672
551.80 0.7668
551.90 0.7664
552.00 0.766
552.10 0.7656
552.20 0.7651
552.30 0.7647
552.40 0.7643
552.50 0.7639
552.60 0.7635
552.70 0.7631
552.80 0.7627
552.90 0.7623
553.00 0.7619
553.10 0.7614
553.20 0.761
553.30 0.7606
553.40 0.7602
553.50 0.7598
553.60 0.7594
553.70 0.759
553.80 0.7586
553.90 0.7582
554.00 0.7578
554.10 0.7574
554.20 0.757
554.30 0.7565
554.40 0.7561
554.50 0.7557
554.60 0.7553
554.70 0.7549
554.80 0.7545
554.90 0.7541
555.00 0.7537
555.10 0.7533
555.20 0.7529
555.30 0.7525
555.40 0.7521
555.50 0.7517
555.60 0.7513
555.70 0.7509
555.80 0.7505
555.90 0.7501
556.00 0.7497
556.10 0.7493
556.20 0.7489
556.30 0.7485
556.40 0.7481
556.50 0.7477
556.60 0.7473
556.70 0.7469
556.80 0.7465
556.90 0.7461
557.00 0.7457
557.10 0.7453
557.20 0.7449
557.30 0.7445
557.40 0.7441
557.50 0.7437
557.60 0.7433
557.70 0.7429
557.80 0.7425
557.90 0.7421
558.00 0.7417
558.10 0.7413
558.20 0.7409
558.30 0.7405
558.40 0.7401
558.50 0.7397
558.60 0.7393
558.70 0.7389
558.80 0.7385
558.90 0.7381
559.00 0.7377
559.10 0.7374
559.20 0.737
559.30 0.7366
559.40 0.7362
559.50 0.7358
559.60 0.7354
559.70 0.735
559.80 0.7346
559.90 0.7342
560.00 0.7338
560.10 0.7334
560.20 0.733
560.30 0.7326
560.40 0.7323
560.50 0.7319
560.60 0.7315
560.70 0.7311
560.80 0.7307
560.90 0.7303
561.00 0.7299
561.10 0.7295
561.20 0.7291
561.30 0.7288
561.40 0.7284
561.50 0.728
561.60 0.7276
561.70 0.7272
561.80 0.7268
561.90 0.7264
562.00 0.726
562.10 0.7257
562.20 0.7253
562.30 0.7249
562.40 0.7245
562.50 0.7241
562.60 0.7237
562.70 0.7234
562.80 0.723
562.90 0.7226
563.00 0.7222
563.10 0.7218
563.20 0.7214
563.30 0.721
563.40 0.7207
563.50 0.7203
563.60 0.7199
563.70 0.7195
563.80 0.7191
563.90 0.7188
564.00 0.7184
564.10 0.718
564.20 0.7176
564.30 0.7172
564.40 0.7169
564.50 0.7165
564.60 0.7161
564.70 0.7157
564.80 0.7153
564.90 0.715
565.00 0.7146
565.10 0.7142
565.20 0.7138
565.30 0.7134
565.40 0.7131
565.50 0.7127
565.60 0.7123
565.70 0.7119
565.80 0.7116
565.90 0.7112
566.00 0.7108
566.10 0.7104
566.20 0.71
566.30 0.7097
566.40 0.7093
566.50 0.7089
566.60 0.7085
566.70 0.7082
566.80 0.7078
566.90 0.7074
567.00 0.707
567.10 0.7067
567.20 0.7063
567.30 0.7059
567.40 0.7056
567.50 0.7052
567.60 0.7048
567.70 0.7044
567.80 0.7041
567.90 0.7037
568.00 0.7033
568.10 0.703
568.20 0.7026
568.30 0.7022
568.40 0.7018
568.50 0.7015
568.60 0.7011
568.70 0.7007
568.80 0.7004
568.90 0.7
569.00 0.6996
569.10 0.6992
569.20 0.6989
569.30 0.6985
569.40 0.6981
569.50 0.6978
569.60 0.6974
569.70 0.697
569.80 0.6967
569.90 0.6963
570.00 0.6959
570.10 0.6956
570.20 0.6952
570.30 0.6948
570.40 0.6945
570.50 0.6941
570.60 0.6937
570.70 0.6934
570.80 0.693
570.90 0.6926
571.00 0.6923
571.10 0.6919
571.20 0.6916
571.30 0.6912
571.40 0.6908
571.50 0.6905
571.60 0.6901
571.70 0.6897
571.80 0.6894
571.90 0.689
572.00 0.6887
572.10 0.6883
572.20 0.6879
572.30 0.6876
572.40 0.6872
572.50 0.6868
572.60 0.6865
572.70 0.6861
572.80 0.6858
572.90 0.6854
573.00 0.685
573.10 0.6847
573.20 0.6843
573.30 0.684
573.40 0.6836
573.50 0.6832
573.60 0.6829
573.70 0.6825
573.80 0.6822
573.90 0.6818
574.00 0.6815
574.10 0.6811
574.20 0.6807
574.30 0.6804
574.40 0.68
574.50 0.6797
574.60 0.6793
574.70 0.679
574.80 0.6786
574.90 0.6783
575.00 0.6779
575.10 0.6775
575.20 0.6772
575.30 0.6768
575.40 0.6765
575.50 0.6761
575.60 0.6758
575.70 0.6754
575.80 0.6751
575.90 0.6747
576.00 0.6744
576.10 0.674
576.20 0.6737
576.30 0.6733
576.40 0.673
576.50 0.6726
576.60 0.6723
576.70 0.6719
576.80 0.6716
576.90 0.6712
577.00 0.6709
577.10 0.6705
577.20 0.6702
577.30 0.6698
577.40 0.6695
577.50 0.6691
577.60 0.6688
577.70 0.6684
577.80 0.6681
577.90 0.6677
578.00 0.6674
578.10 0.667
578.20 0.6667
578.30 0.6663
578.40 0.666
578.50 0.6656
578.60 0.6653
578.70 0.6649
578.80 0.6646
578.90 0.6642
579.00 0.6639
579.10 0.6635
579.20 0.6632
579.30 0.6629
579.40 0.6625
579.50 0.6622
579.60 0.6618
579.70 0.6615
579.80 0.6611
579.90 0.6608
580.00 0.6604
580.10 0.6601
580.20 0.6598
580.30 0.6594
580.40 0.6591
580.50 0.6587
580.60 0.6584
580.70 0.658
580.80 0.6577
580.90 0.6574
581.00 0.657
581.10 0.6567
581.20 0.6563
581.30 0.656
581.40 0.6556
581.50 0.6553
581.60 0.655
581.70 0.6546
581.80 0.6543
581.90 0.6539
582.00 0.6536
582.10 0.6533
582.20 0.6529
582.30 0.6526
582.40 0.6522
582.50 0.6519
582.60 0.6516
582.70 0.6512
582.80 0.6509
582.90 0.6506
583.00 0.6502
583.10 0.6499
583.20 0.6496
583.30 0.6492
583.40 0.6489
583.50 0.6485
583.60 0.6482
583.70 0.6479
583.80 0.6475
583.90 0.6472
584.00 0.6469
584.10 0.6465
584.20 0.6462
584.30 0.6459
584.40 0.6455
584.50 0.6452
584.60 0.6449
584.70 0.6445
584.80 0.6442
584.90 0.6439
585.00 0.6435
585.10 0.6432
585.20 0.6429
585.30 0.6425
585.40 0.6422
585.50 0.6419
585.60 0.6415
585.70 0.6412
585.80 0.6409
585.90 0.6405
586.00 0.6402
586.10 0.6399
586.20 0.6395
586.30 0.6392
586.40 0.6389
586.50 0.6386
586.60 0.6382
586.70 0.6379
586.80 0.6376
586.90 0.6372
587.00 0.6369
587.10 0.6366
587.20 0.6363
587.30 0.6359
587.40 0.6356
587.50 0.6353
587.60 0.6349
587.70 0.6346
587.80 0.6343
587.90 0.634
588.00 0.6336
588.10 0.6333
588.20 0.633
588.30 0.6327
588.40 0.6323
588.50 0.632
588.60 0.6317
588.70 0.6314
588.80 0.631
588.90 0.6307
589.00 0.6304
589.10 0.6301
589.20 0.6297
589.30 0.6294
589.40 0.6291
589.50 0.6288
589.60 0.6284
589.70 0.6281
589.80 0.6278
589.90 0.6275
590.00 0.6271
590.10 0.6268
590.20 0.6265
590.30 0.6262
590.40 0.6259
590.50 0.6255
590.60 0.6252
590.70 0.6249
590.80 0.6246
590.90 0.6242
591.00 0.6239
591.10 0.6236
591.20 0.6233
591.30 0.623
591.40 0.6226
591.50 0.6223
591.60 0.622
591.70 0.6217
591.80 0.6214
591.90 0.6211
592.00 0.6207
592.10 0.6204
592.20 0.6201
592.30 0.6198
592.40 0.6195
592.50 0.6191
592.60 0.6188
592.70 0.6185
592.80 0.6182
592.90 0.6179
593.00 0.6176
593.10 0.6172
593.20 0.6169
593.30 0.6166
593.40 0.6163
593.50 0.616
593.60 0.6157
593.70 0.6154
593.80 0.615
593.90 0.6147
594.00 0.6144
594.10 0.6141
594.20 0.6138
594.30 0.6135
594.40 0.6132
594.50 0.6128
594.60 0.6125
594.70 0.6122
594.80 0.6119
594.90 0.6116
595.00 0.6113
595.10 0.611
595.20 0.6106
595.30 0.6103
595.40 0.61
595.50 0.6097
595.60 0.6094
595.70 0.6091
595.80 0.6088
595.90 0.6085
596.00 0.6082
596.10 0.6078
596.20 0.6075
596.30 0.6071
596.40 0.6067
596.50 0.6064
596.60 0.606
596.70 0.6056
596.80 0.6053
596.90 0.6049
597.00 0.6045
597.10 0.6041
597.20 0.6038
597.30 0.6035
597.40 0.6032
597.50 0.6029
597.60 0.6026
597.70 0.6023
597.80 0.602
597.90 0.6017
598.00 0.6013
598.10 0.601
598.20 0.6007
598.30 0.6004
598.40 0.6001
598.50 0.5998
598.60 0.5995
598.70 0.5992
598.80 0.5989
598.90 0.5986
599.00 0.5983
599.10 0.598
599.20 0.5977
599.30 0.5974
599.40 0.5971
599.50 0.5967
599.60 0.5964
599.70 0.5961
599.80 0.5958
599.90 0.5955
600.00 0.5952
600.10 0.5949
600.20 0.5946
600.30 0.5943
600.40 0.594
600.50 0.5937
600.60 0.5934
600.70 0.5931
600.80 0.5928
600.90 0.5925
601.00 0.5922
601.10 0.5919
601.20 0.5916
601.30 0.5913
601.40 0.591
601.50 0.5907
601.60 0.5904
601.70 0.5901
601.80 0.5898
601.90 0.5895
602.00 0.5892
602.10 0.5889
602.20 0.5886
602.30 0.5883
602.40 0.588
602.50 0.5877
602.60 0.5874
602.70 0.5871
602.80 0.5867
602.90 0.5864
603.00 0.5861
603.10 0.5858
603.20 0.5855
603.30 0.5853
603.40 0.585
603.50 0.5847
603.60 0.5844
603.70 0.5841
603.80 0.5838
603.90 0.5835
604.00 0.5832
604.10 0.5829
604.20 0.5826
604.30 0.5823
604.40 0.582
604.50 0.5817
604.60 0.5814
604.70 0.5811
604.80 0.5808
604.90 0.5805
605.00 0.5802
605.10 0.5799
605.20 0.5796
605.30 0.5793
605.40 0.579
605.50 0.5787
605.60 0.5784
605.70 0.5781
605.80 0.5778
605.90 0.5775
606.00 0.5772
606.10 0.5769
606.20 0.5767
606.30 0.5764
606.40 0.5761
606.50 0.5758
606.60 0.5755
606.70 0.5752
606.80 0.5749
606.90 0.5746
607.00 0.5743
607.10 0.574
607.20 0.5737
607.30 0.5734
607.40 0.5731
607.50 0.5728
607.60 0.5725
607.70 0.5723
607.80 0.572
607.90 0.5717
608.00 0.5714
608.10 0.5711
608.20 0.5708
608.30 0.5705
608.40 0.5702
608.50 0.5699
608.60 0.5696
608.70 0.5693
608.80 0.5691
608.90 0.5688
609.00 0.5685
609.10 0.5682
609.20 0.5679
609.30 0.5676
609.40 0.5673
609.50 0.567
609.60 0.5667
609.70 0.5665
609.80 0.5662
609.90 0.5659
610.00 0.5656
610.10 0.5653
610.20 0.565
610.30 0.5647
610.40 0.5644
610.50 0.5641
610.60 0.5639
610.70 0.5636
610.80 0.5633
610.90 0.563
611.00 0.5627
611.10 0.5624
611.20 0.5621
611.30 0.5619
611.40 0.5616
611.50 0.5613
611.60 0.561
611.70 0.5607
611.80 0.5604
611.90 0.5601
612.00 0.5599
612.10 0.5596
612.20 0.5593
612.30 0.559
612.40 0.5587
612.50 0.5584
612.60 0.5581
612.70 0.5579
612.80 0.5576
612.90 0.5573
613.00 0.557
613.10 0.5567
613.20 0.5564
613.30 0.5561
613.40 0.5559
613.50 0.5556
613.60 0.5553
613.70 0.555
613.80 0.5547
613.90 0.5544
614.00 0.5542
614.10 0.5539
614.20 0.5536
614.30 0.5533
614.40 0.553
614.50 0.5528
614.60 0.5525
614.70 0.5522
614.80 0.5519
614.90 0.5516
615.00 0.5513
615.10 0.5511
615.20 0.5508
615.30 0.5505
615.40 0.5502
615.50 0.5499
615.60 0.5497
615.70 0.5494
615.80 0.5491
615.90 0.5488
616.00 0.5485
616.10 0.5483
616.20 0.548
616.30 0.5477
616.40 0.5474
616.50 0.5471
616.60 0.5469
616.70 0.5466
616.80 0.5463
616.90 0.546
617.00 0.5457
617.10 0.5455
617.20 0.5452
617.30 0.5449
617.40 0.5446
617.50 0.5443
617.60 0.5441
617.70 0.5438
617.80 0.5435
617.90 0.5432
618.00 0.5429
618.10 0.5427
618.20 0.5424
618.30 0.5421
618.40 0.5418
618.50 0.5416
618.60 0.5413
618.70 0.541
618.80 0.5407
618.90 0.5405
619.00 0.5402
619.10 0.5399
619.20 0.5396
619.30 0.5393
619.40 0.5391
619.50 0.5388
619.60 0.5385
619.70 0.5382
619.80 0.538
619.90 0.5377
620.00 0.5374
620.10 0.5371
620.20 0.5369
620.30 0.5366
620.40 0.5363
620.50 0.536
620.60 0.5357
620.70 0.5355
620.80 0.5352
620.90 0.5349
621.00 0.5346
621.10 0.5344
621.20 0.5341
621.30 0.5338
621.40 0.5335
621.50 0.5333
621.60 0.533
621.70 0.5327
621.80 0.5324
621.90 0.5322
622.00 0.5319
622.10 0.5316
622.20 0.5313
622.30 0.5311
622.40 0.5308
622.50 0.5305
622.60 0.5302
622.70 0.53
622.80 0.5297
622.90 0.5294
623.00 0.5291
623.10 0.5289
623.20 0.5286
623.30 0.5283
623.40 0.528
623.50 0.5278
623.60 0.5275
623.70 0.5272
623.80 0.527
623.90 0.5267
624.00 0.5264
624.10 0.5261
624.20 0.5259
624.30 0.5256
624.40 0.5253
624.50 0.525
624.60 0.5248
624.70 0.5245
624.80 0.5242
624.90 0.5239
625.00 0.5237
625.10 0.5234
625.20 0.5231
625.30 0.5228
625.40 0.5226
625.50 0.5223
625.60 0.522
625.70 0.5217
625.80 0.5215
625.90 0.5212
626.00 0.5209
626.10 0.5207
626.20 0.5204
626.30 0.5201
626.40 0.5198
626.50 0.5196
626.60 0.5193
626.70 0.519
626.80 0.5187
626.90 0.5185
627.00 0.5182
627.10 0.5179
627.20 0.5177
627.30 0.5174
627.40 0.5171
627.50 0.5168
627.60 0.5166
627.70 0.5163
627.80 0.516
627.90 0.5157
628.00 0.5155
628.10 0.5152
628.20 0.5149
628.30 0.5146
628.40 0.5144
628.50 0.5141
628.60 0.5138
628.70 0.5135
628.80 0.5133
628.90 0.513
629.00 0.5127
629.10 0.5124
629.20 0.5122
629.30 0.5119
629.40 0.5116
629.50 0.5113
629.60 0.5111
629.70 0.5108
629.80 0.5105
629.90 0.5102
630.00 0.51
630.10 0.5097
630.20 0.5094
630.30 0.5091
630.40 0.5089
630.50 0.5086
630.60 0.5083
630.70 0.508
630.80 0.5078
630.90 0.5075
631.00 0.5072
631.10 0.5069
631.20 0.5067
631.30 0.5064
631.40 0.5061
631.50 0.5058
631.60 0.5055
631.70 0.5053
631.80 0.505
631.90 0.5047
632.00 0.5044
632.10 0.5042
632.20 0.5039
632.30 0.5036
632.40 0.5033
632.50 0.503
632.60 0.5028
632.70 0.5025
632.80 0.5022
632.90 0.5019
633.00 0.5016
633.10 0.5013
633.20 0.5011
633.30 0.5008
633.40 0.5005
633.50 0.5002
633.60 0.4999
633.70 0.4996
633.80 0.4994
633.90 0.4991
634.00 0.4988
634.10 0.4985
634.20 0.4982
634.30 0.4979
634.40 0.4976
634.50 0.4974
634.60 0.4971
634.70 0.4968
634.80 0.4965
634.90 0.4962
635.00 0.4959
635.10 0.4956
635.20 0.4953
635.30 0.495
635.40 0.4947
635.50 0.4944
635.60 0.4942
635.70 0.4939
635.80 0.4936
635.90 0.4933
636.00 0.493
636.10 0.4927
636.20 0.4924
636.30 0.4921
636.40 0.4918
636.50 0.4915
636.60 0.4912
636.70 0.4909
636.80 0.4906
636.90 0.4903
637.00 0.49
637.10 0.4897
637.20 0.4894
637.30 0.4891
637.40 0.4887
637.50 0.4884
637.60 0.4881
637.70 0.4878
637.80 0.4875
637.90 0.4872
638.00 0.4869
638.10 0.4866
638.20 0.4863
638.30 0.4859
638.40 0.4856
638.50 0.4853
638.60 0.485
638.70 0.4846
638.80 0.4843
638.90 0.484
639.00 0.4837
639.10 0.4834
639.20 0.483
639.30 0.4827
639.40 0.4824
639.50 0.482
639.60 0.4817
639.70 0.4814
639.80 0.481
639.90 0.4807
640.00 0.4803
640.10 0.48
640.20 0.4797
640.30 0.4793
640.40 0.479
640.50 0.4786
640.60 0.4783
640.70 0.4779
640.80 0.4776
640.90 0.4772
641.00 0.4768
641.10 0.4765
641.20 0.4761
641.30 0.4758
641.40 0.4754
641.50 0.475
641.60 0.4746
641.70 0.4743
641.80 0.4739
641.90 0.4735
642.00 0.4731
642.10 0.4727
642.20 0.4724
642.30 0.472
642.40 0.4716
642.50 0.4712
642.60 0.4708
642.70 0.4704
642.80 0.4699
642.90 0.4695
643.00 0.4691
643.10 0.4687
643.20 0.4683
643.30 0.4679
643.40 0.4674
643.50 0.467
643.60 0.4666
643.70 0.4661
643.80 0.4657
643.90 0.4652
644.00 0.4648
644.10 0.4643
644.20 0.4639
644.30 0.4634
644.40 0.4629
644.50 0.4624
644.60 0.4619
644.70 0.4614
644.80 0.4609
644.90 0.4604
645.00 0.4599
645.10 0.4594
645.20 0.4589
645.30 0.4584
645.40 0.4579
645.50 0.4573
645.60 0.4567
645.70 0.4562
645.80 0.4556
645.90 0.455
646.00 0.4545
646.10 0.4539
646.20 0.4533
646.30 0.4528
646.40 0.4521
646.50 0.4515
646.60 0.4508
646.70 0.4502
646.80 0.4495
646.90 0.4489
647.00 0.4482
647.10 0.4476
647.20 0.4469
647.30 0.4462
647.40 0.4455
647.50 0.4447
647.60 0.4439
647.70 0.4432
647.80 0.4424
647.90 0.4416
648.00 0.4409
648.10 0.4401
648.20 0.4393
648.30 0.4385
648.40 0.4376
648.50 0.4367
648.60 0.4357
648.70 0.4348
648.80 0.4339
648.90 0.4329
649.00 0.432
649.10 0.4311
649.20 0.4301
649.30 0.4292
649.40 0.428
649.50 0.4269
649.60 0.4257
649.70 0.4246
649.80 0.4234
649.90 0.4223
650.00 0.4211
650.10 0.42
650.20 0.4189
650.30 0.4177
650.40 0.4162
650.50 0.4148
650.60 0.4133
650.70 0.4119
650.80 0.4105
650.90 0.409
651.00 0.4076
651.10 0.4062
651.20 0.4047
651.30 0.4032
651.40 0.4014
651.50 0.3995
651.60 0.3977
651.70 0.3958
651.80 0.394
651.90 0.3922
652.00 0.3903
652.10 0.3885
652.20 0.3867
652.30 0.3847
652.40 0.3824
652.50 0.38
652.60 0.3777
652.70 0.3753
652.80 0.373
652.90 0.3707
653.00 0.3683
653.10 0.366
653.20 0.3636
653.30 0.3612
653.40 0.3582
653.50 0.3553
653.60 0.3523
653.70 0.3494
653.80 0.3465
653.90 0.3435
654.00 0.3406
654.10 0.3376
654.20 0.3347
654.30 0.3316
654.40 0.3282
654.50 0.3247
654.60 0.3212
654.70 0.3178
654.80 0.3142
654.90 0.3101
655.00 0.306
655.10 0.3019
655.20 0.2979
655.30 0.2937
655.40 0.2892
655.50 0.2846
655.60 0.2796
655.70 0.2744
655.80 0.2685
655.90 0.2622
656.00 0.2539
656.10 0.2448
656.20 0.215
656.30 0.1851
656.40 0.2336
656.50 0.2483
656.60 0.2565
656.70 0.2641
656.80 0.2698
656.90 0.2752
657.00 0.2801
657.10 0.2848
657.20 0.289
657.30 0.2932
657.40 0.297
657.50 0.3009
657.60 0.3047
657.70 0.3085
657.80 0.3122
657.90 0.3153
658.00 0.3185
658.10 0.3217
658.20 0.3249
658.30 0.3279
658.40 0.3305
658.50 0.3331
658.60 0.3357
658.70 0.3383
658.80 0.3409
658.90 0.3435
659.00 0.3461
659.10 0.3487
659.20 0.3513
659.30 0.3538
659.40 0.3558
659.50 0.3577
659.60 0.3597
659.70 0.3616
659.80 0.3636
659.90 0.3656
660.00 0.3675
660.10 0.3695
660.20 0.3714
660.30 0.3733
660.40 0.3747
660.50 0.3761
660.60 0.3775
660.70 0.3789
660.80 0.3804
660.90 0.3818
661.00 0.3832
661.10 0.3846
661.20 0.386
661.30 0.3874
661.40 0.3884
661.50 0.3894
661.60 0.3904
661.70 0.3914
661.80 0.3924
661.90 0.3934
662.00 0.3944
662.10 0.3954
662.20 0.3964
662.30 0.3973
662.40 0.398
662.50 0.3987
662.60 0.3994
662.70 0.4001
662.80 0.4008
662.90 0.4015
663.00 0.4022
663.10 0.4029
663.20 0.4035
663.30 0.4042
663.40 0.4047
663.50 0.4051
663.60 0.4056
663.70 0.4061
663.80 0.4066
663.90 0.4071
664.00 0.4075
664.10 0.408
664.20 0.4085
664.30 0.4089
664.40 0.4092
664.50 0.4095
664.60 0.4099
664.70 0.4102
664.80 0.4105
664.90 0.4108
665.00 0.4111
665.10 0.4114
665.20 0.4117
665.30 0.412
665.40 0.4122
665.50 0.4124
665.60 0.4126
665.70 0.4128
665.80 0.4129
665.90 0.4131
666.00 0.4133
666.10 0.4135
666.20 0.4137
666.30 0.4139
666.40 0.414
666.50 0.4141
666.60 0.4142
666.70 0.4143
666.80 0.4144
666.90 0.4145
667.00 0.4146
667.10 0.4147
667.20 0.4148
667.30 0.4149
667.40 0.415
667.50 0.415
667.60 0.415
667.70 0.4151
667.80 0.4151
667.90 0.4152
668.00 0.4152
668.10 0.4152
668.20 0.4153
668.30 0.4153
668.40 0.4153
668.50 0.4153
668.60 0.4153
668.70 0.4153
668.80 0.4153
668.90 0.4153
669.00 0.4153
669.10 0.4152
669.20 0.4152
669.30 0.4152
669.40 0.4152
669.50 0.4151
669.60 0.4151
669.70 0.415
669.80 0.415
669.90 0.4149
670.00 0.4149
670.10 0.4148
670.20 0.4148
670.30 0.4148
670.40 0.4147
670.50 0.4146
670.60 0.4145
670.70 0.4144
670.80 0.4144
670.90 0.4143
671.00 0.4142
671.10 0.4141
671.20 0.4141
671.30 0.414
671.40 0.4139
671.50 0.4138
671.60 0.4137
671.70 0.4136
671.80 0.4135
671.90 0.4134
672.00 0.4133
672.10 0.4132
672.20 0.4131
672.30 0.413
672.40 0.4129
672.50 0.4128
672.60 0.4127
672.70 0.4126
672.80 0.4125
672.90 0.4124
673.00 0.4123
673.10 0.4121
673.20 0.412
673.30 0.4119
673.40 0.4118
673.50 0.4117
673.60 0.4115
673.70 0.4114
673.80 0.4113
673.90 0.4112
674.00 0.411
674.10 0.4109
674.20 0.4108
674.30 0.4107
674.40 0.4105
674.50 0.4104
674.60 0.4102
674.70 0.4101
674.80 0.41
674.90 0.4098
675.00 0.4097
675.10 0.4096
675.20 0.4094
675.30 0.4093
675.40 0.4092
675.50 0.409
675.60 0.4089
675.70 0.4087
675.80 0.4086
675.90 0.4084
676.00 0.4083
676.10 0.4081
676.20 0.408
676.30 0.4079
676.40 0.4077
676.50 0.4076
676.60 0.4074
676.70 0.4072
676.80 0.4071
676.90 0.4069
677.00 0.4068
677.10 0.4066
677.20 0.4065
677.30 0.4063
677.40 0.4062
677.50 0.406
677.60 0.4059
677.70 0.4057
677.80 0.4056
677.90 0.4054
678.00 0.4053
678.10 0.4051
678.20 0.405
678.30 0.4048
678.40 0.4046
678.50 0.4045
678.60 0.4043
678.70 0.4042
678.80 0.404
678.90 0.4038
679.00 0.4037
679.10 0.4035
679.20 0.4034
679.30 0.4032
679.40 0.403
679.50 0.4029
679.60 0.4027
679.70 0.4026
679.80 0.4024
679.90 0.4022
680.00 0.4021
680.10 0.4019
680.20 0.4017
680.30 0.4016
680.40 0.4014
680.50 0.4012
680.60 0.4011
680.70 0.4009
680.80 0.4008
680.90 0.4006
681.00 0.4004
681.10 0.4003
681.20 0.4001
681.30 0.3999
681.40 0.3998
681.50 0.3996
681.60 0.3994
681.70 0.3993
681.80 0.3991
681.90 0.3989
682.00 0.3988
682.10 0.3986
682.20 0.3984
682.30 0.3983
682.40 0.3981
682.50 0.3979
682.60 0.3978
682.70 0.3976
682.80 0.3974
682.90 0.3973
683.00 0.3971
683.10 0.3969
683.20 0.3968
683.30 0.3966
683.40 0.3964
683.50 0.3962
683.60 0.3961
683.70 0.3959
683.80 0.3957
683.90 0.3956
684.00 0.3954
684.10 0.3952
684.20 0.3951
684.30 0.3949
684.40 0.3947
684.50 0.3946
684.60 0.3944
684.70 0.3942
684.80 0.394
684.90 0.3939
685.00 0.3937
685.10 0.3935
685.20 0.3934
685.30 0.3932
685.40 0.393
685.50 0.3929
685.60 0.3927
685.70 0.3925
685.80 0.3924
685.90 0.3922
686.00 0.392
686.10 0.3918
686.20 0.3917
686.30 0.3915
686.40 0.3913
686.50 0.3912
686.60 0.391
686.70 0.3908
686.80 0.3907
686.90 0.3905
687.00 0.3903
687.10 0.3901
687.20 0.39
687.30 0.3898
687.40 0.3896
687.50 0.3895
687.60 0.3893
687.70 0.3891
687.80 0.389
687.90 0.3888
688.00 0.3886
688.10 0.3884
688.20 0.3883
688.30 0.3881
688.40 0.3879
688.50 0.3878
688.60 0.3876
688.70 0.3874
688.80 0.3873
688.90 0.3871
689.00 0.3869
689.10 0.3867
689.20 0.3866
689.30 0.3864
689.40 0.3862
689.50 0.3861
689.60 0.3859
689.70 0.3857
689.80 0.3855
689.90 0.3854
690.00 0.3852
690.10 0.385
690.20 0.3849
690.30 0.3847
690.40 0.3845
690.50 0.3843
690.60 0.3842
690.70 0.384
690.80 0.3838
690.90 0.3837
691.00 0.3835
691.10 0.3833
691.20 0.3832
691.30 0.383
691.40 0.3828
691.50 0.3826
691.60 0.3825
691.70 0.3823
691.80 0.3821
691.90 0.382
692.00 0.3818
692.10 0.3816
692.20 0.3815
692.30 0.3813
692.40 0.3811
692.50 0.3809
692.60 0.3808
692.70 0.3806
692.80 0.3804
692.90 0.3803
693.00 0.3801
693.10 0.3799
693.20 0.3798
693.30 0.3796
693.40 0.3794
693.50 0.3793
693.60 0.3791
693.70 0.3789
693.80 0.3787
693.90 0.3786
694.00 0.3784
694.10 0.3782
694.20 0.3781
694.30 0.3779
694.40 0.3777
694.50 0.3776
694.60 0.3774
694.70 0.3772
694.80 0.3771
694.90 0.3769
695.00 0.3767
695.10 0.3766
695.20 0.3764
695.30 0.3762
695.40 0.3761
695.50 0.3759
695.60 0.3757
695.70 0.3756
695.80 0.3754
695.90 0.3752
696.00 0.3751
696.10 0.3749
696.20 0.3747
696.30 0.3746
696.40 0.3744
696.50 0.3742
696.60 0.3741
696.70 0.3739
696.80 0.3737
696.90 0.3736
697.00 0.3734
697.10 0.3732
697.20 0.3731
697.30 0.3729
697.40 0.3727
697.50 0.3726
697.60 0.3724
697.70 0.3722
697.80 0.3721
697.90 0.3719
698.00 0.3718
698.10 0.3716
698.20 0.3714
698.30 0.3713
698.40 0.3711
698.50 0.3709
698.60 0.3708
698.70 0.3706
698.80 0.3704
698.90 0.3703
699.00 0.3701
699.10 0.3699
699.20 0.3698
699.30 0.3696
699.40 0.3694
699.50 0.3693
699.60 0.3691
699.70 0.369
699.80 0.3688
699.90 0.3686
700.00 0.3685
700.10 0.3683
700.20 0.3682
700.30 0.3681
700.40 0.3679
700.50 0.3678
700.60 0.3677
700.70 0.3675
700.80 0.3674
700.90 0.3672
701.00 0.3671
701.10 0.367
701.20 0.3668
701.30 0.3667
701.40 0.3666
701.50 0.3664
701.60 0.3663
701.70 0.3662
701.80 0.366
701.90 0.3659
702.00 0.3658
702.10 0.3656
702.20 0.3655
702.30 0.3654
702.40 0.3652
702.50 0.3651
702.60 0.365
702.70 0.3648
702.80 0.3647
702.90 0.3646
703.00 0.3644
703.10 0.3643
703.20 0.3642
703.30 0.364
703.40 0.3639
703.50 0.3637
703.60 0.3636
703.70 0.3635
703.80 0.3633
703.90 0.3632
704.00 0.3631
704.10 0.3629
704.20 0.3628
704.30 0.3627
704.40 0.3625
704.50 0.3624
704.60 0.3623
704.70 0.3621
704.80 0.362
704.90 0.3619
705.00 0.3618
705.10 0.3616
705.20 0.3614
705.30 0.3613
705.40 0.3611
705.50 0.3609
705.60 0.3608
705.70 0.3606
705.80 0.3605
705.90 0.3603
706.00 0.3601
706.10 0.36
706.20 0.3598
706.30 0.3597
706.40 0.3595
706.50 0.3593
706.60 0.3592
706.70 0.359
706.80 0.3589
706.90 0.3587
707.00 0.3585
707.10 0.3584
707.20 0.3582
707.30 0.3581
707.40 0.3579
707.50 0.3577
707.60 0.3576
707.70 0.3574
707.80 0.3573
707.90 0.3571
708.00 0.3569
708.10 0.3568
708.20 0.3566
708.30 0.3565
708.40 0.3563
708.50 0.3561
708.60 0.356
708.70 0.3558
708.80 0.3557
708.90 0.3555
709.00 0.3553
709.10 0.3552
709.20 0.355
709.30 0.3549
709.40 0.3547
709.50 0.3546
709.60 0.3544
709.70 0.3542
709.80 0.3541
709.90 0.3539
710.00 0.3538
710.10 0.3536
710.20 0.3535
710.30 0.3533
710.40 0.3531
710.50 0.353
710.60 0.3528
710.70 0.3527
710.80 0.3525
710.90 0.3524
711.00 0.3522
711.10 0.352
711.20 0.3519
711.30 0.3517
711.40 0.3516
711.50 0.3514
711.60 0.3513
711.70 0.3511
711.80 0.3509
711.90 0.3508
712.00 0.3506
712.10 0.3505
712.20 0.3503
712.30 0.3502
712.40 0.35
712.50 0.3498
712.60 0.3497
712.70 0.3495
712.80 0.3494
712.90 0.3492
713.00 0.3491
713.10 0.3489
713.20 0.3488
713.30 0.3486
713.40 0.3485
713.50 0.3483
713.60 0.3481
713.70 0.348
713.80 0.3478
713.90 0.3477
714.00 0.3475
714.10 0.3474
714.20 0.3472
714.30 0.3471
714.40 0.3469
714.50 0.3467
714.60 0.3466
714.70 0.3464
714.80 0.3463
714.90 0.3461
715.00 0.346
715.10 0.3458
715.20 0.3457
715.30 0.3455
715.40 0.3454
715.50 0.3452
715.60 0.3451
715.70 0.3449
715.80 0.3448
715.90 0.3446
716.00 0.3445
716.10 0.3443
716.20 0.3442
716.30 0.344
716.40 0.3439
716.50 0.3437
716.60 0.3436
716.70 0.3434
716.80 0.3433
716.90 0.3431
717.00 0.343
717.10 0.3428
717.20 0.3427
717.30 0.3425
717.40 0.3424
717.50 0.3422
717.60 0.3421
717.70 0.3419
717.80 0.3418
717.90 0.3416
718.00 0.3415
718.10 0.3413
718.20 0.3412
718.30 0.341
718.40 0.3409
718.50 0.3407
718.60 0.3406
718.70 0.3404
718.80 0.3403
718.90 0.3401
719.00 0.34
719.10 0.3398
719.20 0.3397
719.30 0.3396
719.40 0.3394
719.50 0.3393
719.60 0.3391
719.70 0.339
719.80 0.3388
719.90 0.3387
720.00 0.3385
720.10 0.3384
720.20 0.3382
720.30 0.3381
720.40 0.3379
720.50 0.3378
720.60 0.3376
720.70 0.3375
720.80 0.3373
720.90 0.3372
721.00 0.337
721.10 0.3369
721.20 0.3367
721.30 0.3366
721.40 0.3364
721.50 0.3363
721.60 0.3361
721.70 0.336
721.80 0.3358
721.90 0.3357
722.00 0.3355
722.10 0.3354
722.20 0.3352
722.30 0.3351
722.40 0.3349
722.50 0.3348
722.60 0.3346
722.70 0.3345
722.80 0.3343
722.90 0.3342
723.00 0.3341
723.10 0.3339
723.20 0.3338
723.30 0.3336
723.40 0.3335
723.50 0.3333
723.60 0.3332
723.70 0.333
723.80 0.3329
723.90 0.3327
724.00 0.3326
724.10 0.3324
724.20 0.3323
724.30 0.3321
724.40 0.332
724.50 0.3318
724.60 0.3317
724.70 0.3315
724.80 0.3314
724.90 0.3313
725.00 0.3311
725.10 0.331
725.20 0.3308
725.30 0.3307
725.40 0.3305
725.50 0.3304
725.60 0.3302
725.70 0.3301
725.80 0.3299
725.90 0.3298
726.00 0.3297
726.10 0.3295
726.20 0.3294
726.30 0.3292
726.40 0.3291
726.50 0.3289
726.60 0.3288
726.70 0.3286
726.80 0.3285
726.90 0.3283
727.00 0.3282
727.10 0.3281
727.20 0.3279
727.30 0.3278
727.40 0.3276
727.50 0.3275
727.60 0.3273
727.70 0.3272
727.80 0.327
727.90 0.3269
728.00 0.3268
728.10 0.3266
728.20 0.3265
728.30 0.3263
728.40 0.3262
728.50 0.326
728.60 0.3259
728.70 0.3258
728.80 0.3256
728.90 0.3255
729.00 0.3253
729.10 0.3252
729.20 0.325
729.30 0.3249
729.40 0.3248
729.50 0.3246
729.60 0.3245
729.70 0.3243
729.80 0.3242
729.90 0.324
730.00 0.3239
730.10 0.3238
730.20 0.3236
730.30 0.3235
730.40 0.3233
730.50 0.3232
730.60 0.323
730.70 0.3229
730.80 0.3228
730.90 0.3226
731.00 0.3225
731.10 0.3223
731.20 0.3222
731.30 0.3221
731.40 0.3219
731.50 0.3218
731.60 0.3216
731.70 0.3215
731.80 0.3214
731.90 0.3212
732.00 0.3211
732.10 0.3209
732.20 0.3208
732.30 0.3207
732.40 0.3205
732.50 0.3204
732.60 0.3202
732.70 0.3201
732.80 0.32
732.90 0.3198
733.00 0.3197
733.10 0.3195
733.20 0.3194
733.30 0.3193
733.40 0.3191
733.50 0.319
733.60 0.3188
733.70 0.3187
733.80 0.3186
733.90 0.3184
734.00 0.3183
734.10 0.3181
734.20 0.318
734.30 0.3179
734.40 0.3177
734.50 0.3176
734.60 0.3174
734.70 0.3173
734.80 0.3172
734.90 0.317
735.00 0.3169
735.10 0.3168
735.20 0.3166
735.30 0.3165
735.40 0.3163
735.50 0.3162
735.60 0.3161
735.70 0.3159
735.80 0.3158
735.90 0.3156
736.00 0.3155
736.10 0.3154
736.20 0.3152
736.30 0.3151
736.40 0.315
736.50 0.3148
736.60 0.3147
736.70 0.3145
736.80 0.3144
736.90 0.3143
737.00 0.3141
737.10 0.314
737.20 0.3139
737.30 0.3137
737.40 0.3136
737.50 0.3134
737.60 0.3133
737.70 0.3132
737.80 0.313
737.90 0.3129
738.00 0.3128
738.10 0.3126
738.20 0.3125
738.30 0.3124
738.40 0.3122
738.50 0.3121
738.60 0.3119
738.70 0.3118
738.80 0.3117
738.90 0.3115
739.00 0.3114
739.10 0.3113
739.20 0.3111
739.30 0.311
739.40 0.3109
739.50 0.3107
739.60 0.3106
739.70 0.3105
739.80 0.3103
739.90 0.3102
740.00 0.31
740.10 0.3099
740.20 0.3098
740.30 0.3096
740.40 0.3095
740.50 0.3094
740.60 0.3092
740.70 0.3091
740.80 0.309
740.90 0.3088
741.00 0.3087
741.10 0.3086
741.20 0.3084
741.30 0.3083
741.40 0.3082
741.50 0.308
741.60 0.3079
741.70 0.3078
741.80 0.3076
741.90 0.3075
742.00 0.3074
742.10 0.3072
742.20 0.3071
742.30 0.307
742.40 0.3068
742.50 0.3067
742.60 0.3066
742.70 0.3064
742.80 0.3063
742.90 0.3062
743.00 0.306
743.10 0.3059
743.20 0.3058
743.30 0.3056
743.40 0.3055
743.50 0.3054
743.60 0.3053
743.70 0.3051
743.80 0.305
743.90 0.3049
744.00 0.3047
744.10 0.3046
744.20 0.3045
744.30 0.3043
744.40 0.3042
744.50 0.3041
744.60 0.3039
744.70 0.3038
744.80 0.3037
744.90 0.3035
745.00 0.3034
745.10 0.3033
745.20 0.3031
745.30 0.303
745.40 0.3029
745.50 0.3028
745.60 0.3026
745.70 0.3025
745.80 0.3024
745.90 0.3022
746.00 0.3021
746.10 0.302
746.20 0.3018
746.30 0.3017
746.40 0.3016
746.50 0.3014
746.60 0.3013
746.70 0.3012
746.80 0.3011
746.90 0.3009
747.00 0.3008
747.10 0.3007
747.20 0.3005
747.30 0.3004
747.40 0.3003
747.50 0.3001
747.60 0.3
747.70 0.2999
747.80 0.2998
747.90 0.2996
748.00 0.2995
748.10 0.2994
748.20 0.2992
748.30 0.2991
748.40 0.299
748.50 0.2989
748.60 0.2987
748.70 0.2986
748.80 0.2985
748.90 0.2983
749.00 0.2982
749.10 0.2981
749.20 0.298
749.30 0.2978
749.40 0.2977
749.50 0.2976
749.60 0.2974
749.70 0.2973
749.80 0.2972
749.90 0.2971
750.00 0.2969
750.10 0.2968
750.20 0.2967
750.30 0.2965
750.40 0.2964
750.50 0.2963
750.60 0.2962
750.70 0.296
750.80 0.2959
750.90 0.2958
751.00 0.2957
751.10 0.2955
751.20 0.2954
751.30 0.2953
751.40 0.2951
751.50 0.295
751.60 0.2949
751.70 0.2948
751.80 0.2946
751.90 0.2945
752.00 0.2944
752.10 0.2943
752.20 0.2941
752.30 0.294
752.40 0.2939
752.50 0.2938
752.60 0.2936
752.70 0.2935
752.80 0.2934
752.90 0.2933
753.00 0.2931
753.10 0.293
753.20 0.2929
753.30 0.2928
753.40 0.2926
753.50 0.2925
753.60 0.2924
753.70 0.2923
753.80 0.2921
753.90 0.292
754.00 0.2919
754.10 0.2918
754.20 0.2916
754.30 0.2915
754.40 0.2914
754.50 0.2913
754.60 0.2911
754.70 0.291
754.80 0.2909
754.90 0.2908
755.00 0.2906
755.10 0.2905
755.20 0.2904
755.30 0.2903
755.40 0.2901
755.50 0.29
755.60 0.2899
755.70 0.2898
755.80 0.2896
755.90 0.2895
756.00 0.2894
756.10 0.2893
756.20 0.2891
756.30 0.289
756.40 0.2889
756.50 0.2888
756.60 0.2886
756.70 0.2885
756.80 0.2884
756.90 0.2883
757.00 0.2882
757.10 0.288
757.20 0.2879
757.30 0.2878
757.40 0.2877
757.50 0.2875
757.60 0.2874
757.70 0.2873
757.80 0.2872
757.90 0.287
758.00 0.2869
758.10 0.2868
758.20 0.2867
758.30 0.2866
758.40 0.2864
758.50 0.2863
758.60 0.2862
758.70 0.2861
758.80 0.2859
758.90 0.2858
759.00 0.2857
759.10 0.2856
759.20 0.2855
759.30 0.2853
759.40 0.2852
759.50 0.2851
759.60 0.285
759.70 0.2848
759.80 0.2847
759.90 0.2846
760.00 0.2845
760.10 0.2844
760.20 0.2842
760.30 0.2841
760.40 0.284
760.50 0.2839
760.60 0.2838
760.70 0.2836
760.80 0.2835
760.90 0.2834
761.00 0.2833
761.10 0.2832
761.20 0.283
761.30 0.2829
761.40 0.2828
761.50 0.2827
761.60 0.2826
761.70 0.2824
761.80 0.2823
761.90 0.2822
762.00 0.2821
762.10 0.282
762.20 0.2818
762.30 0.2817
762.40 0.2816
762.50 0.2815
762.60 0.2814
762.70 0.2812
762.80 0.2811
762.90 0.281
763.00 0.2809
763.10 0.2808
763.20 0.2806
763.30 0.2805
763.40 0.2804
763.50 0.2803
763.60 0.2802
763.70 0.2801
763.80 0.2799
763.90 0.2798
764.00 0.2797
764.10 0.2796
764.20 0.2795
764.30 0.2793
764.40 0.2792
764.50 0.2791
764.60 0.279
764.70 0.2789
764.80 0.2787
764.90 0.2786
765.00 0.2785
765.10 0.2784
765.20 0.2783
765.30 0.2782
765.40 0.278
765.50 0.2779
765.60 0.2778
765.70 0.2777
765.80 0.2776
765.90 0.2775
766.00 0.2773
766.10 0.2772
766.20 0.2771
766.30 0.277
766.40 0.2769
766.50 0.2767
766.60 0.2766
766.70 0.2765
766.80 0.2764
766.90 0.2763
767.00 0.2762
767.10 0.276
767.20 0.2759
767.30 0.2758
767.40 0.2757
767.50 0.2756
767.60 0.2755
767.70 0.2753
767.80 0.2752
767.90 0.2751
768.00 0.275
768.10 0.2749
768.20 0.2748
768.30 0.2746
768.40 0.2745
768.50 0.2744
768.60 0.2743
768.70 0.2742
768.80 0.2741
768.90 0.274
769.00 0.2738
769.10 0.2737
769.20 0.2736
769.30 0.2735
769.40 0.2734
769.50 0.2733
769.60 0.2731
769.70 0.273
769.80 0.2729
769.90 0.2728
770.00 0.2727
770.10 0.2726
770.20 0.2725
770.30 0.2723
770.40 0.2722
770.50 0.2721
770.60 0.272
770.70 0.2719
770.80 0.2718
770.90 0.2717
771.00 0.2715
771.10 0.2714
771.20 0.2713
771.30 0.2712
771.40 0.2711
771.50 0.271
771.60 0.2709
771.70 0.2707
771.80 0.2706
771.90 0.2705
772.00 0.2704
772.10 0.2703
772.20 0.2702
772.30 0.2701
772.40 0.2699
772.50 0.2698
772.60 0.2697
772.70 0.2696
772.80 0.2695
772.90 0.2694
773.00 0.2693
773.10 0.2692
773.20 0.269
773.30 0.2689
773.40 0.2688
773.50 0.2687
773.60 0.2686
773.70 0.2685
773.80 0.2684
773.90 0.2683
774.00 0.2681
774.10 0.268
774.20 0.2679
774.30 0.2678
774.40 0.2677
774.50 0.2676
774.60 0.2675
774.70 0.2674
774.80 0.2672
774.90 0.2671
775.00 0.267
775.10 0.2669
775.20 0.2668
775.30 0.2667
775.40 0.2666
775.50 0.2665
775.60 0.2663
775.70 0.2662
775.80 0.2661
775.90 0.266
776.00 0.2659
776.10 0.2658
776.20 0.2657
776.30 0.2656
776.40 0.2655
776.50 0.2653
776.60 0.2652
776.70 0.2651
776.80 0.265
776.90 0.2649
777.00 0.2648
777.10 0.2647
777.20 0.2646
777.30 0.2645
777.40 0.2643
777.50 0.2642
777.60 0.2641
777.70 0.264
777.80 0.2639
777.90 0.2638
778.00 0.2637
778.10 0.2636
778.20 0.2635
778.30 0.2634
778.40 0.2632
778.50 0.2631
778.60 0.263
778.70 0.2629
778.80 0.2628
778.90 0.2627
779.00 0.2626
779.10 0.2625
779.20 0.2624
779.30 0.2622
779.40 0.2621
779.50 0.262
779.60 0.2619
779.70 0.2618
779.80 0.2617
779.90 0.2616
780.00 0.2615
780.10 0.2614
780.20 0.2613
780.30 0.2612
780.40 0.261
780.50 0.2609
780.60 0.2608
780.70 0.2607
780.80 0.2606
780.90 0.2605
781.00 0.2604
781.10 0.2603
781.20 0.2602
781.30 0.2601
781.40 0.26
781.50 0.2599
781.60 0.2598
781.70 0.2596
781.80 0.2595
781.90 0.2594
782.00 0.2593
782.10 0.2592
782.20 0.2591
782.30 0.259
782.40 0.2589
782.50 0.2588
782.60 0.2587
782.70 0.2586
782.80 0.2585
782.90 0.2584
783.00 0.2582
783.10 0.2581
783.20 0.258
783.30 0.2579
783.40 0.2578
783.50 0.2577
783.60 0.2576
783.70 0.2575
783.80 0.2574
783.90 0.2573
784.00 0.2572
784.10 0.2571
784.20 0.257
784.30 0.2569
784.40 0.2567
784.50 0.2566
784.60 0.2565
784.70 0.2564
784.80 0.2563
784.90 0.2562
785.00 0.2561
785.10 0.256
785.20 0.2559
785.30 0.2558
785.40 0.2557
785.50 0.2556
785.60 0.2555
785.70 0.2554
785.80 0.2553
785.90 0.2552
786.00 0.255
786.10 0.2549
786.20 0.2548
786.30 0.2547
786.40 0.2546
786.50 0.2545
786.60 0.2544
786.70 0.2543
786.80 0.2542
786.90 0.2541
787.00 0.254
787.10 0.2539
787.20 0.2538
787.30 0.2537
787.40 0.2536
787.50 0.2535
787.60 0.2534
787.70 0.2533
787.80 0.2532
787.90 0.253
788.00 0.2529
788.10 0.2528
788.20 0.2527
788.30 0.2526
788.40 0.2525
788.50 0.2524
788.60 0.2523
788.70 0.2522
788.80 0.2521
788.90 0.252
789.00 0.2519
789.10 0.2518
789.20 0.2517
789.30 0.2516
789.40 0.2515
789.50 0.2514
789.60 0.2513
789.70 0.2512
789.80 0.2511
789.90 0.251
790.00 0.2509
790.10 0.2507
790.20 0.2506
790.30 0.2505
790.40 0.2504
790.50 0.2503
790.60 0.2502
790.70 0.2501
790.80 0.25
790.90 0.2499
791.00 0.2498
791.10 0.2497
791.20 0.2496
791.30 0.2495
791.40 0.2494
791.50 0.2493
791.60 0.2492
791.70 0.2491
791.80 0.249
791.90 0.2489
792.00 0.2488
792.10 0.2487
792.20 0.2486
792.30 0.2485
792.40 0.2484
792.50 0.2483
792.60 0.2482
792.70 0.2481
792.80 0.248
792.90 0.2479
793.00 0.2478
793.10 0.2477
793.20 0.2476
793.30 0.2475
793.40 0.2474
793.50 0.2473
793.60 0.2472
793.70 0.2471
793.80 0.247
793.90 0.2469
794.00 0.2468
794.10 0.2467
794.20 0.2466
794.30 0.2465
794.40 0.2464
794.50 0.2463
794.60 0.2462
794.70 0.2461
794.80 0.246
794.90 0.2459
795.00 0.2457
795.10 0.2456
795.20 0.2455
795.30 0.2454
795.40 0.2453
795.50 0.2452
795.60 0.2451
795.70 0.245
795.80 0.2449
795.90 0.2448
796.00 0.2447
796.10 0.2446
796.20 0.2445
796.30 0.2444
796.40 0.2443
796.50 0.2442
796.60 0.2441
796.70 0.244
796.80 0.2439
796.90 0.2438
797.00 0.2437
797.10 0.2436
797.20 0.2435
797.30 0.2434
797.40 0.2433
797.50 0.2432
797.60 0.2431
797.70 0.243
797.80 0.2429
797.90 0.2428
798.00 0.2427
798.10 0.2426
798.20 0.2425
798.30 0.2424
798.40 0.2423
798.50 0.2422
798.60 0.2421
798.70 0.242
798.80 0.2419
798.90 0.2418
799.00 0.2417
799.10 0.2416
799.20 0.2415
799.30 0.2414
799.40 0.2413
799.50 0.2412
799.60 0.2411
799.70 0.2411
799.80 0.241
799.90 0.2409
800.00 0.2408
800.10 0.2407
800.20 0.2406
800.30 0.2405
800.40 0.2404
800.50 0.2403
800.60 0.2402
800.70 0.2401
800.80 0.24
800.90 0.2399
801.00 0.2398
801.10 0.2397
801.20 0.2396
801.30 0.2395
801.40 0.2394
801.50 0.2393
801.60 0.2392
801.70 0.2391
801.80 0.239
801.90 0.2389
802.00 0.2388
802.10 0.2387
802.20 0.2386
802.30 0.2385
802.40 0.2384
802.50 0.2383
802.60 0.2382
802.70 0.2381
802.80 0.238
802.90 0.2379
803.00 0.2378
803.10 0.2377
803.20 0.2376
803.30 0.2375
803.40 0.2374
803.50 0.2373
803.60 0.2373
803.70 0.2372
803.80 0.2371
803.90 0.237
804.00 0.2369
804.10 0.2368
804.20 0.2367
804.30 0.2366
804.40 0.2365
804.50 0.2364
804.60 0.2363
804.70 0.2362
804.80 0.2361
804.90 0.236
805.00 0.2359
805.10 0.2358
805.20 0.2357
805.30 0.2356
805.40 0.2355
805.50 0.2354
805.60 0.2353
805.70 0.2352
805.80 0.2351
805.90 0.235
806.00 0.2349
806.10 0.2349
806.20 0.2348
806.30 0.2347
806.40 0.2346
806.50 0.2345
806.60 0.2344
806.70 0.2343
806.80 0.2342
806.90 0.2341
807.00 0.234
807.10 0.2339
807.20 0.2338
807.30 0.2337
807.40 0.2336
807.50 0.2335
807.60 0.2334
807.70 0.2333
807.80 0.2332
807.90 0.2331
808.00 0.233
808.10 0.2329
808.20 0.2329
808.30 0.2328
808.40 0.2327
808.50 0.2326
808.60 0.2325
808.70 0.2324
808.80 0.2323
808.90 0.2322
809.00 0.2321
809.10 0.232
809.20 0.2319
809.30 0.2318
809.40 0.2317
809.50 0.2316
809.60 0.2315
809.70 0.2314
809.80 0.2313
809.90 0.2312
810.00 0.2312
810.10 0.2311
810.20 0.231
810.30 0.2309
810.40 0.2308
810.50 0.2307
810.60 0.2306
810.70 0.2305
810.80 0.2304
810.90 0.2303
811.00 0.2302
811.10 0.2301
811.20 0.23
811.30 0.2299
811.40 0.2299
811.50 0.2298
811.60 0.2297
811.70 0.2296
811.80 0.2295
811.90 0.2294
812.00 0.2293
812.10 0.2292
812.20 0.2291
812.30 0.229
812.40 0.2289
812.50 0.2288
812.60 0.2287
812.70 0.2287
812.80 0.2286
812.90 0.2285
813.00 0.2284
813.10 0.2283
813.20 0.2282
813.30 0.2281
813.40 0.228
813.50 0.2279
813.60 0.2278
813.70 0.2277
813.80 0.2276
813.90 0.2276
814.00 0.2275
814.10 0.2274
814.20 0.2273
814.30 0.2272
814.40 0.2271
814.50 0.227
814.60 0.2269
814.70 0.2268
814.80 0.2267
814.90 0.2266
815.00 0.2265
815.10 0.2265
815.20 0.2264
815.30 0.2263
815.40 0.2262
815.50 0.2261
815.60 0.226
815.70 0.2259
815.80 0.2258
815.90 0.2257
816.00 0.2256
816.10 0.2255
816.20 0.2255
816.30 0.2254
816.40 0.2253
816.50 0.2252
816.60 0.2251
816.70 0.225
816.80 0.2249
816.90 0.2248
817.00 0.2247
817.10 0.2246
817.20 0.2245
817.30 0.2245
817.40 0.2244
817.50 0.2243
817.60 0.2242
817.70 0.2241
817.80 0.224
817.90 0.2239
818.00 0.2238
818.10 0.2237
818.20 0.2236
818.30 0.2236
818.40 0.2235
818.50 0.2234
818.60 0.2233
818.70 0.2232
818.80 0.2231
818.90 0.223
819.00 0.2229
819.10 0.2228
819.20 0.2227
819.30 0.2227
819.40 0.2226
819.50 0.2225
819.60 0.2224
819.70 0.2223
819.80 0.2222
819.90 0.2221
820.00 0.222
820.10 0.2219
820.20 0.2219
820.30 0.2218
820.40 0.2217
820.50 0.2216
820.60 0.2215
820.70 0.2214
820.80 0.2213
820.90 0.2212
821.00 0.2211
821.10 0.2211
821.20 0.221
821.30 0.2209
821.40 0.2208
821.50 0.2207
821.60 0.2206
821.70 0.2205
821.80 0.2204
821.90 0.2203
822.00 0.2203
822.10 0.2202
822.20 0.2201
822.30 0.22
822.40 0.2199
822.50 0.2198
822.60 0.2197
822.70 0.2196
822.80 0.2196
822.90 0.2195
823.00 0.2194
823.10 0.2193
823.20 0.2192
823.30 0.2191
823.40 0.219
823.50 0.2189
823.60 0.2189
823.70 0.2188
823.80 0.2187
823.90 0.2186
824.00 0.2185
824.10 0.2184
824.20 0.2183
824.30 0.2182
824.40 0.2182
824.50 0.2181
824.60 0.218
824.70 0.2179
824.80 0.2178
824.90 0.2177
825.00 0.2176
825.10 0.2176
825.20 0.2175
825.30 0.2174
825.40 0.2173
825.50 0.2172
825.60 0.2171
825.70 0.217
825.80 0.2169
825.90 0.2169
826.00 0.2168
826.10 0.2167
826.20 0.2166
826.30 0.2165
826.40 0.2164
826.50 0.2163
826.60 0.2163
826.70 0.2162
826.80 0.2161
826.90 0.216
827.00 0.2159
827.10 0.2158
827.20 0.2157
827.30 0.2157
827.40 0.2156
827.50 0.2155
827.60 0.2154
827.70 0.2153
827.80 0.2152
827.90 0.2151
828.00 0.2151
828.10 0.215
828.20 0.2149
828.30 0.2148
828.40 0.2147
828.50 0.2146
828.60 0.2145
828.70 0.2145
828.80 0.2144
828.90 0.2143
829.00 0.2142
829.10 0.2141
829.20 0.214
829.30 0.2139
829.40 0.2139
829.50 0.2138
829.60 0.2137
829.70 0.2136
829.80 0.2135
829.90 0.2134
830.00 0.2134
830.10 0.2133
830.20 0.2132
830.30 0.2131
830.40 0.213
830.50 0.2129
830.60 0.2128
830.70 0.2128
830.80 0.2127
830.90 0.2126
831.00 0.2125
831.10 0.2124
831.20 0.2123
831.30 0.2123
831.40 0.2122
831.50 0.2121
831.60 0.212
831.70 0.2119
831.80 0.2118
831.90 0.2117
832.00 0.2117
832.10 0.2116
832.20 0.2115
832.30 0.2114
832.40 0.2113
832.50 0.2112
832.60 0.2112
832.70 0.2111
832.80 0.211
832.90 0.2109
833.00 0.2108
833.10 0.2107
833.20 0.2107
833.30 0.2106
833.40 0.2105
833.50 0.2104
833.60 0.2103
833.70 0.2102
833.80 0.2102
833.90 0.2101
834.00 0.21
834.10 0.2099
834.20 0.2098
834.30 0.2097
834.40 0.2097
834.50 0.2096
834.60 0.2095
834.70 0.2094
834.80 0.2093
834.90 0.2093
835.00 0.2092
835.10 0.2091
835.20 0.209
835.30 0.2089
835.40 0.2088
835.50 0.2088
835.60 0.2087
835.70 0.2086
835.80 0.2085
835.90 0.2084
836.00 0.2083
836.10 0.2083
836.20 0.2082
836.30 0.2081
836.40 0.208
836.50 0.2079
836.60 0.2079
836.70 0.2078
836.80 0.2077
836.90 0.2076
837.00 0.2075
837.10 0.2074
837.20 0.2074
837.30 0.2073
837.40 0.2072
837.50 0.2071
837.60 0.207
837.70 0.207
837.80 0.2069
837.90 0.2068
838.00 0.2067
838.10 0.2066
838.20 0.2065
838.30 0.2065
838.40 0.2064
838.50 0.2063
838.60 0.2062
838.70 0.2061
838.80 0.2061
838.90 0.206
839.00 0.2059
839.10 0.2058
839.20 0.2057
839.30 0.2056
839.40 0.2056
839.50 0.2055
839.60 0.2054
839.70 0.2053
839.80 0.2052
839.90 0.2052
840.00 0.2051
840.10 0.205
840.20 0.2049
840.30 0.2048
840.40 0.2048
840.50 0.2047
840.60 0.2046
840.70 0.2045
840.80 0.2044
840.90 0.2044
841.00 0.2043
841.10 0.2042
841.20 0.2041
841.30 0.204
841.40 0.204
841.50 0.2039
841.60 0.2038
841.70 0.2037
841.80 0.2036
841.90 0.2036
842.00 0.2035
842.10 0.2034
842.20 0.2033
842.30 0.2032
842.40 0.2032
842.50 0.2031
842.60 0.203
842.70 0.2029
842.80 0.2028
842.90 0.2027
843.00 0.2027
843.10 0.2026
843.20 0.2025
843.30 0.2024
843.40 0.2023
843.50 0.2023
843.60 0.2022
843.70 0.2021
843.80 0.202
843.90 0.2019
844.00 0.2019
844.10 0.2018
844.20 0.2017
844.30 0.2016
844.40 0.2015
844.50 0.2015
844.60 0.2014
844.70 0.2013
844.80 0.2012
844.90 0.2011
845.00 0.2011
845.10 0.201
845.20 0.2009
845.30 0.2008
845.40 0.2007
845.50 0.2007
845.60 0.2006
845.70 0.2005
845.80 0.2004
845.90 0.2003
846.00 0.2003
846.10 0.2002
846.20 0.2001
846.30 0.2
846.40 0.1999
846.50 0.1999
846.60 0.1998
846.70 0.1997
846.80 0.1996
846.90 0.1996
847.00 0.1995
847.10 0.1994
847.20 0.1994
847.30 0.1993
847.40 0.1993
847.50 0.1992
847.60 0.1992
847.70 0.1992
847.80 0.1991
847.90 0.1991
848.00 0.199
848.10 0.199
848.20 0.1989
848.30 0.1989
848.40 0.1988
848.50 0.1988
848.60 0.1988
848.70 0.1987
848.80 0.1987
848.90 0.1986
849.00 0.1986
849.10 0.1985
849.20 0.1985
849.30 0.1984
849.40 0.1984
849.50 0.1984
849.60 0.1983
849.70 0.1983
849.80 0.1982
849.90 0.1982
850.00 0.1981
850.10 0.1981
850.20 0.198
850.30 0.198
850.40 0.198
850.50 0.1979
850.60 0.1979
850.70 0.1978
850.80 0.1978
850.90 0.1977
851.00 0.1977
851.10 0.1976
851.20 0.1976
851.30 0.1976
851.40 0.1975
851.50 0.1975
851.60 0.1974
851.70 0.1974
851.80 0.1973
851.90 0.1973
852.00 0.1972
852.10 0.1972
852.20 0.1971
852.30 0.1971
852.40 0.197
852.50 0.197
852.60 0.1969
852.70 0.1969
852.80 0.1968
852.90 0.1968
853.00 0.1967
853.10 0.1967
853.20 0.1966
853.30 0.1966
853.40 0.1965
853.50 0.1964
853.60 0.1964
853.70 0.1963
853.80 0.1963
853.90 0.1962
854.00 0.1962
854.10 0.1961
854.20 0.1961
854.30 0.196
854.40 0.196
854.50 0.1959
854.60 0.1959
854.70 0.1958
854.80 0.1958
854.90 0.1957
855.00 0.1956
855.10 0.1956
855.20 0.1955
855.30 0.1955
855.40 0.1954
855.50 0.1954
855.60 0.1953
855.70 0.1953
855.80 0.1952
855.90 0.1952
856.00 0.1951
856.10 0.1951
856.20 0.195
856.30 0.195
856.40 0.1949
856.50 0.1949
856.60 0.1948
856.70 0.1947
856.80 0.1947
856.90 0.1946
857.00 0.1946
857.10 0.1945
857.20 0.1945
857.30 0.1944
857.40 0.1944
857.50 0.1944
857.60 0.1943
857.70 0.1943
857.80 0.1942
857.90 0.1942
858.00 0.1941
858.10 0.1941
858.20 0.194
858.30 0.194
858.40 0.1939
858.50 0.1939
858.60 0.1938
858.70 0.1938
858.80 0.1937
858.90 0.1937
859.00 0.1937
859.10 0.1936
859.20 0.1936
859.30 0.1935
859.40 0.1935
859.50 0.1934
859.60 0.1934
859.70 0.1933
859.80 0.1933
859.90 0.1932
860.00 0.1932
860.10 0.1931
860.20 0.1931
860.30 0.193
860.40 0.193
860.50 0.193
860.60 0.1929
860.70 0.1929
860.80 0.1928
860.90 0.1928
861.00 0.1927
861.10 0.1927
861.20 0.1926
861.30 0.1926
861.40 0.1925
861.50 0.1925
861.60 0.1924
861.70 0.1924
861.80 0.1923
861.90 0.1923
862.00 0.1923
862.10 0.1922
862.20 0.1921
862.30 0.192
862.40 0.1919
862.50 0.1918
862.60 0.1917
862.70 0.1916
862.80 0.1915
862.90 0.1914
863.00 0.1913
863.10 0.1913
863.20 0.1912
863.30 0.1911
863.40 0.191
863.50 0.1909
863.60 0.1908
863.70 0.1907
863.80 0.1906
863.90 0.1905
864.00 0.1904
864.10 0.1904
864.20 0.1903
864.30 0.1902
864.40 0.1901
864.50 0.19
864.60 0.1899
864.70 0.1898
864.80 0.1897
864.90 0.1896
865.00 0.1895
865.10 0.1894
865.20 0.1894
865.30 0.1893
865.40 0.1892
865.50 0.1891
865.60 0.189
865.70 0.1889
865.80 0.1888
865.90 0.1887
866.00 0.1886
866.10 0.1886
866.20 0.1885
866.30 0.1884
866.40 0.1883
866.50 0.1882
866.60 0.1881
866.70 0.188
866.80 0.1879
866.90 0.1878
867.00 0.1877
867.10 0.1877
867.20 0.1878
867.30 0.1878
867.40 0.1878
867.50 0.1878
867.60 0.1878
867.70 0.1878
867.80 0.1878
867.90 0.1878
868.00 0.1878
868.10 0.1878
868.20 0.1878
868.30 0.1878
868.40 0.1878
868.50 0.1878
868.60 0.1878
868.70 0.1878
868.80 0.1878
868.90 0.1878
869.00 0.1878
869.10 0.1878
869.20 0.1878
869.30 0.1878
869.40 0.1878
869.50 0.1878
869.60 0.1878
869.70 0.1878
869.80 0.1878
869.90 0.1878
870.00 0.1878
870.10 0.1878
870.20 0.1878
870.30 0.1878
870.40 0.1878
870.50 0.1878
870.60 0.1878
870.70 0.1878
870.80 0.1878
870.90 0.1878
871.00 0.1878
871.10 0.1879
871.20 0.1879
871.30 0.1879
871.40 0.1879
871.50 0.1879
871.60 0.1879
871.70 0.1879
871.80 0.1879
871.90 0.1879
872.00 0.1879
872.10 0.1877
872.20 0.1876
872.30 0.1875
872.40 0.1874
872.50 0.1873
872.60 0.1871
872.70 0.187
872.80 0.1869
872.90 0.1868
873.00 0.1866
873.10 0.1865
873.20 0.1864
873.30 0.1863
873.40 0.1861
873.50 0.186
873.60 0.1859
873.70 0.1858
873.80 0.1856
873.90 0.1855
874.00 0.1854
874.10 0.1853
874.20 0.1851
874.30 0.185
874.40 0.1849
874.50 0.1848
874.60 0.1847
874.70 0.1845
874.80 0.1844
874.90 0.1843
875.00 0.1842
875.10 0.184
875.20 0.1839
875.30 0.1838
875.40 0.1837
875.50 0.1835
875.60 0.1834
875.70 0.1833
875.80 0.1832
875.90 0.1831
876.00 0.1829
876.10 0.1828
876.20 0.1827
876.30 0.1826
876.40 0.1824
876.50 0.1823
876.60 0.1822
876.70 0.1821
876.80 0.182
876.90 0.1818
877.00 0.1817
877.10 0.1817
877.20 0.1817
877.30 0.1817
877.40 0.1817
877.50 0.1818
877.60 0.1818
877.70 0.1818
877.80 0.1818
877.90 0.1818
878.00 0.1818
878.10 0.1818
878.20 0.1818
878.30 0.1818
878.40 0.1818
878.50 0.1819
878.60 0.1819
878.70 0.1819
878.80 0.1819
878.90 0.1819
879.00 0.1819
879.10 0.1819
879.20 0.1819
879.30 0.1819
879.40 0.1819
879.50 0.1819
879.60 0.182
879.70 0.182
879.80 0.182
879.90 0.182
880.00 0.182
880.10 0.182
880.20 0.182
880.30 0.182
880.40 0.182
880.50 0.182
880.60 0.182
880.70 0.1821
880.80 0.1821
880.90 0.1821
881.00 0.1821
881.10 0.1821
881.20 0.1821
881.30 0.1821
881.40 0.1821
881.50 0.1821
881.60 0.1821
881.70 0.1821
881.80 0.1822
881.90 0.1822
882.00 0.1822
882.10 0.1818
882.20 0.1814
882.30 0.181
882.40 0.1807
882.50 0.1803
882.60 0.1799
882.70 0.1795
882.80 0.1791
882.90 0.1788
883.00 0.1784
883.10 0.178
883.20 0.1776
883.30 0.1773
883.40 0.1769
883.50 0.1765
883.60 0.1761
883.70 0.1758
883.80 0.1754
883.90 0.175
884.00 0.1746
884.10 0.1742
884.20 0.1739
884.30 0.1735
884.40 0.1731
884.50 0.1727
884.60 0.1724
884.70 0.172
884.80 0.1716
884.90 0.1712
885.00 0.1709
885.10 0.1705
885.20 0.1701
885.30 0.1698
885.40 0.1694
885.50 0.169
885.60 0.1686
885.70 0.1683
885.80 0.1679
885.90 0.1675
886.00 0.1671
886.10 0.1668
886.20 0.1664
886.30 0.166
886.40 0.1657
886.50 0.1653
886.60 0.1649
886.70 0.1645
886.80 0.1642
886.90 0.1638
887.00 0.1634
887.10 0.1637
887.20 0.1639
887.30 0.1642
887.40 0.1645
887.50 0.1647
887.60 0.165
887.70 0.1652
887.80 0.1655
887.90 0.1658
888.00 0.166
888.10 0.1663
888.20 0.1665
888.30 0.1668
888.40 0.1671
888.50 0.1673
888.60 0.1676
888.70 0.1678
888.80 0.1681
888.90 0.1684
889.00 0.1686
889.10 0.1689
889.20 0.1691
889.30 0.1694
889.40 0.1696
889.50 0.1699
889.60 0.1702
889.70 0.1704
889.80 0.1707
889.90 0.1709
890.00 0.1712
890.10 0.1714
890.20 0.1717
890.30 0.172
890.40 0.1722
890.50 0.1725
890.60 0.1727
890.70 0.173
890.80 0.1732
890.90 0.1735
891.00 0.1738
891.10 0.174
891.20 0.1743
891.30 0.1745
891.40 0.1748
891.50 0.175
891.60 0.1753
891.70 0.1755
891.80 0.1758
891.90 0.176
892.00 0.1763
892.10 0.1762
892.20 0.176
892.30 0.1759
892.40 0.1758
892.50 0.1757
892.60 0.1755
892.70 0.1754
892.80 0.1753
892.90 0.1751
893.00 0.175
893.10 0.1749
893.20 0.1747
893.30 0.1746
893.40 0.1745
893.50 0.1744
893.60 0.1742
893.70 0.1741
893.80 0.174
893.90 0.1738
894.00 0.1737
894.10 0.1736
894.20 0.1735
894.30 0.1733
894.40 0.1732
894.50 0.1731
894.60 0.1729
894.70 0.1728
894.80 0.1727
894.90 0.1726
895.00 0.1724
895.10 0.1723
895.20 0.1722
895.30 0.172
895.40 0.1719
895.50 0.1718
895.60 0.1717
895.70 0.1715
895.80 0.1714
895.90 0.1713
896.00 0.1711
896.10 0.171
896.20 0.1709
896.30 0.1708
896.40 0.1706
896.50 0.1705
896.60 0.1704
896.70 0.1703
896.80 0.1701
896.90 0.17
897.00 0.1699
897.10 0.1694
897.20 0.1688
897.30 0.1683
897.40 0.1678
897.50 0.1673
897.60 0.1668
897.70 0.1663
897.80 0.1658
897.90 0.1652
898.00 0.1647
898.10 0.1642
898.20 0.1637
898.30 0.1632
898.40 0.1627
898.50 0.1622
898.60 0.1617
898.70 0.1612
898.80 0.1606
898.90 0.1601
899.00 0.1596
899.10 0.1591
899.20 0.1586
899.30 0.1581
899.40 0.1576
899.50 0.1571
899.60 0.1566
899.70 0.1561
899.80 0.1556
899.90 0.155
900.00 0.1545
900.10 0.154
900.20 0.1535
900.30 0.153
900.40 0.1525
900.50 0.152
900.60 0.1515
900.70 0.151
900.80 0.1505
900.90 0.15
901.00 0.1495
901.10 0.149
901.20 0.1485
901.30 0.148
901.40 0.1475
901.50 0.1469
901.60 0.1464
901.70 0.1459
901.80 0.1454
901.90 0.1449
902.00 0.1444
902.10 0.1448
902.20 0.1452
902.30 0.1456
902.40 0.146
902.50 0.1464
902.60 0.1468
902.70 0.1472
902.80 0.1476
902.90 0.148
903.00 0.1484
903.10 0.1488
903.20 0.1492
903.30 0.1496
903.40 0.15
903.50 0.1504
903.60 0.1508
903.70 0.1512
903.80 0.1516
903.90 0.152
904.00 0.1524
904.10 0.1528
904.20 0.1532
904.30 0.1536
904.40 0.154
904.50 0.1544
904.60 0.1548
904.70 0.1552
904.80 0.1556
904.90 0.156
905.00 0.1564
905.10 0.1568
905.20 0.1572
905.30 0.1576
905.40 0.158
905.50 0.1584
905.60 0.1588
905.70 0.1591
905.80 0.1595
905.90 0.1599
906.00 0.1603
906.10 0.1607
906.20 0.1611
906.30 0.1615
906.40 0.1619
906.50 0.1623
906.60 0.1627
906.70 0.1631
906.80 0.1635
906.90 0.1639
907.00 0.1643
907.10 0.1643
907.20 0.1644
907.30 0.1644
907.40 0.1645
907.50 0.1645
907.60 0.1646
907.70 0.1646
907.80 0.1647
907.90 0.1647
908.00 0.1648
908.10 0.1648
908.20 0.1649
908.30 0.1649
908.40 0.165
908.50 0.165
908.60 0.1651
908.70 0.1651
908.80 0.1652
908.90 0.1652
909.00 0.1653
909.10 0.1653
909.20 0.1654
909.30 0.1654
909.40 0.1655
909.50 0.1655
909.60 0.1656
909.70 0.1656
909.80 0.1657
909.90 0.1657
910.00 0.1658
910.10 0.1658
910.20 0.1659
910.30 0.1659
910.40 0.166
910.50 0.166
910.60 0.1661
910.70 0.1661
910.80 0.1662
910.90 0.1662
911.00 0.1663
911.10 0.1663
911.20 0.1664
911.30 0.1664
911.40 0.1665
911.50 0.1665
911.60 0.1666
911.70 0.1666
911.80 0.1667
911.90 0.1667
912.00 0.1668
912.10 0.1665
912.20 0.1663
912.30 0.1661
912.40 0.1659
912.50 0.1657
912.60 0.1655
912.70 0.1653
912.80 0.1651
912.90 0.1648
913.00 0.1646
913.10 0.1644
913.20 0.1642
913.30 0.164
913.40 0.1638
913.50 0.1636
913.60 0.1634
913.70 0.1632
913.80 0.163
913.90 0.1627
914.00 0.1625
914.10 0.1623
914.20 0.1621
914.30 0.1619
914.40 0.1617
914.50 0.1615
914.60 0.1613
914.70 0.1611
914.80 0.1609
914.90 0.1606
915.00 0.1604
915.10 0.1602
915.20 0.16
915.30 0.1598
915.40 0.1596
915.50 0.1594
915.60 0.1592
915.70 0.159
915.80 0.1588
915.90 0.1586
916.00 0.1584
916.10 0.1581
916.20 0.1579
916.30 0.1577
916.40 0.1575
916.50 0.1573
916.60 0.1571
916.70 0.1569
916.80 0.1567
916.90 0.1565
917.00 0.1563
917.10 0.1556
917.20 0.155
917.30 0.1543
917.40 0.1537
917.50 0.153
917.60 0.1524
917.70 0.1517
917.80 0.1511
917.90 0.1504
918.00 0.1498
918.10 0.1491
918.20 0.1485
918.30 0.1479
918.40 0.1472
918.50 0.1466
918.60 0.1459
918.70 0.1453
918.80 0.1446
918.90 0.144
919.00 0.1433
919.10 0.1427
919.20 0.1421
919.30 0.1414
919.40 0.1408
919.50 0.1401
919.60 0.1395
919.70 0.1388
919.80 0.1382
919.90 0.1376
920.00 0.1369
920.10 0.1363
920.20 0.1356
920.30 0.135
920.40 0.1344
920.50 0.1337
920.60 0.1331
920.70 0.1324
920.80 0.1318
920.90 0.1312
921.00 0.1305
921.10 0.1299
921.20 0.1292
921.30 0.1286
921.40 0.128
921.50 0.1273
921.60 0.1267
921.70 0.1261
921.80 0.1254
921.90 0.1248
922.00 0.1241
922.10 0.1245
922.20 0.1248
922.30 0.1252
922.40 0.1255
922.50 0.1259
922.60 0.1262
922.70 0.1265
922.80 0.1269
922.90 0.1272
923.00 0.1276
923.10 0.1279
923.20 0.1282
923.30 0.1286
923.40 0.1289
923.50 0.1293
923.60 0.1296
923.70 0.13
923.80 0.1303
923.90 0.1306
924.00 0.131
924.10 0.1313
924.20 0.1317
924.30 0.132
924.40 0.1323
924.50 0.1327
924.60 0.133
924.70 0.1333
924.80 0.1337
924.90 0.134
925.00 0.1344
925.10 0.1347
925.20 0.135
925.30 0.1354
925.40 0.1357
925.50 0.1361
925.60 0.1364
925.70 0.1367
925.80 0.1371
925.90 0.1374
926.00 0.1377
926.10 0.1381
926.20 0.1384
926.30 0.1388
926.40 0.1391
926.50 0.1394
926.60 0.1398
926.70 0.1401
926.80 0.1404
926.90 0.1408
927.00 0.1411
927.10 0.1413
927.20 0.1416
927.30 0.1418
927.40 0.142
927.50 0.1422
927.60 0.1425
927.70 0.1427
927.80 0.1429
927.90 0.1431
928.00 0.1434
928.10 0.1436
928.20 0.1438
928.30 0.144
928.40 0.1443
928.50 0.1445
928.60 0.1447
928.70 0.1449
928.80 0.1452
928.90 0.1454
929.00 0.1456
929.10 0.1458
929.20 0.1461
929.30 0.1463
929.40 0.1465
929.50 0.1467
929.60 0.147
929.70 0.1472
929.80 0.1474
929.90 0.1476
930.00 0.1479
930.10 0.1481
930.20 0.1483
930.30 0.1485
930.40 0.1487
930.50 0.149
930.60 0.1492
930.70 0.1494
930.80 0.1496
930.90 0.1499
931.00 0.1501
931.10 0.1503
931.20 0.1505
931.30 0.1507
931.40 0.151
931.50 0.1512
931.60 0.1514
931.70 0.1516
931.80 0.1519
931.90 0.1521
932.00 0.1523
932.10 0.1524
932.20 0.1524
932.30 0.1525
932.40 0.1525
932.50 0.1526
932.60 0.1527
932.70 0.1527
932.80 0.1528
932.90 0.1529
933.00 0.1529
933.10 0.153
933.20 0.153
933.30 0.1531
933.40 0.1532
933.50 0.1532
933.60 0.1533
933.70 0.1533
933.80 0.1534
933.90 0.1535
934.00 0.1535
934.10 0.1536
934.20 0.1536
934.30 0.1537
934.40 0.1537
934.50 0.1537
934.60 0.1537
934.70 0.1537
934.80 0.1537
934.90 0.1537
935.00 0.1537
935.10 0.1537
935.20 0.1537
935.30 0.1537
935.40 0.1537
935.50 0.1537
935.60 0.1537
935.70 0.1537
935.80 0.1537
935.90 0.1537
936.00 0.1537
936.10 0.1537
936.20 0.1537
936.30 0.1537
936.40 0.1537
936.50 0.1537
936.60 0.1537
936.70 0.1537
936.80 0.1537
936.90 0.1537
937.00 0.1537
937.10 0.1536
937.20 0.1536
937.30 0.1536
937.40 0.1535
937.50 0.1535
937.60 0.1535
937.70 0.1534
937.80 0.1534
937.90 0.1533
938.00 0.1533
938.10 0.1533
938.20 0.1532
938.30 0.1532
938.40 0.1531
938.50 0.153
938.60 0.153
938.70 0.1529
938.80 0.1528
938.90 0.1528
939.00 0.1527
939.10 0.1526
939.20 0.1526
939.30 0.1525
939.40 0.1524
939.50 0.1523
939.60 0.1523
939.70 0.1522
939.80 0.1521
939.90 0.1521
940.00 0.152
940.10 0.1519
940.20 0.1519
940.30 0.1518
940.40 0.1517
940.50 0.1516
940.60 0.1515
940.70 0.1514
940.80 0.1512
940.90 0.1511
941.00 0.151
941.10 0.1509
941.20 0.1508
941.30 0.1507
941.40 0.1506
941.50 0.1505
941.60 0.1504
941.70 0.1503
941.80 0.1502
941.90 0.1501
942.00 0.15
942.10 0.1498
942.20 0.1497
942.30 0.1496
942.40 0.1494
942.50 0.1492
942.60 0.1491
942.70 0.1489
942.80 0.1487
942.90 0.1486
943.00 0.1484
943.10 0.1483
943.20 0.1481
943.30 0.1479
943.40 0.1478
943.50 0.1476
943.60 0.1474
943.70 0.1473
943.80 0.1471
943.90 0.147
944.00 0.1468
944.10 0.1466
944.20 0.1465
944.30 0.1463
944.40 0.1461
944.50 0.1459
944.60 0.1457
944.70 0.1454
944.80 0.1452
944.90 0.145
945.00 0.1448
945.10 0.1446
945.20 0.1444
945.30 0.1441
945.40 0.1439
945.50 0.1436
945.60 0.1433
945.70 0.1431
945.80 0.1428
945.90 0.1425
946.00 0.1422
946.10 0.142
946.20 0.1417
946.30 0.1414
946.40 0.1412
946.50 0.1409
946.60 0.1406
946.70 0.1403
946.80 0.1401
946.90 0.1398
947.00 0.1395
947.10 0.1392
947.20 0.1389
947.30 0.1386
947.40 0.1382
947.50 0.1378
947.60 0.1374
947.70 0.137
947.80 0.1366
947.90 0.1362
948.00 0.1359
948.10 0.1355
948.20 0.1351
948.30 0.1347
948.40 0.1343
948.50 0.1339
948.60 0.1335
948.70 0.1332
948.80 0.1328
948.90 0.1324
949.00 0.132
949.10 0.1316
949.20 0.1312
949.30 0.1309
949.40 0.1303
949.50 0.1298
949.60 0.1293
949.70 0.1288
949.80 0.1283
949.90 0.1277
950.00 0.1272
950.10 0.1267
950.20 0.1262
950.30 0.1257
950.40 0.1252
950.50 0.1247
950.60 0.1241
950.70 0.1236
950.80 0.1231
950.90 0.1226
951.00 0.1221
951.10 0.1216
951.20 0.1211
951.30 0.1205
951.40 0.1199
951.50 0.1193
951.60 0.1187
951.70 0.1181
951.80 0.1175
951.90 0.1169
952.00 0.1162
952.10 0.1156
952.20 0.1149
952.30 0.1142
952.40 0.1136
952.50 0.1129
952.60 0.1123
952.70 0.1116
952.80 0.1109
952.90 0.1102
953.00 0.1096
953.10 0.1089
953.20 0.1082
953.30 0.1075
953.40 0.1068
953.50 0.1061
953.60 0.1056
953.70 0.105
953.80 0.1044
953.90 0.1039
954.00 0.1038
954.10 0.1036
954.20 0.1043
954.30 0.1062
954.40 0.1041
954.50 0.1034
954.60 0.1035
954.70 0.1036
954.80 0.1041
954.90 0.1046
955.00 0.1051
955.10 0.1056
955.20 0.1062
955.30 0.1068
955.40 0.1074
955.50 0.108
955.60 0.1086
955.70 0.1092
955.80 0.1098
955.90 0.1104
956.00 0.111
956.10 0.1115
956.20 0.1121
956.30 0.1127
956.40 0.1132
956.50 0.1138
956.60 0.1144
956.70 0.1149
956.80 0.1155
956.90 0.116
957.00 0.1166
957.10 0.1171
957.20 0.1176
957.30 0.1181
957.40 0.1185
957.50 0.1189
957.60 0.1193
957.70 0.1197
957.80 0.1201
957.90 0.1206
958.00 0.121
958.10 0.1214
958.20 0.1218
958.30 0.1222
958.40 0.1226
958.50 0.123
958.60 0.1234
958.70 0.1238
958.80 0.1242
958.90 0.1246
959.00 0.125
959.10 0.1254
959.20 0.1258
959.30 0.1262
959.40 0.1265
959.50 0.1268
959.60 0.127
959.70 0.1273
959.80 0.1276
959.90 0.1279
960.00 0.1281
960.10 0.1284
960.20 0.1287
960.30 0.1289
960.40 0.1292
960.50 0.1295
960.60 0.1297
960.70 0.13
960.80 0.1303
960.90 0.1305
961.00 0.1308
961.10 0.1311
961.20 0.1313
961.30 0.1316
961.40 0.1318
961.50 0.132
961.60 0.1322
961.70 0.1324
961.80 0.1326
961.90 0.1328
962.00 0.133
962.10 0.1331
962.20 0.1333
962.30 0.1334
962.40 0.1336
962.50 0.1337
962.60 0.1339
962.70 0.134
962.80 0.1342
962.90 0.1344
963.00 0.1345
963.10 0.1347
963.20 0.1348
963.30 0.135
963.40 0.1351
963.50 0.1352
963.60 0.1353
963.70 0.1354
963.80 0.1355
963.90 0.1356
964.00 0.1357
964.10 0.1359
964.20 0.136
964.30 0.1361
964.40 0.1362
964.50 0.1362
964.60 0.1363
964.70 0.1364
964.80 0.1364
964.90 0.1365
965.00 0.1366
965.10 0.1367
965.20 0.1367
965.30 0.1368
965.40 0.1369
965.50 0.1369
965.60 0.137
965.70 0.1371
965.80 0.1372
965.90 0.1372
966.00 0.1373
966.10 0.1374
966.20 0.1374
966.30 0.1375
966.40 0.1376
966.50 0.1376
966.60 0.1376
966.70 0.1377
966.80 0.1377
966.90 0.1378
967.00 0.1378
967.10 0.1378
967.20 0.1379
967.30 0.1379
967.40 0.1379
967.50 0.138
967.60 0.138
967.70 0.138
967.80 0.138
967.90 0.1381
968.00 0.1381
968.10 0.1381
968.20 0.1382
968.30 0.1382
968.40 0.1382
968.50 0.1382
968.60 0.1382
968.70 0.1382
968.80 0.1382
968.90 0.1382
969.00 0.1382
969.10 0.1382
969.20 0.1382
969.30 0.1382
969.40 0.1383
969.50 0.1383
969.60 0.1383
969.70 0.1383
969.80 0.1383
969.90 0.1383
970.00 0.1383
970.10 0.1383
970.20 0.1383
970.30 0.1383
970.40 0.1383
970.50 0.1383
970.60 0.1383
970.70 0.1383
970.80 0.1383
970.90 0.1383
971.00 0.1382
971.10 0.1382
971.20 0.1382
971.30 0.1382
971.40 0.1382
971.50 0.1382
971.60 0.1382
971.70 0.1382
971.80 0.1382
971.90 0.1382
972.00 0.1382
972.10 0.1381
972.20 0.1381
972.30 0.1381
972.40 0.1381
972.50 0.1381
972.60 0.138
972.70 0.138
972.80 0.138
972.90 0.138
973.00 0.1379
973.10 0.1379
973.20 0.1379
973.30 0.1379
973.40 0.1378
973.50 0.1378
973.60 0.1378
973.70 0.1378
973.80 0.1378
973.90 0.1377
974.00 0.1377
974.10 0.1377
974.20 0.1377
974.30 0.1376
974.40 0.1376
974.50 0.1376
974.60 0.1375
974.70 0.1375
974.80 0.1375
974.90 0.1374
975.00 0.1374
975.10 0.1374
975.20 0.1373
975.30 0.1373
975.40 0.1373
975.50 0.1372
975.60 0.1372
975.70 0.1372
975.80 0.1371
975.90 0.1371
976.00 0.1371
976.10 0.137
976.20 0.137
976.30 0.137
976.40 0.1369
976.50 0.1369
976.60 0.1369
976.70 0.1368
976.80 0.1368
976.90 0.1368
977.00 0.1367
977.10 0.1367
977.20 0.1366
977.30 0.1366
977.40 0.1365
977.50 0.1365
977.60 0.1364
977.70 0.1364
977.80 0.1363
977.90 0.1363
978.00 0.1362
978.10 0.1362
978.20 0.1362
978.30 0.1361
978.40 0.1361
978.50 0.136
978.60 0.136
978.70 0.1359
978.80 0.1359
978.90 0.1358
979.00 0.1358
979.10 0.1357
979.20 0.1357
979.30 0.1356
979.40 0.1356
979.50 0.1355
979.60 0.1355
979.70 0.1354
979.80 0.1354
979.90 0.1353
980.00 0.1353
980.10 0.1352
980.20 0.1352
980.30 0.1351
980.40 0.1351
980.50 0.135
980.60 0.135
980.70 0.1349
980.80 0.1349
980.90 0.1348
981.00 0.1348
981.10 0.1347
981.20 0.1347
981.30 0.1347
981.40 0.1346
981.50 0.1346
981.60 0.1345
981.70 0.1345
981.80 0.1344
981.90 0.1344
982.00 0.1343
982.10 0.1343
982.20 0.1342
982.30 0.1341
982.40 0.1341
982.50 0.134
982.60 0.1339
982.70 0.1339
982.80 0.1338
982.90 0.1338
983.00 0.1337
983.10 0.1336
983.20 0.1336
983.30 0.1335
983.40 0.1335
983.50 0.1334
983.60 0.1333
983.70 0.1333
983.80 0.1332
983.90 0.1331
984.00 0.1331
984.10 0.133
984.20 0.133
984.30 0.1329
984.40 0.1328
984.50 0.1328
984.60 0.1327
984.70 0.1326
984.80 0.1326
984.90 0.1325
985.00 0.1324
985.10 0.1323
985.20 0.1323
985.30 0.1322
985.40 0.1321
985.50 0.132
985.60 0.132
985.70 0.1319
985.80 0.1318
985.90 0.1317
986.00 0.1317
986.10 0.1316
986.20 0.1315
986.30 0.1314
986.40 0.1314
986.50 0.1313
986.60 0.1312
986.70 0.1311
986.80 0.1311
986.90 0.131
987.00 0.1309
987.10 0.1308
987.20 0.1307
987.30 0.1306
987.40 0.1306
987.50 0.1305
987.60 0.1304
987.70 0.1303
987.80 0.1302
987.90 0.1301
988.00 0.13
988.10 0.13
988.20 0.1299
988.30 0.1298
988.40 0.1297
988.50 0.1296
988.60 0.1295
988.70 0.1294
988.80 0.1293
988.90 0.1292
989.00 0.1291
989.10 0.129
989.20 0.1289
989.30 0.1288
989.40 0.1287
989.50 0.1286
989.60 0.1285
989.70 0.1284
989.80 0.1283
989.90 0.1282
990.00 0.1281
990.10 0.128
990.20 0.1279
990.30 0.1278
990.40 0.1277
990.50 0.1276
990.60 0.1275
990.70 0.1273
990.80 0.1272
990.90 0.1271
991.00 0.127
991.10 0.1268
991.20 0.1267
991.30 0.1266
991.40 0.1265
991.50 0.1263
991.60 0.1262
991.70 0.1261
991.80 0.126
991.90 0.1258
992.00 0.1257
992.10 0.1256
992.20 0.1254
992.30 0.1253
992.40 0.1252
992.50 0.125
992.60 0.1249
992.70 0.1247
992.80 0.1246
992.90 0.1244
993.00 0.1243
993.10 0.1241
993.20 0.1239
993.30 0.1238
993.40 0.1236
993.50 0.1234
993.60 0.1233
993.70 0.1231
993.80 0.123
993.90 0.1228
994.00 0.1226
994.10 0.1225
994.20 0.1223
994.30 0.1221
994.40 0.122
994.50 0.1218
994.60 0.1217
994.70 0.1215
994.80 0.1213
994.90 0.1211
995.00 0.1209
995.10 0.1207
995.20 0.1205
995.30 0.1203
995.40 0.1201
995.50 0.1199
995.60 0.1197
995.70 0.1195
995.80 0.1193
995.90 0.119
996.00 0.1188
996.10 0.1185
996.20 0.1183
996.30 0.1181
996.40 0.1178
996.50 0.1176
996.60 0.1174
996.70 0.1171
996.80 0.1169
996.90 0.1167
997.00 0.1164
997.10 0.1162
997.20 0.1159
997.30 0.1156
997.40 0.1154
997.50 0.1151
997.60 0.1148
997.70 0.1145
997.80 0.1142
997.90 0.1139
998.00 0.1136
998.10 0.1132
998.20 0.1129
998.30 0.1126
998.40 0.1123
998.50 0.1119
998.60 0.1116
998.70 0.1113
998.80 0.111
998.90 0.1107
999.00 0.1103
999.10 0.11
999.20 0.1097
999.30 0.1094
999.40 0.1091
999.50 0.1087
999.60 0.1084
999.70 0.108
999.80 0.1076
999.90 0.1072
1000.00 0.1068
1000.10 0.1063
1000.20 0.1059
1000.30 0.1055
1000.40 0.1051
1000.50 0.1047
1000.60 0.1042
1000.70 0.1038
1000.80 0.1034
1000.90 0.103
1001.00 0.1026
1001.10 0.1021
1001.20 0.1017
1001.30 0.1013
1001.40 0.1009
1001.50 0.1005
1001.60 0.1001
1001.70 0.09958
1001.80 0.09909
1001.90 0.0986
1002.00 0.09811
1002.10 0.09757
1002.20 0.09702
1002.30 0.09647
1002.40 0.09593
1002.50 0.09538
1002.60 0.09484
1002.70 0.09429
1002.80 0.09374
1002.90 0.0932
1003.00 0.09265
1003.10 0.09211
1003.20 0.0915
1003.30 0.09086
1003.40 0.09023
1003.50 0.0896
1003.60 0.08897
1003.70 0.08834
1003.80 0.0877
1003.90 0.08701
1004.00 0.0863
1004.10 0.08559
1004.20 0.08487
1004.30 0.08412
1004.40 0.08336
1004.50 0.08269
1004.60 0.08303
1004.70 0.08251
1004.80 0.08292
1004.90 0.08363
1005.00 0.08434
1005.10 0.08501
1005.20 0.08567
1005.30 0.08633
1005.40 0.08698
1005.50 0.08758
1005.60 0.08815
1005.70 0.08872
1005.80 0.08929
1005.90 0.08986
1006.00 0.09044
1006.10 0.09101
1006.20 0.09152
1006.30 0.09201
1006.40 0.0925
1006.50 0.09299
1006.60 0.09348
1006.70 0.09397
1006.80 0.09445
1006.90 0.09494
1007.00 0.09543
1007.10 0.09586
1007.20 0.09629
1007.30 0.09671
1007.40 0.09714
1007.50 0.09757
1007.60 0.09799
1007.70 0.09835
1007.80 0.0987
1007.90 0.09904
1008.00 0.09938
1008.10 0.09972
1008.20 0.1001
1008.30 0.1004
1008.40 0.1007
1008.50 0.1011
1008.60 0.1014
1008.70 0.1018
1008.80 0.1021
1008.90 0.1024
1009.00 0.1028
1009.10 0.1031
1009.20 0.1035
1009.30 0.1038
1009.40 0.1041
1009.50 0.1045
1009.60 0.1048
1009.70 0.1051
1009.80 0.1053
1009.90 0.1056
1010.00 0.1058
1010.10 0.106
1010.20 0.1063
1010.30 0.1065
1010.40 0.1068
1010.50 0.107
1010.60 0.1072
1010.70 0.1075
1010.80 0.1077
1010.90 0.108
1011.00 0.1082
1011.10 0.1084
1011.20 0.1087
1011.30 0.1089
1011.40 0.1091
1011.50 0.1094
1011.60 0.1096
1011.70 0.1098
1011.80 0.11
1011.90 0.1102
1012.00 0.1104
1012.10 0.1105
1012.20 0.1107
1012.30 0.1108
1012.40 0.111
1012.50 0.1111
1012.60 0.1113
1012.70 0.1114
1012.80 0.1116
1012.90 0.1117
1013.00 0.1119
1013.10 0.112
1013.20 0.1122
1013.30 0.1123
1013.40 0.1125
1013.50 0.1126
1013.60 0.1128
1013.70 0.1129
1013.80 0.113
1013.90 0.1131
1014.00 0.1132
1014.10 0.1133
1014.20 0.1134
1014.30 0.1135
1014.40 0.1137
1014.50 0.1138
1014.60 0.1139
1014.70 0.114
1014.80 0.114
1014.90 0.1141
1015.00 0.1142
1015.10 0.1143
1015.20 0.1143
1015.30 0.1144
1015.40 0.1145
1015.50 0.1146
1015.60 0.1146
1015.70 0.1147
1015.80 0.1148
1015.90 0.1149
1016.00 0.1149
1016.10 0.115
1016.20 0.1151
1016.30 0.1152
1016.40 0.1152
1016.50 0.1153
1016.60 0.1154
1016.70 0.1154
1016.80 0.1155
1016.90 0.1155
1017.00 0.1156
1017.10 0.1156
1017.20 0.1157
1017.30 0.1157
1017.40 0.1158
1017.50 0.1158
1017.60 0.1158
1017.70 0.1159
1017.80 0.1159
1017.90 0.1159
1018.00 0.116
1018.10 0.116
1018.20 0.1161
1018.30 0.1161
1018.40 0.1161
1018.50 0.1162
1018.60 0.1162
1018.70 0.1162
1018.80 0.1163
1018.90 0.1163
1019.00 0.1163
1019.10 0.1163
1019.20 0.1163
1019.30 0.1163
1019.40 0.1164
1019.50 0.1164
1019.60 0.1164
1019.70 0.1164
1019.80 0.1164
1019.90 0.1164
1020.00 0.1165
1020.10 0.1165
1020.20 0.1165
1020.30 0.1165
1020.40 0.1165
1020.50 0.1166
1020.60 0.1166
1020.70 0.1166
1020.80 0.1166
1020.90 0.1166
1021.00 0.1166
1021.10 0.1166
1021.20 0.1166
1021.30 0.1166
1021.40 0.1166
1021.50 0.1166
1021.60 0.1166
1021.70 0.1166
1021.80 0.1166
1021.90 0.1166
1022.00 0.1166
1022.10 0.1166
1022.20 0.1166
1022.30 0.1166
1022.40 0.1166
1022.50 0.1166
1022.60 0.1166
1022.70 0.1166
1022.80 0.1166
1022.90 0.1166
1023.00 0.1166
1023.10 0.1166
1023.20 0.1165
1023.30 0.1165
1023.40 0.1165
1023.50 0.1165
1023.60 0.1165
1023.70 0.1165
1023.80 0.1165
1023.90 0.1165
1024.00 0.1165
1024.10 0.1165
1024.20 0.1165
1024.30 0.1165
1024.40 0.1164
1024.50 0.1164
1024.60 0.1164
1024.70 0.1164
1024.80 0.1164
1024.90 0.1164
1025.00 0.1164
1025.10 0.1163
1025.20 0.1163
1025.30 0.1163
1025.40 0.1163
1025.50 0.1163
1025.60 0.1163
1025.70 0.1162
1025.80 0.1162
1025.90 0.1162
1026.00 0.1162
1026.10 0.1162
1026.20 0.1162
1026.30 0.1161
1026.40 0.1161
1026.50 0.1161
1026.60 0.1161
1026.70 0.1161
1026.80 0.1161
1026.90 0.116
1027.00 0.116
1027.10 0.116
1027.20 0.116
1027.30 0.116
1027.40 0.1159
1027.50 0.1159
1027.60 0.1159
1027.70 0.1158
1027.80 0.1158
1027.90 0.1158
1028.00 0.1158
1028.10 0.1157
1028.20 0.1157
1028.30 0.1157
1028.40 0.1157
1028.50 0.1156
1028.60 0.1156
1028.70 0.1156
1028.80 0.1156
1028.90 0.1155
1029.00 0.1155
1029.10 0.1155
1029.20 0.1155
1029.30 0.1154
1029.40 0.1154
1029.50 0.1154
1029.60 0.1154
1029.70 0.1153
1029.80 0.1153
1029.90 0.1153
1030.00 0.1152
1030.10 0.1152
1030.20 0.1152
1030.30 0.1152
1030.40 0.1151
1030.50 0.1151
1030.60 0.1151
1030.70 0.1151
1030.80 0.115
1030.90 0.115
1031.00 0.115
1031.10 0.115
1031.20 0.1149
1031.30 0.1149
1031.40 0.1149
1031.50 0.1149
1031.60 0.1148
1031.70 0.1148
1031.80 0.1148
1031.90 0.1148
1032.00 0.1147
1032.10 0.1147
1032.20 0.1147
1032.30 0.1146
1032.40 0.1146
1032.50 0.1146
1032.60 0.1145
1032.70 0.1145
1032.80 0.1145
1032.90 0.1144
1033.00 0.1144
1033.10 0.1144
1033.20 0.1144
1033.30 0.1143
1033.40 0.1143
1033.50 0.1143
1033.60 0.1142
1033.70 0.1142
1033.80 0.1142
1033.90 0.1141
1034.00 0.1141
1034.10 0.1141
1034.20 0.114
1034.30 0.114
1034.40 0.114
1034.50 0.1139
1034.60 0.1139
1034.70 0.1139
1034.80 0.1138
1034.90 0.1138
1035.00 0.1138
1035.10 0.1138
1035.20 0.1137
1035.30 0.1137
1035.40 0.1137
1035.50 0.1136
1035.60 0.1136
1035.70 0.1136
1035.80 0.1135
1035.90 0.1135
1036.00 0.1135
1036.10 0.1134
1036.20 0.1134
1036.30 0.1134
1036.40 0.1133
1036.50 0.1133
1036.60 0.1133
1036.70 0.1133
1036.80 0.1132
1036.90 0.1132
1037.00 0.1132
1037.10 0.1131
1037.20 0.1131
1037.30 0.1131
1037.40 0.113
1037.50 0.113
1037.60 0.113
1037.70 0.1129
1037.80 0.1129
1037.90 0.1129
1038.00 0.1128
1038.10 0.1128
1038.20 0.1127
1038.30 0.1127
1038.40 0.1127
1038.50 0.1126
1038.60 0.1126
1038.70 0.1126
1038.80 0.1125
1038.90 0.1125
1039.00 0.1125
1039.10 0.1124
1039.20 0.1124
1039.30 0.1124
1039.40 0.1123
1039.50 0.1123
1039.60 0.1123
1039.70 0.1122
1039.80 0.1122
1039.90 0.1122
1040.00 0.1121
1040.10 0.1121
1040.20 0.1121
1040.30 0.112
1040.40 0.112
1040.50 0.112
1040.60 0.1119
1040.70 0.1119
1040.80 0.1119
1040.90 0.1118
1041.00 0.1118
1041.10 0.1118
1041.20 0.1117
1041.30 0.1117
1041.40 0.1117
1041.50 0.1116
1041.60 0.1116
1041.70 0.1116
1041.80 0.1115
1041.90 0.1115
1042.00 0.1115
1042.10 0.1114
1042.20 0.1114
1042.30 0.1113
1042.40 0.1113
1042.50 0.1113
1042.60 0.1112
1042.70 0.1112
1042.80 0.1112
1042.90 0.1111
1043.00 0.1111
1043.10 0.1111
1043.20 0.111
1043.30 0.111
1043.40 0.111
1043.50 0.1109
1043.60 0.1109
1043.70 0.1108
1043.80 0.1108
1043.90 0.1108
1044.00 0.1107
1044.10 0.1107
1044.20 0.1107
1044.30 0.1106
1044.40 0.1106
1044.50 0.1106
1044.60 0.1105
1044.70 0.1105
1044.80 0.1105
1044.90 0.1104
1045.00 0.1104
1045.10 0.1104
1045.20 0.1103
1045.30 0.1103
1045.40 0.1102
1045.50 0.1102
1045.60 0.1102
1045.70 0.1101
1045.80 0.1101
1045.90 0.1101
1046.00 0.11
1046.10 0.11
1046.20 0.11
1046.30 0.1099
1046.40 0.1099
1046.50 0.1099
1046.60 0.1098
1046.70 0.1098
1046.80 0.1098
1046.90 0.1097
1047.00 0.1097
1047.10 0.1096
1047.20 0.1096
1047.30 0.1096
1047.40 0.1095
1047.50 0.1095
1047.60 0.1095
1047.70 0.1094
1047.80 0.1094
1047.90 0.1094
1048.00 0.1093
1048.10 0.1093
1048.20 0.1092
1048.30 0.1092
1048.40 0.1092
1048.50 0.1091
1048.60 0.1091
1048.70 0.1091
1048.80 0.109
1048.90 0.109
1049.00 0.109
1049.10 0.1089
1049.20 0.1089
1049.30 0.1089
1049.40 0.1088
1049.50 0.1088
1049.60 0.1087
1049.70 0.1087
1049.80 0.1087
1049.90 0.1086
1050.00 0.1086
1050.10 0.1086
1050.20 0.1085
1050.30 0.1085
1050.40 0.1085
1050.50 0.1084
1050.60 0.1084
1050.70 0.1083
1050.80 0.1083
1050.90 0.1083
1051.00 0.1082
1051.10 0.1082
1051.20 0.1082
1051.30 0.1081
1051.40 0.1081
1051.50 0.1081
1051.60 0.108
1051.70 0.108
1051.80 0.108
1051.90 0.1079
1052.00 0.1079
1052.10 0.1078
1052.20 0.1078
1052.30 0.1078
1052.40 0.1077
1052.50 0.1077
1052.60 0.1077
1052.70 0.1076
1052.80 0.1076
1052.90 0.1075
1053.00 0.1075
1053.10 0.1075
1053.20 0.1074
1053.30 0.1074
1053.40 0.1074
1053.50 0.1073
1053.60 0.1073
1053.70 0.1073
1053.80 0.1072
1053.90 0.1072
1054.00 0.1071
1054.10 0.1071
1054.20 0.1071
1054.30 0.107
1054.40 0.107
1054.50 0.107
1054.60 0.1069
1054.70 0.1069
1054.80 0.1068
1054.90 0.1068
1055.00 0.1068
1055.10 0.1067
1055.20 0.1067
1055.30 0.1067
1055.40 0.1066
1055.50 0.1066
1055.60 0.1066
1055.70 0.1065
1055.80 0.1065
1055.90 0.1064
1056.00 0.1064
1056.10 0.1064
1056.20 0.1063
1056.30 0.1063
1056.40 0.1063
1056.50 0.1062
1056.60 0.1062
1056.70 0.1062
1056.80 0.1061
1056.90 0.1061
1057.00 0.106
1057.10 0.106
1057.20 0.106
1057.30 0.1059
1057.40 0.1059
1057.50 0.1059
1057.60 0.1058
1057.70 0.1058
1057.80 0.1057
1057.90 0.1057
1058.00 0.1057
1058.10 0.1056
1058.20 0.1056
1058.30 0.1055
1058.40 0.1055
1058.50 0.1055
1058.60 0.1054
1058.70 0.1054
1058.80 0.1054
1058.90 0.1053
1059.00 0.1053
1059.10 0.1052
1059.20 0.1052
1059.30 0.1052
1059.40 0.1051
1059.50 0.1051
1059.60 0.1051
1059.70 0.105
1059.80 0.105
1059.90 0.1049
1060.00 0.1049
1060.10 0.1049
1060.20 0.1048
1060.30 0.1048
1060.40 0.1048
1060.50 0.1047
1060.60 0.1047
1060.70 0.1046
1060.80 0.1046
1060.90 0.1046
1061.00 0.1045
1061.10 0.1045
1061.20 0.1045
1061.30 0.1044
1061.40 0.1044
1061.50 0.1043
1061.60 0.1043
1061.70 0.1043
1061.80 0.1042
1061.90 0.1042
1062.00 0.1041
1062.10 0.1041
1062.20 0.1041
1062.30 0.104
1062.40 0.104
1062.50 0.1039
1062.60 0.1039
1062.70 0.1039
1062.80 0.1038
1062.90 0.1038
1063.00 0.1037
1063.10 0.1037
1063.20 0.1037
1063.30 0.1036
1063.40 0.1036
1063.50 0.1035
1063.60 0.1035
1063.70 0.1035
1063.80 0.1034
1063.90 0.1034
1064.00 0.1033
1064.10 0.1033
1064.20 0.1033
1064.30 0.1032
1064.40 0.1032
1064.50 0.1031
1064.60 0.1031
1064.70 0.1031
1064.80 0.103
1064.90 0.103
1065.00 0.1029
1065.10 0.1029
1065.20 0.1029
1065.30 0.1028
1065.40 0.1028
1065.50 0.1027
1065.60 0.1027
1065.70 0.1026
1065.80 0.1026
1065.90 0.1026
1066.00 0.1025
1066.10 0.1025
1066.20 0.1024
1066.30 0.1024
1066.40 0.1024
1066.50 0.1023
1066.60 0.1023
1066.70 0.1022
1066.80 0.1022
1066.90 0.1022
1067.00 0.1021
1067.10 0.1021
1067.20 0.102
1067.30 0.102
1067.40 0.1019
1067.50 0.1019
1067.60 0.1018
1067.70 0.1018
1067.80 0.1018
1067.90 0.1017
1068.00 0.1017
1068.10 0.1016
1068.20 0.1016
1068.30 0.1015
1068.40 0.1015
1068.50 0.1014
1068.60 0.1014
1068.70 0.1013
1068.80 0.1013
1068.90 0.1013
1069.00 0.1012
1069.10 0.1012
1069.20 0.1011
1069.30 0.1011
1069.40 0.101
1069.50 0.101
1069.60 0.1009
1069.70 0.1009
1069.80 0.1008
1069.90 0.1008
1070.00 0.1007
1070.10 0.1007
1070.20 0.1007
1070.30 0.1006
1070.40 0.1006
1070.50 0.1005
1070.60 0.1005
1070.70 0.1004
1070.80 0.1004
1070.90 0.1003
1071.00 0.1003
1071.10 0.1002
1071.20 0.1002
1071.30 0.1002
1071.40 0.1001
1071.50 0.1001
1071.60 0.1
1071.70 0.09997
1071.80 0.09993
1071.90 0.09988
1072.00 0.09983
1072.10 0.09978
1072.20 0.09973
1072.30 0.09968
1072.40 0.09963
1072.50 0.09958
1072.60 0.09952
1072.70 0.09947
1072.80 0.09942
1072.90 0.09937
1073.00 0.09932
1073.10 0.09927
1073.20 0.09922
1073.30 0.09916
1073.40 0.09911
1073.50 0.09906
1073.60 0.099
1073.70 0.09894
1073.80 0.09888
1073.90 0.09882
1074.00 0.09876
1074.10 0.0987
1074.20 0.09864
1074.30 0.09859
1074.40 0.09853
1074.50 0.09847
1074.60 0.09841
1074.70 0.09835
1074.80 0.09829
1074.90 0.09823
1075.00 0.09817
1075.10 0.09811
1075.20 0.09806
1075.30 0.098
1075.40 0.09794
1075.50 0.09788
1075.60 0.09782
1075.70 0.09776
1075.80 0.0977
1075.90 0.09764
1076.00 0.09759
1076.10 0.09753
1076.20 0.09747
1076.30 0.09741
1076.40 0.09735
1076.50 0.09729
1076.60 0.09723
1076.70 0.09718
1076.80 0.09712
1076.90 0.09706
1077.00 0.097
1077.10 0.09693
1077.20 0.09687
1077.30 0.0968
1077.40 0.09673
1077.50 0.09666
1077.60 0.09659
1077.70 0.09651
1077.80 0.09643
1077.90 0.09635
1078.00 0.09627
1078.10 0.09619
1078.20 0.09611
1078.30 0.09604
1078.40 0.09596
1078.50 0.09588
1078.60 0.0958
1078.70 0.09572
1078.80 0.09564
1078.90 0.09557
1079.00 0.09549
1079.10 0.09541
1079.20 0.09533
1079.30 0.09525
1079.40 0.09518
1079.50 0.09509
1079.60 0.095
1079.70 0.09491
1079.80 0.09481
1079.90 0.09472
1080.00 0.09462
1080.10 0.09453
1080.20 0.09444
1080.30 0.09434
1080.40 0.09425
1080.50 0.09416
1080.60 0.09406
1080.70 0.09397
1080.80 0.09387
1080.90 0.09378
1081.00 0.09369
1081.10 0.09359
1081.20 0.0935
1081.30 0.09341
1081.40 0.09331
1081.50 0.09322
1081.60 0.09311
1081.70 0.09301
1081.80 0.0929
1081.90 0.0928
1082.00 0.09269
1082.10 0.09257
1082.20 0.09245
1082.30 0.09233
1082.40 0.0922
1082.50 0.09208
1082.60 0.09196
1082.70 0.09184
1082.80 0.09172
1082.90 0.0916
1083.00 0.09147
1083.10 0.09135
1083.20 0.09123
1083.30 0.09111
1083.40 0.09099
1083.50 0.09086
1083.60 0.09072
1083.70 0.09058
1083.80 0.09044
1083.90 0.0903
1084.00 0.09017
1084.10 0.09003
1084.20 0.08989
1084.30 0.08975
1084.40 0.08961
1084.50 0.08946
1084.60 0.08929
1084.70 0.08911
1084.80 0.08894
1084.90 0.08876
1085.00 0.08859
1085.10 0.08841
1085.20 0.08824
1085.30 0.08807
1085.40 0.08789
1085.50 0.08772
1085.60 0.08754
1085.70 0.08737
1085.80 0.0872
1085.90 0.08702
1086.00 0.08685
1086.10 0.08667
1086.20 0.0865
1086.30 0.08633
1086.40 0.08615
1086.50 0.08597
1086.60 0.08577
1086.70 0.08557
1086.80 0.08537
1086.90 0.08517
1087.00 0.08497
1087.10 0.08473
1087.20 0.0845
1087.30 0.08427
1087.40 0.08403
1087.50 0.0838
1087.60 0.08356
1087.70 0.08333
1087.80 0.0831
1087.90 0.08286
1088.00 0.08263
1088.10 0.0824
1088.20 0.08216
1088.30 0.08193
1088.40 0.0817
1088.50 0.08145
1088.60 0.08115
1088.70 0.08086
1088.80 0.08057
1088.90 0.08028
1089.00 0.07999
1089.10 0.07969
1089.20 0.0794
1089.30 0.07911
1089.40 0.07882
1089.50 0.07853
1089.60 0.07824
1089.70 0.07794
1089.80 0.07765
1089.90 0.07736
1090.00 0.07707
1090.10 0.07678
1090.20 0.07649
1090.30 0.0762
1090.40 0.07591
1090.50 0.07559
1090.60 0.07521
1090.70 0.07484
1090.80 0.07446
1090.90 0.07408
1091.00 0.07371
1091.10 0.07333
1091.20 0.07296
1091.30 0.07258
1091.40 0.0722
1091.50 0.07183
1091.60 0.07145
1091.70 0.07108
1091.80 0.0707
1091.90 0.07033
1092.00 0.06994
1092.10 0.06946
1092.20 0.06899
1092.30 0.06851
1092.40 0.06804
1092.50 0.06756
1092.60 0.06709
1092.70 0.06657
1092.80 0.06594
1092.90 0.06532
1093.00 0.06469
1093.10 0.06396
1093.20 0.06301
1093.30 0.06204
1093.40 0.06089
1093.50 0.06069
1093.60 0.06157
1093.70 0.06259
1093.80 0.0635
1093.90 0.06431
1094.00 0.06489
1094.10 0.06548
1094.20 0.06607
1094.30 0.06661
1094.40 0.06704
1094.50 0.06746
1094.60 0.06789
1094.70 0.06832
1094.80 0.06875
1094.90 0.06918
1095.00 0.06958
1095.10 0.0699
1095.20 0.07023
1095.30 0.07056
1095.40 0.07089
1095.50 0.07122
1095.60 0.07154
1095.70 0.07187
1095.80 0.0722
1095.90 0.07253
1096.00 0.07285
1096.10 0.07318
1096.20 0.07351
1096.30 0.07383
1096.40 0.07416
1096.50 0.07447
1096.60 0.07474
1096.70 0.07501
1096.80 0.07528
1096.90 0.07555
1097.00 0.07582
1097.10 0.07604
1097.20 0.07627
1097.30 0.07649
1097.40 0.07672
1097.50 0.07694
1097.60 0.07717
1097.70 0.07739
1097.80 0.07762
1097.90 0.07784
1098.00 0.07807
1098.10 0.07829
1098.20 0.07851
1098.30 0.07874
1098.40 0.07896
1098.50 0.07917
1098.60 0.07933
1098.70 0.0795
1098.80 0.07967
1098.90 0.07983
1099.00 0.08
1099.10 0.08016
1099.20 0.08033
1099.30 0.08049
1099.40 0.08066
1099.50 0.08083
1099.60 0.08099
1099.70 0.08116
1099.80 0.08132
1099.90 0.08149
1100.00 0.08165
1100.10 0.08182
1100.20 0.08198
1100.30 0.08215
1100.40 0.08231
1100.50 0.08246
1100.60 0.08258
1100.70 0.08269
1100.80 0.08281
1100.90 0.08293
1101.00 0.08304
1101.10 0.08316
1101.20 0.08327
1101.30 0.08339
1101.40 0.0835
1101.50 0.08362
1101.60 0.08374
1101.70 0.08385
1101.80 0.08397
1101.90 0.08408
1102.00 0.0842
1102.10 0.0843
1102.20 0.0844
1102.30 0.0845
1102.40 0.0846
1102.50 0.08469
1102.60 0.08477
1102.70 0.08484
1102.80 0.08492
1102.90 0.08499
1103.00 0.08507
1103.10 0.08515
1103.20 0.08522
1103.30 0.0853
1103.40 0.08537
1103.50 0.08544
1103.60 0.0855
1103.70 0.08555
1103.80 0.08561
1103.90 0.08566
1104.00 0.08572
1104.10 0.08577
1104.20 0.08582
1104.30 0.08588
1104.40 0.08593
1104.50 0.08599
1104.60 0.08604
1104.70 0.08609
1104.80 0.08615
1104.90 0.0862
1105.00 0.08626
1105.10 0.08631
1105.20 0.08637
1105.30 0.08642
1105.40 0.08647
1105.50 0.08652
1105.60 0.08655
1105.70 0.08659
1105.80 0.08662
1105.90 0.08666
1106.00 0.08669
1106.10 0.08672
1106.20 0.08676
1106.30 0.08679
1106.40 0.08682
1106.50 0.08686
1106.60 0.08689
1106.70 0.08693
1106.80 0.08696
1106.90 0.08699
1107.00 0.08703
1107.10 0.08705
1107.20 0.08707
1107.30 0.08709
1107.40 0.08711
1107.50 0.08713
1107.60 0.08714
1107.70 0.08715
1107.80 0.08717
1107.90 0.08718
1108.00 0.08719
1108.10 0.0872
1108.20 0.08722
1108.30 0.08723
1108.40 0.08724
1108.50 0.08725
1108.60 0.08727
1108.70 0.08728
1108.80 0.08729
1108.90 0.0873
1109.00 0.08731
1109.10 0.08733
1109.20 0.08734
1109.30 0.08735
1109.40 0.08736
1109.50 0.08737
1109.60 0.08738
1109.70 0.08738
1109.80 0.08738
1109.90 0.08738
1110.00 0.08738
1110.10 0.08738
1110.20 0.08739
1110.30 0.08739
1110.40 0.08739
1110.50 0.08739
1110.60 0.08739
1110.70 0.08739
1110.80 0.0874
1110.90 0.0874
1111.00 0.0874
1111.10 0.0874
1111.20 0.0874
1111.30 0.08741
1111.40 0.08741
1111.50 0.08741
1111.60 0.08741
1111.70 0.08741
1111.80 0.08741
1111.90 0.08742
1112.00 0.08742
1112.10 0.08741
1112.20 0.0874
1112.30 0.0874
1112.40 0.08739
1112.50 0.08738
1112.60 0.08738
1112.70 0.08737
1112.80 0.08736
1112.90 0.08735
1113.00 0.08735
1113.10 0.08734
1113.20 0.08733
1113.30 0.08733
1113.40 0.08732
1113.50 0.08731
1113.60 0.0873
1113.70 0.08729
1113.80 0.08727
1113.90 0.08726
1114.00 0.08725
1114.10 0.08724
1114.20 0.08722
1114.30 0.08721
1114.40 0.0872
1114.50 0.08719
1114.60 0.08718
1114.70 0.08716
1114.80 0.08715
1114.90 0.08714
1115.00 0.08713
1115.10 0.08712
1115.20 0.0871
1115.30 0.08709
1115.40 0.08708
1115.50 0.08707
1115.60 0.08705
1115.70 0.08704
1115.80 0.08703
1115.90 0.08702
1116.00 0.08701
1116.10 0.08699
1116.20 0.08698
1116.30 0.08697
1116.40 0.08696
1116.50 0.08695
1116.60 0.08693
1116.70 0.08692
1116.80 0.08691
1116.90 0.0869
1117.00 0.08689
1117.10 0.08687
1117.20 0.08685
1117.30 0.08683
1117.40 0.08681
1117.50 0.08679
1117.60 0.08677
1117.70 0.08675
1117.80 0.08673
1117.90 0.08671
1118.00 0.08669
1118.10 0.08667
1118.20 0.08665
1118.30 0.08664
1118.40 0.08662
1118.50 0.0866
1118.60 0.08658
1118.70 0.08656
1118.80 0.08654
1118.90 0.08652
1119.00 0.0865
1119.10 0.08648
1119.20 0.08646
1119.30 0.08644
1119.40 0.08643
1119.50 0.08641
1119.60 0.08639
1119.70 0.08637
1119.80 0.08635
1119.90 0.08633
1120.00 0.08631
1120.10 0.08629
1120.20 0.08627
1120.30 0.08625
1120.40 0.08623
1120.50 0.08622
1120.60 0.0862
1120.70 0.08618
1120.80 0.08616
1120.90 0.08614
1121.00 0.08612
1121.10 0.0861
1121.20 0.08608
1121.30 0.08606
1121.40 0.08604
1121.50 0.08603
1121.60 0.08601
1121.70 0.08599
1121.80 0.08597
1121.90 0.08595
1122.00 0.08593
1122.10 0.08591
1122.20 0.08589
1122.30 0.08586
1122.40 0.08584
1122.50 0.08582
1122.60 0.0858
1122.70 0.08577
1122.80 0.08575
1122.90 0.08573
1123.00 0.08571
1123.10 0.08569
1123.20 0.08566
1123.30 0.08564
1123.40 0.08562
1123.50 0.0856
1123.60 0.08558
1123.70 0.08555
1123.80 0.08553
1123.90 0.08551
1124.00 0.08549
1124.10 0.08546
1124.20 0.08544
1124.30 0.08542
1124.40 0.0854
1124.50 0.08538
1124.60 0.08535
1124.70 0.08533
1124.80 0.08531
1124.90 0.08529
1125.00 0.08527
1125.10 0.08524
1125.20 0.08522
1125.30 0.0852
1125.40 0.08518
1125.50 0.08516
1125.60 0.08513
1125.70 0.08511
1125.80 0.08509
1125.90 0.08507
1126.00 0.08505
1126.10 0.08502
1126.20 0.085
1126.30 0.08498
1126.40 0.08496
1126.50 0.08494
1126.60 0.08491
1126.70 0.08489
1126.80 0.08487
1126.90 0.08485
1127.00 0.08483
1127.10 0.0848
1127.20 0.08478
1127.30 0.08475
1127.40 0.08473
1127.50 0.08471
1127.60 0.08468
1127.70 0.08466
1127.80 0.08464
1127.90 0.08461
1128.00 0.08459
1128.10 0.08456
1128.20 0.08454
1128.30 0.08452
1128.40 0.08449
1128.50 0.08447
1128.60 0.08445
1128.70 0.08442
1128.80 0.0844
1128.90 0.08437
1129.00 0.08435
1129.10 0.08433
1129.20 0.0843
1129.30 0.08428
1129.40 0.08426
1129.50 0.08423
1129.60 0.08421
1129.70 0.08418
1129.80 0.08416
1129.90 0.08414
1130.00 0.08411
1130.10 0.08409
1130.20 0.08407
1130.30 0.08404
1130.40 0.08402
1130.50 0.084
1130.60 0.08397
1130.70 0.08395
1130.80 0.08393
1130.90 0.0839
1131.00 0.08388
1131.10 0.08385
1131.20 0.08383
1131.30 0.08381
1131.40 0.08378
1131.50 0.08376
1131.60 0.08374
1131.70 0.08371
1131.80 0.08369
1131.90 0.08367
1132.00 0.08364
1132.10 0.08362
1132.20 0.08359
1132.30 0.08357
1132.40 0.08355
1132.50 0.08352
1132.60 0.0835
1132.70 0.08347
1132.80 0.08345
1132.90 0.08342
1133.00 0.0834
1133.10 0.08337
1133.20 0.08335
1133.30 0.08333
1133.40 0.0833
1133.50 0.08328
1133.60 0.08325
1133.70 0.08323
1133.80 0.0832
1133.90 0.08318
1134.00 0.08316
1134.10 0.08313
1134.20 0.08311
1134.30 0.08308
1134.40 0.08306
1134.50 0.08304
1134.60 0.08301
1134.70 0.08299
1134.80 0.08296
1134.90 0.08294
1135.00 0.08291
1135.10 0.08289
1135.20 0.08287
1135.30 0.08284
1135.40 0.08282
1135.50 0.08279
1135.60 0.08277
1135.70 0.08275
1135.80 0.08272
1135.90 0.0827
1136.00 0.08267
1136.10 0.08265
1136.20 0.08262
1136.30 0.0826
1136.40 0.08258
1136.50 0.08255
1136.60 0.08253
1136.70 0.0825
1136.80 0.08248
1136.90 0.08246
1137.00 0.08243
1137.10 0.08241
1137.20 0.08238
1137.30 0.08236
1137.40 0.08233
1137.50 0.08231
1137.60 0.08229
1137.70 0.08226
1137.80 0.08224
1137.90 0.08221
1138.00 0.08219
1138.10 0.08216
1138.20 0.08214
1138.30 0.08212
1138.40 0.08209
1138.50 0.08207
1138.60 0.08204
1138.70 0.08202
1138.80 0.08199
1138.90 0.08197
1139.00 0.08194
1139.10 0.08192
1139.20 0.0819
1139.30 0.08187
1139.40 0.08185
1139.50 0.08182
1139.60 0.0818
1139.70 0.08177
1139.80 0.08175
1139.90 0.08173
1140.00 0.0817
1140.10 0.08168
1140.20 0.08165
1140.30 0.08163
1140.40 0.08161
1140.50 0.08158
1140.60 0.08156
1140.70 0.08153
1140.80 0.08151
1140.90 0.08148
1141.00 0.08146
1141.10 0.08144
1141.20 0.08141
1141.30 0.08139
1141.40 0.08136
1141.50 0.08134
1141.60 0.08132
1141.70 0.08129
1141.80 0.08127
1141.90 0.08124
1142.00 0.08122
1142.10 0.08119
1142.20 0.08117
1142.30 0.08115
1142.40 0.08112
1142.50 0.0811
1142.60 0.08107
1142.70 0.08105
1142.80 0.08102
1142.90 0.081
1143.00 0.08098
1143.10 0.08095
1143.20 0.08093
1143.30 0.0809
1143.40 0.08088
1143.50 0.08086
1143.60 0.08083
1143.70 0.08081
1143.80 0.08078
1143.90 0.08076
1144.00 0.08073
1144.10 0.08071
1144.20 0.08069
1144.30 0.08066
1144.40 0.08064
1144.50 0.08061
1144.60 0.08059
1144.70 0.08057
1144.80 0.08054
1144.90 0.08052
1145.00 0.08049
1145.10 0.08047
1145.20 0.08044
1145.30 0.08042
1145.40 0.0804
1145.50 0.08037
1145.60 0.08035
1145.70 0.08032
1145.80 0.0803
1145.90 0.08028
1146.00 0.08025
1146.10 0.08023
1146.20 0.0802
1146.30 0.08018
1146.40 0.08016
1146.50 0.08013
1146.60 0.08011
1146.70 0.08008
1146.80 0.08006
1146.90 0.08004
1147.00 0.08001
1147.10 0.07999
1147.20 0.07996
1147.30 0.07994
1147.40 0.07992
1147.50 0.07989
1147.60 0.07987
1147.70 0.07984
1147.80 0.07982
1147.90 0.0798
1148.00 0.07977
1148.10 0.07975
1148.20 0.07972
1148.30 0.0797
1148.40 0.07968
1148.50 0.07965
1148.60 0.07963
1148.70 0.0796
1148.80 0.07958
1148.90 0.07956
1149.00 0.07953
1149.10 0.07951
1149.20 0.07948
1149.30 0.07946
1149.40 0.07944
1149.50 0.07941
1149.60 0.07939
1149.70 0.07936
1149.80 0.07934
1149.90 0.07932
1150.00 0.07929
1150.10 0.07927
1150.20 0.07924
1150.30 0.07922
1150.40 0.0792
1150.50 0.07917
1150.60 0.07915
1150.70 0.07912
1150.80 0.0791
1150.90 0.07908
1151.00 0.07905
1151.10 0.07903
1151.20 0.07901
1151.30 0.07898
1151.40 0.07896
1151.50 0.07893
1151.60 0.07891
1151.70 0.07889
1151.80 0.07886
1151.90 0.07884
1152.00 0.07882
1152.10 0.07879
1152.20 0.07877
1152.30 0.07874
1152.40 0.07872
1152.50 0.0787
1152.60 0.07867
1152.70 0.07865
1152.80 0.07863
1152.90 0.0786
1153.00 0.07858
1153.10 0.07855
1153.20 0.07853
1153.30 0.07851
1153.40 0.07848
1153.50 0.07846
1153.60 0.07844
1153.70 0.07841
1153.80 0.07839
1153.90 0.07836
1154.00 0.07834
1154.10 0.07832
1154.20 0.07829
1154.30 0.07827
1154.40 0.07825
1154.50 0.07822
1154.60 0.0782
1154.70 0.07818
1154.80 0.07815
1154.90 0.07813
1155.00 0.07811
1155.10 0.07808
1155.20 0.07806
1155.30 0.07803
1155.40 0.07801
1155.50 0.07799
1155.60 0.07796
1155.70 0.07794
1155.80 0.07792
1155.90 0.07789
1156.00 0.07787
1156.10 0.07785
1156.20 0.07782
1156.30 0.0778
1156.40 0.07778
1156.50 0.07775
1156.60 0.07773
1156.70 0.07771
1156.80 0.07768
1156.90 0.07766
1157.00 0.07764
1157.10 0.07761
1157.20 0.07759
1157.30 0.07757
1157.40 0.07754
1157.50 0.07752
1157.60 0.07749
1157.70 0.07747
1157.80 0.07745
1157.90 0.07742
1158.00 0.0774
1158.10 0.07738
1158.20 0.07735
1158.30 0.07733
1158.40 0.07731
1158.50 0.07728
1158.60 0.07726
1158.70 0.07724
1158.80 0.07721
1158.90 0.07719
1159.00 0.07717
1159.10 0.07714
1159.20 0.07712
1159.30 0.0771
1159.40 0.07708
1159.50 0.07705
1159.60 0.07703
1159.70 0.07701
1159.80 0.07698
1159.90 0.07696
1160.00 0.07694
1160.10 0.07691
1160.20 0.07689
1160.30 0.07687
1160.40 0.07684
1160.50 0.07682
1160.60 0.0768
1160.70 0.07677
1160.80 0.07675
1160.90 0.07673
1161.00 0.0767
1161.10 0.07668
1161.20 0.07666
1161.30 0.07663
1161.40 0.07661
1161.50 0.07659
1161.60 0.07657
1161.70 0.07654
1161.80 0.07652
1161.90 0.0765
1162.00 0.07647
1162.10 0.07645
1162.20 0.07643
1162.30 0.0764
1162.40 0.07638
1162.50 0.07636
1162.60 0.07633
1162.70 0.07631
1162.80 0.07629
1162.90 0.07627
1163.00 0.07624
1163.10 0.07622
1163.20 0.0762
1163.30 0.07617
1163.40 0.07615
1163.50 0.07613
1163.60 0.0761
1163.70 0.07608
1163.80 0.07606
1163.90 0.07604
1164.00 0.07601
1164.10 0.07599
1164.20 0.07597
1164.30 0.07594
1164.40 0.07592
1164.50 0.0759
1164.60 0.07588
1164.70 0.07585
1164.80 0.07583
1164.90 0.07581
1165.00 0.07578
1165.10 0.07576
1165.20 0.07574
1165.30 0.07571
1165.40 0.07569
1165.50 0.07567
1165.60 0.07565
1165.70 0.07562
1165.80 0.0756
1165.90 0.07558
1166.00 0.07556
1166.10 0.07553
1166.20 0.07551
1166.30 0.07549
1166.40 0.07546
1166.50 0.07544
1166.60 0.07542
1166.70 0.0754
1166.80 0.07537
1166.90 0.07535
1167.00 0.07533
1167.10 0.0753
1167.20 0.07528
1167.30 0.07526
1167.40 0.07524
1167.50 0.07521
1167.60 0.07519
1167.70 0.07517
1167.80 0.07515
1167.90 0.07512
1168.00 0.0751
1168.10 0.07508
1168.20 0.07506
1168.30 0.07503
1168.40 0.07501
1168.50 0.07499
1168.60 0.07496
1168.70 0.07494
1168.80 0.07492
1168.90 0.0749
1169.00 0.07487
1169.10 0.07485
1169.20 0.07483
1169.30 0.07481
1169.40 0.07478
1169.50 0.07476
1169.60 0.07474
1169.70 0.07472
1169.80 0.07469
1169.90 0.07467
1170.00 0.07465
1170.10 0.07463
1170.20 0.0746
1170.30 0.07458
1170.40 0.07456
1170.50 0.07454
1170.60 0.07451
1170.70 0.07449
1170.80 0.07447
1170.90 0.07445
1171.00 0.07442
1171.10 0.0744
1171.20 0.07438
1171.30 0.07436
1171.40 0.07433
1171.50 0.07431
1171.60 0.07429
1171.70 0.07427
1171.80 0.07424
1171.90 0.07422
1172.00 0.0742
1172.10 0.07418
1172.20 0.07415
1172.30 0.07413
1172.40 0.07411
1172.50 0.07409
1172.60 0.07406
1172.70 0.07404
1172.80 0.07402
1172.90 0.074
1173.00 0.07398
1173.10 0.07395
1173.20 0.07393
1173.30 0.07391
1173.40 0.07389
1173.50 0.07386
1173.60 0.07384
1173.70 0.07382
1173.80 0.0738
1173.90 0.07378
1174.00 0.07375
1174.10 0.07373
1174.20 0.07371
1174.30 0.07369
1174.40 0.07366
1174.50 0.07364
1174.60 0.07362
1174.70 0.0736
1174.80 0.07358
1174.90 0.07355
1175.00 0.07353
1175.10 0.07351
1175.20 0.07349
1175.30 0.07346
1175.40 0.07344
1175.50 0.07342
1175.60 0.0734
1175.70 0.07338
1175.80 0.07335
1175.90 0.07333
1176.00 0.07331
1176.10 0.07329
1176.20 0.07327
1176.30 0.07324
1176.40 0.07322
1176.50 0.0732
1176.60 0.07318
1176.70 0.07316
1176.80 0.07313
1176.90 0.07311
1177.00 0.07309
1177.10 0.07307
1177.20 0.07305
1177.30 0.07302
1177.40 0.073
1177.50 0.07298
1177.60 0.07296
1177.70 0.07294
1177.80 0.07291
1177.90 0.07289
1178.00 0.07287
1178.10 0.07285
1178.20 0.07283
1178.30 0.0728
1178.40 0.07278
1178.50 0.07276
1178.60 0.07274
1178.70 0.07272
1178.80 0.0727
1178.90 0.07267
1179.00 0.07265
1179.10 0.07263
1179.20 0.07261
1179.30 0.07259
1179.40 0.07257
1179.50 0.07254
1179.60 0.07252
1179.70 0.0725
1179.80 0.07248
1179.90 0.07246
1180.00 0.07243
1180.10 0.07241
1180.20 0.07239
1180.30 0.07237
1180.40 0.07235
1180.50 0.07233
1180.60 0.0723
1180.70 0.07228
1180.80 0.07226
1180.90 0.07224
1181.00 0.07222
1181.10 0.0722
1181.20 0.07217
1181.30 0.07215
1181.40 0.07213
1181.50 0.07211
1181.60 0.07209
1181.70 0.07207
1181.80 0.07204
1181.90 0.07202
1182.00 0.072
1182.10 0.07198
1182.20 0.07196
1182.30 0.07194
1182.40 0.07191
1182.50 0.07189
1182.60 0.07187
1182.70 0.07185
1182.80 0.07183
1182.90 0.07181
1183.00 0.07179
1183.10 0.07176
1183.20 0.07174
1183.30 0.07172
1183.40 0.0717
1183.50 0.07168
1183.60 0.07166
1183.70 0.07163
1183.80 0.07161
1183.90 0.07159
1184.00 0.07157
1184.10 0.07155
1184.20 0.07153
1184.30 0.07151
1184.40 0.07148
1184.50 0.07146
1184.60 0.07144
1184.70 0.07142
1184.80 0.0714
1184.90 0.07138
1185.00 0.07136
1185.10 0.07133
1185.20 0.07131
1185.30 0.07129
1185.40 0.07127
1185.50 0.07125
1185.60 0.07123
1185.70 0.07121
1185.80 0.07118
1185.90 0.07116
1186.00 0.07114
1186.10 0.07112
1186.20 0.0711
1186.30 0.07108
1186.40 0.07106
1186.50 0.07104
1186.60 0.07101
1186.70 0.07099
1186.80 0.07097
1186.90 0.07095
1187.00 0.07093
1187.10 0.07091
1187.20 0.07089
1187.30 0.07087
1187.40 0.07084
1187.50 0.07082
1187.60 0.0708
1187.70 0.07078
1187.80 0.07076
1187.90 0.07074
1188.00 0.07072
1188.10 0.0707
1188.20 0.07067
1188.30 0.07065
1188.40 0.07063
1188.50 0.07061
1188.60 0.07059
1188.70 0.07057
1188.80 0.07055
1188.90 0.07053
1189.00 0.0705
1189.10 0.07048
1189.20 0.07046
1189.30 0.07044
1189.40 0.07042
1189.50 0.0704
1189.60 0.07038
1189.70 0.07036
1189.80 0.07034
1189.90 0.07031
1190.00 0.07029
1190.10 0.07027
1190.20 0.07025
1190.30 0.07023
1190.40 0.07021
1190.50 0.07019
1190.60 0.07017
1190.70 0.07015
1190.80 0.07012
1190.90 0.0701
1191.00 0.07008
1191.10 0.07006
1191.20 0.07004
1191.30 0.07002
1191.40 0.07
1191.50 0.06998
1191.60 0.06996
1191.70 0.06994
1191.80 0.06991
1191.90 0.06989
1192.00 0.06987
1192.10 0.06985
1192.20 0.06983
1192.30 0.06981
1192.40 0.06979
1192.50 0.06977
1192.60 0.06975
1192.70 0.06973
1192.80 0.06971
1192.90 0.06968
1193.00 0.06966
1193.10 0.06964
1193.20 0.06962
1193.30 0.0696
1193.40 0.06958
1193.50 0.06956
1193.60 0.06954
1193.70 0.06952
1193.80 0.0695
1193.90 0.06948
1194.00 0.06946
1194.10 0.06944
1194.20 0.06941
1194.30 0.06939
1194.40 0.06937
1194.50 0.06935
1194.60 0.06933
1194.70 0.06931
1194.80 0.06929
1194.90 0.06927
1195.00 0.06925
1195.10 0.06923
1195.20 0.06921
1195.30 0.06919
1195.40 0.06917
1195.50 0.06915
1195.60 0.06912
1195.70 0.0691
1195.80 0.06908
1195.90 0.06906
1196.00 0.06904
1196.10 0.06902
1196.20 0.069
1196.30 0.06898
1196.40 0.06896
1196.50 0.06894
1196.60 0.06892
1196.70 0.0689
1196.80 0.06888
1196.90 0.06886
1197.00 0.06884
1197.10 0.06882
1197.20 0.06879
1197.30 0.06877
1197.40 0.06875
1197.50 0.06873
1197.60 0.06871
1197.70 0.06869
1197.80 0.06867
1197.90 0.06865
1198.00 0.06863
1198.10 0.06861
1198.20 0.06859
1198.30 0.06857
1198.40 0.06855
1198.50 0.06853
1198.60 0.06851
1198.70 0.06849
1198.80 0.06847
1198.90 0.06845
1199.00 0.06843
1199.10 0.06841
1199.20 0.06839
1199.30 0.06837
1199.40 0.06834
1199.50 0.06832
1199.60 0.0683
1199.70 0.06828
1199.80 0.06826
1199.90 0.06824
1200.00 0
